DTS Sentinel unit serial number:	SN413079Multiplexer serial number:	ORYXHardware model number:	OX4-SRSoftware version number:	ORYX F/W v4.00 Oryx Data Collector v3.7.2.0data status	okinstallation	princeton_trtdifferential loss correction	single-endedforward channel	channel 1reverse channel	N/Adate	2019/09/19time	09:54:35forward acquisition time	60.00reverse acquisition time	0.00gamma	496.2192k internal	0.2339k external	0.2339temperature offset calibration	1.0005default loss term (dB/km)	0.3790temperature slope calibration	1.0000multiplexer offset coefficient	1.0000multiplexer slope coefficient	1.0000fibre end	0.00T internal ref (°C)	23.56T ext. ref 1 (°C)	0.66T ext. ref 2 (°C)	19.42length (m)	temperature (°C)	Stokes	anti-Stokes-747.200	-132.379	0.317	-0.041
-746.185	148.647	0.095	0.129
-745.171	144.885	-0.039	-0.052
-744.156	44.156	-0.284	0.261
-743.142	157.975	0.073	-0.102
-742.127	381.157	0.087	0.180
-741.112	-66.904	0.467	0.185
-740.098	-83.787	0.150	0.048
-739.083	-200.000	0.014	-0.196
-738.069	-200.000	-0.018	0.162
-737.054	-200.000	-0.011	-0.147
-736.039	-40.114	-0.109	-0.057
-735.025	800.000	-0.057	0.231
-734.010	52.021	-0.083	0.079
-732.996	166.312	0.045	0.063
-731.981	-188.563	0.127	0.002
-730.966	800.000	-0.063	-0.193
-729.952	-200.000	-0.035	0.236
-728.937	25.465	-0.238	-0.199
-727.923	-200.000	-0.016	-0.122
-726.908	683.692	0.092	-0.241
-725.894	-2.360	-0.273	-0.192
-724.879	-123.399	0.149	0.024
-723.864	-77.823	-0.352	0.122
-722.850	-83.558	0.227	0.073
-721.835	800.000	0.066	-0.212
-720.821	89.916	-0.106	0.119
-719.806	-41.007	0.052	-0.027
-718.791	263.871	0.082	0.143
-717.777	708.862	0.037	-0.098
-716.762	800.000	-0.039	-0.157
-715.748	800.000	0.043	-0.135
-714.733	-200.000	0.009	-0.129
-713.718	-91.357	0.223	0.064
-712.704	-13.433	0.195	-0.127
-711.689	-130.337	0.091	0.012
-710.675	800.000	0.015	-0.049
-709.660	-150.891	-0.161	-0.012
-708.645	-121.608	0.270	-0.045
-707.631	-200.000	-0.036	0.436
-706.616	-31.196	0.213	-0.120
-705.602	-56.852	-0.322	-0.142
-704.587	-200.000	0.020	-0.253
-703.572	120.759	-0.213	0.265
-702.558	-89.505	-0.216	-0.063
-701.543	-9.526	-0.254	0.170
-700.529	-200.000	0.003	-0.052
-699.514	-139.642	0.183	0.020
-698.499	453.817	-0.128	0.285
-697.485	-200.000	-0.007	-0.208
-696.470	23.992	0.256	0.211
-695.456	-76.116	0.265	0.094
-694.441	-10.792	0.213	0.141
-693.426	-81.758	-0.235	-0.077
-692.412	160.904	0.102	-0.143
-691.397	-200.000	0.026	-0.281
-690.383	-76.877	0.263	-0.092
-689.368	-73.824	-0.473	-0.172
-688.354	-200.000	0.000	-0.165
-687.339	-81.339	-0.329	-0.109
-686.324	171.107	0.091	0.131
-685.310	773.416	0.107	0.292
-684.295	800.000	-0.043	-0.169
-683.281	-151.360	-0.206	-0.015
-682.266	36.880	0.204	-0.180
-681.251	-200.000	-0.012	-0.342
-680.237	-58.063	0.052	-0.022
-679.222	800.000	-0.010	0.029
-678.208	181.126	0.161	-0.237
-677.193	-189.790	-0.491	0.006
-676.178	-81.758	-0.295	-0.097
-675.164	-32.217	0.234	-0.131
-674.149	-130.261	-0.232	-0.032
-673.135	800.000	-0.057	-0.214
-672.120	-200.000	0.047	0.451
-671.105	-39.844	0.223	0.116
-670.091	-200.000	-0.048	0.228
-669.076	35.224	0.055	0.048
-668.062	-165.503	-0.162	0.007
-667.047	130.937	-0.030	-0.038
-666.032	200.479	-0.113	0.173
-665.018	368.919	0.098	-0.199
-664.003	-200.000	0.019	-0.160
-662.989	-200.000	-0.013	0.217
-661.974	-115.240	-0.218	-0.041
-660.959	132.957	0.117	0.151
-659.945	220.553	0.138	0.221
-658.930	-200.000	0.022	0.190
-657.916	-99.646	0.408	0.102
-656.901	800.000	0.070	-0.278
-655.886	62.290	0.211	-0.210
-654.872	-156.998	0.279	0.017
-653.857	47.357	-0.069	-0.064
-652.843	-200.000	-0.002	-0.221
-651.828	473.913	0.126	0.284
-650.814	39.142	0.187	-0.167
-649.799	-67.303	-0.178	0.070
-648.784	-152.801	-0.032	-0.002
-647.770	24.518	-0.163	-0.134
-646.755	-200.000	0.010	0.232
-645.741	800.000	-0.062	-0.189
-644.726	800.000	-0.061	-0.183
-643.711	-97.071	-0.284	-0.074
-642.697	-32.803	0.292	0.162
-641.682	-56.968	-0.303	0.133
-640.668	-18.530	0.081	0.050
-639.653	-7.103	0.167	-0.113
-638.638	-200.000	-0.052	-0.479
-637.624	-161.506	-0.264	-0.014
-636.609	-104.814	0.185	-0.042
-635.595	800.000	-0.043	0.174
-634.580	-108.792	0.177	-0.038
-633.565	203.596	-0.103	-0.160
-632.551	-75.033	-0.202	-0.072
-631.536	-84.330	-0.429	-0.136
-630.522	-150.168	-0.258	0.020
-629.507	-61.910	-0.113	-0.047
-628.492	-61.140	0.095	0.040
-627.478	-50.833	0.220	0.103
-626.463	348.137	0.115	0.227
-625.449	-127.295	-0.174	-0.025
-624.434	-43.944	-0.229	-0.115
-623.419	383.811	0.084	0.173
-622.405	62.273	0.111	-0.110
-621.390	800.000	0.069	-0.198
-620.376	60.252	-0.118	0.117
-619.361	23.056	0.372	0.304
-618.346	163.634	0.146	0.205
-617.332	-200.000	0.026	-0.116
-616.317	-200.000	-0.017	-0.102
-615.303	-92.696	-0.266	-0.074
-614.288	-52.597	0.162	-0.075
-613.273	40.839	0.035	-0.031
-612.259	-148.085	-0.220	0.018
-611.244	-94.268	-0.321	0.088
-610.230	-143.720	0.368	-0.035
-609.215	151.435	0.262	-0.356
-608.201	800.000	-0.097	0.335
-607.186	393.180	-0.033	-0.069
-606.171	51.824	0.190	-0.180
-605.157	43.268	-0.045	-0.041
-604.142	430.535	-0.113	0.244
-603.128	-130.613	0.249	-0.033
-602.113	552.809	0.064	-0.154
-601.098	-62.939	-0.303	0.125
-600.084	-73.683	0.310	0.113
-599.069	260.652	-0.176	0.304
-598.055	355.872	0.071	-0.141
-597.040	-200.000	0.037	0.210
-596.025	800.000	-0.054	0.208
-595.011	-17.633	-0.361	0.226
-593.996	-16.523	-0.212	-0.134
-592.982	-200.000	0.009	-0.087
-591.967	83.662	-0.151	0.164
-590.952	714.616	-0.042	0.111
-589.938	-113.216	-0.053	0.010
-588.923	-200.000	-0.060	0.326
-587.909	-78.408	-0.097	-0.033
-586.894	91.779	-0.141	0.159
-585.879	-51.588	-0.210	0.098
-584.865	181.776	-0.102	-0.150
-583.850	315.725	0.120	0.226
-582.836	-62.912	0.064	-0.026
-581.821	604.337	0.075	0.187
-580.806	-29.211	-0.248	0.142
-579.792	-71.848	0.133	-0.050
-578.777	442.493	-0.106	0.231
-577.763	-142.165	-0.064	-0.006
-576.748	161.943	-0.122	-0.170
-575.733	337.003	0.069	0.133
-574.719	65.550	0.267	-0.269
-573.704	-145.187	-0.160	-0.014
-572.690	-90.557	0.070	0.020
-571.675	800.000	0.045	0.131
-570.661	-147.230	0.220	0.019
-569.646	-200.000	0.000	0.144
-568.631	112.435	0.117	0.140
-567.617	142.813	0.061	-0.080
-566.602	256.648	0.188	-0.321
-565.588	71.600	-0.021	0.021
-564.573	477.687	-0.155	-0.349
-563.558	85.663	0.129	-0.141
-562.544	-76.775	0.259	-0.090
-561.529	-79.362	0.207	0.070
-560.515	-90.815	-0.179	-0.051
-559.500	-123.109	0.136	-0.022
-558.485	-128.265	0.501	0.071
-557.471	359.021	0.218	0.433
-556.456	-44.608	0.266	-0.133
-555.442	-136.090	0.382	-0.045
-554.427	-107.517	-0.376	-0.082
-553.412	-180.700	-0.090	-0.002
-552.398	-200.000	-0.079	0.466
-551.383	-146.712	0.275	0.024
-550.369	49.199	-0.212	-0.198
-549.354	800.000	0.101	0.349
-548.339	-72.399	0.007	-0.003
-547.325	126.894	0.178	0.224
-546.310	-117.241	-0.124	0.022
-545.296	79.025	0.259	-0.275
-544.281	198.989	-0.066	0.101
-543.266	-200.000	0.057	-0.283
-542.252	-200.000	0.058	-0.278
-541.237	229.089	0.189	0.307
-540.223	-136.724	-0.288	-0.033
-539.208	164.455	-0.070	-0.098
-538.193	-200.000	0.026	-0.210
-537.179	-158.152	0.419	-0.024
-536.164	156.212	-0.132	-0.181
-535.150	-200.000	0.000	0.196
-534.135	-165.397	-0.243	-0.011
-533.121	-199.379	-0.245	0.001
-532.106	-89.830	-0.081	-0.024
-531.091	-87.637	-0.277	-0.083
-530.077	-53.094	0.189	0.086
-529.062	-71.336	-0.381	0.142
-528.048	-200.000	0.036	0.430
-527.033	-24.143	-0.114	0.068
-526.018	10.907	0.239	-0.181
-525.004	-90.135	-0.437	-0.126
-523.989	-200.000	0.010	-0.139
-522.975	276.008	0.060	-0.106
-521.960	-99.599	-0.061	0.015
-520.945	-200.000	-0.042	-0.244
-519.931	152.998	0.042	0.057
-518.916	65.953	-0.209	-0.211
-517.902	-200.000	-0.045	-0.288
-516.887	136.484	0.294	-0.382
-515.872	-126.140	-0.217	0.032
-514.858	800.000	0.049	-0.182
-513.843	800.000	-0.091	0.288
-512.829	123.084	0.188	-0.234
-511.814	510.336	0.109	0.253
-510.799	14.746	-0.389	0.302
-509.785	-41.463	0.063	0.032
-508.770	-36.890	0.232	0.124
-507.756	-33.314	0.111	0.061
-506.741	207.736	-0.074	0.114
-505.726	-200.000	0.043	-0.213
-504.712	98.202	-0.191	-0.219
-503.697	338.416	-0.043	-0.083
-502.683	-123.665	-0.077	-0.012
-501.668	145.829	0.189	-0.252
-500.653	-66.995	-0.356	0.139
-499.639	222.797	0.122	0.196
-498.624	-5.268	0.072	0.049
-497.610	800.000	0.094	0.359
-496.595	-44.761	-0.344	0.171
-495.581	-0.092	0.198	-0.140
-494.566	109.943	0.114	-0.136
-493.551	-200.000	0.013	0.322
-492.537	164.806	0.145	0.203
-491.522	-160.078	0.196	-0.011
-490.508	197.756	0.038	0.058
-489.493	169.067	0.251	0.356
-488.478	66.072	-0.248	-0.249
-487.464	-200.000	-0.018	-0.296
-486.449	313.959	-0.165	-0.308
-485.435	-91.275	-0.439	0.125
-484.420	604.122	-0.128	-0.316
-483.405	-112.965	-0.137	-0.027
-482.391	800.000	-0.046	-0.150
-481.376	-83.177	-0.137	0.044
-480.362	23.831	0.064	-0.053
-479.347	-200.000	-0.012	0.136
-478.332	69.040	0.107	0.109
-477.318	-137.995	0.192	0.021
-476.303	218.946	-0.126	-0.200
-475.289	-3.750	0.209	-0.144
-474.274	318.782	0.169	-0.318
-473.259	24.100	0.060	0.049
-472.245	789.358	-0.054	-0.146
-471.230	-129.148	-0.080	-0.011
-470.216	-135.645	0.103	0.012
-469.201	-89.352	-0.143	-0.042
-468.186	67.767	0.236	0.240
-467.172	143.484	0.231	0.305
-466.157	-131.846	0.195	0.025
-465.143	272.506	-0.132	-0.231
-464.128	50.300	0.129	0.121
-463.113	-87.950	0.444	-0.132
-462.099	-58.418	-0.216	0.093
-461.084	-172.485	-0.422	-0.013
-460.070	-12.037	-0.107	0.070
-459.055	-87.339	0.170	-0.051
-458.040	-200.000	0.026	0.136
-457.026	-200.000	0.005	0.031
-456.011	-200.000	0.011	-0.351
-454.997	-134.700	-0.394	0.047
-453.982	-80.816	0.378	0.124
-452.968	-40.602	0.367	-0.189
-451.953	800.000	0.037	-0.136
-450.938	-32.283	-0.362	-0.200
-449.924	-86.423	0.204	0.062
-448.909	-42.247	0.190	0.096
-447.895	-70.069	-0.320	0.121
-446.880	-4.230	-0.145	-0.100
-445.865	47.192	-0.091	0.084
-444.851	55.090	-0.126	-0.121
-443.836	-66.244	-0.309	0.122
-442.822	-73.128	-0.136	0.050
-441.807	188.787	-0.108	0.159
-440.792	-134.673	0.193	0.023
-439.778	-200.000	-0.015	-0.069
-438.763	429.522	-0.076	-0.162
-437.749	1.710	-0.188	-0.134
-436.734	98.131	-0.191	-0.218
-435.719	-65.027	0.187	0.075
-434.705	22.996	0.382	0.310
-433.690	205.738	-0.091	-0.140
-432.676	-125.750	-0.127	0.019
-431.661	-105.179	-0.052	-0.012
-430.646	-128.192	-0.146	-0.021
-429.632	-15.310	0.124	-0.079
-428.617	-136.778	-0.175	-0.020
-427.603	-200.000	0.036	-0.237
-426.588	800.000	0.069	0.269
-425.573	-59.315	-0.331	0.141
-424.559	258.399	-0.104	0.177
-423.544	-130.543	0.367	-0.049
-422.530	800.000	0.083	0.319
-421.515	268.504	-0.069	0.120
-420.500	645.516	-0.061	0.154
-419.486	5.347	0.101	-0.074
-418.471	104.822	-0.290	-0.339
-417.457	-64.509	0.181	-0.073
-416.442	-62.345	0.294	0.121
-415.428	203.836	0.091	-0.139
-414.413	-200.000	0.002	0.094
-413.398	-164.505	-0.200	0.009
-412.384	800.000	-0.024	-0.101
-411.369	-98.304	0.353	0.090
-410.355	-200.000	-0.003	-0.056
-409.340	144.178	0.248	0.327
-408.325	800.000	0.061	0.216
-407.311	-53.702	0.154	-0.070
-406.296	-137.383	-0.214	-0.024
-405.282	-199.808	0.070	-0.000
-404.267	-86.518	-0.214	0.065
-403.252	-168.398	-0.155	0.006
-402.238	-15.308	-0.230	0.146
-401.223	-200.000	-0.031	0.231
-400.209	-95.965	-0.085	-0.022
-399.194	13.130	0.169	0.129
-398.179	157.601	-0.175	-0.240
-397.165	-23.274	-0.291	-0.173
-396.150	-70.972	0.180	-0.067
-395.136	-93.224	-0.193	0.053
-394.121	61.724	-0.183	0.180
-393.106	-106.643	-0.018	-0.004
-392.092	-109.708	0.079	0.016
-391.077	-72.313	-0.099	0.036
-390.063	128.638	-0.230	0.289
-389.048	-105.731	0.281	-0.063
-388.033	-200.000	0.012	-0.199
-387.019	-50.465	-0.122	0.057
-386.004	-200.000	0.007	0.131
-384.990	196.737	-0.148	-0.224
-383.975	-15.691	0.303	-0.191
-382.960	-164.138	-0.226	0.010
-381.946	6.537	0.191	0.140
-380.931	-200.000	-0.042	0.186
-379.917	-181.310	0.277	-0.005
-378.902	52.746	0.212	0.200
-377.888	800.000	-0.043	0.158
-376.873	118.239	0.210	0.256
-375.858	22.729	0.128	-0.104
-374.844	-64.024	-0.176	-0.071
-373.829	-76.793	0.318	0.110
-372.815	800.000	0.110	0.469
-371.800	-35.542	0.032	0.017
-370.785	-48.693	-0.307	0.146
-369.771	560.237	-0.013	-0.031
-368.756	3.367	0.084	0.060
-367.742	651.335	-0.071	0.179
-366.727	800.000	0.048	-0.147
-365.712	98.407	-0.084	-0.095
-364.698	-26.510	0.203	0.118
-363.683	208.283	-0.132	-0.203
-362.669	54.351	-0.319	0.303
-361.654	-11.495	0.075	0.049
-360.639	-76.811	-0.065	-0.022
-359.625	41.011	-0.405	-0.361
-358.610	156.719	0.227	-0.309
-357.596	-82.127	-0.256	-0.082
-356.581	-41.995	-0.031	0.016
-355.566	704.614	-0.098	0.255
-354.552	33.604	0.096	0.083
-353.537	-144.488	0.306	0.028
-352.523	67.275	0.184	-0.186
-351.508	-200.000	-0.024	-0.219
-350.493	57.852	-0.165	-0.160
-349.479	-200.000	-0.061	-0.312
-348.464	-61.005	0.248	0.104
-347.450	-142.741	-0.161	-0.015
-346.435	-116.822	-0.358	0.065
-345.420	-200.000	-0.017	-0.206
-344.406	-153.835	-0.263	0.018
-343.391	800.000	0.056	0.193
-342.377	58.512	0.248	-0.240
-341.362	79.013	-0.016	-0.017
-340.348	-29.321	-0.285	0.161
-339.333	-38.121	0.274	0.144
-338.318	-200.000	0.058	-0.386
-337.304	800.000	0.068	0.249
-336.289	-39.902	0.173	-0.089
-335.275	-152.117	0.071	-0.005
-334.260	800.000	-0.048	0.203
-333.245	-41.247	0.197	0.100
-332.231	268.965	0.048	-0.082
-331.216	-200.000	-0.016	0.166
-330.202	-42.690	-0.269	0.135
-329.187	110.500	-0.079	0.094
-328.172	374.088	-0.158	0.317
-327.158	82.438	-0.026	0.028
-326.143	-200.000	-0.001	0.066
-325.129	800.000	-0.065	-0.262
-324.114	101.314	-0.114	0.131
-323.099	381.248	0.035	-0.070
-322.085	91.458	0.117	-0.129
-321.070	715.952	0.067	0.175
-320.056	-200.000	-0.017	0.086
-319.041	189.107	0.101	0.149
-318.026	-25.931	0.102	0.059
-317.012	-93.687	0.158	-0.043
-315.997	-200.000	0.029	-0.157
-314.983	169.346	0.113	0.159
-313.968	-57.883	-0.122	0.053
-312.953	-44.778	-0.153	-0.075
-311.939	-200.000	-0.048	-0.255
-310.924	-89.835	0.363	0.105
-309.910	13.114	-0.123	0.094
-308.895	-34.840	0.364	0.196
-307.880	-96.988	-0.079	0.020
-306.866	800.000	-0.126	0.401
-305.851	24.169	-0.091	0.074
-304.837	-168.348	-0.281	0.011
-303.822	-200.000	0.015	-0.083
-302.807	-200.000	0.140	-0.000
-301.793	539.780	0.178	-0.417
-300.778	336.194	0.034	-0.066
-299.764	-106.690	-0.172	-0.038
-298.749	-85.905	-0.218	-0.066
-297.735	293.794	-0.193	0.347
-296.720	285.647	0.081	0.144
-295.705	32.618	0.276	0.235
-294.691	-200.000	0.004	0.306
-293.676	189.241	0.054	0.080
-292.662	75.198	0.140	-0.145
-291.647	452.378	0.146	-0.319
-290.632	26.258	-0.092	-0.076
-289.618	-67.407	-0.242	-0.094
-288.603	-98.135	-0.071	0.018
-287.589	-183.444	-0.177	-0.003
-286.574	123.537	0.165	0.203
-285.559	744.306	-0.049	-0.131
-284.545	-200.000	0.094	0.429
-283.530	800.000	0.022	0.062
-282.516	800.000	0.035	-0.095
-281.501	649.188	-0.035	0.087
-280.486	-200.000	-0.019	0.223
-279.472	-124.436	-0.128	-0.020
-278.457	-43.357	0.121	0.060
-277.443	314.661	-0.256	-0.476
-276.428	-200.000	0.018	-0.214
-275.413	800.000	0.034	-0.114
-274.399	114.975	0.134	-0.161
-273.384	228.901	0.218	0.351
-272.370	90.586	0.115	-0.127
-271.355	77.844	0.116	0.122
-270.340	-103.308	0.469	0.109
-269.326	-200.000	0.002	-0.071
-268.311	1.492	-0.071	0.050
-267.297	-83.857	-0.392	-0.123
-266.282	184.611	-0.036	-0.053
-265.267	13.970	-0.135	-0.104
-264.253	-3.635	0.183	0.125
-263.238	-156.829	-0.232	-0.014
-262.224	-27.430	-0.108	0.062
-261.209	187.869	-0.119	-0.176
-260.195	85.796	-0.058	-0.063
-259.180	-200.000	0.027	-0.295
-258.165	-200.000	-0.036	-0.162
-257.151	70.798	0.202	0.205
-256.136	-133.663	-0.122	-0.015
-255.122	380.671	0.059	0.118
-254.107	-131.202	-0.043	0.006
-253.092	-200.000	-0.005	0.080
-252.078	121.149	0.196	0.240
-251.063	492.606	0.068	0.154
-250.049	-200.000	0.007	0.076
-249.034	393.714	0.080	-0.165
-248.019	-200.000	0.009	-0.193
-247.005	-167.277	-0.272	0.011
-245.990	-56.875	-0.166	-0.072
-244.976	-150.621	0.046	-0.003
-243.961	283.477	0.057	-0.100
-242.946	-17.343	0.256	0.158
-241.932	-133.629	-0.334	-0.041
-240.917	20.508	0.236	-0.187
-239.903	-200.000	-0.010	-0.048
-238.888	523.223	0.137	-0.317
-237.873	51.182	0.063	-0.059
-236.859	327.541	0.177	-0.334
-235.844	-118.760	-0.297	0.052
-234.830	149.080	0.102	0.136
-233.815	458.712	0.214	-0.468
-232.800	750.106	0.097	-0.259
-231.786	265.167	0.043	-0.073
-230.771	240.889	0.133	-0.219
-229.757	-56.216	0.367	0.161
-228.742	-53.210	-0.198	-0.089
-227.727	204.754	0.164	-0.249
-226.713	28.195	0.235	-0.195
-225.698	12.337	-0.111	-0.084
-224.684	-122.032	-0.284	0.046
-223.669	-138.969	0.121	0.013
-222.655	-145.163	0.064	0.006
-221.640	-49.640	0.296	-0.138
-220.625	-144.516	-0.311	-0.028
-219.611	800.000	-0.144	-0.455
-218.596	800.000	0.026	0.109
-217.582	77.391	-0.059	-0.062
-216.567	48.823	-0.012	0.011
-215.552	113.719	0.195	-0.233
-214.538	-96.509	-0.217	0.056
-213.523	-23.728	0.080	-0.047
-212.509	-200.000	0.022	0.138
-211.494	2.131	0.200	-0.142
-210.479	-71.517	0.130	-0.048
-209.465	-200.000	-0.048	-0.241
-208.450	800.000	-0.021	-0.083
-207.436	67.085	0.097	-0.097
-206.421	-99.460	-0.373	-0.092
-205.406	-200.000	-0.010	0.253
-204.392	57.734	0.198	-0.190
-203.377	-91.469	-0.102	-0.029
-202.363	-96.812	0.225	-0.058
-201.348	800.000	0.110	0.436
-200.333	-200.000	-0.003	0.096
-199.319	29.993	-0.126	0.106
-198.304	-200.000	-0.063	-0.343
-197.290	-200.000	0.004	-0.168
-196.275	-86.255	0.346	0.105
-195.260	126.079	0.161	0.200
-194.246	298.929	0.150	-0.271
-193.231	800.000	0.089	-0.375
-192.217	-200.000	-0.009	0.235
-191.202	800.000	0.008	-0.025
-190.187	800.000	0.074	0.207
-189.173	128.924	-0.157	-0.197
-188.158	412.306	-0.058	0.121
-187.144	-61.775	-0.102	-0.042
-186.129	-48.308	0.353	0.167
-185.114	286.790	-0.114	-0.203
-184.100	-49.418	0.217	0.102
-183.085	-200.000	-0.028	0.132
-182.071	-200.000	-0.021	0.154
-181.056	708.635	0.040	0.105
-180.042	-200.000	-0.043	-0.198
-179.027	-111.870	0.167	-0.033
-178.012	-200.000	-0.035	0.184
-176.998	800.000	-0.021	-0.092
-175.983	-200.000	0.013	-0.251
-174.969	-2.908	0.197	0.135
-173.954	344.351	-0.074	0.143
-172.939	-200.000	-0.044	0.362
-171.925	-198.961	0.212	0.001
-170.910	-127.022	-0.331	-0.048
-169.896	-125.150	-0.189	0.028
-168.881	492.731	-0.098	-0.219
-167.866	-163.958	0.158	0.007
-166.852	34.630	0.157	-0.135
-165.837	173.635	-0.077	0.109
-164.823	597.445	-0.136	-0.329
-163.808	-104.096	-0.164	0.037
-162.793	-200.000	0.003	0.061
-161.779	800.000	-0.075	-0.219
-160.764	166.901	0.077	0.107
-159.750	-161.822	0.213	-0.011
-158.735	-120.717	0.336	-0.056
-157.720	25.071	-0.110	-0.090
-156.706	-200.000	0.002	-0.088
-155.691	-200.000	-0.000	0.178
-154.677	396.297	0.132	0.270
-153.662	-185.049	-0.506	-0.008
-152.647	-162.482	-0.042	0.002
-151.633	548.550	-0.157	0.370
-150.618	44.166	0.024	0.021
-149.604	800.000	0.116	0.375
-148.589	800.000	0.064	-0.203
-147.574	-166.498	0.238	0.010
-146.560	-87.019	-0.104	-0.031
-145.545	-62.408	-0.078	0.032
-144.531	-78.844	0.018	-0.006
-143.516	572.388	0.077	0.184
-142.502	25.326	-0.058	-0.047
-141.487	7.290	0.213	0.156
-140.472	-26.183	0.308	0.177
-139.458	189.618	0.160	0.235
-138.443	-113.251	0.220	-0.042
-137.429	330.279	-0.166	0.313
-136.414	-62.447	-0.078	0.032
-135.399	380.726	0.120	0.240
-134.385	357.723	0.171	0.334
-133.370	-200.000	-0.006	-0.261
-132.356	-2.570	-0.363	-0.249
-131.341	-3.524	0.318	-0.217
-130.326	800.000	0.084	-0.305
-129.312	136.798	0.100	-0.128
-128.297	266.535	-0.035	0.060
-127.283	40.486	0.166	0.147
-126.268	-118.962	-0.462	-0.079
-125.253	-158.035	0.140	-0.008
-124.239	-63.018	-0.182	0.074
-123.224	-54.289	0.133	0.059
-122.210	-200.000	-0.007	-0.648
