DTS Sentinel unit serial number:	SN413079Multiplexer serial number:	ORYXHardware model number:	OX4-SRSoftware version number:	ORYX F/W v4.00 Oryx Data Collector v3.7.2.0data status	okinstallation	princeton_trtdifferential loss correction	single-endedforward channel	channel 1reverse channel	N/Adate	2019/09/12time	06:48:11forward acquisition time	60.00reverse acquisition time	0.00gamma	496.2192k internal	0.2320k external	0.2320temperature offset calibration	1.0043default loss term (dB/km)	0.3790temperature slope calibration	1.0000multiplexer offset coefficient	1.0000multiplexer slope coefficient	1.0000fibre end	0.00T internal ref (°C)	32.16T ext. ref 1 (°C)	1.59T ext. ref 2 (°C)	27.35length (m)	temperature (°C)	Stokes	anti-Stokes-747.200	-89.676	-0.238	0.070
-746.185	49.191	-0.230	0.218
-745.171	252.473	-0.165	0.285
-744.156	-66.521	0.074	-0.030
-743.142	-54.697	-0.303	0.139
-742.127	147.648	0.260	0.354
-741.112	67.258	0.108	0.112
-740.098	-40.625	-0.104	-0.054
-739.083	-99.631	0.234	0.059
-738.069	283.300	0.210	0.382
-737.054	-33.469	0.300	0.168
-736.039	-8.891	-0.301	0.204
-735.025	-77.397	0.089	0.031
-734.010	649.629	-0.137	-0.353
-732.996	59.820	-0.306	-0.305
-731.981	-200.000	-0.048	-0.290
-730.966	-200.000	-0.016	-0.339
-729.952	664.936	-0.049	-0.128
-728.937	-147.072	0.111	0.010
-727.923	800.000	-0.011	-0.039
-726.908	-200.000	-0.002	-0.148
-725.894	800.000	-0.025	-0.101
-724.879	112.967	0.277	-0.340
-723.864	12.156	-0.168	-0.131
-722.850	-99.827	0.209	0.053
-721.835	29.091	-0.162	0.139
-720.821	-180.192	-0.262	0.006
-719.806	-133.084	-0.334	0.043
-718.791	-185.003	-0.715	0.011
-717.777	-81.638	-0.302	-0.100
-716.762	267.471	0.114	0.201
-715.748	-200.000	-0.047	0.286
-714.733	-200.000	0.028	0.211
-713.718	28.470	-0.063	0.054
-712.704	388.261	0.068	0.141
-711.689	42.628	0.246	0.226
-710.675	-163.284	0.346	0.017
-709.660	800.000	0.054	0.157
-708.645	319.839	0.092	-0.177
-707.631	548.443	0.110	-0.265
-706.616	-3.513	-0.391	-0.275
-705.602	-200.000	-0.014	-0.104
-704.587	-37.294	-0.174	-0.094
-703.572	63.788	-0.054	0.055
-702.558	604.246	0.142	0.357
-701.543	-200.000	0.031	0.217
-700.529	-200.000	0.029	0.307
-699.514	-200.000	-0.014	0.319
-698.499	-200.000	0.001	0.132
-697.485	-24.050	-0.393	0.237
-696.470	98.092	-0.142	-0.166
-695.456	646.655	-0.022	-0.057
-694.441	-47.176	-0.232	-0.114
-693.426	-100.188	0.210	0.053
-692.412	166.831	-0.161	0.231
-691.397	-3.122	0.287	-0.202
-690.383	266.397	0.092	-0.162
-689.368	-200.000	0.045	-0.206
-688.354	-112.647	0.155	-0.031
-687.339	35.984	0.044	-0.039
-686.324	2.365	-0.090	0.066
-685.310	-99.746	0.088	-0.022
-684.295	188.314	-0.255	-0.385
-683.281	-2.476	0.101	-0.071
-682.266	-15.014	0.184	-0.119
-681.251	-200.000	-0.003	-0.249
-680.237	443.067	0.044	0.098
-679.222	8.134	0.194	0.147
-678.208	800.000	-0.076	0.311
-677.193	-200.000	0.012	0.181
-676.178	-138.492	-0.065	0.007
-675.164	-12.965	0.115	-0.075
-674.149	284.115	-0.189	0.343
-673.135	112.585	-0.205	0.250
-672.120	239.681	0.131	-0.220
-671.105	-200.000	-0.030	-0.269
-670.091	-35.013	-0.133	0.073
-669.076	-150.788	-0.196	-0.015
-668.062	744.667	-0.122	-0.331
-667.047	-200.000	0.021	0.212
-666.032	136.018	0.255	0.335
-665.018	288.364	0.113	-0.206
-664.003	266.347	-0.084	0.148
-662.989	99.352	0.062	0.072
-661.974	800.000	0.116	-0.397
-660.959	800.000	0.045	-0.157
-659.945	-200.000	-0.067	0.326
-658.930	553.410	0.092	0.223
-657.916	-125.669	-0.093	0.014
-656.901	-62.528	-0.158	-0.066
-655.886	514.158	0.093	0.219
-654.872	-75.422	-0.067	0.024
-653.857	-120.738	-0.136	-0.023
-652.843	-25.487	-0.164	0.098
-651.828	-131.960	-0.482	0.063
-650.814	-200.000	-0.376	-0.001
-649.799	-77.405	0.124	-0.043
-648.784	800.000	-0.031	0.096
-647.770	-150.940	-0.092	-0.007
-646.755	149.499	0.081	-0.110
-645.741	800.000	0.107	-0.330
-644.726	-121.170	-0.110	-0.019
-643.711	-123.525	0.058	0.009
-642.697	459.353	-0.126	0.282
-641.682	-151.394	-0.067	0.005
-640.668	243.735	-0.072	0.121
-639.653	21.096	-0.184	-0.150
-638.638	-89.720	0.234	-0.069
-637.624	-79.209	0.168	0.058
-636.609	-104.019	0.204	0.048
-635.595	149.888	0.136	0.186
-634.580	-77.956	-0.098	0.034
-633.565	739.514	-0.038	-0.102
-632.551	-18.691	-0.093	0.058
-631.536	800.000	0.038	0.151
-630.522	312.748	0.094	0.178
-629.507	83.539	0.116	0.127
-628.492	-127.648	0.167	-0.024
-627.478	-200.000	0.039	0.401
-626.463	-200.000	-0.011	0.172
-625.449	89.648	-0.221	0.249
-624.434	-94.702	0.152	0.041
-623.419	800.000	-0.078	-0.294
-622.405	3.561	0.298	-0.219
-621.390	-200.000	-0.048	-0.394
-620.376	-200.000	-0.049	0.289
-619.361	0.916	-0.242	-0.174
-618.346	-178.581	-0.242	-0.006
-617.332	-200.000	0.017	0.362
-616.317	-136.543	0.135	-0.016
-615.303	800.000	0.068	0.276
-614.288	800.000	0.035	0.151
-613.273	-49.773	0.152	-0.073
-612.259	-43.783	0.195	0.099
-611.244	800.000	-0.056	0.226
-610.230	374.021	-0.121	0.247
-609.215	800.000	-0.019	0.058
-608.201	163.516	0.179	0.253
-607.186	-142.835	0.275	-0.027
-606.171	-72.538	-0.071	0.026
-605.157	346.247	0.101	-0.200
-604.142	-200.000	-0.031	0.270
-603.128	-75.787	-0.355	0.127
-602.113	800.000	-0.049	0.171
-601.098	-112.100	0.281	-0.057
-600.084	-32.088	-0.367	-0.206
-599.069	-103.615	0.154	0.036
-598.055	-21.246	0.240	-0.147
-597.040	-119.074	0.230	-0.040
-596.025	113.180	0.077	-0.094
-595.011	800.000	0.075	-0.301
-593.996	-200.000	0.008	0.183
-592.982	193.223	0.118	-0.179
-591.967	662.059	-0.057	0.148
-590.952	369.664	0.189	-0.386
-589.938	-200.000	-0.010	-0.067
-588.923	800.000	0.075	-0.308
-587.909	-63.593	-0.135	0.056
-586.894	-66.477	0.179	0.071
-585.879	93.469	0.157	-0.179
-584.865	-44.515	-0.199	-0.100
-583.850	149.343	0.143	0.195
-582.836	-200.000	-0.003	0.039
-581.821	62.085	-0.078	-0.078
-580.806	215.792	0.164	0.261
-579.792	-200.000	-0.002	0.060
-578.777	-87.980	-0.127	-0.038
-577.763	-122.725	-0.303	-0.049
-576.748	-200.000	-0.037	0.214
-575.733	144.448	0.050	0.067
-574.719	221.589	-0.233	-0.376
-573.704	-67.073	-0.252	-0.100
-572.690	-143.162	0.233	0.022
-571.675	37.678	0.216	0.193
-570.661	-141.735	-0.180	-0.018
-569.646	12.536	0.073	-0.056
-568.631	-200.000	-0.079	0.383
-567.617	108.309	-0.151	-0.180
-566.602	635.047	-0.074	-0.188
-565.588	99.578	-0.077	0.090
-564.573	90.289	-0.072	0.081
-563.558	-52.289	0.167	-0.078
-562.544	78.940	-0.016	-0.018
-561.529	-200.000	-0.001	0.142
-560.515	-200.000	-0.003	-0.268
-559.500	-109.101	-0.411	-0.088
-558.485	-53.097	0.069	-0.032
-557.471	6.126	-0.361	-0.269
-556.456	457.912	-0.043	-0.096
-555.442	-92.682	0.271	0.076
-554.427	122.973	0.133	-0.168
-553.412	-28.382	0.270	0.157
-552.398	800.000	-0.031	0.114
-551.383	-36.932	0.062	-0.033
-550.369	751.053	-0.092	-0.248
-549.354	317.090	0.094	-0.178
-548.339	800.000	-0.025	0.070
-547.325	-9.045	0.186	-0.125
-546.310	203.441	-0.059	-0.092
-545.296	800.000	0.021	-0.060
-544.281	800.000	-0.064	0.201
-543.266	-25.706	0.181	0.107
-542.252	-39.339	0.248	-0.130
-541.237	800.000	-0.025	0.072
-540.223	-38.185	0.231	0.123
-539.208	185.138	0.137	-0.203
-538.193	-112.890	0.292	-0.058
-537.179	-13.633	0.265	-0.172
-536.164	48.092	-0.242	0.227
-535.150	93.762	0.172	-0.195
-534.135	-200.000	0.030	0.250
-533.121	-200.000	0.035	0.269
-532.106	-200.000	-0.073	-0.379
-531.091	-75.161	-0.270	0.097
-530.077	192.832	-0.114	-0.173
-529.062	49.924	-0.368	-0.348
-528.048	75.293	0.138	-0.146
-527.033	-125.589	-0.110	-0.017
-526.018	529.157	0.070	0.165
-525.004	-38.197	0.342	0.182
-523.989	346.693	-0.084	0.166
-522.975	-73.348	0.328	-0.120
-521.960	-95.263	-0.284	0.077
-520.945	41.553	0.356	0.323
-519.931	92.644	0.113	-0.128
-518.916	572.556	0.023	-0.055
-517.902	238.584	-0.108	-0.179
-516.887	800.000	-0.100	0.371
-515.872	5.216	-0.249	0.184
-514.858	76.484	-0.259	0.275
-513.843	-143.093	-0.277	0.027
-512.829	-56.485	-0.243	-0.108
-511.814	38.196	-0.073	0.066
-510.799	-154.123	-0.266	-0.018
-509.785	458.174	-0.182	0.405
-508.770	569.601	-0.109	-0.265
-507.756	55.262	-0.198	-0.192
-506.741	167.040	0.031	0.045
-505.726	10.781	-0.314	-0.240
-504.712	-200.000	0.031	0.159
-503.697	-46.879	-0.440	-0.216
-502.683	39.802	-0.173	-0.156
-501.668	483.931	-0.111	-0.254
-500.653	292.171	-0.172	-0.314
-499.639	800.000	-0.024	-0.077
-498.624	-147.997	-0.063	0.005
-497.610	2.505	-0.132	0.095
-496.595	98.231	0.078	-0.090
-495.581	800.000	0.052	0.204
-494.566	-27.795	0.067	-0.039
-493.551	-97.832	0.074	0.019
-492.537	-44.989	0.301	-0.150
-491.522	149.582	-0.096	0.130
-490.508	96.002	-0.210	0.240
-489.493	800.000	0.043	-0.157
-488.478	-192.057	0.248	0.002
-487.464	49.142	0.099	-0.093
-486.449	800.000	0.032	0.094
-485.435	-91.113	-0.026	0.008
-484.420	-200.000	-0.002	0.073
-483.405	55.019	0.261	-0.252
-482.391	-7.221	0.142	0.096
-481.376	-200.000	-0.032	0.222
-480.362	327.614	-0.162	0.311
-479.347	-155.467	0.105	0.007
-478.332	800.000	-0.086	-0.366
-477.318	-200.000	-0.017	-0.213
-476.303	-56.540	-0.183	-0.081
-475.289	800.000	-0.076	0.326
-474.274	235.872	0.130	0.215
-473.259	500.832	0.133	-0.306
-472.245	-160.996	-0.209	-0.011
-471.230	-200.000	-0.007	0.049
-470.216	73.540	-0.082	0.086
-469.201	-174.132	0.073	-0.002
-468.186	348.187	-0.121	-0.239
-467.172	-200.000	0.013	-0.229
-466.157	-145.729	0.281	-0.025
-465.143	-83.045	-0.305	-0.098
-464.128	-138.410	-0.147	-0.016
-463.113	-63.104	0.101	-0.042
-462.099	-96.160	-0.028	-0.007
-461.084	800.000	-0.083	0.342
-460.070	281.108	-0.188	0.337
-459.055	-97.594	0.415	0.108
-458.040	557.785	-0.024	0.057
-457.026	-200.000	-0.073	0.324
-456.011	68.313	0.074	0.075
-454.997	791.128	0.127	-0.350
-453.982	27.458	0.168	0.141
-452.968	180.000	-0.084	-0.124
-451.953	800.000	0.083	-0.334
-450.938	-200.000	-0.008	0.147
-449.924	-175.533	0.405	0.011
-448.909	44.889	-0.328	-0.302
-447.895	18.906	-0.072	-0.058
-446.880	107.019	0.231	0.275
-445.865	104.885	0.180	0.212
-444.851	-200.000	0.009	0.064
-443.836	167.963	-0.091	0.130
-442.822	250.841	-0.053	-0.089
-441.807	191.047	-0.104	0.157
-440.792	282.948	0.176	-0.315
-439.778	741.202	-0.144	-0.386
-438.763	93.838	0.282	-0.319
-437.749	-44.331	-0.131	-0.066
-436.734	30.449	0.040	-0.034
-435.719	-125.974	0.527	0.079
-434.705	-200.000	-0.007	0.129
-433.690	-62.935	-0.282	0.117
-432.676	354.475	-0.186	-0.369
-431.661	666.844	0.041	0.105
-430.646	-57.602	0.035	0.016
-429.632	-200.000	-0.021	-0.160
-428.617	8.404	0.039	-0.029
-427.603	5.136	0.097	-0.072
-426.588	105.710	0.208	0.246
-425.573	-127.065	0.141	-0.021
-424.559	-155.162	0.122	-0.008
-423.544	-118.935	-0.129	-0.023
-422.530	14.524	-0.180	-0.140
-421.515	-200.000	-0.002	-0.071
-420.500	488.850	0.175	0.399
-419.486	-200.000	0.037	-0.237
-418.471	-38.644	0.227	-0.120
-417.457	139.300	0.230	0.302
-416.442	131.278	-0.051	-0.065
-415.428	800.000	0.048	-0.149
-414.413	-73.257	0.110	0.040
-413.398	-135.372	0.147	-0.017
-412.384	-26.046	0.033	-0.020
-411.369	-56.226	-0.177	-0.079
-410.355	167.703	-0.076	-0.108
-409.340	136.460	-0.093	0.122
-408.325	-200.000	0.001	-0.272
-407.311	75.403	0.168	-0.176
-406.296	-200.000	0.017	0.375
-405.282	-200.000	-0.054	0.352
-404.267	800.000	0.030	0.124
-403.252	6.140	-0.079	-0.059
-402.238	105.585	0.082	-0.096
-401.223	228.356	-0.084	-0.137
-400.209	-200.000	-0.023	-0.544
-399.194	-200.000	-0.023	-0.165
-398.179	-200.000	-0.018	0.254
-397.165	-9.313	-0.025	-0.017
-396.150	-58.655	0.332	0.143
-395.136	-200.000	0.029	0.254
-394.121	738.325	-0.149	0.400
-393.106	222.028	0.242	0.389
-392.092	-20.711	0.055	0.034
-391.077	41.985	0.173	0.157
-390.063	-200.000	0.016	0.324
-389.048	-186.197	0.060	-0.001
-388.033	-200.000	0.007	0.079
-387.019	37.996	0.020	0.017
-386.004	-58.813	-0.177	-0.076
-384.990	155.489	-0.186	0.255
-383.975	525.444	0.099	0.233
-382.960	403.816	-0.133	-0.278
-381.946	108.187	-0.098	-0.116
-380.931	31.409	-0.164	-0.141
-379.917	-189.569	0.368	0.004
-378.902	205.094	-0.158	-0.245
-377.888	-200.000	-0.023	0.115
-376.873	-113.610	0.165	0.032
-375.858	-200.000	0.019	0.170
-374.844	-119.910	-0.183	-0.031
-373.829	-100.120	-0.173	0.043
-372.815	800.000	0.090	0.341
-371.800	-93.183	-0.301	-0.083
-370.785	800.000	0.033	-0.141
-369.771	27.100	0.123	0.102
-368.756	-157.338	-0.284	0.017
-367.742	-200.000	0.018	-0.099
-366.727	-74.104	-0.106	-0.038
-365.712	93.581	0.166	0.188
-364.698	156.637	0.045	0.062
-363.683	-91.942	-0.082	-0.023
-362.669	-200.000	0.036	-0.170
-361.654	-92.372	-0.190	-0.053
-360.639	466.882	0.130	0.291
-359.625	21.936	-0.181	0.147
-358.610	-88.937	0.301	0.089
-357.596	286.762	-0.096	0.172
-356.581	-200.000	0.035	0.233
-355.566	-149.401	-0.374	-0.030
-354.552	-34.899	0.345	-0.188
-353.537	800.000	-0.144	0.429
-352.523	-109.996	0.160	-0.033
-351.508	-76.679	0.052	-0.018
-350.493	-200.000	0.014	0.100
-349.479	87.310	0.118	0.130
-348.464	-200.000	-0.085	0.385
-347.450	524.986	0.118	0.276
-346.435	82.358	-0.139	0.150
-345.420	-124.740	0.267	0.041
-344.406	-9.661	-0.255	-0.169
-343.391	92.865	0.218	0.246
-342.377	-200.000	0.047	0.543
-341.362	19.756	-0.295	0.236
-340.348	11.004	0.155	0.118
-339.333	64.509	0.076	-0.076
-338.318	-105.989	-0.121	0.027
-337.304	10.878	-0.293	-0.223
-336.289	-200.000	0.016	-0.381
-335.275	752.645	-0.104	-0.280
-334.260	10.061	0.299	0.226
-333.245	-115.501	-0.117	0.022
-332.231	-50.797	0.092	0.043
-331.216	-112.920	0.235	0.046
-330.202	228.947	-0.041	-0.067
-329.187	71.274	-0.281	0.290
-328.172	103.636	-0.050	0.058
-327.158	-118.341	0.275	-0.049
-326.143	-16.076	0.319	-0.202
-325.129	235.417	0.100	0.165
-324.114	-26.180	0.119	-0.070
-323.099	-200.000	0.000	-0.409
-322.085	42.225	-0.298	-0.269
-321.070	-200.000	0.046	-0.274
-320.056	104.483	0.252	-0.296
-319.041	-200.000	0.008	-0.171
-318.026	292.133	0.171	0.309
-317.012	67.522	0.054	-0.055
-315.997	-85.524	-0.165	0.051
-314.983	-35.031	0.273	-0.148
-313.968	223.688	0.182	0.291
-312.953	48.470	-0.230	-0.214
-311.939	-200.000	0.015	0.134
-310.924	800.000	-0.113	0.315
-309.910	-161.747	-0.123	-0.006
-308.895	49.916	0.120	-0.112
-307.880	-64.427	-0.330	0.133
-306.866	-73.920	-0.096	0.035
-305.851	-56.695	-0.180	0.079
-304.837	287.429	-0.116	0.208
-303.822	35.395	0.312	0.272
-302.807	-97.874	0.208	0.053
-301.793	266.851	-0.177	-0.308
-300.778	44.462	0.259	-0.237
-299.764	405.180	-0.090	0.188
-298.749	398.412	-0.064	-0.133
-297.735	393.846	0.109	-0.226
-296.720	-143.882	0.158	0.015
-295.705	-64.854	-0.221	-0.089
-294.691	729.722	0.055	0.147
-293.676	-108.457	-0.123	-0.026
-292.662	800.000	0.051	0.216
-291.647	-107.624	0.372	-0.081
-290.632	13.947	-0.371	0.286
-289.618	31.559	-0.084	0.072
-288.603	-200.000	-0.017	-0.143
-287.589	-200.000	-0.003	0.042
-286.574	-48.635	0.092	-0.044
-285.559	31.089	0.180	-0.154
-284.545	-200.000	-0.041	0.203
-283.530	713.270	-0.069	-0.181
-282.516	-94.696	-0.248	0.067
-281.501	368.890	0.064	-0.128
-280.486	-200.000	0.003	-0.322
-279.472	-144.917	-0.157	0.014
-278.457	-149.147	-0.023	-0.002
-277.443	-200.000	-0.005	-0.040
-276.428	-69.519	0.031	0.012
-275.413	233.722	-0.147	-0.241
-274.399	37.965	-0.041	0.036
-273.384	-34.126	0.241	-0.131
-272.370	105.401	0.167	-0.196
-271.355	-54.415	0.134	-0.060
-270.340	800.000	0.050	-0.170
-269.326	-21.009	-0.100	-0.061
-268.311	91.779	-0.168	0.187
-267.297	-168.868	0.084	0.003
-266.282	160.529	-0.109	0.151
-265.267	-152.611	-0.155	0.011
-264.253	265.842	0.148	0.257
-263.238	800.000	-0.084	-0.334
-262.224	294.966	0.195	0.354
-261.209	-46.470	-0.160	-0.078
-260.195	-115.092	0.058	0.011
-259.180	301.814	0.111	-0.204
-258.165	365.812	0.072	-0.144
-257.151	-42.784	0.099	-0.050
-256.136	324.284	0.155	-0.293
-255.122	-132.380	-0.075	-0.010
-254.107	75.197	-0.040	0.042
-253.092	254.031	0.198	-0.336
-252.078	75.819	-0.136	-0.143
-251.063	-200.000	0.027	-0.143
-250.049	-137.445	-0.071	-0.008
-249.034	-200.000	-0.031	-0.323
-248.019	-200.000	-0.116	0.538
-247.005	-133.387	-0.209	-0.026
-245.990	-114.931	0.087	0.016
-244.976	-152.916	0.043	0.003
-243.961	447.314	-0.072	0.157
-242.946	800.000	-0.034	-0.130
-241.932	334.736	0.160	0.308
-240.917	63.815	-0.299	0.297
-239.903	800.000	-0.065	0.244
-238.888	-51.873	-0.253	-0.117
-237.873	-154.900	-0.376	0.025
-236.859	401.245	0.090	0.187
-235.844	-159.079	0.179	-0.010
-234.830	-200.000	0.245	-0.001
-233.815	-48.530	0.137	0.065
-232.800	35.089	-0.168	-0.146
-231.786	-4.372	-0.016	-0.011
-230.771	-200.000	-0.013	0.152
-229.757	800.000	-0.038	0.126
-228.742	-200.000	-0.181	0.000
-227.727	557.117	0.089	-0.213
-226.713	-200.000	-0.028	0.161
-225.698	125.872	-0.191	-0.239
-224.684	9.530	-0.244	-0.183
-223.669	48.483	-0.133	0.123
-222.655	-200.000	-0.011	0.377
-221.640	-200.000	-0.016	-0.196
-220.625	-18.032	-0.208	0.129
-219.611	-6.306	-0.139	-0.094
-218.596	105.350	0.260	0.304
-217.582	-80.682	0.141	0.047
-216.567	-79.790	0.411	0.137
-215.552	235.841	-0.192	-0.314
-214.538	-34.019	0.235	-0.128
-213.523	211.204	-0.111	-0.173
-212.509	-63.323	-0.246	0.100
-211.494	395.413	-0.148	-0.305
-210.479	-200.000	-0.019	-0.085
-209.465	-200.000	-0.003	0.165
-208.450	233.958	-0.221	-0.360
-207.436	-177.102	0.254	-0.006
-206.421	-46.804	-0.319	-0.154
-205.406	-172.621	-0.431	-0.013
-204.392	62.744	-0.090	-0.089
-203.377	-200.000	-0.089	-0.412
-202.363	131.953	0.287	0.366
-201.348	94.730	-0.107	0.120
-200.333	-18.863	0.309	-0.190
-199.319	-66.549	0.142	0.056
-198.304	556.655	-0.069	-0.164
-197.290	-73.179	-0.222	-0.080
-196.275	-2.510	0.158	-0.109
-195.260	-26.065	0.237	0.138
-194.246	-200.000	-0.020	0.335
-193.231	-200.000	-0.039	0.284
-192.217	-200.000	0.005	0.115
-191.202	164.431	-0.298	-0.416
-190.187	97.289	0.152	-0.172
-189.173	-110.841	0.048	-0.010
-188.158	-142.915	0.163	0.016
-187.144	-60.458	-0.132	-0.055
-186.129	-76.315	0.264	-0.092
-185.114	60.288	0.183	-0.179
-184.100	105.114	-0.240	-0.281
-183.085	-108.086	0.231	-0.049
-182.071	142.714	-0.088	0.116
-181.056	-85.400	-0.160	-0.049
-180.042	138.211	-0.193	-0.251
-179.027	-106.728	0.297	-0.065
-178.012	-151.064	0.166	0.012
-176.998	-119.634	-0.151	0.026
-175.983	-200.000	-0.020	-0.133
-174.969	-200.000	-0.029	0.334
-173.954	139.512	-0.175	0.228
-172.939	-22.828	0.160	-0.096
-171.925	74.461	-0.215	-0.224
-170.910	-54.417	0.401	-0.180
-169.896	-20.938	-0.110	-0.066
-168.881	8.640	0.130	0.097
-167.866	-3.558	-0.188	-0.129
-166.852	-55.129	0.135	0.060
-165.837	141.110	-0.163	-0.213
-164.823	129.932	-0.028	-0.036
-163.808	-200.000	-0.031	-0.244
-162.793	-45.322	-0.298	-0.146
-161.779	107.185	-0.090	-0.106
-160.764	800.000	0.082	0.227
-159.750	-43.516	0.225	-0.112
-158.735	113.699	0.086	0.104
-157.720	-33.976	-0.280	0.152
-156.706	-200.000	-0.088	-0.515
-155.691	269.816	-0.133	-0.231
-154.677	-90.100	0.267	0.077
-153.662	36.652	-0.142	-0.124
-152.647	-200.000	-0.024	0.504
-151.633	-200.000	-0.020	0.162
-150.618	176.751	0.112	-0.161
-149.604	-88.540	0.339	-0.100
-148.589	-133.875	-0.104	-0.013
-147.574	-104.308	-0.252	-0.058
-146.560	624.883	0.056	0.140
-145.545	-32.049	0.052	0.029
-144.531	800.000	-0.026	-0.094
-143.516	-110.967	0.055	0.011
-142.502	31.017	-0.156	0.132
-141.487	800.000	0.059	0.206
-140.472	86.045	0.051	0.055
-139.458	-24.433	0.163	-0.096
-138.443	11.685	0.114	0.086
-137.429	-157.193	0.245	-0.015
-136.414	-142.759	0.121	-0.012
-135.399	-84.835	0.109	0.034
-134.385	155.746	-0.086	-0.117
-133.370	193.093	0.114	0.171
-132.356	-136.652	0.269	0.031
-131.341	142.252	0.090	-0.118
-130.326	130.064	-0.239	0.301
-129.312	154.410	-0.194	-0.263
-128.297	-84.728	-0.098	-0.030
-127.283	-100.316	0.151	0.037
-126.268	419.212	0.206	0.434
-125.253	-105.363	0.100	-0.023
-124.239	-66.509	0.100	0.039
-123.224	15.315	-0.295	0.229
-122.210	513.977	0.111	-0.255
-121.195	-200.000	0.037	-0.226
