DTS Sentinel unit serial number:	SN413079Multiplexer serial number:	ORYXHardware model number:	OX4-SRSoftware version number:	ORYX F/W v4.00 Oryx Data Collector v3.7.2.0data status	okinstallation	princeton_trtdifferential loss correction	single-endedforward channel	channel 1reverse channel	N/Adate	2019/09/16time	20:06:35forward acquisition time	60.00reverse acquisition time	0.00gamma	496.2192k internal	0.2322k external	0.2322temperature offset calibration	0.9950default loss term (dB/km)	0.3790temperature slope calibration	1.0000multiplexer offset coefficient	1.0000multiplexer slope coefficient	1.0000fibre end	0.00T internal ref (°C)	33.19T ext. ref 1 (°C)	0.03T ext. ref 2 (°C)	26.64length (m)	temperature (°C)	Stokes	anti-Stokes-747.200	-200.000	-0.000	0.142
-746.185	-200.000	-0.082	0.371
-745.171	155.446	0.036	-0.050
-744.156	-100.458	-0.054	-0.014
-743.142	3.608	0.281	-0.207
-742.127	-58.285	0.039	0.017
-741.112	13.160	0.142	0.111
-740.098	26.894	-0.035	0.030
-739.083	475.108	0.058	0.132
-738.069	-79.014	0.145	0.050
-737.054	-175.717	0.075	0.002
-736.039	478.943	-0.082	-0.188
-735.025	800.000	0.067	0.267
-734.010	245.420	-0.031	-0.052
-732.996	430.623	0.037	-0.081
-731.981	-39.895	-0.312	-0.164
-730.966	-200.000	-0.026	-0.202
-729.952	617.584	0.137	-0.346
-728.937	630.497	0.050	0.129
-727.923	-66.272	0.094	0.038
-726.908	-166.651	0.077	0.003
-725.894	-200.000	0.041	-0.374
-724.879	-111.353	-0.270	0.056
-723.864	-12.077	0.262	-0.173
-722.850	-38.485	-0.198	-0.106
-721.835	-13.689	-0.187	-0.122
-720.821	-141.543	0.351	0.036
-719.806	-200.000	-0.004	0.099
-718.791	-157.304	0.031	0.002
-717.777	645.127	0.088	-0.226
-716.762	381.786	0.039	-0.081
-715.748	-200.000	0.021	-0.339
-714.733	21.044	0.335	0.275
-713.718	-200.000	0.055	0.330
-712.704	-200.000	-0.027	-0.177
-711.689	-140.884	-0.281	0.029
-710.675	-200.000	-0.038	-0.185
-709.660	334.003	-0.146	-0.285
-708.645	-10.557	-0.348	-0.233
-707.631	-29.429	0.202	-0.117
-706.616	-124.654	0.165	-0.026
-705.602	46.492	0.195	-0.183
-704.587	-185.733	0.115	0.002
-703.572	121.669	-0.094	-0.118
-702.558	-113.792	-0.192	0.038
-701.543	-200.000	0.001	0.192
-700.529	-142.312	0.095	0.009
-699.514	800.000	0.066	-0.194
-698.499	-64.986	0.147	-0.060
-697.485	800.000	0.148	-0.416
-696.470	-200.000	0.061	0.304
-695.456	615.058	0.055	0.139
-694.441	66.519	-0.060	-0.061
-693.426	-85.298	-0.383	-0.121
-692.412	88.868	0.195	-0.219
-691.397	-39.004	0.276	0.146
-690.383	149.646	0.173	0.236
-689.368	-67.534	-0.225	0.089
-688.354	14.317	-0.121	-0.095
-687.339	154.956	0.159	-0.221
-686.324	-121.062	-0.125	0.021
-685.310	-192.727	-0.140	0.001
-684.295	-200.000	-0.004	0.221
-683.281	-56.615	0.553	-0.247
-682.266	393.669	-0.113	-0.238
-681.251	-66.250	-0.264	0.106
-680.237	-132.153	-0.156	0.020
-679.222	-142.281	0.293	-0.029
-678.208	172.700	-0.081	-0.118
-677.193	78.956	0.123	0.133
-676.178	-94.632	0.369	0.101
-675.164	136.705	0.071	-0.093
-674.149	-84.745	-0.156	-0.049
-673.135	92.826	0.302	-0.343
-672.120	-200.000	-0.023	0.292
-671.105	-200.000	-0.074	-0.400
-670.091	760.956	0.033	-0.090
-669.076	-77.775	-0.098	0.034
-668.062	-181.429	-0.186	0.004
-667.047	200.818	0.063	0.097
-666.032	299.044	0.036	0.067
-665.018	-200.000	0.042	-0.260
-664.003	-200.000	-0.000	-0.150
-662.989	-69.045	-0.312	0.121
-661.974	-66.182	0.301	0.121
-660.959	-200.000	0.001	0.067
-659.945	105.047	0.176	0.209
-658.930	-200.000	0.062	-0.425
-657.916	-0.722	-0.115	0.082
-656.901	-200.000	-0.038	-0.425
-655.886	354.086	0.123	-0.246
-654.872	800.000	-0.083	-0.344
-653.857	144.581	-0.175	-0.236
-652.843	-139.370	0.118	0.013
-651.828	800.000	-0.041	0.159
-650.814	60.174	-0.185	-0.184
-649.799	-200.000	0.010	-0.227
-648.784	-34.045	0.243	-0.134
-647.770	799.285	-0.111	-0.307
-646.755	-83.897	0.125	-0.040
-645.741	-200.000	-0.009	-0.108
-644.726	35.181	-0.221	-0.195
-643.711	-179.382	0.125	0.003
-642.697	3.885	0.180	0.133
-641.682	92.719	0.161	-0.183
-640.668	88.922	0.166	-0.186
-639.653	-36.261	0.138	0.075
-638.638	-200.000	-0.021	-0.142
-637.624	-0.975	0.237	0.169
-636.609	200.716	-0.016	-0.025
-635.595	1.368	-0.088	0.063
-634.580	-115.660	-0.152	-0.029
-633.565	-98.861	0.362	0.092
-632.551	-1.438	-0.157	0.111
-631.536	278.924	0.093	-0.167
-630.522	-108.788	-0.079	0.017
-629.507	26.075	0.155	0.130
-628.492	-200.000	-0.045	0.299
-627.478	-150.448	-0.274	0.021
-626.463	31.518	0.076	0.066
-625.449	-121.660	-0.137	-0.023
-624.434	331.507	0.148	-0.287
-623.419	70.255	-0.062	-0.064
-622.405	800.000	0.037	0.113
-621.390	-44.753	-0.224	0.113
-620.376	37.294	-0.230	0.205
-619.361	-200.000	-0.085	-0.410
-618.346	26.802	0.147	0.124
-617.332	229.195	0.064	0.105
-616.317	249.789	-0.106	-0.181
-615.303	-200.000	-0.063	-0.411
-614.288	28.109	-0.122	-0.104
-613.273	-68.752	-0.248	0.096
-612.259	800.000	-0.099	-0.371
-611.244	229.047	0.183	-0.300
-610.230	8.075	-0.114	0.086
-609.215	-3.473	-0.241	-0.169
-608.201	-25.806	0.085	0.051
-607.186	97.637	0.113	0.130
-606.171	-42.436	0.315	-0.161
-605.157	73.318	0.266	-0.280
-604.142	217.265	-0.101	0.161
-603.128	-184.008	-0.483	0.008
-602.113	-124.999	0.127	0.020
-601.098	-83.702	-0.305	-0.098
-600.084	-200.000	-0.015	-0.158
-599.069	800.000	0.030	-0.098
-598.055	800.000	-0.095	-0.296
-597.040	-168.511	-0.111	0.004
-596.025	800.000	0.073	0.255
-595.011	179.673	0.240	-0.353
-593.996	785.903	0.007	-0.021
-592.982	-21.694	0.111	0.068
-591.967	800.000	-0.115	0.402
-590.952	1.890	0.108	-0.078
-589.938	-54.075	-0.282	0.129
-588.923	-200.000	0.015	0.089
-587.909	-200.000	-0.029	0.271
-586.894	-200.000	-0.016	0.371
-585.879	118.278	-0.036	-0.044
-584.865	-74.435	0.112	0.041
-583.850	-19.161	-0.232	0.145
-582.836	61.478	-0.200	-0.200
-581.821	247.746	0.056	0.095
-580.806	-128.451	-0.215	0.031
-579.792	-106.212	0.057	-0.013
-578.777	-106.717	-0.430	-0.096
-577.763	-116.276	0.203	0.038
-576.748	-119.835	-0.122	0.021
-575.733	800.000	0.053	0.214
-574.719	218.035	0.117	-0.188
-573.704	407.116	0.061	-0.130
-572.690	-119.513	0.285	0.050
-571.675	84.011	0.236	-0.259
-570.661	55.667	-0.225	-0.219
-569.646	346.183	-0.129	0.254
-568.631	106.627	0.156	-0.186
-567.617	-200.000	0.016	0.086
-566.602	-2.843	0.075	-0.053
-565.588	-85.582	0.246	0.077
-564.573	239.850	0.041	-0.069
-563.558	20.397	-0.264	-0.214
-562.544	112.312	-0.036	-0.043
-561.529	644.578	-0.072	0.185
-560.515	17.335	-0.121	0.097
-559.500	-200.000	0.026	0.177
-558.485	-42.966	0.135	-0.069
-557.471	39.281	0.168	0.151
-556.456	129.664	0.125	-0.161
-555.442	98.417	-0.145	-0.168
-554.427	-71.003	0.143	-0.054
-553.412	-200.000	-0.000	-0.004
-552.398	-87.233	0.124	0.038
-551.383	3.787	-0.205	-0.150
-550.369	320.841	0.194	-0.369
-549.354	-200.000	-0.025	0.269
-548.339	-185.914	-0.297	0.004
-547.325	-52.343	-0.161	-0.075
-546.310	-110.053	0.029	-0.006
-545.296	-200.000	0.019	-0.318
-544.281	56.584	-0.017	-0.016
-543.266	800.000	-0.078	0.267
-542.252	69.178	0.131	-0.135
-541.237	-44.729	0.056	0.028
-540.223	292.676	0.119	-0.218
-539.208	800.000	0.075	-0.219
-538.193	176.775	-0.140	0.204
-537.179	-9.089	0.200	-0.134
-536.164	19.664	-0.090	-0.073
-535.150	70.335	-0.273	-0.282
-534.135	137.753	-0.165	0.216
-533.121	-153.417	-0.269	-0.019
-532.106	13.113	0.089	-0.069
-531.091	-100.414	-0.233	-0.058
-530.077	-148.459	0.197	0.016
-529.062	-78.501	-0.373	0.128
-528.048	279.730	0.065	0.116
-527.033	18.778	-0.127	0.102
-526.018	80.086	0.092	0.099
-525.004	732.216	-0.054	-0.144
-523.989	-200.000	-0.002	0.040
-522.975	-20.408	0.291	0.179
-521.960	166.019	0.189	0.268
-520.945	408.641	-0.049	-0.104
-519.931	-123.610	0.139	-0.022
-518.916	457.120	0.130	-0.288
-517.902	549.623	-0.120	0.288
-516.887	50.691	0.200	-0.190
-515.872	-124.407	0.177	-0.028
-514.858	165.481	-0.053	0.075
-513.843	278.720	0.121	0.217
-512.829	-180.091	0.198	-0.004
-511.814	113.694	-0.065	-0.079
-510.799	102.053	0.347	0.406
-509.785	800.000	-0.042	0.154
-508.770	65.558	-0.183	0.185
-507.756	770.294	0.038	-0.103
-506.741	-200.000	0.022	-0.126
-505.726	-79.375	0.259	-0.088
-504.712	800.000	0.029	-0.117
-503.697	-33.206	-0.039	0.021
-502.683	249.454	0.077	0.130
-501.668	12.331	-0.187	0.144
-500.653	-73.496	0.286	-0.104
-499.639	-118.922	0.232	0.041
-498.624	71.349	-0.200	0.207
-497.610	-200.000	0.005	-0.104
-496.595	-116.921	-0.433	0.079
-495.581	-33.340	0.165	0.091
-494.566	-143.964	-0.385	-0.036
-493.551	-200.000	-0.012	0.157
-492.537	-122.360	-0.058	-0.010
-491.522	-132.705	-0.333	0.043
-490.508	800.000	-0.126	0.355
-489.493	800.000	-0.083	-0.271
-488.478	65.800	-0.270	-0.274
-487.464	124.360	0.214	-0.269
-486.449	209.150	-0.241	-0.377
-485.435	-81.369	0.152	-0.050
-484.420	-107.298	0.256	0.056
-483.405	226.129	-0.158	-0.256
-482.391	-200.000	-0.028	-0.133
-481.376	-127.527	0.067	0.010
-480.362	-200.000	0.060	0.495
-479.347	-200.000	0.038	0.311
-478.332	-200.000	-0.031	0.183
-477.318	-200.000	-0.005	-0.258
-476.303	-120.627	-0.276	0.047
-475.289	800.000	-0.067	0.204
-474.274	-73.712	0.186	0.068
-473.259	-33.462	0.081	0.045
-472.245	304.342	0.125	-0.232
-471.230	-20.253	0.076	-0.047
-470.216	800.000	-0.058	0.205
-469.201	-200.000	-0.005	-0.561
-468.186	187.852	0.209	-0.311
-467.172	-61.558	-0.092	-0.039
-466.157	130.157	0.122	0.157
-465.143	-200.000	-0.041	0.254
-464.128	-17.908	0.251	0.157
-463.113	-131.271	0.061	0.008
-462.099	183.511	-0.009	-0.014
-461.084	-111.932	-0.244	0.049
-460.070	89.428	-0.201	0.224
-459.055	-12.567	0.236	-0.154
-458.040	26.756	0.150	0.125
-457.026	326.906	0.208	0.399
-456.011	512.703	0.135	-0.315
-454.997	-200.000	0.054	0.339
-453.982	419.518	0.088	0.189
-452.968	-200.000	-0.011	-0.128
-451.953	-80.499	-0.220	-0.073
-450.938	-36.402	-0.324	-0.174
-449.924	15.665	0.184	0.144
-448.909	-200.000	-0.057	0.281
-447.895	308.197	0.113	0.211
-446.880	-114.687	-0.130	0.025
-445.865	125.547	0.088	-0.111
-444.851	751.939	0.077	-0.207
-443.836	800.000	-0.084	-0.289
-442.822	53.800	-0.300	0.287
-441.807	176.122	0.083	-0.121
-440.792	-47.281	-0.296	-0.144
-439.778	-200.000	0.061	0.276
-438.763	-108.332	-0.273	0.059
-437.749	43.647	0.129	-0.118
-436.734	11.697	-0.253	-0.194
-435.719	-6.724	0.201	-0.137
-434.705	-200.000	0.016	0.116
-433.690	669.860	-0.184	0.476
-432.676	1.758	0.273	-0.196
-431.661	150.500	-0.110	0.149
-430.646	7.284	-0.009	-0.006
-429.632	-159.120	0.069	-0.004
-428.617	-183.654	-0.289	-0.005
-427.603	179.252	0.037	-0.055
-426.588	-200.000	-0.001	-0.244
-425.573	493.174	0.076	-0.173
-424.559	-111.132	-0.178	0.036
-423.544	-200.000	0.008	-0.351
-422.530	-86.628	-0.162	-0.049
-421.515	50.100	0.063	0.059
-420.500	-200.000	0.021	-0.154
-419.486	800.000	0.071	0.216
-418.471	495.427	0.048	0.109
-417.457	-143.951	0.203	-0.019
-416.442	-157.341	-0.142	0.009
-415.428	22.680	-0.278	0.227
-414.413	123.115	0.142	0.178
-413.398	767.217	-0.077	0.209
-412.384	-55.315	0.243	0.109
-411.369	-200.000	0.004	0.188
-410.355	-200.000	-0.010	-0.199
-409.340	-200.000	0.055	-0.261
-408.325	-0.640	-0.107	0.076
-407.311	800.000	0.075	-0.292
-406.296	-22.676	-0.228	-0.137
-405.282	76.672	-0.059	0.062
-404.267	-117.218	-0.109	-0.020
-403.252	-101.434	0.225	-0.055
-402.238	800.000	-0.008	0.025
-401.223	237.783	-0.122	0.202
-400.209	372.606	-0.044	0.090
-399.194	-200.000	-0.287	0.001
-398.179	288.871	0.054	0.097
-397.165	-45.239	0.057	0.028
-396.150	-96.081	0.127	0.034
-395.136	-200.000	-0.021	-0.224
-394.121	534.189	-0.078	-0.185
-393.106	9.302	-0.162	0.122
-392.092	137.464	-0.095	0.124
-391.077	-34.814	0.304	-0.166
-390.063	162.660	-0.190	0.266
-389.048	-98.160	-0.133	-0.034
-388.033	239.540	-0.200	0.332
-387.019	124.031	0.020	0.026
-386.004	800.000	0.128	0.401
-384.990	81.724	0.280	-0.302
-383.975	136.497	-0.024	-0.032
-382.960	800.000	0.039	0.116
-381.946	67.902	0.057	-0.058
-380.931	800.000	-0.097	-0.337
-379.917	-27.150	0.004	-0.002
-378.902	33.412	-0.155	-0.134
-377.888	31.357	-0.138	-0.118
-376.873	-169.850	-0.040	0.001
-375.858	-98.841	0.159	-0.040
-374.844	102.769	-0.068	0.079
-373.829	286.607	-0.206	-0.371
-372.815	153.386	-0.256	-0.349
-371.800	-84.112	-0.221	0.070
-370.785	12.610	-0.277	0.213
-369.771	85.318	-0.117	-0.128
-368.756	202.526	0.177	0.272
-367.742	-75.739	0.048	0.017
-366.727	-200.000	0.003	0.020
-365.712	-200.000	0.027	0.262
-364.698	-123.177	0.095	-0.015
-363.683	-200.000	0.038	-0.242
-362.669	33.804	0.098	0.085
-361.654	117.311	0.053	-0.064
-360.639	-144.365	0.415	-0.038
-359.625	22.845	-0.129	0.105
-358.610	93.531	0.067	0.076
-357.596	-34.775	0.265	0.144
-356.581	148.445	0.057	0.077
-355.566	8.911	0.270	-0.203
-354.552	-200.000	0.028	0.342
-353.537	71.411	-0.116	0.120
-352.523	800.000	0.027	0.111
-351.508	43.342	0.027	-0.025
-350.493	-94.711	-0.275	0.074
-349.479	-183.440	0.161	0.003
-348.464	-0.751	-0.145	-0.103
-347.450	322.785	0.164	-0.310
-346.435	26.358	-0.187	-0.156
-345.420	272.372	-0.055	-0.096
-344.406	59.257	-0.113	-0.111
-343.391	357.675	0.096	-0.190
-342.377	-42.136	-0.252	0.128
-341.362	-44.813	0.216	0.107
-340.348	-64.690	-0.130	0.052
-339.333	22.495	0.184	0.150
-338.318	-200.000	0.065	0.338
-337.304	-200.000	0.043	-0.211
-336.289	63.904	0.231	0.231
-335.275	800.000	-0.055	0.166
-334.260	-200.000	-0.087	0.396
-333.245	800.000	0.040	-0.157
-332.231	-154.805	0.240	-0.016
-331.216	-200.000	-0.008	-0.154
-330.202	151.923	0.175	-0.237
-329.187	800.000	0.044	-0.128
-328.172	-100.513	0.219	-0.054
-327.158	-106.001	0.238	-0.053
-326.143	109.862	0.151	-0.180
-325.129	799.501	0.238	0.652
-324.114	-89.988	-0.408	-0.118
-323.099	-59.052	0.189	-0.081
-322.085	22.280	-0.129	-0.105
-321.070	-133.301	0.118	-0.015
-320.056	608.048	0.053	-0.131
-319.041	202.607	0.098	-0.150
-318.026	-81.977	0.486	-0.158
-317.012	-43.451	-0.312	0.157
-315.997	-102.655	0.237	0.056
-314.983	-74.376	-0.291	0.105
-313.968	-169.265	0.254	0.009
-312.953	800.000	-0.066	0.286
-311.939	93.238	0.107	-0.120
-310.924	394.885	0.043	0.090
-309.910	27.377	-0.105	0.088
-308.895	-125.062	0.075	0.011
-307.880	149.694	0.144	0.194
-306.866	-49.153	-0.150	-0.071
-305.851	-160.873	0.249	0.013
-304.837	800.000	0.050	-0.182
-303.822	48.435	-0.077	0.071
-302.807	211.941	0.024	0.037
-301.793	-126.051	-0.307	-0.046
-300.778	-48.479	0.029	-0.014
-299.764	65.433	0.123	-0.123
-298.749	-200.000	0.002	0.393
-297.735	-154.073	-0.122	-0.008
-296.720	108.179	0.087	0.103
-295.705	54.521	0.108	0.104
-294.691	0.416	0.218	-0.155
-293.676	26.783	0.101	-0.084
-292.662	715.108	0.024	0.064
-291.647	626.729	-0.053	0.132
-290.632	220.941	0.070	-0.111
-289.618	-20.696	0.473	-0.288
-288.603	-129.489	0.009	-0.001
-287.589	-200.000	0.009	0.217
-286.574	319.387	-0.042	0.079
-285.559	35.438	-0.139	0.121
-284.545	57.137	0.101	-0.098
-283.530	11.892	-0.146	-0.111
-282.516	-200.000	0.052	0.323
-281.501	-48.560	0.048	0.023
-280.486	339.905	0.122	0.237
-279.472	-1.432	-0.274	-0.192
-278.457	45.450	0.128	-0.118
-277.443	273.555	-0.029	0.051
-276.428	800.000	0.072	0.296
-275.413	48.070	0.073	0.067
-274.399	-75.212	-0.407	-0.144
-273.384	-200.000	0.021	0.249
-272.370	-70.695	-0.336	-0.126
-271.355	12.838	0.206	0.158
-270.340	132.501	0.174	-0.223
-269.326	72.730	-0.189	0.196
-268.311	-154.159	-0.202	-0.014
-267.297	-80.039	-0.084	-0.028
-266.282	462.992	0.029	-0.065
-265.267	800.000	0.066	0.185
-264.253	-71.481	-0.239	0.089
-263.238	93.332	-0.177	-0.199
-262.224	-131.718	0.277	0.036
-261.209	259.080	-0.157	0.268
-260.195	-59.742	-0.121	0.051
-259.180	-138.905	-0.136	0.015
-258.165	-200.000	0.001	-0.239
-257.151	-0.462	-0.235	-0.165
-256.136	800.000	0.007	0.021
-255.122	109.229	-0.027	0.032
-254.107	-110.156	0.012	0.002
-253.092	800.000	0.032	0.105
-252.078	19.454	0.238	0.189
-251.063	-48.286	-0.089	-0.042
-250.049	207.429	0.127	-0.196
-249.034	-200.000	-0.005	-0.569
-248.019	-148.715	0.233	-0.019
-247.005	800.000	0.019	0.059
-245.990	98.535	-0.141	-0.161
-244.976	31.251	0.147	-0.125
-243.961	3.517	0.180	0.130
-242.946	303.197	0.073	0.134
-241.932	194.301	0.103	-0.154
-240.917	-35.062	-0.187	-0.101
-239.903	800.000	0.070	0.263
-238.888	68.279	-0.099	0.101
-237.873	175.835	-0.096	0.137
-236.859	89.126	0.111	-0.122
-235.844	-125.888	0.219	-0.033
-234.830	-200.000	-0.019	-0.145
-233.815	-200.000	0.017	0.141
-232.800	-200.000	0.014	0.144
-231.786	800.000	-0.093	-0.317
-230.771	800.000	0.078	0.315
-229.757	55.109	-0.214	-0.204
-228.742	-69.580	0.093	-0.035
-227.727	82.512	-0.088	0.095
-226.713	570.187	-0.036	0.086
-225.698	-10.886	-0.228	0.149
-224.684	7.869	-0.280	-0.208
-223.669	66.444	-0.193	-0.194
-222.655	-30.820	-0.310	-0.174
-221.640	-64.121	-0.443	0.179
-220.625	800.000	-0.084	0.260
-219.611	-86.549	-0.124	-0.038
-218.596	-149.041	-0.264	0.021
-217.582	-117.770	-0.221	-0.039
-216.567	230.846	0.070	-0.113
-215.552	-200.000	0.094	-0.474
-214.538	17.504	0.139	0.110
-213.523	-38.736	-0.447	0.233
-212.509	-20.533	0.260	-0.158
-211.494	-42.503	0.127	0.064
-210.479	524.755	-0.131	0.305
-209.465	95.516	0.243	-0.274
-208.450	54.933	-0.379	-0.362
-207.436	100.648	0.194	0.223
-206.421	-200.000	0.020	-0.261
-205.406	384.072	-0.100	-0.203
-204.392	146.750	0.180	-0.240
-203.377	8.191	0.234	0.174
-202.363	-162.258	0.213	0.011
-201.348	-117.550	-0.154	-0.028
-200.333	384.814	0.081	0.166
-199.319	800.000	0.128	0.368
-198.304	-200.000	-0.001	-0.105
-197.290	-3.730	0.146	0.101
-196.275	3.794	-0.037	-0.026
-195.260	-81.044	0.172	0.056
-194.246	-17.502	-0.194	0.121
-193.231	155.599	0.379	0.516
-192.217	63.470	0.123	0.122
-191.202	-200.000	-0.009	0.443
-190.187	214.869	-0.068	-0.107
-189.173	761.293	0.034	0.092
-188.158	-171.073	0.282	0.009
-187.144	-121.868	0.239	0.039
-186.129	232.621	-0.136	0.221
-185.114	-16.046	-0.361	-0.227
-184.100	-135.613	0.270	-0.032
-183.085	103.417	0.148	0.171
-182.071	120.877	0.097	0.120
-181.056	237.568	-0.177	0.290
-180.042	800.000	0.040	0.121
-179.027	-200.000	-0.041	-0.185
-178.012	-200.000	-0.054	-0.365
-176.998	109.914	0.119	-0.142
-175.983	236.891	0.137	0.225
-174.969	-44.165	0.207	0.103
-173.954	378.515	-0.132	-0.268
-172.939	231.173	0.122	0.198
-171.925	-76.956	-0.464	-0.160
-170.910	112.448	-0.221	0.264
-169.896	-39.697	-0.158	-0.082
-168.881	-143.825	0.241	0.023
-167.866	-118.179	0.190	-0.033
-166.852	-51.639	-0.073	-0.034
-165.837	-146.630	0.021	-0.002
-164.823	-200.000	0.060	0.261
-163.808	-200.000	0.037	-0.191
-162.793	-200.000	-0.037	-0.334
-161.779	37.449	-0.010	-0.009
-160.764	-110.484	-0.185	-0.038
-159.750	-49.933	0.075	0.035
-158.735	-200.000	-0.007	0.159
-157.720	139.073	0.142	-0.184
-156.706	-111.165	-0.218	-0.044
-155.691	344.850	0.107	-0.206
-154.677	-96.696	-0.078	-0.020
-153.662	-65.492	0.219	-0.087
-152.647	800.000	-0.054	0.171
-151.633	515.642	0.142	-0.326
-150.618	-200.000	0.017	0.082
-149.604	218.143	-0.150	-0.236
-148.589	37.944	0.182	0.160
-147.574	-43.335	-0.231	0.115
-146.560	-148.021	0.461	-0.038
-145.545	22.458	0.163	-0.132
-144.531	58.666	0.038	-0.036
-143.516	569.725	-0.038	-0.092
-142.502	47.832	0.127	0.117
-141.487	800.000	0.044	-0.169
-140.472	87.094	-0.248	0.271
-139.458	-161.135	0.094	0.005
-138.443	800.000	-0.029	-0.113
-137.429	-8.811	0.090	0.060
-136.414	-59.453	0.288	0.122
-135.399	429.742	-0.211	0.451
-134.385	-200.000	0.012	0.255
-133.370	50.395	0.025	0.024
-132.356	420.281	-0.130	-0.274
-131.341	-52.565	0.085	-0.039
-130.326	640.252	-0.147	0.369
-129.312	-105.722	-0.302	-0.067
-128.297	-163.352	0.105	-0.005
-127.283	51.591	0.197	0.184
-126.268	800.000	-0.032	0.121
-125.253	319.834	0.198	0.370
-124.239	112.089	-0.185	0.220
-123.224	0.695	0.249	0.176
-122.210	-23.838	0.149	-0.088
-121.195	-200.000	-0.039	-0.169
-120.180	-114.919	-0.242	-0.045
-119.166	-70.555	0.331	0.124
