DTS Sentinel unit serial number:	SN413079Multiplexer serial number:	ORYXHardware model number:	OX4-SRSoftware version number:	ORYX F/W v4.00 Oryx Data Collector v3.7.2.0data status	okinstallation	princeton_trtdifferential loss correction	single-endedforward channel	channel 1reverse channel	N/Adate	2019/09/17time	03:18:35forward acquisition time	60.00reverse acquisition time	0.00gamma	496.2192k internal	0.2323k external	0.2323temperature offset calibration	0.9956default loss term (dB/km)	0.3790temperature slope calibration	1.0000multiplexer offset coefficient	1.0000multiplexer slope coefficient	1.0000fibre end	0.00T internal ref (°C)	30.00T ext. ref 1 (°C)	0.14T ext. ref 2 (°C)	24.90length (m)	temperature (°C)	Stokes	anti-Stokes-747.200	-71.976	0.407	0.153
-746.185	-41.593	0.093	-0.048
-745.171	-57.818	0.123	0.054
-744.156	188.426	0.122	0.184
-743.142	800.000	-0.084	-0.234
-742.127	292.284	-0.094	0.173
-741.112	51.558	-0.161	0.154
-740.098	-29.475	0.159	-0.092
-739.083	-200.000	-0.036	-0.163
-738.069	191.286	-0.097	0.147
-737.054	-135.697	0.086	-0.010
-736.039	-142.152	-0.186	-0.019
-735.025	-146.485	0.204	-0.018
-734.010	786.201	0.125	-0.345
-732.996	800.000	0.101	-0.282
-731.981	-97.581	-0.163	-0.043
-730.966	-200.000	-0.023	-0.280
-729.952	-84.653	-0.280	-0.089
-728.937	-77.443	-0.314	-0.110
-727.923	78.420	0.058	0.063
-726.908	-79.845	0.104	-0.035
-725.894	166.547	-0.065	0.093
-724.879	703.262	-0.049	0.131
-723.864	315.528	-0.063	-0.119
-722.850	-172.592	-0.256	0.008
-721.835	182.041	0.203	-0.302
-720.821	179.021	-0.167	-0.247
-719.806	800.000	0.054	0.163
-718.791	-55.996	-0.183	0.082
-717.777	163.587	-0.188	0.267
-716.762	23.601	-0.268	-0.223
-715.748	-200.000	0.038	-0.479
-714.733	347.583	-0.230	-0.458
-713.718	324.263	-0.030	-0.058
-712.704	-134.157	-0.473	-0.059
-711.689	-177.736	0.046	0.001
-710.675	12.135	0.059	0.046
-709.660	-74.696	-0.253	0.092
-708.645	800.000	-0.097	-0.342
-707.631	-1.890	0.269	-0.191
-706.616	186.120	0.371	-0.556
-705.602	11.441	0.047	0.036
-704.587	55.656	-0.137	-0.134
-703.572	-146.191	0.454	-0.040
-702.558	-136.256	0.226	0.027
-701.543	-200.000	0.046	-0.277
-700.529	-200.000	-0.027	-0.173
-699.514	800.000	0.060	0.252
-698.499	221.977	0.146	-0.237
-697.485	182.428	-0.162	0.241
-696.470	102.660	0.498	0.587
-695.456	35.677	-0.266	-0.235
-694.441	800.000	0.043	0.165
-693.426	727.741	-0.061	0.165
-692.412	8.661	0.091	0.069
-691.397	-12.353	-0.207	0.136
-690.383	46.872	0.273	0.256
-689.368	-64.112	0.120	-0.049
-688.354	-98.105	-0.204	0.053
-687.339	48.038	0.218	-0.205
-686.324	-150.529	-0.198	0.015
-685.310	-113.589	-0.512	0.101
-684.295	-31.518	0.039	0.022
-683.281	-36.095	0.180	0.098
-682.266	-200.000	-0.018	0.112
-681.251	800.000	0.035	-0.135
-680.237	222.406	0.143	0.232
-679.222	-122.681	-0.209	-0.034
-678.208	23.613	-0.344	0.286
-677.193	125.433	0.102	-0.130
-676.178	-120.065	0.155	0.027
-675.164	-200.000	0.017	-0.199
-674.149	-101.132	0.302	-0.074
-673.135	248.524	-0.052	-0.088
-672.120	-96.470	-0.183	-0.049
-671.105	-200.000	0.007	0.124
-670.091	-74.876	-0.337	-0.122
-669.076	-107.468	-0.266	-0.059
-668.062	800.000	0.075	-0.271
-667.047	-91.272	-0.570	0.164
-666.032	-142.838	0.109	0.011
-665.018	-110.050	-0.265	-0.056
-664.003	-76.389	-0.116	0.041
-662.989	342.239	-0.096	-0.190
-661.974	115.055	-0.184	-0.225
-660.959	-131.445	-0.034	0.005
-659.945	-110.078	-0.261	0.055
-658.930	156.546	0.060	-0.084
-657.916	85.521	-0.199	-0.220
-656.901	-200.000	-0.021	-0.100
-655.886	61.362	-0.139	0.139
-654.872	800.000	-0.051	0.179
-653.857	-200.000	0.010	-0.107
-652.843	-200.000	0.008	-0.137
-651.828	6.245	-0.157	0.117
-650.814	322.323	-0.143	0.273
-649.799	-25.375	-0.096	0.057
-648.784	800.000	-0.067	0.285
-647.770	-93.431	0.237	-0.066
-646.755	125.180	0.279	-0.353
-645.741	48.193	-0.027	0.025
-644.726	2.626	0.241	0.176
-643.711	257.076	-0.072	0.125
-642.697	-115.427	-0.200	0.038
-641.682	-200.000	-0.005	0.065
-640.668	-200.000	-0.007	-0.225
-639.653	-32.478	0.087	0.049
-638.638	-116.192	0.216	-0.040
-637.624	208.454	-0.138	-0.216
-636.609	-200.000	0.041	-0.224
-635.595	-77.004	0.143	0.050
-634.580	-166.002	-0.198	-0.009
-633.565	-154.608	-0.115	-0.008
-632.551	218.559	0.111	0.178
-631.536	-82.890	-0.097	-0.032
-630.522	-102.574	0.179	-0.043
-629.507	92.578	0.199	-0.225
-628.492	-200.000	-0.010	0.110
-627.478	136.388	-0.140	0.184
-626.463	-42.651	0.040	0.021
-625.449	341.332	-0.041	-0.082
-624.434	90.972	-0.066	-0.074
-623.419	32.273	-0.101	-0.088
-622.405	27.797	-0.094	-0.079
-621.390	119.028	-0.146	-0.181
-620.376	-27.343	-0.225	0.131
-619.361	14.062	0.308	-0.241
-618.346	800.000	0.031	0.102
-617.332	99.268	0.067	-0.077
-616.317	254.124	-0.093	-0.160
-615.303	-200.000	-0.063	-0.394
-614.288	-200.000	0.006	-0.075
-613.273	-30.351	-0.379	-0.216
-612.259	9.534	0.096	-0.073
-611.244	17.978	0.093	0.075
-610.230	800.000	-0.021	-0.091
-609.215	795.660	-0.030	0.082
-608.201	800.000	0.071	0.222
-607.186	-200.000	0.000	0.142
-606.171	63.150	0.135	0.136
-605.157	-200.000	-0.038	-0.220
-604.142	-118.476	-0.197	0.035
-603.128	-200.000	-0.024	0.212
-602.113	-133.523	0.130	-0.016
-601.098	-159.149	0.335	0.019
-600.084	237.125	-0.027	-0.045
-599.069	800.000	-0.151	0.515
-598.055	-200.000	-0.049	0.353
-597.040	646.712	-0.040	0.102
-596.025	800.000	-0.092	0.373
-595.011	70.795	-0.103	0.107
-593.996	-133.948	-0.014	0.002
-592.982	-123.769	-0.131	-0.021
-591.967	321.452	-0.149	-0.284
-590.952	-200.000	-0.018	-0.456
-589.938	-34.019	0.183	-0.101
-588.923	800.000	0.057	-0.216
-587.909	-27.665	0.153	-0.089
-586.894	174.419	-0.137	0.198
-585.879	-200.000	0.060	0.357
-584.865	-12.281	0.317	-0.208
-583.850	-200.000	-0.046	-0.238
-582.836	-109.703	-0.191	0.040
-581.821	380.222	0.033	0.069
-580.806	-81.231	-0.167	0.055
-579.792	-32.169	-0.312	0.175
-578.777	391.006	0.155	0.322
-577.763	133.836	-0.076	0.098
-576.748	-200.000	-0.012	0.210
-575.733	-93.082	0.220	0.062
-574.719	-163.049	0.239	-0.012
-573.704	-200.000	0.037	0.201
-572.690	-139.722	0.243	0.026
-571.675	800.000	-0.134	-0.500
-570.661	-122.126	-0.101	0.017
-569.646	-120.358	-0.026	-0.004
-568.631	-21.991	-0.253	0.154
-567.617	53.991	-0.085	0.082
-566.602	-54.316	-0.130	0.059
-565.588	556.584	0.133	-0.322
-564.573	-149.710	-0.152	0.012
-563.558	14.895	-0.071	0.055
-562.544	86.402	-0.065	0.072
-561.529	38.394	-0.102	0.092
-560.515	800.000	0.102	0.310
-559.500	176.225	0.060	0.087
-558.485	668.567	0.172	-0.446
-557.471	-200.000	-0.003	0.055
-556.456	-74.160	-0.173	0.063
-555.442	-200.000	-0.045	-0.219
-554.427	-200.000	-0.010	0.163
-553.412	-56.452	0.279	0.124
-552.398	800.000	0.056	-0.164
-551.383	-36.648	-0.176	0.095
-550.369	567.273	-0.109	0.265
-549.354	10.653	0.237	-0.181
-548.339	121.688	0.050	0.062
-547.325	800.000	-0.013	-0.036
-546.310	-100.941	0.379	0.093
-545.296	-140.676	-0.426	-0.044
-544.281	76.299	0.043	-0.045
-543.266	800.000	0.020	0.069
-542.252	800.000	0.011	0.039
-541.237	-200.000	-0.001	0.140
-540.223	-78.482	-0.339	-0.116
-539.208	-110.985	-0.453	-0.093
-538.193	189.467	-0.115	-0.173
-537.179	800.000	-0.066	-0.250
-536.164	-200.000	-0.022	-0.173
-535.150	-118.665	-0.298	-0.053
-534.135	-60.996	0.142	0.060
-533.121	197.657	0.145	0.221
-532.106	136.589	0.015	0.020
-531.091	-7.759	-0.053	0.036
-530.077	-102.209	-0.248	0.060
-529.062	-200.000	-0.005	0.169
-528.048	-114.354	0.202	0.039
-527.033	-18.463	-0.079	0.050
-526.018	-136.939	-0.383	-0.044
-525.004	150.485	-0.104	-0.142
-523.989	-80.499	-0.172	-0.057
-522.975	30.149	-0.223	-0.190
-521.960	-74.703	0.118	0.042
-520.945	97.650	-0.085	0.098
-519.931	-152.519	0.232	0.017
-518.916	-198.859	-0.199	-0.001
-517.902	217.402	0.152	-0.243
-516.887	-110.444	0.445	-0.093
-515.872	-200.000	0.037	-0.171
-514.858	-117.589	0.099	0.018
-513.843	-2.141	0.179	-0.126
-512.829	149.132	-0.195	-0.264
-511.814	84.834	0.044	0.048
-510.799	2.064	0.142	-0.103
-509.785	-200.000	0.066	-0.521
-508.770	167.514	-0.096	-0.137
-507.756	-148.967	0.158	0.013
-506.741	-91.038	-0.345	-0.099
-505.726	-2.444	0.139	0.098
-504.712	57.869	-0.309	-0.303
-503.697	105.446	0.169	0.200
-502.683	-70.174	0.153	0.058
-501.668	-52.923	0.113	-0.052
-500.653	-158.017	-0.160	0.009
-499.639	-142.778	-0.282	-0.027
-498.624	-20.376	-0.028	-0.017
-497.610	-200.000	-0.047	-0.230
-496.595	-200.000	-0.004	-0.087
-495.581	-19.186	0.144	0.090
-494.566	-122.683	-0.020	-0.003
-493.551	-200.000	0.023	0.310
-492.537	15.435	0.072	0.056
-491.522	800.000	0.033	-0.094
-490.508	-70.636	0.064	0.024
-489.493	68.481	0.210	0.215
-488.478	-123.554	-0.065	0.010
-487.464	132.940	-0.081	0.104
-486.449	639.072	0.110	0.279
-485.435	-28.990	-0.046	-0.026
-484.420	800.000	-0.064	-0.180
-483.405	42.015	0.135	0.123
-482.391	647.169	0.084	-0.215
-481.376	112.810	-0.127	0.154
-480.362	-101.118	0.173	0.042
-479.347	44.038	0.312	-0.286
-478.332	-200.000	-0.001	0.190
-477.318	-132.355	0.070	-0.009
-476.303	-128.343	0.183	-0.026
-475.289	133.287	-0.083	-0.107
-474.274	-60.090	-0.114	-0.049
-473.259	-74.913	0.187	0.067
-472.245	-145.765	0.109	0.010
-471.230	119.796	-0.049	-0.061
-470.216	347.636	-0.149	-0.294
-469.201	-58.160	0.110	0.048
-468.186	-1.189	0.139	-0.098
-467.172	-41.188	-0.102	0.053
-466.157	-200.000	-0.027	0.326
-465.143	88.907	0.066	0.073
-464.128	-72.115	-0.278	0.103
-463.113	800.000	0.031	-0.092
-462.099	-64.104	0.084	-0.034
-461.084	800.000	-0.034	-0.114
-460.070	800.000	-0.060	0.172
-459.055	-109.520	-0.224	0.047
-458.040	132.817	-0.236	-0.304
-457.026	171.595	0.121	-0.174
-456.011	21.213	0.142	-0.115
-454.997	-117.286	-0.374	-0.068
-453.982	-155.844	0.229	-0.015
-452.968	-200.000	0.003	0.030
-451.953	-200.000	-0.009	0.170
-450.938	-65.019	0.109	0.044
-449.924	-81.629	-0.035	-0.012
-448.909	5.083	0.061	0.045
-447.895	-4.178	0.163	0.113
-446.880	-143.225	-0.297	0.028
-445.865	-137.036	-0.211	0.024
-444.851	-200.000	0.002	-0.115
-443.836	97.291	0.018	0.021
-442.822	149.721	0.055	-0.075
-441.807	77.147	0.083	0.088
-440.792	136.548	-0.155	-0.202
-439.778	-133.367	-0.308	-0.039
-438.763	-123.662	-0.465	0.074
-437.749	800.000	0.053	0.173
-436.734	-40.593	-0.344	-0.178
-435.719	800.000	0.132	0.446
-434.705	46.158	0.220	-0.203
-433.690	800.000	0.078	-0.274
-432.676	800.000	-0.117	-0.409
-431.661	14.785	-0.141	-0.110
-430.646	-31.932	0.251	-0.140
-429.632	104.724	0.182	-0.214
-428.617	173.716	-0.216	0.312
-427.603	800.000	-0.018	-0.050
-426.588	-91.636	0.198	0.056
-425.573	-200.000	-0.001	0.164
-424.559	153.505	0.119	0.163
-423.544	-200.000	-0.012	-0.302
-422.530	19.301	0.172	0.138
-421.515	381.665	-0.249	0.510
-420.500	-28.920	0.162	0.093
-419.486	800.000	0.055	0.167
-418.471	73.464	-0.167	0.175
-417.457	-134.222	0.101	0.012
-416.442	-200.000	0.023	-0.242
-415.428	-137.396	0.196	-0.022
-414.413	720.917	0.052	0.137
-413.398	82.059	0.189	-0.205
-412.384	-77.812	-0.196	-0.068
-411.369	60.292	0.133	-0.131
-410.355	37.016	0.251	0.221
-409.340	-22.599	-0.151	-0.091
-408.325	-101.406	0.244	0.059
-407.311	141.907	0.210	0.277
-406.296	-18.554	-0.059	-0.037
-405.282	578.408	-0.146	-0.357
-404.267	147.476	-0.020	0.026
-403.252	-157.257	-0.110	0.007
-402.238	-90.157	-0.046	0.013
-401.223	-194.137	0.247	0.002
-400.209	-5.997	-0.361	-0.246
-399.194	92.296	0.013	-0.014
-398.179	800.000	0.019	0.052
-397.165	363.537	0.111	-0.223
-396.150	800.000	0.047	-0.155
-395.136	-114.261	-0.118	-0.023
-394.121	-33.002	-0.255	0.141
-393.106	800.000	-0.048	-0.195
-392.092	134.452	-0.102	0.132
-391.077	54.285	-0.193	0.185
-390.063	-200.000	-0.001	0.047
-389.048	116.285	-0.140	-0.171
-388.033	727.072	-0.047	-0.125
-387.019	-51.144	0.267	0.125
-386.004	-48.226	0.146	-0.070
-384.990	-116.336	-0.278	-0.051
-383.975	116.960	-0.134	-0.164
-382.960	800.000	0.061	0.258
-381.946	12.915	-0.106	-0.082
-380.931	-53.436	-0.167	0.076
-379.917	-93.003	0.367	-0.102
-378.902	102.937	-0.048	0.056
-377.888	21.058	-0.107	-0.086
-376.873	-112.346	0.244	-0.049
-375.858	292.976	0.028	0.051
-374.844	-148.282	0.138	-0.011
-373.829	-200.000	0.022	-0.182
-372.815	-165.392	0.407	0.018
-371.800	272.815	-0.090	0.158
-370.785	98.368	0.309	0.355
-369.771	-200.000	0.032	0.151
-368.756	-151.465	-0.200	0.015
-367.742	-200.000	0.022	-0.136
-366.727	100.012	-0.048	-0.055
-365.712	-3.717	-0.213	0.147
-364.698	-200.000	0.069	-0.359
-363.683	800.000	0.073	0.303
-362.669	-41.055	0.178	0.091
-361.654	173.211	-0.117	0.168
-360.639	49.462	-0.113	0.106
-359.625	32.004	0.122	-0.105
-358.610	105.836	0.206	0.243
-357.596	-25.905	-0.150	-0.088
-356.581	609.645	0.049	-0.122
-355.566	-200.000	-0.005	-0.105
-354.552	-82.522	-0.243	0.078
-353.537	-63.205	0.052	0.022
-352.523	-200.000	-0.017	-0.147
-351.508	-126.581	0.253	0.037
-350.493	-74.437	0.258	-0.093
-349.479	-91.954	-0.239	0.067
-348.464	126.396	-0.102	-0.128
-347.450	-80.237	0.089	-0.030
-346.435	-65.255	0.019	0.008
-345.420	310.660	0.146	0.272
-344.406	800.000	0.074	0.248
-343.391	472.249	-0.142	-0.318
-342.377	-79.073	0.376	0.127
-341.362	-35.285	-0.077	0.042
-340.348	-200.000	-0.007	-0.064
-339.333	800.000	0.021	0.077
-338.318	73.485	0.112	0.117
-337.304	-165.045	0.154	0.007
-336.289	-192.962	-0.272	-0.002
-335.275	398.375	-0.054	0.111
-334.260	-130.803	0.212	-0.028
-333.245	743.484	-0.090	-0.241
-332.231	-82.220	-0.175	-0.057
-331.216	148.770	0.056	0.075
-330.202	-195.581	-0.315	-0.002
-329.187	-9.650	-0.319	-0.211
-328.172	-200.000	-0.001	-0.143
-327.158	356.009	0.054	0.108
-326.143	25.129	0.126	-0.104
-325.129	800.000	-0.052	-0.226
-324.114	445.174	0.188	-0.410
-323.099	800.000	-0.085	0.289
-322.085	-94.564	0.358	0.097
-321.070	333.445	-0.114	-0.219
-320.056	-149.961	-0.160	-0.012
-319.041	38.639	0.051	-0.045
-318.026	173.112	0.151	0.216
-317.012	-79.210	-0.151	-0.051
-315.997	800.000	-0.022	-0.068
-314.983	-106.496	-0.196	0.043
-313.968	164.582	-0.135	-0.190
-312.953	-74.111	0.056	-0.020
-311.939	-107.341	-0.166	-0.036
-310.924	382.666	-0.153	0.313
-309.910	289.657	-0.338	0.608
-308.895	-134.269	0.191	-0.023
-307.880	-200.000	0.019	0.184
-306.866	26.167	0.208	-0.172
-305.851	800.000	0.018	-0.058
-304.837	740.190	-0.086	-0.229
-303.822	-101.448	0.051	0.012
-302.807	97.685	-0.075	-0.086
-301.793	-107.289	-0.261	0.057
-300.778	88.815	0.115	0.127
-299.764	108.202	-0.083	-0.099
-298.749	-79.350	-0.208	0.070
-297.735	-108.915	-0.067	0.014
-296.720	-200.000	-0.011	0.374
-295.705	-101.513	0.242	-0.058
-294.691	-200.000	0.072	-0.340
-293.676	27.042	0.243	-0.202
-292.662	349.144	0.150	0.294
-291.647	-200.000	0.008	0.139
-290.632	194.902	0.127	-0.191
-289.618	33.506	-0.224	0.193
-288.603	591.749	-0.068	0.167
-287.589	66.928	0.095	-0.095
-286.574	66.434	0.287	-0.289
-285.559	595.463	0.115	-0.283
-284.545	-200.000	0.003	0.114
-283.530	-97.060	0.255	-0.066
-282.516	124.274	-0.268	0.335
-281.501	-138.441	-0.163	0.018
-280.486	-200.000	-0.033	0.252
-279.472	158.658	0.146	0.200
-278.457	-104.185	-0.116	-0.027
-277.443	-200.000	-0.002	0.066
-276.428	-200.000	-0.019	0.104
-275.413	103.913	-0.293	-0.342
-274.399	-200.000	0.029	-0.269
-273.384	522.788	0.184	-0.430
-272.370	683.170	0.104	-0.270
-271.355	-200.000	0.056	0.294
-270.340	-174.643	-0.327	-0.009
-269.326	-13.917	-0.044	0.028
-268.311	139.239	-0.053	0.069
-267.297	793.288	0.024	-0.066
-266.282	800.000	0.052	-0.173
-265.267	-141.695	-0.484	0.048
-264.253	-200.000	-0.002	-0.157
-263.238	-41.844	-0.115	-0.058
-262.224	-39.980	0.016	-0.008
-261.209	-72.347	0.190	0.070
-260.195	800.000	0.032	-0.109
-259.180	7.260	-0.175	0.129
-258.165	-4.023	-0.233	-0.160
-257.151	72.915	-0.133	-0.138
-256.136	115.909	-0.109	-0.133
-255.122	-57.919	-0.039	0.017
-254.107	800.000	-0.088	-0.316
-253.092	-200.000	0.014	0.123
-252.078	-39.659	0.265	0.138
-251.063	134.855	0.045	-0.058
-250.049	-67.268	0.299	0.116
-249.034	38.828	0.070	0.062
-248.019	800.000	0.084	0.313
-247.005	10.480	0.190	0.143
-245.990	-62.908	-0.297	0.122
-244.976	231.279	0.185	-0.300
-243.961	-200.000	0.015	-0.145
-242.946	-65.242	0.072	0.029
-241.932	-64.774	-0.158	-0.064
-240.917	-187.088	-0.105	0.001
-239.903	-60.704	0.265	0.111
-238.888	-115.943	0.285	0.053
-237.873	132.113	0.028	-0.036
-236.859	-76.595	0.147	0.051
-235.844	-64.212	-0.208	0.084
-234.830	-200.000	0.062	-0.461
-233.815	8.945	0.204	-0.153
-232.800	-200.000	0.073	-0.673
-231.786	39.639	-0.194	0.172
-230.771	467.757	-0.064	0.141
-229.757	539.180	0.070	0.165
-228.742	82.031	-0.234	0.251
-227.727	-52.923	-0.369	0.168
-226.713	-151.783	-0.366	-0.027
-225.698	83.262	0.242	-0.261
-224.684	-39.210	0.295	-0.154
-223.669	800.000	-0.115	0.410
-222.655	99.855	-0.250	0.287
-221.640	-85.182	-0.120	-0.037
-220.625	65.092	0.216	-0.216
-219.611	236.931	0.059	0.097
-218.596	800.000	-0.038	-0.132
-217.582	30.398	0.111	-0.094
-216.567	-6.405	0.085	-0.057
-215.552	-10.607	-0.120	-0.078
-214.538	-200.000	0.080	-0.379
-213.523	-114.574	0.163	-0.031
-212.509	169.533	-0.178	0.251
-211.494	-200.000	0.013	0.119
-210.479	-42.860	0.167	0.084
-209.465	-62.875	0.121	0.050
-208.450	-117.538	-0.142	0.025
-207.436	772.526	0.108	-0.292
-206.421	299.192	-0.086	0.156
-205.406	-135.947	-0.148	0.017
-204.392	-200.000	-0.041	0.253
-203.377	3.943	0.126	0.091
-202.363	22.939	-0.160	0.129
-201.348	-128.659	0.155	0.022
-200.333	228.901	0.052	-0.083
-199.319	-200.000	0.014	0.106
-198.304	-133.777	-0.153	0.019
-197.290	-200.000	-0.018	0.312
-196.275	30.908	0.265	-0.224
-195.260	-109.684	-0.143	0.030
-194.246	30.451	0.335	0.283
-193.231	105.941	-0.162	0.190
-192.217	-120.461	-0.221	-0.037
-191.202	254.799	-0.052	-0.089
-190.187	58.760	0.201	0.195
-189.173	-35.682	-0.248	0.133
-188.158	-200.000	0.034	-0.205
-187.144	-68.596	0.221	0.084
-186.129	9.243	0.110	0.082
-185.114	-154.375	0.197	0.013
-184.100	-165.159	-0.525	0.023
-183.085	800.000	-0.066	0.245
-182.071	-1.170	-0.141	-0.098
-181.056	39.905	0.191	-0.169
-180.042	-200.000	0.003	0.093
-179.027	-200.000	0.019	-0.244
-178.012	250.720	-0.152	0.255
-176.998	285.529	-0.081	-0.144
-175.983	242.222	-0.069	0.113
-174.969	124.592	-0.047	0.059
-173.954	-43.012	-0.240	0.120
-172.939	-1.204	0.189	0.132
-171.925	-69.524	0.099	-0.038
-170.910	206.393	0.093	-0.143
-169.896	6.897	0.133	-0.098
-168.881	768.282	0.059	-0.159
-167.866	-200.000	0.048	0.411
-166.852	-200.000	-0.012	0.207
-165.837	-2.963	0.239	-0.165
-164.823	-146.525	0.088	0.008
-163.808	-200.000	0.000	0.254
-162.793	82.468	0.096	0.103
-161.779	-3.433	0.289	0.199
-160.764	-139.401	0.189	0.020
-159.750	-123.990	0.040	0.006
-158.735	800.000	0.042	0.178
-157.720	800.000	-0.059	-0.193
-156.706	-130.998	0.150	0.020
-155.691	396.588	-0.052	0.107
-154.677	-200.000	-0.000	0.181
-153.662	-152.693	0.308	0.022
-152.647	-136.865	0.380	-0.043
-151.633	-40.463	-0.125	0.064
-150.618	-200.000	-0.044	-0.191
-149.604	95.928	-0.281	-0.317
-148.589	-56.467	0.137	0.060
-147.574	327.807	0.104	-0.198
-146.560	-51.315	0.095	-0.044
-145.545	77.543	-0.283	0.297
-144.531	-199.145	-0.334	0.002
-143.516	453.897	0.146	-0.320
-142.502	-84.500	0.065	0.020
-141.487	330.600	-0.060	0.115
-140.472	-200.000	-0.037	-0.211
-139.458	-66.984	0.052	0.020
-138.443	58.961	-0.175	-0.169
-137.429	800.000	-0.021	0.071
-136.414	-103.807	0.221	-0.051
-135.399	6.667	-0.025	0.018
-134.385	-90.939	0.209	-0.059
-133.370	800.000	0.068	-0.280
-132.356	-105.143	0.338	0.076
-131.341	800.000	-0.032	-0.136
-130.326	97.988	-0.101	-0.115
-129.312	172.653	0.136	0.193
-128.297	-124.463	0.082	-0.013
-127.283	-114.582	-0.315	0.059
-126.268	27.068	0.333	-0.275
-125.253	-103.241	-0.347	0.081
-124.239	-200.000	-0.017	-0.073
-123.224	106.508	0.125	-0.147
-122.210	-200.000	-0.006	0.182
-121.195	195.917	0.135	0.203
