DTS Sentinel unit serial number:	SN413079Multiplexer serial number:	ORYXHardware model number:	OX4-SRSoftware version number:	ORYX F/W v4.00 Oryx Data Collector v3.7.2.0data status	okinstallation	princeton_trtdifferential loss correction	single-endedforward channel	channel 1reverse channel	N/Adate	2019/09/16time	07:54:35forward acquisition time	60.00reverse acquisition time	0.00gamma	496.2192k internal	0.2328k external	0.2328temperature offset calibration	0.9980default loss term (dB/km)	0.3790temperature slope calibration	1.0000multiplexer offset coefficient	1.0000multiplexer slope coefficient	1.0000fibre end	0.00T internal ref (°C)	28.30T ext. ref 1 (°C)	11.74T ext. ref 2 (°C)	24.69length (m)	temperature (°C)	Stokes	anti-Stokes-747.200	558.220	0.114	0.277
-746.185	11.345	-0.354	0.274
-745.171	-200.000	-0.015	0.375
-744.156	135.605	0.167	0.219
-743.142	-11.266	-0.320	-0.213
-742.127	-200.000	-0.015	-0.147
-741.112	-148.024	-0.232	0.019
-740.098	800.000	0.048	0.180
-739.083	-200.000	0.003	0.064
-738.069	-137.179	-0.285	-0.033
-737.054	-7.529	-0.213	0.145
-736.039	-200.000	0.058	-0.344
-735.025	-110.044	0.511	-0.108
-734.010	-3.775	-0.272	-0.191
-732.996	51.271	-0.100	0.095
-731.981	143.848	-0.091	-0.122
-730.966	-45.893	-0.257	0.128
-729.952	-200.000	0.034	-0.158
-728.937	505.176	-0.087	0.203
-727.923	0.893	-0.031	-0.022
-726.908	800.000	-0.061	-0.213
-725.894	92.396	-0.097	-0.110
-724.879	683.446	-0.084	-0.219
-723.864	800.000	-0.065	0.277
-722.850	194.191	0.076	0.116
-721.835	-131.921	-0.139	0.018
-720.821	36.286	0.143	-0.127
-719.806	-60.546	-0.180	0.077
-718.791	218.627	-0.192	0.308
-717.777	-72.608	0.018	-0.007
-716.762	87.801	-0.370	0.413
-715.748	120.921	0.045	-0.056
-714.733	-200.000	0.064	0.293
-713.718	800.000	0.029	-0.099
-712.704	-197.487	0.160	0.001
-711.689	78.989	-0.274	0.295
-710.675	-112.771	0.162	-0.032
-709.660	-66.678	0.121	0.048
-708.645	-106.483	-0.180	-0.040
-707.631	-11.622	0.090	-0.059
-706.616	-45.478	-0.389	0.194
-705.602	800.000	0.037	-0.118
-704.587	-98.045	-0.136	-0.035
-703.572	158.371	0.137	-0.191
-702.558	-200.000	-0.027	0.187
-701.543	-111.902	0.389	0.079
-700.529	800.000	0.062	-0.267
-699.514	-97.792	0.272	-0.071
-698.499	-47.150	-0.068	0.033
-697.485	96.209	-0.282	0.324
-696.470	-42.926	0.363	0.186
-695.456	-200.000	0.034	0.374
-694.441	142.054	-0.117	0.156
-693.426	78.150	-0.270	0.289
-692.412	800.000	0.039	0.129
-691.397	800.000	-0.083	0.295
-690.383	-200.000	0.082	0.397
-689.368	-144.459	0.160	0.015
-688.354	-136.326	-0.333	0.039
-687.339	-200.000	-0.010	-0.198
-686.324	-148.998	0.307	0.025
-685.310	-36.530	0.214	-0.116
-684.295	184.211	-0.146	0.217
-683.281	-107.739	0.305	-0.067
-682.266	800.000	-0.092	0.316
-681.251	-200.000	-0.032	-0.191
-680.237	-200.000	0.011	0.134
-679.222	504.712	0.091	0.213
-678.208	14.682	-0.083	-0.065
-677.193	-200.000	-0.024	-0.142
-676.178	5.721	0.152	-0.113
-675.164	-92.829	0.409	-0.115
-674.149	-66.083	-0.286	0.115
-673.135	0.856	-0.323	-0.233
-672.120	413.822	-0.108	0.230
-671.105	800.000	0.034	0.142
-670.091	-11.025	0.375	-0.249
-669.076	3.930	0.188	0.138
-668.062	150.580	0.168	-0.229
-667.047	-200.000	0.011	0.538
-666.032	-15.209	0.166	-0.107
-665.018	185.396	0.092	0.138
-664.003	371.013	-0.165	-0.337
-662.989	-51.626	-0.047	0.022
-661.974	157.805	-0.235	0.327
-660.959	-22.521	-0.177	0.108
-659.945	-160.846	-0.331	-0.018
-658.930	-67.646	-0.264	0.104
-657.916	240.106	0.121	0.203
-656.901	-31.726	0.057	-0.032
-655.886	95.457	0.120	0.138
-654.872	7.114	0.050	-0.037
-653.857	-135.508	0.180	0.021
-652.843	165.969	-0.134	0.190
-651.828	379.630	-0.249	0.511
-650.814	-200.000	-0.021	0.224
-649.799	-122.389	-0.212	-0.035
-648.784	768.412	0.115	-0.314
-647.770	800.000	-0.053	-0.182
-646.755	106.639	0.063	-0.075
-645.741	345.234	0.218	0.429
-644.726	-15.217	-0.167	-0.107
-643.711	-19.785	-0.094	0.059
-642.697	-28.576	0.194	0.112
-641.682	-6.043	-0.056	0.038
-640.668	460.678	-0.081	0.181
-639.653	-132.106	-0.126	0.016
-638.638	-85.116	0.124	0.039
-637.624	164.226	-0.253	0.358
-636.609	-164.197	-0.057	0.003
-635.595	622.581	-0.033	0.083
-634.580	-200.000	0.009	-0.117
-633.565	800.000	-0.046	0.170
-632.551	-8.373	0.158	-0.106
-631.536	-114.023	-0.292	0.057
-630.522	-41.072	0.117	-0.061
-629.507	521.356	-0.075	-0.177
-628.492	-134.053	0.143	0.018
-627.478	319.006	0.028	-0.053
-626.463	-166.504	0.113	0.005
-625.449	-112.743	-0.237	0.047
-624.434	-88.275	-0.124	-0.037
-623.419	-79.624	-0.186	0.063
-622.405	10.530	-0.024	-0.018
-621.390	17.210	-0.043	-0.034
-620.376	-166.366	0.158	0.007
-619.361	97.245	-0.142	0.163
-618.346	-145.742	-0.431	0.039
-617.332	588.603	-0.066	0.163
-616.317	251.941	-0.160	0.273
-615.303	-162.491	-0.313	0.016
-614.288	80.251	-0.171	0.185
-613.273	-109.345	-0.354	-0.075
-612.259	800.000	-0.082	-0.329
-611.244	-200.000	-0.003	-0.204
-610.230	-86.885	-0.341	-0.104
-609.215	197.546	0.139	0.213
-608.201	3.922	-0.075	0.055
-607.186	800.000	0.060	0.172
-606.171	-60.506	-0.090	0.038
-605.157	-43.408	-0.072	0.036
-604.142	82.128	0.024	0.027
-603.128	148.407	-0.109	-0.147
-602.113	623.920	0.117	0.295
-601.098	234.219	0.086	0.142
-600.084	155.677	0.086	-0.119
-599.069	281.606	0.031	-0.055
-598.055	-76.678	-0.371	0.130
-597.040	-64.680	-0.229	0.093
-596.025	389.405	0.076	-0.158
-595.011	15.802	0.199	0.156
-593.996	13.733	-0.302	-0.235
-592.982	46.696	-0.148	0.138
-591.967	-119.030	-0.204	-0.036
-590.952	-168.152	-0.171	0.007
-589.938	0.313	0.174	0.124
-588.923	-3.749	-0.227	0.158
-587.909	497.624	-0.066	-0.151
-586.894	704.707	0.118	-0.311
-585.879	-110.818	-0.086	0.018
-584.865	66.717	-0.352	0.359
-583.850	7.366	0.233	0.174
-582.836	193.430	0.161	-0.244
-581.821	-190.983	-0.125	0.001
-580.806	800.000	-0.094	0.275
-579.792	9.162	-0.089	0.067
-578.777	328.964	-0.208	0.400
-577.763	-63.674	-0.134	-0.055
-576.748	31.057	0.096	0.082
-575.733	242.953	-0.107	-0.180
-574.719	455.649	0.060	0.133
-573.704	-21.729	0.141	0.086
-572.690	-53.645	-0.153	-0.070
-571.675	800.000	-0.076	0.275
-570.661	405.586	-0.083	-0.174
-569.646	800.000	0.101	-0.280
-568.631	17.053	-0.007	0.006
-567.617	-144.443	-0.300	0.028
-566.602	52.042	0.114	-0.109
-565.588	18.043	-0.184	-0.147
-564.573	29.860	-0.184	0.157
-563.558	800.000	0.013	0.043
-562.544	508.936	-0.062	0.145
-561.529	98.052	0.171	-0.196
-560.515	202.854	-0.054	-0.083
-559.500	28.544	-0.118	-0.100
-558.485	20.979	-0.109	-0.089
-557.471	52.256	-0.331	-0.316
-556.456	523.629	0.137	-0.323
-555.442	800.000	-0.121	0.403
-554.427	-42.332	-0.349	0.178
-553.412	800.000	0.137	0.427
-552.398	166.706	-0.304	0.432
-551.383	217.114	-0.071	-0.113
-550.369	98.957	-0.198	0.228
-549.354	800.000	0.098	-0.325
-548.339	-200.000	0.021	-0.107
-547.325	-200.000	-0.072	-0.369
-546.310	-76.694	-0.183	-0.064
-545.296	-1.525	0.331	0.233
-544.281	33.278	-0.109	0.095
-543.266	27.961	-0.094	0.080
-542.252	800.000	-0.084	0.276
-541.237	-83.713	-0.237	-0.076
-540.223	69.717	-0.154	0.158
-539.208	-104.526	0.063	0.015
-538.193	-2.907	-0.106	0.074
-537.179	-126.957	0.128	0.019
-536.164	-11.642	-0.123	-0.081
-535.150	334.932	0.088	0.170
-534.135	82.138	0.117	0.126
-533.121	452.399	-0.067	0.148
-532.106	314.266	-0.112	-0.210
-531.091	-128.750	-0.195	0.027
-530.077	178.484	0.122	0.178
-529.062	-200.000	-0.017	-0.098
-528.048	222.267	0.132	0.212
-527.033	-45.226	-0.106	-0.053
-526.018	299.946	0.052	0.095
-525.004	-200.000	-0.014	0.129
-523.989	22.715	-0.233	-0.190
-522.975	-111.450	-0.215	-0.044
-521.960	99.176	0.072	-0.083
-520.945	127.714	-0.114	-0.145
-519.931	-0.865	0.164	-0.116
-518.916	-30.190	-0.027	-0.015
-517.902	-61.899	-0.074	0.031
-516.887	393.645	0.167	0.347
-515.872	124.968	-0.197	0.247
-514.858	-79.354	-0.286	-0.097
-513.843	-185.194	-0.270	-0.004
-512.829	232.058	0.118	0.194
-511.814	25.799	0.203	-0.169
-510.799	-200.000	-0.005	-0.146
-509.785	-36.078	-0.291	-0.157
-508.770	495.735	0.103	-0.235
-507.756	800.000	-0.130	0.440
-506.741	-48.452	-0.174	-0.084
-505.726	-187.468	0.092	-0.001
-504.712	-200.000	-0.034	0.163
-503.697	800.000	0.075	0.260
-502.683	-79.413	0.089	0.030
-501.668	-6.670	-0.102	-0.069
-500.653	-32.156	-0.230	0.128
-499.639	-171.441	0.099	-0.003
-498.624	-184.124	0.296	-0.005
-497.610	-200.000	-0.299	-0.001
-496.595	89.841	-0.178	-0.199
-495.581	-200.000	0.032	-0.366
-494.566	-121.515	0.219	-0.036
-493.551	800.000	0.083	0.259
-492.537	-99.703	-0.213	-0.053
-491.522	-40.523	0.298	-0.154
-490.508	800.000	-0.018	-0.058
-489.493	-200.000	-0.003	0.163
-488.478	390.933	0.104	0.215
-487.464	242.614	-0.123	0.205
-486.449	109.611	-0.067	0.080
-485.435	-200.000	-0.093	-0.472
-484.420	40.973	0.170	-0.153
-483.405	601.787	0.050	-0.125
-482.391	-92.108	0.242	0.068
-481.376	800.000	0.125	-0.461
-480.362	43.816	0.205	0.188
-479.347	-182.951	0.173	0.003
-478.332	800.000	-0.110	0.464
-477.318	134.274	-0.080	0.103
-476.303	0.002	0.224	0.159
-475.289	800.000	-0.069	-0.260
-474.274	80.497	0.035	0.037
-473.259	32.358	-0.076	-0.065
-472.245	30.757	-0.272	-0.232
-471.230	-65.674	-0.387	-0.154
-470.216	719.895	0.104	-0.276
-469.201	800.000	0.044	-0.131
-468.186	333.671	0.117	0.226
-467.172	-77.276	0.206	0.071
-466.157	290.140	-0.127	0.230
-465.143	-97.864	-0.235	0.060
-464.128	-42.392	0.298	-0.152
-463.113	-30.035	-0.285	-0.161
-462.099	23.024	-0.169	0.138
-461.084	-154.003	0.075	-0.005
-460.070	-23.147	0.035	-0.021
-459.055	800.000	-0.029	0.099
-458.040	6.378	-0.133	-0.098
-457.026	27.555	0.189	0.159
-456.011	-145.552	-0.126	0.011
-454.997	36.587	0.330	0.290
-453.982	340.658	-0.065	-0.126
-452.968	800.000	0.032	-0.113
-451.953	-43.545	-0.199	-0.100
-450.938	-103.561	0.379	-0.089
-449.924	-4.951	0.232	0.159
-448.909	-200.000	-0.031	0.220
-447.895	-200.000	0.023	-0.150
-446.880	800.000	-0.057	0.179
-445.865	-200.000	0.030	0.357
-444.851	135.154	-0.061	-0.079
-443.836	137.513	0.170	0.222
-442.822	625.780	0.062	-0.156
-441.807	229.444	-0.146	-0.237
-440.792	32.371	-0.181	-0.156
-439.778	268.500	-0.122	-0.214
-438.763	40.792	0.104	0.093
-437.749	11.921	-0.126	-0.096
-436.734	-107.505	-0.399	0.087
-435.719	-200.000	0.025	0.155
-434.705	-116.084	0.143	0.027
-433.690	-183.109	-0.144	-0.003
-432.676	70.697	-0.093	-0.096
-431.661	-68.280	0.182	0.070
-430.646	-46.485	-0.271	0.133
-429.632	800.000	0.084	0.297
-428.617	-105.953	0.385	0.086
-427.603	-116.365	0.224	-0.041
-426.588	-168.312	0.243	0.009
-425.573	800.000	0.072	-0.250
-424.559	99.099	0.238	-0.273
-423.544	486.353	0.051	-0.116
-422.530	800.000	0.032	-0.131
-421.515	800.000	0.120	-0.397
-420.500	-92.531	0.326	-0.091
-419.486	-0.616	0.145	-0.102
-418.471	117.136	-0.100	0.123
-417.457	419.424	0.045	-0.095
-416.442	-76.492	0.187	-0.065
-415.428	76.659	-0.234	0.247
-414.413	328.955	0.042	-0.079
-413.398	9.528	0.254	-0.192
-412.384	-135.909	0.352	-0.041
-411.369	23.925	-0.290	0.238
-410.355	-200.000	-0.002	-0.042
-409.340	-200.000	-0.040	0.320
-408.325	81.403	0.160	-0.172
-407.311	800.000	0.039	-0.147
-406.296	-200.000	0.007	0.123
-405.282	101.745	0.127	-0.147
-404.267	334.469	-0.141	0.271
-403.252	800.000	0.029	-0.084
-402.238	144.400	-0.145	0.193
-401.223	389.895	-0.143	-0.294
-400.209	145.706	0.063	-0.083
-399.194	415.119	0.055	-0.117
-398.179	-120.429	-0.302	-0.051
-397.165	76.146	0.066	0.069
-396.150	34.765	-0.185	0.161
-395.136	800.000	-0.121	-0.347
-394.121	-33.500	0.118	-0.065
-393.106	125.822	0.053	0.067
-392.092	-26.688	-0.321	-0.187
-391.077	-200.000	0.056	-0.320
-390.063	-146.212	-0.346	0.030
-389.048	736.620	0.138	0.368
-388.033	130.785	0.111	0.141
-387.019	-115.251	0.085	0.016
-386.004	-132.628	0.136	0.017
-384.990	200.021	-0.204	-0.311
-383.975	-10.078	-0.105	-0.069
-382.960	-125.694	0.363	0.055
-381.946	800.000	-0.016	0.063
-380.931	800.000	0.051	-0.178
-379.917	-200.000	-0.046	0.207
-378.902	800.000	0.068	0.205
-377.888	197.553	-0.088	-0.133
-376.873	74.577	0.151	-0.157
-375.858	-200.000	0.033	-0.265
-374.844	-200.000	-0.015	-0.147
-373.829	800.000	-0.035	-0.111
-372.815	-157.176	0.256	-0.015
-371.800	800.000	-0.065	-0.180
-370.785	-200.000	-0.018	-0.368
-369.771	-101.815	0.185	-0.044
-368.756	-33.293	0.116	-0.064
-367.742	522.927	0.096	0.224
-366.727	-7.720	-0.143	0.096
-365.712	-64.019	0.173	0.070
-364.698	-200.000	-0.004	-0.191
-363.683	-115.203	0.057	0.011
-362.669	-74.069	-0.159	-0.057
-361.654	-200.000	0.009	0.100
-360.639	-6.130	0.031	-0.021
-359.625	-132.514	-0.041	-0.005
-358.610	-56.676	-0.333	0.147
-357.596	133.937	0.099	-0.128
-356.581	-42.358	-0.058	0.030
-355.566	-126.840	0.263	-0.038
-354.552	-16.102	0.277	-0.175
-353.537	-200.000	0.045	0.353
-352.523	-200.000	-0.027	0.323
-351.508	74.962	-0.136	0.142
-350.493	237.186	0.093	0.153
-349.479	-109.688	-0.260	-0.054
-348.464	-108.783	0.223	0.047
-347.450	38.496	0.222	0.196
-346.435	-144.252	-0.325	0.030
-345.420	-97.702	-0.142	-0.037
-344.406	191.447	-0.086	0.128
-343.391	800.000	0.162	-0.482
-342.377	-200.000	-0.041	0.188
-341.362	56.449	0.141	-0.136
-340.348	86.471	-0.215	-0.235
-339.333	-200.000	-0.047	-0.341
-338.318	296.650	-0.021	-0.038
-337.304	-200.000	-0.035	0.237
-336.289	800.000	-0.055	0.162
-335.275	361.145	0.110	0.219
-334.260	-58.929	-0.132	0.057
-333.245	217.269	0.190	-0.300
-332.231	-200.000	0.007	0.217
-331.216	-58.055	0.334	0.145
-330.202	518.586	0.067	-0.155
-329.187	800.000	0.077	-0.315
-328.172	-46.762	0.194	-0.094
-327.158	-105.926	-0.196	-0.044
-326.143	-26.434	0.198	-0.115
-325.129	-31.599	0.230	-0.128
-324.114	-200.000	0.038	0.253
-323.099	-200.000	0.004	-0.132
-322.085	800.000	-0.069	0.281
-321.070	122.573	0.077	-0.095
-320.056	800.000	-0.073	-0.214
-319.041	-200.000	-0.311	0.001
-318.026	662.473	-0.127	0.326
-317.012	-34.646	0.283	0.154
-315.997	94.126	0.101	-0.113
-314.983	-89.634	0.328	0.095
-313.968	-117.497	-0.146	0.026
-312.953	40.649	0.118	0.106
-311.939	800.000	-0.062	0.215
-310.924	800.000	-0.106	0.344
-309.910	-81.830	-0.011	0.004
-308.895	-200.000	-0.018	0.176
-307.880	56.105	0.240	0.231
-306.866	202.173	0.091	0.139
-305.851	-100.617	0.208	-0.051
-304.837	-117.118	0.162	-0.029
-303.822	-141.397	0.396	0.040
-302.807	14.923	-0.187	0.145
-301.793	37.599	0.160	0.141
-300.778	190.374	-0.098	0.146
-299.764	227.310	0.064	-0.104
-298.749	-16.118	0.430	-0.271
-297.735	46.403	-0.168	-0.154
-296.720	-101.812	-0.065	-0.016
-295.705	437.830	-0.108	-0.234
-294.691	57.704	0.074	-0.071
-293.676	91.502	0.114	-0.127
-292.662	-30.951	-0.079	-0.044
-291.647	800.000	0.080	0.297
-290.632	-33.656	0.150	0.082
-289.618	46.242	-0.164	-0.151
-288.603	-200.000	-0.014	0.181
-287.589	150.788	-0.281	-0.379
-286.574	-53.931	0.257	0.116
-285.559	191.171	-0.146	-0.218
-284.545	-200.000	-0.077	-0.353
-283.530	577.585	-0.057	0.139
-282.516	348.496	-0.099	-0.194
-281.501	-20.432	0.100	0.061
-280.486	-125.430	0.078	0.012
-279.472	-18.842	0.260	-0.160
-278.457	-126.311	0.131	0.019
-277.443	229.277	0.144	0.233
-276.428	-16.515	0.252	-0.158
-275.413	-138.492	-0.165	-0.018
-274.399	-32.776	0.419	-0.230
-273.384	35.411	-0.148	-0.128
-272.370	-66.756	-0.163	-0.064
-271.355	-140.111	0.273	-0.028
-270.340	-200.000	-0.012	0.094
-269.326	800.000	0.112	0.343
-268.311	-95.427	0.090	-0.024
-267.297	155.892	-0.119	-0.162
-266.282	-200.000	0.048	0.447
-265.267	-111.816	0.300	0.060
-264.253	-200.000	-0.003	0.089
-263.238	93.490	0.059	-0.066
-262.224	468.515	-0.157	0.348
-261.209	188.850	0.160	0.236
-260.195	-161.160	0.053	-0.003
-259.180	66.404	-0.071	0.072
-258.165	-76.478	0.133	0.046
-257.151	-27.479	0.291	0.167
-256.136	16.926	-0.110	0.086
-255.122	62.607	-0.131	-0.129
-254.107	332.701	-0.062	0.118
-253.092	-68.612	0.208	0.080
-252.078	-113.560	-0.229	0.044
-251.063	-80.619	0.177	0.058
-250.049	-200.000	0.001	-0.332
-249.034	800.000	0.058	0.162
-248.019	-28.680	0.358	-0.203
-247.005	45.180	0.083	-0.075
-245.990	-9.370	0.106	-0.070
-244.976	82.034	0.357	0.383
-243.961	800.000	-0.145	-0.425
-242.946	102.239	0.076	-0.088
-241.932	76.114	0.158	0.165
-240.917	-200.000	0.036	-0.233
-239.903	-40.548	0.073	-0.037
-238.888	326.784	0.195	0.370
-237.873	247.629	0.116	-0.193
-236.859	800.000	-0.030	0.104
-235.844	-127.986	-0.061	0.009
-234.830	-118.922	0.071	-0.012
-233.815	-93.324	-0.255	0.070
-232.800	-200.000	0.021	0.138
-231.786	-82.193	0.125	0.040
-230.771	800.000	-0.103	0.405
-229.757	-126.472	0.187	-0.027
-228.742	84.836	0.071	0.077
-227.727	-200.000	-0.037	0.321
-226.713	800.000	0.063	-0.186
-225.698	-100.204	0.192	0.047
-224.684	-28.867	-0.103	-0.058
-223.669	81.269	0.344	-0.367
-222.655	145.463	0.145	-0.192
-221.640	800.000	-0.049	-0.155
-220.625	-55.577	-0.145	-0.064
-219.611	30.942	0.361	-0.306
-218.596	-123.053	-0.263	0.042
-217.582	-134.019	-0.389	0.048
-216.567	7.521	0.371	-0.274
-215.552	-200.000	0.013	0.063
-214.538	49.955	0.167	-0.156
-213.523	-100.659	0.574	0.140
-212.509	143.909	-0.110	-0.145
-211.494	-38.250	0.053	0.028
-210.479	-200.000	0.038	0.338
-209.465	800.000	-0.074	-0.283
-208.450	71.572	0.131	0.134
-207.436	-91.340	-0.100	-0.028
-206.421	379.104	0.105	0.212
-205.406	-61.143	0.396	-0.165
-204.392	541.378	-0.070	-0.164
-203.377	-15.149	-0.121	-0.077
-202.363	-200.000	-0.001	0.097
-201.348	584.547	-0.163	-0.394
-200.333	59.187	0.333	-0.324
-199.319	164.645	-0.118	0.165
-198.304	-38.798	-0.239	0.124
-197.290	22.020	-0.120	0.097
-196.275	-200.000	0.022	-0.299
-195.260	61.309	-0.143	-0.140
-194.246	140.906	-0.241	0.314
-193.231	49.190	0.201	-0.186
-192.217	57.567	0.180	0.174
-191.202	-137.995	-0.011	-0.001
-190.187	-81.399	0.212	-0.069
-189.173	-200.000	-0.024	0.117
-188.158	800.000	0.032	-0.119
-187.144	236.999	0.214	-0.350
-186.129	255.944	-0.112	0.190
-185.114	557.819	-0.080	-0.190
-184.100	-112.214	-0.179	-0.035
-183.085	-123.067	-0.151	0.024
-182.071	800.000	-0.132	-0.386
-181.056	10.279	0.073	-0.055
-180.042	-102.794	-0.263	-0.062
-179.027	74.991	-0.156	0.162
-178.012	-141.534	0.030	-0.003
-176.998	-179.459	0.218	0.005
-175.983	39.317	0.140	0.123
-174.969	-200.000	-0.024	0.118
-173.954	45.446	0.187	-0.170
-172.939	-169.183	-0.119	-0.004
-171.925	-138.334	-0.386	-0.042
-170.910	-106.244	-0.121	-0.027
-169.896	-95.696	-0.096	-0.025
-168.881	-111.837	0.139	-0.028
-167.866	-193.185	0.082	0.001
-166.852	-159.476	0.139	-0.008
-165.837	800.000	-0.065	0.236
-164.823	327.417	0.102	-0.192
-163.808	74.154	-0.079	0.082
-162.793	34.896	0.417	-0.360
-161.779	-53.719	0.214	0.096
-160.764	-88.361	-0.100	0.029
-159.750	-38.087	-0.193	0.101
-158.735	-73.808	0.106	0.038
-157.720	-69.003	-0.460	-0.175
-156.706	-10.495	-0.099	-0.065
-155.691	47.351	-0.131	0.120
-154.677	-123.832	0.078	-0.012
-153.662	-41.082	-0.225	0.115
-152.647	82.720	0.174	-0.186
-151.633	-200.000	-0.074	-0.355
-150.618	-147.957	0.324	0.027
-149.604	-74.014	0.198	0.071
-148.589	-52.052	0.155	-0.071
-147.574	53.896	0.441	0.417
-146.560	-129.292	-0.191	-0.026
-145.545	-126.230	0.085	-0.012
-144.531	-117.339	0.188	0.034
-143.516	-17.315	0.243	-0.151
-142.502	800.000	0.019	-0.057
-141.487	9.332	0.120	0.089
-140.472	-116.927	-0.256	0.046
-139.458	-200.000	0.100	-0.494
-138.443	721.397	0.032	-0.085
-137.429	-37.577	-0.150	-0.079
-136.414	-53.835	0.215	-0.097
-135.399	47.662	-0.408	0.374
-134.385	-167.626	-0.139	0.005
-133.370	-200.000	-0.188	0.000
-132.356	-23.960	-0.159	-0.094
-131.341	-200.000	0.015	0.222
-130.326	63.855	-0.099	0.097
-129.312	-9.138	0.307	-0.202
-128.297	800.000	0.063	-0.249
-127.283	-28.668	0.287	0.163
-126.268	-89.319	0.234	0.068
-125.253	-104.995	-0.159	0.036
-124.239	-31.898	-0.268	0.147
-123.224	-83.070	-0.080	0.025
-122.210	409.972	-0.082	0.170
-121.195	-121.481	-0.295	-0.048
-120.180	75.432	0.077	0.080
