DTS Sentinel unit serial number:	SN413079Multiplexer serial number:	ORYXHardware model number:	OX4-SRSoftware version number:	ORYX F/W v4.00 Oryx Data Collector v3.7.2.0data status	okinstallation	princeton_trtdifferential loss correction	single-endedforward channel	channel 1reverse channel	N/Adate	2019/09/12time	15:04:11forward acquisition time	60.00reverse acquisition time	0.00gamma	496.2192k internal	0.2293k external	0.2293temperature offset calibration	1.0056default loss term (dB/km)	0.3790temperature slope calibration	1.0000multiplexer offset coefficient	1.0000multiplexer slope coefficient	1.0000fibre end	0.00T internal ref (°C)	40.50T ext. ref 1 (°C)	2.35T ext. ref 2 (°C)	37.13length (m)	temperature (°C)	Stokes	anti-Stokes-747.200	407.509	-0.151	-0.327
-746.185	190.692	0.127	0.195
-745.171	261.493	-0.124	0.220
-744.156	175.500	-0.232	0.345
-743.142	543.537	-0.129	-0.315
-742.127	-200.000	-0.037	0.170
-741.112	480.574	0.012	-0.028
-740.098	56.893	-0.042	-0.042
-739.083	-132.975	-0.322	0.042
-738.069	-200.000	0.006	0.381
-737.054	-43.578	0.041	0.021
-736.039	3.014	-0.226	-0.168
-735.025	800.000	0.058	0.211
-734.010	-158.898	-0.371	0.022
-732.996	-34.855	-0.220	0.123
-731.981	-160.666	0.195	0.011
-730.966	553.207	0.144	-0.354
-729.952	800.000	0.031	0.090
-728.937	80.413	-0.062	-0.069
-727.923	366.497	-0.073	-0.150
-726.908	639.909	-0.082	-0.214
-725.894	-145.795	-0.193	-0.018
-724.879	-200.000	0.280	-0.000
-723.864	800.000	-0.014	0.054
-722.850	71.353	-0.198	-0.211
-721.835	-23.515	-0.155	-0.095
-720.821	-200.000	-0.044	-0.298
-719.806	11.382	-0.291	-0.228
-718.791	-7.246	0.275	-0.191
-717.777	-55.161	-0.132	-0.061
-716.762	-44.794	-0.221	-0.113
-715.748	-117.217	0.168	-0.031
-714.733	-20.196	-0.317	-0.199
-713.718	-200.000	0.055	-0.346
-712.704	-200.000	-0.008	-0.238
-711.689	370.453	-0.091	-0.189
-710.675	-166.456	0.181	0.008
-709.660	-62.923	0.257	-0.108
-708.645	26.866	-0.112	-0.096
-707.631	-200.000	0.004	-0.530
-706.616	-67.574	-0.138	0.055
-705.602	155.246	-0.126	0.177
-704.587	-200.000	-0.010	-0.122
-703.572	-12.304	-0.194	0.130
-702.558	10.829	0.280	0.219
-701.543	480.730	0.087	-0.201
-700.529	-200.000	0.038	0.206
-699.514	-85.860	0.067	0.021
-698.499	-200.000	0.052	-0.243
-697.485	443.093	0.040	-0.090
-696.470	25.949	0.033	-0.028
-695.456	571.332	-0.065	0.161
-694.441	277.165	0.018	0.032
-693.426	-87.655	-0.227	0.070
-692.412	-200.000	0.001	-0.180
-691.397	215.266	-0.144	-0.234
-690.383	-15.578	-0.028	-0.018
-689.368	800.000	-0.033	-0.110
-688.354	13.412	-0.277	-0.219
-687.339	230.408	0.085	-0.142
-686.324	244.983	-0.260	-0.446
-685.310	-144.974	-0.219	0.020
-684.295	-45.570	-0.374	-0.189
-683.281	800.000	0.076	0.311
-682.266	-200.000	0.179	0.001
-681.251	800.000	0.102	-0.400
-680.237	331.834	0.029	0.057
-679.222	800.000	-0.051	-0.165
-678.208	457.395	0.088	-0.199
-677.193	-107.380	0.157	-0.035
-676.178	169.314	-0.176	-0.256
-675.164	107.468	-0.231	-0.281
-674.149	-35.666	0.242	-0.134
-673.135	-200.000	-0.000	0.234
-672.120	-128.183	-0.085	-0.012
-671.105	-105.415	-0.169	-0.039
-670.091	-95.774	0.336	-0.091
-669.076	524.715	0.052	-0.125
-668.062	17.710	-0.216	0.175
-667.047	-16.585	0.095	0.062
-666.032	-48.460	0.200	-0.098
-665.018	41.159	-0.133	-0.122
-664.003	15.814	-0.146	-0.117
-662.989	-200.000	-0.024	-0.110
-661.974	351.137	-0.158	0.319
-660.959	-13.695	0.036	-0.024
-659.945	-29.603	0.228	-0.133
-658.930	-56.905	0.158	0.071
-657.916	59.574	0.269	-0.271
-656.901	-200.000	0.038	0.324
-655.886	-200.000	0.004	-0.223
-654.872	-4.703	0.144	0.102
-653.857	-15.946	0.304	-0.197
-652.843	82.787	0.093	0.103
-651.828	-135.459	-0.399	-0.049
-650.814	-89.713	-0.130	-0.039
-649.799	-41.568	-0.142	-0.075
-648.784	313.518	-0.079	-0.152
-647.770	469.125	-0.100	0.229
-646.755	-47.275	0.279	0.139
-645.741	222.438	-0.184	0.302
-644.726	-200.000	0.031	0.144
-643.711	800.000	0.047	0.203
-642.697	41.689	0.080	0.073
-641.682	99.355	-0.061	0.071
-640.668	-200.000	-0.045	-0.264
-639.653	31.689	-0.112	-0.098
-638.638	-92.489	-0.141	-0.040
-637.624	330.839	-0.109	-0.214
-636.609	290.715	0.074	0.137
-635.595	-86.766	-0.114	-0.035
-634.580	-200.000	0.027	0.487
-633.565	-200.000	-0.085	-0.416
-632.551	0.938	-0.190	-0.139
-631.536	-200.000	0.005	0.169
-630.522	-200.000	0.014	0.184
-629.507	-85.778	-0.175	0.055
-628.492	-144.948	-0.219	-0.020
-627.478	4.456	-0.124	0.093
-626.463	-129.221	0.414	0.059
-625.449	800.000	-0.089	0.376
-624.434	154.814	0.168	0.235
-623.419	43.768	-0.146	-0.136
-622.405	702.606	0.098	0.263
-621.390	104.593	-0.029	-0.034
-620.376	-200.000	-0.016	-0.416
-619.361	-200.000	-0.041	0.184
-618.346	-103.137	0.124	0.030
-617.332	43.163	-0.202	0.187
-616.317	-87.057	-0.082	0.025
-615.303	76.542	-0.230	0.249
-614.288	-4.997	-0.340	0.238
-613.273	347.094	-0.202	0.404
-612.259	-92.388	-0.329	-0.094
-611.244	-49.102	0.069	-0.034
-610.230	20.691	0.064	-0.053
-609.215	-115.739	0.254	-0.048
-608.201	-130.077	0.223	-0.031
-607.186	134.458	-0.176	0.233
-606.171	124.546	0.103	0.132
-605.157	-63.236	0.041	-0.017
-604.142	54.775	0.050	-0.049
-603.128	-200.000	-0.053	-0.264
-602.113	-97.522	0.356	-0.094
-601.098	-56.638	0.235	0.106
-600.084	68.421	-0.340	-0.355
-599.069	-139.268	-0.316	-0.035
-598.055	203.342	-0.140	-0.221
-597.040	62.323	0.140	0.142
-596.025	-22.572	-0.430	0.265
-595.011	197.912	-0.142	0.221
-593.996	-33.617	0.150	-0.084
-592.982	118.526	-0.171	0.215
-591.967	22.148	-0.147	-0.122
-590.952	-200.000	-0.025	-0.260
-589.938	-87.130	-0.112	-0.035
-588.923	-200.000	-0.003	0.109
-587.909	33.582	0.125	-0.111
-586.894	-105.079	-0.272	-0.063
-585.879	-120.263	-0.196	-0.034
-584.865	-200.000	0.012	-0.165
-583.850	-48.522	0.197	-0.096
-582.836	-200.000	0.008	0.041
-581.821	-42.607	-0.275	-0.143
-580.806	47.076	-0.094	0.089
-579.792	800.000	-0.047	-0.149
-578.777	144.124	0.125	-0.170
-577.763	158.781	0.223	-0.316
-576.748	-10.824	-0.073	-0.049
-575.733	-122.712	0.195	-0.032
-574.719	153.880	-0.041	0.058
-573.704	-175.688	-0.192	-0.005
-572.690	-108.941	-0.239	-0.052
-571.675	76.327	0.033	0.035
-570.661	452.916	0.093	-0.209
-569.646	-53.497	0.129	0.060
-568.631	-200.000	0.040	-0.217
-567.617	-37.722	0.291	0.157
-566.602	800.000	-0.098	0.390
-565.588	390.147	-0.172	0.362
-564.573	-38.183	-0.342	0.184
-563.558	220.999	0.053	-0.087
-562.544	-128.104	0.315	-0.046
-561.529	39.670	-0.114	-0.103
-560.515	53.848	-0.294	-0.287
-559.500	13.400	-0.168	-0.132
-558.485	23.050	0.114	0.095
-557.471	47.067	0.138	0.130
-556.456	27.437	0.144	-0.123
-555.442	49.701	0.214	-0.205
-554.427	-66.978	-0.405	-0.162
-553.412	-125.900	0.469	0.072
-552.398	521.880	0.134	0.319
-551.383	-61.767	-0.338	0.144
-550.369	111.400	-0.309	-0.378
-549.354	168.716	-0.097	0.141
-548.339	-0.742	-0.229	-0.165
-547.325	-200.000	-0.015	-0.218
-546.310	-153.065	0.271	0.019
-545.296	-87.979	0.348	0.106
-544.281	208.062	0.206	0.326
-543.266	-200.000	-0.003	-0.188
-542.252	-45.675	0.245	-0.123
-541.237	240.950	0.091	-0.154
-540.223	91.713	-0.275	-0.314
-539.208	-97.804	0.278	-0.073
-538.193	-107.071	0.322	0.072
-537.179	800.000	-0.025	0.086
-536.164	-129.195	0.107	-0.015
-535.150	-104.314	-0.178	-0.042
-534.135	-105.456	0.047	0.011
-533.121	229.409	-0.052	-0.085
-532.106	-200.000	0.013	-0.224
-531.091	170.413	-0.133	0.193
-530.077	106.879	0.146	-0.176
-529.062	800.000	-0.139	0.606
-528.048	-20.164	-0.148	0.093
-527.033	-34.294	-0.153	0.085
-526.018	-153.279	0.241	-0.017
-525.004	202.642	-0.052	-0.082
-523.989	-200.000	-0.023	-0.231
-522.975	94.973	0.051	0.059
-521.960	164.439	0.099	0.142
-520.945	45.316	-0.143	0.133
-519.931	-28.100	-0.248	0.145
-518.916	126.839	0.199	0.256
-517.902	-127.764	-0.211	-0.031
-516.887	800.000	-0.067	0.227
-515.872	-122.509	0.234	0.039
-514.858	-114.478	-0.287	0.056
-513.843	-200.000	-0.008	0.116
-512.829	-47.790	0.150	0.074
-511.814	-155.472	-0.113	-0.007
-510.799	800.000	-0.048	0.178
-509.785	800.000	-0.051	0.206
-508.770	-55.104	-0.218	0.099
-507.756	-28.572	-0.112	-0.066
-506.741	-7.578	-0.310	-0.212
-505.726	204.329	0.181	0.285
-504.712	800.000	-0.098	0.370
-503.697	-112.611	-0.202	0.041
-502.683	-200.000	-0.050	-0.285
-501.668	800.000	0.078	-0.288
-500.653	800.000	0.043	0.123
-499.639	-78.959	0.292	0.101
-498.624	108.141	-0.024	-0.029
-497.610	-200.000	-0.016	-0.181
-496.595	-200.000	0.056	0.283
-495.581	-97.315	0.228	-0.060
-494.566	138.668	0.199	-0.265
-493.551	-200.000	-0.023	-0.347
-492.537	-24.962	-0.027	-0.016
-491.522	-200.000	0.007	0.104
-490.508	274.289	-0.077	0.138
-489.493	800.000	0.055	0.198
-488.478	-200.000	-0.064	-0.577
-487.464	112.262	0.239	0.293
-486.449	278.963	0.021	-0.039
-485.435	107.513	-0.203	-0.245
-484.420	-200.000	-0.023	-0.417
-483.405	800.000	0.046	-0.156
-482.391	-200.000	-0.002	0.026
-481.376	-54.710	0.176	0.080
-480.362	-123.829	0.205	-0.033
-479.347	127.859	-0.374	-0.482
-478.332	386.056	0.043	0.091
-477.318	-131.154	-0.051	0.007
-476.303	-17.587	-0.041	0.026
-475.289	82.176	-0.319	0.350
-474.274	-87.220	0.198	0.061
-473.259	-48.647	-0.142	0.069
-472.245	-62.748	-0.107	-0.045
-471.230	-79.340	-0.033	0.011
-470.216	-200.000	-0.025	0.197
-469.201	800.000	0.105	0.348
-468.186	-200.000	-0.017	-0.185
-467.172	82.632	0.257	-0.283
-466.157	118.134	0.061	0.076
-465.143	-200.000	-0.005	-0.407
-464.128	604.777	0.030	0.077
-463.113	-138.923	0.310	0.034
-462.099	96.296	0.250	0.289
-461.084	-200.000	-0.018	-0.162
-460.070	-200.000	0.059	0.418
-459.055	474.438	-0.196	-0.448
-458.040	24.284	-0.035	-0.029
-457.026	-200.000	-0.005	0.362
-456.011	-200.000	0.002	0.122
-454.997	228.283	-0.136	0.225
-453.982	197.654	-0.097	0.150
-452.968	-17.016	-0.143	0.091
-451.953	-33.671	-0.200	-0.112
-450.938	21.667	-0.156	0.128
-449.924	-15.881	0.198	0.128
-448.909	-41.593	0.190	-0.099
-447.895	-127.681	0.196	0.029
-446.880	800.000	-0.069	0.212
-445.865	160.271	-0.126	-0.178
-444.851	8.138	-0.108	-0.082
-443.836	245.067	0.114	0.195
-442.822	-200.000	-0.029	0.143
-441.807	138.766	-0.157	-0.209
-440.792	800.000	-0.105	0.331
-439.778	93.939	-0.171	0.196
-438.763	-109.665	-0.383	-0.082
-437.749	-104.563	-0.334	-0.078
-436.734	204.533	0.139	-0.218
-435.719	47.971	0.220	-0.208
-434.705	756.582	0.149	0.407
-433.690	-108.603	-0.160	-0.035
-432.676	42.927	-0.239	-0.221
-431.661	41.346	-0.223	0.204
-430.646	-68.118	0.342	-0.135
-429.632	-200.000	0.016	-0.238
-428.617	463.584	0.053	-0.120
-427.603	-92.983	-0.131	-0.037
-426.588	800.000	-0.040	0.132
-425.573	592.536	0.093	-0.233
-424.559	143.443	-0.155	-0.208
-423.544	-200.000	0.023	-0.201
-422.530	800.000	0.018	-0.067
-421.515	-200.000	0.010	-0.129
-420.500	-114.127	0.225	-0.044
-419.486	33.274	0.064	-0.056
-418.471	-127.884	0.127	0.018
-417.457	-42.510	-0.249	0.128
-416.442	-200.000	-0.006	0.081
-415.428	-200.000	-0.049	-0.422
-414.413	-60.419	-0.120	-0.052
-413.398	-113.284	-0.013	0.003
-412.384	800.000	0.104	-0.400
-411.369	800.000	0.068	-0.248
-410.355	0.943	-0.293	-0.212
-409.340	-49.569	-0.098	0.047
-408.325	-53.015	-0.048	0.022
-407.311	-47.104	0.336	0.166
-406.296	800.000	-0.057	-0.188
-405.282	645.380	-0.122	-0.313
-404.267	-88.159	-0.237	-0.072
-403.252	14.067	-0.026	-0.021
-402.238	-200.000	-0.010	0.201
-401.223	-200.000	-0.003	0.026
-400.209	34.516	-0.144	-0.127
-399.194	65.894	-0.045	0.046
-398.179	-200.000	0.013	-0.082
-397.165	-90.624	-0.359	0.105
-396.150	800.000	-0.002	-0.007
-395.136	104.816	-0.197	0.235
-394.121	20.464	0.075	-0.061
-393.106	81.897	-0.134	0.147
-392.092	-24.363	-0.142	0.086
-391.077	-200.000	0.029	-0.135
-390.063	1.856	-0.148	-0.108
-389.048	105.834	-0.181	-0.216
-388.033	17.107	-0.189	0.151
-387.019	800.000	-0.034	-0.131
-386.004	-106.262	-0.073	-0.017
-384.990	164.629	0.279	-0.397
-383.975	758.055	0.117	0.320
-382.960	800.000	0.055	-0.211
-381.946	-111.280	-0.518	-0.107
-380.931	-84.976	-0.280	-0.089
-379.917	236.837	0.266	-0.444
-378.902	-83.885	0.224	0.072
-377.888	250.168	0.216	-0.371
-376.873	2.499	-0.166	0.121
-375.858	22.385	0.093	-0.077
-374.844	-200.000	0.000	-0.161
-373.829	545.992	-0.020	-0.047
-372.815	-112.978	-0.456	0.091
-371.800	-200.000	0.020	0.129
-370.785	168.279	-0.133	-0.191
-369.771	800.000	-0.033	-0.134
-368.756	-106.594	0.062	-0.014
-367.742	-200.000	0.004	0.082
-366.727	800.000	0.066	0.196
-365.712	-200.000	0.017	0.349
-364.698	493.774	0.024	-0.055
-363.683	-200.000	-0.044	0.216
-362.669	18.594	0.221	-0.178
-361.654	392.623	-0.183	0.384
-360.639	-12.162	0.117	0.077
-359.625	30.381	0.198	0.171
-358.610	-200.000	-0.005	-0.128
-357.596	625.884	0.027	-0.068
-356.581	510.118	0.176	-0.413
-355.566	-200.000	0.082	-0.398
-354.552	800.000	-0.063	0.181
-353.537	167.061	0.130	-0.186
-352.523	-146.386	0.112	0.010
-351.508	-41.942	0.045	0.023
-350.493	-200.000	0.018	0.163
-349.479	-200.000	0.018	-0.082
-348.464	-39.648	0.559	-0.295
-347.450	268.222	-0.077	-0.136
-346.435	-105.822	0.220	0.050
-345.420	9.550	-0.347	0.264
-344.406	157.460	-0.218	-0.304
-343.391	259.329	0.137	-0.239
-342.377	108.686	0.205	-0.247
-341.362	-114.173	-0.307	-0.060
-340.348	800.000	0.032	-0.099
-339.333	-127.416	0.073	-0.011
-338.318	-101.221	-0.254	0.062
-337.304	84.447	-0.106	-0.117
-336.289	23.221	-0.161	-0.133
-335.275	-113.272	-0.271	0.054
-334.260	-95.674	-0.206	-0.055
-333.245	6.548	-0.297	-0.222
-332.231	682.531	0.079	-0.206
-331.216	-6.915	-0.196	0.134
-330.202	-12.148	0.301	-0.199
-329.187	-7.758	0.396	0.269
-328.172	-200.000	-0.007	0.140
-327.158	386.514	-0.072	-0.149
-326.143	184.555	0.211	-0.314
-325.129	-70.490	0.143	-0.054
-324.114	-153.073	-0.245	0.017
-323.099	77.865	0.118	0.126
-322.085	7.322	0.087	-0.065
-321.070	134.049	0.018	0.023
-320.056	800.000	-0.059	-0.198
-319.041	-71.056	0.119	-0.045
-318.026	-68.929	-0.271	-0.105
-317.012	326.914	0.068	0.132
-315.997	-23.157	-0.123	0.074
-314.983	67.834	0.260	-0.267
-313.968	-18.047	-0.151	-0.095
-312.953	800.000	0.041	-0.169
-311.939	270.830	0.192	-0.340
-310.924	492.434	-0.156	-0.360
-309.910	21.967	0.337	0.277
-308.895	74.549	0.081	0.086
-307.880	-176.443	-0.208	-0.005
-306.866	60.537	0.034	-0.034
-305.851	-200.000	-0.015	0.248
-304.837	-101.612	0.081	-0.020
-303.822	73.907	0.046	-0.048
-302.807	34.286	-0.070	0.062
-301.793	545.765	0.081	0.195
-300.778	299.520	-0.103	0.191
-299.764	-129.930	0.113	0.016
-298.749	-114.136	-0.134	0.026
-297.735	-100.712	-0.284	0.070
-296.720	-64.422	-0.067	-0.028
-295.705	21.669	0.033	0.027
-294.691	-15.877	0.060	-0.038
-293.676	-94.013	-0.334	0.092
-292.662	117.062	0.064	0.079
-291.647	-118.187	-0.171	-0.031
-290.632	800.000	0.087	0.380
-289.618	-73.602	-0.042	0.016
-288.603	168.193	0.155	0.221
-287.589	-119.484	-0.274	0.048
-286.574	-79.145	0.117	-0.040
-285.559	800.000	0.051	-0.182
-284.545	800.000	-0.064	0.225
-283.530	-83.121	0.250	-0.081
-282.516	-111.160	0.191	-0.039
-281.501	-200.000	0.001	0.240
-280.486	211.790	-0.027	-0.043
-279.472	39.468	-0.162	0.146
-278.457	-200.000	-0.022	-0.355
-277.443	38.884	0.226	0.203
-276.428	-200.000	0.014	-0.284
-275.413	-70.026	0.147	0.056
-274.399	621.473	0.103	-0.261
-273.384	46.653	0.174	0.163
-272.370	0.586	0.192	-0.138
-271.355	-200.000	0.015	0.082
-270.340	45.184	-0.175	0.162
-269.326	104.777	-0.215	-0.254
-268.311	-98.073	0.396	0.102
-267.297	-200.000	-0.021	-0.179
-266.282	285.418	-0.052	-0.095
-265.267	-200.000	-0.027	0.125
-264.253	-182.655	0.384	0.007
-263.238	-200.000	-0.012	-0.216
-262.224	-200.000	-0.003	0.115
-261.209	-179.177	0.063	0.001
-260.195	29.586	-0.125	-0.107
-259.180	-200.000	0.065	0.306
-258.165	102.319	0.198	-0.233
-257.151	-9.432	0.190	-0.128
-256.136	3.646	0.208	-0.152
-255.122	-200.000	-0.017	0.303
-254.107	377.819	-0.006	-0.012
-253.092	-59.083	-0.075	0.032
-252.078	-117.324	-0.110	0.020
-251.063	800.000	-0.029	0.090
-250.049	433.150	0.073	0.158
-249.034	800.000	0.085	0.306
-248.019	800.000	-0.093	-0.399
-247.005	444.452	-0.145	-0.320
-245.990	-110.940	0.355	0.073
-244.976	-200.000	-0.037	-0.328
-243.961	-52.706	0.088	0.041
-242.946	-112.622	-0.170	-0.034
-241.932	212.905	0.139	-0.220
-240.917	757.913	-0.099	-0.270
-239.903	651.962	0.049	0.125
-238.888	20.807	0.088	0.072
-237.873	800.000	-0.044	0.154
-236.859	131.586	-0.196	0.253
-235.844	-74.808	0.235	0.085
-234.830	7.923	0.158	0.118
-233.815	-93.279	0.227	0.063
-232.800	-56.590	0.138	0.061
-231.786	-118.821	-0.092	0.016
-230.771	-190.490	-0.033	-0.000
-229.757	800.000	0.050	0.139
-228.742	97.007	-0.039	0.045
-227.727	-43.083	-0.082	0.042
-226.713	94.268	0.264	0.301
-225.698	-158.034	0.173	-0.010
-224.684	-8.913	-0.077	0.052
-223.669	99.835	0.097	-0.112
-222.655	-83.302	-0.305	-0.098
-221.640	193.348	0.159	0.242
-220.625	186.508	-0.137	-0.205
-219.611	-200.000	0.002	-0.010
-218.596	-200.000	-0.017	0.227
-217.582	-200.000	0.072	0.000
-216.567	-153.491	0.202	0.014
-215.552	-87.683	-0.069	-0.021
-214.538	610.715	-0.081	0.202
-213.523	-200.000	-0.029	-0.178
-212.509	800.000	0.064	-0.189
-211.494	196.494	-0.046	-0.070
-210.479	-65.989	0.290	0.116
-209.465	-27.480	0.224	-0.131
-208.450	-179.197	0.376	0.008
-207.436	75.952	-0.094	0.100
-206.421	443.749	0.089	0.196
-205.406	32.810	-0.121	-0.105
-204.392	800.000	0.075	0.327
-203.377	-52.966	0.133	-0.061
-202.363	800.000	0.113	0.340
-201.348	-121.021	0.293	-0.049
-200.333	395.856	0.112	0.235
-199.319	1.340	0.166	-0.119
-198.304	800.000	0.103	0.287
-197.290	-200.000	-0.123	-0.624
-196.275	316.652	0.082	-0.155
-195.260	15.924	0.105	-0.082
-194.246	27.736	0.125	-0.106
-193.231	702.970	0.018	0.048
-192.217	82.008	0.112	0.121
-191.202	43.488	0.185	0.169
-190.187	-200.000	0.021	-0.164
-189.173	80.898	-0.038	-0.041
-188.158	800.000	0.110	-0.314
-187.144	27.398	-0.080	-0.068
-186.129	330.399	0.079	0.153
-185.114	40.653	-0.205	0.185
-184.100	250.708	-0.093	-0.158
-183.085	-200.000	-0.054	0.336
-182.071	-13.910	-0.416	-0.269
-181.056	6.181	0.284	0.211
-180.042	79.181	0.127	-0.136
-179.027	225.674	0.298	0.484
-178.012	787.806	0.046	-0.126
-176.998	289.577	0.244	0.443
-175.983	-72.368	0.189	0.070
-174.969	176.715	-0.168	0.244
-173.954	217.259	-0.060	0.096
-172.939	-129.287	-0.191	-0.027
-171.925	-119.067	-0.350	0.061
-170.910	197.495	-0.110	0.167
-169.896	-142.441	-0.037	-0.004
-168.881	-79.291	0.160	0.054
-167.866	-42.425	0.169	-0.086
-166.852	-21.510	-0.302	0.184
-165.837	-200.000	-0.016	0.183
-164.823	-128.950	0.148	-0.021
-163.808	-78.159	0.131	0.045
-162.793	70.487	-0.093	-0.096
-161.779	101.108	-0.294	0.342
-160.764	-123.290	0.091	-0.015
-159.750	-168.527	0.146	0.006
-158.735	-75.485	0.279	-0.099
-157.720	73.655	0.068	0.072
-156.706	553.301	0.194	0.467
-155.691	14.297	0.135	0.105
-154.677	58.338	0.151	-0.148
-153.662	-89.199	0.141	0.042
-152.647	-25.347	0.076	-0.045
-151.633	-1.496	0.172	0.121
-150.618	-124.710	0.444	0.069
-149.604	-200.000	-0.001	0.309
-148.589	67.641	0.194	0.198
-147.574	594.322	-0.050	-0.124
-146.560	800.000	0.048	-0.137
-145.545	45.673	-0.149	0.138
-144.531	125.209	0.080	0.101
-143.516	800.000	0.095	0.293
-142.502	1.241	-0.236	-0.169
-141.487	21.407	-0.366	-0.298
-140.472	-27.411	-0.169	0.098
-139.458	800.000	0.088	0.295
-138.443	-200.000	-0.018	0.172
-137.429	398.710	-0.108	-0.226
-136.414	9.599	0.209	0.158
-135.399	527.196	0.072	0.170
-134.385	-95.818	0.302	-0.080
-133.370	200.375	-0.038	0.058
-132.356	436.361	0.037	-0.080
-131.341	-58.750	-0.089	0.039
-130.326	-117.091	-0.110	0.020
-129.312	82.603	-0.186	0.202
-128.297	800.000	-0.034	-0.117
-127.283	-89.018	-0.249	0.074
-126.268	-9.599	0.460	0.306
-125.253	-25.580	-0.371	0.219
-124.239	-71.228	-0.095	0.036
-123.224	800.000	0.046	0.161
-122.210	-131.795	0.059	0.008
-121.195	225.065	-0.195	-0.315
