DTS Sentinel unit serial number:	SN413079Multiplexer serial number:	ORYXHardware model number:	OX4-SRSoftware version number:	ORYX F/W v4.00 Oryx Data Collector v3.7.2.0data status	okinstallation	princeton_trtdifferential loss correction	single-endedforward channel	channel 1reverse channel	N/Adate	2019/09/13time	02:34:35forward acquisition time	60.00reverse acquisition time	0.00gamma	496.2192k internal	0.2332k external	0.2332temperature offset calibration	1.0163default loss term (dB/km)	0.3790temperature slope calibration	1.0000multiplexer offset coefficient	1.0000multiplexer slope coefficient	1.0000fibre end	0.00T internal ref (°C)	27.48T ext. ref 1 (°C)	3.98T ext. ref 2 (°C)	22.21length (m)	temperature (°C)	Stokes	anti-Stokes-747.200	800.000	0.098	0.356
-746.185	119.485	-0.070	0.087
-745.171	99.440	0.173	-0.201
-744.156	-13.321	-0.242	0.158
-743.142	-50.368	-0.244	-0.116
-742.127	74.356	-0.093	0.098
-741.112	356.532	-0.056	-0.113
-740.098	800.000	-0.156	-0.572
-739.083	-116.550	-0.478	-0.089
-738.069	16.080	-0.267	-0.211
-737.054	-126.592	0.184	0.027
-736.039	430.346	-0.112	-0.243
-735.025	-20.824	0.238	0.147
-734.010	-122.914	-0.219	-0.036
-732.996	384.536	0.068	0.142
-731.981	-47.318	0.394	-0.193
-730.966	-158.280	-0.263	0.015
-729.952	-25.828	0.264	-0.156
-728.937	-61.344	0.286	-0.121
-727.923	-41.072	0.222	-0.115
-726.908	282.685	0.122	0.220
-725.894	83.277	0.154	-0.168
-724.879	423.327	-0.034	-0.073
-723.864	306.318	0.109	-0.204
-722.850	-79.840	-0.256	-0.087
-721.835	493.332	0.095	0.218
-720.821	15.384	0.330	-0.261
-719.806	191.170	-0.284	-0.429
-718.791	-200.000	0.071	-0.414
-717.777	-57.418	0.187	-0.082
-716.762	258.248	-0.051	-0.089
-715.748	-200.000	0.005	-0.093
-714.733	-98.278	-0.058	-0.015
-713.718	800.000	0.055	-0.211
-712.704	66.796	-0.055	-0.056
-711.689	-200.000	0.025	-0.226
-710.675	627.404	-0.029	-0.073
-709.660	154.789	-0.012	0.017
-708.645	800.000	0.037	-0.156
-707.631	187.040	-0.070	-0.105
-706.616	-40.372	-0.163	-0.085
-705.602	800.000	-0.069	0.219
-704.587	-176.285	0.293	0.008
-703.572	387.867	-0.107	-0.222
-702.558	-146.679	-0.040	0.004
-701.543	-44.355	-0.196	0.099
-700.529	-139.693	0.111	0.012
-699.514	680.677	0.094	-0.246
-698.499	800.000	0.094	-0.274
-697.485	-168.345	-0.148	-0.006
-696.470	-21.419	-0.110	-0.068
-695.456	-200.000	-0.025	-0.173
-694.441	8.969	-0.344	-0.260
-693.426	-200.000	-0.017	-0.382
-692.412	-200.000	0.001	-0.170
-691.397	-91.513	-0.251	-0.072
-690.383	800.000	0.057	-0.163
-689.368	-50.537	0.272	-0.129
-688.354	-200.000	-0.001	-0.122
-687.339	-161.393	-0.356	0.018
-686.324	1.080	0.157	0.113
-685.310	239.350	-0.063	-0.105
-684.295	69.524	0.035	-0.037
-683.281	-39.144	-0.213	0.112
-682.266	-200.000	-0.054	-0.286
-681.251	-79.626	-0.120	0.041
-680.237	33.437	0.129	0.112
-679.222	270.825	0.140	0.248
-678.208	-200.000	-0.033	0.240
-677.193	-200.000	0.055	-0.396
-676.178	-6.878	0.137	0.094
-675.164	-0.600	0.142	-0.101
-674.149	-200.000	0.010	-0.314
-673.135	-200.000	-0.029	-0.249
-672.120	-12.847	-0.290	-0.190
-671.105	-75.253	-0.085	0.031
-670.091	-142.118	-0.256	0.025
-669.076	-99.245	-0.242	0.061
-668.062	141.961	0.017	-0.023
-667.047	-105.858	0.143	-0.032
-666.032	-50.422	-0.085	-0.040
-665.018	-165.417	-0.306	-0.013
-664.003	-37.225	-0.262	-0.141
-662.989	102.084	-0.093	0.108
-661.974	90.165	0.138	-0.155
-660.959	800.000	-0.032	-0.090
-659.945	46.045	0.040	0.038
-658.930	800.000	-0.065	-0.248
-657.916	-88.436	0.267	-0.080
-656.901	-15.412	0.258	0.165
-655.886	647.105	0.064	-0.163
-654.872	800.000	0.048	-0.155
-653.857	-67.517	0.339	-0.133
-652.843	-33.822	-0.172	0.095
-651.828	380.367	0.123	0.253
-650.814	-37.323	0.235	-0.126
-649.799	293.537	-0.100	0.183
-648.784	347.399	-0.167	0.330
-647.770	22.532	-0.400	-0.328
-646.755	-22.748	0.126	0.076
-645.741	-132.690	-0.167	0.021
-644.726	-132.206	0.173	-0.022
-643.711	-6.032	-0.210	0.144
-642.697	173.080	-0.195	-0.281
-641.682	-168.570	-0.096	0.004
-640.668	-66.367	0.172	0.069
-639.653	228.085	0.122	0.200
-638.638	488.571	0.031	-0.072
-637.624	629.648	0.071	0.179
-636.609	-110.710	0.233	0.048
-635.595	9.609	-0.068	-0.052
-634.580	-3.978	-0.069	-0.048
-633.565	-200.000	0.025	0.392
-632.551	800.000	0.050	-0.141
-631.536	95.311	-0.239	0.273
-630.522	-121.347	-0.308	0.051
-629.507	800.000	0.013	0.038
-628.492	178.961	-0.176	0.258
-627.478	91.712	-0.135	0.152
-626.463	-44.098	0.408	0.205
-625.449	243.892	-0.171	0.287
-624.434	-200.000	0.014	0.160
-623.419	-111.867	-0.389	-0.079
-622.405	800.000	-0.040	-0.152
-621.390	9.806	0.078	-0.060
-620.376	27.642	-0.141	-0.119
-619.361	-101.201	0.044	-0.011
-618.346	-200.000	0.051	-0.276
-617.332	-15.666	0.034	0.022
-616.317	-66.835	-0.203	0.080
-615.303	259.703	-0.139	-0.240
-614.288	-200.000	0.015	-0.203
-613.273	-2.155	-0.180	-0.126
-612.259	-42.960	-0.355	0.180
-611.244	495.293	0.165	0.380
-610.230	-200.000	0.027	0.146
-609.215	-200.000	0.016	-0.074
-608.201	-101.645	0.237	0.058
-607.186	-76.566	0.169	-0.059
-606.171	735.428	-0.067	0.181
-605.157	-95.213	0.122	-0.033
-604.142	643.502	-0.020	0.052
-603.128	-106.530	0.133	0.030
-602.113	229.850	-0.093	0.153
-601.098	-25.737	-0.252	-0.149
-600.084	-103.336	-0.277	-0.065
-599.069	800.000	-0.090	-0.262
-598.055	-200.000	-0.024	-0.181
-597.040	71.942	0.232	0.241
-596.025	-39.580	-0.104	0.054
-595.011	170.974	-0.155	0.222
-593.996	-64.055	-0.219	-0.089
-592.982	800.000	-0.105	-0.436
-591.967	-113.692	0.313	-0.061
-590.952	345.057	0.077	0.151
-589.938	-200.000	0.008	-0.101
-588.923	800.000	-0.045	-0.167
-587.909	433.931	0.049	-0.107
-586.894	-200.000	-0.013	-0.240
-585.879	-15.267	0.150	-0.096
-584.865	800.000	-0.041	0.173
-583.850	254.061	0.130	-0.223
-582.836	94.949	0.056	-0.064
-581.821	82.914	0.089	0.097
-580.806	127.484	-0.012	-0.015
-579.792	-185.972	0.397	-0.006
-578.777	-108.350	0.182	-0.039
-577.763	-27.209	-0.356	-0.207
-576.748	-81.295	0.075	-0.025
-575.733	38.534	-0.324	0.289
-574.719	42.446	0.099	-0.090
-573.704	26.640	0.028	0.023
-572.690	42.390	0.192	-0.174
-571.675	130.781	-0.085	0.109
-570.661	237.382	0.064	0.107
-569.646	278.078	-0.105	-0.187
-568.631	196.365	0.054	0.082
-567.617	676.044	-0.051	0.133
-566.602	-34.643	-0.190	-0.104
-565.588	190.264	-0.110	0.165
-564.573	-200.000	0.035	-0.312
-563.558	-130.614	-0.278	-0.037
-562.544	7.480	0.397	-0.297
-561.529	800.000	-0.042	-0.139
-560.515	15.015	-0.289	-0.226
-559.500	57.887	0.005	0.005
-558.485	-29.269	0.175	-0.100
-557.471	-200.000	0.017	-0.298
-556.456	238.911	-0.160	0.266
-555.442	-97.534	-0.364	-0.094
-554.427	-30.522	-0.150	0.085
-553.412	95.288	-0.178	-0.203
-552.398	163.903	-0.225	-0.316
-551.383	-200.000	0.008	-0.063
-550.369	-200.000	0.063	-0.340
-549.354	-17.561	-0.167	0.105
-548.339	32.048	0.204	-0.175
-547.325	-93.304	0.351	-0.097
-546.310	-41.741	0.132	0.068
-545.296	485.790	0.110	-0.249
-544.281	-131.058	0.209	0.028
-543.266	800.000	-0.029	0.122
-542.252	43.277	-0.271	-0.247
-541.237	271.014	-0.055	0.097
-540.223	-3.882	-0.226	0.157
-539.208	800.000	-0.068	-0.244
-538.193	433.985	0.030	-0.065
-537.179	217.306	-0.120	0.191
-536.164	398.667	-0.098	-0.204
-535.150	-200.000	-0.001	-0.206
-534.135	-200.000	-0.004	0.084
-533.121	-200.000	0.017	-0.238
-532.106	-200.000	-0.008	0.067
-531.091	101.549	-0.048	-0.056
-530.077	-200.000	-0.010	0.348
-529.062	-200.000	0.037	0.168
-528.048	-200.000	0.027	-0.298
-527.033	507.558	-0.021	-0.049
-526.018	-108.117	0.111	0.024
-525.004	133.312	0.191	-0.246
-523.989	800.000	-0.065	-0.261
-522.975	800.000	0.035	-0.123
-521.960	-200.000	-0.010	-0.183
-520.945	142.811	-0.145	0.192
-519.931	800.000	0.078	-0.293
-518.916	-200.000	-0.011	0.174
-517.902	479.145	-0.087	0.195
-516.887	123.055	0.075	0.093
-515.872	17.146	0.215	-0.170
-514.858	19.481	-0.155	0.124
-513.843	517.390	0.141	-0.330
-512.829	-128.764	0.117	0.016
-511.814	-200.000	-0.039	0.236
-510.799	249.923	0.089	-0.151
-509.785	-38.350	0.131	0.069
-508.770	-105.325	0.200	-0.045
-507.756	72.980	-0.136	0.141
-506.741	195.321	-0.060	-0.091
-505.726	108.341	-0.069	-0.082
-504.712	-51.887	-0.225	0.104
-503.697	800.000	-0.019	0.078
-502.683	-200.000	0.031	-0.254
-501.668	186.674	-0.155	-0.230
-500.653	76.810	0.206	0.218
-499.639	-146.960	0.330	-0.028
-498.624	93.526	0.169	0.191
-497.610	158.386	0.087	0.121
-496.595	-200.000	-0.035	-0.169
-495.581	80.327	0.445	0.477
-494.566	-41.464	-0.263	-0.135
-493.551	223.079	0.115	-0.184
-492.537	242.671	-0.155	0.258
-491.522	800.000	-0.095	-0.310
-490.508	36.330	-0.043	-0.038
-489.493	629.080	0.030	-0.075
-488.478	-169.568	-0.256	0.009
-487.464	-137.077	-0.066	0.008
-486.449	206.822	-0.170	-0.264
-485.435	-19.578	0.096	-0.059
-484.420	3.343	0.181	0.131
-483.405	-41.169	-0.190	0.098
-482.391	468.365	-0.138	-0.309
-481.376	162.831	-0.143	-0.200
-480.362	15.985	-0.205	-0.161
-479.347	800.000	0.086	0.271
-478.332	-16.646	0.314	-0.198
-477.318	800.000	-0.037	-0.110
-476.303	45.754	0.123	0.113
-475.289	-146.880	-0.148	-0.013
-474.274	211.750	0.071	0.112
-473.259	89.250	-0.155	0.172
-472.245	118.548	0.317	-0.389
-471.230	800.000	0.068	-0.281
-470.216	-40.284	-0.342	-0.177
-469.201	-74.005	-0.276	-0.099
-468.186	800.000	-0.076	-0.295
-467.172	-200.000	-0.006	-0.167
-466.157	-145.814	0.090	0.008
-465.143	-174.469	0.287	-0.008
-464.128	-67.948	0.111	-0.043
-463.113	722.907	0.018	-0.047
-462.099	-59.884	0.174	0.074
-461.084	-200.000	-0.037	-0.243
-460.070	139.933	-0.153	0.201
-459.055	-81.232	0.076	-0.025
-458.040	-62.455	-0.183	-0.076
-457.026	-200.000	-0.005	0.272
-456.011	428.856	0.101	0.217
-454.997	-81.645	0.114	-0.037
-453.982	42.456	0.371	-0.335
-452.968	-87.437	-0.189	0.057
-451.953	800.000	0.075	0.294
-450.938	385.292	0.018	0.037
-449.924	800.000	-0.027	-0.111
-448.909	69.847	-0.029	0.030
-447.895	69.042	0.196	0.201
-446.880	106.366	-0.066	-0.078
-445.865	468.566	0.171	0.383
-444.851	618.623	0.159	-0.398
-443.836	62.938	-0.169	-0.168
-442.822	-200.000	-0.012	0.445
-441.807	-200.000	0.032	0.168
-440.792	-200.000	-0.022	0.110
-439.778	159.365	-0.151	-0.209
-438.763	800.000	0.141	-0.434
-437.749	186.728	-0.097	0.144
-436.734	58.064	0.144	0.140
-435.719	223.250	0.084	0.135
-434.705	800.000	0.148	0.444
-433.690	800.000	-0.064	0.198
-432.676	800.000	0.067	0.224
-431.661	688.924	0.055	0.144
-430.646	-200.000	0.006	-0.081
-429.632	-146.705	-0.332	0.029
-428.617	-46.191	-0.159	0.078
-427.603	-120.834	0.194	-0.033
-426.588	-121.643	-0.391	-0.064
-425.573	-141.334	0.205	0.021
-424.559	800.000	0.080	-0.299
-423.544	41.698	0.084	-0.076
-422.530	-68.854	-0.275	0.105
-421.515	16.443	-0.090	0.070
-420.500	33.863	0.055	0.048
-419.486	51.669	-0.345	-0.326
-418.471	34.498	-0.115	0.100
-417.457	-200.000	-0.036	-0.187
-416.442	-54.597	0.202	-0.091
-415.428	141.510	-0.193	0.254
-414.413	-134.516	0.610	0.074
-413.398	-200.000	0.024	0.179
-412.384	-200.000	-0.016	-0.250
-411.369	-45.192	0.105	0.052
-410.355	22.669	0.156	0.127
-409.340	-200.000	-0.083	0.368
-408.325	-200.000	0.029	-0.312
-407.311	-200.000	-0.004	0.164
-406.296	-139.494	-0.308	-0.033
-405.282	-142.803	0.139	-0.013
-404.267	353.025	-0.101	0.200
-403.252	57.336	0.115	-0.111
-402.238	711.817	0.080	0.210
-401.223	-149.868	0.152	0.012
-400.209	-200.000	0.006	-0.182
-399.194	589.107	0.053	0.129
-398.179	800.000	0.107	-0.303
-397.165	-200.000	0.037	0.197
-396.150	-200.000	-0.044	0.407
-395.136	27.431	-0.092	0.077
-394.121	800.000	-0.020	-0.059
-393.106	-107.508	-0.516	0.112
-392.092	185.501	0.103	0.152
-391.077	24.884	0.230	0.189
-390.063	-200.000	-0.002	0.237
-389.048	172.099	0.152	-0.217
-388.033	-24.770	-0.193	-0.114
-387.019	157.321	-0.053	0.073
-386.004	3.566	0.302	0.218
-384.990	-200.000	-0.045	0.208
-383.975	-93.516	-0.091	0.025
-382.960	-200.000	0.003	-0.264
-381.946	-170.499	0.302	-0.010
-380.931	800.000	-0.041	-0.159
-379.917	-168.355	-0.133	-0.005
-378.902	32.410	-0.235	-0.202
-377.888	800.000	-0.111	0.366
-376.873	-200.000	0.013	-0.109
-375.858	333.581	-0.108	0.208
-374.844	-60.701	0.229	-0.096
-373.829	-13.460	-0.057	0.037
-372.815	-200.000	-0.008	-0.256
-371.800	781.620	-0.149	0.406
-370.785	432.759	-0.092	0.199
-369.771	-143.027	0.140	0.013
-368.756	-200.000	0.016	0.087
-367.742	-45.742	0.051	0.025
-366.727	85.685	-0.216	-0.236
-365.712	-200.000	-0.027	0.165
-364.698	-152.401	0.103	0.007
-363.683	-96.366	-0.414	0.108
-362.669	135.252	0.045	0.058
-361.654	-93.057	-0.336	0.093
-360.639	-17.529	0.227	-0.142
-359.625	-108.990	0.134	-0.028
-358.610	-200.000	0.027	0.231
-357.596	247.036	-0.107	0.179
-356.581	-17.469	-0.110	0.069
-355.566	120.384	-0.082	0.101
-354.552	-200.000	0.006	-0.108
-353.537	-150.996	-0.079	0.006
-352.523	-111.926	-0.312	-0.062
-351.508	-89.926	0.288	0.083
-350.493	252.434	-0.066	-0.112
-349.479	-200.000	0.010	-0.165
-348.464	65.734	0.281	-0.282
-347.450	-200.000	-0.007	-0.194
-346.435	-96.011	-0.426	-0.112
-345.420	141.779	0.075	-0.098
-344.406	-8.369	-0.112	-0.075
-343.391	-83.767	-0.087	0.027
-342.377	-145.700	0.259	0.023
-341.362	140.601	-0.203	0.265
-340.348	267.534	-0.194	0.336
-339.333	63.243	-0.182	0.181
-338.318	590.322	-0.035	-0.084
-337.304	634.141	-0.038	0.094
-336.289	340.333	-0.088	0.170
-335.275	-20.084	-0.160	0.098
-334.260	-71.921	0.147	0.054
-333.245	-117.991	-0.339	-0.060
-332.231	651.263	-0.027	-0.069
-331.216	80.728	0.289	-0.308
-330.202	-200.000	-0.040	0.220
-329.187	262.184	0.062	-0.106
-328.172	-109.669	0.296	0.062
-327.158	-200.000	0.013	0.085
-326.143	144.382	-0.232	-0.307
-325.129	367.677	0.176	0.352
-324.114	-54.929	0.228	0.102
-323.099	-200.000	0.078	0.350
-322.085	300.764	-0.067	0.122
-321.070	446.664	0.083	-0.181
-320.056	-200.000	0.019	-0.259
-319.041	81.064	-0.134	-0.143
-318.026	148.479	-0.136	0.182
-317.012	38.799	0.142	0.126
-315.997	-200.000	0.004	0.142
-314.983	259.073	0.113	0.193
-313.968	-200.000	0.022	0.240
-312.953	-12.438	0.209	0.135
-311.939	-34.083	0.209	-0.114
-310.924	-53.740	-0.109	-0.049
-309.910	12.546	0.128	0.097
-308.895	-110.398	-0.203	-0.042
-307.880	271.696	-0.205	-0.358
-306.866	268.070	-0.133	-0.230
-305.851	-200.000	-0.023	0.345
-304.837	-161.717	-0.293	0.015
-303.822	-105.300	0.371	-0.084
-302.807	-135.604	0.231	0.027
-301.793	735.542	-0.047	-0.125
-300.778	-200.000	-0.004	-0.294
-299.764	-38.937	0.285	-0.149
-298.749	-94.655	-0.192	0.052
-297.735	-171.045	0.192	-0.006
-296.720	-106.711	0.145	0.032
-295.705	-200.000	-0.023	0.178
-294.691	800.000	0.059	-0.182
-293.676	39.473	-0.139	-0.123
-292.662	-44.258	-0.291	0.144
-291.647	72.124	-0.080	-0.083
-290.632	-111.569	-0.054	-0.011
-289.618	181.135	0.127	-0.184
-288.603	-147.375	0.330	-0.028
-287.589	-135.533	-0.209	-0.025
-286.574	800.000	-0.068	-0.200
-285.559	299.017	0.090	-0.164
-284.545	-200.000	0.010	-0.189
-283.530	264.714	0.104	-0.179
-282.516	74.000	0.109	-0.113
-281.501	-62.304	-0.083	0.034
-280.486	124.149	-0.102	0.127
-279.472	-163.903	0.224	-0.010
-278.457	-107.148	-0.126	-0.027
-277.443	162.761	-0.150	0.207
-276.428	-200.000	0.026	-0.335
-275.413	-97.753	-0.185	-0.047
-274.399	800.000	-0.069	0.238
-273.384	-200.000	-0.024	0.111
-272.370	-160.951	0.242	0.013
-271.355	591.663	0.147	-0.358
-270.340	41.212	0.055	0.049
-269.326	57.339	0.239	0.231
-268.311	-55.812	-0.234	-0.103
-267.297	87.577	0.078	0.086
-266.282	-34.590	0.141	-0.076
-265.267	-200.000	-0.032	0.180
-264.253	-200.000	-0.002	-0.062
-263.238	-200.000	0.004	0.090
-262.224	26.677	-0.334	-0.276
-261.209	-53.084	-0.261	0.119
-260.195	-118.203	0.368	-0.065
-259.180	-200.000	0.024	0.291
-258.165	-193.163	0.216	0.002
-257.151	800.000	-0.034	-0.110
-256.136	338.956	0.061	0.117
-255.122	-200.000	-0.004	-0.085
-254.107	20.914	-0.100	-0.080
-253.092	378.010	-0.177	-0.358
-252.078	-98.237	-0.228	0.058
-251.063	-28.903	0.108	0.061
-250.049	-65.554	-0.215	-0.085
-249.034	190.769	-0.184	-0.273
-248.019	-3.228	0.203	0.139
-247.005	76.602	-0.242	0.254
-245.990	-51.743	-0.214	0.099
-244.976	-160.356	0.197	-0.010
-243.961	661.509	0.108	-0.273
-242.946	-128.394	0.519	0.073
-241.932	-200.000	0.020	0.214
-240.917	-200.000	0.022	-0.227
-239.903	739.035	0.110	0.291
-238.888	93.313	0.231	0.257
-237.873	-142.966	-0.427	0.041
-236.859	573.434	-0.119	-0.287
-235.844	33.582	-0.078	-0.067
-234.830	-130.946	-0.300	0.040
-233.815	545.032	0.108	-0.254
-232.800	150.599	0.087	-0.117
-231.786	-200.000	-0.003	-0.323
-230.771	114.638	-0.112	0.134
-229.757	107.388	-0.148	0.173
-228.742	800.000	0.040	0.147
-227.727	173.193	0.163	-0.232
-226.713	6.893	-0.072	0.053
-225.698	-45.185	-0.297	-0.146
-224.684	39.255	0.287	0.254
-223.669	-27.854	0.246	0.140
-222.655	-50.303	0.424	0.198
-221.640	133.356	0.065	0.083
-220.625	20.656	0.158	-0.126
-219.611	-200.000	-0.021	-0.113
-218.596	-116.924	0.114	-0.021
-217.582	-39.878	0.274	0.141
-216.567	239.685	0.150	0.246
-215.552	65.767	0.060	0.059
-214.538	240.438	-0.045	-0.074
-213.523	-145.305	-0.251	0.022
-212.509	-1.131	-0.041	0.029
-211.494	259.848	0.105	0.179
-210.479	515.224	0.130	0.299
-209.465	-158.060	0.160	-0.009
-208.450	-200.000	-0.009	0.247
-207.436	-102.694	0.281	0.066
-206.421	97.624	-0.157	0.178
-205.406	218.166	-0.119	0.188
-204.392	5.296	-0.070	0.051
-203.377	-91.207	0.176	-0.050
-202.363	738.679	-0.045	-0.120
-201.348	800.000	-0.037	-0.154
-200.333	-128.905	-0.204	0.028
-199.319	-89.669	0.201	0.058
-198.304	-134.931	-0.370	0.044
-197.290	-131.932	-0.217	0.028
-196.275	65.639	-0.131	0.131
-195.260	800.000	0.082	0.317
-194.246	-91.429	-0.113	0.032
-193.231	429.916	0.167	0.355
-192.217	5.420	0.181	-0.131
-191.202	76.747	-0.153	0.159
-190.187	-200.000	0.039	-0.170
-189.173	46.387	0.201	-0.184
-188.158	-132.109	-0.104	0.013
-187.144	634.679	0.097	-0.243
-186.129	-200.000	0.023	-0.254
-185.114	-76.719	0.188	0.065
-184.100	103.730	-0.182	0.211
-183.085	-83.274	0.314	-0.099
-182.071	-141.398	-0.258	0.026
-181.056	800.000	-0.129	0.398
-180.042	-19.308	-0.208	0.127
-179.027	-200.000	0.023	-0.106
-178.012	-200.000	0.069	-0.438
-176.998	159.799	-0.205	0.281
-175.983	83.130	-0.098	0.105
-174.969	-30.889	0.346	0.192
-173.954	-55.725	0.194	0.086
-172.939	-112.494	-0.175	0.034
-171.925	-89.430	0.278	0.081
-170.910	76.764	0.150	0.157
-169.896	800.000	-0.031	-0.089
-168.881	593.186	0.144	0.349
-167.866	-138.881	0.346	0.037
-166.852	-120.588	0.166	0.028
-165.837	492.634	0.209	0.472
-164.823	393.987	-0.109	-0.224
-163.808	-27.354	0.458	0.262
-162.793	546.859	-0.119	-0.281
-161.779	-200.000	0.025	-0.197
-160.764	-200.000	-0.042	-0.530
-159.750	-200.000	-0.026	-0.117
-158.735	-30.169	0.178	0.099
-157.720	-21.539	0.015	0.009
-156.706	-71.681	-0.144	-0.053
-155.691	77.616	-0.075	-0.079
-154.677	-200.000	0.045	-0.214
-153.662	449.915	-0.047	-0.103
-152.647	9.967	0.126	-0.094
-151.633	-27.504	0.367	-0.210
-150.618	800.000	0.019	-0.082
-149.604	264.688	0.109	-0.187
-148.589	800.000	0.067	0.223
-147.574	221.446	-0.074	-0.116
-146.560	800.000	0.054	0.159
-145.545	231.296	0.125	-0.201
-144.531	107.193	-0.115	0.134
-143.516	211.926	-0.047	-0.073
-142.502	-147.788	0.128	0.010
-141.487	-200.000	0.014	0.169
-140.472	-200.000	0.027	0.159
-139.458	-200.000	-0.033	0.247
-138.443	18.257	0.137	0.107
-137.429	52.017	0.324	0.303
-136.414	75.339	0.181	0.187
-135.399	-65.124	-0.136	0.054
-134.385	-168.220	0.071	-0.003
-133.370	-64.804	-0.091	0.036
-132.356	-69.313	-0.127	0.048
-131.341	188.793	0.171	0.252
-130.326	800.000	0.053	-0.206
-129.312	800.000	0.104	0.299
-128.297	800.000	0.123	-0.374
-127.283	-82.468	0.393	0.125
-126.268	38.119	-0.246	0.215
-125.253	373.581	-0.070	0.140
-124.239	-9.672	0.192	-0.126
-123.224	-110.246	0.261	-0.053
-122.210	-111.963	-0.188	-0.037
-121.195	-90.481	0.311	0.089
