DTS Sentinel unit serial number:	SN413079Multiplexer serial number:	ORYXHardware model number:	OX4-SRSoftware version number:	ORYX F/W v4.00 Oryx Data Collector v3.7.2.0data status	okinstallation	princeton_trtdifferential loss correction	single-endedforward channel	channel 1reverse channel	N/Adate	2019/09/14time	11:46:35forward acquisition time	60.00reverse acquisition time	0.00gamma	496.2192k internal	0.2296k external	0.2296temperature offset calibration	1.0088default loss term (dB/km)	0.3790temperature slope calibration	1.0000multiplexer offset coefficient	1.0000multiplexer slope coefficient	1.0000fibre end	0.00T internal ref (°C)	37.02T ext. ref 1 (°C)	4.62T ext. ref 2 (°C)	33.76length (m)	temperature (°C)	Stokes	anti-Stokes-747.200	-58.958	0.193	-0.085
-746.185	-200.000	-0.095	0.491
-745.171	-54.958	0.064	0.029
-744.156	-123.706	-0.181	-0.029
-743.142	-175.874	-0.300	-0.008
-742.127	800.000	-0.085	-0.304
-741.112	-131.766	-0.181	0.024
-740.098	-77.544	0.145	0.051
-739.083	-49.854	-0.109	-0.053
-738.069	230.810	0.221	-0.369
-737.054	-42.818	-0.196	0.102
-736.039	145.641	-0.194	-0.265
-735.025	261.274	0.083	0.146
-734.010	-62.150	0.438	-0.187
-732.996	176.828	0.147	-0.219
-731.981	-68.111	-0.124	-0.049
-730.966	360.026	0.047	0.096
-729.952	800.000	-0.058	0.178
-728.937	162.889	0.141	0.202
-727.923	-147.767	-0.340	0.029
-726.908	-106.160	-0.242	0.055
-725.894	-200.000	-0.018	0.167
-724.879	-100.704	-0.258	0.065
-723.864	-0.455	0.103	0.074
-722.850	-30.694	-0.235	-0.136
-721.835	174.393	0.131	0.193
-720.821	-78.109	-0.233	-0.082
-719.806	399.083	-0.021	-0.045
-718.791	-200.000	-0.036	-0.203
-717.777	-200.000	-0.004	0.085
-716.762	-157.779	0.370	-0.022
-715.748	-61.227	-0.053	0.023
-714.733	142.920	0.102	0.139
-713.718	-200.000	0.029	-0.243
-712.704	66.011	-0.227	-0.235
-711.689	199.058	0.096	0.149
-710.675	174.350	-0.154	-0.227
-709.660	800.000	-0.054	0.166
-708.645	470.012	-0.036	0.082
-707.631	-44.957	-0.080	-0.041
-706.616	50.976	-0.052	0.050
-705.602	-28.789	0.048	0.028
-704.587	-23.525	-0.295	-0.181
-703.572	688.495	0.042	0.111
-702.558	-200.000	0.020	0.232
-701.543	342.129	0.138	-0.275
-700.529	-64.930	0.259	0.107
-699.514	133.115	0.106	0.139
-698.499	14.033	0.227	0.180
-697.485	-153.372	0.083	0.006
-696.470	15.199	-0.170	-0.136
-695.456	-189.280	-0.057	0.001
-694.441	160.571	0.150	0.214
-693.426	-200.000	-0.058	0.349
-692.412	129.015	0.065	0.084
-691.397	91.727	0.072	0.082
-690.383	-80.080	0.140	-0.048
-689.368	-30.914	-0.379	-0.218
-688.354	800.000	-0.057	-0.163
-687.339	-50.279	0.059	-0.028
-686.324	-95.878	-0.238	0.065
-685.310	-4.052	-0.082	-0.058
-684.295	317.190	0.111	-0.215
-683.281	-200.000	-0.033	-0.230
-682.266	-200.000	0.011	-0.084
-681.251	800.000	0.008	-0.032
-680.237	-200.000	-0.038	-0.314
-679.222	494.404	-0.010	0.023
-678.208	159.507	-0.051	-0.072
-677.193	9.342	0.094	0.073
-676.178	-200.000	-0.003	-0.086
-675.164	198.638	0.119	-0.186
-674.149	-200.000	0.015	-0.210
-673.135	795.228	-0.094	-0.264
-672.120	-158.157	-0.324	-0.019
-671.105	-72.534	-0.254	-0.095
-670.091	800.000	-0.037	-0.108
-669.076	143.365	0.118	-0.160
-668.062	-14.139	0.157	0.103
-667.047	283.668	0.168	0.308
-666.032	-158.745	0.448	-0.026
-665.018	-86.937	0.203	-0.063
-664.003	-155.100	0.116	-0.008
-662.989	364.475	-0.144	0.296
-661.974	767.240	-0.081	0.225
-660.959	800.000	0.097	0.311
-659.945	-68.771	-0.277	0.109
-658.930	-147.863	-0.134	0.011
-657.916	-179.321	0.276	0.006
-656.901	43.997	-0.067	0.063
-655.886	-109.944	-0.251	-0.054
-654.872	-103.354	-0.227	0.055
-653.857	744.212	-0.027	-0.073
-652.843	193.815	0.306	-0.471
-651.828	116.783	-0.079	-0.099
-650.814	-200.000	-0.000	-0.119
-649.799	-150.947	0.233	0.018
-648.784	210.558	-0.025	-0.039
-647.770	-200.000	-0.005	0.455
-646.755	241.623	-0.019	-0.033
-645.741	-200.000	0.000	-0.097
-644.726	-80.089	0.139	0.047
-643.711	-200.000	-0.052	0.364
-642.697	800.000	-0.011	0.038
-641.682	45.864	0.397	-0.373
-640.668	-200.000	0.034	0.177
-639.653	70.412	0.107	0.113
-638.638	107.602	0.253	0.306
-637.624	-64.722	-0.127	0.052
-636.609	-200.000	-0.065	-0.318
-635.595	402.373	0.077	-0.166
-634.580	-200.000	-0.015	0.184
-633.565	-112.121	-0.340	0.069
-632.551	60.430	0.136	-0.137
-631.536	-88.044	0.216	0.066
-630.522	-148.709	-0.019	0.002
-629.507	-200.000	-0.020	0.094
-628.492	111.375	0.082	-0.100
-627.478	800.000	0.075	-0.235
-626.463	-41.077	0.107	0.056
-625.449	10.245	0.059	-0.045
-624.434	800.000	0.056	-0.181
-623.419	-200.000	0.048	-0.280
-622.405	-104.864	0.221	0.052
-621.390	193.702	0.217	-0.334
-620.376	13.716	0.248	-0.196
-619.361	-60.404	-0.096	-0.041
-618.346	-87.393	-0.084	0.026
-617.332	342.943	-0.214	-0.426
-616.317	384.114	-0.115	-0.241
-615.303	394.115	0.104	-0.220
-614.288	-78.225	-0.156	-0.054
-613.273	-164.784	-0.094	0.004
-612.259	236.970	0.120	0.202
-611.244	-80.450	-0.293	0.099
-610.230	-116.420	-0.227	0.043
-609.215	48.428	-0.243	-0.231
-608.201	-200.000	0.039	-0.471
-607.186	-82.995	-0.470	0.154
-606.171	592.958	-0.124	0.312
-605.157	-32.297	-0.115	-0.065
-604.142	800.000	-0.045	-0.159
-603.128	355.585	0.143	-0.289
-602.113	79.817	0.034	0.037
-601.098	61.017	0.238	0.240
-600.084	-9.020	-0.159	-0.108
-599.069	-130.178	-0.105	-0.015
-598.055	-4.632	-0.178	-0.125
-597.040	-200.000	0.043	-0.297
-596.025	465.979	0.126	0.288
-595.011	-200.000	0.018	0.167
-593.996	800.000	0.080	0.321
-592.982	800.000	-0.045	0.134
-591.967	-1.374	0.013	0.009
-590.952	-77.490	0.133	-0.047
-589.938	-74.526	0.199	-0.073
-588.923	132.525	-0.217	-0.284
-587.909	-200.000	-0.030	0.175
-586.894	131.383	-0.146	-0.190
-585.879	54.584	-0.407	0.398
-584.865	800.000	0.047	0.147
-583.850	62.895	-0.152	-0.154
-582.836	-165.369	-0.253	0.011
-581.821	-24.226	-0.364	0.221
-580.806	-200.000	0.039	0.224
-579.792	610.158	-0.094	0.238
-578.777	-92.784	-0.087	0.025
-577.763	-61.490	0.189	0.080
-576.748	-72.087	-0.177	0.067
-575.733	101.570	0.044	-0.052
-574.719	30.975	-0.281	-0.244
-573.704	-42.739	-0.156	-0.080
-572.690	-125.914	-0.391	-0.060
-571.675	40.494	0.242	-0.222
-570.661	758.649	-0.015	0.041
-569.646	0.307	-0.163	-0.118
-568.631	55.104	-0.308	0.302
-567.617	-49.852	0.421	0.203
-566.602	57.978	-0.257	0.255
-565.588	-97.543	-0.159	0.042
-564.573	-200.000	0.009	-0.040
-563.558	-200.000	-0.029	-0.286
-562.544	706.988	-0.194	0.521
-561.529	-71.489	0.251	0.095
-560.515	-168.822	-0.473	0.018
-559.500	589.271	0.106	-0.266
-558.485	23.999	-0.104	0.087
-557.471	-132.172	0.282	-0.037
-556.456	-16.005	0.259	-0.167
-555.442	-200.000	-0.025	-0.364
-554.427	800.000	-0.092	0.273
-553.412	-83.538	-0.161	-0.052
-552.398	-200.000	0.034	0.263
-551.383	-72.110	0.380	0.143
-550.369	-200.000	0.016	-0.174
-549.354	-93.012	-0.254	-0.072
-548.339	84.531	0.238	0.264
-547.325	17.023	0.064	0.052
-546.310	-200.000	-0.019	0.112
-545.296	98.946	-0.112	-0.131
-544.281	-76.890	0.238	-0.084
-543.266	-114.423	0.237	0.046
-542.252	454.268	0.106	-0.238
-541.237	123.444	0.271	0.344
-540.223	44.165	-0.299	0.278
-539.208	-16.315	-0.076	0.049
-538.193	10.295	-0.178	-0.138
-537.179	-200.000	-0.008	0.255
-536.164	800.000	-0.082	0.231
-535.150	368.735	0.037	-0.076
-534.135	-110.346	-0.085	-0.018
-533.121	-99.608	0.273	-0.069
-532.106	102.839	0.099	0.118
-531.091	-93.585	-0.175	0.049
-530.077	552.990	-0.185	-0.449
-529.062	800.000	0.073	0.241
-528.048	-200.000	0.052	-0.353
-527.033	69.868	0.121	-0.126
-526.018	167.598	-0.008	0.012
-525.004	-20.784	0.161	0.100
-523.989	800.000	-0.009	-0.037
-522.975	-4.938	0.139	0.097
-521.960	-200.000	0.012	0.242
-520.945	800.000	-0.050	0.173
-519.931	-200.000	0.006	0.046
-518.916	-80.808	0.050	0.017
-517.902	464.649	0.097	-0.219
-516.887	-76.283	-0.112	-0.040
-515.872	-68.955	0.100	0.039
-514.858	-200.000	0.055	-0.303
-513.843	678.197	0.141	-0.372
-512.829	-191.168	0.251	0.003
-511.814	-81.568	-0.162	0.054
-510.799	44.594	0.302	-0.281
-509.785	-68.602	-0.254	0.099
-508.770	734.626	0.023	-0.064
-507.756	-200.000	-0.011	0.127
-506.741	-43.917	0.194	-0.099
-505.726	800.000	-0.051	0.149
-504.712	-109.041	-0.401	-0.086
-503.697	-54.640	0.498	0.228
-502.683	305.341	-0.125	-0.235
-501.668	-113.484	-0.169	0.034
-500.653	-200.000	-0.046	-0.362
-499.639	-110.400	0.386	-0.081
-498.624	108.275	0.231	0.279
-497.610	158.293	0.135	-0.189
-496.595	-60.491	0.191	0.082
-495.581	78.639	0.088	-0.096
-494.566	-87.274	0.145	-0.045
-493.551	800.000	-0.120	0.342
-492.537	-11.167	-0.006	0.004
-491.522	800.000	0.017	0.069
-490.508	23.426	-0.103	0.086
-489.493	-72.434	0.156	-0.058
-488.478	24.074	-0.114	0.095
-487.464	55.014	-0.036	0.035
-486.449	-200.000	0.007	-0.087
-485.435	-100.923	0.102	0.025
-484.420	-181.716	-0.528	-0.010
-483.405	-79.991	-0.074	-0.025
-482.391	-41.016	0.225	0.118
-481.376	-126.833	-0.325	0.049
-480.362	-37.398	0.098	-0.053
-479.347	59.769	0.097	-0.097
-478.332	-194.692	0.006	0.000
-477.318	-100.544	-0.108	0.027
-476.303	-200.000	0.031	-0.224
-475.289	-152.047	0.206	-0.015
-474.274	-200.000	0.030	0.167
-473.259	-200.000	0.026	-0.322
-472.245	-200.000	-0.033	-0.238
-471.230	46.092	-0.214	0.201
-470.216	-52.340	-0.217	0.102
-469.201	201.457	0.125	0.194
-468.186	196.366	-0.045	-0.070
-467.172	-146.762	-0.167	-0.015
-466.157	153.607	0.163	0.226
-465.143	-146.591	0.325	-0.029
-464.128	7.665	-0.213	-0.161
-463.113	232.138	0.147	-0.244
-462.099	567.558	-0.100	0.245
-461.084	-41.520	-0.173	-0.090
-460.070	800.000	-0.097	-0.279
-459.055	-200.000	0.022	-0.167
-458.040	800.000	-0.010	-0.038
-457.026	-90.724	0.172	-0.050
-456.011	114.385	-0.113	-0.138
-454.997	-44.229	-0.184	0.093
-453.982	510.324	0.118	-0.278
-452.968	289.225	0.205	-0.375
-451.953	64.979	0.054	-0.055
-450.938	-131.430	0.151	-0.020
-449.924	229.125	0.057	0.095
-448.909	674.423	0.116	0.304
-447.895	-65.901	-0.108	0.043
-446.880	355.708	0.212	-0.426
-445.865	212.078	0.139	-0.221
-444.851	-94.961	-0.244	-0.067
-443.836	-170.448	-0.259	0.009
-442.822	800.000	-0.093	-0.305
-441.807	-34.419	-0.184	-0.102
-440.792	91.764	0.179	-0.204
-439.778	9.915	-0.228	-0.175
-438.763	-200.000	0.017	0.109
-437.749	238.434	0.088	-0.148
-436.734	363.866	-0.168	-0.341
-435.719	189.090	-0.113	-0.171
-434.705	-36.867	0.188	0.102
-433.690	-68.573	0.191	0.075
-432.676	474.103	0.162	0.368
-431.661	800.000	0.049	0.167
-430.646	-129.178	0.203	-0.029
-429.632	800.000	-0.105	-0.345
-428.617	-62.215	0.070	-0.030
-427.603	-200.000	0.037	-0.223
-426.588	-80.019	-0.369	-0.125
-425.573	-200.000	-0.028	-0.281
-424.559	362.671	0.004	0.008
-423.544	-77.461	-0.319	0.112
-422.530	-13.196	-0.058	0.038
-421.515	-90.728	-0.300	-0.087
-420.500	194.320	0.115	0.176
-419.486	-200.000	0.012	0.182
-418.471	-38.539	-0.227	0.121
-417.457	396.036	0.098	0.207
-416.442	123.245	0.185	-0.234
-415.428	220.894	0.153	-0.248
-414.413	319.564	-0.037	-0.071
-413.398	-167.567	0.224	0.009
-412.384	49.936	-0.241	-0.229
-411.369	-64.573	0.175	-0.071
-410.355	215.508	0.037	-0.059
-409.340	-61.084	-0.252	0.107
-408.325	301.226	0.043	-0.080
-407.311	95.829	0.201	0.231
-406.296	-200.000	0.003	0.124
-405.282	800.000	-0.038	0.118
-404.267	35.336	0.252	-0.223
-403.252	188.538	-0.093	-0.140
-402.238	63.329	0.087	0.088
-401.223	-89.695	-0.550	0.162
-400.209	-200.000	0.062	-0.285
-399.194	223.811	-0.060	0.097
-398.179	-200.000	0.027	-0.229
-397.165	-124.110	-0.235	0.037
-396.150	800.000	0.059	-0.247
-395.136	-200.000	0.016	-0.103
-394.121	393.161	0.082	0.173
-393.106	-98.081	0.357	-0.093
-392.092	-200.000	-0.023	-0.162
-391.077	-200.000	0.169	0.000
-390.063	-18.695	-0.317	-0.199
-389.048	-200.000	-0.018	-0.278
-388.033	-74.598	-0.186	-0.067
-387.019	684.566	0.119	0.313
-386.004	-16.347	0.167	0.107
-384.990	-146.022	-0.223	0.020
-383.975	-136.381	-0.213	-0.025
-382.960	548.420	-0.178	0.429
-381.946	-93.815	0.152	-0.042
-380.931	-37.851	-0.234	0.125
-379.917	-200.000	0.065	0.356
-378.902	80.102	0.098	0.106
-377.888	800.000	0.016	0.051
-376.873	-115.341	-0.125	0.024
-375.858	-36.626	0.466	0.252
-374.844	388.114	-0.127	-0.265
-373.829	-159.211	-0.202	-0.011
-372.815	-41.152	-0.112	-0.058
-371.800	-200.000	0.004	-0.191
-370.785	282.357	-0.100	-0.181
-369.771	-113.148	0.492	-0.098
-368.756	-118.632	-0.205	0.036
-367.742	174.260	-0.143	-0.208
-366.727	-200.000	0.039	0.198
-365.712	800.000	-0.056	-0.202
-364.698	800.000	-0.019	0.073
-363.683	800.000	-0.056	0.187
-362.669	19.462	-0.243	0.196
-361.654	-200.000	0.016	-0.081
-360.639	111.612	-0.168	0.204
-359.625	310.779	-0.081	0.153
-358.610	-27.843	0.033	0.019
-357.596	88.409	-0.165	0.184
-356.581	-200.000	-0.334	0.001
-355.566	-200.000	0.008	-0.156
-354.552	210.807	0.079	0.125
-353.537	-41.630	0.240	-0.124
-352.523	-40.376	0.216	-0.113
-351.508	-179.129	-0.285	-0.006
-350.493	-64.370	-0.220	-0.090
-349.479	-87.574	0.248	0.076
-348.464	40.716	0.205	0.186
-347.450	-47.976	-0.137	0.066
-346.435	-97.993	0.242	0.063
-345.420	800.000	0.067	-0.277
-344.406	315.609	0.056	-0.106
-343.391	-194.614	-0.221	0.002
-342.377	65.080	-0.108	0.110
-341.362	800.000	0.029	0.118
-340.348	181.150	0.103	-0.152
-339.333	-200.000	-0.006	0.265
-338.318	800.000	0.097	0.398
-337.304	-101.508	-0.142	-0.035
-336.289	800.000	-0.086	0.366
-335.275	-45.864	0.080	0.040
-334.260	-200.000	0.053	0.329
-333.245	71.197	0.075	-0.079
-332.231	396.070	-0.054	0.113
-331.216	-62.036	-0.220	0.092
-330.202	-200.000	-0.004	0.296
-329.187	43.546	0.226	-0.208
-328.172	248.082	0.167	0.284
-327.158	800.000	-0.024	0.089
-326.143	-121.449	-0.193	-0.032
-325.129	-145.532	-0.433	-0.039
-324.114	-31.210	0.168	-0.095
-323.099	117.495	0.157	0.194
-322.085	-91.282	0.119	0.034
-321.070	-200.000	-0.008	0.108
-320.056	303.927	-0.083	-0.155
-319.041	-42.443	0.193	0.099
-318.026	-147.584	0.077	0.006
-317.012	141.841	0.048	0.065
-315.997	-200.000	0.016	-0.185
-314.983	-200.000	-0.135	0.000
-313.968	-171.319	-0.076	-0.003
-312.953	381.427	-0.032	-0.065
-311.939	-200.000	-0.002	-0.219
-310.924	201.793	-0.095	0.146
-309.910	205.329	-0.104	0.163
-308.895	132.686	-0.180	0.234
-307.880	800.000	-0.014	0.054
-306.866	-87.673	0.242	0.073
-305.851	360.285	-0.068	0.138
-304.837	480.780	0.105	0.240
-303.822	800.000	0.078	0.240
-302.807	-47.293	0.196	-0.096
-301.793	-14.575	-0.145	0.094
-300.778	210.341	0.120	0.188
-299.764	226.599	0.101	0.164
-298.749	-101.889	0.163	0.040
-297.735	-49.143	0.192	0.092
-296.720	-130.400	-0.308	-0.042
-295.705	800.000	-0.060	0.173
-294.691	800.000	0.046	-0.137
-293.676	800.000	-0.117	-0.392
-292.662	-165.352	0.124	0.005
-291.647	-90.146	-0.239	0.070
-290.632	-62.100	0.399	-0.167
-289.618	-94.970	-0.178	0.048
-288.603	-200.000	-0.107	0.479
-287.589	120.888	0.224	-0.280
-286.574	-200.000	0.018	-0.101
-285.559	800.000	-0.061	-0.189
-284.545	-150.706	0.107	0.008
-283.530	-41.330	-0.213	-0.110
-282.516	-190.042	0.029	-0.000
-281.501	-68.354	0.168	-0.066
-280.486	-0.425	-0.230	0.164
-279.472	120.212	-0.083	0.103
-278.457	-80.815	-0.163	-0.054
-277.443	-117.611	-0.142	0.026
-276.428	-192.443	-0.335	-0.003
-275.413	-90.573	0.381	-0.111
-274.399	4.114	0.314	-0.231
-273.384	19.421	0.128	-0.103
-272.370	800.000	0.150	-0.431
-271.355	-200.000	-0.009	0.094
-270.340	-200.000	0.025	0.431
-269.326	-10.801	-0.127	-0.085
-268.311	21.154	0.145	-0.118
-267.297	-200.000	0.018	-0.347
-266.282	800.000	-0.072	0.242
-265.267	-16.323	-0.225	-0.143
-264.253	26.883	-0.035	-0.029
-263.238	256.453	-0.216	0.372
-262.224	-157.767	-0.409	-0.024
-261.209	-200.000	0.022	0.111
-260.195	-106.993	-0.220	0.049
-259.180	114.942	-0.271	0.331
-258.165	-200.000	-0.015	0.390
-257.151	-200.000	0.015	-0.323
-256.136	-200.000	0.070	-0.334
-255.122	-53.153	-0.184	-0.085
-254.107	-136.032	-0.329	-0.039
-253.092	-139.778	0.391	-0.042
-252.078	1.748	0.176	0.127
-251.063	-110.188	-0.583	0.122
-250.049	-96.796	0.033	0.009
-249.034	-75.967	-0.157	0.056
-248.019	-48.932	0.109	-0.052
-247.005	-200.000	-0.030	-0.442
-245.990	53.703	-0.067	-0.065
-244.976	-178.480	0.443	-0.010
-243.961	728.396	-0.139	0.373
-242.946	-187.431	0.203	-0.003
-241.932	298.187	0.027	0.049
-240.917	26.452	0.040	-0.033
-239.903	-128.120	0.202	-0.029
-238.888	74.729	0.149	-0.157
-237.873	-154.203	-0.071	-0.005
-236.859	-91.958	0.285	-0.081
-235.844	61.231	-0.269	-0.268
-234.830	358.767	-0.122	0.244
-233.815	-61.745	-0.270	-0.113
-232.800	-200.000	-0.008	-0.104
-231.786	208.005	0.127	-0.198
-230.771	328.016	0.168	0.322
-229.757	-0.379	0.359	0.255
-228.742	-142.585	-0.251	0.025
-227.727	-66.689	-0.397	0.157
-226.713	207.907	0.049	-0.076
-225.698	773.609	0.071	0.195
-224.684	-54.422	0.032	0.014
-223.669	-149.888	0.218	0.017
-222.655	-22.522	0.123	0.075
-221.640	-127.225	0.190	-0.028
-220.625	-46.029	-0.197	0.097
-219.611	-200.000	-0.020	0.138
-218.596	-6.225	0.042	-0.028
-217.582	800.000	0.048	0.168
-216.567	186.455	0.062	0.092
-215.552	800.000	-0.090	0.256
-214.538	413.180	-0.125	-0.266
-213.523	-92.248	0.297	-0.084
-212.509	-47.582	0.286	0.139
-211.494	-75.684	-0.197	-0.070
-210.479	162.319	0.101	0.142
-209.465	-53.194	0.084	0.038
-208.450	-105.051	-0.181	0.041
-207.436	-200.000	0.001	0.200
-206.421	142.317	0.224	-0.298
-205.406	34.009	-0.063	-0.054
-204.392	29.408	0.146	-0.124
-203.377	304.226	-0.250	0.463
-202.363	-200.000	-0.013	0.097
-201.348	800.000	-0.125	0.366
-200.333	-194.814	0.261	0.002
-199.319	-150.395	0.185	0.014
-198.304	-53.856	-0.309	-0.141
-197.290	52.167	-0.138	0.132
-196.275	800.000	0.080	-0.245
-195.260	-3.432	0.237	0.165
-194.246	66.431	0.080	0.081
-193.231	-200.000	-0.033	0.214
-192.217	-20.279	0.075	0.046
-191.202	164.073	0.034	0.048
-190.187	62.219	0.158	-0.157
-189.173	-200.000	0.048	-0.362
-188.158	-10.278	-0.171	0.113
-187.144	16.221	-0.096	0.076
-186.129	40.417	0.132	0.119
-185.114	-110.295	0.068	-0.014
-184.100	-34.245	-0.216	-0.118
-183.085	139.435	0.115	0.151
-182.071	100.858	0.047	0.055
-181.056	344.429	0.103	0.202
-180.042	199.645	-0.029	-0.044
-179.027	-53.080	0.219	-0.101
-178.012	87.783	-0.194	-0.215
-176.998	-60.019	-0.171	-0.073
-175.983	151.340	0.163	-0.221
-174.969	-46.445	-0.131	0.064
-173.954	-135.850	0.191	0.023
-172.939	-141.893	0.168	-0.017
-171.925	202.348	0.129	0.199
-170.910	-156.969	0.248	-0.015
-169.896	-200.000	0.018	0.144
-168.881	140.007	0.134	-0.176
-167.866	-98.378	-0.192	-0.049
-166.852	-39.075	0.103	0.054
-165.837	20.159	-0.127	-0.103
-164.823	-200.000	-0.029	-0.433
-163.808	-200.000	0.019	-0.103
-162.793	68.089	0.096	0.098
-161.779	-200.000	0.014	0.224
-160.764	-119.055	-0.191	-0.033
-159.750	-200.000	0.011	-0.050
-158.735	-2.287	0.272	-0.191
-157.720	-32.692	0.149	0.083
-156.706	-200.000	0.038	-0.345
-155.691	262.530	0.156	-0.270
-154.677	-75.272	0.203	-0.072
-153.662	91.586	0.215	0.241
-152.647	-200.000	0.117	-0.000
-151.633	155.759	-0.106	0.146
-150.618	30.872	0.166	0.142
-149.604	800.000	0.070	0.235
-148.589	60.679	0.105	0.104
-147.574	504.132	0.050	0.116
-146.560	144.213	-0.100	0.133
-145.545	800.000	0.038	0.150
-144.531	-200.000	0.013	-0.078
-143.516	18.394	-0.084	-0.067
-142.502	193.878	0.176	0.267
-141.487	-200.000	0.011	-0.195
-140.472	-74.024	-0.084	0.030
-139.458	-200.000	-0.019	-0.162
-138.443	0.928	0.113	0.081
-137.429	-129.630	0.254	0.035
-136.414	-200.000	-0.008	-0.064
-135.399	46.878	-0.152	-0.141
-134.385	10.539	0.132	-0.100
-133.370	-68.100	-0.181	-0.070
-132.356	-200.000	-0.047	-0.371
-131.341	761.083	-0.082	-0.222
-130.326	-35.396	-0.090	0.049
-129.312	800.000	0.030	-0.098
-128.297	-143.117	0.221	-0.021
-127.283	275.130	0.075	-0.132
-126.268	-56.332	-0.085	-0.038
-125.253	800.000	0.043	-0.152
-124.239	-138.711	0.165	0.018
-123.224	-125.272	0.165	-0.025
-122.210	579.836	0.083	0.202
-121.195	493.817	0.128	-0.293
