DTS Sentinel unit serial number:	SN413079Multiplexer serial number:	ORYXHardware model number:	OX4-SRSoftware version number:	ORYX F/W v4.00 Oryx Data Collector v3.7.2.0data status	okinstallation	princeton_trtdifferential loss correction	single-endedforward channel	channel 1reverse channel	N/Adate	2019/09/12time	18:48:34forward acquisition time	15.00reverse acquisition time	0.00gamma	496.2192k internal	0.2319k external	0.2319temperature offset calibration	1.0118default loss term (dB/km)	0.3790temperature slope calibration	1.0000multiplexer offset coefficient	1.0000multiplexer slope coefficient	1.0000fibre end	0.00T internal ref (°C)	32.94T ext. ref 1 (°C)	2.97T ext. ref 2 (°C)	27.47length (m)	temperature (°C)	Stokes	anti-Stokes-747.200	326.327	0.271	-0.525
-746.185	407.252	-0.133	-0.285
-745.171	12.390	0.385	0.300
-744.156	-16.786	-0.329	0.211
-743.142	800.000	-0.134	-0.427
-742.127	143.327	0.344	0.464
-741.112	-9.572	0.560	-0.378
-740.098	665.791	0.024	-0.064
-739.083	-39.366	-0.332	-0.176
-738.069	-65.301	0.450	-0.183
-737.054	-153.635	-1.040	-0.073
-736.039	0.217	-0.157	0.114
-735.025	31.047	0.425	0.368
-734.010	24.125	-0.390	-0.325
-732.996	-175.124	-0.350	0.010
-731.981	119.739	0.514	-0.644
-730.966	-129.094	0.155	0.022
-729.952	-101.064	-0.227	-0.056
-728.937	-200.000	-0.008	0.206
-727.923	407.288	-0.394	-0.841
-726.908	-77.250	-0.512	0.180
-725.894	-44.936	-0.386	0.194
-724.879	-92.974	-0.605	-0.171
-723.864	-49.013	-0.332	-0.161
-722.850	800.000	0.085	0.324
-721.835	-200.000	0.040	0.354
-720.821	0.720	-0.553	0.400
-719.806	800.000	0.179	-0.577
-718.791	180.341	0.283	0.420
-717.777	99.693	0.269	-0.315
-716.762	-116.180	-0.543	0.102
-715.748	-87.969	-0.124	-0.038
-714.733	-200.000	-0.023	0.196
-713.718	-200.000	0.028	-0.516
-712.704	-200.000	-0.110	-0.541
-711.689	610.109	-0.210	0.530
-710.675	800.000	0.206	-0.890
-709.660	-175.004	-0.511	0.014
-708.645	102.057	0.115	-0.135
-707.631	800.000	0.330	-1.034
-706.616	-200.000	0.040	-0.380
-705.602	42.143	-0.377	0.346
-704.587	594.369	-0.134	-0.336
-703.572	255.325	-0.219	0.380
-702.558	-200.000	-0.042	0.347
-701.543	-124.560	0.298	-0.047
-700.529	678.166	-0.218	-0.572
-699.514	-200.000	-0.018	-0.748
-698.499	800.000	-0.059	-0.218
-697.485	-124.947	-0.602	-0.094
-696.470	-200.000	-0.011	0.515
-695.456	35.414	0.187	0.165
-694.441	171.949	0.256	-0.372
-693.426	-49.351	-0.258	-0.124
-692.412	416.502	-0.194	0.418
-691.397	233.425	-0.418	-0.694
-690.383	77.149	-0.395	0.424
-689.368	74.865	-0.576	0.613
-688.354	34.737	-0.787	-0.695
-687.339	-200.000	-0.147	-0.740
-686.324	-200.000	0.029	0.274
-685.310	568.509	0.164	0.403
-684.295	643.814	-0.124	0.320
-683.281	-200.000	0.042	0.282
-682.266	-200.000	-0.033	-0.219
-681.251	70.317	-0.331	-0.345
-680.237	-82.387	0.542	-0.178
-679.222	-169.252	-0.654	-0.024
-678.208	542.703	0.180	0.433
-677.193	-80.568	0.544	-0.183
-676.178	-153.289	-0.598	-0.042
-675.164	-93.849	0.767	0.213
-674.149	800.000	0.099	-0.292
-673.135	800.000	0.218	-0.824
-672.120	-200.000	0.057	0.326
-671.105	-22.613	0.788	0.481
-670.091	139.968	-0.252	-0.335
-669.076	-112.141	0.538	0.109
-668.062	-8.960	-0.579	-0.391
-667.047	145.750	0.020	0.027
-666.032	800.000	-0.223	0.632
-665.018	-24.653	0.458	0.275
-664.003	-200.000	-0.071	0.408
-662.989	-88.852	0.130	-0.039
-661.974	-43.528	-0.927	0.472
-660.959	-102.568	-0.264	0.064
-659.945	-165.760	-0.876	-0.038
-658.930	-200.000	0.012	-1.259
-657.916	-200.000	-0.103	0.714
-656.901	-200.000	0.035	-0.183
-655.886	-59.375	0.561	-0.243
-654.872	-200.000	-0.037	-0.584
-653.857	585.023	-0.176	-0.436
-652.843	-95.155	-0.522	-0.142
-651.828	800.000	-0.275	-1.165
-650.814	126.197	0.213	-0.272
-649.799	800.000	-0.109	-0.325
-648.784	-4.445	0.413	-0.288
-647.770	-188.213	0.930	-0.012
-646.755	-168.591	0.640	0.025
-645.741	-200.000	0.003	0.290
-644.726	57.026	0.145	0.143
-643.711	407.218	0.133	0.283
-642.697	617.571	-0.088	0.223
-641.682	106.213	-0.301	0.359
-640.668	646.644	0.103	-0.266
-639.653	112.719	-0.391	-0.477
-638.638	800.000	-0.112	0.481
-637.624	-51.200	-0.504	0.238
-636.609	122.257	-0.135	-0.170
-635.595	-200.000	-0.015	0.241
-634.580	69.061	0.641	0.663
-633.565	-26.476	0.464	-0.274
-632.551	-200.000	0.009	-0.556
-631.536	691.067	-0.255	-0.674
-630.522	268.155	0.298	0.526
-629.507	525.093	0.294	0.697
-628.492	-123.393	0.314	-0.050
-627.478	616.301	-0.163	0.411
-626.463	-31.621	0.163	-0.092
-625.449	-100.077	0.272	0.068
-624.434	-94.718	-0.667	0.182
-623.419	-106.541	-0.196	0.044
-622.405	-200.000	0.116	-0.602
-621.390	-108.147	0.522	-0.114
-620.376	100.940	0.578	-0.676
-619.361	-90.795	-0.296	0.086
-618.346	-177.067	0.863	0.022
-617.332	-200.000	0.044	-0.265
-616.317	-112.683	-0.546	0.109
-615.303	12.631	-0.963	0.748
-614.288	17.270	0.496	-0.396
-613.273	-200.000	0.132	0.794
-612.259	-145.082	-0.733	0.067
-611.244	295.225	-0.181	0.334
-610.230	-73.289	0.205	-0.076
-609.215	57.901	-0.101	-0.099
-608.201	-117.107	0.600	0.110
-607.186	-191.321	0.588	0.006
-606.171	-200.000	-0.071	-0.368
-605.157	-59.174	-0.673	-0.292
-604.142	102.836	0.345	-0.407
-603.128	-78.743	-0.354	0.122
-602.113	-124.714	0.614	-0.096
-601.098	-200.000	-0.088	-0.503
-600.084	-60.870	-0.636	-0.271
-599.069	526.113	0.195	-0.461
-598.055	94.608	-0.130	0.149
-597.040	-163.949	0.195	0.009
-596.025	-33.010	0.748	-0.417
-595.011	153.010	-0.617	-0.849
-593.996	273.191	0.178	-0.317
-592.982	-200.000	-0.015	-0.676
-591.967	133.558	-0.489	-0.636
-590.952	-164.397	-0.405	-0.019
-589.938	-200.000	-0.008	0.390
-588.923	123.232	0.227	-0.287
-587.909	-200.000	0.073	0.840
-586.894	-67.132	0.404	-0.160
-585.879	-142.815	-0.626	0.061
-584.865	-200.000	-0.053	0.407
-583.850	-25.400	0.617	-0.367
-582.836	162.208	0.453	-0.639
-581.821	-87.125	-0.098	-0.030
-580.806	120.491	0.434	0.542
-579.792	-91.813	-0.246	0.070
-578.777	-200.000	0.027	-0.322
-577.763	-88.687	-0.373	0.111
-576.748	-200.000	-0.006	0.312
-575.733	39.750	0.056	0.050
-574.719	-200.000	-0.010	0.207
-573.704	-200.000	-0.015	0.613
-572.690	-12.562	-0.400	0.262
-571.675	-200.000	-0.019	-0.579
-570.661	800.000	0.005	-0.016
-569.646	164.476	0.227	0.321
-568.631	556.563	0.404	-0.977
-567.617	-71.755	0.567	0.212
-566.602	-200.000	-0.119	0.592
-565.588	90.679	-0.502	-0.565
-564.573	455.181	-0.319	-0.710
-563.558	368.869	0.300	-0.609
-562.544	-133.569	-0.703	0.088
-561.529	324.335	0.410	-0.786
-560.515	-99.760	0.182	-0.046
-559.500	52.410	-0.340	0.326
-558.485	8.014	0.548	0.413
-557.471	348.483	-0.645	1.278
-556.456	-50.483	0.187	-0.088
-555.442	-49.171	0.497	-0.239
-554.427	-144.638	-0.900	-0.083
-553.412	-11.224	-0.463	0.307
-552.398	6.804	0.483	-0.361
-551.383	-111.111	0.582	-0.120
-550.369	-141.810	-0.542	-0.054
-549.354	521.219	-0.338	0.795
-548.339	37.160	1.064	0.946
-547.325	-200.000	-0.141	-0.855
-546.310	800.000	0.075	0.281
-545.296	-81.337	-0.408	0.135
-544.281	206.974	-0.375	0.587
-543.266	-200.000	-0.034	0.253
-542.252	151.505	0.494	0.675
-541.237	-54.749	0.464	-0.210
-540.223	-10.554	-0.359	-0.239
-539.208	-98.584	-0.731	-0.187
-538.193	-65.685	0.759	0.305
-537.179	-112.994	-0.343	0.068
-536.164	800.000	0.158	0.498
-535.150	265.979	0.296	0.518
-534.135	800.000	0.288	1.125
-533.121	-35.807	0.788	0.428
-532.106	514.533	-0.275	-0.644
-531.091	540.036	-0.176	0.420
-530.077	-144.225	0.352	0.033
-529.062	-200.000	0.205	1.299
-528.048	-80.151	-0.379	0.127
-527.033	131.671	0.012	-0.015
-526.018	800.000	0.037	0.144
-525.004	-56.633	-0.227	-0.101
-523.989	23.961	0.404	-0.334
-522.975	717.548	0.205	-0.546
-521.960	-95.380	0.165	0.044
-520.945	-200.000	0.023	-0.546
-519.931	-200.000	-0.745	-0.002
-518.916	-122.680	-0.539	0.088
-517.902	-107.052	1.228	-0.272
-516.887	-144.995	-0.886	0.081
-515.872	26.411	-0.350	0.294
-514.858	265.032	-0.308	0.538
-513.843	-200.000	-0.094	-0.436
-512.829	-200.000	0.004	0.028
-511.814	-200.000	-0.106	0.685
-510.799	153.844	0.550	0.755
-509.785	5.285	-0.662	-0.490
-508.770	287.152	-0.736	-1.334
-507.756	-102.108	-0.603	0.145
-506.741	434.130	0.467	-1.018
-505.726	14.758	-0.046	0.036
-504.712	800.000	0.181	-0.558
-503.697	-37.188	0.232	0.124
-502.683	-93.256	-0.172	-0.048
-501.668	32.039	0.481	0.415
-500.653	97.613	-0.183	0.211
-499.639	-200.000	-0.015	0.421
-498.624	-54.131	-0.528	-0.241
-497.610	-200.000	-0.043	-0.948
-496.595	118.246	0.477	-0.590
-495.581	-19.064	-0.399	-0.249
-494.566	-200.000	-0.109	-0.496
-493.551	-169.177	0.579	-0.022
-492.537	-145.875	0.505	0.045
-491.522	-135.785	0.376	-0.045
-490.508	-131.689	-0.628	-0.083
-489.493	-159.801	-0.449	0.025
-488.478	-118.659	0.284	0.050
-487.464	-200.000	0.074	0.426
-486.449	-120.385	0.423	-0.072
-485.435	-109.729	0.190	0.040
-484.420	-96.803	-0.195	0.051
-483.405	15.486	0.308	0.242
-482.391	211.331	0.172	-0.271
-481.376	-200.000	-0.066	0.545
-480.362	74.325	-0.264	-0.277
-479.347	591.542	-0.116	0.287
-478.332	800.000	-0.233	0.790
-477.318	-200.000	0.154	-0.865
-476.303	-150.390	-0.219	0.017
-475.289	102.864	-0.351	0.412
-474.274	-156.364	-0.863	0.054
-473.259	578.156	0.130	-0.317
-472.245	-3.199	0.663	-0.462
-471.230	-46.495	-0.566	-0.278
-470.216	80.009	-0.377	-0.406
-469.201	-133.500	0.176	0.022
-468.186	44.689	-0.091	-0.084
-467.172	-83.389	-0.710	0.228
-466.157	-200.000	-0.170	-0.758
-465.143	-200.000	-0.134	-0.784
-464.128	-73.298	-0.420	-0.154
-463.113	-200.000	0.130	0.717
-462.099	153.668	-0.480	0.659
-461.084	-105.142	0.406	0.093
-460.070	-200.000	0.092	-0.659
-459.055	47.000	-0.690	0.642
-458.040	-98.920	0.536	0.136
-457.026	113.000	-0.175	0.213
-456.011	-101.852	1.017	-0.246
-454.997	-3.115	0.182	0.127
-453.982	-55.139	-0.303	-0.136
-452.968	-47.367	-1.061	0.516
-451.953	680.954	-0.181	-0.473
-450.938	11.352	-0.124	-0.095
-449.924	35.085	0.395	-0.346
-448.909	-107.647	0.153	-0.033
-447.895	-200.000	0.038	0.643
-446.880	169.911	-0.179	0.255
-445.865	-76.246	0.055	0.020
-444.851	-49.391	-0.400	0.191
-443.836	453.827	0.225	0.497
-442.822	45.479	0.326	-0.301
-441.807	-86.395	0.432	0.133
-440.792	-200.000	0.034	-0.244
-439.778	369.058	-0.077	0.155
-438.763	138.324	-0.101	-0.132
-437.749	216.337	0.693	1.101
-436.734	45.202	-0.700	-0.645
-435.719	-200.000	-0.068	0.475
-434.705	145.624	0.148	-0.198
-433.690	71.023	-0.427	-0.442
-432.676	443.684	-0.395	0.866
-431.661	-122.352	0.289	0.047
-430.646	-200.000	0.007	0.809
-429.632	-74.961	-0.857	-0.307
-428.617	800.000	-0.377	-1.422
-427.603	67.482	-0.166	-0.169
-426.588	417.886	0.393	-0.838
-425.573	-124.723	0.922	0.143
-424.559	753.656	-0.257	-0.693
-423.544	107.321	0.212	0.251
-422.530	-200.000	-0.138	0.647
-421.515	-121.457	0.691	-0.115
-420.500	50.170	-0.496	0.468
-419.486	-200.000	-0.034	0.295
-418.471	189.409	-0.182	0.272
-417.457	-200.000	0.028	-0.876
-416.442	755.010	0.098	-0.264
-415.428	750.886	0.196	0.527
-414.413	105.866	0.080	0.094
-413.398	800.000	-0.093	-0.346
-412.384	-200.000	0.099	1.257
-411.369	-200.000	-0.011	-0.447
-410.355	172.221	0.223	-0.320
-409.340	85.302	-0.438	-0.480
-408.325	-200.000	0.033	0.642
-407.311	-142.135	0.689	-0.068
-406.296	-143.668	0.904	-0.086
-405.282	45.628	0.726	0.670
-404.267	449.727	0.300	-0.661
-403.252	-28.888	0.163	-0.093
-402.238	394.654	0.292	0.608
-401.223	-80.868	-0.225	0.075
-400.209	-110.738	0.764	0.157
-399.194	-10.485	-0.455	-0.301
-398.179	-90.492	0.505	-0.146
-397.165	-35.371	-0.323	0.175
-396.150	152.182	0.167	0.227
-395.136	-113.600	-0.554	-0.108
-394.121	800.000	-0.276	0.833
-393.106	-23.893	-0.272	0.162
-392.092	504.088	0.054	-0.125
-391.077	86.377	-0.638	0.701
-390.063	-71.042	0.619	-0.232
-389.048	-7.663	0.656	0.442
-388.033	-42.829	-0.541	-0.274
-387.019	39.436	-0.449	0.401
-386.004	800.000	0.324	0.999
-384.990	258.015	0.160	-0.275
-383.975	388.568	-0.440	0.909
-382.960	275.188	0.053	0.094
-381.946	-86.255	-0.403	0.124
-380.931	-75.969	0.547	-0.193
-379.917	413.600	-0.430	-0.913
-378.902	-94.238	-0.434	-0.118
-377.888	144.048	0.172	0.228
-376.873	216.335	-0.742	1.176
-375.858	174.225	-0.198	-0.285
-374.844	-94.997	0.301	-0.081
-373.829	18.588	-0.476	0.380
-372.815	800.000	0.146	0.590
-371.800	1.020	0.497	-0.355
-370.785	-115.086	0.893	-0.169
-369.771	105.384	-0.225	0.265
-368.756	-89.673	-0.491	0.143
-367.742	-149.931	-0.404	0.031
-366.727	800.000	-0.064	-0.203
-365.712	397.012	-0.160	0.333
-364.698	262.522	-0.295	-0.509
-363.683	-78.966	0.266	0.090
-362.669	-2.971	0.598	-0.416
-361.654	-200.000	0.027	-0.588
-360.639	-200.000	-0.004	-0.451
-359.625	-200.000	-0.044	0.202
-358.610	-60.852	-0.370	-0.156
-357.596	-157.745	0.645	-0.038
-356.581	-132.648	-0.308	0.039
-355.566	-6.071	-0.562	-0.383
-354.552	35.992	0.714	-0.626
-353.537	-200.000	-0.054	-0.300
-352.523	-173.633	0.746	-0.022
-351.508	-12.891	0.623	-0.404
-350.493	-148.778	-0.231	-0.019
-349.479	800.000	-0.366	-1.270
-348.464	-76.433	-0.322	0.113
-347.450	-105.541	-0.963	0.218
-346.435	179.881	0.411	-0.600
-345.420	-90.470	-0.227	0.065
-344.406	10.720	-0.489	-0.372
-343.391	800.000	0.258	-0.883
-342.377	77.125	0.152	-0.161
-341.362	-115.061	0.302	0.057
-340.348	-183.551	-0.193	-0.003
-339.333	136.601	0.513	-0.667
-338.318	-149.407	-0.477	0.038
-337.304	-200.000	-0.011	0.144
-336.289	134.312	0.356	-0.459
-335.275	-61.402	-0.649	-0.272
-334.260	-105.043	0.551	-0.126
-333.245	-100.571	0.480	-0.118
-332.231	298.466	0.360	0.659
-331.216	-200.000	-0.075	-0.717
-330.202	358.521	-0.155	0.309
-329.187	41.171	0.426	-0.384
-328.172	325.025	-0.167	-0.317
-327.158	800.000	0.166	0.497
-326.143	800.000	0.145	-0.507
-325.129	-39.309	0.407	-0.213
-324.114	-22.181	-0.840	0.507
-323.099	144.387	0.342	0.454
-322.085	-56.861	-0.140	0.061
-321.070	-200.000	-0.018	-0.259
-320.056	800.000	0.110	-0.408
-319.041	196.881	0.180	0.273
-318.026	244.714	-0.099	0.166
-317.012	-71.683	-0.356	0.132
-315.997	800.000	0.051	-0.175
-314.983	800.000	-0.162	-0.608
-313.968	554.341	0.283	0.677
-312.953	520.937	0.239	-0.558
-311.939	-200.000	-0.027	0.656
-310.924	-18.950	0.278	0.172
-309.910	-200.000	0.204	0.920
-308.895	-200.000	0.110	0.507
-307.880	-41.512	-0.239	-0.122
-306.866	6.574	-0.495	-0.366
-305.851	305.198	-0.664	1.226
-304.837	256.766	-0.209	-0.356
-303.822	-63.448	-0.422	0.172
-302.807	30.065	-0.839	-0.712
-301.793	-69.822	0.240	0.091
-300.778	57.689	0.022	0.021
-299.764	88.123	-0.566	0.624
-298.749	-101.129	-0.288	0.070
-297.735	-154.161	0.475	-0.032
-296.720	-122.692	-0.636	-0.102
-295.705	-132.465	-1.048	-0.134
-294.691	-62.946	0.647	-0.266
-293.676	-200.000	-0.084	-0.395
-292.662	66.537	-0.657	0.664
-291.647	-200.000	-0.001	-0.529
-290.632	-28.755	0.317	-0.181
-289.618	24.477	0.416	-0.342
-288.603	800.000	0.150	-0.443
-287.589	237.188	0.167	0.275
-286.574	64.390	-0.153	-0.153
-285.559	-79.056	-0.527	-0.178
-284.545	-53.269	-0.768	-0.350
-283.530	606.415	0.367	-0.908
-282.516	-101.819	0.423	0.102
-281.501	9.544	0.534	0.402
-280.486	542.532	-0.045	-0.106
-279.472	-19.634	-0.648	0.399
-278.457	389.013	-0.482	0.991
-277.443	69.585	0.521	-0.533
-276.428	-200.000	0.047	-0.490
-275.413	-119.836	0.112	0.019
-274.399	87.419	0.382	-0.420
-273.384	-200.000	-0.006	-0.340
-272.370	-127.328	-0.319	-0.046
-271.355	800.000	0.195	0.706
-270.340	800.000	0.199	0.587
-269.326	438.389	0.230	-0.498
-268.311	4.957	0.153	-0.112
-267.297	16.738	-0.597	-0.469
-266.282	-84.407	-0.274	-0.086
-265.267	146.384	0.264	-0.352
-264.253	-72.763	0.219	0.080
-263.238	-113.359	-0.331	0.064
-262.224	-200.000	0.013	-0.211
-261.209	-106.544	-0.536	0.119
-260.195	136.605	-0.533	-0.691
-259.180	266.909	0.211	0.366
-258.165	59.860	-0.244	-0.239
-257.151	83.622	0.592	0.640
-256.136	-56.783	-0.417	0.183
-255.122	-63.346	-0.167	0.068
-254.107	-39.060	-0.652	0.341
-253.092	-125.583	-0.233	0.035
-252.078	174.556	-0.781	-1.121
-251.063	-200.000	0.056	0.758
-250.049	-18.148	0.501	-0.311
-249.034	42.617	-0.151	0.137
-248.019	-129.324	-0.187	-0.026
-247.005	-61.286	-0.279	0.117
-245.990	800.000	0.274	0.847
-244.976	800.000	0.050	0.144
-243.961	263.336	-0.153	0.263
-242.946	800.000	0.079	0.234
-241.932	-124.763	0.562	0.086
-240.917	-92.926	-0.380	0.105
-239.903	15.598	0.473	0.368
-238.888	588.341	-0.091	0.223
-237.873	634.097	0.121	-0.304
-236.859	-108.618	-0.219	-0.047
-235.844	-14.980	0.369	0.234
-234.830	-200.000	-0.054	0.244
-233.815	172.934	-0.376	0.537
-232.800	729.703	0.193	-0.512
-231.786	800.000	-0.220	-0.944
-230.771	353.935	0.422	-0.832
-229.757	-50.526	0.487	-0.228
-228.742	800.000	-0.048	-0.162
-227.727	-106.500	-0.399	-0.088
-226.713	91.504	-0.230	0.256
-225.698	293.603	0.478	-0.865
-224.684	90.639	0.389	0.432
-223.669	14.296	0.282	0.218
-222.655	91.345	-0.419	-0.467
-221.640	-83.411	0.430	0.137
-220.625	-200.000	0.069	-0.737
-219.611	-56.638	-0.035	-0.015
-218.596	70.921	0.856	-0.879
-217.582	42.943	-0.552	0.498
-216.567	251.257	-0.340	0.574
-215.552	63.401	0.341	-0.339
-214.538	696.438	-0.279	0.726
-213.523	-200.000	-0.121	0.001
-212.509	44.473	0.354	0.322
-211.494	800.000	-0.060	0.258
-210.479	-80.746	-0.511	0.168
-209.465	-144.528	0.316	-0.029
-208.450	-119.405	-0.570	-0.098
-207.436	-200.000	-0.014	0.607
-206.421	-135.912	-1.321	-0.154
-205.406	447.869	0.391	-0.853
-204.392	116.615	0.238	0.290
-203.377	113.341	0.819	0.984
-202.363	-200.000	0.020	0.237
-201.348	220.009	0.249	-0.396
-200.333	1.823	0.110	-0.078
-199.319	-75.696	-0.372	-0.131
-198.304	-82.596	0.239	0.077
-197.290	-37.524	0.812	-0.429
-196.275	-73.910	-0.262	-0.094
-195.260	3.233	-0.666	0.480
-194.246	145.766	-0.519	0.689
-193.231	-146.936	0.675	0.057
-192.217	9.164	-0.078	-0.059
-191.202	-38.427	-0.758	0.397
-190.187	126.375	-0.285	0.358
-189.173	67.559	0.373	0.377
-188.158	187.862	-0.480	0.710
-187.144	283.565	0.285	-0.506
-186.129	118.294	0.331	0.404
-185.114	-200.000	-0.018	0.462
-184.100	-85.276	0.188	-0.058
-183.085	-200.000	0.016	-0.344
-182.071	292.600	0.387	0.698
-181.056	-200.000	-0.004	0.509
-180.042	-166.357	-0.803	-0.033
-179.027	724.473	0.232	0.613
-178.012	-82.049	-0.366	-0.118
-176.998	51.289	0.353	0.332
-175.983	-200.000	0.044	0.440
-174.969	800.000	0.048	0.169
-173.954	-200.000	-0.110	-1.484
-172.939	-153.357	0.519	-0.036
-171.925	-43.340	0.265	-0.132
-170.910	-200.000	-0.056	-0.344
-169.896	141.003	0.260	0.340
-168.881	-21.564	0.163	0.098
-167.866	113.255	0.542	0.650
-166.852	41.457	0.456	0.408
-165.837	45.404	-0.662	-0.604
-164.823	-126.808	-0.380	0.055
-163.808	-181.583	0.399	-0.008
-162.793	-200.000	-0.042	-0.591
-161.779	20.650	0.361	0.289
-160.764	-16.465	0.362	-0.227
-159.750	-160.434	-0.165	-0.009
-158.735	-200.000	-0.188	0.937
-157.720	-200.000	-0.011	-0.474
-156.706	-200.000	0.046	-1.106
-155.691	-200.000	0.038	-0.208
-154.677	800.000	-0.128	-0.364
-153.662	-139.358	0.804	-0.085
-152.647	-12.264	0.324	0.209
-151.633	-82.506	0.497	-0.159
-150.618	-93.372	0.416	0.114
-149.604	-153.504	0.478	-0.033
-148.589	-61.676	-0.419	0.174
-147.574	476.774	0.231	0.516
-146.560	-200.000	0.141	-0.852
-145.545	-116.105	0.296	-0.054
-144.531	425.263	0.189	-0.403
-143.516	800.000	-0.079	-0.248
-142.502	-200.000	-0.021	0.092
-141.487	-143.486	0.354	0.033
-140.472	-200.000	0.010	-0.393
-139.458	136.088	0.531	0.684
-138.443	184.806	-0.405	0.594
-137.429	800.000	-0.039	0.111
-136.414	29.575	0.456	-0.383
-135.399	-10.570	-0.111	0.073
-134.385	-200.000	-0.036	0.210
-133.370	176.898	-0.053	0.076
-132.356	92.394	0.024	0.027
-131.341	-80.502	0.069	0.023
-130.326	344.740	-0.368	0.713
-129.312	-80.435	0.714	-0.235
-128.297	-200.000	-0.064	0.584
-127.283	-110.576	0.325	0.066
-126.268	-66.711	0.831	0.325
-125.253	-97.493	-0.770	-0.198
-124.239	755.850	-0.170	0.453
-123.224	-200.000	0.022	-0.727
-122.210	566.234	0.102	0.244
