DTS Sentinel unit serial number:	SN413079Multiplexer serial number:	ORYXHardware model number:	OX4-SRSoftware version number:	ORYX F/W v4.00 Oryx Data Collector v3.7.2.0data status	okinstallation	princeton_trtdifferential loss correction	single-endedforward channel	channel 1reverse channel	N/Adate	2019/09/15time	11:06:35forward acquisition time	60.00reverse acquisition time	0.00gamma	496.2192k internal	0.2308k external	0.2308temperature offset calibration	0.9986default loss term (dB/km)	0.3790temperature slope calibration	1.0000multiplexer offset coefficient	1.0000multiplexer slope coefficient	1.0000fibre end	0.00T internal ref (°C)	34.28T ext. ref 1 (°C)	5.05T ext. ref 2 (°C)	29.61length (m)	temperature (°C)	Stokes	anti-Stokes-747.200	67.392	0.218	-0.226
-746.185	800.000	0.103	0.324
-745.171	-200.000	0.008	0.125
-744.156	-200.000	0.001	-0.074
-743.142	-27.526	0.146	-0.086
-742.127	-60.437	0.332	0.143
-741.112	170.383	0.134	0.195
-740.098	-200.000	0.019	-0.101
-739.083	197.398	0.071	-0.110
-738.069	-0.647	-0.305	0.220
-737.054	11.952	0.038	0.029
-736.039	-22.375	-0.127	-0.078
-735.025	90.293	0.179	-0.204
-734.010	-97.945	-0.262	-0.069
-732.996	8.403	0.037	-0.028
-731.981	800.000	0.026	-0.083
-730.966	278.960	0.019	0.034
-729.952	16.453	0.051	0.041
-728.937	0.569	0.311	-0.226
-727.923	-5.902	-0.111	0.077
-726.908	65.167	-0.187	-0.192
-725.894	347.488	-0.077	-0.154
-724.879	800.000	0.050	-0.143
-723.864	-73.927	-0.157	-0.058
-722.850	-117.528	-0.184	-0.034
-721.835	-87.287	-0.089	-0.027
-720.821	-53.325	-0.104	0.049
-719.806	168.276	-0.122	0.176
-718.791	320.416	0.042	-0.080
-717.777	39.672	0.022	0.020
-716.762	-0.038	0.142	0.103
-715.748	233.147	-0.048	-0.080
-714.733	-200.000	0.017	-0.134
-713.718	800.000	0.093	-0.348
-712.704	-74.440	0.281	-0.103
-711.689	-41.113	0.130	0.068
-710.675	-88.696	0.116	0.035
-709.660	-187.797	-0.247	0.003
-708.645	21.020	-0.096	-0.079
-707.631	-200.000	-0.023	-0.194
-706.616	-67.739	-0.027	0.011
-705.602	-200.000	0.004	0.122
-704.587	800.000	-0.018	0.065
-703.572	162.999	-0.108	-0.154
-702.558	-102.522	-0.236	0.057
-701.543	367.453	-0.056	0.115
-700.529	-62.074	0.320	-0.136
-699.514	-44.817	-0.061	-0.031
-698.499	-82.346	0.380	0.125
-697.485	-61.941	0.342	-0.145
-696.470	-200.000	0.017	0.086
-695.456	-23.280	-0.132	-0.081
-694.441	-50.027	0.129	0.062
-693.426	-200.000	-0.014	0.203
-692.412	-200.000	0.038	-0.419
-691.397	223.805	0.064	0.104
-690.383	14.982	-0.378	-0.300
-689.368	172.900	0.111	0.162
-688.354	-38.951	0.130	-0.069
-687.339	800.000	0.027	-0.098
-686.324	-64.181	0.103	0.043
-685.310	65.030	-0.246	0.252
-684.295	85.084	0.192	-0.213
-683.281	74.567	0.107	-0.114
-682.266	-22.743	0.096	0.059
-681.251	-57.187	-0.222	-0.099
-680.237	-63.889	0.056	0.023
-679.222	113.325	-0.126	-0.156
-678.208	82.332	0.114	-0.126
-677.193	240.031	-0.119	-0.201
-676.178	-17.809	-0.182	-0.116
-675.164	800.000	0.041	0.140
-674.149	-151.345	-0.176	-0.013
-673.135	800.000	-0.048	-0.203
-672.120	-139.112	-0.149	-0.016
-671.105	-163.543	-0.226	0.011
-670.091	-32.452	-0.131	0.074
-669.076	-129.556	-0.226	0.032
-668.062	654.909	0.108	-0.282
-667.047	800.000	-0.068	-0.292
-666.032	-140.631	-0.149	0.016
-665.018	-167.377	0.248	0.010
-664.003	684.978	-0.047	-0.124
-662.989	247.343	0.156	0.267
-661.974	55.445	0.177	-0.173
-660.959	-200.000	-0.057	-0.366
-659.945	-157.887	0.237	-0.014
-658.930	-67.966	-0.160	-0.063
-657.916	176.484	0.282	0.415
-656.901	180.863	0.057	0.085
-655.886	77.494	-0.096	-0.104
-654.872	13.890	0.169	-0.133
-653.857	37.347	0.313	-0.281
-652.843	-107.182	0.170	0.038
-651.828	760.682	0.015	0.041
-650.814	-121.967	0.039	-0.007
-649.799	-140.579	-0.090	-0.009
-648.784	-200.000	0.025	0.175
-647.770	625.615	0.048	-0.122
-646.755	477.115	0.055	0.125
-645.741	144.604	0.248	-0.336
-644.726	-200.000	-0.100	-0.528
-643.711	25.376	-0.326	-0.275
-642.697	-200.000	0.025	-0.160
-641.682	-25.119	0.089	-0.053
-640.668	241.924	0.062	-0.105
-639.653	172.977	-0.157	-0.228
-638.638	800.000	-0.019	-0.082
-637.624	89.792	-0.061	0.069
-636.609	-200.000	-0.002	-0.240
-635.595	-200.000	0.023	-0.195
-634.580	800.000	-0.056	0.186
-633.565	44.989	-0.254	-0.237
-632.551	800.000	-0.011	-0.035
-631.536	80.167	0.069	0.076
-630.522	128.021	-0.083	-0.107
-629.507	-50.367	-0.259	-0.124
-628.492	-200.000	-0.013	0.111
-627.478	-200.000	0.021	-0.246
-626.463	417.982	0.146	0.316
-625.449	226.125	-0.163	-0.267
-624.434	-108.329	0.158	0.034
-623.419	800.000	-0.054	0.212
-622.405	-53.725	-0.128	-0.059
-621.390	-126.398	0.032	-0.005
-620.376	-124.236	-0.141	-0.022
-619.361	-138.242	0.377	0.042
-618.346	-21.658	0.117	-0.072
-617.332	250.213	0.196	-0.337
-616.317	61.951	-0.251	0.253
-615.303	-6.973	0.145	0.099
-614.288	-37.510	0.018	-0.010
-613.273	-200.000	0.010	-0.353
-612.259	-24.594	-0.125	0.075
-611.244	800.000	-0.092	0.279
-610.230	27.001	-0.104	-0.089
-609.215	800.000	-0.028	0.108
-608.201	-132.919	0.328	-0.042
-607.186	-200.000	-0.026	-0.332
-606.171	15.519	-0.139	0.111
-605.157	-119.831	-0.033	0.006
-604.142	800.000	0.035	0.104
-603.128	-137.829	-0.573	0.065
-602.113	-168.466	0.291	-0.011
-601.098	79.142	-0.144	0.156
-600.084	203.053	0.121	-0.189
-599.069	-82.487	0.223	-0.073
-598.055	176.085	0.062	0.091
-597.040	205.334	0.186	0.293
-596.025	800.000	0.064	0.224
-595.011	81.142	-0.179	0.196
-593.996	1.330	0.059	0.043
-592.982	-159.089	-0.035	0.002
-591.967	136.280	0.179	0.236
-590.952	147.799	-0.038	-0.051
-589.938	800.000	0.046	0.136
-588.923	-200.000	0.044	0.374
-587.909	-143.754	-0.340	0.033
-586.894	-152.620	0.119	-0.009
-585.879	-13.991	-0.145	0.095
-584.865	-104.477	-0.537	-0.125
-583.850	-35.473	-0.183	-0.100
-582.836	147.218	0.150	-0.204
-581.821	155.415	-0.132	0.184
-580.806	800.000	0.042	0.162
-579.792	68.931	-0.116	-0.120
-578.777	19.362	0.151	0.122
-577.763	-200.000	-0.010	0.266
-576.748	100.443	-0.126	0.148
-575.733	82.360	0.023	0.025
-574.719	-112.279	-0.165	-0.033
-573.704	-200.000	-0.058	-0.301
-572.690	800.000	0.063	0.202
-571.675	-108.774	0.197	-0.043
-570.661	62.105	0.140	0.141
-569.646	-27.113	-0.233	0.137
-568.631	208.015	-0.111	0.175
-567.617	-44.638	0.160	0.081
-566.602	33.784	0.233	0.205
-565.588	-105.813	-0.259	0.059
-564.573	-200.000	-0.005	0.133
-563.558	-155.120	0.391	0.026
-562.544	-120.095	-0.133	-0.023
-561.529	26.248	-0.126	0.106
-560.515	-106.055	0.292	0.066
-559.500	291.066	0.156	0.286
-558.485	97.414	0.078	-0.091
-557.471	800.000	0.022	0.092
-556.456	290.964	-0.119	0.218
-555.442	-170.231	0.151	0.005
-554.427	-200.000	-0.025	-0.120
-553.412	-120.171	-0.146	-0.025
-552.398	800.000	0.210	0.609
-551.383	490.727	-0.083	0.192
-550.369	-200.000	-0.077	0.405
-549.354	-200.000	-0.003	0.218
-548.339	-200.000	-0.047	0.239
-547.325	-106.744	-0.053	0.012
-546.310	-132.931	-0.196	0.025
-545.296	-46.824	0.188	0.093
-544.281	660.396	-0.131	-0.340
-543.266	-32.535	0.255	-0.143
-542.252	-200.000	0.028	-0.297
-541.237	421.658	0.012	-0.026
-540.223	-73.755	-0.095	-0.035
-539.208	40.613	0.077	-0.070
-538.193	-200.000	-0.019	0.209
-537.179	-193.984	0.144	0.001
-536.164	-39.223	-0.244	-0.129
-535.150	47.814	-0.215	-0.202
-534.135	800.000	0.126	-0.444
-533.121	-82.799	-0.318	0.103
-532.106	372.154	0.103	0.210
-531.091	404.541	0.073	0.155
-530.077	6.578	0.126	0.095
-529.062	740.329	-0.153	0.415
-528.048	-125.980	0.395	-0.060
-527.033	-200.000	0.020	-0.092
-526.018	-12.730	0.230	-0.151
-525.004	800.000	-0.047	-0.153
-523.989	-64.315	0.107	0.044
-522.975	408.578	0.090	0.191
-521.960	300.977	-0.039	-0.072
-520.945	-200.000	-0.084	-0.384
-519.931	288.037	-0.030	0.055
-518.916	800.000	0.138	-0.429
-517.902	404.607	0.022	0.048
-516.887	81.885	-0.122	-0.134
-515.872	-86.722	-0.280	-0.086
-514.858	281.300	0.258	-0.465
-513.843	222.948	-0.185	-0.300
-512.829	112.165	0.027	-0.033
-511.814	-48.556	-0.340	0.165
-510.799	44.528	0.108	0.100
-509.785	235.564	-0.058	-0.096
-508.770	800.000	0.106	0.330
-507.756	800.000	0.033	0.097
-506.741	-69.889	-0.316	-0.121
-505.726	67.954	0.118	-0.121
-504.712	-200.000	0.013	0.141
-503.697	-125.525	0.278	0.042
-502.683	-33.054	-0.230	-0.128
-501.668	-81.105	-0.159	0.053
-500.653	82.928	0.142	0.156
-499.639	13.028	0.327	0.254
-498.624	29.612	0.077	-0.066
-497.610	569.606	0.113	-0.276
-496.595	-38.811	0.085	0.045
-495.581	-95.929	-0.175	-0.047
-494.566	-62.940	0.242	-0.101
-493.551	154.339	0.202	-0.279
-492.537	112.793	-0.083	-0.102
-491.522	-99.487	0.126	-0.032
-490.508	-200.000	0.032	-0.207
-489.493	-24.472	-0.259	0.155
-488.478	-24.770	0.184	-0.110
-487.464	49.495	0.125	0.118
-486.449	554.383	-0.152	0.367
-485.435	-41.157	-0.040	-0.021
-484.420	162.099	0.069	-0.097
-483.405	-34.111	-0.088	0.048
-482.391	72.331	0.095	0.100
-481.376	-5.312	0.065	-0.045
-480.362	46.529	-0.426	-0.397
-479.347	666.573	-0.127	-0.330
-478.332	-200.000	-0.019	0.297
-477.318	234.008	0.097	0.160
-476.303	-87.109	0.096	0.029
-475.289	15.582	-0.200	-0.158
-474.274	48.594	0.122	0.115
-473.259	5.193	-0.102	-0.075
-472.245	-200.000	0.018	-0.128
-471.230	-93.869	0.128	0.036
-470.216	-139.402	-0.183	0.020
-469.201	-119.432	-0.069	-0.012
-468.186	800.000	-0.038	-0.150
-467.172	181.338	-0.107	-0.158
-466.157	800.000	0.034	0.095
-465.143	34.179	0.219	0.192
-464.128	3.508	-0.006	0.004
-463.113	475.109	-0.044	-0.099
-462.099	660.525	0.071	0.184
-461.084	-200.000	-0.037	0.201
-460.070	-151.447	-0.059	-0.004
-459.055	123.658	0.170	0.214
-458.040	597.913	0.097	-0.242
-457.026	112.220	0.059	-0.072
-456.011	-144.129	-0.361	0.034
-454.997	-67.323	-0.408	-0.161
-453.982	-119.995	-0.262	-0.045
-452.968	23.155	-0.158	0.131
-451.953	687.029	-0.088	-0.232
-450.938	98.661	0.117	-0.136
-449.924	-103.454	0.216	-0.051
-448.909	-60.365	-0.192	0.082
-447.895	-19.572	-0.088	-0.054
-446.880	-200.000	-0.063	-0.303
-445.865	73.367	-0.117	0.123
-444.851	-200.000	-0.018	-0.147
-443.836	160.824	-0.098	0.137
-442.822	23.121	0.108	0.089
-441.807	174.282	0.048	0.070
-440.792	-50.613	-0.077	-0.036
-439.778	-183.984	0.213	0.004
-438.763	-200.000	-0.002	0.069
-437.749	-91.049	-0.090	0.026
-436.734	-122.837	0.265	0.043
-435.719	800.000	0.073	-0.262
-434.705	800.000	0.139	-0.409
-433.690	-90.801	-0.207	0.060
-432.676	295.282	-0.180	0.331
-431.661	-3.665	0.177	0.123
-430.646	528.491	-0.088	0.209
-429.632	-149.800	0.086	-0.007
-428.617	800.000	-0.047	0.198
-427.603	546.957	0.176	-0.424
-426.588	382.357	0.171	-0.353
-425.573	-119.556	-0.300	-0.052
-424.559	179.242	0.156	0.229
-423.544	-200.000	0.025	0.117
-422.530	314.001	0.117	0.221
-421.515	-200.000	0.019	0.117
-420.500	39.800	0.333	0.300
-419.486	232.008	-0.163	0.268
-418.471	-128.720	0.203	-0.029
-417.457	155.107	0.110	-0.151
-416.442	-160.224	-0.155	-0.008
-415.428	17.026	-0.060	-0.048
-414.413	-53.961	-0.167	-0.076
-413.398	-187.574	-0.213	0.003
-412.384	-12.123	0.220	-0.144
-411.369	54.155	0.137	0.132
-410.355	75.534	-0.124	-0.132
-409.340	-36.752	-0.384	0.207
-408.325	230.798	0.069	-0.113
-407.311	800.000	-0.078	-0.300
-406.296	179.817	-0.060	0.088
-405.282	85.418	0.124	0.137
-404.267	-33.189	-0.170	0.094
-403.252	-200.000	-0.028	0.131
-402.238	-179.730	0.296	0.006
-401.223	-95.377	-0.311	0.084
-400.209	-78.476	0.231	-0.079
-399.194	188.424	-0.145	0.217
-398.179	666.718	-0.074	0.192
-397.165	-53.561	0.418	-0.192
-396.150	70.118	-0.166	0.172
-395.136	800.000	0.034	-0.146
-394.121	103.570	-0.258	0.304
-393.106	91.813	-0.170	-0.191
-392.092	-15.044	0.313	-0.201
-391.077	-145.737	0.212	-0.019
-390.063	12.248	0.136	0.105
-389.048	74.307	0.195	-0.205
-388.033	-91.785	0.189	-0.054
-387.019	-11.714	0.174	0.114
-386.004	8.505	-0.062	0.047
-384.990	800.000	-0.106	0.309
-383.975	328.673	-0.162	-0.311
-382.960	161.111	0.122	0.171
-381.946	-12.022	-0.152	-0.100
-380.931	118.837	-0.222	0.274
-379.917	-200.000	0.020	-0.173
-378.902	-200.000	-0.031	0.149
-377.888	-78.537	0.307	0.105
-376.873	-115.471	0.181	-0.034
-375.858	71.848	0.218	0.227
-374.844	-200.000	0.029	-0.142
-373.829	16.601	0.084	0.066
-372.815	793.599	0.030	0.081
-371.800	-30.676	-0.217	0.123
-370.785	510.300	-0.104	-0.242
-369.771	800.000	-0.014	-0.044
-368.756	800.000	-0.088	-0.322
-367.742	346.828	-0.218	-0.429
-366.727	-200.000	0.011	-0.175
-365.712	421.452	-0.074	-0.158
-364.698	6.795	-0.131	-0.097
-363.683	275.208	0.193	-0.342
-362.669	-100.825	0.111	-0.027
-361.654	318.811	-0.059	0.112
-360.639	-67.940	0.062	-0.024
-359.625	-130.466	-0.469	0.064
-358.610	20.784	0.140	-0.114
-357.596	111.730	0.132	0.160
-356.581	0.631	0.295	0.211
-355.566	-14.765	-0.025	-0.016
-354.552	193.591	-0.082	-0.124
-353.537	-72.263	-0.404	0.150
-352.523	-200.000	0.013	0.248
-351.508	-101.217	-0.326	0.080
-350.493	-4.256	0.228	0.158
-349.479	-61.140	-0.148	-0.062
-348.464	59.759	0.318	-0.314
-347.450	-71.742	0.542	-0.202
-346.435	-200.000	-0.021	-0.123
-345.420	-200.000	0.007	-0.331
-344.406	-200.000	-0.023	-0.283
-343.391	148.160	0.099	-0.133
-342.377	-3.909	-0.106	-0.074
-341.362	97.303	-0.081	0.093
-340.348	800.000	-0.111	0.333
-339.333	-84.067	-0.070	-0.022
-338.318	-133.964	0.271	-0.034
-337.304	-200.000	0.025	-0.415
-336.289	-46.751	0.147	-0.072
-335.275	77.457	-0.173	0.185
-334.260	-123.301	-0.409	-0.065
-333.245	-200.000	-0.004	-0.026
-332.231	240.896	-0.099	-0.164
-331.216	330.777	0.035	0.068
-330.202	-5.584	0.191	0.131
-329.187	86.001	0.263	0.290
-328.172	-52.217	-0.083	0.038
-327.158	-200.000	-0.020	-0.098
-326.143	-108.247	-0.285	0.062
-325.129	621.480	0.131	-0.329
-324.114	-124.232	0.081	0.013
-323.099	222.215	0.136	-0.219
-322.085	-0.223	0.133	-0.094
-321.070	-200.000	0.012	-0.477
-320.056	-200.000	0.014	-0.173
-319.041	-200.000	0.009	0.214
-318.026	800.000	0.049	-0.176
-317.012	-174.637	0.310	0.009
-315.997	-78.403	-0.180	-0.062
-314.983	-132.423	-0.099	-0.013
-313.968	-24.018	-0.073	-0.044
-312.953	-98.481	0.204	-0.052
-311.939	-200.000	0.024	0.359
-310.924	723.330	-0.123	0.327
-309.910	-88.583	-0.106	-0.031
-308.895	709.518	-0.040	-0.106
-307.880	800.000	0.035	-0.118
-306.866	-200.000	0.021	-0.112
-305.851	-149.455	0.239	-0.019
-304.837	-200.000	0.052	0.271
-303.822	800.000	0.066	-0.185
-302.807	614.727	0.076	0.189
-301.793	-149.108	-0.207	-0.017
-300.778	440.899	0.131	0.286
-299.764	106.005	0.237	0.280
-298.749	21.934	0.199	0.162
-297.735	-16.844	-0.257	0.162
-296.720	-200.000	0.009	0.147
-295.705	244.840	-0.096	-0.160
-294.691	-51.021	0.214	0.100
-293.676	-87.326	0.484	0.147
-292.662	5.229	-0.207	0.152
-291.647	108.926	-0.082	0.098
-290.632	100.335	-0.154	-0.178
-289.618	29.005	-0.028	0.023
-288.603	12.425	-0.104	0.080
-287.589	-111.403	-0.144	0.029
-286.574	25.770	0.112	-0.093
-285.559	-200.000	0.025	0.288
-284.545	-96.937	0.326	0.085
-283.530	-137.109	-0.281	0.032
-282.516	-200.000	0.012	0.172
-281.501	1.581	0.198	0.142
-280.486	-85.961	0.367	0.113
-279.472	800.000	0.086	-0.356
-278.457	-200.000	-0.009	-0.186
-277.443	-56.687	-0.144	-0.064
-276.428	-30.046	-0.346	-0.196
-275.413	486.860	0.136	-0.310
-274.399	800.000	0.063	0.264
-273.384	-88.593	-0.345	-0.103
-272.370	-25.317	0.084	0.049
-271.355	481.887	-0.137	0.311
-270.340	36.657	0.134	0.118
-269.326	-63.781	0.277	0.113
-268.311	800.000	-0.019	-0.063
-267.297	-23.970	-0.179	-0.107
-266.282	10.674	0.227	-0.172
-265.267	95.592	0.106	0.121
-264.253	-93.456	-0.136	0.038
-263.238	-200.000	0.196	-0.001
-262.224	190.918	-0.068	-0.102
-261.209	697.092	-0.083	-0.218
-260.195	-200.000	-0.004	0.307
-259.180	-152.516	-0.052	-0.004
-258.165	-71.241	-0.064	-0.024
-257.151	53.720	-0.100	0.096
-256.136	-200.000	0.019	0.337
-255.122	85.809	-0.111	0.122
-254.107	-119.337	-0.116	-0.020
-253.092	399.457	-0.126	-0.262
-252.078	-200.000	0.030	-0.389
-251.063	-117.011	-0.055	-0.010
-250.049	139.241	0.120	-0.158
-249.034	627.257	0.134	0.337
-248.019	-144.151	-0.554	0.052
-247.005	97.453	0.270	-0.309
-245.990	-54.672	-0.304	0.137
-244.976	-154.525	-0.085	0.006
-243.961	-53.927	-0.270	-0.122
-242.946	271.608	0.071	-0.125
-241.932	337.719	-0.145	-0.281
-240.917	35.732	-0.100	0.088
-239.903	-111.038	0.371	0.076
-238.888	266.472	0.149	-0.260
-237.873	-200.000	0.015	-0.209
-236.859	317.488	-0.066	-0.125
-235.844	21.944	-0.094	0.076
-234.830	410.710	0.142	-0.301
-233.815	-82.241	-0.364	0.118
-232.800	404.915	0.008	-0.017
-231.786	9.303	-0.137	-0.104
-230.771	-200.000	-0.045	0.297
-229.757	-27.297	-0.250	-0.145
-228.742	-200.000	-0.065	-0.397
-227.727	514.694	0.065	-0.151
-226.713	-27.565	0.163	-0.094
-225.698	30.390	-0.090	0.077
-224.684	-37.555	0.136	0.072
-223.669	-200.000	-0.033	0.223
-222.655	15.938	0.138	0.108
-221.640	800.000	0.058	0.202
-220.625	-200.000	-0.076	-0.395
-219.611	-91.221	0.164	0.047
-218.596	-81.632	0.239	0.078
-217.582	-200.000	0.008	0.044
-216.567	-81.769	-0.285	0.093
-215.552	338.977	-0.082	-0.159
-214.538	-54.969	-0.296	0.133
-213.523	-200.000	-0.007	-0.062
-212.509	-200.000	0.004	0.159
-211.494	-200.000	-0.046	-0.248
-210.479	-33.787	0.123	-0.067
-209.465	-111.706	0.148	-0.030
-208.450	47.410	0.115	0.106
-207.436	800.000	0.031	0.091
-206.421	-99.014	-0.235	0.059
-205.406	246.282	0.071	-0.120
-204.392	49.899	0.145	0.136
-203.377	-76.742	0.183	-0.064
-202.363	-47.993	-0.346	0.166
-201.348	-200.000	-0.012	-0.222
-200.333	-105.812	0.086	0.019
-199.319	29.149	0.070	0.059
-198.304	217.177	-0.107	-0.170
-197.290	248.673	0.150	0.253
-196.275	800.000	0.034	0.118
-195.260	76.697	-0.121	0.128
-194.246	125.873	-0.019	-0.024
-193.231	166.952	0.084	0.118
-192.217	722.673	0.016	-0.043
-191.202	-13.141	0.099	-0.064
-190.187	338.595	-0.107	-0.207
-189.173	-168.271	0.234	-0.009
-188.158	8.535	0.148	0.111
-187.144	98.180	0.153	-0.175
-186.129	118.346	0.347	-0.425
-185.114	515.862	-0.118	-0.275
-184.100	-40.474	0.324	-0.167
-183.085	-200.000	0.035	0.219
-182.071	30.953	-0.275	0.234
-181.056	109.448	-0.062	0.073
-180.042	82.282	-0.078	-0.084
-179.027	26.276	-0.162	-0.135
-178.012	-62.088	-0.136	-0.057
-176.998	684.961	0.084	-0.217
-175.983	-200.000	-0.036	0.215
-174.969	-10.528	-0.043	0.028
-173.954	-33.415	-0.012	-0.007
-172.939	800.000	0.063	0.182
-171.925	-200.000	-0.015	-0.235
-170.910	800.000	0.060	0.167
-169.896	-27.837	-0.290	0.167
-168.881	-2.096	0.158	-0.111
-167.866	17.134	0.188	0.148
-166.852	197.483	0.065	0.099
-165.837	-120.106	0.214	-0.036
-164.823	-152.382	-0.036	0.003
-163.808	748.909	0.071	0.190
-162.793	114.269	-0.194	0.234
-161.779	726.384	-0.089	0.237
-160.764	-76.807	-0.331	0.115
-159.750	74.971	-0.096	-0.101
-158.735	76.991	-0.095	0.100
-157.720	-23.899	0.272	0.162
-156.706	-44.573	0.179	-0.089
-155.691	33.810	-0.079	-0.068
-154.677	142.118	0.046	0.060
-153.662	-200.000	-0.015	0.078
-152.647	-200.000	0.036	0.448
-151.633	-200.000	0.036	0.259
-150.618	800.000	0.019	0.051
-149.604	-74.765	0.215	-0.077
-148.589	-200.000	-0.013	-0.191
-147.574	-200.000	0.001	-0.028
-146.560	205.487	-0.158	-0.244
-145.545	459.268	0.165	0.364
-144.531	800.000	0.191	0.530
-143.516	44.779	0.099	0.091
-142.502	-159.963	-0.024	-0.001
-141.487	16.671	-0.096	0.075
-140.472	47.077	-0.147	0.136
-139.458	-15.667	0.138	0.088
-138.443	61.411	0.104	-0.103
-137.429	-102.916	0.088	-0.021
-136.414	-200.000	0.011	-0.342
-135.399	300.660	-0.082	-0.149
-134.385	156.501	-0.059	0.080
-133.370	-54.752	-0.095	0.043
-132.356	-0.676	0.133	0.093
-131.341	-101.928	0.154	-0.037
-130.326	-41.103	0.147	-0.075
-129.312	86.565	0.261	-0.285
-128.297	-134.831	0.363	0.044
-127.283	22.722	0.334	0.271
-126.268	67.446	0.162	-0.164
-125.253	-25.705	0.322	-0.188
-124.239	690.493	0.101	-0.263
-123.224	-67.230	0.074	0.029
-122.210	7.096	0.118	0.088
-121.195	-88.348	0.147	0.044
-120.180	-144.215	0.251	-0.023
-119.166	800.000	0.040	-0.110
