DTS Sentinel unit serial number:	SN413079Multiplexer serial number:	ORYXHardware model number:	OX4-SRSoftware version number:	ORYX F/W v4.00 Oryx Data Collector v3.7.2.0data status	okinstallation	princeton_trtdifferential loss correction	single-endedforward channel	channel 1reverse channel	N/Adate	2019/09/12time	20:08:34forward acquisition time	15.00reverse acquisition time	0.00gamma	496.2192k internal	0.2324k external	0.2324temperature offset calibration	1.0130default loss term (dB/km)	0.3790temperature slope calibration	1.0000multiplexer offset coefficient	1.0000multiplexer slope coefficient	1.0000fibre end	0.00T internal ref (°C)	31.62T ext. ref 1 (°C)	3.40T ext. ref 2 (°C)	26.34length (m)	temperature (°C)	Stokes	anti-Stokes-747.200	800.000	0.027	0.105
-746.185	-4.694	-0.353	-0.246
-745.171	-36.583	0.232	-0.126
-744.156	-23.841	-0.162	-0.098
-743.142	98.641	-0.389	-0.453
-742.127	-119.120	-0.449	0.079
-741.112	22.706	0.613	-0.506
-740.098	154.821	0.567	-0.786
-739.083	-200.000	-0.003	-0.311
-738.069	-200.000	-0.158	0.950
-737.054	78.471	-0.208	0.224
-736.039	-47.652	0.348	0.171
-735.025	409.029	0.162	-0.346
-734.010	277.199	0.130	-0.233
-732.996	504.088	-0.229	-0.534
-731.981	65.888	-0.136	-0.139
-730.966	378.346	0.336	0.694
-729.952	-104.210	-0.100	-0.023
-728.937	800.000	0.045	-0.164
-727.923	-106.107	-0.817	0.185
-726.908	-46.064	-0.299	-0.149
-725.894	336.532	0.199	0.390
-724.879	289.774	-0.096	-0.175
-723.864	-113.949	-1.065	0.209
-722.850	455.522	-0.132	-0.296
-721.835	-33.638	-0.157	-0.088
-720.821	-33.329	0.626	-0.350
-719.806	-92.767	-0.208	0.059
-718.791	-0.449	0.283	-0.203
-717.777	-69.684	-0.319	-0.123
-716.762	-200.000	-0.021	-0.189
-715.748	446.164	0.231	-0.511
-714.733	-87.279	0.612	0.187
-713.718	479.849	-0.244	0.558
-712.704	293.348	0.221	-0.406
-711.689	800.000	-0.161	0.537
-710.675	38.516	-0.448	-0.402
-709.660	127.129	-0.093	0.118
-708.645	64.230	-0.154	-0.156
-707.631	-200.000	-0.020	-0.126
-706.616	-63.686	0.170	0.070
-705.602	293.867	-0.376	0.691
-704.587	-77.481	-0.317	-0.111
-703.572	180.580	-0.270	0.400
-702.558	-52.535	-0.577	-0.269
-701.543	800.000	0.089	0.327
-700.529	-93.606	-0.189	-0.053
-699.514	42.810	0.392	0.360
-698.499	-115.893	-0.988	-0.186
-697.485	-63.601	-0.861	-0.356
-696.470	25.866	0.223	-0.187
-695.456	-200.000	-0.044	0.409
-694.441	372.325	-0.293	0.599
-693.426	4.983	0.128	-0.095
-692.412	54.149	0.543	-0.526
-691.397	87.128	-0.156	-0.174
-690.383	-200.000	0.098	0.599
-689.368	282.109	-0.147	-0.266
-688.354	360.670	-0.278	0.561
-687.339	19.420	0.265	0.215
-686.324	382.625	-0.405	0.839
-685.310	-200.000	-0.555	-0.001
-684.295	394.239	0.409	-0.858
-683.281	-75.539	-0.166	0.060
-682.266	-75.346	1.104	-0.396
-681.251	-200.000	-0.048	-0.406
-680.237	-156.577	-0.731	0.046
-679.222	-45.849	-1.032	-0.513
-678.208	259.808	0.314	0.546
-677.193	786.659	-0.139	0.384
-676.178	291.739	-0.326	-0.598
-675.164	69.501	-0.298	0.309
-674.149	564.850	0.266	0.650
-673.135	112.562	0.441	0.538
-672.120	-200.000	0.072	-1.162
-671.105	-200.000	-0.048	0.357
-670.091	800.000	0.139	0.408
-669.076	642.536	-0.187	-0.479
-668.062	39.182	-0.234	-0.210
-667.047	-151.590	0.130	-0.010
-666.032	-23.104	0.683	0.414
-665.018	76.817	-0.226	-0.241
-664.003	-200.000	0.009	-0.098
-662.989	-32.180	-0.703	0.395
-661.974	103.453	-0.242	-0.285
-660.959	-200.000	-0.086	-0.385
-659.945	181.285	0.134	-0.198
-658.930	-27.502	0.569	0.333
-657.916	77.294	-0.219	0.234
-656.901	524.455	0.128	0.303
-655.886	-66.344	0.219	0.088
-654.872	800.000	0.248	-0.755
-653.857	800.000	-0.144	-0.585
-652.843	-200.000	0.023	-0.363
-651.828	-59.680	-1.031	-0.445
-650.814	344.322	-0.136	-0.267
-649.799	683.517	0.279	-0.733
-648.784	800.000	-0.051	0.154
-647.770	34.250	-0.243	0.213
-646.755	82.858	0.182	0.199
-645.741	-144.058	0.782	0.074
-644.726	-89.758	-0.486	0.143
-643.711	30.489	-0.280	-0.241
-642.697	-111.457	1.373	-0.281
-641.682	-200.000	-0.044	0.255
-640.668	16.773	-0.556	-0.442
-639.653	-200.000	-0.004	0.162
-638.638	-200.000	-0.075	1.060
-637.624	-200.000	-0.112	1.257
-636.609	60.499	-0.443	-0.441
-635.595	-90.603	-0.376	0.109
-634.580	-42.684	0.892	0.456
-633.565	-200.000	0.188	1.453
-632.551	-62.889	0.111	0.046
-631.536	800.000	0.238	-0.958
-630.522	-200.000	-0.093	-0.582
-629.507	248.734	0.354	-0.602
-628.492	15.441	0.533	-0.421
-627.478	-48.000	-0.163	0.079
-626.463	-139.569	0.374	-0.040
-625.449	0.196	-0.912	0.653
-624.434	-132.967	-0.356	-0.045
-623.419	-91.236	-0.375	-0.108
-622.405	-178.780	0.253	0.006
-621.390	-122.847	0.676	-0.110
-620.376	-33.636	0.226	0.125
-619.361	-200.000	-0.011	0.145
-618.346	800.000	0.143	0.491
-617.332	800.000	0.249	0.782
-616.317	12.344	-0.568	-0.440
-615.303	-71.125	0.135	-0.051
-614.288	1.616	-0.082	0.059
-613.273	-35.950	0.224	-0.122
-612.259	477.694	-0.281	0.638
-611.244	-111.588	-0.945	0.193
-610.230	-12.215	0.544	0.357
-609.215	47.420	-0.194	-0.181
-608.201	284.022	0.030	0.053
-607.186	-200.000	0.078	-0.789
-606.171	800.000	0.123	-0.392
-605.157	-50.546	0.860	0.407
-604.142	147.697	0.487	0.659
-603.128	316.986	-0.044	-0.083
-602.113	409.325	0.340	-0.722
-601.098	800.000	-0.069	0.295
-600.084	44.606	-0.638	0.589
-599.069	-178.559	-1.087	0.025
-598.055	-20.746	-0.484	-0.298
-597.040	-141.599	0.399	0.040
-596.025	502.621	0.244	-0.566
-595.011	131.992	-0.305	-0.394
-593.996	356.668	0.293	-0.585
-592.982	-200.000	-0.003	-0.052
-591.967	-95.502	0.493	0.133
-590.952	-78.192	-0.380	-0.131
-589.938	800.000	-0.058	-0.175
-588.923	-40.251	0.233	-0.122
-587.909	-134.849	0.285	-0.035
-586.894	800.000	0.155	-0.662
-585.879	-83.806	0.351	-0.112
-584.865	-200.000	-0.096	-0.863
-583.850	163.854	0.681	-0.962
-582.836	313.414	0.187	-0.353
-581.821	800.000	0.056	0.230
-580.806	104.521	-0.579	0.684
-579.792	337.447	0.341	-0.665
-578.777	800.000	0.246	-0.881
-577.763	-35.985	-0.432	-0.234
-576.748	-92.596	0.738	-0.208
-575.733	-110.952	-0.258	0.053
-574.719	108.338	0.662	-0.792
-573.704	1.439	0.527	0.380
-572.690	-200.000	0.051	0.305
-571.675	203.152	-0.057	-0.089
-570.661	800.000	0.143	0.410
-569.646	800.000	-0.096	0.343
-568.631	-98.595	-0.648	-0.166
-567.617	800.000	-0.153	0.516
-566.602	800.000	-0.237	-0.802
-565.588	177.270	-0.314	-0.458
-564.573	-107.793	0.222	-0.049
-563.558	800.000	-0.082	-0.247
-562.544	38.802	-0.360	0.322
-561.529	717.367	0.166	-0.441
-560.515	13.528	0.382	-0.297
-559.500	281.119	-0.034	0.062
-558.485	-147.715	-0.555	-0.047
-557.471	70.001	0.459	0.475
-556.456	457.674	-0.255	0.568
-555.442	-200.000	-0.010	-0.156
-554.427	239.822	-0.494	-0.825
-553.412	-200.000	0.116	0.602
-552.398	255.047	0.585	1.005
-551.383	-60.980	0.308	0.130
-550.369	49.880	0.357	0.337
-549.354	800.000	-0.158	-0.466
-548.339	-159.837	0.328	0.018
-547.325	-102.596	0.528	-0.126
-546.310	-85.231	-0.755	0.236
-545.296	-200.000	0.157	0.861
-544.281	239.548	0.249	-0.415
-543.266	113.078	0.276	0.336
-542.252	-56.699	0.427	-0.189
-541.237	800.000	0.106	0.369
-540.223	-103.450	0.414	0.098
-539.208	41.636	-0.566	-0.513
-538.193	210.433	-0.455	-0.716
-537.179	-65.861	-0.080	0.032
-536.164	800.000	-0.174	-0.612
-535.150	29.320	-0.558	0.475
-534.135	-111.219	-0.790	0.162
-533.121	363.732	-0.343	0.690
-532.106	-0.581	0.300	-0.213
-531.091	-67.707	0.739	0.290
-530.077	655.867	-0.153	0.393
-529.062	-200.000	-0.054	1.146
-528.048	-200.000	0.095	-0.728
-527.033	-111.806	-0.785	0.159
-526.018	-200.000	-0.112	-1.029
-525.004	800.000	0.160	0.453
-523.989	-57.033	-0.439	0.194
-522.975	29.222	-0.556	-0.472
-521.960	-57.190	-0.376	0.166
-520.945	-32.324	-0.972	-0.543
-519.931	342.895	-0.188	0.369
-518.916	462.839	-0.124	-0.277
-517.902	100.368	-0.409	-0.475
-516.887	-116.444	0.371	0.069
-515.872	376.134	-0.257	-0.524
-514.858	-171.053	-0.667	0.023
-513.843	-117.026	-0.300	0.055
-512.829	56.525	0.706	-0.687
-511.814	800.000	0.226	-0.641
-510.799	-9.506	-0.503	-0.336
-509.785	84.480	0.512	-0.560
-508.770	288.617	-0.055	0.100
-507.756	-153.020	0.616	0.043
-506.741	11.387	0.604	-0.463
-505.726	-39.217	0.384	-0.202
-504.712	-166.067	-0.568	0.024
-503.697	-93.654	-0.239	-0.066
-502.683	118.881	-0.367	0.454
-501.668	-200.000	0.050	0.600
-500.653	34.957	-0.792	-0.693
-499.639	121.780	-0.638	-0.795
-498.624	150.290	-0.291	0.395
-497.610	207.150	-0.374	-0.584
-496.595	-171.251	1.008	-0.034
-495.581	-87.654	-0.675	-0.204
-494.566	288.459	0.270	0.489
-493.551	800.000	0.272	0.786
-492.537	800.000	0.190	0.660
-491.522	-53.009	0.938	0.431
-490.508	386.295	-0.158	-0.326
-489.493	-33.742	-0.441	-0.243
-488.478	-124.430	-0.170	0.027
-487.464	800.000	-0.026	0.098
-486.449	-166.628	0.121	0.005
-485.435	530.366	-0.371	0.875
-484.420	528.545	-0.328	0.773
-483.405	-52.180	0.503	-0.233
-482.391	-118.668	-0.588	0.104
-481.376	-90.056	0.244	-0.071
-480.362	-104.983	0.264	0.060
-479.347	348.448	0.241	-0.476
-478.332	-200.000	0.066	0.576
-477.318	-200.000	0.093	-1.182
-476.303	-200.000	-0.076	-0.564
-475.289	-165.009	0.173	-0.008
-474.274	225.249	-0.367	0.594
-473.259	105.879	0.382	-0.452
-472.245	3.357	-0.223	0.162
-471.230	796.182	-0.148	-0.406
-470.216	459.645	0.382	0.850
-469.201	-100.594	-0.681	-0.168
-468.186	-188.514	-0.232	-0.003
-467.172	-131.029	0.765	-0.102
-466.157	-93.392	0.208	0.058
-465.143	304.742	0.475	-0.881
-464.128	-34.893	-0.319	0.174
-463.113	-200.000	-0.038	0.785
-462.099	319.398	0.127	0.241
-461.084	800.000	-0.179	0.645
-460.070	46.661	0.496	0.459
-459.055	-104.070	-0.630	0.146
-458.040	-62.795	-1.004	-0.415
-457.026	68.709	-0.511	0.524
-456.011	354.188	0.202	0.401
-454.997	800.000	0.203	-0.853
-453.982	63.840	-0.401	-0.403
-452.968	162.456	0.879	-1.231
-451.953	271.186	-0.248	0.435
-450.938	-133.143	-0.431	-0.054
-449.924	168.462	-0.832	-1.182
-448.909	800.000	-0.126	0.482
-447.895	631.880	-0.303	-0.765
-446.880	41.884	-0.354	0.321
-445.865	270.414	-0.101	-0.178
-444.851	-107.913	0.520	-0.113
-443.836	-68.495	0.629	-0.243
-442.822	-115.367	0.111	0.021
-441.807	82.890	0.240	-0.260
-440.792	6.380	0.352	-0.261
-439.778	251.834	-0.033	-0.056
-438.763	36.179	0.203	0.178
-437.749	-11.261	0.299	0.197
-436.734	800.000	0.149	0.438
-435.719	-9.505	0.230	0.153
-434.705	106.872	0.045	-0.054
-433.690	200.692	-0.368	-0.565
-432.676	86.154	0.526	0.578
-431.661	-200.000	-0.055	0.339
-430.646	-200.000	0.003	0.354
-429.632	-86.286	-0.353	-0.108
-428.617	363.000	0.242	-0.485
-427.603	-140.547	0.207	-0.021
-426.588	38.179	-0.249	0.221
-425.573	-101.941	-0.132	0.032
-424.559	-133.948	-0.866	0.107
-423.544	-35.564	0.772	0.418
-422.530	7.259	0.344	-0.256
-421.515	800.000	-0.158	-0.648
-420.500	-200.000	0.037	-0.421
-419.486	800.000	0.402	1.333
-418.471	-89.251	-0.308	-0.091
-417.457	179.164	-0.175	-0.255
-416.442	579.961	0.186	0.455
-415.428	-98.112	-0.460	0.118
-414.413	8.102	0.576	0.431
-413.398	-200.000	0.074	-0.336
-412.384	-49.353	-0.247	-0.117
-411.369	33.133	0.718	0.620
-410.355	-44.700	0.490	-0.244
-409.340	-65.222	0.412	-0.165
-408.325	144.396	-0.465	-0.618
-407.311	800.000	0.068	0.190
-406.296	8.441	0.428	0.321
-405.282	-41.727	-0.259	-0.132
-404.267	40.182	-0.444	0.398
-403.252	-80.974	-0.067	-0.022
-402.238	-116.606	0.697	0.128
-401.223	277.247	0.386	-0.684
-400.209	-24.268	0.255	-0.152
-399.194	-162.014	-0.120	0.006
-398.179	27.898	-0.419	0.352
-397.165	95.338	-0.164	0.186
-396.150	-200.000	-0.011	-0.324
-395.136	26.775	0.521	0.435
-394.121	41.765	-0.296	0.267
-393.106	-200.000	0.085	0.531
-392.092	213.617	0.097	-0.152
-391.077	-58.149	-0.549	-0.238
-390.063	271.342	-0.373	0.655
-389.048	632.555	-0.220	-0.555
-388.033	-170.488	0.842	-0.029
-387.019	-200.000	0.084	-1.002
-386.004	741.862	-0.137	-0.366
-384.990	87.472	0.296	0.326
-383.975	18.136	0.338	-0.269
-382.960	-151.600	-0.870	-0.064
-381.946	47.648	-0.761	0.706
-380.931	-60.148	0.803	-0.341
-379.917	67.808	-0.335	-0.341
-378.902	-66.346	0.090	-0.036
-377.888	800.000	-0.093	-0.363
-376.873	-42.606	0.444	-0.225
-375.858	-200.000	-0.106	0.594
-374.844	-91.019	-0.293	0.084
-373.829	-165.351	0.526	-0.023
-372.815	-140.914	-0.596	-0.061
-371.800	123.293	0.485	-0.605
-370.785	-144.209	-0.919	0.085
-369.771	-117.084	-0.238	0.043
-368.756	109.434	0.194	0.231
-367.742	-85.811	0.428	0.132
-366.727	-42.775	-0.598	0.302
-365.712	13.088	-0.342	0.263
-364.698	76.253	0.146	0.154
-363.683	-24.815	0.440	-0.260
-362.669	-106.028	-0.891	-0.199
-361.654	38.151	0.400	-0.354
-360.639	800.000	0.102	-0.323
-359.625	-76.500	-0.071	-0.025
-358.610	38.517	0.290	0.258
-357.596	-48.344	0.717	0.344
-356.581	624.426	-0.196	0.492
-355.566	771.439	-0.168	0.455
-354.552	281.232	-0.268	0.478
-353.537	-94.291	-0.496	-0.135
-352.523	106.985	0.370	0.437
-351.508	-112.655	0.071	-0.014
-350.493	-80.616	0.645	0.214
-349.479	-148.683	0.067	0.005
-348.464	-189.608	0.330	-0.004
-347.450	-94.319	-0.340	0.092
-346.435	149.169	-0.095	-0.128
-345.420	263.415	-0.353	-0.609
-344.406	276.098	0.253	-0.447
-343.391	539.186	0.151	0.358
-342.377	30.184	0.688	-0.583
-341.362	27.600	-0.449	0.375
-340.348	122.048	-0.866	-1.074
-339.333	800.000	-0.101	0.312
-338.318	238.702	0.083	0.138
-337.304	-52.080	-0.919	0.424
-336.289	-114.198	-0.447	0.086
-335.275	-200.000	0.027	0.662
-334.260	-3.534	0.592	-0.409
-333.245	26.698	-0.369	-0.307
-332.231	154.786	0.139	-0.189
-331.216	485.448	0.143	-0.324
-330.202	17.123	-0.688	0.542
-329.187	202.564	0.131	-0.201
-328.172	28.908	0.363	0.305
-327.158	-36.545	-0.191	-0.102
-326.143	-200.000	0.025	-0.488
-325.129	-70.748	-0.565	0.212
-324.114	-200.000	-0.110	0.630
-323.099	-107.407	0.581	-0.127
-322.085	-200.000	0.054	-0.877
-321.070	800.000	-0.025	-0.090
-320.056	-81.988	0.276	-0.090
-319.041	369.629	0.439	0.882
-318.026	69.670	-0.045	0.046
-317.012	373.743	0.382	0.771
-315.997	-200.000	-0.111	0.506
-314.983	-123.273	-0.567	-0.090
-313.968	-200.000	0.057	-0.660
-312.953	-120.232	-0.697	-0.118
-311.939	79.177	-0.516	-0.549
-310.924	150.245	-0.275	0.370
-309.910	800.000	0.160	-0.569
-308.895	374.154	-0.185	-0.374
-307.880	-200.000	0.167	-0.863
-306.866	-88.758	-0.261	-0.077
-305.851	161.782	0.270	0.375
-304.837	-200.000	0.011	-0.457
-303.822	-81.826	0.235	-0.076
-302.807	250.576	0.251	-0.424
-301.793	-30.913	-0.188	-0.105
-300.778	-103.260	-0.834	-0.195
-299.764	-200.000	0.094	-0.499
-298.749	255.887	0.180	-0.306
-297.735	-200.000	-0.012	-0.344
-296.720	-200.000	0.044	-0.192
-295.705	-200.000	0.028	0.877
-294.691	-153.701	-0.377	0.026
-293.676	174.337	-0.436	0.625
-292.662	-53.641	-0.585	0.265
-291.647	-200.000	0.405	-0.000
-290.632	-200.000	-0.031	0.167
-289.618	-128.391	0.874	0.123
-288.603	145.905	-0.340	0.452
-287.589	-102.598	0.754	0.179
-286.574	-3.039	0.371	-0.256
-285.559	-200.000	0.005	-0.185
-284.545	0.339	0.456	-0.323
-283.530	122.293	-0.252	-0.313
-282.516	-134.173	0.481	0.059
-281.501	-9.162	0.518	-0.343
-280.486	114.692	0.144	-0.174
-279.472	-46.985	-0.363	-0.176
-278.457	-72.724	0.417	0.152
-277.443	42.656	-0.303	0.273
-276.428	153.819	0.573	0.778
-275.413	-200.000	-0.093	1.005
-274.399	-41.367	0.478	0.244
-273.384	-52.228	0.536	-0.246
-272.370	-20.811	0.389	-0.236
-271.355	223.218	-0.778	-1.243
-270.340	-62.049	-0.670	-0.277
-269.326	-112.136	0.138	0.027
-268.311	-121.625	-0.766	0.126
-267.297	-106.189	0.884	0.197
-266.282	256.743	0.308	-0.525
-265.267	-89.115	-0.344	0.101
-264.253	-113.305	0.870	0.169
-263.238	800.000	-0.167	0.526
-262.224	-136.679	-0.436	0.050
-261.209	46.429	-0.290	-0.266
-260.195	-200.000	0.072	0.720
-259.180	-31.060	0.809	-0.452
-258.165	82.191	0.198	0.212
-257.151	47.985	-0.316	-0.292
-256.136	-52.520	0.468	-0.214
-255.122	-44.696	0.527	0.261
-254.107	34.059	0.964	0.832
-253.092	61.597	-0.413	-0.407
-252.078	-81.865	-0.488	0.158
-251.063	-148.457	0.143	-0.012
-250.049	-112.944	0.610	0.120
-249.034	800.000	0.097	0.277
-248.019	-200.000	0.181	0.953
-247.005	-125.082	0.195	0.030
-245.990	-184.336	-0.536	-0.009
-244.976	800.000	-0.039	0.137
-243.961	-200.000	0.159	0.869
-242.946	98.936	0.213	0.244
-241.932	315.586	-0.069	0.129
-240.917	800.000	-0.145	0.565
-239.903	800.000	-0.393	-1.357
-238.888	-173.710	-0.461	-0.014
-237.873	240.862	-0.140	-0.230
-236.859	-135.076	-0.302	0.036
-235.844	-3.112	-0.217	0.150
-234.830	-200.000	0.015	0.115
-233.815	-200.000	-0.065	0.804
-232.800	800.000	-0.213	-0.687
-231.786	91.868	-0.521	0.580
-230.771	-118.304	-0.608	0.107
-229.757	314.423	0.304	-0.566
-228.742	800.000	0.128	0.501
-227.727	-200.000	-0.013	-0.286
-226.713	-187.981	0.636	-0.008
-225.698	-89.847	0.920	-0.266
-224.684	800.000	-0.172	-0.522
-223.669	2.715	-0.596	-0.428
-222.655	-200.000	-0.021	0.423
-221.640	-143.662	-0.697	-0.065
-220.625	-200.000	-0.019	0.120
-219.611	800.000	-0.151	0.557
-218.596	186.358	-0.331	-0.487
-217.582	-146.641	0.819	-0.070
-216.567	42.292	-0.239	-0.215
-215.552	-103.047	0.508	0.119
-214.538	622.486	-0.162	-0.404
-213.523	711.607	0.261	-0.682
-212.509	0.144	-0.406	0.286
-211.494	41.789	0.173	0.155
-210.479	-14.892	0.694	0.440
-209.465	-114.930	-0.457	-0.086
-208.450	800.000	0.232	0.844
-207.436	800.000	0.088	0.287
-206.421	8.005	0.842	-0.624
-205.406	43.116	-0.141	0.127
-204.392	773.884	-0.396	-1.069
-203.377	-141.714	-0.228	-0.023
-202.363	-200.000	-0.209	-1.072
-201.348	-200.000	0.021	-0.259
-200.333	-15.471	0.584	0.369
-199.319	261.344	-0.265	0.454
-198.304	-107.769	-0.323	0.070
-197.290	800.000	0.084	0.286
-196.275	544.318	-0.231	0.544
-195.260	416.495	-0.479	-1.010
-194.246	119.744	0.286	0.350
-193.231	337.420	-0.535	1.027
-192.217	59.866	0.440	0.429
-191.202	39.084	-0.254	0.225
-190.187	21.411	-0.941	0.756
-189.173	45.377	0.173	0.158
-188.158	-31.152	-0.968	0.539
-187.144	800.000	0.302	-1.231
-186.129	-44.165	0.360	0.178
-185.114	-78.677	-0.273	-0.092
-184.100	65.580	-0.349	0.349
-183.085	-156.885	0.392	-0.024
-182.071	440.597	0.145	-0.312
-181.056	-152.072	0.284	-0.020
-180.042	-108.410	1.188	-0.253
-179.027	-118.894	0.555	0.096
-178.012	-200.000	-0.043	-0.283
-176.998	-48.233	-0.361	0.172
-175.983	800.000	0.160	-0.582
-174.969	800.000	0.367	1.454
-173.954	-200.000	0.009	0.199
-172.939	-52.124	-0.599	-0.275
-171.925	-165.576	-0.522	-0.022
-170.910	-200.000	-0.032	-0.255
-169.896	800.000	-0.180	-0.547
-168.881	15.681	0.278	0.215
-167.866	-160.544	0.357	0.019
-166.852	800.000	0.224	0.805
-165.837	-80.249	-0.663	-0.219
-164.823	18.016	-0.175	0.138
-163.808	-200.000	0.020	0.255
-162.793	-78.420	0.570	0.193
-161.779	-34.992	-0.496	0.267
-160.764	-176.609	1.026	-0.026
-159.750	800.000	0.167	-0.494
-158.735	-200.000	-0.085	0.772
-157.720	-200.000	-0.220	0.960
-156.706	-200.000	0.059	-0.348
-155.691	324.603	0.202	-0.380
-154.677	192.506	-0.365	-0.543
-153.662	493.860	0.102	-0.230
-152.647	91.702	-0.718	0.797
-151.633	174.510	-0.267	0.380
-150.618	-200.000	0.053	-0.492
-149.604	-52.811	0.081	0.037
-148.589	-117.165	0.396	0.071
-147.574	-200.000	0.126	0.631
-146.560	-200.000	-0.085	0.516
-145.545	-109.039	0.842	-0.177
-144.531	-132.513	-0.367	0.047
-143.516	800.000	-0.163	-0.662
-142.502	723.650	0.169	-0.444
-141.487	-200.000	0.142	0.704
-140.472	349.125	-0.349	-0.679
-139.458	454.293	0.141	-0.309
-138.443	80.662	-0.531	-0.565
-137.429	484.625	0.331	-0.742
-136.414	800.000	0.212	0.772
-135.399	127.484	0.462	-0.578
-134.385	-81.636	0.544	0.176
-133.370	219.989	0.325	-0.513
-132.356	-84.235	0.540	0.169
-131.341	216.531	0.253	0.397
-130.326	21.179	0.102	0.082
-129.312	-158.294	-0.431	0.025
-128.297	448.022	0.446	0.968
-127.283	-137.275	0.212	0.024
-126.268	533.627	0.087	-0.203
-125.253	102.749	0.175	0.202
-124.239	-133.158	-1.692	-0.211
-123.224	-127.651	-0.134	0.019
-122.210	-200.000	-0.002	0.074
-121.195	-200.000	0.083	0.537
