DTS Sentinel unit serial number:	SN413079Multiplexer serial number:	ORYXHardware model number:	OX4-SRSoftware version number:	ORYX F/W v4.00 Oryx Data Collector v3.7.2.0data status	okinstallation	princeton_trtdifferential loss correction	single-endedforward channel	channel 1reverse channel	N/Adate	2019/09/14time	18:58:35forward acquisition time	60.00reverse acquisition time	0.00gamma	496.2192k internal	0.2308k external	0.2308temperature offset calibration	1.0030default loss term (dB/km)	0.3790temperature slope calibration	1.0000multiplexer offset coefficient	1.0000multiplexer slope coefficient	1.0000fibre end	0.00T internal ref (°C)	35.69T ext. ref 1 (°C)	4.87T ext. ref 2 (°C)	29.54length (m)	temperature (°C)	Stokes	anti-Stokes-747.200	-15.782	0.117	-0.076
-746.185	-129.966	0.370	0.052
-745.171	800.000	0.020	0.078
-744.156	224.832	-0.121	0.199
-743.142	26.167	0.162	0.137
-742.127	-72.039	-0.316	-0.119
-741.112	-148.930	0.110	0.009
-740.098	76.799	0.376	0.405
-739.083	256.774	0.179	0.312
-738.069	264.724	0.079	0.141
-737.054	-200.000	0.007	-0.062
-736.039	-100.136	-0.403	0.102
-735.025	-48.487	0.215	-0.105
-734.010	-16.156	-0.312	0.201
-732.996	-119.009	-0.497	-0.088
-731.981	378.382	-0.140	-0.290
-730.966	211.840	0.167	-0.268
-729.952	-162.576	-0.400	0.020
-728.937	138.560	-0.208	-0.278
-727.923	-37.549	0.065	-0.035
-726.908	47.618	-0.390	0.369
-725.894	-200.000	-0.038	-0.186
-724.879	286.935	-0.141	0.259
-723.864	87.215	-0.063	-0.071
-722.850	800.000	-0.020	0.057
-721.835	800.000	-0.093	-0.323
-720.821	6.787	0.252	0.190
-719.806	-200.000	-0.023	0.177
-718.791	800.000	-0.066	-0.259
-717.777	164.794	0.168	-0.240
-716.762	-60.581	0.103	0.044
-715.748	-19.826	-0.126	0.079
-714.733	143.432	0.203	-0.275
-713.718	-93.234	0.185	-0.052
-712.704	-125.183	-0.308	0.048
-711.689	28.941	-0.082	-0.071
-710.675	-19.810	-0.228	-0.143
-709.660	526.816	-0.055	-0.132
-708.645	-124.031	-0.113	-0.018
-707.631	-137.901	-0.270	0.031
-706.616	208.474	0.107	0.170
-705.602	-7.350	0.191	0.131
-704.587	-149.597	0.139	0.011
-703.572	-78.360	0.344	-0.120
-702.558	-200.000	0.000	-0.015
-701.543	-119.769	0.302	-0.053
-700.529	-144.233	-0.144	0.014
-699.514	323.459	0.086	-0.167
-698.499	-200.000	0.059	-0.413
-697.485	57.410	-0.179	-0.177
-696.470	-37.583	-0.306	0.166
-695.456	-32.825	0.082	-0.046
-694.441	99.397	-0.192	0.226
-693.426	43.602	0.212	-0.197
-692.412	167.206	0.074	-0.106
-691.397	800.000	0.083	0.289
-690.383	-122.491	0.230	-0.038
-689.368	-159.203	-0.135	0.008
-688.354	-73.995	-0.141	0.052
-687.339	-54.608	0.243	-0.111
-686.324	80.640	-0.068	0.074
-685.310	-46.902	-0.045	0.022
-684.295	800.000	-0.080	-0.336
-683.281	-7.933	-0.267	-0.182
-682.266	-200.000	-0.016	0.093
-681.251	43.656	-0.108	0.100
-680.237	364.936	-0.112	0.229
-679.222	147.790	0.182	0.249
-678.208	-200.000	-0.024	-0.145
-677.193	-7.929	-0.457	-0.313
-676.178	120.931	0.232	-0.293
-675.164	-171.515	0.101	0.003
-674.149	7.140	0.082	0.062
-673.135	-16.465	-0.190	0.122
-672.120	19.647	0.224	0.183
-671.105	-51.183	0.200	-0.095
-670.091	649.942	0.026	0.068
-669.076	125.899	-0.151	-0.194
-668.062	-55.055	0.252	-0.115
-667.047	-108.925	-0.054	0.012
-666.032	-200.000	-0.001	-0.030
-665.018	-90.017	0.266	-0.079
-664.003	450.857	-0.020	-0.045
-662.989	-104.268	0.284	0.067
-661.974	-200.000	0.040	-0.231
-660.959	800.000	-0.074	0.255
-659.945	15.856	0.121	-0.096
-658.930	172.399	0.096	0.141
-657.916	522.643	-0.134	-0.318
-656.901	-98.355	0.065	-0.017
-655.886	172.347	0.207	-0.301
-654.872	-200.000	-0.007	-0.044
-653.857	49.176	0.141	-0.135
-652.843	-37.418	-0.117	-0.063
-651.828	-79.598	-0.127	-0.043
-650.814	13.256	0.017	0.013
-649.799	800.000	0.054	-0.155
-648.784	-200.000	-0.021	0.118
-647.770	-200.000	0.015	0.265
-646.755	145.732	-0.096	-0.130
-645.741	-200.000	-0.020	-0.214
-644.726	-51.913	-0.081	-0.038
-643.711	-14.479	-0.225	0.146
-642.697	-55.789	-0.188	0.085
-641.682	152.545	-0.117	-0.161
-640.668	172.851	-0.030	-0.044
-639.653	-200.000	-0.038	-0.362
-638.638	-143.027	0.135	0.013
-637.624	175.315	-0.229	-0.336
-636.609	137.793	0.061	0.081
-635.595	758.885	-0.099	-0.270
-634.580	79.354	0.014	0.015
-633.565	11.912	-0.181	-0.141
-632.551	159.828	-0.314	-0.442
-631.536	653.779	-0.115	-0.299
-630.522	282.425	-0.072	-0.130
-629.507	20.523	-0.206	-0.168
-628.492	518.239	-0.038	0.091
-627.478	-19.184	-0.489	0.307
-626.463	-200.000	-0.052	-0.253
-625.449	104.757	0.277	-0.331
-624.434	-40.083	-0.281	-0.148
-623.419	-200.000	0.004	0.128
-622.405	800.000	-0.073	-0.282
-621.390	-200.000	0.013	-0.301
-620.376	182.119	0.126	-0.187
-619.361	-53.835	-0.160	-0.074
-618.346	-99.832	-0.207	0.052
-617.332	-67.767	-0.204	0.081
-616.317	296.050	-0.123	0.228
-615.303	53.422	-0.233	-0.226
-614.288	-92.865	0.112	-0.032
-613.273	-200.000	-0.006	0.070
-612.259	-91.916	-0.112	-0.032
-611.244	-200.000	-0.032	0.227
-610.230	800.000	0.109	-0.459
-609.215	-54.819	-0.248	-0.113
-608.201	45.219	0.241	-0.224
-607.186	800.000	0.017	0.049
-606.171	-181.120	-0.109	0.002
-605.157	-200.000	0.070	-0.490
-604.142	-200.000	0.164	-0.000
-603.128	-90.706	-0.233	-0.068
-602.113	800.000	-0.075	-0.228
-601.098	-122.021	0.157	-0.026
-600.084	281.643	0.143	0.259
-599.069	-94.213	0.141	-0.039
-598.055	238.185	0.126	-0.212
-597.040	-35.782	-0.106	0.058
-596.025	517.071	0.111	0.262
-595.011	3.938	0.264	-0.195
-593.996	-103.632	0.213	-0.051
-592.982	131.991	-0.118	-0.154
-591.967	800.000	0.090	-0.292
-590.952	800.000	-0.072	0.202
-589.938	565.980	-0.033	0.082
-588.923	-130.652	0.519	-0.071
-587.909	86.178	0.213	-0.237
-586.894	-200.000	-0.017	0.123
-585.879	394.447	-0.172	-0.363
-584.865	5.209	0.217	0.161
-583.850	-118.701	0.137	-0.024
-582.836	132.896	0.096	0.125
-581.821	-200.000	-0.006	0.115
-580.806	459.147	-0.134	-0.301
-579.792	-200.000	-0.055	0.328
-578.777	-200.000	0.051	0.379
-577.763	55.639	-0.294	-0.288
-576.748	7.846	-0.218	-0.165
-575.733	800.000	-0.057	0.230
-574.719	767.782	-0.045	0.123
-573.704	-14.206	-0.298	0.194
-572.690	233.506	0.168	0.280
-571.675	380.211	-0.131	-0.272
-570.661	5.131	0.142	-0.105
-569.646	-132.268	-0.311	-0.041
-568.631	-35.210	-0.181	0.099
-567.617	-161.594	-0.483	-0.025
-566.602	-32.988	0.274	-0.153
-565.588	800.000	0.067	0.207
-564.573	-200.000	-0.011	-0.111
-563.558	-200.000	0.017	-0.090
-562.544	40.913	-0.194	-0.177
-561.529	65.141	-0.171	-0.174
-560.515	91.636	-0.192	0.217
-559.500	147.321	0.290	0.393
-558.485	10.788	-0.266	0.205
-557.471	-120.673	-0.182	0.031
-556.456	-102.682	0.015	0.004
-555.442	585.890	0.051	0.126
-554.427	102.580	0.306	0.361
-553.412	-89.403	0.173	-0.051
-552.398	157.671	-0.014	0.020
-551.383	-15.656	-0.252	0.162
-550.369	-120.078	-0.360	0.062
-549.354	-200.000	0.061	0.493
-548.339	593.119	0.025	0.061
-547.325	-101.683	0.340	0.083
-546.310	313.415	0.091	0.173
-545.296	-200.000	-0.035	0.272
-544.281	-123.479	-0.162	-0.026
-543.266	-4.788	0.269	-0.187
-542.252	-7.641	0.143	-0.097
-541.237	0.185	-0.063	0.045
-540.223	8.791	-0.120	0.091
-539.208	-6.594	-0.163	0.112
-538.193	-99.324	-0.218	-0.055
-537.179	-108.534	-0.420	0.091
-536.164	475.283	-0.134	0.305
-535.150	30.237	0.212	0.183
-534.135	-79.931	-0.098	-0.033
-533.121	800.000	-0.044	0.138
-532.106	800.000	-0.024	-0.096
-531.091	-200.000	0.025	-0.314
-530.077	-107.320	0.193	-0.043
-529.062	-87.452	0.098	0.030
-528.048	52.951	0.311	-0.300
-527.033	714.703	-0.053	0.141
-526.018	-74.834	-0.202	0.073
-525.004	-157.740	0.271	-0.016
-523.989	-154.941	-0.201	-0.013
-522.975	330.749	0.124	0.242
-521.960	800.000	0.017	-0.073
-520.945	-110.005	0.298	0.063
-519.931	-47.671	-0.116	0.057
-518.916	-58.388	0.265	0.116
-517.902	90.337	0.185	-0.208
-516.887	-1.718	-0.178	0.126
-515.872	-16.742	-0.180	-0.115
-514.858	21.758	0.200	-0.164
-513.843	-145.441	-0.379	-0.034
-512.829	-200.000	0.053	0.464
-511.814	-17.867	0.204	-0.129
-510.799	-115.490	-0.218	-0.041
-509.785	-102.141	0.097	0.023
-508.770	53.721	0.312	0.302
-507.756	800.000	-0.010	-0.036
-506.741	-28.064	-0.466	-0.271
-505.726	-61.355	0.256	0.109
-504.712	-13.378	0.301	0.197
-503.697	-115.904	-0.204	-0.038
-502.683	138.360	0.028	-0.037
-501.668	-95.811	0.285	-0.077
-500.653	80.163	0.166	0.180
-499.639	-83.687	0.116	-0.037
-498.624	75.016	0.044	0.046
-497.610	-114.596	0.150	0.029
-496.595	27.759	0.108	-0.092
-495.581	-64.274	-0.206	-0.084
-494.566	-149.455	-0.244	-0.019
-493.551	64.999	-0.157	0.160
-492.537	293.921	-0.205	-0.377
-491.522	341.829	0.076	-0.150
-490.508	72.792	0.212	-0.222
-489.493	-132.279	0.305	-0.040
-488.478	-200.000	0.001	-0.387
-487.464	29.503	0.340	-0.291
-486.449	-200.000	-0.062	-0.288
-485.435	-159.399	0.177	0.010
-484.420	309.228	0.132	0.248
-483.405	800.000	-0.045	-0.165
-482.391	-38.983	-0.229	0.121
-481.376	157.653	0.075	0.105
-480.362	-103.491	-0.386	0.091
-479.347	33.368	-0.229	-0.200
-478.332	-163.513	-0.399	-0.019
-477.318	800.000	0.122	-0.340
-476.303	-95.310	-0.378	0.102
-475.289	-3.508	-0.159	-0.111
-474.274	-91.182	0.209	-0.060
-473.259	-200.000	-0.055	-0.378
-472.245	139.760	0.048	0.064
-471.230	-127.553	-0.081	0.012
-470.216	-200.000	-0.055	-0.273
-469.201	-77.372	-0.221	0.077
-468.186	-48.533	0.226	-0.110
-467.172	-7.385	-0.084	-0.057
-466.157	26.917	-0.130	0.110
-465.143	-188.717	0.144	-0.002
-464.128	-47.962	-0.152	-0.074
-463.113	-87.556	0.161	-0.049
-462.099	475.288	0.037	-0.084
-461.084	-200.000	0.006	-0.055
-460.070	-200.000	-0.014	0.097
-459.055	590.305	-0.081	-0.202
-458.040	-88.761	-0.135	-0.040
-457.026	-46.993	-0.084	0.041
-456.011	-128.470	-0.533	0.076
-454.997	-200.000	-0.011	0.075
-453.982	-7.671	-0.067	0.045
-452.968	-10.143	-0.266	0.178
-451.953	-200.000	-0.038	-0.211
-450.938	-170.420	0.089	-0.003
-449.924	800.000	0.027	0.093
-448.909	-82.301	0.092	0.030
-447.895	48.078	0.264	-0.248
-446.880	-62.440	-0.343	0.143
-445.865	-45.548	-0.261	0.130
-444.851	-123.644	0.466	-0.074
-443.836	17.533	0.091	0.073
-442.822	112.077	-0.172	-0.209
-441.807	-9.540	0.111	0.075
-440.792	140.685	-0.166	0.220
-439.778	545.631	0.136	-0.326
-438.763	-3.506	0.083	-0.058
-437.749	-9.978	0.286	-0.191
-436.734	800.000	-0.091	0.332
-435.719	739.966	0.024	0.064
-434.705	61.983	0.180	0.180
-433.690	87.596	-0.161	0.179
-432.676	-200.000	-0.014	-0.426
-431.661	110.156	-0.158	-0.191
-430.646	-200.000	0.062	-0.392
-429.632	800.000	-0.131	0.433
-428.617	800.000	0.102	0.357
-427.603	800.000	0.032	-0.131
-426.588	800.000	0.080	-0.253
-425.573	-0.404	0.216	0.154
-424.559	200.555	-0.126	0.194
-423.544	-14.424	-0.227	0.147
-422.530	153.413	0.072	0.098
-421.515	-26.900	-0.122	-0.072
-420.500	176.478	0.040	-0.058
-419.486	5.901	0.039	0.029
-418.471	-183.805	-0.253	0.004
-417.457	-116.540	0.190	-0.035
-416.442	-82.384	-0.434	-0.142
-415.428	-46.672	-0.361	-0.178
-414.413	-107.408	-0.130	-0.029
-413.398	-52.507	0.205	-0.095
-412.384	-200.000	-0.028	0.217
-411.369	-65.843	-0.164	0.066
-410.355	-200.000	-0.038	0.408
-409.340	-52.550	-0.079	0.037
-408.325	-63.674	-0.175	-0.072
-407.311	420.708	0.081	-0.173
-406.296	-200.000	-0.030	-0.146
-405.282	18.058	-0.343	-0.274
-404.267	800.000	-0.110	-0.421
-403.252	-56.413	-0.317	0.141
-402.238	-200.000	0.011	0.100
-401.223	201.983	-0.112	0.173
-400.209	184.738	-0.141	-0.210
-399.194	232.025	-0.141	-0.232
-398.179	-200.000	-0.028	-0.335
-397.165	52.446	0.096	-0.092
-396.150	-46.622	0.032	0.016
-395.136	-98.648	-0.146	-0.037
-394.121	150.069	0.199	-0.271
-393.106	778.689	0.168	0.460
-392.092	37.824	0.074	-0.066
-391.077	-32.652	0.194	-0.108
-390.063	9.447	-0.117	0.089
-389.048	-200.000	0.000	0.049
-388.033	-200.000	0.002	0.019
-387.019	-22.070	-0.286	0.174
-386.004	-111.412	0.287	-0.059
-384.990	-200.000	-0.009	0.192
-383.975	129.108	-0.128	-0.164
-382.960	-200.000	0.001	0.031
-381.946	226.466	-0.150	0.244
-380.931	84.578	0.146	-0.160
-379.917	-130.680	-0.144	-0.019
-378.902	-200.000	0.012	0.352
-377.888	800.000	0.098	0.346
-376.873	-23.857	-0.111	0.067
-375.858	-200.000	0.016	0.095
-374.844	-200.000	0.008	-0.428
-373.829	-200.000	-0.002	-0.028
-372.815	-128.751	0.111	0.016
-371.800	-99.270	-0.397	0.100
-370.785	444.588	-0.059	0.129
-369.771	-200.000	-0.019	0.245
-368.756	-200.000	0.035	0.270
-367.742	800.000	0.057	0.170
-366.727	22.344	-0.017	0.014
-365.712	60.078	0.099	0.098
-364.698	-113.320	-0.020	0.004
-363.683	49.483	0.136	0.129
-362.669	-99.939	-0.273	-0.068
-361.654	-97.297	0.138	0.036
-360.639	-46.316	-0.159	0.078
-359.625	-163.518	-0.131	0.006
-358.610	224.771	0.102	-0.165
-357.596	18.212	0.264	0.211
-356.581	667.545	-0.058	0.149
-355.566	57.585	-0.099	-0.097
-354.552	429.607	-0.157	-0.341
-353.537	800.000	-0.090	-0.262
-352.523	-200.000	0.032	0.147
-351.508	77.650	-0.094	-0.100
-350.493	-122.208	-0.207	-0.034
-349.479	674.828	-0.023	-0.060
-348.464	700.466	-0.041	-0.107
-347.450	293.446	0.002	0.004
-346.435	171.705	0.202	-0.290
-345.420	-184.458	0.374	0.006
-344.406	-200.000	-0.009	0.093
-343.391	-200.000	0.092	0.420
-342.377	-102.015	0.059	0.014
-341.362	-118.736	0.355	0.063
-340.348	-200.000	-0.032	0.629
-339.333	-129.944	0.062	0.008
-338.318	-1.717	0.316	-0.223
-337.304	459.692	-0.085	0.190
-336.289	-57.030	-0.070	-0.031
-335.275	800.000	0.076	0.236
-334.260	-51.837	0.336	-0.156
-333.245	-134.587	-0.241	0.029
-332.231	-193.893	0.359	-0.003
-331.216	-35.511	0.057	-0.031
-330.202	-110.870	0.296	-0.061
-329.187	335.274	-0.128	0.247
-328.172	-8.505	-0.216	-0.145
-327.158	214.641	-0.185	-0.293
-326.143	-21.929	0.378	-0.230
-325.129	-88.315	0.309	0.092
-324.114	-43.934	0.252	0.127
-323.099	275.373	-0.022	0.039
-322.085	800.000	-0.041	0.119
-321.070	302.114	0.053	0.097
-320.056	-200.000	-0.108	-0.554
-319.041	-145.092	0.186	0.017
-318.026	-95.927	0.273	0.073
-317.012	-200.000	0.007	0.082
-315.997	-200.000	-0.005	-0.114
-314.983	87.142	0.119	-0.132
-313.968	800.000	0.046	0.177
-312.953	-200.000	-0.108	-0.481
-311.939	2.646	-0.118	0.086
-310.924	-7.203	0.146	0.099
-309.910	-116.751	-0.235	-0.043
-308.895	11.835	-0.149	0.115
-307.880	172.445	-0.112	0.161
-306.866	35.742	0.300	0.264
-305.851	20.170	-0.162	0.130
-304.837	-125.097	0.130	0.020
-303.822	-50.980	0.003	0.001
-302.807	-162.420	0.123	-0.006
-301.793	45.724	0.173	0.160
-300.778	-200.000	0.020	0.092
-299.764	394.049	0.010	-0.021
-298.749	-200.000	0.079	0.437
-297.735	-79.006	0.228	0.077
-296.720	135.873	-0.186	-0.242
-295.705	92.456	0.064	-0.072
-294.691	-200.000	0.025	-0.226
-293.676	280.492	-0.083	0.148
-292.662	135.099	-0.112	0.145
-291.647	438.720	-0.171	-0.373
-290.632	-124.777	0.348	0.054
-289.618	800.000	0.065	0.195
-288.603	657.637	-0.089	-0.227
-287.589	-160.783	0.174	0.009
-286.574	-108.944	0.109	0.023
-285.559	800.000	-0.048	-0.168
-284.545	324.515	0.196	0.373
-283.530	121.990	0.126	0.156
-282.516	-0.501	-0.045	0.032
-281.501	450.435	0.041	-0.089
-280.486	110.975	-0.097	-0.116
-279.472	-152.869	0.206	-0.015
-278.457	65.783	-0.047	0.047
-277.443	-200.000	-0.023	-0.164
-276.428	262.113	-0.181	-0.313
-275.413	-149.529	0.160	-0.013
-274.399	800.000	-0.033	-0.093
-273.384	-26.779	0.169	-0.098
-272.370	77.285	-0.278	0.295
-271.355	-4.468	0.090	0.062
-270.340	78.205	-0.093	0.099
-269.326	-103.858	0.342	0.080
-268.311	399.370	0.256	0.534
-267.297	-97.383	-0.167	0.043
-266.282	522.997	0.057	-0.133
-265.267	5.331	-0.153	0.112
-264.253	228.787	0.099	-0.161
-263.238	355.737	-0.078	0.155
-262.224	682.833	0.034	-0.089
-261.209	-125.625	0.282	0.043
-260.195	-200.000	0.032	-0.227
-259.180	188.713	-0.078	0.116
-258.165	90.345	0.134	0.149
-257.151	81.347	0.131	0.142
-256.136	139.178	0.194	0.254
-255.122	800.000	-0.140	0.387
-254.107	-114.428	-0.270	-0.052
-253.092	231.689	0.078	-0.127
-252.078	105.384	-0.150	-0.177
-251.063	-200.000	-0.015	0.303
-250.049	-0.089	0.206	-0.146
-249.034	-86.133	0.131	-0.040
-248.019	390.610	0.173	0.357
-247.005	-125.197	-0.213	0.033
-245.990	-9.371	0.234	-0.156
-244.976	735.456	0.009	-0.023
-243.961	0.117	0.264	0.188
-242.946	-108.210	0.465	-0.100
-241.932	187.260	0.165	0.246
-240.917	283.361	0.080	-0.144
-239.903	-68.746	0.216	0.083
-238.888	-200.000	0.059	-0.377
-237.873	54.783	0.239	-0.230
-236.859	4.380	-0.168	0.123
-235.844	-200.000	-0.013	0.089
-234.830	50.627	-0.083	-0.078
-233.815	311.693	0.093	-0.175
-232.800	388.201	-0.115	-0.238
-231.786	800.000	0.070	0.252
-230.771	29.610	-0.349	-0.296
-229.757	-21.992	0.430	0.260
-228.742	-98.705	0.089	0.023
-227.727	-22.301	0.110	-0.066
-226.713	-200.000	-0.014	-0.184
-225.698	-200.000	0.018	-0.160
-224.684	-92.869	0.058	0.016
-223.669	-33.888	-0.175	-0.096
-222.655	-90.914	-0.256	0.074
-221.640	-153.329	-0.190	0.013
-220.625	63.870	0.052	-0.052
-219.611	-200.000	0.021	-0.211
-218.596	800.000	0.140	0.397
-217.582	-90.895	-0.387	-0.111
-216.567	-65.428	-0.196	0.079
-215.552	-18.899	-0.023	-0.014
-214.538	-40.692	-0.362	-0.187
-213.523	101.550	0.082	-0.095
-212.509	158.409	-0.124	0.171
-211.494	-95.635	-0.213	0.057
-210.479	-39.307	-0.050	-0.026
-209.465	-116.341	-0.036	-0.007
-208.450	-186.282	0.317	0.005
-207.436	62.410	-0.084	0.083
-206.421	19.178	0.086	0.068
-205.406	-57.472	-0.221	0.096
-204.392	100.859	0.139	0.161
-203.377	600.148	0.057	0.140
-202.363	-156.122	0.198	0.012
-201.348	293.601	0.188	0.341
-200.333	-110.511	-0.268	0.055
-199.319	557.734	-0.062	-0.148
-198.304	233.337	0.225	-0.369
-197.290	-72.784	0.114	0.042
-196.275	-30.209	0.138	0.078
-195.260	800.000	0.067	0.291
-194.246	-151.140	0.102	-0.008
-193.231	-19.720	-0.211	-0.130
-192.217	24.247	0.218	0.179
-191.202	-60.152	0.034	-0.014
-190.187	185.474	-0.055	0.081
-189.173	-200.000	0.051	0.348
-188.158	-147.534	0.280	-0.024
-187.144	557.849	0.049	0.119
-186.129	-11.067	0.321	-0.211
-185.114	212.906	-0.126	0.198
-184.100	-100.742	0.171	0.042
-183.085	70.915	-0.107	-0.110
-182.071	800.000	-0.117	0.412
-181.056	41.847	0.255	0.230
-180.042	-120.467	0.320	-0.054
-179.027	-21.284	-0.235	-0.143
-178.012	-150.133	-0.237	-0.018
-176.998	800.000	0.013	-0.059
-175.983	642.724	0.097	0.245
-174.969	-20.544	-0.128	-0.078
-173.954	-200.000	0.007	-0.055
-172.939	-106.576	0.338	0.075
-171.925	128.971	-0.211	-0.267
-170.910	131.555	0.045	0.057
-169.896	50.192	0.232	-0.218
-168.881	800.000	-0.083	-0.326
-167.866	-200.000	0.043	0.257
-166.852	-155.940	0.247	0.016
-165.837	-101.084	-0.337	0.082
-164.823	137.849	0.234	0.305
-163.808	-120.397	0.322	-0.054
-162.793	-152.590	-0.209	-0.015
-161.779	-153.881	-0.227	0.015
-160.764	-200.000	0.000	-0.051
-159.750	-45.476	0.022	0.011
-158.735	780.232	0.058	0.159
-157.720	-200.000	0.046	0.216
-156.706	800.000	0.021	0.063
-155.691	-200.000	0.026	-0.446
-154.677	-200.000	-0.004	-0.107
-153.662	109.986	-0.058	-0.069
-152.647	417.236	0.147	0.311
-151.633	800.000	0.123	0.342
-150.618	800.000	-0.075	0.236
-149.604	-165.848	0.250	0.011
-148.589	684.019	-0.105	0.273
-147.574	-200.000	-0.001	-0.207
-146.560	-200.000	0.025	-0.183
-145.545	-200.000	-0.010	-0.058
-144.531	-116.762	0.131	-0.024
-143.516	109.945	-0.061	0.073
-142.502	799.775	0.027	0.074
-141.487	-90.522	0.247	0.071
-140.472	800.000	0.031	-0.094
-139.458	-89.399	-0.082	-0.024
-138.443	671.406	0.021	-0.055
-137.429	-100.082	0.231	0.057
-136.414	-54.293	0.330	-0.149
-135.399	15.609	0.227	-0.177
-134.385	161.581	0.034	-0.047
-133.370	800.000	0.040	-0.147
-132.356	-20.744	-0.077	-0.047
-131.341	228.627	0.039	-0.063
-130.326	-200.000	0.038	-0.213
-129.312	-100.090	-0.292	0.072
-128.297	15.294	0.039	-0.031
-127.283	-95.102	-0.202	0.054
-126.268	53.852	0.222	0.211
-125.253	88.044	0.071	-0.079
-124.239	-41.567	-0.262	-0.134
-123.224	-80.270	0.082	0.027
-122.210	173.514	0.057	-0.082
-121.195	532.564	0.088	0.208
-120.180	-200.000	0.013	0.146
