DTS Sentinel unit serial number:	SN413079Multiplexer serial number:	ORYXHardware model number:	OX4-SRSoftware version number:	ORYX F/W v4.00 Oryx Data Collector v3.7.2.0data status	okinstallation	princeton_trtdifferential loss correction	single-endedforward channel	channel 1reverse channel	N/Adate	2019/09/14time	02:58:35forward acquisition time	60.00reverse acquisition time	0.00gamma	496.2192k internal	0.2336k external	0.2336temperature offset calibration	1.0078default loss term (dB/km)	0.3790temperature slope calibration	1.0000multiplexer offset coefficient	1.0000multiplexer slope coefficient	1.0000fibre end	0.00T internal ref (°C)	26.56T ext. ref 1 (°C)	3.26T ext. ref 2 (°C)	21.62length (m)	temperature (°C)	Stokes	anti-Stokes-747.200	-200.000	0.049	0.252
-746.185	-0.399	-0.300	0.214
-745.171	-9.810	0.184	-0.123
-744.156	-200.000	0.019	0.098
-743.142	-28.879	-0.304	0.175
-742.127	423.593	0.084	0.182
-741.112	800.000	-0.088	0.349
-740.098	21.675	-0.202	0.165
-739.083	36.697	0.134	0.119
-738.069	-75.658	0.206	-0.073
-737.054	800.000	-0.016	-0.059
-736.039	307.713	0.096	0.181
-735.025	137.771	0.128	-0.169
-734.010	128.156	-0.054	0.069
-732.996	-60.081	0.007	0.003
-731.981	-141.929	-0.305	-0.031
-730.966	-200.000	-0.008	-0.271
-729.952	115.602	-0.283	-0.347
-728.937	20.840	-0.112	-0.091
-727.923	-66.424	0.067	-0.027
-726.908	97.810	0.118	-0.137
-725.894	67.821	-0.191	-0.196
-724.879	-9.367	-0.142	0.095
-723.864	-180.764	-0.441	-0.009
-722.850	-30.369	-0.065	0.037
-721.835	164.433	0.207	0.293
-720.821	7.270	-0.147	0.110
-719.806	-47.963	-0.105	-0.051
-718.791	-96.606	0.198	-0.052
-717.777	-127.227	0.084	0.012
-716.762	800.000	0.049	-0.140
-715.748	-46.265	-0.279	-0.138
-714.733	358.247	0.077	-0.154
-713.718	-183.612	0.097	0.002
-712.704	-28.410	0.115	0.066
-711.689	-200.000	-0.006	0.293
-710.675	74.703	0.156	0.164
-709.660	-95.131	0.168	0.045
-708.645	-80.535	-0.363	0.121
-707.631	430.545	0.079	0.172
-706.616	-81.930	-0.327	0.107
-705.602	-45.196	-0.071	-0.035
-704.587	39.163	-0.163	0.147
-703.572	-65.866	-0.126	0.050
-702.558	35.191	0.100	0.088
-701.543	-200.000	0.009	0.085
-700.529	-87.938	0.112	-0.034
-699.514	213.143	-0.159	0.251
-698.499	-200.000	-0.072	-0.334
-697.485	-200.000	-0.024	0.177
-696.470	446.322	0.089	-0.197
-695.456	-107.734	-0.445	-0.097
-694.441	-200.000	0.016	0.147
-693.426	-35.157	-0.229	0.125
-692.412	-124.227	-0.053	-0.008
-691.397	75.952	0.044	-0.046
-690.383	-102.584	0.165	0.040
-689.368	-19.583	-0.056	0.035
-688.354	511.610	0.218	-0.509
-687.339	70.089	-0.096	0.099
-686.324	133.819	-0.035	-0.045
-685.310	-200.000	-0.006	-0.075
-684.295	30.909	-0.392	0.337
-683.281	-112.494	0.314	0.063
-682.266	99.774	0.224	-0.260
-681.251	-200.000	0.071	-0.546
-680.237	-20.796	0.143	0.088
-679.222	15.791	0.084	-0.067
-678.208	235.304	0.040	0.066
-677.193	74.336	-0.186	-0.195
-676.178	12.748	0.215	-0.166
-675.164	-23.700	-0.167	-0.100
-674.149	29.029	0.099	-0.084
-673.135	346.057	0.074	-0.147
-672.120	-120.741	-0.117	-0.020
-671.105	-200.000	-0.015	-0.104
-670.091	-100.197	0.259	-0.065
-669.076	-3.931	0.155	-0.108
-668.062	-200.000	0.007	-0.130
-667.047	310.214	-0.203	0.380
-666.032	294.002	-0.058	-0.106
-665.018	-8.141	-0.119	0.080
-664.003	-137.919	-0.034	0.004
-662.989	800.000	0.009	-0.032
-661.974	-161.454	-0.243	-0.013
-660.959	51.086	0.285	0.270
-659.945	-20.958	-0.173	0.106
-658.930	-200.000	-0.035	-0.220
-657.916	-12.089	0.171	-0.112
-656.901	-11.578	0.052	0.034
-655.886	138.548	-0.121	0.158
-654.872	151.180	-0.235	-0.320
-653.857	17.108	-0.266	0.211
-652.843	-200.000	0.080	0.358
-651.828	-200.000	-0.016	-0.088
-650.814	800.000	-0.062	-0.268
-649.799	233.251	-0.104	0.171
-648.784	-29.271	-0.243	0.139
-647.770	105.474	-0.213	0.251
-646.755	176.334	0.056	-0.081
-645.741	86.085	0.076	0.084
-644.726	-56.091	0.187	-0.083
-643.711	-113.625	-0.340	-0.066
-642.697	-68.575	0.246	-0.095
-641.682	-192.123	0.303	0.003
-640.668	53.158	-0.203	-0.194
-639.653	800.000	-0.059	0.170
-638.638	230.501	0.097	-0.158
-637.624	180.332	-0.129	0.190
-636.609	49.125	0.330	0.310
-635.595	187.363	-0.091	0.136
-634.580	95.779	-0.212	-0.243
-633.565	46.454	-0.128	0.118
-632.551	352.283	-0.044	-0.086
-631.536	-77.219	-0.224	0.078
-630.522	-130.156	-0.340	0.046
-629.507	-83.158	-0.118	0.038
-628.492	-200.000	0.015	0.559
-627.478	-200.000	0.018	0.215
-626.463	-1.184	0.177	-0.125
-625.449	-155.858	-0.402	0.026
-624.434	212.266	0.031	-0.048
-623.419	-200.000	-0.012	-0.073
-622.405	87.584	0.253	-0.280
-621.390	210.074	0.126	-0.198
-620.376	-46.671	0.213	-0.105
-619.361	800.000	-0.071	-0.219
-618.346	136.392	0.235	-0.306
-617.332	-165.342	0.377	-0.017
-616.317	2.728	-0.286	0.207
-615.303	-98.220	-0.272	-0.070
-614.288	-200.000	0.007	0.239
-613.273	800.000	0.092	-0.279
-612.259	-170.616	-0.308	-0.011
-611.244	-200.000	-0.005	-0.080
-610.230	-133.133	-0.213	0.027
-609.215	800.000	-0.026	-0.115
-608.201	-63.413	-0.216	0.089
-607.186	86.680	-0.378	-0.417
-606.171	335.430	0.156	-0.303
-605.157	-0.654	-0.329	-0.233
-604.142	-200.000	-0.001	-0.139
-603.128	17.985	-0.087	-0.069
-602.113	-60.160	0.169	0.072
-601.098	-200.000	-0.005	-0.054
-600.084	133.039	0.296	0.382
-599.069	193.709	-0.050	-0.075
-598.055	6.832	-0.177	-0.132
-597.040	10.841	-0.166	-0.126
-596.025	82.063	0.120	0.129
-595.011	-86.933	0.033	-0.010
-593.996	314.248	-0.143	-0.268
-592.982	53.503	0.165	-0.158
-591.967	800.000	0.122	-0.359
-590.952	32.482	0.260	-0.224
-589.938	-112.204	0.309	0.062
-588.923	35.294	-0.228	0.200
-587.909	-75.923	0.338	0.119
-586.894	-91.379	-0.121	-0.035
-585.879	29.634	0.328	0.279
-584.865	-7.294	0.215	-0.145
-583.850	221.993	0.153	0.246
-582.836	-125.053	-0.177	-0.027
-581.821	-100.981	0.267	-0.065
-580.806	-200.000	-0.019	-0.173
-579.792	345.289	0.107	0.211
-578.777	233.770	0.154	-0.252
-577.763	-22.235	-0.147	-0.089
-576.748	-3.587	0.373	-0.259
-575.733	-176.838	-0.272	0.007
-574.719	243.778	0.116	-0.194
-573.704	-66.638	-0.345	-0.136
-572.690	-185.403	-0.266	-0.004
-571.675	-200.000	-0.048	0.258
-570.661	20.793	-0.141	-0.114
-569.646	322.341	-0.141	-0.268
-568.631	465.568	0.025	-0.055
-567.617	10.564	0.042	-0.032
-566.602	800.000	-0.070	0.206
-565.588	-96.552	0.310	-0.082
-564.573	800.000	-0.059	-0.205
-563.558	41.569	-0.305	0.275
-562.544	-41.458	-0.130	-0.067
-561.529	561.217	-0.075	0.182
-560.515	65.375	0.018	-0.018
-559.500	800.000	-0.051	0.165
-558.485	-200.000	0.063	0.305
-557.471	-200.000	0.000	-0.049
-556.456	-91.338	-0.384	-0.109
-555.442	-154.845	-0.283	-0.019
-554.427	-80.277	0.189	0.063
-553.412	-154.831	0.164	-0.011
-552.398	-200.000	0.024	0.140
-551.383	-31.257	-0.049	0.028
-550.369	-200.000	-0.022	0.208
-549.354	121.154	0.204	-0.253
-548.339	-200.000	0.000	-0.170
-547.325	502.758	-0.057	-0.131
-546.310	-19.824	0.062	-0.038
-545.296	4.546	0.237	0.173
-544.281	61.417	0.113	-0.112
-543.266	-15.420	-0.141	0.090
-542.252	-54.464	0.094	-0.043
-541.237	321.187	0.109	-0.207
-540.223	77.420	-0.148	0.157
-539.208	-113.504	-0.190	0.037
-538.193	371.090	0.041	-0.082
-537.179	86.170	0.114	0.125
-536.164	30.397	-0.185	-0.158
-535.150	-18.818	-0.253	-0.157
-534.135	-171.938	0.208	-0.007
-533.121	192.501	0.208	0.312
-532.106	-200.000	-0.023	0.102
-531.091	-200.000	-0.059	-0.438
-530.077	-200.000	-0.051	-0.262
-529.062	-88.491	-0.086	0.026
-528.048	-200.000	-0.024	0.359
-527.033	-92.925	-0.074	0.021
-526.018	241.642	0.094	-0.157
-525.004	-200.000	-0.018	0.134
-523.989	-200.000	0.058	0.288
-522.975	33.697	-0.046	-0.040
-521.960	-117.328	0.068	-0.012
-520.945	-200.000	0.252	-0.000
-519.931	-98.420	0.286	0.073
-518.916	-113.292	0.170	0.033
-517.902	-103.783	-0.081	-0.019
-516.887	46.361	0.053	-0.049
-515.872	11.027	-0.076	0.058
-514.858	-78.781	0.072	-0.024
-513.843	-129.043	0.283	0.039
-512.829	502.572	0.100	-0.229
-511.814	-14.741	0.091	-0.058
-510.799	80.955	-0.051	0.055
-509.785	214.524	-0.125	0.198
-508.770	-40.719	0.139	-0.072
-507.756	39.393	-0.122	0.109
-506.741	552.074	-0.202	-0.483
-505.726	-85.507	0.122	-0.038
-504.712	258.808	-0.108	-0.185
-503.697	-76.855	-0.049	-0.017
-502.683	21.893	-0.222	-0.180
-501.668	800.000	0.064	-0.227
-500.653	-33.905	-0.162	-0.089
-499.639	-78.166	-0.280	-0.096
-498.624	10.281	-0.192	-0.145
-497.610	-200.000	0.017	-0.089
-496.595	143.147	-0.075	0.099
-495.581	-68.242	-0.494	0.191
-494.566	-200.000	-0.006	0.055
-493.551	-127.962	-0.244	0.035
-492.537	-48.052	-0.214	0.103
-491.522	84.756	0.320	0.348
-490.508	-64.103	0.449	0.182
-489.493	-135.054	-0.250	0.030
-488.478	800.000	0.033	0.120
-487.464	-109.038	0.197	-0.042
-486.449	603.463	-0.060	0.149
-485.435	-200.000	0.026	-0.165
-484.420	-200.000	0.071	-0.378
-483.405	800.000	-0.112	-0.441
-482.391	-1.813	-0.172	0.121
-481.376	-86.397	-0.045	0.014
-480.362	800.000	0.033	0.093
-479.347	11.141	0.128	-0.097
-478.332	24.666	-0.093	-0.077
-477.318	800.000	0.080	-0.299
-476.303	277.862	0.120	0.213
-475.289	476.357	-0.047	0.105
-474.274	-182.135	0.345	0.006
-473.259	-200.000	0.062	-0.280
-472.245	-200.000	-0.049	-0.303
-471.230	-17.257	-0.221	-0.138
-470.216	-134.553	0.104	-0.013
-469.201	-9.362	0.220	-0.146
-468.186	-67.979	-0.115	-0.045
-467.172	800.000	0.063	0.184
-466.157	-113.566	-0.018	-0.004
-465.143	478.927	0.042	-0.094
-464.128	-54.825	-0.188	0.084
-463.113	-200.000	-0.024	-0.167
-462.099	-32.421	-0.179	0.099
-461.084	1.365	-0.195	0.139
-460.070	-200.000	-0.001	0.235
-459.055	75.960	0.259	0.272
-458.040	-200.000	0.057	-0.355
-457.026	-49.507	-0.294	-0.139
-456.011	-200.000	-0.019	0.246
-454.997	194.436	0.129	0.195
-453.982	800.000	-0.085	0.256
-452.968	-19.234	-0.282	0.174
-451.953	153.989	-0.014	-0.019
-450.938	800.000	-0.102	-0.287
-449.924	377.469	0.062	0.126
-448.909	-102.164	0.306	-0.073
-447.895	800.000	0.064	0.271
-446.880	26.742	-0.311	0.258
-445.865	333.083	0.078	0.150
-444.851	-108.327	0.061	0.013
-443.836	-57.905	0.339	0.147
-442.822	65.646	-0.076	-0.076
-441.807	249.239	-0.048	0.080
-440.792	-115.651	0.239	0.045
-439.778	-112.319	0.063	0.013
-438.763	-200.000	0.047	-0.000
-437.749	-142.854	0.101	-0.010
-436.734	-4.752	0.057	-0.039
-435.719	-89.239	-0.183	-0.054
-434.705	-200.000	-0.052	0.295
-433.690	217.923	-0.120	-0.191
-432.676	-167.337	-0.143	-0.006
-431.661	-0.223	-0.202	-0.142
-430.646	788.483	0.003	-0.008
-429.632	790.045	-0.035	0.096
-428.617	90.973	0.093	0.103
-427.603	125.734	0.091	0.114
-426.588	-172.162	-0.189	0.006
-425.573	-187.105	-0.357	-0.005
-424.559	-200.000	0.050	0.384
-423.544	129.289	-0.208	-0.264
-422.530	-59.064	0.120	-0.051
-421.515	-102.089	0.087	0.021
-420.500	79.438	0.028	-0.030
-419.486	527.856	-0.109	-0.254
-418.471	-60.160	0.146	-0.062
-417.457	-72.069	-0.250	-0.092
-416.442	-122.874	0.150	-0.024
-415.428	455.764	-0.088	-0.193
-414.413	39.506	-0.182	-0.161
-413.398	151.319	-0.097	-0.131
-412.384	72.998	-0.098	-0.102
-411.369	28.047	-0.171	-0.143
-410.355	136.588	-0.013	-0.017
-409.340	-200.000	0.008	-0.274
-408.325	800.000	-0.060	-0.242
-407.311	-200.000	0.006	0.327
-406.296	26.925	-0.242	-0.201
-405.282	55.101	0.136	0.131
-404.267	-40.204	0.208	0.107
-403.252	-200.000	0.055	0.376
-402.238	130.804	-0.164	-0.209
-401.223	800.000	-0.051	-0.162
-400.209	398.433	-0.079	0.163
-399.194	38.947	-0.047	-0.042
-398.179	43.375	0.169	0.153
-397.165	-27.545	-0.242	0.139
-396.150	800.000	0.061	-0.228
-395.136	-167.805	-0.113	-0.004
-394.121	-10.476	0.302	-0.198
-393.106	-200.000	-0.011	-0.093
-392.092	-200.000	0.445	-0.000
-391.077	-86.534	0.170	0.052
-390.063	-76.120	-0.136	0.047
-389.048	-198.206	0.085	0.000
-388.033	-200.000	-0.032	0.271
-387.019	228.305	-0.126	0.203
-386.004	-200.000	0.013	0.271
-384.990	800.000	0.025	0.081
-383.975	-9.795	0.238	0.157
-382.960	-155.779	0.327	0.021
-381.946	-200.000	0.055	-0.272
-380.931	-48.376	-0.164	-0.078
-379.917	-46.080	0.216	0.105
-378.902	800.000	0.042	-0.120
-377.888	800.000	-0.059	-0.210
-376.873	502.497	-0.046	0.105
-375.858	-3.624	-0.162	0.111
-374.844	-200.000	-0.013	0.175
-373.829	-56.913	0.182	0.080
-372.815	27.347	0.077	0.064
-371.800	-47.540	0.355	-0.171
-370.785	-66.295	-0.193	0.076
-369.771	-93.007	-0.051	0.014
-368.756	800.000	0.099	0.271
-367.742	-137.196	0.097	-0.011
-366.727	189.817	-0.130	-0.193
-365.712	-146.986	0.074	0.006
-364.698	494.574	-0.077	-0.176
-363.683	-73.392	0.532	-0.192
-362.669	-42.041	-0.041	0.021
-361.654	141.410	0.019	-0.025
-360.639	-58.731	0.103	-0.044
-359.625	57.343	0.213	0.206
-358.610	-105.851	-0.113	-0.025
-357.596	-23.179	-0.199	0.118
-356.581	-200.000	-0.023	-0.133
-355.566	-40.344	0.302	-0.155
-354.552	-200.000	-0.060	-0.385
-353.537	-60.843	-0.047	0.020
-352.523	23.443	0.036	0.030
-351.508	253.815	-0.104	0.176
-350.493	800.000	-0.003	-0.010
-349.479	-29.301	-0.221	-0.125
-348.464	-19.630	-0.361	0.221
-347.450	-200.000	0.025	0.158
-346.435	-200.000	-0.004	-0.312
-345.420	-102.713	0.390	0.092
-344.406	-29.638	-0.150	0.085
-343.391	86.291	0.100	0.109
-342.377	-157.632	0.358	0.021
-341.362	-64.199	-0.093	0.038
-340.348	-200.000	0.019	-0.310
-339.333	392.774	-0.085	0.175
-338.318	-30.618	-0.315	0.176
-337.304	526.441	-0.076	0.176
-336.289	-200.000	-0.034	0.278
-335.275	-160.324	-0.172	0.009
-334.260	105.882	0.161	-0.188
-333.245	-183.010	0.317	0.006
-332.231	-200.000	0.021	-0.227
-331.216	0.489	0.362	-0.255
-330.202	-120.636	0.084	-0.014
-329.187	49.197	-0.209	0.194
-328.172	-168.276	-0.338	-0.013
-327.158	-40.720	-0.236	-0.121
-326.143	194.434	0.069	-0.104
-325.129	415.822	0.139	-0.292
-324.114	-160.370	0.122	-0.006
-323.099	8.093	0.103	-0.076
-322.085	-41.655	-0.181	-0.092
-321.070	-158.309	0.081	-0.005
-320.056	800.000	-0.118	0.401
-319.041	-5.730	0.251	-0.170
-318.026	-119.564	0.184	0.032
-317.012	-70.963	-0.345	0.128
-315.997	-200.000	0.062	0.411
-314.983	57.665	-0.234	0.226
-313.968	-41.800	-0.260	-0.132
-312.953	83.457	-0.099	-0.106
-311.939	169.132	0.008	0.011
-310.924	17.622	0.137	0.107
-309.910	12.499	-0.148	0.112
-308.895	-73.474	-0.129	-0.046
-307.880	-200.000	-0.039	0.219
-306.866	54.640	0.080	-0.077
-305.851	-108.245	0.136	0.029
-304.837	800.000	0.049	-0.174
-303.822	-69.057	0.182	0.069
-302.807	-95.839	0.098	-0.026
-301.793	-3.214	-0.060	-0.041
-300.778	675.914	0.108	-0.276
-299.764	-135.199	-0.386	0.046
-298.749	-200.000	0.062	0.311
-297.735	-7.820	-0.015	0.010
-296.720	-200.000	-0.030	-0.195
-295.705	63.621	0.201	-0.199
-294.691	17.760	0.220	0.173
-293.676	68.478	0.160	-0.161
-292.662	800.000	-0.037	0.107
-291.647	108.198	-0.233	0.274
-290.632	-126.531	0.135	-0.020
-289.618	-200.000	0.016	-0.248
-288.603	800.000	0.104	0.368
-287.589	-200.000	0.047	0.233
-286.574	321.242	-0.257	0.483
-285.559	105.983	-0.140	-0.163
-284.545	118.025	0.211	-0.257
-283.530	-200.000	0.007	0.117
-282.516	-200.000	0.013	0.077
-281.501	-134.832	0.235	0.028
-280.486	800.000	-0.080	-0.307
-279.472	323.254	0.068	0.128
-278.457	-200.000	0.011	0.123
-277.443	303.857	0.210	-0.384
-276.428	-22.246	-0.300	0.179
-275.413	-200.000	-0.004	-0.031
-274.399	-115.269	-0.280	-0.052
-273.384	-149.737	-0.116	0.009
-272.370	34.249	-0.254	-0.218
-271.355	518.241	-0.109	0.252
-270.340	-200.000	0.012	-0.105
-269.326	800.000	-0.113	-0.457
-268.311	281.568	-0.048	0.085
-267.297	397.663	0.039	0.081
-266.282	-200.000	-0.080	-0.496
-265.267	-108.981	-0.062	0.013
-264.253	75.250	-0.225	0.234
-263.238	-32.792	0.219	-0.120
-262.224	-79.521	-0.127	0.042
-261.209	-147.849	0.505	-0.042
-260.195	-200.000	-0.020	0.400
-259.180	-63.341	0.379	-0.154
-258.165	-200.000	-0.007	0.121
-257.151	800.000	0.107	0.347
-256.136	459.685	-0.035	0.078
-255.122	-33.397	-0.077	0.042
-254.107	800.000	-0.016	0.057
-253.092	268.284	0.148	0.255
-252.078	542.207	0.023	0.054
-251.063	-136.201	-0.290	-0.033
-250.049	0.490	0.376	0.265
-249.034	-17.567	-0.237	0.147
-248.019	719.009	0.094	0.247
-247.005	103.967	0.172	-0.199
-245.990	-112.022	-0.105	-0.021
-244.976	499.488	0.107	-0.243
-243.961	636.032	-0.075	-0.189
-242.946	125.180	0.058	0.072
-241.932	63.350	0.180	-0.177
-240.917	-174.774	0.201	-0.006
-239.903	69.516	0.064	-0.065
-238.888	-200.000	0.092	0.524
-237.873	-2.564	0.331	-0.228
-236.859	185.206	0.045	0.066
-235.844	-57.178	-0.169	-0.073
-234.830	-51.065	0.225	-0.104
-233.815	-57.057	-0.191	0.083
-232.800	-89.392	0.098	-0.028
-231.786	-143.794	0.449	-0.042
-230.771	33.333	0.261	0.223
-229.757	-135.190	0.038	-0.005
-228.742	-107.330	-0.232	0.050
-227.727	-23.497	-0.096	0.057
-226.713	-30.205	-0.122	-0.068
-225.698	720.792	0.064	-0.169
-224.684	-3.770	-0.100	0.068
-223.669	-17.398	-0.382	0.237
-222.655	-103.759	-0.306	0.071
-221.640	-78.076	0.248	0.084
-220.625	-168.594	0.090	-0.003
-219.611	310.638	0.017	0.032
-218.596	800.000	0.126	0.419
-217.582	131.952	0.033	-0.042
-216.567	-81.891	-0.170	-0.055
-215.552	17.908	-0.060	0.047
-214.538	121.168	0.171	-0.209
-213.523	44.767	0.164	-0.149
-212.509	-15.127	-0.279	-0.176
-211.494	-169.900	-0.171	0.006
-210.479	-200.000	0.030	0.273
-209.465	739.753	-0.106	0.280
-208.450	-99.669	0.218	-0.054
-207.436	-18.152	-0.368	0.227
-206.421	186.452	0.162	-0.238
-205.406	-13.540	-0.149	0.095
-204.392	-200.000	0.011	0.287
-203.377	465.890	-0.032	-0.070
-202.363	-200.000	0.008	0.077
-201.348	696.693	-0.126	0.325
-200.333	-41.054	0.239	0.122
-199.319	-114.505	-0.147	-0.028
-198.304	249.375	-0.148	-0.246
-197.290	-46.095	0.058	0.028
-196.275	368.271	0.067	0.134
-195.260	67.604	0.079	0.080
-194.246	138.309	0.161	-0.207
-193.231	195.091	-0.133	-0.198
-192.217	-25.024	0.127	0.074
-191.202	227.159	-0.086	0.138
-190.187	-99.835	-0.498	-0.122
-189.173	-27.711	0.232	-0.132
-188.158	-18.566	0.430	-0.264
-187.144	800.000	0.116	0.377
-186.129	-61.048	0.152	0.063
-185.114	91.357	-0.248	0.273
-184.100	-150.824	0.095	-0.007
-183.085	99.361	0.071	0.081
-182.071	-25.573	0.058	-0.034
-181.056	-167.900	-0.202	-0.008
-180.042	-200.000	-0.021	-0.246
-179.027	130.121	0.145	-0.182
-178.012	-66.961	-0.213	0.083
-176.998	567.471	0.053	-0.127
-175.983	128.479	-0.117	-0.146
-174.969	-103.606	0.087	-0.020
-173.954	-200.000	0.043	0.205
-172.939	-200.000	0.010	0.085
-171.925	-200.000	-0.047	0.274
-170.910	206.452	-0.018	0.028
-169.896	-200.000	-0.000	-0.095
-168.881	-10.316	-0.208	-0.136
-167.866	-22.255	0.114	0.068
-166.852	-200.000	0.004	0.281
-165.837	-125.918	-0.343	-0.051
-164.823	56.473	0.144	0.138
-163.808	32.288	-0.229	-0.194
-162.793	468.110	0.069	-0.151
-161.779	-200.000	0.029	0.134
-160.764	-180.041	0.409	-0.009
-159.750	-200.000	0.033	-0.171
-158.735	-200.000	-0.002	-0.150
-157.720	-118.229	0.167	0.029
-156.706	-98.446	0.164	-0.041
-155.691	-4.389	-0.238	-0.161
-154.677	278.151	0.065	-0.113
-153.662	172.330	0.132	0.186
-152.647	58.660	0.131	0.126
-151.633	97.550	0.103	-0.116
-150.618	-200.000	-0.020	0.238
-149.604	170.614	-0.025	-0.035
-148.589	-152.480	0.311	0.022
-147.574	293.849	0.040	0.071
-146.560	800.000	0.105	0.314
-145.545	-95.832	0.219	-0.057
-144.531	-22.811	0.282	0.167
-143.516	475.484	-0.159	-0.352
-142.502	25.545	-0.074	-0.060
-141.487	-200.000	0.028	0.195
-140.472	-173.488	-0.208	-0.006
-139.458	279.322	-0.046	-0.081
-138.443	80.552	-0.201	-0.212
-137.429	800.000	-0.048	-0.197
-136.414	44.438	0.069	-0.062
-135.399	800.000	0.063	0.229
-134.385	546.408	-0.124	-0.291
-133.370	800.000	-0.071	0.252
-132.356	51.915	0.150	0.140
-131.341	-73.435	-0.157	0.056
-130.326	-36.314	0.297	0.157
-129.312	420.669	0.069	0.145
-128.297	32.656	0.153	0.130
-127.283	38.654	0.205	0.179
-126.268	-43.682	-0.242	-0.119
-125.253	-190.432	-0.241	0.003
-124.239	-139.556	0.076	-0.008
-123.224	151.743	0.143	0.192
-122.210	-126.213	0.059	-0.009
-121.195	-80.038	0.345	0.114
