DTS Sentinel unit serial number:	SN413079Multiplexer serial number:	ORYXHardware model number:	OX4-SRSoftware version number:	ORYX F/W v4.00 Oryx Data Collector v3.7.2.0data status	okinstallation	princeton_trtdifferential loss correction	single-endedforward channel	channel 1reverse channel	N/Adate	2019/09/11time	12:48:11forward acquisition time	60.00reverse acquisition time	0.00gamma	496.2192k internal	0.2294k external	0.2294temperature offset calibration	0.9944default loss term (dB/km)	0.3790temperature slope calibration	1.0000multiplexer offset coefficient	1.0000multiplexer slope coefficient	1.0000fibre end	0.00T internal ref (°C)	41.12T ext. ref 1 (°C)	0.24T ext. ref 2 (°C)	38.90length (m)	temperature (°C)	Stokes	anti-Stokes-747.200	-120.544	0.385	0.067
-746.185	191.651	-0.097	0.150
-745.171	538.003	0.070	0.170
-744.156	-119.970	-0.131	0.023
-743.142	219.135	0.087	-0.142
-742.127	-200.000	-0.028	-0.147
-741.112	-85.658	-0.159	0.050
-740.098	-200.000	-0.013	0.265
-739.083	-27.911	0.202	0.120
-738.069	-200.000	0.032	0.339
-737.054	-116.829	0.136	0.025
-736.039	-105.891	-0.278	-0.064
-735.025	800.000	0.029	0.099
-734.010	-23.003	-0.146	-0.090
-732.996	227.080	-0.175	-0.291
-731.981	101.901	-0.169	-0.202
-730.966	800.000	-0.016	-0.053
-729.952	-200.000	-0.039	0.427
-728.937	800.000	-0.037	0.138
-727.923	-125.745	-0.176	-0.027
-726.908	-2.365	-0.129	-0.092
-725.894	15.983	-0.177	-0.143
-724.879	33.487	-0.328	-0.291
-723.864	188.690	-0.059	-0.090
-722.850	-200.000	-0.021	0.425
-721.835	-91.808	-0.251	0.073
-720.821	-200.000	-0.017	-0.177
-719.806	-200.000	0.017	-0.249
-718.791	517.453	-0.045	-0.108
-717.777	-147.051	0.067	-0.006
-716.762	559.507	-0.121	-0.298
-715.748	800.000	0.031	-0.095
-714.733	-200.000	0.060	0.327
-713.718	38.532	-0.191	-0.174
-712.704	731.520	-0.114	-0.311
-711.689	-191.607	-0.064	-0.001
-710.675	800.000	0.033	-0.145
-709.660	454.481	0.038	0.087
-708.645	156.553	-0.106	0.150
-707.631	800.000	0.113	0.349
-706.616	-200.000	-0.029	0.185
-705.602	95.270	-0.223	0.260
-704.587	211.973	0.107	0.172
-703.572	800.000	-0.074	-0.277
-702.558	-200.000	-0.019	-0.361
-701.543	-25.115	-0.017	-0.010
-700.529	33.542	-0.322	-0.286
-699.514	-107.745	-0.265	-0.059
-698.499	119.242	-0.254	-0.320
-697.485	800.000	-0.034	0.141
-696.470	29.238	0.018	0.016
-695.456	-105.960	-0.205	0.047
-694.441	105.694	0.202	-0.243
-693.426	217.797	0.104	-0.169
-692.412	-136.412	0.107	-0.013
-691.397	399.212	-0.032	0.067
-690.383	-200.000	0.034	0.223
-689.368	-200.000	0.016	0.114
-688.354	71.319	-0.087	-0.092
-687.339	41.322	0.240	-0.221
-686.324	-104.870	-0.075	-0.018
-685.310	-0.216	-0.208	-0.151
-684.295	800.000	-0.080	-0.248
-683.281	213.869	-0.082	-0.133
-682.266	0.359	-0.128	-0.093
-681.251	-200.000	-0.014	-0.086
-680.237	-97.475	-0.338	0.090
-679.222	-200.000	-0.003	0.159
-678.208	107.227	0.055	-0.066
-677.193	-200.000	0.037	0.193
-676.178	800.000	0.013	-0.046
-675.164	-14.933	0.166	0.109
-674.149	233.812	-0.084	0.140
-673.135	334.076	-0.117	-0.230
-672.120	-69.851	0.065	-0.025
-671.105	-83.675	-0.208	-0.068
-670.091	-200.000	-0.010	-0.063
-669.076	-152.933	0.203	-0.015
-668.062	251.717	-0.129	-0.224
-667.047	-41.530	0.128	0.067
-666.032	143.353	0.065	0.088
-665.018	-200.000	-0.018	0.297
-664.003	511.279	0.078	-0.186
-662.989	-200.000	0.033	-0.254
-661.974	-134.098	-0.248	0.031
-660.959	1.631	-0.176	-0.129
-659.945	800.000	0.127	-0.414
-658.930	-200.000	-0.028	-0.160
-657.916	-97.386	0.206	0.055
-656.901	207.211	-0.200	-0.318
-655.886	-188.300	-0.037	-0.000
-654.872	339.550	0.033	0.065
-653.857	-31.372	0.046	0.026
-652.843	34.491	-0.203	-0.181
-651.828	-28.948	-0.137	0.080
-650.814	800.000	0.035	0.113
-649.799	11.285	0.129	0.101
-648.784	-35.439	-0.103	-0.057
-647.770	314.811	-0.115	-0.221
-646.755	-200.000	-0.058	-0.335
-645.741	-125.343	0.312	0.048
-644.726	692.569	-0.092	-0.247
-643.711	-112.383	-0.080	-0.016
-642.697	32.113	0.216	0.190
-641.682	30.625	0.026	0.022
-640.668	-200.000	0.004	-0.098
-639.653	800.000	-0.019	0.066
-638.638	-200.000	-0.027	0.181
-637.624	-12.187	0.113	0.075
-636.609	95.648	-0.067	0.078
-635.595	800.000	-0.037	-0.154
-634.580	800.000	0.073	0.209
-633.565	-104.391	0.179	0.042
-632.551	-0.104	0.151	-0.110
-631.536	-200.000	-0.033	-0.290
-630.522	-200.000	0.008	-0.144
-629.507	159.880	0.141	-0.200
-628.492	-96.436	0.187	0.050
-627.478	275.153	-0.175	-0.317
-626.463	800.000	-0.101	-0.350
-625.449	-50.609	0.319	-0.153
-624.434	-162.784	0.153	-0.008
-623.419	-128.045	-0.080	0.012
-622.405	-12.812	0.076	0.050
-621.390	-5.977	-0.077	0.053
-620.376	-96.749	0.103	0.028
-619.361	-36.068	-0.224	0.123
-618.346	317.805	0.211	-0.406
-617.332	-66.678	0.067	-0.027
-616.317	-86.337	0.098	0.031
-615.303	-200.000	-0.008	0.124
-614.288	-200.000	-0.066	0.316
-613.273	-200.000	0.012	0.129
-612.259	89.066	-0.145	-0.164
-611.244	-155.554	0.277	-0.018
-610.230	23.848	0.187	-0.157
-609.215	-74.139	0.012	-0.004
-608.201	68.557	0.101	0.105
-607.186	67.585	0.206	0.214
-606.171	476.338	-0.190	0.436
-605.157	58.568	-0.192	0.191
-604.142	261.532	0.144	0.253
-603.128	-134.568	0.416	0.052
-602.113	751.994	0.034	-0.092
-601.098	154.574	-0.232	0.323
-600.084	-21.799	0.154	0.095
-599.069	-200.000	-0.009	-0.058
-598.055	121.348	-0.168	0.213
-597.040	-200.000	0.071	-0.319
-596.025	234.723	-0.087	-0.146
-595.011	80.174	-0.099	-0.108
-593.996	108.269	-0.224	-0.272
-592.982	-164.491	0.204	0.009
-591.967	51.130	-0.125	-0.121
-590.952	-200.000	-0.046	-0.253
-589.938	58.784	0.336	-0.335
-588.923	-200.000	-0.000	-0.155
-587.909	523.766	-0.120	-0.287
-586.894	-200.000	-0.009	-0.288
-585.879	-36.985	-0.087	0.048
-584.865	266.464	0.056	0.099
-583.850	-91.951	0.397	-0.114
-582.836	800.000	-0.104	-0.428
-581.821	-200.000	-0.036	-0.230
-580.806	-200.000	0.034	0.344
-579.792	-146.141	-0.231	-0.021
-578.777	-2.143	0.260	-0.186
-577.763	47.209	0.068	-0.064
-576.748	267.582	-0.123	0.219
-575.733	11.914	-0.257	-0.201
-574.719	-59.801	-0.246	0.107
-573.704	-112.875	0.133	0.027
-572.690	800.000	0.055	-0.181
-571.675	-200.000	-0.000	0.198
-570.661	40.398	0.182	0.166
-569.646	395.047	-0.029	0.062
-568.631	47.830	0.024	0.023
-567.617	-169.656	-0.200	0.007
-566.602	122.239	-0.027	-0.034
-565.588	-200.000	0.005	-0.358
-564.573	-200.000	0.034	0.185
-563.558	-186.633	0.203	0.003
-562.544	-200.000	-0.006	0.433
-561.529	800.000	0.065	-0.190
-560.515	-60.233	-0.239	-0.103
-559.500	507.103	-0.090	-0.213
-558.485	65.816	-0.130	-0.134
-557.471	12.410	0.168	0.131
-556.456	327.971	0.115	0.225
-555.442	-23.638	-0.300	-0.183
-554.427	800.000	0.070	0.259
-553.412	24.766	-0.150	0.126
-552.398	60.815	0.214	-0.215
-551.383	389.570	0.052	-0.108
-550.369	-32.245	0.238	0.135
-549.354	800.000	0.072	-0.246
-548.339	-200.000	0.051	0.293
-547.325	42.769	-0.073	0.067
-546.310	-200.000	0.010	0.259
-545.296	800.000	-0.094	-0.264
-544.281	-50.763	-0.103	0.049
-543.266	-200.000	-0.001	0.397
-542.252	-180.878	-0.226	-0.005
-541.237	-41.492	0.193	0.101
-540.223	-142.455	-0.247	0.025
-539.208	-89.454	-0.150	-0.045
-538.193	-116.698	0.200	0.037
-537.179	246.104	-0.174	0.298
-536.164	20.586	-0.120	-0.099
-535.150	-200.000	-0.022	-0.122
-534.135	646.435	-0.134	-0.348
-533.121	-132.301	0.160	-0.021
-532.106	-200.000	0.018	0.502
-531.091	-200.000	0.035	0.258
-530.077	-200.000	0.047	-0.224
-529.062	-77.495	0.137	-0.048
-528.048	-125.464	0.308	-0.048
-527.033	34.501	0.135	0.120
-526.018	-7.194	0.268	0.184
-525.004	-156.355	-0.181	-0.011
-523.989	58.672	0.179	0.179
-522.975	-131.744	0.215	0.029
-521.960	-81.121	0.097	-0.032
-520.945	-133.610	0.161	0.020
-519.931	-133.285	0.272	-0.035
-518.916	-79.518	-0.132	0.045
-517.902	800.000	-0.063	0.239
-516.887	-200.000	0.059	0.342
-515.872	306.591	-0.132	0.250
-514.858	-157.524	0.155	-0.009
-513.843	800.000	0.066	-0.219
-512.829	-200.000	-0.007	-0.239
-511.814	-114.176	-0.392	-0.077
-510.799	800.000	0.042	0.134
-509.785	-89.134	-0.209	0.063
-508.770	233.644	0.096	-0.160
-507.756	-200.000	-0.119	0.565
-506.741	-5.873	-0.329	-0.228
-505.726	-77.218	0.173	-0.061
-504.712	35.048	0.150	-0.133
-503.697	167.512	-0.156	0.224
-502.683	272.994	0.088	0.157
-501.668	270.847	-0.077	0.137
-500.653	-200.000	-0.009	-0.133
-499.639	786.170	-0.164	0.454
-498.624	17.485	-0.172	0.139
-497.610	-200.000	0.043	0.441
-496.595	-76.582	-0.124	-0.044
-495.581	-200.000	0.048	-0.304
-494.566	-132.483	0.047	0.006
-493.551	-76.451	-0.061	-0.022
-492.537	14.339	-0.071	0.056
-491.522	800.000	-0.062	0.178
-490.508	353.464	0.142	0.285
-489.493	-112.167	0.115	-0.023
-488.478	125.681	-0.161	0.206
-487.464	107.825	-0.310	-0.374
-486.449	776.915	-0.029	-0.081
-485.435	-28.130	-0.355	0.207
-484.420	-200.000	-0.008	0.167
-483.405	10.288	0.108	-0.083
-482.391	-81.047	0.265	-0.089
-481.376	-10.264	-0.157	0.106
-480.362	-200.000	-0.030	-0.163
-479.347	-73.034	-0.228	0.085
-478.332	-9.217	-0.133	0.090
-477.318	-68.031	-0.153	0.060
-476.303	-24.495	-0.054	-0.033
-475.289	-200.000	-0.053	-0.305
-474.274	31.971	-0.122	0.106
-473.259	-25.871	0.044	-0.026
-472.245	-22.696	0.206	-0.126
-471.230	49.332	0.051	-0.049
-470.216	42.061	-0.133	-0.122
-469.201	-200.000	-0.046	0.310
-468.186	51.368	-0.234	0.224
-467.172	259.029	-0.142	0.247
-466.157	-14.445	0.179	0.116
-465.143	-1.785	-0.151	0.108
-464.128	380.332	-0.006	0.013
-463.113	-52.241	0.194	-0.091
-462.099	-200.000	-0.032	0.281
-461.084	73.963	0.086	-0.091
-460.070	-54.021	0.295	0.136
-459.055	800.000	0.035	-0.143
-458.040	-107.797	0.249	0.055
-457.026	220.849	-0.120	-0.194
-456.011	178.128	0.107	0.158
-454.997	-113.789	0.067	0.013
-453.982	-200.000	-0.001	0.158
-452.968	-33.170	0.049	0.027
-451.953	-36.004	0.180	0.098
-450.938	259.499	-0.054	-0.094
-449.924	36.247	0.141	0.125
-448.909	800.000	0.085	0.341
-447.895	290.269	0.066	-0.121
-446.880	62.454	0.049	-0.050
-445.865	473.883	-0.136	0.309
-444.851	32.958	-0.253	-0.222
-443.836	-13.134	-0.167	0.110
-442.822	-156.020	0.076	0.005
-441.807	46.766	0.005	-0.004
-440.792	-14.604	-0.096	-0.062
-439.778	-43.342	0.417	-0.213
-438.763	-86.925	-0.066	-0.020
-437.749	-115.176	0.139	-0.027
-436.734	75.261	0.208	0.221
-435.719	-164.395	-0.137	0.006
-434.705	800.000	0.015	0.046
-433.690	13.494	0.209	-0.164
-432.676	425.876	0.030	-0.064
-431.661	-147.375	-0.248	-0.021
-430.646	-30.957	0.178	0.101
-429.632	800.000	-0.078	-0.317
-428.617	13.798	0.177	-0.139
-427.603	-119.904	-0.206	0.036
-426.588	33.062	-0.096	-0.084
-425.573	158.155	0.167	-0.234
-424.559	-89.040	-0.249	-0.074
-423.544	39.630	-0.223	-0.202
-422.530	324.024	0.161	-0.311
-421.515	-200.000	0.059	-0.391
-420.500	-128.960	-0.148	0.021
-419.486	800.000	0.042	0.155
-418.471	141.773	0.046	0.061
-417.457	800.000	0.017	-0.065
-416.442	52.582	-0.156	-0.150
-415.428	-200.000	-0.050	-0.364
-414.413	-152.000	0.346	0.025
-413.398	555.687	-0.077	0.187
-412.384	-65.720	-0.111	-0.045
-411.369	75.138	-0.111	-0.118
-410.355	185.594	0.148	0.222
-409.340	800.000	0.046	0.142
-408.325	-160.327	0.254	-0.014
-407.311	-79.146	-0.231	0.079
-406.296	87.513	0.156	-0.174
-405.282	492.399	-0.138	-0.319
-404.267	-200.000	-0.064	0.444
-403.252	-152.398	-0.320	-0.023
-402.238	194.079	-0.054	0.083
-401.223	76.186	0.118	-0.126
-400.209	188.984	0.037	-0.056
-399.194	-186.295	0.258	-0.004
-398.179	126.761	-0.118	-0.151
-397.165	74.341	0.070	0.074
-396.150	800.000	-0.092	0.273
-395.136	-21.576	-0.150	0.092
-394.121	-200.000	0.002	-0.160
-393.106	95.662	0.078	-0.090
-392.092	302.901	-0.122	0.228
-391.077	686.241	0.114	0.301
-390.063	-200.000	0.057	-0.533
-389.048	252.153	-0.083	-0.142
-388.033	64.218	-0.117	0.119
-387.019	800.000	-0.117	0.468
-386.004	261.497	-0.200	-0.350
-384.990	800.000	-0.044	-0.142
-383.975	-200.000	0.001	0.209
-382.960	89.869	-0.155	-0.175
-381.946	-200.000	-0.019	0.176
-380.931	19.840	-0.131	0.106
-379.917	-200.000	0.025	0.226
-378.902	-72.862	0.232	-0.086
-377.888	-200.000	-0.048	-0.510
-376.873	109.548	-0.186	-0.224
-375.858	119.412	0.099	-0.123
-374.844	-200.000	-0.040	0.229
-373.829	-6.690	-0.185	-0.127
-372.815	-51.516	-0.038	-0.018
-371.800	-58.073	-0.059	0.026
-370.785	-98.943	-0.216	0.055
-369.771	-200.000	0.043	-0.264
-368.756	-200.000	0.029	-0.327
-367.742	-200.000	0.061	-0.397
-366.727	-154.165	0.123	0.008
-365.712	182.916	0.188	0.279
-364.698	800.000	0.044	0.167
-363.683	-167.341	0.206	-0.008
-362.669	41.531	-0.268	-0.245
-361.654	112.567	0.236	-0.287
-360.639	-47.977	0.287	-0.140
-359.625	800.000	-0.058	-0.212
-358.610	99.074	-0.234	-0.272
-357.596	-38.615	0.173	-0.092
-356.581	639.090	-0.095	-0.242
-355.566	505.235	0.180	-0.420
-354.552	-57.171	-0.346	0.153
-353.537	-44.334	-0.060	0.030
-352.523	-57.734	0.143	0.063
-351.508	-200.000	-0.037	-0.294
-350.493	536.683	-0.070	0.167
-349.479	-146.252	-0.301	-0.027
-348.464	-144.145	-0.342	-0.032
-347.450	10.305	-0.374	0.287
-346.435	-61.096	0.236	-0.100
-345.420	-200.000	0.031	0.353
-344.406	241.591	-0.139	0.234
-343.391	-106.687	-0.054	0.012
-342.377	-151.006	-0.149	-0.011
-341.362	161.118	0.162	-0.228
-340.348	147.022	0.144	0.195
-339.333	181.701	-0.100	0.148
-338.318	-61.656	0.367	0.155
-337.304	590.656	0.029	0.071
-336.289	117.509	-0.176	0.218
-335.275	-1.520	0.119	-0.085
-334.260	-64.228	0.412	-0.169
-333.245	76.388	0.232	-0.247
-332.231	-67.778	-0.244	-0.096
-331.216	-35.320	-0.114	-0.062
-330.202	-137.482	0.211	0.024
-329.187	108.132	-0.125	0.151
-328.172	-200.000	0.002	-0.068
-327.158	-200.000	-0.000	-0.014
-326.143	-99.251	0.011	-0.003
-325.129	-54.956	-0.157	0.071
-324.114	522.450	0.027	0.064
-323.099	-200.000	0.013	-0.244
-322.085	-200.000	-0.021	-0.320
-321.070	-176.342	0.157	0.004
-320.056	-200.000	0.007	0.085
-319.041	-106.233	0.216	-0.049
-318.026	-200.000	-0.021	-0.201
-317.012	84.200	-0.296	-0.325
-315.997	799.525	0.049	0.137
-314.983	10.003	0.129	-0.099
-313.968	800.000	0.034	0.123
-312.953	4.350	-0.160	-0.118
-311.939	-10.147	0.111	0.074
-310.924	211.987	-0.201	-0.319
-309.910	7.878	0.070	0.052
-308.895	-70.433	0.170	0.065
-307.880	-114.138	0.196	0.038
-306.866	-75.346	0.131	0.047
-305.851	-193.351	-0.129	0.001
-304.837	60.967	-0.119	0.119
-303.822	67.981	-0.052	0.054
-302.807	800.000	0.084	0.283
-301.793	-200.000	0.014	-0.207
-300.778	-200.000	-0.020	-0.137
-299.764	191.505	-0.073	0.110
-298.749	24.395	0.142	-0.118
-297.735	94.535	0.126	0.144
-296.720	-35.201	-0.117	-0.064
-295.705	-14.913	-0.118	-0.076
-294.691	202.499	-0.110	-0.171
-293.676	-94.364	-0.204	-0.056
-292.662	248.760	0.074	-0.126
-291.647	-200.000	-0.033	0.176
-290.632	-36.066	-0.181	-0.098
-289.618	800.000	-0.095	0.308
-288.603	-172.793	-0.245	0.008
-287.589	58.148	0.214	-0.211
-286.574	127.677	0.185	0.236
-285.559	800.000	-0.054	0.176
-284.545	528.142	-0.175	-0.416
-283.530	691.557	0.101	0.267
-282.516	73.550	-0.132	0.139
-281.501	680.786	0.070	0.183
-280.486	-91.803	-0.089	0.025
-279.472	800.000	-0.069	-0.228
-278.457	43.974	0.082	0.076
-277.443	711.940	-0.055	-0.147
-276.428	-60.553	-0.113	0.048
-275.413	-79.125	-0.112	0.038
-274.399	-200.000	0.016	0.240
-273.384	184.602	-0.158	-0.236
-272.370	193.102	-0.174	-0.264
-271.355	-200.000	-0.040	-0.325
-270.340	-155.644	-0.287	0.019
-269.326	-64.164	-0.143	0.058
-268.311	-44.183	-0.182	0.092
-267.297	233.298	0.100	-0.166
-266.282	45.457	0.373	0.346
-265.267	-147.499	0.153	-0.013
-264.253	-77.230	-0.229	-0.080
-263.238	-200.000	-0.011	-0.162
-262.224	-4.748	0.094	0.065
-261.209	-200.000	-0.019	0.254
-260.195	181.429	0.124	0.183
-259.180	-1.819	0.057	0.040
-258.165	-14.368	0.157	-0.101
-257.151	-75.098	-0.387	-0.139
-256.136	10.445	0.428	-0.327
-255.122	-5.799	-0.268	-0.184
-254.107	402.980	0.053	-0.111
-253.092	800.000	-0.048	0.168
-252.078	266.215	-0.036	-0.062
-251.063	101.017	0.141	-0.164
-250.049	-152.393	-0.235	-0.017
-249.034	-54.643	-0.603	0.273
-248.019	-81.164	-0.289	-0.096
-247.005	-150.167	-0.076	0.006
-245.990	101.307	-0.053	0.062
-244.976	28.300	0.282	-0.239
-243.961	-200.000	0.015	0.168
-242.946	800.000	0.120	-0.366
-241.932	-144.372	0.276	-0.026
-240.917	162.064	0.215	0.302
-239.903	53.818	0.053	0.051
-238.888	49.145	-0.256	0.241
-237.873	-147.589	0.157	-0.013
-236.859	-200.000	-0.016	-0.126
-235.844	11.842	-0.160	-0.123
-234.830	-4.240	0.290	0.201
-233.815	-109.552	-0.221	0.047
-232.800	514.623	-0.045	-0.106
-231.786	-200.000	-0.001	0.203
-230.771	-51.193	-0.203	0.095
-229.757	40.903	0.089	0.080
-228.742	-71.520	0.406	-0.152
-227.727	-127.909	0.375	-0.054
-226.713	800.000	-0.005	-0.016
-225.698	-125.015	0.160	0.025
-224.684	-121.638	-0.200	-0.033
-223.669	-77.146	-0.033	0.011
-222.655	-103.250	0.309	0.073
-221.640	15.265	0.089	0.070
-220.625	-138.829	0.099	0.011
-219.611	-33.620	0.148	-0.082
-218.596	26.900	-0.156	0.131
-217.582	-120.027	-0.186	-0.032
-216.567	99.851	-0.126	-0.147
-215.552	7.230	-0.200	0.149
-214.538	8.165	0.231	-0.174
-213.523	543.088	0.102	0.243
-212.509	800.000	0.046	0.138
-211.494	-111.919	-0.156	-0.031
-210.479	-163.518	0.327	0.016
-209.465	-200.000	-0.070	0.403
-208.450	-103.572	-0.143	-0.034
-207.436	-200.000	-0.026	-0.138
-206.421	-200.000	0.005	0.202
-205.406	-52.138	-0.103	0.048
-204.392	-177.172	-0.234	-0.006
-203.377	35.000	-0.401	0.352
-202.363	29.491	-0.288	-0.245
-201.348	-60.426	-0.030	-0.013
-200.333	-73.422	0.154	-0.056
-199.319	9.873	-0.051	0.039
-198.304	800.000	-0.104	0.293
-197.290	444.978	0.101	0.222
-196.275	28.640	0.309	0.262
-195.260	-77.982	0.193	0.066
-194.246	-20.777	0.090	-0.055
-193.231	-43.760	0.264	-0.133
-192.217	-22.255	0.072	0.043
-191.202	-95.916	-0.078	0.021
-190.187	800.000	0.070	0.227
-189.173	-124.406	0.665	-0.104
-188.158	203.547	0.300	0.465
-187.144	-78.026	-0.086	-0.030
-186.129	174.090	0.107	0.154
-185.114	12.016	0.136	0.105
-184.100	-58.829	-0.102	0.044
-183.085	362.229	-0.048	-0.097
-182.071	800.000	-0.043	-0.129
-181.056	393.794	-0.084	0.175
-180.042	-99.526	-0.246	0.062
-179.027	-87.636	0.225	0.068
-178.012	-108.155	0.102	0.022
-176.998	75.383	0.127	-0.134
-175.983	379.289	-0.155	0.318
-174.969	-84.007	0.401	-0.127
-173.954	32.070	0.247	0.213
-172.939	-200.000	-0.082	-0.540
-171.925	-200.000	-0.012	0.151
-170.910	-29.762	-0.233	-0.133
-169.896	-25.075	-0.418	0.248
-168.881	93.121	0.142	0.161
-167.866	328.250	-0.070	0.133
-166.852	187.595	-0.122	0.182
-165.837	182.571	-0.102	-0.150
-164.823	178.777	0.049	0.071
-163.808	124.126	0.267	0.335
-162.793	-98.338	-0.471	0.121
-161.779	-200.000	-0.023	-0.351
-160.764	-56.524	-0.175	0.078
-159.750	-59.023	0.219	-0.095
-158.735	-200.000	-0.032	-0.194
-157.720	8.516	0.104	-0.078
-156.706	-37.897	0.365	0.194
-155.691	-154.320	-0.277	0.019
-154.677	-185.950	-0.293	-0.004
-153.662	-56.835	0.039	-0.017
-152.647	-200.000	-0.094	-0.447
-151.633	-200.000	0.031	-0.160
-150.618	-84.305	-0.447	-0.141
-149.604	-171.331	-0.136	0.005
-148.589	528.631	-0.052	-0.123
-147.574	800.000	0.131	0.388
-146.560	304.438	0.166	-0.308
-145.545	-132.206	-0.356	-0.046
-144.531	-44.872	0.224	-0.111
-143.516	-200.000	0.022	0.298
-142.502	-76.705	0.378	0.132
-141.487	-200.000	0.022	0.109
-140.472	-200.000	0.038	0.516
-139.458	17.125	-0.140	0.111
-138.443	248.222	0.044	0.074
-137.429	-200.000	0.102	0.460
-136.414	127.513	0.055	-0.070
-135.399	-86.751	-0.116	-0.035
-134.385	19.069	-0.182	0.146
-133.370	800.000	-0.109	0.367
-132.356	800.000	-0.040	0.165
-131.341	-162.139	-0.271	0.014
-130.326	800.000	-0.136	0.383
-129.312	-182.210	0.377	-0.007
-128.297	197.907	-0.072	-0.110
-127.283	150.898	-0.136	-0.185
-126.268	-200.000	-0.013	-0.221
-125.253	-12.770	0.244	0.159
-124.239	800.000	-0.074	-0.265
-123.224	-31.336	-0.088	-0.049
-122.210	-200.000	-0.120	-0.000
