DTS Sentinel unit serial number:	SN413079Multiplexer serial number:	ORYXHardware model number:	OX4-SRSoftware version number:	ORYX F/W v4.00 Oryx Data Collector v3.7.2.0data status	okinstallation	princeton_trtdifferential loss correction	single-endedforward channel	channel 1reverse channel	N/Adate	2019/09/12time	00:48:11forward acquisition time	60.00reverse acquisition time	0.00gamma	496.2192k internal	0.2319k external	0.2319temperature offset calibration	1.0081default loss term (dB/km)	0.3790temperature slope calibration	1.0000multiplexer offset coefficient	1.0000multiplexer slope coefficient	1.0000fibre end	0.00T internal ref (°C)	33.25T ext. ref 1 (°C)	2.06T ext. ref 2 (°C)	28.05length (m)	temperature (°C)	Stokes	anti-Stokes-747.200	-133.732	-0.267	0.034
-746.185	-87.359	-0.347	-0.106
-745.171	-134.675	0.253	0.031
-744.156	-30.499	-0.418	0.240
-743.142	206.788	-0.196	0.310
-742.127	-108.698	-0.140	-0.030
-741.112	139.998	-0.215	-0.287
-740.098	-160.820	-0.329	0.018
-739.083	586.539	0.030	-0.075
-738.069	-83.123	-0.234	-0.076
-737.054	-124.356	-0.300	-0.047
-736.039	357.327	-0.159	-0.320
-735.025	-107.429	0.215	0.048
-734.010	143.545	-0.272	-0.367
-732.996	-128.806	-0.324	-0.046
-731.981	192.994	-0.233	-0.357
-730.966	200.515	0.123	-0.191
-729.952	-50.643	0.287	-0.137
-728.937	-200.000	-0.111	-0.741
-727.923	-101.749	0.024	0.006
-726.908	-40.764	-0.361	0.189
-725.894	-200.000	-0.030	-0.281
-724.879	800.000	-0.111	0.407
-723.864	237.561	-0.154	0.258
-722.850	58.214	-0.144	0.142
-721.835	236.769	0.088	0.147
-720.821	494.394	-0.145	-0.337
-719.806	-34.963	-0.236	0.130
-718.791	63.163	-0.060	0.060
-717.777	-55.791	-0.153	0.069
-716.762	343.994	-0.202	-0.400
-715.748	31.373	0.242	-0.210
-714.733	800.000	0.044	0.126
-713.718	800.000	0.044	-0.134
-712.704	29.409	-0.134	-0.115
-711.689	-84.910	-0.307	-0.097
-710.675	3.341	-0.129	-0.095
-709.660	-125.266	0.324	0.050
-708.645	800.000	0.099	-0.318
-707.631	-55.780	-0.151	0.068
-706.616	-57.450	0.300	0.133
-705.602	-32.131	-0.195	0.110
-704.587	-76.816	-0.196	-0.069
-703.572	-77.294	0.121	0.043
-702.558	-122.916	0.096	0.016
-701.543	-34.963	0.247	0.136
-700.529	35.773	-0.326	0.289
-699.514	216.881	-0.215	-0.346
-698.499	-75.245	-0.011	0.004
-697.485	-200.000	0.010	-0.064
-696.470	-158.672	0.287	-0.017
-695.456	-47.838	0.114	0.056
-694.441	689.268	-0.050	0.133
-693.426	286.348	0.221	-0.402
-692.412	-200.000	-0.004	0.302
-691.397	111.509	0.259	0.315
-690.383	561.418	-0.124	0.302
-689.368	-116.994	-0.394	0.073
-688.354	-108.136	-0.240	-0.053
-687.339	62.223	0.053	0.054
-686.324	-30.588	0.278	-0.159
-685.310	145.078	-0.050	-0.068
-684.295	-1.578	-0.221	-0.157
-683.281	25.287	-0.230	-0.193
-682.266	-200.000	-0.028	-0.204
-681.251	-196.385	0.101	0.001
-680.237	-58.986	-0.207	-0.090
-679.222	168.211	-0.050	0.071
-678.208	225.132	-0.146	-0.239
-677.193	-47.140	-0.229	-0.113
-676.178	28.283	0.394	-0.336
-675.164	759.591	0.069	-0.188
-674.149	218.566	0.210	-0.338
-673.135	35.910	0.078	-0.069
-672.120	270.912	0.115	0.205
-671.105	-92.862	-0.167	0.047
-670.091	755.946	0.056	-0.153
-669.076	-7.998	0.247	0.168
-668.062	34.809	-0.227	-0.200
-667.047	-10.870	-0.142	0.094
-666.032	-37.297	-0.304	0.164
-665.018	800.000	-0.048	-0.193
-664.003	800.000	0.079	-0.275
-662.989	216.176	-0.162	0.260
-661.974	153.946	-0.066	-0.091
-660.959	-134.743	0.252	0.031
-659.945	-123.381	-0.254	-0.041
-658.930	67.099	0.300	-0.309
-657.916	506.621	-0.049	0.115
-656.901	158.312	-0.171	0.239
-655.886	-136.898	0.330	0.038
-654.872	-67.104	-0.062	0.025
-653.857	-200.000	-0.070	-0.359
-652.843	-64.726	0.277	0.113
-651.828	185.957	0.148	0.222
-650.814	159.670	0.050	0.070
-649.799	-200.000	0.024	0.129
-648.784	217.957	0.063	0.101
-647.770	212.183	-0.079	-0.125
-646.755	-105.584	-0.265	0.061
-645.741	-17.019	0.170	-0.108
-644.726	-200.000	0.039	-0.366
-643.711	292.412	0.159	-0.292
-642.697	-121.729	0.278	-0.046
-641.682	-200.000	-0.044	-0.215
-640.668	53.850	-0.101	-0.097
-639.653	-84.512	-0.123	0.039
-638.638	44.995	0.077	0.071
-637.624	59.038	0.238	0.236
-636.609	-200.000	-0.053	-0.338
-635.595	-200.000	-0.008	-0.248
-634.580	-81.330	-0.292	0.097
-633.565	124.553	-0.105	0.133
-632.551	-200.000	0.006	-0.065
-631.536	-200.000	0.017	0.522
-630.522	-90.959	-0.092	-0.027
-629.507	-200.000	0.057	-0.472
-628.492	116.561	-0.120	0.149
-627.478	89.912	-0.122	0.138
-626.463	189.375	-0.077	0.116
-625.449	126.990	0.143	0.183
-624.434	-58.677	-0.125	0.055
-623.419	41.801	0.230	-0.210
-622.405	242.847	0.059	0.099
-621.390	800.000	0.050	-0.171
-620.376	338.632	0.093	-0.183
-619.361	-200.000	-0.003	-0.136
-618.346	-200.000	-0.047	0.521
-617.332	-18.815	0.222	0.139
-616.317	91.952	-0.114	-0.129
-615.303	-148.720	0.388	-0.032
-614.288	207.945	0.002	-0.004
-613.273	-200.000	0.012	-0.213
-612.259	800.000	-0.038	-0.148
-611.244	800.000	0.048	0.135
-610.230	-200.000	0.027	-0.249
-609.215	-4.473	0.250	-0.174
-608.201	450.412	0.089	-0.198
-607.186	173.161	0.061	-0.088
-606.171	-200.000	0.028	0.219
-605.157	356.277	0.094	0.189
-604.142	-84.224	0.319	0.102
-603.128	-77.149	0.238	0.083
-602.113	40.676	0.068	-0.062
-601.098	315.818	0.233	0.442
-600.084	-127.207	-0.045	0.007
-599.069	-38.079	0.166	-0.089
-598.055	91.296	0.153	-0.172
-597.040	26.922	0.222	-0.187
-596.025	-32.490	0.242	-0.135
-595.011	67.720	-0.181	-0.186
-593.996	-144.658	-0.083	0.008
-592.982	283.233	-0.139	0.252
-591.967	800.000	0.088	-0.313
-590.952	22.204	-0.111	-0.091
-589.938	-18.710	-0.302	0.189
-588.923	-67.423	-0.605	-0.239
-587.909	-104.924	0.198	-0.046
-586.894	-133.977	0.102	0.013
-585.879	-65.939	0.404	0.162
-584.865	-65.897	-0.139	0.056
-583.850	83.411	-0.059	0.064
-582.836	4.770	-0.182	0.134
-581.821	324.224	0.160	0.306
-580.806	-5.236	-0.193	0.133
-579.792	-188.508	0.376	0.005
-578.777	-62.014	-0.130	0.054
-577.763	-154.150	0.322	0.022
-576.748	-22.086	0.338	0.206
-575.733	26.681	0.059	0.050
-574.719	79.941	0.053	-0.058
-573.704	800.000	0.132	-0.380
-572.690	78.641	-0.172	-0.184
-571.675	19.084	-0.088	0.071
-570.661	-107.792	0.332	-0.073
-569.646	10.844	-0.147	0.113
-568.631	94.563	-0.174	0.198
-567.617	47.252	-0.137	0.128
-566.602	-200.000	-0.034	0.278
-565.588	-139.616	-0.142	0.015
-564.573	-126.317	-0.114	-0.017
-563.558	800.000	0.077	0.232
-562.544	-24.217	-0.241	0.144
-561.529	639.140	0.010	-0.025
-560.515	75.758	-0.311	0.331
-559.500	-200.000	-0.077	-0.345
-558.485	52.545	0.208	0.199
-557.471	-106.918	0.321	-0.071
-556.456	25.429	-0.159	0.133
-555.442	169.232	-0.229	-0.328
-554.427	-56.421	-0.286	0.127
-553.412	-200.000	0.020	-0.175
-552.398	95.879	0.043	0.050
-551.383	-9.102	0.235	-0.158
-550.369	141.425	0.018	-0.024
-549.354	-178.995	-0.232	-0.005
-548.339	-83.589	-0.397	0.127
-547.325	-185.493	-0.404	0.006
-546.310	-155.057	-0.142	-0.009
-545.296	461.088	-0.080	-0.178
-544.281	-49.362	-0.205	-0.098
-543.266	-200.000	0.039	-0.444
-542.252	175.300	0.051	0.075
-541.237	512.620	0.198	-0.464
-540.223	313.079	0.161	0.304
-539.208	146.070	0.223	0.300
-538.193	16.734	0.204	-0.162
-537.179	-123.122	-0.286	0.046
-536.164	-139.857	0.099	0.011
-535.150	436.959	-0.068	0.148
-534.135	800.000	0.078	0.219
-533.121	-200.000	-0.015	0.122
-532.106	405.890	-0.111	-0.234
-531.091	800.000	-0.139	0.401
-530.077	288.391	0.014	-0.025
-529.062	-149.271	0.248	0.020
-528.048	131.384	-0.086	-0.111
-527.033	-111.239	0.090	0.018
-526.018	-98.994	0.417	-0.106
-525.004	-126.513	-0.240	0.036
-523.989	8.316	0.167	-0.126
-522.975	-6.920	-0.028	0.019
-521.960	-42.402	0.152	-0.078
-520.945	800.000	0.088	0.258
-519.931	-200.000	-0.010	0.385
-518.916	-51.132	0.148	0.070
-517.902	-200.000	-0.019	0.086
-516.887	116.650	-0.165	0.203
-515.872	-90.663	-0.226	0.066
-514.858	800.000	-0.114	-0.322
-513.843	-73.109	-0.078	-0.029
-512.829	-31.292	0.268	-0.151
-511.814	-200.000	-0.001	0.228
-510.799	2.466	0.104	0.075
-509.785	550.492	-0.015	-0.036
-508.770	800.000	-0.131	-0.553
-507.756	-87.253	0.489	-0.149
-506.741	155.248	-0.063	-0.087
-505.726	84.378	0.151	-0.165
-504.712	515.437	0.035	-0.082
-503.697	800.000	-0.081	-0.237
-502.683	-87.233	0.349	0.106
-501.668	-183.113	0.192	-0.003
-500.653	-13.850	0.166	0.107
-499.639	21.713	0.231	0.188
-498.624	800.000	0.013	-0.055
-497.610	10.214	0.198	-0.151
-496.595	-189.895	0.187	-0.002
-495.581	-50.681	-0.021	0.010
-494.566	293.116	-0.142	-0.259
-493.551	-200.000	0.002	-0.022
-492.537	-0.449	-0.241	-0.171
-491.522	-190.222	0.416	0.005
-490.508	-49.110	-0.340	-0.163
-489.493	68.742	0.115	0.119
-488.478	-90.797	-0.063	0.018
-487.464	-71.813	0.109	-0.041
-486.449	-157.912	0.212	0.013
-485.435	800.000	0.031	0.130
-484.420	800.000	-0.041	0.128
-483.405	89.537	0.200	0.224
-482.391	-200.000	-0.016	0.073
-481.376	86.324	-0.135	-0.149
-480.362	214.992	0.123	0.195
-479.347	-200.000	-0.004	0.148
-478.332	496.906	0.055	0.127
-477.318	197.556	0.115	0.176
-476.303	-35.275	0.064	-0.035
-475.289	111.936	0.110	-0.133
-474.274	-98.802	0.147	0.038
-473.259	630.898	-0.103	0.261
-472.245	182.966	0.116	-0.171
-471.230	-152.541	0.178	0.013
-470.216	-43.918	0.050	0.025
-469.201	289.491	0.175	-0.317
-468.186	163.129	-0.228	0.321
-467.172	225.386	0.091	-0.148
-466.157	-112.641	0.137	0.027
-465.143	83.780	0.124	0.136
-464.128	-176.010	0.377	-0.010
-463.113	-98.053	0.273	-0.070
-462.099	800.000	0.035	0.135
-461.084	-149.571	0.233	-0.018
-460.070	402.832	-0.060	0.126
-459.055	34.838	-0.119	0.104
-458.040	-18.394	0.063	0.039
-457.026	-200.000	-0.077	-0.401
-456.011	432.149	-0.087	0.188
-454.997	-106.907	-0.437	0.097
-453.982	-200.000	0.011	-0.067
-452.968	282.100	-0.132	0.237
-451.953	800.000	0.080	-0.233
-450.938	-3.707	0.101	0.070
-449.924	-92.211	0.309	-0.087
-448.909	-124.977	-0.376	-0.058
-447.895	-19.784	-0.098	0.060
-446.880	800.000	0.081	0.252
-445.865	-76.577	-0.294	-0.103
-444.851	-104.572	-0.093	0.021
-443.836	16.612	-0.022	-0.018
-442.822	157.762	0.089	-0.124
-441.807	-121.551	0.208	0.035
-440.792	-145.770	-0.227	-0.020
-439.778	-200.000	-0.076	0.377
-438.763	581.260	0.147	-0.361
-437.749	1.443	-0.394	-0.283
-436.734	72.990	-0.201	0.210
-435.719	-200.000	0.043	0.247
-434.705	32.533	-0.034	-0.029
-433.690	54.816	0.033	-0.032
-432.676	-200.000	0.002	0.039
-431.661	765.325	0.198	-0.537
-430.646	1.461	-0.050	0.036
-429.632	-27.700	0.189	-0.110
-428.617	800.000	0.047	-0.198
-427.603	-43.385	0.193	0.097
-426.588	-158.811	-0.281	-0.016
-425.573	-109.031	0.279	-0.059
-424.559	-200.000	-0.018	-0.140
-423.544	116.771	-0.067	0.082
-422.530	-190.781	-0.294	0.003
-421.515	130.102	-0.189	-0.241
-420.500	-21.569	-0.166	-0.101
-419.486	-127.235	-0.300	-0.044
-418.471	-26.242	0.263	-0.154
-417.457	10.706	0.123	-0.094
-416.442	76.797	0.163	0.173
-415.428	-200.000	-0.022	-0.279
-414.413	-200.000	0.006	-0.080
-413.398	460.909	0.034	0.075
-412.384	-200.000	0.003	0.182
-411.369	-200.000	-0.010	-0.261
-410.355	-77.418	0.084	-0.029
-409.340	-200.000	0.026	0.344
-408.325	723.182	0.032	0.085
-407.311	-173.166	0.440	0.013
-406.296	-43.162	-0.504	0.255
-405.282	16.775	0.267	0.211
-404.267	-28.734	-0.103	-0.059
-403.252	-153.569	0.087	-0.006
-402.238	-111.491	-0.208	-0.042
-401.223	-200.000	-0.018	0.228
-400.209	331.541	0.074	-0.142
-399.194	-200.000	0.014	0.171
-398.179	292.362	0.122	-0.222
-397.165	42.093	-0.156	-0.141
-396.150	100.979	-0.099	-0.115
-395.136	-200.000	-0.034	0.410
-394.121	800.000	0.068	0.271
-393.106	176.764	-0.254	0.368
-392.092	-33.418	-0.173	-0.096
-391.077	40.531	-0.278	0.250
-390.063	157.354	-0.114	-0.158
-389.048	569.177	0.122	0.296
-388.033	800.000	-0.039	-0.165
-387.019	92.566	0.082	-0.092
-386.004	11.916	-0.127	0.098
-384.990	-197.581	-0.176	-0.001
-383.975	-18.466	-0.164	-0.102
-382.960	800.000	-0.088	-0.307
-381.946	800.000	0.126	-0.457
-380.931	-200.000	-0.035	-0.179
-379.917	265.263	0.046	-0.080
-378.902	-134.149	0.119	0.015
-377.888	225.768	-0.074	-0.120
-376.873	16.079	-0.207	0.162
-375.858	800.000	-0.036	0.102
-374.844	-91.194	0.198	0.057
-373.829	113.794	0.073	0.088
-372.815	332.826	-0.061	0.117
-371.800	-111.789	-0.255	-0.051
-370.785	800.000	-0.042	0.178
-369.771	294.490	-0.062	0.113
-368.756	800.000	0.057	0.187
-367.742	-7.426	-0.168	0.113
-366.727	800.000	0.091	-0.334
-365.712	-200.000	0.019	-0.183
-364.698	6.617	-0.288	0.214
-363.683	-27.276	-0.215	-0.125
-362.669	-66.620	0.348	-0.137
-361.654	-200.000	-0.015	-0.217
-360.639	109.519	0.301	-0.360
-359.625	-90.261	0.242	-0.070
-358.610	-7.195	-0.086	-0.058
-357.596	475.611	-0.101	-0.227
-356.581	-200.000	0.050	0.245
-355.566	123.472	0.139	0.174
-354.552	-200.000	-0.009	0.091
-353.537	148.655	0.070	-0.095
-352.523	-170.905	-0.067	-0.002
-351.508	-200.000	0.005	0.065
-350.493	62.222	0.212	0.210
-349.479	-96.329	0.272	0.072
-348.464	348.866	0.077	-0.152
-347.450	-200.000	-0.019	-0.097
-346.435	7.979	-0.136	-0.102
-345.420	-200.000	-0.018	-0.164
-344.406	148.195	-0.156	-0.210
-343.391	-174.121	0.286	-0.008
-342.377	384.953	0.062	-0.127
-341.362	-13.642	-0.076	-0.049
-340.348	-89.457	-0.039	-0.011
-339.333	-182.993	-0.192	0.003
-338.318	-200.000	0.033	0.201
-337.304	393.216	-0.044	0.091
-336.289	177.756	-0.082	0.119
-335.275	10.661	0.030	0.023
-334.260	577.949	0.091	0.221
-333.245	-82.177	-0.174	0.056
-332.231	-200.000	-0.027	-0.214
-331.216	-140.550	0.284	0.029
-330.202	-13.798	-0.201	0.129
-329.187	-134.796	0.441	0.053
-328.172	-177.603	-0.314	-0.008
-327.158	-178.458	-0.231	-0.005
-326.143	-135.216	-0.236	-0.028
-325.129	115.759	-0.149	0.181
-324.114	-82.667	-0.031	-0.010
-323.099	-106.357	-0.055	-0.012
-322.085	-92.850	-0.479	-0.133
-321.070	800.000	-0.036	-0.117
-320.056	800.000	0.069	-0.205
-319.041	-99.332	-0.303	0.076
-318.026	-95.258	-0.185	-0.049
-317.012	192.760	0.148	0.222
-315.997	-173.056	-0.166	-0.005
-314.983	-177.685	-0.209	0.005
-313.968	-160.785	0.119	-0.006
-312.953	198.527	-0.144	-0.220
-311.939	252.624	-0.184	-0.313
-310.924	411.653	0.109	0.229
-309.910	29.145	0.117	-0.099
-308.895	-89.297	0.215	0.063
-307.880	-200.000	0.016	0.176
-306.866	-128.887	-0.178	-0.025
-305.851	-49.669	-0.051	0.024
-304.837	55.382	-0.114	-0.109
-303.822	-43.871	-0.096	0.048
-302.807	-200.000	0.019	0.304
-301.793	-200.000	-0.061	0.476
-300.778	191.952	0.113	0.169
-299.764	-5.744	0.235	0.160
-298.749	-122.216	-0.068	-0.011
-297.735	390.847	0.206	-0.426
-296.720	800.000	-0.015	0.049
-295.705	800.000	-0.102	-0.304
-294.691	-104.095	-0.440	0.102
-293.676	403.569	0.060	0.126
-292.662	459.641	-0.114	0.252
-291.647	-200.000	0.006	-0.223
-290.632	316.984	0.162	-0.304
-289.618	800.000	-0.066	0.214
-288.603	-200.000	-0.019	0.305
-287.589	172.292	0.208	-0.297
-286.574	96.356	0.117	-0.133
-285.559	-200.000	-0.016	0.234
-284.545	377.206	0.151	0.307
-283.530	-90.589	-0.156	0.045
-282.516	-174.383	0.124	-0.004
-281.501	-200.000	0.004	-0.100
-280.486	800.000	0.089	0.291
-279.472	500.122	-0.063	0.145
-278.457	-20.220	0.268	-0.164
-277.443	36.406	0.286	-0.251
-276.428	-178.173	-0.222	0.005
-275.413	800.000	0.029	0.104
-274.399	-49.859	-0.201	-0.095
-273.384	240.865	-0.128	-0.212
-272.370	-200.000	-0.016	-0.163
-271.355	109.269	0.348	-0.414
-270.340	493.982	0.116	-0.265
-269.326	-200.000	0.072	-0.372
-268.311	-200.000	-0.044	0.305
-267.297	-62.778	-0.156	-0.064
-266.282	-87.524	-0.100	-0.030
-265.267	721.818	-0.076	0.200
-264.253	71.895	-0.209	-0.216
-263.238	359.337	0.025	0.049
-262.224	800.000	0.129	-0.381
-261.209	28.169	-0.055	0.046
-260.195	-200.000	-0.016	-0.136
-259.180	-200.000	-0.016	0.092
-258.165	46.282	0.182	0.168
-257.151	-64.430	-0.171	-0.069
-256.136	166.878	-0.025	-0.035
-255.122	383.966	0.039	0.080
-254.107	54.957	-0.135	0.130
-253.092	467.949	-0.091	-0.202
-252.078	-200.000	-0.020	-0.328
-251.063	495.169	-0.088	-0.200
-250.049	-71.709	0.291	0.108
-249.034	74.459	0.152	-0.159
-248.019	-91.625	-0.126	0.035
-247.005	-69.727	0.217	-0.082
-245.990	-200.000	-0.028	0.206
-244.976	394.837	0.151	0.313
-243.961	-83.783	-0.227	0.072
-242.946	-200.000	-0.003	-0.179
-241.932	679.309	0.022	-0.057
-240.917	301.755	0.069	-0.127
-239.903	-24.347	0.134	0.080
-238.888	143.147	-0.092	0.122
-237.873	-20.855	-0.378	-0.230
-236.859	-27.776	0.116	0.067
-235.844	236.958	0.070	0.115
-234.830	53.648	-0.140	0.133
-233.815	269.332	0.114	0.199
-232.800	-200.000	-0.009	0.081
-231.786	18.712	0.086	0.069
-230.771	-34.301	-0.226	0.123
-229.757	800.000	0.076	0.236
-228.742	-200.000	0.046	-0.339
-227.727	43.625	0.411	0.372
-226.713	381.152	0.209	-0.424
-225.698	-200.000	0.002	-0.092
-224.684	-30.019	0.183	0.103
-223.669	-125.823	-0.122	-0.018
-222.655	-200.000	-0.008	0.164
-221.640	800.000	-0.020	-0.068
-220.625	-200.000	-0.126	0.571
-219.611	16.211	0.249	-0.195
-218.596	16.835	-0.258	0.202
-217.582	417.422	-0.135	0.286
-216.567	51.990	0.141	0.133
-215.552	114.194	0.026	-0.031
-214.538	800.000	-0.109	0.329
-213.523	0.544	-0.118	-0.083
-212.509	800.000	-0.090	0.251
-211.494	-192.742	-0.229	-0.002
-210.479	-43.043	-0.437	0.220
-209.465	-200.000	0.032	0.145
-208.450	-109.669	0.177	0.037
-207.436	-117.206	-0.152	0.027
-206.421	-184.731	0.241	0.004
-205.406	196.894	-0.038	-0.058
-204.392	-102.209	0.103	-0.025
-203.377	358.654	0.086	0.171
-202.363	16.826	0.336	-0.263
-201.348	101.092	0.119	-0.137
-200.333	-200.000	0.013	-0.193
-199.319	146.626	0.214	0.285
-198.304	67.089	-0.171	0.173
-197.290	-146.824	-0.186	0.016
-196.275	344.648	-0.091	-0.176
-195.260	65.154	-0.195	-0.195
-194.246	-112.712	0.034	-0.007
-193.231	-200.000	0.053	-0.379
-192.217	16.869	-0.369	-0.289
-191.202	-127.751	0.224	0.032
-190.187	10.436	-0.307	0.231
-189.173	-64.362	-0.076	0.031
-188.158	-171.732	-0.382	0.012
-187.144	32.968	-0.199	-0.171
-186.129	81.999	-0.038	0.041
-185.114	-200.000	0.028	-0.170
-184.100	-100.167	-0.215	-0.053
-183.085	4.064	0.291	-0.211
-182.071	28.550	-0.294	0.246
-181.056	192.052	0.180	-0.269
-180.042	50.872	-0.201	-0.189
-179.027	-200.000	0.027	-0.167
-178.012	652.409	-0.077	-0.195
-176.998	44.732	-0.173	-0.158
-175.983	165.248	0.345	0.483
-174.969	-45.140	-0.155	-0.076
-173.954	-200.000	-0.047	-0.303
-172.939	31.231	-0.035	-0.030
-171.925	-200.000	0.044	0.243
-170.910	95.743	0.044	-0.049
-169.896	800.000	0.037	-0.102
-168.881	-81.729	-0.433	-0.140
-167.866	15.959	0.254	-0.198
-166.852	-200.000	-0.027	-0.132
-165.837	-200.000	0.040	-0.173
-164.823	-15.374	-0.221	0.140
-163.808	-95.243	0.097	0.026
-162.793	469.611	-0.159	-0.353
-161.779	800.000	0.027	-0.083
-160.764	-200.000	0.019	0.168
-159.750	-20.819	0.076	-0.046
-158.735	-200.000	0.004	0.035
-157.720	-200.000	-0.051	0.281
-156.706	199.760	0.089	0.135
-155.691	-200.000	0.071	0.465
-154.677	800.000	-0.057	0.223
-153.662	-68.962	-0.386	0.147
-152.647	-9.381	0.283	0.187
-151.633	-200.000	-0.037	0.517
-150.618	800.000	0.054	0.154
-149.604	56.192	0.335	0.322
-148.589	800.000	-0.064	0.244
-147.574	337.858	0.145	0.278
-146.560	-158.940	0.077	0.004
-145.545	-19.730	0.056	-0.034
-144.531	-6.317	0.217	-0.147
-143.516	102.463	0.125	0.144
-142.502	-115.892	0.142	0.026
-141.487	-200.000	-0.018	0.140
-140.472	-51.442	-0.367	-0.169
-139.458	-84.593	-0.099	0.031
-138.443	-86.487	0.119	-0.036
-137.429	-22.165	0.264	0.158
-136.414	-159.930	0.173	-0.009
-135.399	23.109	0.093	-0.076
-134.385	410.029	-0.048	-0.100
-133.370	-89.645	-0.240	-0.070
-132.356	-91.893	0.180	-0.050
-131.341	704.279	0.032	0.083
-130.326	-200.000	0.043	-0.203
-129.312	101.522	0.235	0.270
-128.297	800.000	0.127	0.481
-127.283	-107.538	-0.513	0.111
-126.268	30.328	-0.055	-0.046
-125.253	-50.357	0.183	0.086
-124.239	-200.000	-0.008	-0.123
-123.224	7.151	-0.024	-0.018
-122.210	-176.276	0.046	-0.001
-121.195	231.596	-0.134	0.216
