DTS Sentinel unit serial number:	SN413079Multiplexer serial number:	ORYXHardware model number:	OX4-SRSoftware version number:	ORYX F/W v4.00 Oryx Data Collector v3.7.2.0data status	okinstallation	princeton_trtdifferential loss correction	single-endedforward channel	channel 1reverse channel	N/Adate	2019/09/19time	10:34:35forward acquisition time	60.00reverse acquisition time	0.00gamma	496.2192k internal	0.2339k external	0.2339temperature offset calibration	1.0008default loss term (dB/km)	0.3790temperature slope calibration	1.0000multiplexer offset coefficient	1.0000multiplexer slope coefficient	1.0000fibre end	0.00T internal ref (°C)	24.44T ext. ref 1 (°C)	0.72T ext. ref 2 (°C)	19.96length (m)	temperature (°C)	Stokes	anti-Stokes-747.200	-200.000	-0.002	-0.286
-746.185	-55.855	-0.177	0.079
-745.171	800.000	0.048	0.138
-744.156	-81.060	-0.242	0.080
-743.142	217.261	-0.179	0.286
-742.127	294.816	-0.234	0.429
-741.112	-1.693	-0.278	-0.196
-740.098	-94.000	-0.295	-0.081
-739.083	-85.052	0.226	-0.071
-738.069	-200.000	-0.009	0.190
-737.054	-56.860	0.042	0.019
-736.039	800.000	-0.093	0.358
-735.025	-11.661	-0.057	0.038
-734.010	-55.961	-0.267	0.120
-732.996	-200.000	-0.025	0.199
-731.981	-110.183	0.189	0.040
-730.966	110.883	-0.129	0.156
-729.952	-154.062	-0.278	-0.019
-728.937	-73.679	-0.053	0.019
-727.923	37.564	-0.113	-0.101
-726.908	-200.000	-0.005	-0.316
-725.894	101.907	-0.147	-0.172
-724.879	90.669	-0.442	-0.497
-723.864	800.000	-0.007	0.022
-722.850	380.863	0.096	-0.198
-721.835	207.948	0.036	-0.056
-720.821	-200.000	0.006	0.129
-719.806	-109.157	-0.108	0.023
-718.791	133.160	0.050	-0.065
-717.777	800.000	-0.116	-0.365
-716.762	49.002	0.084	0.079
-715.748	57.975	-0.254	-0.249
-714.733	33.734	0.044	0.039
-713.718	800.000	0.118	-0.403
-712.704	-96.981	-0.202	0.053
-711.689	-91.422	-0.046	-0.013
-710.675	61.093	-0.118	0.117
-709.660	111.264	-0.166	-0.201
-708.645	800.000	-0.032	-0.133
-707.631	-200.000	-0.024	-0.232
-706.616	429.733	0.062	0.133
-705.602	800.000	0.040	0.121
-704.587	10.654	-0.079	0.061
-703.572	-200.000	0.006	-0.151
-702.558	800.000	0.091	0.379
-701.543	800.000	-0.086	-0.358
-700.529	-151.530	-0.214	-0.016
-699.514	-17.021	-0.126	0.079
-698.499	555.204	0.161	0.388
-697.485	120.018	0.217	-0.269
-696.470	-200.000	0.006	-0.092
-695.456	306.364	0.021	0.040
-694.441	318.975	-0.108	0.205
-693.426	5.666	0.302	0.223
-692.412	501.306	0.198	-0.457
-691.397	-200.000	0.005	-0.293
-690.383	547.097	-0.117	-0.279
-689.368	10.161	-0.088	-0.067
-688.354	525.960	0.064	0.150
-687.339	310.411	-0.119	-0.224
-686.324	98.437	-0.073	-0.084
-685.310	-200.000	0.002	0.276
-684.295	-157.093	-0.400	0.024
-683.281	-41.976	-0.082	0.042
-682.266	800.000	-0.068	0.194
-681.251	-104.865	-0.270	0.062
-680.237	-62.659	-0.158	0.066
-679.222	-200.000	-0.026	-0.145
-678.208	800.000	-0.091	-0.366
-677.193	547.367	0.022	-0.053
-676.178	93.393	-0.149	0.169
-675.164	-116.913	-0.214	0.039
-674.149	-79.276	0.154	-0.052
-673.135	504.528	0.226	0.523
-672.120	436.201	0.092	0.200
-671.105	722.759	0.136	-0.363
-670.091	-200.000	0.013	-0.189
-669.076	-17.613	0.118	-0.074
-668.062	65.417	0.298	-0.302
-667.047	-200.000	0.009	0.077
-666.032	-2.419	-0.130	0.091
-665.018	-200.000	-0.018	0.109
-664.003	-83.732	0.053	-0.017
-662.989	364.653	-0.161	-0.325
-661.974	-200.000	0.043	-0.242
-660.959	-51.798	0.248	0.116
-659.945	-113.819	-0.248	-0.048
-658.930	26.258	0.223	-0.186
-657.916	800.000	0.036	-0.142
-656.901	-86.053	-0.235	0.073
-655.886	-151.293	-0.144	0.011
-654.872	103.345	-0.088	-0.103
-653.857	-66.829	0.211	0.083
-652.843	-96.492	-0.276	0.073
-651.828	183.792	-0.168	-0.249
-650.814	236.661	0.106	-0.175
-649.799	72.196	-0.155	0.162
-648.784	-82.207	-0.384	0.125
-647.770	-200.000	0.034	-0.323
-646.755	-45.675	0.233	-0.115
-645.741	-61.669	-0.154	-0.065
-644.726	228.201	0.196	0.319
-643.711	-200.000	-0.016	0.158
-642.697	247.362	0.107	-0.181
-641.682	219.967	-0.031	-0.050
-640.668	-37.438	0.151	-0.081
-639.653	-65.291	-0.470	-0.189
-638.638	-35.811	0.025	-0.014
-637.624	-65.560	-0.129	-0.052
-636.609	-200.000	0.053	0.391
-635.595	-111.362	0.357	-0.073
-634.580	122.609	-0.173	0.216
-633.565	444.975	0.188	0.413
-632.551	-200.000	0.008	-0.067
-631.536	57.141	-0.233	-0.227
-630.522	390.483	-0.148	-0.307
-629.507	7.974	-0.192	-0.144
-628.492	587.805	0.087	0.215
-627.478	162.755	0.036	0.051
-626.463	129.422	-0.095	-0.121
-625.449	69.887	0.175	-0.180
-624.434	-70.636	-0.205	0.077
-623.419	-132.872	-0.035	0.004
-622.405	64.210	0.164	-0.165
-621.390	437.233	0.080	0.175
-620.376	800.000	0.031	0.132
-619.361	-30.297	0.205	0.116
-618.346	-200.000	0.034	-0.315
-617.332	80.559	-0.107	-0.115
-616.317	-131.365	-0.145	0.019
-615.303	154.347	-0.278	0.381
-614.288	-200.000	0.019	-0.144
-613.273	-89.498	0.101	0.030
-612.259	49.660	0.321	-0.302
-611.244	209.066	-0.142	-0.223
-610.230	-200.000	-0.004	0.113
-609.215	-4.674	0.102	0.070
-608.201	287.131	0.141	0.254
-607.186	60.961	0.245	0.243
-606.171	265.744	-0.063	-0.109
-605.157	-118.652	0.146	0.026
-604.142	800.000	-0.101	-0.296
-603.128	-200.000	0.005	-0.172
-602.113	-200.000	-0.013	0.080
-601.098	579.981	-0.094	-0.229
-600.084	422.867	0.093	-0.199
-599.069	800.000	-0.032	0.098
-598.055	69.808	-0.066	-0.068
-597.040	25.261	-0.229	0.189
-596.025	-116.411	-0.308	0.057
-595.011	-200.000	-0.008	-0.117
-593.996	-63.742	0.237	0.097
-592.982	3.313	0.066	0.048
-591.967	30.104	-0.031	0.027
-590.952	800.000	0.046	0.187
-589.938	462.249	-0.012	-0.027
-588.923	216.422	-0.024	-0.038
-587.909	-75.356	-0.153	-0.055
-586.894	152.933	-0.215	-0.293
-585.879	1.669	-0.040	-0.029
-584.865	550.423	0.095	0.228
-583.850	800.000	-0.088	-0.377
-582.836	-200.000	0.039	-0.192
-581.821	800.000	0.062	-0.175
-580.806	52.931	0.108	-0.103
-579.792	103.827	0.087	0.102
-578.777	49.173	-0.116	-0.109
-577.763	800.000	-0.086	0.293
-576.748	65.895	0.263	0.265
-575.733	-47.182	0.057	-0.028
-574.719	75.063	-0.067	0.071
-573.704	-164.301	0.216	-0.010
-572.690	150.413	0.124	0.168
-571.675	-200.000	-0.006	-0.231
-570.661	-200.000	-0.037	0.276
-569.646	-30.620	0.077	0.044
-568.631	170.141	-0.176	0.252
-567.617	-200.000	-0.019	0.330
-566.602	-200.000	0.052	-0.343
-565.588	-86.927	0.290	-0.088
-564.573	800.000	-0.074	-0.221
-563.558	34.527	-0.171	0.148
-562.544	-158.671	-0.112	0.006
-561.529	-200.000	0.018	0.262
-560.515	52.861	0.196	-0.187
-559.500	11.498	0.130	-0.099
-558.485	236.629	-0.142	-0.234
-557.471	-130.848	0.174	0.023
-556.456	-200.000	0.037	-0.170
-555.442	393.359	-0.155	-0.321
-554.427	-83.762	-0.349	-0.111
-553.412	-39.081	-0.056	0.029
-552.398	-200.000	0.014	-0.127
-551.383	800.000	0.040	0.133
-550.369	-10.425	-0.236	-0.156
-549.354	350.756	0.037	-0.072
-548.339	273.578	0.051	0.090
-547.325	800.000	0.047	0.172
-546.310	29.781	0.173	-0.147
-545.296	92.614	0.174	-0.195
-544.281	800.000	-0.071	-0.256
-543.266	-200.000	-0.015	0.154
-542.252	-200.000	-0.014	0.150
-541.237	35.458	-0.134	0.117
-540.223	-97.243	0.166	0.043
-539.208	-200.000	-0.039	0.172
-538.193	259.530	-0.163	0.280
-537.179	74.056	-0.256	0.268
-536.164	-131.809	0.261	-0.034
-535.150	-180.720	0.347	-0.007
-534.135	-6.974	-0.046	-0.031
-533.121	-10.562	-0.158	-0.104
-532.106	-36.334	-0.243	0.130
-531.091	154.791	0.074	-0.101
-530.077	-42.176	-0.130	0.066
-529.062	-200.000	0.008	0.186
-528.048	-200.000	-0.068	0.314
-527.033	-67.672	0.202	-0.079
-526.018	239.409	0.093	-0.154
-525.004	-64.553	0.063	0.026
-523.989	47.684	-0.073	0.067
-522.975	-110.452	0.105	-0.022
-521.960	79.249	0.260	0.278
-520.945	800.000	-0.070	0.192
-519.931	265.323	0.155	-0.269
-518.916	647.832	-0.054	-0.136
-517.902	800.000	0.036	0.152
-516.887	800.000	0.052	-0.184
-515.872	-62.810	-0.044	0.018
-514.858	423.156	0.047	-0.101
-513.843	-200.000	-0.031	0.241
-512.829	3.409	0.094	0.068
-511.814	710.553	-0.059	0.156
-510.799	48.695	0.128	0.119
-509.785	-15.352	-0.303	-0.193
-508.770	-129.533	0.123	0.017
-507.756	15.777	-0.090	-0.070
-506.741	-62.389	-0.316	-0.131
-505.726	-15.824	0.264	-0.167
-504.712	-200.000	0.021	0.174
-503.697	-51.132	-0.072	0.033
-502.683	-66.646	-0.259	0.102
-501.668	-9.288	0.175	0.116
-500.653	-75.059	0.158	0.056
-499.639	2.705	-0.247	-0.178
-498.624	52.573	-0.033	-0.031
-497.610	800.000	0.110	-0.340
-496.595	100.107	0.111	0.128
-495.581	-61.931	-0.488	-0.203
-494.566	312.307	0.062	-0.116
-493.551	147.631	0.293	0.392
-492.537	154.737	0.055	0.075
-491.522	62.032	-0.141	0.140
-490.508	-111.457	0.173	0.035
-489.493	35.372	-0.148	0.129
-488.478	-131.716	0.127	-0.017
-487.464	792.466	-0.163	0.446
-486.449	-114.714	-0.346	-0.066
-485.435	151.047	0.077	-0.104
-484.420	-58.236	-0.320	0.138
-483.405	-33.394	-0.190	0.104
-482.391	355.752	0.054	-0.107
-481.376	800.000	-0.114	-0.408
-480.362	-200.000	0.026	-0.208
-479.347	362.900	0.095	0.190
-478.332	104.532	0.134	-0.156
-477.318	27.069	0.171	-0.143
-476.303	-52.130	0.183	0.084
-475.289	-108.852	0.101	0.021
-474.274	69.356	-0.198	-0.202
-473.259	160.941	-0.080	0.111
-472.245	-86.647	-0.250	-0.076
-471.230	8.842	0.092	0.069
-470.216	353.934	0.178	0.350
-469.201	-38.775	-0.095	0.050
-468.186	146.247	-0.074	-0.099
-467.172	189.348	-0.034	0.050
-466.157	-97.510	-0.089	0.023
-465.143	-85.132	-0.251	0.078
-464.128	221.685	-0.113	0.181
-463.113	-200.000	0.005	-0.090
-462.099	-200.000	-0.019	0.206
-461.084	107.729	0.124	-0.146
-460.070	12.189	-0.315	-0.240
-459.055	416.391	0.066	0.140
-458.040	-111.600	0.055	-0.011
-457.026	-121.994	0.614	-0.100
-456.011	115.116	0.225	0.272
-454.997	241.839	-0.231	0.383
-453.982	397.347	0.082	-0.170
-452.968	-200.000	-0.026	0.169
-451.953	214.149	0.070	-0.110
-450.938	-67.688	0.180	0.070
-449.924	195.231	0.091	0.137
-448.909	535.656	0.070	-0.165
-447.895	800.000	-0.059	-0.200
-446.880	-120.592	0.002	-0.000
-445.865	-200.000	-0.055	0.251
-444.851	67.336	0.162	0.164
-443.836	40.849	0.022	-0.020
-442.822	-64.408	-0.366	0.148
-441.807	-2.933	0.216	-0.150
-440.792	118.661	0.193	-0.237
-439.778	200.345	-0.213	0.324
-438.763	-199.501	-0.167	-0.001
-437.749	-30.671	-0.232	-0.130
-436.734	-76.644	-0.267	0.093
-435.719	-6.823	0.131	0.088
-434.705	331.124	-0.097	0.185
-433.690	237.879	-0.115	0.188
-432.676	67.699	0.254	0.257
-431.661	420.220	0.137	-0.291
-430.646	-45.157	0.220	-0.108
-429.632	-200.000	-0.015	0.089
-428.617	192.859	0.226	0.338
-427.603	127.457	0.189	-0.238
-426.588	-200.000	-0.016	-0.129
-425.573	-200.000	-0.036	-0.433
-424.559	800.000	-0.051	0.144
-423.544	298.232	0.074	0.136
-422.530	-162.871	-0.344	-0.017
-421.515	-151.163	0.225	-0.017
-420.500	-189.759	0.187	0.002
-419.486	-16.705	-0.221	-0.139
-418.471	-47.812	-0.239	-0.115
-417.457	-65.709	-0.225	-0.089
-416.442	800.000	-0.009	-0.029
-415.428	294.027	-0.165	0.299
-414.413	-64.167	-0.264	-0.106
-413.398	-21.143	0.327	-0.198
-412.384	800.000	0.026	0.083
-411.369	-151.437	-0.253	0.019
-410.355	-42.016	0.267	-0.135
-409.340	-65.246	-0.228	-0.091
-408.325	-75.210	0.300	0.106
-407.311	800.000	-0.072	0.270
-406.296	61.456	-0.069	0.068
-405.282	-163.214	0.292	0.014
-404.267	-200.000	-0.163	0.000
-403.252	800.000	-0.047	-0.142
-402.238	800.000	-0.032	0.095
-401.223	200.185	-0.218	-0.331
-400.209	28.505	0.162	0.135
-399.194	651.282	-0.018	-0.045
-398.179	-200.000	0.013	-0.356
-397.165	38.125	0.195	-0.171
-396.150	-167.204	0.206	-0.008
-395.136	-71.189	0.150	-0.056
-394.121	144.688	0.065	0.086
-393.106	-31.127	-0.261	0.146
-392.092	73.385	0.182	0.189
-391.077	-200.000	0.019	-0.162
-390.063	119.090	-0.374	-0.458
-389.048	418.535	-0.132	0.279
-388.033	15.128	0.058	0.045
-387.019	168.906	-0.032	0.046
-386.004	-69.489	-0.261	-0.099
-384.990	-200.000	0.031	-0.201
-383.975	-12.585	0.329	0.212
-382.960	59.713	-0.102	0.099
-381.946	574.357	-0.020	0.049
-380.931	189.166	0.105	-0.155
-379.917	-116.841	-0.053	0.010
-378.902	574.417	0.157	0.379
-377.888	-85.364	0.497	-0.153
-376.873	-29.746	0.164	-0.093
-375.858	-200.000	0.030	0.420
-374.844	-51.091	0.135	-0.063
-373.829	35.632	0.113	0.098
-372.815	-162.764	-0.256	-0.012
-371.800	-80.418	0.222	0.073
-370.785	-38.641	-0.091	-0.048
-369.771	-174.443	-0.173	0.005
-368.756	80.191	-0.097	0.103
-367.742	-200.000	0.171	0.001
-366.727	800.000	-0.058	0.245
-365.712	-200.000	-0.011	0.127
-364.698	-78.900	0.264	-0.089
-363.683	-200.000	0.073	-0.569
-362.669	800.000	-0.057	-0.183
-361.654	-17.294	0.079	0.049
-360.639	89.137	-0.229	0.252
-359.625	423.585	0.154	-0.327
-358.610	461.226	-0.153	-0.338
-357.596	458.743	0.088	-0.194
-356.581	-200.000	-0.015	-0.090
-355.566	-10.552	0.051	-0.033
-354.552	-62.165	-0.146	0.060
-353.537	-123.528	0.098	0.015
-352.523	142.728	-0.182	-0.240
-351.508	521.330	0.123	0.285
-350.493	-14.166	0.048	-0.030
-349.479	-42.777	-0.411	0.206
-348.464	-29.960	0.189	-0.106
-347.450	326.676	0.064	-0.121
-346.435	168.673	-0.080	0.113
-345.420	-38.685	0.320	-0.167
-344.406	11.897	-0.376	-0.286
-343.391	310.982	-0.067	-0.123
-342.377	150.626	-0.076	-0.102
-341.362	-125.563	-0.307	-0.046
-340.348	800.000	0.040	0.126
-339.333	55.665	0.094	0.089
-338.318	77.130	0.233	0.245
-337.304	-34.788	-0.490	0.264
-336.289	642.356	-0.104	0.261
-335.275	-19.880	-0.308	-0.188
-334.260	-46.822	-0.365	0.176
-333.245	334.703	0.047	0.090
-332.231	-200.000	0.026	0.264
-331.216	-200.000	0.015	-0.294
-330.202	800.000	-0.110	0.379
-329.187	494.766	0.040	0.091
-328.172	7.683	0.160	-0.118
-327.158	401.557	-0.049	-0.101
-326.143	288.997	0.312	0.559
-325.129	-75.107	0.119	0.042
-324.114	-200.000	0.003	-0.029
-323.099	-87.359	0.304	-0.091
-322.085	6.254	0.238	0.175
-321.070	717.550	0.166	-0.434
-320.056	-91.383	-0.078	0.022
-319.041	-85.283	0.129	0.040
-318.026	182.252	-0.048	0.070
-317.012	160.715	-0.228	0.314
-315.997	-46.187	-0.272	0.132
-314.983	381.656	0.141	-0.286
-313.968	18.011	-0.172	-0.136
-312.953	800.000	-0.025	-0.103
-311.939	238.131	0.147	-0.240
-310.924	-200.000	0.021	0.235
-309.910	-200.000	0.054	-0.503
-308.895	-30.987	-0.116	0.065
-307.880	128.292	-0.072	-0.091
-306.866	-200.000	-0.047	0.349
-305.851	-82.801	0.408	-0.130
-304.837	195.216	0.102	-0.153
-303.822	-178.907	-0.043	0.001
-302.807	-67.202	-0.192	-0.074
-301.793	129.397	-0.248	-0.312
-300.778	713.747	-0.089	0.232
-299.764	-106.803	0.147	0.032
-298.749	146.032	-0.208	-0.275
-297.735	99.949	0.126	-0.143
-296.720	155.948	-0.054	0.073
-295.705	30.622	-0.105	0.088
-294.691	800.000	-0.056	0.154
-293.676	800.000	0.124	0.398
-292.662	-157.271	0.287	0.017
-291.647	142.449	0.133	0.175
-290.632	-78.824	-0.097	0.033
-289.618	13.400	-0.090	-0.068
-288.603	-200.000	-0.018	-0.423
-287.589	-43.541	-0.114	0.057
-286.574	179.983	0.137	-0.198
-285.559	81.094	-0.125	-0.133
-284.545	-99.019	0.084	-0.021
-283.530	-105.034	-0.334	-0.075
-282.516	-200.000	0.002	-0.244
-281.501	-87.519	0.347	0.103
-280.486	-42.503	-0.111	-0.056
-279.472	-186.172	-0.192	-0.003
-278.457	584.325	-0.048	-0.115
-277.443	-200.000	0.001	-0.298
-276.428	54.252	0.185	-0.175
-275.413	-200.000	0.023	-0.237
-274.399	-200.000	-0.069	0.299
-273.384	-200.000	0.011	-0.361
-272.370	494.011	0.169	-0.381
-271.355	-125.036	0.306	-0.046
-270.340	197.503	0.214	-0.322
-269.326	445.740	-0.071	-0.154
-268.311	97.996	0.175	0.198
-267.297	159.954	0.122	-0.168
-266.282	-139.206	-0.158	0.017
-265.267	-103.513	0.326	-0.075
-264.253	800.000	0.045	-0.169
-263.238	28.214	-0.077	-0.064
-262.224	-124.173	-0.229	-0.035
-261.209	581.091	0.089	0.214
-260.195	-1.976	0.077	0.053
-259.180	63.755	-0.284	-0.280
-258.165	-78.381	-0.177	-0.060
-257.151	-108.529	-0.164	0.035
-256.136	-108.094	0.221	0.047
-255.122	66.263	0.144	-0.144
-254.107	89.324	-0.108	-0.118
-253.092	595.220	0.095	-0.231
-252.078	800.000	0.074	0.246
-251.063	679.707	-0.172	0.440
-250.049	-92.530	-0.141	0.039
-249.034	388.027	-0.078	0.158
-248.019	24.071	-0.148	0.120
-247.005	120.605	-0.039	0.048
-245.990	-71.553	-0.177	-0.065
-244.976	-163.658	-0.111	-0.005
-243.961	-47.868	0.135	0.064
-242.946	-200.000	-0.010	-0.090
-241.932	-200.000	0.166	0.000
-240.917	-200.000	-0.011	0.049
-239.903	783.406	-0.109	0.293
-238.888	250.542	-0.176	0.295
-237.873	-200.000	-0.023	-0.164
-236.859	-104.958	0.319	0.072
-235.844	38.897	-0.117	-0.103
-234.830	-200.000	0.023	-0.141
-233.815	101.494	-0.229	-0.263
-232.800	-80.677	-0.258	0.084
-231.786	35.033	-0.075	-0.065
-230.771	-34.895	-0.251	-0.134
-229.757	-41.990	0.212	-0.107
-228.742	-200.000	0.042	0.289
-227.727	87.361	-0.157	0.171
-226.713	-108.208	-0.088	0.019
-225.698	121.232	-0.230	0.281
-224.684	35.130	-0.090	0.078
-223.669	-200.000	-0.041	0.207
-222.655	48.042	0.058	0.053
-221.640	80.860	0.085	0.091
-220.625	16.572	-0.220	-0.171
-219.611	144.216	0.192	-0.252
-218.596	43.441	0.316	0.284
-217.582	-96.344	-0.327	0.085
-216.567	414.631	0.063	0.132
-215.552	37.165	0.195	-0.170
-214.538	-25.458	0.202	-0.117
-213.523	-180.814	0.121	0.002
-212.509	220.792	-0.065	-0.103
-211.494	800.000	-0.071	-0.266
-210.479	-88.757	-0.173	0.050
-209.465	-177.381	-0.320	0.008
-208.450	800.000	0.051	0.218
-207.436	612.327	0.174	0.428
-206.421	-60.869	-0.050	0.021
-205.406	-32.715	0.163	0.089
-204.392	118.922	0.245	0.298
-203.377	77.525	-0.067	-0.070
-202.363	192.000	-0.192	-0.285
-201.348	800.000	0.100	-0.314
-200.333	-200.000	-0.009	0.214
-199.319	-92.320	-0.299	0.083
-198.304	-200.000	-0.031	0.187
-197.290	-61.164	0.157	-0.065
-196.275	-28.426	-0.124	0.070
-195.260	-104.973	0.099	-0.022
-194.246	-142.833	0.288	0.028
-193.231	-155.760	0.192	0.012
-192.217	406.688	0.161	-0.334
-191.202	-142.181	0.302	-0.029
-190.187	45.269	-0.334	-0.303
-189.173	-99.118	-0.208	0.052
-188.158	-200.000	0.040	-0.190
-187.144	173.787	0.070	0.099
-186.129	-200.000	-0.003	-0.282
-185.114	800.000	0.065	0.234
-184.100	76.023	-0.092	-0.095
-183.085	-12.155	-0.123	-0.079
-182.071	796.459	0.049	-0.134
-181.056	-39.901	0.223	-0.114
-180.042	-73.548	0.297	0.106
-179.027	-46.815	-0.074	0.036
-178.012	-157.105	0.289	0.017
-176.998	800.000	-0.086	-0.359
-175.983	-119.155	0.227	-0.039
-174.969	-0.117	0.226	0.158
-173.954	800.000	0.055	0.189
-172.939	-22.918	-0.265	0.157
-171.925	-200.000	0.013	0.228
-170.910	800.000	-0.081	0.270
-169.896	-18.498	0.193	0.118
-168.881	362.216	0.099	-0.196
-167.866	143.368	-0.190	0.248
-166.852	37.180	0.123	0.107
-165.837	63.712	-0.123	-0.121
-164.823	-200.000	-0.041	-0.286
-163.808	139.008	0.161	0.207
-162.793	296.786	0.086	0.154
-161.779	-156.698	-0.175	0.011
-160.764	171.433	-0.033	-0.046
-159.750	220.681	-0.116	0.183
-158.735	118.297	0.267	0.323
-157.720	-200.000	-0.022	0.153
-156.706	-101.887	-0.086	-0.020
-155.691	-174.427	0.392	0.011
-154.677	-200.000	0.020	-0.199
-153.662	-15.010	-0.157	-0.099
-152.647	-200.000	0.032	0.249
-151.633	-200.000	-0.006	-0.124
-150.618	-200.000	-0.021	0.167
-149.604	191.524	0.103	-0.152
-148.589	-75.661	0.144	-0.050
-147.574	119.531	-0.163	0.198
-146.560	-200.000	0.026	0.306
-145.545	-200.000	-0.004	0.115
-144.531	6.439	-0.240	0.175
-143.516	-94.976	0.340	0.090
-142.502	-45.253	0.211	0.103
-141.487	-18.120	-0.356	-0.218
-140.472	800.000	-0.051	0.161
-139.458	-200.000	0.149	-0.001
-138.443	0.367	-0.159	0.111
-137.429	-200.000	0.026	-0.354
-136.414	47.279	-0.309	-0.282
-135.399	403.765	-0.040	0.082
-134.385	-147.609	0.043	-0.004
-133.370	-200.000	0.038	0.316
-132.356	-62.678	-0.208	0.084
-131.341	800.000	0.075	-0.247
-130.326	-109.992	-0.289	0.059
-129.312	596.327	-0.028	0.069
-128.297	17.049	0.091	0.071
-127.283	-15.175	0.393	-0.246
-126.268	51.874	0.181	-0.169
-125.253	42.999	-0.051	0.045
-124.239	-129.681	-0.138	0.019
-123.224	-88.739	-0.300	0.087
-122.210	-92.124	0.098	0.027
-121.195	-200.000	0.029	0.296
-120.180	-200.000	-0.005	-0.193
