DTS Sentinel unit serial number:	SN413079Multiplexer serial number:	ORYXHardware model number:	OX4-SRSoftware version number:	ORYX F/W v4.00 Oryx Data Collector v3.7.2.0data status	okinstallation	princeton_trtdifferential loss correction	single-endedforward channel	channel 1reverse channel	N/Adate	2019/09/18time	06:42:35forward acquisition time	60.00reverse acquisition time	0.00gamma	496.2192k internal	0.2339k external	0.2339temperature offset calibration	0.9986default loss term (dB/km)	0.3790temperature slope calibration	1.0000multiplexer offset coefficient	1.0000multiplexer slope coefficient	1.0000fibre end	0.00T internal ref (°C)	23.25T ext. ref 1 (°C)	0.20T ext. ref 2 (°C)	17.12length (m)	temperature (°C)	Stokes	anti-Stokes-747.200	232.818	0.118	0.195
-746.185	-181.541	-0.204	0.004
-745.171	-66.379	-0.204	-0.081
-744.156	99.731	-0.267	0.310
-743.142	229.405	0.231	0.378
-742.127	-200.000	-0.030	0.330
-741.112	-198.627	0.198	0.001
-740.098	-200.000	0.025	0.334
-739.083	-200.000	-0.029	0.155
-738.069	-200.000	-0.074	0.407
-737.054	800.000	-0.051	0.171
-736.039	-108.332	-0.250	0.054
-735.025	269.824	0.167	-0.294
-734.010	-159.023	-0.458	-0.026
-732.996	-200.000	-0.020	-0.277
-731.981	-117.402	-0.148	0.027
-730.966	-141.031	-0.244	-0.025
-729.952	-53.280	0.140	-0.064
-728.937	98.157	0.177	-0.204
-727.923	-121.892	0.163	0.027
-726.908	11.070	-0.135	-0.104
-725.894	800.000	0.052	-0.147
-724.879	-88.711	-0.219	0.065
-723.864	-112.795	-0.277	-0.055
-722.850	392.606	-0.047	0.098
-721.835	9.508	0.095	0.072
-720.821	137.109	0.197	-0.259
-719.806	80.256	-0.192	-0.207
-718.791	78.419	0.215	0.231
-717.777	-16.058	-0.267	0.170
-716.762	221.671	-0.047	-0.075
-715.748	-12.756	-0.160	0.104
-714.733	549.896	0.098	0.236
-713.718	-86.022	0.166	-0.051
-712.704	-138.263	-0.293	0.032
-711.689	-96.214	0.087	-0.023
-710.675	119.763	-0.394	-0.489
-709.660	421.684	0.128	0.274
-708.645	5.112	-0.185	-0.137
-707.631	169.157	0.043	0.062
-706.616	-85.850	0.225	-0.070
-705.602	-18.088	-0.181	0.113
-704.587	146.026	0.073	-0.098
-703.572	-90.536	0.269	0.078
-702.558	67.842	0.038	0.039
-701.543	14.179	-0.151	0.118
-700.529	58.054	-0.322	0.315
-699.514	26.288	-0.148	-0.124
-698.499	67.354	0.200	-0.204
-697.485	170.560	0.098	-0.140
-696.470	-57.117	-0.313	0.138
-695.456	800.000	0.015	-0.065
-694.441	-83.798	0.237	-0.076
-693.426	217.277	-0.059	0.095
-692.412	-170.674	-0.037	0.001
-691.397	-18.977	-0.182	0.113
-690.383	4.699	-0.251	0.185
-689.368	-180.111	-0.457	-0.010
-688.354	-151.466	0.323	-0.024
-687.339	-200.000	-0.026	0.149
-686.324	-30.257	0.151	0.086
-685.310	-200.000	0.062	-0.416
-684.295	378.337	0.024	0.049
-683.281	257.402	0.064	0.110
-682.266	-200.000	-0.085	-0.486
-681.251	-68.335	0.053	-0.021
-680.237	-3.516	0.171	-0.119
-679.222	-137.860	0.357	-0.040
-678.208	-142.028	-0.214	-0.021
-677.193	800.000	-0.058	0.226
-676.178	-200.000	0.002	-0.167
-675.164	232.979	-0.074	0.122
-674.149	-156.395	-0.051	-0.003
-673.135	-34.473	-0.132	0.073
-672.120	289.999	-0.051	-0.093
-671.105	-200.000	0.035	0.285
-670.091	180.457	-0.186	0.273
-669.076	37.284	0.328	-0.291
-668.062	-128.077	-0.042	-0.006
-667.047	39.926	0.098	0.088
-666.032	21.307	-0.138	-0.112
-665.018	-78.241	0.183	-0.063
-664.003	648.624	-0.129	-0.330
-662.989	338.837	-0.060	0.116
-661.974	-200.000	0.003	0.075
-660.959	370.728	0.040	-0.081
-659.945	-102.557	-0.128	0.031
-658.930	-60.419	-0.096	-0.041
-657.916	21.245	0.037	0.030
-656.901	-21.403	-0.229	-0.140
-655.886	-50.200	0.226	0.107
-654.872	23.229	-0.056	0.046
-653.857	-77.274	-0.217	-0.075
-652.843	122.655	0.176	-0.220
-651.828	44.526	0.118	-0.108
-650.814	29.964	0.119	-0.101
-649.799	74.643	0.145	-0.152
-648.784	-167.995	0.083	0.003
-647.770	-117.588	-0.244	-0.044
-646.755	212.632	0.092	0.145
-645.741	-200.000	-0.001	0.115
-644.726	-67.711	-0.321	0.126
-643.711	519.549	-0.027	0.064
-642.697	401.138	0.122	0.257
-641.682	95.254	0.354	0.402
-640.668	-84.634	-0.276	-0.087
-639.653	-200.000	0.024	0.117
-638.638	-200.000	0.085	-0.430
-637.624	-154.452	-0.057	0.004
-636.609	800.000	-0.061	-0.250
-635.595	43.286	-0.285	-0.260
-634.580	279.866	0.119	0.212
-633.565	217.697	0.059	-0.094
-632.551	-200.000	-0.010	-0.111
-631.536	237.097	-0.134	-0.221
-630.522	800.000	0.146	-0.447
-629.507	-46.707	0.184	0.090
-628.492	-126.762	-0.220	-0.032
-627.478	-200.000	0.030	0.172
-626.463	-160.510	0.258	0.014
-625.449	-108.112	-0.280	0.061
-624.434	-200.000	0.049	0.305
-623.419	123.575	0.150	0.187
-622.405	800.000	0.082	0.334
-621.390	-94.368	-0.093	-0.025
-620.376	-41.169	-0.155	-0.080
-619.361	368.600	-0.044	-0.089
-618.346	800.000	-0.077	-0.230
-617.332	-200.000	-0.006	-0.080
-616.317	800.000	-0.108	0.399
-615.303	-27.440	-0.262	0.152
-614.288	-22.104	-0.296	0.179
-613.273	-100.212	0.279	-0.069
-612.259	233.922	-0.012	0.019
-611.244	131.408	-0.230	0.295
-610.230	30.398	0.141	0.120
-609.215	212.859	0.153	-0.242
-608.201	-200.000	-0.021	0.097
-607.186	140.589	-0.294	-0.387
-606.171	-84.691	-0.148	0.046
-605.157	-200.000	0.008	0.195
-604.142	352.297	-0.110	0.218
-603.128	-75.737	-0.330	-0.117
-602.113	-16.400	-0.171	-0.108
-601.098	49.060	-0.094	-0.088
-600.084	-130.866	0.050	-0.007
-599.069	418.387	0.149	-0.317
-598.055	425.618	-0.141	-0.302
-597.040	-200.000	-0.076	-0.457
-596.025	96.194	-0.068	-0.078
-595.011	333.199	0.087	-0.168
-593.996	-85.901	-0.358	-0.110
-592.982	52.607	0.165	0.157
-591.967	491.043	-0.089	0.204
-590.952	-120.273	-0.288	0.049
-589.938	19.192	-0.057	0.045
-588.923	-77.353	-0.166	0.058
-587.909	114.401	0.187	-0.228
-586.894	-91.537	0.158	0.045
-585.879	-48.761	-0.122	0.058
-584.865	-200.000	0.023	0.116
-583.850	-55.953	0.447	-0.199
-582.836	449.411	-0.213	-0.468
-581.821	-70.040	-0.273	-0.104
-580.806	-17.650	0.167	-0.104
-579.792	800.000	0.061	-0.264
-578.777	-37.686	-0.216	-0.115
-577.763	-12.220	-0.153	-0.099
-576.748	-183.918	-0.128	0.002
-575.733	-200.000	-0.004	0.153
-574.719	-77.895	-0.246	0.085
-573.704	-200.000	0.004	0.267
-572.690	800.000	-0.051	-0.153
-571.675	-32.080	0.391	-0.218
-570.661	-158.950	0.258	0.015
-569.646	37.214	0.030	0.027
-568.631	-98.664	0.105	-0.027
-567.617	-57.120	0.179	-0.079
-566.602	-65.456	0.194	-0.078
-565.588	-86.115	-0.325	0.100
-564.573	-25.312	-0.150	-0.088
-563.558	381.496	0.027	-0.056
-562.544	140.309	0.201	0.264
-561.529	-119.340	-0.172	-0.030
-560.515	-29.466	0.102	-0.058
-559.500	-110.180	-0.259	0.054
-558.485	-111.949	0.074	0.015
-557.471	-57.423	-0.255	0.111
-556.456	-133.224	-0.294	-0.037
-555.442	45.008	-0.109	-0.100
-554.427	250.018	0.128	0.216
-553.412	-200.000	-0.016	-0.276
-552.398	105.901	-0.192	-0.226
-551.383	-95.789	-0.412	-0.110
-550.369	-200.000	-0.007	-0.168
-549.354	29.758	0.211	-0.179
-548.339	103.926	-0.076	-0.089
-547.325	-114.913	-0.084	0.016
-546.310	-141.606	-0.039	0.004
-545.296	-126.091	0.164	0.024
-544.281	-147.685	0.236	0.020
-543.266	26.709	-0.094	0.078
-542.252	-104.490	-0.188	0.043
-541.237	0.987	-0.249	0.178
-540.223	-91.559	0.097	-0.027
-539.208	-36.886	-0.012	0.007
-538.193	-43.638	0.238	-0.119
-537.179	131.251	0.236	0.302
-536.164	62.577	0.127	0.126
-535.150	-200.000	-0.009	0.118
-534.135	800.000	0.130	-0.370
-533.121	337.261	0.164	-0.317
-532.106	-200.000	-0.021	-0.116
-531.091	800.000	-0.069	-0.194
-530.077	-1.396	0.133	0.093
-529.062	-200.000	-0.003	-0.110
-528.048	-57.318	0.208	0.091
-527.033	20.879	-0.350	-0.282
-526.018	296.006	0.129	-0.235
-525.004	-122.073	0.271	0.044
-523.989	-80.983	-0.366	-0.121
-522.975	106.091	-0.160	0.188
-521.960	163.418	-0.106	-0.148
-520.945	33.922	0.241	0.209
-519.931	-200.000	0.006	0.168
-518.916	79.267	-0.306	-0.326
-517.902	-96.426	0.361	-0.095
-516.887	82.250	0.226	0.243
-515.872	568.371	-0.065	-0.158
-514.858	-66.797	-0.247	-0.097
-513.843	-10.648	-0.164	-0.108
-512.829	-200.000	0.042	-0.265
-511.814	-41.517	-0.335	0.171
-510.799	-162.186	-0.217	0.011
-509.785	-75.891	-0.263	-0.093
-508.770	-200.000	0.021	0.306
-507.756	-29.647	0.258	0.147
-506.741	7.333	-0.399	-0.296
-505.726	800.000	-0.032	0.120
-504.712	800.000	-0.004	0.011
-503.697	286.799	-0.116	-0.208
-502.683	-77.519	-0.166	0.057
-501.668	-41.089	-0.213	-0.109
-500.653	157.904	-0.302	-0.416
-499.639	-161.441	-0.138	-0.007
-498.624	778.497	-0.031	0.084
-497.610	800.000	0.061	0.193
-496.595	-200.000	0.006	0.063
-495.581	-86.580	-0.093	-0.028
-494.566	164.540	0.311	-0.436
-493.551	-153.874	-0.196	0.013
-492.537	-80.085	-0.068	0.023
-491.522	800.000	0.048	-0.195
-490.508	314.902	-0.287	-0.537
-489.493	164.888	0.195	0.273
-488.478	-130.998	0.035	-0.005
-487.464	-62.601	-0.214	-0.088
-486.449	26.132	-0.050	-0.042
-485.435	-200.000	0.017	-0.162
-484.420	106.270	0.062	0.073
-483.405	669.403	-0.128	-0.328
-482.391	800.000	-0.016	-0.061
-481.376	-51.181	-0.331	0.154
-480.362	-30.901	0.074	0.042
-479.347	800.000	-0.056	-0.179
-478.332	-200.000	-0.094	-0.461
-477.318	332.606	0.076	0.146
-476.303	-200.000	-0.008	-0.184
-475.289	800.000	0.023	-0.086
-474.274	-47.131	0.317	0.153
-473.259	-200.000	0.003	0.052
-472.245	-0.688	-0.112	0.079
-471.230	800.000	0.012	0.043
-470.216	-78.753	-0.174	-0.059
-469.201	-55.338	0.067	-0.030
-468.186	47.033	0.118	0.109
-467.172	-96.890	-0.282	0.073
-466.157	-55.045	0.256	-0.114
-465.143	-200.000	-0.021	-0.359
-464.128	-171.182	-0.257	0.009
-463.113	29.508	0.171	-0.144
-462.099	-33.812	0.415	0.227
-461.084	-200.000	-0.019	0.360
-460.070	800.000	-0.064	-0.192
-459.055	556.365	0.043	0.102
-458.040	280.798	0.160	0.284
-457.026	-200.000	0.004	-0.235
-456.011	-80.259	0.077	-0.026
-454.997	-54.296	-0.245	0.110
-453.982	-200.000	-0.027	0.121
-452.968	-8.862	0.389	0.259
-451.953	-71.813	-0.192	0.071
-450.938	-200.000	-0.056	0.285
-449.924	133.216	0.009	0.011
-448.909	98.951	-0.158	0.181
-447.895	189.833	-0.098	-0.146
-446.880	-200.000	-0.004	-0.215
-445.865	82.291	-0.095	-0.102
-444.851	-79.243	0.200	0.067
-443.836	-89.664	0.173	0.050
-442.822	-97.179	0.073	-0.019
-441.807	800.000	-0.035	-0.106
-440.792	12.236	0.196	0.150
-439.778	133.216	0.199	0.255
-438.763	-138.032	-0.332	-0.037
-437.749	-47.188	-0.152	-0.073
-436.734	44.172	0.210	-0.191
-435.719	-30.150	0.212	0.119
-434.705	-200.000	-0.023	0.222
-433.690	800.000	0.075	-0.249
-432.676	46.362	-0.213	0.196
-431.661	109.384	-0.215	-0.255
-430.646	230.183	-0.088	0.143
-429.632	223.453	0.111	-0.178
-428.617	-70.920	0.185	0.069
-427.603	-168.007	0.227	-0.009
-426.588	-167.626	-0.175	0.007
-425.573	800.000	-0.068	-0.189
-424.559	-3.335	0.325	-0.224
-423.544	597.330	-0.089	-0.218
-422.530	-57.899	0.122	0.053
-421.515	-84.238	0.082	0.026
-420.500	-200.000	0.004	0.099
-419.486	259.608	-0.055	-0.093
-418.471	800.000	-0.065	-0.226
-417.457	-48.376	0.193	-0.092
-416.442	37.527	-0.210	-0.184
-415.428	-75.613	0.327	0.115
-414.413	800.000	-0.110	0.352
-413.398	338.134	0.180	0.346
-412.384	31.074	0.050	0.043
-411.369	474.000	-0.130	-0.289
-410.355	-200.000	0.063	-0.471
-409.340	-42.479	0.220	0.111
-408.325	-152.747	0.170	0.012
-407.311	600.630	0.038	-0.093
-406.296	-86.607	-0.066	0.020
-405.282	-71.477	0.484	0.179
-404.267	158.181	-0.065	-0.089
-403.252	2.782	-0.298	-0.214
-402.238	800.000	-0.085	-0.283
-401.223	-200.000	-0.029	0.208
-400.209	139.276	-0.260	-0.338
-399.194	-51.744	-0.129	-0.059
-398.179	24.595	0.025	0.020
-397.165	-176.171	-0.241	-0.006
-396.150	-106.305	-0.130	-0.029
-395.136	-80.567	0.230	0.076
-394.121	-141.680	-0.093	0.009
-393.106	133.483	-0.099	-0.127
-392.092	-85.756	0.258	0.079
-391.077	-200.000	-0.053	-0.353
-390.063	-126.849	-0.091	-0.013
-389.048	162.497	-0.306	0.425
-388.033	-62.923	-0.231	-0.095
-387.019	100.140	-0.098	0.112
-386.004	269.965	-0.110	-0.191
-384.990	-62.795	0.336	0.138
-383.975	50.789	0.339	-0.318
-382.960	-200.000	0.001	-0.124
-381.946	45.873	0.084	-0.076
-380.931	-55.802	0.127	0.056
-379.917	-116.484	0.110	-0.020
-378.902	-100.869	0.117	0.028
-377.888	-200.000	0.024	-0.136
-376.873	-141.956	-0.224	0.022
-375.858	232.895	0.183	0.297
-374.844	-200.000	0.004	-0.165
-373.829	393.979	0.022	0.044
-372.815	-81.903	-0.182	-0.059
-371.800	351.724	-0.208	0.407
-370.785	-200.000	0.013	0.131
-369.771	-200.000	0.067	-0.331
-368.756	9.917	-0.187	0.141
-367.742	-64.273	0.453	-0.182
-366.727	-200.000	0.000	0.004
-365.712	-70.433	0.126	-0.047
-364.698	-34.229	0.476	-0.258
-363.683	-200.000	-0.113	0.000
-362.669	222.891	0.155	-0.247
-361.654	161.253	0.107	0.147
-360.639	337.250	-0.171	0.329
-359.625	-32.849	0.184	-0.101
-358.610	800.000	0.194	-0.610
-357.596	-200.000	-0.022	0.108
-356.581	-200.000	-0.031	0.319
-355.566	-200.000	-0.013	0.126
-354.552	-82.102	-0.074	0.024
-353.537	334.299	0.151	0.289
-352.523	23.977	0.069	-0.056
-351.508	-138.553	-0.081	-0.009
-350.493	10.063	-0.053	-0.040
-349.479	-200.000	-0.048	-0.260
-348.464	302.698	-0.124	0.226
-347.450	-0.935	-0.074	-0.052
-346.435	-2.626	0.196	0.135
-345.420	-100.978	-0.294	-0.071
-344.406	-146.096	0.070	0.006
-343.391	-200.000	0.048	0.444
-342.377	657.856	0.176	0.447
-341.362	-78.418	0.138	0.047
-340.348	147.532	-0.231	-0.307
-339.333	-173.793	0.063	-0.002
-338.318	100.494	-0.139	0.159
-337.304	-200.000	-0.006	-0.078
-336.289	70.195	0.022	0.022
-335.275	-14.167	-0.177	-0.113
-334.260	-200.000	-0.028	0.256
-333.245	14.601	-0.130	-0.100
-332.231	-117.199	-0.147	-0.026
-331.216	-200.000	0.035	-0.213
-330.202	-200.000	0.018	0.204
-329.187	258.274	0.039	0.067
-328.172	800.000	-0.083	0.315
-327.158	-81.488	0.199	0.065
-326.143	-106.258	0.165	-0.036
-325.129	514.626	0.127	0.293
-324.114	-37.587	0.157	0.082
-323.099	-200.000	0.034	0.685
-322.085	-30.315	0.255	0.143
-321.070	55.538	0.033	-0.032
-320.056	-41.448	-0.109	-0.055
-319.041	409.017	0.066	-0.139
-318.026	303.318	0.128	0.234
-317.012	23.829	0.057	0.046
-315.997	800.000	-0.031	0.092
-314.983	-98.531	0.425	-0.107
-313.968	-73.353	0.075	-0.027
-312.953	28.972	-0.064	-0.054
-311.939	197.515	0.246	-0.370
-310.924	-89.860	0.244	-0.070
-309.910	-124.193	0.097	-0.015
-308.895	-93.116	-0.421	0.116
-307.880	-144.755	0.277	0.025
-306.866	479.367	0.211	-0.472
-305.851	725.721	-0.067	-0.176
-304.837	-200.000	-0.001	0.213
-303.822	-105.979	-0.294	0.065
-302.807	-56.241	0.132	0.058
-301.793	254.921	0.048	-0.082
-300.778	26.763	-0.040	0.033
-299.764	398.260	-0.064	0.131
-298.749	-200.000	0.022	0.166
-297.735	-27.924	0.177	-0.101
-296.720	-200.000	0.008	-0.215
-295.705	15.329	0.247	-0.191
-294.691	87.164	0.224	-0.244
-293.676	-66.912	-0.087	-0.034
-292.662	228.695	-0.221	0.355
-291.647	-139.242	0.134	-0.014
-290.632	205.747	-0.314	-0.481
-289.618	41.829	0.320	-0.286
-288.603	375.470	-0.111	0.223
-287.589	92.928	0.105	-0.117
-286.574	-33.390	0.229	-0.125
-285.559	800.000	-0.034	0.142
-284.545	161.877	-0.071	-0.098
-283.530	88.167	-0.126	0.137
-282.516	-200.000	-0.065	0.301
-281.501	100.739	0.216	0.248
-280.486	-79.552	-0.059	0.020
-279.472	-155.331	0.258	-0.017
-278.457	-200.000	0.003	0.158
-277.443	-112.022	0.216	0.043
-276.428	-119.767	-0.320	0.054
-275.413	7.324	-0.160	-0.118
-274.399	135.748	0.107	0.138
-273.384	800.000	-0.103	-0.335
-272.370	48.901	0.176	-0.163
-271.355	448.071	-0.191	0.413
-270.340	800.000	0.016	0.049
-269.326	69.088	0.226	-0.229
-268.311	6.400	-0.156	-0.114
-267.297	-200.000	0.042	-0.231
-266.282	160.619	-0.085	-0.116
-265.267	133.249	0.259	0.329
-264.253	-200.000	-0.021	0.192
-263.238	800.000	-0.031	0.092
-262.224	333.909	0.080	0.152
-261.209	-200.000	0.071	0.425
-260.195	-10.336	0.108	-0.071
-259.180	13.707	0.141	0.108
-258.165	-4.423	0.219	-0.149
-257.151	25.537	-0.284	0.233
-256.136	-120.367	0.335	0.056
-255.122	-84.466	0.207	0.064
-254.107	-106.438	-0.045	-0.010
-253.092	-97.096	-0.267	-0.069
-252.078	-200.000	0.007	0.129
-251.063	7.723	-0.308	0.227
-250.049	58.474	0.090	0.087
-249.034	187.795	0.128	-0.188
-248.019	-6.161	0.051	-0.034
-247.005	277.950	0.109	0.191
-245.990	-116.594	0.059	0.011
-244.976	-87.218	0.167	0.050
-243.961	705.629	0.113	0.293
-242.946	191.540	0.050	-0.074
-241.932	-6.468	-0.238	0.160
-240.917	800.000	0.039	-0.151
-239.903	447.938	-0.060	-0.129
-238.888	6.024	0.214	0.156
-237.873	397.191	-0.101	0.208
-236.859	-40.165	-0.254	-0.130
-235.844	800.000	-0.071	0.277
-234.830	57.859	-0.200	0.193
-233.815	-53.519	0.155	-0.070
-232.800	-154.434	0.086	-0.006
-231.786	-200.000	-0.045	-0.305
-230.771	100.729	0.154	0.176
-229.757	-60.054	-0.137	0.058
-228.742	800.000	0.030	-0.103
-227.727	612.362	0.157	0.385
-226.713	138.424	0.069	0.088
-225.698	260.302	-0.026	0.045
-224.684	-155.311	0.220	0.014
-223.669	-58.296	0.113	-0.048
-222.655	-92.597	0.225	-0.062
-221.640	-115.604	-0.281	-0.052
-220.625	-89.677	0.139	-0.040
-219.611	800.000	0.114	0.318
-218.596	-200.000	0.039	-0.425
-217.582	313.926	-0.043	0.079
-216.567	-45.416	0.059	0.029
-215.552	181.740	-0.075	0.108
-214.538	339.501	-0.118	-0.227
-213.523	183.145	-0.150	-0.218
-212.509	-169.853	-0.131	-0.005
-211.494	123.709	-0.091	0.112
-210.479	-195.196	0.304	-0.002
-209.465	-134.565	0.070	0.008
-208.450	-69.361	-0.508	-0.192
-207.436	160.438	0.132	-0.181
-206.421	-35.366	-0.055	-0.030
-205.406	-200.000	0.012	-0.371
-204.392	391.278	-0.091	0.185
-203.377	-41.960	0.138	0.069
-202.363	-152.015	-0.390	0.028
-201.348	-200.000	0.045	0.233
-200.333	-60.485	-0.363	-0.151
-199.319	99.493	-0.187	0.212
-198.304	325.088	-0.064	-0.120
-197.290	-165.208	-0.300	0.013
-196.275	351.809	-0.066	-0.129
-195.260	-200.000	-0.038	0.429
-194.246	-166.680	0.113	0.005
-193.231	110.373	-0.124	0.146
-192.217	-102.917	-0.140	0.033
-191.202	74.812	-0.273	0.282
-190.187	-200.000	0.054	0.408
-189.173	-200.000	-0.036	-0.225
-188.158	-200.000	-0.010	0.318
-187.144	-104.175	-0.158	-0.036
-186.129	-122.115	0.472	0.076
-185.114	89.637	0.239	-0.262
-184.100	650.224	-0.128	0.322
-183.085	-40.207	0.086	0.044
-182.071	-200.000	-0.030	0.172
-181.056	18.388	0.235	0.184
-180.042	-90.976	0.063	-0.018
-179.027	0.346	0.291	0.204
-178.012	-200.000	-0.030	0.281
-176.998	-22.515	0.421	0.250
-175.983	-200.000	0.015	0.311
-174.969	-149.713	-0.080	-0.006
-173.954	340.092	-0.070	-0.134
-172.939	-123.504	0.240	-0.037
-171.925	198.656	0.090	-0.134
-170.910	-65.858	0.108	0.043
-169.896	617.721	-0.152	0.375
-168.881	800.000	-0.108	0.300
-167.866	-200.000	0.036	-0.175
-166.852	150.790	-0.147	-0.196
-165.837	-200.000	0.054	-0.254
-164.823	-74.337	0.115	0.041
-163.808	205.322	-0.064	0.097
-162.793	378.155	-0.071	-0.142
-161.779	5.052	-0.207	0.149
-160.764	-124.950	-0.257	0.039
-159.750	198.282	0.056	-0.084
-158.735	-90.910	0.416	-0.117
-157.720	-20.839	0.073	0.044
-156.706	144.898	-0.092	0.120
-155.691	-17.188	-0.070	0.043
-154.677	-31.721	0.185	0.102
-153.662	59.485	0.197	0.191
-152.647	-153.548	0.095	-0.006
-151.633	-200.000	-0.012	-0.078
-150.618	800.000	0.029	0.103
-149.604	-34.948	-0.245	-0.131
-148.589	800.000	-0.031	-0.106
-147.574	-200.000	-0.032	0.271
-146.560	-88.194	0.394	-0.116
-145.545	191.412	0.214	-0.316
-144.531	-163.098	-0.328	-0.016
-143.516	-82.620	0.179	0.057
-142.502	-142.376	-0.128	-0.012
-141.487	-132.421	-0.294	-0.037
-140.472	-48.700	0.175	-0.082
-139.458	-200.000	0.012	0.160
-138.443	-124.849	-0.376	0.057
-137.429	800.000	0.026	0.096
-136.414	-67.409	0.305	0.118
-135.399	15.162	0.153	0.118
-134.385	-200.000	0.001	0.013
-133.370	-197.012	-0.261	-0.002
-132.356	-148.324	0.121	0.010
-131.341	-107.446	-0.240	0.051
-130.326	-47.391	-0.152	-0.073
-129.312	-46.895	-0.077	0.037
-128.297	800.000	-0.077	0.249
-127.283	800.000	0.168	0.479
-126.268	-0.336	-0.271	-0.188
-125.253	126.472	0.169	0.210
-124.239	3.410	-0.181	-0.129
-123.224	-84.828	0.317	0.097
-122.210	50.827	-0.287	0.266
-121.195	-200.000	0.042	0.463
