DTS Sentinel unit serial number:	SN413079Multiplexer serial number:	ORYXHardware model number:	OX4-SRSoftware version number:	ORYX F/W v4.00 Oryx Data Collector v3.7.2.0data status	okinstallation	princeton_trtdifferential loss correction	single-endedforward channel	channel 1reverse channel	N/Adate	2019/09/18time	06:46:35forward acquisition time	60.00reverse acquisition time	0.00gamma	496.2192k internal	0.2339k external	0.2339temperature offset calibration	0.9981default loss term (dB/km)	0.3790temperature slope calibration	1.0000multiplexer offset coefficient	1.0000multiplexer slope coefficient	1.0000fibre end	0.00T internal ref (°C)	23.25T ext. ref 1 (°C)	0.19T ext. ref 2 (°C)	16.98length (m)	temperature (°C)	Stokes	anti-Stokes-747.200	800.000	0.056	0.208
-746.185	-200.000	0.034	0.407
-745.171	217.386	-0.218	0.348
-744.156	-62.644	-0.373	0.155
-743.142	-24.405	-0.188	-0.112
-742.127	232.444	-0.239	0.393
-741.112	-200.000	0.026	-0.190
-740.098	-100.189	-0.265	-0.066
-739.083	-102.130	-0.272	0.066
-738.069	-200.000	0.009	0.167
-737.054	102.310	0.126	-0.148
-736.039	-128.181	-0.298	-0.043
-735.025	-140.849	-0.052	0.005
-734.010	-38.688	-0.076	-0.040
-732.996	-66.646	0.221	0.088
-731.981	16.202	-0.253	-0.200
-730.966	83.992	0.089	-0.097
-729.952	-2.987	-0.100	-0.070
-728.937	-200.000	-0.084	-0.392
-727.923	620.422	-0.045	0.113
-726.908	-92.795	-0.240	0.067
-725.894	-81.448	-0.091	0.030
-724.879	-80.230	-0.090	0.030
-723.864	-200.000	-0.016	-0.559
-722.850	-200.000	-0.002	0.037
-721.835	14.356	-0.322	-0.251
-720.821	-92.339	-0.232	-0.065
-719.806	20.699	-0.079	0.064
-718.791	94.174	-0.109	-0.124
-717.777	-68.522	0.050	0.019
-716.762	-48.202	-0.026	-0.013
-715.748	-200.000	0.119	-0.633
-714.733	20.802	0.084	0.068
-713.718	800.000	0.076	-0.308
-712.704	-93.848	-0.141	0.039
-711.689	282.752	-0.109	-0.196
-710.675	800.000	0.056	-0.182
-709.660	-132.826	0.268	-0.034
-708.645	-84.457	-0.125	-0.040
-707.631	0.167	-0.118	0.084
-706.616	-34.846	0.150	0.082
-705.602	-200.000	0.073	-0.352
-704.587	800.000	0.038	0.147
-703.572	-73.546	-0.214	0.078
-702.558	800.000	0.034	-0.097
-701.543	800.000	-0.021	-0.075
-700.529	800.000	-0.153	-0.487
-699.514	-95.986	0.183	0.049
-698.499	275.810	0.095	-0.168
-697.485	36.392	-0.175	-0.154
-696.470	800.000	-0.084	-0.330
-695.456	242.304	0.077	0.129
-694.441	-13.305	0.230	-0.149
-693.426	-192.079	0.111	0.001
-692.412	-150.064	0.320	-0.025
-691.397	-18.533	0.241	0.150
-690.383	-121.478	-0.194	-0.032
-689.368	140.945	-0.136	0.180
-688.354	60.116	-0.148	-0.146
-687.339	-200.000	0.063	0.483
-686.324	385.761	0.070	-0.144
-685.310	147.255	-0.127	0.171
-684.295	135.634	-0.070	-0.091
-683.281	800.000	-0.044	0.139
-682.266	-129.229	0.166	0.023
-681.251	-45.496	-0.264	0.131
-680.237	-100.750	-0.297	0.073
-679.222	63.361	-0.141	-0.142
-678.208	233.793	0.187	-0.308
-677.193	-111.294	0.647	0.132
-676.178	-96.617	-0.269	0.071
-675.164	136.790	0.133	0.174
-674.149	245.196	0.019	-0.032
-673.135	-111.691	0.214	0.043
-672.120	-20.113	0.098	-0.060
-671.105	100.596	0.342	0.397
-670.091	800.000	-0.019	0.078
-669.076	-59.005	0.280	-0.121
-668.062	420.213	0.070	-0.151
-667.047	-200.000	0.028	0.238
-666.032	-122.181	-0.243	0.040
-665.018	31.498	-0.171	0.147
-664.003	91.861	0.188	0.211
-662.989	-16.159	0.074	0.047
-661.974	80.044	-0.046	-0.050
-660.959	-200.000	-0.013	0.153
-659.945	-199.143	-0.247	-0.001
-658.930	-200.000	0.056	0.307
-657.916	-11.200	0.352	0.232
-656.901	800.000	-0.071	-0.243
-655.886	800.000	-0.020	0.067
-654.872	20.603	-0.140	0.113
-653.857	-29.742	-0.164	0.093
-652.843	57.543	0.147	-0.144
-651.828	-200.000	0.008	-0.131
-650.814	-106.525	0.119	0.027
-649.799	-125.376	-0.184	-0.028
-648.784	-169.865	-0.378	0.014
-647.770	800.000	-0.051	-0.143
-646.755	336.121	-0.086	0.167
-645.741	-112.548	-0.084	0.017
-644.726	-200.000	-0.010	0.105
-643.711	-57.223	0.091	-0.040
-642.697	64.330	-0.283	0.285
-641.682	-105.183	-0.398	-0.091
-640.668	-99.170	-0.112	0.028
-639.653	33.856	0.078	-0.068
-638.638	192.784	0.140	-0.211
-637.624	-122.374	-0.182	0.030
-636.609	-84.481	0.063	-0.020
-635.595	51.054	0.169	-0.160
-634.580	-45.198	0.300	-0.149
-633.565	698.260	0.046	-0.122
-632.551	217.483	0.019	0.030
-631.536	-200.000	0.021	-0.193
-630.522	800.000	-0.044	0.154
-629.507	-31.866	-0.295	-0.165
-628.492	485.220	0.102	0.232
-627.478	800.000	0.029	-0.102
-626.463	159.720	-0.145	-0.202
-625.449	-120.471	-0.372	-0.063
-624.434	95.195	0.234	0.266
-623.419	-36.922	-0.239	0.128
-622.405	-200.000	0.016	-0.164
-621.390	-84.919	0.197	0.062
-620.376	-35.430	-0.161	-0.087
-619.361	-12.274	-0.302	-0.197
-618.346	609.443	-0.155	-0.387
-617.332	21.724	-0.223	-0.181
-616.317	-200.000	0.011	0.200
-615.303	-200.000	-0.025	0.244
-614.288	800.000	-0.086	0.324
-613.273	-200.000	0.016	0.092
-612.259	-134.881	0.210	-0.025
-611.244	-77.858	0.298	0.103
-610.230	223.405	0.132	-0.213
-609.215	103.999	0.071	0.083
-608.201	-200.000	0.022	0.297
-607.186	-200.000	-0.026	0.171
-606.171	-103.461	-0.243	0.057
-605.157	-29.591	-0.357	0.204
-604.142	423.277	0.086	-0.183
-603.128	-80.940	0.245	-0.081
-602.113	-93.818	0.302	-0.083
-601.098	-151.159	-0.346	0.026
-600.084	-109.195	0.213	0.045
-599.069	-200.000	-0.043	0.223
-598.055	800.000	-0.029	0.102
-597.040	124.837	0.384	-0.482
-596.025	118.397	-0.106	-0.131
-595.011	-152.925	0.168	-0.012
-593.996	430.340	-0.088	-0.189
-592.982	178.075	-0.155	-0.226
-591.967	-78.439	0.278	0.095
-590.952	14.452	0.052	0.041
-589.938	-53.794	0.121	-0.055
-588.923	-10.864	-0.120	-0.079
-587.909	-21.802	0.081	-0.049
-586.894	-173.110	-0.072	-0.002
-585.879	-200.000	-0.001	-0.018
-584.865	-0.943	-0.243	-0.171
-583.850	-75.709	0.392	-0.139
-582.836	-127.163	0.318	-0.046
-581.821	-200.000	0.040	-0.317
-580.806	103.158	-0.053	-0.062
-579.792	-31.924	-0.365	-0.204
-578.777	47.532	-0.123	0.114
-577.763	275.892	0.116	-0.206
-576.748	-28.235	0.027	0.016
-575.733	52.872	-0.198	-0.189
-574.719	-8.317	0.412	-0.276
-573.704	241.900	-0.166	-0.277
-572.690	-103.820	-0.232	0.054
-571.675	-158.710	0.345	-0.020
-570.661	-200.000	0.016	0.283
-569.646	-67.215	0.043	0.017
-568.631	-200.000	0.062	-0.281
-567.617	-200.000	-0.028	-0.147
-566.602	-200.000	-0.013	0.069
-565.588	764.968	0.045	-0.121
-564.573	-8.905	0.144	0.096
-563.558	151.519	0.069	-0.093
-562.544	800.000	-0.099	0.343
-561.529	401.617	-0.091	-0.191
-560.515	-106.861	0.181	0.040
-559.500	113.582	-0.107	-0.130
-558.485	566.785	-0.105	0.253
-557.471	-200.000	-0.015	0.260
-556.456	-95.788	-0.302	-0.080
-555.442	273.568	0.129	0.228
-554.427	-200.000	0.087	0.415
-553.412	-200.000	-0.044	-0.406
-552.398	800.000	-0.066	0.253
-551.383	-200.000	-0.054	-0.259
-550.369	-129.008	0.126	-0.018
-549.354	484.705	-0.153	-0.347
-548.339	29.486	0.162	-0.137
-547.325	39.007	-0.202	-0.179
-546.310	-83.393	-0.169	-0.054
-545.296	-119.590	-0.081	0.014
-544.281	72.239	0.223	0.232
-543.266	-50.060	-0.347	-0.164
-542.252	38.847	0.108	0.096
-541.237	93.959	0.120	0.136
-540.223	800.000	-0.098	-0.296
-539.208	-16.670	0.222	0.140
-538.193	83.965	-0.078	-0.085
-537.179	-200.000	0.037	-0.307
-536.164	800.000	-0.085	-0.237
-535.150	-38.472	0.180	0.095
-534.135	-200.000	-0.001	0.111
-533.121	-200.000	0.015	0.492
-532.106	72.003	-0.095	0.099
-531.091	-131.191	-0.172	0.023
-530.077	118.604	0.111	-0.136
-529.062	-200.000	0.007	-0.160
-528.048	800.000	0.089	-0.252
-527.033	-131.153	0.431	0.057
-526.018	45.327	0.198	0.182
-525.004	-200.000	0.022	0.453
-523.989	-200.000	0.055	0.403
-522.975	189.969	0.195	-0.291
-521.960	129.521	0.177	-0.225
-520.945	-73.527	0.222	0.080
-519.931	87.927	-0.110	0.121
-518.916	-200.000	-0.031	0.339
-517.902	-80.073	0.269	0.090
-516.887	-200.000	0.038	-0.264
-515.872	3.120	-0.119	-0.086
-514.858	-83.996	0.142	-0.045
-513.843	113.856	-0.119	0.143
-512.829	800.000	0.056	-0.189
-511.814	38.857	0.187	-0.166
-510.799	-75.279	0.298	0.106
-509.785	50.705	-0.169	0.159
-508.770	131.660	-0.081	-0.104
-507.756	-200.000	-0.047	-0.217
-506.741	-200.000	0.043	0.348
-505.726	-73.865	-0.244	-0.088
-504.712	228.343	0.069	-0.112
-503.697	-200.000	-0.065	-0.439
-502.683	86.018	-0.161	-0.176
-501.668	112.613	0.122	-0.147
-500.653	25.969	-0.107	0.089
-499.639	142.518	-0.080	-0.105
-498.624	217.367	-0.090	0.142
-497.610	-200.000	-0.006	-0.044
-496.595	-104.500	0.335	0.077
-495.581	51.480	-0.276	-0.261
-494.566	114.535	-0.135	-0.164
-493.551	104.792	-0.006	0.007
-492.537	192.527	-0.147	-0.221
-491.522	421.352	-0.106	-0.226
-490.508	-200.000	-0.076	-0.399
-489.493	800.000	-0.088	-0.348
-488.478	410.826	0.151	-0.317
-487.464	-13.269	-0.140	-0.090
-486.449	110.849	0.143	0.170
-485.435	87.921	0.035	-0.038
-484.420	599.663	0.127	0.313
-483.405	-63.582	0.428	0.174
-482.391	-8.466	0.222	0.148
-481.376	-200.000	0.004	0.077
-480.362	-200.000	0.001	0.080
-479.347	-43.883	0.173	-0.087
-478.332	363.186	0.037	-0.073
-477.318	-58.171	0.129	-0.056
-476.303	-175.423	0.202	-0.005
-475.289	17.900	0.148	-0.117
-474.274	39.577	-0.147	0.131
-473.259	-32.770	0.124	-0.068
-472.245	110.158	-0.134	0.159
-471.230	-200.000	-0.021	0.100
-470.216	57.047	-0.191	-0.185
-469.201	-94.640	-0.163	-0.044
-468.186	-200.000	-0.033	0.253
-467.172	195.105	-0.288	-0.434
-466.157	800.000	-0.011	-0.045
-465.143	-138.129	-0.101	0.011
-464.128	-25.393	-0.160	0.094
-463.113	71.351	-0.124	0.127
-462.099	-116.744	-0.238	0.043
-461.084	747.461	0.031	0.083
-460.070	-200.000	-0.006	0.047
-459.055	11.369	-0.110	-0.084
-458.040	160.378	0.142	-0.197
-457.026	149.903	-0.051	0.069
-456.011	-200.000	0.038	0.209
-454.997	360.672	0.027	0.053
-453.982	10.672	-0.109	0.082
-452.968	162.807	0.138	-0.192
-451.953	-200.000	0.038	0.194
-450.938	115.072	-0.230	0.279
-449.924	800.000	-0.037	0.141
-448.909	-193.850	-0.109	0.001
-447.895	656.684	0.106	0.270
-446.880	603.390	0.116	0.287
-445.865	800.000	-0.061	0.198
-444.851	-149.214	0.276	0.022
-443.836	800.000	0.058	0.243
-442.822	-136.311	0.014	-0.002
-441.807	-200.000	-0.007	0.036
-440.792	-200.000	0.096	0.594
-439.778	-146.508	-0.114	0.010
-438.763	34.171	-0.217	0.187
-437.749	-164.364	0.150	-0.007
-436.734	-200.000	0.017	-0.192
-435.719	13.099	0.158	0.121
-434.705	-149.246	-0.428	0.034
-433.690	85.902	0.150	-0.163
-432.676	-60.581	-0.189	-0.079
-431.661	79.742	0.153	-0.162
-430.646	-200.000	0.029	-0.308
-429.632	57.992	0.069	0.067
-428.617	61.807	0.082	-0.081
-427.603	57.919	-0.120	0.116
-426.588	-200.000	0.009	0.057
-425.573	26.163	-0.182	0.150
-424.559	-146.002	-0.248	0.022
-423.544	-166.769	0.195	-0.008
-422.530	-8.302	0.061	0.041
-421.515	-40.880	-0.257	-0.132
-420.500	800.000	-0.030	-0.095
-419.486	23.792	0.102	0.083
-418.471	-127.355	-0.090	0.013
-417.457	-41.093	-0.379	0.194
-416.442	71.954	0.152	0.157
-415.428	-26.369	0.299	-0.174
-414.413	-200.000	0.041	0.235
-413.398	-200.000	0.008	-0.038
-412.384	-125.890	0.095	0.014
-411.369	15.057	0.225	0.174
-410.355	-45.333	0.229	0.112
-409.340	-81.978	-0.022	0.007
-408.325	-115.906	-0.158	0.029
-407.311	273.453	-0.094	-0.164
-406.296	-117.886	-0.153	0.027
-405.282	-43.152	0.233	0.117
-404.267	297.565	-0.101	-0.183
-403.252	-200.000	-0.095	-0.433
-402.238	388.411	-0.077	0.157
-401.223	356.586	-0.092	0.181
-400.209	551.893	0.041	-0.098
-399.194	-116.898	0.112	0.020
-398.179	800.000	0.073	0.306
-397.165	-131.825	0.311	-0.040
-396.150	-30.171	0.109	0.062
-395.136	-200.000	-0.008	0.050
-394.121	159.425	-0.073	0.101
-393.106	-63.768	0.152	0.062
-392.092	115.285	0.157	-0.189
-391.077	-200.000	-0.026	-0.172
-390.063	-151.531	-0.503	-0.037
-389.048	-32.481	0.157	0.086
-388.033	-121.923	-0.338	0.055
-387.019	-200.000	-0.009	0.216
-386.004	800.000	0.075	0.217
-384.990	-10.453	-0.139	0.091
-383.975	-113.504	0.300	0.058
-382.960	-83.598	-0.368	0.116
-381.946	329.045	0.160	0.305
-380.931	99.759	0.109	0.124
-379.917	26.463	0.058	-0.048
-378.902	-44.284	-0.367	-0.182
-377.888	65.430	-0.179	0.179
-376.873	800.000	0.109	0.336
-375.858	-200.000	0.000	-0.300
-374.844	11.354	-0.268	-0.203
-373.829	431.583	0.047	0.100
-372.815	-123.798	0.142	0.022
-371.800	203.685	-0.132	-0.202
-370.785	-200.000	0.003	0.118
-369.771	-4.792	-0.290	0.198
-368.756	-35.591	-0.028	0.015
-367.742	81.332	0.194	-0.207
-366.727	305.632	-0.106	-0.194
-365.712	-51.906	-0.084	-0.039
-364.698	-150.758	0.267	-0.020
-363.683	81.172	-0.144	-0.154
-362.669	62.013	0.217	0.213
-361.654	-22.371	0.087	0.052
-360.639	-200.000	-0.026	0.354
-359.625	-9.444	0.097	0.064
-358.610	224.455	0.096	0.153
-357.596	-200.000	0.012	0.118
-356.581	-133.636	0.217	0.027
-355.566	331.756	0.007	-0.014
-354.552	414.685	-0.133	0.279
-353.537	-200.000	-0.023	0.325
-352.523	-148.441	-0.081	0.007
-351.508	800.000	-0.095	0.296
-350.493	-100.511	0.077	-0.019
-349.479	800.000	0.046	0.132
-348.464	800.000	-0.095	0.322
-347.450	0.771	0.175	-0.123
-346.435	-200.000	-0.004	-0.133
-345.420	-127.217	0.230	-0.033
-344.406	410.995	-0.172	0.361
-343.391	800.000	0.036	-0.135
-342.377	-200.000	-0.001	-0.150
-341.362	-200.000	-0.023	-0.255
-340.348	709.237	-0.036	0.094
-339.333	-200.000	-0.018	-0.093
-338.318	437.215	-0.098	0.211
-337.304	-200.000	0.046	0.201
-336.289	62.366	0.034	-0.034
-335.275	122.857	0.120	-0.149
-334.260	-200.000	0.010	0.154
-333.245	-130.607	-0.206	-0.027
-332.231	332.310	0.255	-0.485
-331.216	-200.000	-0.013	0.326
-330.202	-2.796	-0.282	0.195
-329.187	-164.568	-0.209	-0.009
-328.172	-91.358	0.219	-0.062
-327.158	-49.385	0.234	-0.110
-326.143	-116.313	-0.177	0.032
-325.129	77.387	-0.070	-0.073
-324.114	-79.536	-0.112	-0.037
-323.099	21.177	-0.141	0.113
-322.085	107.184	-0.105	0.123
-321.070	-200.000	-0.030	0.231
-320.056	70.587	0.246	-0.251
-319.041	800.000	0.111	0.358
-318.026	-116.188	-0.014	0.003
-317.012	800.000	-0.053	-0.179
-315.997	-173.306	0.197	-0.006
-314.983	-128.918	-0.123	-0.017
-313.968	-54.698	0.286	0.127
-312.953	800.000	-0.037	-0.155
-311.939	58.014	-0.240	0.232
-310.924	-200.000	0.006	-0.072
-309.910	-12.655	0.079	0.051
-308.895	-34.369	-0.131	0.071
-307.880	23.760	-0.180	0.146
-306.866	800.000	-0.091	-0.377
-305.851	-146.027	0.168	-0.015
-304.837	115.416	0.144	-0.173
-303.822	-183.526	-0.138	-0.002
-302.807	-200.000	0.025	-0.303
-301.793	6.808	0.136	-0.100
-300.778	-130.074	0.399	-0.054
-299.764	-200.000	-0.001	-0.050
-298.749	224.339	-0.181	0.289
-297.735	-94.347	-0.101	0.027
-296.720	19.348	0.141	0.111
-295.705	-145.118	-0.246	0.022
-294.691	75.906	0.055	-0.057
-293.676	379.750	0.085	0.171
-292.662	-110.185	-0.102	-0.021
-291.647	-100.031	-0.129	0.032
-290.632	361.744	-0.119	-0.235
-289.618	-117.768	-0.285	-0.050
-288.603	-110.883	-0.201	-0.041
-287.589	-53.861	0.172	-0.077
-286.574	624.310	0.086	-0.215
-285.559	-148.299	0.039	0.003
-284.545	348.635	-0.150	-0.291
-283.530	800.000	0.101	0.339
-282.516	348.845	-0.090	0.175
-281.501	800.000	-0.031	-0.101
-280.486	-60.630	0.202	-0.084
-279.472	39.159	-0.027	-0.024
-278.457	-200.000	-0.075	0.362
-277.443	-200.000	-0.051	-0.355
-276.428	-200.000	-0.030	0.426
-275.413	-4.254	0.010	-0.007
-274.399	-32.772	-0.154	0.084
-273.384	105.697	-0.027	0.032
-272.370	800.000	-0.102	-0.323
-271.355	-44.592	-0.180	0.089
-270.340	507.702	-0.044	0.101
-269.326	-200.000	0.028	-0.345
-268.311	-10.354	0.506	0.330
-267.297	222.654	0.085	-0.135
-266.282	-200.000	0.041	0.285
-265.267	-182.966	-0.280	0.005
-264.253	414.231	0.021	0.044
-263.238	-200.000	-0.007	-0.336
-262.224	157.234	0.070	-0.095
-261.209	-200.000	0.008	-0.046
-260.195	-103.865	-0.093	0.021
-259.180	-97.866	0.196	-0.050
-258.165	333.144	0.219	-0.416
-257.151	-42.377	-0.127	0.064
-256.136	28.032	0.111	-0.092
-255.122	16.629	0.093	-0.072
-254.107	-200.000	0.011	-0.269
-253.092	-129.721	-0.075	-0.010
-252.078	94.714	0.120	0.134
-251.063	107.456	-0.251	0.293
-250.049	-95.930	0.280	-0.074
-249.034	129.815	-0.155	-0.195
-248.019	507.760	-0.180	-0.412
-247.005	139.671	-0.130	-0.169
-245.990	800.000	0.020	-0.076
-244.976	-74.539	-0.205	0.073
-243.961	-12.896	0.097	-0.062
-242.946	-66.354	-0.165	0.065
-241.932	778.254	0.088	-0.235
-240.917	46.486	-0.516	-0.471
-239.903	312.233	0.142	0.262
-238.888	-64.347	-0.305	0.122
-237.873	237.183	-0.070	0.114
-236.859	111.671	-0.068	0.081
-235.844	-33.339	0.065	-0.035
-234.830	-200.000	-0.008	-0.383
-233.815	254.371	0.086	0.145
-232.800	-200.000	-0.046	-0.359
-231.786	-200.000	0.009	-0.148
-230.771	-104.577	0.029	-0.007
-229.757	49.287	0.287	0.265
-228.742	125.104	-0.112	-0.139
-227.727	27.160	0.114	0.094
-226.713	-200.000	0.059	0.387
-225.698	-161.524	0.394	0.020
-224.684	26.995	-0.234	0.193
-223.669	36.872	-0.146	0.126
-222.655	-200.000	-0.006	0.054
-221.640	-8.106	-0.233	-0.154
-220.625	-200.000	-0.009	-0.183
-219.611	265.883	0.165	-0.284
-218.596	-66.350	-0.079	0.031
-217.582	-87.396	-0.219	0.065
-216.567	-3.057	0.134	-0.092
-215.552	396.347	0.144	0.294
-214.538	236.930	0.173	-0.281
-213.523	-53.524	0.049	0.022
-212.509	-134.754	-0.086	0.010
-211.494	63.761	-0.120	-0.118
-210.479	665.069	0.094	0.240
-209.465	200.352	-0.040	-0.060
-208.450	-42.582	0.094	0.047
-207.436	-200.000	0.009	0.043
-206.421	-21.881	0.118	-0.071
-205.406	-40.150	-0.157	-0.080
-204.392	-78.186	-0.266	0.090
-203.377	13.727	0.076	0.058
-202.363	-41.798	0.124	0.063
-201.348	-120.894	0.408	0.067
-200.333	123.211	0.271	-0.333
-199.319	800.000	0.064	0.188
-198.304	102.475	0.019	-0.022
-197.290	800.000	0.095	0.356
-196.275	11.138	-0.155	0.116
-195.260	800.000	-0.077	-0.216
-194.246	-114.876	-0.174	0.033
-193.231	800.000	-0.086	-0.238
-192.217	-163.559	-0.061	0.003
-191.202	-45.913	-0.136	-0.066
-190.187	109.004	0.261	-0.307
-189.173	-200.000	-0.013	0.167
-188.158	800.000	-0.019	0.058
-187.144	-146.013	0.031	-0.003
-186.129	155.999	0.242	0.327
-185.114	800.000	0.030	-0.100
-184.100	-30.655	0.221	0.123
-183.085	135.666	0.159	0.203
-182.071	-200.000	-0.007	0.142
-181.056	-28.652	0.315	0.178
-180.042	-200.000	-0.004	-0.180
-179.027	-81.658	0.171	0.055
-178.012	-200.000	0.041	-0.178
-176.998	-200.000	-0.025	-0.208
-175.983	800.000	0.028	0.120
-174.969	508.256	0.011	0.026
-173.954	168.461	0.128	-0.179
-172.939	-88.836	-0.156	-0.045
-171.925	-44.766	-0.211	0.103
-170.910	-85.400	0.247	0.076
-169.896	68.824	-0.131	-0.132
-168.881	-95.887	0.289	0.076
-167.866	-200.000	-0.030	0.182
-166.852	130.083	-0.113	0.142
-165.837	-57.980	0.191	-0.082
-164.823	-29.932	0.175	-0.098
-163.808	-200.000	-0.007	-0.341
-162.793	-86.837	0.346	0.104
-161.779	-114.103	0.271	0.051
-160.764	-200.000	0.014	0.202
-159.750	-82.811	-0.084	0.027
-158.735	222.990	-0.067	-0.106
-157.720	-150.730	-0.253	-0.019
-156.706	-2.172	-0.304	0.209
-155.691	104.909	0.147	0.170
-154.677	29.978	-0.048	-0.040
-153.662	-131.708	-0.117	0.015
-152.647	-43.922	-0.112	-0.055
-151.633	285.177	-0.060	0.107
-150.618	22.654	0.156	0.125
-149.604	-125.082	0.264	0.040
-148.589	-52.334	-0.205	0.093
-147.574	42.419	0.076	0.068
-146.560	-46.300	-0.200	0.096
-145.545	-200.000	-0.056	0.391
-144.531	-134.535	-0.026	-0.003
-143.516	-200.000	0.064	0.362
-142.502	-55.123	0.191	0.084
-141.487	-6.213	0.120	0.080
-140.472	-200.000	-0.095	0.557
-139.458	25.554	-0.165	-0.134
-138.443	233.162	-0.148	-0.239
-137.429	132.635	-0.058	0.073
-136.414	-91.396	-0.365	0.102
-135.399	-133.221	-0.222	0.028
-134.385	66.599	-0.064	-0.063
-133.370	-80.904	-0.157	-0.051
-132.356	-93.649	-0.108	-0.029
-131.341	-200.000	0.063	0.282
-130.326	-200.000	0.005	0.171
-129.312	194.122	0.053	-0.078
-128.297	14.738	-0.242	-0.185
-127.283	192.144	-0.212	0.313
-126.268	239.738	-0.139	-0.226
-125.253	83.372	0.293	0.313
-124.239	-125.863	0.326	0.048
-123.224	-127.810	-0.135	-0.019
-122.210	-38.661	0.150	0.078
