DTS Sentinel unit serial number:	SN413079Multiplexer serial number:	ORYXHardware model number:	OX4-SRSoftware version number:	ORYX F/W v4.00 Oryx Data Collector v3.7.2.0data status	okinstallation	princeton_trtdifferential loss correction	single-endedforward channel	channel 1reverse channel	N/Adate	2019/09/15time	18:38:35forward acquisition time	60.00reverse acquisition time	0.00gamma	496.2192k internal	0.2289k external	0.2289temperature offset calibration	0.9934default loss term (dB/km)	0.3790temperature slope calibration	1.0000multiplexer offset coefficient	1.0000multiplexer slope coefficient	1.0000fibre end	0.00T internal ref (°C)	43.75T ext. ref 1 (°C)	6.82T ext. ref 2 (°C)	37.28length (m)	temperature (°C)	Stokes	anti-Stokes-747.200	-138.072	-0.194	-0.022
-746.185	93.185	0.119	0.138
-745.171	405.267	0.112	0.242
-744.156	-200.000	0.042	0.367
-743.142	800.000	-0.043	0.163
-742.127	-200.000	0.026	0.306
-741.112	-112.017	-0.180	0.037
-740.098	-200.000	-0.075	0.471
-739.083	111.614	-0.056	0.070
-738.069	800.000	-0.029	-0.128
-737.054	-77.327	-0.254	-0.090
-736.039	-12.406	0.038	0.025
-735.025	-119.801	0.186	0.033
-734.010	-200.000	0.002	-0.312
-732.996	-128.379	-0.228	-0.033
-731.981	72.572	-0.064	-0.069
-730.966	10.553	0.253	-0.198
-729.952	-192.628	-0.242	0.002
-728.937	800.000	-0.048	0.145
-727.923	-200.000	0.011	0.066
-726.908	-142.425	-0.246	-0.025
-725.894	-3.105	0.076	0.054
-724.879	800.000	-0.076	-0.326
-723.864	4.200	-0.065	-0.049
-722.850	358.273	-0.194	0.396
-721.835	-165.281	0.344	0.015
-720.821	351.253	-0.026	-0.053
-719.806	215.818	0.067	0.110
-718.791	800.000	-0.098	-0.360
-717.777	227.402	0.021	-0.034
-716.762	-67.874	-0.367	-0.147
-715.748	-147.932	0.382	-0.033
-714.733	-79.164	-0.057	-0.020
-713.718	-143.792	-0.275	0.027
-712.704	-129.779	0.070	0.010
-711.689	-200.000	0.034	-0.294
-710.675	-200.000	-0.042	-0.227
-709.660	201.777	-0.029	-0.046
-708.645	22.518	0.059	-0.049
-707.631	-200.000	-0.007	0.081
-706.616	800.000	-0.058	-0.190
-705.602	-126.038	0.240	0.037
-704.587	197.634	-0.132	-0.206
-703.572	-150.474	0.254	-0.020
-702.558	-78.746	0.155	-0.054
-701.543	109.977	0.215	-0.264
-700.529	-93.970	0.505	-0.142
-699.514	-121.663	-0.257	-0.044
-698.499	25.825	-0.076	0.065
-697.485	102.849	-0.066	0.080
-696.470	154.333	-0.071	0.100
-695.456	-39.094	-0.145	-0.078
-694.441	57.299	0.082	0.082
-693.426	110.342	-0.118	0.145
-692.412	-125.202	0.314	0.049
-691.397	800.000	-0.044	-0.134
-690.383	-152.441	-0.327	0.024
-689.368	282.623	0.038	0.069
-688.354	-177.510	0.143	-0.004
-687.339	12.523	0.110	-0.087
-686.324	-200.000	0.004	-0.199
-685.310	224.107	-0.099	0.163
-684.295	-130.468	-0.188	-0.026
-683.281	52.725	0.062	-0.060
-682.266	120.806	-0.107	0.136
-681.251	-200.000	0.010	-0.201
-680.237	142.127	0.143	-0.194
-679.222	-200.000	-0.070	-0.342
-678.208	378.777	-0.123	-0.258
-677.193	800.000	-0.054	-0.237
-676.178	68.195	0.097	-0.101
-675.164	171.874	0.236	-0.346
-674.149	620.766	0.107	-0.275
-673.135	22.093	-0.043	0.036
-672.120	-49.718	-0.389	-0.189
-671.105	16.321	0.252	0.203
-670.091	554.903	0.071	0.174
-669.076	-73.451	0.059	0.022
-668.062	11.598	0.307	-0.241
-667.047	800.000	-0.096	0.416
-666.032	40.380	-0.056	0.052
-665.018	80.977	0.452	-0.499
-664.003	-16.725	-0.354	-0.229
-662.989	-75.327	-0.107	-0.039
-661.974	-123.877	-0.176	-0.028
-660.959	-105.814	-0.168	-0.039
-659.945	800.000	0.038	-0.153
-658.930	-200.000	0.035	0.255
-657.916	-200.000	-0.030	-0.213
-656.901	11.865	0.043	0.034
-655.886	-120.084	0.237	-0.041
-654.872	-185.339	-0.249	0.004
-653.857	-131.176	0.173	-0.023
-652.843	73.622	0.131	-0.140
-651.828	182.321	-0.152	-0.229
-650.814	429.022	0.017	0.037
-649.799	24.558	0.212	0.179
-648.784	800.000	0.047	0.183
-647.770	374.600	-0.019	0.040
-646.755	51.866	0.298	0.290
-645.741	-200.000	0.001	0.073
-644.726	-132.361	0.108	-0.014
-643.711	101.495	-0.060	0.071
-642.697	800.000	0.083	-0.302
-641.682	-200.000	0.013	-0.331
-640.668	-200.000	0.014	-0.136
-639.653	288.161	0.008	0.016
-638.638	207.169	-0.095	0.151
-637.624	567.158	0.068	-0.168
-636.609	44.497	-0.218	0.204
-635.595	-200.000	0.013	0.183
-634.580	336.964	-0.130	0.258
-633.565	138.826	-0.166	0.223
-632.551	240.052	-0.095	-0.162
-631.536	-127.424	0.229	-0.034
-630.522	-42.882	0.114	-0.059
-629.507	192.192	-0.110	-0.169
-628.492	800.000	0.083	-0.264
-627.478	131.196	-0.217	-0.284
-626.463	-177.306	-0.380	-0.010
-625.449	-200.000	-0.033	-0.354
-624.434	8.539	-0.179	-0.138
-623.419	-200.000	0.030	-0.272
-622.405	-200.000	0.155	-0.001
-621.390	-158.530	0.221	0.013
-620.376	67.863	0.275	-0.287
-619.361	800.000	0.016	0.056
-618.346	-122.382	0.152	0.025
-617.332	629.574	-0.123	0.317
-616.317	162.480	-0.187	-0.267
-615.303	327.072	-0.100	0.196
-614.288	241.606	-0.221	0.376
-613.273	36.287	0.189	0.170
-612.259	-100.381	-0.181	-0.046
-611.244	-125.281	0.314	-0.049
-610.230	67.180	-0.225	-0.234
-609.215	-200.000	0.010	-0.310
-608.201	16.093	-0.443	-0.355
-607.186	-168.781	0.219	0.008
-606.171	146.160	-0.102	-0.140
-605.157	-106.231	0.181	-0.041
-604.142	-64.123	0.279	-0.116
-603.128	-45.279	0.221	0.112
-602.113	208.712	0.163	0.260
-601.098	-200.000	-0.027	-0.186
-600.084	800.000	-0.124	-0.356
-599.069	-27.817	-0.083	-0.049
-598.055	-200.000	0.005	-0.064
-597.040	800.000	-0.026	-0.106
-596.025	-88.890	-0.257	-0.078
-595.011	3.608	-0.153	-0.113
-593.996	800.000	0.028	-0.079
-592.982	6.544	-0.040	-0.031
-591.967	72.817	-0.199	0.212
-590.952	-200.000	-0.030	-0.248
-589.938	800.000	-0.035	0.156
-588.923	-72.288	0.248	0.094
-587.909	-76.697	-0.240	-0.086
-586.894	182.394	0.096	-0.144
-585.879	5.640	0.320	-0.240
-584.865	401.841	0.109	-0.234
-583.850	-66.394	0.343	-0.139
-582.836	276.691	-0.125	0.227
-581.821	232.366	-0.068	-0.114
-580.806	-87.716	0.212	-0.065
-579.792	163.231	-0.095	-0.136
-578.777	-200.000	0.014	0.064
-577.763	-173.305	-0.046	-0.001
-576.748	254.608	0.234	0.407
-575.733	94.908	-0.057	0.066
-574.719	45.259	-0.178	0.167
-573.704	-200.000	0.002	-0.166
-572.690	-200.000	0.035	0.198
-571.675	29.936	-0.157	-0.136
-570.661	-69.727	0.149	0.058
-569.646	-50.490	-0.225	0.108
-568.631	-108.752	-0.164	-0.036
-567.617	-155.362	-0.174	-0.012
-566.602	-200.000	-0.007	0.197
-565.588	143.801	0.092	0.124
-564.573	206.973	-0.154	-0.245
-563.558	-103.286	0.103	0.025
-562.544	800.000	0.057	0.167
-561.529	-200.000	-0.009	-0.062
-560.515	-49.099	0.308	0.150
-559.500	-113.936	-0.108	-0.021
-558.485	145.663	0.161	-0.220
-557.471	-200.000	0.037	0.213
-556.456	-18.321	0.148	-0.094
-555.442	-36.095	-0.336	0.184
-554.427	115.823	-0.109	0.136
-553.412	-200.000	-0.029	-0.133
-552.398	68.948	-0.244	-0.255
-551.383	-137.987	0.279	0.032
-550.369	529.458	-0.129	-0.309
-549.354	-78.862	-0.082	-0.028
-548.339	3.729	0.325	-0.241
-547.325	-200.000	-0.079	0.414
-546.310	39.125	0.179	0.162
-545.296	-14.771	-0.023	0.015
-544.281	-21.578	0.288	-0.179
-543.266	-116.817	-0.078	-0.015
-542.252	58.820	-0.228	-0.228
-541.237	-52.895	0.044	-0.021
-540.223	5.883	-0.192	-0.144
-539.208	-126.828	-0.009	0.001
-538.193	800.000	0.047	0.161
-537.179	-29.360	0.148	-0.086
-536.164	-200.000	-0.017	0.381
-535.150	-200.000	0.007	0.251
-534.135	-93.546	0.222	-0.062
-533.121	312.836	0.116	0.222
-532.106	74.855	0.148	0.159
-531.091	-200.000	0.060	0.282
-530.077	26.935	0.290	-0.247
-529.062	37.805	0.044	0.040
-528.048	100.748	-0.204	-0.241
-527.033	-126.805	0.494	0.074
-526.018	800.000	-0.036	0.145
-525.004	432.776	-0.041	-0.091
-523.989	800.000	-0.006	-0.027
-522.975	800.000	0.053	-0.148
-521.960	-82.960	0.080	0.026
-520.945	800.000	0.044	-0.166
-519.931	18.262	-0.362	-0.293
-518.916	-46.744	-0.247	0.123
-517.902	-200.000	-0.020	0.123
-516.887	659.721	-0.173	-0.451
-515.872	-136.854	-0.126	-0.015
-514.858	-139.624	0.127	-0.014
-513.843	-87.896	-0.106	0.032
-512.829	-155.564	-0.207	0.014
-511.814	15.325	0.052	0.041
-510.799	-179.114	-0.101	0.002
-509.785	-200.000	-0.001	0.064
-508.770	-39.716	-0.232	0.123
-507.756	236.316	0.078	-0.130
-506.741	800.000	0.023	0.082
-505.726	-91.182	-0.381	0.111
-504.712	-91.981	-0.154	-0.044
-503.697	126.662	-0.129	-0.165
-502.683	7.423	0.118	-0.090
-501.668	800.000	-0.114	0.335
-500.653	-173.405	0.137	0.004
-499.639	-131.633	-0.235	-0.031
-498.624	81.680	-0.137	0.150
-497.610	-92.034	0.329	0.094
-496.595	-181.323	0.470	0.009
-495.581	-96.912	-0.291	-0.077
-494.566	-57.500	-0.241	-0.108
-493.551	735.664	0.084	0.227
-492.537	-124.114	-0.167	0.027
-491.522	246.429	-0.075	-0.129
-490.508	-129.463	0.039	0.006
-489.493	164.907	0.154	0.220
-488.478	-25.199	0.280	-0.168
-487.464	-85.605	-0.065	0.021
-486.449	219.741	-0.121	0.196
-485.435	670.083	-0.101	0.265
-484.420	369.919	-0.021	0.043
-483.405	0.620	0.059	-0.043
-482.391	128.949	0.153	0.198
-481.376	-200.000	0.017	0.118
-480.362	0.680	-0.292	0.212
-479.347	-61.621	0.208	-0.088
-478.332	-153.789	-0.112	0.008
-477.318	3.708	0.223	-0.165
-476.303	-200.000	0.048	-0.377
-475.289	-200.000	0.011	0.343
-474.274	441.242	0.088	0.196
-473.259	254.254	-0.068	0.119
-472.245	-93.841	0.065	-0.018
-471.230	220.922	-0.064	-0.104
-470.216	10.360	0.171	0.132
-469.201	800.000	-0.043	-0.149
-468.186	-108.535	0.407	0.089
-467.172	800.000	0.113	-0.332
-466.157	-149.133	-0.215	-0.017
-465.143	347.586	0.081	0.162
-464.128	471.553	-0.093	-0.213
-463.113	-125.229	-0.095	-0.015
-462.099	674.915	0.023	0.061
-461.084	-200.000	0.006	-0.438
-460.070	35.846	0.109	0.097
-459.055	-167.680	0.244	-0.010
-458.040	-164.600	0.231	0.011
-457.026	35.850	-0.344	0.307
-456.011	-35.336	0.344	0.190
-454.997	-96.809	-0.254	-0.068
-453.982	25.974	-0.090	-0.076
-452.968	-200.000	0.017	-0.217
-451.953	-103.897	-0.275	0.065
-450.938	-44.327	-0.030	-0.015
-449.924	695.000	-0.088	0.233
-448.909	99.511	-0.281	0.329
-447.895	-200.000	0.019	0.453
-446.880	-87.013	-0.264	0.081
-445.865	320.219	0.038	-0.073
-444.851	-127.963	0.090	0.013
-443.836	624.316	0.023	-0.059
-442.822	357.258	0.072	-0.146
-441.807	-200.000	0.008	0.103
-440.792	-20.797	0.178	-0.111
-439.778	-39.552	-0.098	-0.052
-438.763	800.000	-0.049	0.141
-437.749	-79.834	0.252	0.086
-436.734	800.000	-0.119	-0.501
-435.719	-155.772	-0.205	-0.013
-434.705	-100.665	0.274	0.069
-433.690	-200.000	-0.042	0.252
-432.676	800.000	-0.022	-0.087
-431.661	-200.000	-0.015	0.125
-430.646	-64.945	-0.095	-0.039
-429.632	360.868	-0.110	0.223
-428.617	-69.811	-0.240	-0.093
-427.603	-200.000	0.009	0.117
-426.588	37.366	0.190	-0.170
-425.573	-53.421	0.192	0.089
-424.559	33.800	0.182	-0.160
-423.544	135.162	0.218	0.287
-422.530	64.210	0.274	-0.279
-421.515	800.000	0.046	-0.176
-420.500	38.674	0.148	-0.133
-419.486	-102.213	-0.190	-0.046
-418.471	-5.360	-0.108	0.075
-417.457	-200.000	-0.033	-0.182
-416.442	-127.690	0.299	-0.044
-415.428	152.911	0.120	0.166
-414.413	-74.709	-0.199	0.073
-413.398	44.975	0.105	-0.098
-412.384	707.609	0.114	0.306
-411.369	172.810	-0.147	0.215
-410.355	-43.706	-0.137	-0.070
-409.340	-37.154	-0.232	0.125
-408.325	-57.653	-0.144	0.064
-407.311	-200.000	0.029	0.212
-406.296	271.450	0.153	0.273
-405.282	66.660	-0.157	0.162
-404.267	463.215	-0.010	-0.023
-403.252	-200.000	0.011	-0.204
-402.238	-200.000	-0.024	-0.245
-401.223	-33.953	0.153	0.085
-400.209	-200.000	0.012	0.216
-399.194	800.000	0.067	0.193
-398.179	694.726	-0.162	0.430
-397.165	132.247	0.206	0.269
-396.150	180.043	-0.064	-0.094
-395.136	246.844	0.136	-0.231
-394.121	-200.000	0.005	0.105
-393.106	-70.546	0.289	-0.111
-392.092	-200.000	-0.006	-0.148
-391.077	-52.565	0.315	-0.147
-390.063	205.638	0.244	-0.383
-389.048	29.157	0.075	0.064
-388.033	-200.000	-0.019	0.127
-387.019	-96.470	0.288	0.077
-386.004	39.615	0.199	0.180
-384.990	782.174	-0.110	0.305
-383.975	800.000	0.065	-0.238
-382.960	-200.000	-0.025	-0.388
-381.946	-22.254	-0.145	0.089
-380.931	-200.000	-0.005	0.596
-379.917	-111.547	-0.094	0.019
-378.902	2.172	-0.211	-0.154
-377.888	-70.012	0.182	0.070
-376.873	-20.679	-0.030	0.019
-375.858	423.815	-0.118	-0.256
-374.844	-132.194	0.328	0.043
-373.829	-200.000	0.036	0.255
-372.815	-92.336	0.039	0.011
-371.800	-200.000	-0.050	0.338
-370.785	250.310	0.241	0.414
-369.771	75.894	-0.135	-0.145
-368.756	-16.798	-0.110	0.070
-367.742	-200.000	0.043	0.234
-366.727	-139.946	0.415	-0.044
-365.712	-200.000	0.001	0.188
-364.698	-128.617	0.077	-0.011
-363.683	800.000	-0.055	-0.194
-362.669	-94.036	0.156	0.043
-361.654	782.046	-0.049	0.135
-360.639	50.145	0.110	-0.104
-359.625	79.616	0.161	-0.174
-358.610	-2.225	-0.266	0.188
-357.596	-48.128	-0.095	-0.046
-356.581	376.386	-0.221	0.455
-355.566	56.929	0.107	0.106
-354.552	-141.434	-0.313	-0.032
-353.537	717.128	0.072	-0.192
-352.523	-87.480	-0.249	0.076
-351.508	-77.869	-0.274	-0.095
-350.493	-33.783	0.104	-0.058
-349.479	172.964	0.157	-0.229
-348.464	52.932	-0.062	0.060
-347.450	-53.543	0.284	0.131
-346.435	199.422	0.129	-0.200
-345.420	506.666	-0.107	0.251
-344.406	173.066	0.086	0.125
-343.391	-200.000	0.021	-0.256
-342.377	-83.377	0.210	0.068
-341.362	800.000	-0.084	-0.309
-340.348	150.514	0.174	-0.238
-339.333	75.375	-0.092	-0.098
-338.318	-157.104	0.224	-0.014
-337.304	800.000	-0.070	0.202
-336.289	59.967	-0.101	0.100
-335.275	-30.601	-0.387	-0.221
-334.260	-200.000	-0.013	0.074
-333.245	0.848	-0.218	0.158
-332.231	153.209	-0.148	-0.204
-331.216	43.868	-0.110	0.101
-330.202	24.332	0.037	0.031
-329.187	-51.159	0.131	-0.062
-328.172	-16.850	-0.095	-0.060
-327.158	-182.902	0.138	0.003
-326.143	382.347	0.128	0.265
-325.129	57.539	0.079	0.078
-324.114	89.512	-0.359	0.403
-323.099	-120.710	0.367	-0.062
-322.085	52.549	0.082	0.079
-321.070	364.232	0.072	0.145
-320.056	169.675	0.176	-0.254
-319.041	-64.226	-0.172	-0.071
-318.026	800.000	-0.108	-0.358
-317.012	63.377	-0.160	0.162
-315.997	124.207	0.193	-0.244
-314.983	393.161	-0.159	-0.333
-313.968	244.168	0.223	-0.377
-312.953	-11.120	-0.254	0.169
-311.939	189.023	-0.152	0.229
-310.924	-32.868	-0.261	0.146
-309.910	-13.294	-0.059	-0.039
-308.895	-101.654	0.380	0.093
-307.880	-68.265	-0.299	-0.117
-306.866	0.162	-0.303	-0.218
-305.851	-80.615	0.208	-0.070
-304.837	-112.316	0.166	-0.033
-303.822	-17.412	0.108	-0.069
-302.807	9.604	-0.267	-0.204
-301.793	191.723	-0.110	0.166
-300.778	-42.928	-0.180	0.092
-299.764	-108.052	-0.228	-0.050
-298.749	143.581	0.052	0.069
-297.735	-200.000	-0.020	-0.171
-296.720	160.015	-0.303	0.426
-295.705	-104.873	0.104	-0.024
-294.691	-75.309	-0.390	0.140
-293.676	77.412	-0.020	-0.022
-292.662	2.558	-0.218	-0.159
-291.647	-103.774	-0.053	-0.013
-290.632	-200.000	0.001	0.171
-289.618	286.200	-0.236	-0.428
-288.603	-114.449	-0.111	-0.022
-287.589	164.568	-0.090	0.128
-286.574	-73.188	0.249	0.092
-285.559	-64.984	-0.180	0.073
-284.545	-98.134	0.295	-0.076
-283.530	800.000	-0.079	-0.286
-282.516	-98.415	0.249	0.064
-281.501	-26.325	0.321	0.189
-280.486	-123.817	-0.113	0.018
-279.472	800.000	0.021	-0.070
-278.457	487.259	0.136	-0.313
-277.443	309.738	-0.056	-0.105
-276.428	800.000	-0.082	0.271
-275.413	-85.960	0.162	-0.050
-274.399	-200.000	-0.034	-0.301
-273.384	-118.382	0.182	0.032
-272.370	-31.656	-0.224	0.126
-271.355	-5.650	-0.234	0.161
-270.340	800.000	-0.046	-0.201
-269.326	800.000	-0.017	0.048
-268.311	-164.555	0.058	0.003
-267.297	-200.000	-0.006	0.292
-266.282	-103.353	0.193	-0.046
-265.267	-200.000	-0.006	-0.042
-264.253	-150.542	-0.276	-0.021
-263.238	800.000	-0.037	0.140
-262.224	-118.469	-0.111	-0.020
-261.209	800.000	0.027	0.117
-260.195	-160.616	0.257	0.014
-259.180	-200.000	-0.007	-0.064
-258.165	269.705	-0.064	-0.113
-257.151	281.729	0.076	-0.137
-256.136	50.731	0.227	-0.216
-255.122	37.739	0.070	0.063
-254.107	-144.153	-0.164	0.015
-253.092	148.392	0.068	-0.093
-252.078	797.461	-0.033	0.091
-251.063	-200.000	-0.031	-0.407
-250.049	-113.494	0.140	-0.028
-249.034	-32.689	0.449	-0.251
-248.019	626.818	0.043	0.110
-247.005	-200.000	0.013	0.229
-245.990	28.278	-0.100	0.085
-244.976	-75.714	-0.220	-0.078
-243.961	-200.000	-0.035	0.419
-242.946	778.703	0.026	-0.072
-241.932	-11.008	-0.114	0.076
-240.917	0.081	-0.210	-0.150
-239.903	-45.924	0.142	0.070
-238.888	-26.799	-0.076	0.045
-237.873	-200.000	0.038	0.195
-236.859	262.621	-0.055	0.095
-235.844	-77.823	-0.138	0.048
-234.830	-82.361	-0.367	0.120
-233.815	-131.607	-0.191	0.025
-232.800	38.188	0.095	-0.085
-231.786	-52.801	0.257	0.119
-230.771	98.174	-0.184	-0.213
-229.757	-86.636	-0.277	-0.085
-228.742	-200.000	0.060	-0.475
-227.727	-147.592	-0.263	0.022
-226.713	-200.000	-0.037	0.223
-225.698	310.890	-0.042	-0.079
-224.684	-74.885	-0.307	0.110
-223.669	800.000	-0.142	0.407
-222.655	164.349	-0.083	-0.117
-221.640	377.781	0.148	-0.304
-220.625	-77.856	-0.172	0.060
-219.611	14.951	-0.203	0.160
-218.596	179.096	0.069	0.102
-217.582	800.000	0.124	-0.392
-216.567	-50.010	-0.052	-0.025
-215.552	7.569	0.323	-0.242
-214.538	13.413	-0.154	0.120
-213.523	-200.000	0.039	-0.276
-212.509	-200.000	0.004	0.199
-211.494	-200.000	-0.030	0.311
-210.479	800.000	-0.031	0.118
-209.465	-65.975	0.232	0.093
-208.450	-200.000	-0.018	-0.415
-207.436	-200.000	-0.028	0.141
-206.421	246.446	-0.110	-0.186
-205.406	55.092	-0.085	0.082
-204.392	-200.000	-0.001	-0.146
-203.377	-18.358	-0.032	0.020
-202.363	800.000	-0.043	-0.188
-201.348	-200.000	-0.014	0.378
-200.333	241.032	0.118	-0.198
-199.319	-31.711	-0.052	0.030
-198.304	-26.607	0.135	-0.079
-197.290	-26.194	-0.178	-0.105
-196.275	-200.000	-0.031	-0.201
-195.260	51.371	0.246	-0.234
-194.246	800.000	0.042	-0.148
-193.231	800.000	0.045	0.170
-192.217	-65.225	-0.168	-0.068
-191.202	48.189	-0.230	-0.216
-190.187	-200.000	-0.031	-0.167
-189.173	-200.000	-0.025	0.372
-188.158	199.627	0.118	0.181
-187.144	142.697	0.073	-0.097
-186.129	-101.293	0.146	0.036
-185.114	-122.533	-0.153	0.025
-184.100	-35.075	-0.275	-0.150
-183.085	-58.689	0.166	0.072
-182.071	58.917	0.049	0.048
-181.056	-84.843	-0.161	-0.051
-180.042	44.015	-0.048	0.044
-179.027	-28.595	-0.270	0.156
-178.012	-46.532	-0.409	-0.201
-176.998	800.000	0.042	0.119
-175.983	455.051	-0.089	-0.197
-174.969	26.778	0.067	-0.056
-173.954	-103.308	0.205	-0.048
-172.939	-200.000	0.002	0.091
-171.925	-86.634	0.200	-0.061
-170.910	800.000	0.036	-0.152
-169.896	796.797	0.079	-0.218
-168.881	132.231	0.041	0.053
-167.866	800.000	-0.072	0.312
-166.852	291.914	0.181	0.331
-165.837	-86.377	0.258	0.079
-164.823	800.000	-0.035	-0.114
-163.808	-31.705	0.466	-0.262
-162.793	17.996	0.262	-0.210
-161.779	17.415	-0.127	-0.101
-160.764	38.609	0.178	-0.159
-159.750	-200.000	0.003	-0.171
-158.735	-114.657	0.195	0.037
-157.720	-177.151	0.246	0.006
-156.706	173.871	0.063	-0.092
-155.691	380.366	0.056	-0.116
-154.677	238.787	-0.089	0.148
-153.662	208.166	0.241	0.378
-152.647	186.495	0.060	0.090
-151.633	590.766	-0.144	0.357
-150.618	-73.471	0.273	-0.100
-149.604	-70.350	-0.115	0.044
-148.589	-200.000	0.015	0.070
-147.574	800.000	-0.148	-0.473
-146.560	73.227	0.082	0.086
-145.545	800.000	0.089	-0.300
-144.531	-172.958	0.087	-0.003
-143.516	-17.426	-0.130	-0.082
-142.502	-200.000	-0.041	-0.193
-141.487	561.725	0.101	0.244
-140.472	800.000	-0.144	-0.504
-139.458	202.637	0.091	-0.141
-138.443	-200.000	0.023	-0.190
-137.429	800.000	-0.073	0.252
-136.414	-200.000	-0.012	0.113
-135.399	-111.962	0.359	0.072
-134.385	118.431	-0.157	-0.194
-133.370	93.360	-0.100	-0.113
-132.356	13.018	0.157	0.122
-131.341	-190.357	-0.035	-0.000
-130.326	-140.113	-0.141	0.015
-129.312	800.000	-0.060	-0.246
-128.297	23.745	0.344	-0.283
-127.283	-200.000	0.007	0.257
-126.268	-46.046	-0.123	0.061
-125.253	800.000	-0.048	-0.172
-124.239	106.334	0.101	-0.120
-123.224	-70.303	0.073	-0.028
-122.210	562.600	0.096	-0.233
