DTS Sentinel unit serial number:	SN413079Multiplexer serial number:	ORYXHardware model number:	OX4-SRSoftware version number:	ORYX F/W v4.00 Oryx Data Collector v3.7.2.0data status	okinstallation	princeton_trtdifferential loss correction	single-endedforward channel	channel 1reverse channel	N/Adate	2019/09/13time	09:42:35forward acquisition time	60.00reverse acquisition time	0.00gamma	496.2192k internal	0.2325k external	0.2325temperature offset calibration	1.0161default loss term (dB/km)	0.3790temperature slope calibration	1.0000multiplexer offset coefficient	1.0000multiplexer slope coefficient	1.0000fibre end	0.00T internal ref (°C)	29.75T ext. ref 1 (°C)	4.43T ext. ref 2 (°C)	26.24length (m)	temperature (°C)	Stokes	anti-Stokes-747.200	782.979	0.035	-0.098
-746.185	-21.157	-0.192	0.119
-745.171	-200.000	-0.050	0.235
-744.156	-200.000	0.031	0.467
-743.142	-11.886	0.125	0.083
-742.127	534.494	-0.098	0.234
-741.112	-100.913	0.084	-0.021
-740.098	-26.418	-0.482	0.285
-739.083	120.495	-0.073	0.091
-738.069	800.000	-0.010	0.040
-737.054	170.199	0.200	-0.289
-736.039	-43.129	-0.181	0.092
-735.025	21.157	0.198	0.162
-734.010	139.580	-0.205	-0.272
-732.996	800.000	0.099	-0.336
-731.981	-200.000	-0.031	-0.144
-730.966	800.000	0.097	-0.319
-729.952	800.000	-0.041	0.166
-728.937	800.000	-0.118	-0.437
-727.923	-200.000	0.033	0.170
-726.908	524.178	0.142	0.336
-725.894	-59.318	-0.337	0.146
-724.879	-139.079	-0.236	0.026
-723.864	-124.378	-0.231	0.036
-722.850	221.679	0.015	-0.024
-721.835	-74.266	-0.373	0.136
-720.821	-200.000	0.004	0.098
-719.806	587.191	0.038	-0.094
-718.791	-200.000	0.003	-0.040
-717.777	-67.920	0.174	0.069
-716.762	158.831	0.067	-0.093
-715.748	-124.995	0.153	-0.024
-714.733	349.487	-0.246	0.491
-713.718	411.108	-0.103	-0.219
-712.704	21.820	-0.058	0.048
-711.689	-11.994	-0.320	-0.211
-710.675	-45.848	0.043	0.021
-709.660	240.186	0.131	0.220
-708.645	-45.749	-0.056	0.028
-707.631	37.597	-0.304	0.272
-706.616	800.000	0.010	-0.036
-705.602	-89.748	-0.330	0.097
-704.587	-200.000	0.005	-0.333
-703.572	-141.694	0.115	-0.012
-702.558	191.909	0.022	-0.033
-701.543	-141.531	-0.203	0.021
-700.529	239.227	-0.207	0.347
-699.514	800.000	0.093	0.277
-698.499	-200.000	0.021	0.120
-697.485	242.149	0.068	0.115
-696.470	222.218	-0.152	-0.246
-695.456	-200.000	-0.022	0.098
-694.441	27.088	0.155	-0.131
-693.426	-166.143	-0.074	0.003
-692.412	61.461	0.291	0.292
-691.397	5.532	-0.290	0.216
-690.383	-200.000	0.027	-0.186
-689.368	-55.346	0.439	-0.199
-688.354	-160.659	0.226	-0.012
-687.339	193.624	-0.115	-0.175
-686.324	32.448	0.099	-0.086
-685.310	-113.456	0.416	0.082
-684.295	-74.761	0.089	-0.032
-683.281	88.713	0.095	0.107
-682.266	-104.684	-0.095	0.022
-681.251	-14.465	0.179	0.116
-680.237	-71.490	-0.231	0.087
-679.222	111.562	-0.140	-0.170
-678.208	-28.346	-0.144	0.083
-677.193	240.375	0.070	-0.118
-676.178	-124.266	0.045	-0.007
-675.164	-200.000	-0.018	-0.259
-674.149	-200.000	-0.020	-0.329
-673.135	-59.360	-0.118	0.051
-672.120	-61.736	0.044	-0.019
-671.105	-73.776	-0.069	0.025
-670.091	-87.616	-0.157	-0.048
-669.076	-200.000	-0.024	0.110
-668.062	67.236	0.234	0.240
-667.047	94.151	-0.174	-0.199
-666.032	-28.655	-0.342	-0.198
-665.018	295.088	0.261	0.481
-664.003	238.351	-0.163	-0.272
-662.989	211.761	-0.205	-0.326
-661.974	-25.299	0.127	-0.075
-660.959	-43.441	0.116	-0.059
-659.945	105.747	-0.183	-0.218
-658.930	-8.554	0.110	0.075
-657.916	-95.281	-0.146	0.040
-656.901	-105.055	-0.332	0.076
-655.886	-136.651	-0.189	0.022
-654.872	77.282	-0.223	-0.239
-653.857	-157.175	-0.174	0.011
-652.843	-92.682	-0.035	0.010
-651.828	-173.117	0.224	0.007
-650.814	253.317	-0.099	0.170
-649.799	-200.000	-0.024	-0.295
-648.784	-158.807	0.265	0.015
-647.770	312.437	0.134	0.253
-646.755	-44.066	-0.058	-0.029
-645.741	252.101	0.079	-0.135
-644.726	-25.204	-0.201	0.120
-643.711	101.107	0.117	-0.137
-642.697	-129.105	-0.136	-0.019
-641.682	-23.527	-0.136	0.082
-640.668	-4.749	-0.050	0.035
-639.653	-58.913	-0.139	0.060
-638.638	-37.418	0.140	0.075
-637.624	119.435	-0.283	-0.353
-636.609	40.761	-0.228	-0.207
-635.595	314.673	0.045	-0.085
-634.580	188.683	0.147	0.222
-633.565	244.103	0.025	0.043
-632.551	-89.472	-0.268	-0.079
-631.536	-32.728	-0.164	-0.092
-630.522	-200.000	0.002	0.082
-629.507	497.959	-0.130	0.300
-628.492	-80.309	-0.270	0.091
-627.478	-77.460	-0.107	0.037
-626.463	-135.001	0.199	-0.024
-625.449	61.092	0.167	-0.166
-624.434	192.017	0.146	-0.221
-623.419	313.766	0.072	-0.136
-622.405	-68.237	0.279	0.109
-621.390	-121.467	0.156	-0.026
-620.376	-40.353	0.137	-0.071
-619.361	800.000	0.095	-0.373
-618.346	-162.682	0.088	0.004
-617.332	47.093	0.251	0.234
-616.317	501.982	-0.102	-0.236
-615.303	800.000	-0.044	-0.145
-614.288	-128.964	-0.244	0.034
-613.273	-200.000	-0.027	-0.731
-612.259	8.285	0.225	-0.170
-611.244	115.785	0.130	-0.160
-610.230	-200.000	0.081	-0.358
-609.215	92.696	0.116	-0.132
-608.201	-19.706	0.004	0.003
-607.186	-200.000	-0.014	0.111
-606.171	107.423	-0.269	-0.321
-605.157	-200.000	0.050	-0.286
-604.142	122.770	0.057	-0.072
-603.128	800.000	0.077	-0.275
-602.113	-93.395	0.232	-0.065
-601.098	-26.364	-0.034	0.020
-600.084	800.000	-0.056	-0.172
-599.069	-75.296	-0.078	-0.028
-598.055	-58.062	-0.189	-0.083
-597.040	213.835	0.120	-0.190
-596.025	635.102	0.080	-0.205
-595.011	-200.000	0.029	-0.495
-593.996	-158.683	-0.011	0.001
-592.982	11.225	-0.105	-0.081
-591.967	83.598	0.071	0.078
-590.952	-66.726	-0.242	-0.096
-589.938	-136.707	-0.290	-0.034
-588.923	800.000	0.146	0.454
-587.909	-43.251	0.089	0.045
-586.894	275.312	0.140	0.249
-585.879	-200.000	0.072	-0.371
-584.865	-200.000	-0.019	0.151
-583.850	283.601	0.211	0.380
-582.836	-26.350	-0.161	0.095
-581.821	-200.000	-0.005	-0.120
-580.806	-91.800	-0.095	0.027
-579.792	-102.667	-0.422	0.101
-578.777	-143.912	0.373	-0.035
-577.763	-176.237	-0.302	0.008
-576.748	67.257	-0.224	0.229
-575.733	-200.000	-0.004	0.121
-574.719	-13.234	-0.145	-0.094
-573.704	147.212	-0.136	0.183
-572.690	385.398	0.074	-0.152
-571.675	-99.882	0.203	-0.051
-570.661	429.671	0.077	-0.166
-569.646	-91.642	-0.081	0.023
-568.631	800.000	-0.047	-0.151
-567.617	-104.261	-0.371	-0.086
-566.602	-14.835	0.091	0.059
-565.588	133.419	0.215	0.278
-564.573	-119.268	-0.147	-0.026
-563.558	-200.000	0.003	0.052
-562.544	-200.000	0.072	-0.354
-561.529	484.001	0.157	0.357
-560.515	-103.372	-0.494	0.117
-559.500	-125.388	-0.131	0.020
-558.485	-200.000	-0.036	0.193
-557.471	12.815	0.274	-0.212
-556.456	-86.746	-0.083	-0.025
-555.442	-200.000	-0.263	0.001
-554.427	-200.000	-0.025	0.115
-553.412	95.020	0.075	0.085
-552.398	35.115	0.075	0.066
-551.383	179.238	-0.112	-0.164
-550.369	-76.424	0.246	0.087
-549.354	-158.115	0.346	-0.020
-548.339	670.384	0.087	0.226
-547.325	-200.000	-0.014	-0.254
-546.310	-200.000	0.057	0.375
-545.296	-79.801	0.073	-0.025
-544.281	-121.472	0.165	0.027
-543.266	199.512	-0.130	0.200
-542.252	-128.542	-0.274	0.039
-541.237	-0.769	0.341	0.242
-540.223	668.586	-0.183	0.473
-539.208	-87.022	0.041	0.013
-538.193	800.000	0.041	0.134
-537.179	-200.000	-0.037	-0.162
-536.164	-158.242	-0.312	0.018
-535.150	48.356	0.196	0.184
-534.135	22.442	0.053	0.043
-533.121	800.000	-0.027	-0.095
-532.106	-23.529	0.364	-0.219
-531.091	-2.741	0.308	-0.216
-530.077	26.774	-0.028	0.023
-529.062	-200.000	0.015	0.093
-528.048	-84.641	-0.332	0.105
-527.033	153.408	0.265	0.363
-526.018	-200.000	-0.006	0.052
-525.004	-38.867	-0.179	-0.095
-523.989	-49.287	0.099	-0.047
-522.975	141.221	0.185	0.245
-521.960	-200.000	-0.060	0.410
-520.945	207.167	-0.091	0.141
-519.931	-155.582	-0.008	-0.001
-518.916	133.148	-0.121	-0.156
-517.902	66.791	0.123	-0.125
-516.887	28.625	0.117	0.099
-515.872	-66.680	-0.300	-0.119
-514.858	118.577	-0.102	0.126
-513.843	53.921	0.095	0.092
-512.829	800.000	-0.042	-0.146
-511.814	-28.526	0.250	0.144
-510.799	55.813	0.254	0.246
-509.785	-181.962	0.443	0.008
-508.770	-200.000	0.014	-0.149
-507.756	800.000	0.067	-0.198
-506.741	-200.000	-0.001	0.015
-505.726	-78.000	0.230	0.079
-504.712	-200.000	-0.006	-0.288
-503.697	115.665	-0.162	-0.198
-502.683	120.681	-0.089	0.110
-501.668	-39.793	-0.310	-0.162
-500.653	-200.000	-0.041	-0.292
-499.639	-200.000	-0.018	-0.246
-498.624	431.759	0.210	-0.454
-497.610	-68.789	0.158	0.061
-496.595	-71.723	-0.291	-0.109
-495.581	-200.000	-0.003	0.143
-494.566	-61.389	-0.213	-0.090
-493.551	-42.004	0.175	0.090
-492.537	800.000	-0.047	0.164
-491.522	-65.635	-0.264	-0.106
-490.508	213.825	0.082	-0.129
-489.493	-172.955	-0.276	0.009
-488.478	167.148	-0.050	-0.071
-487.464	-68.308	-0.288	0.112
-486.449	-186.220	-0.109	-0.002
-485.435	-200.000	-0.020	0.185
-484.420	40.494	-0.175	0.157
-483.405	800.000	0.020	0.079
-482.391	-34.037	-0.038	0.021
-481.376	159.850	0.169	-0.234
-480.362	800.000	-0.036	-0.121
-479.347	36.814	-0.322	-0.284
-478.332	681.411	0.058	-0.151
-477.318	-109.732	-0.228	0.048
-476.303	66.362	0.262	0.266
-475.289	635.450	0.127	-0.322
-474.274	145.104	-0.177	-0.236
-473.259	167.058	-0.209	-0.296
-472.245	5.009	0.202	0.149
-471.230	-189.474	0.044	-0.001
-470.216	38.104	0.163	-0.145
-469.201	-80.082	-0.249	0.083
-468.186	-26.203	-0.126	0.074
-467.172	-111.444	0.221	-0.045
-466.157	-158.894	-0.072	-0.004
-465.143	-67.709	0.254	0.099
-464.128	-1.635	-0.146	-0.103
-463.113	93.569	-0.098	-0.111
-462.099	-200.000	0.082	-0.363
-461.084	185.214	-0.177	-0.263
-460.070	145.319	-0.042	0.056
-459.055	366.569	-0.084	0.169
-458.040	-130.372	0.065	0.009
-457.026	218.048	0.078	-0.124
-456.011	244.145	0.110	0.184
-454.997	-134.254	-0.486	-0.060
-453.982	800.000	0.040	-0.135
-452.968	-200.000	0.053	0.285
-451.953	800.000	-0.083	0.228
-450.938	-129.041	0.157	-0.022
-449.924	-11.273	0.178	0.117
-448.909	-200.000	0.000	0.025
-447.895	-2.249	-0.418	0.293
-446.880	25.698	-0.112	-0.093
-445.865	-200.000	-0.079	0.379
-444.851	352.580	-0.109	0.216
-443.836	21.291	-0.195	0.158
-442.822	-200.000	0.051	-0.234
-441.807	-95.214	-0.164	0.044
-440.792	90.394	-0.009	-0.010
-439.778	430.676	0.103	0.222
-438.763	24.392	-0.183	-0.151
-437.749	-200.000	0.037	-0.218
-436.734	-67.736	0.102	-0.040
-435.719	106.440	-0.136	-0.161
-434.705	43.029	0.106	0.097
-433.690	50.371	0.190	-0.179
-432.676	-113.971	0.258	-0.050
-431.661	-26.398	-0.124	-0.073
-430.646	-200.000	0.087	-0.590
-429.632	-48.646	0.146	-0.070
-428.617	-101.855	0.323	-0.078
-427.603	-5.524	-0.055	0.038
-426.588	22.748	0.159	0.130
-425.573	-44.136	-0.073	0.037
-424.559	-200.000	0.001	-0.029
-423.544	800.000	-0.113	-0.327
-422.530	89.202	0.193	0.214
-421.515	-68.482	-0.235	-0.091
-420.500	217.247	-0.142	0.225
-419.486	74.436	-0.104	-0.109
-418.471	313.418	-0.059	-0.111
-417.457	423.824	0.057	0.121
-416.442	-200.000	-0.005	-0.301
-415.428	-200.000	0.088	0.407
-414.413	459.334	-0.048	0.107
-413.398	800.000	-0.025	-0.087
-412.384	-88.196	0.405	0.121
-411.369	187.786	-0.092	0.137
-410.355	-91.451	-0.712	0.202
-409.340	654.102	-0.069	-0.177
-408.325	-52.960	-0.226	-0.103
-407.311	-154.404	-0.267	0.018
-406.296	-100.916	-0.054	-0.013
-405.282	-108.162	-0.207	-0.045
-404.267	-35.543	0.179	0.097
-403.252	-115.401	0.183	-0.034
-402.238	800.000	0.049	0.136
-401.223	-49.586	-0.160	0.076
-400.209	-67.121	0.499	0.196
-399.194	194.631	-0.097	0.146
-398.179	497.994	0.040	0.093
-397.165	-139.743	-0.137	0.014
-396.150	-25.935	0.119	0.070
-395.136	800.000	-0.046	0.178
-394.121	-200.000	-0.026	0.143
-393.106	108.641	-0.111	0.132
-392.092	15.264	-0.131	0.102
-391.077	-75.767	-0.250	0.088
-390.063	0.571	0.123	-0.087
-389.048	-142.034	0.081	0.008
-388.033	-75.769	0.312	-0.110
-387.019	361.711	0.118	-0.235
-386.004	233.045	0.052	-0.084
-384.990	-35.394	-0.253	0.137
-383.975	245.399	-0.025	0.042
-382.960	-169.428	0.295	0.011
-381.946	609.161	0.100	0.249
-380.931	-133.250	-0.224	0.028
-379.917	-200.000	-0.034	0.363
-378.902	84.444	-0.076	0.082
-377.888	745.491	0.042	-0.112
-376.873	-14.847	0.245	0.156
-375.858	-200.000	0.021	-0.242
-374.844	-54.601	0.291	0.131
-373.829	-77.449	0.105	0.036
-372.815	24.609	0.329	0.271
-371.800	-121.747	-0.184	-0.030
-370.785	199.515	-0.068	-0.103
-369.771	246.894	-0.088	-0.148
-368.756	-200.000	-0.022	0.217
-367.742	-141.678	0.099	0.010
-366.727	32.659	-0.020	0.017
-365.712	0.403	0.215	0.152
-364.698	-61.858	-0.122	-0.051
-363.683	-200.000	-0.005	-0.073
-362.669	-200.000	-0.008	-0.174
-361.654	-29.604	-0.287	0.163
-360.639	800.000	0.041	-0.118
-359.625	-83.003	-0.122	0.039
-358.610	142.593	-0.137	-0.181
-357.596	5.396	0.367	-0.269
-356.581	134.149	-0.172	-0.222
-355.566	402.465	-0.140	0.293
-354.552	136.723	0.185	0.241
-353.537	-200.000	-0.009	0.134
-352.523	-27.764	0.079	-0.045
-351.508	-83.834	-0.216	0.069
-350.493	37.334	0.011	-0.010
-349.479	97.281	-0.164	0.187
-348.464	-200.000	-0.023	0.101
-347.450	49.601	0.067	-0.063
-346.435	-200.000	-0.030	0.207
-345.420	78.496	-0.070	0.074
-344.406	-95.698	0.246	-0.065
-343.391	-5.497	-0.378	-0.258
-342.377	173.923	0.192	-0.276
-341.362	146.417	0.243	0.324
-340.348	-20.166	0.229	0.140
-339.333	800.000	0.021	0.070
-338.318	-33.417	-0.150	0.082
-337.304	-200.000	0.049	-0.264
-336.289	263.087	0.079	-0.136
-335.275	-200.000	-0.023	-0.183
-334.260	66.285	-0.118	0.119
-333.245	800.000	0.048	-0.174
-332.231	-118.416	-0.331	0.058
-331.216	15.050	0.077	0.060
-330.202	36.740	-0.174	0.153
-329.187	280.393	0.103	-0.182
-328.172	-31.402	-0.118	-0.066
-327.158	284.098	-0.093	0.166
-326.143	59.148	0.197	0.192
-325.129	-152.379	-0.225	-0.016
-324.114	-200.000	0.004	0.188
-323.099	-200.000	-0.080	0.399
-322.085	-158.870	-0.196	-0.011
-321.070	13.661	0.037	0.028
-320.056	-200.000	-0.007	0.121
-319.041	-66.599	0.121	0.048
-318.026	-162.004	-0.233	-0.012
-317.012	-200.000	-0.020	-0.160
-315.997	-75.432	0.239	-0.085
-314.983	489.247	-0.039	-0.088
-313.968	800.000	-0.035	0.137
-312.953	13.001	0.396	-0.304
-311.939	19.468	0.173	-0.138
-310.924	-102.992	0.308	0.072
-309.910	-122.794	0.243	-0.039
-308.895	-86.430	-0.175	0.053
-307.880	45.851	-0.337	0.309
-306.866	-200.000	0.018	0.098
-305.851	175.713	-0.167	0.241
-304.837	-84.264	0.021	-0.007
-303.822	800.000	-0.067	-0.237
-302.807	246.542	-0.114	0.190
-301.793	-12.619	0.219	0.142
-300.778	202.857	-0.114	0.174
-299.764	800.000	-0.024	0.094
-298.749	9.758	-0.185	0.139
-297.735	-91.038	0.320	0.091
-296.720	-80.956	-0.097	-0.032
-295.705	-98.270	-0.018	-0.005
-294.691	-29.039	0.140	-0.080
-293.676	-47.026	0.472	-0.229
-292.662	-103.155	-0.032	0.008
-291.647	-114.385	0.268	-0.051
-290.632	-200.000	-0.012	-0.176
-289.618	-32.376	-0.028	0.016
-288.603	-126.418	0.061	-0.009
-287.589	69.060	0.166	-0.170
-286.574	800.000	0.058	0.224
-285.559	-59.190	0.274	0.117
-284.545	-16.875	-0.178	-0.112
-283.530	-200.000	0.037	0.349
-282.516	185.088	0.117	-0.172
-281.501	-15.473	0.163	-0.103
-280.486	-117.890	0.249	-0.044
-279.472	13.181	0.235	0.181
-278.457	-85.625	-0.424	-0.130
-277.443	491.736	0.102	-0.232
-276.428	-200.000	-0.066	-0.348
-275.413	-42.009	0.072	0.037
-274.399	800.000	-0.053	0.157
-273.384	-125.556	-0.270	0.041
-272.370	-132.990	-0.245	0.031
-271.355	-127.017	-0.217	0.032
-270.340	26.915	-0.231	-0.192
-269.326	-200.000	0.012	-0.232
-268.311	-200.000	-0.008	0.269
-267.297	-98.417	-0.370	0.094
-266.282	-33.001	0.430	0.236
-265.267	80.246	-0.077	0.082
-264.253	-128.381	-0.125	0.018
-263.238	334.751	-0.062	-0.120
-262.224	800.000	-0.017	0.068
-261.209	800.000	0.054	-0.192
-260.195	-186.239	0.108	-0.002
-259.180	189.813	-0.132	0.195
-258.165	-137.697	0.280	-0.031
-257.151	313.785	0.111	-0.207
-256.136	-53.673	0.247	-0.112
-255.122	-200.000	0.026	-0.271
-254.107	-149.276	-0.324	0.026
-253.092	-65.138	-0.085	0.034
-252.078	-200.000	-0.003	0.073
-251.063	44.120	-0.048	0.044
-250.049	-200.000	-0.029	-0.147
-249.034	8.352	0.172	0.128
-248.019	-155.203	0.339	-0.022
-247.005	19.555	-0.149	0.118
-245.990	-126.494	0.241	0.035
-244.976	101.942	-0.223	0.258
-243.961	-139.785	-0.018	-0.002
-242.946	66.711	0.060	0.061
-241.932	-148.126	-0.278	0.023
-240.917	-200.000	-0.068	0.380
-239.903	-156.394	-0.174	-0.011
-238.888	-200.000	-0.027	-0.164
-237.873	-78.713	-0.064	-0.022
-236.859	800.000	-0.027	0.090
-235.844	-200.000	-0.018	0.162
-234.830	-136.344	0.078	0.009
-233.815	800.000	-0.073	-0.276
-232.800	-69.124	0.395	-0.150
-231.786	20.125	0.033	0.026
-230.771	256.438	0.090	-0.153
-229.757	-200.000	0.021	0.165
-228.742	-4.416	-0.209	0.143
-227.727	800.000	0.095	0.306
-226.713	-97.872	0.087	0.022
-225.698	178.161	-0.061	0.088
-224.684	441.599	0.030	-0.066
-223.669	-200.000	-0.005	-0.214
-222.655	800.000	0.058	-0.163
-221.640	-200.000	0.011	0.242
-220.625	618.633	-0.184	-0.456
-219.611	-200.000	0.041	-0.451
-218.596	123.158	0.062	-0.076
-217.582	800.000	0.091	0.271
-216.567	638.943	0.169	0.426
-215.552	-26.699	0.098	0.057
-214.538	23.638	0.048	-0.039
-213.523	-106.949	-0.086	0.019
-212.509	-114.701	-0.265	-0.050
-211.494	370.757	-0.018	0.036
-210.479	-107.849	-0.103	-0.022
-209.465	800.000	-0.113	0.367
-208.450	5.717	0.075	-0.055
-207.436	114.632	0.082	0.099
-206.421	-109.273	0.256	-0.054
-205.406	-200.000	-0.020	-0.402
-204.392	-200.000	0.014	0.124
-203.377	285.926	-0.088	-0.156
-202.363	-2.512	0.172	-0.119
-201.348	45.104	0.447	0.407
-200.333	756.500	0.107	0.287
-199.319	-162.202	0.251	0.012
-198.304	595.209	-0.125	-0.306
-197.290	-200.000	0.022	-0.123
-196.275	-200.000	-0.004	-0.276
-195.260	-52.027	-0.207	-0.095
-194.246	47.984	0.220	0.203
-193.231	-103.264	0.238	-0.055
-192.217	197.902	0.079	-0.118
-191.202	133.180	-0.093	-0.119
-190.187	-200.000	0.010	-0.154
-189.173	95.370	0.189	0.213
-188.158	-48.667	-0.090	-0.043
-187.144	-72.981	0.126	-0.046
-186.129	136.719	-0.201	0.259
-185.114	167.163	-0.143	-0.201
-184.100	-111.417	0.428	0.086
-183.085	-77.040	-0.111	0.038
-182.071	-159.560	-0.399	0.022
-181.056	-89.202	0.195	-0.057
-180.042	45.566	-0.200	-0.182
-179.027	-200.000	-0.008	0.051
-178.012	-57.103	-0.218	-0.095
-176.998	163.315	-0.107	0.148
-175.983	-200.000	-0.012	0.408
-174.969	-67.223	0.142	-0.055
-173.954	344.546	0.035	0.067
-172.939	800.000	0.028	0.099
-171.925	-200.000	-0.014	0.117
-170.910	-200.000	0.047	0.263
-169.896	-200.000	0.010	-0.308
-168.881	800.000	-0.079	0.244
-167.866	36.123	-0.267	-0.232
-166.852	-48.567	-0.115	0.054
-165.837	176.200	0.095	0.136
-164.823	-36.902	-0.381	-0.201
-163.808	800.000	0.073	0.201
-162.793	-131.628	0.107	-0.014
-161.779	-129.859	0.257	-0.035
-160.764	308.361	0.124	0.228
-159.750	-59.351	0.326	0.138
-158.735	151.155	-0.149	-0.200
-157.720	486.148	-0.206	-0.464
-156.706	-48.686	-0.242	-0.115
-155.691	139.411	0.126	0.164
-154.677	-200.000	-0.024	0.467
-153.662	-200.000	0.058	-0.344
-152.647	-84.377	0.163	0.051
-151.633	-200.000	-0.013	-0.165
-150.618	-138.725	-0.223	0.024
-149.604	-200.000	0.031	-0.161
-148.589	-73.085	0.157	-0.057
-147.574	10.763	-0.099	-0.075
-146.560	-188.162	0.053	-0.001
-145.545	11.078	-0.122	-0.092
-144.531	-90.514	-0.063	-0.018
-143.516	199.845	-0.205	0.310
-142.502	-200.000	0.000	-0.340
-141.487	800.000	-0.021	0.069
-140.472	-87.519	-0.208	-0.062
-139.458	60.138	0.139	-0.135
-138.443	-200.000	0.000	-0.048
-137.429	138.002	-0.163	-0.210
-136.414	-101.248	0.140	-0.034
-135.399	-200.000	0.004	0.055
-134.385	-97.777	0.267	-0.068
-133.370	-42.250	0.148	-0.075
-132.356	165.565	-0.225	0.313
-131.341	-16.946	-0.278	0.173
-130.326	-200.000	0.012	-0.066
-129.312	-79.105	-0.214	0.071
-128.297	-63.824	0.219	-0.088
-127.283	7.237	0.181	-0.133
-126.268	164.936	0.138	-0.192
-125.253	175.186	0.104	-0.148
-124.239	301.394	0.156	-0.284
-123.224	-45.738	-0.310	0.151
-122.210	108.206	-0.101	-0.119
