DTS Sentinel unit serial number:	SN413079Multiplexer serial number:	ORYXHardware model number:	OX4-SRSoftware version number:	ORYX F/W v4.00 Oryx Data Collector v3.7.2.0data status	okinstallation	princeton_trtdifferential loss correction	single-endedforward channel	channel 1reverse channel	N/Adate	2019/09/18time	20:10:35forward acquisition time	60.00reverse acquisition time	0.00gamma	496.2192k internal	0.2330k external	0.2330temperature offset calibration	1.0034default loss term (dB/km)	0.3790temperature slope calibration	1.0000multiplexer offset coefficient	1.0000multiplexer slope coefficient	1.0000fibre end	0.00T internal ref (°C)	29.61T ext. ref 1 (°C)	0.99T ext. ref 2 (°C)	20.24length (m)	temperature (°C)	Stokes	anti-Stokes-747.200	288.030	0.112	-0.204
-746.185	186.539	-0.050	0.076
-745.171	-18.330	0.307	0.193
-744.156	-11.431	-0.154	-0.102
-743.142	-200.000	0.225	-0.000
-742.127	800.000	0.089	-0.350
-741.112	-54.671	0.312	0.142
-740.098	-72.098	-0.159	0.059
-739.083	800.000	-0.009	0.036
-738.069	133.539	-0.085	-0.110
-737.054	-116.722	0.177	-0.033
-736.039	-119.196	-0.323	-0.057
-735.025	176.157	0.128	-0.188
-734.010	-121.543	0.183	-0.030
-732.996	-200.000	0.073	0.485
-731.981	25.944	-0.239	0.201
-730.966	-0.984	-0.126	-0.089
-729.952	-37.711	-0.280	0.150
-728.937	171.218	-0.369	0.533
-727.923	-155.674	-0.433	0.028
-726.908	71.706	0.255	-0.266
-725.894	-200.000	-0.024	-0.146
-724.879	9.023	-0.162	0.123
-723.864	-105.854	0.371	-0.084
-722.850	-97.533	-0.458	0.120
-721.835	714.652	-0.038	0.101
-720.821	-200.000	-0.004	-0.217
-719.806	25.690	0.231	-0.193
-718.791	-13.352	-0.265	-0.173
-717.777	-195.997	-0.387	-0.003
-716.762	-58.940	-0.070	0.031
-715.748	201.790	-0.094	-0.146
-714.733	130.114	-0.293	-0.377
-713.718	61.682	-0.262	0.262
-712.704	158.523	-0.182	0.254
-711.689	553.435	0.056	0.135
-710.675	219.687	0.276	-0.444
-709.660	-27.877	-0.204	-0.119
-708.645	432.257	0.062	-0.135
-707.631	-1.881	0.070	0.050
-706.616	800.000	-0.037	-0.143
-705.602	-93.821	0.260	-0.072
-704.587	189.110	-0.110	0.165
-703.572	-116.113	0.250	0.047
-702.558	-3.231	0.185	0.130
-701.543	-17.797	-0.137	0.086
-700.529	146.559	0.154	0.208
-699.514	800.000	-0.059	-0.177
-698.499	-108.076	0.269	-0.059
-697.485	-200.000	-0.233	-0.001
-696.470	-71.402	0.079	0.030
-695.456	123.926	-0.295	0.372
-694.441	800.000	0.043	-0.170
-693.426	228.982	0.132	-0.216
-692.412	-23.747	-0.294	-0.177
-691.397	-1.960	0.272	-0.192
-690.383	37.013	0.278	0.247
-689.368	68.799	-0.150	-0.155
-688.354	-124.711	-0.416	-0.065
-687.339	-14.482	-0.110	-0.071
-686.324	197.051	-0.070	-0.108
-685.310	-200.000	-0.051	0.268
-684.295	800.000	-0.168	0.519
-683.281	-124.291	0.122	0.019
-682.266	427.991	-0.183	-0.396
-681.251	-190.292	-0.222	0.002
-680.237	-30.552	-0.294	-0.167
-679.222	0.572	0.415	-0.298
-678.208	-161.469	0.244	-0.013
-677.193	339.816	-0.192	-0.376
-676.178	-91.480	-0.182	0.052
-675.164	-164.755	0.192	0.009
-674.149	-136.934	0.247	0.028
-673.135	284.595	0.094	-0.170
-672.120	-5.424	0.084	-0.058
-671.105	158.802	0.068	-0.095
-670.091	-8.032	0.196	0.133
-669.076	-133.772	-0.030	0.004
-668.062	99.091	0.110	0.127
-667.047	27.464	0.227	-0.192
-666.032	174.545	0.072	0.105
-665.018	75.133	0.129	0.137
-664.003	-200.000	0.005	0.107
-662.989	-34.237	0.172	0.095
-661.974	-73.618	-0.324	0.119
-660.959	283.871	0.157	-0.284
-659.945	24.711	0.051	-0.042
-658.930	-200.000	-0.045	-0.228
-657.916	-49.951	0.135	-0.064
-656.901	337.718	0.165	-0.323
-655.886	110.264	-0.078	0.094
-654.872	107.469	-0.119	-0.141
-653.857	681.656	-0.065	0.169
-652.843	-74.049	-0.238	0.087
-651.828	-87.452	-0.039	0.012
-650.814	-200.000	-0.046	-0.263
-649.799	-50.236	-0.154	0.073
-648.784	-125.011	-0.260	-0.040
-647.770	-54.725	-0.198	-0.090
-646.755	-200.000	0.001	0.522
-645.741	-150.190	-0.350	-0.027
-644.726	-39.043	-0.143	-0.075
-643.711	-110.245	0.139	0.029
-642.697	310.218	0.111	0.209
-641.682	-2.171	-0.316	0.223
-640.668	-13.829	-0.210	0.136
-639.653	800.000	-0.047	-0.202
-638.638	169.957	0.173	-0.248
-637.624	-27.925	0.280	0.162
-636.609	319.814	-0.116	-0.220
-635.595	414.388	-0.054	-0.116
-634.580	129.462	0.144	-0.185
-633.565	143.893	-0.172	-0.230
-632.551	753.818	0.093	0.251
-631.536	66.693	-0.196	0.199
-630.522	-120.331	0.344	0.059
-629.507	215.605	-0.087	-0.138
-628.492	-160.162	-0.425	-0.023
-627.478	-200.000	0.031	-0.213
-626.463	10.720	0.087	-0.066
-625.449	26.070	0.154	0.129
-624.434	-172.834	-0.197	-0.006
-623.419	-200.000	0.049	0.385
-622.405	800.000	0.065	0.206
-621.390	381.034	-0.085	-0.175
-620.376	533.925	-0.100	-0.236
-619.361	-200.000	0.018	-0.199
-618.346	137.520	0.099	0.130
-617.332	-200.000	0.030	-0.251
-616.317	-29.187	-0.077	0.044
-615.303	-58.375	-0.208	-0.091
-614.288	-200.000	0.038	-0.235
-613.273	-149.592	0.372	-0.029
-612.259	-120.284	-0.090	0.015
-611.244	116.792	-0.128	0.158
-610.230	800.000	0.066	-0.218
-609.215	-96.928	0.329	0.086
-608.201	-35.759	-0.161	-0.087
-607.186	-117.132	0.289	-0.053
-606.171	650.960	-0.115	0.294
-605.157	364.704	-0.098	0.198
-604.142	449.168	0.097	-0.214
-603.128	4.252	-0.182	0.133
-602.113	-148.630	0.208	0.017
-601.098	800.000	-0.109	0.389
-600.084	4.636	-0.306	0.225
-599.069	387.308	0.054	-0.111
-598.055	-84.382	0.225	-0.071
-597.040	800.000	0.047	0.161
-596.025	-100.063	-0.125	0.031
-595.011	-11.832	-0.276	0.181
-593.996	33.191	-0.104	0.090
-592.982	255.791	0.144	-0.248
-591.967	-129.320	0.188	0.026
-590.952	108.908	-0.167	-0.200
-589.938	212.381	-0.097	0.154
-588.923	372.812	0.026	-0.054
-587.909	-200.000	0.006	-0.166
-586.894	800.000	-0.032	-0.093
-585.879	-86.112	-0.178	0.055
-584.865	-43.168	0.087	0.044
-583.850	298.714	0.127	-0.234
-582.836	435.208	-0.095	-0.206
-581.821	185.620	-0.306	0.455
-580.806	-200.000	-0.351	0.001
-579.792	474.578	-0.041	-0.092
-578.777	-187.721	0.192	-0.003
-577.763	65.419	0.154	-0.156
-576.748	-18.928	0.256	-0.159
-575.733	-63.828	-0.132	-0.054
-574.719	-200.000	-0.009	0.425
-573.704	-167.019	-0.216	-0.009
-572.690	800.000	-0.052	-0.213
-571.675	14.956	0.104	-0.082
-570.661	245.465	0.106	0.179
-569.646	-139.465	0.107	0.012
-568.631	-114.666	-0.219	0.042
-567.617	318.099	0.038	-0.072
-566.602	-200.000	0.088	0.506
-565.588	187.139	-0.029	0.044
-564.573	10.342	-0.268	-0.204
-563.558	166.404	0.292	0.414
-562.544	-30.827	0.286	-0.162
-561.529	162.021	-0.124	0.174
-560.515	21.612	-0.253	0.206
-559.500	516.780	0.124	-0.290
-558.485	800.000	-0.007	-0.027
-557.471	245.466	-0.029	-0.048
-556.456	262.137	-0.084	0.145
-555.442	243.406	0.103	0.172
-554.427	-136.830	-0.102	0.012
-553.412	-56.803	-0.484	-0.214
-552.398	-200.000	-0.027	-0.228
-551.383	-128.176	0.230	0.033
-550.369	0.056	-0.208	0.148
-549.354	0.513	-0.196	-0.140
-548.339	-121.428	-0.104	-0.017
-547.325	-61.832	0.152	-0.064
-546.310	-200.000	-0.012	-0.103
-545.296	269.318	-0.082	0.144
-544.281	-80.585	0.160	0.053
-543.266	-20.198	-0.104	0.064
-542.252	-12.539	0.148	0.096
-541.237	633.778	0.115	-0.292
-540.223	398.599	0.041	0.085
-539.208	800.000	0.079	-0.220
-538.193	-88.367	0.106	-0.032
-537.179	-48.338	0.068	0.033
-536.164	362.836	0.087	-0.174
-535.150	128.151	-0.062	-0.079
-534.135	800.000	0.052	0.158
-533.121	-63.737	0.112	-0.046
-532.106	-68.571	0.244	0.094
-531.091	282.136	-0.043	0.078
-530.077	32.008	0.168	0.145
-529.062	-65.193	0.081	-0.033
-528.048	800.000	0.097	-0.327
-527.033	-69.695	-0.110	-0.042
-526.018	250.299	-0.057	-0.096
-525.004	354.879	0.102	0.202
-523.989	-187.040	-0.162	-0.002
-522.975	22.740	0.089	0.073
-521.960	81.796	-0.124	-0.134
-520.945	-200.000	0.089	-0.397
-519.931	-200.000	0.086	0.425
-518.916	-200.000	-0.008	0.287
-517.902	27.519	0.217	0.182
-516.887	800.000	-0.050	0.182
-515.872	-140.703	-0.349	0.036
-514.858	179.182	-0.062	-0.090
-513.843	-200.000	-0.003	-0.146
-512.829	800.000	-0.062	0.194
-511.814	800.000	0.057	0.162
-510.799	64.608	-0.066	-0.066
-509.785	-200.000	-0.054	0.286
-508.770	63.918	0.188	-0.189
-507.756	655.553	-0.182	-0.466
-506.741	-19.563	0.403	-0.249
-505.726	-200.000	-0.053	-0.258
-504.712	-200.000	-0.017	-0.085
-503.697	-87.193	0.036	-0.011
-502.683	70.810	-0.149	0.154
-501.668	97.367	-0.099	-0.114
-500.653	211.914	-0.208	0.327
-499.639	-54.312	0.272	-0.123
-498.624	-200.000	0.013	-0.282
-497.610	-126.529	0.362	-0.054
-496.595	66.055	-0.136	-0.137
-495.581	-40.391	-0.258	0.134
-494.566	-200.000	0.012	-0.053
-493.551	-200.000	0.019	-0.321
-492.537	-0.724	0.254	0.180
-491.522	80.301	-0.185	0.199
-490.508	-200.000	-0.013	0.128
-489.493	-74.192	0.292	0.105
-488.478	244.963	0.049	0.083
-487.464	-74.550	0.114	-0.041
-486.449	111.965	0.320	0.385
-485.435	-85.455	-0.370	0.115
-484.420	7.504	0.231	-0.172
-483.405	-65.615	-0.147	-0.059
-482.391	352.248	0.209	-0.412
-481.376	-127.302	0.485	-0.070
-480.362	85.599	-0.092	-0.100
-479.347	-152.279	-0.227	0.016
-478.332	63.488	0.227	-0.227
-477.318	-38.117	0.224	-0.118
-476.303	-78.917	-0.081	0.027
-475.289	800.000	0.096	0.265
-474.274	-163.732	-0.223	0.010
-473.259	90.480	-0.221	0.246
-472.245	-200.000	-0.051	0.274
-471.230	-146.366	0.112	0.010
-470.216	37.492	0.128	0.113
-469.201	-29.014	-0.047	-0.027
-468.186	652.998	0.116	0.296
-467.172	84.836	-0.130	0.142
-466.157	-200.000	-0.018	-0.205
-465.143	334.869	-0.012	-0.024
-464.128	-61.325	0.062	-0.026
-463.113	-200.000	0.034	-0.281
-462.099	-154.097	-0.131	0.009
-461.084	-160.627	0.375	0.020
-460.070	-200.000	-0.014	-0.445
-459.055	-81.723	-0.013	-0.004
-458.040	113.890	0.026	0.032
-457.026	224.052	-0.241	-0.387
-456.011	-200.000	0.032	-0.270
-454.997	-182.144	0.119	0.002
-453.982	-61.125	-0.202	0.085
-452.968	145.030	0.190	0.252
-451.953	266.427	-0.111	-0.193
-450.938	-18.054	0.099	-0.062
-449.924	-39.601	0.227	-0.118
-448.909	70.895	-0.092	0.095
-447.895	800.000	0.072	0.245
-446.880	-132.838	-0.215	-0.027
-445.865	5.463	0.086	-0.063
-444.851	297.661	-0.281	-0.513
-443.836	-106.976	-0.033	-0.007
-442.822	800.000	0.012	0.042
-441.807	-30.447	0.229	0.129
-440.792	-134.459	-0.094	0.011
-439.778	-56.642	0.328	-0.145
-438.763	-99.908	0.072	-0.018
-437.749	-200.000	-0.075	0.367
-436.734	588.600	-0.063	0.153
-435.719	-68.256	-0.192	-0.074
-434.705	-200.000	0.039	0.219
-433.690	194.655	0.007	0.010
-432.676	-126.498	0.181	-0.027
-431.661	-34.135	-0.249	-0.136
-430.646	-115.187	-0.200	-0.038
-429.632	-159.167	-0.290	0.016
-428.617	172.058	-0.272	-0.389
-427.603	-171.657	-0.229	0.007
-426.588	-108.435	-0.122	-0.026
-425.573	59.918	-0.332	0.326
-424.559	46.084	0.327	-0.301
-423.544	-200.000	0.036	0.428
-422.530	210.482	-0.172	0.269
-421.515	800.000	0.125	0.465
-420.500	800.000	0.040	0.131
-419.486	109.847	0.037	0.045
-418.471	800.000	0.025	0.083
-417.457	-47.844	-0.302	0.146
-416.442	124.232	0.095	-0.118
-415.428	-43.112	-0.226	0.114
-414.413	-200.000	-0.005	0.071
-413.398	8.826	0.112	-0.084
-412.384	106.640	-0.271	-0.320
-411.369	-200.000	0.026	0.240
-410.355	444.233	-0.114	0.248
-409.340	-200.000	-0.051	0.334
-408.325	194.515	0.211	0.317
-407.311	429.760	-0.157	-0.338
-406.296	800.000	0.091	-0.348
-405.282	148.005	-0.202	-0.271
-404.267	67.037	0.194	0.196
-403.252	-103.521	-0.137	-0.032
-402.238	758.484	-0.145	-0.389
-401.223	-93.244	-0.129	0.036
-400.209	-137.456	-0.184	0.021
-399.194	-123.483	-0.200	-0.032
-398.179	-44.456	0.339	-0.169
-397.165	-200.000	0.016	-0.261
-396.150	13.849	-0.128	-0.099
-395.136	-99.453	0.110	-0.027
-394.121	-124.825	0.144	-0.022
-393.106	-200.000	-0.021	0.107
-392.092	603.069	-0.121	0.299
-391.077	244.132	-0.171	0.285
-390.063	43.563	-0.252	0.228
-389.048	-25.885	0.077	0.045
-388.033	-72.149	0.370	-0.136
-387.019	800.000	0.021	-0.060
-386.004	-200.000	0.032	0.255
-384.990	-133.535	0.347	0.043
-383.975	22.190	-0.291	-0.236
-382.960	-176.475	-0.350	0.009
-381.946	23.447	-0.135	-0.110
-380.931	800.000	-0.106	0.346
-379.917	700.451	-0.074	0.194
-378.902	104.842	0.137	-0.161
-377.888	800.000	0.066	-0.188
-376.873	-155.111	0.435	0.028
-375.858	209.370	0.073	0.114
-374.844	223.256	0.122	-0.194
-373.829	800.000	0.063	-0.206
-372.815	-200.000	0.035	0.231
-371.800	180.916	0.056	0.082
-370.785	565.029	-0.134	-0.322
-369.771	-165.538	0.282	-0.012
-368.756	-200.000	-0.027	0.224
-367.742	604.686	0.047	0.116
-366.727	-18.519	-0.163	-0.101
-365.712	-157.666	0.346	0.020
-364.698	-158.521	0.100	-0.006
-363.683	-200.000	0.046	0.339
-362.669	-200.000	0.003	-0.019
-361.654	7.575	0.368	0.273
-360.639	-143.652	0.180	-0.017
-359.625	-37.788	0.295	0.156
-358.610	249.235	-0.257	-0.433
-357.596	-42.470	-0.268	0.135
-356.581	-200.000	0.034	0.241
-355.566	-200.000	-0.019	0.222
-354.552	-91.216	-0.207	0.059
-353.537	-200.000	0.056	0.283
-352.523	65.074	0.223	-0.224
-351.508	130.128	0.062	0.078
-350.493	-191.308	-0.360	-0.004
-349.479	-200.000	0.027	0.476
-348.464	88.590	-0.122	-0.134
-347.450	-74.716	0.136	-0.049
-346.435	166.068	0.038	0.053
-345.420	129.388	-0.092	-0.117
-344.406	-200.000	0.088	-0.509
-343.391	-41.208	0.286	-0.146
-342.377	-129.457	-0.273	0.037
-341.362	800.000	-0.069	-0.252
-340.348	-68.825	0.365	0.140
-339.333	54.694	0.221	-0.211
-338.318	700.389	-0.036	-0.094
-337.304	22.898	0.601	-0.488
-336.289	-125.310	0.297	0.045
-335.275	35.517	-0.199	-0.173
-334.260	-49.281	-0.124	0.059
-333.245	-28.577	0.079	-0.045
-332.231	800.000	0.125	0.402
-331.216	-200.000	0.001	-0.322
-330.202	-200.000	0.014	0.097
-329.187	140.776	-0.022	0.029
-328.172	73.848	-0.299	-0.311
-327.158	-15.820	0.123	-0.078
-326.143	-97.272	-0.108	-0.028
-325.129	800.000	0.055	0.166
-324.114	-82.657	-0.260	0.083
-323.099	800.000	-0.068	0.229
-322.085	89.436	0.110	-0.122
-321.070	123.912	-0.220	-0.274
-320.056	-200.000	-0.016	-0.160
-319.041	-98.178	0.081	0.021
-318.026	488.669	-0.031	0.070
-317.012	-34.227	0.201	-0.109
-315.997	595.222	-0.082	-0.200
-314.983	-200.000	0.016	-0.251
-313.968	-200.000	0.008	-0.085
-312.953	-109.486	-0.145	0.030
-311.939	-172.709	-0.098	-0.003
-310.924	-134.096	-0.154	-0.019
-309.910	13.714	0.250	-0.192
-308.895	353.023	-0.048	-0.094
-307.880	-45.609	0.240	-0.118
-306.866	63.714	-0.169	-0.168
-305.851	800.000	0.012	-0.050
-304.837	-67.262	-0.235	0.091
-303.822	-200.000	0.063	-0.333
-302.807	800.000	0.053	0.179
-301.793	-200.000	-0.005	-0.075
-300.778	800.000	-0.026	-0.079
-299.764	364.709	0.028	-0.055
-298.749	-133.173	0.219	0.027
-297.735	800.000	0.118	0.335
-296.720	157.706	-0.038	0.052
-295.705	28.574	-0.171	-0.143
-294.691	277.552	-0.040	0.071
-293.676	800.000	-0.041	0.166
-292.662	29.983	-0.113	0.095
-291.647	-124.384	-0.305	0.047
-290.632	-72.763	0.397	-0.145
-289.618	-200.000	0.003	-0.168
-288.603	-116.171	-0.346	-0.064
-287.589	125.995	-0.135	-0.169
-286.574	-26.775	0.494	0.285
-285.559	-112.856	-0.316	-0.062
-284.545	-61.223	-0.197	0.082
-283.530	-137.721	0.299	0.033
-282.516	-32.839	-0.186	0.102
-281.501	-4.033	0.221	-0.152
-280.486	-83.043	0.172	-0.055
-279.472	-200.000	0.010	-0.058
-278.457	-152.525	-0.230	0.016
-277.443	52.700	0.202	0.191
-276.428	653.888	0.155	0.393
-275.413	45.549	0.088	-0.080
-274.399	301.719	-0.100	0.183
-273.384	8.533	0.115	0.086
-272.370	-7.709	0.182	-0.122
-271.355	37.717	-0.233	-0.205
-270.340	132.446	0.126	-0.160
-269.326	800.000	-0.041	0.129
-268.311	-141.526	0.269	0.027
-267.297	562.157	-0.026	-0.062
-266.282	407.408	-0.131	0.275
-265.267	-149.353	-0.244	-0.019
-264.253	-52.530	0.106	0.049
-263.238	-111.372	-0.031	-0.006
-262.224	42.113	0.144	0.129
-261.209	-43.097	0.213	0.107
-260.195	-84.353	-0.468	0.146
-259.180	172.919	0.142	0.201
-258.165	-42.563	-0.427	0.215
-257.151	-200.000	0.386	0.001
-256.136	260.612	0.026	0.044
-255.122	800.000	0.082	-0.269
-254.107	800.000	-0.035	0.118
-253.092	-97.410	0.191	0.049
-252.078	328.477	-0.110	-0.209
-251.063	-121.164	-0.266	-0.044
-250.049	173.817	-0.105	0.149
-249.034	401.454	0.064	-0.132
-248.019	-77.805	-0.300	-0.102
-247.005	598.273	0.025	-0.060
-245.990	293.839	-0.129	-0.232
-244.976	94.567	0.150	-0.169
-243.961	-63.349	0.126	0.051
-242.946	400.295	0.058	0.120
-241.932	800.000	-0.075	-0.302
-240.917	-0.823	0.184	0.129
-239.903	-48.422	0.117	-0.056
-238.888	-108.553	0.289	-0.061
-237.873	-2.372	-0.151	0.104
-236.859	-22.240	-0.118	-0.071
-235.844	51.653	-0.161	0.152
-234.830	-5.429	0.134	0.091
-233.815	14.378	0.046	0.036
-232.800	800.000	0.059	0.171
-231.786	-200.000	0.050	-0.223
-230.771	-108.503	0.376	-0.080
-229.757	800.000	0.004	0.010
-228.742	-31.336	-0.090	-0.050
-227.727	-200.000	0.024	-0.112
-226.713	308.636	-0.028	-0.051
-225.698	-200.000	0.012	-0.435
-224.684	68.051	-0.087	-0.088
-223.669	58.957	0.193	0.188
-222.655	-29.441	-0.105	-0.059
-221.640	-103.653	0.220	-0.051
-220.625	-2.355	0.232	-0.160
-219.611	625.152	0.122	-0.303
-218.596	-101.670	0.221	0.053
-217.582	101.195	-0.164	-0.188
-216.567	275.329	0.035	0.060
-215.552	-65.007	-0.353	-0.141
-214.538	800.000	-0.115	-0.357
-213.523	-19.733	-0.062	-0.038
-212.509	48.094	-0.105	0.097
-211.494	-25.439	0.188	0.110
-210.479	236.838	0.161	0.263
-209.465	25.815	-0.114	-0.093
-208.450	126.048	-0.064	-0.080
-207.436	28.171	-0.240	-0.200
-206.421	-6.018	0.178	0.120
-205.406	-79.371	0.194	-0.065
-204.392	-102.079	0.133	0.032
-203.377	-16.934	0.254	0.158
-202.363	800.000	-0.124	0.352
-201.348	399.620	0.107	-0.221
-200.333	-200.000	-0.055	0.274
-199.319	119.876	0.134	0.164
-198.304	-95.993	-0.208	-0.055
-197.290	185.655	0.191	-0.280
-196.275	-108.130	0.279	0.060
-195.260	-58.830	-0.240	0.102
-194.246	-200.000	-0.001	0.192
-193.231	-72.354	-0.281	0.102
-192.217	113.427	0.142	0.170
-191.202	28.410	-0.139	-0.116
-190.187	183.434	-0.277	0.403
-189.173	-143.044	-0.299	0.028
-188.158	-167.706	0.010	0.000
-187.144	37.139	0.203	0.177
-186.129	-56.309	-0.226	-0.099
-185.114	800.000	-0.068	0.260
-184.100	-200.000	-0.038	0.207
-183.085	-200.000	-0.001	-0.072
-182.071	800.000	0.080	0.270
-181.056	-28.440	0.136	0.077
-180.042	800.000	0.064	0.181
-179.027	-118.831	-0.186	0.032
-178.012	-97.744	-0.100	0.025
-176.998	-200.000	-0.001	-0.041
-175.983	-35.352	-0.214	-0.115
-174.969	148.743	0.180	-0.240
-173.954	258.700	-0.129	-0.220
-172.939	-45.903	0.137	0.066
-171.925	-200.000	-0.008	0.241
-170.910	102.422	0.113	-0.130
-169.896	-50.578	0.237	-0.110
-168.881	532.530	-0.086	-0.199
-167.866	-60.372	-0.093	0.039
-166.852	273.018	-0.048	0.083
-165.837	103.863	0.025	0.029
-164.823	17.267	-0.055	-0.043
-163.808	132.136	0.340	-0.431
-162.793	-200.000	-0.024	0.238
-161.779	157.410	0.155	0.211
-160.764	-200.000	-0.012	-0.056
-159.750	-37.626	-0.089	-0.047
-158.735	-200.000	-0.044	0.361
-157.720	-200.000	0.029	0.126
-156.706	363.470	-0.058	0.115
-155.691	181.064	-0.128	-0.185
-154.677	39.830	0.222	0.196
-153.662	-104.240	-0.471	-0.108
-152.647	-200.000	0.025	-0.155
-151.633	72.173	0.217	-0.223
-150.618	-84.482	-0.200	-0.062
-149.604	-152.159	0.215	-0.015
-148.589	-113.258	0.190	-0.037
-147.574	54.337	-0.116	-0.110
-146.560	219.491	0.144	0.226
-145.545	-92.365	0.150	-0.042
-144.531	10.340	0.218	0.163
-143.516	-62.652	-0.296	-0.121
-142.502	21.082	-0.100	-0.080
-141.487	-200.000	-0.012	-0.235
-140.472	-200.000	-0.003	-0.116
-139.458	800.000	0.028	0.099
-138.443	770.896	-0.041	-0.110
-137.429	-87.342	-0.329	0.098
-136.414	75.470	0.024	-0.025
-135.399	206.473	0.058	-0.088
-134.385	254.593	0.044	0.075
-133.370	-165.293	0.194	-0.008
-132.356	725.784	0.063	0.164
-131.341	26.091	-0.179	-0.147
-130.326	42.863	0.132	0.119
-129.312	-58.076	0.133	-0.057
-128.297	-57.780	-0.134	0.057
-127.283	-72.949	-0.117	-0.042
-126.268	126.746	0.096	0.120
-125.253	-27.621	0.186	0.106
-124.239	-169.460	-0.285	-0.010
-123.224	800.000	0.069	0.255
-122.210	800.000	-0.032	-0.111
-121.195	58.062	0.085	-0.082
