DTS Sentinel unit serial number:	SN413079Multiplexer serial number:	ORYXHardware model number:	OX4-SRSoftware version number:	ORYX F/W v4.00 Oryx Data Collector v3.7.2.0data status	okinstallation	princeton_trtdifferential loss correction	single-endedforward channel	channel 1reverse channel	N/Adate	2019/09/19time	15:26:35forward acquisition time	60.00reverse acquisition time	0.00gamma	496.2192k internal	0.2313k external	0.2313temperature offset calibration	1.0025default loss term (dB/km)	0.3790temperature slope calibration	1.0000multiplexer offset coefficient	1.0000multiplexer slope coefficient	1.0000fibre end	0.00T internal ref (°C)	33.94T ext. ref 1 (°C)	1.15T ext. ref 2 (°C)	30.87length (m)	temperature (°C)	Stokes	anti-Stokes-747.200	187.587	0.134	-0.203
-746.185	733.069	-0.157	0.427
-745.171	-89.228	-0.356	0.107
-744.156	-58.907	-0.307	-0.135
-743.142	-103.245	-0.228	-0.055
-742.127	166.521	-0.203	0.291
-741.112	7.303	0.008	-0.006
-740.098	800.000	-0.062	0.216
-739.083	186.580	-0.114	-0.172
-738.069	-105.448	-0.165	0.038
-737.054	-4.956	0.259	0.181
-736.039	-117.722	-0.095	-0.017
-735.025	-158.293	-0.338	-0.020
-734.010	800.000	-0.107	-0.340
-732.996	-107.678	-0.452	-0.100
-731.981	-32.591	0.176	-0.100
-730.966	-89.203	-0.151	-0.045
-729.952	-56.610	-0.077	0.035
-728.937	54.150	-0.281	-0.275
-727.923	800.000	-0.008	0.032
-726.908	-114.081	0.177	0.035
-725.894	-56.157	-0.430	-0.194
-724.879	-12.024	0.215	-0.143
-723.864	-200.000	0.020	0.198
-722.850	186.000	-0.308	-0.464
-721.835	390.328	-0.149	-0.313
-720.821	-46.836	-0.299	0.148
-719.806	183.342	0.069	0.103
-718.791	-44.105	-0.159	-0.081
-717.777	-28.451	0.152	-0.089
-716.762	20.878	-0.229	0.188
-715.748	800.000	-0.116	0.440
-714.733	241.860	0.099	-0.167
-713.718	-156.363	0.165	-0.010
-712.704	475.753	-0.135	0.309
-711.689	-107.453	-0.190	-0.042
-710.675	545.688	-0.124	-0.300
-709.660	800.000	0.060	-0.222
-708.645	-147.150	-0.277	0.024
-707.631	-200.000	0.010	0.192
-706.616	18.294	0.059	-0.048
-705.602	-200.000	-0.002	0.340
-704.587	-200.000	-0.026	0.279
-703.572	-84.432	0.253	-0.081
-702.558	-146.685	0.258	-0.023
-701.543	-79.395	0.234	-0.080
-700.529	415.388	0.050	-0.107
-699.514	66.105	-0.294	-0.302
-698.499	-200.000	-0.026	-0.144
-697.485	-17.610	0.195	-0.124
-696.470	-200.000	0.015	0.381
-695.456	-200.000	-0.042	0.209
-694.441	766.266	-0.052	-0.142
-693.426	-53.447	-0.250	-0.116
-692.412	800.000	-0.053	-0.150
-691.397	-200.000	0.000	0.039
-690.383	800.000	-0.141	-0.428
-689.368	32.076	0.141	0.123
-688.354	140.552	-0.195	-0.261
-687.339	507.544	-0.055	0.130
-686.324	680.833	0.109	-0.287
-685.310	-60.430	-0.510	0.219
-684.295	-124.467	-0.331	-0.052
-683.281	-74.393	-0.059	0.021
-682.266	-200.000	-0.017	-0.102
-681.251	-165.813	0.217	-0.009
-680.237	-83.549	0.166	-0.054
-679.222	353.436	-0.042	0.084
-678.208	-58.454	-0.244	-0.107
-677.193	-74.964	-0.226	-0.082
-676.178	174.826	-0.128	0.188
-675.164	104.902	-0.093	-0.111
-674.149	-200.000	-0.013	-0.147
-673.135	89.534	-0.140	0.158
-672.120	-26.151	-0.016	-0.009
-671.105	-200.000	0.006	-0.070
-670.091	-200.000	0.001	-0.167
-669.076	800.000	-0.077	-0.221
-668.062	326.433	-0.205	-0.397
-667.047	-200.000	-0.045	-0.448
-666.032	719.618	0.144	0.388
-665.018	223.322	0.199	0.325
-664.003	171.637	0.088	0.127
-662.989	-47.398	-0.271	-0.133
-661.974	4.240	-0.175	-0.130
-660.959	-162.477	0.269	0.013
-659.945	127.767	-0.208	-0.267
-658.930	-109.064	0.220	-0.047
-657.916	10.987	0.064	-0.049
-656.901	800.000	-0.154	-0.472
-655.886	-76.049	0.277	-0.099
-654.872	173.958	-0.087	0.127
-653.857	-99.706	-0.345	0.087
-652.843	54.132	-0.156	-0.152
-651.828	-40.548	-0.111	0.058
-650.814	-200.000	-0.004	-0.354
-649.799	800.000	-0.044	0.187
-648.784	-110.642	-0.261	-0.055
-647.770	24.715	0.101	-0.085
-646.755	-116.814	0.163	0.030
-645.741	-158.352	-0.330	0.019
-644.726	329.385	0.095	-0.185
-643.711	-137.074	-0.266	0.031
-642.697	0.650	0.117	0.084
-641.682	-9.327	0.149	-0.101
-640.668	-124.733	-0.342	-0.053
-639.653	-200.000	-0.013	0.141
-638.638	206.498	-0.065	-0.103
-637.624	-200.000	0.004	0.298
-636.609	-24.054	-0.281	-0.170
-635.595	-200.000	0.014	-0.239
-634.580	-114.514	0.238	0.046
-633.565	195.343	-0.134	0.206
-632.551	-153.929	-0.230	-0.016
-631.536	-51.886	-0.225	-0.106
-630.522	-200.000	-0.010	0.242
-629.507	243.414	-0.096	0.162
-628.492	33.549	-0.267	0.234
-627.478	-154.122	0.023	-0.002
-626.463	-200.000	-0.024	-0.188
-625.449	47.117	-0.095	0.089
-624.434	411.624	0.031	0.066
-623.419	160.025	0.024	0.033
-622.405	47.073	-0.147	-0.138
-621.390	-37.035	-0.214	-0.116
-620.376	800.000	-0.051	0.155
-619.361	-200.000	-0.068	0.308
-618.346	-200.000	-0.055	0.292
-617.332	155.465	0.093	-0.129
-616.317	-55.581	-0.030	0.014
-615.303	-200.000	0.008	-0.155
-614.288	708.994	-0.060	-0.159
-613.273	9.048	-0.269	0.205
-612.259	-89.429	0.022	0.006
-611.244	-16.576	0.035	0.022
-610.230	119.660	0.176	0.220
-609.215	46.764	-0.298	0.280
-608.201	-115.012	0.350	0.067
-607.186	-97.736	-0.416	0.109
-606.171	-60.348	0.136	0.058
-605.157	800.000	-0.051	-0.158
-604.142	800.000	0.079	0.287
-603.128	214.247	-0.131	0.209
-602.113	26.175	0.179	-0.151
-601.098	72.265	-0.238	0.250
-600.084	-200.000	0.034	-0.390
-599.069	-65.990	-0.378	0.152
-598.055	4.969	-0.270	0.201
-597.040	-126.179	-0.151	0.023
-596.025	-200.000	0.001	0.410
-595.011	-200.000	-0.008	0.215
-593.996	8.116	-0.291	0.220
-592.982	130.014	-0.204	-0.263
-591.967	132.253	-0.045	-0.058
-590.952	89.858	0.239	-0.269
-589.938	-60.137	0.357	-0.154
-588.923	3.809	0.241	-0.178
-587.909	52.053	-0.219	-0.210
-586.894	473.852	0.105	-0.239
-585.879	-200.000	-0.090	0.414
-584.865	-52.000	-0.146	-0.069
-583.850	117.994	0.087	0.107
-582.836	318.192	0.033	-0.062
-581.821	-51.046	0.245	-0.116
-580.806	-166.770	0.409	-0.017
-579.792	-200.000	-0.055	-0.424
-578.777	-77.138	-0.216	0.076
-577.763	-134.862	-0.181	-0.022
-576.748	-119.153	0.172	0.030
-575.733	-200.000	0.014	-0.274
-574.719	-126.020	0.236	0.036
-573.704	-66.477	0.279	0.111
-572.690	-42.567	-0.223	-0.115
-571.675	800.000	-0.033	0.140
-570.661	-200.000	0.006	-0.290
-569.646	464.752	-0.160	-0.361
-568.631	-200.000	0.007	0.132
-567.617	45.595	-0.167	-0.155
-566.602	-78.835	0.569	-0.196
-565.588	-47.581	-0.134	0.066
-564.573	-160.804	0.183	-0.010
-563.558	-200.000	-0.007	0.136
-562.544	71.992	-0.276	-0.289
-561.529	196.575	-0.147	-0.226
-560.515	90.937	-0.115	0.130
-559.500	279.111	0.126	0.226
-558.485	45.958	-0.156	0.146
-557.471	-160.864	-0.068	0.004
-556.456	5.314	0.088	0.066
-555.442	151.648	0.085	0.117
-554.427	283.050	0.086	0.155
-553.412	-200.000	0.004	-0.025
-552.398	276.686	-0.063	-0.113
-551.383	-200.000	0.007	-0.185
-550.369	262.729	0.114	-0.200
-549.354	283.154	0.048	-0.087
-548.339	176.263	0.176	0.257
-547.325	748.292	-0.046	0.126
-546.310	-97.277	0.246	0.065
-545.296	-78.712	-0.177	0.061
-544.281	-132.795	-0.189	-0.024
-543.266	-66.132	-0.149	-0.060
-542.252	-200.000	-0.027	-0.155
-541.237	25.208	-0.152	-0.127
-540.223	-200.000	0.019	0.099
-539.208	-39.612	0.124	0.065
-538.193	-92.265	0.069	0.020
-537.179	256.697	0.081	0.139
-536.164	-200.000	0.022	-0.200
-535.150	65.125	0.168	0.171
-534.135	-144.938	-0.093	0.009
-533.121	448.419	0.163	-0.360
-532.106	627.829	0.127	-0.323
-531.091	-200.000	-0.011	-0.086
-530.077	-193.139	0.158	0.001
-529.062	-200.000	0.035	0.268
-528.048	239.680	-0.077	-0.129
-527.033	-95.784	0.184	0.050
-526.018	-48.952	0.057	0.027
-525.004	-129.773	-0.170	-0.024
-523.989	20.398	0.054	-0.044
-522.975	-91.175	0.209	0.060
-521.960	153.053	0.047	-0.065
-520.945	-49.759	-0.126	-0.060
-519.931	-24.917	0.046	-0.028
-518.916	148.577	-0.040	0.054
-517.902	800.000	0.095	0.287
-516.887	-58.512	-0.142	-0.062
-515.872	168.687	0.229	-0.328
-514.858	48.515	0.171	-0.161
-513.843	800.000	-0.059	0.257
-512.829	83.985	0.202	-0.222
-511.814	-61.405	-0.289	0.122
-510.799	-108.249	-0.233	0.051
-509.785	-4.074	0.359	-0.250
-508.770	-200.000	0.013	0.060
-507.756	800.000	0.099	-0.283
-506.741	115.078	-0.068	-0.084
-505.726	-183.047	0.204	-0.004
-504.712	-1.220	-0.264	0.187
-503.697	120.879	0.050	0.063
-502.683	-53.177	0.111	0.051
-501.668	-89.549	-0.276	0.081
-500.653	62.776	-0.057	-0.057
-499.639	264.994	0.146	-0.255
-498.624	-58.217	-0.236	-0.103
-497.610	-200.000	-0.008	0.085
-496.595	61.752	0.036	-0.036
-495.581	39.932	-0.126	-0.113
-494.566	147.467	-0.094	-0.128
-493.551	122.234	0.196	-0.246
-492.537	118.554	0.138	0.171
-491.522	279.473	-0.069	-0.123
-490.508	11.553	0.279	0.215
-489.493	-200.000	0.005	-0.188
-488.478	-63.141	0.082	0.034
-487.464	800.000	0.064	0.222
-486.449	-200.000	0.021	-0.218
-485.435	-200.000	-0.036	-0.258
-484.420	23.382	-0.135	0.112
-483.405	619.476	-0.089	0.223
-482.391	49.800	0.033	-0.031
-481.376	-162.484	-0.014	-0.001
-480.362	-200.000	0.005	0.136
-479.347	800.000	-0.028	0.083
-478.332	-21.018	-0.363	-0.223
-477.318	48.955	0.231	-0.217
-476.303	-200.000	-0.015	0.110
-475.289	-146.723	-0.411	0.036
-474.274	-61.390	0.202	0.085
-473.259	-90.217	-0.328	-0.096
-472.245	267.757	0.082	0.143
-471.230	-109.612	-0.360	-0.076
-470.216	93.722	0.191	-0.217
-469.201	84.252	0.009	-0.010
-468.186	125.577	-0.211	-0.267
-467.172	407.125	0.026	-0.055
-466.157	-85.749	0.350	0.109
-465.143	-122.551	0.179	-0.029
-464.128	-72.740	-0.095	-0.035
-463.113	33.701	0.222	-0.193
-462.099	-99.922	-0.271	-0.068
-461.084	10.376	0.185	-0.141
-460.070	55.229	0.168	0.163
-459.055	-111.529	0.435	0.089
-458.040	-200.000	0.000	-0.067
-457.026	-82.541	-0.228	0.074
-456.011	-110.273	0.251	0.052
-454.997	-157.994	-0.253	-0.015
-453.982	800.000	-0.040	-0.143
-452.968	-104.227	-0.061	-0.014
-451.953	-8.269	0.260	-0.175
-450.938	612.461	-0.130	-0.326
-449.924	34.538	0.185	-0.162
-448.909	-200.000	-0.002	-0.170
-447.895	157.259	-0.173	0.240
-446.880	-111.928	0.376	-0.076
-445.865	-37.491	0.265	-0.142
-444.851	-200.000	0.011	-0.252
-443.836	58.058	-0.091	0.090
-442.822	237.388	0.039	0.065
-441.807	800.000	0.056	-0.171
-440.792	-66.866	0.226	0.090
-439.778	-71.387	0.152	-0.057
-438.763	-84.303	-0.116	-0.037
-437.749	90.641	-0.146	-0.164
-436.734	160.940	0.091	0.128
-435.719	251.126	-0.069	-0.118
-434.705	800.000	-0.085	0.288
-433.690	-200.000	-0.011	-0.132
-432.676	-175.878	-0.436	0.012
-431.661	-2.776	-0.134	0.094
-430.646	147.814	-0.059	-0.080
-429.632	800.000	0.086	-0.320
-428.617	-116.806	0.097	0.018
-427.603	46.711	0.177	0.165
-426.588	-200.000	0.023	0.226
-425.573	463.754	-0.033	-0.074
-424.559	-161.234	0.261	-0.014
-423.544	-88.916	-0.216	-0.064
-422.530	-38.407	-0.184	0.098
-421.515	421.001	-0.033	-0.070
-420.500	290.094	0.067	-0.122
-419.486	-109.154	-0.106	-0.023
-418.471	205.608	0.129	0.201
-417.457	-79.422	-0.263	0.089
-416.442	-83.483	0.142	0.046
-415.428	-11.092	-0.144	0.095
-414.413	39.439	0.188	0.169
-413.398	34.283	-0.213	0.186
-412.384	-200.000	0.002	-0.164
-411.369	-73.821	0.394	0.144
-410.355	471.234	-0.032	0.073
-409.340	635.432	0.125	-0.318
-408.325	244.596	-0.046	0.077
-407.311	603.479	-0.006	-0.016
-406.296	-144.510	-0.116	0.011
-405.282	-195.615	-0.276	-0.002
-404.267	10.916	-0.034	-0.026
-403.252	-42.960	-0.124	0.063
-402.238	-55.158	0.201	0.091
-401.223	-200.000	0.153	0.000
-400.209	49.258	-0.213	-0.201
-399.194	-4.783	-0.245	0.169
-398.179	-4.346	-0.171	-0.118
-397.165	513.146	0.062	0.144
-396.150	800.000	0.042	0.174
-395.136	-87.873	0.141	-0.043
-394.121	110.180	-0.263	0.316
-393.106	-83.668	0.320	-0.102
-392.092	323.925	-0.112	0.213
-391.077	-41.940	0.091	0.047
-390.063	-111.636	-0.276	0.056
-389.048	313.352	0.017	0.031
-388.033	-93.064	-0.148	0.041
-387.019	-200.000	-0.041	-0.241
-386.004	-113.686	0.168	0.033
-384.990	-200.000	-0.036	0.321
-383.975	244.370	0.027	0.045
-382.960	-65.133	-0.302	-0.122
-381.946	81.167	0.144	0.155
-380.931	-68.340	-0.246	0.096
-379.917	-200.000	-0.013	-0.077
-378.902	-74.684	0.270	-0.097
-377.888	-144.215	-0.497	-0.046
-376.873	192.604	0.134	0.202
-375.858	800.000	0.066	0.266
-374.844	-200.000	-0.034	0.213
-373.829	800.000	0.082	-0.331
-372.815	-200.000	0.021	-0.309
-371.800	-79.408	0.190	-0.064
-370.785	158.801	-0.123	0.170
-369.771	-66.334	0.176	-0.070
-368.756	-55.706	-0.311	0.139
-367.742	50.456	-0.137	0.130
-366.727	161.060	0.189	-0.265
-365.712	800.000	-0.012	0.039
-364.698	-129.147	-0.110	-0.015
-363.683	-200.000	-0.054	-0.285
-362.669	-200.000	-0.011	0.153
-361.654	795.889	-0.028	-0.078
-360.639	-154.511	-0.288	-0.019
-359.625	800.000	0.047	-0.145
-358.610	278.326	-0.086	0.154
-357.596	-73.779	0.187	-0.068
-356.581	-179.506	-0.268	0.006
-355.566	-34.829	-0.185	0.101
-354.552	94.191	0.213	-0.242
-353.537	-200.000	0.007	0.199
-352.523	800.000	0.079	-0.226
-351.508	132.635	0.036	0.047
-350.493	-200.000	-0.015	-0.093
-349.479	9.937	0.117	0.089
-348.464	175.905	0.097	-0.141
-347.450	-200.000	0.038	0.396
-346.435	-9.870	0.103	-0.069
-345.420	800.000	-0.061	-0.192
-344.406	-200.000	0.035	0.224
-343.391	606.777	-0.100	-0.248
-342.377	27.383	0.224	0.188
-341.362	-200.000	0.044	0.211
-340.348	-200.000	-0.008	-0.244
-339.333	-191.474	-0.184	0.002
-338.318	800.000	0.006	-0.020
-337.304	132.971	0.042	0.055
-336.289	284.796	0.137	-0.247
-335.275	-63.562	-0.307	-0.126
-334.260	236.224	-0.137	0.226
-333.245	-78.278	-0.227	0.078
-332.231	800.000	-0.045	-0.155
-331.216	-200.000	0.010	-0.196
-330.202	-16.147	0.235	0.149
-329.187	-162.735	-0.254	-0.012
-328.172	-200.000	0.018	-0.254
-327.158	-200.000	-0.015	-0.404
-326.143	800.000	0.110	-0.323
-325.129	-6.031	0.076	-0.052
-324.114	800.000	0.036	-0.120
-323.099	161.058	0.091	-0.127
-322.085	-103.422	-0.263	0.062
-321.070	-79.760	-0.116	0.039
-320.056	-159.597	-0.136	0.007
-319.041	112.429	0.158	0.190
-318.026	800.000	0.052	0.190
-317.012	564.502	-0.009	0.022
-315.997	-7.237	-0.119	0.081
-314.983	10.579	0.217	-0.165
-313.968	-8.474	0.246	0.165
-312.953	-200.000	0.020	0.089
-311.939	-146.698	-0.097	-0.008
-310.924	-105.013	0.532	0.122
-309.910	-200.000	-0.075	0.407
-308.895	186.654	-0.078	0.116
-307.880	-165.847	0.224	-0.010
-306.866	138.173	-0.201	-0.263
-305.851	-200.000	-0.018	-0.234
-304.837	-200.000	0.065	0.403
-303.822	332.760	0.069	-0.133
-302.807	-200.000	-0.005	-0.077
-301.793	-154.470	0.297	0.020
-300.778	171.054	0.071	0.102
-299.764	-5.217	-0.264	0.181
-298.749	-34.431	0.026	-0.014
-297.735	-163.135	-0.469	0.022
-296.720	-200.000	-0.029	-0.183
-295.705	-25.544	-0.329	0.194
-294.691	-71.144	0.298	0.112
-293.676	-200.000	0.001	0.041
-292.662	-147.376	0.189	-0.016
-291.647	-180.510	0.450	0.009
-290.632	440.797	0.040	0.086
-289.618	-62.766	0.417	0.172
-288.603	-200.000	0.039	-0.333
-287.589	-200.000	-0.013	0.069
-286.574	-200.000	-0.020	0.245
-285.559	-123.659	-0.062	0.010
-284.545	407.169	0.065	0.136
-283.530	-22.484	-0.109	-0.065
-282.516	125.388	-0.034	-0.042
-281.501	-92.710	0.191	-0.053
-280.486	-5.736	-0.166	0.113
-279.472	-200.000	0.028	0.262
-278.457	-200.000	0.015	0.210
-277.443	-13.254	-0.210	-0.136
-276.428	155.853	-0.196	0.269
-275.413	9.606	-0.227	-0.171
-274.399	-107.012	0.179	0.039
-273.384	118.665	0.155	0.191
-272.370	95.740	-0.135	0.153
-271.355	52.995	0.183	-0.174
-270.340	41.360	0.255	-0.230
-269.326	800.000	-0.057	0.230
-268.311	-11.370	0.261	-0.171
-267.297	-42.706	-0.222	-0.113
-266.282	30.992	0.070	-0.060
-265.267	783.259	-0.082	0.225
-264.253	-72.250	-0.231	0.085
-263.238	-200.000	0.004	-0.163
-262.224	-7.335	0.184	-0.124
-261.209	-69.555	-0.039	0.015
-260.195	21.913	0.207	0.168
-259.180	-93.376	-0.167	-0.046
-258.165	-126.882	-0.166	-0.024
-257.151	-50.726	0.142	0.067
-256.136	800.000	0.055	0.201
-255.122	136.115	0.129	0.167
-254.107	-4.727	0.193	0.133
-253.092	800.000	-0.048	0.157
-252.078	479.618	-0.064	0.144
-251.063	-200.000	-0.015	-0.117
-250.049	-200.000	-0.013	-0.169
-249.034	-57.586	-0.165	0.072
-248.019	-35.633	0.139	0.075
-247.005	-82.472	-0.202	0.065
-245.990	-109.736	-0.264	0.055
-244.976	-81.469	0.283	-0.093
-243.961	1.387	-0.045	-0.032
-242.946	-37.327	0.214	-0.114
-241.932	-43.424	-0.139	-0.070
-240.917	-16.116	0.128	-0.081
-239.903	49.791	0.139	-0.130
-238.888	-200.000	-0.029	-0.353
-237.873	149.271	0.001	-0.002
-236.859	19.725	0.291	-0.233
-235.844	-21.722	-0.298	-0.181
-234.830	-200.000	-0.001	0.130
-233.815	-65.943	-0.174	-0.069
-232.800	-58.601	-0.278	-0.120
-231.786	536.111	0.138	0.326
-230.771	-134.310	-0.094	-0.012
-229.757	176.113	0.084	0.121
-228.742	183.538	-0.146	-0.215
-227.727	-200.000	-0.008	-0.063
-226.713	-105.647	-0.132	-0.030
-225.698	-200.000	-0.009	-0.120
-224.684	-94.628	-0.140	-0.038
-223.669	-33.784	-0.083	0.046
-222.655	-200.000	-0.074	0.380
-221.640	-38.624	-0.155	-0.081
-220.625	-5.102	0.410	-0.280
-219.611	83.666	0.127	-0.138
-218.596	-79.823	0.200	-0.067
-217.582	-39.200	-0.053	-0.028
-216.567	204.969	0.187	0.289
-215.552	657.102	0.065	-0.165
-214.538	-200.000	0.004	-0.069
-213.523	-0.573	-0.214	-0.151
-212.509	352.135	0.149	0.293
-211.494	678.505	0.103	-0.266
-210.479	-50.049	-0.378	-0.178
-209.465	800.000	0.017	0.069
-208.450	800.000	-0.049	0.175
-207.436	-32.507	-0.124	0.069
-206.421	800.000	0.003	-0.010
-205.406	-97.370	-0.140	0.036
-204.392	169.932	-0.158	-0.224
-203.377	155.616	0.112	-0.153
-202.363	281.258	0.204	0.362
-201.348	116.604	0.017	-0.021
-200.333	-200.000	-0.000	-0.021
-199.319	34.853	0.247	-0.215
-198.304	97.055	0.037	0.043
-197.290	327.613	-0.126	-0.240
-196.275	-50.251	0.216	-0.101
-195.260	313.302	0.069	-0.129
-194.246	-82.684	0.145	0.047
-193.231	107.809	0.079	-0.093
-192.217	-148.912	0.208	0.017
-191.202	632.728	-0.074	0.185
-190.187	320.673	0.131	0.247
-189.173	434.264	0.159	0.343
-188.158	-200.000	-0.019	-0.135
-187.144	57.268	0.087	0.084
-186.129	800.000	0.065	0.191
-185.114	-157.320	0.125	0.007
-184.100	-200.000	-0.016	0.302
-183.085	317.773	0.192	0.361
-182.071	-200.000	-0.038	-0.216
-181.056	-200.000	0.002	0.144
-180.042	-50.312	-0.136	0.064
-179.027	800.000	-0.025	-0.095
-178.012	-200.000	-0.020	0.197
-176.998	135.388	0.176	0.227
-175.983	16.808	-0.349	-0.274
-174.969	-48.043	0.457	-0.219
-173.954	36.900	0.152	-0.134
-172.939	719.297	0.118	0.311
-171.925	272.824	-0.141	0.247
-170.910	-66.961	-0.278	-0.109
-169.896	-200.000	-0.014	-0.223
-168.881	120.405	0.173	0.213
-167.866	-200.000	0.019	-0.098
-166.852	-95.866	0.056	0.015
-165.837	-200.000	-0.043	-0.203
-164.823	-200.000	-0.074	-0.352
-163.808	17.410	0.099	-0.078
-162.793	63.669	0.188	0.187
-161.779	-27.433	0.327	0.189
-160.764	800.000	-0.013	0.042
-159.750	800.000	-0.049	0.203
-158.735	-46.781	-0.076	0.037
-157.720	157.719	0.020	0.027
-156.706	-94.995	-0.102	0.027
-155.691	-200.000	-0.018	0.090
-154.677	424.042	-0.011	-0.024
-153.662	800.000	-0.015	0.041
-152.647	800.000	-0.057	0.182
-151.633	-64.503	0.208	0.084
-150.618	185.772	-0.128	-0.188
-149.604	67.467	-0.163	0.165
-148.589	-91.395	0.303	0.086
-147.574	-118.500	0.109	-0.019
-146.560	359.516	0.133	0.263
-145.545	124.778	0.201	0.251
-144.531	-145.148	-0.305	-0.027
-143.516	-51.447	-0.335	0.155
-142.502	254.611	0.231	-0.391
-141.487	-200.000	0.021	0.218
-140.472	800.000	-0.117	0.326
-139.458	-200.000	0.026	-0.170
-138.443	10.546	0.435	0.329
-137.429	58.058	-0.050	0.049
-136.414	-200.000	-0.014	0.179
-135.399	-175.754	0.438	0.012
-134.385	-200.000	-0.036	0.299
-133.370	-200.000	0.022	0.335
-132.356	71.768	-0.137	0.141
-131.341	-200.000	0.055	0.281
-130.326	301.658	0.107	0.196
-129.312	-81.727	-0.244	-0.079
-128.297	181.097	-0.129	-0.188
-127.283	99.199	0.116	0.133
-126.268	-200.000	0.023	-0.171
-125.253	-200.000	-0.017	0.078
-124.239	800.000	0.054	0.162
-123.224	-114.336	-0.183	0.035
-122.210	-146.251	0.232	0.020
