DTS Sentinel unit serial number:	SN413079Multiplexer serial number:	ORYXHardware model number:	OX4-SRSoftware version number:	ORYX F/W v4.00 Oryx Data Collector v3.7.2.0data status	okinstallation	princeton_trtdifferential loss correction	single-endedforward channel	channel 1reverse channel	N/Adate	2019/09/19time	07:42:35forward acquisition time	60.00reverse acquisition time	0.00gamma	496.2192k internal	0.2342k external	0.2342temperature offset calibration	1.0010default loss term (dB/km)	0.3790temperature slope calibration	1.0000multiplexer offset coefficient	1.0000multiplexer slope coefficient	1.0000fibre end	0.00T internal ref (°C)	19.44T ext. ref 1 (°C)	0.55T ext. ref 2 (°C)	14.57length (m)	temperature (°C)	Stokes	anti-Stokes-747.200	215.395	0.056	0.089
-746.185	-58.823	-0.282	-0.122
-745.171	-68.740	0.136	0.053
-744.156	176.979	0.092	-0.134
-743.142	-78.782	-0.210	-0.072
-742.127	679.191	-0.098	-0.255
-741.112	112.202	0.114	-0.138
-740.098	3.950	-0.080	0.058
-739.083	-200.000	0.024	-0.304
-738.069	18.353	-0.079	0.063
-737.054	-56.567	0.194	-0.086
-736.039	-135.374	0.179	-0.021
-735.025	-41.773	0.209	0.108
-734.010	-63.369	-0.285	-0.117
-732.996	314.127	-0.082	0.154
-731.981	-200.000	0.014	0.098
-730.966	177.559	0.131	0.191
-729.952	-35.661	-0.094	-0.051
-728.937	-200.000	-0.006	-0.207
-727.923	-23.664	0.248	0.149
-726.908	49.353	-0.100	-0.094
-725.894	115.197	-0.282	-0.344
-724.879	128.047	-0.125	0.159
-723.864	-200.000	-0.109	0.518
-722.850	341.396	0.069	0.136
-721.835	-85.310	0.317	-0.099
-720.821	296.276	0.045	-0.083
-719.806	-59.901	-0.100	0.043
-718.791	485.863	-0.079	0.180
-717.777	-200.000	-0.003	0.233
-716.762	-177.125	0.071	-0.002
-715.748	60.388	0.193	0.191
-714.733	-4.681	0.344	-0.237
-713.718	20.462	0.087	0.071
-712.704	-165.826	0.321	0.014
-711.689	-200.000	-0.041	-0.336
-710.675	43.384	0.224	0.205
-709.660	-132.921	-0.124	0.016
-708.645	-114.804	0.120	-0.023
-707.631	-200.000	-0.021	-0.241
-706.616	-200.000	0.073	0.370
-705.602	92.385	-0.310	0.350
-704.587	800.000	0.057	-0.219
-703.572	503.465	-0.158	0.366
-702.558	157.485	0.041	0.056
-701.543	586.930	-0.151	0.371
-700.529	800.000	-0.043	-0.162
-699.514	-200.000	-0.011	-0.099
-698.499	453.768	0.014	-0.031
-697.485	-66.497	0.412	0.163
-696.470	-54.632	0.124	0.056
-695.456	800.000	0.063	-0.241
-694.441	-75.626	-0.069	0.025
-693.426	-113.135	-0.293	-0.058
-692.412	32.989	-0.209	0.181
-691.397	-101.458	0.078	0.019
-690.383	-43.152	-0.008	-0.004
-689.368	-19.548	0.224	-0.139
-688.354	132.274	0.126	-0.162
-687.339	-81.969	-0.425	0.139
-686.324	3.573	-0.111	-0.081
-685.310	193.936	0.058	-0.088
-684.295	-138.678	-0.304	-0.033
-683.281	-200.000	-0.005	-0.127
-682.266	-200.000	0.043	0.342
-681.251	219.939	-0.115	-0.185
-680.237	800.000	-0.052	0.184
-679.222	27.296	0.080	0.067
-678.208	-167.928	0.310	-0.012
-677.193	-100.027	-0.144	-0.036
-676.178	502.443	-0.100	0.230
-675.164	-200.000	-0.032	-0.222
-674.149	85.868	-0.121	-0.133
-673.135	12.928	-0.299	-0.231
-672.120	-134.100	-0.251	-0.031
-671.105	17.568	-0.310	-0.246
-670.091	402.079	0.046	-0.096
-669.076	649.992	-0.037	-0.094
-668.062	-112.165	0.096	-0.019
-667.047	-72.723	0.261	0.096
-666.032	45.505	-0.216	-0.199
-665.018	-39.984	-0.256	-0.133
-664.003	-200.000	0.021	-0.168
-662.989	-109.715	-0.220	-0.046
-661.974	28.777	-0.256	0.217
-660.959	-20.815	-0.119	0.073
-659.945	75.408	0.241	0.254
-658.930	-200.000	-0.055	0.255
-657.916	800.000	-0.035	-0.120
-656.901	559.318	0.077	0.186
-655.886	-86.991	-0.193	-0.059
-654.872	-19.838	-0.157	-0.097
-653.857	-156.459	0.400	-0.025
-652.843	269.022	0.155	-0.272
-651.828	32.732	0.115	-0.099
-650.814	-19.675	-0.214	-0.132
-649.799	-85.627	0.269	-0.083
-648.784	-30.966	-0.082	-0.046
-647.770	-88.851	-0.403	-0.119
-646.755	27.162	-0.070	0.058
-645.741	-122.995	-0.158	0.025
-644.726	173.403	0.178	-0.256
-643.711	132.080	0.062	-0.079
-642.697	311.547	0.029	0.055
-641.682	777.864	0.050	-0.137
-640.668	-84.644	0.307	-0.097
-639.653	302.850	-0.117	0.216
-638.638	121.266	0.173	-0.214
-637.624	-200.000	-0.008	0.059
-636.609	-200.000	0.045	0.232
-635.595	315.289	0.016	0.029
-634.580	48.902	-0.239	-0.224
-633.565	800.000	-0.046	-0.164
-632.551	-200.000	0.031	-0.207
-631.536	18.581	0.217	0.173
-630.522	-119.614	-0.240	-0.041
-629.507	637.332	-0.045	0.114
-628.492	21.397	-0.224	-0.181
-627.478	0.385	-0.353	0.252
-626.463	-200.000	-0.017	0.316
-625.449	127.873	-0.089	0.113
-624.434	170.326	-0.174	0.248
-623.419	-79.044	-0.410	-0.139
-622.405	-125.941	-0.140	0.021
-621.390	-41.038	0.207	-0.107
-620.376	-169.729	-0.543	0.020
-619.361	-62.564	-0.370	-0.153
-618.346	41.014	-0.319	-0.287
-617.332	213.001	0.234	-0.369
-616.317	-200.000	-0.024	-0.182
-615.303	91.016	-0.041	0.046
-614.288	83.240	0.086	0.094
-613.273	157.759	0.202	-0.279
-612.259	402.570	0.113	0.236
-611.244	-28.638	-0.162	-0.093
-610.230	552.857	-0.034	0.080
-609.215	-200.000	0.019	0.260
-608.201	7.280	0.160	0.119
-607.186	1.792	-0.183	0.132
-606.171	-200.000	0.030	-0.320
-605.157	406.915	-0.107	-0.225
-604.142	-200.000	-0.078	-0.360
-603.128	800.000	0.088	-0.292
-602.113	-144.632	0.120	-0.011
-601.098	120.306	0.157	-0.194
-600.084	-200.000	-0.019	0.326
-599.069	3.905	0.129	0.094
-598.055	59.184	0.187	0.183
-597.040	-33.903	0.037	-0.020
-596.025	92.353	0.063	-0.071
-595.011	-33.885	0.103	0.056
-593.996	-24.629	-0.199	-0.118
-592.982	-147.678	0.431	-0.036
-591.967	51.383	-0.325	-0.308
-590.952	689.520	0.094	-0.245
-589.938	94.785	-0.138	0.156
-588.923	-200.000	-0.002	-0.281
-587.909	66.313	-0.246	0.248
-586.894	-16.237	0.074	0.047
-585.879	6.828	0.173	0.128
-584.865	-200.000	0.002	0.113
-583.850	115.213	-0.090	-0.110
-582.836	800.000	-0.045	0.166
-581.821	212.162	-0.055	-0.086
-580.806	-200.000	-0.032	-0.154
-579.792	-200.000	0.022	0.231
-578.777	185.328	0.087	0.129
-577.763	121.024	0.165	-0.205
-576.748	60.641	0.213	-0.210
-575.733	289.816	-0.154	0.278
-574.719	94.530	-0.182	0.206
-573.704	468.511	-0.024	-0.055
-572.690	-10.705	-0.086	-0.056
-571.675	193.789	0.122	-0.183
-570.661	-96.068	-0.211	0.056
-569.646	-200.000	-0.032	0.274
-568.631	20.970	-0.166	0.134
-567.617	459.138	0.123	-0.273
-566.602	-136.888	0.243	0.028
-565.588	347.862	0.035	-0.068
-564.573	-0.483	-0.184	-0.130
-563.558	74.616	0.166	-0.174
-562.544	-200.000	-0.034	-0.434
-561.529	800.000	-0.029	-0.095
-560.515	-74.868	-0.193	-0.069
-559.500	-200.000	0.027	0.368
-558.485	-200.000	0.067	0.416
-557.471	42.506	0.295	0.267
-556.456	176.876	0.109	-0.158
-555.442	611.776	-0.063	-0.157
-554.427	-98.553	-0.235	-0.060
-553.412	800.000	0.093	-0.370
-552.398	19.161	0.213	-0.170
-551.383	800.000	0.054	-0.179
-550.369	-66.883	-0.230	0.091
-549.354	-96.570	-0.181	-0.048
-548.339	-8.471	-0.432	0.288
-547.325	317.200	0.146	0.274
-546.310	683.579	0.126	-0.327
-545.296	130.063	-0.105	-0.134
-544.281	32.637	-0.236	0.203
-543.266	131.713	0.041	0.052
-542.252	-46.384	-0.179	0.087
-541.237	800.000	-0.080	-0.269
-540.223	-79.558	-0.015	-0.005
-539.208	-126.883	0.290	0.042
-538.193	45.719	0.031	-0.028
-537.179	76.777	-0.093	-0.098
-536.164	-200.000	0.037	0.369
-535.150	-200.000	0.077	-0.353
-534.135	-63.383	0.395	-0.162
-533.121	-200.000	0.029	0.319
-532.106	9.769	-0.136	-0.103
-531.091	800.000	-0.134	0.372
-530.077	-170.227	0.216	-0.008
-529.062	109.928	-0.052	-0.062
-528.048	-38.390	-0.143	-0.075
-527.033	-200.000	0.001	0.030
-526.018	800.000	0.023	0.101
-525.004	-54.320	-0.234	0.105
-523.989	2.131	-0.225	0.161
-522.975	-120.568	-0.146	-0.025
-521.960	-126.578	-0.235	0.035
-520.945	-200.000	-0.022	0.200
-519.931	426.500	-0.092	0.197
-518.916	-41.646	0.183	-0.093
-517.902	716.424	0.126	-0.333
-516.887	60.623	-0.144	-0.142
-515.872	-30.367	-0.366	-0.206
-514.858	-42.664	-0.305	0.154
-513.843	303.253	0.107	0.196
-512.829	-35.117	-0.448	-0.242
-511.814	580.404	0.063	-0.154
-510.799	-50.318	0.347	-0.163
-509.785	800.000	0.054	0.154
-508.770	-200.000	-0.004	0.061
-507.756	-118.061	-0.330	-0.058
-506.741	-181.849	0.484	0.009
-505.726	738.911	-0.097	0.259
-504.712	-39.182	0.160	0.084
-503.697	800.000	0.072	0.218
-502.683	-87.751	-0.095	0.028
-501.668	800.000	0.090	-0.344
-500.653	56.173	-0.105	-0.101
-499.639	-42.085	0.444	0.225
-498.624	-131.902	-0.093	0.012
-497.610	800.000	0.092	-0.285
-496.595	-1.653	0.263	-0.184
-495.581	-200.000	0.037	-0.361
-494.566	800.000	0.026	0.097
-493.551	-92.764	0.380	0.105
-492.537	36.314	-0.048	0.042
-491.522	317.757	0.138	-0.259
-490.508	-147.197	-0.235	0.020
-489.493	800.000	-0.024	0.069
-488.478	110.665	0.092	0.110
-487.464	172.872	0.154	-0.220
-486.449	-100.551	-0.263	-0.065
-485.435	800.000	-0.029	-0.093
-484.420	-133.865	0.218	0.027
-483.405	-29.219	0.073	0.042
-482.391	-67.736	0.101	-0.039
-481.376	60.382	-0.346	0.339
-480.362	214.065	-0.158	0.248
-479.347	-200.000	0.015	0.084
-478.332	-140.797	0.227	-0.023
-477.318	-136.022	-0.332	0.039
-476.303	800.000	-0.098	-0.289
-475.289	-6.646	-0.368	-0.249
-474.274	104.663	-0.037	-0.044
-473.259	-124.163	-0.244	0.038
-472.245	-200.000	-0.010	0.233
-471.230	167.106	-0.273	-0.384
-470.216	91.649	0.119	0.132
-469.201	-63.977	0.256	0.104
-468.186	800.000	-0.064	0.184
-467.172	-200.000	-0.004	0.242
-466.157	-110.945	-0.231	0.047
-465.143	22.429	0.365	0.296
-464.128	-149.837	-0.243	-0.019
-463.113	800.000	0.058	-0.194
-462.099	222.902	0.212	-0.338
-461.084	170.173	0.237	0.336
-460.070	-200.000	-0.230	0.001
-459.055	628.975	0.119	-0.299
-458.040	665.085	0.112	0.287
-457.026	-54.204	0.144	0.065
-456.011	-64.473	-0.105	-0.042
-454.997	-73.521	-0.373	-0.135
-453.982	-84.903	0.154	0.048
-452.968	-177.291	-0.188	0.005
-451.953	238.948	-0.052	0.085
-450.938	159.797	-0.163	0.225
-449.924	-116.820	-0.293	0.053
-448.909	353.195	-0.113	0.221
-447.895	-200.000	-0.006	0.128
-446.880	-9.924	-0.091	-0.060
-445.865	23.746	0.085	-0.070
-444.851	66.364	0.227	0.228
-443.836	496.035	0.133	-0.302
-442.822	433.083	0.075	0.162
-441.807	-113.841	-0.112	-0.022
-440.792	-21.875	-0.389	0.234
-439.778	-181.414	-0.101	-0.002
-438.763	-11.370	-0.167	0.109
-437.749	-79.339	0.430	-0.144
-436.734	-100.328	0.142	-0.035
-435.719	538.761	0.102	-0.240
-434.705	-115.592	0.135	-0.025
-433.690	-81.397	0.229	-0.075
-432.676	800.000	0.060	-0.253
-431.661	52.250	-0.332	0.314
-430.646	-115.170	0.244	0.046
-429.632	-122.023	0.245	-0.040
-428.617	-200.000	-0.036	0.204
-427.603	-200.000	0.021	0.102
-426.588	-141.697	-0.121	-0.012
-425.573	-171.267	0.148	-0.005
-424.559	-26.429	0.078	0.045
-423.544	86.809	-0.105	0.114
-422.530	-51.919	-0.159	-0.073
-421.515	26.825	0.159	0.132
-420.500	-171.358	-0.502	-0.017
-419.486	21.895	-0.282	-0.228
-418.471	596.843	0.028	0.068
-417.457	32.815	0.215	-0.184
-416.442	242.329	-0.048	-0.080
-415.428	-61.058	0.160	0.067
-414.413	-38.950	0.115	0.060
-413.398	177.523	0.211	-0.304
-412.384	-92.184	-0.250	0.070
-411.369	251.958	-0.221	0.372
-410.355	-150.722	0.033	-0.003
-409.340	3.981	0.156	-0.113
-408.325	-200.000	0.059	-0.376
-407.311	800.000	0.035	0.142
-406.296	-200.000	0.018	-0.083
-405.282	-200.000	-0.147	0.001
-404.267	-111.998	-0.409	-0.081
-403.252	-140.436	0.101	-0.010
-402.238	-58.844	-0.041	-0.018
-401.223	-200.000	-0.036	-0.257
-400.209	800.000	0.079	0.216
-399.194	-14.715	0.096	-0.061
-398.179	-161.293	-0.336	0.017
-397.165	-169.448	-0.144	-0.005
-396.150	0.820	0.055	0.039
-395.136	42.874	0.320	0.289
-394.121	-200.000	-0.015	-0.104
-393.106	10.966	0.395	0.298
-392.092	-200.000	0.004	0.073
-391.077	-185.365	0.321	0.005
-390.063	260.023	0.111	0.189
-389.048	-200.000	0.002	0.063
-388.033	115.517	-0.037	0.045
-387.019	55.406	-0.114	-0.109
-386.004	-200.000	0.020	-0.290
-384.990	800.000	0.033	-0.134
-383.975	17.820	-0.288	-0.226
-382.960	-127.673	-0.079	0.011
-381.946	800.000	-0.022	0.065
-380.931	-136.954	-0.293	0.033
-379.917	337.276	0.075	0.143
-378.902	32.978	0.251	0.215
-377.888	-172.668	-0.191	0.006
-376.873	-200.000	0.021	-0.194
-375.858	-114.585	-0.028	0.005
-374.844	300.289	-0.201	0.366
-373.829	-44.407	0.233	0.115
-372.815	339.304	0.045	-0.087
-371.800	800.000	-0.065	-0.183
-370.785	-33.300	0.280	0.153
-369.771	800.000	-0.062	-0.224
-368.756	-28.773	0.245	-0.139
-367.742	-182.961	0.067	-0.001
-366.727	800.000	-0.039	-0.124
-365.712	-57.621	-0.230	0.100
-364.698	800.000	-0.049	0.189
-363.683	-20.201	0.290	0.177
-362.669	727.596	0.027	0.071
-361.654	-200.000	0.012	0.093
-360.639	-168.479	-0.079	-0.003
-359.625	-138.133	0.398	0.044
-358.610	605.628	-0.037	0.090
-357.596	800.000	-0.107	-0.404
-356.581	-100.933	-0.358	0.087
-355.566	32.112	0.266	0.227
-354.552	331.954	-0.053	-0.102
-353.537	-140.860	-0.206	0.021
-352.523	-16.330	0.145	0.091
-351.508	-65.752	0.359	0.142
-350.493	-169.614	-0.119	0.004
-349.479	-67.871	-0.121	-0.047
-348.464	-157.219	0.251	-0.015
-347.450	94.933	-0.105	-0.118
-346.435	560.674	0.144	-0.343
-345.420	397.800	0.072	-0.148
-344.406	-52.857	-0.137	0.062
-343.391	-96.077	0.388	0.102
-342.377	800.000	-0.087	0.299
-341.362	529.673	-0.171	-0.399
-340.348	137.048	-0.216	-0.278
-339.333	274.069	-0.021	-0.036
-338.318	-37.548	0.228	0.120
-337.304	-119.451	-0.240	-0.041
-336.289	82.464	0.186	-0.199
-335.275	320.721	0.117	-0.218
-334.260	-121.956	-0.066	0.011
-333.245	-39.596	0.135	-0.069
-332.231	800.000	-0.049	0.170
-331.216	-85.026	0.174	0.054
-330.202	-119.774	-0.174	0.030
-329.187	-152.308	-0.144	0.010
-328.172	-200.000	0.026	-0.185
-327.158	-46.590	0.211	0.102
-326.143	-200.000	-0.019	-0.144
-325.129	-49.469	0.215	-0.101
-324.114	-20.340	-0.152	0.092
-323.099	-1.738	0.263	-0.182
-322.085	44.578	0.235	-0.212
-321.070	-200.000	-0.007	-0.036
-320.056	-11.840	-0.253	-0.163
-319.041	105.629	-0.108	0.126
-318.026	-96.671	0.057	-0.015
-317.012	-81.666	0.273	0.088
-315.997	637.719	-0.090	0.225
-314.983	263.441	-0.112	-0.191
-313.968	246.352	-0.056	0.093
-312.953	-187.476	0.147	0.002
-311.939	750.760	-0.044	-0.116
-310.924	-13.133	0.253	0.162
-309.910	18.618	0.193	-0.152
-308.895	800.000	-0.080	-0.243
-307.880	129.897	-0.032	-0.040
-306.866	-10.356	0.202	-0.132
-305.851	-76.044	0.491	-0.171
-304.837	372.418	0.125	0.249
-303.822	-158.062	-0.221	-0.013
-302.807	49.653	0.026	0.024
-301.793	531.861	-0.091	0.211
-300.778	234.332	0.106	0.171
-299.764	-159.178	-0.091	-0.005
-298.749	-40.236	-0.064	0.033
-297.735	105.839	-0.127	0.148
-296.720	21.570	0.152	0.122
-295.705	4.754	0.189	-0.137
-294.691	38.844	0.278	0.245
-293.676	104.687	0.185	-0.214
-292.662	387.462	-0.121	0.246
-291.647	-47.794	0.378	0.180
-290.632	159.269	0.150	-0.205
-289.618	-200.000	0.013	0.122
-288.603	-14.683	0.153	0.097
-287.589	-200.000	-0.010	-0.090
-286.574	-200.000	-0.071	0.388
-285.559	-85.667	0.103	-0.031
-284.545	-27.566	0.211	0.120
-283.530	459.885	0.066	-0.144
-282.516	-90.456	0.055	-0.016
-281.501	422.185	-0.039	0.082
-280.486	-200.000	0.033	-0.179
-279.472	-112.037	0.181	-0.036
-278.457	227.965	-0.040	-0.065
-277.443	11.016	-0.175	0.132
-276.428	513.240	-0.086	0.198
-275.413	-200.000	-0.019	0.443
-274.399	-200.000	-0.025	0.257
-273.384	-50.787	-0.108	0.050
-272.370	-72.548	0.241	0.087
-271.355	-75.992	0.066	0.023
-270.340	0.671	0.083	-0.059
-269.326	99.549	-0.143	-0.163
-268.311	-7.372	-0.130	-0.087
-267.297	-200.000	0.049	0.273
-266.282	-37.968	0.057	-0.030
-265.267	800.000	0.048	-0.131
-264.253	54.519	0.098	-0.093
-263.238	7.604	-0.259	0.191
-262.224	94.413	-0.124	0.139
-261.209	-179.733	-0.257	0.005
-260.195	800.000	0.027	-0.074
-259.180	-118.331	-0.189	-0.033
-258.165	208.617	-0.107	0.164
-257.151	-110.868	-0.210	-0.042
-256.136	75.955	-0.111	-0.116
-255.122	431.950	-0.051	0.109
-254.107	189.179	0.110	0.162
-253.092	2.744	0.176	0.125
-252.078	327.405	-0.192	-0.363
-251.063	-200.000	0.034	0.183
-250.049	-33.642	-0.094	-0.051
-249.034	-135.211	0.394	0.046
-248.019	791.043	-0.075	-0.202
-247.005	-99.220	-0.397	-0.099
-245.990	166.573	-0.078	-0.109
-244.976	-50.429	-0.065	-0.030
-243.961	45.049	0.048	0.043
-242.946	348.229	0.165	-0.320
-241.932	128.336	-0.088	-0.110
-240.917	-200.000	0.015	0.121
-239.903	-129.858	-0.229	0.031
-238.888	-43.871	0.277	0.137
-237.873	162.934	-0.232	0.320
-236.859	-149.730	-0.313	0.024
-235.844	242.845	-0.119	0.196
-234.830	-172.078	-0.248	-0.008
-233.815	100.317	-0.065	0.074
-232.800	-112.533	0.094	0.018
-231.786	154.957	0.130	0.176
-230.771	224.104	0.092	0.146
-229.757	800.000	0.077	0.295
-228.742	50.329	-0.031	0.029
-227.727	330.477	-0.129	-0.243
-226.713	193.733	-0.096	0.142
-225.698	230.915	-0.093	0.149
-224.684	9.968	0.147	-0.110
-223.669	-34.877	-0.199	-0.107
-222.655	-144.892	-0.174	-0.016
-221.640	-77.828	0.262	-0.089
-220.625	800.000	0.116	0.362
-219.611	-91.419	-0.204	-0.057
-218.596	37.770	-0.204	-0.178
-217.582	-200.000	0.023	0.265
-216.567	-200.000	-0.009	0.120
-215.552	179.337	0.144	0.207
-214.538	58.304	0.056	0.054
-213.523	-200.000	0.052	-0.234
-212.509	-158.047	0.370	0.021
-211.494	518.228	0.043	0.099
-210.479	97.345	-0.231	0.260
-209.465	-105.295	-0.088	-0.020
-208.450	-60.607	0.198	0.082
-207.436	-200.000	-0.045	0.319
-206.421	-160.002	0.136	-0.007
-205.406	104.409	-0.085	0.098
-204.392	-91.677	-0.130	-0.036
-203.377	7.159	-0.274	0.201
-202.363	-188.990	0.237	0.003
-201.348	-77.862	-0.128	-0.043
-200.333	-18.322	-0.028	-0.017
-199.319	-70.680	0.333	-0.123
-198.304	378.152	-0.114	-0.229
-197.290	-105.703	0.273	0.061
-196.275	14.026	-0.217	-0.166
-195.260	-29.207	-0.105	0.059
-194.246	143.535	0.109	-0.142
-193.231	301.070	0.061	0.110
-192.217	14.169	0.176	0.135
-191.202	419.966	-0.022	-0.045
-190.187	800.000	0.068	0.186
-189.173	-200.000	-0.011	0.141
-188.158	-132.785	0.213	0.027
-187.144	-108.256	-0.109	-0.023
-186.129	743.107	0.014	0.037
-185.114	-200.000	0.016	-0.125
-184.100	800.000	-0.104	0.415
-183.085	-77.537	-0.181	-0.062
-182.071	-149.722	-0.310	0.024
-181.056	-107.230	0.478	0.103
-180.042	-15.460	-0.430	-0.269
-179.027	624.890	-0.096	-0.236
-178.012	663.645	-0.111	-0.282
-176.998	-84.303	0.226	-0.070
-175.983	-31.956	0.348	-0.191
-174.969	240.898	0.070	-0.115
-173.954	-86.799	-0.238	-0.071
-172.939	-58.065	0.426	-0.182
-171.925	-200.000	-0.005	-0.253
-170.910	800.000	0.106	-0.292
-169.896	165.435	0.089	-0.124
-168.881	-200.000	0.025	-0.347
-167.866	-16.362	-0.179	-0.111
-166.852	800.000	0.027	0.080
-165.837	-200.000	0.000	-0.064
-164.823	789.868	0.066	0.177
-163.808	61.642	0.182	-0.178
-162.793	-53.513	-0.221	0.099
-161.779	-200.000	0.012	-0.184
-160.764	-119.125	0.123	0.021
-159.750	-200.000	0.053	0.380
-158.735	-139.805	0.267	-0.028
-157.720	-125.950	0.061	-0.009
-156.706	7.932	0.162	0.119
-155.691	-88.068	0.420	0.123
-154.677	163.084	-0.195	-0.268
-153.662	-32.481	-0.308	0.168
-152.647	-200.000	0.034	0.325
-151.633	-200.000	0.053	-0.307
-150.618	-149.651	-0.321	-0.025
-149.604	79.290	0.138	0.144
-148.589	-61.948	0.159	-0.065
-147.574	614.047	0.095	0.232
-146.560	800.000	0.065	0.259
-145.545	474.208	-0.065	-0.143
-144.531	-118.362	-0.513	-0.089
-143.516	13.158	0.268	-0.203
-142.502	241.708	0.181	0.295
-141.487	-29.363	0.087	-0.049
-140.472	36.997	-0.238	0.206
-139.458	-87.689	-0.334	0.099
-138.443	286.120	0.036	-0.063
-137.429	-34.690	0.115	-0.061
-136.414	-35.038	0.218	-0.116
-135.399	-58.185	-0.110	-0.047
-134.385	-163.934	0.221	0.010
-133.370	9.903	-0.184	0.137
-132.356	-200.000	-0.031	0.150
-131.341	663.088	0.173	0.436
-130.326	-75.053	0.128	0.045
-129.312	62.026	0.077	-0.076
-128.297	135.768	0.301	0.384
-127.283	72.117	0.202	0.206
-126.268	-94.739	-0.102	-0.027
-125.253	137.187	0.106	-0.135
-124.239	-200.000	0.042	0.254
-123.224	-99.280	0.257	0.063
-122.210	-188.553	-0.122	-0.001
-121.195	52.210	-0.123	0.114
