DTS Sentinel unit serial number:	SN413079Multiplexer serial number:	ORYXHardware model number:	OX4-SRSoftware version number:	ORYX F/W v4.00 Oryx Data Collector v3.7.2.0data status	okinstallation	princeton_trtdifferential loss correction	single-endedforward channel	channel 1reverse channel	N/Adate	2019/09/18time	02:06:35forward acquisition time	60.00reverse acquisition time	0.00gamma	496.2192k internal	0.2341k external	0.2341temperature offset calibration	0.9978default loss term (dB/km)	0.3790temperature slope calibration	1.0000multiplexer offset coefficient	1.0000multiplexer slope coefficient	1.0000fibre end	0.00T internal ref (°C)	22.89T ext. ref 1 (°C)	0.16T ext. ref 2 (°C)	16.60length (m)	temperature (°C)	Stokes	anti-Stokes-747.200	-200.000	0.016	-0.167
-746.185	142.549	0.067	0.089
-745.171	-92.942	0.262	0.073
-744.156	80.590	0.246	0.266
-743.142	-164.201	-0.208	-0.010
-742.127	124.052	0.077	0.097
-741.112	166.540	0.063	0.090
-740.098	800.000	-0.038	0.161
-739.083	305.213	0.104	0.194
-738.069	-200.000	0.029	0.134
-737.054	-40.404	0.246	0.128
-736.039	-167.193	-0.448	-0.018
-735.025	2.796	0.384	0.279
-734.010	800.000	-0.032	0.117
-732.996	-200.000	0.006	0.055
-731.981	-200.000	0.049	-0.275
-730.966	426.017	-0.132	-0.285
-729.952	314.587	-0.077	0.146
-728.937	-200.000	0.022	-0.115
-727.923	390.999	0.065	0.136
-726.908	-200.000	-0.013	0.106
-725.894	137.684	-0.188	0.247
-724.879	800.000	-0.098	-0.410
-723.864	67.300	0.018	0.018
-722.850	-200.000	0.070	-0.418
-721.835	-0.065	0.159	-0.114
-720.821	-177.497	0.317	0.008
-719.806	381.015	0.054	0.110
-718.791	31.189	0.089	0.077
-717.777	-137.930	-0.399	0.045
-716.762	-1.755	0.285	0.201
-715.748	-12.649	0.181	0.118
-714.733	-114.055	0.153	0.030
-713.718	-200.000	-0.005	0.166
-712.704	-123.744	-0.101	0.016
-711.689	-124.902	0.077	-0.012
-710.675	-190.242	-0.264	-0.003
-709.660	-158.357	-0.083	0.005
-708.645	-134.908	-0.328	0.040
-707.631	19.049	0.056	-0.045
-706.616	-15.471	0.060	0.038
-705.602	-128.870	0.046	-0.006
-704.587	-34.245	0.224	-0.123
-703.572	49.933	-0.149	-0.141
-702.558	194.483	0.164	0.249
-701.543	-200.000	0.039	-0.194
-700.529	-64.745	0.179	-0.072
-699.514	476.796	-0.089	-0.201
-698.499	-108.962	-0.078	-0.017
-697.485	-127.007	-0.257	0.038
-696.470	-21.348	0.161	-0.098
-695.456	-164.845	-0.464	0.021
-694.441	-138.445	0.088	-0.010
-693.426	387.290	-0.042	0.087
-692.412	-7.273	-0.116	-0.078
-691.397	-200.000	-0.006	0.076
-690.383	-119.886	0.258	-0.044
-689.368	-200.000	-0.010	-0.165
-688.354	800.000	-0.043	-0.149
-687.339	-76.320	0.033	0.011
-686.324	-44.420	0.160	-0.080
-685.310	554.907	-0.098	0.236
-684.295	800.000	-0.066	-0.191
-683.281	-186.720	0.395	0.006
-682.266	-73.918	-0.122	-0.044
-681.251	97.373	-0.225	-0.258
-680.237	800.000	-0.004	0.014
-679.222	-187.479	-0.526	0.007
-678.208	800.000	0.131	0.450
-677.193	98.595	0.105	0.122
-676.178	722.524	-0.039	-0.103
-675.164	-1.378	0.135	0.095
-674.149	-84.481	-0.069	0.022
-673.135	82.736	-0.185	0.201
-672.120	319.584	0.155	-0.293
-671.105	16.928	-0.111	-0.088
-670.091	-200.000	0.044	-0.288
-669.076	-200.000	-0.021	-0.314
-668.062	567.150	-0.117	0.285
-667.047	-5.391	-0.300	-0.206
-666.032	62.686	0.125	0.125
-665.018	212.426	-0.234	0.368
-664.003	-0.706	-0.130	-0.092
-662.989	-66.036	0.326	-0.130
-661.974	-200.000	-0.005	-0.214
-660.959	311.877	0.136	0.255
-659.945	-79.888	0.178	0.060
-658.930	-58.959	0.148	-0.064
-657.916	-106.620	0.349	0.077
-656.901	12.310	-0.150	-0.116
-655.886	235.281	0.022	0.036
-654.872	800.000	-0.037	-0.161
-653.857	-160.502	0.260	-0.014
-652.843	492.664	-0.118	-0.269
-651.828	-5.852	-0.054	-0.037
-650.814	-63.423	-0.049	-0.020
-649.799	-143.777	0.122	-0.012
-648.784	698.152	-0.038	-0.099
-647.770	-51.246	-0.318	0.149
-646.755	92.361	-0.075	-0.084
-645.741	193.000	-0.205	0.310
-644.726	14.379	0.203	0.158
-643.711	800.000	-0.048	-0.166
-642.697	-66.946	0.117	-0.046
-641.682	123.225	-0.212	0.265
-640.668	194.429	0.030	0.045
-639.653	-36.095	0.164	0.088
-638.638	-45.851	-0.293	0.145
-637.624	24.999	0.081	-0.067
-636.609	800.000	0.023	0.074
-635.595	-200.000	0.050	-0.227
-634.580	80.875	-0.156	-0.168
-633.565	107.887	0.108	0.128
-632.551	85.928	0.253	0.277
-631.536	547.223	-0.136	0.326
-630.522	721.980	0.046	-0.123
-629.507	-200.000	0.000	-0.110
-628.492	98.198	-0.110	-0.126
-627.478	120.622	-0.166	0.205
-626.463	164.090	-0.251	-0.353
-625.449	173.670	0.112	-0.162
-624.434	286.537	0.023	0.041
-623.419	-64.183	-0.185	-0.075
-622.405	89.086	0.317	-0.352
-621.390	115.418	-0.042	0.052
-620.376	-117.009	-0.053	-0.010
-619.361	222.543	-0.099	-0.158
-618.346	85.078	0.088	0.096
-617.332	-4.937	0.323	-0.222
-616.317	800.000	-0.019	-0.053
-615.303	-123.595	0.180	0.029
-614.288	-1.125	-0.097	-0.069
-613.273	-77.771	0.179	-0.062
-612.259	800.000	0.037	0.111
-611.244	-63.266	0.231	0.095
-610.230	800.000	0.048	0.186
-609.215	-70.146	-0.133	0.050
-608.201	-128.144	-0.327	-0.047
-607.186	152.482	0.008	-0.010
-606.171	-131.266	0.243	-0.032
-605.157	-165.289	-0.344	-0.015
-604.142	341.444	-0.122	0.238
-603.128	800.000	0.071	-0.256
-602.113	-133.749	-0.022	0.003
-601.098	-78.010	0.093	0.032
-600.084	13.498	-0.070	-0.054
-599.069	800.000	-0.022	-0.073
-598.055	-152.929	0.446	-0.031
-597.040	-151.466	-0.354	0.026
-596.025	492.979	0.036	0.082
-595.011	-200.000	-0.006	0.078
-593.996	-3.991	0.234	0.162
-592.982	123.223	-0.191	-0.239
-591.967	-200.000	0.006	0.051
-590.952	598.501	-0.057	-0.141
-589.938	7.579	0.408	-0.304
-588.923	-86.749	-0.614	-0.187
-587.909	496.000	0.043	0.099
-586.894	-105.644	-0.035	-0.008
-585.879	277.869	-0.157	-0.278
-584.865	-91.609	-0.220	0.062
-583.850	261.069	0.045	0.078
-582.836	185.706	0.187	0.276
-581.821	-68.400	-0.070	0.027
-580.806	800.000	-0.149	-0.464
-579.792	547.387	-0.062	0.149
-578.777	85.448	-0.191	0.209
-577.763	-79.312	0.243	0.082
-576.748	-200.000	-0.027	0.368
-575.733	-200.000	0.025	-0.172
-574.719	2.933	0.123	-0.089
-573.704	-154.472	-0.251	-0.017
-572.690	-192.081	0.067	0.001
-571.675	-60.662	0.084	-0.035
-570.661	517.490	-0.121	0.281
-569.646	-104.675	-0.154	0.035
-568.631	-200.000	0.022	-0.204
-567.617	10.478	0.119	0.090
-566.602	85.446	0.102	0.112
-565.588	-200.000	0.002	-0.012
-564.573	716.173	0.107	-0.283
-563.558	800.000	0.069	0.248
-562.544	-82.573	-0.027	0.009
-561.529	800.000	-0.097	-0.352
-560.515	-200.000	-0.032	-0.228
-559.500	612.813	-0.006	-0.014
-558.485	-165.949	-0.326	-0.014
-557.471	-55.419	-0.268	-0.120
-556.456	-200.000	-0.013	0.388
-555.442	-43.786	0.306	0.153
-554.427	348.371	0.080	-0.157
-553.412	110.709	-0.192	-0.230
-552.398	77.633	-0.064	0.068
-551.383	53.719	0.027	-0.026
-550.369	-200.000	0.035	-0.216
-549.354	-130.289	0.090	0.012
-548.339	-159.893	0.176	-0.010
-547.325	8.089	0.060	0.045
-546.310	-11.089	-0.276	-0.181
-545.296	6.003	0.155	-0.114
-544.281	800.000	-0.129	-0.458
-543.266	-112.065	0.232	-0.047
-542.252	800.000	-0.102	0.393
-541.237	-200.000	0.058	-0.358
-540.223	348.759	-0.081	-0.159
-539.208	-166.192	0.235	-0.010
-538.193	198.844	-0.076	-0.115
-537.179	-79.628	-0.075	0.025
-536.164	255.996	0.173	0.295
-535.150	-101.269	-0.229	0.056
-534.135	-200.000	-0.028	-0.184
-533.121	800.000	0.033	0.105
-532.106	800.000	0.074	-0.304
-531.091	-200.000	0.009	-0.172
-530.077	-100.860	0.382	-0.093
-529.062	800.000	-0.065	-0.215
-528.048	138.862	-0.099	0.130
-527.033	-40.159	-0.146	0.076
-526.018	-166.052	0.261	0.011
-525.004	-200.000	0.010	-0.144
-523.989	407.149	-0.043	0.090
-522.975	-98.534	-0.308	0.078
-521.960	-200.000	0.044	-0.260
-520.945	-3.216	-0.181	0.126
-519.931	138.310	-0.140	-0.183
-518.916	-30.635	0.101	0.057
-517.902	-200.000	0.044	-0.255
-516.887	-70.503	-0.149	0.056
-515.872	-152.261	0.090	-0.006
-514.858	774.177	-0.032	0.086
-513.843	-200.000	0.053	0.265
-512.829	-13.291	0.243	-0.156
-511.814	-200.000	-0.028	-0.223
-510.799	-200.000	-0.011	0.170
-509.785	753.239	-0.082	-0.220
-508.770	-71.725	0.092	-0.034
-507.756	-200.000	0.016	0.187
-506.741	800.000	0.045	-0.182
-505.726	-200.000	-0.034	-0.241
-504.712	30.667	0.193	-0.164
-503.697	102.295	0.065	0.075
-502.683	800.000	-0.058	-0.224
-501.668	800.000	0.019	-0.079
-500.653	5.105	-0.173	-0.126
-499.639	800.000	-0.015	-0.052
-498.624	2.314	-0.179	0.129
-497.610	66.493	-0.194	-0.196
-496.595	-45.201	-0.307	0.152
-495.581	-60.600	0.069	0.029
-494.566	13.250	0.069	0.053
-493.551	-74.122	-0.124	-0.044
-492.537	346.324	0.056	0.109
-491.522	-6.107	0.167	0.113
-490.508	-200.000	0.013	-0.091
-489.493	800.000	-0.035	-0.147
-488.478	115.382	-0.072	-0.088
-487.464	172.200	-0.044	0.063
-486.449	-200.000	0.004	0.136
-485.435	-34.628	-0.082	-0.045
-484.420	-10.491	-0.312	-0.205
-483.405	267.510	-0.193	0.335
-482.391	179.717	-0.032	-0.047
-481.376	496.009	0.139	-0.318
-480.362	-145.996	-0.324	-0.028
-479.347	-134.372	-0.202	0.025
-478.332	-19.190	-0.087	0.053
-477.318	139.310	0.234	0.306
-476.303	800.000	0.048	0.141
-475.289	-128.865	-0.052	0.007
-474.274	-62.875	0.205	0.084
-473.259	357.060	0.069	-0.137
-472.245	800.000	-0.041	0.162
-471.230	10.755	0.107	-0.081
-470.216	37.356	0.166	-0.145
-469.201	-83.541	-0.085	-0.027
-468.186	-104.555	0.177	-0.040
-467.172	0.003	-0.417	0.294
-466.157	-50.770	-0.388	0.181
-465.143	-200.000	-0.071	0.316
-464.128	-145.834	-0.246	0.022
-463.113	-200.000	0.044	0.216
-462.099	-200.000	0.026	0.196
-461.084	-41.240	-0.092	0.047
-460.070	50.522	-0.078	0.073
-459.055	800.000	0.032	-0.103
-458.040	-200.000	-0.003	0.195
-457.026	-92.144	0.191	-0.054
-456.011	237.093	0.085	0.140
-454.997	-34.605	-0.096	0.052
-453.982	-46.963	0.177	0.086
-452.968	167.739	0.162	-0.228
-451.953	800.000	-0.098	0.408
-450.938	-200.000	-0.009	0.255
-449.924	-39.553	-0.353	0.183
-448.909	351.054	0.090	0.176
-447.895	496.330	0.082	0.187
-446.880	139.333	0.140	-0.183
-445.865	94.207	0.082	0.092
-444.851	-200.000	0.004	0.057
-443.836	21.559	0.019	0.016
-442.822	200.184	0.120	0.182
-441.807	-49.951	-0.256	-0.120
-440.792	-34.109	-0.372	-0.202
-439.778	-37.058	0.110	0.058
-438.763	52.824	-0.119	0.112
-437.749	-64.752	0.088	-0.035
-436.734	86.458	0.074	-0.080
-435.719	-1.153	-0.041	0.029
-434.705	203.571	0.166	-0.254
-433.690	1.385	-0.032	-0.023
-432.676	40.131	0.123	-0.110
-431.661	31.858	0.193	-0.165
-430.646	-116.988	0.049	0.009
-429.632	379.567	-0.260	-0.527
-428.617	-200.000	-0.050	0.328
-427.603	48.980	0.021	-0.020
-426.588	611.220	0.075	-0.185
-425.573	-200.000	0.036	0.283
-424.559	-105.133	-0.298	-0.067
-423.544	-139.787	0.166	-0.017
-422.530	303.410	0.160	-0.294
-421.515	333.698	-0.138	-0.264
-420.500	255.606	0.178	-0.302
-419.486	-111.831	0.057	-0.011
-418.471	-72.761	0.361	-0.131
-417.457	-172.386	-0.091	0.003
-416.442	93.256	0.186	-0.208
-415.428	-165.836	-0.239	-0.010
-414.413	-159.412	-0.155	-0.009
-413.398	-200.000	-0.012	0.109
-412.384	241.803	-0.073	-0.121
-411.369	-49.836	-0.271	0.127
-410.355	-15.603	-0.193	0.122
-409.340	-200.000	-0.043	-0.267
-408.325	673.763	0.080	-0.205
-407.311	-200.000	-0.041	0.223
-406.296	-40.204	0.165	-0.085
-405.282	376.700	0.015	-0.031
-404.267	-68.401	-0.448	0.172
-403.252	613.878	0.010	0.025
-402.238	-129.172	0.068	-0.009
-401.223	259.729	-0.107	0.183
-400.209	13.153	-0.312	0.239
-399.194	252.847	0.125	-0.212
-398.179	-33.420	0.274	0.150
-397.165	-41.773	-0.141	-0.072
-396.150	-112.020	-0.198	-0.039
-395.136	-1.134	0.088	0.062
-394.121	-200.000	0.030	-0.130
-393.106	-8.430	-0.500	0.332
-392.092	-3.121	-0.146	-0.101
-391.077	22.417	0.182	-0.147
-390.063	323.510	0.181	0.342
-389.048	-200.000	-0.009	0.046
-388.033	-94.236	0.275	-0.074
-387.019	-161.996	-0.332	-0.017
-386.004	405.787	0.190	0.397
-384.990	-200.000	-0.050	0.317
-383.975	-15.614	0.191	-0.120
-382.960	16.689	0.202	-0.158
-381.946	39.923	0.130	0.115
-380.931	231.426	-0.095	0.153
-379.917	50.841	0.268	0.251
-378.902	-146.412	-0.262	-0.023
-377.888	-124.507	0.348	-0.054
-376.873	800.000	-0.062	-0.234
-375.858	34.868	-0.140	-0.121
-374.844	146.258	0.142	-0.188
-373.829	555.533	0.154	0.367
-372.815	334.659	-0.084	0.160
-371.800	155.260	0.126	0.171
-370.785	14.763	-0.150	0.116
-369.771	-65.089	0.093	0.037
-368.756	-200.000	0.042	-0.377
-367.742	70.664	-0.200	0.205
-366.727	151.836	-0.044	0.060
-365.712	62.260	-0.114	-0.113
-364.698	-200.000	-0.066	-0.299
-363.683	605.093	0.048	-0.118
-362.669	-11.503	0.085	-0.055
-361.654	123.097	-0.212	-0.262
-360.639	-114.666	-0.183	0.034
-359.625	247.692	-0.196	-0.326
-358.610	-61.709	-0.087	0.036
-357.596	-0.596	0.275	0.193
-356.581	-90.423	-0.313	-0.090
-355.566	-200.000	-0.038	-0.291
-354.552	-102.577	-0.073	-0.017
-353.537	-69.863	0.543	0.204
-352.523	-68.232	0.012	0.005
-351.508	-200.000	0.024	0.253
-350.493	800.000	-0.010	-0.034
-349.479	-116.188	0.077	-0.014
-348.464	-113.886	0.223	-0.043
-347.450	147.126	0.223	0.296
-346.435	-3.604	0.337	0.231
-345.420	-55.125	-0.082	0.037
-344.406	47.177	-0.021	-0.019
-343.391	-200.000	-0.032	-0.242
-342.377	-107.550	0.259	0.056
-341.362	61.069	0.200	0.196
-340.348	131.137	-0.034	-0.043
-339.333	-173.744	0.246	-0.007
-338.318	-131.416	-0.242	0.032
-337.304	240.767	-0.095	-0.156
-336.289	73.793	-0.311	0.322
-335.275	-69.593	-0.170	0.064
-334.260	-12.606	0.103	0.066
-333.245	794.572	0.144	0.390
-332.231	220.237	-0.056	-0.088
-331.216	5.868	-0.349	-0.255
-330.202	77.711	0.135	-0.142
-329.187	77.467	0.026	-0.027
-328.172	352.286	-0.126	-0.245
-327.158	-68.316	-0.365	0.140
-326.143	-200.000	0.001	0.063
-325.129	284.191	0.206	0.366
-324.114	605.239	-0.054	-0.134
-323.099	-154.805	-0.321	0.021
-322.085	23.573	0.015	-0.012
-321.070	625.953	0.137	-0.340
-320.056	800.000	0.153	-0.625
-319.041	-104.473	0.199	-0.045
-318.026	137.599	-0.080	-0.104
-317.012	-200.000	-0.042	0.214
-315.997	106.943	-0.080	-0.094
-314.983	-93.374	0.212	0.058
-313.968	248.034	0.191	0.318
-312.953	140.291	0.077	0.100
-311.939	-165.535	0.189	-0.008
-310.924	-58.840	-0.117	-0.050
-309.910	623.201	-0.087	0.215
-308.895	-9.969	0.208	0.136
-307.880	-139.989	0.129	0.013
-306.866	160.166	-0.054	0.074
-305.851	-137.232	0.265	0.030
-304.837	504.891	0.111	-0.253
-303.822	800.000	0.053	-0.173
-302.807	-164.673	-0.238	0.011
-301.793	296.875	0.106	0.191
-300.778	-76.808	0.173	0.060
-299.764	-132.735	-0.078	0.010
-298.749	-80.591	-0.350	-0.115
-297.735	-15.295	-0.157	0.099
-296.720	70.741	0.224	0.228
-295.705	-67.989	0.174	-0.067
-294.691	-187.303	0.163	-0.002
-293.676	-64.139	-0.063	-0.025
-292.662	800.000	0.181	-0.506
-291.647	-84.735	0.342	0.106
-290.632	800.000	-0.069	0.213
-289.618	-200.000	-0.021	0.152
-288.603	187.139	0.099	-0.146
-287.589	28.429	0.239	0.199
-286.574	-40.576	-0.362	-0.185
-285.559	21.267	0.388	-0.310
-284.545	800.000	-0.099	-0.276
-283.530	-173.508	-0.053	-0.002
-282.516	445.655	0.077	0.166
-281.501	-38.501	0.223	-0.116
-280.486	339.755	-0.131	0.251
-279.472	-200.000	0.006	0.206
-278.457	-82.612	0.230	-0.073
-277.443	-200.000	-0.005	-0.050
-276.428	-87.702	0.061	-0.018
-275.413	-200.000	0.009	-0.268
-274.399	-82.346	0.193	0.062
-273.384	-45.912	0.275	-0.134
-272.370	-104.894	-0.249	-0.056
-271.355	-3.650	0.031	0.021
-270.340	171.670	-0.152	-0.215
-269.326	-132.253	0.169	0.022
-268.311	43.848	-0.164	0.148
-267.297	-8.946	-0.112	-0.074
-266.282	-20.088	0.208	0.126
-265.267	334.110	0.134	-0.255
-264.253	800.000	0.072	-0.267
-263.238	48.225	-0.061	-0.056
-262.224	11.830	-0.074	0.056
-261.209	800.000	-0.099	0.382
-260.195	560.629	0.148	0.352
-259.180	-108.382	0.124	-0.026
-258.165	149.620	0.033	-0.044
-257.151	-134.561	0.202	-0.024
-256.136	-87.910	0.241	0.071
-255.122	-99.500	-0.256	0.063
-254.107	203.184	0.096	-0.145
-253.092	-108.290	-0.122	-0.026
-252.078	103.687	-0.104	0.120
-251.063	177.890	-0.153	-0.220
-250.049	-200.000	-0.030	-0.174
-249.034	524.938	-0.294	-0.680
-248.019	506.758	0.076	0.174
-247.005	185.082	0.124	0.181
-245.990	-59.593	0.266	0.112
-244.976	-66.838	0.339	-0.132
-243.961	800.000	0.078	0.254
-242.946	-78.759	-0.125	0.042
-241.932	78.215	0.025	0.026
-240.917	2.159	0.163	-0.116
-239.903	800.000	-0.051	-0.155
-238.888	-19.998	0.162	0.098
-237.873	-186.816	0.277	-0.004
-236.859	-25.587	-0.167	0.097
-235.844	-136.049	0.236	0.027
-234.830	10.900	0.105	-0.079
-233.815	-16.057	-0.159	0.099
-232.800	-17.478	-0.034	0.021
-231.786	-44.540	0.398	0.195
-230.771	800.000	0.073	0.207
-229.757	-200.000	-0.024	-0.193
-228.742	40.133	-0.159	-0.141
-227.727	-200.000	-0.091	0.479
-226.713	581.626	-0.152	-0.365
-225.698	-31.933	0.137	-0.075
-224.684	-200.000	0.009	-0.037
-223.669	202.421	-0.115	0.174
-222.655	19.895	0.089	0.071
-221.640	800.000	-0.108	0.293
-220.625	-200.000	-0.010	-0.205
-219.611	17.431	-0.311	0.243
-218.596	-108.307	0.079	-0.017
-217.582	-97.843	-0.288	-0.073
-216.567	257.850	0.061	0.103
-215.552	-102.607	0.182	-0.043
-214.538	46.598	-0.145	-0.132
-213.523	177.904	-0.081	-0.117
-212.509	-113.252	-0.117	-0.023
-211.494	-200.000	-0.028	-0.443
-210.479	-23.748	0.295	0.173
-209.465	-121.462	-0.107	-0.017
-208.450	-84.198	0.298	0.093
-207.436	-105.962	-0.302	0.067
-206.421	-96.354	-0.149	-0.039
-205.406	262.671	-0.059	-0.101
-204.392	131.335	0.115	-0.145
-203.377	-133.617	-0.074	0.009
-202.363	-98.098	-0.242	0.061
-201.348	206.380	-0.206	0.315
-200.333	242.669	-0.157	-0.258
-199.319	345.925	0.128	-0.247
-198.304	-200.000	0.019	0.184
-197.290	118.105	-0.127	-0.153
-196.275	-200.000	-0.012	0.170
-195.260	125.373	-0.205	0.254
-194.246	584.919	0.115	0.276
-193.231	70.774	-0.111	0.113
-192.217	-18.994	0.249	-0.152
-191.202	-200.000	-0.006	0.110
-190.187	800.000	0.082	0.289
-189.173	-200.000	0.054	0.235
-188.158	-80.790	0.257	0.084
-187.144	-102.859	0.279	0.065
-186.129	45.850	0.168	0.152
-185.114	-18.155	-0.130	0.080
-184.100	-42.805	-0.176	-0.088
-183.085	-72.743	-0.212	0.076
-182.071	-61.215	0.263	0.109
-181.056	565.934	-0.055	-0.130
-180.042	312.309	0.089	0.165
-179.027	144.770	0.104	-0.136
-178.012	-200.000	-0.034	-0.150
-176.998	-200.000	-0.054	-0.271
-175.983	-200.000	-0.041	0.178
-174.969	-135.454	0.167	-0.020
-173.954	800.000	0.052	0.207
-172.939	39.306	-0.098	-0.086
-171.925	-40.436	-0.106	-0.054
-170.910	-33.419	0.188	-0.102
-169.896	-200.000	-0.076	0.354
-168.881	60.111	-0.285	-0.276
-167.866	-35.409	-0.189	-0.101
-166.852	-93.473	-0.131	-0.035
-165.837	-23.085	0.276	0.163
-164.823	-200.000	-0.072	0.398
-163.808	32.231	0.061	-0.051
-162.793	122.050	0.114	-0.140
-161.779	-106.967	0.169	-0.037
-160.764	-70.377	-0.061	0.023
-159.750	-134.082	-0.134	-0.016
-158.735	1.846	-0.070	-0.050
-157.720	800.000	-0.123	0.395
-156.706	-200.000	0.033	0.197
-155.691	800.000	-0.063	-0.196
-154.677	-22.700	0.121	0.072
-153.662	-200.000	0.019	0.183
-152.647	60.607	0.326	-0.316
-151.633	86.547	-0.257	0.277
-150.618	-135.035	-0.003	0.000
-149.604	-200.000	0.003	0.106
-148.589	-103.196	0.016	0.004
-147.574	175.146	0.067	-0.095
-146.560	583.473	-0.121	0.291
-145.545	-97.038	0.264	0.068
-144.531	195.626	-0.176	0.262
-143.516	167.770	-0.152	0.212
-142.502	175.182	-0.178	-0.253
-141.487	-8.661	0.191	0.125
-140.472	225.037	-0.168	-0.266
-139.458	655.052	-0.065	-0.164
-138.443	24.290	-0.114	0.092
-137.429	800.000	0.096	0.374
-136.414	587.944	-0.038	0.092
-135.399	-15.678	0.362	0.226
-134.385	-200.000	0.099	0.565
-133.370	56.297	0.178	-0.170
-132.356	-200.000	-0.012	-0.289
-131.341	-113.852	0.124	-0.024
-130.326	519.297	-0.085	0.194
-129.312	-98.167	0.306	-0.077
-128.297	-77.768	0.091	0.031
-127.283	800.000	0.029	0.109
-126.268	251.335	-0.164	-0.273
-125.253	800.000	0.147	0.459
-124.239	138.484	0.115	-0.147
-123.224	-2.052	0.335	-0.230
-122.210	800.000	-0.069	-0.191
-121.195	81.769	-0.150	-0.159
