DTS Sentinel unit serial number:	SN413079Multiplexer serial number:	ORYXHardware model number:	OX4-SRSoftware version number:	ORYX F/W v4.00 Oryx Data Collector v3.7.2.0data status	okinstallation	princeton_trtdifferential loss correction	single-endedforward channel	channel 1reverse channel	N/Adate	2019/09/14time	14:18:35forward acquisition time	60.00reverse acquisition time	0.00gamma	496.2192k internal	0.2293k external	0.2293temperature offset calibration	1.0081default loss term (dB/km)	0.3790temperature slope calibration	1.0000multiplexer offset coefficient	1.0000multiplexer slope coefficient	1.0000fibre end	0.00T internal ref (°C)	38.80T ext. ref 1 (°C)	5.08T ext. ref 2 (°C)	36.24length (m)	temperature (°C)	Stokes	anti-Stokes-747.200	-92.304	-0.183	-0.053
-746.185	800.000	-0.070	0.263
-745.171	800.000	0.110	0.364
-744.156	-87.909	0.221	0.068
-743.142	33.468	0.065	0.058
-742.127	337.726	0.046	0.093
-741.112	-200.000	0.007	-0.098
-740.098	-200.000	0.038	0.252
-739.083	-175.130	0.232	0.007
-738.069	-31.608	-0.208	-0.119
-737.054	154.155	0.216	-0.303
-736.039	-18.212	-0.141	0.090
-735.025	-94.374	0.087	-0.024
-734.010	-200.000	-0.008	-0.234
-732.996	-132.749	-0.138	0.018
-731.981	775.275	-0.075	-0.210
-730.966	-72.037	-0.288	-0.109
-729.952	-107.873	-0.150	-0.033
-728.937	-132.440	-0.143	-0.019
-727.923	-44.539	-0.210	0.107
-726.908	-30.019	0.335	-0.195
-725.894	-148.001	-0.210	0.018
-724.879	-200.000	-0.043	-0.204
-723.864	57.784	0.056	-0.056
-722.850	31.446	0.283	0.249
-721.835	-200.000	0.071	-0.353
-720.821	800.000	0.040	-0.156
-719.806	367.640	0.002	-0.005
-718.791	800.000	0.067	-0.206
-717.777	-200.000	-0.007	0.115
-716.762	109.156	-0.096	-0.117
-715.748	-48.839	0.123	0.060
-714.733	709.284	-0.090	0.243
-713.718	373.639	0.056	0.116
-712.704	-200.000	-0.003	0.027
-711.689	-87.977	-0.223	0.068
-710.675	684.135	-0.035	0.094
-709.660	144.338	-0.080	-0.109
-708.645	-69.673	0.160	-0.062
-707.631	-200.000	-0.022	0.105
-706.616	-32.624	-0.181	-0.103
-705.602	800.000	-0.036	-0.110
-704.587	-44.625	0.126	0.064
-703.572	303.460	-0.215	-0.407
-702.558	561.502	-0.126	-0.312
-701.543	-76.973	0.073	0.026
-700.529	127.108	-0.159	0.206
-699.514	-113.019	-0.154	-0.031
-698.499	-159.031	-0.383	0.022
-697.485	-2.548	0.297	-0.213
-696.470	6.425	-0.222	-0.168
-695.456	800.000	0.019	-0.075
-694.441	257.514	-0.156	-0.274
-693.426	-146.316	0.197	0.018
-692.412	367.713	-0.109	0.225
-691.397	376.321	0.119	-0.247
-690.383	-200.000	0.030	0.139
-689.368	14.560	0.207	0.165
-688.354	407.808	-0.172	-0.371
-687.339	800.000	0.044	-0.158
-686.324	-200.000	0.062	-0.342
-685.310	-108.352	0.209	0.046
-684.295	-71.869	0.209	-0.079
-683.281	379.043	0.090	0.189
-682.266	465.263	-0.081	-0.185
-681.251	16.169	0.152	-0.122
-680.237	-46.224	-0.253	0.127
-679.222	672.825	-0.031	0.083
-678.208	-94.017	-0.080	-0.022
-677.193	-16.009	0.201	-0.130
-676.178	2.552	0.092	0.068
-675.164	63.686	-0.085	-0.087
-674.149	103.644	-0.147	-0.177
-673.135	34.044	-0.353	0.314
-672.120	28.655	-0.101	-0.087
-671.105	-103.120	-0.212	-0.051
-670.091	-27.330	-0.203	0.120
-669.076	38.746	-0.058	-0.053
-668.062	-200.000	0.013	0.162
-667.047	13.112	0.071	0.056
-666.032	-95.882	-0.091	-0.025
-665.018	-153.092	-0.450	-0.032
-664.003	-121.267	0.299	0.051
-662.989	-114.351	-0.160	0.031
-661.974	-53.774	0.132	0.061
-660.959	571.873	0.010	-0.024
-659.945	288.483	0.131	0.241
-658.930	-97.434	0.242	0.064
-657.916	-9.002	0.026	-0.018
-656.901	188.355	-0.095	-0.145
-655.886	800.000	-0.137	-0.395
-654.872	188.994	0.211	-0.322
-653.857	-200.000	0.052	-0.279
-652.843	-200.000	-0.029	-0.188
-651.828	-99.738	0.117	-0.030
-650.814	-41.792	-0.101	-0.053
-649.799	-200.000	-0.010	-0.052
-648.784	-93.592	0.123	-0.035
-647.770	-121.766	0.064	0.011
-646.755	137.174	-0.189	-0.252
-645.741	-98.620	-0.308	0.080
-644.726	35.454	0.104	-0.093
-643.711	-35.474	0.077	0.043
-642.697	-200.000	0.008	-0.056
-641.682	-89.178	-0.161	0.048
-640.668	800.000	-0.084	0.270
-639.653	441.467	-0.093	-0.208
-638.638	-95.021	-0.298	0.082
-637.624	-41.622	0.207	-0.108
-636.609	-52.327	0.042	-0.020
-635.595	-137.521	0.173	-0.020
-634.580	178.658	-0.075	-0.111
-633.565	752.754	0.060	0.165
-632.551	-113.034	-0.131	-0.026
-631.536	-147.216	-0.290	0.025
-630.522	-127.516	-0.213	0.031
-629.507	-200.000	-0.014	0.088
-628.492	737.448	0.056	-0.154
-627.478	800.000	0.059	-0.259
-626.463	-137.915	-0.149	-0.017
-625.449	-200.000	0.053	-0.338
-624.434	800.000	0.072	-0.260
-623.419	196.794	-0.215	-0.333
-622.405	-200.000	-0.052	-0.262
-621.390	271.885	-0.088	-0.158
-620.376	13.647	0.170	-0.135
-619.361	144.578	0.156	0.212
-618.346	279.274	-0.088	0.159
-617.332	137.794	0.151	-0.201
-616.317	-200.000	-0.021	0.324
-615.303	-67.719	0.297	0.118
-614.288	800.000	0.048	0.197
-613.273	265.038	0.070	-0.124
-612.259	11.128	0.231	-0.180
-611.244	40.527	0.218	-0.200
-610.230	800.000	-0.102	-0.328
-609.215	-200.000	0.209	0.000
-608.201	800.000	-0.014	0.058
-607.186	-200.000	-0.013	-0.105
-606.171	-86.044	0.064	0.020
-605.157	244.255	-0.134	0.228
-604.142	-137.825	0.151	0.017
-603.128	281.195	-0.188	-0.343
-602.113	-200.000	0.045	-0.258
-601.098	-134.506	0.244	0.030
-600.084	435.384	-0.055	0.122
-599.069	-200.000	0.039	-0.472
-598.055	-126.136	0.298	0.045
-597.040	-72.464	-0.026	0.010
-596.025	800.000	0.030	0.118
-595.011	268.088	0.031	-0.056
-593.996	-78.601	-0.215	0.075
-592.982	-132.573	-0.339	0.044
-591.967	-149.586	-0.118	-0.010
-590.952	-28.678	-0.085	-0.050
-589.938	459.169	-0.094	-0.212
-588.923	-65.622	0.103	0.042
-587.909	413.691	-0.093	-0.201
-586.894	-200.000	0.029	0.281
-585.879	-111.571	0.096	-0.020
-584.865	59.060	0.310	-0.310
-583.850	-108.559	-0.224	-0.049
-582.836	-2.336	0.164	-0.117
-581.821	84.890	0.134	0.149
-580.806	167.920	0.054	0.078
-579.792	-175.340	0.255	0.007
-578.777	88.592	0.050	-0.057
-577.763	-85.189	-0.271	-0.086
-576.748	-98.351	0.155	0.040
-575.733	-168.009	-0.307	-0.012
-574.719	-200.000	0.014	-0.177
-573.704	-87.105	-0.208	0.064
-572.690	176.485	0.098	0.144
-571.675	-10.802	-0.092	-0.062
-570.661	640.601	0.120	0.309
-569.646	-200.000	-0.001	-0.026
-568.631	-200.000	-0.030	-0.378
-567.617	-200.000	0.003	-0.109
-566.602	73.743	-0.142	0.151
-565.588	-40.517	0.153	0.081
-564.573	298.629	-0.186	-0.347
-563.558	-200.000	-0.012	-0.081
-562.544	-159.814	0.344	0.019
-561.529	55.797	0.078	-0.077
-560.515	-200.000	-0.011	0.107
-559.500	-82.866	0.125	0.041
-558.485	-177.688	0.080	0.002
-557.471	319.040	-0.131	-0.252
-556.456	10.614	-0.241	0.187
-555.442	9.111	0.096	-0.073
-554.427	-163.023	0.265	-0.013
-553.412	548.038	-0.042	0.103
-552.398	-5.640	-0.202	0.141
-551.383	800.000	-0.047	-0.140
-550.369	-65.774	-0.222	0.090
-549.354	-66.872	0.115	0.046
-548.339	-118.212	-0.252	-0.046
-547.325	82.685	-0.118	0.130
-546.310	31.876	-0.254	0.222
-545.296	-72.637	0.515	0.193
-544.281	-200.000	0.012	0.131
-543.266	463.388	0.040	0.090
-542.252	14.272	-0.097	0.077
-541.237	68.129	0.156	-0.162
-540.223	45.848	-0.123	0.116
-539.208	-139.621	-0.163	0.018
-538.193	-200.000	0.006	0.334
-537.179	235.657	-0.053	0.089
-536.164	196.091	0.093	0.144
-535.150	245.071	-0.044	-0.075
-534.135	341.261	-0.082	-0.162
-533.121	44.298	0.208	0.194
-532.106	-102.590	-0.351	0.085
-531.091	38.373	-0.244	-0.221
-530.077	313.060	-0.112	0.213
-529.062	93.935	-0.110	-0.126
-528.048	-200.000	-0.002	0.367
-527.033	-83.077	0.251	-0.082
-526.018	44.990	0.143	-0.133
-525.004	-43.585	-0.165	-0.085
-523.989	-82.702	-0.235	-0.077
-522.975	-113.654	0.290	-0.057
-521.960	-20.400	-0.155	-0.097
-520.945	9.701	-0.160	-0.123
-519.931	-12.369	0.503	0.334
-518.916	-200.000	-0.000	-0.225
-517.902	-12.731	-0.350	-0.231
-516.887	80.096	0.151	-0.165
-515.872	-72.730	-0.166	-0.062
-514.858	-200.000	0.004	-0.113
-513.843	0.304	0.029	-0.021
-512.829	19.967	-0.216	-0.177
-511.814	527.493	0.043	-0.102
-510.799	-65.197	-0.423	-0.173
-509.785	-81.377	0.119	0.040
-508.770	-79.041	0.124	-0.043
-507.756	145.992	0.026	-0.035
-506.741	284.083	0.149	0.271
-505.726	-26.032	-0.157	-0.094
-504.712	-21.546	0.086	-0.053
-503.697	-200.000	-0.057	-0.474
-502.683	112.031	-0.101	-0.124
-501.668	327.243	-0.246	0.478
-500.653	35.433	-0.354	-0.315
-499.639	66.741	-0.155	-0.160
-498.624	-98.029	-0.524	0.137
-497.610	42.805	-0.093	0.086
-496.595	-135.543	-0.066	0.008
-495.581	-81.040	-0.299	0.100
-494.566	65.944	-0.183	0.188
-493.551	-200.000	0.029	0.347
-492.537	-15.403	-0.199	0.129
-491.522	-200.000	0.080	0.403
-490.508	583.727	-0.075	-0.186
-489.493	-46.663	-0.215	0.107
-488.478	-200.000	0.014	0.236
-487.464	67.322	0.313	0.323
-486.449	800.000	-0.023	0.088
-485.435	-97.701	-0.078	-0.020
-484.420	-123.931	0.134	-0.021
-483.405	289.022	-0.023	-0.042
-482.391	800.000	0.030	0.121
-481.376	-38.229	0.323	-0.173
-480.362	-194.084	0.123	0.001
-479.347	39.915	0.038	-0.034
-478.332	-95.958	0.244	-0.066
-477.318	-35.167	-0.099	0.054
-476.303	153.404	-0.238	-0.331
-475.289	-115.627	0.096	-0.018
-474.274	800.000	-0.098	-0.292
-473.259	-80.796	-0.078	0.026
-472.245	-31.610	-0.275	0.156
-471.230	182.533	0.137	0.205
-470.216	-153.483	0.171	0.012
-469.201	-200.000	-0.035	0.252
-468.186	397.000	0.145	-0.306
-467.172	-200.000	-0.030	0.164
-466.157	225.557	-0.091	0.150
-465.143	216.343	-0.078	-0.125
-464.128	-183.349	-0.201	0.004
-463.113	-76.583	0.181	0.064
-462.099	464.595	0.043	0.097
-461.084	-200.000	-0.032	0.255
-460.070	634.798	-0.097	0.248
-459.055	288.730	0.043	0.079
-458.040	141.635	-0.100	0.135
-457.026	-67.369	-0.101	0.040
-456.011	-116.629	0.068	0.013
-454.997	635.222	0.119	-0.305
-453.982	-46.524	-0.215	-0.106
-452.968	-121.310	0.274	0.046
-451.953	800.000	0.096	-0.383
-450.938	124.389	0.121	-0.153
-449.924	590.367	0.115	-0.286
-448.909	-200.000	0.024	0.186
-447.895	-200.000	0.028	0.239
-446.880	595.082	-0.127	0.319
-445.865	-34.656	0.274	-0.151
-444.851	-200.000	-0.007	0.276
-443.836	-200.000	0.023	-0.167
-442.822	-13.138	-0.155	-0.102
-441.807	-111.413	0.046	0.009
-440.792	-200.000	0.022	-0.339
-439.778	181.021	0.080	0.118
-438.763	230.093	-0.010	0.017
-437.749	800.000	-0.024	0.073
-436.734	800.000	0.012	-0.045
-435.719	-52.758	0.248	0.116
-434.705	800.000	0.083	-0.283
-433.690	72.801	0.215	-0.227
-432.676	-200.000	-0.015	-0.116
-431.661	-168.254	0.308	-0.012
-430.646	788.173	0.037	0.101
-429.632	-7.775	0.277	-0.189
-428.617	15.487	-0.196	0.156
-427.603	-200.000	0.003	-0.034
-426.588	-200.000	0.064	0.338
-425.573	105.288	0.074	-0.088
-424.559	-85.195	0.479	-0.151
-423.544	360.767	-0.137	0.277
-422.530	-88.876	-0.122	-0.036
-421.515	22.405	0.039	-0.032
-420.500	-200.000	-0.046	0.243
-419.486	-33.773	-0.208	-0.116
-418.471	79.372	-0.143	0.155
-417.457	166.842	0.115	-0.165
-416.442	-154.784	0.250	-0.017
-415.428	-32.234	-0.107	-0.060
-414.413	-18.288	0.047	0.029
-413.398	-129.938	-0.194	0.027
-412.384	-19.360	-0.337	0.211
-411.369	88.416	-0.136	-0.152
-410.355	800.000	0.069	-0.201
-409.340	-134.156	-0.267	-0.033
-408.325	636.330	-0.028	0.071
-407.311	-200.000	-0.003	0.204
-406.296	800.000	0.012	0.036
-405.282	-173.541	-0.122	0.004
-404.267	-200.000	-0.015	0.228
-403.252	-81.063	-0.153	-0.051
-402.238	399.543	0.102	-0.215
-401.223	173.582	-0.075	0.110
-400.209	185.543	0.022	0.033
-399.194	-200.000	-0.013	0.071
-398.179	-24.241	0.201	0.121
-397.165	-3.503	0.203	0.142
-396.150	-33.468	-0.265	0.148
-395.136	-200.000	0.043	0.284
-394.121	296.902	0.032	-0.059
-393.106	10.900	-0.044	-0.034
-392.092	800.000	0.025	-0.108
-391.077	216.264	0.155	0.249
-390.063	-200.000	-0.062	0.284
-389.048	46.296	0.147	-0.137
-388.033	-200.000	0.053	-0.278
-387.019	-16.978	-0.255	-0.162
-386.004	-155.085	-0.238	-0.016
-384.990	76.791	-0.147	-0.158
-383.975	-92.666	0.384	-0.109
-382.960	51.541	0.026	0.025
-381.946	-159.554	0.286	-0.016
-380.931	-176.011	-0.556	-0.015
-379.917	-200.000	0.013	-0.156
-378.902	179.698	0.057	0.084
-377.888	27.903	0.184	-0.156
-376.873	-107.119	0.045	-0.010
-375.858	66.228	0.086	-0.088
-374.844	-37.370	-0.352	-0.190
-373.829	-179.377	-0.085	-0.002
-372.815	-122.650	0.235	0.038
-371.800	-96.406	0.056	0.015
-370.785	-61.806	0.115	-0.049
-369.771	-19.537	0.117	0.073
-368.756	-131.665	0.107	-0.014
-367.742	-200.000	-0.060	-0.291
-366.727	-200.000	0.038	0.285
-365.712	37.023	-0.323	0.288
-364.698	638.381	0.017	0.044
-363.683	-19.800	0.061	0.038
-362.669	93.882	0.055	0.063
-361.654	485.948	-0.106	-0.244
-360.639	-2.650	-0.328	-0.232
-359.625	94.627	-0.100	0.115
-358.610	113.310	0.192	-0.235
-357.596	-29.489	-0.054	0.031
-356.581	563.366	0.112	0.273
-355.566	587.161	0.086	0.214
-354.552	572.617	-0.048	-0.117
-353.537	9.380	-0.173	-0.132
-352.523	647.537	0.101	-0.260
-351.508	-200.000	0.031	-0.233
-350.493	-150.539	0.136	0.011
-349.479	538.671	0.039	-0.094
-348.464	-156.006	-0.139	0.009
-347.450	4.580	-0.247	-0.183
-346.435	-200.000	-0.057	0.274
-345.420	154.897	-0.109	-0.151
-344.406	-200.000	0.012	0.174
-343.391	-133.528	-0.143	0.018
-342.377	-112.834	0.074	0.015
-341.362	-80.301	0.065	-0.022
-340.348	-44.989	0.090	0.045
-339.333	227.848	0.082	-0.135
-338.318	29.354	-0.245	0.210
-337.304	-107.649	-0.161	0.036
-336.289	-148.603	0.129	-0.011
-335.275	800.000	-0.088	-0.342
-334.260	-42.632	-0.194	0.099
-333.245	109.765	-0.247	0.298
-332.231	-118.389	-0.440	0.079
-331.216	248.108	0.084	0.143
-330.202	800.000	0.115	0.399
-329.187	21.261	-0.184	-0.151
-328.172	72.745	0.214	-0.225
-327.158	-28.973	0.264	-0.153
-326.143	-200.000	-0.018	0.104
-325.129	-95.797	0.109	-0.029
-324.114	-200.000	-0.024	-0.420
-323.099	146.394	-0.154	0.209
-322.085	227.938	-0.139	0.227
-321.070	-36.191	0.135	-0.073
-320.056	-182.064	-0.087	-0.002
-319.041	249.165	-0.056	-0.096
-318.026	-27.953	-0.191	0.111
-317.012	198.292	0.087	0.135
-315.997	800.000	-0.051	0.219
-314.983	177.211	-0.065	0.096
-313.968	286.448	-0.039	-0.070
-312.953	-142.403	0.171	0.017
-311.939	-112.187	0.315	-0.064
-310.924	73.425	0.070	-0.073
-309.910	-69.836	0.345	0.132
-308.895	53.264	0.064	0.062
-307.880	-118.836	0.311	0.055
-306.866	152.958	0.250	-0.343
-305.851	483.529	-0.061	-0.139
-304.837	-200.000	-0.009	0.174
-303.822	92.772	0.040	-0.045
-302.807	-56.256	0.183	0.082
-301.793	237.974	0.008	0.013
-300.778	-115.782	-0.440	0.083
-299.764	-200.000	-0.019	-0.234
-298.749	-128.811	0.054	0.008
-297.735	-113.830	-0.172	0.034
-296.720	800.000	0.151	-0.540
-295.705	-200.000	-0.053	0.340
-294.691	-29.828	-0.112	0.064
-293.676	16.325	-0.233	-0.185
-292.662	-200.000	-0.066	-0.476
-291.647	-103.596	0.208	-0.049
-290.632	-78.863	-0.190	-0.065
-289.618	-66.750	0.346	0.137
-288.603	-200.000	-0.005	0.267
-287.589	-149.096	0.399	0.032
-286.574	800.000	-0.003	-0.009
-285.559	-92.852	0.100	0.028
-284.545	-200.000	0.005	-0.143
-283.530	159.345	-0.015	0.021
-282.516	-108.365	0.117	-0.025
-281.501	292.820	0.111	0.203
-280.486	-200.000	-0.037	0.204
-279.472	-200.000	-0.020	0.453
-278.457	152.590	0.085	0.117
-277.443	52.989	-0.158	0.152
-276.428	27.232	0.093	0.078
-275.413	528.258	0.116	-0.276
-274.399	800.000	0.055	0.162
-273.384	-200.000	-0.046	0.534
-272.370	15.536	0.234	-0.184
-271.355	800.000	0.147	0.471
-270.340	35.425	-0.042	-0.037
-269.326	388.335	-0.102	0.213
-268.311	-37.926	0.083	0.044
-267.297	146.895	0.079	-0.106
-266.282	-76.474	0.211	0.075
-265.267	800.000	0.135	0.409
-264.253	-196.212	0.315	-0.002
-263.238	186.932	-0.080	0.120
-262.224	-26.532	0.176	-0.104
-261.209	-200.000	0.033	-0.214
-260.195	12.178	0.147	-0.114
-259.180	-200.000	0.001	0.176
-258.165	-98.022	-0.102	0.026
-257.151	800.000	0.036	-0.121
-256.136	-185.484	0.313	0.005
-255.122	-141.924	0.055	0.005
-254.107	800.000	0.061	-0.192
-253.092	514.336	-0.041	0.096
-252.078	264.075	0.109	0.190
-251.063	-18.421	-0.060	-0.038
-250.049	4.777	-0.251	-0.185
-249.034	278.607	0.137	-0.245
-248.019	356.021	0.126	0.251
-247.005	82.486	0.174	0.190
-245.990	-55.792	-0.220	-0.098
-244.976	-60.024	-0.295	-0.126
-243.961	-83.889	0.247	0.079
-242.946	-108.103	0.236	-0.051
-241.932	201.189	-0.111	0.171
-240.917	800.000	-0.110	0.306
-239.903	57.913	-0.134	-0.132
-238.888	112.185	0.225	0.273
-237.873	-157.419	-0.247	0.015
-236.859	-200.000	-0.025	-0.272
-235.844	-200.000	0.006	-0.109
-234.830	413.911	0.162	0.346
-233.815	-50.116	0.256	0.122
-232.800	-41.435	-0.278	0.144
-231.786	-145.747	0.236	0.021
-230.771	-30.523	-0.269	0.153
-229.757	-200.000	-0.038	-0.187
-228.742	-60.990	-0.358	-0.152
-227.727	617.162	-0.081	0.205
-226.713	393.493	-0.058	0.121
-225.698	202.644	0.012	-0.019
-224.684	-9.360	0.230	0.154
-223.669	-200.000	-0.026	-0.278
-222.655	-200.000	-0.055	0.462
-221.640	-117.019	0.112	-0.020
-220.625	229.905	0.102	-0.167
-219.611	-200.000	0.026	-0.389
-218.596	93.751	0.220	0.249
-217.582	772.305	0.064	-0.174
-216.567	-88.199	0.125	0.037
-215.552	451.949	0.013	0.028
-214.538	800.000	0.094	0.312
-213.523	495.832	0.122	0.281
-212.509	-200.000	0.025	0.130
-211.494	118.996	-0.170	-0.211
-210.479	86.316	-0.159	-0.175
-209.465	455.154	0.150	0.333
-208.450	98.862	0.261	-0.302
-207.436	-139.119	0.129	-0.014
-206.421	800.000	-0.041	-0.173
-205.406	800.000	0.051	-0.217
-204.392	-200.000	0.055	-0.000
-203.377	-8.103	-0.163	0.110
-202.363	-51.408	0.214	0.100
-201.348	800.000	0.051	-0.186
-200.333	-200.000	-0.006	0.114
-199.319	-112.625	-0.230	-0.046
-198.304	-109.207	-0.279	0.059
-197.290	390.581	-0.122	0.254
-196.275	-66.168	-0.148	0.059
-195.260	-94.990	-0.132	0.036
-194.246	53.677	0.154	0.148
-193.231	-23.819	0.067	-0.040
-192.217	-93.874	0.363	0.100
-191.202	-56.558	-0.228	-0.101
-190.187	-200.000	-0.053	-0.309
-189.173	-200.000	-0.006	-0.114
-188.158	-200.000	0.020	0.190
-187.144	-57.674	-0.277	-0.122
-186.129	224.905	-0.115	-0.186
-185.114	-176.220	-0.149	0.004
-184.100	-113.736	-0.238	0.046
-183.085	49.582	0.070	-0.066
-182.071	-80.937	-0.148	-0.049
-181.056	20.898	-0.110	-0.089
-180.042	-28.556	0.168	-0.097
-179.027	505.230	0.037	0.086
-178.012	-200.000	-0.045	0.284
-176.998	148.813	0.016	0.021
-175.983	-200.000	-0.014	0.143
-174.969	170.773	-0.113	0.162
-173.954	-133.087	0.149	-0.019
-172.939	49.230	0.092	0.086
-171.925	-119.650	-0.297	0.051
-170.910	-200.000	0.015	0.324
-169.896	86.037	-0.188	-0.207
-168.881	536.116	0.083	-0.196
-167.866	-200.000	-0.021	0.098
-166.852	184.468	0.306	-0.453
-165.837	800.000	-0.064	-0.202
-164.823	106.883	-0.188	0.224
-163.808	20.012	0.151	-0.122
-162.793	-114.584	-0.222	0.043
-161.779	36.394	0.351	-0.310
-160.764	-121.295	-0.785	0.131
-159.750	3.972	0.372	-0.272
-158.735	-97.972	0.279	-0.072
-157.720	22.647	0.315	-0.258
-156.706	658.416	0.140	0.361
-155.691	-200.000	0.020	0.190
-154.677	529.172	0.128	0.301
-153.662	800.000	0.031	-0.094
-152.647	-200.000	-0.024	-0.117
-151.633	-200.000	0.038	-0.548
-150.618	-52.176	0.224	-0.104
-149.604	667.185	0.053	-0.137
-148.589	-68.716	0.324	0.125
-147.574	66.596	0.126	-0.128
-146.560	-200.000	0.022	-0.330
-145.545	-17.796	-0.179	-0.112
-144.531	410.353	0.145	-0.307
-143.516	-27.730	-0.144	-0.084
-142.502	1.554	-0.316	-0.228
-141.487	-133.033	-0.132	0.017
-140.472	-200.000	-0.007	0.368
-139.458	53.924	0.289	0.278
-138.443	-41.125	-0.166	0.086
-137.429	-200.000	-0.000	-0.170
-136.414	-141.264	-0.179	0.018
-135.399	800.000	-0.080	-0.236
-134.385	91.683	0.128	0.144
-133.370	345.184	-0.051	0.099
-132.356	-200.000	-0.024	0.150
-131.341	201.413	-0.155	0.238
-130.326	-132.731	-0.119	0.015
-129.312	-200.000	-0.007	-0.347
-128.297	-84.247	-0.139	0.044
-127.283	-200.000	-0.019	0.132
-126.268	-16.709	-0.057	-0.036
-125.253	62.207	-0.119	-0.118
-124.239	-102.129	0.081	0.019
-123.224	235.141	-0.063	-0.104
-122.210	-170.448	0.182	-0.006
