DTS Sentinel unit serial number:	SN413079Multiplexer serial number:	ORYXHardware model number:	OX4-SRSoftware version number:	ORYX F/W v4.00 Oryx Data Collector v3.7.2.0data status	okinstallation	princeton_trtdifferential loss correction	single-endedforward channel	channel 1reverse channel	N/Adate	2019/09/16time	19:46:35forward acquisition time	60.00reverse acquisition time	0.00gamma	496.2192k internal	0.2318k external	0.2318temperature offset calibration	0.9951default loss term (dB/km)	0.3790temperature slope calibration	1.0000multiplexer offset coefficient	1.0000multiplexer slope coefficient	1.0000fibre end	0.00T internal ref (°C)	33.87T ext. ref 1 (°C)	0.08T ext. ref 2 (°C)	26.88length (m)	temperature (°C)	Stokes	anti-Stokes-747.200	113.640	-0.313	0.385
-746.185	746.359	-0.151	0.412
-745.171	630.597	-0.090	0.230
-744.156	18.698	-0.147	-0.119
-743.142	77.682	0.141	0.152
-742.127	800.000	0.110	0.380
-741.112	800.000	-0.040	0.143
-740.098	-120.199	-0.213	0.037
-739.083	-102.952	-0.114	-0.027
-738.069	427.899	-0.126	0.276
-737.054	460.118	0.091	-0.206
-736.039	-115.153	-0.298	-0.057
-735.025	-42.317	0.440	0.227
-734.010	800.000	0.072	-0.257
-732.996	-200.000	-0.001	0.100
-731.981	-1.649	0.332	0.237
-730.966	4.216	-0.292	-0.216
-729.952	26.493	0.055	0.047
-728.937	-5.341	-0.321	-0.223
-727.923	-200.000	0.015	0.143
-726.908	-23.711	0.286	-0.173
-725.894	-16.005	-0.117	-0.075
-724.879	287.680	-0.216	0.395
-723.864	800.000	-0.078	0.220
-722.850	54.064	-0.188	-0.183
-721.835	-31.765	-0.249	-0.141
-720.821	86.320	-0.094	0.105
-719.806	-113.136	-0.134	-0.027
-718.791	-189.691	-0.157	-0.002
-717.777	-27.402	-0.380	0.223
-716.762	216.380	-0.202	0.325
-715.748	-37.361	-0.213	0.115
-714.733	138.633	-0.106	-0.141
-713.718	-67.021	0.375	0.150
-712.704	-195.039	-0.159	-0.001
-711.689	-179.130	-0.351	0.008
-710.675	-121.346	0.252	-0.042
-709.660	267.492	0.014	0.025
-708.645	-126.827	0.237	0.035
-707.631	56.893	-0.162	0.160
-706.616	98.314	-0.286	-0.333
-705.602	33.466	-0.157	0.138
-704.587	-71.967	0.062	-0.023
-703.572	800.000	0.073	-0.294
-702.558	-119.260	-0.319	-0.056
-701.543	456.440	0.103	0.231
-700.529	-200.000	-0.211	0.000
-699.514	150.645	-0.233	0.320
-698.499	-200.000	0.009	-0.134
-697.485	-200.000	0.052	-0.306
-696.470	99.080	0.186	-0.217
-695.456	-67.869	0.141	0.056
-694.441	130.042	-0.206	-0.267
-693.426	112.334	-0.232	-0.283
-692.412	293.603	-0.082	0.152
-691.397	-200.000	-0.004	-0.254
-690.383	82.917	0.146	-0.160
-689.368	-161.489	0.330	-0.017
-688.354	-130.887	0.229	0.031
-687.339	800.000	-0.105	-0.309
-686.324	-127.024	0.223	-0.033
-685.310	-179.214	-0.142	-0.003
-684.295	-89.084	-0.131	-0.039
-683.281	-165.238	0.481	0.021
-682.266	-92.952	0.262	0.074
-681.251	-200.000	-0.030	-0.220
-680.237	23.102	-0.165	-0.137
-679.222	-45.111	0.356	-0.179
-678.208	312.763	-0.078	0.148
-677.193	-200.000	-0.014	-0.105
-676.178	219.536	0.153	-0.248
-675.164	73.246	-0.238	0.251
-674.149	-23.897	-0.136	0.082
-673.135	800.000	0.040	0.121
-672.120	39.127	0.048	-0.043
-671.105	4.241	-0.024	0.018
-670.091	-200.000	0.020	-0.105
-669.076	614.519	-0.114	0.289
-668.062	-200.000	-0.006	-0.265
-667.047	-6.832	-0.051	0.035
-666.032	-103.919	0.266	-0.063
-665.018	800.000	0.039	0.173
-664.003	167.039	0.158	-0.226
-662.989	800.000	-0.013	0.047
-661.974	94.393	-0.256	-0.293
-660.959	109.432	-0.337	0.407
-659.945	-13.672	-0.243	-0.158
-658.930	-37.627	0.235	0.126
-657.916	-79.520	-0.199	-0.068
-656.901	-62.111	-0.214	0.090
-655.886	-200.000	-0.063	-0.336
-654.872	210.643	0.010	-0.016
-653.857	66.805	0.053	-0.054
-652.843	17.387	0.120	-0.096
-651.828	-200.000	0.049	-0.286
-650.814	1.640	-0.174	0.126
-649.799	134.625	0.193	-0.252
-648.784	-125.319	-0.057	-0.009
-647.770	800.000	-0.063	0.269
-646.755	-200.000	0.032	0.167
-645.741	800.000	-0.008	0.027
-644.726	800.000	-0.073	-0.231
-643.711	418.776	0.143	-0.309
-642.697	119.240	-0.163	-0.203
-641.682	6.261	-0.295	-0.220
-640.668	800.000	0.093	-0.394
-639.653	200.954	-0.098	0.152
-638.638	-104.206	-0.230	-0.054
-637.624	-200.000	0.027	-0.273
-636.609	476.180	-0.124	-0.281
-635.595	-94.961	0.028	0.008
-634.580	-200.000	0.006	0.144
-633.565	800.000	-0.094	-0.398
-632.551	-200.000	-0.011	-0.317
-631.536	23.426	0.148	-0.123
-630.522	132.608	-0.066	-0.086
-629.507	-86.066	-0.148	-0.046
-628.492	99.347	0.285	0.332
-627.478	-38.740	0.141	-0.075
-626.463	-63.951	0.220	-0.091
-625.449	-0.555	-0.158	0.113
-624.434	-5.065	0.239	-0.165
-623.419	800.000	0.042	0.149
-622.405	31.548	-0.315	0.273
-621.390	156.334	0.135	-0.187
-620.376	-99.334	0.198	0.050
-619.361	57.211	-0.084	-0.083
-618.346	184.084	0.045	0.067
-617.332	100.800	-0.236	-0.276
-616.317	-4.760	0.100	0.070
-615.303	136.844	-0.034	0.045
-614.288	-114.931	0.292	-0.056
-613.273	-132.358	-0.021	0.003
-612.259	220.221	-0.104	-0.167
-611.244	77.661	-0.024	0.025
-610.230	-59.974	0.242	0.104
-609.215	74.154	-0.110	-0.116
-608.201	-51.151	0.254	0.120
-607.186	-6.091	0.095	0.065
-606.171	-111.314	0.075	-0.015
-605.157	-83.095	0.257	0.083
-604.142	150.754	-0.233	-0.319
-603.128	-129.475	0.141	0.020
-602.113	329.760	-0.036	-0.069
-601.098	-75.632	-0.183	-0.065
-600.084	2.614	0.121	-0.088
-599.069	14.971	-0.129	-0.102
-598.055	-97.980	0.147	-0.038
-597.040	-90.848	-0.260	0.075
-596.025	800.000	-0.080	-0.233
-595.011	-1.573	-0.148	0.105
-593.996	-192.241	0.163	0.002
-592.982	16.824	0.055	-0.044
-591.967	500.878	-0.095	0.220
-590.952	-200.000	0.004	0.124
-589.938	-200.000	0.027	0.267
-588.923	-18.895	-0.261	-0.163
-587.909	-200.000	-0.005	-0.043
-586.894	174.616	0.099	-0.144
-585.879	800.000	0.073	0.258
-584.865	800.000	0.009	-0.035
-583.850	68.694	0.278	-0.287
-582.836	193.252	-0.137	-0.208
-581.821	-128.582	0.378	0.054
-580.806	-149.842	-0.360	-0.028
-579.792	-58.377	-0.124	-0.054
-578.777	407.964	0.069	-0.147
-577.763	-71.483	0.261	-0.098
-576.748	-200.000	-0.024	0.172
-575.733	12.499	-0.194	-0.151
-574.719	-112.975	-0.074	-0.015
-573.704	6.481	0.091	0.068
-572.690	-141.741	-0.218	-0.022
-571.675	-105.125	-0.076	0.017
-570.661	36.564	0.131	-0.116
-569.646	800.000	-0.034	0.128
-568.631	703.625	0.136	-0.360
-567.617	83.572	-0.242	-0.265
-566.602	42.101	0.072	-0.066
-565.588	-200.000	0.008	-0.117
-564.573	34.336	0.190	0.167
-563.558	800.000	0.078	-0.316
-562.544	23.507	0.130	-0.107
-561.529	-147.346	-0.326	-0.028
-560.515	-200.000	-0.002	0.327
-559.500	800.000	0.136	0.579
-558.485	-92.117	0.297	-0.084
-557.471	451.536	0.087	-0.193
-556.456	27.279	0.092	0.078
-555.442	800.000	0.058	0.175
-554.427	-200.000	0.046	-0.343
-553.412	-68.196	0.391	0.153
-552.398	113.198	-0.091	-0.111
-551.383	126.226	-0.127	-0.162
-550.369	-50.502	0.108	-0.051
-549.354	96.431	-0.058	0.066
-548.339	71.677	0.134	-0.140
-547.325	147.600	-0.048	-0.064
-546.310	-200.000	0.012	-0.061
-545.296	77.025	0.129	0.138
-544.281	84.198	0.081	0.089
-543.266	159.571	-0.102	0.142
-542.252	800.000	0.043	-0.148
-541.237	-42.230	-0.129	-0.066
-540.223	-82.044	-0.211	-0.069
-539.208	-19.084	-0.297	0.186
-538.193	-14.627	0.248	0.160
-537.179	508.632	-0.116	0.271
-536.164	-125.953	0.265	-0.040
-535.150	185.266	0.101	0.150
-534.135	-99.453	-0.108	0.027
-533.121	445.403	-0.040	0.087
-532.106	-54.603	-0.201	-0.091
-531.091	340.539	0.114	-0.224
-530.077	800.000	-0.066	0.252
-529.062	-63.924	-0.076	-0.031
-528.048	103.048	-0.253	-0.298
-527.033	800.000	0.047	0.191
-526.018	-109.218	-0.217	0.046
-525.004	-68.686	0.160	0.062
-523.989	133.172	0.201	0.261
-522.975	177.332	-0.118	0.173
-521.960	84.263	-0.229	-0.251
-520.945	-61.687	-0.159	0.067
-519.931	-200.000	-0.011	-0.183
-518.916	53.660	0.024	0.023
-517.902	31.956	-0.157	-0.136
-516.887	366.665	-0.130	-0.263
-515.872	497.839	0.013	0.030
-514.858	10.877	0.297	0.228
-513.843	142.235	-0.104	0.139
-512.829	273.338	0.338	-0.599
-511.814	-116.196	0.105	0.020
-510.799	196.359	-0.098	0.150
-509.785	-200.000	0.026	0.214
-508.770	28.283	0.027	-0.023
-507.756	-167.236	-0.407	-0.017
-506.741	341.782	0.077	-0.151
-505.726	-170.890	0.064	0.002
-504.712	-72.556	-0.285	0.105
-503.697	156.223	0.238	-0.329
-502.683	-200.000	0.040	-0.236
-501.668	175.621	-0.220	0.319
-500.653	-46.963	-0.240	0.117
-499.639	-200.000	-0.017	0.335
-498.624	90.597	0.127	-0.143
-497.610	26.481	-0.203	0.170
-496.595	48.455	-0.208	0.195
-495.581	-200.000	0.003	0.196
-494.566	-200.000	-0.008	0.202
-493.551	121.394	0.090	-0.112
-492.537	-10.592	0.203	0.135
-491.522	800.000	-0.090	0.287
-490.508	60.314	-0.205	0.203
-489.493	-200.000	-0.018	0.118
-488.478	462.534	-0.042	0.095
-487.464	800.000	0.129	0.491
-486.449	148.985	0.239	0.323
-485.435	639.079	0.178	-0.452
-484.420	-200.000	0.045	-0.237
-483.405	335.643	0.107	-0.208
-482.391	470.480	-0.178	0.401
-481.376	142.446	-0.120	0.160
-480.362	-90.636	-0.158	0.046
-479.347	-51.467	-0.099	-0.046
-478.332	-200.000	0.007	0.270
-477.318	79.732	0.222	0.239
-476.303	-79.222	-0.244	-0.083
-475.289	800.000	-0.065	0.243
-474.274	166.874	-0.174	-0.247
-473.259	63.032	0.356	-0.357
-472.245	-59.447	0.194	-0.084
-471.230	-36.886	0.109	-0.059
-470.216	-74.699	0.203	0.073
-469.201	-124.478	0.283	-0.044
-468.186	-200.000	0.006	-0.088
-467.172	800.000	-0.080	0.296
-466.157	-46.304	-0.192	-0.095
-465.143	126.049	-0.150	0.189
-464.128	-81.178	0.286	-0.095
-463.113	-87.267	0.274	-0.083
-462.099	-200.000	0.025	-0.151
-461.084	800.000	0.060	0.235
-460.070	-97.035	-0.175	-0.046
-459.055	-36.645	-0.276	-0.149
-458.040	-71.360	0.279	0.105
-457.026	-200.000	-0.017	0.204
-456.011	662.045	-0.111	0.285
-454.997	7.621	-0.167	0.125
-453.982	-44.173	0.459	-0.230
-452.968	134.025	0.147	0.190
-451.953	159.733	0.068	-0.095
-450.938	-200.000	-0.045	-0.204
-449.924	174.748	-0.037	0.054
-448.909	29.410	-0.035	-0.029
-447.895	-200.000	0.014	0.098
-446.880	-128.895	-0.105	-0.015
-445.865	281.622	-0.066	-0.118
-444.851	800.000	0.011	-0.043
-443.836	-200.000	-0.025	0.223
-442.822	800.000	0.074	0.324
-441.807	-200.000	-0.026	-0.183
-440.792	-110.654	-0.225	-0.046
-439.778	-79.515	0.153	-0.052
-438.763	800.000	-0.045	0.131
-437.749	285.235	-0.107	-0.193
-436.734	-200.000	0.011	0.287
-435.719	218.305	-0.158	0.252
-434.705	-99.017	0.108	0.027
-433.690	121.476	0.165	0.205
-432.676	800.000	0.075	0.244
-431.661	23.256	-0.057	-0.047
-430.646	128.549	0.152	-0.193
-429.632	72.307	0.050	-0.052
-428.617	800.000	-0.111	-0.322
-427.603	-200.000	0.306	-0.001
-426.588	-13.517	0.421	0.273
-425.573	800.000	-0.035	-0.106
-424.559	51.119	0.074	0.070
-423.544	506.753	0.052	0.121
-422.530	202.749	-0.153	-0.237
-421.515	263.703	0.127	-0.221
-420.500	25.631	-0.024	0.020
-419.486	282.332	-0.064	-0.114
-418.471	297.007	-0.039	0.071
-417.457	-112.888	-0.173	-0.034
-416.442	-71.853	0.092	0.034
-415.428	-31.054	-0.154	-0.087
-414.413	119.687	0.238	0.295
-413.398	0.362	-0.096	0.069
-412.384	-200.000	0.009	0.052
-411.369	-200.000	0.005	0.067
-410.355	-46.609	0.366	0.179
-409.340	-58.571	-0.243	0.105
-408.325	30.245	-0.038	0.032
-407.311	99.910	0.230	0.266
-406.296	201.984	-0.124	0.192
-405.282	-77.050	-0.243	-0.085
-404.267	381.690	0.067	0.138
-403.252	-182.470	-0.286	-0.005
-402.238	-93.824	0.078	0.021
-401.223	33.671	-0.108	0.094
-400.209	68.840	0.220	-0.226
-399.194	-80.161	0.502	-0.168
-398.179	-200.000	0.052	-0.526
-397.165	-65.092	-0.248	-0.100
-396.150	-7.588	-0.104	0.070
-395.136	14.541	-0.145	0.113
-394.121	-81.940	0.047	0.015
-393.106	-4.673	0.166	0.114
-392.092	49.057	-0.100	-0.093
-391.077	-73.443	-0.324	-0.118
-390.063	24.055	0.062	-0.051
-389.048	36.936	-0.073	0.065
-388.033	-6.000	-0.158	-0.108
-387.019	760.625	-0.065	-0.176
-386.004	-117.375	-0.222	0.040
-384.990	-54.789	0.032	-0.015
-383.975	-200.000	0.007	0.054
-382.960	-200.000	0.003	-0.084
-381.946	100.230	0.075	-0.087
-380.931	1.991	0.060	-0.044
-379.917	-112.534	-0.134	0.027
-378.902	-91.382	-0.113	0.032
-377.888	-200.000	-0.010	-0.276
-376.873	179.472	-0.159	-0.233
-375.858	45.849	-0.124	-0.115
-374.844	-107.360	-0.160	0.035
-373.829	-25.362	0.158	0.093
-372.815	-156.995	-0.210	-0.013
-371.800	-37.077	-0.271	-0.145
-370.785	-176.754	0.307	-0.008
-369.771	146.555	0.107	-0.143
-368.756	-200.000	0.012	0.104
-367.742	-147.136	-0.012	0.001
-366.727	-23.779	-0.096	0.057
-365.712	-31.115	-0.188	-0.106
-364.698	-88.784	0.221	-0.065
-363.683	704.721	-0.048	-0.127
-362.669	598.675	-0.138	-0.341
-361.654	-57.668	0.127	0.055
-360.639	-132.588	-0.266	0.034
-359.625	-25.892	0.306	-0.179
-358.610	-200.000	0.048	-0.303
-357.596	475.295	0.104	0.235
-356.581	800.000	-0.046	0.182
-355.566	-200.000	0.048	-0.335
-354.552	1.452	-0.072	0.051
-353.537	-22.903	-0.131	0.079
-352.523	167.773	0.091	-0.129
-351.508	169.192	0.161	0.229
-350.493	5.134	0.176	0.129
-349.479	800.000	0.036	0.126
-348.464	800.000	0.086	0.322
-347.450	-36.985	-0.217	0.116
-346.435	-59.927	0.299	0.127
-345.420	-75.530	-0.048	-0.017
-344.406	-0.166	0.272	-0.193
-343.391	756.573	0.089	0.240
-342.377	-50.716	-0.302	0.142
-341.362	772.990	0.116	-0.315
-340.348	570.894	0.065	-0.157
-339.333	14.581	0.107	0.083
-338.318	-149.796	-0.086	0.007
-337.304	732.734	-0.157	0.420
-336.289	5.677	-0.025	0.018
-335.275	17.982	-0.133	-0.106
-334.260	-23.348	0.133	-0.080
-333.245	-43.587	0.144	0.072
-332.231	-6.882	0.192	0.130
-331.216	-122.119	0.075	0.012
-330.202	-150.942	-0.208	-0.016
-329.187	76.651	0.106	0.112
-328.172	800.000	-0.016	0.046
-327.158	398.774	0.030	0.063
-326.143	-200.000	-0.039	-0.447
-325.129	62.970	-0.151	0.151
-324.114	640.076	-0.082	-0.208
-323.099	401.911	0.168	0.351
-322.085	-69.410	-0.262	-0.100
-321.070	-200.000	0.033	-0.147
-320.056	-164.458	0.224	0.010
-319.041	-123.976	0.346	0.054
-318.026	-115.387	-0.063	-0.012
-317.012	150.351	-0.192	-0.260
-315.997	205.237	0.128	0.198
-314.983	-6.437	0.175	0.119
-313.968	-200.000	0.014	0.136
-312.953	800.000	0.018	0.057
-311.939	-184.039	-0.076	0.001
-310.924	414.914	-0.095	-0.202
-309.910	800.000	0.050	-0.149
-308.895	-200.000	-0.056	-0.323
-307.880	-154.491	0.298	-0.020
-306.866	77.504	-0.206	0.218
-305.851	-28.935	0.269	0.153
-304.837	-157.445	-0.277	0.017
-303.822	-110.568	-0.288	-0.059
-302.807	-200.000	-0.076	-0.523
-301.793	120.293	0.159	0.197
-300.778	-38.635	-0.266	0.140
-299.764	41.789	-0.119	-0.107
-298.749	-59.241	-0.153	-0.065
-297.735	137.244	-0.112	-0.145
-296.720	-200.000	0.011	0.075
-295.705	107.388	0.110	0.130
-294.691	-200.000	0.028	-0.168
-293.676	-103.672	-0.093	-0.022
-292.662	-200.000	-0.068	0.455
-291.647	-200.000	0.037	-0.284
-290.632	-10.297	-0.236	0.156
-289.618	800.000	-0.055	0.218
-288.603	-138.567	-0.227	-0.025
-287.589	-95.676	-0.293	0.078
-286.574	311.088	-0.136	-0.254
-285.559	-105.241	-0.184	-0.042
-284.545	559.992	-0.065	0.157
-283.530	138.559	0.041	-0.054
-282.516	-200.000	0.033	-0.349
-281.501	-200.000	0.018	0.180
-280.486	-200.000	0.034	0.190
-279.472	-200.000	-0.007	-0.088
-278.457	-75.343	0.286	0.101
-277.443	-94.199	-0.203	0.055
-276.428	-200.000	-0.241	-0.001
-275.413	-200.000	0.013	0.229
-274.399	73.711	0.202	0.210
-273.384	-41.486	0.122	-0.063
-272.370	-81.106	-0.181	-0.059
-271.355	21.798	-0.254	-0.206
-270.340	610.955	0.059	-0.148
-269.326	800.000	0.029	0.112
-268.311	-147.168	0.317	-0.027
-267.297	-88.168	-0.026	0.008
-266.282	800.000	0.152	0.428
-265.267	-200.000	-0.078	0.440
-264.253	-200.000	-0.007	-0.042
-263.238	-85.961	-0.172	0.053
-262.224	7.146	-0.170	0.126
-261.209	-200.000	0.056	0.274
-260.195	664.126	0.039	0.099
-259.180	-70.742	0.226	-0.085
-258.165	-60.949	-0.198	0.083
-257.151	16.699	-0.347	0.272
-256.136	176.233	0.134	-0.193
-255.122	-11.360	-0.152	-0.100
-254.107	11.926	0.239	0.182
-253.092	-200.000	-0.325	-0.001
-252.078	87.970	-0.111	0.123
-251.063	41.680	0.199	0.179
-250.049	175.466	-0.137	-0.198
-249.034	103.302	0.182	-0.212
-248.019	-81.438	0.148	0.048
-247.005	-87.271	-0.068	0.020
-245.990	-150.923	-0.299	-0.022
-244.976	-34.821	0.170	-0.092
-243.961	-200.000	-0.018	-0.088
-242.946	-49.715	0.120	0.057
-241.932	318.747	-0.168	-0.317
-240.917	-39.704	-0.296	0.154
-239.903	-189.253	-0.060	0.001
-238.888	-60.294	-0.103	0.043
-237.873	-84.017	0.253	-0.080
-236.859	800.000	0.025	-0.091
-235.844	-32.989	-0.047	0.026
-234.830	-200.000	0.003	-0.289
-233.815	-200.000	0.062	-0.282
-232.800	280.589	0.059	0.104
-231.786	800.000	-0.059	0.210
-230.771	29.034	0.081	-0.068
-229.757	-7.424	-0.238	-0.160
-228.742	800.000	0.102	-0.296
-227.727	10.858	-0.069	-0.052
-226.713	800.000	0.063	-0.209
-225.698	-179.259	0.292	-0.006
-224.684	257.419	0.079	0.134
-223.669	-200.000	-0.023	-0.194
-222.655	270.626	-0.189	-0.330
-221.640	-133.515	0.246	0.031
-220.625	74.129	0.171	-0.178
-219.611	324.519	-0.097	0.184
-218.596	2.768	-0.259	0.186
-217.582	-77.943	0.124	0.042
-216.567	-45.171	-0.419	-0.206
-215.552	148.597	0.101	0.136
-214.538	-200.000	0.021	0.133
-213.523	-200.000	-0.013	0.103
-212.509	-200.000	0.003	0.144
-211.494	-200.000	-0.047	0.236
-210.479	-155.932	0.164	0.010
-209.465	-135.924	0.225	0.026
-208.450	67.171	0.200	-0.202
-207.436	-102.010	0.209	0.050
-206.421	375.929	-0.109	-0.220
-205.406	-200.000	0.009	0.105
-204.392	-54.814	-0.074	-0.033
-203.377	-200.000	-0.057	-0.407
-202.363	215.501	-0.125	0.196
-201.348	48.778	0.203	-0.188
-200.333	800.000	0.084	-0.304
-199.319	-200.000	0.015	-0.216
-198.304	-9.483	-0.090	0.059
-197.290	150.784	-0.150	0.202
-196.275	81.984	-0.183	0.196
-195.260	-59.759	0.294	-0.125
-194.246	21.091	0.190	-0.152
-193.231	-65.406	0.064	0.025
-192.217	550.389	-0.045	-0.108
-191.202	15.002	-0.193	-0.150
-190.187	116.021	-0.094	0.114
-189.173	-77.597	-0.087	0.030
-188.158	41.012	-0.165	0.148
-187.144	-200.000	0.013	-0.108
-186.129	22.196	-0.182	-0.147
-185.114	-81.669	-0.375	-0.122
-184.100	-200.000	-0.046	-0.230
-183.085	-95.025	0.229	-0.061
-182.071	-121.432	0.123	0.020
-181.056	270.202	0.056	0.097
-180.042	261.455	-0.106	-0.182
-179.027	133.389	-0.070	-0.090
-178.012	-200.000	0.001	-0.089
-176.998	117.785	0.112	-0.136
-175.983	-81.694	0.358	-0.116
-174.969	-200.000	-0.059	0.351
-173.954	574.952	0.183	0.441
-172.939	-133.715	0.166	-0.021
-171.925	46.704	0.273	0.251
-170.910	800.000	0.066	0.276
-169.896	-200.000	-0.031	-0.278
-168.881	-48.080	-0.124	0.059
-167.866	-24.320	0.361	0.213
-166.852	-82.774	0.201	0.064
-165.837	-200.000	0.005	0.357
-164.823	-30.335	0.190	0.107
-163.808	-50.508	-0.288	0.134
-162.793	5.161	-0.150	0.109
-161.779	26.795	-0.287	-0.238
-160.764	-200.000	0.032	0.207
-159.750	800.000	0.151	0.506
-158.735	-15.571	-0.080	-0.051
-157.720	-200.000	0.022	0.196
-156.706	-34.218	0.103	-0.056
-155.691	178.761	0.239	0.346
-154.677	-125.820	-0.356	0.053
-153.662	34.773	0.111	-0.096
-152.647	233.417	0.026	-0.043
-151.633	168.338	0.150	-0.211
-150.618	42.920	-0.164	-0.148
-149.604	-200.000	0.010	-0.156
-148.589	-102.836	0.232	-0.054
-147.574	-200.000	-0.016	0.266
-146.560	51.395	0.136	0.128
-145.545	-200.000	0.369	0.001
-144.531	800.000	-0.064	0.225
-143.516	-52.946	0.161	-0.073
-142.502	800.000	0.016	0.070
-141.487	800.000	0.029	-0.086
-140.472	-200.000	-0.021	-0.092
-139.458	-50.825	0.336	-0.156
-138.443	-200.000	-0.013	0.114
-137.429	800.000	-0.032	-0.092
-136.414	-67.055	-0.291	-0.113
-135.399	-103.264	0.170	0.040
-134.385	-38.127	0.177	-0.093
-133.370	-9.697	0.104	0.069
-132.356	800.000	0.123	-0.440
-131.341	578.773	-0.033	0.079
-130.326	800.000	0.097	0.302
-129.312	-192.928	0.208	-0.002
-128.297	800.000	0.075	0.227
-127.283	5.994	-0.257	0.188
-126.268	-68.318	-0.181	-0.069
-125.253	-158.065	-0.234	-0.014
-124.239	-53.076	-0.323	0.147
-123.224	-92.470	0.210	-0.058
-122.210	184.404	-0.237	0.346
-121.195	264.594	-0.033	-0.057
-120.180	336.242	0.097	-0.186
