DTS Sentinel unit serial number:	SN413079Multiplexer serial number:	ORYXHardware model number:	OX4-SRSoftware version number:	ORYX F/W v4.00 Oryx Data Collector v3.7.2.0data status	okinstallation	princeton_trtdifferential loss correction	single-endedforward channel	channel 1reverse channel	N/Adate	2019/09/12time	19:43:34forward acquisition time	15.00reverse acquisition time	0.00gamma	496.2192k internal	0.2322k external	0.2322temperature offset calibration	1.0134default loss term (dB/km)	0.3790temperature slope calibration	1.0000multiplexer offset coefficient	1.0000multiplexer slope coefficient	1.0000fibre end	0.00T internal ref (°C)	32.06T ext. ref 1 (°C)	3.40T ext. ref 2 (°C)	26.60length (m)	temperature (°C)	Stokes	anti-Stokes-747.200	63.660	-0.256	0.260
-746.185	-46.067	-0.293	0.146
-745.171	-155.320	0.067	-0.004
-744.156	-161.424	0.188	-0.010
-743.142	53.316	0.448	-0.433
-742.127	800.000	0.046	0.191
-741.112	-189.951	-0.403	0.005
-740.098	581.238	0.166	-0.411
-739.083	-200.000	0.181	0.806
-738.069	-89.463	-0.726	0.215
-737.054	-48.476	0.734	0.357
-736.039	-115.298	-0.632	0.121
-735.025	800.000	0.149	0.640
-734.010	-16.307	-0.220	-0.141
-732.996	800.000	-0.255	-0.719
-731.981	-20.213	-0.284	-0.177
-730.966	60.946	-0.398	-0.399
-729.952	40.443	-0.725	-0.659
-728.937	-30.558	0.667	0.382
-727.923	-19.601	-0.337	0.211
-726.908	-32.926	-0.450	0.252
-725.894	217.754	-0.155	0.250
-724.879	212.210	-0.041	0.065
-723.864	-62.854	-0.222	0.093
-722.850	-200.000	0.066	0.673
-721.835	-200.000	-0.013	0.286
-720.821	-80.822	-0.208	-0.070
-719.806	-200.000	0.081	0.491
-718.791	-200.000	0.109	0.603
-717.777	800.000	-0.134	0.384
-716.762	-200.000	-0.014	0.148
-715.748	193.569	-0.199	0.304
-714.733	749.398	-0.130	-0.353
-713.718	-200.000	0.012	-0.751
-712.704	214.837	-0.049	-0.078
-711.689	104.675	-0.372	0.442
-710.675	-200.000	0.043	0.214
-709.660	-94.210	0.096	0.027
-708.645	-188.957	0.849	-0.010
-707.631	800.000	-0.127	-0.355
-706.616	169.186	0.413	-0.594
-705.602	315.513	-0.395	0.751
-704.587	-85.840	-0.496	0.155
-703.572	-74.979	0.615	0.222
-702.558	800.000	0.085	-0.311
-701.543	-59.076	0.650	0.283
-700.529	543.526	0.168	0.404
-699.514	-55.098	0.188	-0.085
-698.499	-24.700	0.753	0.452
-697.485	-138.718	-0.098	-0.011
-696.470	222.015	0.313	0.508
-695.456	298.251	-0.284	-0.526
-694.441	-23.960	0.643	-0.388
-693.426	318.921	0.323	0.617
-692.412	-126.884	-0.505	0.075
-691.397	151.224	-0.104	0.142
-690.383	3.850	-0.424	0.312
-689.368	212.145	0.311	0.494
-688.354	800.000	-0.051	0.219
-687.339	-200.000	0.049	-0.449
-686.324	-142.498	0.814	-0.081
-685.310	49.497	0.482	-0.457
-684.295	110.182	0.316	0.383
-683.281	89.272	0.678	0.761
-682.266	19.573	-0.367	-0.298
-681.251	50.680	0.438	-0.418
-680.237	196.906	0.365	-0.560
-679.222	-166.678	0.442	0.018
-678.208	-200.000	0.039	0.325
-677.193	800.000	-0.299	0.857
-676.178	789.688	-0.093	0.257
-675.164	-153.872	0.783	0.054
-674.149	-55.275	0.165	0.075
-673.135	767.938	0.090	0.247
-672.120	-152.867	0.371	0.026
-671.105	-132.319	0.467	0.061
-670.091	800.000	-0.300	-0.880
-669.076	4.269	-0.227	-0.167
-668.062	452.722	0.149	0.333
-667.047	541.071	-0.079	-0.190
-666.032	115.327	-0.450	0.553
-665.018	800.000	0.159	0.551
-664.003	335.254	-0.124	-0.243
-662.989	60.823	0.251	-0.250
-661.974	-135.624	-0.354	0.042
-660.959	-94.535	-0.215	0.059
-659.945	126.488	0.295	-0.377
-658.930	800.000	0.275	-0.853
-657.916	-94.496	-0.797	0.219
-656.901	800.000	0.094	-0.267
-655.886	-200.000	0.062	-0.301
-654.872	-41.178	-0.276	0.144
-653.857	734.068	0.193	0.520
-652.843	39.746	0.697	0.629
-651.828	-10.061	-0.355	-0.238
-650.814	201.408	0.411	-0.636
-649.799	-200.000	-0.009	0.761
-648.784	486.976	-0.234	-0.538
-647.770	-200.000	0.057	-0.460
-646.755	-195.772	0.395	-0.003
-645.741	-57.233	-0.332	-0.147
-644.726	-124.153	-0.395	0.062
-643.711	164.432	0.180	0.255
-642.697	60.721	0.172	0.172
-641.682	-85.037	-0.411	-0.130
-640.668	217.979	0.493	-0.791
-639.653	491.295	-0.338	0.778
-638.638	-84.803	-0.441	-0.139
-637.624	-108.053	-0.130	0.028
-636.609	-4.368	0.106	-0.074
-635.595	78.461	-0.689	-0.740
-634.580	-82.665	-0.903	0.294
-633.565	234.747	-0.232	-0.384
-632.551	-85.978	0.540	-0.168
-631.536	-113.948	-0.772	-0.151
-630.522	800.000	0.127	0.358
-629.507	49.598	-0.487	0.462
-628.492	115.341	0.521	-0.640
-627.478	-34.563	0.474	-0.261
-626.463	-200.000	0.001	0.185
-625.449	81.969	-0.521	0.568
-624.434	302.721	0.262	0.487
-623.419	7.003	-0.404	-0.303
-622.405	-2.355	-0.625	-0.441
-621.390	28.397	0.337	-0.286
-620.376	-31.960	-0.505	-0.285
-619.361	-200.000	0.042	0.593
-618.346	-200.000	-0.081	0.521
-617.332	268.263	-0.192	-0.337
-616.317	16.858	-0.600	-0.477
-615.303	-62.260	-0.923	0.387
-614.288	-120.039	0.299	-0.051
-613.273	-200.000	0.026	0.809
-612.259	173.371	-0.170	0.246
-611.244	323.794	-0.313	0.600
-610.230	573.720	-0.245	-0.602
-609.215	313.610	-0.604	-1.141
-608.201	133.426	-0.245	0.318
-607.186	-12.981	0.394	-0.258
-606.171	-23.577	-0.464	-0.280
-605.157	352.105	-0.335	0.667
-604.142	-200.000	-0.088	0.407
-603.128	94.553	-0.472	-0.539
-602.113	-133.660	0.484	0.061
-601.098	-107.561	0.975	-0.214
-600.084	-33.306	-0.468	-0.260
-599.069	-24.961	0.654	-0.390
-598.055	-180.131	0.378	0.008
-597.040	448.725	-0.082	-0.182
-596.025	-200.000	-0.009	-0.178
-595.011	-110.189	-0.833	0.174
-593.996	183.600	-0.438	0.650
-592.982	169.854	0.479	0.688
-591.967	174.124	-0.553	-0.802
-590.952	800.000	-0.156	-0.667
-589.938	-28.606	0.483	-0.279
-588.923	-46.541	0.671	0.331
-587.909	-200.000	0.173	1.126
-586.894	-56.617	0.235	-0.104
-585.879	270.799	0.241	-0.426
-584.865	158.825	-0.440	-0.614
-583.850	225.320	0.153	0.249
-582.836	15.224	-0.425	0.335
-581.821	11.316	-0.164	0.126
-580.806	-53.960	0.305	-0.140
-579.792	800.000	0.138	-0.430
-578.777	18.769	-0.150	0.120
-577.763	-139.351	-0.359	0.039
-576.748	-24.406	-0.363	-0.217
-575.733	-107.580	-0.503	-0.111
-574.719	281.361	0.151	0.271
-573.704	384.090	0.113	-0.234
-572.690	-41.184	-0.523	0.271
-571.675	144.207	-0.264	-0.354
-570.661	-200.000	0.073	-0.493
-569.646	-200.000	-0.013	-0.276
-568.631	-70.168	-1.046	0.399
-567.617	574.059	0.120	0.294
-566.602	139.291	-0.240	-0.316
-565.588	-63.854	-0.834	-0.342
-564.573	-66.911	-0.876	-0.347
-563.558	-55.016	0.858	0.388
-562.544	-31.876	-0.229	-0.128
-561.529	481.920	0.179	-0.407
-560.515	-7.727	-1.047	-0.709
-559.500	-200.000	-0.035	0.262
-558.485	121.557	-0.479	0.598
-557.471	-168.103	-0.467	0.018
-556.456	-200.000	0.032	0.352
-555.442	118.807	-0.430	-0.532
-554.427	-200.000	0.137	0.784
-553.412	238.196	-0.116	-0.193
-552.398	-5.356	0.632	0.436
-551.383	-200.000	-0.097	-0.827
-550.369	-184.396	1.054	0.017
-549.354	674.040	0.256	-0.665
-548.339	9.726	0.323	-0.246
-547.325	12.336	-0.379	-0.293
-546.310	49.506	-0.081	-0.076
-545.296	463.852	-0.178	-0.400
-544.281	-200.000	0.054	-0.702
-543.266	-21.415	0.526	0.322
-542.252	-200.000	-0.118	0.551
-541.237	-91.394	-0.797	-0.228
-540.223	-200.000	0.066	-0.511
-539.208	-76.272	-0.459	0.162
-538.193	800.000	0.121	0.345
-537.179	-153.276	0.330	-0.023
-536.164	-19.885	-0.611	0.378
-535.150	12.356	0.438	-0.338
-534.135	-79.082	0.634	-0.216
-533.121	-24.268	-0.463	-0.277
-532.106	-55.841	-0.207	0.093
-531.091	51.304	0.388	0.369
-530.077	-132.601	-0.285	0.037
-529.062	-200.000	-0.005	-0.407
-528.048	-200.000	-0.146	-0.748
-527.033	664.447	0.381	-0.985
-526.018	-120.001	-0.588	0.101
-525.004	26.434	-0.630	0.528
-523.989	39.671	0.253	0.227
-522.975	-107.006	-0.369	0.082
-521.960	-200.000	0.071	0.411
-520.945	-93.991	0.387	-0.106
-519.931	-200.000	-0.066	-0.501
-518.916	800.000	-0.162	-0.610
-517.902	-154.828	-0.524	-0.035
-516.887	-96.561	0.378	0.100
-515.872	252.791	-0.358	0.612
-514.858	73.547	0.500	0.524
-513.843	21.249	0.556	-0.452
-512.829	-172.885	0.269	-0.008
-511.814	-200.000	0.006	-0.149
-510.799	90.218	0.237	-0.265
-509.785	528.559	-0.078	0.185
-508.770	54.436	0.251	0.242
-507.756	-200.000	-0.026	0.198
-506.741	-175.742	0.879	-0.024
-505.726	127.626	0.092	0.117
-504.712	-200.000	-0.014	0.096
-503.697	81.005	0.192	-0.207
-502.683	250.085	0.217	-0.368
-501.668	64.142	0.401	-0.404
-500.653	513.754	0.057	0.133
-499.639	300.020	0.303	0.558
-498.624	-99.774	-0.396	0.099
-497.610	-200.000	0.156	-0.001
-496.595	70.627	0.310	0.321
-495.581	-176.777	0.164	-0.004
-494.566	21.145	-0.523	0.425
-493.551	-200.000	0.105	-0.774
-492.537	-32.478	0.213	-0.119
-491.522	-102.689	-0.611	-0.146
-490.508	-28.980	-0.614	0.353
-489.493	160.008	0.132	-0.185
-488.478	-11.249	0.421	-0.277
-487.464	65.492	-0.515	-0.521
-486.449	320.788	-0.297	0.564
-485.435	-65.433	-0.300	0.121
-484.420	-2.613	-0.213	-0.149
-483.405	-118.880	-0.348	0.061
-482.391	326.977	0.090	0.172
-481.376	-31.290	-0.699	0.393
-480.362	-76.331	-0.156	-0.055
-479.347	-105.178	0.724	-0.165
-478.332	142.572	-0.778	1.033
-477.318	419.501	-0.103	0.221
-476.303	800.000	0.108	0.305
-475.289	-200.000	-0.048	-0.332
-474.274	-118.274	-0.281	0.050
-473.259	82.336	-0.242	-0.263
-472.245	456.768	-0.164	-0.363
-471.230	-74.030	0.854	0.309
-470.216	-120.647	0.328	0.056
-469.201	476.414	-0.158	0.356
-468.186	458.268	0.118	-0.262
-467.172	-35.844	-0.602	0.326
-466.157	-156.247	0.462	0.029
-465.143	-113.616	0.290	0.057
-464.128	565.407	0.284	0.687
-463.113	-113.549	0.615	0.120
-462.099	-10.542	0.347	0.229
-461.084	-28.220	-0.778	0.449
-460.070	-137.642	-0.534	0.060
-459.055	-147.379	-0.319	0.027
-458.040	-200.000	0.026	-0.291
-457.026	-157.741	0.767	-0.046
-456.011	-200.000	-0.008	-0.283
-454.997	-200.000	0.148	-0.757
-453.982	124.343	-0.299	0.375
-452.968	15.704	-0.353	0.277
-451.953	39.129	0.417	0.372
-450.938	-200.000	-0.065	-0.698
-449.924	800.000	-0.139	0.460
-448.909	15.796	0.318	0.250
-447.895	64.076	0.047	-0.047
-446.880	296.439	0.035	-0.064
-445.865	-200.000	0.096	0.561
-444.851	-84.524	0.778	-0.245
-443.836	-24.336	-0.571	0.340
-442.822	-29.494	0.697	0.398
-441.807	800.000	0.161	0.703
-440.792	800.000	0.168	0.480
-439.778	-31.801	-0.852	0.477
-438.763	223.318	-0.209	0.337
-437.749	-156.470	0.344	0.021
-436.734	-200.000	-0.059	0.431
-435.719	97.403	0.440	-0.504
-434.705	-75.200	-0.205	0.073
-433.690	136.532	-0.414	0.539
-432.676	-70.589	0.269	0.102
-431.661	-54.592	0.283	0.128
-430.646	-57.637	-0.856	0.374
-429.632	5.350	-0.324	0.238
-428.617	-200.000	-0.088	0.603
-427.603	447.976	-0.493	1.083
-426.588	-200.000	0.039	0.268
-425.573	61.740	0.513	-0.509
-424.559	24.381	-0.431	0.355
-423.544	720.059	0.245	-0.651
-422.530	800.000	0.131	-0.542
-421.515	-72.031	-0.247	-0.092
-420.500	-2.393	-0.208	-0.145
-419.486	-78.302	-0.360	0.123
-418.471	-200.000	-0.047	-0.583
-417.457	-200.000	0.096	0.681
-416.442	-200.000	0.005	0.114
-415.428	-200.000	0.076	-0.727
-414.413	-200.000	-0.004	-0.161
-413.398	-120.988	1.155	0.194
-412.384	6.744	0.555	-0.412
-411.369	494.138	-0.122	-0.279
-410.355	800.000	0.215	0.939
-409.340	-16.192	-0.484	0.307
-408.325	103.774	-0.633	0.742
-407.311	800.000	-0.249	-0.958
-406.296	133.694	0.229	-0.295
-405.282	55.546	-0.352	0.340
-404.267	-110.378	0.542	0.112
-403.252	17.279	-0.483	-0.382
-402.238	-86.954	-0.129	0.039
-401.223	-51.689	-0.639	-0.297
-400.209	-147.253	-0.817	-0.069
-399.194	197.780	0.476	-0.724
-398.179	-25.906	-0.685	-0.402
-397.165	800.000	-0.080	-0.228
-396.150	-94.218	-0.713	0.195
-395.136	-200.000	0.001	0.483
-394.121	-116.175	-0.324	0.060
-393.106	587.585	-0.115	-0.282
-392.092	-184.690	-0.212	-0.003
-391.077	-84.894	-0.177	0.055
-390.063	92.856	0.557	-0.626
-389.048	26.022	-0.405	-0.336
-388.033	-97.650	0.184	-0.048
-387.019	-60.883	0.443	0.187
-386.004	47.629	-0.295	-0.274
-384.990	-200.000	-0.063	0.788
-383.975	444.585	-0.245	0.535
-382.960	790.488	-0.081	-0.221
-381.946	19.267	-0.643	-0.514
-380.931	170.201	0.159	0.227
-379.917	800.000	-0.283	0.879
-378.902	-104.225	-0.098	0.023
-377.888	35.453	-0.491	-0.429
-376.873	237.028	0.631	-1.041
-375.858	-200.000	0.072	0.708
-374.844	-100.084	-0.442	-0.110
-373.829	120.216	0.394	-0.487
-372.815	-0.935	0.588	-0.414
-371.800	800.000	-0.295	-0.840
-370.785	-2.321	0.686	0.479
-369.771	13.677	-0.308	-0.238
-368.756	-3.481	-0.680	-0.471
-367.742	-171.820	0.490	-0.016
-366.727	282.988	-0.305	0.546
-365.712	-158.147	0.826	0.048
-364.698	-200.000	0.211	1.071
-363.683	-200.000	0.038	0.395
-362.669	186.373	-0.319	0.472
-361.654	7.133	0.232	-0.172
-360.639	-15.599	0.176	0.112
-359.625	130.606	0.449	0.573
-358.610	95.631	0.425	-0.483
-357.596	95.388	0.448	0.509
-356.581	-200.000	-0.026	-0.222
-355.566	48.645	0.334	-0.312
-354.552	-173.461	0.256	-0.008
-353.537	-48.551	0.761	-0.364
-352.523	127.068	-0.319	0.402
-351.508	46.080	-0.635	-0.585
-350.493	-104.140	0.890	-0.206
-349.479	-86.404	-0.342	0.104
-348.464	-113.175	0.670	0.131
-347.450	-70.835	0.231	-0.087
-346.435	800.000	0.121	-0.518
-345.420	800.000	-0.193	-0.600
-344.406	-68.598	-0.953	-0.367
-343.391	-200.000	0.055	-0.683
-342.377	-109.599	-0.445	-0.093
-341.362	-109.557	0.366	-0.077
-340.348	205.154	-0.343	-0.530
-339.333	65.011	0.382	-0.384
-338.318	800.000	0.042	-0.166
-337.304	-88.080	0.504	0.150
-336.289	77.585	-0.778	-0.823
-335.275	111.912	-0.321	0.386
-334.260	-200.000	-0.121	-1.173
-333.245	456.007	0.226	0.499
-332.231	16.081	-0.452	0.354
-331.216	-76.429	-0.707	0.247
-330.202	800.000	0.130	0.420
-329.187	82.378	0.334	-0.360
-328.172	800.000	-0.096	-0.301
-327.158	800.000	0.094	-0.393
-326.143	352.057	0.183	0.361
-325.129	-77.156	-0.110	0.038
-324.114	297.733	-0.263	-0.480
-323.099	-200.000	0.047	-1.114
-322.085	-79.733	0.859	-0.288
-321.070	379.790	0.140	0.286
-320.056	-38.661	-0.403	0.212
-319.041	800.000	0.176	-0.502
-318.026	628.299	0.341	0.855
-317.012	189.823	0.177	0.264
-315.997	-94.375	0.614	0.167
-314.983	-200.000	0.053	-0.388
-313.968	495.183	0.185	0.422
-312.953	-93.871	0.062	0.017
-311.939	-200.000	-0.109	-0.691
-310.924	99.232	-0.377	0.433
-309.910	-74.031	0.400	-0.144
-308.895	800.000	0.128	-0.450
-307.880	-137.155	0.045	-0.005
-306.866	-151.765	1.101	0.080
-305.851	255.849	0.082	-0.139
-304.837	60.954	0.431	0.424
-303.822	-70.719	0.635	-0.238
-302.807	210.741	0.388	-0.605
-301.793	32.560	0.019	0.016
-300.778	-200.000	-0.053	0.947
-299.764	-100.818	0.760	0.186
-298.749	-49.574	-0.570	-0.270
-297.735	718.593	0.133	-0.350
-296.720	384.874	0.229	0.469
-295.705	800.000	0.204	0.686
-294.691	571.093	0.319	0.771
-293.676	-93.636	-0.369	0.101
-292.662	287.288	0.521	0.934
-291.647	-118.449	-1.310	0.230
-290.632	-133.119	0.075	-0.009
-289.618	93.857	0.339	-0.381
-288.603	-95.293	0.414	0.111
-287.589	-200.000	-0.050	0.253
-286.574	184.091	-0.688	-1.011
-285.559	-120.256	-0.580	0.098
-284.545	477.026	0.234	0.525
-283.530	114.843	0.435	-0.526
-282.516	462.973	0.256	-0.566
-281.501	-38.487	0.336	-0.176
-280.486	-136.180	0.511	-0.059
-279.472	-200.000	0.029	0.292
-278.457	190.902	-0.411	0.613
-277.443	-4.551	0.373	-0.256
-276.428	497.218	0.166	0.379
-275.413	-39.813	0.340	-0.176
-274.399	127.920	-0.471	-0.595
-273.384	800.000	0.160	0.545
-272.370	-163.363	-0.830	0.039
-271.355	-125.316	-0.702	0.106
-270.340	-145.466	-0.306	0.027
-269.326	-99.940	-0.430	0.106
-268.311	105.685	0.224	-0.263
-267.297	33.871	0.763	-0.659
-266.282	-162.971	0.495	0.024
-265.267	-200.000	-0.079	0.508
-264.253	800.000	0.155	0.476
-263.238	-200.000	0.043	-0.452
-262.224	318.325	0.212	0.398
-261.209	-148.431	-0.542	-0.044
-260.195	-61.071	1.114	0.466
-259.180	162.853	0.389	0.541
-258.165	800.000	-0.128	-0.407
-257.151	-67.485	-0.576	-0.224
-256.136	800.000	0.099	0.370
-255.122	749.623	-0.195	0.521
-254.107	-200.000	0.016	0.716
-253.092	-62.635	0.398	0.164
-252.078	264.974	-0.200	-0.346
-251.063	-156.381	-0.064	0.004
-250.049	-200.000	0.086	0.762
-249.034	-200.000	0.246	1.220
-248.019	-84.262	0.295	0.093
-247.005	-107.434	-0.349	-0.076
-245.990	119.010	0.259	-0.317
-244.976	-200.000	-0.005	-0.773
-243.961	-200.000	-0.067	-0.596
-242.946	357.959	-0.417	-0.824
-241.932	-136.940	0.221	-0.025
-240.917	325.897	0.103	-0.195
-239.903	190.084	0.084	-0.125
-238.888	116.949	-0.256	-0.312
-237.873	-94.799	0.544	0.146
-236.859	-200.000	-0.084	0.438
-235.844	-0.170	-0.647	-0.456
-234.830	264.713	-0.348	-0.600
-233.815	-147.993	0.532	-0.044
-232.800	731.057	0.145	0.383
-231.786	781.435	0.066	-0.179
-230.771	232.440	-0.125	0.204
-229.757	59.135	-0.539	0.526
-228.742	-97.091	0.796	-0.206
-227.727	-200.000	0.055	0.589
-226.713	95.940	0.440	0.498
-225.698	-200.000	-0.040	0.209
-224.684	-32.648	0.286	0.157
-223.669	121.551	0.532	-0.656
-222.655	300.851	-0.201	-0.368
-221.640	706.760	0.090	-0.235
-220.625	-70.186	-0.189	-0.071
-219.611	-200.000	0.078	-0.803
-218.596	-99.648	-0.463	-0.115
-217.582	291.324	-0.018	0.032
-216.567	-55.679	0.368	-0.163
-215.552	48.755	0.366	0.340
-214.538	-200.000	0.037	0.186
-213.523	-134.763	0.906	0.109
-212.509	-137.620	0.946	-0.105
-211.494	-200.000	-0.014	-0.291
-210.479	43.064	-0.500	-0.451
-209.465	599.633	-0.190	0.467
-208.450	24.183	-0.184	-0.151
-207.436	-60.462	0.480	0.202
-206.421	104.319	0.407	0.474
-205.406	-200.000	0.006	0.346
-204.392	-29.080	0.297	-0.168
-203.377	63.270	-0.375	-0.372
-202.363	-155.119	0.696	0.045
-201.348	39.423	-0.081	0.072
-200.333	800.000	0.234	1.007
-199.319	-92.547	0.915	0.254
-198.304	0.136	0.322	0.227
-197.290	-200.000	-0.038	-0.361
-196.275	-87.549	-0.043	0.013
-195.260	21.450	0.414	0.333
-194.246	-63.031	-0.414	0.169
-193.231	-53.960	-0.247	0.111
-192.217	-137.003	-0.519	0.059
-191.202	246.188	-0.188	-0.313
-190.187	10.866	0.134	-0.101
-189.173	-128.461	-0.253	0.035
-188.158	800.000	0.141	0.401
-187.144	14.033	0.580	0.446
-186.129	-26.809	-0.616	0.356
-185.114	800.000	0.190	0.574
-184.100	303.097	0.209	-0.383
-183.085	74.386	-0.188	-0.195
-182.071	-123.430	0.216	0.034
-181.056	-129.541	0.456	-0.062
-180.042	-177.063	0.211	0.005
-179.027	-200.000	-0.036	-0.334
-178.012	83.277	-0.248	0.267
-176.998	270.867	-0.218	-0.379
-175.983	113.379	0.576	-0.690
-174.969	800.000	-0.158	-0.434
-173.954	-200.000	0.062	0.664
-172.939	67.382	0.188	0.190
-171.925	46.993	0.453	-0.416
-170.910	-190.847	0.713	-0.007
-169.896	-28.605	0.395	-0.224
-168.881	-72.680	-0.175	0.064
-167.866	641.091	0.364	0.915
-166.852	-38.841	0.455	-0.237
-165.837	-49.066	-0.690	-0.326
-164.823	800.000	-0.250	-1.052
-163.808	-64.876	0.144	0.058
-162.793	-121.800	-0.097	-0.016
-161.779	-141.643	0.775	-0.077
-160.764	800.000	0.045	-0.194
-159.750	61.853	-0.589	0.579
-158.735	77.989	0.034	-0.035
-157.720	-12.313	0.730	0.471
-156.706	77.278	0.234	-0.246
-155.691	-200.000	-0.090	0.786
-154.677	-171.890	-0.979	0.032
-153.662	-76.779	-0.220	0.076
-152.647	-0.412	0.142	-0.099
-151.633	-30.837	-0.292	0.163
-150.618	143.196	0.512	0.673
-149.604	10.992	0.445	-0.336
-148.589	-183.174	-0.452	-0.008
-147.574	-146.390	-0.448	-0.039
-146.560	-15.132	-0.076	-0.048
-145.545	331.861	-0.225	0.428
-144.531	38.090	-0.079	-0.069
-143.516	692.475	-0.197	0.510
-142.502	103.273	-0.717	-0.829
-141.487	-200.000	0.016	-0.344
-140.472	44.754	0.870	-0.790
-139.458	-102.114	-1.203	0.286
-138.443	-43.065	-0.505	-0.253
-137.429	-27.142	0.614	-0.353
-136.414	758.973	0.147	0.392
-135.399	589.426	-0.333	-0.811
-134.385	-77.488	0.203	-0.070
-133.370	-92.340	-0.841	-0.234
-132.356	-156.180	-0.288	-0.018
-131.341	-110.602	0.048	-0.010
-130.326	-27.135	-0.960	-0.552
-129.312	800.000	-0.088	-0.323
-128.297	712.416	-0.195	0.508
-127.283	-158.831	-0.491	-0.028
-126.268	-78.889	0.517	0.174
-125.253	-145.559	1.118	0.099
-124.239	-200.000	0.028	0.246
-123.224	-15.723	0.415	0.261
-122.210	100.489	-0.490	0.561
-121.195	-1.014	-0.339	0.237
