DTS Sentinel unit serial number:	SN413079Multiplexer serial number:	ORYXHardware model number:	OX4-SRSoftware version number:	ORYX F/W v4.00 Oryx Data Collector v3.7.2.0data status	okinstallation	princeton_trtdifferential loss correction	single-endedforward channel	channel 1reverse channel	N/Adate	2019/09/16time	19:10:35forward acquisition time	60.00reverse acquisition time	0.00gamma	496.2192k internal	0.2313k external	0.2313temperature offset calibration	0.9951default loss term (dB/km)	0.3790temperature slope calibration	1.0000multiplexer offset coefficient	1.0000multiplexer slope coefficient	1.0000fibre end	0.00T internal ref (°C)	35.20T ext. ref 1 (°C)	0.08T ext. ref 2 (°C)	28.34length (m)	temperature (°C)	Stokes	anti-Stokes-747.200	-40.960	-0.248	0.130
-746.185	-17.422	0.092	-0.059
-745.171	-19.983	0.151	-0.095
-744.156	252.539	0.029	-0.050
-743.142	-19.568	-0.364	0.229
-742.127	800.000	-0.128	0.386
-741.112	-45.258	0.079	-0.040
-740.098	113.190	0.072	-0.089
-739.083	800.000	-0.031	-0.133
-738.069	108.635	0.165	-0.200
-737.054	-200.000	0.032	0.177
-736.039	-183.732	-0.258	0.004
-735.025	-89.734	0.550	0.163
-734.010	-200.000	0.008	-0.083
-732.996	-200.000	-0.004	-0.364
-731.981	-200.000	-0.045	-0.366
-730.966	527.418	0.122	-0.292
-729.952	-63.013	-0.107	-0.045
-728.937	68.582	-0.377	-0.392
-727.923	6.356	-0.072	0.054
-726.908	-105.647	0.440	0.101
-725.894	-200.000	0.064	-0.329
-724.879	-28.479	-0.249	0.145
-723.864	5.829	-0.124	-0.093
-722.850	10.703	-0.307	-0.237
-721.835	60.517	0.170	0.171
-720.821	-20.263	-0.194	-0.121
-719.806	67.330	0.023	0.024
-718.791	-200.000	-0.017	0.354
-717.777	210.225	-0.079	0.125
-716.762	800.000	0.021	0.058
-715.748	61.604	0.430	-0.433
-714.733	800.000	-0.066	-0.262
-713.718	-200.000	0.031	-0.208
-712.704	-200.000	-0.022	0.462
-711.689	57.108	-0.128	0.127
-710.675	94.101	0.180	0.207
-709.660	800.000	-0.058	-0.175
-708.645	800.000	0.085	0.266
-707.631	-200.000	0.022	-0.296
-706.616	-22.320	-0.293	-0.180
-705.602	-200.000	-0.002	0.196
-704.587	-12.027	0.107	0.071
-703.572	-37.210	-0.237	-0.129
-702.558	-121.064	-0.179	-0.030
-701.543	-200.000	-0.060	-0.300
-700.529	165.850	0.059	-0.085
-699.514	-27.978	-0.343	-0.201
-698.499	-127.503	0.151	-0.022
-697.485	-108.442	-0.019	-0.004
-696.470	800.000	-0.087	-0.250
-695.456	208.476	0.123	0.194
-694.441	194.337	-0.312	0.479
-693.426	-149.742	0.160	-0.013
-692.412	-200.000	0.020	-0.308
-691.397	-133.253	0.074	-0.009
-690.383	38.648	-0.397	0.359
-689.368	-21.267	-0.077	-0.047
-688.354	51.114	0.148	-0.142
-687.339	-200.000	0.019	0.101
-686.324	-200.000	0.029	0.191
-685.310	137.816	-0.042	-0.055
-684.295	41.765	-0.112	-0.103
-683.281	284.403	-0.013	0.024
-682.266	-25.909	-0.060	-0.036
-681.251	159.337	0.235	0.331
-680.237	800.000	0.024	-0.074
-679.222	-200.000	-0.023	-0.104
-678.208	507.420	-0.074	-0.173
-677.193	-57.991	0.289	-0.127
-676.178	489.038	-0.114	-0.264
-675.164	-0.414	0.117	-0.084
-674.149	-162.980	0.084	-0.004
-673.135	57.559	-0.317	-0.314
-672.120	71.455	-0.159	0.167
-671.105	-99.710	-0.464	0.118
-670.091	175.184	-0.100	0.147
-669.076	737.662	-0.084	-0.228
-668.062	-155.895	-0.104	0.007
-667.047	800.000	-0.007	0.023
-666.032	800.000	-0.055	-0.242
-665.018	270.911	0.173	-0.308
-664.003	-200.000	-0.063	-0.340
-662.989	800.000	-0.042	-0.177
-661.974	-79.522	0.144	0.049
-660.959	82.741	-0.289	-0.318
-659.945	-1.930	-0.054	-0.039
-658.930	-200.000	0.045	-0.252
-657.916	-19.740	0.132	-0.083
-656.901	286.474	0.169	-0.309
-655.886	-6.213	-0.267	-0.184
-654.872	800.000	-0.049	-0.215
-653.857	800.000	0.021	-0.079
-652.843	800.000	-0.108	-0.414
-651.828	-76.841	-0.132	-0.047
-650.814	-154.709	-0.086	0.006
-649.799	103.655	0.051	-0.061
-648.784	530.517	-0.097	0.231
-647.770	-26.051	-0.038	0.022
-646.755	459.184	0.134	-0.301
-645.741	-200.000	0.066	-0.378
-644.726	-154.650	0.368	-0.025
-643.711	138.449	-0.027	0.035
-642.697	-107.958	0.251	0.055
-641.682	72.877	-0.224	-0.236
-640.668	16.182	-0.290	-0.231
-639.653	-200.000	0.032	0.221
-638.638	-93.148	0.227	-0.064
-637.624	-171.764	0.053	-0.002
-636.609	361.086	0.071	-0.144
-635.595	-74.779	-0.212	0.077
-634.580	-56.011	0.227	-0.102
-633.565	-200.000	0.004	0.035
-632.551	-10.920	-0.041	-0.027
-631.536	800.000	0.090	0.311
-630.522	-200.000	0.013	0.299
-629.507	-200.000	-0.056	-0.326
-628.492	-5.416	-0.147	0.102
-627.478	7.277	0.048	-0.036
-626.463	33.903	0.260	0.228
-625.449	800.000	-0.028	-0.081
-624.434	66.842	-0.263	-0.270
-623.419	-200.000	0.027	0.171
-622.405	-141.449	-0.234	0.024
-621.390	-64.641	0.153	0.062
-620.376	-14.303	0.190	-0.124
-619.361	231.548	0.082	0.135
-618.346	-108.562	0.107	0.023
-617.332	-1.985	-0.204	0.145
-616.317	-200.000	-0.040	0.309
-615.303	315.169	0.044	0.084
-614.288	800.000	0.100	-0.437
-613.273	-200.000	0.029	-0.167
-612.259	-40.439	0.047	-0.024
-611.244	-76.582	-0.069	-0.024
-610.230	800.000	-0.036	-0.127
-609.215	135.112	0.104	-0.136
-608.201	652.492	0.031	-0.081
-607.186	63.817	0.219	0.222
-606.171	-200.000	0.058	0.336
-605.157	800.000	0.028	0.083
-604.142	60.215	-0.157	0.156
-603.128	160.623	0.132	-0.186
-602.113	51.574	-0.164	-0.157
-601.098	-112.792	0.040	-0.008
-600.084	267.450	-0.092	-0.162
-599.069	-131.462	-0.059	-0.008
-598.055	-91.276	-0.115	-0.033
-597.040	121.193	-0.131	-0.165
-596.025	356.556	-0.067	0.134
-595.011	-200.000	-0.047	-0.275
-593.996	-130.236	-0.313	0.043
-592.982	-200.000	-0.026	0.172
-591.967	-200.000	0.001	-0.015
-590.952	-100.663	0.234	-0.058
-589.938	-63.289	0.187	-0.078
-588.923	65.501	0.195	-0.199
-587.909	-118.312	0.079	0.014
-586.894	-200.000	0.019	0.177
-585.879	-10.991	-0.197	0.131
-584.865	-200.000	0.110	0.000
-583.850	-37.715	0.059	0.032
-582.836	38.457	-0.024	0.021
-581.821	-50.904	-0.235	-0.111
-580.806	-110.857	0.220	0.046
-579.792	800.000	0.115	0.332
-578.777	80.804	-0.104	0.113
-577.763	75.956	-0.143	0.153
-576.748	-92.803	-0.174	0.049
-575.733	800.000	-0.051	0.224
-574.719	337.852	-0.088	0.172
-573.704	-200.000	0.019	0.330
-572.690	-52.456	-0.155	-0.072
-571.675	-79.678	-0.371	-0.126
-570.661	-141.516	0.331	-0.034
-569.646	-200.000	-0.104	0.469
-568.631	-15.167	0.399	-0.257
-567.617	800.000	0.048	0.146
-566.602	-30.323	0.038	0.022
-565.588	77.034	-0.063	0.067
-564.573	-200.000	0.005	0.200
-563.558	424.945	0.081	0.175
-562.544	-200.000	-0.028	0.193
-561.529	57.863	-0.055	0.054
-560.515	36.139	-0.084	-0.074
-559.500	-25.920	-0.060	-0.035
-558.485	-36.590	-0.244	-0.132
-557.471	-21.734	-0.340	0.208
-556.456	800.000	-0.080	0.274
-555.442	254.705	-0.058	-0.100
-554.427	455.350	-0.051	0.113
-553.412	-28.655	-0.288	-0.167
-552.398	-200.000	-0.037	-0.250
-551.383	-118.858	0.318	-0.056
-550.369	560.345	-0.106	-0.257
-549.354	800.000	-0.058	0.208
-548.339	15.133	-0.218	-0.172
-547.325	52.114	-0.206	-0.197
-546.310	516.675	-0.116	-0.273
-545.296	800.000	-0.066	0.249
-544.281	-76.250	-0.281	-0.100
-543.266	54.984	-0.284	-0.276
-542.252	800.000	-0.034	0.102
-541.237	233.408	0.079	0.131
-540.223	800.000	0.016	0.048
-539.208	284.985	0.125	0.227
-538.193	133.555	0.122	-0.159
-537.179	73.596	0.086	0.091
-536.164	-200.000	0.026	0.202
-535.150	-28.381	-0.015	-0.009
-534.135	-140.291	0.360	0.038
-533.121	-54.032	0.086	-0.039
-532.106	-18.584	0.274	-0.172
-531.091	72.257	0.354	0.371
-530.077	229.635	0.316	0.519
-529.062	68.456	0.258	0.266
-528.048	-56.702	-0.051	0.023
-527.033	-123.909	-0.529	-0.084
-526.018	-200.000	0.216	-0.001
-525.004	22.331	0.206	0.170
-523.989	-200.000	0.003	0.131
-522.975	321.477	-0.120	0.230
-521.960	-185.223	0.107	0.002
-520.945	-6.019	-0.128	0.088
-519.931	116.904	0.165	-0.204
-518.916	-70.155	0.172	-0.066
-517.902	183.490	-0.080	0.118
-516.887	44.396	-0.173	-0.160
-515.872	800.000	0.134	-0.378
-514.858	800.000	-0.042	-0.134
-513.843	-200.000	-0.007	0.058
-512.829	-0.776	-0.131	0.093
-511.814	173.268	0.143	-0.207
-510.799	-59.731	-0.303	-0.131
-509.785	-68.428	-0.014	0.006
-508.770	-76.413	0.152	0.054
-507.756	-200.000	0.033	0.451
-506.741	-164.893	0.102	-0.005
-505.726	-33.123	0.366	-0.204
-504.712	273.531	0.270	-0.480
-503.697	-34.263	-0.161	0.089
-502.683	-200.000	0.058	-0.356
-501.668	115.015	0.087	-0.107
-500.653	-200.000	-0.015	-0.281
-499.639	146.970	-0.105	0.141
-498.624	161.960	0.209	0.294
-497.610	301.382	-0.109	0.202
-496.595	39.790	-0.055	-0.049
-495.581	-137.776	0.262	-0.029
-494.566	31.113	0.149	0.128
-493.551	800.000	-0.063	-0.200
-492.537	-200.000	0.011	-0.327
-491.522	800.000	0.058	-0.197
-490.508	-107.388	0.061	0.014
-489.493	72.002	-0.097	-0.101
-488.478	493.428	-0.019	-0.043
-487.464	64.385	-0.403	0.408
-486.449	-129.474	-0.043	-0.006
-485.435	-95.900	0.288	-0.077
-484.420	-27.688	0.105	0.061
-483.405	-85.665	-0.247	-0.077
-482.391	185.706	-0.186	-0.277
-481.376	-84.683	-0.225	-0.071
-480.362	232.205	0.250	0.412
-479.347	-200.000	0.014	-0.385
-478.332	-61.573	-0.282	-0.119
-477.318	104.651	-0.023	-0.027
-476.303	-74.121	-0.055	-0.020
-475.289	19.346	-0.054	0.043
-474.274	481.175	-0.097	-0.222
-473.259	-200.000	0.005	-0.092
-472.245	-57.636	0.128	0.056
-471.230	424.418	-0.161	-0.348
-470.216	-138.371	0.155	0.017
-469.201	-26.408	0.135	0.079
-468.186	-40.559	-0.249	-0.130
-467.172	-92.021	-0.079	-0.023
-466.157	87.776	0.084	-0.093
-465.143	-6.475	-0.116	-0.079
-464.128	800.000	-0.107	-0.309
-463.113	800.000	0.041	0.115
-462.099	-25.660	0.212	0.125
-461.084	-171.314	0.076	0.003
-460.070	-200.000	-0.012	0.186
-459.055	-68.294	0.205	0.080
-458.040	-52.322	-0.418	-0.194
-457.026	713.531	0.137	0.363
-456.011	800.000	-0.106	-0.299
-454.997	550.631	-0.039	-0.094
-453.982	-42.380	-0.231	0.118
-452.968	800.000	0.060	0.237
-451.953	3.317	-0.193	-0.141
-450.938	221.938	0.104	0.167
-449.924	134.951	0.244	-0.318
-448.909	-44.476	-0.219	0.110
-447.895	59.713	0.165	-0.164
-446.880	-200.000	-0.163	0.001
-445.865	-18.785	0.233	0.146
-444.851	-200.000	0.026	0.170
-443.836	-200.000	0.010	0.057
-442.822	-3.638	-0.075	-0.052
-441.807	-200.000	0.009	-0.157
-440.792	-200.000	-0.013	-0.112
-439.778	28.170	-0.035	-0.030
-438.763	-200.000	0.013	0.105
-437.749	292.900	-0.163	-0.297
-436.734	-200.000	0.041	-0.214
-435.719	156.178	0.028	0.039
-434.705	377.272	0.095	-0.194
-433.690	721.745	0.144	-0.384
-432.676	-57.588	-0.112	-0.049
-431.661	-13.127	0.136	-0.089
-430.646	-200.000	-0.013	0.302
-429.632	-95.709	0.199	0.053
-428.617	108.233	-0.033	0.039
-427.603	800.000	-0.012	0.038
-426.588	800.000	-0.050	0.207
-425.573	-34.524	-0.156	-0.086
-424.559	-52.655	-0.306	-0.142
-423.544	-74.076	-0.218	-0.079
-422.530	-200.000	0.031	0.188
-421.515	-0.535	0.140	-0.100
-420.500	27.986	-0.257	-0.217
-419.486	-41.275	-0.144	0.074
-418.471	-116.413	-0.319	0.059
-417.457	390.783	-0.167	0.347
-416.442	-71.576	-0.219	0.082
-415.428	-40.507	-0.177	-0.092
-414.413	401.369	0.114	0.240
-413.398	800.000	-0.019	-0.060
-412.384	-15.720	0.271	-0.173
-411.369	800.000	-0.061	0.230
-410.355	-82.201	-0.188	0.061
-409.340	496.938	0.060	0.139
-408.325	-110.386	0.212	-0.044
-407.311	-200.000	0.022	-0.140
-406.296	-200.000	-0.026	0.318
-405.282	-200.000	0.042	0.247
-404.267	241.119	-0.122	-0.204
-403.252	-200.000	-0.024	0.266
-402.238	198.905	-0.174	0.266
-401.223	-200.000	-0.008	-0.119
-400.209	-90.615	0.148	-0.043
-399.194	203.862	0.100	-0.155
-398.179	14.080	0.126	-0.098
-397.165	-170.452	-0.530	-0.019
-396.150	-48.178	0.334	-0.161
-395.136	-62.962	0.229	-0.095
-394.121	-47.202	0.164	0.080
-393.106	642.390	-0.063	-0.161
-392.092	564.485	0.073	0.178
-391.077	236.614	0.092	0.153
-390.063	-27.492	0.175	-0.102
-389.048	94.479	-0.136	-0.155
-388.033	-200.000	0.010	-0.198
-387.019	-109.683	0.247	0.052
-386.004	615.222	0.023	0.059
-384.990	-122.392	0.298	-0.049
-383.975	216.179	-0.094	-0.149
-382.960	-200.000	-0.016	-0.140
-381.946	172.059	0.181	-0.261
-380.931	-131.104	0.274	0.036
-379.917	-61.452	0.231	0.097
-378.902	558.764	0.071	0.170
-377.888	102.206	0.190	0.222
-376.873	160.771	-0.026	0.036
-375.858	-101.949	0.163	-0.039
-374.844	-28.946	0.032	0.019
-373.829	-150.825	-0.461	-0.035
-372.815	115.704	0.205	0.251
-371.800	57.331	0.092	-0.090
-370.785	-163.110	-0.222	-0.011
-369.771	7.721	-0.350	0.262
-368.756	-200.000	0.083	-0.368
-367.742	-48.889	0.171	-0.082
-366.727	-63.457	0.293	0.120
-365.712	34.171	-0.015	0.013
-364.698	-148.471	0.098	-0.008
-363.683	36.770	-0.090	-0.079
-362.669	676.773	0.111	0.288
-361.654	16.070	-0.170	0.134
-360.639	12.994	-0.100	-0.077
-359.625	88.958	0.138	0.154
-358.610	-200.000	0.002	-0.106
-357.596	-24.520	-0.324	-0.193
-356.581	64.397	-0.060	-0.061
-355.566	235.233	0.114	0.189
-354.552	-82.859	0.096	-0.031
-353.537	-200.000	-0.067	-0.299
-352.523	154.165	0.081	0.112
-351.508	-42.749	0.148	-0.075
-350.493	-18.627	0.246	-0.153
-349.479	68.068	-0.182	-0.186
-348.464	-26.139	-0.331	-0.194
-347.450	442.945	-0.114	-0.250
-346.435	800.000	0.095	-0.363
-345.420	-200.000	-0.026	0.191
-344.406	-200.000	0.002	-0.092
-343.391	-200.000	0.029	0.183
-342.377	205.290	-0.081	0.126
-341.362	583.054	-0.093	-0.227
-340.348	800.000	-0.065	0.180
-339.333	58.469	0.194	0.190
-338.318	147.626	-0.292	0.393
-337.304	800.000	-0.040	0.166
-336.289	-91.696	0.189	-0.054
-335.275	800.000	0.007	0.021
-334.260	800.000	-0.119	-0.392
-333.245	800.000	-0.120	0.336
-332.231	66.513	-0.067	-0.068
-331.216	-175.835	0.160	-0.004
-330.202	-31.153	0.420	-0.236
-329.187	699.623	-0.007	-0.018
-328.172	51.381	-0.177	-0.168
-327.158	-16.725	0.147	0.093
-326.143	800.000	-0.061	0.221
-325.129	150.418	-0.215	-0.292
-324.114	-46.690	0.143	0.070
-323.099	133.769	0.112	-0.144
-322.085	24.890	-0.226	-0.187
-321.070	231.156	0.184	-0.300
-320.056	59.258	-0.088	-0.086
-319.041	197.013	0.163	0.249
-318.026	-22.695	0.337	0.203
-317.012	-93.454	-0.257	-0.071
-315.997	225.942	-0.197	0.319
-314.983	-93.157	0.325	0.090
-313.968	118.753	0.138	0.170
-312.953	175.119	-0.142	0.205
-311.939	800.000	0.052	0.187
-310.924	133.588	-0.168	-0.217
-309.910	-109.232	0.074	0.016
-308.895	297.713	0.091	-0.168
-307.880	302.747	0.208	-0.383
-306.866	-200.000	-0.045	-0.373
-305.851	-64.750	0.402	0.162
-304.837	-200.000	-0.011	0.057
-303.822	108.778	-0.230	-0.275
-302.807	56.297	-0.148	0.144
-301.793	-37.211	-0.229	-0.122
-300.778	-200.000	-0.086	-0.389
-299.764	81.753	0.282	0.304
-298.749	-200.000	0.018	0.138
-297.735	-200.000	0.005	0.189
-296.720	-166.320	-0.114	0.005
-295.705	-200.000	-0.071	-0.341
-294.691	-87.311	0.186	0.056
-293.676	-177.676	0.080	0.002
-292.662	800.000	0.018	0.066
-291.647	128.128	0.118	-0.150
-290.632	-200.000	0.019	0.178
-289.618	403.812	-0.082	-0.173
-288.603	-59.182	-0.077	0.033
-287.589	427.070	0.075	0.161
-286.574	-62.498	-0.049	0.020
-285.559	112.495	-0.113	-0.136
-284.545	800.000	0.037	-0.159
-283.530	411.519	0.151	-0.318
-282.516	-83.271	-0.259	-0.083
-281.501	-18.904	-0.463	-0.287
-280.486	-145.734	-0.164	0.015
-279.472	800.000	-0.088	0.288
-278.457	311.923	-0.060	0.111
-277.443	-146.001	-0.165	0.015
-276.428	-152.838	-0.168	-0.012
-275.413	253.553	0.055	0.094
-274.399	45.376	0.171	0.157
-273.384	-139.563	-0.370	0.039
-272.370	-72.466	0.287	0.106
-271.355	800.000	-0.081	-0.242
-270.340	-200.000	0.014	-0.402
-269.326	72.176	-0.171	-0.178
-268.311	48.870	0.178	0.166
-267.297	-103.149	-0.355	0.084
-266.282	-200.000	0.003	0.061
-265.267	-94.274	-0.173	-0.047
-264.253	-200.000	0.024	-0.155
-263.238	800.000	0.113	0.355
-262.224	-50.094	-0.112	0.053
-261.209	-124.491	0.316	0.049
-260.195	452.158	0.166	0.366
-259.180	-98.265	0.096	-0.025
-258.165	19.258	-0.222	0.177
-257.151	-20.638	-0.329	-0.201
-256.136	-38.232	0.340	-0.179
-255.122	-57.950	-0.049	0.021
-254.107	-19.715	0.202	0.124
-253.092	-114.317	0.319	0.061
-252.078	-129.764	-0.268	-0.037
-251.063	800.000	-0.002	0.006
-250.049	308.134	-0.122	0.226
-249.034	-29.847	-0.495	-0.281
-248.019	54.927	0.205	0.197
-247.005	800.000	-0.056	0.225
-245.990	-30.568	-0.219	0.123
-244.976	-136.717	0.217	-0.025
-243.961	51.683	-0.080	0.076
-242.946	-200.000	0.013	-0.123
-241.932	178.821	-0.120	0.175
-240.917	111.342	-0.120	0.144
-239.903	-52.679	-0.159	-0.073
-238.888	800.000	0.041	-0.175
-237.873	-200.000	0.010	0.102
-236.859	800.000	-0.070	0.213
-235.844	-200.000	0.026	-0.209
-234.830	98.730	0.141	-0.162
-233.815	-145.936	0.123	0.011
-232.800	-114.041	-0.376	0.072
-231.786	-53.002	0.197	0.090
-230.771	74.853	0.064	0.067
-229.757	-200.000	0.024	0.169
-228.742	-36.605	0.093	-0.050
-227.727	15.939	0.144	-0.113
-226.713	800.000	-0.091	0.279
-225.698	-138.066	-0.238	0.026
-224.684	-93.001	0.295	-0.082
-223.669	-165.325	-0.054	-0.002
-222.655	-200.000	-0.003	0.077
-221.640	55.299	-0.275	-0.264
-220.625	5.142	0.131	-0.096
-219.611	541.588	0.048	0.114
-218.596	-88.839	0.211	-0.062
-217.582	21.303	-0.290	0.234
-216.567	344.053	-0.109	-0.212
-215.552	-113.520	-0.115	0.022
-214.538	452.720	0.128	0.281
-213.523	372.225	0.086	-0.174
-212.509	424.652	-0.091	0.194
-211.494	-200.000	-0.037	-0.180
-210.479	-200.000	0.087	0.445
-209.465	80.888	-0.180	0.192
-208.450	-180.444	0.230	-0.005
-207.436	757.996	0.064	-0.173
-206.421	-26.153	0.059	-0.034
-205.406	141.972	-0.182	-0.240
-204.392	-56.834	-0.137	0.060
-203.377	-90.911	0.188	-0.054
-202.363	351.201	-0.046	0.090
-201.348	-200.000	-0.044	0.224
-200.333	-180.161	0.184	-0.004
-199.319	-200.000	0.030	-0.224
-198.304	185.581	-0.107	0.158
-197.290	-200.000	-0.006	-0.090
-196.275	-200.000	0.118	0.526
-195.260	-54.066	-0.227	-0.103
-194.246	-94.392	-0.211	-0.057
-193.231	-200.000	-0.001	0.209
-192.217	-2.103	0.164	-0.114
-191.202	-30.852	0.198	0.111
-190.187	-200.000	-0.011	-0.305
-189.173	160.133	-0.148	-0.205
-188.158	-200.000	0.024	-0.131
-187.144	-181.784	-0.157	0.003
-186.129	317.353	-0.061	0.115
-185.114	117.873	0.132	-0.162
-184.100	-149.691	0.327	0.026
-183.085	-2.646	-0.284	0.197
-182.071	-64.402	-0.143	0.058
-181.056	-83.317	0.161	-0.051
-180.042	-200.000	0.004	0.323
-179.027	9.429	0.307	-0.230
-178.012	105.509	-0.104	-0.122
-176.998	-200.000	-0.046	0.347
-175.983	800.000	0.073	0.285
-174.969	-200.000	0.049	-0.217
-173.954	-16.709	0.361	-0.226
-172.939	800.000	-0.027	-0.102
-171.925	-116.539	-0.120	-0.022
-170.910	-200.000	-0.042	0.373
-169.896	54.877	-0.134	-0.128
-168.881	-200.000	-0.022	-0.165
-167.866	769.385	-0.061	-0.166
-166.852	800.000	-0.097	0.331
-165.837	-200.000	0.008	-0.043
-164.823	800.000	-0.073	-0.226
-163.808	800.000	0.086	0.289
-162.793	-93.960	0.249	0.068
-161.779	-200.000	0.069	-0.383
-160.764	-32.134	-0.011	-0.006
-159.750	-129.205	0.278	-0.038
-158.735	-52.918	0.016	0.007
-157.720	401.970	0.094	0.196
-156.706	195.538	0.049	0.073
-155.691	-115.680	0.255	-0.047
-154.677	800.000	-0.062	-0.172
-153.662	800.000	-0.076	0.296
-152.647	155.980	0.125	-0.170
-151.633	190.805	0.055	0.081
-150.618	-200.000	0.004	0.069
-149.604	144.413	-0.046	0.061
-148.589	-0.094	0.232	0.164
-147.574	-200.000	-0.042	-0.390
-146.560	-191.188	0.390	-0.004
-145.545	-200.000	-0.010	-0.134
-144.531	-66.361	0.216	-0.085
-143.516	169.316	0.051	-0.073
-142.502	10.168	-0.173	0.130
-141.487	-154.005	0.376	-0.025
-140.472	541.501	-0.163	0.385
-139.458	98.851	0.173	-0.198
-138.443	-16.064	-0.115	0.072
-137.429	380.844	0.048	0.099
-136.414	60.630	-0.149	-0.147
-135.399	411.819	0.068	-0.144
-134.385	800.000	-0.039	0.121
-133.370	-114.441	0.196	0.037
-132.356	670.028	-0.010	-0.026
-131.341	800.000	-0.071	0.259
-130.326	26.238	0.145	0.120
-129.312	214.053	-0.071	0.111
-128.297	-113.580	0.220	0.043
-127.283	-112.253	0.248	0.049
-126.268	142.131	-0.102	0.134
-125.253	-200.000	0.029	-0.132
-124.239	800.000	0.054	0.176
-123.224	182.140	-0.070	0.102
-122.210	161.141	-0.016	0.022
