DTS Sentinel unit serial number:	SN413079Multiplexer serial number:	ORYXHardware model number:	OX4-SRSoftware version number:	ORYX F/W v4.00 Oryx Data Collector v3.7.2.0data status	okinstallation	princeton_trtdifferential loss correction	single-endedforward channel	channel 1reverse channel	N/Adate	2019/09/15time	08:50:35forward acquisition time	60.00reverse acquisition time	0.00gamma	496.2192k internal	0.2316k external	0.2316temperature offset calibration	0.9988default loss term (dB/km)	0.3790temperature slope calibration	1.0000multiplexer offset coefficient	1.0000multiplexer slope coefficient	1.0000fibre end	0.00T internal ref (°C)	32.37T ext. ref 1 (°C)	4.98T ext. ref 2 (°C)	29.72length (m)	temperature (°C)	Stokes	anti-Stokes-747.200	-40.935	-0.121	0.063
-746.185	-64.970	-0.135	0.055
-745.171	-146.220	0.291	-0.026
-744.156	7.856	0.265	0.201
-743.142	800.000	-0.062	-0.263
-742.127	-124.658	-0.310	-0.049
-741.112	-39.851	0.057	-0.030
-740.098	603.248	-0.073	-0.183
-739.083	-88.609	0.445	-0.134
-738.069	739.731	-0.042	-0.113
-737.054	43.290	-0.275	-0.254
-736.039	-115.245	-0.300	-0.057
-735.025	-7.480	0.369	0.253
-734.010	161.624	-0.063	0.089
-732.996	-23.890	0.073	-0.044
-731.981	-57.065	-0.232	-0.103
-730.966	-140.411	-0.258	-0.027
-729.952	-46.500	-0.246	0.122
-728.937	-134.289	-0.433	0.054
-727.923	800.000	-0.068	0.241
-726.908	4.006	-0.041	-0.031
-725.894	4.939	-0.078	0.058
-724.879	-200.000	0.021	-0.276
-723.864	-141.589	0.189	0.019
-722.850	-200.000	0.047	-0.287
-721.835	-83.388	0.382	0.124
-720.821	-74.248	0.201	0.073
-719.806	166.100	0.201	0.288
-718.791	-8.589	-0.155	-0.105
-717.777	-146.765	0.193	0.017
-716.762	417.271	0.094	-0.204
-715.748	-40.558	-0.273	0.144
-714.733	36.128	-0.201	-0.179
-713.718	321.967	-0.027	0.052
-712.704	-200.000	-0.024	-0.412
-711.689	-22.985	0.232	0.142
-710.675	-166.207	-0.165	-0.007
-709.660	219.163	0.094	-0.152
-708.645	800.000	-0.034	0.105
-707.631	19.692	-0.105	0.086
-706.616	296.320	0.062	0.115
-705.602	-5.857	-0.095	0.066
-704.587	-108.943	0.118	-0.025
-703.572	305.939	-0.126	-0.238
-702.558	55.404	-0.105	-0.103
-701.543	210.122	0.028	-0.044
-700.529	44.606	0.176	-0.164
-699.514	-87.134	-0.153	-0.047
-698.499	-102.658	-0.132	-0.032
-697.485	-200.000	-0.006	0.063
-696.470	114.112	-0.181	0.223
-695.456	685.241	0.082	-0.217
-694.441	-200.000	0.014	-0.104
-693.426	800.000	0.133	-0.448
-692.412	-200.000	0.014	0.210
-691.397	41.623	-0.224	-0.205
-690.383	541.564	0.119	0.286
-689.368	-162.005	-0.242	-0.012
-688.354	-99.566	-0.242	-0.061
-687.339	-101.900	0.136	-0.033
-686.324	-101.297	-0.072	0.018
-685.310	220.416	-0.060	-0.097
-684.295	149.221	0.103	-0.141
-683.281	-151.241	0.285	-0.022
-682.266	800.000	-0.117	-0.372
-681.251	-18.604	-0.234	-0.147
-680.237	249.150	0.157	-0.269
-679.222	144.574	-0.193	-0.261
-678.208	-39.136	0.239	-0.127
-677.193	134.808	-0.206	-0.271
-676.178	-200.000	0.085	-0.438
-675.164	-32.822	0.265	0.149
-674.149	-9.852	-0.279	0.188
-673.135	204.012	-0.052	-0.081
-672.120	160.620	0.181	-0.256
-671.105	-87.278	-0.057	0.018
-670.091	-11.561	-0.099	0.066
-669.076	-172.128	-0.164	-0.005
-668.062	800.000	0.051	0.177
-667.047	179.909	-0.237	0.350
-666.032	800.000	0.109	-0.353
-665.018	-38.036	0.219	0.117
-664.003	389.763	-0.137	-0.288
-662.989	-29.673	-0.204	-0.118
-661.974	-113.802	0.213	-0.042
-660.959	165.000	-0.096	-0.137
-659.945	-174.369	0.304	-0.009
-658.930	180.502	0.137	0.203
-657.916	800.000	-0.037	0.120
-656.901	-96.387	0.191	0.051
-655.886	388.913	-0.092	0.192
-654.872	37.067	-0.315	-0.282
-653.857	55.216	0.194	-0.189
-652.843	-200.000	0.028	-0.363
-651.828	-200.000	-0.016	-0.293
-650.814	68.145	-0.257	-0.265
-649.799	141.185	-0.231	-0.308
-648.784	800.000	0.123	0.347
-647.770	-27.475	0.159	-0.093
-646.755	-73.877	-0.307	0.113
-645.741	-82.762	-0.161	-0.052
-644.726	143.561	0.116	0.155
-643.711	421.100	0.102	-0.221
-642.697	-63.168	0.028	0.012
-641.682	-200.000	0.051	-0.300
-640.668	-128.964	0.344	0.049
-639.653	800.000	0.030	-0.111
-638.638	12.673	0.249	-0.194
-637.624	13.758	0.241	-0.189
-636.609	800.000	0.062	0.218
-635.595	-72.384	-0.076	-0.028
-634.580	6.264	-0.255	-0.190
-633.565	-19.766	-0.050	0.031
-632.551	-200.000	0.017	-0.173
-631.536	-18.327	0.091	-0.057
-630.522	-134.921	0.237	0.029
-629.507	-23.062	0.140	0.085
-628.492	207.194	0.143	0.225
-627.478	-4.681	-0.250	-0.174
-626.463	-200.000	0.047	0.230
-625.449	259.091	0.097	-0.168
-624.434	545.400	0.109	0.262
-623.419	-200.000	0.125	-0.000
-622.405	-96.744	-0.148	-0.039
-621.390	-32.727	-0.039	0.022
-620.376	-22.786	0.181	-0.110
-619.361	-130.492	-0.288	-0.039
-618.346	286.472	-0.072	0.131
-617.332	167.364	0.149	-0.213
-616.317	135.752	-0.103	0.135
-615.303	781.149	-0.058	-0.160
-614.288	-118.338	-0.207	-0.037
-613.273	-103.434	0.052	0.012
-612.259	134.646	0.148	-0.194
-611.244	-64.911	-0.281	0.114
-610.230	-200.000	-0.013	0.197
-609.215	-91.327	-0.472	-0.136
-608.201	-200.000	0.005	-0.060
-607.186	155.447	-0.163	0.226
-606.171	47.298	-0.100	-0.094
-605.157	-30.908	-0.246	0.140
-604.142	493.110	-0.140	-0.324
-603.128	-103.460	0.168	0.040
-602.113	-200.000	-0.013	-0.330
-601.098	-200.000	-0.066	-0.298
-600.084	-160.015	-0.173	0.009
-599.069	7.150	0.050	-0.038
-598.055	-37.527	0.431	-0.232
-597.040	125.285	-0.117	0.149
-596.025	-55.861	0.291	0.131
-595.011	59.852	-0.115	0.114
-593.996	77.286	-0.286	-0.306
-592.982	137.581	-0.180	-0.237
-591.967	210.225	-0.021	0.033
-590.952	278.359	0.113	-0.203
-589.938	154.896	-0.106	0.146
-588.923	483.973	0.131	-0.300
-587.909	70.672	-0.019	0.019
-586.894	800.000	-0.078	0.248
-585.879	-67.922	0.129	-0.051
-584.865	182.096	0.160	0.237
-583.850	-200.000	-0.015	0.186
-582.836	-138.764	-0.436	-0.048
-581.821	45.506	0.269	0.250
-580.806	175.979	-0.041	0.060
-579.792	16.883	-0.070	-0.056
-578.777	10.945	0.319	-0.246
-577.763	5.975	0.192	-0.143
-576.748	149.921	-0.155	0.212
-575.733	-200.000	0.009	0.094
-574.719	-88.686	0.064	-0.019
-573.704	-79.738	0.292	-0.099
-572.690	-200.000	0.034	-0.241
-571.675	-200.000	-0.019	-0.214
-570.661	-48.335	0.071	0.034
-569.646	446.970	-0.019	0.041
-568.631	800.000	-0.029	-0.094
-567.617	800.000	0.112	0.441
-566.602	-46.029	0.239	0.119
-565.588	493.791	0.043	0.099
-564.573	138.817	0.164	0.217
-563.558	800.000	0.102	-0.360
-562.544	-200.000	0.012	0.124
-561.529	-90.522	0.223	0.065
-560.515	800.000	-0.085	0.300
-559.500	800.000	0.031	-0.133
-558.485	534.957	0.007	0.016
-557.471	371.166	0.208	-0.423
-556.456	220.762	-0.233	-0.376
-555.442	-101.428	0.578	-0.141
-554.427	1.560	-0.090	-0.065
-553.412	-200.000	-0.022	0.326
-552.398	-174.540	-0.210	-0.006
-551.383	51.688	-0.313	-0.299
-550.369	-34.755	-0.221	0.121
-549.354	281.147	-0.023	0.041
-548.339	-200.000	0.048	0.218
-547.325	-77.640	-0.147	-0.051
-546.310	-43.416	0.273	-0.139
-545.296	800.000	-0.021	0.080
-544.281	-59.376	0.314	0.136
-543.266	-200.000	0.010	0.102
-542.252	-200.000	0.008	-0.185
-541.237	-103.352	-0.344	-0.081
-540.223	233.266	-0.156	-0.258
-539.208	-183.306	0.237	-0.004
-538.193	-27.139	-0.272	0.159
-537.179	800.000	-0.035	0.103
-536.164	-38.138	-0.292	-0.156
-535.150	2.553	0.198	-0.144
-534.135	8.075	-0.390	-0.294
-533.121	-200.000	0.020	-0.170
-532.106	800.000	0.051	-0.201
-531.091	174.633	0.160	0.233
-530.077	800.000	0.026	-0.112
-529.062	218.016	-0.083	-0.132
-528.048	171.516	0.128	0.185
-527.033	-38.604	-0.268	0.142
-526.018	272.419	0.068	-0.120
-525.004	800.000	-0.178	0.529
-523.989	800.000	-0.086	0.244
-522.975	-4.689	-0.197	0.136
-521.960	-19.226	0.101	0.063
-520.945	570.675	0.022	-0.053
-519.931	167.579	0.059	-0.085
-518.916	-200.000	-0.127	-0.000
-517.902	-200.000	-0.009	-0.045
-516.887	-137.342	-0.136	-0.015
-515.872	47.935	-0.177	-0.166
-514.858	-73.092	0.050	0.019
-513.843	162.265	0.097	0.137
-512.829	65.676	-0.109	-0.111
-511.814	-182.998	-0.312	-0.006
-510.799	31.737	-0.215	-0.186
-509.785	800.000	0.021	0.065
-508.770	-61.561	-0.085	-0.036
-507.756	159.546	0.162	0.226
-506.741	-24.385	-0.130	-0.077
-505.726	-15.610	0.282	-0.181
-504.712	-185.740	-0.256	0.004
-503.697	-200.000	0.019	-0.160
-502.683	545.113	-0.073	0.176
-501.668	20.888	-0.228	-0.185
-500.653	72.329	-0.220	-0.230
-499.639	-47.085	0.296	-0.145
-498.624	800.000	0.035	-0.138
-497.610	60.856	0.200	0.199
-496.595	-98.118	0.140	0.036
-495.581	800.000	0.080	-0.319
-494.566	103.480	-0.198	-0.233
-493.551	-40.319	0.156	0.082
-492.537	800.000	0.024	0.083
-491.522	-69.742	0.066	0.025
-490.508	80.347	-0.170	0.184
-489.493	253.021	0.033	-0.057
-488.478	-200.000	0.019	-0.106
-487.464	-200.000	0.010	-0.057
-486.449	1.449	0.291	0.210
-485.435	-9.082	-0.153	-0.102
-484.420	-42.755	-0.094	-0.048
-483.405	-28.982	0.114	-0.066
-482.391	695.955	-0.054	-0.143
-481.376	446.281	0.106	0.233
-480.362	-35.563	0.094	0.051
-479.347	-200.000	0.004	0.048
-478.332	373.715	-0.070	-0.143
-477.318	154.671	-0.102	0.140
-476.303	-70.780	-0.175	0.066
-475.289	10.212	-0.076	0.058
-474.274	-200.000	-0.018	0.178
-473.259	-133.982	-0.407	0.051
-472.245	473.323	-0.030	-0.067
-471.230	-161.980	0.077	0.004
-470.216	679.005	-0.085	-0.223
-469.201	17.526	0.115	0.092
-468.186	-105.004	0.473	-0.109
-467.172	-200.000	0.037	-0.235
-466.157	-76.115	0.169	-0.060
-465.143	78.086	0.197	-0.211
-464.128	-200.000	-0.035	0.375
-463.113	800.000	0.035	0.129
-462.099	-200.000	-0.053	-0.309
-461.084	-99.400	0.315	0.079
-460.070	-200.000	-0.009	0.182
-459.055	307.801	0.118	-0.220
-458.040	-76.536	0.043	-0.015
-457.026	-200.000	-0.020	0.351
-456.011	800.000	-0.096	-0.289
-454.997	-200.000	0.031	-0.156
-453.982	-23.921	0.136	-0.081
-452.968	-200.000	-0.033	0.271
-451.953	-40.379	-0.241	-0.125
-450.938	161.940	0.081	-0.113
-449.924	-200.000	-0.016	0.139
-448.909	-154.788	-0.299	0.020
-447.895	-81.209	0.114	-0.038
-446.880	96.036	0.228	0.261
-445.865	-150.672	-0.296	-0.023
-444.851	197.133	0.235	-0.358
-443.836	374.459	0.071	-0.145
-442.822	-32.087	-0.111	0.062
-441.807	735.482	0.105	-0.281
-440.792	237.157	0.141	-0.234
-439.778	-85.487	-0.124	-0.039
-438.763	-92.626	-0.440	0.123
-437.749	9.903	0.233	0.177
-436.734	527.382	0.074	-0.174
-435.719	-200.000	0.041	-0.188
-434.705	-46.646	-0.247	0.121
-433.690	79.630	0.256	0.275
-432.676	-119.422	-0.094	-0.016
-431.661	-200.000	0.062	-0.420
-430.646	100.305	-0.223	0.259
-429.632	74.722	0.297	0.312
-428.617	1.507	-0.149	0.107
-427.603	623.119	-0.107	-0.270
-426.588	491.524	0.035	-0.081
-425.573	-88.268	0.272	-0.081
-424.559	11.047	0.291	0.222
-423.544	800.000	-0.062	-0.191
-422.530	-54.617	-0.052	-0.024
-421.515	-200.000	-0.015	0.511
-420.500	-30.287	0.285	0.162
-419.486	-94.977	0.118	0.032
-418.471	-200.000	-0.032	-0.143
-417.457	63.302	-0.071	0.071
-416.442	14.189	0.172	-0.134
-415.428	165.711	0.131	-0.185
-414.413	-86.395	-0.154	0.047
-413.398	800.000	0.059	-0.225
-412.384	150.685	0.198	0.269
-411.369	149.569	-0.184	0.249
-410.355	-200.000	0.014	0.197
-409.340	-23.163	0.178	0.107
-408.325	109.265	-0.146	-0.175
-407.311	800.000	-0.025	-0.083
-406.296	-69.256	-0.070	-0.027
-405.282	101.581	-0.160	-0.187
-404.267	-33.278	-0.340	-0.188
-403.252	-97.724	0.437	0.113
-402.238	-98.965	-0.151	-0.038
-401.223	-34.412	0.230	0.126
-400.209	455.017	0.103	0.229
-399.194	-200.000	-0.079	0.441
-398.179	250.999	0.012	-0.021
-397.165	-23.758	-0.127	-0.076
-396.150	86.279	-0.045	-0.050
-395.136	7.005	-0.262	-0.195
-394.121	-107.686	-0.461	-0.101
-393.106	-200.000	0.008	-0.151
-392.092	-67.620	0.081	-0.032
-391.077	-200.000	0.009	0.517
-390.063	7.415	0.088	0.066
-389.048	63.809	0.185	0.186
-388.033	-200.000	-0.006	0.069
-387.019	-200.000	0.020	0.297
-386.004	185.679	-0.112	-0.166
-384.990	-184.919	-0.236	-0.004
-383.975	62.368	-0.076	0.076
-382.960	33.793	-0.031	-0.027
-381.946	-113.961	-0.143	0.028
-380.931	800.000	-0.104	0.395
-379.917	-200.000	0.001	0.089
-378.902	-200.000	-0.051	-0.296
-377.888	800.000	0.011	-0.041
-376.873	-170.178	-0.390	0.014
-375.858	79.303	0.081	0.086
-374.844	399.825	-0.076	-0.160
-373.829	104.860	-0.053	-0.062
-372.815	780.190	0.062	-0.170
-371.800	-12.142	0.151	0.098
-370.785	-125.322	0.156	0.024
-369.771	800.000	0.106	-0.298
-368.756	-83.416	-0.463	0.148
-367.742	-9.870	0.280	0.186
-366.727	-61.429	0.196	0.082
-365.712	-200.000	0.120	-0.000
-364.698	-125.085	0.299	-0.046
-363.683	-200.000	0.050	0.000
-362.669	-124.511	-0.151	0.023
-361.654	-200.000	-0.014	0.301
-360.639	-9.475	-0.094	0.063
-359.625	-200.000	0.181	0.000
-358.610	-73.064	-0.261	0.096
-357.596	-200.000	0.010	0.173
-356.581	-71.348	0.430	-0.161
-355.566	46.146	0.134	0.124
-354.552	621.289	-0.073	-0.184
-353.537	800.000	-0.030	0.129
-352.523	35.855	-0.071	0.062
-351.508	92.772	0.283	0.318
-350.493	-56.959	-0.103	-0.045
-349.479	-67.907	0.153	-0.060
-348.464	131.323	-0.208	-0.267
-347.450	-165.125	-0.324	0.014
-346.435	343.314	-0.129	-0.252
-345.420	800.000	-0.112	-0.383
-344.406	-45.357	-0.316	-0.156
-343.391	-4.968	-0.200	-0.137
-342.377	800.000	0.018	-0.069
-341.362	-200.000	-0.047	0.237
-340.348	-200.000	-0.004	-0.109
-339.333	377.255	-0.095	0.194
-338.318	-200.000	-0.026	0.158
-337.304	-143.674	-0.206	0.019
-336.289	692.466	-0.113	-0.295
-335.275	105.938	-0.124	-0.146
-334.260	-25.756	0.234	0.138
-333.245	88.759	-0.060	-0.066
-332.231	-78.907	-0.069	-0.023
-331.216	100.889	0.106	-0.123
-330.202	-14.280	0.047	-0.030
-329.187	185.946	0.062	-0.092
-328.172	-57.569	-0.144	-0.063
-327.158	-31.796	-0.314	-0.175
-326.143	-51.246	-0.474	-0.221
-325.129	31.999	0.371	0.318
-324.114	105.525	0.118	0.138
-323.099	81.708	0.404	0.436
-322.085	82.485	-0.064	-0.070
-321.070	-126.916	0.147	0.022
-320.056	-132.086	0.273	-0.035
-319.041	282.114	0.124	0.222
-318.026	-169.070	0.256	0.009
-317.012	27.646	-0.172	-0.144
-315.997	800.000	-0.065	-0.201
-314.983	487.468	0.108	-0.246
-313.968	-18.384	0.021	0.013
-312.953	-200.000	0.043	0.247
-311.939	-147.519	0.314	0.026
-310.924	800.000	0.050	-0.181
-309.910	-136.942	-0.160	-0.018
-308.895	-179.991	-0.137	-0.003
-307.880	-105.539	-0.252	-0.057
-306.866	-124.296	0.090	-0.014
-305.851	46.721	0.042	-0.039
-304.837	228.461	0.096	-0.155
-303.822	-124.652	-0.271	0.042
-302.807	-200.000	-0.025	0.120
-301.793	800.000	0.014	0.052
-300.778	-78.315	0.166	0.057
-299.764	-200.000	0.013	-0.064
-298.749	137.995	0.075	0.098
-297.735	-200.000	-0.006	0.176
-296.720	-200.000	0.053	-0.000
-295.705	-2.104	0.133	0.093
-294.691	2.523	0.285	0.205
-293.676	-41.946	0.277	-0.141
-292.662	-96.051	-0.278	0.074
-291.647	800.000	-0.037	-0.119
-290.632	-70.682	-0.130	0.049
-289.618	-200.000	0.058	0.392
-288.603	413.297	0.085	-0.179
-287.589	125.328	-0.055	0.069
-286.574	-28.616	-0.046	0.026
-285.559	154.528	0.088	0.121
-284.545	-152.865	-0.252	0.018
-283.530	-60.514	-0.259	-0.110
-282.516	104.619	-0.202	0.236
-281.501	800.000	-0.017	0.052
-280.486	29.820	-0.024	-0.021
-279.472	-52.247	0.311	0.144
-278.457	-132.576	0.204	-0.026
-277.443	-200.000	-0.022	0.114
-276.428	-50.327	0.063	0.030
-275.413	-48.278	0.092	-0.044
-274.399	-76.933	-0.327	0.113
-273.384	800.000	-0.021	-0.065
-272.370	425.397	0.112	0.241
-271.355	-51.953	-0.245	-0.113
-270.340	800.000	0.069	-0.236
-269.326	-111.723	-0.186	0.038
-268.311	-200.000	0.037	0.318
-267.297	-200.000	0.006	-0.341
-266.282	450.751	-0.184	-0.403
-265.267	-200.000	0.006	0.160
-264.253	-152.451	0.223	0.016
-263.238	43.598	0.210	-0.191
-262.224	47.126	0.122	0.113
-261.209	-107.623	0.212	0.046
-260.195	244.496	-0.144	0.241
-259.180	85.669	-0.262	0.287
-258.165	-65.793	0.368	0.147
-257.151	-39.560	0.064	0.033
-256.136	-77.576	0.161	0.056
-255.122	-47.336	0.374	0.181
-254.107	800.000	0.009	0.026
-253.092	-200.000	0.000	-0.249
-252.078	-16.703	-0.232	-0.146
-251.063	-58.381	0.239	0.103
-250.049	800.000	-0.041	-0.131
-249.034	-6.765	-0.073	0.049
-248.019	-131.018	-0.122	0.016
-247.005	-200.000	0.046	0.237
-245.990	-94.879	0.246	-0.066
-244.976	-200.000	-0.019	-0.085
-243.961	-4.183	-0.303	0.208
-242.946	-200.000	-0.032	0.241
-241.932	-105.876	0.453	0.101
-240.917	6.259	-0.232	0.171
-239.903	-3.132	0.050	-0.035
-238.888	-123.026	0.234	0.037
-237.873	487.511	0.089	0.202
-236.859	800.000	-0.126	-0.439
-235.844	464.387	-0.156	-0.346
-234.830	-191.330	-0.205	0.002
-233.815	-58.547	-0.047	-0.020
-232.800	-8.887	0.245	0.163
-231.786	370.192	0.081	-0.163
-230.771	-200.000	-0.027	0.136
-229.757	-22.844	-0.117	0.070
-228.742	-12.202	-0.290	0.188
-227.727	-21.970	-0.044	-0.027
-226.713	272.183	-0.120	-0.211
-225.698	-16.140	0.170	0.107
-224.684	-87.135	-0.200	0.060
-223.669	-160.510	0.097	-0.005
-222.655	-52.790	0.259	-0.118
-221.640	-200.000	-0.023	0.143
-220.625	-0.112	0.099	0.070
-219.611	52.956	-0.068	-0.065
-218.596	602.659	-0.103	-0.253
-217.582	18.060	-0.053	-0.042
-216.567	-200.000	-0.022	-0.264
-215.552	62.776	-0.106	0.106
-214.538	-200.000	0.007	-0.037
-213.523	435.874	-0.106	0.229
-212.509	-90.264	-0.192	0.055
-211.494	800.000	-0.077	-0.274
-210.479	59.006	0.081	-0.079
-209.465	800.000	-0.103	0.304
-208.450	524.974	-0.122	-0.284
-207.436	249.443	0.046	-0.078
-206.421	-200.000	-0.013	-0.121
-205.406	-183.206	0.311	-0.005
-204.392	277.461	0.180	0.318
-203.377	-200.000	0.039	-0.297
-202.363	800.000	0.063	0.197
-201.348	-122.614	0.059	0.010
-200.333	19.273	-0.242	-0.193
-199.319	-87.296	0.555	0.167
-198.304	-82.870	-0.191	0.061
-197.290	-79.098	0.414	0.140
-196.275	800.000	-0.076	0.212
-195.260	14.674	-0.152	0.118
-194.246	70.280	-0.174	0.178
-193.231	63.056	0.058	0.057
-192.217	57.444	0.113	-0.109
-191.202	229.185	0.155	-0.251
-190.187	-21.841	-0.190	0.114
-189.173	224.349	0.074	0.118
-188.158	501.918	0.098	-0.224
-187.144	-140.224	-0.233	0.024
-186.129	227.909	-0.085	0.138
-185.114	574.238	-0.070	-0.169
-184.100	-200.000	-0.040	0.189
-183.085	-9.336	0.160	-0.106
-182.071	53.180	0.105	-0.100
-181.056	286.255	-0.070	-0.125
-180.042	258.957	0.085	-0.145
-179.027	-200.000	-0.000	-0.069
-178.012	162.775	-0.132	-0.183
-176.998	150.621	-0.019	0.026
-175.983	220.144	0.103	0.163
-174.969	-123.246	-0.301	-0.048
-173.954	96.300	0.260	0.294
-172.939	-102.224	-0.063	0.015
-171.925	271.154	0.089	0.155
-170.910	118.093	0.145	0.177
-169.896	-100.327	0.114	-0.028
-168.881	209.850	-0.065	0.100
-167.866	-121.916	-0.132	0.022
-166.852	-13.655	-0.316	0.203
-165.837	-200.000	0.018	0.162
-164.823	113.144	-0.232	-0.279
-163.808	68.719	0.044	-0.044
-162.793	800.000	-0.060	0.214
-161.779	287.646	-0.139	0.248
-160.764	78.015	0.198	-0.209
-159.750	88.194	0.224	0.246
-158.735	-200.000	0.009	-0.168
-157.720	-200.000	-0.032	0.209
-156.706	159.553	0.046	0.063
-155.691	618.170	0.094	-0.234
-154.677	-200.000	-0.012	0.401
-153.662	800.000	0.025	-0.103
-152.647	-200.000	0.015	-0.181
-151.633	77.439	-0.172	-0.181
-150.618	187.050	-0.123	-0.181
-149.604	-200.000	0.004	0.253
-148.589	32.454	0.220	0.188
-147.574	146.290	-0.086	0.115
-146.560	174.084	-0.081	0.115
-145.545	-200.000	0.013	-0.151
-144.531	233.049	-0.028	0.046
-143.516	-128.364	0.059	0.008
-142.502	-200.000	-0.019	0.207
-141.487	-92.245	0.124	0.035
-140.472	-98.408	0.127	-0.032
-139.458	-162.940	0.207	-0.010
-138.443	-42.405	-0.031	0.016
-137.429	-152.442	0.284	0.020
-136.414	-70.327	-0.254	-0.095
-135.399	204.606	-0.125	0.191
-134.385	-47.211	0.129	0.062
-133.370	-200.000	-0.008	0.038
-132.356	-60.508	-0.165	-0.069
-131.341	468.779	0.066	-0.146
-130.326	-200.000	0.036	-0.249
-129.312	114.243	0.038	-0.045
-128.297	-200.000	-0.029	-0.361
-127.283	335.593	0.198	-0.381
-126.268	-85.195	-0.285	0.088
-125.253	32.770	-0.297	-0.254
-124.239	-175.808	-0.103	0.003
-123.224	-3.987	0.057	-0.039
-122.210	-200.000	-0.040	-0.249
-121.195	345.244	0.133	0.259
