DTS Sentinel unit serial number:	SN413079Multiplexer serial number:	ORYXHardware model number:	OX4-SRSoftware version number:	ORYX F/W v4.00 Oryx Data Collector v3.7.2.0data status	okinstallation	princeton_trtdifferential loss correction	single-endedforward channel	channel 1reverse channel	N/Adate	2019/09/19time	06:10:35forward acquisition time	60.00reverse acquisition time	0.00gamma	496.2192k internal	0.2343k external	0.2343temperature offset calibration	1.0019default loss term (dB/km)	0.3790temperature slope calibration	1.0000multiplexer offset coefficient	1.0000multiplexer slope coefficient	1.0000fibre end	0.00T internal ref (°C)	19.12T ext. ref 1 (°C)	0.58T ext. ref 2 (°C)	12.76length (m)	temperature (°C)	Stokes	anti-Stokes-747.200	21.145	0.171	-0.139
-746.185	800.000	-0.043	0.148
-745.171	-200.000	0.002	0.044
-744.156	588.198	0.066	0.164
-743.142	-172.097	-0.296	-0.010
-742.127	-200.000	0.103	0.500
-741.112	321.463	-0.146	0.277
-740.098	-87.850	-0.111	-0.034
-739.083	103.087	-0.076	0.089
-738.069	664.371	-0.185	0.478
-737.054	51.840	-0.049	0.047
-736.039	-14.677	-0.324	-0.208
-735.025	-78.453	0.786	0.269
-734.010	800.000	-0.173	-0.479
-732.996	-79.779	-0.252	-0.085
-731.981	65.098	0.135	-0.137
-730.966	269.978	-0.118	-0.208
-729.952	-77.635	-0.341	0.118
-728.937	-130.360	-0.306	-0.042
-727.923	-7.753	0.254	-0.172
-726.908	137.070	0.013	0.017
-725.894	-111.277	0.065	0.013
-724.879	-8.683	-0.261	-0.175
-723.864	263.720	-0.193	0.336
-722.850	-59.944	-0.310	-0.133
-721.835	800.000	-0.070	-0.278
-720.821	-130.881	0.216	0.029
-719.806	70.388	-0.044	-0.045
-718.791	800.000	0.079	-0.267
-717.777	-127.732	-0.254	0.037
-716.762	-108.424	-0.516	0.111
-715.748	23.349	0.133	0.109
-714.733	84.768	0.138	0.151
-713.718	-68.010	-0.080	0.031
-712.704	-200.000	-0.034	0.377
-711.689	-200.000	0.057	-0.289
-710.675	-200.000	-0.037	-0.362
-709.660	-200.000	0.014	0.137
-708.645	-29.038	-0.281	0.162
-707.631	800.000	0.017	-0.055
-706.616	-200.000	-0.070	0.354
-705.602	30.485	-0.155	-0.133
-704.587	800.000	0.028	-0.102
-703.572	-20.652	0.091	0.056
-702.558	-54.236	-0.210	-0.095
-701.543	-200.000	0.007	-0.067
-700.529	800.000	-0.052	-0.199
-699.514	-200.000	0.021	0.137
-698.499	-99.122	0.227	-0.058
-697.485	-56.398	-0.454	-0.202
-696.470	573.340	-0.036	-0.089
-695.456	248.648	0.086	0.145
-694.441	800.000	-0.108	-0.324
-693.426	-178.312	-0.088	0.002
-692.412	438.535	-0.064	-0.140
-691.397	-55.902	0.068	-0.030
-690.383	-200.000	0.062	0.301
-689.368	-200.000	-0.093	-0.440
-688.354	302.660	0.044	0.082
-687.339	-43.629	-0.091	0.046
-686.324	800.000	0.062	-0.205
-685.310	79.118	-0.089	-0.095
-684.295	58.669	0.120	-0.118
-683.281	45.373	0.148	0.136
-682.266	-150.709	-0.165	0.013
-681.251	38.202	0.256	0.227
-680.237	-200.000	0.060	0.338
-679.222	-16.981	-0.127	-0.080
-678.208	-200.000	0.027	-0.214
-677.193	-88.979	0.313	-0.093
-676.178	-70.568	0.144	0.055
-675.164	-57.184	0.197	-0.086
-674.149	-190.752	-0.161	-0.002
-673.135	-200.000	0.011	0.189
-672.120	148.109	-0.222	0.299
-671.105	-200.000	-0.007	0.271
-670.091	-162.168	-0.310	-0.016
-669.076	526.134	-0.113	0.265
-668.062	-200.000	-0.030	0.348
-667.047	-88.960	0.155	-0.046
-666.032	-39.443	0.084	-0.044
-665.018	-149.645	0.285	0.022
-664.003	-155.054	-0.360	-0.024
-662.989	-123.924	0.228	0.036
-661.974	-14.104	-0.105	-0.067
-660.959	-200.000	0.025	-0.168
-659.945	-200.000	0.036	-0.170
-658.930	38.171	-0.060	-0.053
-657.916	577.587	-0.092	-0.224
-656.901	-200.000	0.004	-0.020
-655.886	-31.955	0.039	-0.022
-654.872	-162.326	-0.147	-0.007
-653.857	-91.650	-0.085	-0.024
-652.843	9.890	0.149	0.113
-651.828	47.826	-0.260	-0.242
-650.814	-101.386	-0.173	-0.042
-649.799	-200.000	0.059	0.302
-648.784	800.000	0.112	-0.309
-647.770	-48.629	-0.333	0.159
-646.755	-30.674	-0.163	0.092
-645.741	-152.320	0.232	0.017
-644.726	-200.000	0.033	-0.296
-643.711	-200.000	-0.037	0.248
-642.697	53.954	0.179	0.172
-641.682	55.331	0.232	-0.224
-640.668	78.750	-0.183	-0.195
-639.653	-33.544	-0.283	-0.156
-638.638	-200.000	-0.100	-0.472
-637.624	-85.762	0.235	0.073
-636.609	-191.869	0.123	-0.001
-635.595	477.895	-0.065	0.147
-634.580	-7.403	0.161	-0.109
-633.565	350.523	-0.083	0.163
-632.551	38.759	-0.093	0.083
-631.536	-13.256	0.041	-0.027
-630.522	-77.513	0.160	0.055
-629.507	800.000	-0.058	0.180
-628.492	-88.622	-0.124	0.037
-627.478	-150.269	-0.393	-0.030
-626.463	800.000	-0.087	-0.277
-625.449	183.396	0.116	-0.170
-624.434	35.886	0.097	0.085
-623.419	219.951	-0.167	-0.267
-622.405	47.707	0.091	0.085
-621.390	-4.857	0.135	0.093
-620.376	171.180	-0.072	0.103
-619.361	-12.921	0.142	-0.092
-618.346	-142.292	0.172	-0.017
-617.332	-5.372	-0.354	0.242
-616.317	97.422	0.184	-0.210
-615.303	800.000	0.037	0.123
-614.288	506.333	-0.198	0.456
-613.273	-83.476	0.239	0.076
-612.259	158.474	0.055	0.076
-611.244	638.596	-0.061	0.155
-610.230	146.825	-0.163	-0.219
-609.215	-200.000	0.005	-0.240
-608.201	-42.066	-0.376	-0.192
-607.186	-200.000	0.023	0.181
-606.171	-1.470	0.200	-0.141
-605.157	-43.103	-0.265	0.134
-604.142	-32.225	-0.065	-0.036
-603.128	314.701	-0.130	0.244
-602.113	-92.793	0.175	-0.049
-601.098	800.000	-0.079	0.261
-600.084	-200.000	-0.008	0.065
-599.069	-44.280	0.210	0.105
-598.055	123.788	0.160	0.200
-597.040	-68.891	-0.279	-0.107
-596.025	350.073	0.071	-0.140
-595.011	-200.000	-0.013	0.098
-593.996	43.956	-0.088	0.080
-592.982	-87.182	0.243	-0.074
-591.967	-94.476	-0.272	-0.074
-590.952	-184.869	0.155	-0.002
-589.938	-200.000	0.031	0.306
-588.923	800.000	-0.030	0.107
-587.909	119.521	0.093	0.115
-586.894	-53.116	-0.278	0.127
-585.879	-97.637	0.296	0.076
-584.865	7.771	-0.378	-0.282
-583.850	-200.000	0.008	0.097
-582.836	442.337	-0.013	0.027
-581.821	-161.874	-0.106	0.005
-580.806	-200.000	0.032	0.344
-579.792	100.272	0.106	-0.123
-578.777	307.337	-0.140	0.260
-577.763	-55.809	0.179	0.080
-576.748	-200.000	-0.011	0.168
-575.733	385.028	-0.058	-0.119
-574.719	186.316	-0.081	-0.119
-573.704	252.657	0.185	-0.315
-572.690	69.220	0.063	-0.065
-571.675	-13.099	0.163	-0.105
-570.661	-200.000	-0.042	-0.254
-569.646	-84.348	0.011	0.003
-568.631	18.370	0.158	0.126
-567.617	-123.431	-0.137	-0.022
-566.602	-109.634	-0.344	-0.072
-565.588	143.493	-0.071	-0.095
-564.573	358.349	-0.133	-0.263
-563.558	532.033	0.085	-0.200
-562.544	160.120	-0.138	0.192
-561.529	22.835	0.237	0.193
-560.515	-200.000	-0.029	-0.186
-559.500	178.437	0.183	-0.266
-558.485	325.938	-0.164	0.313
-557.471	713.548	0.131	-0.345
-556.456	212.131	-0.067	0.106
-555.442	-51.050	-0.173	0.080
-554.427	-200.000	0.031	0.182
-553.412	-200.000	-0.036	0.181
-552.398	-200.000	-0.012	-0.365
-551.383	800.000	-0.069	0.199
-550.369	-200.000	0.013	-0.184
-549.354	156.976	0.176	-0.242
-548.339	800.000	0.049	-0.162
-547.325	800.000	0.026	-0.104
-546.310	-200.000	0.002	0.261
-545.296	-29.505	0.285	-0.162
-544.281	-200.000	0.026	-0.314
-543.266	587.540	0.024	0.058
-542.252	-115.208	-0.039	-0.007
-541.237	30.334	0.202	-0.171
-540.223	-47.273	0.200	0.097
-539.208	800.000	-0.036	-0.119
-538.193	-113.574	-0.223	-0.043
-537.179	-146.060	0.100	0.009
-536.164	800.000	-0.027	-0.090
-535.150	-102.542	-0.061	-0.015
-534.135	800.000	0.032	0.093
-533.121	-81.656	-0.036	0.012
-532.106	-94.966	-0.273	-0.073
-531.091	-19.966	-0.286	0.175
-530.077	324.149	-0.213	0.404
-529.062	39.907	-0.127	-0.114
-528.048	-200.000	0.075	-0.376
-527.033	-161.348	-0.162	-0.008
-526.018	484.595	0.064	0.145
-525.004	-33.332	-0.080	-0.044
-523.989	-107.892	-0.134	0.029
-522.975	-121.563	0.349	-0.057
-521.960	-82.914	0.659	-0.211
-520.945	-200.000	0.036	-0.396
-519.931	293.363	-0.081	0.147
-518.916	369.366	-0.013	-0.026
-517.902	-200.000	0.038	-0.305
-516.887	271.184	-0.071	-0.124
-515.872	-1.111	-0.103	-0.073
-514.858	350.670	0.059	0.115
-513.843	276.692	-0.107	0.189
-512.829	-59.238	0.141	-0.060
-511.814	80.907	0.084	0.090
-510.799	-102.979	-0.477	0.112
-509.785	126.319	0.206	-0.259
-508.770	377.472	0.023	0.046
-507.756	3.705	0.158	0.114
-506.741	-33.410	0.255	0.140
-505.726	-18.475	-0.063	0.039
-504.712	-56.938	-0.164	-0.072
-503.697	-118.037	-0.297	0.053
-502.683	-69.029	-0.399	-0.153
-501.668	-101.357	-0.230	-0.056
-500.653	-77.035	0.291	0.101
-499.639	-39.199	0.064	0.033
-498.624	-200.000	0.049	-0.344
-497.610	-200.000	0.002	-0.057
-496.595	497.678	0.065	-0.148
-495.581	-69.318	0.127	-0.048
-494.566	-63.360	-0.175	0.071
-493.551	15.997	0.199	-0.155
-492.537	-200.000	0.065	0.364
-491.522	32.284	0.224	0.191
-490.508	-200.000	-0.001	0.072
-489.493	69.298	-0.174	0.177
-488.478	-27.200	0.392	0.227
-487.464	45.411	-0.095	-0.087
-486.449	-24.906	-0.182	-0.107
-485.435	800.000	-0.123	-0.356
-484.420	-200.000	-0.041	0.294
-483.405	-175.320	0.035	0.001
-482.391	-60.850	-0.213	-0.089
-481.376	-200.000	0.001	-0.057
-480.362	-33.102	0.164	-0.090
-479.347	800.000	-0.040	0.113
-478.332	-113.184	0.263	-0.051
-477.318	-200.000	0.005	0.220
-476.303	-24.699	-0.167	-0.099
-475.289	-114.017	-0.249	-0.048
-474.274	-61.986	-0.267	0.111
-473.259	403.104	0.094	0.195
-472.245	800.000	0.076	0.243
-471.230	125.240	-0.174	-0.217
-470.216	800.000	0.076	-0.242
-469.201	774.528	0.115	0.312
-468.186	149.923	0.103	0.138
-467.172	-85.058	0.166	-0.051
-466.157	422.464	0.067	-0.143
-465.143	-200.000	-0.011	-0.235
-464.128	-95.886	-0.102	0.027
-463.113	524.243	-0.156	-0.363
-462.099	-88.749	-0.175	-0.051
-461.084	-95.886	-0.473	0.125
-460.070	131.258	-0.177	-0.225
-459.055	31.783	0.345	0.294
-458.040	-168.248	-0.190	-0.007
-457.026	-200.000	0.026	-0.122
-456.011	-200.000	-0.106	0.465
-454.997	800.000	0.073	-0.275
-453.982	51.753	-0.232	-0.219
-452.968	-122.066	0.189	0.031
-451.953	24.472	-0.095	0.078
-450.938	-115.183	0.193	0.036
-449.924	-200.000	-0.054	-0.283
-448.909	285.004	-0.115	-0.206
-447.895	800.000	0.117	0.375
-446.880	252.193	0.118	-0.199
-445.865	-64.042	0.264	-0.107
-444.851	-76.803	-0.199	0.069
-443.836	-148.388	0.141	0.011
-442.822	-19.116	-0.102	0.063
-441.807	-164.690	-0.269	0.012
-440.792	-91.763	-0.269	-0.076
-439.778	-82.324	-0.313	0.101
-438.763	610.992	0.050	0.123
-437.749	-82.097	-0.290	0.094
-436.734	62.945	0.065	0.065
-435.719	11.106	0.285	-0.215
-434.705	-200.000	-0.028	-0.172
-433.690	-52.700	0.202	-0.092
-432.676	33.382	0.078	-0.067
-431.661	-57.311	-0.317	-0.138
-430.646	-171.642	-0.016	-0.001
-429.632	-84.798	0.319	0.099
-428.617	15.782	0.187	0.145
-427.603	-96.230	-0.287	0.075
-426.588	800.000	0.091	0.296
-425.573	-200.000	-0.002	-0.160
-424.559	-180.573	0.164	0.003
-423.544	-200.000	-0.010	0.060
-422.530	57.850	0.116	-0.112
-421.515	-17.681	0.139	-0.087
-420.500	-37.471	0.079	0.042
-419.486	-50.837	0.125	0.058
-418.471	207.681	-0.217	0.334
-417.457	-92.491	-0.166	-0.046
-416.442	-200.000	0.019	-0.176
-415.428	800.000	0.007	0.021
-414.413	76.671	-0.120	-0.126
-413.398	-200.000	-0.001	-0.215
-412.384	2.254	-0.183	0.131
-411.369	160.311	-0.215	0.296
-410.355	-20.146	-0.162	-0.099
-409.340	109.538	0.146	-0.173
-408.325	164.162	0.034	0.047
-407.311	226.965	-0.143	0.229
-406.296	521.208	-0.010	-0.023
-405.282	66.310	0.248	0.249
-404.267	-169.849	-0.228	-0.008
-403.252	13.124	0.078	0.059
-402.238	-200.000	0.077	0.419
-401.223	663.252	-0.045	0.114
-400.209	-83.086	0.266	0.085
-399.194	318.020	-0.088	0.165
-398.179	-118.256	0.101	0.018
-397.165	800.000	-0.119	-0.350
-396.150	-104.087	0.159	0.036
-395.136	-26.240	-0.210	-0.122
-394.121	-200.000	0.013	0.320
-393.106	-145.256	-0.151	-0.014
-392.092	56.610	0.195	0.187
-391.077	2.031	0.198	-0.141
-390.063	-88.264	-0.015	0.005
-389.048	-200.000	0.020	-0.097
-388.033	542.350	-0.191	0.449
-387.019	-41.608	0.350	0.177
-386.004	198.793	0.220	-0.332
-384.990	122.494	0.081	0.100
-383.975	-122.543	-0.198	0.032
-382.960	73.795	-0.212	0.219
-381.946	-200.000	-0.002	0.161
-380.931	-125.402	0.262	-0.039
-379.917	-122.219	-0.365	0.059
-378.902	800.000	0.038	-0.128
-377.888	-200.000	0.052	-0.270
-376.873	-197.309	-0.093	0.001
-375.858	-74.436	0.200	-0.071
-374.844	-200.000	-0.009	-0.124
-373.829	153.531	0.058	-0.079
-372.815	20.309	-0.144	0.114
-371.800	222.965	0.121	-0.193
-370.785	179.104	0.070	-0.101
-369.771	-88.296	-0.444	-0.131
-368.756	93.003	0.101	-0.113
-367.742	104.786	0.023	-0.027
-366.727	110.390	-0.126	-0.149
-365.712	-29.441	-0.279	-0.158
-364.698	240.987	-0.170	0.280
-363.683	240.924	0.040	-0.066
-362.669	-84.777	-0.314	0.097
-361.654	-109.784	0.330	0.068
-360.639	-136.639	-0.171	0.019
-359.625	-133.960	0.333	0.041
-358.610	-57.891	-0.131	-0.057
-357.596	-200.000	0.030	0.152
-356.581	223.644	-0.199	-0.316
-355.566	-144.804	0.131	-0.012
-354.552	106.547	0.102	-0.119
-353.537	-184.398	-0.345	0.006
-352.523	-200.000	-0.024	-0.167
-351.508	-154.889	0.271	-0.018
-350.493	506.539	-0.060	-0.136
-349.479	-21.404	0.036	0.022
-348.464	242.641	0.054	0.089
-347.450	84.751	-0.047	0.051
-346.435	-200.000	-0.049	-0.348
-345.420	800.000	0.136	0.399
-344.406	-37.664	0.057	-0.030
-343.391	132.128	0.227	-0.288
-342.377	-35.643	-0.170	-0.091
-341.362	800.000	-0.032	0.140
-340.348	-115.715	0.301	0.056
-339.333	-5.098	0.038	-0.026
-338.318	189.889	-0.165	-0.244
-337.304	150.560	-0.100	-0.133
-336.289	605.776	0.007	0.018
-335.275	-200.000	0.024	0.110
-334.260	-82.432	-0.298	-0.096
-333.245	800.000	0.054	-0.226
-332.231	166.280	0.246	0.343
-331.216	-70.912	-0.085	-0.032
-330.202	-119.199	0.027	0.005
-329.187	-59.445	0.292	0.124
-328.172	-200.000	0.020	-0.217
-327.158	273.496	0.079	-0.137
-326.143	-144.968	-0.058	-0.005
-325.129	-106.257	-0.484	-0.107
-324.114	-96.076	-0.325	0.085
-323.099	-200.000	0.016	-0.101
-322.085	-46.605	-0.187	0.090
-321.070	-62.177	-0.325	-0.134
-320.056	74.045	-0.048	0.049
-319.041	-70.934	0.178	-0.066
-318.026	276.996	0.021	-0.036
-317.012	164.015	0.205	0.284
-315.997	193.570	0.076	-0.114
-314.983	-200.000	0.017	-0.228
-313.968	-138.562	0.262	0.028
-312.953	-167.269	0.185	-0.007
-311.939	60.990	0.296	0.289
-310.924	120.083	-0.079	-0.096
-309.910	-77.140	0.209	0.072
-308.895	-121.916	-0.061	-0.010
-307.880	-200.000	0.019	-0.121
-306.866	54.086	0.324	-0.306
-305.851	-200.000	-0.035	-0.237
-304.837	97.003	-0.163	0.184
-303.822	135.395	0.067	0.086
-302.807	-20.284	-0.224	-0.136
-301.793	-200.000	-0.057	0.286
-300.778	-200.000	0.019	-0.171
-299.764	-115.784	0.280	0.052
-298.749	399.631	-0.082	0.168
-297.735	-200.000	0.038	0.363
-296.720	-58.885	0.286	0.122
-295.705	-162.618	0.248	0.012
-294.691	-64.157	-0.415	-0.167
-293.676	-200.000	-0.017	-0.178
-292.662	-200.000	-0.048	-0.215
-291.647	131.505	-0.237	0.300
-290.632	477.475	-0.028	0.063
-289.618	800.000	-0.118	-0.419
-288.603	-91.651	-0.239	-0.067
-287.589	63.993	-0.085	0.084
-286.574	517.821	0.037	0.085
-285.559	-200.000	0.027	0.193
-284.545	41.705	0.017	-0.015
-283.530	116.368	-0.064	-0.078
-282.516	-51.957	0.445	-0.203
-281.501	290.871	-0.146	0.262
-280.486	-81.761	0.217	-0.070
-279.472	-200.000	-0.005	0.465
-278.457	-52.934	0.111	0.050
-277.443	-109.952	-0.087	0.018
-276.428	140.425	-0.093	-0.121
-275.413	-200.000	0.018	-0.187
-274.399	304.937	-0.091	-0.166
-273.384	-84.896	-0.287	0.089
-272.370	-200.000	-0.048	-0.274
-271.355	-26.318	0.130	-0.075
-270.340	-200.000	0.010	-0.098
-269.326	-101.630	0.077	-0.018
-268.311	-21.820	-0.202	-0.121
-267.297	651.230	-0.099	0.248
-266.282	-200.000	-0.020	-0.112
-265.267	-73.308	0.041	-0.015
-264.253	-80.782	-0.162	0.053
-263.238	-200.000	0.021	-0.156
-262.224	36.579	0.157	0.136
-261.209	-200.000	-0.086	0.527
-260.195	103.140	0.198	-0.228
-259.180	662.611	0.101	-0.256
-258.165	39.963	0.190	-0.167
-257.151	24.087	-0.362	-0.293
-256.136	-200.000	0.036	0.176
-255.122	274.695	0.143	0.249
-254.107	473.571	0.068	0.150
-253.092	800.000	-0.140	0.551
-252.078	107.497	-0.109	-0.127
-251.063	-101.689	0.148	0.035
-250.049	11.747	-0.181	-0.136
-249.034	-200.000	0.012	-0.150
-248.019	800.000	-0.060	0.195
-247.005	-200.000	0.005	0.152
-245.990	-200.000	0.007	-0.044
-244.976	-88.176	0.147	0.043
-243.961	-128.152	-0.224	0.031
-242.946	800.000	0.038	0.127
-241.932	-172.855	0.459	0.014
-240.917	-84.129	-0.108	0.034
-239.903	307.558	-0.091	-0.166
-238.888	-57.354	-0.205	0.089
-237.873	-200.000	0.024	-0.218
-236.859	-71.520	0.274	0.101
-235.844	193.148	-0.159	-0.236
-234.830	-19.417	0.234	0.142
-233.815	118.404	-0.047	-0.057
-232.800	800.000	0.098	0.278
-231.786	-95.986	0.199	-0.052
-230.771	175.064	-0.250	0.356
-229.757	791.130	-0.115	0.311
-228.742	430.573	-0.067	-0.142
-227.727	-155.032	0.089	-0.006
-226.713	-93.787	-0.244	0.066
-225.698	-200.000	0.031	0.315
-224.684	-200.000	0.001	0.115
-223.669	-158.544	0.274	-0.016
-222.655	248.596	0.078	0.129
-221.640	-87.413	-0.146	-0.043
-220.625	94.944	-0.236	0.263
-219.611	-57.555	0.105	0.045
-218.596	800.000	0.103	0.309
-217.582	341.812	-0.123	0.235
-216.567	-31.621	0.198	-0.109
-215.552	278.304	-0.066	-0.115
-214.538	800.000	-0.047	0.200
-213.523	-90.125	0.010	-0.003
-212.509	-45.238	0.130	-0.063
-211.494	-20.681	-0.384	-0.231
-210.479	192.403	0.152	-0.225
-209.465	21.989	-0.217	-0.174
-208.450	-124.985	-0.139	-0.021
-207.436	-115.922	0.243	0.044
-206.421	-107.357	0.440	0.095
-205.406	-14.508	0.147	-0.093
-204.392	2.990	0.139	0.099
-203.377	-200.000	0.002	-0.153
-202.363	-57.186	-0.181	0.078
-201.348	434.920	-0.077	0.164
-200.333	-171.479	0.050	-0.002
-199.319	-133.954	-0.189	0.023
-198.304	800.000	0.171	-0.532
-197.290	87.635	0.233	-0.253
-196.275	-200.000	0.012	0.097
-195.260	-39.941	0.249	0.127
-194.246	211.302	-0.113	0.174
-193.231	-200.000	0.012	-0.106
-192.217	-66.225	-0.368	0.143
-191.202	-200.000	-0.026	-0.307
-190.187	-200.000	-0.003	-0.105
-189.173	-34.825	0.237	0.127
-188.158	88.414	0.115	-0.125
-187.144	-200.000	0.010	0.479
-186.129	-200.000	-0.024	-0.302
-185.114	-17.782	-0.205	0.126
-184.100	-144.694	0.269	-0.024
-183.085	800.000	0.121	0.360
-182.071	116.829	0.093	-0.112
-181.056	416.450	0.031	0.065
-180.042	-200.000	-0.007	0.395
-179.027	770.625	0.068	-0.182
-178.012	-200.000	-0.022	-0.206
-176.998	165.519	0.107	0.148
-175.983	767.408	-0.133	-0.354
-174.969	800.000	-0.098	-0.415
-173.954	-200.000	-0.004	-0.045
-172.939	-112.458	0.380	0.074
-171.925	129.271	0.207	0.258
-170.910	260.440	-0.233	0.395
-169.896	800.000	-0.019	0.077
-168.881	-200.000	-0.032	-0.249
-167.866	413.814	-0.134	-0.279
-166.852	-141.560	0.277	0.027
-165.837	359.128	-0.086	-0.169
-164.823	-83.946	0.272	0.085
-163.808	-75.593	0.176	0.061
-162.793	800.000	-0.078	0.250
-161.779	-97.541	-0.183	0.047
-160.764	-66.554	0.183	-0.071
-159.750	-200.000	0.011	0.054
-158.735	-27.227	0.305	0.174
-157.720	-185.754	0.313	0.005
-156.706	269.395	0.048	-0.082
-155.691	231.187	0.198	-0.317
-154.677	-80.839	-0.120	-0.039
-153.662	232.973	-0.167	0.269
-152.647	800.000	0.046	-0.188
-151.633	-200.000	0.014	0.179
-150.618	-198.984	0.265	-0.001
-149.604	-20.340	0.333	0.200
-148.589	-200.000	0.012	-0.302
-147.574	800.000	0.048	-0.205
-146.560	149.443	-0.070	0.092
-145.545	-15.021	0.165	0.104
-144.531	-200.000	0.023	0.249
-143.516	-98.898	-0.330	-0.082
-142.502	-117.820	0.039	0.007
-141.487	767.999	-0.064	-0.169
-140.472	28.453	0.283	-0.234
-139.458	200.177	0.068	-0.101
-138.443	-48.283	-0.126	-0.059
-137.429	800.000	-0.158	-0.501
-136.414	-100.775	-0.114	-0.027
-135.399	-140.874	0.366	-0.037
-134.385	-90.405	-0.124	-0.035
-133.370	-200.000	-0.023	-0.120
-132.356	-200.000	-0.020	-0.164
-131.341	152.657	0.221	-0.295
-130.326	800.000	0.084	-0.354
-129.312	-126.680	-0.096	0.014
-128.297	-101.179	-0.202	-0.048
-127.283	-138.044	-0.445	-0.048
-126.268	800.000	0.022	-0.071
-125.253	-200.000	-0.072	0.604
-124.239	-150.844	0.061	0.005
-123.224	13.324	0.155	0.117
