DTS Sentinel unit serial number:	SN413079Multiplexer serial number:	ORYXHardware model number:	OX4-SRSoftware version number:	ORYX F/W v4.00 Oryx Data Collector v3.7.2.0data status	okinstallation	princeton_trtdifferential loss correction	single-endedforward channel	channel 1reverse channel	N/Adate	2019/09/19time	12:50:35forward acquisition time	60.00reverse acquisition time	0.00gamma	496.2192k internal	0.2329k external	0.2329temperature offset calibration	1.0016default loss term (dB/km)	0.3790temperature slope calibration	1.0000multiplexer offset coefficient	1.0000multiplexer slope coefficient	1.0000fibre end	0.00T internal ref (°C)	28.08T ext. ref 1 (°C)	0.91T ext. ref 2 (°C)	26.29length (m)	temperature (°C)	Stokes	anti-Stokes-747.200	-200.000	0.009	-0.041
-746.185	624.032	0.121	0.306
-745.171	349.299	0.061	0.122
-744.156	-200.000	0.033	0.416
-743.142	323.664	-0.080	-0.154
-742.127	800.000	0.077	0.317
-741.112	-81.715	0.249	-0.082
-740.098	195.916	0.172	0.263
-739.083	-59.269	-0.203	-0.088
-738.069	-200.000	-0.005	0.185
-737.054	-84.112	-0.268	-0.086
-736.039	-26.161	0.057	-0.034
-735.025	63.292	0.112	-0.113
-734.010	24.430	-0.147	-0.122
-732.996	-10.232	-0.299	-0.200
-731.981	267.675	0.064	-0.112
-730.966	-200.000	-0.004	-0.078
-729.952	-143.183	-0.483	0.047
-728.937	33.964	-0.080	0.070
-727.923	20.244	-0.163	0.133
-726.908	243.083	-0.121	-0.204
-725.894	-200.000	-0.019	-0.131
-724.879	800.000	-0.061	-0.250
-723.864	17.519	0.149	0.119
-722.850	-200.000	-0.014	0.117
-721.835	-78.590	-0.260	-0.089
-720.821	-28.096	0.276	-0.161
-719.806	171.057	0.078	-0.113
-718.791	-200.000	0.093	-0.418
-717.777	-93.759	-0.088	-0.025
-716.762	800.000	-0.160	-0.484
-715.748	19.835	-0.193	0.157
-714.733	-91.808	0.442	0.126
-713.718	224.840	0.112	-0.183
-712.704	116.268	-0.088	-0.108
-711.689	-110.576	-0.084	0.018
-710.675	-200.000	0.016	0.080
-709.660	-44.727	-0.137	0.069
-708.645	-79.093	0.219	-0.075
-707.631	-198.994	-0.391	-0.002
-706.616	56.363	0.237	-0.232
-705.602	104.809	0.026	-0.031
-704.587	168.659	-0.103	-0.148
-703.572	-200.000	-0.059	-0.276
-702.558	382.915	-0.225	-0.466
-701.543	-25.653	0.183	-0.109
-700.529	-96.244	0.264	-0.070
-699.514	154.784	-0.029	0.040
-698.499	-97.240	-0.035	-0.009
-697.485	800.000	-0.065	-0.191
-696.470	-200.000	-0.060	-0.360
-695.456	214.891	-0.201	-0.320
-694.441	-111.093	-0.279	-0.058
-693.426	800.000	0.087	0.277
-692.412	333.977	-0.120	-0.234
-691.397	210.264	-0.136	0.215
-690.383	-37.173	-0.100	-0.054
-689.368	800.000	0.087	-0.369
-688.354	800.000	0.115	-0.360
-687.339	372.383	-0.045	-0.092
-686.324	-200.000	0.017	0.314
-685.310	-200.000	-0.023	-0.271
-684.295	-37.387	-0.271	0.145
-683.281	223.933	0.260	0.421
-682.266	-200.000	-0.015	-0.343
-681.251	800.000	0.089	-0.306
-680.237	132.307	-0.061	-0.079
-679.222	-138.305	0.076	0.008
-678.208	94.355	0.088	-0.100
-677.193	-26.829	-0.146	-0.086
-676.178	303.399	0.204	0.380
-675.164	403.871	0.050	0.105
-674.149	800.000	-0.047	-0.132
-673.135	-200.000	0.010	0.060
-672.120	800.000	0.035	0.151
-671.105	-134.303	-0.251	-0.031
-670.091	5.581	0.089	0.066
-669.076	198.734	-0.184	0.283
-668.062	148.614	-0.148	0.201
-667.047	53.410	0.097	-0.093
-666.032	2.060	0.208	0.151
-665.018	246.137	0.160	0.271
-664.003	-200.000	-0.013	-0.236
-662.989	-72.536	-0.459	-0.170
-661.974	-104.470	-0.065	0.015
-660.959	2.538	0.201	-0.146
-659.945	-59.969	0.479	0.206
-658.930	176.025	0.200	-0.292
-657.916	-80.459	-0.186	0.062
-656.901	-141.777	-0.145	0.015
-655.886	800.000	-0.039	-0.110
-654.872	-75.156	0.075	-0.027
-653.857	-200.000	0.041	-0.214
-652.843	-81.874	-0.099	0.032
-651.828	-200.000	-0.008	0.288
-650.814	-200.000	0.022	0.331
-649.799	190.716	0.209	-0.315
-648.784	166.010	-0.223	0.317
-647.770	145.363	-0.118	-0.159
-646.755	-109.720	0.234	-0.049
-645.741	-52.998	0.291	0.134
-644.726	110.925	0.115	0.139
-643.711	-200.000	-0.020	0.192
-642.697	-200.000	0.003	0.089
-641.682	58.276	0.224	0.220
-640.668	583.828	0.060	-0.147
-639.653	466.481	0.048	-0.107
-638.638	-58.187	0.144	0.063
-637.624	577.029	0.059	-0.144
-636.609	48.375	0.095	0.089
-635.595	-123.341	-0.081	-0.013
-634.580	49.486	0.080	-0.076
-633.565	-50.004	-0.158	-0.075
-632.551	-200.000	-0.026	0.165
-631.536	16.397	0.171	-0.135
-630.522	-63.000	0.134	0.055
-629.507	-62.475	0.050	-0.021
-628.492	82.983	-0.188	-0.205
-627.478	-200.000	-0.000	-0.131
-626.463	71.714	0.084	-0.087
-625.449	2.806	-0.609	-0.443
-624.434	-200.000	-0.005	-0.138
-623.419	-200.000	0.068	-0.353
-622.405	-44.507	-0.235	-0.118
-621.390	243.361	0.096	0.161
-620.376	-172.377	-0.127	-0.004
-619.361	-86.194	0.132	0.041
-618.346	468.095	-0.083	0.188
-617.332	800.000	0.060	-0.243
-616.317	-200.000	-0.017	0.274
-615.303	36.259	-0.226	0.200
-614.288	-119.073	-0.086	0.015
-613.273	-127.344	0.277	-0.041
-612.259	-142.299	-0.225	-0.022
-611.244	-6.431	-0.152	0.104
-610.230	33.654	-0.207	0.180
-609.215	284.721	-0.064	-0.115
-608.201	-64.477	-0.512	0.209
-607.186	-152.155	-0.182	0.013
-606.171	-148.682	-0.303	-0.025
-605.157	515.312	0.156	-0.364
-604.142	-144.835	0.311	-0.029
-603.128	87.433	0.328	0.364
-602.113	68.121	-0.171	0.175
-601.098	-57.503	0.071	0.031
-600.084	432.255	0.017	0.036
-599.069	39.520	-0.162	0.146
-598.055	114.939	0.144	0.177
-597.040	-81.516	0.210	0.069
-596.025	330.423	-0.140	-0.270
-595.011	-200.000	-0.050	-0.224
-593.996	-200.000	-0.033	0.227
-592.982	-27.584	-0.064	0.037
-591.967	-200.000	0.030	0.384
-590.952	118.426	-0.186	0.230
-589.938	49.037	-0.371	-0.348
-588.923	452.688	0.126	0.280
-587.909	-30.446	-0.318	0.181
-586.894	800.000	-0.033	-0.127
-585.879	-200.000	0.021	-0.111
-584.865	375.825	0.125	-0.256
-583.850	24.202	0.335	0.277
-582.836	-200.000	0.003	-0.283
-581.821	-200.000	-0.005	-0.099
-580.806	-59.443	-0.078	0.033
-579.792	-200.000	-0.013	-0.099
-578.777	687.067	0.087	-0.227
-577.763	-47.685	0.058	0.028
-576.748	7.617	0.083	-0.062
-575.733	-66.631	0.029	0.012
-574.719	-200.000	0.018	0.194
-573.704	544.435	-0.052	-0.125
-572.690	-149.093	-0.166	0.013
-571.675	-93.396	0.402	-0.111
-570.661	200.857	0.148	-0.228
-569.646	-200.000	0.027	-0.166
-568.631	48.063	0.288	0.269
-567.617	800.000	-0.016	0.056
-566.602	115.484	0.012	0.015
-565.588	30.364	0.419	-0.358
-564.573	104.565	-0.148	-0.174
-563.558	128.927	0.086	-0.110
-562.544	-200.000	-0.026	-0.173
-561.529	800.000	-0.075	-0.292
-560.515	800.000	-0.119	-0.382
-559.500	-88.340	0.190	-0.057
-558.485	223.250	0.228	-0.368
-557.471	-196.303	0.225	-0.002
-556.456	-15.550	0.266	-0.170
-555.442	-200.000	0.081	-0.364
-554.427	-200.000	0.001	0.189
-553.412	778.923	0.065	-0.179
-552.398	-140.245	0.220	-0.023
-551.383	-171.185	0.107	-0.004
-550.369	105.435	0.257	-0.303
-549.354	800.000	-0.034	0.142
-548.339	-111.421	-0.387	0.079
-547.325	-4.189	-0.011	-0.007
-546.310	26.180	0.081	0.067
-545.296	-200.000	0.052	-0.627
-544.281	-27.717	-0.082	0.047
-543.266	800.000	0.053	-0.174
-542.252	-172.585	0.165	-0.005
-541.237	-44.301	0.018	-0.009
-540.223	-119.451	-0.162	-0.028
-539.208	-200.000	0.015	-0.091
-538.193	71.510	0.048	0.050
-537.179	-93.411	0.370	0.102
-536.164	274.195	-0.136	-0.240
-535.150	-6.172	0.148	-0.101
-534.135	31.371	-0.150	-0.128
-533.121	-200.000	-0.014	0.247
-532.106	-145.857	-0.053	-0.005
-531.091	-18.887	0.064	0.040
-530.077	4.347	0.121	-0.089
-529.062	-48.843	-0.183	-0.087
-528.048	133.579	-0.085	-0.109
-527.033	-69.077	0.148	0.057
-526.018	277.043	-0.159	-0.283
-525.004	-71.202	0.246	0.092
-523.989	-159.334	-0.318	-0.018
-522.975	-30.752	0.181	-0.102
-521.960	102.982	0.099	-0.116
-520.945	-200.000	0.019	-0.181
-519.931	10.255	0.107	0.081
-518.916	170.015	0.152	-0.217
-517.902	-110.884	0.070	-0.014
-516.887	-48.744	0.325	-0.156
-515.872	92.985	-0.081	-0.091
-514.858	-179.105	-0.122	-0.003
-513.843	499.080	-0.058	-0.132
-512.829	800.000	0.062	-0.238
-511.814	-8.714	0.102	-0.068
-510.799	565.195	-0.105	-0.253
-509.785	-200.000	-0.048	0.239
-508.770	20.064	-0.244	0.197
-507.756	57.577	-0.266	0.259
-506.741	19.116	0.188	-0.150
-505.726	-93.028	0.417	0.116
-504.712	800.000	-0.046	0.164
-503.697	156.804	0.190	0.263
-502.683	-146.300	-0.343	-0.030
-501.668	-200.000	0.006	-0.057
-500.653	209.556	-0.182	0.285
-499.639	232.443	0.136	0.223
-498.624	438.693	-0.099	0.215
-497.610	-200.000	0.002	-0.193
-496.595	-200.000	0.011	0.278
-495.581	800.000	-0.123	0.360
-494.566	98.624	-0.036	-0.041
-493.551	131.506	-0.145	-0.186
-492.537	104.373	-0.124	-0.145
-491.522	-200.000	-0.001	0.145
-490.508	-92.749	-0.425	-0.119
-489.493	800.000	0.040	0.151
-488.478	-163.550	-0.372	-0.018
-487.464	145.956	0.147	0.197
-486.449	106.237	-0.185	-0.218
-485.435	269.288	0.050	0.087
-484.420	100.838	0.075	-0.087
-483.405	-49.885	-0.153	0.072
-482.391	-87.446	-0.287	0.087
-481.376	34.820	-0.217	0.189
-480.362	-147.055	0.209	-0.018
-479.347	317.937	0.159	-0.301
-478.332	173.241	0.071	-0.102
-477.318	-164.419	0.515	-0.023
-476.303	73.793	-0.149	0.156
-475.289	3.708	-0.124	0.090
-474.274	-200.000	-0.005	-0.252
-473.259	73.406	-0.092	-0.096
-472.245	800.000	0.055	0.203
-471.230	-135.323	-0.134	-0.016
-470.216	45.052	0.080	-0.074
-469.201	-26.408	-0.096	-0.056
-468.186	19.622	0.236	-0.189
-467.172	-200.000	-0.066	0.343
-466.157	263.760	-0.177	0.307
-465.143	1.587	0.030	0.021
-464.128	-109.380	0.232	0.049
-463.113	-200.000	-0.006	-0.051
-462.099	-200.000	-0.033	-0.197
-461.084	-200.000	0.018	0.176
-460.070	85.488	-0.122	0.133
-459.055	172.573	0.154	0.220
-458.040	29.107	-0.363	0.307
-457.026	94.688	-0.089	-0.101
-456.011	-200.000	0.032	0.225
-454.997	-20.503	-0.278	-0.170
-453.982	800.000	0.065	0.189
-452.968	800.000	-0.056	0.180
-451.953	-200.000	-0.033	0.309
-450.938	800.000	0.070	0.217
-449.924	-64.303	0.382	-0.155
-448.909	-95.511	0.157	-0.042
-447.895	-110.561	-0.300	-0.062
-446.880	-86.104	0.114	-0.035
-445.865	-200.000	0.028	0.191
-444.851	800.000	0.045	0.126
-443.836	-200.000	-0.006	-0.037
-442.822	17.856	0.328	-0.260
-441.807	222.516	-0.107	-0.171
-440.792	116.328	0.217	0.264
-439.778	800.000	0.062	-0.228
-438.763	-153.163	0.159	-0.011
-437.749	364.008	-0.163	-0.326
-436.734	46.179	0.053	-0.049
-435.719	-200.000	0.035	-0.176
-434.705	-58.094	0.432	0.188
-433.690	800.000	0.002	-0.005
-432.676	336.226	-0.104	-0.202
-431.661	-106.000	-0.175	0.039
-430.646	-51.247	0.119	-0.056
-429.632	-200.000	-0.020	-0.094
-428.617	-71.076	-0.177	-0.066
-427.603	113.280	0.132	-0.159
-426.588	-118.869	-0.184	-0.032
-425.573	-137.840	0.255	0.028
-424.559	790.430	0.096	-0.261
-423.544	-59.716	-0.057	-0.024
-422.530	212.554	-0.010	-0.016
-421.515	-101.402	-0.288	0.070
-420.500	-72.531	-0.080	-0.029
-419.486	73.880	0.134	-0.140
-418.471	800.000	0.073	-0.315
-417.457	-200.000	0.062	0.498
-416.442	800.000	0.050	-0.188
-415.428	186.059	0.044	0.066
-414.413	-140.369	-0.111	-0.012
-413.398	-183.925	-0.324	0.005
-412.384	-200.000	-0.011	-0.199
-411.369	202.123	-0.312	0.478
-410.355	1.475	-0.195	-0.140
-409.340	604.121	-0.112	0.276
-408.325	800.000	0.121	0.354
-407.311	113.800	-0.220	-0.266
-406.296	800.000	-0.100	-0.349
-405.282	-200.000	-0.005	-0.159
-404.267	-58.478	0.405	0.175
-403.252	205.531	0.214	0.330
-402.238	-196.936	-0.068	-0.000
-401.223	-82.813	-0.299	0.096
-400.209	800.000	0.144	0.563
-399.194	-48.907	0.078	-0.037
-398.179	-94.013	-0.244	0.066
-397.165	2.421	0.265	-0.191
-396.150	216.795	-0.116	0.184
-395.136	-177.420	-0.179	-0.004
-394.121	28.907	0.104	0.088
-393.106	63.120	0.070	-0.070
-392.092	-200.000	0.018	0.235
-391.077	-94.659	-0.199	-0.054
-390.063	22.353	0.107	0.087
-389.048	-200.000	0.050	-0.372
-388.033	157.982	0.058	-0.079
-387.019	-200.000	-0.018	-0.114
-386.004	800.000	-0.018	-0.069
-384.990	-174.368	0.236	0.007
-383.975	-200.000	-0.068	0.338
-382.960	-14.216	-0.333	-0.213
-381.946	800.000	-0.052	0.181
-380.931	-77.919	-0.069	-0.024
-379.917	442.532	0.097	-0.211
-378.902	-48.200	-0.234	-0.112
-377.888	-64.870	0.216	-0.087
-376.873	203.560	-0.037	0.057
-375.858	800.000	0.066	-0.253
-374.844	38.341	0.020	-0.017
-373.829	800.000	0.046	0.159
-372.815	281.539	0.222	-0.395
-371.800	115.988	-0.273	0.332
-370.785	5.715	-0.364	0.267
-369.771	-61.914	-0.119	0.049
-368.756	-200.000	-0.042	-0.229
-367.742	-22.736	-0.163	-0.098
-366.727	800.000	0.062	0.197
-365.712	115.801	-0.054	-0.065
-364.698	-65.600	0.209	0.083
-363.683	396.733	-0.054	-0.112
-362.669	-200.000	0.007	0.161
-361.654	-67.149	-0.340	-0.133
-360.639	800.000	0.032	-0.107
-359.625	-71.293	-0.186	0.069
-358.610	800.000	-0.080	0.297
-357.596	-182.597	-0.098	-0.002
-356.581	-4.275	0.155	0.107
-355.566	154.465	0.134	0.182
-354.552	44.385	-0.203	0.185
-353.537	366.410	-0.135	0.270
-352.523	-190.955	-0.234	-0.002
-351.508	790.666	0.107	0.292
-350.493	-177.672	-0.268	-0.006
-349.479	-10.531	0.206	-0.135
-348.464	407.505	-0.032	-0.067
-347.450	-64.173	0.265	-0.107
-346.435	-46.706	-0.024	-0.011
-345.420	322.201	-0.050	-0.094
-344.406	-125.726	0.223	0.033
-343.391	123.548	0.249	0.310
-342.377	50.833	-0.225	-0.211
-341.362	424.241	-0.048	-0.102
-340.348	311.190	0.143	0.266
-339.333	-140.199	0.387	-0.040
-338.318	-91.908	-0.159	0.045
-337.304	276.640	0.203	0.358
-336.289	-105.261	-0.162	-0.037
-335.275	120.432	0.048	-0.059
-334.260	480.749	-0.162	-0.364
-333.245	-22.119	0.134	-0.081
-332.231	208.594	-0.169	-0.262
-331.216	279.372	-0.088	0.155
-330.202	243.495	0.158	-0.262
-329.187	-99.256	-0.216	-0.054
-328.172	192.893	0.155	0.232
-327.158	-200.000	-0.036	0.273
-326.143	-33.403	-0.159	0.087
-325.129	292.598	-0.187	0.338
-324.114	-66.521	0.328	0.129
-323.099	-200.000	0.002	0.318
-322.085	44.303	-0.114	0.104
-321.070	-43.573	-0.202	-0.101
-320.056	38.289	-0.299	-0.264
-319.041	-200.000	0.003	0.107
-318.026	10.139	0.079	0.060
-317.012	145.030	-0.122	-0.162
-315.997	-126.065	0.349	-0.052
-314.983	-200.000	0.010	0.268
-313.968	-77.811	0.322	-0.110
-312.953	800.000	0.087	0.310
-311.939	22.401	-0.146	0.118
-310.924	-112.364	0.132	-0.026
-309.910	21.829	0.195	-0.158
-308.895	41.492	-0.155	0.139
-307.880	-27.215	-0.099	0.057
-306.866	634.532	0.044	-0.110
-305.851	-74.888	0.117	-0.042
-304.837	-200.000	0.013	-0.206
-303.822	84.274	-0.189	-0.205
-302.807	800.000	-0.096	-0.284
-301.793	-200.000	-0.017	-0.198
-300.778	-89.947	-0.080	-0.023
-299.764	-34.734	-0.270	0.146
-298.749	-81.166	0.420	0.137
-297.735	-200.000	-0.020	0.123
-296.720	163.020	0.035	0.049
-295.705	4.661	0.236	-0.171
-294.691	-184.334	-0.265	-0.004
-293.676	277.432	0.042	-0.074
-292.662	800.000	-0.115	0.354
-291.647	800.000	0.069	0.293
-290.632	800.000	0.120	0.383
-289.618	30.159	-0.195	-0.165
-288.603	-107.704	-0.111	-0.024
-287.589	7.851	-0.213	0.158
-286.574	800.000	0.060	-0.196
-285.559	-200.000	-0.032	0.167
-284.545	-108.900	0.043	0.009
-283.530	-84.709	0.509	-0.158
-282.516	645.473	-0.027	0.068
-281.501	547.355	-0.063	0.148
-280.486	-88.131	-0.088	0.026
-279.472	-68.204	-0.403	0.155
-278.457	173.432	-0.191	0.272
-277.443	-130.235	0.449	-0.060
-276.428	-65.363	-0.317	0.126
-275.413	800.000	-0.058	-0.158
-274.399	18.809	-0.285	-0.226
-273.384	351.997	0.111	0.218
-272.370	50.603	0.203	0.189
-271.355	-131.968	0.121	-0.016
-270.340	-117.333	0.152	-0.027
-269.326	136.827	0.060	-0.078
-268.311	-80.155	-0.071	0.023
-267.297	800.000	0.059	-0.162
-266.282	120.568	-0.159	-0.195
-265.267	-67.184	0.151	0.059
-264.253	-140.912	0.188	0.019
-263.238	77.615	-0.065	-0.068
-262.224	12.564	0.380	0.290
-261.209	64.191	0.121	-0.120
-260.195	800.000	-0.036	0.139
-259.180	-63.401	-0.097	-0.039
-258.165	-112.113	0.047	-0.009
-257.151	-200.000	0.050	0.263
-256.136	0.617	0.238	0.168
-255.122	-164.452	-0.182	-0.008
-254.107	145.619	0.138	-0.183
-253.092	-200.000	-0.008	0.098
-252.078	-200.000	-0.051	0.477
-251.063	-26.516	0.197	0.114
-250.049	16.612	-0.450	-0.352
-249.034	-27.841	0.042	-0.024
-248.019	35.125	-0.122	0.105
-247.005	213.233	0.092	0.144
-245.990	-96.207	-0.298	0.078
-244.976	-200.000	-0.055	0.271
-243.961	-16.265	-0.301	-0.189
-242.946	-166.964	0.439	0.018
-241.932	-200.000	-0.048	-0.407
-240.917	-129.338	-0.127	0.017
-239.903	197.301	0.100	0.151
-238.888	228.015	0.047	-0.075
-237.873	176.349	-0.139	-0.200
-236.859	-182.929	0.180	-0.003
-235.844	179.188	-0.088	-0.127
-234.830	7.411	0.268	-0.198
-233.815	800.000	0.041	-0.159
-232.800	-123.409	0.282	-0.044
-231.786	-134.511	-0.133	0.016
-230.771	63.021	-0.101	0.100
-229.757	602.260	-0.026	-0.063
-228.742	-200.000	0.000	0.220
-227.727	-200.000	0.029	-0.155
-226.713	-200.000	0.008	0.076
-225.698	-24.370	0.155	0.091
-224.684	397.388	-0.121	-0.250
-223.669	67.603	-0.162	0.164
-222.655	-130.474	0.289	-0.039
-221.640	189.181	-0.019	-0.028
-220.625	-66.063	0.172	-0.068
-219.611	-3.923	-0.090	-0.062
-218.596	643.767	-0.113	0.283
-217.582	-111.131	-0.137	0.028
-216.567	800.000	0.033	0.121
-215.552	44.941	0.057	-0.051
-214.538	-10.618	0.204	0.133
-213.523	-157.252	-0.258	0.015
-212.509	745.262	-0.076	0.203
-211.494	495.848	0.078	-0.178
-210.479	41.809	0.150	0.134
-209.465	-56.181	0.048	0.021
-208.450	-200.000	0.055	0.350
-207.436	-113.374	-0.402	0.078
-206.421	572.678	0.029	0.070
-205.406	33.377	0.153	0.131
-204.392	-87.328	0.327	0.098
-203.377	-149.403	-0.392	-0.031
-202.363	597.711	-0.133	-0.325
-201.348	-31.358	0.139	0.077
-200.333	-29.252	-0.031	-0.018
-199.319	-200.000	-0.034	-0.254
-198.304	-98.587	-0.365	-0.092
-197.290	452.887	-0.015	0.033
-196.275	436.124	-0.089	0.191
-195.260	-78.939	-0.279	-0.093
-194.246	-200.000	-0.023	-0.143
-193.231	-200.000	-0.000	-0.065
-192.217	-200.000	0.000	0.038
-191.202	800.000	-0.105	-0.319
-190.187	-102.616	0.126	-0.030
-189.173	800.000	-0.073	-0.316
-188.158	-1.865	-0.195	-0.136
-187.144	44.786	-0.268	-0.243
-186.129	-90.224	-0.313	0.090
-185.114	-142.518	0.055	-0.005
-184.100	-36.744	-0.034	-0.018
-183.085	112.162	-0.121	-0.144
-182.071	787.693	0.079	0.215
-181.056	90.475	0.193	-0.213
-180.042	800.000	0.081	-0.247
-179.027	-18.156	-0.225	-0.139
-178.012	391.624	-0.034	-0.070
-176.998	233.311	-0.119	0.192
-175.983	197.686	0.096	-0.144
-174.969	-64.193	-0.122	-0.049
-173.954	99.734	0.114	0.130
-172.939	43.838	0.154	-0.139
-171.925	376.147	0.108	-0.218
-170.910	-71.644	0.242	0.089
-169.896	50.679	0.322	0.300
-168.881	-131.224	-0.167	0.022
-167.866	421.253	-0.125	0.263
-166.852	569.547	0.104	0.250
-165.837	49.643	-0.192	0.178
-164.823	-68.422	0.330	-0.126
-163.808	12.195	0.132	0.100
-162.793	422.085	0.053	0.112
-161.779	-122.432	0.289	0.046
-160.764	-200.000	-0.003	0.137
-159.750	-26.437	-0.052	-0.030
-158.735	-27.784	0.249	-0.142
-157.720	53.167	0.104	-0.098
-156.706	-200.000	-0.021	0.195
-155.691	-9.216	-0.196	0.129
-154.677	-127.859	0.229	-0.032
-153.662	-200.000	-0.009	-0.146
-152.647	-37.926	0.062	0.032
-151.633	800.000	0.043	-0.187
-150.618	-200.000	-0.005	0.415
-149.604	-111.858	0.120	-0.024
-148.589	-71.404	-0.234	-0.086
-147.574	800.000	-0.029	0.083
-146.560	-200.000	0.373	0.000
-145.545	-58.422	0.119	0.051
-144.531	5.435	0.289	-0.210
-143.516	298.240	-0.048	0.087
-142.502	354.630	-0.068	-0.133
-141.487	306.108	0.123	-0.225
-140.472	49.435	0.141	0.131
-139.458	549.037	0.125	0.295
-138.443	42.703	-0.328	0.293
-137.429	51.145	-0.170	0.159
-136.414	-170.897	0.371	0.012
-135.399	177.133	0.093	-0.134
-134.385	186.207	-0.110	-0.161
-133.370	-200.000	0.042	-0.206
-132.356	220.257	0.197	-0.311
-131.341	-152.654	0.035	0.002
-130.326	197.876	-0.070	-0.105
-129.312	-200.000	0.007	-0.134
-128.297	591.862	0.019	0.045
-127.283	164.810	0.091	-0.126
-126.268	210.417	-0.056	-0.087
-125.253	-112.289	0.238	0.047
-124.239	800.000	-0.031	-0.096
-123.224	85.869	-0.108	-0.116
-122.210	-12.104	0.358	0.231
