DTS Sentinel unit serial number:	SN413079Multiplexer serial number:	ORYXHardware model number:	OX4-SRSoftware version number:	ORYX F/W v4.00 Oryx Data Collector v3.7.2.0data status	okinstallation	princeton_trtdifferential loss correction	single-endedforward channel	channel 1reverse channel	N/Adate	2019/09/17time	10:18:35forward acquisition time	60.00reverse acquisition time	0.00gamma	496.2192k internal	0.2323k external	0.2323temperature offset calibration	0.9963default loss term (dB/km)	0.3790temperature slope calibration	1.0000multiplexer offset coefficient	1.0000multiplexer slope coefficient	1.0000fibre end	0.00T internal ref (°C)	29.86T ext. ref 1 (°C)	0.16T ext. ref 2 (°C)	25.43length (m)	temperature (°C)	Stokes	anti-Stokes-747.200	-64.427	-0.114	-0.047
-746.185	-200.000	0.019	0.229
-745.171	-200.000	-0.030	0.291
-744.156	157.444	0.245	0.343
-743.142	-144.533	0.101	-0.009
-742.127	-200.000	-0.028	0.136
-741.112	46.611	-0.229	0.215
-740.098	350.708	-0.103	-0.205
-739.083	-200.000	-0.027	-0.221
-738.069	800.000	-0.103	0.326
-737.054	328.042	0.072	0.139
-736.039	-75.999	-0.106	-0.038
-735.025	800.000	-0.071	0.198
-734.010	482.377	-0.194	-0.445
-732.996	-200.000	0.027	0.177
-731.981	-66.040	-0.290	0.117
-730.966	-70.134	0.157	0.060
-729.952	44.054	-0.228	-0.211
-728.937	-143.169	-0.031	0.003
-727.923	-200.000	0.001	0.029
-726.908	800.000	0.012	-0.044
-725.894	-133.080	-0.491	-0.063
-724.879	475.247	0.091	-0.208
-723.864	56.477	-0.267	-0.262
-722.850	67.382	-0.161	0.166
-721.835	324.462	-0.049	-0.095
-720.821	110.820	-0.230	-0.279
-719.806	-50.376	0.263	-0.125
-718.791	-163.088	-0.416	-0.020
-717.777	800.000	-0.055	-0.177
-716.762	-200.000	0.025	0.437
-715.748	692.057	-0.146	-0.386
-714.733	28.654	0.043	0.037
-713.718	88.611	0.135	-0.152
-712.704	-200.000	0.037	-0.252
-711.689	-200.000	0.024	0.198
-710.675	445.525	0.077	-0.170
-709.660	152.824	-0.094	0.129
-708.645	149.064	-0.064	0.088
-707.631	-84.949	-0.308	0.097
-706.616	-72.232	0.375	-0.140
-705.602	-9.438	0.190	-0.128
-704.587	-100.939	-0.185	0.046
-703.572	58.529	-0.212	-0.209
-702.558	-142.303	0.288	0.029
-701.543	-11.242	-0.135	-0.089
-700.529	-200.000	0.010	0.366
-699.514	-103.839	-0.306	-0.072
-698.499	229.713	0.113	0.187
-697.485	67.625	-0.224	0.230
-696.470	-17.426	0.151	-0.095
-695.456	-200.000	0.036	-0.214
-694.441	388.244	0.119	-0.247
-693.426	-99.039	-0.142	-0.036
-692.412	-200.000	0.015	0.214
-691.397	800.000	0.064	-0.231
-690.383	106.633	-0.084	-0.100
-689.368	-200.000	-0.011	-0.221
-688.354	105.265	-0.203	-0.241
-687.339	-58.909	0.055	0.024
-686.324	58.286	0.186	0.184
-685.310	-200.000	0.016	0.194
-684.295	85.257	0.225	-0.249
-683.281	-6.185	-0.058	0.040
-682.266	800.000	0.064	-0.262
-681.251	-200.000	-0.056	-0.279
-680.237	800.000	0.130	0.396
-679.222	-200.000	-0.011	0.058
-678.208	-129.993	0.190	-0.026
-677.193	800.000	-0.005	-0.015
-676.178	214.723	-0.089	-0.142
-675.164	-200.000	0.000	0.048
-674.149	184.845	-0.273	0.407
-673.135	800.000	0.036	0.147
-672.120	185.188	0.102	-0.152
-671.105	-64.496	-0.379	0.155
-670.091	-45.616	0.130	0.065
-669.076	77.705	-0.021	-0.022
-668.062	-65.829	0.116	-0.047
-667.047	-83.463	-0.125	-0.040
-666.032	-200.000	-0.001	0.061
-665.018	-118.036	0.325	0.059
-664.003	-113.366	-0.228	0.045
-662.989	-62.397	0.354	0.148
-661.974	-97.356	0.087	0.023
-660.959	-82.373	0.157	0.051
-659.945	-169.947	0.146	0.005
-658.930	-67.078	0.501	-0.199
-657.916	33.740	0.228	0.199
-656.901	311.277	-0.043	-0.082
-655.886	800.000	-0.015	-0.064
-654.872	-200.000	-0.002	-0.035
-653.857	166.492	-0.109	0.156
-652.843	800.000	0.064	-0.256
-651.828	800.000	0.038	-0.113
-650.814	563.959	-0.116	-0.282
-649.799	-12.088	-0.210	-0.139
-648.784	-200.000	-0.015	-0.251
-647.770	313.460	0.070	0.132
-646.755	241.143	0.143	-0.240
-645.741	800.000	0.066	-0.237
-644.726	800.000	0.132	-0.368
-643.711	18.395	0.101	0.081
-642.697	-127.595	0.132	-0.019
-641.682	224.562	-0.242	0.393
-640.668	-200.000	0.025	-0.218
-639.653	-142.911	-0.194	-0.019
-638.638	239.985	0.003	0.004
-637.624	-171.991	-0.208	-0.007
-636.609	-115.017	-0.246	-0.047
-635.595	-14.936	-0.091	0.059
-634.580	800.000	0.069	-0.251
-633.565	-200.000	-0.022	-0.215
-632.551	12.939	0.112	-0.087
-631.536	-5.745	-0.385	-0.265
-630.522	780.440	-0.076	-0.210
-629.507	166.587	-0.221	0.314
-628.492	-63.495	-0.113	-0.047
-627.478	-200.000	0.007	-0.119
-626.463	-90.799	0.116	-0.034
-625.449	-200.000	-0.005	-0.030
-624.434	800.000	0.053	0.174
-623.419	-148.201	0.464	-0.039
-622.405	223.549	-0.159	0.258
-621.390	347.790	0.103	-0.204
-620.376	340.592	-0.115	0.225
-619.361	-19.884	-0.335	0.208
-618.346	98.434	-0.072	0.083
-617.332	-46.285	0.403	-0.199
-616.317	79.706	0.138	-0.149
-615.303	784.235	0.145	-0.398
-614.288	-196.626	-0.071	-0.000
-613.273	-200.000	0.057	-0.253
-612.259	-46.891	0.392	-0.193
-611.244	160.825	0.097	-0.136
-610.230	-36.980	-0.165	-0.089
-609.215	87.526	-0.099	-0.110
-608.201	383.213	0.154	-0.318
-607.186	86.663	0.155	-0.172
-606.171	25.100	-0.058	0.049
-605.157	197.236	0.203	-0.310
-604.142	429.662	-0.112	-0.243
-603.128	212.524	-0.163	-0.259
-602.113	800.000	0.069	-0.221
-601.098	219.612	-0.089	0.143
-600.084	-116.233	-0.089	0.017
-599.069	14.402	0.131	-0.102
-598.055	86.312	0.200	-0.222
-597.040	-43.418	-0.289	0.146
-596.025	-200.000	0.019	-0.198
-595.011	319.581	-0.076	-0.144
-593.996	-113.029	0.105	0.021
-592.982	65.040	-0.163	-0.166
-591.967	-200.000	-0.036	-0.411
-590.952	487.682	-0.051	0.117
-589.938	57.768	-0.093	0.091
-588.923	-119.601	-0.328	-0.057
-587.909	-200.000	-0.062	0.385
-586.894	622.003	0.100	0.253
-585.879	325.535	0.055	0.105
-584.865	-143.181	0.220	0.021
-583.850	800.000	0.079	-0.298
-582.836	-61.158	-0.134	-0.057
-581.821	401.459	-0.128	0.270
-580.806	-178.992	0.103	-0.002
-579.792	-200.000	0.062	0.327
-578.777	-83.448	0.202	-0.065
-577.763	-10.358	-0.161	-0.107
-576.748	-77.286	-0.167	-0.058
-575.733	116.421	0.087	-0.108
-574.719	-152.258	-0.183	0.013
-573.704	800.000	0.022	-0.081
-572.690	131.564	0.050	-0.064
-571.675	-146.238	-0.118	0.010
-570.661	-152.650	0.275	-0.020
-569.646	-200.000	-0.046	-0.225
-568.631	800.000	-0.002	0.005
-567.617	286.298	0.130	0.235
-566.602	-200.000	0.021	0.223
-565.588	-200.000	-0.045	0.215
-564.573	-138.405	0.299	-0.033
-563.558	-170.843	-0.281	-0.010
-562.544	314.181	0.116	0.219
-561.529	48.854	-0.111	0.105
-560.515	132.564	-0.075	0.096
-559.500	-89.507	-0.450	-0.133
-558.485	-200.000	-0.002	-0.040
-557.471	-200.000	0.017	0.143
-556.456	276.486	0.072	0.128
-555.442	282.937	0.162	0.292
-554.427	332.758	-0.127	-0.247
-553.412	-200.000	-0.021	-0.179
-552.398	256.025	0.148	0.254
-551.383	75.584	0.174	-0.184
-550.369	800.000	0.044	-0.167
-549.354	180.055	0.217	0.319
-548.339	206.101	-0.190	0.296
-547.325	360.273	0.121	-0.244
-546.310	-130.167	-0.137	0.019
-545.296	-200.000	-0.014	-0.139
-544.281	166.983	-0.189	0.268
-543.266	304.987	-0.100	-0.187
-542.252	-111.396	-0.443	-0.090
-541.237	-45.532	-0.071	0.035
-540.223	185.056	-0.102	0.152
-539.208	429.878	-0.083	-0.179
-538.193	489.377	0.051	-0.116
-537.179	-83.622	0.112	-0.036
-536.164	-200.000	-0.008	0.045
-535.150	27.126	0.155	0.131
-534.135	-8.801	-0.220	-0.148
-533.121	-200.000	-0.013	0.158
-532.106	-91.800	0.113	0.032
-531.091	-200.000	0.009	0.160
-530.077	-157.173	-0.114	-0.007
-529.062	-53.983	-0.131	0.060
-528.048	-200.000	-0.009	-0.313
-527.033	800.000	-0.031	-0.095
-526.018	-148.501	0.324	-0.027
-525.004	-72.985	0.245	-0.090
-523.989	300.105	0.004	-0.007
-522.975	-161.298	-0.382	0.020
-521.960	312.061	0.107	-0.201
-520.945	-200.000	0.015	-0.322
-519.931	589.455	0.054	0.134
-518.916	581.829	0.043	0.105
-517.902	-180.019	0.318	-0.007
-516.887	549.502	-0.124	-0.297
-515.872	-136.990	0.496	0.057
-514.858	2.329	-0.131	0.095
-513.843	150.620	-0.210	0.285
-512.829	-200.000	-0.012	0.151
-511.814	-32.441	0.023	0.013
-510.799	-26.436	-0.259	-0.152
-509.785	-200.000	-0.035	-0.191
-508.770	5.623	-0.189	-0.140
-507.756	-1.097	-0.132	-0.093
-506.741	94.190	0.186	-0.211
-505.726	-96.200	0.498	0.132
-504.712	214.067	0.026	-0.041
-503.697	-97.367	-0.221	-0.058
-502.683	53.959	-0.136	0.131
-501.668	-113.315	-0.034	-0.007
-500.653	-140.121	-0.216	0.023
-499.639	-200.000	-0.010	-0.053
-498.624	-21.046	0.200	-0.123
-497.610	14.561	0.166	-0.130
-496.595	800.000	0.077	-0.222
-495.581	-200.000	0.008	0.125
-494.566	800.000	-0.058	-0.241
-493.551	-4.391	0.163	-0.113
-492.537	800.000	0.032	-0.096
-491.522	192.898	0.120	-0.182
-490.508	-125.961	0.284	-0.043
-489.493	-83.620	0.099	0.032
-488.478	800.000	-0.152	0.492
-487.464	-12.277	-0.334	-0.218
-486.449	122.949	-0.133	0.167
-485.435	-181.144	-0.243	-0.005
-484.420	800.000	-0.056	0.160
-483.405	90.852	-0.052	-0.059
-482.391	-110.870	-0.384	-0.079
-481.376	54.864	-0.092	0.089
-480.362	4.419	0.287	-0.210
-479.347	-12.861	0.079	-0.051
-478.332	800.000	0.025	-0.080
-477.318	-134.059	-0.137	0.017
-476.303	15.382	-0.069	-0.054
-475.289	297.289	0.143	-0.263
-474.274	800.000	0.113	0.372
-473.259	361.945	0.043	-0.087
-472.245	-9.416	0.142	0.094
-471.230	800.000	-0.070	0.200
-470.216	-102.213	0.135	-0.032
-469.201	-200.000	0.028	0.311
-468.186	670.751	0.103	0.266
-467.172	-19.428	0.375	-0.232
-466.157	-124.912	-0.192	-0.030
-465.143	240.463	0.217	-0.361
-464.128	-47.367	-0.416	0.202
-463.113	24.847	-0.098	0.081
-462.099	2.108	-0.100	0.072
-461.084	-64.647	0.160	-0.065
-460.070	65.419	-0.279	0.282
-459.055	441.967	-0.146	0.319
-458.040	13.488	0.190	0.147
-457.026	-87.536	0.055	0.017
-456.011	-55.885	-0.475	-0.212
-454.997	-118.822	-0.010	0.002
-453.982	-91.347	0.075	-0.022
-452.968	-200.000	0.001	0.261
-451.953	-47.245	0.430	-0.209
-450.938	-87.352	0.375	-0.114
-449.924	407.446	0.105	0.221
-448.909	699.954	-0.070	0.184
-447.895	526.777	-0.062	-0.146
-446.880	-166.022	0.064	0.003
-445.865	-88.066	-0.102	-0.030
-444.851	-82.781	-0.339	0.109
-443.836	-135.228	0.178	0.021
-442.822	-54.652	0.141	-0.063
-441.807	-103.631	0.361	0.085
-440.792	88.274	-0.190	0.211
-439.778	402.774	-0.088	0.185
-438.763	34.781	0.250	-0.218
-437.749	362.203	-0.061	-0.121
-436.734	-90.307	-0.174	0.050
-435.719	75.530	0.240	0.252
-434.705	350.982	-0.154	0.303
-433.690	-37.875	-0.223	-0.118
-432.676	-83.823	-0.078	0.025
-431.661	-155.404	-0.296	0.019
-430.646	-105.416	-0.227	0.052
-429.632	-36.311	-0.134	0.072
-428.617	240.031	-0.239	0.396
-427.603	-70.547	0.077	0.029
-426.588	800.000	0.073	-0.215
-425.573	-200.000	-0.004	0.110
-424.559	-200.000	0.036	0.190
-423.544	354.857	-0.147	-0.291
-422.530	-52.245	0.179	-0.083
-421.515	40.366	0.009	-0.008
-420.500	15.241	-0.113	0.088
-419.486	428.673	-0.095	0.204
-418.471	-175.513	0.237	0.006
-417.457	561.713	0.065	0.157
-416.442	256.419	-0.088	-0.151
-415.428	-200.000	-0.025	-0.240
-414.413	-150.390	-0.469	-0.036
-413.398	-144.393	-0.254	-0.023
-412.384	-123.838	0.371	-0.058
-411.369	-63.017	0.158	-0.065
-410.355	218.655	0.099	0.157
-409.340	-92.878	0.128	0.036
-408.325	630.778	0.128	-0.322
-407.311	-17.584	-0.288	0.180
-406.296	800.000	0.035	0.110
-405.282	250.849	0.045	0.076
-404.267	312.825	-0.082	-0.154
-403.252	-4.612	0.298	-0.205
-402.238	36.936	0.185	-0.163
-401.223	222.864	0.045	-0.073
-400.209	-200.000	-0.065	0.364
-399.194	-200.000	0.017	0.294
-398.179	-71.467	0.202	0.075
-397.165	-33.045	-0.244	-0.135
-396.150	-119.986	-0.361	0.062
-395.136	-200.000	-0.006	-0.116
-394.121	184.994	-0.122	0.180
-393.106	-20.854	0.256	0.156
-392.092	119.957	-0.091	0.112
-391.077	8.441	0.096	-0.072
-390.063	156.226	-0.115	-0.158
-389.048	800.000	0.047	0.139
-388.033	197.818	-0.101	0.153
-387.019	65.484	0.247	0.249
-386.004	436.282	0.090	0.195
-384.990	-45.111	0.246	0.122
-383.975	-145.429	-0.466	0.042
-382.960	10.788	0.211	0.160
-381.946	-127.762	-0.343	-0.049
-380.931	-85.502	-0.140	-0.044
-379.917	530.505	0.052	0.122
-378.902	-200.000	-0.018	-0.196
-377.888	85.180	0.058	-0.063
-376.873	-39.300	-0.183	0.096
-375.858	-68.875	-0.088	0.034
-374.844	26.918	0.228	0.190
-373.829	264.804	0.117	0.203
-372.815	-153.860	0.040	-0.003
-371.800	6.257	0.122	-0.090
-370.785	-167.604	0.258	0.010
-369.771	-59.748	0.283	-0.121
-368.756	-140.126	-0.381	0.040
-367.742	-47.811	0.299	-0.144
-366.727	-200.000	-0.005	-0.082
-365.712	-200.000	-0.024	-0.364
-364.698	-6.012	-0.200	0.136
-363.683	282.564	-0.116	0.207
-362.669	82.865	-0.336	0.363
-361.654	-200.000	0.021	-0.116
-360.639	265.924	-0.076	-0.132
-359.625	56.803	-0.350	0.339
-358.610	45.193	-0.344	0.315
-357.596	-84.724	-0.057	0.018
-356.581	800.000	-0.039	0.155
-355.566	-134.599	-0.234	-0.028
-354.552	800.000	0.074	-0.253
-353.537	153.680	0.112	0.153
-352.523	-98.513	-0.450	0.114
-351.508	155.017	-0.054	-0.074
-350.493	-200.000	-0.031	-0.274
-349.479	36.727	-0.146	-0.128
-348.464	-104.714	0.124	0.028
-347.450	137.486	-0.061	-0.080
-346.435	800.000	-0.042	-0.176
-345.420	32.747	0.178	0.153
-344.406	-200.000	-0.047	0.256
-343.391	-112.249	0.303	-0.060
-342.377	-200.000	-0.006	-0.223
-341.362	-179.299	0.207	-0.005
-340.348	-75.486	-0.167	0.059
-339.333	-106.120	0.257	0.057
-338.318	725.197	0.119	-0.315
-337.304	-113.619	0.264	-0.051
-336.289	-76.536	0.281	-0.098
-335.275	1.685	-0.146	0.104
-334.260	-88.180	0.136	-0.041
-333.245	-7.116	-0.016	0.011
-332.231	800.000	-0.042	0.160
-331.216	-145.384	0.410	0.037
-330.202	-54.190	0.071	0.032
-329.187	-49.042	-0.282	-0.134
-328.172	-22.749	0.152	-0.091
-327.158	-200.000	-0.045	0.288
-326.143	251.370	-0.169	-0.286
-325.129	177.518	0.129	0.186
-324.114	-101.214	-0.208	-0.051
-323.099	67.277	0.200	0.202
-322.085	-122.615	0.357	-0.057
-321.070	-88.405	-0.170	-0.050
-320.056	-200.000	0.024	0.205
-319.041	416.141	-0.086	0.183
-318.026	254.484	0.005	0.009
-317.012	-49.246	-0.132	0.063
-315.997	-200.000	0.043	-0.189
-314.983	131.059	-0.103	-0.131
-313.968	65.554	-0.256	-0.257
-312.953	93.228	0.109	0.123
-311.939	41.831	-0.075	0.067
-310.924	40.666	0.200	0.179
-309.910	-11.891	0.253	0.165
-308.895	-200.000	-0.055	-0.276
-307.880	115.292	0.166	0.202
-306.866	-78.859	0.114	0.038
-305.851	-200.000	-0.011	0.267
-304.837	307.239	-0.045	0.082
-303.822	306.073	-0.049	-0.091
-302.807	800.000	-0.084	0.336
-301.793	-47.931	0.193	-0.092
-300.778	-27.217	0.140	0.081
-299.764	-200.000	-0.007	0.111
-298.749	166.554	-0.176	0.248
-297.735	315.024	-0.080	0.149
-296.720	-200.000	0.046	-0.248
-295.705	-100.728	0.222	0.054
-294.691	50.566	0.105	0.098
-293.676	-180.842	0.352	0.007
-292.662	800.000	-0.058	-0.186
-291.647	-122.044	0.293	-0.048
-290.632	-200.000	0.019	-0.371
-289.618	-200.000	0.009	0.267
-288.603	-200.000	0.037	0.248
-287.589	22.566	0.184	0.150
-286.574	-200.000	-0.002	-0.143
-285.559	145.955	0.212	-0.281
-284.545	268.253	-0.098	0.170
-283.530	-200.000	0.002	-0.106
-282.516	-118.242	0.239	0.042
-281.501	-130.941	0.273	-0.036
-280.486	218.206	0.033	0.052
-279.472	-62.776	0.128	0.053
-278.457	425.437	0.173	-0.368
-277.443	-200.000	-0.021	-0.123
-276.428	37.833	0.291	-0.257
-275.413	-200.000	0.011	0.232
-274.399	-83.742	0.478	0.151
-273.384	116.641	-0.084	-0.103
-272.370	155.677	-0.100	-0.137
-271.355	-200.000	0.001	-0.137
-270.340	-200.000	0.013	0.290
-269.326	-6.227	-0.113	0.076
-268.311	-60.774	0.331	-0.139
-267.297	122.534	-0.068	0.084
-266.282	351.604	-0.137	-0.269
-265.267	-147.704	-0.404	-0.034
-264.253	134.727	-0.213	-0.274
-263.238	-85.147	-0.084	-0.026
-262.224	-100.257	0.106	-0.026
-261.209	800.000	0.066	0.185
-260.195	-200.000	0.030	0.149
-259.180	222.899	-0.081	-0.129
-258.165	32.597	0.093	-0.080
-257.151	161.017	0.132	-0.183
-256.136	262.097	-0.087	-0.150
-255.122	-93.109	0.152	0.042
-254.107	-200.000	-0.045	-0.565
-253.092	-50.289	-0.191	0.089
-252.078	-126.596	-0.332	0.049
-251.063	265.296	-0.141	-0.244
-250.049	65.246	-0.044	-0.044
-249.034	11.544	-0.140	0.106
-248.019	254.969	-0.165	0.280
-247.005	15.572	-0.027	0.021
-245.990	-68.979	-0.114	0.044
-244.976	-108.276	0.222	0.047
-243.961	121.974	-0.244	0.302
-242.946	26.413	-0.252	0.209
-241.932	72.641	0.201	0.207
-240.917	-54.274	0.088	0.040
-239.903	-146.616	-0.108	-0.009
-238.888	-79.027	0.317	-0.107
-237.873	380.120	-0.095	0.193
-236.859	-76.752	0.132	0.046
-235.844	-26.311	-0.263	0.153
-234.830	-182.323	0.208	0.004
-233.815	-28.298	-0.169	-0.097
-232.800	-200.000	0.029	-0.281
-231.786	-37.909	-0.240	0.126
-230.771	308.001	0.059	-0.109
-229.757	485.480	0.031	0.071
-228.742	16.444	-0.033	-0.026
-227.727	117.386	-0.061	-0.074
-226.713	-200.000	-0.008	-0.180
-225.698	334.579	-0.129	0.248
-224.684	800.000	-0.054	0.180
-223.669	-63.794	-0.212	-0.086
-222.655	84.404	-0.275	-0.297
-221.640	800.000	-0.021	-0.082
-220.625	-165.053	-0.368	-0.016
-219.611	-200.000	-0.003	-0.083
-218.596	-109.080	0.241	0.051
-217.582	158.991	0.079	0.109
-216.567	-200.000	0.009	-0.041
-215.552	-131.307	0.231	-0.030
-214.538	-94.705	0.013	0.003
-213.523	97.617	0.175	-0.199
-212.509	167.397	-0.290	0.408
-211.494	-42.791	-0.254	-0.128
-210.479	-34.674	-0.329	-0.178
-209.465	-200.000	-0.037	-0.272
-208.450	800.000	-0.080	0.266
-207.436	44.775	0.281	0.256
-206.421	-2.834	-0.112	0.077
-205.406	45.213	0.235	0.215
-204.392	-98.581	0.548	-0.138
-203.377	-200.000	-0.005	0.127
-202.363	232.946	-0.204	0.332
-201.348	125.990	0.136	0.170
-200.333	-70.384	-0.123	0.046
-199.319	105.301	0.087	-0.101
-198.304	-200.000	-0.023	0.130
-197.290	308.464	0.088	0.163
-196.275	-59.726	-0.108	0.046
-195.260	674.689	-0.108	-0.277
-194.246	-158.958	0.315	-0.018
-193.231	-200.000	0.024	0.109
-192.217	-189.151	0.388	0.005
-191.202	-55.970	0.295	0.130
-190.187	68.314	-0.115	0.117
-189.173	-103.015	-0.200	0.047
-188.158	-82.735	0.135	0.043
-187.144	15.929	-0.077	0.060
-186.129	768.753	0.103	-0.277
-185.114	-140.904	-0.313	0.032
-184.100	-23.225	-0.171	-0.102
-183.085	-69.926	0.029	0.011
-182.071	-137.550	-0.144	-0.016
-181.056	-200.000	-0.009	0.096
-180.042	-91.646	0.172	0.048
-179.027	55.010	-0.044	-0.042
-178.012	-101.743	-0.192	-0.046
-176.998	-53.075	0.071	-0.032
-175.983	-30.029	-0.211	-0.118
-174.969	-200.000	-0.057	-0.329
-173.954	-31.401	-0.101	0.056
-172.939	-200.000	-0.069	-0.347
-171.925	800.000	-0.063	-0.222
-170.910	-122.241	-0.063	0.010
-169.896	61.859	0.185	-0.182
-168.881	478.577	0.156	-0.349
-167.866	128.143	-0.171	0.214
-166.852	20.528	-0.123	-0.098
-165.837	367.992	-0.034	-0.069
-164.823	-109.767	0.201	-0.042
-163.808	302.731	0.074	0.136
-162.793	-200.000	-0.026	0.254
-161.779	109.568	-0.126	0.148
-160.764	800.000	-0.137	0.386
-159.750	-200.000	0.058	0.345
-158.735	184.864	0.211	-0.308
-157.720	79.480	0.109	0.115
-156.706	-149.372	0.384	0.030
-155.691	55.249	0.147	-0.141
-154.677	-17.146	-0.198	0.123
-153.662	-56.669	0.621	0.271
-152.647	-66.877	-0.131	-0.051
-151.633	800.000	-0.059	0.230
-150.618	114.343	-0.097	-0.116
-149.604	-95.073	0.290	0.077
-148.589	-200.000	0.010	0.152
-147.574	361.690	-0.103	-0.203
-146.560	-4.049	0.188	-0.128
-145.545	-200.000	-0.045	-0.278
-144.531	80.339	-0.179	-0.190
-143.516	109.562	0.123	0.146
-142.502	-47.478	0.206	-0.099
-141.487	-42.890	0.246	-0.123
-140.472	-165.113	-0.199	-0.009
-139.458	-80.693	0.408	0.134
-138.443	37.180	0.172	-0.150
-137.429	-111.395	-0.552	-0.111
-136.414	47.807	-0.218	0.201
-135.399	665.765	-0.071	0.180
-134.385	86.408	-0.108	-0.118
-133.370	328.550	-0.098	-0.185
-132.356	-53.578	0.302	-0.136
-131.341	-76.001	-0.059	0.020
-130.326	-55.694	-0.207	-0.091
-129.312	-51.849	0.207	-0.095
-128.297	88.849	-0.011	0.012
-127.283	-200.000	-0.006	-0.298
-126.268	80.683	0.069	-0.073
-125.253	-18.231	-0.247	-0.152
-124.239	21.420	0.217	-0.174
-123.224	-80.654	0.332	0.109
-122.210	-83.556	0.119	-0.038
