DTS Sentinel unit serial number:	SN413079Multiplexer serial number:	ORYXHardware model number:	OX4-SRSoftware version number:	ORYX F/W v4.00 Oryx Data Collector v3.7.2.0data status	okinstallation	princeton_trtdifferential loss correction	single-endedforward channel	channel 1reverse channel	N/Adate	2019/09/13time	00:42:35forward acquisition time	60.00reverse acquisition time	0.00gamma	496.2192k internal	0.2329k external	0.2329temperature offset calibration	1.0141default loss term (dB/km)	0.3790temperature slope calibration	1.0000multiplexer offset coefficient	1.0000multiplexer slope coefficient	1.0000fibre end	0.00T internal ref (°C)	28.23T ext. ref 1 (°C)	3.67T ext. ref 2 (°C)	22.80length (m)	temperature (°C)	Stokes	anti-Stokes-747.200	29.943	0.268	0.230
-746.185	800.000	-0.114	0.430
-745.171	-200.000	-0.016	-0.120
-744.156	-81.140	-0.222	0.074
-743.142	-5.452	0.227	0.157
-742.127	355.460	0.045	0.090
-741.112	229.850	-0.044	0.072
-740.098	800.000	0.095	0.390
-739.083	-142.398	0.186	0.018
-738.069	-200.000	-0.037	0.368
-737.054	-42.699	0.125	0.064
-736.039	-56.091	-0.279	-0.125
-735.025	29.262	0.313	0.268
-734.010	183.943	-0.042	-0.063
-732.996	-200.000	0.048	-0.277
-731.981	23.429	-0.233	-0.193
-730.966	434.144	0.138	-0.303
-729.952	345.979	0.055	0.110
-728.937	573.606	-0.119	-0.292
-727.923	326.844	-0.199	-0.383
-726.908	-116.973	0.346	0.064
-725.894	800.000	0.045	0.136
-724.879	-200.000	-0.011	0.075
-723.864	-43.863	0.104	-0.053
-722.850	-138.512	0.180	0.020
-721.835	-152.891	-0.106	0.008
-720.821	35.359	0.206	-0.182
-719.806	-100.560	-0.159	0.040
-718.791	109.634	0.084	0.101
-717.777	-200.000	0.003	0.132
-716.762	24.989	0.154	-0.128
-715.748	-200.000	0.016	-0.249
-714.733	-154.120	0.155	0.011
-713.718	62.426	-0.201	0.202
-712.704	62.707	-0.149	0.150
-711.689	-36.569	-0.039	-0.021
-710.675	233.115	-0.087	0.143
-709.660	226.951	0.097	-0.158
-708.645	-155.458	-0.286	0.019
-707.631	-145.690	0.074	0.007
-706.616	800.000	0.112	-0.421
-705.602	-199.588	0.286	-0.001
-704.587	-200.000	-0.019	-0.127
-703.572	18.168	-0.145	0.117
-702.558	60.129	0.118	0.117
-701.543	-158.200	0.308	-0.018
-700.529	-68.378	-0.219	0.085
-699.514	343.706	0.154	-0.303
-698.499	800.000	0.053	-0.162
-697.485	246.090	-0.099	0.168
-696.470	800.000	-0.018	-0.071
-695.456	800.000	-0.066	0.248
-694.441	147.843	-0.035	0.047
-693.426	800.000	-0.140	-0.425
-692.412	-200.000	-0.078	-0.405
-691.397	791.887	0.126	0.350
-690.383	148.977	-0.068	-0.092
-689.368	-200.000	-0.060	0.448
-688.354	-200.000	-0.049	0.239
-687.339	-78.910	0.111	0.038
-686.324	222.894	0.107	0.173
-685.310	-23.210	0.254	-0.153
-684.295	184.015	0.220	0.327
-683.281	543.531	-0.053	-0.128
-682.266	-69.178	-0.045	-0.017
-681.251	-103.830	-0.112	0.026
-680.237	-62.032	-0.211	0.089
-679.222	-87.625	0.264	0.080
-678.208	-152.725	-0.203	-0.014
-677.193	22.598	0.102	0.084
-676.178	759.598	0.011	0.029
-675.164	70.735	0.064	-0.066
-674.149	-38.572	0.414	-0.220
-673.135	-52.844	-0.150	0.070
-672.120	21.791	0.282	-0.231
-671.105	-153.346	0.431	-0.030
-670.091	-200.000	0.024	0.117
-669.076	100.010	-0.015	0.018
-668.062	170.684	0.222	-0.319
-667.047	33.183	-0.198	0.173
-666.032	173.364	-0.255	0.369
-665.018	-200.000	0.057	0.000
-664.003	-200.000	-0.028	-0.249
-662.989	-5.850	-0.507	-0.349
-661.974	373.211	-0.100	-0.204
-660.959	-200.000	-0.328	0.001
-659.945	-166.763	0.507	-0.021
-658.930	-32.781	0.125	0.070
-657.916	800.000	0.051	0.161
-656.901	-104.395	-0.157	-0.037
-655.886	-73.255	-0.249	0.092
-654.872	-14.708	-0.062	0.040
-653.857	-96.730	-0.182	-0.048
-652.843	-100.826	0.123	-0.030
-651.828	800.000	-0.100	0.282
-650.814	-33.029	-0.366	0.204
-649.799	800.000	0.083	-0.347
-648.784	170.949	-0.095	-0.137
-647.770	-77.786	-0.439	0.152
-646.755	-42.646	-0.169	0.087
-645.741	108.519	0.111	-0.133
-644.726	800.000	0.034	-0.095
-643.711	-41.168	0.199	0.103
-642.697	-146.110	-0.029	-0.003
-641.682	-200.000	-0.015	-0.510
-640.668	631.557	0.145	-0.367
-639.653	114.485	-0.268	-0.328
-638.638	137.698	-0.226	-0.297
-637.624	-200.000	0.028	-0.347
-636.609	9.347	0.252	-0.191
-635.595	800.000	0.019	-0.083
-634.580	7.699	-0.149	0.112
-633.565	800.000	0.022	0.095
-632.551	-88.462	0.032	0.009
-631.536	233.406	-0.116	0.191
-630.522	800.000	0.043	0.167
-629.507	42.082	-0.242	0.220
-628.492	800.000	0.048	0.211
-627.478	-112.573	-0.029	0.006
-626.463	305.887	-0.224	-0.418
-625.449	-200.000	-0.018	0.489
-624.434	144.242	0.138	-0.185
-623.419	42.670	-0.377	0.344
-622.405	109.596	0.094	-0.113
-621.390	236.846	-0.197	0.327
-620.376	79.509	0.155	0.167
-619.361	305.477	-0.128	-0.238
-618.346	-12.468	-0.312	-0.204
-617.332	-200.000	-0.007	0.043
-616.317	-200.000	0.013	0.142
-615.303	-90.979	0.357	0.103
-614.288	-58.136	-0.037	-0.016
-613.273	-200.000	-0.002	-0.023
-612.259	-94.701	-0.453	-0.123
-611.244	662.737	-0.019	0.048
-610.230	137.468	-0.274	0.360
-609.215	-200.000	0.024	-0.216
-608.201	106.172	-0.032	0.038
-607.186	-200.000	-0.030	-0.145
-606.171	56.177	0.325	0.316
-605.157	201.569	-0.169	0.261
-604.142	219.727	-0.080	-0.128
-603.128	47.197	-0.191	-0.178
-602.113	-177.268	-0.401	-0.010
-601.098	356.532	-0.106	-0.213
-600.084	-17.262	-0.076	0.048
-599.069	-80.679	0.046	-0.015
-598.055	-15.678	0.046	-0.029
-597.040	-180.997	-0.307	-0.006
-596.025	-200.000	0.016	-0.244
-595.011	-75.805	0.297	0.105
-593.996	-40.865	-0.194	0.100
-592.982	-68.318	0.322	-0.125
-591.967	-82.138	-0.349	-0.114
-590.952	145.547	0.196	-0.263
-589.938	135.950	-0.110	0.144
-588.923	47.544	-0.046	0.043
-587.909	-133.175	-0.311	0.039
-586.894	479.986	0.060	0.137
-585.879	-142.093	-0.336	0.033
-584.865	296.213	0.080	0.146
-583.850	102.549	-0.158	0.185
-582.836	196.473	0.117	0.178
-581.821	111.397	0.102	0.123
-580.806	607.225	-0.179	-0.447
-579.792	67.087	-0.116	-0.118
-578.777	136.911	-0.162	-0.212
-577.763	51.547	-0.190	0.181
-576.748	800.000	-0.081	0.265
-575.733	-112.390	0.165	0.033
-574.719	266.879	-0.137	0.241
-573.704	-200.000	-0.040	-0.188
-572.690	321.225	-0.048	-0.092
-571.675	-200.000	-0.053	-0.252
-570.661	800.000	0.112	-0.419
-569.646	258.868	0.076	0.131
-568.631	161.570	-0.017	0.024
-567.617	-130.653	0.136	-0.018
-566.602	-55.517	0.319	0.143
-565.588	403.594	0.072	0.152
-564.573	800.000	0.047	-0.175
-563.558	800.000	0.055	-0.220
-562.544	606.074	-0.109	-0.272
-561.529	-11.181	-0.153	0.101
-560.515	-88.166	0.106	-0.032
-559.500	4.769	0.200	0.147
-558.485	800.000	-0.089	0.337
-557.471	621.767	-0.113	-0.284
-556.456	63.810	0.226	0.227
-555.442	-200.000	-0.023	0.404
-554.427	-65.835	0.429	0.172
-553.412	800.000	0.104	0.324
-552.398	40.262	-0.102	0.091
-551.383	800.000	-0.104	-0.355
-550.369	344.878	0.157	0.309
-549.354	-200.000	-0.039	0.255
-548.339	-68.470	0.222	0.086
-547.325	-34.192	0.191	-0.105
-546.310	225.825	-0.049	-0.080
-545.296	-146.368	0.058	0.005
-544.281	-57.469	0.245	-0.107
-543.266	-53.352	0.262	-0.120
-542.252	800.000	0.049	-0.184
-541.237	200.945	-0.109	0.168
-540.223	-113.691	-0.118	0.023
-539.208	-72.600	-0.333	-0.123
-538.193	100.157	-0.304	-0.352
-537.179	142.190	-0.078	-0.104
-536.164	-200.000	-0.049	-0.473
-535.150	399.674	-0.034	-0.071
-534.135	-125.197	0.171	0.026
-533.121	800.000	0.130	-0.378
-532.106	529.795	0.155	0.366
-531.091	-19.025	0.191	-0.119
-530.077	800.000	0.035	0.107
-529.062	24.915	-0.154	-0.128
-528.048	-178.394	0.137	0.003
-527.033	214.905	-0.012	0.019
-526.018	191.818	0.128	-0.193
-525.004	-87.810	0.244	-0.073
-523.989	-164.460	-0.308	0.014
-522.975	-65.279	0.115	-0.046
-521.960	473.087	0.095	0.213
-520.945	-119.524	-0.276	-0.048
-519.931	-131.389	0.031	-0.004
-518.916	800.000	-0.102	-0.285
-517.902	-200.000	-0.043	-0.231
-516.887	512.005	-0.067	0.156
-515.872	158.708	-0.114	-0.158
-514.858	800.000	-0.028	-0.079
-513.843	-87.608	0.084	-0.025
-512.829	-200.000	-0.008	0.059
-511.814	53.226	0.083	-0.079
-510.799	-10.807	-0.134	0.088
-509.785	-107.384	-0.060	-0.013
-508.770	-135.503	-0.278	0.033
-507.756	3.263	0.091	0.066
-506.741	18.056	-0.169	0.134
-505.726	344.922	-0.116	-0.228
-504.712	234.968	0.113	0.187
-503.697	-21.758	0.041	-0.025
-502.683	455.967	0.126	0.278
-501.668	-2.619	0.178	0.124
-500.653	602.543	-0.087	-0.215
-499.639	281.682	-0.161	-0.289
-498.624	-133.234	-0.140	0.018
-497.610	-85.277	0.029	0.009
-496.595	-111.313	0.304	-0.062
-495.581	-115.060	0.138	-0.026
-494.566	-73.886	-0.136	0.049
-493.551	282.641	-0.025	0.044
-492.537	56.504	0.009	0.009
-491.522	146.396	-0.123	-0.164
-490.508	-63.910	0.359	-0.146
-489.493	-104.540	-0.194	-0.045
-488.478	38.827	-0.161	-0.143
-487.464	800.000	0.082	-0.330
-486.449	-70.536	0.282	0.106
-485.435	493.165	-0.063	-0.145
-484.420	-200.000	-0.018	0.160
-483.405	11.576	-0.138	0.106
-482.391	27.421	0.112	0.094
-481.376	-85.716	0.374	-0.116
-480.362	800.000	-0.033	-0.120
-479.347	-200.000	0.097	0.532
-478.332	800.000	0.166	-0.466
-477.318	800.000	-0.071	-0.267
-476.303	22.412	-0.012	0.010
-475.289	-35.522	-0.062	0.034
-474.274	-135.339	0.029	0.003
-473.259	390.286	0.208	0.430
-472.245	372.400	0.062	-0.125
-471.230	52.047	-0.155	0.148
-470.216	-200.000	-0.036	0.294
-469.201	-135.186	-0.079	-0.009
-468.186	42.139	-0.050	0.046
-467.172	-200.000	0.056	0.390
-466.157	190.736	0.106	-0.158
-465.143	-200.000	0.012	0.188
-464.128	43.692	0.227	0.207
-463.113	-130.033	0.034	-0.005
-462.099	397.425	-0.067	0.140
-461.084	78.863	0.127	-0.135
-460.070	-200.000	-0.010	0.084
-459.055	182.840	0.258	0.379
-458.040	304.023	-0.137	-0.253
-457.026	-151.698	0.246	-0.018
-456.011	-200.000	0.002	-0.057
-454.997	800.000	0.080	0.336
-453.982	-1.445	-0.090	-0.063
-452.968	62.117	0.029	-0.029
-451.953	438.501	0.029	-0.062
-450.938	-94.334	-0.235	-0.064
-449.924	457.676	-0.094	0.209
-448.909	628.508	0.086	0.216
-447.895	140.780	-0.153	-0.201
-446.880	-6.130	0.247	0.168
-445.865	648.762	-0.050	0.128
-444.851	142.493	-0.066	-0.087
-443.836	-18.468	0.085	-0.053
-442.822	43.715	-0.112	0.102
-441.807	304.578	0.114	0.211
-440.792	-78.039	-0.276	-0.095
-439.778	800.000	-0.102	0.331
-438.763	-200.000	0.001	0.077
-437.749	-200.000	0.025	0.203
-436.734	348.096	-0.109	-0.214
-435.719	530.948	0.049	-0.114
-434.705	800.000	0.120	-0.351
-433.690	133.690	-0.059	-0.076
-432.676	378.351	0.086	-0.174
-431.661	-126.959	-0.222	0.033
-430.646	-98.636	-0.366	0.093
-429.632	453.230	-0.185	0.407
-428.617	-48.018	0.278	-0.134
-427.603	-200.000	-0.008	-0.091
-426.588	91.383	0.287	0.321
-425.573	-200.000	0.035	-0.186
-424.559	28.362	-0.181	0.152
-423.544	-200.000	-0.007	0.515
-422.530	-119.319	0.150	0.026
-421.515	-18.149	0.228	0.142
-420.500	376.043	0.039	-0.080
-419.486	108.405	-0.131	-0.156
-418.471	-200.000	0.001	0.025
-417.457	271.836	0.089	-0.156
-416.442	45.750	0.266	-0.245
-415.428	-91.025	0.149	-0.042
-414.413	38.984	0.238	-0.212
-413.398	-200.000	-0.025	0.274
-412.384	-200.000	-0.041	0.226
-411.369	-50.380	0.176	-0.083
-410.355	-66.524	-0.169	0.067
-409.340	351.621	-0.011	-0.023
-408.325	17.128	-0.220	-0.173
-407.311	-163.913	0.205	0.009
-406.296	-68.184	-0.204	-0.079
-405.282	-38.249	0.114	-0.060
-404.267	-200.000	0.005	-0.197
-403.252	520.715	0.152	0.353
-402.238	800.000	0.051	0.147
-401.223	-200.000	0.052	-0.298
-400.209	-110.994	-0.282	0.058
-399.194	-16.807	0.089	-0.056
-398.179	19.207	0.179	0.143
-397.165	800.000	0.071	0.215
-396.150	-83.984	-0.170	-0.054
-395.136	-154.254	-0.279	-0.019
-394.121	284.272	-0.108	-0.194
-393.106	143.195	-0.245	0.323
-392.092	190.866	-0.096	-0.144
-391.077	187.923	0.087	0.128
-390.063	-175.584	0.394	0.011
-389.048	127.670	-0.231	-0.291
-388.033	244.270	0.235	0.392
-387.019	800.000	-0.070	0.281
-386.004	220.380	-0.078	-0.125
-384.990	-152.717	-0.088	-0.006
-383.975	-119.646	-0.021	0.004
-382.960	-78.739	-0.016	-0.005
-381.946	116.918	0.149	0.182
-380.931	-33.476	-0.133	0.073
-379.917	-141.580	-0.407	-0.041
-378.902	-20.949	-0.189	0.115
-377.888	-81.561	-0.478	-0.156
-376.873	-200.000	0.034	0.347
-375.858	-61.650	-0.236	0.098
-374.844	-81.596	0.160	-0.052
-373.829	-200.000	-0.010	-0.047
-372.815	-5.743	-0.341	-0.232
-371.800	-124.630	-0.312	-0.048
-370.785	276.681	0.063	0.111
-369.771	-149.071	0.241	0.019
-368.756	-92.648	0.129	0.036
-367.742	-124.885	0.338	-0.052
-366.727	-200.000	0.017	0.125
-365.712	-36.628	0.436	0.233
-364.698	-83.882	-0.250	0.079
-363.683	412.248	-0.026	0.055
-362.669	800.000	-0.020	0.067
-361.654	149.727	0.211	-0.283
-360.639	671.622	0.171	-0.440
-359.625	-91.469	-0.381	-0.108
-358.610	70.117	0.140	0.144
-357.596	-200.000	0.041	-0.254
-356.581	-6.481	-0.387	-0.262
-355.566	-133.135	-0.323	0.041
-354.552	-30.563	-0.158	0.089
-353.537	800.000	0.037	0.160
-352.523	-28.659	0.018	-0.010
-351.508	-200.000	-0.040	0.303
-350.493	120.090	-0.276	-0.339
-349.479	-43.460	-0.202	-0.101
-348.464	17.521	-0.199	-0.157
-347.450	220.453	0.160	0.254
-346.435	-16.078	0.042	0.027
-345.420	543.374	-0.049	0.116
-344.406	28.245	-0.234	0.196
-343.391	87.862	0.210	0.231
-342.377	641.537	0.074	0.186
-341.362	316.052	0.034	0.064
-340.348	39.637	0.226	0.201
-339.333	38.759	-0.077	-0.068
-338.318	-200.000	0.022	0.261
-337.304	137.742	-0.173	0.225
-336.289	-76.149	0.361	-0.126
-335.275	55.063	-0.111	-0.107
-334.260	71.389	-0.132	0.136
-333.245	-58.580	-0.189	0.081
-332.231	73.085	0.074	0.077
-331.216	-66.974	-0.150	-0.059
-330.202	-183.130	0.279	0.005
-329.187	-48.609	0.081	-0.039
-328.172	-200.000	0.034	-0.287
-327.158	-95.190	0.107	0.029
-326.143	-33.975	-0.179	-0.098
-325.129	-18.038	-0.212	-0.132
-324.114	-82.835	0.056	-0.018
-323.099	-75.656	0.323	-0.114
-322.085	99.770	-0.199	-0.228
-321.070	-31.224	-0.275	-0.153
-320.056	-85.462	0.176	-0.054
-319.041	-115.830	-0.024	0.005
-318.026	-179.541	-0.110	-0.002
-317.012	62.937	0.134	0.133
-315.997	-53.080	0.412	0.188
-314.983	170.309	0.015	-0.021
-313.968	-200.000	-0.002	0.034
-312.953	-200.000	0.016	-0.070
-311.939	-47.073	0.205	0.099
-310.924	-18.468	0.115	0.071
-309.910	75.598	0.110	0.115
-308.895	-126.898	0.134	0.020
-307.880	-154.129	-0.148	0.010
-306.866	287.780	0.149	0.267
-305.851	27.169	-0.307	-0.255
-304.837	800.000	-0.100	0.320
-303.822	-91.235	0.231	0.065
-302.807	-118.110	0.222	-0.039
-301.793	-200.000	0.009	0.158
-300.778	-130.949	-0.264	0.035
-299.764	-72.061	0.193	-0.071
-298.749	24.442	0.110	-0.090
-297.735	-101.142	0.338	-0.082
-296.720	-50.986	-0.164	-0.076
-295.705	-63.030	-0.105	-0.043
-294.691	800.000	0.032	0.111
-293.676	-108.683	0.092	0.020
-292.662	800.000	-0.059	0.253
-291.647	593.759	-0.046	-0.113
-290.632	800.000	-0.047	-0.200
-289.618	-99.572	-0.145	0.036
-288.603	-200.000	0.021	-0.133
-287.589	353.219	-0.153	0.300
-286.574	92.266	-0.045	0.051
-285.559	-130.218	0.309	-0.042
-284.545	329.183	0.053	-0.102
-283.530	124.269	0.110	-0.137
-282.516	-181.989	-0.177	0.003
-281.501	-42.482	0.139	-0.070
-280.486	800.000	0.066	-0.249
-279.472	-57.890	-0.270	0.117
-278.457	-127.836	-0.288	0.041
-277.443	-200.000	0.029	0.504
-276.428	-133.478	-0.463	0.058
-275.413	-200.000	-0.016	0.137
-274.399	-66.347	-0.059	0.023
-273.384	-19.423	-0.223	0.137
-272.370	-200.000	0.008	-0.069
-271.355	-54.208	0.219	-0.099
-270.340	164.899	-0.087	0.122
-269.326	800.000	-0.039	0.106
-268.311	-6.009	-0.129	0.087
-267.297	-200.000	-0.003	0.035
-266.282	138.081	-0.153	0.198
-265.267	156.973	0.134	0.183
-264.253	-115.613	-0.036	-0.007
-263.238	-200.000	-0.013	-0.111
-262.224	111.246	0.045	0.054
-261.209	562.672	0.160	-0.383
-260.195	-195.244	0.312	-0.002
-259.180	282.227	-0.262	-0.464
-258.165	-118.134	-0.121	0.021
-257.151	10.336	-0.197	-0.148
-256.136	-94.798	0.262	0.070
-255.122	-27.539	-0.178	0.102
-254.107	125.943	0.140	0.175
-253.092	-200.000	0.023	0.220
-252.078	673.833	-0.128	-0.327
-251.063	-63.969	-0.058	-0.023
-250.049	-30.120	0.195	0.110
-249.034	800.000	-0.125	-0.389
-248.019	-200.000	0.014	-0.260
-247.005	-59.218	0.282	0.120
-245.990	-200.000	0.001	-0.246
-244.976	-101.576	0.224	0.054
-243.961	238.169	0.165	0.271
-242.946	59.254	0.097	-0.095
-241.932	-34.259	0.115	-0.062
-240.917	-37.854	0.331	-0.174
-239.903	386.158	-0.099	0.202
-238.888	-115.290	0.236	0.044
-237.873	-69.677	0.227	-0.086
-236.859	309.504	0.115	0.212
-235.844	-104.063	-0.238	0.055
-234.830	359.516	-0.062	-0.123
-233.815	230.501	-0.025	0.040
-232.800	394.494	0.073	-0.150
-231.786	43.941	0.208	-0.188
-230.771	180.291	-0.225	-0.326
-229.757	-76.168	-0.209	-0.073
-228.742	-38.180	-0.289	-0.151
-227.727	215.434	0.096	0.150
-226.713	-84.612	-0.231	-0.072
-225.698	183.446	-0.133	-0.194
-224.684	-79.824	0.118	0.039
-223.669	528.455	0.253	-0.589
-222.655	-152.567	0.204	0.014
-221.640	-157.948	0.075	0.004
-220.625	800.000	0.045	0.184
-219.611	55.893	-0.100	0.096
-218.596	139.808	0.110	0.143
-217.582	-76.671	-0.170	-0.059
-216.567	-22.182	0.219	-0.131
-215.552	-200.000	0.026	0.343
-214.538	-41.846	-0.170	-0.086
-213.523	-6.256	-0.189	-0.127
-212.509	50.928	0.048	0.045
-211.494	88.751	0.071	-0.078
-210.479	-155.433	-0.274	0.018
-209.465	-128.392	0.307	0.043
-208.450	-114.514	0.326	0.062
-207.436	-200.000	-0.039	0.290
-206.421	-170.172	0.264	-0.009
-205.406	82.880	-0.167	-0.179
-204.392	800.000	-0.121	-0.396
-203.377	95.667	0.153	-0.173
-202.363	251.059	0.056	0.095
-201.348	-135.556	0.021	0.002
-200.333	639.529	-0.057	0.143
-199.319	-150.185	0.091	-0.007
-198.304	-45.940	0.104	-0.050
-197.290	-116.423	-0.322	0.059
-196.275	148.196	-0.191	0.254
-195.260	27.455	0.119	0.098
-194.246	-104.096	0.103	0.024
-193.231	417.840	-0.039	0.082
-192.217	-185.362	-0.333	-0.005
-191.202	-187.216	-0.095	-0.001
-190.187	89.022	-0.137	0.150
-189.173	-101.889	0.325	-0.077
-188.158	156.002	0.233	0.317
-187.144	-40.415	-0.144	0.074
-186.129	-200.000	-0.010	0.151
-185.114	800.000	-0.045	-0.157
-184.100	800.000	0.073	-0.267
-183.085	116.751	-0.099	-0.120
-182.071	-170.213	0.281	-0.010
-181.056	105.735	0.167	-0.194
-180.042	232.787	0.183	-0.297
-179.027	34.068	0.169	-0.145
-178.012	-151.227	-0.054	-0.004
-176.998	12.372	0.378	-0.287
-175.983	30.853	0.343	-0.290
-174.969	-11.930	-0.175	0.113
-173.954	-33.873	0.028	-0.015
-172.939	-90.028	-0.194	0.056
-171.925	-32.829	0.278	-0.152
-170.910	-61.581	0.233	0.096
-169.896	-200.000	-0.004	0.086
-168.881	-200.000	0.035	-0.337
-167.866	800.000	-0.099	-0.399
-166.852	432.912	0.057	0.122
-165.837	-75.486	0.382	0.134
-164.823	102.028	-0.087	0.101
-163.808	800.000	-0.018	0.066
-162.793	800.000	-0.071	0.205
-161.779	-200.000	0.063	0.339
-160.764	248.629	-0.188	0.313
-159.750	-135.316	0.161	0.019
-158.735	104.766	0.092	-0.107
-157.720	535.174	0.146	-0.342
-156.706	-18.873	0.227	0.139
-155.691	-48.063	0.082	0.039
-154.677	362.718	0.053	0.105
-153.662	130.747	-0.155	0.196
-152.647	-106.423	-0.191	0.042
-151.633	269.501	0.029	-0.050
-150.618	61.006	-0.197	-0.192
-149.604	-172.863	-0.402	0.012
-148.589	800.000	0.103	-0.408
-147.574	-1.374	-0.149	-0.104
-146.560	-84.197	-0.346	0.108
-145.545	-122.035	-0.219	-0.035
-144.531	153.112	-0.152	0.204
-143.516	187.550	-0.131	0.193
-142.502	-92.588	-0.320	0.088
-141.487	-147.960	0.297	-0.024
-140.472	71.735	0.214	-0.218
-139.458	-15.926	0.251	0.157
-138.443	-46.454	-0.083	-0.040
-137.429	78.851	-0.269	0.284
-136.414	369.418	0.128	0.254
-135.399	111.460	0.209	0.248
-134.385	-84.454	0.204	-0.063
-133.370	-200.000	0.051	0.271
-132.356	76.071	0.104	0.108
-131.341	250.978	-0.124	0.207
-130.326	-118.981	0.273	-0.047
-129.312	-49.953	0.321	0.150
-128.297	800.000	-0.037	0.135
-127.283	-200.000	-0.004	-0.183
-126.268	206.481	0.093	0.142
-125.253	271.271	-0.204	0.353
-124.239	800.000	-0.020	-0.061
-123.224	-200.000	0.007	-0.077
-122.210	786.790	0.068	-0.184
-121.195	-91.342	0.073	0.020
