DTS Sentinel unit serial number:	SN413079Multiplexer serial number:	ORYXHardware model number:	OX4-SRSoftware version number:	ORYX F/W v4.00 Oryx Data Collector v3.7.2.0data status	okinstallation	princeton_trtdifferential loss correction	single-endedforward channel	channel 1reverse channel	N/Adate	2019/09/12time	17:48:11forward acquisition time	60.00reverse acquisition time	0.00gamma	496.2192k internal	0.2317k external	0.2317temperature offset calibration	1.0102default loss term (dB/km)	0.3790temperature slope calibration	1.0000multiplexer offset coefficient	1.0000multiplexer slope coefficient	1.0000fibre end	0.00T internal ref (°C)	34.09T ext. ref 1 (°C)	2.84T ext. ref 2 (°C)	28.23length (m)	temperature (°C)	Stokes	anti-Stokes-747.200	-200.000	-0.005	-0.266
-746.185	-200.000	-0.063	0.429
-745.171	55.448	0.111	-0.109
-744.156	-125.442	-0.352	0.054
-743.142	257.744	0.109	-0.190
-742.127	-141.157	-0.186	-0.019
-741.112	64.512	-0.056	-0.057
-740.098	140.203	-0.184	0.246
-739.083	88.192	0.061	0.068
-738.069	86.938	-0.107	0.120
-737.054	346.229	0.070	0.140
-736.039	180.292	-0.184	-0.274
-735.025	169.261	-0.335	0.485
-734.010	-200.000	0.016	0.198
-732.996	-200.000	-0.037	0.373
-731.981	30.841	-0.125	-0.108
-730.966	-133.691	0.326	0.041
-729.952	265.030	-0.047	-0.083
-728.937	-3.125	-0.291	0.206
-727.923	-1.814	-0.326	0.232
-726.908	276.835	-0.061	-0.109
-725.894	800.000	-0.077	-0.274
-724.879	-200.000	0.033	0.210
-723.864	-67.709	-0.444	0.176
-722.850	68.841	-0.184	0.191
-721.835	-39.983	-0.137	-0.072
-720.821	800.000	-0.030	-0.110
-719.806	-110.712	-0.163	0.034
-718.791	800.000	-0.086	-0.335
-717.777	-130.974	0.170	0.023
-716.762	-189.675	-0.232	0.003
-715.748	-145.460	0.139	-0.013
-714.733	-200.000	0.021	0.247
-713.718	508.597	-0.079	0.185
-712.704	61.221	0.197	-0.198
-711.689	-86.622	-0.193	-0.060
-710.675	140.742	-0.095	-0.127
-709.660	95.043	0.143	-0.164
-708.645	207.770	-0.096	-0.152
-707.631	382.103	-0.064	-0.132
-706.616	-200.000	0.017	-0.196
-705.602	-43.503	0.223	-0.114
-704.587	-94.931	0.201	0.055
-703.572	800.000	0.021	-0.087
-702.558	-87.279	-0.227	-0.070
-701.543	-65.116	-0.259	-0.106
-700.529	283.830	0.079	0.144
-699.514	193.345	0.090	-0.137
-698.499	491.847	-0.074	-0.172
-697.485	124.754	0.074	0.095
-696.470	-82.982	0.141	0.046
-695.456	133.290	0.353	-0.461
-694.441	-200.000	-0.065	-0.312
-693.426	-62.157	0.441	0.186
-692.412	-123.789	-0.179	0.029
-691.397	59.805	-0.056	0.056
-690.383	-102.957	0.045	0.011
-689.368	-93.124	-0.225	-0.063
-688.354	-200.000	0.012	-0.254
-687.339	-200.000	0.007	-0.200
-686.324	800.000	0.113	-0.396
-685.310	-48.925	-0.102	-0.050
-684.295	263.492	-0.042	0.074
-683.281	800.000	-0.061	0.248
-682.266	-200.000	-0.086	0.395
-681.251	65.519	0.174	0.178
-680.237	87.057	0.058	0.065
-679.222	-184.606	-0.258	-0.004
-678.208	46.213	-0.019	-0.018
-677.193	45.866	-0.088	0.082
-676.178	59.804	-0.107	-0.107
-675.164	158.736	-0.180	-0.253
-674.149	194.780	-0.126	-0.192
-673.135	-65.886	0.210	-0.085
-672.120	189.124	-0.157	0.237
-671.105	800.000	-0.090	0.352
-670.091	800.000	0.071	0.200
-669.076	-90.614	0.148	-0.043
-668.062	482.170	-0.123	0.281
-667.047	-57.911	-0.316	-0.139
-666.032	-114.470	0.324	-0.063
-665.018	-200.000	-0.001	0.253
-664.003	800.000	0.042	0.146
-662.989	260.223	-0.173	-0.302
-661.974	-136.537	-0.128	-0.015
-660.959	800.000	-0.031	-0.102
-659.945	13.459	-0.191	-0.150
-658.930	-117.001	-0.191	-0.035
-657.916	261.269	-0.208	0.363
-656.901	-200.000	0.028	-0.145
-655.886	-33.590	-0.235	-0.131
-654.872	42.766	-0.176	0.162
-653.857	-9.602	-0.233	0.157
-652.843	-16.908	0.159	0.101
-651.828	50.000	0.209	0.199
-650.814	-200.000	0.012	0.055
-649.799	-200.000	-0.037	-0.173
-648.784	-26.449	0.072	0.042
-647.770	-200.000	-0.014	0.275
-646.755	800.000	0.087	0.340
-645.741	-62.572	0.240	-0.101
-644.726	-200.000	-0.010	0.059
-643.711	180.128	0.030	-0.045
-642.697	-119.410	-0.233	0.041
-641.682	-96.341	-0.332	-0.089
-640.668	-71.171	0.091	0.035
-639.653	-20.301	-0.237	-0.147
-638.638	42.509	0.177	0.163
-637.624	-164.725	0.281	-0.013
-636.609	218.239	0.112	-0.180
-635.595	-100.508	0.146	-0.036
-634.580	-57.968	0.041	0.018
-633.565	50.059	0.082	-0.078
-632.551	-200.000	0.054	-0.241
-631.536	-27.196	-0.268	-0.158
-630.522	32.945	0.373	0.326
-629.507	-125.922	-0.161	0.024
-628.492	-46.777	-0.179	0.088
-627.478	20.562	0.227	0.185
-626.463	-148.650	-0.187	-0.015
-625.449	-41.759	-0.275	-0.142
-624.434	236.393	-0.057	-0.095
-623.419	-63.944	-0.243	-0.100
-622.405	-85.093	0.384	-0.121
-621.390	51.052	0.240	-0.229
-620.376	356.089	-0.163	-0.327
-619.361	575.811	-0.108	-0.265
-618.346	-11.619	-0.163	0.108
-617.332	49.606	-0.091	-0.086
-616.317	143.012	0.122	-0.163
-615.303	-115.818	-0.199	-0.038
-614.288	-79.872	-0.281	-0.095
-613.273	101.778	-0.245	0.288
-612.259	800.000	-0.035	-0.144
-611.244	-200.000	0.023	0.139
-610.230	-101.379	0.275	-0.067
-609.215	800.000	-0.037	-0.106
-608.201	108.307	-0.273	0.328
-607.186	-200.000	-0.076	0.350
-606.171	155.842	0.134	0.186
-605.157	-7.266	-0.247	0.168
-604.142	-1.127	0.108	0.077
-603.128	-70.329	-0.258	-0.098
-602.113	-200.000	0.042	0.369
-601.098	800.000	-0.017	0.052
-600.084	745.745	-0.026	0.070
-599.069	-91.829	0.148	-0.042
-598.055	21.118	-0.092	0.076
-597.040	-200.000	0.013	0.134
-596.025	-200.000	-0.084	0.376
-595.011	1.139	-0.089	-0.064
-593.996	146.905	-0.023	-0.032
-592.982	181.144	-0.028	-0.042
-591.967	-83.460	-0.215	0.069
-590.952	-30.308	-0.233	0.133
-589.938	-56.198	-0.116	0.052
-588.923	88.000	-0.041	-0.045
-587.909	86.823	-0.304	-0.337
-586.894	43.887	0.197	-0.182
-585.879	-45.932	-0.258	0.128
-584.865	536.992	0.033	-0.078
-583.850	333.750	-0.105	-0.204
-582.836	800.000	0.042	-0.149
-581.821	-61.825	-0.435	0.183
-580.806	800.000	-0.041	-0.124
-579.792	-131.356	0.144	-0.019
-578.777	800.000	0.039	-0.148
-577.763	-135.793	0.471	0.056
-576.748	170.328	-0.091	0.131
-575.733	-59.810	-0.517	0.222
-574.719	-167.681	-0.246	0.010
-573.704	-102.618	0.143	-0.034
-572.690	187.824	-0.073	0.110
-571.675	155.396	0.235	-0.325
-570.661	-60.769	0.230	0.098
-569.646	23.720	-0.092	0.077
-568.631	-2.830	-0.097	0.069
-567.617	-200.000	-0.031	0.237
-566.602	-200.000	0.036	-0.292
-565.588	-72.116	-0.293	0.109
-564.573	-16.474	0.221	-0.141
-563.558	-119.765	0.028	0.005
-562.544	-200.000	-0.052	0.335
-561.529	640.397	-0.120	-0.306
-560.515	-200.000	-0.009	-0.086
-559.500	-16.377	-0.112	0.071
-558.485	-130.483	0.257	-0.035
-557.471	800.000	0.039	0.173
-556.456	162.510	-0.070	-0.098
-555.442	486.546	-0.092	0.211
-554.427	-12.591	0.131	-0.086
-553.412	-200.000	-0.057	-0.409
-552.398	95.869	-0.216	0.248
-551.383	-135.210	-0.055	-0.007
-550.369	-200.000	0.021	-0.443
-549.354	1.831	0.150	0.109
-548.339	-200.000	-0.082	0.412
-547.325	-66.275	0.131	0.053
-546.310	-200.000	0.010	-0.140
-545.296	478.716	0.063	0.142
-544.281	-200.000	0.011	-0.307
-543.266	106.947	-0.239	0.285
-542.252	-14.129	-0.180	-0.117
-541.237	392.725	-0.126	0.263
-540.223	163.450	-0.163	-0.231
-539.208	-41.030	0.017	-0.009
-538.193	126.576	-0.208	-0.265
-537.179	228.677	0.137	0.224
-536.164	29.226	0.260	0.222
-535.150	-38.491	0.021	0.011
-534.135	800.000	0.096	-0.367
-533.121	721.835	-0.110	0.294
-532.106	-0.859	0.156	-0.111
-531.091	-120.411	0.245	-0.042
-530.077	-200.000	0.008	0.095
-529.062	-200.000	0.031	0.188
-528.048	-82.784	0.093	0.030
-527.033	189.929	-0.194	-0.292
-526.018	-21.592	-0.239	0.146
-525.004	-125.537	-0.267	-0.041
-523.989	-200.000	-0.013	0.290
-522.975	116.884	0.108	-0.133
-521.960	-200.000	0.014	0.282
-520.945	669.085	-0.027	-0.070
-519.931	-16.816	0.236	-0.150
-518.916	-200.000	0.040	0.187
-517.902	-108.051	-0.132	0.029
-516.887	-148.322	-0.377	0.031
-515.872	-65.043	-0.180	-0.073
-514.858	64.938	0.048	0.049
-513.843	165.411	-0.152	0.215
-512.829	7.597	0.292	0.220
-511.814	597.582	-0.047	0.117
-510.799	-32.028	-0.140	0.079
-509.785	-35.035	-0.056	-0.031
-508.770	102.156	0.171	-0.201
-507.756	501.295	0.083	0.193
-506.741	137.512	-0.122	-0.160
-505.726	800.000	-0.086	0.288
-504.712	-17.216	0.125	-0.079
-503.697	-77.452	0.220	0.077
-502.683	-140.438	0.093	0.010
-501.668	-200.000	0.041	-0.193
-500.653	-147.861	0.155	-0.013
-499.639	-52.784	-0.299	0.138
-498.624	31.653	0.106	-0.091
-497.610	-119.237	-0.042	-0.007
-496.595	13.909	-0.086	0.067
-495.581	-84.447	-0.256	-0.081
-494.566	-32.466	-0.140	-0.078
-493.551	800.000	-0.081	-0.305
-492.537	800.000	0.060	0.178
-491.522	138.938	-0.095	0.125
-490.508	-99.482	-0.462	-0.117
-489.493	221.810	0.023	0.037
-488.478	-45.727	0.128	-0.063
-487.464	800.000	-0.075	-0.248
-486.449	-200.000	-0.027	-0.145
-485.435	-67.523	-0.186	0.073
-484.420	665.597	0.049	-0.126
-483.405	-77.530	-0.085	-0.030
-482.391	-180.361	-0.251	-0.005
-481.376	63.397	0.176	-0.177
-480.362	304.330	0.056	-0.105
-479.347	-80.369	-0.271	-0.091
-478.332	-104.534	0.215	0.050
-477.318	-200.000	0.039	0.221
-476.303	-6.003	-0.284	0.194
-475.289	-125.039	-0.141	0.022
-474.274	-200.000	-0.013	0.380
-473.259	293.732	0.126	0.230
-472.245	800.000	-0.013	-0.047
-471.230	-200.000	0.020	0.139
-470.216	306.058	-0.039	0.072
-469.201	63.159	-0.362	-0.363
-468.186	-78.727	-0.100	0.034
-467.172	80.392	0.232	0.250
-466.157	15.027	-0.080	0.063
-465.143	-1.070	0.152	-0.108
-464.128	-200.000	-0.016	0.217
-463.113	416.371	0.107	0.229
-462.099	-200.000	-0.054	0.260
-461.084	-200.000	-0.054	-0.250
-460.070	-4.165	0.236	-0.163
-459.055	-92.814	0.210	-0.059
-458.040	-81.612	0.293	0.096
-457.026	-200.000	-0.017	-0.117
-456.011	36.469	0.173	0.153
-454.997	55.627	-0.025	0.024
-453.982	109.687	-0.072	-0.086
-452.968	-39.283	0.266	0.140
-451.953	-39.483	0.062	-0.032
-450.938	3.729	0.201	-0.147
-449.924	160.056	0.194	0.271
-448.909	8.116	0.178	0.134
-447.895	800.000	-0.081	0.299
-446.880	64.350	0.456	0.460
-445.865	249.092	-0.247	-0.419
-444.851	-156.614	-0.371	-0.023
-443.836	613.704	0.052	-0.129
-442.822	-162.032	-0.112	-0.006
-441.807	123.210	-0.128	0.160
-440.792	-77.169	0.181	0.063
-439.778	69.458	-0.073	-0.075
-438.763	281.729	0.126	-0.225
-437.749	-29.563	0.248	-0.142
-436.734	164.863	-0.183	-0.259
-435.719	-115.826	0.114	-0.021
-434.705	309.616	-0.119	-0.222
-433.690	-43.652	-0.276	-0.139
-432.676	-35.716	-0.163	-0.089
-431.661	-31.081	0.056	-0.032
-430.646	223.749	0.121	0.195
-429.632	1.023	0.128	-0.092
-428.617	161.621	0.026	-0.037
-427.603	-88.323	-0.181	0.054
-426.588	133.804	-0.160	-0.208
-425.573	-118.777	-0.376	0.066
-424.559	-200.000	0.024	0.136
-423.544	-162.121	0.108	0.005
-422.530	-165.032	-0.290	-0.013
-421.515	-55.491	-0.256	-0.115
-420.500	-200.000	0.013	0.098
-419.486	-80.125	0.227	0.076
-418.471	800.000	-0.059	0.250
-417.457	-102.577	-0.220	-0.052
-416.442	227.430	0.214	0.348
-415.428	-200.000	0.007	-0.204
-414.413	-62.596	-0.111	0.046
-413.398	150.941	0.017	-0.022
-412.384	-40.708	0.218	0.113
-411.369	-200.000	-0.002	-0.119
-410.355	-70.121	0.268	-0.102
-409.340	-200.000	0.025	0.281
-408.325	-200.000	0.274	-0.000
-407.311	-57.402	0.211	-0.093
-406.296	-82.519	0.169	-0.055
-405.282	-78.136	-0.283	0.097
-404.267	-52.064	0.174	0.081
-403.252	50.606	0.321	-0.303
-402.238	-200.000	0.051	-0.371
-401.223	-83.399	0.353	0.113
-400.209	5.824	-0.417	0.308
-399.194	-200.000	0.034	-0.384
-398.179	800.000	0.048	-0.164
-397.165	-118.616	0.240	-0.042
-396.150	-107.140	-0.191	-0.042
-395.136	-200.000	-0.002	-0.189
-394.121	688.785	0.019	0.050
-393.106	-200.000	-0.073	-0.439
-392.092	74.665	-0.031	-0.033
-391.077	-200.000	-0.045	0.255
-390.063	-58.587	-0.147	-0.064
-389.048	-94.406	0.119	-0.032
-388.033	12.384	0.348	0.268
-387.019	-104.851	-0.265	-0.061
-386.004	800.000	0.058	-0.224
-384.990	-7.587	0.095	-0.064
-383.975	-44.291	-0.262	0.131
-382.960	-200.000	0.019	0.153
-381.946	78.675	0.316	0.337
-380.931	65.026	-0.090	0.091
-379.917	800.000	0.097	0.272
-378.902	800.000	0.112	-0.422
-377.888	-200.000	0.048	-0.406
-376.873	-37.651	-0.093	0.049
-375.858	-200.000	0.000	-0.259
-374.844	800.000	0.090	-0.340
-373.829	507.570	-0.052	-0.121
-372.815	-141.118	0.174	-0.018
-371.800	464.458	0.035	0.078
-370.785	-53.206	0.224	-0.103
-369.771	-136.745	0.230	0.026
-368.756	-200.000	0.006	-0.092
-367.742	-150.149	-0.155	-0.012
-366.727	-4.638	0.187	0.129
-365.712	-89.663	-0.065	-0.019
-364.698	17.534	-0.299	-0.237
-363.683	306.699	0.153	-0.284
-362.669	-200.000	0.016	-0.162
-361.654	139.009	0.091	-0.119
-360.639	-170.138	0.380	-0.013
-359.625	-200.000	-0.039	-0.190
-358.610	795.223	0.024	0.065
-357.596	-12.470	-0.047	-0.031
-356.581	394.328	-0.038	-0.080
-355.566	-186.765	0.235	0.003
-354.552	-131.427	-0.215	-0.028
-353.537	-38.088	0.285	-0.151
-352.523	-22.333	0.216	0.131
-351.508	-129.755	-0.314	0.043
-350.493	-13.656	0.058	0.037
-349.479	-0.840	0.269	-0.190
-348.464	236.838	0.134	0.222
-347.450	-33.808	-0.084	0.046
-346.435	-121.353	0.417	-0.069
-345.420	-200.000	0.014	-0.103
-344.406	-120.888	-0.177	0.030
-343.391	-166.719	-0.417	-0.017
-342.377	153.380	0.106	0.145
-341.362	-136.218	0.301	0.035
-340.348	298.259	-0.073	-0.133
-339.333	59.089	0.206	-0.202
-338.318	-138.940	-0.371	-0.040
-337.304	162.996	-0.036	0.051
-336.289	-121.869	-0.181	-0.030
-335.275	-200.000	0.070	0.343
-334.260	13.672	0.254	-0.196
-333.245	50.943	-0.101	0.096
-332.231	65.463	0.257	0.259
-331.216	-79.725	0.147	-0.049
-330.202	800.000	0.081	0.311
-329.187	-200.000	-0.080	0.395
-328.172	32.070	0.162	0.139
-327.158	800.000	-0.059	-0.178
-326.143	277.849	-0.019	-0.034
-325.129	-63.423	0.202	0.083
-324.114	-153.906	-0.185	0.013
-323.099	696.287	-0.062	0.162
-322.085	-137.445	0.112	0.013
-321.070	-200.000	0.010	-0.094
-320.056	92.215	-0.185	0.208
-319.041	50.794	-0.245	0.231
-318.026	59.616	-0.025	0.024
-317.012	-102.549	0.063	-0.015
-315.997	17.638	0.217	-0.172
-314.983	140.668	0.257	0.338
-313.968	-169.311	-0.516	-0.019
-312.953	230.491	0.066	0.107
-311.939	377.856	-0.014	0.029
-310.924	-57.353	0.371	-0.162
-309.910	-200.000	-0.021	-0.395
-308.895	171.074	0.082	0.117
-307.880	-200.000	0.032	-0.221
-306.866	-25.039	0.205	0.121
-305.851	1.808	0.246	-0.177
-304.837	-82.067	-0.297	-0.096
-303.822	67.127	-0.165	0.168
-302.807	-69.518	-0.209	-0.080
-301.793	-74.271	-0.302	-0.108
-300.778	-35.161	0.090	-0.049
-299.764	-108.808	-0.242	-0.052
-298.749	652.498	0.092	-0.235
-297.735	800.000	0.046	-0.177
-296.720	-32.571	0.187	0.104
-295.705	-200.000	-0.024	-0.154
-294.691	160.930	0.138	0.192
-293.676	151.958	0.130	-0.176
-292.662	37.476	-0.273	-0.241
-291.647	-200.000	-0.192	0.001
-290.632	-2.574	0.173	0.120
-289.618	245.961	-0.077	0.129
-288.603	172.553	0.233	0.333
-287.589	-200.000	-0.013	-0.076
-286.574	308.441	-0.074	-0.137
-285.559	-200.000	0.000	-0.239
-284.545	135.863	0.351	0.455
-283.530	-63.093	-0.134	0.055
-282.516	-200.000	-0.003	0.343
-281.501	275.629	0.210	0.371
-280.486	41.091	-0.239	0.215
-279.472	133.789	-0.067	-0.086
-278.457	68.330	-0.117	-0.119
-277.443	-41.680	0.218	0.111
-276.428	168.342	0.041	-0.058
-275.413	-172.622	-0.184	0.006
-274.399	-200.000	0.060	-0.389
-273.384	-200.000	0.029	0.166
-272.370	-200.000	-0.019	0.139
-271.355	42.766	-0.157	-0.143
-270.340	85.292	-0.154	0.168
-269.326	32.506	-0.150	-0.129
-268.311	72.667	-0.064	0.067
-267.297	-49.769	0.091	0.043
-266.282	-50.190	0.332	-0.156
-265.267	176.900	0.216	0.313
-264.253	226.113	0.071	0.114
-263.238	800.000	-0.044	-0.141
-262.224	-165.338	-0.415	-0.018
-261.209	-200.000	-0.002	0.058
-260.195	219.212	-0.174	-0.276
-259.180	146.333	-0.073	0.097
-258.165	138.583	0.148	0.193
-257.151	-200.000	-0.016	-0.094
-256.136	-62.506	-0.199	-0.082
-255.122	120.808	-0.269	0.333
-254.107	695.421	-0.045	-0.117
-253.092	-21.936	0.303	-0.183
-252.078	-200.000	-0.011	-0.120
-251.063	800.000	-0.010	0.035
-250.049	30.687	0.125	-0.106
-249.034	-7.713	-0.100	0.067
-248.019	239.165	-0.054	-0.089
-247.005	-8.711	0.398	-0.265
-245.990	121.417	0.167	-0.207
-244.976	100.542	-0.291	-0.335
-243.961	107.721	-0.185	-0.218
-242.946	314.330	0.030	0.055
-241.932	-34.897	0.148	0.080
-240.917	156.877	0.138	-0.190
-239.903	-130.139	-0.187	-0.025
-238.888	-106.606	-0.074	0.016
-237.873	-53.387	-0.099	-0.045
-236.859	-200.000	-0.061	0.365
-235.844	800.000	-0.059	-0.248
-234.830	800.000	0.054	0.210
-233.815	-103.602	0.075	0.017
-232.800	800.000	0.054	-0.170
-231.786	-200.000	-0.018	0.184
-230.771	323.903	0.133	0.252
-229.757	179.126	0.113	0.164
-228.742	800.000	0.038	0.157
-227.727	61.416	-0.235	-0.232
-226.713	236.810	0.056	-0.092
-225.698	-42.811	0.193	-0.097
-224.684	-30.881	0.151	0.084
-223.669	242.580	-0.104	0.173
-222.655	-123.062	0.204	0.032
-221.640	-53.081	0.254	0.116
-220.625	-6.131	0.167	0.113
-219.611	-200.000	-0.075	0.376
-218.596	-6.127	0.172	0.117
-217.582	-200.000	0.161	0.001
-216.567	800.000	-0.098	-0.289
-215.552	-104.574	0.112	-0.026
-214.538	67.200	0.173	-0.175
-213.523	800.000	-0.142	0.495
-212.509	-60.308	0.190	0.080
-211.494	-36.309	0.143	0.076
-210.479	581.709	0.072	0.175
-209.465	-38.152	-0.059	-0.031
-208.450	-105.270	-0.137	-0.031
-207.436	2.985	-0.036	0.026
-206.421	-26.276	0.072	0.042
-205.406	-145.282	0.099	-0.009
-204.392	78.211	-0.094	-0.099
-203.377	-47.526	-0.185	0.089
-202.363	-114.506	-0.417	0.079
-201.348	-100.326	0.076	0.019
-200.333	-142.172	-0.318	0.031
-199.319	263.405	-0.116	-0.200
-198.304	264.593	-0.188	-0.325
-197.290	-87.820	0.095	-0.029
-196.275	-30.826	0.032	0.018
-195.260	509.551	-0.069	0.159
-194.246	-101.140	0.278	0.067
-193.231	800.000	-0.024	0.085
-192.217	-37.476	0.235	0.124
-191.202	241.748	0.050	0.083
-190.187	-130.038	-0.258	-0.035
-189.173	173.167	-0.067	0.096
-188.158	280.700	0.059	-0.104
-187.144	37.709	-0.248	-0.218
-186.129	148.798	-0.109	-0.145
-185.114	-200.000	0.007	0.145
-184.100	-118.608	0.159	0.028
-183.085	22.527	0.194	-0.157
-182.071	800.000	0.086	-0.358
-181.056	100.094	-0.267	-0.307
-180.042	800.000	0.009	-0.034
-179.027	-8.012	-0.103	-0.069
-178.012	-9.407	0.051	-0.034
-176.998	109.363	0.228	-0.270
-175.983	-200.000	-0.016	-0.184
-174.969	-117.539	-0.347	0.062
-173.954	-22.482	0.130	-0.078
-172.939	-64.031	0.280	0.113
-171.925	-34.352	0.190	0.103
-170.910	-86.255	0.215	-0.065
-169.896	162.130	0.065	-0.090
-168.881	-200.000	-0.035	-0.183
-167.866	-90.048	0.146	-0.042
-166.852	-163.607	0.280	0.013
-165.837	8.524	0.178	0.133
-164.823	100.104	0.194	0.222
-163.808	-200.000	-0.027	-0.216
-162.793	-200.000	0.048	-0.308
-161.779	6.546	-0.155	0.114
-160.764	65.106	-0.249	0.249
-159.750	-200.000	0.002	-0.147
-158.735	231.579	-0.100	-0.163
-157.720	-200.000	0.002	-0.200
-156.706	-200.000	-0.002	0.250
-155.691	359.836	0.058	0.116
-154.677	37.881	0.110	0.097
-153.662	242.449	0.104	0.172
-152.647	92.969	-0.025	-0.028
-151.633	46.038	-0.217	0.199
-150.618	78.879	0.324	-0.343
-149.604	-184.183	0.359	0.006
-148.589	46.809	-0.100	-0.092
-147.574	-64.684	-0.106	-0.043
-146.560	-45.396	-0.207	-0.101
-145.545	26.869	-0.279	0.231
-144.531	319.123	0.044	-0.082
-143.516	143.784	0.173	0.228
-142.502	-200.000	-0.007	0.066
-141.487	-92.767	0.095	0.026
-140.472	-4.048	-0.136	-0.093
-139.458	-10.743	0.149	-0.098
-138.443	-200.000	0.039	0.302
-137.429	105.985	-0.217	-0.254
-136.414	-88.828	-0.312	0.092
-135.399	-200.000	-0.028	-0.123
-134.385	-83.734	0.280	-0.088
-133.370	-90.061	-0.056	0.016
-132.356	5.891	0.160	-0.117
-131.341	-200.000	-0.013	0.102
-130.326	22.157	0.212	-0.171
-129.312	-157.201	-0.162	-0.010
-128.297	-200.000	0.043	0.302
-127.283	-200.000	0.007	-0.087
-126.268	52.853	-0.060	-0.057
-125.253	10.805	-0.075	0.057
-124.239	754.421	0.039	0.105
-123.224	-42.521	-0.190	-0.096
-122.210	724.591	-0.147	-0.387
-121.195	-112.311	0.449	0.089
