DTS Sentinel unit serial number:	SN413079Multiplexer serial number:	ORYXHardware model number:	OX4-SRSoftware version number:	ORYX F/W v4.00 Oryx Data Collector v3.7.2.0data status	okinstallation	princeton_trtdifferential loss correction	single-endedforward channel	channel 1reverse channel	N/Adate	2019/09/13time	13:58:35forward acquisition time	60.00reverse acquisition time	0.00gamma	496.2192k internal	0.2302k external	0.2302temperature offset calibration	1.0161default loss term (dB/km)	0.3790temperature slope calibration	1.0000multiplexer offset coefficient	1.0000multiplexer slope coefficient	1.0000fibre end	0.00T internal ref (°C)	35.19T ext. ref 1 (°C)	4.59T ext. ref 2 (°C)	31.77length (m)	temperature (°C)	Stokes	anti-Stokes-747.200	-30.570	-0.111	-0.064
-746.185	-124.539	-0.235	-0.037
-745.171	-48.673	0.233	0.114
-744.156	230.374	-0.154	0.257
-743.142	-87.265	0.252	0.078
-742.127	-105.506	0.137	0.032
-741.112	-170.960	0.591	0.021
-740.098	-108.458	-0.256	0.056
-739.083	800.000	0.053	-0.172
-738.069	-113.903	0.133	-0.026
-737.054	800.000	0.086	-0.380
-736.039	78.397	0.067	-0.073
-735.025	543.476	0.130	0.317
-734.010	-84.527	-0.151	-0.049
-732.996	250.796	-0.089	-0.154
-731.981	-23.636	-0.150	-0.091
-730.966	66.772	0.147	-0.152
-729.952	800.000	-0.019	0.063
-728.937	15.880	0.333	-0.267
-727.923	800.000	-0.106	-0.325
-726.908	-200.000	-0.015	0.175
-725.894	-64.776	-0.186	0.077
-724.879	-41.947	-0.311	-0.162
-723.864	189.465	0.174	-0.265
-722.850	800.000	-0.022	-0.094
-721.835	-165.963	-0.146	0.006
-720.821	-86.697	-0.170	-0.053
-719.806	800.000	0.002	0.008
-718.791	800.000	-0.020	-0.066
-717.777	-200.000	0.031	0.154
-716.762	255.132	-0.139	-0.243
-715.748	-200.000	-0.011	-0.357
-714.733	795.083	0.071	-0.199
-713.718	127.833	-0.139	0.180
-712.704	-21.041	-0.333	0.207
-711.689	-96.816	-0.188	-0.050
-710.675	61.076	-0.174	-0.175
-709.660	-200.000	-0.007	-0.057
-708.645	800.000	0.036	-0.119
-707.631	-41.066	0.108	-0.057
-706.616	143.912	0.175	-0.237
-705.602	-137.125	0.163	-0.019
-704.587	-28.972	-0.194	-0.114
-703.572	-30.719	0.304	-0.175
-702.558	-200.000	-0.017	-0.333
-701.543	50.853	0.205	-0.198
-700.529	-200.000	-0.078	0.462
-699.514	-200.000	0.030	0.334
-698.499	-62.000	-0.074	0.032
-697.485	48.510	-0.427	-0.407
-696.470	-200.000	0.033	-0.207
-695.456	506.146	0.018	0.042
-694.441	111.935	-0.116	0.143
-693.426	653.729	-0.112	0.291
-692.412	800.000	0.041	0.178
-691.397	59.872	-0.086	-0.086
-690.383	-98.743	0.285	0.074
-689.368	-43.759	0.198	0.101
-688.354	-61.226	-0.170	0.073
-687.339	-122.868	-0.128	-0.021
-686.324	107.086	0.112	0.135
-685.310	800.000	-0.045	0.153
-684.295	21.461	-0.151	0.125
-683.281	-147.274	-0.156	0.013
-682.266	15.329	-0.126	0.101
-681.251	800.000	0.075	0.276
-680.237	-70.080	0.075	0.029
-679.222	-19.043	0.249	-0.157
-678.208	-54.410	-0.133	-0.061
-677.193	-103.032	0.220	0.053
-676.178	675.802	0.096	-0.254
-675.164	123.420	-0.153	-0.195
-674.149	69.290	-0.177	-0.185
-673.135	-83.132	0.269	-0.088
-672.120	-200.000	-0.035	0.231
-671.105	800.000	-0.031	0.104
-670.091	6.077	-0.237	-0.179
-669.076	48.818	-0.174	0.166
-668.062	462.661	-0.067	-0.151
-667.047	-86.310	-0.195	0.061
-666.032	-200.000	-0.062	0.339
-665.018	94.299	-0.196	0.227
-664.003	79.296	0.233	0.254
-662.989	800.000	0.037	0.146
-661.974	295.309	-0.168	-0.312
-660.959	-151.554	0.428	0.032
-659.945	-200.000	-0.004	-0.146
-658.930	68.503	0.100	-0.104
-657.916	800.000	-0.074	0.295
-656.901	386.737	0.122	-0.257
-655.886	-200.000	0.023	-0.166
-654.872	-200.000	-0.018	-0.121
-653.857	-200.000	-0.012	-0.125
-652.843	-59.990	-0.336	0.146
-651.828	163.790	-0.038	-0.054
-650.814	-200.000	-0.010	-0.147
-649.799	-151.006	-0.410	-0.031
-648.784	-1.893	-0.175	0.125
-647.770	800.000	-0.058	-0.219
-646.755	296.451	0.137	-0.256
-645.741	81.056	-0.172	-0.189
-644.726	800.000	-0.054	-0.234
-643.711	-200.000	0.061	-0.488
-642.697	134.792	0.096	0.127
-641.682	-127.931	0.294	-0.043
-640.668	-138.145	-0.231	-0.026
-639.653	-67.439	0.260	0.104
-638.638	173.489	0.050	-0.073
-637.624	-99.164	-0.360	0.092
-636.609	-179.523	0.335	-0.007
-635.595	48.617	-0.200	-0.190
-634.580	-196.883	-0.071	-0.000
-633.565	35.923	-0.243	-0.217
-632.551	-200.000	0.024	-0.307
-631.536	-200.000	0.003	-0.372
-630.522	39.574	-0.188	0.171
-629.507	-60.219	0.150	-0.065
-628.492	-54.099	-0.402	-0.186
-627.478	59.256	-0.166	0.166
-626.463	-52.771	-0.161	0.075
-625.449	126.638	0.244	0.313
-624.434	-200.000	0.021	-0.174
-623.419	204.027	-0.079	0.125
-622.405	-200.000	-0.035	0.393
-621.390	-75.438	0.338	-0.122
-620.376	-200.000	-0.020	-0.089
-619.361	-94.005	0.085	-0.024
-618.346	231.904	-0.064	0.106
-617.332	-143.687	-0.232	-0.022
-616.317	-112.852	0.104	-0.021
-615.303	-200.000	-0.001	-0.232
-614.288	-96.324	-0.224	0.060
-613.273	-65.624	0.210	-0.085
-612.259	-172.679	0.069	0.002
-611.244	180.174	-0.033	0.050
-610.230	486.399	0.083	0.191
-609.215	800.000	-0.080	-0.348
-608.201	-141.510	0.098	0.010
-607.186	-71.535	-0.358	-0.136
-606.171	262.372	0.091	-0.160
-605.157	-7.789	0.206	0.141
-604.142	751.221	-0.134	0.368
-603.128	36.514	-0.265	-0.237
-602.113	-200.000	0.031	-0.169
-601.098	288.298	0.066	0.121
-600.084	-8.211	0.174	0.119
-599.069	-62.088	0.483	0.204
-598.055	-88.030	-0.187	-0.057
-597.040	130.307	0.077	0.100
-596.025	38.528	0.077	-0.069
-595.011	62.376	-0.181	-0.183
-593.996	61.451	0.072	0.073
-592.982	115.013	0.113	-0.140
-591.967	-64.579	-0.353	-0.145
-590.952	-155.105	-0.491	0.033
-589.938	-59.799	0.229	-0.099
-588.923	-32.146	0.090	-0.051
-587.909	428.627	-0.074	-0.162
-586.894	-52.960	0.281	0.131
-585.879	-110.888	-0.332	0.069
-584.865	110.494	0.062	-0.075
-583.850	-132.269	-0.116	0.015
-582.836	265.292	0.166	-0.293
-581.821	-141.584	-0.063	-0.006
-580.806	12.628	-0.207	0.161
-579.792	-58.888	-0.090	-0.039
-578.777	-200.000	0.006	0.274
-577.763	42.998	0.167	0.154
-576.748	46.835	0.261	0.245
-575.733	-200.000	0.030	-0.407
-574.719	-112.916	0.217	0.044
-573.704	-52.737	0.398	-0.186
-572.690	-58.650	-0.262	0.115
-571.675	102.002	0.149	-0.176
-570.661	-171.383	-0.146	0.005
-569.646	-83.720	-0.121	-0.039
-568.631	-141.181	-0.146	0.015
-567.617	800.000	-0.051	0.224
-566.602	-79.800	0.366	0.125
-565.588	67.653	-0.079	0.082
-564.573	800.000	0.025	0.107
-563.558	203.950	-0.082	0.129
-562.544	558.551	-0.119	0.291
-561.529	-200.000	-0.019	-0.222
-560.515	-74.265	-0.120	0.044
-559.500	-44.707	0.213	0.108
-558.485	-200.000	-0.015	0.139
-557.471	187.548	-0.057	0.086
-556.456	376.139	0.162	-0.334
-555.442	-200.000	0.047	-0.258
-554.427	800.000	-0.022	0.072
-553.412	107.785	-0.120	0.144
-552.398	-132.679	-0.086	0.011
-551.383	-63.222	-0.225	0.094
-550.369	116.134	0.226	-0.280
-549.354	-122.297	0.318	-0.053
-548.339	-10.000	-0.184	0.124
-547.325	-51.995	0.191	0.090
-546.310	-63.603	-0.094	0.039
-545.296	396.378	-0.075	-0.159
-544.281	-200.000	-0.052	0.354
-543.266	-66.183	-0.028	0.011
-542.252	-65.353	0.157	-0.064
-541.237	-35.548	-0.366	-0.201
-540.223	800.000	0.106	0.438
-539.208	-114.119	0.149	-0.029
-538.193	115.510	-0.141	-0.174
-537.179	-200.000	0.028	-0.214
-536.164	170.121	0.127	-0.184
-535.150	-160.337	0.180	-0.010
-534.135	463.672	-0.154	0.347
-533.121	-127.397	-0.141	-0.021
-532.106	-133.729	-0.084	-0.011
-531.091	406.677	0.127	0.270
-530.077	456.675	0.080	0.180
-529.062	-8.904	0.143	0.097
-528.048	-200.000	0.037	-0.170
-527.033	-5.769	-0.228	0.158
-526.018	-49.174	-0.266	0.128
-525.004	458.188	0.130	0.293
-523.989	-82.991	0.345	-0.112
-522.975	-88.238	-0.037	0.011
-521.960	11.844	0.083	-0.065
-520.945	-200.000	0.031	0.221
-519.931	635.676	-0.175	0.450
-518.916	-200.000	0.004	-0.109
-517.902	-73.003	-0.182	-0.068
-516.887	-120.336	0.479	0.082
-515.872	800.000	-0.072	-0.268
-514.858	-41.109	-0.144	-0.075
-513.843	-200.000	0.037	-0.258
-512.829	-24.335	0.126	0.076
-511.814	800.000	-0.050	-0.179
-510.799	522.470	-0.136	-0.322
-509.785	-38.560	-0.311	-0.166
-508.770	528.331	-0.054	0.129
-507.756	106.915	0.084	-0.101
-506.741	506.228	-0.065	-0.153
-505.726	-5.022	-0.150	0.104
-504.712	-71.952	0.103	0.039
-503.697	351.304	0.092	-0.184
-502.683	5.821	0.331	0.247
-501.668	-146.002	-0.057	0.005
-500.653	114.005	-0.270	-0.331
-499.639	-59.046	-0.171	-0.074
-498.624	349.724	-0.110	0.220
-497.610	800.000	-0.071	-0.273
-496.595	-48.291	-0.295	0.143
-495.581	94.886	-0.101	0.116
-494.566	-173.373	-0.103	-0.003
-493.551	124.196	-0.088	0.112
-492.537	130.647	0.330	-0.427
-491.522	660.916	-0.068	-0.178
-490.508	-200.000	0.058	0.388
-489.493	20.376	0.034	-0.028
-488.478	800.000	-0.057	-0.178
-487.464	-200.000	0.056	-0.248
-486.449	18.521	0.134	0.108
-485.435	-86.413	-0.120	-0.037
-484.420	800.000	0.087	-0.323
-483.405	-20.920	-0.077	0.048
-482.391	-12.177	-0.233	0.154
-481.376	-16.687	0.101	0.064
-480.362	-94.269	-0.320	0.088
-479.347	-63.750	-0.338	0.140
-478.332	5.470	0.267	-0.199
-477.318	99.729	-0.140	-0.163
-476.303	800.000	0.111	0.337
-475.289	-17.126	0.312	-0.198
-474.274	406.822	-0.203	-0.433
-473.259	87.238	0.061	0.068
-472.245	-51.319	0.107	0.050
-471.230	227.724	-0.236	-0.387
-470.216	26.836	0.174	0.147
-469.201	-33.763	0.213	0.118
-468.186	-200.000	0.009	-0.255
-467.172	-200.000	-0.002	0.042
-466.157	-149.837	0.106	-0.008
-465.143	87.416	0.275	0.307
-464.128	-104.916	0.227	-0.052
-463.113	201.941	-0.226	-0.352
-462.099	-83.533	0.013	-0.004
-461.084	-28.805	-0.103	0.060
-460.070	54.324	-0.100	0.097
-459.055	800.000	0.105	0.297
-458.040	-72.748	0.156	0.058
-457.026	275.519	0.059	-0.105
-456.011	-129.226	-0.239	0.034
-454.997	-71.576	-0.116	-0.044
-453.982	-89.391	0.214	0.063
-452.968	-0.285	0.386	0.277
-451.953	800.000	-0.066	0.246
-450.938	-200.000	-0.025	0.290
-449.924	-102.756	-0.053	0.013
-448.909	-98.634	0.102	-0.026
-447.895	44.596	0.164	-0.152
-446.880	-20.842	-0.188	0.116
-445.865	-103.245	-0.276	-0.066
-444.851	-180.018	0.349	0.007
-443.836	-7.039	0.102	0.069
-442.822	88.591	-0.181	0.203
-441.807	265.858	0.159	0.280
-440.792	-120.075	-0.171	-0.029
-439.778	-1.705	-0.156	0.111
-438.763	800.000	0.074	-0.223
-437.749	-113.464	-0.357	-0.071
-436.734	20.799	-0.185	-0.151
-435.719	-71.672	0.246	-0.092
-434.705	-121.556	0.263	-0.044
-433.690	19.008	-0.248	0.200
-432.676	-118.988	-0.168	-0.030
-431.661	-97.425	-0.121	-0.032
-430.646	-39.581	0.080	0.042
-429.632	270.346	-0.144	-0.255
-428.617	-200.000	-0.003	0.057
-427.603	-102.474	0.039	-0.009
-426.588	800.000	0.034	-0.096
-425.573	432.619	0.038	0.082
-424.559	-48.653	0.307	-0.148
-423.544	-200.000	0.011	-0.156
-422.530	-74.752	0.250	-0.090
-421.515	-200.000	-0.033	0.342
-420.500	-154.220	-0.263	0.018
-419.486	69.572	-0.151	0.157
-418.471	-134.198	0.067	0.008
-417.457	-200.000	0.020	-0.184
-416.442	49.408	-0.028	-0.026
-415.428	-200.000	-0.051	0.343
-414.413	-23.354	0.176	0.106
-413.398	800.000	0.097	0.296
-412.384	-146.245	-0.041	0.004
-411.369	800.000	-0.054	0.176
-410.355	-200.000	-0.005	0.169
-409.340	-79.812	-0.192	0.065
-408.325	295.421	-0.078	-0.144
-407.311	1.233	-0.163	0.118
-406.296	-200.000	0.034	0.205
-405.282	56.847	-0.217	0.212
-404.267	265.999	0.117	0.206
-403.252	-113.297	0.294	-0.058
-402.238	681.520	0.123	-0.322
-401.223	508.630	0.151	0.353
-400.209	179.660	0.020	0.030
-399.194	218.824	-0.068	0.109
-398.179	-34.464	0.035	0.019
-397.165	-200.000	-0.004	0.114
-396.150	241.508	0.120	0.201
-395.136	158.788	0.028	0.039
-394.121	-25.527	-0.255	0.151
-393.106	-139.959	-0.345	0.037
-392.092	-148.140	-0.046	-0.004
-391.077	800.000	-0.101	-0.288
-390.063	-101.130	0.195	-0.048
-389.048	-112.289	0.146	0.029
-388.033	800.000	-0.015	0.043
-387.019	-57.529	0.249	-0.110
-386.004	-169.167	0.240	0.009
-384.990	38.661	0.163	0.146
-383.975	-200.000	-0.052	0.299
-382.960	-200.000	0.008	0.138
-381.946	-73.012	0.218	-0.080
-380.931	199.109	-0.108	0.167
-379.917	-122.786	-0.334	-0.054
-378.902	-200.000	-0.017	-0.222
-377.888	346.591	-0.060	-0.118
-376.873	800.000	0.095	-0.277
-375.858	620.389	-0.141	0.356
-374.844	219.872	-0.150	0.241
-373.829	-58.660	-0.197	0.086
-372.815	257.985	0.044	-0.076
-371.800	-146.114	-0.041	-0.004
-370.785	800.000	0.035	-0.097
-369.771	-200.000	0.006	-0.252
-368.756	800.000	-0.020	-0.064
-367.742	800.000	-0.017	0.048
-366.727	-87.357	0.258	-0.079
-365.712	-77.580	-0.141	-0.049
-364.698	800.000	-0.060	-0.246
-363.683	800.000	0.039	-0.152
-362.669	-200.000	-0.000	0.042
-361.654	-135.272	0.367	0.044
-360.639	-25.815	-0.251	-0.148
-359.625	-200.000	-0.001	0.077
-358.610	-132.567	0.224	0.029
-357.596	-200.000	-0.002	0.029
-356.581	-139.778	-0.098	-0.010
-355.566	-80.382	0.258	-0.087
-354.552	800.000	0.108	-0.423
-353.537	-88.789	0.050	-0.015
-352.523	-85.211	-0.227	-0.071
-351.508	-123.309	-0.243	0.039
-350.493	-38.232	-0.284	0.151
-349.479	32.716	-0.082	-0.071
-348.464	184.517	-0.115	0.170
-347.450	22.613	-0.124	0.102
-346.435	-29.577	0.184	-0.105
-345.420	83.535	0.284	-0.311
-344.406	-124.313	0.102	-0.016
-343.391	-178.619	0.336	0.008
-342.377	-200.000	-0.009	-0.161
-341.362	-69.409	0.097	-0.037
-340.348	126.399	-0.078	0.099
-339.333	-134.154	-0.209	-0.026
-338.318	29.902	-0.210	-0.179
-337.304	243.282	0.089	-0.149
-336.289	-152.431	0.208	0.015
-335.275	-114.473	0.204	0.039
-334.260	-71.782	-0.288	0.108
-333.245	-170.993	0.572	-0.020
-332.231	-101.128	-0.045	0.011
-331.216	88.695	-0.036	0.040
-330.202	5.192	-0.267	-0.198
-329.187	-69.320	0.267	-0.103
-328.172	137.729	0.052	-0.068
-327.158	800.000	0.022	0.069
-326.143	421.184	-0.105	-0.225
-325.129	-200.000	-0.027	-0.125
-324.114	200.089	0.201	0.309
-323.099	3.248	-0.165	0.120
-322.085	19.797	-0.202	0.163
-321.070	-96.461	-0.380	0.101
-320.056	-200.000	-0.016	0.397
-319.041	382.371	-0.133	-0.273
-318.026	502.976	-0.042	-0.096
-317.012	617.966	0.052	-0.131
-315.997	572.487	-0.031	-0.076
-314.983	800.000	-0.088	-0.281
-313.968	-200.000	-0.010	-0.295
-312.953	355.161	0.095	0.189
-311.939	-61.847	-0.024	0.010
-310.924	-200.000	-0.042	0.188
-309.910	-171.440	-0.107	-0.004
-308.895	387.399	-0.201	0.417
-307.880	-135.993	0.183	-0.022
-306.866	-144.578	-0.419	0.039
-305.851	800.000	0.118	-0.375
-304.837	585.486	-0.097	0.240
-303.822	800.000	0.043	-0.163
-302.807	136.628	0.173	-0.226
-301.793	-94.789	-0.108	-0.029
-300.778	-105.343	-0.409	0.093
-299.764	256.665	-0.052	0.089
-298.749	800.000	0.029	0.121
-297.735	-55.931	-0.199	-0.089
-296.720	492.242	0.026	0.061
-295.705	15.185	0.158	0.124
-294.691	-200.000	0.032	-0.408
-293.676	-81.795	-0.387	0.127
-292.662	133.354	0.174	0.225
-291.647	-133.856	-0.285	-0.035
-290.632	-54.411	0.101	0.046
-289.618	208.746	0.133	0.208
-288.603	-135.186	-0.246	-0.030
-287.589	800.000	0.070	-0.220
-286.574	155.507	0.148	0.204
-285.559	-200.000	-0.013	-0.078
-284.545	-200.000	0.018	-0.294
-283.530	112.562	0.059	0.072
-282.516	-200.000	0.055	0.281
-281.501	-72.682	0.160	-0.059
-280.486	158.451	0.127	0.176
-279.472	-38.125	0.261	0.138
-278.457	-9.913	-0.292	0.194
-277.443	102.561	-0.142	-0.166
-276.428	170.552	0.160	-0.229
-275.413	191.166	0.087	-0.131
-274.399	-63.869	0.254	0.104
-273.384	-200.000	-0.008	-0.294
-272.370	692.071	-0.085	0.222
-271.355	303.618	0.122	0.226
-270.340	-93.151	-0.114	0.032
-269.326	-200.000	-0.018	0.097
-268.311	-200.000	-0.059	0.283
-267.297	800.000	-0.047	0.199
-266.282	10.975	0.063	0.048
-265.267	149.831	0.100	0.136
-264.253	-101.356	0.102	-0.025
-263.238	256.058	-0.097	-0.166
-262.224	-64.723	0.091	0.037
-261.209	-200.000	0.012	0.367
-260.195	56.832	0.086	0.083
-259.180	91.025	-0.077	-0.087
-258.165	-5.462	-0.212	0.145
-257.151	-46.515	0.132	-0.065
-256.136	465.404	0.024	-0.053
-255.122	-13.658	0.119	0.077
-254.107	-94.277	0.232	0.063
-253.092	-62.343	-0.187	-0.078
-252.078	10.891	0.264	-0.202
-251.063	-200.000	0.006	0.214
-250.049	-200.000	0.009	0.409
-249.034	168.474	0.216	0.307
-248.019	62.115	0.095	0.095
-247.005	-88.021	-0.182	-0.055
-245.990	157.449	0.195	-0.270
-244.976	-87.616	0.232	-0.070
-243.961	-101.226	0.160	-0.039
-242.946	604.025	-0.103	-0.255
-241.932	159.291	-0.234	-0.325
-240.917	-70.836	0.189	0.071
-239.903	800.000	0.118	0.326
-238.888	696.437	-0.041	0.108
-237.873	-64.454	0.458	-0.186
-236.859	138.142	0.231	0.302
-235.844	-200.000	-0.041	0.326
-234.830	-120.458	0.408	-0.069
-233.815	-90.057	-0.406	0.118
-232.800	-43.881	-0.369	-0.186
-231.786	-138.752	-0.196	0.021
-230.771	-200.000	0.016	0.088
-229.757	-200.000	-0.021	-0.280
-228.742	800.000	-0.019	-0.053
-227.727	-39.376	-0.284	0.149
-226.713	5.217	-0.137	0.101
-225.698	800.000	-0.071	0.203
-224.684	154.930	-0.135	-0.186
-223.669	-66.313	0.254	-0.101
-222.655	-79.776	0.111	0.037
-221.640	800.000	0.078	0.332
-220.625	3.509	-0.084	-0.061
-219.611	-91.083	-0.201	0.057
-218.596	89.146	0.154	-0.171
-217.582	91.617	-0.076	0.086
-216.567	-120.719	0.144	-0.024
-215.552	800.000	0.004	-0.016
-214.538	-19.182	0.132	-0.082
-213.523	-55.984	-0.450	-0.200
-212.509	-127.157	0.235	-0.034
-211.494	21.218	0.076	-0.062
-210.479	-68.225	0.385	0.149
-209.465	-131.372	-0.315	-0.042
-208.450	754.666	-0.028	-0.074
-207.436	516.807	0.093	0.217
-206.421	265.701	0.165	-0.287
-205.406	-200.000	-0.015	-0.233
-204.392	-200.000	-0.022	0.165
-203.377	-200.000	0.076	0.357
-202.363	-95.688	0.213	-0.057
-201.348	-114.701	0.177	-0.034
-200.333	-107.227	-0.199	-0.044
-199.319	60.581	-0.124	-0.123
-198.304	-188.922	0.121	0.001
-197.290	473.185	-0.103	0.232
-196.275	34.783	-0.168	0.147
-195.260	219.013	0.059	-0.094
-194.246	466.968	0.101	-0.225
-193.231	-66.998	0.061	0.024
-192.217	-28.555	0.320	0.184
-191.202	297.024	0.034	-0.063
-190.187	-46.846	0.228	-0.111
-189.173	800.000	-0.033	0.144
-188.158	55.957	0.114	-0.110
-187.144	-50.334	0.161	0.076
-186.129	-81.216	0.106	0.035
-185.114	-72.148	-0.149	-0.055
-184.100	45.699	0.285	-0.263
-183.085	83.657	-0.275	0.299
-182.071	447.887	-0.119	0.261
-181.056	-107.934	0.199	0.043
-180.042	-67.454	-0.273	-0.107
-179.027	284.290	0.178	0.318
-178.012	31.358	-0.101	-0.086
-176.998	-20.110	-0.331	-0.203
-175.983	800.000	-0.140	-0.403
-174.969	21.479	0.290	-0.235
-173.954	6.771	0.243	-0.180
-172.939	-200.000	-0.123	-0.561
-171.925	-87.003	0.073	-0.022
-170.910	313.153	-0.022	-0.040
-169.896	314.610	-0.075	-0.141
-168.881	70.251	0.164	-0.169
-167.866	235.367	0.080	0.132
-166.852	-200.000	0.006	0.054
-165.837	238.085	0.125	0.206
-164.823	16.005	0.322	-0.252
-163.808	-59.022	-0.223	0.096
-162.793	-46.441	-0.047	0.023
-161.779	800.000	-0.079	-0.279
-160.764	-121.139	0.284	-0.047
-159.750	-200.000	0.033	0.172
-158.735	116.700	-0.198	-0.242
-157.720	-17.924	-0.111	-0.069
-156.706	-47.397	0.115	-0.056
-155.691	673.825	-0.085	0.220
-154.677	-56.332	-0.282	0.125
-153.662	-200.000	0.031	0.325
-152.647	-200.000	0.011	-0.331
-151.633	335.967	-0.101	0.196
-150.618	-90.980	0.181	0.052
-149.604	150.927	-0.008	0.011
-148.589	513.884	-0.053	0.123
-147.574	-67.120	-0.317	-0.125
-146.560	-34.463	0.108	0.059
-145.545	-160.409	-0.161	-0.009
-144.531	91.495	0.194	-0.217
-143.516	143.835	-0.162	-0.215
-142.502	-200.000	-0.029	0.335
-141.487	-36.500	0.136	0.073
-140.472	34.787	0.057	0.050
-139.458	733.583	-0.074	0.198
-138.443	175.558	-0.147	0.212
-137.429	-200.000	-0.004	0.147
-136.414	-42.743	0.307	-0.155
-135.399	-9.993	-0.241	0.159
-134.385	-4.512	0.198	0.136
-133.370	-57.423	-0.125	0.055
-132.356	-200.000	0.004	0.290
-131.341	-177.653	0.233	0.006
-130.326	-8.994	0.077	-0.051
-129.312	800.000	0.065	0.217
-128.297	151.772	0.201	0.273
-127.283	-37.077	0.141	-0.075
-126.268	49.916	-0.242	-0.227
-125.253	800.000	0.170	-0.654
-124.239	-26.953	0.107	0.062
-123.224	-120.191	-0.092	-0.016
-122.210	124.430	0.113	-0.142
-121.195	800.000	0.017	-0.047
