DTS Sentinel unit serial number:	SN413079Multiplexer serial number:	ORYXHardware model number:	OX4-SRSoftware version number:	ORYX F/W v4.00 Oryx Data Collector v3.7.2.0data status	okinstallation	princeton_trtdifferential loss correction	single-endedforward channel	channel 1reverse channel	N/Adate	2019/09/12time	16:20:11forward acquisition time	60.00reverse acquisition time	0.00gamma	496.2192k internal	0.2302k external	0.2302temperature offset calibration	1.0083default loss term (dB/km)	0.3790temperature slope calibration	1.0000multiplexer offset coefficient	1.0000multiplexer slope coefficient	1.0000fibre end	0.00T internal ref (°C)	37.91T ext. ref 1 (°C)	2.48T ext. ref 2 (°C)	30.66length (m)	temperature (°C)	Stokes	anti-Stokes-747.200	-139.381	0.114	-0.012
-746.185	-52.975	-0.054	-0.025
-745.171	-123.731	0.332	0.054
-744.156	224.123	0.203	0.334
-743.142	-200.000	-0.066	-0.374
-742.127	6.172	-0.170	0.128
-741.112	-79.656	0.225	0.077
-740.098	531.469	0.100	-0.240
-739.083	223.174	0.109	-0.179
-738.069	-84.171	0.375	0.121
-737.054	-200.000	-0.063	-0.384
-736.039	-0.482	-0.377	-0.273
-735.025	-200.000	0.005	-0.136
-734.010	-10.707	-0.312	-0.210
-732.996	-59.033	0.212	0.093
-731.981	800.000	-0.026	0.105
-730.966	800.000	0.141	0.545
-729.952	-105.932	-0.128	-0.029
-728.937	11.829	-0.261	-0.204
-727.923	9.967	-0.264	0.204
-726.908	37.980	-0.124	-0.112
-725.894	70.639	-0.075	-0.079
-724.879	-137.772	-0.138	-0.016
-723.864	100.684	-0.135	0.159
-722.850	61.415	-0.075	-0.076
-721.835	-181.767	-0.156	0.003
-720.821	-115.789	0.288	-0.055
-719.806	-55.528	0.125	-0.057
-718.791	-134.565	0.128	-0.016
-717.777	-37.346	0.236	-0.128
-716.762	-102.312	-0.022	0.005
-715.748	-83.272	-0.411	-0.134
-714.733	-18.389	-0.152	0.097
-713.718	-200.000	0.036	0.241
-712.704	268.325	0.048	-0.086
-711.689	126.902	0.112	0.145
-710.675	-119.262	-0.145	0.026
-709.660	-34.057	0.131	-0.073
-708.645	32.722	-0.062	-0.054
-707.631	-200.000	-0.035	-0.181
-706.616	-110.994	0.089	-0.019
-705.602	-4.840	-0.227	0.159
-704.587	800.000	0.086	-0.254
-703.572	800.000	0.088	0.316
-702.558	52.337	-0.079	0.077
-701.543	-138.653	-0.202	-0.022
-700.529	-141.063	-0.133	0.014
-699.514	282.420	-0.230	-0.420
-698.499	335.602	-0.177	-0.349
-697.485	-154.557	-0.119	0.008
-696.470	162.786	-0.013	-0.019
-695.456	800.000	-0.096	-0.329
-694.441	-1.206	-0.333	-0.239
-693.426	614.137	0.128	0.326
-692.412	-89.671	0.056	-0.017
-691.397	25.578	-0.023	0.020
-690.383	292.944	-0.230	-0.427
-689.368	-31.372	0.209	-0.119
-688.354	323.526	0.128	0.248
-687.339	-39.031	0.105	0.056
-686.324	132.549	0.080	0.105
-685.310	252.059	-0.039	0.068
-684.295	307.892	0.141	-0.267
-683.281	-197.606	-0.298	0.002
-682.266	-155.308	0.209	-0.014
-681.251	-83.237	-0.146	0.048
-680.237	507.550	-0.126	0.297
-679.222	208.150	0.199	-0.315
-678.208	800.000	-0.053	0.230
-677.193	-200.000	0.003	0.223
-676.178	314.516	0.081	0.155
-675.164	364.737	0.134	0.274
-674.149	-40.809	-0.355	0.187
-673.135	79.408	-0.234	-0.255
-672.120	-200.000	0.005	-0.030
-671.105	-200.000	0.011	0.079
-670.091	33.477	0.093	0.082
-669.076	181.885	0.134	0.200
-668.062	213.869	0.101	0.162
-667.047	-51.608	0.326	-0.154
-666.032	67.022	-0.195	-0.202
-665.018	-51.419	-0.348	0.165
-664.003	-25.544	-0.294	0.176
-662.989	-175.909	0.447	-0.012
-661.974	-200.000	0.003	0.175
-660.959	-200.000	0.052	-0.366
-659.945	-110.154	-0.508	-0.108
-658.930	-200.000	-0.028	-0.226
-657.916	-95.703	0.092	0.025
-656.901	-93.402	0.318	-0.090
-655.886	437.660	-0.028	-0.061
-654.872	37.472	-0.154	0.139
-653.857	-105.413	0.103	-0.024
-652.843	-200.000	0.039	-0.191
-651.828	628.542	-0.116	0.299
-650.814	-93.305	-0.092	-0.026
-649.799	800.000	0.028	-0.112
-648.784	144.370	0.142	-0.193
-647.770	31.920	-0.221	0.193
-646.755	92.695	-0.145	0.166
-645.741	-98.485	0.182	-0.047
-644.726	800.000	0.059	0.170
-643.711	-200.000	-0.006	-0.025
-642.697	800.000	-0.125	0.417
-641.682	-99.807	-0.326	0.083
-640.668	-163.866	-0.186	0.009
-639.653	-9.902	0.172	-0.116
-638.638	-200.000	0.034	-0.562
-637.624	-200.000	0.019	-0.315
-636.609	-200.000	0.001	-0.028
-635.595	800.000	0.059	-0.245
-634.580	63.308	0.169	-0.172
-633.565	74.153	-0.249	0.265
-632.551	57.198	0.196	-0.194
-631.536	-127.201	0.016	-0.002
-630.522	-15.418	-0.261	-0.169
-629.507	404.626	0.064	0.136
-628.492	-138.999	0.086	-0.009
-627.478	800.000	-0.060	-0.199
-626.463	-200.000	-0.027	0.179
-625.449	417.349	-0.041	-0.088
-624.434	33.477	-0.201	0.177
-623.419	-149.878	0.060	-0.005
-622.405	-200.000	-0.014	-0.069
-621.390	-73.909	-0.175	0.064
-620.376	800.000	0.036	0.145
-619.361	-146.675	0.111	-0.010
-618.346	69.079	0.087	0.091
-617.332	-29.712	0.188	-0.109
-616.317	-10.277	-0.323	-0.218
-615.303	-200.000	0.004	-0.041
-614.288	190.641	-0.058	0.088
-613.273	630.639	0.168	0.431
-612.259	1.026	0.266	0.194
-611.244	800.000	0.035	0.114
-610.230	-39.727	0.208	-0.110
-609.215	-116.600	-0.161	0.030
-608.201	-54.151	0.126	-0.058
-607.186	-200.000	-0.003	0.330
-606.171	-200.000	0.051	0.268
-605.157	98.338	0.091	-0.106
-604.142	-139.318	-0.356	-0.039
-603.128	-200.000	0.030	0.194
-602.113	21.133	-0.163	0.134
-601.098	-200.000	0.030	0.134
-600.084	177.594	0.106	-0.156
-599.069	86.479	0.151	0.169
-598.055	387.587	0.047	-0.099
-597.040	703.257	0.121	0.324
-596.025	-157.580	-0.330	0.020
-595.011	46.312	0.221	0.208
-593.996	88.484	0.339	0.382
-592.982	-154.161	-0.245	0.017
-591.967	9.141	-0.036	0.028
-590.952	-127.445	0.167	-0.025
-589.938	800.000	0.039	0.140
-588.923	63.460	-0.148	-0.151
-587.909	-34.930	0.048	-0.027
-586.894	800.000	-0.036	-0.154
-585.879	-200.000	0.033	0.321
-584.865	266.652	-0.116	-0.206
-583.850	30.383	-0.272	0.236
-582.836	-200.000	-0.011	-0.196
-581.821	100.750	-0.148	-0.174
-580.806	-12.086	-0.119	-0.079
-579.792	-80.650	0.246	0.083
-578.777	-200.000	0.465	0.000
-577.763	-200.000	0.015	0.083
-576.748	-130.390	-0.450	-0.062
-575.733	-0.378	-0.091	-0.065
-574.719	-200.000	0.012	0.176
-573.704	-200.000	0.030	0.330
-572.690	-37.674	0.340	0.183
-571.675	-200.000	-0.097	-0.464
-570.661	344.568	-0.080	-0.158
-569.646	-25.306	-0.091	-0.055
-568.631	-7.694	0.266	0.182
-567.617	-142.290	-0.169	0.017
-566.602	-103.045	-0.249	-0.060
-565.588	-107.948	-0.220	-0.048
-564.573	-120.311	-0.380	0.066
-563.558	-41.344	0.328	0.171
-562.544	-200.000	0.013	0.258
-561.529	257.070	0.201	-0.349
-560.515	76.114	-0.162	-0.173
-559.500	222.779	-0.091	-0.148
-558.485	800.000	0.040	0.124
-557.471	-200.000	-0.038	-0.388
-556.456	-200.000	-0.005	-0.042
-555.442	-7.111	-0.157	0.108
-554.427	-142.354	0.135	-0.014
-553.412	-66.048	0.093	0.038
-552.398	758.044	0.096	0.263
-551.383	-95.052	0.086	0.023
-550.369	-5.438	0.216	0.150
-549.354	186.977	0.244	0.368
-548.339	-44.612	-0.146	0.074
-547.325	769.534	0.123	-0.339
-546.310	-8.753	-0.064	0.043
-545.296	-65.679	0.212	-0.086
-544.281	296.739	0.089	-0.165
-543.266	-144.818	-0.369	0.034
-542.252	118.257	0.073	0.091
-541.237	317.116	0.149	-0.284
-540.223	291.391	-0.145	-0.266
-539.208	-133.500	-0.223	0.028
-538.193	-31.563	-0.223	-0.127
-537.179	-113.843	0.367	0.072
-536.164	800.000	0.042	-0.156
-535.150	-72.468	0.297	-0.111
-534.135	16.057	-0.186	0.149
-533.121	-200.000	-0.000	-0.334
-532.106	-103.260	0.340	-0.081
-531.091	286.702	0.183	0.335
-530.077	-200.000	0.024	-0.179
-529.062	-127.809	0.181	0.026
-528.048	1.322	0.102	-0.074
-527.033	-63.104	-0.093	-0.039
-526.018	-38.959	-0.165	-0.088
-525.004	-134.792	0.087	-0.011
-523.989	-200.000	-0.016	-0.229
-522.975	-142.513	-0.311	0.031
-521.960	366.408	0.213	0.434
-520.945	37.253	0.184	0.165
-519.931	800.000	0.014	0.045
-518.916	-200.000	0.002	-0.081
-517.902	306.220	-0.093	0.174
-516.887	-200.000	-0.015	0.162
-515.872	800.000	0.059	-0.200
-514.858	-200.000	-0.010	0.193
-513.843	4.253	-0.212	-0.157
-512.829	800.000	-0.015	0.060
-511.814	-158.521	-0.512	-0.030
-510.799	-17.301	0.138	-0.088
-509.785	168.137	-0.105	-0.151
-508.770	-200.000	0.012	0.167
-507.756	-74.409	-0.062	0.022
-506.741	106.351	0.024	0.029
-505.726	-7.884	0.258	-0.176
-504.712	-158.731	-0.189	0.011
-503.697	301.952	0.370	0.691
-502.683	21.873	0.153	0.126
-501.668	-138.324	-0.192	-0.021
-500.653	-102.170	-0.464	0.113
-499.639	186.911	0.120	0.181
-498.624	171.049	-0.178	0.258
-497.610	332.660	0.041	-0.080
-496.595	-12.533	0.206	0.136
-495.581	-85.848	-0.055	-0.017
-494.566	79.773	0.106	-0.115
-493.551	289.895	-0.185	-0.339
-492.537	221.157	-0.133	-0.215
-491.522	-119.973	-0.179	0.031
-490.508	515.831	-0.053	0.124
-489.493	1.491	0.141	-0.102
-488.478	177.865	-0.092	-0.135
-487.464	-200.000	-0.020	-0.234
-486.449	-200.000	-0.014	0.104
-485.435	34.628	0.055	-0.048
-484.420	270.279	-0.140	-0.248
-483.405	-114.303	0.170	-0.033
-482.391	-58.899	-0.289	0.126
-481.376	-167.826	-0.310	-0.012
-480.362	637.015	-0.044	-0.112
-479.347	95.862	-0.138	0.159
-478.332	-155.189	0.263	-0.017
-477.318	-151.121	-0.323	-0.024
-476.303	-93.592	0.203	-0.057
-475.289	800.000	-0.053	0.199
-474.274	-200.000	-0.024	0.317
-473.259	43.594	-0.108	0.100
-472.245	-91.859	-0.055	0.016
-471.230	-105.678	-0.140	-0.032
-470.216	146.667	-0.170	0.230
-469.201	-25.440	0.212	-0.126
-468.186	-156.706	-0.299	-0.019
-467.172	-97.566	-0.113	0.030
-466.157	-148.847	0.487	0.040
-465.143	189.457	-0.089	0.134
-464.128	-41.010	-0.324	-0.169
-463.113	-200.000	-0.022	-0.224
-462.099	800.000	0.044	0.159
-461.084	-200.000	0.024	-0.134
-460.070	-75.272	0.469	0.169
-459.055	-200.000	0.029	0.188
-458.040	6.114	-0.190	0.142
-457.026	-111.274	0.087	-0.018
-456.011	91.046	-0.073	-0.082
-454.997	-137.145	0.302	-0.035
-453.982	-4.144	0.115	0.080
-452.968	-113.119	0.136	-0.027
-451.953	-200.000	-0.060	0.444
-450.938	67.246	0.143	-0.147
-449.924	-106.019	-0.284	0.064
-448.909	312.835	-0.139	0.263
-447.895	629.695	0.107	0.274
-446.880	-9.302	-0.262	0.176
-445.865	384.293	0.062	-0.128
-444.851	-71.498	0.208	0.078
-443.836	146.621	0.132	0.179
-442.822	-58.493	-0.137	0.060
-441.807	-150.667	-0.353	0.027
-440.792	39.450	0.128	0.116
-439.778	-200.000	0.001	-0.052
-438.763	-200.000	-0.089	-0.450
-437.749	-63.076	-0.067	-0.028
-436.734	-200.000	0.029	-0.232
-435.719	-129.845	0.273	0.038
-434.705	-92.897	0.286	-0.080
-433.690	-78.056	0.159	0.055
-432.676	176.854	0.148	-0.216
-431.661	465.916	-0.017	-0.038
-430.646	800.000	0.141	-0.461
-429.632	-141.331	-0.060	0.006
-428.617	-161.512	-0.272	-0.014
-427.603	112.066	-0.193	-0.235
-426.588	111.404	-0.157	-0.190
-425.573	-68.431	0.154	0.060
-424.559	-101.719	0.137	0.033
-423.544	-38.020	0.199	0.107
-422.530	-200.000	-0.007	-0.291
-421.515	-200.000	-0.009	0.155
-420.500	-200.000	-0.040	0.326
-419.486	800.000	0.093	-0.323
-418.471	-200.000	0.044	-0.325
-417.457	213.889	0.269	0.428
-416.442	-200.000	-0.008	-0.102
-415.428	-74.778	0.181	-0.066
-414.413	-3.024	0.232	-0.163
-413.398	-3.910	-0.227	0.159
-412.384	225.846	-0.090	-0.146
-411.369	22.730	0.159	0.131
-410.355	-146.911	-0.070	0.006
-409.340	367.908	0.020	0.041
-408.325	11.085	0.112	-0.086
-407.311	153.701	-0.075	-0.103
-406.296	-200.000	-0.010	0.141
-405.282	225.999	0.051	0.084
-404.267	-40.076	0.364	0.191
-403.252	-200.000	-0.002	-0.613
-402.238	38.841	-0.199	0.179
-401.223	128.199	0.196	0.251
-400.209	302.768	0.141	0.263
-399.194	-200.000	-0.045	0.282
-398.179	-58.717	0.250	0.109
-397.165	135.932	0.162	-0.212
-396.150	-200.000	0.019	-0.152
-395.136	-139.110	0.222	0.024
-394.121	7.147	0.231	-0.174
-393.106	-0.465	0.150	-0.107
-392.092	754.778	-0.018	0.048
-391.077	-20.139	-0.103	-0.064
-390.063	29.463	-0.262	-0.224
-389.048	-121.675	-0.192	0.032
-388.033	452.032	0.168	0.374
-387.019	-18.998	-0.251	0.157
-386.004	-115.035	0.081	-0.015
-384.990	35.164	-0.325	-0.286
-383.975	776.194	0.050	-0.136
-382.960	800.000	-0.046	-0.149
-381.946	425.581	0.021	0.045
-380.931	-200.000	0.011	0.182
-379.917	-84.226	-0.149	-0.047
-378.902	-109.983	0.255	-0.054
-377.888	-195.586	-0.285	0.002
-376.873	10.786	-0.059	-0.045
-375.858	133.693	0.144	-0.187
-374.844	-200.000	0.024	0.208
-373.829	130.870	0.012	0.015
-372.815	800.000	0.128	-0.443
-371.800	547.761	-0.048	-0.116
-370.785	240.886	0.127	-0.214
-369.771	800.000	0.089	0.302
-368.756	550.319	-0.037	-0.089
-367.742	-200.000	0.007	0.193
-366.727	-200.000	0.040	-0.255
-365.712	-40.247	-0.159	0.083
-364.698	466.241	-0.155	-0.348
-363.683	-37.493	-0.100	-0.054
-362.669	235.156	-0.046	0.076
-361.654	16.248	0.273	0.216
-360.639	-42.056	-0.089	0.046
-359.625	23.720	0.063	-0.052
-358.610	-37.035	-0.371	0.199
-357.596	23.210	-0.094	0.077
-356.581	-200.000	0.007	0.217
-355.566	289.035	-0.025	-0.045
-354.552	49.868	-0.136	0.128
-353.537	-200.000	-0.025	0.244
-352.523	137.923	0.133	0.175
-351.508	-200.000	0.020	0.087
-350.493	20.627	0.182	0.148
-349.479	-200.000	-0.030	-0.342
-348.464	800.000	-0.072	-0.245
-347.450	323.850	0.078	-0.150
-346.435	650.902	0.178	-0.458
-345.420	58.588	-0.005	0.005
-344.406	63.055	0.060	0.061
-343.391	289.810	-0.044	0.080
-342.377	-200.000	0.023	-0.158
-341.362	368.425	0.148	0.299
-340.348	-200.000	-0.032	-0.229
-339.333	61.197	-0.196	-0.196
-338.318	-200.000	0.024	0.278
-337.304	-137.228	-0.070	0.008
-336.289	-159.341	-0.157	-0.009
-335.275	32.079	0.319	0.276
-334.260	-200.000	0.027	0.178
-333.245	96.400	0.147	-0.168
-332.231	-146.244	0.040	0.003
-331.216	-121.741	-0.203	0.034
-330.202	-105.053	0.354	0.081
-329.187	589.727	-0.129	-0.319
-328.172	25.889	-0.249	0.208
-327.158	101.062	0.116	-0.136
-326.143	-200.000	0.075	-0.355
-325.129	-75.252	0.041	-0.015
-324.114	54.381	0.104	-0.101
-323.099	62.881	0.160	-0.160
-322.085	-6.571	-0.041	-0.028
-321.070	216.770	-0.097	0.155
-320.056	189.049	0.150	0.225
-319.041	92.013	-0.143	-0.161
-318.026	-39.768	-0.344	0.180
-317.012	84.726	0.077	-0.084
-315.997	84.655	0.070	0.077
-314.983	-59.386	-0.174	-0.075
-313.968	-57.391	0.585	0.258
-312.953	191.852	-0.108	0.164
-311.939	800.000	-0.023	0.066
-310.924	69.265	0.109	0.113
-309.910	88.770	0.275	-0.306
-308.895	485.265	0.067	0.154
-307.880	-200.000	0.028	0.201
-306.866	-147.759	-0.272	-0.023
-305.851	800.000	0.103	0.341
-304.837	-139.798	0.102	-0.011
-303.822	1.053	0.035	-0.025
-302.807	-131.199	-0.187	-0.025
-301.793	-200.000	0.034	0.160
-300.778	553.278	0.069	-0.165
-299.764	-124.421	-0.147	-0.023
-298.749	800.000	-0.052	-0.192
-297.735	-200.000	0.032	-0.147
-296.720	324.237	-0.048	0.091
-295.705	800.000	-0.035	0.128
-294.691	153.746	-0.151	0.207
-293.676	-157.711	-0.176	0.010
-292.662	800.000	0.125	-0.379
-291.647	70.209	0.226	-0.233
-290.632	52.355	-0.201	0.192
-289.618	-37.666	-0.333	0.178
-288.603	-200.000	-0.013	0.092
-287.589	359.744	-0.144	0.287
-286.574	800.000	0.068	-0.216
-285.559	11.973	-0.117	0.090
-284.545	-200.000	0.005	-0.239
-283.530	800.000	-0.051	-0.199
-282.516	174.676	-0.174	0.253
-281.501	92.323	0.218	-0.246
-280.486	160.069	0.188	0.262
-279.472	793.643	0.084	-0.230
-278.457	-200.000	0.022	0.238
-277.443	362.872	0.203	-0.407
-276.428	428.665	0.119	-0.258
-275.413	132.368	-0.242	0.312
-274.399	164.356	0.070	0.098
-273.384	128.279	-0.197	-0.251
-272.370	100.360	-0.143	-0.166
-271.355	-94.906	-0.298	0.081
-270.340	-200.000	0.018	-0.191
-269.326	-3.787	-0.367	-0.255
-268.311	-64.635	-0.047	0.019
-267.297	-112.648	-0.222	0.044
-266.282	-81.278	0.171	0.056
-265.267	288.343	0.060	0.109
-264.253	-200.000	0.014	-0.177
-263.238	434.131	0.029	-0.062
-262.224	48.857	-0.274	0.258
-261.209	-15.906	-0.256	-0.163
-260.195	-10.165	-0.141	-0.094
-259.180	264.148	0.068	-0.119
-258.165	-200.000	0.050	0.335
-257.151	140.736	0.161	0.212
-256.136	-105.306	-0.312	-0.071
-255.122	128.006	0.133	-0.170
-254.107	357.008	0.152	0.302
-253.092	-82.949	0.351	0.113
-252.078	14.768	-0.224	0.175
-251.063	800.000	0.094	-0.293
-250.049	139.038	-0.115	-0.152
-249.034	-28.179	-0.131	-0.076
-248.019	-85.802	-0.151	-0.047
-247.005	-23.776	0.267	0.160
-245.990	39.431	-0.035	-0.031
-244.976	98.540	-0.107	0.124
-243.961	781.887	0.070	0.193
-242.946	148.244	0.172	-0.232
-241.932	-200.000	-0.055	-0.355
-240.917	58.742	0.336	-0.330
-239.903	-50.143	0.068	-0.032
-238.888	265.119	0.107	-0.187
-237.873	20.932	-0.032	0.026
-236.859	752.570	-0.094	-0.253
-235.844	-200.000	-0.016	-0.242
-234.830	-200.000	0.078	-0.409
-233.815	-200.000	0.017	-0.491
-232.800	-200.000	-0.027	0.161
-231.786	-200.000	-0.015	0.184
-230.771	-200.000	-0.015	0.412
-229.757	-200.000	-0.005	0.103
-228.742	68.083	-0.101	0.103
-227.727	-200.000	0.008	0.124
-226.713	-200.000	-0.077	-0.356
-225.698	-43.542	0.430	0.217
-224.684	-31.089	-0.370	-0.208
-223.669	800.000	-0.073	0.318
-222.655	-65.559	-0.238	-0.095
-221.640	115.286	0.107	0.131
-220.625	89.242	0.092	-0.103
-219.611	-200.000	-0.041	-0.299
-218.596	-200.000	0.010	0.071
-217.582	-30.778	-0.148	0.083
-216.567	-48.902	-0.234	-0.112
-215.552	-200.000	0.041	-0.258
-214.538	41.293	-0.070	0.063
-213.523	530.752	0.030	-0.071
-212.509	70.309	-0.114	0.118
-211.494	800.000	-0.041	0.124
-210.479	-63.652	0.109	0.045
-209.465	-106.199	0.197	-0.044
-208.450	-84.649	-0.234	-0.073
-207.436	105.399	0.162	0.191
-206.421	-110.109	-0.251	0.052
-205.406	-36.439	0.507	0.273
-204.392	-200.000	0.006	0.212
-203.377	92.265	0.082	0.092
-202.363	-64.959	-0.095	-0.038
-201.348	177.409	-0.172	-0.250
-200.333	103.772	-0.273	0.320
-199.319	-200.000	0.038	-0.179
-198.304	316.938	0.003	0.006
-197.290	-116.466	0.270	0.050
-196.275	-200.000	-0.069	0.406
-195.260	800.000	-0.049	0.181
-194.246	-70.925	0.170	-0.064
-193.231	6.311	-0.290	-0.215
-192.217	62.944	0.202	-0.202
-191.202	-132.911	-0.185	-0.023
-190.187	-84.321	-0.176	0.055
-189.173	-121.533	0.095	0.016
-188.158	-67.046	0.236	0.093
-187.144	800.000	0.043	0.131
-186.129	-200.000	-0.024	0.116
-185.114	104.395	-0.091	0.107
-184.100	-67.701	-0.046	0.018
-183.085	800.000	0.104	0.403
-182.071	-151.668	-0.365	-0.027
-181.056	99.524	0.209	-0.242
-180.042	704.318	0.178	-0.468
-179.027	54.225	0.068	-0.065
-178.012	8.349	-0.410	-0.307
-176.998	-72.109	0.211	0.078
-175.983	-55.935	0.358	0.159
-174.969	-161.582	0.102	-0.005
-173.954	-112.239	0.243	-0.049
-172.939	-200.000	-0.016	-0.201
-171.925	40.300	-0.006	0.005
-170.910	47.193	-0.084	-0.078
-169.896	57.829	0.078	-0.076
-168.881	-21.698	-0.177	-0.108
-167.866	-106.939	0.251	-0.055
-166.852	44.703	-0.132	0.121
-165.837	-200.000	0.016	0.195
-164.823	37.946	0.259	0.230
-163.808	800.000	-0.054	-0.179
-162.793	800.000	-0.053	-0.155
-161.779	113.706	-0.166	0.201
-160.764	-27.839	-0.227	0.131
-159.750	-60.583	-0.046	0.019
-158.735	62.987	0.026	-0.026
-157.720	122.307	0.132	0.164
-156.706	244.170	-0.132	0.220
-155.691	800.000	0.006	-0.025
-154.677	-104.034	0.250	-0.058
-153.662	190.590	0.227	-0.340
-152.647	-162.730	-0.256	0.012
-151.633	800.000	-0.068	-0.211
-150.618	-176.408	0.098	0.003
-149.604	800.000	0.051	-0.143
-148.589	155.770	0.104	0.143
-147.574	-7.607	0.024	-0.016
-146.560	94.292	-0.192	0.217
-145.545	75.954	-0.174	-0.183
-144.531	471.719	-0.091	-0.203
-143.516	-112.672	0.333	0.066
-142.502	-78.058	0.483	-0.166
-141.487	800.000	0.108	-0.312
-140.472	-200.000	-0.069	-0.325
-139.458	-62.407	0.519	-0.215
-138.443	-17.786	0.109	-0.068
-137.429	-200.000	0.000	-0.178
-136.414	379.880	0.008	0.017
-135.399	98.007	-0.135	-0.155
-134.385	-97.963	0.088	0.023
-133.370	-18.732	-0.356	-0.221
-132.356	122.949	0.139	0.173
-131.341	-21.355	0.329	0.200
-130.326	158.249	-0.159	-0.220
-129.312	590.593	-0.183	0.448
-128.297	-111.473	0.175	0.035
-127.283	198.756	0.180	-0.274
-126.268	-108.557	-0.367	-0.079
-125.253	-157.477	-0.133	0.008
-124.239	392.164	0.095	-0.196
-123.224	254.942	0.207	-0.352
-122.210	-162.088	0.324	0.016
-121.195	143.200	0.251	-0.332
