DTS Sentinel unit serial number:	SN413079Multiplexer serial number:	ORYXHardware model number:	OX4-SRSoftware version number:	ORYX F/W v4.00 Oryx Data Collector v3.7.2.0data status	okinstallation	princeton_trtdifferential loss correction	single-endedforward channel	channel 1reverse channel	N/Adate	2019/09/11time	21:32:11forward acquisition time	60.00reverse acquisition time	0.00gamma	496.2192k internal	0.2310k external	0.2310temperature offset calibration	1.0054default loss term (dB/km)	0.3790temperature slope calibration	1.0000multiplexer offset coefficient	1.0000multiplexer slope coefficient	1.0000fibre end	0.00T internal ref (°C)	35.98T ext. ref 1 (°C)	1.64T ext. ref 2 (°C)	29.92length (m)	temperature (°C)	Stokes	anti-Stokes-747.200	-200.000	0.009	0.439
-746.185	-200.000	-0.024	0.189
-745.171	800.000	-0.076	0.271
-744.156	-43.896	0.300	0.153
-743.142	-19.520	0.202	0.127
-742.127	-200.000	0.105	0.513
-741.112	-200.000	0.005	0.025
-740.098	695.283	-0.078	0.209
-739.083	-143.139	-0.290	0.028
-738.069	-65.684	-0.118	-0.048
-737.054	50.649	0.037	-0.036
-736.039	140.615	-0.192	0.258
-735.025	-114.854	-0.140	0.027
-734.010	-92.437	0.260	-0.074
-732.996	146.295	0.079	0.107
-731.981	87.982	-0.133	-0.150
-730.966	-72.735	-0.275	-0.103
-729.952	12.076	-0.164	-0.128
-728.937	133.587	0.134	-0.176
-727.923	53.488	-0.149	0.145
-726.908	-200.000	-0.077	-0.432
-725.894	800.000	0.152	-0.436
-724.879	-118.346	-0.301	0.054
-723.864	379.729	-0.111	0.231
-722.850	111.641	-0.204	-0.250
-721.835	-97.720	0.125	0.033
-720.821	-200.000	0.058	-0.419
-719.806	-200.000	0.029	0.185
-718.791	-129.205	0.467	-0.066
-717.777	-171.634	0.379	-0.013
-716.762	164.800	-0.121	0.173
-715.748	-200.000	0.006	-0.103
-714.733	-200.000	0.020	0.236
-713.718	-200.000	0.030	-0.270
-712.704	-84.561	-0.093	-0.030
-711.689	-200.000	0.049	-0.259
-710.675	80.663	0.109	-0.119
-709.660	800.000	-0.013	-0.047
-708.645	800.000	0.129	0.372
-707.631	47.229	0.435	0.411
-706.616	-1.078	-0.281	-0.202
-705.602	-200.000	0.030	-0.203
-704.587	161.234	0.209	0.296
-703.572	-168.364	0.261	0.010
-702.558	-169.288	-0.119	-0.004
-701.543	51.056	0.148	-0.142
-700.529	-44.571	0.023	0.012
-699.514	-200.000	0.019	-0.371
-698.499	-166.929	-0.175	0.007
-697.485	-26.867	0.197	-0.117
-696.470	800.000	-0.134	0.534
-695.456	72.858	0.105	0.112
-694.441	-43.894	0.077	-0.039
-693.426	-100.764	0.225	0.056
-692.412	54.603	-0.046	-0.045
-691.397	-80.725	-0.104	-0.035
-690.383	-97.637	-0.148	-0.039
-689.368	107.234	0.114	-0.137
-688.354	-141.414	0.146	-0.015
-687.339	-200.000	-0.010	0.182
-686.324	80.212	-0.306	0.334
-685.310	-114.223	-0.193	0.038
-684.295	800.000	0.097	0.349
-683.281	-193.142	-0.057	0.001
-682.266	-151.813	-0.373	0.028
-681.251	-108.470	-0.444	0.097
-680.237	-169.003	-0.255	-0.010
-679.222	18.645	-0.169	0.137
-678.208	-92.720	-0.236	0.067
-677.193	-55.865	0.134	0.061
-676.178	-200.000	-0.018	0.199
-675.164	-88.401	0.283	-0.086
-674.149	-21.113	-0.079	0.049
-673.135	126.882	-0.089	-0.115
-672.120	-2.601	-0.097	-0.069
-671.105	-145.640	0.252	-0.023
-670.091	5.356	-0.265	0.198
-669.076	318.608	0.112	0.214
-668.062	-200.000	-0.040	0.302
-667.047	209.933	-0.191	-0.303
-666.032	-113.561	-0.493	0.098
-665.018	-30.952	0.161	0.092
-664.003	800.000	-0.075	0.329
-662.989	-11.682	-0.326	-0.217
-661.974	-200.000	0.017	-0.209
-660.959	37.392	-0.127	-0.114
-659.945	208.647	-0.069	-0.109
-658.930	155.540	0.274	0.382
-657.916	-195.446	0.258	0.002
-656.901	-200.000	-0.014	-0.296
-655.886	45.118	-0.073	0.068
-654.872	800.000	-0.029	0.118
-653.857	-30.358	0.049	-0.028
-652.843	-152.981	0.186	0.013
-651.828	-200.000	0.011	0.391
-650.814	788.095	-0.098	-0.272
-649.799	-51.785	0.026	0.012
-648.784	-200.000	-0.040	-0.216
-647.770	25.114	0.092	-0.077
-646.755	-176.925	-0.381	-0.010
-645.741	96.186	-0.062	0.072
-644.726	-30.723	-0.067	0.038
-643.711	-162.494	-0.175	-0.009
-642.697	-86.609	0.304	0.094
-641.682	-55.294	-0.087	0.039
-640.668	-167.063	0.232	0.010
-639.653	273.135	-0.191	0.342
-638.638	-159.730	-0.193	-0.011
-637.624	-110.185	0.215	0.045
-636.609	-200.000	0.011	-0.134
-635.595	-77.816	-0.154	0.054
-634.580	550.994	-0.125	-0.303
-633.565	436.141	-0.027	0.060
-632.551	27.690	0.073	-0.062
-631.536	-123.065	0.125	-0.020
-630.522	-200.000	0.003	-0.140
-629.507	-5.804	0.053	0.036
-628.492	418.922	0.077	0.167
-627.478	88.069	-0.017	-0.019
-626.463	165.073	0.164	0.234
-625.449	-166.306	-0.244	-0.010
-624.434	-66.333	0.324	-0.130
-623.419	46.432	0.114	-0.106
-622.405	45.762	-0.083	-0.077
-621.390	-200.000	-0.003	-0.153
-620.376	800.000	-0.014	-0.042
-619.361	289.125	-0.160	-0.294
-618.346	157.026	-0.093	-0.129
-617.332	203.597	-0.262	-0.409
-616.317	357.975	-0.212	-0.428
-615.303	95.409	-0.184	-0.211
-614.288	-118.030	-0.168	-0.030
-613.273	-44.299	-0.196	0.099
-612.259	13.928	0.086	0.067
-611.244	499.703	-0.065	-0.151
-610.230	800.000	-0.085	-0.254
-609.215	-200.000	0.016	-0.073
-608.201	-122.173	0.340	-0.056
-607.186	-128.191	-0.346	-0.050
-606.171	-200.000	0.030	-0.157
-605.157	-87.638	-0.371	0.113
-604.142	247.057	-0.055	-0.093
-603.128	-52.127	0.104	0.049
-602.113	59.386	-0.322	0.321
-601.098	-200.000	0.024	0.120
-600.084	93.955	0.081	0.093
-599.069	516.171	-0.127	0.300
-598.055	-128.531	0.215	-0.031
-597.040	-200.000	-0.033	0.358
-596.025	-200.000	0.001	-0.012
-595.011	800.000	-0.047	0.201
-593.996	-2.019	-0.075	0.054
-592.982	-54.294	0.261	0.120
-591.967	96.278	-0.170	-0.197
-590.952	153.228	-0.183	0.252
-589.938	304.368	-0.062	0.115
-588.923	-200.000	0.008	-0.109
-587.909	71.484	-0.187	-0.196
-586.894	-79.599	0.075	0.026
-585.879	-107.054	-0.449	-0.100
-584.865	241.835	0.077	-0.129
-583.850	195.574	0.020	0.031
-582.836	434.813	0.079	0.174
-581.821	-86.077	-0.402	0.125
-580.806	-61.339	0.091	-0.038
-579.792	1.285	0.260	0.189
-578.777	47.651	0.086	-0.081
-577.763	252.227	-0.028	0.049
-576.748	32.864	0.285	-0.249
-575.733	-200.000	-0.032	0.319
-574.719	-200.000	-0.036	0.560
-573.704	221.176	0.181	0.294
-572.690	324.815	-0.138	-0.267
-571.675	-81.615	-0.189	0.063
-570.661	-200.000	-0.015	-0.323
-569.646	-128.503	0.280	-0.040
-568.631	-200.000	0.032	0.334
-567.617	169.827	0.394	-0.568
-566.602	-200.000	-0.001	0.088
-565.588	-200.000	-0.012	0.127
-564.573	131.780	-0.109	0.141
-563.558	-200.000	0.002	0.016
-562.544	-31.607	0.073	0.041
-561.529	-133.031	-0.136	-0.017
-560.515	-153.768	0.124	0.009
-559.500	-102.666	-0.215	-0.052
-558.485	73.481	-0.173	0.183
-557.471	108.974	0.162	0.195
-556.456	311.762	-0.058	0.109
-555.442	662.681	0.084	0.218
-554.427	663.690	0.161	0.419
-553.412	8.351	-0.241	0.183
-552.398	-200.000	0.002	0.128
-551.383	82.259	-0.251	0.274
-550.369	28.903	-0.109	-0.093
-549.354	584.907	0.024	-0.061
-548.339	-143.716	0.207	-0.020
-547.325	-124.256	-0.216	-0.034
-546.310	-137.695	0.258	-0.029
-545.296	468.718	0.054	0.123
-544.281	46.365	0.205	0.192
-543.266	800.000	0.075	0.227
-542.252	-200.000	0.014	0.063
-541.237	186.385	0.113	-0.169
-540.223	-200.000	-0.013	-0.161
-539.208	4.487	-0.251	-0.185
-538.193	-200.000	-0.035	-0.228
-537.179	99.873	-0.095	-0.110
-536.164	568.010	0.076	0.186
-535.150	-44.222	-0.330	-0.167
-534.135	800.000	-0.018	-0.076
-533.121	-17.946	0.116	0.073
-532.106	-40.442	0.253	-0.133
-531.091	-125.949	-0.229	0.035
-530.077	-101.744	0.043	0.011
-529.062	-184.231	-0.326	-0.005
-528.048	240.261	0.149	0.250
-527.033	-94.587	0.057	0.016
-526.018	-51.402	0.497	-0.234
-525.004	-200.000	-0.023	-0.170
-523.989	-186.170	-0.283	-0.004
-522.975	-200.000	0.057	-0.253
-521.960	-68.274	0.072	0.028
-520.945	-200.000	-0.017	-0.207
-519.931	140.310	0.254	0.337
-518.916	800.000	-0.030	-0.097
-517.902	95.407	0.306	0.351
-516.887	175.190	0.115	0.168
-515.872	-100.690	0.100	-0.025
-514.858	103.382	0.068	0.080
-513.843	44.137	-0.245	0.227
-512.829	-200.000	0.010	0.110
-511.814	49.073	0.057	0.054
-510.799	108.743	-0.074	-0.089
-509.785	-10.583	-0.260	0.173
-508.770	-23.994	-0.228	-0.137
-507.756	-200.000	0.021	0.180
-506.741	118.816	0.300	-0.373
-505.726	23.539	-0.135	0.112
-504.712	203.815	0.041	0.065
-503.697	198.921	-0.086	-0.133
-502.683	330.955	0.110	0.213
-501.668	-200.000	-0.029	-0.256
-500.653	800.000	0.083	-0.272
-499.639	-2.635	0.358	-0.252
-498.624	725.878	-0.112	0.302
-497.610	-4.134	0.213	-0.148
-496.595	56.500	0.071	-0.069
-495.581	-200.000	0.004	0.385
-494.566	-146.686	-0.084	0.007
-493.551	457.551	-0.140	0.312
-492.537	800.000	-0.007	0.027
-491.522	-119.522	-0.470	-0.082
-490.508	-200.000	-0.002	0.144
-489.493	34.122	-0.234	-0.205
-488.478	800.000	0.053	-0.203
-487.464	-91.724	-0.271	-0.078
-486.449	-57.782	-0.085	-0.037
-485.435	-117.402	-0.100	-0.018
-484.420	120.453	0.258	0.323
-483.405	-140.217	0.318	-0.034
-482.391	93.499	0.195	-0.222
-481.376	-200.000	-0.017	0.113
-480.362	54.963	-0.205	-0.199
-479.347	125.225	0.040	0.051
-478.332	89.413	0.161	-0.180
-477.318	32.459	-0.349	0.303
-476.303	60.100	0.189	-0.188
-475.289	222.531	-0.042	0.068
-474.274	-200.000	0.038	0.236
-473.259	83.987	-0.194	0.212
-472.245	-200.000	0.046	-0.272
-471.230	30.242	-0.162	-0.139
-470.216	-40.925	-0.159	-0.082
-469.201	393.662	0.044	0.093
-468.186	244.902	0.107	0.181
-467.172	-59.440	-0.341	0.147
-466.157	800.000	-0.056	0.197
-465.143	74.789	0.070	0.074
-464.128	-110.473	-0.434	-0.091
-463.113	800.000	0.058	0.221
-462.099	-100.299	-0.224	-0.056
-461.084	60.555	0.167	-0.166
-460.070	131.643	-0.121	0.156
-459.055	-114.747	0.617	-0.118
-458.040	25.139	0.201	0.168
-457.026	121.232	-0.107	0.133
-456.011	800.000	-0.021	0.059
-454.997	70.207	0.193	-0.200
-453.982	800.000	-0.070	0.286
-452.968	-89.595	-0.136	0.040
-451.953	150.045	0.019	-0.025
-450.938	43.079	0.136	0.124
-449.924	446.128	-0.074	0.164
-448.909	0.502	0.264	-0.190
-447.895	200.221	-0.030	0.046
-446.880	57.945	-0.147	-0.144
-445.865	-200.000	-0.005	-0.049
-444.851	259.638	0.056	-0.097
-443.836	-200.000	-0.024	0.135
-442.822	-99.224	0.504	0.128
-441.807	-200.000	-0.000	0.130
-440.792	-24.874	0.143	0.085
-439.778	-84.743	0.460	-0.145
-438.763	-200.000	-0.005	-0.196
-437.749	-160.905	0.072	0.004
-436.734	800.000	0.099	0.324
-435.719	781.355	0.114	0.314
-434.705	-200.000	0.004	0.240
-433.690	279.885	-0.123	0.221
-432.676	88.756	-0.093	-0.104
-431.661	-136.569	-0.038	-0.004
-430.646	107.364	0.134	0.160
-429.632	149.342	0.106	-0.143
-428.617	66.987	0.062	-0.064
-427.603	-64.607	-0.209	0.085
-426.588	800.000	0.106	-0.390
-425.573	31.573	0.147	0.127
-424.559	136.253	-0.197	-0.257
-423.544	-200.000	0.012	-0.071
-422.530	-4.198	-0.224	0.156
-421.515	-200.000	-0.078	0.376
-420.500	-116.526	-0.274	0.051
-419.486	-81.547	0.115	0.038
-418.471	-200.000	0.017	-0.267
-417.457	125.764	0.191	-0.242
-416.442	800.000	-0.163	-0.485
-415.428	-131.697	0.438	0.058
-414.413	-5.412	0.014	0.010
-413.398	-6.692	0.110	-0.075
-412.384	-200.000	0.061	0.272
-411.369	17.345	-0.062	-0.050
-410.355	-200.000	0.015	-0.082
-409.340	-200.000	0.026	-0.369
-408.325	57.346	0.303	-0.297
-407.311	135.906	-0.210	-0.274
-406.296	-158.384	0.115	-0.007
-405.282	-120.683	0.148	0.025
-404.267	-24.610	0.352	-0.210
-403.252	-111.430	-0.182	-0.037
-402.238	-77.600	-0.028	0.010
-401.223	-200.000	0.005	0.081
-400.209	102.811	-0.246	-0.289
-399.194	-72.471	0.411	0.152
-398.179	-44.953	0.286	0.143
-397.165	-8.463	-0.061	0.041
-396.150	-200.000	-0.008	-0.100
-395.136	800.000	-0.097	-0.363
-394.121	-165.882	-0.152	-0.007
-393.106	342.977	-0.169	-0.331
-392.092	310.520	-0.126	0.236
-391.077	-65.798	0.222	-0.089
-390.063	-103.003	-0.263	-0.062
-389.048	-190.139	0.127	-0.001
-388.033	-82.617	-0.102	0.033
-387.019	800.000	0.103	0.380
-386.004	294.199	-0.105	-0.192
-384.990	-72.509	-0.229	-0.085
-383.975	-62.339	-0.280	0.117
-382.960	-88.058	-0.358	-0.108
-381.946	-51.170	0.077	0.036
-380.931	93.692	0.165	-0.188
-379.917	-136.159	0.232	0.027
-378.902	188.973	0.136	-0.204
-377.888	-100.250	-0.386	0.096
-376.873	800.000	0.075	0.214
-375.858	-162.188	0.107	0.005
-374.844	-70.900	0.377	0.142
-373.829	-48.283	-0.198	-0.096
-372.815	800.000	0.037	-0.103
-371.800	-200.000	-0.003	-0.071
-370.785	25.142	0.168	-0.140
-369.771	-106.042	-0.246	-0.055
-368.756	-139.760	-0.256	-0.027
-367.742	233.328	-0.168	-0.276
-366.727	237.023	-0.144	0.239
-365.712	-200.000	-0.046	0.425
-364.698	73.795	0.347	0.364
-363.683	-200.000	0.025	0.254
-362.669	47.300	0.119	-0.111
-361.654	56.996	-0.079	0.077
-360.639	-102.464	-0.398	-0.095
-359.625	-124.708	0.141	0.022
-358.610	310.911	0.071	-0.134
-357.596	-99.212	0.412	-0.104
-356.581	-80.357	0.156	-0.052
-355.566	513.935	-0.027	-0.063
-354.552	-200.000	-0.034	-0.164
-353.537	24.994	-0.273	-0.226
-352.523	475.388	-0.073	-0.165
-351.508	214.530	-0.089	0.140
-350.493	724.420	0.219	0.583
-349.479	800.000	-0.033	0.138
-348.464	-91.148	-0.249	-0.072
-347.450	33.158	0.111	-0.097
-346.435	-8.496	-0.202	0.135
-345.420	-50.746	-0.164	-0.077
-344.406	-200.000	0.047	-0.212
-343.391	-120.982	0.043	-0.007
-342.377	103.562	-0.196	-0.231
-341.362	-135.151	-0.372	0.045
-340.348	-87.642	0.265	0.080
-339.333	134.875	-0.160	0.207
-338.318	-28.035	0.329	-0.191
-337.304	800.000	-0.027	-0.097
-336.289	-73.295	0.319	0.117
-335.275	-200.000	0.067	-0.340
-334.260	-200.000	0.018	0.087
-333.245	25.631	-0.053	0.044
-332.231	4.138	0.173	-0.127
-331.216	-91.168	-0.077	-0.022
-330.202	309.025	-0.158	0.295
-329.187	166.874	-0.117	-0.165
-328.172	800.000	0.069	-0.281
-327.158	293.472	0.164	0.299
-326.143	-153.990	-0.187	-0.013
-325.129	-154.852	-0.466	0.031
-324.114	25.593	-0.204	0.170
-323.099	181.197	-0.117	0.172
-322.085	206.203	-0.102	-0.158
-321.070	-116.249	-0.243	-0.045
-320.056	-93.322	-0.327	-0.091
-319.041	-54.138	-0.300	0.136
-318.026	455.482	0.104	0.231
-317.012	560.636	0.098	-0.236
-315.997	125.767	-0.162	0.204
-314.983	583.478	0.184	-0.450
-313.968	-103.532	0.141	0.033
-312.953	-88.139	0.205	0.061
-311.939	380.167	0.210	-0.430
-310.924	-71.035	0.143	-0.054
-309.910	-125.072	-0.273	-0.042
-308.895	5.533	0.437	-0.323
-307.880	316.660	-0.061	-0.115
-306.866	713.633	0.105	-0.278
-305.851	-200.000	-0.046	-0.234
-304.837	252.508	0.098	-0.168
-303.822	800.000	0.088	0.337
-302.807	75.879	0.116	0.122
-301.793	42.892	-0.240	0.218
-300.778	366.229	0.239	0.480
-299.764	-109.454	0.196	-0.041
-298.749	665.811	0.148	-0.380
-297.735	204.672	-0.138	0.213
-296.720	-68.866	0.398	0.153
-295.705	105.404	0.094	0.111
-294.691	370.391	0.049	0.098
-293.676	-5.471	-0.322	0.220
-292.662	-63.514	0.100	-0.041
-291.647	81.024	0.057	0.061
-290.632	-105.939	0.087	-0.019
-289.618	-42.394	0.174	-0.089
-288.603	277.023	-0.206	-0.365
-287.589	89.988	-0.152	0.170
-286.574	-12.807	0.429	0.279
-285.559	27.420	-0.105	0.088
-284.545	65.209	-0.067	0.068
-283.530	170.846	-0.157	-0.224
-282.516	7.584	-0.053	-0.039
-281.501	-177.271	-0.087	0.002
-280.486	-33.629	0.144	0.079
-279.472	22.032	0.223	-0.182
-278.457	-64.348	0.206	-0.084
-277.443	387.457	0.057	-0.118
-276.428	443.140	-0.120	-0.262
-275.413	225.402	-0.042	0.068
-274.399	800.000	0.066	-0.232
-273.384	-141.715	0.257	0.026
-272.370	480.736	-0.080	-0.180
-271.355	-172.526	-0.247	-0.008
-270.340	175.779	0.039	-0.057
-269.326	91.902	-0.163	-0.182
-268.311	-73.609	-0.079	0.029
-267.297	800.000	0.084	0.246
-266.282	-136.112	-0.219	-0.026
-265.267	-200.000	0.036	0.426
-264.253	-136.542	-0.245	0.028
-263.238	402.092	0.088	0.183
-262.224	604.258	-0.144	-0.358
-261.209	225.753	-0.158	-0.255
-260.195	-62.204	0.168	0.070
-259.180	-200.000	-0.024	0.123
-258.165	-81.888	-0.111	0.036
-257.151	-169.348	0.095	-0.003
-256.136	-5.512	-0.112	0.077
-255.122	27.446	0.208	0.174
-254.107	-200.000	-0.019	-0.150
-253.092	-146.349	0.060	0.005
-252.078	29.259	-0.082	0.069
-251.063	39.269	0.047	0.042
-250.049	38.795	0.063	0.056
-249.034	-3.188	0.204	0.142
-248.019	202.575	0.121	-0.186
-247.005	-98.736	0.343	-0.087
-245.990	-200.000	-0.007	0.195
-244.976	-200.000	0.057	0.356
-243.961	3.639	0.093	0.067
-242.946	-165.550	-0.156	-0.007
-241.932	190.587	0.121	0.181
-240.917	222.987	-0.299	0.480
-239.903	-178.598	-0.402	-0.009
-238.888	349.124	-0.136	-0.266
-237.873	-97.991	0.333	0.086
-236.859	800.000	0.047	0.171
-235.844	-89.384	-0.249	0.073
-234.830	-200.000	0.042	-0.237
-233.815	96.056	0.164	0.187
-232.800	-107.084	0.104	0.023
-231.786	-200.000	-0.035	-0.251
-230.771	-200.000	0.034	-0.181
-229.757	-69.938	-0.474	-0.180
-228.742	-200.000	-0.042	-0.357
-227.727	100.455	0.051	0.059
-226.713	-151.028	-0.177	-0.013
-225.698	-84.381	0.228	0.072
-224.684	-144.270	-0.252	-0.023
-223.669	23.548	0.096	0.078
-222.655	-99.335	-0.039	-0.010
-221.640	3.796	0.173	0.125
-220.625	-143.770	-0.266	-0.025
-219.611	393.762	-0.041	-0.085
-218.596	-158.267	0.196	-0.011
-217.582	93.191	0.164	-0.185
-216.567	800.000	-0.072	-0.282
-215.552	248.671	0.195	0.328
-214.538	-30.839	0.138	0.078
-213.523	-104.589	-0.461	-0.106
-212.509	27.650	0.146	-0.123
-211.494	656.042	0.099	-0.252
-210.479	-200.000	-0.022	0.213
-209.465	-200.000	-0.005	-0.216
-208.450	-200.000	0.074	-0.343
-207.436	170.290	-0.191	0.272
-206.421	-139.401	0.152	-0.016
-205.406	-43.431	0.404	-0.203
-204.392	-34.426	0.285	0.155
-203.377	252.992	0.030	-0.050
-202.363	-200.000	0.012	0.515
-201.348	-11.218	0.175	-0.115
-200.333	459.066	-0.034	0.075
-199.319	-200.000	-0.007	-0.119
-198.304	376.795	-0.032	-0.064
-197.290	-175.646	0.238	0.006
-196.275	800.000	0.089	-0.300
-195.260	179.319	-0.007	0.011
-194.246	-19.402	0.052	0.032
-193.231	-91.680	0.285	-0.080
-192.217	305.265	-0.037	0.069
-191.202	-3.758	-0.077	-0.053
-190.187	-93.671	-0.350	-0.096
-189.173	319.756	-0.073	-0.138
-188.158	-67.328	0.136	0.053
-187.144	24.456	-0.169	0.139
-186.129	-43.573	0.378	0.190
-185.114	107.941	-0.148	-0.176
-184.100	87.513	0.254	0.279
-183.085	156.173	-0.067	-0.092
-182.071	-200.000	-0.029	-0.216
-181.056	-109.262	0.127	0.027
-180.042	-200.000	-0.003	-0.162
-179.027	193.548	0.011	0.016
-178.012	22.318	-0.123	-0.100
-176.998	800.000	0.042	0.171
-175.983	-20.296	0.169	0.103
-174.969	-200.000	0.023	0.241
-173.954	-55.291	-0.079	0.035
-172.939	80.360	-0.032	0.034
-171.925	-200.000	0.022	-0.182
-170.910	-125.650	-0.205	-0.031
-169.896	-200.000	-0.019	0.290
-168.881	18.017	0.266	0.211
-167.866	-160.222	0.200	0.011
-166.852	-83.345	-0.228	-0.072
-165.837	-48.627	-0.251	0.120
-164.823	-200.000	0.052	0.290
-163.808	244.119	-0.155	-0.259
-162.793	90.554	-0.124	-0.137
-161.779	-64.047	-0.141	-0.057
-160.764	319.065	0.091	-0.172
-159.750	-156.901	-0.311	-0.019
-158.735	226.066	0.042	-0.067
-157.720	-61.872	0.210	0.087
-156.706	337.816	0.099	-0.192
-155.691	351.611	0.078	-0.154
-154.677	-135.720	0.109	-0.013
-153.662	98.882	0.249	0.286
-152.647	-109.857	-0.284	0.059
-151.633	-20.232	-0.112	-0.069
-150.618	-123.065	0.075	0.012
-149.604	206.885	-0.107	0.165
-148.589	-200.000	0.021	-0.139
-147.574	71.649	0.133	-0.137
-146.560	-200.000	-0.053	-0.612
-145.545	-69.217	0.277	-0.106
-144.531	800.000	0.054	0.177
-143.516	627.464	0.047	-0.118
-142.502	-93.510	-0.157	0.043
-141.487	-1.736	-0.261	-0.182
-140.472	2.845	-0.225	-0.162
-139.458	-200.000	0.026	0.136
-138.443	546.483	-0.124	0.293
-137.429	115.144	0.202	0.244
-136.414	482.842	-0.141	0.318
-135.399	179.866	-0.091	0.132
-134.385	-113.246	0.132	-0.026
-133.370	-200.000	0.048	-0.445
-132.356	800.000	-0.042	-0.122
-131.341	-147.796	0.398	-0.033
-130.326	-12.016	-0.146	-0.095
-129.312	800.000	-0.075	0.219
-128.297	-90.195	0.184	0.053
-127.283	71.619	0.127	0.131
-126.268	-200.000	0.000	-0.268
-125.253	-88.104	0.137	-0.041
-124.239	660.067	-0.104	0.266
-123.224	208.846	-0.068	0.105
-122.210	122.142	-0.081	0.100
-121.195	629.914	0.177	-0.444
