DTS Sentinel unit serial number:	SN413079Multiplexer serial number:	ORYXHardware model number:	OX4-SRSoftware version number:	ORYX F/W v4.00 Oryx Data Collector v3.7.2.0data status	okinstallation	princeton_trtdifferential loss correction	single-endedforward channel	channel 1reverse channel	N/Adate	2019/09/12time	15:08:11forward acquisition time	60.00reverse acquisition time	0.00gamma	496.2192k internal	0.2292k external	0.2292temperature offset calibration	1.0052default loss term (dB/km)	0.3790temperature slope calibration	1.0000multiplexer offset coefficient	1.0000multiplexer slope coefficient	1.0000fibre end	0.00T internal ref (°C)	40.56T ext. ref 1 (°C)	2.35T ext. ref 2 (°C)	37.58length (m)	temperature (°C)	Stokes	anti-Stokes-747.200	2.078	0.093	0.069
-746.185	359.625	-0.066	0.136
-745.171	-2.513	0.012	0.008
-744.156	800.000	-0.066	0.191
-743.142	266.312	-0.154	0.276
-742.127	-95.375	0.430	0.118
-741.112	800.000	-0.016	0.066
-740.098	-64.577	0.072	0.030
-739.083	-77.255	0.187	0.066
-738.069	-28.403	-0.430	0.254
-737.054	220.836	-0.248	-0.406
-736.039	-101.214	-0.163	-0.041
-735.025	89.955	-0.108	0.123
-734.010	106.042	-0.097	0.118
-732.996	-27.669	-0.180	0.107
-731.981	75.576	-0.039	-0.042
-730.966	-66.998	0.203	0.082
-729.952	800.000	-0.096	0.399
-728.937	352.004	-0.128	0.260
-727.923	-88.860	-0.571	0.173
-726.908	-86.206	0.086	0.027
-725.894	800.000	-0.084	-0.280
-724.879	-127.994	-0.220	0.032
-723.864	-200.000	-0.012	-0.278
-722.850	-86.795	0.300	-0.094
-721.835	235.775	0.051	0.086
-720.821	19.071	0.151	0.124
-719.806	-200.000	0.016	-0.096
-718.791	42.846	-0.289	-0.269
-717.777	800.000	-0.070	0.277
-716.762	16.382	-0.373	-0.301
-715.748	96.873	-0.189	-0.222
-714.733	75.089	0.228	0.246
-713.718	129.094	-0.167	-0.218
-712.704	79.294	-0.276	0.302
-711.689	-74.592	0.159	-0.059
-710.675	16.018	-0.034	0.028
-709.660	2.429	0.119	0.088
-708.645	21.063	-0.019	0.016
-707.631	-200.000	-0.073	-0.469
-706.616	-128.157	0.461	0.067
-705.602	800.000	0.090	0.301
-704.587	800.000	-0.077	-0.333
-703.572	398.191	-0.126	-0.269
-702.558	-200.000	-0.036	0.183
-701.543	164.503	0.050	-0.073
-700.529	676.654	0.108	-0.287
-699.514	-24.906	-0.315	-0.191
-698.499	338.654	-0.218	-0.433
-697.485	686.965	-0.101	0.269
-696.470	-7.611	-0.274	0.190
-695.456	241.229	-0.100	-0.171
-694.441	696.464	-0.064	-0.172
-693.426	-152.801	0.238	-0.017
-692.412	-26.951	-0.185	0.110
-691.397	63.248	-0.101	-0.104
-690.383	509.634	0.051	-0.122
-689.368	27.540	-0.158	-0.135
-688.354	-140.442	-0.387	0.041
-687.339	295.619	0.082	-0.154
-686.324	-18.811	-0.203	0.129
-685.310	-31.613	-0.302	0.173
-684.295	-57.507	-0.074	-0.033
-683.281	800.000	0.037	0.164
-682.266	189.101	0.120	0.183
-681.251	-83.519	0.175	-0.057
-680.237	-151.021	-0.226	-0.017
-679.222	-102.419	0.271	-0.066
-678.208	-120.393	0.035	-0.006
-677.193	-57.662	-0.139	-0.062
-676.178	-60.409	0.237	0.103
-675.164	301.578	-0.192	0.363
-674.149	-135.682	0.079	0.010
-673.135	-0.143	0.282	-0.205
-672.120	106.895	0.105	-0.127
-671.105	91.010	0.099	-0.114
-670.091	8.304	-0.310	-0.238
-669.076	58.480	0.323	0.323
-668.062	55.888	0.138	-0.137
-667.047	-156.072	0.088	-0.006
-666.032	19.327	-0.095	-0.078
-665.018	-69.530	0.176	0.069
-664.003	220.723	0.058	-0.095
-662.989	-79.223	0.207	0.072
-661.974	234.162	-0.142	0.238
-660.959	27.637	-0.095	-0.082
-659.945	44.799	-0.174	-0.163
-658.930	-190.273	0.191	-0.002
-657.916	21.771	-0.313	0.260
-656.901	-200.000	0.018	-0.110
-655.886	800.000	-0.047	0.150
-654.872	220.371	-0.171	-0.280
-653.857	-160.716	-0.239	-0.013
-652.843	-45.590	0.099	0.050
-651.828	1.040	-0.099	-0.072
-650.814	-93.589	-0.067	-0.019
-649.799	-5.594	-0.228	-0.160
-648.784	81.878	-0.066	-0.073
-647.770	-200.000	-0.003	0.100
-646.755	153.749	-0.135	-0.189
-645.741	800.000	0.063	0.270
-644.726	-200.000	0.022	0.224
-643.711	623.082	-0.197	-0.505
-642.697	-90.360	-0.153	-0.045
-641.682	-200.000	0.044	0.204
-640.668	72.238	0.091	-0.096
-639.653	388.952	-0.145	-0.306
-638.638	-200.000	-0.035	0.194
-637.624	800.000	-0.072	0.212
-636.609	52.829	0.105	0.103
-635.595	800.000	-0.061	-0.219
-634.580	155.910	-0.105	0.147
-633.565	-99.226	-0.225	0.058
-632.551	-200.000	-0.041	0.226
-631.536	-108.247	-0.057	-0.012
-630.522	304.364	-0.240	0.453
-629.507	14.600	-0.190	0.152
-628.492	476.065	-0.021	-0.049
-627.478	-37.067	-0.573	-0.313
-626.463	-55.017	-0.203	-0.093
-625.449	-200.000	0.019	-0.098
-624.434	533.546	-0.040	-0.097
-623.419	17.880	-0.163	-0.132
-622.405	213.973	0.132	0.213
-621.390	42.664	0.359	0.333
-620.376	-98.272	-0.174	-0.046
-619.361	-102.663	-0.108	-0.026
-618.346	387.759	-0.116	-0.244
-617.332	800.000	-0.022	0.066
-616.317	191.659	0.117	0.180
-615.303	-183.204	-0.382	-0.007
-614.288	-200.000	-0.029	-0.174
-613.273	289.497	0.117	-0.216
-612.259	-71.650	-0.093	-0.035
-611.244	-200.000	0.045	-0.250
-610.230	249.399	-0.177	0.305
-609.215	-46.131	-0.126	-0.063
-608.201	-103.989	-0.147	0.035
-607.186	196.699	-0.171	-0.265
-606.171	-48.264	-0.184	-0.090
-605.157	-4.587	-0.082	-0.058
-604.142	707.062	0.115	0.309
-603.128	-70.991	0.158	-0.060
-602.113	509.377	-0.072	-0.171
-601.098	12.886	0.221	-0.174
-600.084	-92.146	-0.234	-0.067
-599.069	-200.000	-0.018	0.112
-598.055	-39.902	0.076	-0.041
-597.040	46.789	-0.103	-0.097
-596.025	800.000	-0.114	0.368
-595.011	-56.704	-0.111	0.050
-593.996	-127.192	0.222	-0.033
-592.982	19.335	-0.265	0.216
-591.967	-108.406	-0.137	-0.030
-590.952	40.249	0.144	-0.132
-589.938	-36.942	-0.128	-0.070
-588.923	-200.000	-0.041	0.397
-587.909	-64.436	0.166	-0.069
-586.894	279.306	0.195	-0.353
-585.879	47.631	-0.095	0.090
-584.865	-55.631	0.095	0.043
-583.850	-47.561	-0.333	-0.165
-582.836	26.370	0.159	0.135
-581.821	259.100	-0.112	-0.197
-580.806	-8.222	0.228	-0.156
-579.792	84.176	0.161	-0.179
-578.777	-200.000	0.008	0.121
-577.763	-106.729	0.070	0.016
-576.748	-163.579	0.186	-0.009
-575.733	56.555	-0.009	0.009
-574.719	-121.217	-0.127	0.022
-573.704	800.000	0.031	0.117
-572.690	-200.000	0.007	0.054
-571.675	373.469	0.068	0.141
-570.661	521.250	0.129	-0.307
-569.646	157.490	0.156	0.220
-568.631	-49.165	-0.281	0.136
-567.617	-107.905	0.148	0.033
-566.602	157.650	0.160	0.225
-565.588	-200.000	-0.010	-0.237
-564.573	-160.335	-0.365	0.020
-563.558	101.252	0.082	0.097
-562.544	-167.234	0.248	0.010
-561.529	800.000	-0.049	-0.160
-560.515	43.868	-0.318	-0.296
-559.500	-200.000	-0.007	-0.033
-558.485	-44.321	0.291	-0.148
-557.471	-200.000	-0.001	0.330
-556.456	-69.062	-0.489	0.191
-555.442	199.436	-0.142	0.221
-554.427	-100.053	0.122	0.031
-553.412	-200.000	0.022	-0.200
-552.398	101.964	-0.170	-0.201
-551.383	800.000	0.090	-0.279
-550.369	-94.811	0.234	0.064
-549.354	-44.365	-0.136	0.069
-548.339	279.811	0.066	0.120
-547.325	800.000	0.035	-0.126
-546.310	800.000	0.015	0.057
-545.296	-131.088	-0.301	-0.041
-544.281	131.598	0.088	-0.115
-543.266	217.496	-0.079	-0.127
-542.252	-200.000	-0.000	0.454
-541.237	170.513	0.144	0.210
-540.223	-200.000	-0.051	-0.309
-539.208	-158.642	-0.324	-0.019
-538.193	151.284	-0.093	0.129
-537.179	800.000	-0.064	-0.217
-536.164	57.127	0.204	-0.202
-535.150	-123.780	0.128	-0.021
-534.135	42.629	-0.039	0.036
-533.121	-46.734	-0.123	0.061
-532.106	33.173	0.122	-0.108
-531.091	-69.465	-0.286	-0.111
-530.077	-87.858	-0.028	-0.008
-529.062	182.152	-0.121	-0.181
-528.048	-182.829	-0.072	0.001
-527.033	-107.080	-0.270	0.060
-526.018	47.842	0.115	-0.109
-525.004	-74.407	0.427	0.156
-523.989	-21.186	-0.104	-0.065
-522.975	-200.000	0.040	0.262
-521.960	800.000	0.049	0.144
-520.945	-200.000	0.009	-0.087
-519.931	357.563	-0.042	0.084
-518.916	-200.000	0.026	-0.224
-517.902	-200.000	-0.005	-0.140
-516.887	229.577	-0.274	0.455
-515.872	498.397	-0.089	-0.208
-514.858	-142.143	0.113	0.011
-513.843	-200.000	0.014	0.082
-512.829	-44.806	-0.251	-0.127
-511.814	-9.515	-0.162	-0.109
-510.799	-58.629	0.072	0.032
-509.785	-177.877	0.261	0.006
-508.770	-51.663	-0.328	-0.155
-507.756	-169.738	-0.554	0.020
-506.741	92.299	0.141	-0.161
-505.726	355.748	-0.065	-0.132
-504.712	800.000	-0.069	-0.217
-503.697	106.397	0.207	0.249
-502.683	-88.951	-0.201	-0.060
-501.668	142.235	0.079	-0.107
-500.653	-108.346	-0.105	0.023
-499.639	800.000	-0.050	-0.145
-498.624	216.846	-0.281	-0.453
-497.610	-29.160	0.429	-0.250
-496.595	-166.440	-0.316	0.013
-495.581	-200.000	0.026	0.134
-494.566	96.638	0.040	0.046
-493.551	-200.000	-0.007	-0.193
-492.537	-90.649	-0.163	-0.048
-491.522	300.551	-0.191	-0.357
-490.508	1.473	-0.300	-0.218
-489.493	-146.279	-0.075	-0.007
-488.478	664.912	-0.102	-0.266
-487.464	800.000	0.050	-0.212
-486.449	-142.035	-0.427	0.043
-485.435	800.000	0.116	-0.414
-484.420	-119.341	0.306	0.054
-483.405	-115.007	-0.355	-0.068
-482.391	-7.680	0.212	-0.145
-481.376	-94.726	-0.137	-0.038
-480.362	73.822	-0.178	-0.189
-479.347	-200.000	0.011	-0.061
-478.332	257.035	0.092	-0.160
-477.318	800.000	-0.054	0.238
-476.303	-200.000	-0.008	0.216
-475.289	596.843	-0.100	0.250
-474.274	115.934	-0.184	-0.227
-473.259	393.098	0.040	0.085
-472.245	77.731	-0.201	0.216
-471.230	800.000	0.054	-0.182
-470.216	-200.000	-0.032	-0.402
-469.201	800.000	-0.063	-0.213
-468.186	-12.082	-0.137	-0.091
-467.172	800.000	-0.073	-0.298
-466.157	35.799	0.143	-0.128
-465.143	111.222	-0.182	-0.222
-464.128	-145.247	-0.056	0.005
-463.113	800.000	-0.109	0.381
-462.099	-118.914	0.384	-0.068
-461.084	462.648	-0.095	-0.215
-460.070	-200.000	-0.017	0.243
-459.055	800.000	-0.107	-0.356
-458.040	-200.000	0.035	-0.263
-457.026	8.303	-0.251	0.191
-456.011	800.000	0.069	-0.234
-454.997	-5.540	0.165	0.114
-453.982	-27.362	-0.164	0.096
-452.968	800.000	0.018	-0.078
-451.953	-19.503	-0.120	-0.075
-450.938	94.628	0.102	-0.117
-449.924	-6.670	0.329	-0.226
-448.909	800.000	0.054	-0.156
-447.895	99.032	-0.235	-0.275
-446.880	-4.911	0.029	0.020
-445.865	218.384	0.145	-0.234
-444.851	-147.897	0.565	-0.048
-443.836	-146.803	0.392	0.034
-442.822	-200.000	0.017	-0.156
-441.807	-68.841	-0.140	-0.055
-440.792	230.162	0.034	-0.056
-439.778	78.566	0.135	0.146
-438.763	25.705	-0.150	-0.127
-437.749	-67.235	0.079	-0.032
-436.734	-110.579	0.025	-0.005
-435.719	-9.468	0.124	0.083
-434.705	800.000	-0.052	0.183
-433.690	287.358	0.194	0.354
-432.676	-38.365	0.147	0.079
-431.661	388.114	-0.087	-0.183
-430.646	-100.875	-0.171	0.042
-429.632	162.612	0.063	-0.089
-428.617	-53.105	-0.084	0.039
-427.603	-200.000	-0.032	-0.373
-426.588	-128.424	0.143	-0.020
-425.573	-200.000	0.002	0.040
-424.559	-31.937	-0.044	-0.025
-423.544	449.637	0.040	-0.090
-422.530	-200.000	-0.003	-0.057
-421.515	-200.000	0.022	-0.103
-420.500	169.306	0.129	-0.187
-419.486	376.866	-0.068	0.140
-418.471	62.615	-0.131	0.132
-417.457	297.340	0.028	-0.051
-416.442	378.082	-0.105	-0.217
-415.428	33.682	-0.201	-0.177
-414.413	-200.000	-0.043	-0.354
-413.398	-172.741	-0.307	-0.010
-412.384	428.135	0.104	-0.227
-411.369	-170.578	-0.357	-0.013
-410.355	628.444	0.019	0.047
-409.340	176.496	-0.039	-0.057
-408.325	-200.000	0.029	0.000
-407.311	-103.254	-0.271	0.065
-406.296	-172.415	0.304	0.010
-405.282	800.000	0.087	-0.334
-404.267	128.903	-0.069	0.089
-403.252	128.509	-0.243	0.313
-402.238	31.918	0.206	-0.179
-401.223	496.053	-0.066	-0.153
-400.209	78.484	0.269	0.290
-399.194	101.435	0.122	0.143
-398.179	-114.036	-0.337	0.066
-397.165	-200.000	-0.083	0.486
-396.150	1.299	0.296	0.215
-395.136	271.879	0.034	-0.061
-394.121	122.710	0.139	0.175
-393.106	18.622	-0.095	0.077
-392.092	186.242	0.042	0.063
-391.077	418.430	0.058	0.126
-390.063	-200.000	0.003	0.127
-389.048	-151.867	-0.330	0.024
-388.033	302.755	0.152	0.284
-387.019	2.638	0.262	0.192
-386.004	-200.000	0.106	-0.514
-384.990	11.667	0.240	-0.186
-383.975	-110.680	0.289	-0.060
-382.960	42.978	0.060	0.055
-381.946	-98.286	0.178	-0.046
-380.931	-200.000	-0.013	-0.227
-379.917	-88.952	0.258	-0.077
-378.902	-200.000	-0.005	-0.300
-377.888	-50.671	0.157	-0.074
-376.873	149.011	-0.007	0.010
-375.858	66.441	-0.100	-0.103
-374.844	-200.000	-0.069	-0.357
-373.829	-200.000	0.006	-0.252
-372.815	-200.000	-0.013	0.071
-371.800	-200.000	0.005	0.332
-370.785	384.998	-0.090	0.187
-369.771	-94.816	0.461	0.126
-368.756	-132.698	0.107	0.014
-367.742	-200.000	-0.017	-0.277
-366.727	-13.781	0.325	-0.212
-365.712	-26.774	-0.317	-0.187
-364.698	-89.915	-0.331	-0.098
-363.683	800.000	-0.098	0.330
-362.669	-119.689	0.144	0.025
-361.654	70.388	0.170	-0.178
-360.639	-135.107	-0.161	0.020
-359.625	800.000	0.065	-0.254
-358.610	85.150	0.253	-0.280
-357.596	73.482	-0.163	0.172
-356.581	29.342	-0.120	-0.102
-355.566	800.000	0.069	-0.271
-354.552	-200.000	-0.020	0.386
-353.537	765.135	0.046	-0.125
-352.523	-200.000	-0.059	-0.495
-351.508	24.779	0.316	0.264
-350.493	311.752	-0.101	0.192
-349.479	-123.888	0.226	0.036
-348.464	336.859	0.153	-0.300
-347.450	-81.828	-0.307	-0.101
-346.435	-200.000	-0.055	-0.390
-345.420	6.463	-0.117	0.087
-344.406	204.657	0.210	0.327
-343.391	468.931	-0.015	0.033
-342.377	-63.401	0.127	-0.053
-341.362	403.758	-0.037	0.077
-340.348	-105.695	-0.099	0.023
-339.333	-66.257	-0.192	-0.077
-338.318	-75.418	0.430	-0.154
-337.304	-69.531	0.260	-0.100
-336.289	17.008	0.124	0.099
-335.275	-38.830	-0.273	0.145
-334.260	-38.771	0.326	-0.173
-333.245	-12.190	-0.152	0.100
-332.231	-89.416	0.079	0.023
-331.216	-172.807	0.057	-0.002
-330.202	-111.762	0.319	-0.065
-329.187	325.451	0.089	-0.172
-328.172	55.924	0.262	-0.256
-327.158	522.337	0.172	0.406
-326.143	-96.840	0.155	-0.041
-325.129	247.081	0.027	0.046
-324.114	-86.081	0.281	0.087
-323.099	-128.801	0.193	0.027
-322.085	-39.457	0.514	0.271
-321.070	-200.000	-0.006	-0.088
-320.056	-40.112	0.107	0.056
-319.041	4.732	0.170	-0.125
-318.026	-49.785	0.268	-0.128
-317.012	-200.000	-0.002	0.056
-315.997	-200.000	0.002	0.039
-314.983	-136.157	0.168	0.020
-313.968	-74.695	0.151	0.055
-312.953	365.761	-0.085	-0.172
-311.939	699.119	-0.141	0.372
-310.924	800.000	0.126	0.539
-309.910	800.000	0.028	-0.113
-308.895	271.348	-0.028	0.050
-307.880	-40.228	-0.207	0.108
-306.866	94.568	-0.184	0.210
-305.851	-53.236	0.206	-0.095
-304.837	-200.000	-0.045	0.291
-303.822	158.071	-0.201	0.280
-302.807	434.234	0.071	-0.156
-301.793	-108.822	0.432	-0.093
-300.778	-56.734	-0.162	0.072
-299.764	114.173	0.121	0.148
-298.749	-12.372	-0.250	-0.164
-297.735	-20.920	-0.368	-0.227
-296.720	-12.590	0.212	0.139
-295.705	-133.978	0.061	-0.008
-294.691	-104.472	-0.018	0.004
-293.676	800.000	0.092	0.394
-292.662	-200.000	0.041	0.199
-291.647	59.361	-0.154	-0.152
-290.632	-200.000	0.078	0.425
-289.618	63.502	0.115	0.116
-288.603	-83.938	-0.325	0.104
-287.589	-200.000	0.014	-0.119
-286.574	67.312	0.118	-0.121
-285.559	-196.712	0.213	0.001
-284.545	-200.000	-0.036	0.339
-283.530	211.178	0.200	0.316
-282.516	-130.649	0.136	0.018
-281.501	72.294	0.211	0.221
-280.486	800.000	-0.087	0.245
-279.472	134.500	0.210	0.273
-278.457	-43.838	0.074	0.038
-277.443	-109.434	-0.269	0.057
-276.428	498.100	0.070	0.162
-275.413	-149.877	0.044	0.003
-274.399	53.880	-0.082	0.080
-273.384	-123.293	0.053	-0.009
-272.370	608.266	0.114	-0.285
-271.355	-133.118	-0.249	-0.032
-270.340	68.391	0.217	-0.224
-269.326	800.000	0.063	-0.199
-268.311	101.040	-0.174	0.203
-267.297	-1.559	0.050	0.036
-266.282	282.648	-0.166	0.299
-265.267	-88.920	-0.144	-0.043
-264.253	15.114	-0.180	-0.142
-263.238	195.799	0.124	0.190
-262.224	-200.000	0.044	-0.223
-261.209	-90.268	0.016	0.005
-260.195	800.000	0.063	0.249
-259.180	-200.000	-0.052	0.262
-258.165	800.000	0.074	0.261
-257.151	-188.279	-0.075	-0.001
-256.136	-200.000	-0.010	-0.272
-255.122	-200.000	-0.047	0.570
-254.107	-33.097	-0.131	-0.073
-253.092	264.248	0.076	0.132
-252.078	-14.738	-0.141	-0.091
-251.063	-41.250	-0.331	-0.172
-250.049	249.351	0.040	0.068
-249.034	-151.687	0.286	-0.021
-248.019	175.051	0.052	-0.075
-247.005	241.562	-0.040	0.068
-245.990	800.000	0.054	-0.157
-244.976	-88.456	0.139	-0.042
-243.961	13.123	0.264	0.205
-242.946	495.354	0.102	0.234
-241.932	-158.574	0.084	0.005
-240.917	-89.192	-0.063	0.019
-239.903	145.171	0.213	-0.286
-238.888	-200.000	0.015	-0.161
-237.873	-123.927	0.130	-0.020
-236.859	-49.638	-0.161	0.077
-235.844	-30.021	-0.170	-0.097
-234.830	-200.000	-0.012	0.128
-233.815	3.158	-0.306	0.223
-232.800	-200.000	0.006	0.038
-231.786	-165.495	0.304	0.013
-230.771	-32.878	0.301	0.168
-229.757	395.830	0.057	0.120
-228.742	-54.828	0.202	0.091
-227.727	153.408	-0.170	0.233
-226.713	-200.000	-0.002	-0.142
-225.698	-84.089	0.144	-0.046
-224.684	324.771	-0.122	-0.234
-223.669	-72.249	0.055	0.020
-222.655	-200.000	0.024	0.251
-221.640	-200.000	-0.031	-0.253
-220.625	-112.675	-0.059	-0.012
-219.611	-200.000	0.063	0.280
-218.596	466.654	-0.068	0.152
-217.582	588.532	0.122	0.300
-216.567	427.395	0.135	0.291
-215.552	-182.515	-0.219	-0.004
-214.538	-94.520	0.191	-0.052
-213.523	44.195	0.180	-0.166
-212.509	800.000	0.106	-0.307
-211.494	-28.238	0.464	0.269
-210.479	-104.595	-0.463	-0.107
-209.465	158.471	-0.096	0.133
-208.450	306.066	-0.080	-0.149
-207.436	161.990	0.093	0.131
-206.421	-144.528	0.268	0.025
-205.406	-41.271	0.084	0.043
-204.392	39.343	-0.118	0.106
-203.377	0.557	-0.067	0.048
-202.363	159.250	-0.155	-0.216
-201.348	48.156	0.038	0.035
-200.333	-79.663	-0.201	-0.068
-199.319	-56.209	-0.199	-0.089
-198.304	161.947	0.101	0.142
-197.290	235.814	-0.053	0.088
-196.275	-10.505	0.175	-0.116
-195.260	95.741	-0.328	0.375
-194.246	-73.471	-0.316	0.115
-193.231	255.861	0.133	-0.228
-192.217	-52.936	0.223	0.103
-191.202	-79.599	0.286	0.097
-190.187	-14.005	0.158	-0.102
-189.173	38.519	-0.094	-0.084
-188.158	-0.759	-0.144	0.102
-187.144	-3.693	0.090	-0.062
-186.129	59.824	0.081	-0.080
-185.114	380.759	-0.156	0.320
-184.100	76.386	-0.054	-0.057
-183.085	133.287	-0.148	0.191
-182.071	512.573	-0.073	0.171
-181.056	14.079	-0.116	0.090
-180.042	-200.000	0.019	0.225
-179.027	244.178	0.165	0.278
-178.012	-52.607	0.359	0.166
-176.998	58.721	0.098	0.096
-175.983	-108.097	0.470	-0.102
-174.969	-200.000	0.003	-0.223
-173.954	591.789	-0.195	0.483
-172.939	22.645	-0.103	-0.084
-171.925	39.049	-0.003	-0.002
-170.910	14.172	0.179	-0.139
-169.896	72.003	-0.159	-0.166
-168.881	-170.003	-0.324	0.012
-167.866	448.918	0.080	0.176
-166.852	-200.000	-0.051	-0.338
-165.837	800.000	-0.022	0.083
-164.823	14.572	-0.139	-0.109
-163.808	-186.391	0.367	0.005
-162.793	-92.437	-0.103	0.029
-161.779	800.000	0.107	0.450
-160.764	-41.757	-0.131	0.067
-159.750	59.993	0.090	0.089
-158.735	-200.000	0.013	0.481
-157.720	-150.057	0.090	-0.007
-156.706	114.309	-0.047	0.057
-155.691	-129.618	-0.046	-0.006
-154.677	522.626	-0.176	0.413
-153.662	-133.993	-0.029	-0.004
-152.647	377.462	0.055	0.112
-151.633	415.163	0.075	-0.160
-150.618	770.964	-0.056	0.153
-149.604	123.049	0.116	0.145
-148.589	484.508	-0.060	0.137
-147.574	-3.039	-0.062	-0.043
-146.560	-56.242	0.168	-0.075
-145.545	131.910	-0.084	-0.109
-144.531	509.069	-0.097	-0.226
-143.516	-200.000	0.005	-0.139
-142.502	-8.848	-0.214	0.143
-141.487	800.000	0.143	-0.507
-140.472	103.900	-0.188	0.220
-139.458	145.407	0.024	-0.032
-138.443	52.830	-0.073	-0.070
-137.429	2.442	0.321	0.232
-136.414	-108.588	0.230	-0.049
-135.399	800.000	-0.051	0.141
-134.385	147.517	0.208	-0.279
-133.370	31.058	-0.278	0.238
-132.356	-46.846	-0.264	0.129
-131.341	318.677	0.080	0.152
-130.326	800.000	-0.019	-0.080
-129.312	170.009	-0.105	0.149
-128.297	-175.509	-0.207	0.006
-127.283	569.748	-0.064	-0.154
-126.268	-139.235	0.233	0.025
-125.253	-158.677	0.405	0.023
-124.239	-83.871	-0.220	-0.070
-123.224	159.360	-0.110	0.153
-122.210	-200.000	-0.021	-0.113
-121.195	445.494	0.106	-0.233
