DTS Sentinel unit serial number:	SN413079Multiplexer serial number:	ORYXHardware model number:	OX4-SRSoftware version number:	ORYX F/W v4.00 Oryx Data Collector v3.7.2.0data status	okinstallation	princeton_trtdifferential loss correction	single-endedforward channel	channel 1reverse channel	N/Adate	2019/09/19time	03:22:35forward acquisition time	60.00reverse acquisition time	0.00gamma	496.2192k internal	0.2343k external	0.2343temperature offset calibration	1.0016default loss term (dB/km)	0.3790temperature slope calibration	1.0000multiplexer offset coefficient	1.0000multiplexer slope coefficient	1.0000fibre end	0.00T internal ref (°C)	20.69T ext. ref 1 (°C)	0.64T ext. ref 2 (°C)	14.22length (m)	temperature (°C)	Stokes	anti-Stokes-747.200	48.100	0.294	-0.275
-746.185	-62.824	-0.337	0.140
-745.171	-100.468	0.248	-0.061
-744.156	800.000	0.030	-0.105
-743.142	-98.497	-0.183	0.047
-742.127	-94.651	-0.151	0.041
-741.112	800.000	0.011	-0.036
-740.098	101.717	0.145	0.170
-739.083	279.352	0.095	-0.170
-738.069	29.020	-0.074	0.063
-737.054	-83.132	0.090	0.029
-736.039	221.403	-0.117	-0.188
-735.025	800.000	0.064	-0.209
-734.010	311.360	0.191	-0.358
-732.996	29.304	0.077	0.066
-731.981	-200.000	0.047	-0.414
-730.966	-110.944	-0.180	0.037
-729.952	2.150	-0.430	-0.311
-728.937	393.710	-0.149	-0.310
-727.923	80.308	0.235	-0.253
-726.908	-200.000	0.063	0.286
-725.894	-9.538	0.194	0.130
-724.879	773.972	0.054	-0.148
-723.864	-200.000	-0.037	-0.295
-722.850	300.483	-0.183	-0.338
-721.835	69.434	0.260	0.267
-720.821	665.645	0.041	0.106
-719.806	-4.916	0.158	-0.109
-718.791	-59.392	0.128	0.055
-717.777	-200.000	0.021	-0.099
-716.762	800.000	-0.028	0.109
-715.748	324.194	-0.113	0.215
-714.733	-68.655	0.042	0.016
-713.718	-200.000	0.019	-0.102
-712.704	-65.227	0.344	-0.139
-711.689	-32.813	-0.301	-0.167
-710.675	-200.000	-0.013	-0.162
-709.660	175.469	-0.158	-0.229
-708.645	161.112	0.180	-0.252
-707.631	81.610	0.069	0.075
-706.616	-42.836	-0.213	-0.108
-705.602	35.447	-0.025	-0.022
-704.587	-23.974	-0.459	-0.275
-703.572	-111.016	-0.473	-0.097
-702.558	-20.465	0.248	0.152
-701.543	660.883	0.050	-0.128
-700.529	34.956	-0.175	0.153
-699.514	427.266	-0.079	0.170
-698.499	-200.000	0.018	-0.104
-697.485	-102.802	0.466	0.111
-696.470	51.447	0.187	0.178
-695.456	800.000	0.068	0.201
-694.441	800.000	0.053	-0.196
-693.426	-90.562	0.203	-0.059
-692.412	171.654	0.165	0.237
-691.397	-60.337	0.136	0.058
-690.383	-80.732	0.125	-0.042
-689.368	-60.624	-0.251	-0.106
-688.354	-200.000	0.012	-0.073
-687.339	-45.150	-0.313	-0.155
-686.324	-54.472	0.057	0.026
-685.310	213.023	-0.074	0.116
-684.295	-72.222	0.096	-0.036
-683.281	-200.000	-0.038	-0.218
-682.266	195.558	-0.158	-0.240
-681.251	526.418	0.059	-0.138
-680.237	-164.424	0.232	0.011
-679.222	107.811	-0.086	-0.103
-678.208	235.356	0.197	-0.325
-677.193	-200.000	0.004	-0.121
-676.178	-102.712	-0.148	-0.035
-675.164	-35.664	0.121	0.066
-674.149	72.768	0.153	-0.159
-673.135	-148.842	-0.065	0.005
-672.120	-23.446	0.119	0.071
-671.105	-34.069	0.260	0.143
-670.091	-126.450	-0.288	-0.043
-669.076	800.000	-0.046	-0.136
-668.062	800.000	0.042	-0.125
-667.047	608.538	-0.159	0.395
-666.032	58.923	-0.111	-0.109
-665.018	-89.141	-0.174	-0.051
-664.003	76.749	-0.286	0.303
-662.989	-200.000	0.044	-0.225
-661.974	662.667	-0.093	0.238
-660.959	663.649	0.123	-0.316
-659.945	-152.117	-0.197	0.014
-658.930	-63.880	-0.093	0.038
-657.916	224.263	0.072	0.117
-656.901	-200.000	0.036	0.273
-655.886	292.214	-0.054	0.098
-654.872	-200.000	0.009	0.290
-653.857	215.087	0.153	-0.243
-652.843	-200.000	0.000	-0.122
-651.828	-200.000	0.016	0.103
-650.814	388.889	0.083	-0.172
-649.799	526.630	-0.099	-0.233
-648.784	255.592	0.039	-0.067
-647.770	117.536	-0.277	0.340
-646.755	104.617	-0.061	-0.072
-645.741	-111.429	-0.177	-0.036
-644.726	800.000	-0.058	0.203
-643.711	392.119	-0.142	-0.294
-642.697	81.865	0.104	0.112
-641.682	-22.302	-0.346	-0.209
-640.668	252.635	-0.180	-0.306
-639.653	166.692	0.092	0.131
-638.638	168.809	-0.148	-0.211
-637.624	111.476	-0.121	0.145
-636.609	24.894	-0.305	0.252
-635.595	-144.937	-0.113	0.010
-634.580	3.430	-0.131	0.095
-633.565	-40.844	-0.074	-0.038
-632.551	-0.445	0.167	0.118
-631.536	800.000	0.052	-0.212
-630.522	-90.433	0.113	-0.033
-629.507	215.958	-0.053	-0.084
-628.492	-186.785	-0.131	-0.002
-627.478	278.315	0.116	-0.207
-626.463	-65.394	0.222	-0.089
-625.449	-72.952	-0.385	0.141
-624.434	-130.510	0.231	0.031
-623.419	214.867	-0.194	0.306
-622.405	110.855	0.108	0.129
-621.390	-63.494	0.094	0.038
-620.376	172.624	0.180	-0.258
-619.361	-117.079	-0.231	0.042
-618.346	329.054	0.127	-0.244
-617.332	-116.171	-0.253	-0.047
-616.317	114.230	0.132	-0.161
-615.303	-39.149	-0.160	0.084
-614.288	-123.542	-0.139	-0.022
-613.273	-200.000	-0.018	0.269
-612.259	42.825	0.270	-0.245
-611.244	236.731	-0.052	0.085
-610.230	42.025	-0.124	0.112
-609.215	-200.000	-0.009	-0.068
-608.201	32.832	0.092	0.079
-607.186	235.075	-0.080	0.131
-606.171	16.688	0.219	-0.172
-605.157	-35.769	0.275	-0.148
-604.142	800.000	0.098	0.286
-603.128	88.505	-0.207	-0.229
-602.113	-132.544	-0.238	0.031
-601.098	-148.621	0.251	0.020
-600.084	-52.661	0.156	-0.072
-599.069	-10.938	0.135	-0.089
-598.055	2.757	0.062	-0.045
-597.040	-200.000	-0.014	0.079
-596.025	-200.000	0.002	-0.166
-595.011	-200.000	0.041	-0.205
-593.996	-55.890	-0.421	0.187
-592.982	800.000	0.049	0.170
-591.967	690.484	0.080	-0.209
-590.952	-68.408	0.307	0.118
-589.938	-59.538	0.090	-0.038
-588.923	310.046	0.060	-0.112
-587.909	-114.973	0.217	0.041
-586.894	125.740	0.114	-0.143
-585.879	-200.000	-0.002	-0.035
-584.865	-91.218	0.298	0.085
-583.850	-39.649	-0.166	0.086
-582.836	-200.000	-0.043	-0.204
-581.821	66.156	-0.138	-0.139
-580.806	800.000	-0.038	0.145
-579.792	264.393	-0.121	-0.210
-578.777	183.713	-0.227	-0.333
-577.763	-200.000	-0.022	0.137
-576.748	-24.913	-0.175	0.103
-575.733	516.744	0.050	0.116
-574.719	-1.152	-0.190	0.134
-573.704	16.195	0.303	-0.237
-572.690	761.842	0.227	-0.612
-571.675	-76.432	0.321	-0.112
-570.661	800.000	0.056	-0.174
-569.646	-6.182	-0.114	-0.077
-568.631	-62.653	-0.359	-0.148
-567.617	-46.130	0.089	0.044
-566.602	174.173	0.141	0.203
-565.588	-200.000	-0.007	0.069
-564.573	65.405	0.162	-0.163
-563.558	-120.173	-0.502	0.085
-562.544	800.000	-0.026	-0.097
-561.529	189.912	0.245	0.366
-560.515	57.623	-0.279	0.271
-559.500	96.235	-0.172	0.196
-558.485	302.721	0.089	0.164
-557.471	-19.114	-0.171	-0.106
-556.456	-102.049	0.175	0.042
-555.442	-110.636	-0.226	0.046
-554.427	-104.258	-0.214	-0.049
-553.412	55.768	0.126	-0.122
-552.398	53.066	-0.110	0.105
-551.383	-63.616	-0.267	-0.109
-550.369	-200.000	-0.007	0.093
-549.354	-29.600	0.478	0.271
-548.339	-36.287	0.110	-0.059
-547.325	-200.000	-0.064	-0.329
-546.310	800.000	0.045	0.192
-545.296	-117.785	0.483	-0.086
-544.281	97.911	-0.058	-0.067
-543.266	-98.961	-0.131	0.033
-542.252	-49.985	0.319	0.150
-541.237	-90.908	-0.141	-0.040
-540.223	-200.000	0.017	-0.164
-539.208	-200.000	0.002	0.174
-538.193	-18.291	-0.178	0.110
-537.179	-2.432	0.090	0.063
-536.164	80.062	0.063	0.068
-535.150	-153.514	0.141	-0.010
-534.135	-133.672	0.284	0.035
-533.121	-37.059	-0.367	0.195
-532.106	58.576	0.150	-0.147
-531.091	186.626	0.065	0.096
-530.077	-200.000	0.005	-0.473
-529.062	7.409	0.283	-0.210
-528.048	-200.000	-0.014	-0.077
-527.033	244.130	-0.110	-0.183
-526.018	142.902	0.106	0.140
-525.004	-200.000	0.015	-0.232
-523.989	800.000	-0.050	-0.186
-522.975	-95.446	0.324	0.086
-521.960	179.598	-0.052	-0.075
-520.945	206.405	0.063	-0.098
-519.931	592.053	-0.052	-0.128
-518.916	-120.974	0.304	-0.051
-517.902	146.112	0.102	-0.136
-516.887	-164.355	-0.171	-0.008
-515.872	-200.000	-0.027	-0.287
-514.858	-185.139	0.102	0.002
-513.843	800.000	-0.068	-0.224
-512.829	-56.588	-0.120	0.053
-511.814	6.416	0.120	0.088
-510.799	-127.980	-0.039	-0.006
-509.785	800.000	0.026	0.106
-508.770	800.000	-0.052	-0.224
-507.756	-94.922	-0.119	-0.032
-506.741	169.867	0.016	-0.022
-505.726	-0.510	0.251	0.177
-504.712	-200.000	0.014	0.092
-503.697	557.336	-0.082	-0.196
-502.683	-168.665	-0.113	0.004
-501.668	-125.547	-0.322	-0.048
-500.653	-200.000	-0.001	-0.209
-499.639	-125.590	-0.101	0.015
-498.624	-122.577	-0.223	0.036
-497.610	218.619	-0.092	0.145
-496.595	-200.000	0.073	-0.411
-495.581	-138.163	0.192	-0.021
-494.566	-3.765	0.160	0.110
-493.551	119.268	0.033	-0.040
-492.537	6.519	-0.182	-0.134
-491.522	-74.639	0.411	-0.147
-490.508	800.000	-0.183	0.543
-489.493	-200.000	-0.046	-0.202
-488.478	84.781	0.185	0.201
-487.464	-25.222	-0.112	-0.066
-486.449	278.358	0.044	-0.079
-485.435	-45.135	0.111	-0.055
-484.420	171.164	-0.108	0.153
-483.405	-200.000	0.029	0.422
-482.391	-102.346	-0.144	-0.034
-481.376	800.000	0.039	0.120
-480.362	5.343	-0.477	-0.348
-479.347	31.419	0.244	0.208
-478.332	373.267	0.119	-0.240
-477.318	-200.000	0.006	-0.251
-476.303	87.378	-0.121	-0.132
-475.289	236.237	-0.130	0.213
-474.274	55.833	0.039	-0.037
-473.259	111.850	-0.186	-0.223
-472.245	120.531	-0.135	0.166
-471.230	-73.300	0.173	0.063
-470.216	-27.508	-0.083	-0.048
-469.201	-109.035	-0.250	0.053
-468.186	-122.189	0.369	-0.060
-467.172	-87.395	-0.281	0.084
-466.157	458.754	-0.044	-0.096
-465.143	38.258	-0.189	-0.167
-464.128	-200.000	-0.036	-0.218
-463.113	-32.440	-0.155	-0.085
-462.099	91.445	-0.159	0.177
-461.084	-200.000	0.039	-0.231
-460.070	-200.000	-0.013	-0.115
-459.055	-200.000	0.044	-0.470
-458.040	-91.351	-0.294	-0.083
-457.026	-200.000	-0.025	0.147
-456.011	-85.468	0.229	0.071
-454.997	-164.630	0.204	-0.009
-453.982	-129.718	-0.398	-0.054
-452.968	-70.478	0.406	-0.152
-451.953	800.000	-0.039	-0.109
-450.938	-200.000	-0.005	-0.139
-449.924	23.610	-0.334	0.272
-448.909	-200.000	0.469	0.001
-447.895	-200.000	-0.036	0.172
-446.880	-178.123	0.271	-0.006
-445.865	317.423	0.062	-0.117
-444.851	800.000	0.027	-0.108
-443.836	-200.000	-0.008	0.156
-442.822	207.778	-0.085	-0.131
-441.807	263.097	-0.039	0.067
-440.792	-175.829	-0.192	0.005
-439.778	43.714	0.250	-0.226
-438.763	-197.042	-0.342	-0.002
-437.749	-159.165	0.656	0.037
-436.734	327.840	-0.050	-0.096
-435.719	119.838	0.144	0.177
-434.705	235.494	-0.036	-0.059
-433.690	54.993	-0.174	0.167
-432.676	-24.939	0.103	-0.061
-431.661	10.206	0.112	0.084
-430.646	-31.335	0.440	0.245
-429.632	-109.181	-0.298	-0.063
-428.617	90.934	-0.301	0.334
-427.603	111.504	-0.091	-0.109
-426.588	18.167	-0.051	-0.040
-425.573	-127.011	0.176	0.026
-424.559	-141.340	0.329	-0.033
-423.544	-116.355	0.363	-0.066
-422.530	407.136	0.097	-0.203
-421.515	113.566	0.238	-0.286
-420.500	58.457	0.138	0.134
-419.486	-47.833	-0.208	-0.100
-418.471	-101.284	0.230	-0.055
-417.457	-24.828	-0.209	0.123
-416.442	-200.000	-0.072	0.580
-415.428	177.674	0.071	0.102
-414.413	141.428	-0.065	0.085
-413.398	-41.912	-0.196	0.099
-412.384	-150.910	0.191	0.014
-411.369	608.875	0.092	-0.226
-410.355	-200.000	-0.017	-0.140
-409.340	-91.518	-0.287	-0.081
-408.325	-149.818	0.286	0.022
-407.311	637.704	-0.083	0.208
-406.296	800.000	-0.106	-0.360
-405.282	-7.041	0.091	0.061
-404.267	-200.000	0.009	0.233
-403.252	800.000	0.074	0.207
-402.238	-200.000	-0.004	-0.039
-401.223	-200.000	-0.024	-0.128
-400.209	-200.000	0.011	0.169
-399.194	800.000	0.026	0.087
-398.179	-200.000	-0.005	-0.319
-397.165	-200.000	0.025	-0.289
-396.150	58.133	0.374	-0.362
-395.136	-200.000	-0.026	-0.265
-394.121	-124.408	0.084	-0.013
-393.106	800.000	-0.048	-0.192
-392.092	324.873	0.127	0.239
-391.077	1.958	-0.210	0.150
-390.063	-132.970	0.379	0.048
-389.048	-200.000	0.047	0.481
-388.033	639.674	-0.107	-0.270
-387.019	-77.276	-0.160	0.055
-386.004	114.654	0.163	-0.196
-384.990	-62.209	0.151	0.062
-383.975	-200.000	0.015	-0.385
-382.960	-128.319	-0.054	-0.008
-381.946	-9.488	-0.216	-0.142
-380.931	-170.499	-0.364	-0.013
-379.917	-200.000	-0.040	0.302
-378.902	-53.172	-0.236	0.107
-377.888	-200.000	-0.073	0.331
-376.873	-200.000	0.019	-0.110
-375.858	731.198	0.062	-0.163
-374.844	784.565	0.107	0.289
-373.829	-200.000	-0.003	0.187
-372.815	118.507	-0.144	-0.175
-371.800	-95.898	-0.263	-0.069
-370.785	-22.050	-0.244	-0.146
-369.771	-38.565	0.115	-0.060
-368.756	-200.000	0.011	-0.137
-367.742	144.864	-0.170	0.224
-366.727	-138.536	0.295	-0.032
-365.712	-200.000	-0.015	0.282
-364.698	87.950	-0.237	0.259
-363.683	-200.000	0.057	-0.254
-362.669	-87.135	-0.236	-0.071
-361.654	25.300	0.279	0.228
-360.639	307.804	0.056	0.103
-359.625	150.047	0.333	0.446
-358.610	-200.000	0.041	0.339
-357.596	2.560	0.078	0.056
-356.581	-2.003	0.110	-0.076
-355.566	-200.000	-0.077	0.369
-354.552	-200.000	-0.060	0.357
-353.537	204.038	0.103	0.157
-352.523	177.587	0.005	-0.008
-351.508	197.133	-0.143	-0.215
-350.493	-0.993	0.268	-0.187
-349.479	-131.547	-0.190	-0.025
-348.464	-142.772	0.316	-0.030
-347.450	35.183	0.110	0.095
-346.435	-200.000	0.012	-0.172
-345.420	508.716	-0.025	-0.058
-344.406	-200.000	-0.021	-0.161
-343.391	105.923	-0.295	-0.344
-342.377	-4.415	0.089	0.061
-341.362	20.774	0.351	0.280
-340.348	16.297	0.072	-0.056
-339.333	120.480	0.189	0.231
-338.318	-37.740	-0.246	-0.129
-337.304	543.812	-0.075	0.176
-336.289	-153.530	-0.382	-0.026
-335.275	557.407	-0.052	0.124
-334.260	-200.000	-0.002	0.113
-333.245	-62.308	0.075	-0.031
-332.231	-120.418	0.265	-0.044
-331.216	-6.805	-0.193	0.130
-330.202	-2.374	0.080	-0.055
-329.187	-81.174	-0.079	-0.026
-328.172	-49.864	-0.254	0.119
-327.158	30.103	-0.346	0.291
-326.143	-91.295	-0.131	0.037
-325.129	11.819	0.168	0.127
-324.114	285.644	-0.087	-0.154
-323.099	39.585	0.058	-0.051
-322.085	88.001	0.205	0.223
-321.070	-114.292	-0.277	-0.053
-320.056	-166.193	-0.087	-0.004
-319.041	-200.000	-0.077	0.348
-318.026	-200.000	-0.014	-0.214
-317.012	-16.221	-0.058	0.036
-315.997	-36.737	0.282	0.149
-314.983	207.966	-0.160	-0.246
-313.968	153.836	-0.176	0.238
-312.953	-96.416	0.220	0.057
-311.939	-3.271	0.536	0.368
-310.924	617.457	-0.093	-0.229
-309.910	-55.756	-0.282	0.124
-308.895	-121.842	-0.054	-0.009
-307.880	800.000	0.035	-0.127
-306.866	-68.083	0.157	0.060
-305.851	-200.000	0.008	0.134
-304.837	800.000	0.099	0.275
-303.822	-64.105	-0.120	-0.048
-302.807	153.135	0.038	-0.051
-301.793	-200.000	-0.035	-0.290
-300.778	9.418	0.102	0.076
-299.764	-91.013	0.291	0.082
-298.749	800.000	0.024	-0.073
-297.735	106.164	-0.261	-0.305
-296.720	70.241	-0.093	-0.094
-295.705	17.422	0.173	0.135
-294.691	-91.714	-0.036	-0.010
-293.676	542.102	0.186	0.437
-292.662	-200.000	0.020	0.325
-291.647	125.564	-0.086	0.106
-290.632	22.647	0.048	-0.038
-289.618	-200.000	-0.088	0.439
-288.603	24.395	-0.469	0.381
-287.589	-154.629	0.192	0.013
-286.574	-14.852	0.141	0.089
-285.559	85.666	0.053	0.057
-284.545	230.583	-0.197	-0.316
-283.530	128.433	0.169	0.211
-282.516	35.638	-0.206	0.178
-281.501	-78.350	-0.273	0.092
-280.486	-200.000	-0.037	0.290
-279.472	-29.779	-0.054	-0.030
-278.457	-75.821	-0.155	0.054
-277.443	650.460	0.152	0.382
-276.428	-165.949	-0.133	-0.006
-275.413	-112.279	0.230	-0.045
-274.399	358.849	0.012	-0.024
-273.384	80.319	-0.126	-0.133
-272.370	507.461	0.096	-0.218
-271.355	800.000	-0.078	-0.300
-270.340	141.351	0.223	-0.290
-269.326	-200.000	0.027	0.143
-268.311	644.424	-0.055	0.137
-267.297	-200.000	-0.016	-0.088
-266.282	-64.737	-0.182	-0.073
-265.267	-90.436	-0.435	0.124
-264.253	17.877	-0.168	0.131
-263.238	-49.469	-0.329	-0.154
-262.224	-80.838	-0.106	-0.035
-261.209	800.000	0.046	-0.177
-260.195	117.421	0.234	-0.283
-259.180	-91.697	0.228	0.064
-258.165	-127.212	-0.122	0.018
-257.151	-150.890	0.147	0.011
-256.136	515.826	-0.076	-0.174
-255.122	-200.000	-0.007	-0.278
-254.107	21.973	-0.163	-0.131
-253.092	180.213	0.078	0.113
-252.078	-68.895	-0.020	0.007
-251.063	-27.752	0.144	-0.082
-250.049	124.161	-0.232	0.287
-249.034	-69.797	-0.454	0.170
-248.019	185.514	0.349	0.509
-247.005	203.152	-0.152	0.231
-245.990	-200.000	0.009	-0.292
-244.976	-48.929	0.393	0.185
-243.961	604.138	0.144	-0.352
-242.946	186.093	0.087	0.127
-241.932	-185.506	0.142	0.002
-240.917	187.030	-0.041	0.060
-239.903	123.026	-0.283	0.348
-238.888	42.531	0.124	-0.111
-237.873	100.580	-0.185	0.211
-236.859	499.967	-0.034	-0.076
-235.844	55.102	0.076	-0.073
-234.830	-81.007	-0.066	-0.022
-233.815	29.084	0.235	-0.196
-232.800	107.519	-0.235	-0.274
-231.786	136.124	0.110	-0.141
-230.771	145.511	0.191	0.251
-229.757	-11.916	0.067	-0.043
-228.742	800.000	0.069	0.225
-227.727	56.519	-0.118	0.113
-226.713	800.000	0.051	0.215
-225.698	730.823	-0.136	0.357
-224.684	-185.569	0.143	-0.002
-223.669	234.822	0.055	0.089
-222.655	175.253	-0.118	0.168
-221.640	-177.518	-0.305	0.007
-220.625	266.286	0.068	-0.116
-219.611	-30.810	0.314	0.174
-218.596	784.578	-0.064	0.173
-217.582	378.361	0.118	-0.237
-216.567	115.289	0.259	-0.310
-215.552	-44.874	-0.226	-0.110
-214.538	800.000	-0.028	-0.094
-213.523	5.338	0.172	0.124
-212.509	515.451	-0.134	-0.307
-211.494	-8.240	-0.250	0.165
-210.479	-99.608	0.254	0.063
-209.465	39.114	-0.120	0.105
-208.450	84.554	-0.176	0.189
-207.436	81.416	0.207	-0.219
-206.421	-74.449	-0.338	-0.119
-205.406	-96.725	-0.134	0.034
-204.392	52.442	0.102	-0.096
-203.377	-96.353	-0.037	0.010
-202.363	-200.000	0.009	0.149
-201.348	151.245	-0.114	0.153
-200.333	-103.311	-0.301	0.070
-199.319	614.849	-0.093	0.229
-198.304	587.333	-0.059	0.143
-197.290	-144.270	0.139	-0.013
-196.275	-79.017	0.350	0.117
-195.260	39.488	-0.143	-0.126
-194.246	-43.758	-0.396	-0.196
-193.231	105.298	-0.100	-0.116
-192.217	-147.053	-0.068	-0.006
-191.202	81.705	0.060	-0.064
-190.187	-39.682	0.155	-0.079
-189.173	-3.474	0.076	0.052
-188.158	-200.000	-0.038	0.228
-187.144	800.000	0.029	0.080
-186.129	-1.962	0.109	0.075
-185.114	-100.962	0.444	0.107
-184.100	166.527	0.091	0.126
-183.085	-83.117	0.145	-0.046
-182.071	-200.000	0.012	-0.413
-181.056	127.208	0.150	0.186
-180.042	-15.302	-0.215	-0.134
-179.027	608.696	-0.169	-0.413
-178.012	-129.271	0.174	0.024
-176.998	66.427	-0.179	-0.179
-175.983	-190.552	0.248	0.003
-174.969	276.131	-0.081	-0.142
-173.954	-57.193	0.259	0.112
-172.939	-51.675	-0.140	-0.064
-171.925	-200.000	0.043	-0.286
-170.910	542.471	0.074	0.173
-169.896	-200.000	-0.025	-0.121
-168.881	800.000	0.056	0.194
-167.866	-73.576	-0.203	-0.073
-166.852	526.471	-0.044	-0.101
-165.837	-23.906	-0.094	0.055
-164.823	153.863	0.095	-0.128
-163.808	425.323	-0.138	0.292
-162.793	-200.000	0.032	0.171
-161.779	-15.747	-0.270	-0.168
-160.764	46.653	0.153	0.139
-159.750	-18.122	0.275	-0.168
-158.735	368.103	0.125	-0.247
-157.720	177.418	0.118	0.168
-156.706	7.313	-0.152	0.111
-155.691	-76.622	0.352	-0.121
-154.677	-24.856	0.152	0.088
-153.662	3.535	0.082	-0.059
-152.647	-200.000	0.002	-0.161
-151.633	645.767	0.065	-0.161
-150.618	800.000	-0.139	0.462
-149.604	-0.674	0.173	0.120
-148.589	797.983	0.075	0.201
-147.574	-200.000	-0.056	-0.296
-146.560	-28.509	-0.057	-0.032
-145.545	-69.829	-0.214	-0.080
-144.531	10.221	-0.363	-0.270
-143.516	-200.000	0.061	0.262
-142.502	800.000	0.119	-0.368
-141.487	-200.000	0.007	0.040
-140.472	-200.000	0.036	-0.292
-139.458	-73.372	-0.123	0.044
-138.443	-176.169	-0.371	0.010
-137.429	-174.414	0.378	0.011
-136.414	-25.909	0.204	0.118
-135.399	800.000	-0.077	-0.311
-134.385	495.624	0.096	0.215
-133.370	-98.497	0.206	-0.051
-132.356	-130.436	0.083	0.011
-131.341	-185.040	-0.207	-0.003
-130.326	-129.870	0.542	-0.073
-129.312	-142.351	-0.098	-0.009
-128.297	-7.990	-0.289	0.191
-127.283	67.071	-0.069	-0.068
-126.268	800.000	-0.070	0.208
-125.253	800.000	-0.052	0.183
-124.239	-200.000	0.005	-0.150
-123.224	-200.000	0.015	-0.084
-122.210	-160.019	0.169	-0.009
-121.195	-200.000	0.029	-0.135
