DTS Sentinel unit serial number:	SN413079Multiplexer serial number:	ORYXHardware model number:	OX4-SRSoftware version number:	ORYX F/W v4.00 Oryx Data Collector v3.7.2.0data status	okinstallation	princeton_trtdifferential loss correction	single-endedforward channel	channel 1reverse channel	N/Adate	2019/09/15time	01:02:35forward acquisition time	60.00reverse acquisition time	0.00gamma	496.2192k internal	0.2321k external	0.2321temperature offset calibration	0.9986default loss term (dB/km)	0.3790temperature slope calibration	1.0000multiplexer offset coefficient	1.0000multiplexer slope coefficient	1.0000fibre end	0.00T internal ref (°C)	32.00T ext. ref 1 (°C)	4.51T ext. ref 2 (°C)	26.86length (m)	temperature (°C)	Stokes	anti-Stokes-747.200	-166.100	0.411	0.018
-746.185	-200.000	-0.008	0.422
-745.171	-174.993	-0.052	0.001
-744.156	800.000	-0.093	0.319
-743.142	82.437	-0.097	0.106
-742.127	162.776	-0.066	0.094
-741.112	-46.345	0.446	0.222
-740.098	197.722	0.129	0.200
-739.083	-12.935	-0.106	-0.070
-738.069	586.741	-0.042	0.105
-737.054	-43.728	-0.214	-0.109
-736.039	351.889	0.073	-0.147
-735.025	-110.206	0.231	0.049
-734.010	108.026	-0.064	0.078
-732.996	28.812	-0.260	0.222
-731.981	800.000	-0.099	-0.410
-730.966	256.464	0.131	-0.228
-729.952	126.775	-0.331	-0.424
-728.937	800.000	-0.054	-0.153
-727.923	-110.245	-0.497	0.105
-726.908	-130.280	-0.153	-0.021
-725.894	-127.104	-0.447	0.066
-724.879	15.003	-0.096	-0.076
-723.864	556.962	-0.122	-0.298
-722.850	646.513	0.125	-0.323
-721.835	-32.723	0.123	0.069
-720.821	247.320	-0.119	-0.203
-719.806	110.881	-0.171	-0.208
-718.791	-108.922	0.090	-0.019
-717.777	136.900	-0.051	-0.068
-716.762	800.000	0.098	-0.281
-715.748	83.012	-0.126	0.139
-714.733	-200.000	-0.017	-0.098
-713.718	-53.900	-0.349	0.161
-712.704	-56.098	0.201	-0.091
-711.689	-44.465	-0.029	0.015
-710.675	-168.614	0.399	-0.015
-709.660	4.067	0.271	-0.200
-708.645	-200.000	-0.030	-0.142
-707.631	-11.832	0.201	-0.133
-706.616	28.429	0.115	-0.098
-705.602	7.501	0.384	-0.290
-704.587	-3.901	0.164	-0.115
-703.572	-200.000	0.006	-0.198
-702.558	-200.000	-0.011	-0.302
-701.543	390.758	-0.032	-0.067
-700.529	-31.306	-0.268	0.152
-699.514	-143.555	0.120	-0.012
-698.499	-90.175	0.348	0.102
-697.485	-149.143	-0.282	-0.023
-696.470	-69.815	-0.317	0.122
-695.456	-200.000	0.080	-0.481
-694.441	-45.414	-0.138	-0.069
-693.426	-97.464	-0.097	-0.025
-692.412	-200.000	-0.013	-0.120
-691.397	-200.000	0.040	-0.297
-690.383	17.617	-0.187	0.150
-689.368	800.000	-0.063	-0.242
-688.354	8.700	0.032	0.024
-687.339	-29.308	-0.187	-0.108
-686.324	71.270	-0.085	-0.089
-685.310	800.000	0.098	0.302
-684.295	-177.240	-0.179	-0.004
-683.281	394.712	-0.093	0.196
-682.266	473.140	-0.101	-0.229
-681.251	-27.444	-0.268	-0.157
-680.237	52.559	0.170	0.164
-679.222	112.543	0.030	0.036
-678.208	25.895	0.146	-0.122
-677.193	-127.208	-0.284	-0.042
-676.178	-142.080	-0.277	-0.028
-675.164	-134.459	0.173	0.021
-674.149	209.747	0.143	-0.227
-673.135	134.512	0.129	-0.168
-672.120	-111.938	-0.086	0.018
-671.105	800.000	0.131	-0.411
-670.091	98.790	0.229	0.266
-669.076	-35.887	-0.243	-0.132
-668.062	260.135	0.165	-0.287
-667.047	-24.860	0.113	0.067
-666.032	-76.853	-0.296	-0.104
-665.018	-75.948	-0.154	0.055
-664.003	-62.662	0.051	-0.021
-662.989	350.606	0.135	0.268
-661.974	-52.427	-0.140	-0.065
-660.959	-200.000	0.005	0.441
-659.945	11.293	-0.087	-0.067
-658.930	-200.000	-0.032	0.200
-657.916	-115.496	0.063	-0.012
-656.901	24.679	0.029	0.024
-655.886	148.488	-0.166	-0.226
-654.872	106.071	-0.063	-0.075
-653.857	-139.694	0.261	-0.028
-652.843	800.000	0.095	-0.319
-651.828	-20.755	-0.170	-0.105
-650.814	-79.184	-0.096	-0.033
-649.799	113.856	0.093	-0.114
-648.784	-79.952	0.267	-0.090
-647.770	37.545	-0.334	-0.299
-646.755	-200.000	0.027	-0.324
-645.741	131.992	0.251	-0.326
-644.726	-31.095	-0.188	0.107
-643.711	95.334	0.175	0.200
-642.697	19.336	0.145	-0.117
-641.682	800.000	-0.082	0.285
-640.668	42.354	-0.116	0.106
-639.653	800.000	-0.023	0.071
-638.638	97.769	0.117	0.135
-637.624	187.156	-0.141	0.212
-636.609	252.058	-0.261	-0.448
-635.595	-84.842	-0.174	0.055
-634.580	-93.577	-0.294	-0.082
-633.565	271.773	-0.072	-0.128
-632.551	800.000	0.027	0.109
-631.536	26.381	0.244	-0.205
-630.522	14.290	0.099	0.077
-629.507	-45.716	0.435	-0.216
-628.492	-54.263	-0.183	-0.084
-627.478	56.698	0.185	0.181
-626.463	-185.527	-0.162	-0.002
-625.449	593.145	0.076	0.190
-624.434	310.755	-0.134	-0.252
-623.419	484.727	-0.117	-0.269
-622.405	-200.000	0.029	-0.231
-621.390	-60.129	-0.159	0.068
-620.376	-87.737	-0.260	-0.079
-619.361	800.000	-0.016	0.047
-618.346	-44.529	-0.098	0.050
-617.332	183.428	-0.149	-0.221
-616.317	49.824	-0.058	0.055
-615.303	74.785	0.174	-0.184
-614.288	-40.065	-0.063	-0.033
-613.273	100.383	0.108	0.126
-612.259	-200.000	0.008	0.131
-611.244	168.982	-0.135	-0.193
-610.230	-200.000	-0.016	-0.141
-609.215	-66.586	0.157	-0.063
-608.201	800.000	-0.085	-0.244
-607.186	214.697	-0.096	-0.153
-606.171	235.504	-0.181	0.301
-605.157	-59.660	0.137	0.059
-604.142	-200.000	0.020	-0.449
-603.128	-159.351	0.098	-0.006
-602.113	-136.673	0.270	-0.031
-601.098	800.000	0.013	0.053
-600.084	-16.240	0.066	-0.042
-599.069	800.000	0.063	0.277
-598.055	-144.304	-0.260	-0.024
-597.040	-200.000	0.027	-0.244
-596.025	-125.192	-0.132	0.020
-595.011	-200.000	-0.001	-0.191
-593.996	-109.660	-0.139	-0.030
-592.982	800.000	-0.112	-0.363
-591.967	77.555	-0.202	-0.217
-590.952	254.837	-0.126	0.217
-589.938	97.452	-0.082	0.094
-588.923	412.737	-0.141	-0.301
-587.909	800.000	0.031	0.109
-586.894	800.000	0.078	0.245
-585.879	290.190	-0.061	-0.111
-584.865	226.335	-0.154	0.250
-583.850	-131.622	0.032	0.004
-582.836	-200.000	0.016	-0.075
-581.821	234.372	0.072	0.119
-580.806	211.653	-0.149	-0.235
-579.792	19.067	-0.145	0.117
-578.777	21.712	0.047	-0.038
-577.763	-200.000	0.027	-0.265
-576.748	-103.513	0.035	-0.008
-575.733	35.223	-0.209	0.184
-574.719	-74.657	0.035	-0.013
-573.704	-54.280	0.200	-0.091
-572.690	-67.269	-0.168	0.067
-571.675	-200.000	-0.010	-0.102
-570.661	-96.751	-0.325	0.086
-569.646	-71.196	0.109	0.041
-568.631	-128.696	0.173	0.025
-567.617	-200.000	0.016	-0.284
-566.602	-124.547	-0.307	-0.048
-565.588	-200.000	-0.021	-0.239
-564.573	426.642	0.115	0.249
-563.558	93.460	-0.073	0.083
-562.544	116.954	-0.150	-0.185
-561.529	161.147	-0.022	0.031
-560.515	-32.635	-0.396	0.221
-559.500	312.461	0.029	0.054
-558.485	-200.000	-0.050	-0.308
-557.471	-173.359	-0.413	-0.013
-556.456	-200.000	0.017	-0.115
-555.442	160.578	0.115	0.161
-554.427	-31.367	0.288	0.162
-553.412	326.611	0.166	-0.320
-552.398	-130.053	-0.244	-0.033
-551.383	154.197	0.180	-0.248
-550.369	137.610	0.231	0.304
-549.354	800.000	0.113	-0.319
-548.339	-105.499	0.075	0.017
-547.325	104.170	-0.093	-0.109
-546.310	-37.653	-0.138	0.074
-545.296	-115.954	-0.265	0.050
-544.281	-116.663	0.307	0.057
-543.266	92.202	-0.221	-0.249
-542.252	25.383	0.047	-0.039
-541.237	-200.000	-0.039	0.303
-540.223	69.186	0.165	-0.170
-539.208	26.969	0.145	0.122
-538.193	-200.000	0.025	-0.116
-537.179	383.869	-0.134	0.276
-536.164	-49.523	-0.248	-0.118
-535.150	-200.000	0.056	-0.284
-534.135	-61.266	-0.169	-0.071
-533.121	-135.879	-0.273	0.032
-532.106	-37.838	0.040	-0.021
-531.091	-69.752	0.198	0.076
-530.077	-200.000	0.345	-0.001
-529.062	6.901	0.097	-0.072
-528.048	-56.584	-0.243	0.108
-527.033	-106.666	0.346	-0.077
-526.018	84.077	-0.109	-0.119
-525.004	-61.205	0.187	-0.079
-523.989	294.152	-0.150	0.275
-522.975	747.853	-0.019	0.050
-521.960	-117.505	-0.421	0.076
-520.945	-150.286	0.115	-0.009
-519.931	-136.022	-0.083	0.010
-518.916	-94.388	0.176	-0.048
-517.902	10.272	-0.318	0.242
-516.887	-200.000	0.030	-0.347
-515.872	-200.000	0.019	-0.143
-514.858	-18.946	0.058	0.036
-513.843	11.729	0.232	-0.179
-512.829	389.366	-0.097	-0.202
-511.814	800.000	-0.086	-0.238
-510.799	345.392	-0.041	0.081
-509.785	-43.775	-0.241	-0.122
-508.770	-58.720	-0.090	0.039
-507.756	-178.149	-0.062	0.001
-506.741	-39.757	-0.018	-0.009
-505.726	82.385	-0.172	-0.187
-504.712	-126.409	0.302	0.045
-503.697	-147.515	-0.264	0.022
-502.683	-81.203	0.180	-0.060
-501.668	-55.386	-0.155	-0.070
-500.653	-60.973	-0.135	-0.057
-499.639	-200.000	0.054	-0.300
-498.624	-53.648	-0.079	-0.036
-497.610	-54.289	0.144	0.066
-496.595	-7.533	-0.087	0.059
-495.581	155.879	0.134	-0.185
-494.566	505.265	0.146	0.338
-493.551	-172.185	-0.434	0.014
-492.537	-113.325	0.176	0.035
-491.522	-200.000	0.021	-0.170
-490.508	5.697	-0.084	0.062
-489.493	8.741	0.038	-0.028
-488.478	-141.208	0.238	-0.024
-487.464	44.775	-0.228	0.210
-486.449	-200.000	-0.010	0.089
-485.435	-200.000	0.023	0.317
-484.420	58.323	-0.233	0.229
-483.405	-123.894	0.231	-0.036
-482.391	-97.093	0.212	0.055
-481.376	128.443	0.078	0.099
-480.362	-46.135	-0.247	-0.122
-479.347	126.187	-0.236	0.299
-478.332	-15.814	-0.374	0.239
-477.318	800.000	0.037	0.105
-476.303	18.324	0.203	-0.162
-475.289	-200.000	0.004	0.060
-474.274	123.701	0.140	-0.176
-473.259	101.892	0.188	0.219
-472.245	800.000	0.005	0.021
-471.230	-119.944	0.217	-0.037
-470.216	-20.988	-0.063	-0.039
-469.201	-200.000	0.039	0.213
-468.186	10.751	-0.075	0.057
-467.172	98.212	-0.147	-0.170
-466.157	-41.538	-0.141	0.072
-465.143	74.193	-0.209	0.219
-464.128	3.606	0.089	-0.065
-463.113	-140.196	0.017	-0.002
-462.099	149.144	-0.265	-0.359
-461.084	-200.000	-0.022	-0.297
-460.070	698.282	-0.094	-0.248
-459.055	-5.868	0.301	0.206
-458.040	15.704	0.085	-0.067
-457.026	-12.023	-0.129	0.085
-456.011	-200.000	-0.002	0.050
-454.997	206.399	0.248	0.386
-453.982	-200.000	-0.016	-0.110
-452.968	-60.148	-0.161	0.069
-451.953	800.000	-0.040	-0.112
-450.938	800.000	0.016	-0.049
-449.924	-176.914	-0.340	-0.009
-448.909	-108.749	-0.360	0.077
-447.895	-11.878	-0.115	-0.075
-446.880	37.286	0.170	0.151
-445.865	2.213	0.196	0.142
-444.851	-81.318	-0.303	-0.100
-443.836	-173.916	0.339	0.010
-442.822	-200.000	-0.052	0.293
-441.807	651.400	0.037	-0.094
-440.792	-200.000	-0.013	-0.094
-439.778	-6.667	-0.122	-0.083
-438.763	-92.160	0.244	-0.069
-437.749	800.000	-0.062	0.248
-436.734	157.678	-0.084	-0.116
-435.719	-200.000	-0.001	-0.198
-434.705	218.308	-0.264	0.421
-433.690	0.098	0.261	0.186
-432.676	-45.984	-0.044	-0.022
-431.661	194.705	-0.264	-0.400
-430.646	-168.049	-0.183	0.007
-429.632	172.304	0.050	-0.072
-428.617	-148.261	0.139	0.011
-427.603	800.000	-0.061	-0.174
-426.588	-79.095	-0.145	0.049
-425.573	-200.000	-0.003	-0.057
-424.559	138.837	0.273	-0.358
-423.544	-200.000	0.006	-0.169
-422.530	-200.000	0.003	0.110
-421.515	124.558	0.107	0.134
-420.500	542.672	-0.071	0.170
-419.486	-35.340	-0.225	-0.122
-418.471	419.363	0.085	0.182
-417.457	-109.973	-0.227	-0.048
-416.442	18.886	0.062	-0.049
-415.428	356.285	0.042	0.084
-414.413	-155.493	0.101	0.007
-413.398	-42.467	-0.186	0.095
-412.384	-175.395	-0.157	0.004
-411.369	-66.964	-0.203	-0.080
-410.355	606.647	0.188	0.467
-409.340	-55.269	-0.092	-0.041
-408.325	-148.362	-0.254	0.021
-407.311	-90.150	-0.237	-0.069
-406.296	-20.591	-0.133	-0.082
-405.282	137.088	0.269	-0.351
-404.267	800.000	0.045	-0.143
-403.252	-200.000	0.060	0.381
-402.238	-96.320	-0.244	-0.064
-401.223	-111.447	0.182	0.037
-400.209	45.792	0.432	-0.399
-399.194	-2.593	0.114	-0.079
-398.179	751.794	-0.010	-0.026
-397.165	-200.000	-0.006	0.194
-396.150	-200.000	-0.017	0.185
-395.136	288.183	-0.074	-0.133
-394.121	-53.749	0.116	-0.053
-393.106	-5.873	-0.178	0.121
-392.092	-54.529	-0.340	0.153
-391.077	-200.000	-0.018	-0.266
-390.063	-53.457	-0.386	-0.176
-389.048	470.752	0.111	0.250
-388.033	-163.816	0.194	0.009
-387.019	-96.477	0.150	0.040
-386.004	800.000	0.143	-0.491
-384.990	-122.769	-0.348	0.056
-383.975	800.000	0.057	0.204
-382.960	-171.624	0.376	0.012
-381.946	-200.000	-0.001	0.200
-380.931	18.058	0.043	0.035
-379.917	-155.981	-0.380	0.024
-378.902	168.306	0.188	0.266
-377.888	-84.053	0.077	-0.024
-376.873	19.802	-0.174	0.140
-375.858	-200.000	0.016	0.130
-374.844	308.592	-0.110	-0.205
-373.829	513.410	0.054	-0.126
-372.815	387.653	-0.094	0.193
-371.800	190.658	-0.127	0.191
-370.785	-107.778	-0.093	0.020
-369.771	20.742	0.244	-0.197
-368.756	-146.138	-0.270	0.024
-367.742	-83.921	-0.138	-0.044
-366.727	-11.937	0.213	-0.139
-365.712	800.000	0.098	-0.320
-364.698	45.800	-0.090	-0.083
-363.683	800.000	-0.110	0.307
-362.669	800.000	-0.066	-0.183
-361.654	777.103	0.074	-0.201
-360.639	118.205	0.159	-0.195
-359.625	-179.008	0.166	-0.004
-358.610	-73.797	-0.223	0.081
-357.596	53.145	-0.210	0.200
-356.581	800.000	-0.082	0.351
-355.566	-200.000	-0.002	0.318
-354.552	-200.000	-0.039	0.173
-353.537	-50.661	-0.332	0.156
-352.523	-130.907	0.340	0.045
-351.508	-33.918	-0.209	0.114
-350.493	-35.101	0.053	0.029
-349.479	-67.716	-0.060	-0.023
-348.464	-183.769	-0.398	0.007
-347.450	-45.054	0.133	0.066
-346.435	8.487	0.260	0.195
-345.420	-200.000	0.018	0.144
-344.406	69.085	-0.156	-0.159
-343.391	-73.716	-0.176	-0.064
-342.377	184.888	-0.111	0.164
-341.362	228.135	-0.205	0.332
-340.348	-200.000	0.003	-0.084
-339.333	36.247	-0.193	0.169
-338.318	800.000	0.049	0.187
-337.304	-108.214	0.131	-0.028
-336.289	44.339	0.204	0.187
-335.275	270.961	-0.025	-0.044
-334.260	428.176	0.137	0.294
-333.245	33.930	0.058	-0.050
-332.231	-32.922	-0.348	-0.192
-331.216	44.245	-0.057	-0.052
-330.202	-140.098	-0.126	-0.013
-329.187	-200.000	0.030	-0.178
-328.172	-200.000	-0.022	-0.206
-327.158	-195.022	0.252	0.002
-326.143	616.725	-0.053	0.131
-325.129	-96.838	-0.246	0.064
-324.114	348.635	0.083	0.163
-323.099	19.350	-0.324	-0.259
-322.085	153.060	0.136	0.185
-321.070	-64.188	-0.200	0.081
-320.056	-46.585	-0.190	0.093
-319.041	24.754	-0.224	-0.184
-318.026	27.716	0.192	0.161
-317.012	-45.853	0.262	-0.129
-315.997	-175.186	-0.468	-0.013
-314.983	-8.598	0.151	-0.101
-313.968	204.125	-0.062	-0.096
-312.953	-16.934	0.179	0.112
-311.939	-200.000	0.006	0.339
-310.924	166.383	0.118	0.167
-309.910	68.359	0.056	0.057
-308.895	-48.387	0.275	0.132
-307.880	-200.000	0.026	0.142
-306.866	-200.000	0.062	-0.347
-305.851	-11.967	-0.069	0.045
-304.837	-126.486	0.165	0.024
-303.822	-37.996	0.290	0.153
-302.807	48.592	-0.209	0.195
-301.793	-54.983	-0.202	-0.091
-300.778	-200.000	-0.000	0.286
-299.764	-109.479	0.251	-0.053
-298.749	287.345	0.160	-0.287
-297.735	324.669	-0.015	-0.029
-296.720	-200.000	-0.030	0.212
-295.705	-88.960	-0.344	-0.101
-294.691	800.000	0.147	-0.410
-293.676	-53.044	-0.352	0.161
-292.662	-11.968	0.207	-0.134
-291.647	-80.199	0.201	0.067
-290.632	-200.000	-0.004	-0.153
-289.618	34.320	0.115	-0.100
-288.603	-62.054	0.117	-0.048
-287.589	-200.000	-0.030	0.352
-286.574	-110.024	-0.026	0.005
-285.559	800.000	0.040	0.169
-284.545	6.715	-0.128	-0.094
-283.530	-157.772	0.176	-0.010
-282.516	130.780	-0.106	-0.135
-281.501	800.000	-0.039	0.116
-280.486	-22.850	0.182	-0.109
-279.472	733.828	0.074	-0.198
-278.457	408.404	0.064	-0.135
-277.443	-200.000	-0.025	0.110
-276.428	-200.000	0.006	-0.153
-275.413	93.012	-0.039	0.043
-274.399	23.217	0.269	-0.220
-273.384	81.877	0.229	-0.246
-272.370	800.000	0.093	-0.334
-271.355	29.265	0.318	0.268
-270.340	23.864	0.139	0.114
-269.326	61.306	-0.160	-0.158
-268.311	66.626	0.057	0.057
-267.297	-147.590	-0.250	0.021
-266.282	122.000	0.042	0.052
-265.267	4.482	0.174	-0.127
-264.253	800.000	-0.049	-0.152
-263.238	-112.776	-0.246	0.048
-262.224	-15.350	-0.128	-0.081
-261.209	-123.539	0.240	-0.038
-260.195	-76.751	-0.292	0.101
-259.180	97.012	-0.066	0.075
-258.165	-30.397	-0.248	-0.140
-257.151	63.626	0.250	0.249
-256.136	-60.778	0.179	0.075
-255.122	-170.767	-0.247	-0.008
-254.107	213.917	-0.110	-0.173
-253.092	11.490	0.114	0.087
-252.078	-121.595	-0.092	0.015
-251.063	9.298	-0.177	0.133
-250.049	-200.000	0.053	0.276
-249.034	-78.471	0.353	-0.120
-248.019	-104.394	0.345	0.079
-247.005	-127.781	0.226	0.032
-245.990	-75.618	-0.192	-0.068
-244.976	448.784	-0.095	-0.208
-243.961	-85.154	-0.319	-0.099
-242.946	-26.056	0.386	0.225
-241.932	15.501	0.114	0.089
-240.917	-15.911	0.107	-0.067
-239.903	50.532	-0.261	0.245
-238.888	-200.000	0.034	0.310
-237.873	-149.979	0.106	0.008
-236.859	-119.230	-0.234	0.040
-235.844	-153.279	0.238	0.016
-234.830	176.367	0.161	-0.232
-233.815	-81.615	0.335	-0.109
-232.800	536.134	-0.080	-0.188
-231.786	334.838	-0.074	-0.143
-230.771	-13.704	0.109	0.070
-229.757	-101.247	-0.127	0.031
-228.742	-33.174	-0.197	0.108
-227.727	-122.003	0.102	-0.017
-226.713	-200.000	0.239	-0.001
-225.698	125.456	0.223	0.279
-224.684	-200.000	-0.042	0.307
-223.669	-200.000	0.037	-0.175
-222.655	-172.326	-0.020	0.001
-221.640	-17.153	0.169	-0.106
-220.625	145.518	-0.091	-0.121
-219.611	17.208	-0.197	-0.155
-218.596	-108.363	0.233	-0.050
-217.582	192.797	-0.111	0.166
-216.567	-89.625	-0.257	0.075
-215.552	800.000	0.085	0.234
-214.538	-56.995	0.340	0.148
-213.523	-130.415	-0.278	0.037
-212.509	800.000	0.124	0.366
-211.494	800.000	0.042	0.166
-210.479	68.262	0.126	0.128
-209.465	62.066	0.295	0.291
-208.450	22.875	-0.046	-0.038
-207.436	675.014	0.155	-0.399
-206.421	138.927	0.250	0.325
-205.406	-14.576	0.245	-0.156
-204.392	85.935	0.078	0.085
-203.377	207.447	-0.206	0.318
-202.363	-95.842	0.045	0.012
-201.348	90.473	0.072	0.080
-200.333	212.215	-0.049	0.077
-199.319	-9.391	0.336	0.222
-198.304	652.019	-0.049	0.123
-197.290	-113.995	0.186	-0.036
-196.275	-200.000	0.024	-0.533
-195.260	-200.000	-0.014	0.124
-194.246	800.000	0.006	-0.019
-193.231	-91.173	-0.190	-0.054
-192.217	-200.000	0.022	-0.275
-191.202	-5.560	0.347	-0.236
-190.187	-157.676	-0.331	0.020
-189.173	483.730	0.098	-0.221
-188.158	-47.033	0.329	0.159
-187.144	-17.156	0.055	0.035
-186.129	137.665	0.203	-0.262
-185.114	47.545	0.209	0.193
-184.100	-60.779	0.039	0.016
-183.085	-200.000	0.038	0.194
-182.071	-20.728	-0.060	0.036
-181.056	-200.000	-0.005	0.341
-180.042	-99.519	0.502	0.125
-179.027	12.219	0.316	-0.240
-178.012	117.023	-0.126	-0.153
-176.998	624.610	0.061	0.151
-175.983	800.000	0.067	-0.206
-174.969	4.005	0.210	-0.152
-173.954	-154.994	0.303	0.020
-172.939	15.723	0.344	0.267
-171.925	-70.480	0.016	0.006
-170.910	800.000	-0.110	-0.301
-169.896	800.000	0.025	0.089
-168.881	-200.000	0.045	-0.331
-167.866	-9.760	0.139	-0.091
-166.852	311.629	-0.077	-0.143
-165.837	9.191	0.064	-0.048
-164.823	800.000	-0.088	-0.272
-163.808	-200.000	0.050	0.259
-162.793	-200.000	0.031	0.520
-161.779	800.000	-0.019	-0.056
-160.764	800.000	-0.031	0.131
-159.750	163.810	0.170	0.236
-158.735	136.434	0.124	0.159
-157.720	800.000	0.073	0.242
-156.706	-87.618	0.329	-0.098
-155.691	295.214	-0.101	0.182
-154.677	-45.944	0.080	0.039
-153.662	-155.495	-0.176	-0.011
-152.647	-200.000	0.003	-0.069
-151.633	-12.501	0.168	-0.108
-150.618	-98.704	-0.281	0.071
-149.604	-33.168	0.160	-0.088
-148.589	-20.181	-0.164	0.100
-147.574	676.039	-0.087	0.222
-146.560	-143.192	0.061	-0.006
-145.545	-71.377	-0.266	-0.098
-144.531	33.380	-0.282	-0.241
-143.516	169.031	0.235	0.331
-142.502	486.703	-0.101	0.227
-141.487	176.845	0.124	0.178
-140.472	-200.000	0.042	-0.226
-139.458	-43.709	0.263	0.131
-138.443	247.702	0.138	0.231
-137.429	-169.734	0.135	0.005
-136.414	411.933	-0.161	0.338
-135.399	-23.195	0.284	-0.169
-134.385	800.000	-0.145	-0.546
-133.370	461.392	-0.059	0.130
-132.356	800.000	0.102	-0.281
-131.341	600.043	0.106	-0.260
-130.326	-64.092	-0.278	-0.112
-129.312	112.584	-0.200	-0.239
-128.297	800.000	0.144	-0.399
-127.283	-200.000	0.005	-0.097
-126.268	131.156	-0.141	0.179
-125.253	63.371	0.095	-0.094
-124.239	338.459	-0.107	-0.206
-123.224	-40.276	0.280	0.144
-122.210	271.752	-0.057	0.099
-121.195	53.655	-0.109	-0.103
