DTS Sentinel unit serial number:	SN413079Multiplexer serial number:	ORYXHardware model number:	OX4-SRSoftware version number:	ORYX F/W v4.00 Oryx Data Collector v3.7.2.0data status	okinstallation	princeton_trtdifferential loss correction	single-endedforward channel	channel 1reverse channel	N/Adate	2019/09/18time	10:30:35forward acquisition time	60.00reverse acquisition time	0.00gamma	496.2192k internal	0.2328k external	0.2328temperature offset calibration	0.9973default loss term (dB/km)	0.3790temperature slope calibration	1.0000multiplexer offset coefficient	1.0000multiplexer slope coefficient	1.0000fibre end	0.00T internal ref (°C)	28.37T ext. ref 1 (°C)	0.34T ext. ref 2 (°C)	25.06length (m)	temperature (°C)	Stokes	anti-Stokes-747.200	-56.416	0.412	-0.184
-746.185	-200.000	-0.069	0.406
-745.171	-200.000	0.033	0.445
-744.156	-14.283	-0.134	0.087
-743.142	-99.365	-0.294	-0.075
-742.127	-34.470	-0.183	-0.101
-741.112	702.814	-0.049	-0.130
-740.098	452.659	-0.151	0.337
-739.083	29.503	0.303	0.260
-738.069	-108.179	0.507	0.110
-737.054	196.688	0.056	-0.086
-736.039	553.335	-0.174	-0.422
-735.025	800.000	-0.059	0.205
-734.010	-79.565	0.176	0.060
-732.996	-14.880	-0.126	-0.082
-731.981	741.553	0.028	0.077
-730.966	-45.402	-0.031	-0.015
-729.952	-120.990	-0.203	0.034
-728.937	23.578	-0.166	-0.137
-727.923	182.381	-0.068	0.100
-726.908	-200.000	0.003	-0.340
-725.894	-200.000	-0.001	0.087
-724.879	257.958	0.083	0.143
-723.864	-91.462	0.298	0.086
-722.850	402.361	-0.130	-0.275
-721.835	-8.157	-0.316	-0.214
-720.821	-75.702	-0.259	-0.093
-719.806	50.757	-0.192	0.183
-718.791	-200.000	-0.018	0.125
-717.777	1.409	0.041	0.030
-716.762	68.815	0.072	0.075
-715.748	40.350	-0.081	-0.073
-714.733	800.000	0.027	-0.093
-713.718	-200.000	-0.029	-0.209
-712.704	-69.380	-0.143	-0.055
-711.689	562.442	0.052	0.128
-710.675	30.251	-0.147	-0.126
-709.660	-108.847	-0.373	0.080
-708.645	-48.801	0.288	0.139
-707.631	-99.810	-0.104	0.026
-706.616	239.046	-0.101	0.168
-705.602	-194.801	-0.414	0.003
-704.587	-38.329	0.427	-0.227
-703.572	-200.000	0.012	-0.248
-702.558	-92.150	-0.304	0.086
-701.543	-54.557	-0.254	0.116
-700.529	-15.164	0.060	0.039
-699.514	-200.000	0.029	-0.244
-698.499	-142.601	-0.457	-0.045
-697.485	-17.914	-0.210	-0.133
-696.470	-85.359	-0.051	0.016
-695.456	56.815	-0.087	-0.086
-694.441	-200.000	0.007	-0.094
-693.426	-86.962	-0.253	-0.078
-692.412	57.557	-0.344	-0.338
-691.397	41.958	-0.228	0.208
-690.383	-159.140	-0.432	-0.025
-689.368	62.066	-0.090	0.090
-688.354	800.000	0.075	0.273
-687.339	125.537	-0.294	-0.373
-686.324	12.969	0.033	0.026
-685.310	175.297	-0.124	-0.181
-684.295	146.205	-0.156	0.211
-683.281	800.000	-0.025	0.092
-682.266	330.944	0.089	0.172
-681.251	-200.000	0.001	-0.148
-680.237	-9.051	-0.266	-0.179
-679.222	800.000	-0.027	-0.074
-678.208	-92.166	-0.119	-0.034
-677.193	682.364	-0.129	0.339
-676.178	189.265	0.033	-0.049
-675.164	-150.057	-0.133	0.010
-674.149	77.601	-0.008	-0.009
-673.135	-123.724	0.077	-0.012
-672.120	126.479	-0.187	0.238
-671.105	-50.603	0.136	-0.064
-670.091	58.759	0.125	-0.124
-669.076	-65.692	0.053	0.022
-668.062	-45.815	0.172	0.085
-667.047	105.744	-0.183	0.217
-666.032	88.350	-0.279	0.311
-665.018	-45.579	-0.208	0.103
-664.003	70.929	-0.153	-0.160
-662.989	-200.000	-0.030	0.147
-661.974	-200.000	0.023	-0.136
-660.959	88.208	0.188	0.210
-659.945	800.000	-0.002	0.010
-658.930	-200.000	-0.033	0.428
-657.916	-48.303	0.168	-0.082
-656.901	224.521	-0.159	-0.258
-655.886	67.577	0.281	0.288
-654.872	-200.000	0.008	-0.267
-653.857	-200.000	-0.039	-0.442
-652.843	46.404	-0.183	-0.171
-651.828	736.544	0.046	0.123
-650.814	-70.182	-0.302	0.115
-649.799	-63.881	-0.243	-0.100
-648.784	33.449	-0.176	-0.154
-647.770	61.838	-0.368	-0.368
-646.755	-60.561	0.078	-0.033
-645.741	-14.562	0.321	0.207
-644.726	3.414	-0.062	0.045
-643.711	163.359	-0.096	-0.136
-642.697	-163.005	0.202	-0.010
-641.682	-143.393	-0.300	-0.029
-640.668	206.898	0.016	-0.026
-639.653	-200.000	0.017	-0.105
-638.638	-93.465	-0.294	-0.082
-637.624	102.847	-0.295	-0.346
-636.609	706.418	-0.151	-0.400
-635.595	84.172	-0.052	0.057
-634.580	726.068	-0.172	0.460
-633.565	-200.000	0.020	0.520
-632.551	-48.039	0.283	-0.137
-631.536	-200.000	0.007	0.131
-630.522	-200.000	0.005	0.230
-629.507	-168.489	-0.248	0.010
-628.492	145.676	0.105	-0.141
-627.478	-127.594	-0.253	-0.037
-626.463	-164.465	0.134	-0.006
-625.449	-115.500	0.052	0.010
-624.434	99.952	-0.171	-0.199
-623.419	359.815	0.125	-0.251
-622.405	-101.481	-0.060	-0.015
-621.390	663.680	-0.097	-0.252
-620.376	-50.440	0.093	-0.044
-619.361	-138.091	0.179	-0.020
-618.346	166.909	-0.100	-0.142
-617.332	71.973	0.125	0.130
-616.317	614.407	-0.032	-0.081
-615.303	267.931	0.053	-0.094
-614.288	800.000	0.100	0.439
-613.273	-14.550	0.303	0.195
-612.259	-180.554	0.303	-0.006
-611.244	68.398	-0.086	-0.088
-610.230	761.832	0.046	-0.125
-609.215	-111.490	-0.157	0.032
-608.201	-82.220	0.387	0.126
-607.186	-90.241	-0.083	0.024
-606.171	125.710	-0.138	0.175
-605.157	-140.044	0.314	0.033
-604.142	33.946	0.133	0.116
-603.128	67.184	-0.266	0.272
-602.113	67.378	0.206	0.210
-601.098	-35.517	0.152	-0.083
-600.084	-88.771	-0.486	-0.145
-599.069	-189.483	0.344	-0.004
-598.055	-157.213	-0.242	-0.015
-597.040	-113.223	0.399	0.079
-596.025	-44.192	0.115	0.058
-595.011	-57.112	-0.166	0.073
-593.996	66.108	-0.151	-0.154
-592.982	-200.000	0.026	0.374
-591.967	-95.244	-0.273	-0.074
-590.952	9.786	-0.223	-0.170
-589.938	-157.772	-0.087	0.005
-588.923	56.111	-0.151	-0.147
-587.909	-57.906	-0.117	-0.051
-586.894	800.000	0.084	-0.246
-585.879	-131.512	-0.114	-0.015
-584.865	395.359	-0.068	0.142
-583.850	-150.432	-0.095	-0.007
-582.836	-200.000	0.054	-0.357
-581.821	270.260	0.009	-0.017
-580.806	-200.000	0.045	-0.279
-579.792	19.063	0.323	-0.259
-578.777	349.433	0.177	-0.350
-577.763	-57.098	0.067	-0.030
-576.748	-25.545	-0.234	0.138
-575.733	-87.221	-0.216	0.066
-574.719	289.085	-0.073	0.133
-573.704	48.199	0.426	0.399
-572.690	-61.076	-0.286	-0.121
-571.675	74.742	0.243	0.256
-570.661	-37.945	-0.070	-0.037
-569.646	-165.083	0.464	0.021
-568.631	-85.405	-0.241	-0.075
-567.617	202.071	0.315	0.486
-566.602	-124.507	0.410	-0.064
-565.588	-200.000	-0.061	-0.390
-564.573	-101.958	-0.220	0.053
-563.558	-200.000	0.017	0.146
-562.544	0.044	-0.321	0.229
-561.529	384.580	0.140	-0.288
-560.515	107.265	0.056	-0.066
-559.500	322.298	0.010	0.020
-558.485	-60.810	-0.028	-0.012
-557.471	702.392	-0.080	-0.211
-556.456	-61.531	-0.232	0.097
-555.442	-200.000	-0.030	0.213
-554.427	-66.910	-0.157	-0.062
-553.412	800.000	0.027	0.100
-552.398	-173.417	-0.422	-0.013
-551.383	-200.000	-0.012	0.061
-550.369	-200.000	0.026	-0.169
-549.354	86.949	-0.274	0.302
-548.339	13.527	0.065	-0.050
-547.325	800.000	0.078	-0.306
-546.310	98.926	0.327	-0.378
-545.296	-200.000	-0.055	0.000
-544.281	-200.000	-0.011	0.074
-543.266	-100.624	0.164	-0.040
-542.252	-200.000	-0.003	0.249
-541.237	-74.673	-0.286	0.103
-540.223	800.000	-0.076	0.225
-539.208	-102.340	-0.344	0.083
-538.193	571.363	-0.112	0.272
-537.179	240.733	0.061	-0.102
-536.164	282.988	-0.154	-0.276
-535.150	-176.746	-0.287	-0.007
-534.135	800.000	0.086	-0.339
-533.121	-200.000	0.005	0.039
-532.106	60.684	-0.080	-0.079
-531.091	-12.519	0.220	0.144
-530.077	26.354	0.253	0.211
-529.062	800.000	0.038	-0.157
-528.048	-9.102	0.094	0.063
-527.033	-155.013	0.161	-0.011
-526.018	123.655	-0.257	-0.322
-525.004	-6.047	-0.317	-0.216
-523.989	108.388	0.255	-0.304
-522.975	-116.816	-0.079	0.015
-521.960	211.519	-0.034	0.054
-520.945	331.154	0.106	-0.204
-519.931	-164.351	0.545	-0.025
-518.916	-24.673	0.145	-0.086
-517.902	26.163	-0.115	0.096
-516.887	658.719	-0.078	0.199
-515.872	199.620	0.230	-0.352
-514.858	-13.134	0.254	0.165
-513.843	337.166	-0.006	0.011
-512.829	-175.242	-0.285	0.008
-511.814	-58.659	-0.262	0.113
-510.799	-187.410	-0.109	0.001
-509.785	5.938	-0.198	-0.147
-508.770	-200.000	-0.030	0.206
-507.756	-62.490	-0.201	-0.083
-506.741	28.172	-0.091	0.077
-505.726	87.298	0.179	-0.197
-504.712	-92.891	-0.213	-0.059
-503.697	-72.517	-0.187	0.069
-502.683	-15.576	-0.149	-0.095
-501.668	231.913	0.170	-0.279
-500.653	-98.108	-0.210	-0.054
-499.639	800.000	-0.045	0.135
-498.624	187.224	-0.057	0.085
-497.610	591.215	-0.016	0.038
-496.595	-200.000	-0.017	-0.278
-495.581	258.272	-0.171	-0.293
-494.566	-103.299	0.066	-0.016
-493.551	473.793	0.094	-0.212
-492.537	7.385	0.153	-0.114
-491.522	179.577	0.067	-0.098
-490.508	-36.032	-0.042	0.023
-489.493	-0.171	0.156	0.110
-488.478	-200.000	-0.003	0.108
-487.464	18.110	0.094	0.074
-486.449	15.299	-0.030	0.024
-485.435	-122.351	0.154	0.025
-484.420	-20.743	-0.132	-0.081
-483.405	-143.541	0.579	0.055
-482.391	-91.268	0.119	-0.034
-481.376	99.221	-0.023	0.027
-480.362	-68.203	0.131	-0.051
-479.347	-95.886	0.073	0.019
-478.332	800.000	0.104	0.341
-477.318	-98.355	-0.165	-0.042
-476.303	-52.331	0.062	0.029
-475.289	-51.571	-0.155	0.072
-474.274	275.437	-0.143	0.252
-473.259	24.443	-0.077	0.064
-472.245	-15.990	0.156	0.099
-471.230	-200.000	0.051	-0.230
-470.216	304.043	0.098	-0.180
-469.201	58.747	0.142	0.139
-468.186	-200.000	-0.004	0.182
-467.172	38.921	-0.008	0.007
-466.157	-80.134	-0.182	-0.061
-465.143	-115.486	-0.135	0.025
-464.128	800.000	0.093	-0.268
-463.113	-162.207	0.369	-0.018
-462.099	-127.018	-0.243	-0.036
-461.084	369.487	0.098	0.198
-460.070	183.071	0.355	-0.522
-459.055	115.804	0.122	0.149
-458.040	169.906	-0.248	0.353
-457.026	800.000	0.046	-0.200
-456.011	-139.074	-0.159	-0.017
-454.997	23.043	-0.202	-0.165
-453.982	-119.991	0.428	-0.073
-452.968	-88.835	0.113	0.033
-451.953	117.000	0.061	-0.075
-450.938	179.734	0.173	-0.253
-449.924	232.433	0.137	0.224
-448.909	622.603	-0.058	0.144
-447.895	-129.004	-0.363	-0.051
-446.880	144.056	-0.066	0.088
-445.865	177.203	-0.070	-0.102
-444.851	-81.453	-0.180	0.059
-443.836	565.928	0.132	-0.319
-442.822	84.335	0.216	-0.235
-441.807	190.214	-0.100	-0.149
-440.792	-3.670	-0.091	-0.063
-439.778	101.527	-0.050	-0.058
-438.763	800.000	-0.055	-0.157
-437.749	332.885	-0.106	0.205
-436.734	-200.000	-0.015	-0.162
-435.719	-200.000	0.003	0.255
-434.705	-200.000	-0.041	0.314
-433.690	218.487	0.088	0.140
-432.676	800.000	-0.109	0.334
-431.661	-64.157	0.104	0.042
-430.646	-21.290	0.171	-0.104
-429.632	36.800	0.438	0.385
-428.617	306.241	0.034	0.062
-427.603	-90.794	-0.215	0.062
-426.588	-100.745	0.253	0.062
-425.573	-200.000	-0.042	0.464
-424.559	170.911	0.143	0.204
-423.544	-129.736	0.153	0.021
-422.530	-200.000	0.038	0.239
-421.515	79.605	-0.192	-0.205
-420.500	-114.337	-0.092	0.018
-419.486	-172.801	-0.387	0.012
-418.471	-200.000	0.023	-0.193
-417.457	12.490	-0.142	-0.109
-416.442	-10.161	0.134	0.088
-415.428	-200.000	-0.005	0.238
-414.413	8.739	0.136	-0.102
-413.398	-116.404	-0.157	-0.029
-412.384	447.107	0.200	0.438
-411.369	-43.053	0.305	-0.154
-410.355	-15.759	0.054	-0.034
-409.340	800.000	0.086	-0.272
-408.325	-123.747	0.227	0.036
-407.311	800.000	0.030	-0.127
-406.296	-8.435	0.118	-0.079
-405.282	-200.000	-0.016	-0.163
-404.267	388.356	0.081	-0.166
-403.252	44.482	-0.193	0.176
-402.238	800.000	0.032	-0.135
-401.223	-200.000	-0.011	-0.262
-400.209	205.606	-0.219	0.338
-399.194	-200.000	0.031	0.363
-398.179	-200.000	0.041	0.190
-397.165	-63.913	-0.221	-0.090
-396.150	-175.198	0.108	-0.003
-395.136	92.275	-0.132	-0.148
-394.121	408.728	-0.017	-0.035
-393.106	-86.141	-0.281	-0.086
-392.092	-200.000	0.007	0.081
-391.077	-62.417	-0.159	-0.066
-390.063	337.618	-0.097	-0.188
-389.048	-200.000	-0.018	-0.111
-388.033	-39.754	-0.202	0.105
-387.019	-107.858	-0.330	0.071
-386.004	-20.691	0.144	0.088
-384.990	-39.343	-0.336	0.175
-383.975	-25.631	0.136	-0.080
-382.960	-200.000	-0.023	-0.226
-381.946	96.741	0.135	-0.153
-380.931	59.031	-0.046	-0.045
-379.917	-23.597	-0.075	0.045
-378.902	31.162	0.101	0.086
-377.888	607.803	-0.060	-0.149
-376.873	196.177	-0.156	0.236
-375.858	720.901	0.108	0.284
-374.844	-200.000	0.005	-0.161
-373.829	122.321	0.149	0.185
-372.815	-102.960	-0.151	0.035
-371.800	13.386	0.201	-0.155
-370.785	75.555	0.179	-0.188
-369.771	-200.000	-0.113	-0.499
-368.756	-36.670	-0.107	0.057
-367.742	-143.585	-0.226	-0.021
-366.727	100.279	-0.095	0.110
-365.712	43.867	0.175	-0.159
-364.698	76.432	-0.048	-0.051
-363.683	-49.202	0.226	-0.107
-362.669	-200.000	-0.031	0.335
-361.654	769.721	-0.039	-0.106
-360.639	-126.980	-0.077	-0.011
-359.625	92.287	-0.037	-0.042
-358.610	-126.690	0.254	0.037
-357.596	28.505	-0.182	0.153
-356.581	-168.653	0.220	0.008
-355.566	-138.328	0.233	-0.026
-354.552	-42.389	0.066	-0.034
-353.537	194.112	-0.099	0.149
-352.523	-58.010	-0.374	-0.162
-351.508	240.678	0.031	-0.051
-350.493	678.344	0.181	-0.467
-349.479	125.111	-0.084	0.104
-348.464	51.137	0.101	0.095
-347.450	-75.005	0.220	0.078
-346.435	35.608	0.165	0.144
-345.420	800.000	-0.086	0.301
-344.406	234.910	0.091	-0.149
-343.391	-200.000	0.022	-0.094
-342.377	24.317	-0.218	-0.178
-341.362	-200.000	0.041	0.247
-340.348	452.728	0.088	0.194
-339.333	-200.000	-0.009	0.545
-338.318	770.120	0.081	-0.220
-337.304	-124.042	-0.092	-0.014
-336.289	-30.405	0.028	-0.016
-335.275	-87.963	0.292	-0.087
-334.260	98.600	-0.285	-0.325
-333.245	438.906	-0.070	0.152
-332.231	191.110	-0.093	0.139
-331.216	-42.228	0.249	-0.126
-330.202	-200.000	0.003	-0.013
-329.187	-200.000	0.014	-0.186
-328.172	367.985	0.064	0.128
-327.158	-52.272	-0.209	0.096
-326.143	-83.325	0.202	-0.064
-325.129	30.975	-0.130	-0.110
-324.114	23.930	-0.081	0.066
-323.099	-200.000	0.043	-0.193
-322.085	-81.277	-0.304	-0.099
-321.070	35.952	0.256	-0.224
-320.056	301.305	-0.182	-0.333
-319.041	166.511	0.298	0.418
-318.026	438.768	0.124	0.268
-317.012	611.738	-0.030	0.074
-315.997	-200.000	0.000	0.107
-314.983	-86.193	-0.139	0.042
-313.968	128.120	0.074	-0.094
-312.953	478.299	-0.154	0.345
-311.939	-17.006	0.139	-0.087
-310.924	800.000	0.038	-0.161
-309.910	114.445	0.207	-0.250
-308.895	-9.031	0.133	0.088
-307.880	-200.000	-0.049	0.224
-306.866	137.933	0.035	-0.046
-305.851	387.492	0.088	0.181
-304.837	4.265	-0.239	-0.173
-303.822	-8.480	-0.181	-0.121
-302.807	299.688	-0.055	0.100
-301.793	-151.903	-0.170	0.012
-300.778	96.520	-0.210	-0.238
-299.764	-200.000	0.008	-0.065
-298.749	-87.034	-0.072	0.022
-297.735	-18.330	0.220	-0.136
-296.720	376.061	-0.131	0.264
-295.705	73.108	-0.130	0.134
-294.691	-70.452	0.093	-0.035
-293.676	712.938	-0.055	-0.143
-292.662	-96.877	-0.064	0.017
-291.647	-162.580	0.395	0.019
-290.632	-82.203	-0.134	0.043
-289.618	-200.000	0.011	0.104
-288.603	-200.000	0.021	-0.174
-287.589	-135.421	0.112	0.013
-286.574	-200.000	-0.025	0.156
-285.559	271.175	0.014	0.025
-284.545	-114.004	-0.077	0.015
-283.530	618.733	0.064	-0.159
-282.516	40.762	0.306	-0.273
-281.501	16.799	0.083	-0.065
-280.486	-176.357	-0.393	0.010
-279.472	-138.817	0.152	-0.016
-278.457	-33.680	-0.353	-0.193
-277.443	239.785	0.112	-0.184
-276.428	-200.000	0.018	-0.414
-275.413	-67.190	0.213	-0.083
-274.399	-79.640	0.343	-0.115
-273.384	-200.000	0.012	-0.268
-272.370	51.096	0.192	-0.180
-271.355	36.124	0.222	0.194
-270.340	173.993	0.066	0.094
-269.326	669.943	-0.060	-0.154
-268.311	-81.755	-0.573	-0.186
-267.297	143.272	0.142	-0.187
-266.282	262.321	0.083	-0.143
-265.267	-15.480	0.079	0.050
-264.253	110.551	-0.035	-0.042
-263.238	-92.077	-0.135	0.038
-262.224	800.000	0.049	-0.199
-261.209	-13.959	0.053	0.034
-260.195	800.000	-0.056	0.196
-259.180	-13.032	0.292	0.188
-258.165	96.398	-0.087	0.098
-257.151	-200.000	-0.051	-0.261
-256.136	-60.741	0.315	0.132
-255.122	-169.756	0.317	-0.011
-254.107	-200.000	-0.023	0.292
-253.092	44.032	0.067	-0.061
-252.078	461.279	0.057	-0.126
-251.063	65.891	0.245	-0.246
-250.049	-45.764	0.217	-0.106
-249.034	361.552	-0.102	0.201
-248.019	800.000	0.098	0.398
-247.005	167.255	-0.109	-0.153
-245.990	-71.254	-0.283	0.105
-244.976	-12.942	-0.063	0.041
-243.961	800.000	-0.088	0.263
-242.946	800.000	-0.072	0.245
-241.932	712.411	0.068	0.177
-240.917	800.000	0.075	-0.251
-239.903	3.075	0.239	-0.172
-238.888	-105.839	-0.104	0.023
-237.873	541.719	0.005	-0.012
-236.859	800.000	-0.127	-0.369
-235.844	-70.533	0.082	0.031
-234.830	434.050	-0.077	0.165
-233.815	-200.000	-0.045	-0.213
-232.800	-142.799	-0.079	-0.008
-231.786	230.517	0.157	0.254
-230.771	98.216	-0.106	0.120
-229.757	545.450	-0.086	-0.204
-228.742	211.830	-0.120	-0.187
-227.727	6.230	-0.162	0.118
-226.713	102.950	0.148	0.171
-225.698	-200.000	0.014	0.463
-224.684	113.939	-0.089	0.107
-223.669	-86.891	-0.319	0.096
-222.655	-200.000	-0.029	-0.227
-221.640	800.000	-0.040	-0.163
-220.625	215.148	-0.118	0.184
-219.611	-200.000	-0.045	0.247
-218.596	-155.441	0.237	0.015
-217.582	-200.000	-0.017	-0.196
-216.567	-200.000	-0.011	-0.181
-215.552	-200.000	0.014	-0.082
-214.538	-37.492	0.142	-0.075
-213.523	149.038	0.145	-0.194
-212.509	184.616	0.158	0.231
-211.494	-136.395	-0.247	-0.028
-210.479	316.451	0.130	0.243
-209.465	-200.000	-0.043	-0.217
-208.450	-94.142	0.166	-0.045
-207.436	460.360	0.053	0.116
-206.421	-200.000	-0.018	0.221
-205.406	-110.009	-0.257	-0.053
-204.392	-182.860	0.241	0.004
-203.377	-62.633	0.301	-0.123
-202.363	-5.622	0.093	-0.063
-201.348	-48.194	-0.097	0.046
-200.333	-47.464	-0.281	0.135
-199.319	-165.799	0.175	0.007
-198.304	-71.365	0.101	-0.037
-197.290	-200.000	-0.022	0.122
-196.275	533.729	0.040	0.093
-195.260	108.274	-0.342	0.403
-194.246	800.000	-0.100	0.413
-193.231	-200.000	-0.010	-0.303
-192.217	501.375	0.089	0.202
-191.202	498.665	0.262	-0.596
-190.187	260.896	-0.200	0.342
-189.173	57.735	-0.117	-0.113
-188.158	63.349	0.103	0.102
-187.144	-124.172	0.103	0.016
-186.129	112.597	-0.110	0.131
-185.114	77.357	-0.122	0.128
-184.100	-176.180	0.225	-0.006
-183.085	-77.024	0.158	-0.054
-182.071	-12.720	-0.203	0.130
-181.056	693.463	0.067	0.172
-180.042	800.000	0.057	0.222
-179.027	-200.000	-0.000	0.228
-178.012	-165.069	0.149	0.007
-176.998	22.982	-0.166	-0.134
-175.983	603.878	0.059	-0.146
-174.969	12.487	-0.223	0.169
-173.954	476.484	-0.074	-0.166
-172.939	325.560	0.159	0.300
-171.925	13.156	0.297	-0.227
-170.910	188.521	-0.165	0.243
-169.896	800.000	-0.031	-0.092
-168.881	15.079	-0.302	0.233
-167.866	745.105	-0.123	0.325
-166.852	-51.768	0.196	0.090
-165.837	-200.000	0.020	-0.210
-164.823	277.871	-0.137	0.239
-163.808	-99.823	-0.271	0.067
-162.793	-24.799	-0.056	-0.033
-161.779	-7.244	-0.094	0.063
-160.764	800.000	-0.003	-0.009
-159.750	-65.489	-0.212	-0.084
-158.735	327.198	0.049	0.092
-157.720	-105.490	0.186	-0.042
-156.706	-12.814	-0.348	0.223
-155.691	-27.556	0.063	0.036
-154.677	-60.645	0.237	0.099
-153.662	800.000	0.041	-0.156
-152.647	47.410	0.115	0.105
-151.633	-200.000	0.029	0.152
-150.618	-3.118	0.120	0.082
-149.604	147.825	-0.084	-0.111
-148.589	-51.293	-0.106	0.049
-147.574	-200.000	0.033	0.193
-146.560	65.373	0.170	-0.169
-145.545	85.906	0.129	0.140
-144.531	-41.159	0.115	0.058
-143.516	45.865	0.144	0.131
-142.502	-200.000	-0.002	0.021
-141.487	800.000	-0.027	0.094
-140.472	-178.602	-0.033	-0.001
-139.458	800.000	0.105	-0.347
-138.443	-200.000	-0.152	-0.001
-137.429	-200.000	-0.006	-0.064
-136.414	638.340	-0.119	-0.298
-135.399	-91.310	0.191	-0.054
-134.385	392.909	-0.034	-0.069
-133.370	-82.786	-0.219	0.070
-132.356	-129.961	0.133	-0.018
-131.341	-200.000	-0.053	0.251
-130.326	800.000	-0.121	0.382
-129.312	-146.706	0.051	-0.004
-128.297	-78.977	0.041	-0.014
-127.283	800.000	-0.100	-0.281
-126.268	661.618	0.144	-0.366
-125.253	118.924	-0.177	-0.215
-124.239	-63.509	-0.139	0.056
-123.224	47.507	-0.011	-0.010
-122.210	-200.000	0.083	0.455
-121.195	800.000	-0.068	0.268
