DTS Sentinel unit serial number:	SN413079Multiplexer serial number:	ORYXHardware model number:	OX4-SRSoftware version number:	ORYX F/W v4.00 Oryx Data Collector v3.7.2.0data status	okinstallation	princeton_trtdifferential loss correction	single-endedforward channel	channel 1reverse channel	N/Adate	2019/09/12time	17:20:11forward acquisition time	60.00reverse acquisition time	0.00gamma	496.2192k internal	0.2315k external	0.2315temperature offset calibration	1.0103default loss term (dB/km)	0.3790temperature slope calibration	1.0000multiplexer offset coefficient	1.0000multiplexer slope coefficient	1.0000fibre end	0.00T internal ref (°C)	34.94T ext. ref 1 (°C)	2.88T ext. ref 2 (°C)	28.79length (m)	temperature (°C)	Stokes	anti-Stokes-747.200	-9.835	0.359	0.242
-746.185	222.894	0.068	0.111
-745.171	-100.037	0.129	0.033
-744.156	48.924	-0.077	0.073
-743.142	190.023	0.112	0.170
-742.127	324.137	-0.099	0.191
-741.112	-103.959	-0.409	-0.097
-740.098	-200.000	-0.015	0.185
-739.083	800.000	0.082	0.286
-738.069	800.000	-0.077	0.240
-737.054	402.579	-0.028	0.061
-736.039	122.905	-0.068	0.086
-735.025	-115.776	0.101	-0.019
-734.010	75.689	-0.187	-0.200
-732.996	-22.550	-0.492	-0.301
-731.981	276.972	0.067	-0.121
-730.966	-200.000	0.021	0.131
-729.952	-115.746	-0.094	-0.018
-728.937	-101.506	0.245	0.060
-727.923	800.000	-0.057	-0.227
-726.908	-88.152	-0.181	-0.055
-725.894	-48.361	0.237	0.116
-724.879	-184.967	0.339	-0.005
-723.864	-104.518	-0.230	0.054
-722.850	9.696	-0.327	0.251
-721.835	-92.977	0.115	0.032
-720.821	-158.132	-0.244	0.014
-719.806	-200.000	0.011	-0.138
-718.791	151.090	-0.068	0.093
-717.777	281.662	0.181	-0.328
-716.762	22.385	-0.148	0.122
-715.748	131.303	-0.134	-0.174
-714.733	474.510	0.071	-0.162
-713.718	-200.000	-0.015	-0.181
-712.704	-94.398	-0.203	-0.056
-711.689	0.464	-0.046	0.033
-710.675	-62.655	-0.088	0.037
-709.660	-43.115	-0.230	-0.118
-708.645	-99.604	0.153	-0.039
-707.631	-133.699	0.232	0.029
-706.616	-83.890	-0.369	0.119
-705.602	132.911	0.031	-0.040
-704.587	-43.321	0.177	-0.091
-703.572	30.909	0.081	-0.071
-702.558	-3.288	0.125	0.088
-701.543	-181.085	0.288	0.006
-700.529	800.000	0.069	-0.234
-699.514	-25.097	-0.259	0.155
-698.499	214.736	-0.055	-0.088
-697.485	63.375	-0.030	0.030
-696.470	800.000	-0.066	0.248
-695.456	-200.000	-0.015	-0.214
-694.441	-97.855	0.142	0.037
-693.426	800.000	-0.058	0.243
-692.412	800.000	-0.045	-0.145
-691.397	-23.907	-0.132	0.080
-690.383	-5.467	-0.241	0.167
-689.368	-200.000	-0.008	0.099
-688.354	285.691	-0.119	0.216
-687.339	-200.000	-0.005	0.037
-686.324	-85.632	-0.219	0.069
-685.310	223.145	-0.110	0.179
-684.295	-200.000	0.008	0.087
-683.281	-57.815	-0.253	0.112
-682.266	-29.141	-0.344	-0.199
-681.251	67.739	0.085	-0.088
-680.237	35.148	-0.309	-0.274
-679.222	-86.094	-0.073	0.023
-678.208	-200.000	-0.018	-0.210
-677.193	-77.405	0.399	0.140
-676.178	-41.222	-0.162	0.085
-675.164	82.965	0.031	-0.035
-674.149	-56.605	0.152	0.068
-673.135	-195.791	0.436	0.003
-672.120	-200.000	-0.018	0.176
-671.105	31.449	0.231	0.200
-670.091	-200.000	0.028	0.170
-669.076	502.203	-0.127	-0.296
-668.062	301.056	0.205	-0.382
-667.047	800.000	0.071	-0.225
-666.032	-200.000	0.001	-0.075
-665.018	92.441	0.320	0.365
-664.003	-200.000	0.012	0.175
-662.989	125.020	0.227	-0.289
-661.974	800.000	-0.040	-0.126
-660.959	-200.000	-0.047	0.229
-659.945	-89.924	-0.232	0.069
-658.930	518.257	-0.197	0.465
-657.916	-200.000	0.081	-0.398
-656.901	-4.270	-0.250	-0.175
-655.886	614.464	0.138	0.349
-654.872	-200.000	-0.022	-0.104
-653.857	2.170	-0.074	-0.054
-652.843	-4.778	-0.429	-0.299
-651.828	59.580	0.152	0.151
-650.814	4.306	0.246	0.182
-649.799	-64.031	-0.225	0.093
-648.784	-18.064	0.210	-0.133
-647.770	-200.000	0.004	0.322
-646.755	800.000	0.045	-0.156
-645.741	-129.439	-0.027	0.004
-644.726	637.184	-0.077	0.197
-643.711	173.986	0.201	-0.293
-642.697	-52.610	0.264	-0.123
-641.682	293.015	0.030	0.055
-640.668	262.750	-0.115	0.202
-639.653	290.264	-0.025	0.046
-638.638	-0.409	-0.288	-0.207
-637.624	-36.651	0.304	0.165
-636.609	0.652	0.094	0.068
-635.595	-60.761	0.171	0.073
-634.580	800.000	-0.022	0.096
-633.565	178.717	-0.079	-0.116
-632.551	276.171	0.167	-0.300
-631.536	-137.015	0.062	-0.007
-630.522	-200.000	-0.010	0.108
-629.507	71.411	0.037	-0.039
-628.492	86.970	0.220	-0.246
-627.478	316.899	-0.116	-0.222
-626.463	105.436	0.205	0.244
-625.449	-12.812	0.239	0.157
-624.434	-32.068	-0.175	0.098
-623.419	-200.000	-0.007	-0.070
-622.405	-200.000	-0.007	-0.239
-621.390	267.355	0.154	0.272
-620.376	175.725	-0.156	0.228
-619.361	18.244	-0.489	0.394
-618.346	-19.776	-0.184	0.115
-617.332	90.244	0.147	-0.166
-616.317	-73.477	0.369	-0.136
-615.303	357.136	-0.054	0.108
-614.288	-116.970	0.402	-0.074
-613.273	91.505	0.221	-0.250
-612.259	-200.000	-0.013	-0.135
-611.244	-145.442	0.066	0.006
-610.230	-200.000	0.025	0.227
-609.215	-66.256	-0.257	0.103
-608.201	800.000	-0.050	-0.166
-607.186	-172.642	-0.298	0.009
-606.171	93.038	0.181	0.206
-605.157	178.661	0.058	-0.085
-604.142	-81.414	-0.055	0.018
-603.128	61.455	-0.140	0.140
-602.113	296.435	-0.089	-0.164
-601.098	-123.827	0.407	0.065
-600.084	800.000	-0.040	0.153
-599.069	-2.156	0.142	0.100
-598.055	105.702	0.059	-0.070
-597.040	53.362	-0.060	-0.058
-596.025	141.238	-0.054	-0.072
-595.011	263.160	0.025	0.044
-593.996	-101.414	0.121	0.030
-592.982	-200.000	-0.001	0.182
-591.967	-200.000	0.009	-0.085
-590.952	111.379	-0.168	0.204
-589.938	34.874	0.257	-0.226
-588.923	-51.704	-0.137	0.064
-587.909	35.665	-0.043	-0.038
-586.894	151.649	0.094	-0.130
-585.879	159.498	-0.184	0.258
-584.865	623.104	0.105	0.267
-583.850	-152.309	0.231	0.017
-582.836	-200.000	0.002	-0.102
-581.821	0.984	0.124	0.089
-580.806	-200.000	-0.013	-0.272
-579.792	-200.000	-0.021	0.096
-578.777	40.809	0.089	-0.081
-577.763	-78.558	-0.233	0.080
-576.748	-85.546	-0.120	0.038
-575.733	51.585	-0.137	-0.131
-574.719	-200.000	0.048	-0.245
-573.704	-78.394	0.147	0.051
-572.690	-200.000	-0.040	-0.303
-571.675	-200.000	0.019	-0.108
-570.661	192.647	-0.122	-0.185
-569.646	-58.382	0.331	-0.145
-568.631	104.714	0.183	-0.217
-567.617	90.474	0.135	-0.152
-566.602	2.531	0.066	-0.048
-565.588	-93.040	-0.283	0.079
-564.573	23.508	-0.177	-0.146
-563.558	-17.055	0.298	0.189
-562.544	800.000	0.090	0.329
-561.529	800.000	0.084	0.261
-560.515	-22.059	-0.136	0.083
-559.500	-200.000	0.009	-0.109
-558.485	-63.353	0.101	-0.042
-557.471	-200.000	0.057	0.276
-556.456	262.986	0.079	-0.137
-555.442	-44.706	0.157	-0.079
-554.427	-200.000	0.032	-0.304
-553.412	281.108	0.117	-0.210
-552.398	-180.853	0.076	-0.002
-551.383	12.809	0.146	0.113
-550.369	-71.034	-0.311	-0.118
-549.354	-126.004	0.161	-0.024
-548.339	-61.393	0.248	-0.105
-547.325	-99.966	0.191	0.048
-546.310	800.000	0.049	-0.147
-545.296	39.612	-0.165	0.149
-544.281	-108.740	-0.071	-0.015
-543.266	-33.684	0.149	0.083
-542.252	117.154	0.144	-0.178
-541.237	-136.391	-0.280	-0.033
-540.223	-200.000	-0.008	-0.252
-539.208	-13.519	0.164	-0.107
-538.193	13.438	0.325	0.253
-537.179	234.092	0.173	0.286
-536.164	464.734	-0.069	-0.156
-535.150	519.450	-0.219	-0.516
-534.135	338.066	-0.078	0.152
-533.121	-93.279	-0.076	0.021
-532.106	237.319	0.084	0.140
-531.091	-200.000	-0.005	0.507
-530.077	631.448	-0.069	0.176
-529.062	-200.000	0.007	-0.199
-528.048	-53.793	-0.310	-0.142
-527.033	13.902	0.049	0.038
-526.018	-21.040	0.262	0.161
-525.004	312.500	-0.098	0.184
-523.989	329.366	0.188	0.364
-522.975	-200.000	0.011	0.322
-521.960	-200.000	0.063	0.400
-520.945	-98.528	-0.277	-0.071
-519.931	95.865	0.245	0.281
-518.916	-155.427	-0.321	-0.021
-517.902	-6.151	0.411	-0.282
-516.887	-200.000	0.022	0.195
-515.872	225.451	0.137	-0.223
-514.858	-60.532	0.064	-0.027
-513.843	-32.635	0.217	-0.122
-512.829	-200.000	0.022	-0.250
-511.814	77.154	0.063	-0.068
-510.799	-200.000	0.141	0.000
-509.785	82.196	0.308	-0.336
-508.770	-25.132	-0.056	-0.034
-507.756	-200.000	-0.009	-0.136
-506.741	164.492	0.098	0.139
-505.726	-49.551	-0.331	0.159
-504.712	-81.204	0.230	0.076
-503.697	149.584	0.112	-0.152
-502.683	-147.684	-0.174	-0.015
-501.668	-36.937	-0.164	0.088
-500.653	800.000	0.083	0.359
-499.639	92.307	0.174	-0.197
-498.624	121.793	0.186	0.233
-497.610	18.477	-0.124	0.099
-496.595	261.155	0.101	-0.176
-495.581	-97.900	0.083	0.021
-494.566	365.649	-0.196	0.396
-493.551	370.267	-0.048	0.098
-492.537	-200.000	0.001	-0.099
-491.522	419.659	0.012	0.026
-490.508	-75.752	-0.108	0.038
-489.493	-94.155	-0.161	0.044
-488.478	264.684	0.107	-0.188
-487.464	469.672	-0.089	-0.200
-486.449	-184.106	0.118	0.002
-485.435	485.712	-0.075	-0.172
-484.420	141.539	0.124	0.165
-483.405	397.710	0.189	-0.397
-482.391	-92.263	0.313	-0.088
-481.376	800.000	-0.039	-0.151
-480.362	13.776	0.101	0.079
-479.347	-200.000	-0.027	-0.228
-478.332	71.140	0.171	-0.178
-477.318	730.923	0.123	0.330
-476.303	685.765	-0.080	0.210
-475.289	-43.218	0.080	0.041
-474.274	-27.291	0.470	0.275
-473.259	-200.000	0.028	0.204
-472.245	7.056	0.202	-0.151
-471.230	-86.491	-0.314	0.097
-470.216	-92.770	-0.077	-0.022
-469.201	142.250	0.112	-0.149
-468.186	-200.000	-0.028	-0.162
-467.172	-200.000	0.003	0.509
-466.157	-1.782	0.248	0.175
-465.143	-78.476	-0.085	0.029
-464.128	-200.000	0.024	0.352
-463.113	793.558	0.037	0.101
-462.099	368.117	-0.158	0.320
-461.084	106.726	-0.239	-0.284
-460.070	-200.000	-0.039	-0.396
-459.055	182.762	0.042	0.063
-458.040	17.690	-0.345	0.275
-457.026	-200.000	-0.033	-0.247
-456.011	84.338	0.302	-0.331
-454.997	2.431	-0.083	0.060
-453.982	-200.000	-0.028	-0.134
-452.968	-34.195	-0.197	0.108
-451.953	-38.426	-0.303	-0.161
-450.938	240.205	0.255	-0.427
-449.924	487.820	0.079	-0.180
-448.909	555.736	-0.054	-0.130
-447.895	219.081	-0.060	0.096
-446.880	-24.534	0.032	-0.019
-445.865	120.150	0.171	0.213
-444.851	800.000	0.086	0.376
-443.836	-68.803	0.076	0.029
-442.822	-200.000	0.010	0.115
-441.807	-57.311	0.195	-0.086
-440.792	-163.879	-0.290	0.014
-439.778	436.656	0.030	0.066
-438.763	-138.874	0.104	-0.011
-437.749	-109.159	-0.152	0.032
-436.734	-200.000	-0.003	0.223
-435.719	-123.083	-0.038	-0.006
-434.705	-100.268	0.131	0.033
-433.690	-36.416	-0.297	0.160
-432.676	42.374	0.177	0.161
-431.661	-78.111	-0.410	-0.141
-430.646	-101.016	-0.396	0.097
-429.632	-60.961	0.353	-0.149
-428.617	-92.895	0.220	-0.061
-427.603	-118.412	0.348	-0.062
-426.588	-112.415	-0.426	-0.085
-425.573	800.000	0.071	0.226
-424.559	140.791	-0.041	-0.054
-423.544	-67.092	0.275	-0.108
-422.530	800.000	0.158	0.517
-421.515	-200.000	-0.003	-0.042
-420.500	96.983	-0.033	0.038
-419.486	-122.938	-0.323	0.052
-418.471	-28.202	0.055	0.032
-417.457	-165.958	0.287	-0.012
-416.442	133.477	0.165	0.214
-415.428	-110.479	0.102	-0.021
-414.413	-115.350	-0.205	0.039
-413.398	-77.048	-0.182	-0.064
-412.384	57.910	-0.235	-0.230
-411.369	-200.000	0.058	0.304
-410.355	-200.000	0.028	0.225
-409.340	70.534	0.219	-0.227
-408.325	-200.000	0.019	-0.091
-407.311	-200.000	0.003	-0.210
-406.296	800.000	0.114	0.366
-405.282	14.100	0.215	0.167
-404.267	-72.779	0.047	0.017
-403.252	608.741	-0.066	-0.164
-402.238	-74.724	0.153	0.055
-401.223	-34.282	-0.274	-0.150
-400.209	800.000	0.079	-0.264
-399.194	-142.615	0.045	-0.004
-398.179	-200.000	0.023	0.175
-397.165	-37.078	0.152	-0.082
-396.150	-151.489	-0.361	-0.027
-395.136	-55.340	-0.294	0.132
-394.121	-106.041	-0.126	0.028
-393.106	11.864	-0.348	0.267
-392.092	100.669	0.122	0.142
-391.077	499.258	0.062	-0.142
-390.063	23.972	-0.066	-0.054
-389.048	47.002	0.089	0.083
-388.033	-119.715	-0.251	-0.043
-387.019	-123.262	0.055	-0.009
-386.004	44.953	0.116	-0.107
-384.990	-95.555	0.092	-0.025
-383.975	472.487	0.083	0.187
-382.960	-26.509	-0.157	-0.092
-381.946	800.000	0.051	-0.152
-380.931	-0.548	0.044	0.031
-379.917	-43.306	-0.065	0.033
-378.902	-96.526	0.144	-0.038
-377.888	1.425	-0.149	0.107
-376.873	610.133	-0.154	-0.385
-375.858	665.416	0.053	0.135
-374.844	-200.000	0.001	-0.215
-373.829	740.948	-0.021	0.057
-372.815	-130.731	0.145	0.019
-371.800	-113.001	-0.281	-0.055
-370.785	397.909	-0.134	0.280
-369.771	800.000	0.131	-0.416
-368.756	-54.713	-0.244	0.110
-367.742	438.270	-0.182	0.397
-366.727	-140.321	-0.213	-0.022
-365.712	140.242	0.063	0.083
-364.698	-85.622	-0.371	-0.115
-363.683	64.549	-0.050	0.050
-362.669	536.543	0.108	-0.257
-361.654	138.424	-0.113	0.148
-360.639	61.108	0.127	0.126
-359.625	-157.516	-0.420	-0.025
-358.610	52.394	0.301	-0.287
-357.596	402.664	-0.091	-0.191
-356.581	-200.000	-0.024	0.342
-355.566	-97.017	0.241	-0.063
-354.552	-107.420	-0.063	-0.014
-353.537	800.000	0.038	-0.122
-352.523	-200.000	-0.015	0.122
-351.508	-88.486	-0.157	-0.047
-350.493	-200.000	0.002	-0.079
-349.479	8.824	-0.164	-0.123
-348.464	-200.000	-0.011	0.309
-347.450	-200.000	0.020	-0.171
-346.435	621.341	-0.061	-0.154
-345.420	-21.055	0.198	0.121
-344.406	-137.502	-0.270	-0.030
-343.391	-56.857	0.065	0.029
-342.377	-70.740	-0.315	0.119
-341.362	490.051	0.047	-0.108
-340.348	5.061	0.094	-0.069
-339.333	-200.000	0.002	-0.318
-338.318	40.394	0.091	0.082
-337.304	36.954	0.106	-0.094
-336.289	800.000	0.110	0.347
-335.275	-200.000	-0.003	0.156
-334.260	-200.000	0.040	-0.176
-333.245	800.000	-0.030	-0.117
-332.231	-38.911	-0.281	-0.148
-331.216	-95.889	-0.221	-0.059
-330.202	308.608	0.098	0.183
-329.187	-200.000	-0.002	-0.190
-328.172	-8.572	0.073	0.049
-327.158	-200.000	-0.096	0.476
-326.143	-200.000	-0.021	0.157
-325.129	-41.302	-0.496	-0.255
-324.114	-200.000	-0.009	0.117
-323.099	137.102	0.175	0.228
-322.085	-29.798	-0.257	0.146
-321.070	524.214	-0.154	-0.362
-320.056	-92.218	0.277	0.078
-319.041	-45.973	-0.188	0.093
-318.026	-25.524	0.295	-0.174
-317.012	-67.354	-0.047	0.018
-315.997	-200.000	0.036	0.184
-314.983	-63.859	0.287	-0.117
-313.968	-200.000	0.009	-0.257
-312.953	292.876	0.092	0.167
-311.939	-61.318	-0.243	0.102
-310.924	-165.055	-0.210	0.009
-309.910	-138.610	0.098	-0.011
-308.895	675.056	0.156	-0.402
-307.880	-20.251	-0.079	0.049
-306.866	-147.897	0.262	0.022
-305.851	-94.104	-0.160	-0.044
-304.837	188.764	-0.107	-0.159
-303.822	115.775	0.037	-0.046
-302.807	481.100	0.017	0.037
-301.793	-200.000	0.001	0.054
-300.778	800.000	0.056	-0.219
-299.764	-45.931	0.366	0.180
-298.749	-200.000	0.025	-0.138
-297.735	-200.000	-0.011	-0.320
-296.720	-53.860	-0.127	-0.058
-295.705	-92.515	-0.031	-0.009
-294.691	-45.887	0.252	0.124
-293.676	141.883	-0.225	0.296
-292.662	-165.892	0.151	-0.006
-291.647	-47.645	-0.097	-0.047
-290.632	39.456	-0.163	0.146
-289.618	583.651	-0.136	0.332
-288.603	-62.996	-0.226	0.093
-287.589	800.000	-0.099	-0.277
-286.574	2.678	0.289	0.209
-285.559	-132.771	0.303	-0.039
-284.545	62.874	-0.265	-0.264
-283.530	-186.815	-0.430	0.006
-282.516	800.000	0.050	-0.191
-281.501	-3.360	0.233	-0.162
-280.486	-22.375	-0.130	0.079
-279.472	-152.079	-0.477	0.034
-278.457	23.201	-0.127	-0.104
-277.443	357.977	-0.103	0.204
-276.428	-200.000	-0.030	-0.223
-275.413	59.030	-0.036	0.035
-274.399	664.697	-0.122	0.312
-273.384	-198.711	-0.447	-0.002
-272.370	-63.586	-0.348	-0.142
-271.355	224.124	0.222	0.357
-270.340	28.164	-0.069	-0.058
-269.326	-200.000	-0.008	0.112
-268.311	-200.000	0.056	-0.363
-267.297	-200.000	0.005	-0.113
-266.282	66.624	-0.229	0.232
-265.267	-37.861	-0.160	0.084
-264.253	-200.000	-0.010	-0.084
-263.238	-68.757	-0.150	0.058
-262.224	-24.655	0.108	0.064
-261.209	147.007	-0.158	-0.211
-260.195	52.853	0.164	0.156
-259.180	800.000	-0.098	-0.292
-258.165	-200.000	0.038	0.304
-257.151	150.098	0.208	0.280
-256.136	249.201	-0.102	-0.172
-255.122	271.160	-0.162	-0.284
-254.107	-94.637	-0.118	-0.032
-253.092	-118.892	-0.277	-0.048
-252.078	-41.259	0.303	0.155
-251.063	-200.000	0.007	-0.120
-250.049	800.000	-0.061	0.260
-249.034	-46.472	-0.184	-0.090
-248.019	153.914	0.245	-0.333
-247.005	520.041	-0.020	0.047
-245.990	-25.542	0.095	0.056
-244.976	703.226	-0.038	0.099
-243.961	99.956	-0.358	0.413
-242.946	581.740	0.055	0.135
-241.932	-200.000	0.019	-0.249
-240.917	34.773	-0.147	0.128
-239.903	800.000	-0.065	0.269
-238.888	-200.000	-0.049	-0.296
-237.873	257.272	0.211	0.361
-236.859	90.174	-0.095	0.105
-235.844	592.508	0.064	0.157
-234.830	-200.000	0.006	-0.101
-233.815	10.982	0.161	-0.122
-232.800	-200.000	-0.010	0.247
-231.786	-200.000	0.051	-0.384
-230.771	-200.000	0.017	-0.217
-229.757	234.133	0.058	-0.094
-228.742	-54.237	0.088	-0.040
-227.727	-104.442	0.119	0.027
-226.713	421.251	-0.009	-0.020
-225.698	70.411	-0.074	0.076
-224.684	-107.350	-0.230	-0.050
-223.669	-7.843	0.095	0.063
-222.655	800.000	-0.047	0.129
-221.640	-181.908	-0.381	-0.007
-220.625	-200.000	-0.057	-0.348
-219.611	-200.000	0.029	-0.209
-218.596	201.563	0.069	-0.105
-217.582	514.810	0.071	-0.164
-216.567	-107.750	0.131	-0.028
-215.552	-61.103	-0.156	-0.065
-214.538	-146.437	-0.359	0.031
-213.523	-200.000	-0.020	0.222
-212.509	800.000	-0.122	0.385
-211.494	130.187	0.053	0.067
-210.479	785.495	0.074	-0.202
-209.465	638.271	-0.108	0.271
-208.450	14.238	0.154	-0.119
-207.436	-200.000	0.066	0.544
-206.421	-31.133	0.224	0.125
-205.406	-124.757	0.231	-0.035
-204.392	131.210	-0.026	-0.033
-203.377	-200.000	-0.014	0.149
-202.363	12.910	0.189	-0.145
-201.348	717.131	-0.027	-0.072
-200.333	-47.973	-0.292	-0.140
-199.319	-14.442	-0.132	0.084
-198.304	-69.084	0.130	-0.050
-197.290	-174.140	0.372	-0.011
-196.275	609.134	-0.045	-0.113
-195.260	-90.182	0.240	-0.069
-194.246	156.222	0.145	0.199
-193.231	-4.680	0.114	-0.078
-192.217	-95.678	0.163	-0.043
-191.202	82.646	-0.227	-0.244
-190.187	-75.520	-0.158	0.056
-189.173	-200.000	-0.019	-0.291
-188.158	-29.744	0.221	-0.125
-187.144	-200.000	-0.003	-0.146
-186.129	-200.000	-0.022	-0.253
-185.114	33.676	0.264	-0.228
-184.100	66.555	-0.205	-0.207
-183.085	-91.912	-0.446	0.125
-182.071	80.609	-0.102	0.109
-181.056	41.054	-0.244	-0.218
-180.042	800.000	0.101	-0.377
-179.027	181.274	-0.066	0.097
-178.012	800.000	0.166	-0.504
-176.998	-192.581	0.122	0.001
-175.983	-132.622	-0.334	-0.042
-174.969	-96.707	0.295	0.077
-173.954	25.014	0.138	0.114
-172.939	145.613	0.139	-0.184
-171.925	-13.941	-0.290	-0.185
-170.910	25.168	0.159	0.131
-169.896	-116.883	-0.022	-0.004
-168.881	-200.000	-0.006	-0.061
-167.866	800.000	-0.079	-0.272
-166.852	-56.949	-0.172	0.075
-165.837	14.361	0.024	0.019
-164.823	-97.901	0.226	0.058
-163.808	-61.009	-0.282	-0.118
-162.793	154.451	-0.174	0.236
-161.779	-200.000	0.044	0.259
-160.764	-117.875	0.149	0.027
-159.750	7.104	-0.140	0.103
-158.735	-138.114	0.109	0.012
-157.720	310.226	0.099	-0.184
-156.706	65.262	-0.021	0.021
-155.691	359.540	0.172	0.340
-154.677	-200.000	0.014	-0.082
-153.662	-120.329	-0.205	0.035
-152.647	-133.316	-0.211	0.026
-151.633	485.294	0.084	-0.189
-150.618	45.536	0.028	-0.026
-149.604	-200.000	0.089	-0.406
-148.589	54.395	-0.301	-0.287
-147.574	165.212	-0.134	0.188
-146.560	-200.000	0.008	-0.316
-145.545	-121.796	-0.129	0.021
-144.531	-200.000	-0.005	-0.163
-143.516	-42.124	0.115	0.058
-142.502	-158.312	0.166	-0.010
-141.487	-159.223	-0.190	0.011
-140.472	-7.708	-0.246	0.164
-139.458	50.448	-0.037	0.035
-138.443	73.224	0.303	-0.314
-137.429	-99.382	-0.028	-0.007
-136.414	-40.224	-0.131	0.067
-135.399	228.729	0.113	0.182
-134.385	55.144	0.226	0.216
-133.370	12.952	-0.140	-0.107
-132.356	800.000	0.054	-0.214
-131.341	600.417	-0.033	0.080
-130.326	85.522	-0.204	0.221
-129.312	-88.200	-0.078	0.023
-128.297	800.000	0.039	-0.145
-127.283	-111.561	0.110	-0.022
-126.268	-120.936	0.180	-0.030
-125.253	-200.000	-0.345	-0.001
-124.239	761.815	0.061	0.164
-123.224	30.810	-0.107	-0.091
-122.210	-49.121	0.234	-0.111
-121.195	211.434	0.208	-0.323
-120.180	-200.000	0.029	0.178
