DTS Sentinel unit serial number:	SN413079Multiplexer serial number:	ORYXHardware model number:	OX4-SRSoftware version number:	ORYX F/W v4.00 Oryx Data Collector v3.7.2.0data status	okinstallation	princeton_trtdifferential loss correction	single-endedforward channel	channel 1reverse channel	N/Adate	2019/09/17time	18:54:35forward acquisition time	60.00reverse acquisition time	0.00gamma	496.2192k internal	0.2293k external	0.2293temperature offset calibration	0.9969default loss term (dB/km)	0.3790temperature slope calibration	1.0000multiplexer offset coefficient	1.0000multiplexer slope coefficient	1.0000fibre end	0.00T internal ref (°C)	41.34T ext. ref 1 (°C)	0.28T ext. ref 2 (°C)	30.24length (m)	temperature (°C)	Stokes	anti-Stokes-747.200	-42.253	0.106	-0.056
-746.185	19.953	-0.290	-0.239
-745.171	-200.000	-0.023	0.125
-744.156	-200.000	-0.029	0.305
-743.142	-200.000	0.034	-0.283
-742.127	-61.050	-0.295	-0.127
-741.112	20.191	0.112	0.092
-740.098	-200.000	-0.016	-0.079
-739.083	43.759	0.103	0.097
-738.069	-200.000	-0.050	0.240
-737.054	-200.000	-0.008	-0.198
-736.039	-160.442	0.206	-0.011
-735.025	-59.263	-0.189	0.083
-734.010	-26.525	-0.160	0.096
-732.996	-184.737	-0.142	-0.002
-731.981	12.459	0.215	-0.169
-730.966	271.976	-0.123	-0.222
-729.952	59.252	0.283	-0.285
-728.937	800.000	-0.024	-0.068
-727.923	-200.000	0.016	-0.158
-726.908	292.514	-0.151	-0.282
-725.894	207.364	0.020	-0.032
-724.879	-200.000	-0.007	0.049
-723.864	-114.118	-0.335	-0.066
-722.850	-89.966	-0.237	-0.071
-721.835	122.445	0.096	0.123
-720.821	-136.506	-0.189	0.022
-719.806	800.000	-0.052	-0.153
-718.791	-200.000	0.008	-0.258
-717.777	-70.768	-0.054	0.021
-716.762	-46.038	-0.047	0.024
-715.748	800.000	0.075	0.263
-714.733	-6.808	-0.149	0.104
-713.718	408.849	0.046	-0.099
-712.704	-63.984	-0.022	0.009
-711.689	457.027	-0.134	-0.304
-710.675	-48.494	0.246	-0.121
-709.660	-60.904	0.062	-0.027
-708.645	-74.551	0.255	0.094
-707.631	-108.826	-0.164	0.036
-706.616	82.549	0.040	0.045
-705.602	-59.955	-0.158	-0.069
-704.587	444.997	-0.072	0.163
-703.572	-122.018	-0.225	-0.038
-702.558	86.730	0.192	-0.217
-701.543	61.080	0.077	-0.078
-700.529	-58.729	-0.128	0.057
-699.514	-74.070	0.213	-0.079
-698.499	-200.000	0.005	-0.080
-697.485	2.549	-0.117	0.086
-696.470	-47.151	-0.133	0.066
-695.456	-140.244	0.065	-0.007
-694.441	-200.000	-0.006	0.071
-693.426	138.846	-0.107	0.144
-692.412	800.000	-0.018	-0.070
-691.397	-81.778	-0.242	0.081
-690.383	17.708	0.081	-0.066
-689.368	31.756	0.045	-0.040
-688.354	-111.440	0.263	-0.055
-687.339	-100.651	-0.176	0.044
-686.324	-200.000	-0.081	0.362
-685.310	-24.439	-0.050	0.030
-684.295	-200.000	0.019	-0.378
-683.281	-23.494	0.064	0.039
-682.266	800.000	-0.085	0.285
-681.251	308.260	-0.019	0.037
-680.237	-43.402	-0.260	0.134
-679.222	-3.054	-0.098	0.070
-678.208	348.783	0.045	0.090
-677.193	181.627	0.221	0.332
-676.178	27.021	0.083	0.071
-675.164	800.000	-0.018	-0.067
-674.149	800.000	0.094	-0.352
-673.135	-180.113	-0.274	0.006
-672.120	-120.532	-0.094	-0.016
-671.105	447.782	0.050	-0.113
-670.091	159.796	-0.074	0.106
-669.076	-101.436	-0.182	-0.045
-668.062	-102.625	0.161	0.039
-667.047	-178.522	-0.100	0.002
-666.032	-63.797	-0.222	0.093
-665.018	-65.630	0.053	-0.022
-664.003	-72.967	0.424	-0.159
-662.989	454.169	-0.040	-0.091
-661.974	-98.915	-0.124	0.032
-660.959	268.122	0.199	0.355
-659.945	-23.466	0.084	-0.052
-658.930	102.817	-0.146	0.174
-657.916	800.000	0.079	0.337
-656.901	297.576	0.026	-0.049
-655.886	497.770	-0.024	0.056
-654.872	168.521	0.276	-0.401
-653.857	-200.000	0.061	-0.313
-652.843	-105.749	0.247	0.057
-651.828	-135.590	-0.360	-0.044
-650.814	-93.729	0.340	-0.095
-649.799	27.497	-0.030	-0.026
-648.784	-25.407	-0.072	-0.043
-647.770	141.136	0.085	0.114
-646.755	-200.000	0.021	0.173
-645.741	74.108	0.333	0.356
-644.726	-118.428	0.025	-0.004
-643.711	43.322	0.097	0.091
-642.697	-141.389	0.243	-0.025
-641.682	-200.000	-0.044	0.233
-640.668	-93.248	0.322	0.091
-639.653	78.791	0.066	-0.072
-638.638	-97.743	0.180	-0.048
-637.624	-68.933	-0.098	0.039
-636.609	733.741	-0.137	0.373
-635.595	-49.225	-0.029	-0.014
-634.580	208.378	0.108	0.172
-633.565	297.814	-0.101	0.189
-632.551	800.000	0.078	-0.262
-631.536	-62.720	0.302	0.128
-630.522	-200.000	0.018	0.096
-629.507	161.960	0.232	0.331
-628.492	6.281	-0.334	0.253
-627.478	-200.000	-0.046	-0.265
-626.463	-81.541	-0.141	-0.047
-625.449	128.861	0.132	0.171
-624.434	-120.600	-0.337	0.058
-623.419	-91.677	0.375	-0.109
-622.405	47.202	-0.103	-0.097
-621.390	-200.000	-0.024	-0.167
-620.376	-5.705	0.202	0.141
-619.361	-82.725	-0.297	-0.098
-618.346	243.020	0.125	0.213
-617.332	-52.201	0.333	0.157
-616.317	-77.287	0.142	0.050
-615.303	-200.000	0.031	0.193
-614.288	-2.496	0.323	-0.230
-613.273	-99.627	-0.256	0.066
-612.259	-200.000	0.027	-0.147
-611.244	-169.596	0.087	-0.003
-610.230	800.000	-0.054	-0.232
-609.215	800.000	-0.056	-0.191
-608.201	21.532	-0.093	-0.077
-607.186	-200.000	0.047	0.471
-606.171	-50.673	0.387	0.186
-605.157	74.300	-0.102	-0.109
-604.142	345.851	0.072	0.144
-603.128	66.360	-0.313	-0.324
-602.113	400.729	0.084	0.179
-601.098	240.880	-0.086	0.146
-600.084	-200.000	0.001	-0.110
-599.069	-200.000	0.024	0.245
-598.055	-46.585	-0.171	-0.085
-597.040	90.026	0.112	-0.127
-596.025	746.656	0.016	0.045
-595.011	-159.112	-0.306	0.018
-593.996	-53.182	0.093	-0.044
-592.982	-27.791	-0.224	0.132
-591.967	-146.412	-0.117	0.010
-590.952	-200.000	0.022	0.319
-589.938	-103.222	-0.465	-0.112
-588.923	2.659	0.169	-0.125
-587.909	-131.263	-0.270	-0.036
-586.894	-12.648	0.376	-0.250
-585.879	103.267	0.158	0.189
-584.865	94.289	0.163	-0.189
-583.850	122.440	-0.041	-0.052
-582.836	185.468	0.168	-0.253
-581.821	245.952	0.103	0.177
-580.806	190.766	-0.053	-0.080
-579.792	-51.386	-0.206	0.098
-578.777	-38.010	-0.125	0.068
-577.763	-200.000	0.023	-0.137
-576.748	-72.666	-0.111	0.041
-575.733	-200.000	0.041	0.200
-574.719	-200.000	0.020	0.124
-573.704	-200.000	-0.030	-0.146
-572.690	-84.010	-0.012	-0.004
-571.675	-46.623	-0.172	0.086
-570.661	-113.686	0.065	0.013
-569.646	190.062	0.148	-0.226
-568.631	154.021	-0.157	-0.218
-567.617	117.279	-0.096	0.120
-566.602	-132.941	-0.350	-0.045
-565.588	-90.871	0.139	0.041
-564.573	-134.223	-0.270	-0.034
-563.558	35.227	-0.481	0.428
-562.544	800.000	0.125	-0.418
-561.529	140.602	-0.216	-0.289
-560.515	-200.000	-0.064	-0.560
-559.500	99.573	-0.192	-0.226
-558.485	-100.126	-0.169	0.043
-557.471	69.771	-0.025	-0.027
-556.456	185.262	-0.183	0.276
-555.442	-106.311	-0.175	0.040
-554.427	-46.773	-0.266	0.132
-553.412	800.000	0.096	0.303
-552.398	-200.000	0.007	-0.147
-551.383	125.967	0.189	-0.243
-550.369	-159.641	0.292	-0.016
-549.354	-128.206	-0.329	0.048
-548.339	-107.776	0.367	0.081
-547.325	-40.311	0.192	0.102
-546.310	40.507	-0.108	0.098
-545.296	-107.300	0.122	-0.027
-544.281	-82.730	-0.106	-0.035
-543.266	-115.032	0.445	-0.086
-542.252	31.335	-0.139	-0.121
-541.237	-23.266	0.172	-0.105
-540.223	205.885	0.151	0.238
-539.208	-30.785	-0.159	0.091
-538.193	118.656	-0.133	-0.166
-537.179	-157.651	0.351	-0.021
-536.164	-5.602	0.165	-0.115
-535.150	-200.000	0.018	0.502
-534.135	-200.000	-0.015	0.279
-533.121	244.231	0.046	-0.079
-532.106	-200.000	-0.012	0.097
-531.091	800.000	0.069	0.224
-530.077	800.000	-0.172	0.565
-529.062	44.713	0.202	0.189
-528.048	332.843	-0.149	-0.293
-527.033	-108.576	-0.166	-0.036
-526.018	-6.351	0.091	0.063
-525.004	-104.036	0.197	0.047
-523.989	800.000	0.087	-0.284
-522.975	-200.000	-0.042	-0.403
-521.960	-91.590	-0.312	-0.090
-520.945	6.984	-0.081	0.061
-519.931	-88.418	-0.122	-0.037
-518.916	-114.264	0.221	0.043
-517.902	-200.000	0.028	0.206
-516.887	10.750	-0.234	0.181
-515.872	616.547	0.099	0.252
-514.858	-200.000	0.009	0.177
-513.843	-200.000	-0.036	0.300
-512.829	63.534	0.177	0.180
-511.814	238.203	0.059	0.099
-510.799	43.214	-0.206	0.191
-509.785	-123.270	0.494	0.080
-508.770	-200.000	-0.012	-0.066
-507.756	-121.473	-0.220	0.037
-506.741	73.517	-0.135	-0.144
-505.726	398.423	-0.063	0.134
-504.712	-29.137	-0.380	0.221
-503.697	-122.198	-0.102	0.017
-502.683	-64.808	-0.081	0.033
-501.668	-62.785	0.143	0.060
-500.653	-200.000	0.010	-0.180
-499.639	-79.234	0.481	-0.165
-498.624	794.047	-0.130	0.362
-497.610	-158.952	-0.383	-0.022
-496.595	-32.607	0.184	-0.104
-495.581	800.000	-0.091	-0.344
-494.566	-138.722	-0.276	0.031
-493.551	-37.583	-0.395	0.213
-492.537	-76.458	-0.315	0.112
-491.522	-200.000	-0.006	-0.104
-490.508	-186.800	-0.532	0.008
-489.493	-94.603	0.354	-0.097
-488.478	-15.372	0.370	-0.239
-487.464	-141.990	-0.201	-0.020
-486.449	-72.866	-0.356	0.133
-485.435	-45.233	-0.129	0.065
-484.420	-200.000	-0.018	0.302
-483.405	19.927	0.204	-0.166
-482.391	-31.248	-0.258	-0.147
-481.376	145.362	0.164	0.223
-480.362	-6.770	-0.189	0.130
-479.347	83.703	-0.142	-0.157
-478.332	-200.000	-0.008	-0.136
-477.318	140.151	0.031	-0.041
-476.303	-8.128	-0.273	-0.186
-475.289	-66.922	0.135	-0.054
-474.274	-95.171	-0.278	-0.076
-473.259	-74.407	0.134	0.049
-472.245	-166.039	0.200	-0.009
-471.230	-27.602	0.120	-0.070
-470.216	16.945	-0.157	-0.126
-469.201	-200.000	-0.071	-0.319
-468.186	273.045	-0.101	-0.180
-467.172	-123.720	-0.266	-0.043
-466.157	28.550	0.010	0.009
-465.143	763.008	0.082	-0.225
-464.128	70.296	0.281	-0.294
-463.113	-47.419	-0.171	-0.084
-462.099	-101.074	0.114	-0.028
-461.084	10.030	-0.027	-0.021
-460.070	508.960	0.131	0.308
-459.055	800.000	0.077	0.272
-458.040	57.189	0.173	0.171
-457.026	-57.883	0.177	0.078
-456.011	50.683	-0.059	-0.057
-454.997	-200.000	0.031	0.181
-453.982	338.559	0.112	0.220
-452.968	172.511	0.088	-0.128
-451.953	-200.000	0.020	0.102
-450.938	-46.931	0.128	0.063
-449.924	19.366	0.159	-0.129
-448.909	366.451	0.052	0.106
-447.895	-124.892	-0.261	-0.041
-446.880	800.000	0.016	-0.067
-445.865	275.624	0.158	-0.284
-444.851	567.230	-0.095	-0.233
-443.836	-14.220	0.051	0.033
-442.822	-68.248	0.135	0.053
-441.807	-200.000	-0.022	-0.303
-440.792	88.351	-0.218	0.244
-439.778	-11.687	0.361	0.239
-438.763	-64.604	0.150	0.061
-437.749	204.567	0.073	0.115
-436.734	57.694	-0.345	-0.341
-435.719	-200.000	0.042	0.258
-434.705	-156.978	0.236	0.015
-433.690	6.820	-0.086	0.065
-432.676	-200.000	-0.052	-0.294
-431.661	-27.341	-0.288	0.169
-430.646	-64.321	0.299	-0.123
-429.632	800.000	-0.078	0.230
-428.617	351.120	-0.107	-0.215
-427.603	-136.501	0.348	0.041
-426.588	-110.965	-0.106	0.022
-425.573	-71.181	-0.133	-0.051
-424.559	800.000	0.031	-0.101
-423.544	599.242	-0.141	-0.353
-422.530	23.234	0.110	-0.091
-421.515	-200.000	0.010	0.059
-420.500	-68.497	-0.083	0.032
-419.486	139.814	0.157	0.209
-418.471	-68.517	0.172	-0.067
-417.457	208.131	-0.047	0.074
-416.442	-7.459	-0.336	-0.230
-415.428	9.608	-0.082	0.063
-414.413	-200.000	-0.035	0.200
-413.398	60.862	-0.146	0.147
-412.384	-200.000	-0.028	-0.172
-411.369	-152.460	-0.309	-0.022
-410.355	19.280	0.285	-0.231
-409.340	-110.726	-0.209	-0.044
-408.325	141.220	0.291	0.388
-407.311	-47.514	-0.352	0.173
-406.296	141.157	-0.184	-0.245
-405.282	53.975	0.064	-0.062
-404.267	-42.200	0.040	-0.021
-403.252	-200.000	-0.002	0.038
-402.238	580.444	-0.049	-0.121
-401.223	201.464	0.141	0.219
-400.209	-200.000	-0.043	-0.195
-399.194	79.128	0.117	-0.127
-398.179	100.605	-0.167	-0.196
-397.165	68.550	-0.231	0.239
-396.150	800.000	0.110	0.421
-395.136	-39.077	-0.126	-0.067
-394.121	-55.091	-0.152	0.069
-393.106	-97.304	-0.143	-0.038
-392.092	80.923	-0.304	0.331
-391.077	-200.000	0.009	-0.344
-390.063	-176.770	-0.095	0.002
-389.048	-36.785	0.332	0.180
-388.033	-172.028	0.320	0.010
-387.019	-3.945	-0.350	-0.245
-386.004	-39.291	-0.102	-0.054
-384.990	-125.454	-0.275	-0.042
-383.975	55.619	0.268	0.262
-382.960	-45.536	0.507	-0.253
-381.946	-200.000	0.033	-0.404
-380.931	333.997	-0.186	0.364
-379.917	56.375	-0.165	-0.161
-378.902	174.766	0.210	-0.307
-377.888	-200.000	0.015	-0.138
-376.873	-138.215	0.118	-0.013
-375.858	-61.670	-0.063	-0.027
-374.844	-80.061	0.289	0.098
-373.829	-137.464	-0.276	0.032
-372.815	800.000	0.074	-0.227
-371.800	-165.293	-0.467	-0.021
-370.785	171.700	-0.132	-0.190
-369.771	62.866	0.232	-0.234
-368.756	-10.444	-0.277	0.185
-367.742	-200.000	-0.000	0.340
-366.727	-200.000	0.026	-0.185
-365.712	-45.737	-0.249	0.124
-364.698	-200.000	0.062	-0.291
-363.683	-103.938	0.171	-0.040
-362.669	73.144	0.262	0.276
-361.654	-84.317	-0.147	-0.047
-360.639	-40.717	-0.091	-0.047
-359.625	800.000	-0.063	0.269
-358.610	25.647	-0.183	-0.154
-357.596	-122.183	0.052	0.009
-356.581	229.550	0.131	-0.215
-355.566	-200.000	0.015	-0.210
-354.552	800.000	-0.089	0.380
-353.537	-49.585	0.212	0.102
-352.523	-19.873	0.207	-0.129
-351.508	-200.000	0.013	-0.231
-350.493	-200.000	-0.001	-0.094
-349.479	691.928	-0.038	-0.102
-348.464	-37.194	-0.125	0.067
-347.450	-114.719	-0.081	-0.016
-346.435	90.700	0.055	0.062
-345.420	-114.476	0.259	0.050
-344.406	453.338	0.219	0.488
-343.391	-36.289	-0.289	0.157
-342.377	-200.000	-0.002	-0.197
-341.362	64.220	-0.226	0.229
-340.348	173.749	-0.097	0.142
-339.333	712.883	0.086	0.230
-338.318	636.832	0.038	0.096
-337.304	-67.437	0.222	-0.088
-336.289	34.303	0.121	0.106
-335.275	-85.716	-0.324	-0.101
-334.260	800.000	0.075	-0.314
-333.245	-200.000	0.012	0.247
-332.231	-200.000	0.041	-0.270
-331.216	167.216	0.114	0.163
-330.202	-93.155	0.254	-0.071
-329.187	-59.788	0.161	-0.069
-328.172	-200.000	-0.020	-0.147
-327.158	800.000	-0.010	0.043
-326.143	5.113	-0.124	0.092
-325.129	-40.994	0.184	0.096
-324.114	-200.000	-0.002	0.024
-323.099	-103.193	-0.205	0.049
-322.085	800.000	-0.024	-0.087
-321.070	800.000	0.016	0.053
-320.056	-135.699	0.143	0.017
-319.041	-69.024	-0.136	0.053
-318.026	-176.046	-0.241	-0.006
-317.012	-85.049	0.366	-0.115
-315.997	-119.256	-0.327	0.057
-314.983	-65.081	0.077	0.031
-313.968	48.238	-0.217	-0.205
-312.953	641.645	0.053	-0.137
-311.939	-118.005	0.218	-0.039
-310.924	34.521	-0.282	0.248
-309.910	-200.000	-0.006	-0.377
-308.895	-200.000	-0.006	-0.234
-307.880	86.628	0.070	0.078
-306.866	-52.670	-0.125	-0.058
-305.851	800.000	0.040	-0.166
-304.837	800.000	-0.093	0.321
-303.822	-160.059	0.374	0.020
-302.807	570.891	-0.028	0.070
-301.793	13.436	-0.154	-0.120
-300.778	396.375	0.146	-0.307
-299.764	91.633	-0.111	0.126
-298.749	29.984	-0.134	0.115
-297.735	-11.495	-0.208	0.137
-296.720	800.000	0.057	0.183
-295.705	116.045	0.162	0.199
-294.691	25.410	0.147	0.123
-293.676	-16.634	0.237	-0.151
-292.662	-200.000	0.025	0.265
-291.647	326.487	-0.072	0.139
-290.632	151.431	0.268	-0.366
-289.618	-200.000	-0.018	-0.212
-288.603	-49.338	0.087	0.042
-287.589	-200.000	0.022	-0.289
-286.574	67.298	0.140	0.143
-285.559	-85.863	-0.136	0.042
-284.545	-200.000	-0.000	-0.002
-283.530	-145.116	0.338	0.031
-282.516	-102.988	-0.114	-0.027
-281.501	-48.956	-0.286	-0.138
-280.486	426.946	-0.070	-0.152
-279.472	52.523	-0.128	-0.122
-278.457	-101.712	-0.212	-0.052
-277.443	-77.361	-0.149	0.052
-276.428	-200.000	0.012	-0.227
-275.413	247.888	-0.045	-0.077
-274.399	-200.000	-0.073	-0.347
-273.384	475.499	0.052	-0.117
-272.370	83.867	-0.069	0.076
-271.355	78.690	0.307	-0.330
-270.340	-64.445	-0.313	0.128
-269.326	117.988	0.137	0.169
-268.311	-7.932	-0.278	-0.189
-267.297	-200.000	-0.018	0.145
-266.282	109.473	0.142	0.171
-265.267	306.225	0.175	0.327
-264.253	-131.122	-0.360	-0.048
-263.238	47.417	0.062	0.058
-262.224	-49.234	0.201	0.096
-261.209	102.223	0.102	0.120
-260.195	-49.414	0.054	-0.026
-259.180	-200.000	0.024	0.343
-258.165	-200.000	-0.052	-0.312
-257.151	-200.000	0.029	-0.653
-256.136	110.653	0.258	0.312
-255.122	192.033	-0.131	-0.199
-254.107	25.351	-0.093	0.078
-253.092	94.863	-0.024	0.027
-252.078	21.698	0.025	0.020
-251.063	727.248	-0.034	-0.090
-250.049	-42.320	-0.192	-0.098
-249.034	209.265	-0.074	-0.117
-248.019	-120.021	-0.125	-0.021
-247.005	422.498	-0.161	-0.348
-245.990	800.000	-0.061	-0.188
-244.976	800.000	-0.051	-0.181
-243.961	-7.755	0.187	0.127
-242.946	116.188	0.163	0.200
-241.932	106.458	-0.144	0.171
-240.917	332.570	-0.071	-0.138
-239.903	-46.820	-0.593	-0.291
-238.888	469.825	-0.072	-0.163
-237.873	-157.465	0.314	-0.019
-236.859	66.105	0.159	-0.162
-235.844	-125.293	0.252	-0.039
-234.830	-200.000	0.030	-0.202
-233.815	-116.804	-0.343	-0.063
-232.800	800.000	0.113	-0.483
-231.786	191.989	0.165	0.250
-230.771	800.000	-0.015	0.052
-229.757	-34.500	-0.147	0.081
-228.742	-108.071	0.257	-0.056
-227.727	4.209	-0.133	-0.097
-226.713	234.799	0.078	0.128
-225.698	-200.000	-0.049	-0.444
-224.684	-139.550	-0.215	-0.023
-223.669	477.468	0.080	0.181
-222.655	-160.798	-0.230	-0.012
-221.640	240.686	-0.090	-0.151
-220.625	-108.912	0.184	0.039
-219.611	-34.905	0.183	0.100
-218.596	180.706	0.129	-0.190
-217.582	48.798	0.142	-0.133
-216.567	-25.046	0.216	0.129
-215.552	-200.000	-0.030	0.287
-214.538	-91.892	0.292	-0.083
-213.523	-200.000	0.013	-0.102
-212.509	-200.000	0.017	-0.209
-211.494	-136.693	0.129	0.015
-210.479	250.121	-0.094	0.160
-209.465	-58.549	-0.056	-0.024
-208.450	800.000	0.076	0.322
-207.436	-85.498	0.228	0.071
-206.421	139.121	0.159	0.209
-205.406	11.345	-0.175	0.135
-204.392	-146.103	0.079	-0.007
-203.377	107.335	0.163	0.194
-202.363	800.000	-0.046	-0.193
-201.348	368.698	0.157	-0.318
-200.333	-38.787	-0.256	-0.135
-199.319	-200.000	0.052	0.287
-198.304	398.831	0.132	0.276
-197.290	3.348	-0.185	0.135
-196.275	512.715	-0.100	0.233
-195.260	-200.000	0.073	0.420
-194.246	-200.000	-0.016	-0.083
-193.231	349.990	-0.100	0.198
-192.217	282.734	-0.088	-0.158
-191.202	-6.837	0.097	-0.066
-190.187	546.160	-0.071	0.169
-189.173	77.388	-0.147	-0.156
-188.158	-65.411	0.036	-0.015
-187.144	-200.000	-0.014	-0.185
-186.129	-107.547	-0.096	-0.021
-185.114	-43.239	0.373	-0.189
-184.100	-22.607	0.145	0.088
-183.085	228.806	0.169	0.275
-182.071	166.495	-0.164	0.232
-181.056	-122.089	-0.378	-0.062
-180.042	-200.000	0.003	-0.217
-179.027	121.771	0.118	-0.148
-178.012	-200.000	-0.071	-0.400
-176.998	103.509	-0.135	0.158
-175.983	-200.000	0.029	0.244
-174.969	10.649	0.235	-0.179
-173.954	91.743	-0.066	-0.075
-172.939	-2.402	-0.270	-0.189
-171.925	761.747	0.073	-0.199
-170.910	-76.440	0.153	-0.054
-169.896	-140.506	0.036	-0.004
-168.881	113.280	0.100	-0.121
-167.866	-128.637	0.070	-0.010
-166.852	-68.393	0.252	0.098
-165.837	40.137	0.301	0.270
-164.823	2.431	-0.139	-0.101
-163.808	-200.000	-0.037	0.166
-162.793	188.713	0.102	-0.153
-161.779	-20.178	-0.265	-0.163
-160.764	152.499	0.149	0.203
-159.750	-8.622	0.280	-0.188
-158.735	-36.022	0.208	-0.112
-157.720	-200.000	0.001	0.248
-156.706	-200.000	0.026	-0.138
-155.691	-62.260	0.058	0.024
-154.677	800.000	0.115	0.409
-153.662	800.000	0.083	0.284
-152.647	-13.752	0.240	-0.155
-151.633	-181.519	0.304	0.006
-150.618	800.000	0.106	0.390
-149.604	800.000	-0.066	-0.217
-148.589	-200.000	0.011	-0.279
-147.574	800.000	0.099	0.382
-146.560	-124.157	-0.129	0.020
-145.545	-73.921	-0.147	-0.053
-144.531	-39.314	0.271	-0.142
-143.516	16.807	0.109	0.087
-142.502	-122.902	-0.091	-0.015
-141.487	260.872	0.149	-0.258
-140.472	-59.004	-0.236	0.102
-139.458	800.000	-0.078	0.221
-138.443	-200.000	-0.000	0.004
-137.429	23.093	0.259	-0.212
-136.414	336.671	0.104	-0.201
-135.399	-73.365	-0.280	0.102
-134.385	800.000	-0.052	-0.171
-133.370	-96.418	0.230	-0.061
-132.356	-115.251	0.172	0.032
-131.341	-140.664	-0.128	0.013
-130.326	-49.321	0.278	0.133
-129.312	-61.891	0.089	0.037
-128.297	-7.755	-0.126	0.085
-127.283	-200.000	0.020	0.298
-126.268	42.134	0.199	-0.181
-125.253	349.847	-0.100	-0.197
-124.239	-50.759	-0.217	-0.102
-123.224	-200.000	-0.040	0.177
-122.210	620.361	-0.055	0.137
