DTS Sentinel unit serial number:	SN413079Multiplexer serial number:	ORYXHardware model number:	OX4-SRSoftware version number:	ORYX F/W v4.00 Oryx Data Collector v3.7.2.0data status	okinstallation	princeton_trtdifferential loss correction	single-endedforward channel	channel 1reverse channel	N/Adate	2019/09/16time	18:30:35forward acquisition time	60.00reverse acquisition time	0.00gamma	496.2192k internal	0.2306k external	0.2306temperature offset calibration	1.0007default loss term (dB/km)	0.3790temperature slope calibration	1.0000multiplexer offset coefficient	1.0000multiplexer slope coefficient	1.0000fibre end	0.00T internal ref (°C)	36.62T ext. ref 1 (°C)	18.77T ext. ref 2 (°C)	30.73length (m)	temperature (°C)	Stokes	anti-Stokes-747.200	499.150	0.049	0.114
-746.185	142.170	-0.274	0.370
-745.171	204.099	0.112	-0.176
-744.156	800.000	0.078	0.326
-743.142	35.225	0.180	-0.160
-742.127	-200.000	0.063	0.293
-741.112	800.000	0.060	0.218
-740.098	107.283	-0.135	0.163
-739.083	84.789	0.143	0.159
-738.069	56.225	-0.038	0.038
-737.054	-68.815	0.236	0.093
-736.039	-200.000	0.008	0.122
-735.025	49.113	0.223	0.213
-734.010	-123.562	-0.272	-0.044
-732.996	313.021	-0.156	0.298
-731.981	-63.900	0.151	0.063
-730.966	800.000	-0.085	0.348
-729.952	800.000	-0.087	-0.259
-728.937	24.488	0.039	-0.033
-727.923	360.050	-0.213	-0.434
-726.908	58.431	-0.118	-0.118
-725.894	-17.245	-0.276	0.177
-724.879	773.584	-0.079	-0.219
-723.864	-200.000	-0.024	-0.508
-722.850	-154.147	0.644	-0.044
-721.835	230.831	-0.064	0.106
-720.821	-200.000	0.038	0.198
-719.806	36.284	0.081	0.072
-718.791	-94.429	0.377	-0.104
-717.777	763.495	0.045	-0.123
-716.762	800.000	-0.037	-0.131
-715.748	800.000	-0.026	-0.107
-714.733	-122.384	0.297	0.049
-713.718	-22.236	-0.074	-0.046
-712.704	372.348	0.088	-0.181
-711.689	-12.599	-0.041	0.027
-710.675	-130.806	0.438	0.060
-709.660	-200.000	-0.007	0.164
-708.645	800.000	0.071	-0.242
-707.631	-200.000	0.037	-0.419
-706.616	-27.631	-0.205	-0.121
-705.602	-200.000	0.005	0.174
-704.587	504.313	-0.157	0.370
-703.572	-120.399	-0.125	0.022
-702.558	800.000	0.029	0.110
-701.543	182.187	-0.072	0.108
-700.529	157.642	-0.093	0.131
-699.514	-200.000	-0.063	-0.514
-698.499	372.545	0.039	-0.081
-697.485	62.305	0.045	-0.046
-696.470	461.988	-0.063	-0.142
-695.456	-136.749	-0.134	0.016
-694.441	48.960	0.222	0.211
-693.426	-1.448	-0.136	0.098
-692.412	-200.000	0.017	0.186
-691.397	800.000	-0.047	-0.160
-690.383	-74.928	-0.197	-0.072
-689.368	-21.532	0.137	0.085
-688.354	-200.000	0.002	0.204
-687.339	6.944	0.139	0.105
-686.324	-170.848	-0.256	0.009
-685.310	800.000	-0.084	0.277
-684.295	-34.359	-0.167	-0.093
-683.281	-45.747	-0.125	-0.063
-682.266	-131.635	-0.256	0.034
-681.251	-39.521	-0.129	0.069
-680.237	-200.000	0.019	-0.104
-679.222	-31.060	0.163	-0.093
-678.208	-37.857	0.114	-0.061
-677.193	-200.000	-0.016	-0.144
-676.178	-84.314	-0.318	-0.102
-675.164	-171.034	0.228	-0.008
-674.149	273.890	0.138	0.247
-673.135	207.367	-0.145	-0.229
-672.120	-11.660	-0.091	0.061
-671.105	-53.911	-0.173	0.080
-670.091	-200.000	0.009	0.218
-669.076	582.203	-0.104	0.258
-668.062	-79.800	0.255	0.087
-667.047	-11.543	0.197	0.131
-666.032	-12.472	0.185	-0.123
-665.018	483.627	0.040	0.092
-664.003	339.760	0.152	-0.302
-662.989	800.000	0.038	0.147
-661.974	-200.000	0.037	0.243
-660.959	15.552	-0.196	-0.156
-659.945	-24.249	-0.255	0.154
-658.930	82.162	-0.234	-0.258
-657.916	-115.783	0.268	-0.051
-656.901	-14.811	-0.212	0.138
-655.886	-200.000	-0.353	-0.001
-654.872	800.000	-0.085	0.280
-653.857	-200.000	0.008	-0.234
-652.843	-183.182	0.224	-0.004
-651.828	800.000	0.086	-0.333
-650.814	-166.779	-0.490	0.020
-649.799	58.548	0.120	-0.120
-648.784	-15.137	0.236	0.153
-647.770	800.000	-0.020	0.088
-646.755	445.235	-0.049	0.109
-645.741	-197.452	-0.238	0.002
-644.726	800.000	0.052	0.175
-643.711	580.513	-0.097	0.240
-642.697	-200.000	-0.002	-0.101
-641.682	-70.913	-0.083	0.032
-640.668	-52.384	0.375	-0.176
-639.653	230.601	-0.206	0.342
-638.638	266.699	0.155	0.274
-637.624	-104.509	-0.174	-0.041
-636.609	272.235	-0.230	0.411
-635.595	-137.725	-0.189	0.022
-634.580	-36.169	-0.093	-0.051
-633.565	-200.000	0.008	-0.231
-632.551	112.137	-0.224	-0.274
-631.536	-200.000	-0.015	0.147
-630.522	429.020	0.054	-0.119
-629.507	-150.373	-0.125	-0.010
-628.492	187.092	0.182	0.275
-627.478	129.291	0.334	-0.432
-626.463	-96.528	0.350	-0.094
-625.449	-112.759	0.223	-0.045
-624.434	-200.000	0.003	-0.133
-623.419	800.000	-0.031	0.116
-622.405	800.000	0.105	0.381
-621.390	800.000	0.131	0.478
-620.376	15.496	-0.160	-0.127
-619.361	254.425	0.131	-0.227
-618.346	800.000	0.146	-0.416
-617.332	156.580	0.034	0.047
-616.317	800.000	0.081	-0.251
-615.303	-63.948	0.135	0.056
-614.288	-200.000	0.008	-0.230
-613.273	-184.945	-0.370	-0.006
-612.259	-35.578	-0.283	-0.155
-611.244	250.411	-0.060	-0.102
-610.230	96.478	0.147	0.170
-609.215	-200.000	0.037	0.230
-608.201	320.577	0.041	-0.079
-607.186	165.029	-0.095	-0.135
-606.171	263.704	-0.160	-0.281
-605.157	-74.417	-0.228	0.083
-604.142	41.323	0.207	0.190
-603.128	50.549	0.173	-0.166
-602.113	-180.832	0.253	0.005
-601.098	446.204	-0.066	0.148
-600.084	-200.000	0.003	0.264
-599.069	-16.802	0.087	0.056
-598.055	-150.490	0.300	0.023
-597.040	-39.079	-0.041	-0.022
-596.025	-188.656	-0.320	-0.004
-595.011	800.000	0.038	-0.119
-593.996	521.120	0.023	0.055
-592.982	-200.000	-0.047	-0.268
-591.967	177.784	0.143	-0.211
-590.952	20.147	0.186	-0.151
-589.938	-51.984	-0.196	-0.092
-588.923	-200.000	0.029	-0.169
-587.909	-200.000	-0.032	-0.411
-586.894	-200.000	0.019	0.249
-585.879	-54.714	0.037	0.017
-584.865	525.419	0.058	-0.138
-583.850	-91.387	-0.183	-0.053
-582.836	-200.000	0.038	-0.211
-581.821	-6.908	-0.224	-0.154
-580.806	-59.859	0.344	0.149
-579.792	-60.410	0.406	0.174
-578.777	-188.040	-0.070	0.001
-577.763	-200.000	0.005	0.190
-576.748	-75.420	0.323	-0.116
-575.733	88.458	-0.176	0.198
-574.719	-33.893	-0.283	0.157
-573.704	68.269	-0.257	0.266
-572.690	-121.379	-0.363	0.061
-571.675	368.928	-0.147	0.300
-570.661	-193.521	-0.207	0.002
-569.646	-110.765	-0.280	-0.058
-568.631	226.891	0.078	-0.128
-567.617	35.703	-0.226	-0.201
-566.602	-114.616	-0.107	0.021
-565.588	-200.000	0.036	0.485
-564.573	-52.358	0.254	0.119
-563.558	108.417	0.204	-0.246
-562.544	-89.876	-0.152	-0.045
-561.529	-64.547	-0.257	-0.105
-560.515	-149.868	-0.443	-0.035
-559.500	-121.509	0.208	0.035
-558.485	-93.841	-0.175	-0.049
-557.471	-102.793	-0.339	0.081
-556.456	-76.483	-0.194	0.069
-555.442	676.276	-0.105	0.274
-554.427	-200.000	-0.013	-0.094
-553.412	-67.300	-0.141	-0.056
-552.398	-88.441	0.279	-0.084
-551.383	63.408	-0.126	-0.127
-550.369	-103.907	0.308	-0.073
-549.354	-166.044	-0.028	0.001
-548.339	-84.785	-0.437	0.139
-547.325	-200.000	-0.042	-0.266
-546.310	16.520	0.069	-0.055
-545.296	192.921	0.178	-0.272
-544.281	469.888	0.118	-0.267
-543.266	123.791	-0.190	-0.241
-542.252	5.734	-0.174	-0.130
-541.237	-46.835	0.241	0.119
-540.223	-51.913	0.182	-0.086
-539.208	-21.202	0.116	-0.072
-538.193	-81.345	0.123	0.041
-537.179	-47.884	-0.233	0.114
-536.164	-117.687	-0.159	0.029
-535.150	8.446	-0.154	-0.117
-534.135	-117.727	0.297	-0.054
-533.121	800.000	0.028	0.095
-532.106	163.083	-0.198	-0.281
-531.091	-73.476	-0.171	-0.063
-530.077	14.265	-0.151	-0.119
-529.062	111.873	0.087	0.106
-528.048	504.469	-0.081	0.189
-527.033	-68.468	0.196	0.077
-526.018	-30.535	-0.134	-0.077
-525.004	243.693	-0.135	0.229
-523.989	-42.845	0.181	0.093
-522.975	-63.156	-0.239	0.100
-521.960	-108.536	0.355	0.077
-520.945	-42.373	0.061	-0.032
-519.931	-75.665	0.094	0.034
-518.916	-31.283	-0.279	-0.159
-517.902	-1.675	0.106	0.075
-516.887	-95.790	-0.069	0.019
-515.872	202.696	0.095	0.148
-514.858	-31.050	-0.345	0.197
-513.843	-6.014	0.104	-0.071
-512.829	-109.969	0.227	-0.048
-511.814	416.465	-0.022	0.047
-510.799	-32.805	0.325	-0.182
-509.785	-39.269	0.243	-0.128
-508.770	-200.000	0.057	-0.322
-507.756	-200.000	0.048	-0.256
-506.741	-200.000	0.080	-0.430
-505.726	457.808	-0.193	0.431
-504.712	142.636	-0.056	-0.075
-503.697	288.875	0.109	0.199
-502.683	-86.188	-0.076	0.024
-501.668	-7.494	-0.329	0.224
-500.653	-200.000	0.065	0.306
-499.639	800.000	0.034	-0.147
-498.624	-107.546	-0.200	-0.044
-497.610	-67.722	-0.138	-0.055
-496.595	16.033	-0.162	0.128
-495.581	104.319	-0.243	0.288
-494.566	-200.000	0.016	-0.185
-493.551	66.481	-0.210	-0.215
-492.537	152.876	-0.149	0.205
-491.522	113.749	0.089	-0.109
-490.508	456.977	0.094	-0.209
-489.493	-128.821	-0.349	-0.050
-488.478	-200.000	0.027	-0.207
-487.464	-200.000	0.024	0.135
-486.449	-84.177	0.131	-0.042
-485.435	-200.000	-0.041	-0.197
-484.420	-78.011	0.218	-0.075
-483.405	377.068	0.076	0.156
-482.391	800.000	0.022	0.096
-481.376	10.244	-0.239	0.183
-480.362	20.973	-0.090	0.073
-479.347	-119.701	0.194	-0.034
-478.332	4.376	-0.226	0.167
-477.318	777.533	0.189	0.519
-476.303	-146.629	0.280	0.024
-475.289	-145.626	0.393	-0.035
-474.274	-32.644	0.288	0.161
-473.259	-103.652	-0.134	-0.032
-472.245	59.888	0.141	0.141
-471.230	298.955	0.074	-0.136
-470.216	-183.069	0.283	0.005
-469.201	-92.397	0.070	0.020
-468.186	-173.802	0.124	0.004
-467.172	580.434	0.034	0.084
-466.157	-200.000	-0.028	0.202
-465.143	642.763	0.065	0.168
-464.128	-200.000	0.021	-0.204
-463.113	-200.000	0.042	0.219
-462.099	-105.211	0.069	0.016
-461.084	206.462	0.130	-0.204
-460.070	-126.526	0.098	0.015
-459.055	351.793	-0.179	-0.356
-458.040	330.686	0.178	-0.345
-457.026	800.000	0.071	-0.309
-456.011	36.261	0.042	-0.037
-454.997	-97.256	0.172	0.045
-453.982	-34.592	0.294	-0.162
-452.968	32.451	-0.048	-0.041
-451.953	-15.770	-0.134	-0.086
-450.938	800.000	-0.017	-0.051
-449.924	800.000	-0.030	0.088
-448.909	332.373	-0.127	0.246
-447.895	249.802	-0.102	-0.174
-446.880	-200.000	-0.008	0.086
-445.865	-124.321	-0.314	-0.049
-444.851	0.983	-0.194	-0.140
-443.836	-64.322	0.191	0.078
-442.822	667.386	0.033	-0.087
-441.807	-165.540	0.285	0.012
-440.792	-44.461	-0.056	0.028
-439.778	-12.341	-0.157	-0.103
-438.763	-200.000	-0.002	0.446
-437.749	362.924	-0.045	0.091
-436.734	-108.999	0.447	-0.096
-435.719	-138.699	-0.321	0.035
-434.705	5.000	-0.185	0.136
-433.690	-200.000	-0.020	-0.138
-432.676	-200.000	-0.011	-0.077
-431.661	385.768	-0.064	0.133
-430.646	-99.250	0.248	-0.063
-429.632	198.432	0.083	0.127
-428.617	-200.000	-0.058	-0.292
-427.603	18.876	0.334	0.269
-426.588	-200.000	-0.008	-0.098
-425.573	-15.102	-0.107	0.069
-424.559	-75.260	0.109	-0.039
-423.544	169.729	-0.072	-0.104
-422.530	800.000	-0.046	0.166
-421.515	55.891	-0.352	-0.343
-420.500	288.905	-0.087	0.159
-419.486	-111.607	-0.185	-0.038
-418.471	-152.146	-0.450	-0.033
-417.457	429.152	0.094	0.204
-416.442	-200.000	0.022	0.100
-415.428	681.674	0.093	-0.244
-414.413	-200.000	0.014	0.114
-413.398	574.866	0.073	0.178
-412.384	91.220	0.023	0.026
-411.369	33.789	-0.340	0.297
-410.355	363.452	-0.091	-0.184
-409.340	-140.561	-0.201	0.021
-408.325	27.342	-0.160	-0.135
-407.311	-114.785	-0.311	-0.060
-406.296	800.000	0.078	-0.285
-405.282	800.000	-0.041	0.135
-404.267	-29.497	-0.233	0.134
-403.252	-149.857	-0.312	0.024
-402.238	349.879	0.088	0.174
-401.223	800.000	0.070	0.244
-400.209	-109.207	-0.285	0.061
-399.194	75.408	0.098	0.104
-398.179	82.947	-0.115	0.126
-397.165	53.601	0.176	0.169
-396.150	-138.191	-0.239	0.027
-395.136	780.865	-0.038	-0.104
-394.121	-52.436	0.070	0.033
-393.106	-151.270	0.236	0.018
-392.092	800.000	-0.090	0.393
-391.077	90.995	0.389	0.437
-390.063	52.006	0.140	0.134
-389.048	393.820	-0.260	0.542
-388.033	800.000	0.144	0.424
-387.019	-200.000	-0.031	-0.166
-386.004	-35.246	-0.248	-0.136
-384.990	-200.000	-0.026	-0.292
-383.975	226.172	0.114	0.186
-382.960	800.000	-0.059	0.222
-381.946	-200.000	0.007	-0.187
-380.931	719.734	0.029	0.076
-379.917	533.843	0.086	-0.205
-378.902	-49.733	0.073	-0.035
-377.888	-110.546	-0.289	-0.060
-376.873	82.526	0.015	-0.017
-375.858	224.136	-0.013	-0.021
-374.844	-19.154	0.155	-0.097
-373.829	284.771	-0.050	-0.089
-372.815	-41.131	-0.312	-0.161
-371.800	203.820	-0.200	-0.311
-370.785	-34.536	-0.059	0.032
-369.771	-63.498	-0.084	0.035
-368.756	-58.661	0.082	0.036
-367.742	-55.654	0.300	0.134
-366.727	800.000	-0.128	0.371
-365.712	-200.000	0.015	-0.177
-364.698	-200.000	0.006	-0.125
-363.683	-148.827	0.345	-0.028
-362.669	-8.553	-0.044	0.030
-361.654	-200.000	0.025	0.290
-360.639	-200.000	-0.063	0.356
-359.625	-69.849	-0.176	0.067
-358.610	4.570	-0.119	-0.088
-357.596	-121.692	-0.516	-0.086
-356.581	-20.667	0.291	-0.179
-355.566	800.000	0.070	0.241
-354.552	-21.925	-0.494	-0.301
-353.537	568.291	0.173	0.421
-352.523	-85.881	0.032	-0.010
-351.508	228.425	0.192	-0.314
-350.493	-200.000	-0.015	-0.132
-349.479	196.653	-0.049	0.074
-348.464	28.778	0.050	0.042
-347.450	419.431	0.107	0.230
-346.435	800.000	0.052	0.179
-345.420	-101.640	0.271	-0.066
-344.406	-200.000	0.015	-0.244
-343.391	800.000	-0.055	-0.213
-342.377	-88.291	-0.100	-0.030
-341.362	396.127	-0.047	-0.099
-340.348	104.617	0.179	-0.212
-339.333	2.501	0.215	0.156
-338.318	63.739	-0.330	-0.332
-337.304	49.741	0.145	-0.137
-336.289	-77.968	0.376	-0.130
-335.275	-12.542	0.111	0.072
-334.260	-200.000	0.025	0.507
-333.245	-200.000	0.028	0.434
-332.231	-42.745	0.388	0.198
-331.216	800.000	0.021	-0.084
-330.202	-147.637	-0.265	0.022
-329.187	-143.165	-0.065	0.006
-328.172	-37.785	-0.284	0.151
-327.158	-200.000	-0.005	0.136
-326.143	-200.000	0.025	-0.164
-325.129	-32.552	0.169	0.094
-324.114	-200.000	-0.056	0.333
-323.099	-68.651	0.381	-0.148
-322.085	-97.277	-0.300	-0.078
-321.070	228.880	-0.108	-0.175
-320.056	-81.813	-0.216	-0.071
-319.041	-51.858	0.094	0.044
-318.026	111.404	0.094	-0.114
-317.012	-91.384	-0.143	-0.041
-315.997	-22.939	-0.248	-0.149
-314.983	-200.000	-0.064	-0.572
-313.968	20.349	-0.142	-0.115
-312.953	-109.544	-0.205	0.043
-311.939	21.795	-0.218	-0.178
-310.924	-200.000	0.030	-0.155
-309.910	800.000	-0.063	-0.191
-308.895	56.994	0.060	-0.058
-307.880	-69.493	0.112	0.043
-306.866	46.733	0.054	0.050
-305.851	-200.000	0.012	0.073
-304.837	-200.000	0.012	0.377
-303.822	-200.000	-0.023	-0.129
-302.807	383.103	0.133	-0.273
-301.793	-200.000	0.039	0.602
-300.778	-200.000	0.043	0.255
-299.764	407.353	0.051	0.107
-298.749	800.000	0.045	-0.139
-297.735	90.348	0.173	0.194
-296.720	-129.498	0.062	-0.009
-295.705	-74.865	-0.127	-0.045
-294.691	-34.078	-0.154	-0.085
-293.676	-75.631	-0.048	0.017
-292.662	-78.972	0.173	-0.059
-291.647	-19.655	0.184	0.114
-290.632	-116.882	0.294	0.054
-289.618	423.275	0.147	-0.316
-288.603	-200.000	0.008	-0.133
-287.589	-200.000	0.013	0.223
-286.574	275.760	-0.158	0.280
-285.559	800.000	0.031	-0.088
-284.545	-111.016	-0.169	-0.035
-283.530	695.519	-0.104	-0.274
-282.516	-59.504	-0.380	0.163
-281.501	88.886	0.140	0.155
-280.486	-54.461	0.259	-0.117
-279.472	638.469	-0.116	-0.294
-278.457	800.000	0.080	-0.256
-277.443	-200.000	-0.082	-0.390
-276.428	-200.000	0.027	-0.313
-275.413	426.680	-0.087	-0.186
-274.399	-126.907	-0.213	-0.031
-273.384	462.375	0.137	0.305
-272.370	131.864	0.134	0.173
-271.355	-136.961	0.146	-0.017
-270.340	283.772	-0.002	-0.004
-269.326	800.000	0.015	-0.061
-268.311	28.660	0.206	0.174
-267.297	79.543	0.121	0.130
-266.282	-200.000	-0.079	-0.356
-265.267	-47.693	-0.123	0.059
-264.253	205.433	-0.089	0.138
-263.238	751.621	-0.149	-0.402
-262.224	466.234	0.197	-0.440
-261.209	-157.334	0.207	-0.012
-260.195	-27.651	-0.135	-0.078
-259.180	-200.000	-0.015	-0.079
-258.165	-200.000	0.027	-0.498
-257.151	-21.924	0.116	-0.070
-256.136	269.352	0.208	-0.364
-255.122	145.866	0.229	-0.307
-254.107	71.660	-0.193	0.201
-253.092	521.771	-0.038	0.090
-252.078	-22.535	-0.425	0.257
-251.063	800.000	-0.127	0.504
-250.049	-200.000	-0.050	0.410
-249.034	23.014	0.185	-0.152
-248.019	171.191	-0.333	-0.477
-247.005	29.191	-0.146	0.124
-245.990	-88.181	0.206	-0.062
-244.976	-200.000	0.018	-0.299
-243.961	-200.000	-0.003	0.046
-242.946	-117.340	0.106	-0.019
-241.932	800.000	0.028	0.087
-240.917	-200.000	-0.080	0.411
-239.903	-89.468	-0.191	0.056
-238.888	-7.379	-0.206	0.139
-237.873	10.206	0.177	0.135
-236.859	-121.096	-0.025	-0.004
-235.844	-149.422	0.082	-0.007
-234.830	514.249	0.063	0.147
-233.815	800.000	0.040	-0.123
-232.800	-102.681	-0.117	-0.028
-231.786	-155.607	0.121	0.008
-230.771	264.664	0.102	0.177
-229.757	286.694	0.080	0.144
-228.742	-134.670	0.130	0.016
-227.727	260.268	0.273	0.471
-226.713	108.831	0.225	-0.268
-225.698	-200.000	-0.052	0.246
-224.684	800.000	-0.023	-0.071
-223.669	-124.778	-0.317	0.049
-222.655	140.068	0.120	-0.158
-221.640	-95.172	0.124	-0.033
-220.625	-102.593	0.358	0.085
-219.611	-200.000	-0.068	0.444
-218.596	-71.279	0.149	-0.056
-217.582	663.568	0.076	-0.196
-216.567	134.746	0.239	0.309
-215.552	268.085	-0.118	0.205
-214.538	278.264	0.062	-0.110
-213.523	160.818	0.103	-0.144
-212.509	133.414	0.112	0.144
-211.494	34.945	0.159	0.138
-210.479	-125.347	0.311	-0.047
-209.465	-200.000	-0.001	0.365
-208.450	-85.496	0.264	0.082
-207.436	-56.503	0.332	-0.147
-206.421	-152.800	-0.126	-0.009
-205.406	447.894	0.148	-0.325
-204.392	-200.000	-0.032	-0.153
-203.377	-66.576	-0.159	-0.063
-202.363	141.591	0.088	-0.116
-201.348	51.283	0.101	-0.095
-200.333	-200.000	-0.031	0.247
-199.319	-14.321	0.098	0.063
-198.304	-200.000	0.007	0.206
-197.290	333.514	-0.085	0.164
-196.275	22.986	0.115	-0.094
-195.260	-200.000	-0.014	0.117
-194.246	800.000	-0.087	-0.255
-193.231	248.692	0.185	-0.311
-192.217	-77.692	0.200	-0.069
-191.202	58.559	0.060	-0.058
-190.187	800.000	-0.073	0.295
-189.173	349.185	-0.092	0.182
-188.158	39.701	0.054	-0.048
-187.144	-157.945	-0.094	0.006
-186.129	-1.163	0.203	0.143
-185.114	-200.000	-0.033	-0.226
-184.100	206.391	-0.163	-0.252
-183.085	-200.000	-0.024	0.214
-182.071	15.799	0.212	-0.166
-181.056	2.003	0.208	-0.149
-180.042	84.641	-0.049	-0.054
-179.027	58.101	0.177	-0.173
-178.012	-24.319	-0.209	0.124
-176.998	-37.866	-0.039	0.021
-175.983	800.000	0.040	-0.134
-174.969	-121.399	0.246	-0.041
-173.954	279.819	-0.081	0.144
-172.939	350.304	-0.101	0.199
-171.925	-85.190	-0.351	-0.109
-170.910	-197.742	-0.199	0.001
-169.896	800.000	-0.034	-0.116
-168.881	-200.000	-0.027	-0.254
-167.866	-200.000	-0.003	0.208
-166.852	800.000	0.023	-0.079
-165.837	-51.954	0.132	-0.061
-164.823	585.858	-0.081	0.198
-163.808	-200.000	0.020	-0.283
-162.793	800.000	0.088	-0.326
-161.779	-4.681	-0.279	-0.192
-160.764	53.157	-0.176	0.168
-159.750	-55.140	-0.238	-0.107
-158.735	10.007	0.139	0.105
-157.720	289.541	-0.209	0.376
-156.706	800.000	-0.009	0.038
-155.691	-128.021	0.295	0.042
-154.677	-200.000	0.017	-0.172
-153.662	37.254	0.282	0.248
-152.647	207.055	-0.182	-0.282
-151.633	264.699	-0.060	-0.104
-150.618	262.646	-0.225	0.389
-149.604	-200.000	0.004	0.366
-148.589	-174.236	0.139	0.004
-147.574	-187.492	0.234	-0.003
-146.560	250.841	0.031	0.053
-145.545	-200.000	0.016	-0.281
-144.531	558.422	0.145	-0.347
-143.516	800.000	0.096	-0.385
-142.502	-33.993	0.386	-0.211
-141.487	73.070	-0.104	0.108
-140.472	-200.000	0.003	0.130
-139.458	-62.412	0.171	-0.071
-138.443	430.343	0.075	0.162
-137.429	-137.618	0.167	0.019
-136.414	-77.361	-0.082	-0.028
-135.399	13.445	0.075	0.058
-134.385	800.000	0.071	0.231
-133.370	84.750	-0.103	0.112
-132.356	41.694	0.227	-0.204
-131.341	333.551	-0.081	-0.156
-130.326	-128.497	-0.215	0.030
-129.312	-13.605	0.125	0.080
-128.297	242.111	0.267	0.444
-127.283	-48.174	0.121	0.058
-126.268	298.847	0.099	-0.181
-125.253	30.928	0.226	-0.192
-124.239	165.272	0.335	0.470
-123.224	-142.951	0.167	0.016
-122.210	-137.143	0.047	0.005
-121.195	-156.180	0.304	0.019
