DTS Sentinel unit serial number:	SN413079Multiplexer serial number:	ORYXHardware model number:	OX4-SRSoftware version number:	ORYX F/W v4.00 Oryx Data Collector v3.7.2.0data status	okinstallation	princeton_trtdifferential loss correction	single-endedforward channel	channel 1reverse channel	N/Adate	2019/09/19time	10:42:35forward acquisition time	60.00reverse acquisition time	0.00gamma	496.2192k internal	0.2338k external	0.2338temperature offset calibration	1.0008default loss term (dB/km)	0.3790temperature slope calibration	1.0000multiplexer offset coefficient	1.0000multiplexer slope coefficient	1.0000fibre end	0.00T internal ref (°C)	24.56T ext. ref 1 (°C)	0.73T ext. ref 2 (°C)	20.16length (m)	temperature (°C)	Stokes	anti-Stokes-747.200	-5.150	0.267	0.185
-746.185	339.865	-0.163	0.320
-745.171	353.911	-0.134	0.267
-744.156	-114.029	-0.225	-0.044
-743.142	800.000	-0.066	0.274
-742.127	552.411	-0.104	0.251
-741.112	-46.420	-0.324	-0.160
-740.098	508.189	-0.139	0.324
-739.083	262.945	-0.029	-0.051
-738.069	-70.083	-0.394	-0.151
-737.054	332.919	-0.017	-0.033
-736.039	161.268	-0.179	-0.251
-735.025	-137.872	-0.267	-0.030
-734.010	545.780	-0.112	-0.268
-732.996	-180.125	-0.240	-0.005
-731.981	188.710	0.020	0.030
-730.966	-51.561	-0.323	-0.151
-729.952	32.281	0.217	-0.187
-728.937	-200.000	0.001	0.050
-727.923	84.708	0.166	0.182
-726.908	-106.512	-0.450	-0.101
-725.894	-35.040	-0.110	0.060
-724.879	80.930	-0.047	-0.050
-723.864	-185.258	-0.682	-0.011
-722.850	502.415	-0.070	-0.163
-721.835	-103.465	-0.383	0.090
-720.821	-200.000	0.047	-0.264
-719.806	-24.181	-0.389	-0.233
-718.791	800.000	-0.028	0.120
-717.777	-163.207	-0.109	-0.005
-716.762	-30.116	0.127	0.073
-715.748	-200.000	-0.024	-0.131
-714.733	410.957	0.035	0.075
-713.718	61.862	0.288	-0.288
-712.704	-200.000	-0.016	-0.306
-711.689	-200.000	-0.004	-0.107
-710.675	27.231	-0.026	-0.022
-709.660	-200.000	0.032	0.446
-708.645	800.000	-0.078	0.246
-707.631	284.448	-0.033	-0.060
-706.616	6.137	-0.330	-0.245
-705.602	124.344	-0.008	0.010
-704.587	-199.001	0.118	-0.001
-703.572	-46.241	-0.268	-0.132
-702.558	-5.288	-0.099	-0.068
-701.543	-114.006	0.164	-0.032
-700.529	800.000	0.125	-0.368
-699.514	-11.079	-0.265	0.175
-698.499	487.868	-0.093	-0.213
-697.485	-17.719	-0.161	0.101
-696.470	800.000	-0.085	0.321
-695.456	144.668	0.310	0.415
-694.441	-13.126	-0.273	-0.178
-693.426	675.108	0.098	-0.254
-692.412	-56.369	-0.452	0.201
-691.397	189.248	0.140	-0.210
-690.383	-77.665	0.163	-0.057
-689.368	-118.058	-0.089	-0.016
-688.354	373.406	0.049	0.101
-687.339	-36.204	0.225	0.122
-686.324	-103.323	-0.446	0.105
-685.310	2.032	-0.387	-0.280
-684.295	-135.129	0.076	0.009
-683.281	-200.000	-0.017	-0.356
-682.266	-38.373	-0.159	-0.084
-681.251	-29.345	-0.237	-0.136
-680.237	-200.000	-0.005	-0.037
-679.222	266.293	0.133	-0.232
-678.208	800.000	-0.149	-0.567
-677.193	-82.217	-0.175	-0.057
-676.178	36.609	-0.157	0.139
-675.164	-200.000	-0.066	-0.345
-674.149	218.904	0.048	0.077
-673.135	-200.000	0.064	-0.308
-672.120	-200.000	0.000	-0.135
-671.105	-137.452	-0.304	-0.034
-670.091	12.271	0.042	-0.032
-669.076	277.765	0.147	-0.261
-668.062	0.303	-0.315	-0.225
-667.047	35.690	0.083	0.073
-666.032	-200.000	-0.040	-0.195
-665.018	-43.150	-0.110	-0.056
-664.003	800.000	-0.072	0.262
-662.989	269.314	0.119	-0.209
-661.974	80.455	-0.056	0.060
-660.959	-145.093	0.174	-0.016
-659.945	17.522	0.050	-0.040
-658.930	347.249	-0.117	0.231
-657.916	-79.924	-0.232	0.078
-656.901	-87.376	0.342	0.104
-655.886	458.857	-0.072	0.161
-654.872	9.986	-0.256	-0.195
-653.857	511.405	-0.131	-0.304
-652.843	-195.271	0.272	0.002
-651.828	-200.000	0.049	-0.278
-650.814	-200.000	-0.004	-0.194
-649.799	125.171	0.244	0.307
-648.784	191.895	0.122	0.184
-647.770	800.000	-0.057	-0.197
-646.755	-200.000	0.012	0.316
-645.741	14.775	-0.129	-0.101
-644.726	-200.000	-0.029	-0.188
-643.711	-150.269	-0.221	0.017
-642.697	800.000	0.051	-0.167
-641.682	-70.623	0.077	0.029
-640.668	63.170	0.215	-0.215
-639.653	93.379	0.090	-0.101
-638.638	-200.000	-0.015	0.202
-637.624	349.263	-0.103	-0.203
-636.609	-200.000	0.006	0.064
-635.595	-136.163	-0.123	0.014
-634.580	-5.810	0.166	0.113
-633.565	-57.086	0.159	-0.070
-632.551	361.092	-0.098	-0.197
-631.536	-65.189	0.158	-0.063
-630.522	186.879	-0.039	-0.058
-629.507	-95.638	0.346	-0.093
-628.492	49.530	0.111	0.105
-627.478	-112.187	-0.099	-0.020
-626.463	800.000	0.052	0.145
-625.449	-28.930	-0.129	-0.074
-624.434	-200.000	-0.089	-0.415
-623.419	-200.000	-0.062	0.382
-622.405	800.000	-0.009	0.035
-621.390	-200.000	-0.004	0.116
-620.376	295.553	-0.120	-0.220
-619.361	800.000	0.092	-0.377
-618.346	-200.000	0.039	-0.203
-617.332	-56.153	0.089	0.040
-616.317	-10.570	-0.029	-0.019
-615.303	-200.000	0.052	-0.266
-614.288	6.214	-0.196	0.145
-613.273	-127.759	-0.089	0.013
-612.259	-72.937	-0.206	-0.075
-611.244	62.743	-0.167	0.167
-610.230	-152.647	0.078	-0.006
-609.215	323.147	-0.061	-0.116
-608.201	153.968	0.200	0.273
-607.186	800.000	0.081	0.277
-606.171	-128.626	-0.140	0.020
-605.157	398.816	-0.129	0.269
-604.142	-200.000	0.004	0.037
-603.128	800.000	-0.009	0.027
-602.113	-55.366	-0.224	-0.100
-601.098	800.000	0.092	-0.275
-600.084	264.082	-0.078	0.136
-599.069	-200.000	-0.015	-0.145
-598.055	-116.350	-0.175	0.032
-597.040	-181.836	0.325	0.006
-596.025	800.000	-0.055	0.175
-595.011	800.000	0.104	-0.311
-593.996	-51.012	0.047	0.022
-592.982	-4.703	-0.266	0.183
-591.967	4.330	0.298	-0.217
-590.952	-200.000	0.047	-0.303
-589.938	55.769	-0.139	-0.135
-588.923	-43.608	-0.170	-0.086
-587.909	-134.001	0.228	-0.028
-586.894	507.461	-0.165	-0.381
-585.879	-110.747	0.323	-0.066
-584.865	-188.780	-0.223	-0.003
-583.850	-45.764	-0.174	-0.086
-582.836	-121.153	-0.212	-0.035
-581.821	273.598	-0.121	-0.213
-580.806	135.264	-0.064	-0.082
-579.792	-98.966	-0.194	-0.049
-578.777	-200.000	-0.005	-0.160
-577.763	360.876	-0.041	-0.083
-576.748	775.869	0.105	0.286
-575.733	-200.000	0.043	0.308
-574.719	137.286	-0.162	0.212
-573.704	472.090	-0.104	-0.234
-572.690	-142.571	-0.157	-0.015
-571.675	-200.000	-0.018	-0.126
-570.661	248.697	-0.096	0.162
-569.646	-96.290	-0.373	-0.098
-568.631	-91.148	0.068	0.019
-567.617	-81.183	-0.129	-0.043
-566.602	-161.528	0.321	0.016
-565.588	-191.323	-0.180	-0.002
-564.573	-120.650	0.109	-0.018
-563.558	-200.000	0.038	-0.310
-562.544	61.268	-0.108	-0.107
-561.529	-94.582	-0.046	0.013
-560.515	559.078	-0.050	-0.121
-559.500	-33.750	-0.188	0.103
-558.485	-200.000	-0.034	0.187
-557.471	800.000	0.087	0.322
-556.456	776.457	0.092	-0.251
-555.442	18.054	0.030	0.024
-554.427	-200.000	0.049	0.274
-553.412	-118.620	-0.322	-0.057
-552.398	-200.000	-0.009	0.128
-551.383	478.178	-0.125	0.283
-550.369	35.299	-0.198	-0.173
-549.354	43.913	-0.132	-0.121
-548.339	-200.000	-0.023	0.233
-547.325	800.000	-0.126	0.447
-546.310	-143.929	0.129	0.012
-545.296	33.539	-0.104	-0.090
-544.281	-64.288	0.220	-0.089
-543.266	-193.903	-0.370	0.003
-542.252	727.455	-0.098	-0.259
-541.237	290.679	0.171	-0.310
-540.223	784.465	0.118	0.322
-539.208	588.956	0.040	-0.099
-538.193	-80.235	-0.121	-0.040
-537.179	236.916	-0.050	0.083
-536.164	-200.000	0.021	0.130
-535.150	100.497	0.256	0.296
-534.135	294.161	0.012	0.022
-533.121	796.707	-0.131	0.358
-532.106	-40.698	-0.207	0.107
-531.091	-10.467	0.111	0.073
-530.077	-200.000	0.035	-0.235
-529.062	-0.905	-0.116	-0.082
-528.048	-174.656	0.145	0.004
-527.033	-200.000	0.012	0.103
-526.018	-75.890	-0.121	0.043
-525.004	800.000	0.068	0.252
-523.989	-98.907	0.370	0.093
-522.975	129.569	-0.060	-0.076
-521.960	20.831	-0.167	0.134
-520.945	-47.528	0.384	0.186
-519.931	-49.654	0.032	-0.015
-518.916	318.604	-0.078	-0.147
-517.902	-46.585	0.269	0.131
-516.887	-72.842	-0.232	-0.085
-515.872	-95.268	-0.121	-0.032
-514.858	-200.000	0.013	-0.118
-513.843	15.572	0.164	0.128
-512.829	-170.963	-0.178	0.006
-511.814	-128.340	-0.352	-0.050
-510.799	-9.261	-0.065	0.043
-509.785	-200.000	-0.048	-0.356
-508.770	-62.893	0.183	-0.075
-507.756	-13.898	-0.147	0.095
-506.741	800.000	-0.026	0.071
-505.726	-200.000	-0.005	0.039
-504.712	442.837	-0.114	-0.248
-503.697	-109.073	-0.301	-0.064
-502.683	-116.633	0.302	-0.055
-501.668	-156.022	0.259	0.016
-500.653	119.634	0.061	0.075
-499.639	-102.139	-0.046	-0.011
-498.624	61.372	0.173	-0.171
-497.610	800.000	-0.099	-0.321
-496.595	-131.781	-0.156	0.020
-495.581	800.000	0.048	0.196
-494.566	-200.000	0.004	0.026
-493.551	55.145	-0.039	-0.037
-492.537	96.517	-0.106	0.121
-491.522	132.829	0.181	-0.231
-490.508	800.000	-0.035	-0.142
-489.493	93.177	-0.215	0.241
-488.478	195.673	-0.258	0.390
-487.464	-78.146	0.165	0.056
-486.449	-97.273	0.236	-0.061
-485.435	260.125	0.098	0.169
-484.420	-148.135	0.234	0.019
-483.405	-147.970	0.140	0.012
-482.391	-54.140	0.080	0.036
-481.376	76.493	0.077	0.081
-480.362	519.740	-0.119	-0.277
-479.347	-200.000	-0.021	-0.101
-478.332	364.128	-0.095	-0.191
-477.318	-58.081	-0.280	0.121
-476.303	296.723	-0.088	0.159
-475.289	-44.342	-0.147	0.073
-474.274	-200.000	-0.022	-0.272
-473.259	16.737	-0.228	0.179
-472.245	-78.897	0.423	0.143
-471.230	-149.958	0.310	0.024
-470.216	-200.000	-0.010	-0.114
-469.201	51.666	-0.303	-0.286
-468.186	800.000	-0.055	-0.237
-467.172	-109.618	0.243	0.051
-466.157	158.295	-0.091	0.125
-465.143	800.000	0.018	0.073
-464.128	160.372	0.106	0.147
-463.113	33.585	-0.212	0.183
-462.099	266.062	0.088	0.153
-461.084	-200.000	-0.026	0.157
-460.070	-65.561	0.259	-0.103
-459.055	-200.000	-0.042	0.230
-458.040	800.000	-0.031	-0.108
-457.026	20.531	0.126	-0.101
-456.011	47.187	0.193	-0.178
-454.997	32.650	-0.216	0.186
-453.982	108.547	0.239	-0.283
-452.968	-78.797	0.225	-0.076
-451.953	122.179	-0.191	-0.236
-450.938	-45.314	-0.166	0.082
-449.924	-87.754	-0.169	0.051
-448.909	-102.543	0.127	-0.030
-447.895	-91.739	0.272	0.077
-446.880	4.931	0.278	0.203
-445.865	-200.000	-0.055	0.392
-444.851	-33.148	0.329	0.181
-443.836	113.420	-0.065	-0.078
-442.822	480.330	-0.085	-0.192
-441.807	800.000	0.017	0.066
-440.792	800.000	-0.023	-0.096
-439.778	151.256	0.238	-0.321
-438.763	-46.267	-0.120	-0.058
-437.749	-42.076	0.092	0.047
-436.734	-200.000	-0.021	0.133
-435.719	51.183	-0.259	0.244
-434.705	152.092	0.133	-0.180
-433.690	-200.000	0.001	-0.112
-432.676	-200.000	-0.006	0.308
-431.661	600.414	-0.099	0.244
-430.646	52.552	-0.150	0.142
-429.632	800.000	0.045	0.148
-428.617	-100.517	-0.057	-0.014
-427.603	-200.000	-0.002	-0.187
-426.588	684.540	-0.046	0.118
-425.573	-42.128	-0.272	0.138
-424.559	257.416	0.138	0.236
-423.544	37.142	0.126	-0.111
-422.530	-71.156	-0.304	-0.113
-421.515	186.163	-0.122	0.180
-420.500	-200.000	-0.132	0.000
-419.486	82.042	0.139	-0.149
-418.471	-79.151	0.249	0.084
-417.457	13.416	-0.141	0.108
-416.442	-28.754	-0.033	-0.019
-415.428	-62.498	0.309	-0.127
-414.413	-1.124	0.166	-0.116
-413.398	14.935	-0.194	-0.150
-412.384	150.945	-0.053	-0.071
-411.369	17.151	0.199	0.156
-410.355	800.000	-0.101	0.296
-409.340	-87.888	-0.104	0.031
-408.325	107.109	-0.152	-0.179
-407.311	-152.818	-0.238	0.017
-406.296	9.297	-0.188	0.141
-405.282	130.517	-0.079	0.100
-404.267	-95.291	-0.066	0.017
-403.252	-32.903	-0.161	0.088
-402.238	-200.000	-0.061	-0.310
-401.223	17.262	0.081	-0.064
-400.209	-43.560	-0.381	0.191
-399.194	-108.446	0.376	-0.080
-398.179	38.618	-0.062	0.055
-397.165	-30.506	-0.271	0.152
-396.150	800.000	0.058	-0.183
-395.136	380.814	-0.127	-0.258
-394.121	200.904	-0.121	-0.185
-393.106	11.196	0.076	-0.058
-392.092	8.027	0.239	-0.178
-391.077	-200.000	-0.061	0.000
-390.063	234.287	-0.084	0.137
-389.048	571.726	0.032	0.077
-388.033	436.018	-0.190	-0.408
-387.019	206.140	-0.201	-0.309
-386.004	21.843	0.054	-0.043
-384.990	-200.000	0.036	-0.242
-383.975	-84.570	0.031	0.010
-382.960	454.872	-0.114	-0.249
-381.946	-200.000	-0.025	-0.110
-380.931	52.491	-0.124	-0.117
-379.917	-79.742	-0.198	-0.066
-378.902	81.217	-0.080	-0.085
-377.888	29.975	-0.097	-0.082
-376.873	800.000	0.110	-0.395
-375.858	205.575	-0.168	-0.258
-374.844	800.000	-0.067	-0.207
-373.829	32.277	-0.048	0.041
-372.815	661.607	0.050	0.127
-371.800	-99.344	0.092	0.023
-370.785	-4.391	0.027	0.019
-369.771	-63.744	0.237	-0.096
-368.756	-200.000	-0.032	0.199
-367.742	-200.000	-0.028	0.140
-366.727	152.389	0.026	0.035
-365.712	-121.669	-0.361	0.059
-364.698	-200.000	0.019	0.373
-363.683	800.000	-0.074	-0.208
-362.669	156.981	-0.326	0.446
-361.654	-200.000	0.061	0.544
-360.639	-129.132	0.171	0.024
-359.625	25.672	0.064	-0.052
-358.610	627.131	-0.055	0.137
-357.596	6.550	-0.138	0.101
-356.581	-89.648	0.173	0.050
-355.566	-200.000	-0.015	0.102
-354.552	728.986	0.079	0.208
-353.537	-122.732	0.151	-0.024
-352.523	-108.969	-0.180	0.038
-351.508	-80.345	0.127	0.042
-350.493	-109.700	-0.160	-0.033
-349.479	-36.325	0.174	-0.093
-348.464	351.445	-0.084	-0.163
-347.450	-67.241	0.173	-0.067
-346.435	800.000	0.055	0.233
-345.420	-77.490	-0.066	0.023
-344.406	248.259	0.138	0.230
-343.391	-200.000	0.028	0.345
-342.377	-200.000	0.028	-0.322
-341.362	-158.020	0.177	-0.010
-340.348	-200.000	-0.019	-0.201
-339.333	-101.649	-0.068	0.016
-338.318	202.323	-0.080	0.122
-337.304	-91.596	-0.406	0.114
-336.289	800.000	-0.107	-0.297
-335.275	16.550	0.176	-0.137
-334.260	22.054	0.137	-0.110
-333.245	129.792	-0.199	0.251
-332.231	6.608	-0.114	-0.083
-331.216	-9.538	0.052	0.034
-330.202	356.334	0.140	-0.276
-329.187	390.099	0.163	-0.335
-328.172	309.432	0.124	0.229
-327.158	675.945	-0.015	0.039
-326.143	-128.448	-0.098	0.014
-325.129	141.985	0.175	0.229
-324.114	-157.209	-0.100	-0.006
-323.099	-112.490	-0.092	0.018
-322.085	15.169	-0.094	0.072
-321.070	-200.000	0.030	0.223
-320.056	800.000	-0.029	-0.080
-319.041	-13.007	0.153	0.098
-318.026	234.187	-0.013	0.021
-317.012	800.000	0.032	-0.129
-315.997	-116.234	0.372	0.068
-314.983	50.078	-0.024	0.022
-313.968	61.748	0.128	-0.126
-312.953	383.817	0.084	-0.171
-311.939	-20.039	-0.092	-0.056
-310.924	24.373	0.081	-0.066
-309.910	21.008	0.146	0.117
-308.895	-200.000	-0.011	0.211
-307.880	40.251	-0.140	-0.124
-306.866	167.121	0.036	0.051
-305.851	162.287	-0.092	-0.127
-304.837	244.453	-0.076	0.127
-303.822	-84.135	0.237	-0.074
-302.807	-200.000	0.008	0.109
-301.793	360.698	0.114	0.225
-300.778	-153.411	0.220	0.015
-299.764	-43.156	0.284	0.142
-298.749	27.128	0.240	0.199
-297.735	677.816	-0.108	0.277
-296.720	800.000	-0.016	0.052
-295.705	-121.069	0.246	0.041
-294.691	-176.674	-0.257	0.006
-293.676	61.479	-0.215	-0.211
-292.662	-101.044	0.266	0.064
-291.647	57.551	0.287	-0.277
-290.632	62.499	-0.136	0.134
-289.618	800.000	-0.044	0.135
-288.603	70.652	0.142	-0.145
-287.589	800.000	-0.019	-0.060
-286.574	-35.423	-0.123	-0.066
-285.559	-200.000	0.003	0.061
-284.545	-83.317	-0.103	0.033
-283.530	-45.381	-0.159	0.078
-282.516	-119.083	0.299	0.051
-281.501	-66.455	-0.275	-0.108
-280.486	-56.794	0.192	0.083
-279.472	-115.768	0.248	0.046
-278.457	-11.465	0.394	-0.255
-277.443	34.136	-0.034	-0.029
-276.428	-200.000	-0.038	-0.254
-275.413	-160.524	0.094	-0.005
-274.399	-153.652	-0.123	-0.008
-273.384	46.690	0.042	-0.039
-272.370	800.000	0.054	-0.191
-271.355	-200.000	0.027	0.128
-270.340	800.000	0.033	0.135
-269.326	31.597	0.141	-0.119
-268.311	76.996	-0.070	-0.073
-267.297	-172.115	-0.125	0.004
-266.282	46.844	-0.267	-0.244
-265.267	800.000	-0.076	0.288
-264.253	316.191	-0.074	0.138
-263.238	-128.041	0.092	0.013
-262.224	82.807	-0.150	0.161
-261.209	-200.000	-0.063	0.281
-260.195	1.664	-0.221	0.156
-259.180	93.074	0.308	-0.343
-258.165	70.423	0.084	-0.086
-257.151	423.055	-0.084	-0.178
-256.136	231.171	0.103	0.166
-255.122	31.741	0.200	0.169
-254.107	276.864	-0.172	0.302
-253.092	60.188	0.351	-0.342
-252.078	288.314	0.042	-0.074
-251.063	-87.267	0.226	-0.067
-250.049	-200.000	-0.009	-0.243
-249.034	-137.322	0.277	-0.031
-248.019	-70.257	-0.133	-0.050
-247.005	54.938	-0.275	-0.261
-245.990	-97.567	-0.628	-0.160
-244.976	800.000	-0.072	-0.272
-243.961	-35.714	-0.107	-0.057
-242.946	-200.000	-0.039	0.196
-241.932	142.659	-0.086	0.112
-240.917	318.130	-0.043	-0.080
-239.903	-130.119	0.367	0.049
-238.888	-200.000	0.021	-0.204
-237.873	800.000	0.122	-0.341
-236.859	-200.000	-0.015	-0.157
-235.844	-149.548	0.366	0.028
-234.830	166.631	0.039	0.055
-233.815	126.174	0.074	-0.092
-232.800	800.000	0.104	0.354
-231.786	-200.000	0.016	0.093
-230.771	82.783	-0.089	0.095
-229.757	344.664	0.164	-0.316
-228.742	800.000	-0.042	0.147
-227.727	800.000	0.045	0.124
-226.713	103.048	-0.151	0.174
-225.698	-200.000	0.028	-0.354
-224.684	179.839	-0.184	-0.265
-223.669	-124.569	0.105	-0.016
-222.655	-35.884	0.162	0.086
-221.640	800.000	-0.026	0.078
-220.625	70.036	-0.151	-0.153
-219.611	-37.342	0.139	0.073
-218.596	33.426	0.259	0.221
-217.582	399.739	-0.089	-0.183
-216.567	-137.235	-0.205	-0.023
-215.552	800.000	0.020	0.075
-214.538	39.677	0.226	-0.199
-213.523	-16.976	0.373	0.231
-212.509	-200.000	0.016	-0.156
-211.494	-66.554	-0.503	-0.196
-210.479	-200.000	0.022	-0.121
-209.465	35.487	-0.143	0.123
-208.450	-200.000	-0.349	0.000
-207.436	-116.321	0.318	-0.058
-206.421	205.657	-0.134	-0.205
-205.406	800.000	-0.053	0.175
-204.392	800.000	0.046	0.127
-203.377	85.301	-0.099	0.107
-202.363	-200.000	-0.008	-0.060
-201.348	356.958	-0.091	0.178
-200.333	200.853	0.153	0.232
-199.319	-200.000	0.009	-0.416
-198.304	-160.017	0.204	0.011
-197.290	61.175	-0.316	-0.309
-196.275	152.663	-0.177	0.237
-195.260	139.467	0.089	0.115
-194.246	-106.722	-0.122	-0.027
-193.231	3.405	-0.054	0.038
-192.217	629.347	0.080	0.199
-191.202	-99.007	0.275	0.068
-190.187	-61.200	0.310	0.128
-189.173	-98.363	0.150	0.038
-188.158	-19.641	-0.075	0.046
-187.144	249.721	0.085	0.141
-186.129	241.543	-0.116	-0.190
-185.114	-140.171	0.111	0.011
-184.100	-2.291	0.331	0.228
-183.085	72.721	0.237	-0.243
-182.071	-200.000	0.005	0.179
-181.056	-200.000	-0.022	-0.160
-180.042	144.057	0.317	0.415
-179.027	0.512	0.409	0.287
-178.012	-200.000	-0.003	-0.114
-176.998	32.436	-0.058	-0.049
-175.983	265.913	-0.192	0.330
-174.969	25.162	0.114	0.092
-173.954	184.756	-0.007	0.010
-172.939	-200.000	-0.018	-0.159
-171.925	329.917	-0.038	0.071
-170.910	-5.259	0.518	0.349
-169.896	88.374	0.031	-0.034
-168.881	-200.000	-0.001	-0.110
-167.866	-200.000	-0.010	0.137
-166.852	60.714	-0.205	-0.200
-165.837	112.685	0.068	0.080
-164.823	800.000	-0.110	-0.402
-163.808	-200.000	0.007	-0.065
-162.793	101.698	0.060	0.069
-161.779	27.608	0.179	-0.148
-160.764	704.852	0.082	0.213
-159.750	800.000	0.021	0.087
-158.735	800.000	0.033	-0.104
-157.720	-200.000	0.004	0.120
-156.706	3.422	-0.278	0.199
-155.691	305.951	-0.142	-0.259
-154.677	-22.695	-0.119	-0.070
-153.662	800.000	-0.079	0.224
-152.647	-200.000	-0.050	-0.314
-151.633	122.488	-0.098	0.120
-150.618	-200.000	0.006	0.117
-149.604	254.887	0.244	0.410
-148.589	800.000	-0.155	-0.482
-147.574	-32.254	-0.127	0.069
-146.560	61.400	0.366	-0.357
-145.545	-167.666	-0.215	-0.008
-144.531	-82.510	-0.255	-0.081
-143.516	74.295	-0.155	-0.159
-142.502	-200.000	-0.045	0.315
-141.487	6.854	0.144	0.105
-140.472	-63.277	-0.279	0.113
-139.458	800.000	-0.056	0.214
-138.443	157.621	0.143	-0.194
-137.429	-62.773	-0.097	-0.039
-136.414	-200.000	-0.067	0.306
-135.399	-200.000	-0.088	-0.433
-134.385	-9.138	0.173	-0.114
-133.370	56.367	-0.108	0.103
-132.356	-200.000	-0.004	0.207
-131.341	-23.717	0.341	0.200
-130.326	32.166	0.070	0.059
-129.312	469.148	0.076	-0.166
-128.297	-63.219	0.328	-0.133
-127.283	18.157	0.082	-0.064
-126.268	-120.122	0.310	0.052
-125.253	18.128	-0.251	-0.196
-124.239	-40.277	0.284	-0.145
-123.224	800.000	-0.063	0.249
-122.210	-200.000	0.063	0.459
-121.195	433.802	0.057	0.122
