DTS Sentinel unit serial number:	SN413079Multiplexer serial number:	ORYXHardware model number:	OX4-SRSoftware version number:	ORYX F/W v4.00 Oryx Data Collector v3.7.2.0data status	okinstallation	princeton_trtdifferential loss correction	single-endedforward channel	channel 1reverse channel	N/Adate	2019/09/16time	15:22:35forward acquisition time	60.00reverse acquisition time	0.00gamma	496.2192k internal	0.2292k external	0.2292temperature offset calibration	0.9951default loss term (dB/km)	0.3790temperature slope calibration	1.0000multiplexer offset coefficient	1.0000multiplexer slope coefficient	1.0000fibre end	0.00T internal ref (°C)	41.06T ext. ref 1 (°C)	14.62T ext. ref 2 (°C)	37.47length (m)	temperature (°C)	Stokes	anti-Stokes-747.200	30.676	-0.025	-0.022
-746.185	800.000	-0.022	0.089
-745.171	279.402	-0.055	0.101
-744.156	14.729	0.140	-0.112
-743.142	61.721	-0.259	-0.264
-742.127	-200.000	-0.006	0.392
-741.112	42.091	0.153	-0.142
-740.098	238.286	0.152	0.258
-739.083	-30.632	0.253	-0.146
-738.069	7.830	-0.049	0.038
-737.054	22.813	-0.136	-0.114
-736.039	-200.000	0.005	-0.086
-735.025	-168.876	0.100	-0.004
-734.010	-200.000	-0.014	-0.217
-732.996	-200.000	0.021	-0.414
-731.981	-33.201	-0.121	-0.069
-730.966	337.544	0.181	-0.360
-729.952	-200.000	0.010	-0.273
-728.937	-49.625	0.147	0.071
-727.923	116.116	-0.101	-0.127
-726.908	-2.816	-0.163	-0.117
-725.894	49.328	-0.017	-0.017
-724.879	-196.478	-0.170	-0.001
-723.864	201.673	0.148	-0.233
-722.850	-116.386	0.156	-0.030
-721.835	143.313	0.228	-0.311
-720.821	-134.471	0.014	0.002
-719.806	-142.392	-0.254	0.026
-718.791	-114.815	0.051	-0.010
-717.777	-112.942	-0.203	-0.041
-716.762	740.554	0.065	0.179
-715.748	-80.883	-0.084	-0.028
-714.733	-200.000	-0.082	-0.409
-713.718	583.116	0.182	-0.457
-712.704	-67.164	0.228	0.092
-711.689	297.940	0.104	-0.196
-710.675	46.202	0.258	-0.244
-709.660	800.000	0.098	0.289
-708.645	-18.205	0.177	0.113
-707.631	800.000	-0.025	-0.097
-706.616	800.000	-0.012	0.040
-705.602	-85.101	-0.535	0.171
-704.587	-9.327	0.239	-0.163
-703.572	-91.456	0.320	0.093
-702.558	91.872	0.105	0.120
-701.543	800.000	-0.014	-0.062
-700.529	27.243	-0.308	-0.265
-699.514	392.131	0.167	-0.354
-698.499	-200.000	0.005	0.185
-697.485	-5.167	-0.215	-0.151
-696.470	-110.265	-0.171	0.036
-695.456	800.000	-0.015	-0.056
-694.441	-29.795	-0.232	-0.135
-693.426	-200.000	0.050	-0.302
-692.412	-97.508	0.383	0.102
-691.397	-200.000	-0.042	-0.231
-690.383	-36.273	0.482	-0.266
-689.368	-200.000	0.032	-0.150
-688.354	-77.889	-0.071	0.025
-687.339	237.800	0.168	-0.285
-686.324	-32.809	0.265	-0.150
-685.310	-24.203	0.314	0.192
-684.295	-170.429	0.062	0.002
-683.281	800.000	0.057	-0.250
-682.266	238.078	-0.074	-0.125
-681.251	254.299	-0.191	-0.333
-680.237	-200.000	0.004	0.216
-679.222	403.870	-0.054	-0.116
-678.208	-109.483	0.043	-0.009
-677.193	-200.000	0.025	-0.304
-676.178	-126.421	-0.365	0.055
-675.164	77.430	0.178	0.194
-674.149	-29.799	-0.415	0.242
-673.135	-8.108	0.260	-0.179
-672.120	7.291	-0.047	-0.036
-671.105	-79.717	0.206	-0.071
-670.091	155.669	0.193	0.272
-669.076	-1.707	0.202	-0.145
-668.062	2.066	-0.095	-0.070
-667.047	75.967	0.145	-0.157
-666.032	546.722	-0.039	-0.095
-665.018	521.910	-0.090	0.216
-664.003	800.000	0.043	-0.126
-662.989	800.000	-0.051	-0.167
-661.974	-200.000	0.009	-0.153
-660.959	-134.985	0.101	-0.012
-659.945	-24.763	0.378	-0.229
-658.930	-70.048	0.196	0.076
-657.916	-200.000	-0.004	0.177
-656.901	536.694	-0.026	0.063
-655.886	651.499	-0.045	-0.117
-654.872	-47.489	0.081	-0.040
-653.857	262.504	-0.086	-0.152
-652.843	64.364	0.085	-0.088
-651.828	599.742	-0.024	-0.061
-650.814	17.938	0.241	-0.196
-649.799	-58.802	-0.145	0.064
-648.784	183.268	-0.117	-0.176
-647.770	800.000	0.110	-0.425
-646.755	-63.343	-0.149	-0.063
-645.741	397.794	-0.185	-0.395
-644.726	-4.335	0.130	0.091
-643.711	-99.101	-0.265	-0.068
-642.697	-200.000	0.035	-0.297
-641.682	104.203	0.058	-0.069
-640.668	1.890	0.099	0.073
-639.653	-200.000	-0.034	-0.171
-638.638	356.773	-0.115	-0.234
-637.624	-200.000	-0.025	-0.233
-636.609	521.749	0.032	0.077
-635.595	-94.927	-0.160	0.044
-634.580	247.824	0.074	0.127
-633.565	-200.000	0.010	-0.109
-632.551	631.837	-0.109	-0.281
-631.536	800.000	0.055	0.201
-630.522	173.054	0.278	-0.408
-629.507	40.280	0.153	0.141
-628.492	-69.109	-0.195	-0.077
-627.478	-51.492	0.127	0.060
-626.463	-60.847	-0.264	0.114
-625.449	-45.221	0.313	-0.159
-624.434	115.823	0.065	0.081
-623.419	36.572	0.243	-0.219
-622.405	157.727	0.083	-0.117
-621.390	673.208	0.092	-0.243
-620.376	-200.000	0.025	-0.300
-619.361	257.980	-0.053	0.093
-618.346	-160.065	0.183	0.010
-617.332	-29.081	0.252	-0.147
-616.317	744.466	0.083	0.228
-615.303	800.000	-0.060	-0.267
-614.288	-79.686	0.344	-0.118
-613.273	-187.199	0.160	-0.002
-612.259	-109.662	-0.197	0.042
-611.244	-200.000	-0.007	-0.050
-610.230	-76.739	0.104	-0.037
-609.215	800.000	-0.122	-0.395
-608.201	247.979	0.110	-0.190
-607.186	-151.124	-0.291	0.022
-606.171	-200.000	-0.059	0.355
-605.157	64.002	0.168	0.172
-604.142	-38.591	-0.219	0.118
-603.128	33.643	-0.217	0.192
-602.113	163.923	0.057	-0.082
-601.098	-200.000	0.070	0.367
-600.084	15.950	-0.298	-0.238
-599.069	-200.000	-0.034	0.218
-598.055	-41.193	-0.112	0.059
-597.040	-71.855	0.060	-0.023
-596.025	-200.000	0.207	0.000
-595.011	-19.421	0.091	0.058
-593.996	-28.505	-0.124	0.073
-592.982	-21.918	0.205	-0.127
-591.967	15.160	0.101	0.081
-590.952	268.216	-0.125	-0.222
-589.938	-200.000	-0.054	0.305
-588.923	28.597	-0.265	0.228
-587.909	-200.000	-0.034	-0.190
-586.894	426.121	0.074	-0.163
-585.879	800.000	0.054	-0.170
-584.865	-74.846	-0.243	0.089
-583.850	191.489	-0.042	-0.065
-582.836	672.047	-0.103	-0.271
-581.821	155.757	0.052	0.073
-580.806	-200.000	0.002	-0.185
-579.792	330.742	0.024	0.046
-578.777	-20.733	-0.204	0.127
-577.763	-200.000	0.014	0.073
-576.748	50.521	0.136	0.131
-575.733	-52.043	-0.153	0.072
-574.719	-200.000	-0.056	-0.366
-573.704	80.091	0.176	-0.192
-572.690	-20.527	-0.332	0.208
-571.675	-127.456	0.531	0.079
-570.661	-200.000	0.028	-0.204
-569.646	-142.526	-0.148	0.015
-568.631	800.000	0.037	0.123
-567.617	-86.012	0.085	0.027
-566.602	800.000	0.082	0.237
-565.588	389.603	0.102	0.216
-564.573	57.813	-0.202	0.201
-563.558	-131.003	0.111	-0.015
-562.544	112.713	-0.207	0.254
-561.529	-36.469	-0.094	0.051
-560.515	56.677	-0.146	-0.145
-559.500	86.845	-0.188	-0.211
-558.485	-163.996	0.336	0.016
-557.471	-200.000	-0.033	-0.333
-556.456	-192.149	-0.412	0.004
-555.442	-52.065	-0.301	0.142
-554.427	-99.291	0.280	-0.072
-553.412	-200.000	-0.038	0.247
-552.398	-13.565	0.228	-0.150
-551.383	129.158	-0.104	-0.135
-550.369	-140.210	0.046	0.005
-549.354	-200.000	-0.028	0.274
-548.339	-44.474	0.153	0.078
-547.325	-111.756	0.131	0.027
-546.310	800.000	-0.026	0.081
-545.296	28.630	-0.128	-0.110
-544.281	120.123	-0.094	0.119
-543.266	800.000	0.067	-0.214
-542.252	-112.743	0.135	0.027
-541.237	-188.743	-0.350	0.004
-540.223	336.299	-0.186	0.366
-539.208	29.726	-0.071	0.061
-538.193	-47.058	-0.243	0.120
-537.179	-200.000	-0.002	-0.268
-536.164	-63.475	-0.185	0.077
-535.150	-5.959	-0.064	-0.044
-534.135	-140.673	0.271	-0.028
-533.121	28.132	-0.203	-0.174
-532.106	-46.695	-0.225	0.112
-531.091	-86.955	-0.131	-0.041
-530.077	-158.575	0.134	-0.008
-529.062	-70.813	-0.213	0.081
-528.048	800.000	-0.116	-0.460
-527.033	800.000	-0.090	-0.289
-526.018	-83.274	-0.198	-0.065
-525.004	-200.000	0.024	0.354
-523.989	-85.757	0.072	0.023
-522.975	-78.510	0.166	0.058
-521.960	800.000	-0.064	-0.257
-520.945	800.000	-0.047	0.198
-519.931	-10.656	0.145	0.098
-518.916	193.517	-0.145	0.223
-517.902	-3.214	-0.155	-0.110
-516.887	-9.546	0.155	0.105
-515.872	-38.660	0.079	0.042
-514.858	800.000	-0.093	-0.308
-513.843	-73.873	-0.105	0.039
-512.829	-157.787	-0.501	0.030
-511.814	672.760	0.047	0.123
-510.799	54.190	0.279	-0.272
-509.785	257.877	-0.076	0.133
-508.770	-133.385	0.250	0.032
-507.756	-108.161	-0.457	0.100
-506.741	800.000	0.089	0.295
-505.726	-200.000	0.018	-0.163
-504.712	15.224	0.057	-0.045
-503.697	-200.000	-0.002	-0.086
-502.683	-64.709	-0.252	0.104
-501.668	-90.281	-0.100	0.030
-500.653	-48.013	-0.089	-0.044
-499.639	384.721	-0.075	-0.158
-498.624	244.991	0.066	0.112
-497.610	-28.840	-0.134	0.078
-496.595	-161.443	-0.044	-0.002
-495.581	200.363	0.078	-0.121
-494.566	-41.605	-0.093	-0.048
-493.551	-153.984	0.144	0.010
-492.537	-36.420	0.285	-0.156
-491.522	15.546	0.228	-0.181
-490.508	-86.652	0.338	-0.105
-489.493	-200.000	0.003	-0.178
-488.478	298.193	0.195	-0.363
-487.464	-200.000	-0.054	-0.356
-486.449	151.450	-0.213	-0.293
-485.435	-124.037	0.237	0.038
-484.420	-200.000	0.015	0.090
-483.405	713.060	-0.105	-0.281
-482.391	773.129	0.027	-0.075
-481.376	259.226	-0.052	0.091
-480.362	118.732	0.148	0.185
-479.347	-81.188	0.525	0.176
-478.332	-154.115	-0.096	0.007
-477.318	800.000	-0.081	-0.248
-476.303	-129.569	0.252	-0.035
-475.289	701.526	0.122	0.325
-474.274	-130.723	-0.201	0.027
-473.259	-157.479	-0.234	-0.014
-472.245	-74.793	-0.339	0.123
-471.230	259.485	-0.127	-0.222
-470.216	-75.654	-0.319	-0.115
-469.201	245.982	-0.124	-0.211
-468.186	-123.427	-0.435	-0.070
-467.172	-108.671	-0.199	0.043
-466.157	3.238	-0.294	0.217
-465.143	110.099	-0.197	0.240
-464.128	27.990	0.303	-0.258
-463.113	41.358	-0.346	0.317
-462.099	800.000	-0.102	0.361
-461.084	171.571	-0.131	-0.190
-460.070	-200.000	0.005	-0.035
-459.055	-200.000	-0.029	0.320
-458.040	-200.000	-0.053	-0.255
-457.026	-52.965	0.061	0.028
-456.011	188.410	-0.065	0.098
-454.997	72.674	-0.282	0.297
-453.982	245.269	0.056	0.095
-452.968	-70.783	0.076	-0.029
-451.953	64.429	0.043	-0.044
-450.938	329.508	0.043	-0.083
-449.924	-24.112	0.334	-0.202
-448.909	43.229	-0.142	-0.131
-447.895	-99.688	-0.155	-0.039
-446.880	-78.462	0.089	0.031
-445.865	-153.999	0.164	0.011
-444.851	670.685	0.099	0.260
-443.836	800.000	0.102	-0.408
-442.822	-72.134	0.130	-0.049
-441.807	143.109	0.013	0.018
-440.792	348.183	0.062	-0.123
-439.778	33.420	-0.090	0.079
-438.763	-137.283	-0.164	-0.019
-437.749	33.154	0.207	0.181
-436.734	-73.636	-0.406	0.150
-435.719	-77.718	-0.303	-0.106
-434.705	-200.000	0.021	0.199
-433.690	87.204	-0.116	-0.130
-432.676	-16.691	0.117	-0.075
-431.661	-53.327	-0.445	-0.206
-430.646	189.784	-0.124	0.188
-429.632	-106.666	0.252	0.057
-428.617	-127.450	0.154	0.023
-427.603	800.000	0.084	0.349
-426.588	545.724	0.081	0.195
-425.573	800.000	0.089	-0.286
-424.559	217.239	0.231	0.373
-423.544	576.990	0.058	0.143
-422.530	-200.000	0.032	-0.147
-421.515	800.000	-0.049	-0.174
-420.500	557.672	0.082	0.201
-419.486	52.649	-0.115	0.111
-418.471	343.777	-0.105	0.208
-417.457	-200.000	-0.021	-0.118
-416.442	142.162	-0.089	-0.119
-415.428	281.920	0.146	-0.265
-414.413	4.565	0.059	0.044
-413.398	-35.230	-0.119	-0.065
-412.384	-94.544	-0.256	0.070
-411.369	-197.872	0.375	0.002
-410.355	-200.000	0.001	-0.239
-409.340	652.509	0.129	0.334
-408.325	52.432	0.154	0.148
-407.311	-89.008	0.197	0.059
-406.296	748.425	0.140	0.381
-405.282	211.454	-0.101	0.160
-404.267	800.000	-0.021	-0.070
-403.252	89.628	-0.101	0.114
-402.238	-200.000	0.010	0.186
-401.223	98.900	-0.103	0.120
-400.209	87.920	-0.131	0.146
-399.194	4.651	-0.182	-0.135
-398.179	-125.589	0.037	0.006
-397.165	800.000	-0.071	0.255
-396.150	-23.640	0.201	-0.122
-395.136	-29.146	-0.208	0.121
-394.121	-188.234	-0.185	-0.002
-393.106	109.299	0.083	0.101
-392.092	669.525	-0.051	0.132
-391.077	-200.000	-0.019	-0.219
-390.063	122.649	-0.185	0.233
-389.048	-160.828	0.210	-0.011
-388.033	-14.480	0.205	0.133
-387.019	-13.016	-0.210	-0.138
-386.004	73.190	0.026	0.028
-384.990	421.325	0.057	-0.123
-383.975	-59.317	0.217	0.094
-382.960	800.000	-0.138	0.429
-381.946	-100.620	0.224	0.056
-380.931	491.286	0.083	-0.191
-379.917	-200.000	-0.006	0.152
-378.902	-200.000	-0.152	0.000
-377.888	129.826	0.048	-0.062
-376.873	163.957	0.217	0.308
-375.858	-85.363	-0.370	0.116
-374.844	-51.432	0.108	-0.051
-373.829	90.502	0.134	0.151
-372.815	-24.438	-0.110	-0.066
-371.800	-62.576	0.266	-0.111
-370.785	-101.146	0.480	0.119
-369.771	-163.537	-0.351	-0.017
-368.756	-24.556	-0.261	0.157
-367.742	239.095	0.176	0.295
-366.727	-179.142	0.320	-0.007
-365.712	139.275	0.193	-0.256
-364.698	-35.671	-0.099	-0.054
-363.683	90.044	0.031	0.035
-362.669	668.763	0.073	-0.191
-361.654	-200.000	0.000	-0.041
-360.639	6.706	-0.073	0.055
-359.625	53.551	0.110	0.106
-358.610	-53.822	-0.198	0.091
-357.596	800.000	-0.021	-0.085
-356.581	19.864	0.067	-0.054
-355.566	29.418	0.155	-0.132
-354.552	-200.000	-0.065	0.505
-353.537	231.116	-0.100	0.164
-352.523	305.357	-0.190	0.356
-351.508	-29.773	-0.071	-0.041
-350.493	0.423	0.295	-0.212
-349.479	-200.000	-0.009	-0.174
-348.464	-6.482	0.047	-0.032
-347.450	50.117	-0.188	0.179
-346.435	179.512	0.113	-0.166
-345.420	399.155	-0.105	0.222
-344.406	-79.164	0.418	0.143
-343.391	800.000	0.080	-0.338
-342.377	194.455	-0.216	0.330
-341.362	434.565	0.133	0.290
-340.348	-200.000	-0.013	-0.240
-339.333	-200.000	0.038	-0.250
-338.318	477.172	0.119	0.271
-337.304	800.000	-0.039	0.108
-336.289	78.044	-0.169	-0.181
-335.275	-200.000	-0.010	-0.143
-334.260	-104.638	-0.143	-0.033
-333.245	-54.994	0.124	-0.056
-332.231	129.541	0.240	0.308
-331.216	-70.705	0.332	-0.126
-330.202	-200.000	0.138	-0.000
-329.187	99.155	0.421	-0.490
-328.172	-37.203	0.138	0.074
-327.158	-200.000	0.016	0.073
-326.143	-63.193	0.198	0.082
-325.129	-84.155	0.267	0.085
-324.114	-1.232	0.214	0.152
-323.099	96.513	-0.273	-0.314
-322.085	82.956	0.167	-0.183
-321.070	-200.000	0.028	0.192
-320.056	155.339	-0.156	0.216
-319.041	-99.630	0.190	-0.048
-318.026	-131.950	-0.197	0.026
-317.012	5.728	0.359	-0.267
-315.997	-200.000	0.008	-0.193
-314.983	129.879	-0.141	0.182
-313.968	-200.000	-0.001	0.281
-312.953	800.000	-0.067	0.232
-311.939	37.578	0.132	0.118
-310.924	485.640	0.020	0.046
-309.910	390.042	-0.102	-0.213
-308.895	-200.000	0.015	-0.215
-307.880	-42.176	-0.081	0.042
-306.866	-200.000	0.014	0.088
-305.851	-200.000	-0.026	-0.129
-304.837	-138.257	0.225	0.025
-303.822	216.093	-0.117	-0.186
-302.807	-116.730	0.163	0.030
-301.793	364.956	0.067	0.136
-300.778	99.627	-0.114	-0.133
-299.764	30.810	0.231	0.199
-298.749	-58.279	0.043	0.019
-297.735	-200.000	-0.011	-0.327
-296.720	-200.000	-0.040	-0.262
-295.705	-135.622	-0.263	-0.031
-294.691	25.078	0.240	0.200
-293.676	-200.000	-0.044	0.260
-292.662	195.977	-0.148	-0.226
-291.647	-200.000	-0.329	0.001
-290.632	100.623	-0.142	0.166
-289.618	-200.000	0.021	0.146
-288.603	-57.062	0.093	0.041
-287.589	800.000	0.055	-0.162
-286.574	-200.000	-0.062	-0.329
-285.559	97.721	0.082	0.095
-284.545	85.862	0.146	-0.161
-283.530	-102.159	0.125	-0.030
-282.516	183.512	0.067	-0.099
-281.501	78.541	-0.266	0.286
-280.486	-117.878	-0.131	-0.024
-279.472	-160.147	-0.069	0.004
-278.457	-112.547	-0.348	-0.070
-277.443	-51.527	0.402	-0.189
-276.428	-200.000	-0.009	-0.160
-275.413	-73.033	0.130	0.048
-274.399	201.201	-0.044	0.068
-273.384	-15.906	-0.216	0.138
-272.370	-26.386	-0.283	-0.167
-271.355	101.219	0.005	0.006
-270.340	-200.000	0.006	0.247
-269.326	-94.000	0.206	-0.057
-268.311	800.000	-0.093	0.334
-267.297	-49.291	-0.247	-0.119
-266.282	800.000	-0.028	-0.114
-265.267	-92.302	0.068	0.019
-264.253	-120.155	0.215	-0.037
-263.238	620.711	-0.123	0.311
-262.224	0.157	-0.227	0.163
-261.209	21.166	0.252	-0.205
-260.195	5.220	-0.334	-0.247
-259.180	615.084	-0.035	-0.088
-258.165	-121.458	-0.508	0.085
-257.151	-200.000	0.061	-0.268
-256.136	164.494	0.065	0.092
-255.122	165.329	-0.037	0.052
-254.107	429.892	0.114	-0.248
-253.092	108.639	0.200	0.240
-252.078	225.654	-0.017	-0.028
-251.063	-18.809	-0.298	0.186
-250.049	-200.000	-0.020	0.162
-249.034	359.940	-0.094	-0.190
-248.019	-3.375	0.061	0.042
-247.005	-35.551	0.233	0.127
-245.990	-200.000	-0.011	-0.174
-244.976	-54.466	0.142	-0.065
-243.961	-81.566	0.217	0.071
-242.946	-52.566	0.217	0.101
-241.932	256.453	0.053	0.091
-240.917	-200.000	0.002	-0.158
-239.903	-78.032	0.311	-0.108
-238.888	-110.278	-0.283	-0.059
-237.873	-105.797	0.215	0.049
-236.859	-15.008	-0.200	-0.128
-235.844	-124.343	0.443	0.069
-234.830	239.014	0.206	-0.343
-233.815	-200.000	-0.057	0.294
-232.800	-200.000	0.003	0.207
-231.786	119.235	-0.028	0.035
-230.771	800.000	0.155	-0.439
-229.757	98.055	-0.152	0.175
-228.742	16.067	0.058	0.046
-227.727	-47.392	-0.079	-0.039
-226.713	98.282	-0.150	-0.174
-225.698	-200.000	0.048	-0.265
-224.684	-0.374	0.281	0.200
-223.669	-200.000	-0.025	-0.251
-222.655	50.264	0.083	-0.078
-221.640	24.743	0.229	0.190
-220.625	27.762	-0.109	0.092
-219.611	-156.378	0.097	-0.006
-218.596	60.977	0.068	-0.068
-217.582	-80.210	0.346	0.116
-216.567	-118.382	-0.056	-0.010
-215.552	-109.643	-0.172	-0.036
-214.538	-122.502	0.275	0.045
-213.523	-58.504	0.113	0.049
-212.509	-173.349	0.387	0.012
-211.494	-200.000	-0.044	0.312
-210.479	800.000	0.050	0.196
-209.465	122.085	0.183	-0.229
-208.450	-84.971	0.237	0.074
-207.436	-70.119	-0.300	-0.114
-206.421	-49.767	0.252	-0.120
-205.406	800.000	0.041	0.124
-204.392	-129.406	-0.076	0.011
-203.377	-106.461	0.280	-0.063
-202.363	178.530	0.136	0.200
-201.348	-105.966	-0.076	0.017
-200.333	-161.460	0.094	-0.005
-199.319	-22.997	-0.151	0.091
-198.304	-200.000	-0.086	-0.391
-197.290	-43.067	-0.246	0.125
-196.275	-200.000	-0.067	0.453
-195.260	-200.000	-0.019	0.408
-194.246	510.517	0.055	0.128
-193.231	-88.328	-0.414	0.124
-192.217	800.000	-0.040	0.141
-191.202	-115.549	0.108	-0.020
-190.187	-102.273	-0.330	-0.079
-189.173	-74.979	0.229	-0.082
-188.158	800.000	-0.040	0.146
-187.144	157.606	0.148	-0.206
-186.129	-86.807	-0.166	0.051
-185.114	-35.991	-0.197	-0.107
-184.100	209.249	0.070	0.110
-183.085	-155.678	0.148	0.009
-182.071	21.651	-0.121	-0.098
-181.056	96.828	-0.194	-0.222
-180.042	610.375	0.045	0.113
-179.027	-103.482	0.154	-0.036
-178.012	-35.180	-0.098	0.053
-176.998	800.000	0.025	0.110
-175.983	800.000	0.124	-0.424
-174.969	-200.000	-0.072	-0.519
-173.954	51.680	0.084	-0.080
-172.939	-200.000	0.018	0.338
-171.925	472.207	-0.063	-0.142
-170.910	128.701	0.125	0.159
-169.896	-87.991	-0.206	-0.062
-168.881	175.492	0.111	-0.161
-167.866	-116.143	-0.285	0.053
-166.852	254.919	-0.180	0.308
-165.837	-99.121	0.154	0.039
-164.823	-102.574	0.252	-0.060
-163.808	-114.428	0.198	0.038
-162.793	800.000	0.072	-0.213
-161.779	-96.315	-0.296	-0.079
-160.764	-200.000	-0.067	-0.324
-159.750	-125.995	-0.265	0.040
-158.735	76.498	-0.050	-0.053
-157.720	-116.347	0.037	-0.007
-156.706	791.803	0.040	-0.109
-155.691	-179.920	-0.330	-0.007
-154.677	26.228	0.149	0.124
-153.662	-151.005	0.192	-0.014
-152.647	375.722	-0.118	0.240
-151.633	294.235	0.101	0.185
-150.618	222.290	0.126	-0.203
-149.604	-200.000	0.055	-0.515
-148.589	-51.251	0.402	-0.188
-147.574	-200.000	-0.005	0.159
-146.560	-200.000	-0.012	0.233
-145.545	199.657	0.089	-0.136
-144.531	-27.887	0.342	0.198
-143.516	25.958	0.315	-0.263
-142.502	-137.011	0.414	0.047
-141.487	-87.970	0.351	0.106
-140.472	66.521	-0.311	-0.316
-139.458	7.621	-0.123	-0.092
-138.443	-200.000	-0.015	0.104
-137.429	84.832	0.074	-0.082
-136.414	-200.000	-0.067	0.308
-135.399	79.958	-0.097	-0.104
-134.385	50.320	-0.215	0.203
-133.370	389.749	-0.078	-0.162
-132.356	-200.000	0.023	-0.416
-131.341	-200.000	-0.007	-0.083
-130.326	-200.000	0.008	0.202
-129.312	-200.000	-0.048	0.388
-128.297	800.000	-0.097	0.318
-127.283	-86.809	0.349	0.107
-126.268	-118.268	0.202	-0.036
-125.253	72.026	-0.133	-0.138
-124.239	469.261	0.012	-0.028
-123.224	-98.060	-0.279	-0.072
-122.210	800.000	0.010	0.039
-121.195	-164.594	-0.163	-0.007
