DTS Sentinel unit serial number:	SN413079Multiplexer serial number:	ORYXHardware model number:	OX4-SRSoftware version number:	ORYX F/W v4.00 Oryx Data Collector v3.7.2.0data status	okinstallation	princeton_trtdifferential loss correction	single-endedforward channel	channel 1reverse channel	N/Adate	2019/09/11time	07:04:11forward acquisition time	60.00reverse acquisition time	0.00gamma	496.2192k internal	0.2330k external	0.2330temperature offset calibration	0.9912default loss term (dB/km)	0.3790temperature slope calibration	1.0000multiplexer offset coefficient	1.0000multiplexer slope coefficient	1.0000fibre end	0.00T internal ref (°C)	30.23T ext. ref 1 (°C)	-0.11T ext. ref 2 (°C)	26.14length (m)	temperature (°C)	Stokes	anti-Stokes-747.200	-200.000	-0.002	-0.157
-746.185	-135.361	-0.359	0.043
-745.171	-95.262	0.062	0.017
-744.156	-200.000	0.054	0.494
-743.142	312.156	0.139	-0.262
-742.127	-123.925	0.149	0.024
-741.112	-135.627	0.206	-0.025
-740.098	-200.000	-0.006	0.118
-739.083	457.127	0.070	-0.156
-738.069	100.774	-0.280	0.328
-737.054	-68.087	0.136	-0.054
-736.039	-25.610	-0.250	-0.149
-735.025	400.917	-0.153	0.322
-734.010	-200.000	-0.034	-0.373
-732.996	-92.746	-0.158	-0.045
-731.981	131.746	-0.214	0.277
-730.966	-200.000	0.021	0.171
-729.952	-200.000	0.025	0.154
-728.937	800.000	-0.040	-0.131
-727.923	173.127	0.114	0.165
-726.908	156.789	-0.171	-0.238
-725.894	-2.201	-0.312	-0.220
-724.879	85.467	-0.232	0.257
-723.864	124.418	0.097	-0.122
-722.850	170.009	-0.109	0.156
-721.835	59.628	-0.191	0.190
-720.821	-114.362	-0.290	-0.056
-719.806	2.089	-0.104	0.076
-718.791	63.528	-0.148	0.150
-717.777	-200.000	0.014	0.089
-716.762	163.987	-0.098	-0.139
-715.748	-81.397	0.126	0.042
-714.733	800.000	0.066	-0.233
-713.718	364.069	0.040	-0.080
-712.704	65.526	0.132	0.135
-711.689	40.201	-0.069	0.063
-710.675	15.541	-0.054	-0.043
-709.660	60.253	-0.274	0.273
-708.645	103.113	0.015	-0.018
-707.631	-200.000	-0.013	0.113
-706.616	791.721	-0.097	-0.268
-705.602	125.793	0.250	-0.318
-704.587	-125.616	0.300	0.046
-703.572	-200.000	-0.022	-0.264
-702.558	170.390	0.102	-0.146
-701.543	46.700	-0.098	0.091
-700.529	-47.097	0.182	0.089
-699.514	-200.000	-0.015	0.123
-698.499	-200.000	-0.002	0.049
-697.485	-118.047	-0.111	-0.020
-696.470	506.741	0.065	0.152
-695.456	-70.724	0.096	0.037
-694.441	-200.000	0.033	-0.622
-693.426	65.261	0.281	-0.286
-692.412	312.702	-0.118	-0.222
-691.397	-136.131	-0.242	-0.029
-690.383	-114.112	-0.328	0.064
-689.368	-79.173	-0.284	-0.097
-688.354	339.005	0.055	-0.108
-687.339	-168.655	0.216	-0.008
-686.324	-200.000	0.012	-0.062
-685.310	-1.625	-0.119	0.084
-684.295	800.000	-0.154	0.453
-683.281	431.353	0.068	-0.148
-682.266	-200.000	-0.001	0.261
-681.251	-160.392	-0.314	-0.017
-680.237	78.568	0.113	0.122
-679.222	187.988	-0.141	-0.212
-678.208	72.564	0.070	-0.073
-677.193	-27.810	0.135	-0.079
-676.178	196.852	-0.147	0.224
-675.164	-200.000	0.060	0.316
-674.149	-200.000	0.143	0.000
-673.135	17.431	0.152	0.121
-672.120	-200.000	-0.008	0.187
-671.105	269.289	0.024	-0.042
-670.091	-8.235	-0.273	-0.184
-669.076	451.030	-0.080	-0.178
-668.062	-200.000	-0.012	-0.335
-667.047	-200.000	0.040	-0.317
-666.032	-200.000	0.035	0.265
-665.018	-55.043	-0.276	-0.125
-664.003	-200.000	0.047	0.255
-662.989	-80.917	0.232	-0.077
-661.974	-86.130	0.132	0.041
-660.959	268.835	-0.110	0.193
-659.945	37.831	-0.132	0.118
-658.930	36.043	0.032	0.028
-657.916	72.538	-0.171	-0.179
-656.901	-63.814	0.160	-0.066
-655.886	-200.000	-0.011	0.397
-654.872	-114.540	0.122	0.024
-653.857	-139.291	0.222	0.024
-652.843	-200.000	0.015	-0.097
-651.828	402.078	-0.077	-0.162
-650.814	136.459	-0.217	0.284
-649.799	176.843	0.258	-0.376
-648.784	-200.000	0.024	-0.202
-647.770	127.708	0.139	0.177
-646.755	-116.715	-0.234	-0.043
-645.741	-142.597	-0.235	0.023
-644.726	-94.270	-0.499	0.137
-643.711	-96.557	0.250	0.066
-642.697	-58.601	0.396	0.172
-641.682	-200.000	-0.058	0.401
-640.668	-145.034	-0.347	0.032
-639.653	173.791	0.171	-0.248
-638.638	-7.135	-0.291	-0.198
-637.624	378.326	-0.020	-0.041
-636.609	-200.000	0.012	-0.079
-635.595	-200.000	-0.050	-0.223
-634.580	800.000	0.018	-0.064
-633.565	37.426	-0.153	-0.136
-632.551	-200.000	-0.031	-0.164
-631.536	213.057	0.054	0.085
-630.522	800.000	-0.060	0.195
-629.507	800.000	0.128	0.394
-628.492	-141.593	-0.211	-0.021
-627.478	-117.599	0.177	0.032
-626.463	-190.961	-0.574	0.006
-625.449	-200.000	-0.061	0.288
-624.434	295.841	-0.229	-0.421
-623.419	-111.216	0.111	0.023
-622.405	9.796	-0.046	-0.035
-621.390	-28.301	-0.204	0.118
-620.376	-60.676	0.087	0.037
-619.361	-147.943	0.186	0.015
-618.346	-20.479	0.083	0.051
-617.332	-85.550	0.182	-0.057
-616.317	-25.851	0.293	-0.173
-615.303	-77.264	0.013	0.005
-614.288	-77.818	0.299	0.103
-613.273	-13.565	-0.123	-0.080
-612.259	-200.000	0.019	0.165
-611.244	-185.757	-0.370	0.006
-610.230	70.232	-0.210	-0.218
-609.215	-42.744	-0.213	0.109
-608.201	800.000	-0.083	-0.293
-607.186	42.210	-0.132	-0.120
-606.171	800.000	-0.147	-0.560
-605.157	46.200	-0.163	-0.151
-604.142	-1.924	-0.151	0.107
-603.128	-200.000	-0.022	0.218
-602.113	800.000	0.082	0.227
-601.098	800.000	-0.122	-0.373
-600.084	-173.808	-0.377	0.011
-599.069	-145.814	-0.232	0.021
-598.055	21.477	-0.119	-0.097
-597.040	-175.737	-0.548	0.015
-596.025	-78.663	0.072	-0.025
-595.011	800.000	-0.076	-0.288
-593.996	-200.000	0.072	-0.347
-592.982	-35.539	-0.314	0.171
-591.967	800.000	0.042	0.133
-590.952	-29.323	-0.307	-0.176
-589.938	138.418	-0.172	-0.226
-588.923	-200.000	-0.019	0.470
-587.909	-200.000	-0.054	0.290
-586.894	-83.706	0.332	0.106
-585.879	-8.634	-0.217	-0.146
-584.865	30.286	0.118	0.101
-583.850	-200.000	-0.007	-0.078
-582.836	-47.713	0.161	-0.078
-581.821	76.214	-0.210	0.223
-580.806	-200.000	-0.030	-0.241
-579.792	-200.000	-0.004	0.177
-578.777	312.266	-0.080	-0.151
-577.763	-2.990	-0.211	-0.147
-576.748	-142.129	0.219	-0.022
-575.733	48.801	-0.057	0.054
-574.719	4.500	0.204	0.150
-573.704	108.686	-0.106	-0.126
-572.690	192.495	0.129	0.195
-571.675	2.862	0.115	-0.083
-570.661	-100.498	-0.050	-0.012
-569.646	-78.686	-0.164	0.056
-568.631	51.305	0.254	-0.241
-567.617	-98.302	-0.156	-0.040
-566.602	324.425	0.102	0.195
-565.588	97.937	-0.012	0.014
-564.573	35.789	-0.223	0.196
-563.558	110.152	0.219	0.263
-562.544	-39.215	-0.179	0.094
-561.529	-200.000	0.008	-0.113
-560.515	800.000	-0.092	-0.327
-559.500	-200.000	-0.000	-0.186
-558.485	44.220	-0.239	0.219
-557.471	-200.000	-0.047	-0.237
-556.456	-173.578	-0.072	-0.002
-555.442	-200.000	-0.005	-0.238
-554.427	-89.343	0.324	0.095
-553.412	90.851	-0.285	-0.319
-552.398	152.695	0.225	-0.307
-551.383	-97.976	-0.281	-0.072
-550.369	-45.750	0.282	-0.139
-549.354	-87.197	0.399	-0.121
-548.339	-33.416	-0.276	-0.152
-547.325	-21.641	-0.358	-0.218
-546.310	-200.000	-0.036	-0.194
-545.296	-91.973	-0.084	0.024
-544.281	81.244	0.462	0.499
-543.266	-200.000	-0.009	-0.163
-542.252	-86.645	0.072	0.022
-541.237	154.791	-0.070	-0.096
-540.223	56.235	0.093	-0.090
-539.208	-200.000	-0.002	0.285
-538.193	-200.000	-0.010	0.135
-537.179	-200.000	-0.062	0.601
-536.164	-105.118	0.277	-0.063
-535.150	-200.000	-0.027	-0.249
-534.135	7.795	0.104	0.078
-533.121	540.752	-0.135	0.322
-532.106	-158.377	0.121	0.007
-531.091	36.022	-0.351	-0.308
-530.077	78.942	-0.204	-0.218
-529.062	800.000	0.071	-0.229
-528.048	-133.567	0.263	-0.033
-527.033	-150.541	-0.321	-0.025
-526.018	7.050	-0.194	0.144
-525.004	175.471	0.127	0.183
-523.989	-14.155	0.332	-0.214
-522.975	484.173	-0.118	-0.268
-521.960	-200.000	0.034	0.367
-520.945	800.000	0.045	0.189
-519.931	66.883	0.074	0.075
-518.916	22.894	-0.177	-0.145
-517.902	-200.000	-0.032	0.150
-516.887	-141.888	0.149	-0.015
-515.872	233.358	-0.070	-0.115
-514.858	-115.446	0.239	-0.045
-513.843	302.302	-0.063	0.116
-512.829	-34.742	0.188	-0.102
-511.814	562.979	0.067	-0.162
-510.799	-200.000	-0.002	-0.046
-509.785	-58.498	-0.058	-0.025
-508.770	-119.128	0.215	-0.037
-507.756	43.993	-0.217	0.199
-506.741	-23.249	0.213	-0.128
-505.726	156.488	-0.204	-0.282
-504.712	277.301	-0.078	-0.138
-503.697	-18.554	-0.197	0.123
-502.683	-100.733	0.200	0.049
-501.668	800.000	0.070	0.197
-500.653	214.827	0.069	-0.109
-499.639	116.861	-0.143	-0.175
-498.624	251.895	-0.064	0.109
-497.610	-72.001	-0.159	0.059
-496.595	-34.859	0.300	0.163
-495.581	280.123	-0.128	0.228
-494.566	-29.298	0.366	-0.209
-493.551	352.683	0.083	-0.165
-492.537	800.000	0.039	0.116
-491.522	-118.814	0.165	-0.029
-490.508	-200.000	0.031	0.554
-489.493	-61.367	-0.318	0.133
-488.478	-101.656	-0.182	-0.044
-487.464	-200.000	-0.024	-0.253
-486.449	800.000	0.035	-0.112
-485.435	162.099	-0.081	0.113
-484.420	-37.086	-0.114	0.061
-483.405	-200.000	0.009	0.090
-482.391	-150.698	-0.271	0.021
-481.376	-108.028	-0.352	-0.076
-480.362	752.764	0.033	-0.088
-479.347	259.935	-0.068	0.117
-478.332	-69.517	0.361	-0.138
-477.318	47.773	0.174	-0.162
-476.303	-200.000	-0.115	0.599
-475.289	-87.902	0.151	-0.045
-474.274	-200.000	-0.004	0.120
-473.259	-155.551	-0.216	0.014
-472.245	-84.041	-0.250	0.079
-471.230	-12.623	0.239	0.156
-470.216	-50.196	0.135	-0.063
-469.201	-149.916	0.098	0.008
-468.186	-200.000	-0.005	0.200
-467.172	36.981	0.163	-0.144
-466.157	-140.110	0.222	-0.023
-465.143	-11.030	0.122	0.080
-464.128	-200.000	-0.024	0.378
-463.113	616.092	-0.138	0.345
-462.099	23.958	-0.320	0.263
-461.084	26.005	-0.071	-0.059
-460.070	-4.427	0.170	-0.117
-459.055	121.296	0.039	0.048
-458.040	27.671	-0.134	-0.112
-457.026	-16.572	-0.203	0.128
-456.011	-176.908	0.286	0.007
-454.997	488.235	-0.114	0.259
-453.982	-200.000	0.011	0.153
-452.968	98.251	0.127	0.145
-451.953	717.956	-0.111	0.294
-450.938	-19.714	-0.302	0.186
-449.924	-27.801	-0.157	0.091
-448.909	-95.845	-0.111	-0.029
-447.895	17.251	0.140	0.110
-446.880	-65.726	0.283	-0.113
-445.865	-200.000	0.029	0.175
-444.851	547.311	-0.088	-0.209
-443.836	236.856	-0.043	0.070
-442.822	34.751	0.191	0.166
-441.807	-161.460	0.268	0.014
-440.792	-110.076	0.275	-0.057
-439.778	-142.437	-0.155	-0.015
-438.763	-76.227	-0.277	-0.097
-437.749	-7.113	-0.167	-0.113
-436.734	291.211	-0.045	0.082
-435.719	-110.126	-0.237	-0.049
-434.705	149.302	0.116	0.156
-433.690	-200.000	-0.013	0.262
-432.676	-129.384	-0.072	0.010
-431.661	-22.586	-0.169	0.101
-430.646	-93.018	0.265	-0.074
-429.632	92.994	-0.163	-0.183
-428.617	-92.422	-0.246	-0.069
-427.603	-68.915	-0.144	0.055
-426.588	-200.000	0.054	-0.302
-425.573	800.000	-0.019	0.061
-424.559	-200.000	0.062	0.358
-423.544	21.620	-0.181	-0.147
-422.530	95.486	0.073	0.083
-421.515	-200.000	-0.034	0.291
-420.500	-200.000	0.009	0.143
-419.486	-61.987	0.125	0.052
-418.471	656.393	-0.089	-0.227
-417.457	-33.903	0.109	0.059
-416.442	800.000	-0.072	0.242
-415.428	-67.363	0.195	-0.076
-414.413	439.599	0.131	-0.285
-413.398	-27.520	-0.087	-0.051
-412.384	-200.000	0.011	-0.343
-411.369	-200.000	0.011	0.052
-410.355	-107.810	0.288	-0.062
-409.340	-26.524	-0.165	0.096
-408.325	-89.409	-0.168	-0.049
-407.311	108.351	0.046	-0.055
-406.296	-91.936	-0.168	-0.047
-405.282	257.437	0.153	0.262
-404.267	-83.554	-0.195	-0.062
-403.252	55.406	-0.119	0.114
-402.238	-171.057	-0.138	0.005
-401.223	43.074	-0.252	-0.228
-400.209	800.000	-0.055	0.168
-399.194	-127.120	-0.209	0.030
-398.179	74.183	-0.078	-0.082
-397.165	-200.000	0.026	-0.280
-396.150	122.400	0.344	0.427
-395.136	138.134	-0.099	-0.129
-394.121	800.000	0.022	0.061
-393.106	800.000	0.090	0.345
-392.092	31.989	0.110	0.094
-391.077	800.000	0.036	-0.121
-390.063	-86.260	-0.077	-0.024
-389.048	401.757	-0.219	0.457
-388.033	206.051	0.210	0.325
-387.019	441.260	0.038	-0.082
-386.004	-98.097	-0.325	0.083
-384.990	25.635	-0.180	-0.148
-383.975	-85.627	-0.185	0.057
-382.960	-64.063	0.102	0.041
-381.946	-49.402	-0.143	0.068
-380.931	-98.670	0.420	0.106
-379.917	-49.487	0.135	-0.064
-378.902	-200.000	-0.001	-0.159
-377.888	-18.321	0.179	-0.111
-376.873	-20.614	0.186	-0.113
-375.858	-175.294	0.361	0.010
-374.844	-200.000	0.007	0.260
-373.829	-113.856	0.144	-0.028
-372.815	21.459	-0.042	-0.034
-371.800	-158.782	-0.174	0.010
-370.785	553.986	0.129	0.308
-369.771	256.395	0.037	-0.064
-368.756	395.462	0.144	-0.299
-367.742	-63.857	0.145	-0.059
-366.727	-200.000	0.003	0.081
-365.712	-200.000	-0.011	0.111
-364.698	-9.877	0.115	-0.076
-363.683	58.303	-0.160	0.156
-362.669	-80.632	-0.032	-0.010
-361.654	-124.129	0.433	0.067
-360.639	397.795	-0.071	-0.148
-359.625	84.519	0.152	-0.165
-358.610	61.579	-0.192	-0.189
-357.596	144.989	0.057	-0.076
-356.581	273.182	-0.134	-0.235
-355.566	800.000	0.076	-0.264
-354.552	261.807	-0.136	-0.233
-353.537	-117.045	-0.379	-0.069
-352.523	-129.026	0.353	0.049
-351.508	-200.000	-0.002	-0.223
-350.493	44.800	-0.223	-0.204
-349.479	92.113	-0.197	-0.220
-348.464	-200.000	0.173	0.000
-347.450	63.116	0.171	0.170
-346.435	-76.175	0.138	0.048
-345.420	-86.222	0.317	-0.097
-344.406	131.466	0.289	0.368
-343.391	-200.000	0.012	0.283
-342.377	-63.253	0.396	0.162
-341.362	-92.498	-0.246	-0.069
-340.348	-200.000	-0.064	-0.323
-339.333	-200.000	0.014	0.247
-338.318	-21.528	0.171	-0.103
-337.304	89.441	0.221	0.244
-336.289	-110.218	0.192	-0.040
-335.275	104.031	-0.079	-0.092
-334.260	108.411	0.174	0.206
-333.245	-4.365	-0.166	0.114
-332.231	-110.368	0.127	-0.026
-331.216	-200.000	0.005	0.087
-330.202	-21.801	-0.296	0.179
-329.187	87.540	-0.283	-0.311
-328.172	-84.272	-0.323	0.101
-327.158	800.000	0.018	0.056
-326.143	23.729	-0.191	0.156
-325.129	15.479	-0.215	0.167
-324.114	-200.000	0.021	-0.285
-323.099	-200.000	0.025	-0.131
-322.085	-63.835	-0.137	0.056
-321.070	-38.987	-0.050	-0.026
-320.056	-200.000	-0.038	0.168
-319.041	-178.736	-0.279	-0.006
-318.026	-200.000	-0.028	-0.177
-317.012	800.000	-0.034	-0.132
-315.997	-200.000	-0.001	-0.063
-314.983	-134.576	-0.123	0.015
-313.968	38.295	0.102	-0.090
-312.953	-200.000	-0.006	-0.570
-311.939	210.804	-0.153	-0.239
-310.924	-62.944	-0.262	-0.107
-309.910	-174.233	0.070	0.002
-308.895	-157.097	-0.068	-0.004
-307.880	269.084	-0.040	0.070
-306.866	800.000	0.071	-0.270
-305.851	390.738	-0.161	-0.332
-304.837	800.000	0.042	0.135
-303.822	491.665	0.124	0.281
-302.807	-200.000	0.019	-0.127
-301.793	-90.207	-0.144	-0.041
-300.778	800.000	0.006	-0.025
-299.764	1.833	0.292	0.208
-298.749	-39.688	-0.316	0.163
-297.735	245.298	0.079	0.131
-296.720	469.892	0.128	-0.284
-295.705	-31.392	0.180	0.100
-294.691	55.294	-0.188	0.179
-293.676	-200.000	-0.010	0.260
-292.662	-95.662	0.142	0.038
-291.647	335.090	-0.102	0.196
-290.632	86.034	0.191	0.208
-289.618	573.791	0.119	0.287
-288.603	54.692	-0.089	0.084
-287.589	-112.799	-0.114	-0.022
-286.574	-200.000	0.025	-0.314
-285.559	327.809	-0.137	0.259
-284.545	-200.000	-0.055	0.000
-283.530	-96.256	-0.096	-0.025
-282.516	-92.376	-0.347	-0.097
-281.501	444.843	0.055	0.119
-280.486	251.100	-0.163	0.274
-279.472	800.000	0.126	-0.475
-278.457	-51.175	-0.154	0.071
-277.443	129.192	-0.100	0.126
-276.428	419.409	-0.138	-0.292
-275.413	-81.492	0.437	0.142
-274.399	-75.927	-0.198	0.069
-273.384	-115.477	0.200	-0.037
-272.370	383.248	0.132	-0.269
-271.355	800.000	-0.041	0.131
-270.340	-200.000	0.012	-0.369
-269.326	800.000	0.116	-0.351
-268.311	-72.082	0.416	0.153
-267.297	-109.528	-0.180	0.037
-266.282	800.000	-0.026	-0.110
-265.267	-200.000	0.039	-0.173
-264.253	-64.044	-0.412	-0.166
-263.238	87.727	0.192	0.211
-262.224	-53.743	0.352	-0.159
-261.209	-39.421	-0.105	-0.054
-260.195	-168.232	0.320	0.012
-259.180	-135.410	0.130	-0.015
-258.165	-60.108	0.318	-0.134
-257.151	112.844	-0.176	0.211
-256.136	162.807	0.048	0.067
-255.122	321.921	0.062	-0.116
-254.107	-50.484	-0.209	-0.098
-253.092	106.879	0.147	-0.173
-252.078	800.000	0.089	-0.310
-251.063	-105.728	0.220	0.049
-250.049	204.884	0.114	0.175
-249.034	382.205	-0.150	0.304
-248.019	125.881	-0.183	-0.228
-247.005	-39.895	0.029	-0.015
-245.990	-200.000	-0.014	-0.298
-244.976	138.404	0.126	-0.163
-243.961	82.253	0.188	0.202
-242.946	-144.949	-0.252	-0.023
-241.932	55.257	0.068	0.065
-240.917	10.634	0.184	0.139
-239.903	24.741	-0.111	0.091
-238.888	-15.108	0.168	0.106
-237.873	-200.000	-0.006	0.117
-236.859	-133.735	-0.184	0.023
-235.844	-200.000	-0.008	0.042
-234.830	-117.006	-0.152	-0.027
-233.815	-20.487	0.263	0.160
-232.800	601.590	0.043	-0.105
-231.786	-67.871	0.357	-0.138
-230.771	-73.929	0.366	-0.131
-229.757	-200.000	0.037	0.182
-228.742	104.125	0.127	-0.148
-227.727	-134.318	0.059	0.007
-226.713	7.740	0.033	0.024
-225.698	146.945	0.075	0.099
-224.684	-200.000	0.066	0.455
-223.669	-200.000	-0.079	0.350
-222.655	24.991	0.119	0.098
-221.640	-84.128	0.161	0.051
-220.625	43.106	-0.183	-0.164
-219.611	-85.567	-0.227	0.070
-218.596	-200.000	-0.045	-0.226
-217.582	202.489	0.204	-0.311
-216.567	-64.137	0.105	0.042
-215.552	203.662	-0.035	0.053
-214.538	-191.950	0.163	0.002
-213.523	72.081	0.208	-0.214
-212.509	-173.476	-0.342	0.010
-211.494	-116.250	-0.105	-0.019
-210.479	-94.216	-0.104	0.028
-209.465	800.000	0.080	-0.272
-208.450	28.534	-0.033	-0.028
-207.436	800.000	-0.096	0.328
-206.421	98.934	-0.252	-0.287
-205.406	-33.204	0.167	-0.091
-204.392	384.079	0.093	-0.189
-203.377	1.989	0.157	0.112
-202.363	7.446	-0.260	0.192
-201.348	-97.829	-0.236	-0.060
-200.333	-200.000	0.031	0.190
-199.319	-200.000	0.016	-0.299
-198.304	-107.095	0.277	0.060
-197.290	-36.731	-0.280	0.148
-196.275	-81.712	0.244	-0.079
-195.260	342.609	0.109	0.210
-194.246	800.000	-0.160	0.590
-193.231	155.985	-0.042	-0.057
-192.217	79.423	0.179	-0.189
-191.202	-72.277	-0.324	-0.118
-190.187	-200.000	0.019	0.290
-189.173	37.909	-0.138	-0.121
-188.158	-42.692	-0.032	-0.016
-187.144	-113.287	0.020	-0.004
-186.129	-106.259	0.205	-0.045
-185.114	-140.052	-0.234	-0.024
-184.100	-23.816	0.236	-0.139
-183.085	22.833	0.103	-0.083
-182.071	597.478	-0.138	-0.337
-181.056	134.538	0.039	-0.050
-180.042	800.000	0.051	-0.176
-179.027	800.000	0.093	0.346
-178.012	-87.620	0.471	0.140
-176.998	-200.000	0.009	-0.279
-175.983	-200.000	0.029	0.177
-174.969	-169.803	-0.307	0.011
-173.954	175.622	0.126	-0.180
-172.939	56.602	0.140	-0.134
-171.925	-200.000	0.073	-0.328
-170.910	78.220	-0.060	0.063
-169.896	188.226	-0.108	-0.158
-168.881	133.245	0.220	0.280
-167.866	-200.000	0.004	0.090
-166.852	-200.000	-0.002	0.190
-165.837	-0.940	0.134	-0.094
-164.823	-200.000	0.009	0.353
-163.808	-96.821	0.315	-0.082
-162.793	489.836	-0.101	-0.226
-161.779	-200.000	0.000	-0.049
-160.764	212.094	0.063	-0.098
-159.750	800.000	-0.027	0.083
-158.735	-127.613	0.302	0.043
-157.720	-87.163	0.159	0.048
-156.706	19.254	0.307	-0.243
-155.691	-129.942	0.139	-0.019
-154.677	-200.000	0.001	0.121
-153.662	-95.853	0.178	-0.047
-152.647	-93.341	0.225	0.061
-151.633	-49.991	0.354	0.165
-150.618	-200.000	-0.057	0.359
-149.604	-200.000	0.006	0.199
-148.589	34.630	0.100	-0.086
-147.574	-69.228	-0.293	0.111
-146.560	684.259	0.044	-0.112
-145.545	144.668	0.116	-0.152
-144.531	169.354	0.060	0.084
-143.516	-200.000	0.028	0.210
-142.502	26.682	-0.234	0.193
-141.487	630.162	0.014	0.035
-140.472	59.552	-0.159	0.154
-139.458	800.000	-0.101	-0.294
-138.443	183.219	-0.061	0.088
-137.429	161.786	0.063	0.086
-136.414	-200.000	-0.275	-0.001
-135.399	-24.929	-0.318	-0.186
-134.385	-142.145	0.153	-0.015
-133.370	136.306	-0.085	0.109
-132.356	0.446	0.226	-0.159
-131.341	-200.000	-0.007	0.202
-130.326	800.000	-0.057	0.184
-129.312	376.941	-0.056	0.112
-128.297	419.083	0.065	0.136
-127.283	-101.251	0.145	0.035
-126.268	800.000	-0.080	0.223
-125.253	-53.303	-0.423	0.191
-124.239	383.479	0.132	-0.267
-123.224	29.462	-0.110	0.092
-122.210	-146.076	-0.049	-0.004
-121.195	6.704	-0.224	0.164
