DTS Sentinel unit serial number:	SN413079Multiplexer serial number:	ORYXHardware model number:	OX4-SRSoftware version number:	ORYX F/W v4.00 Oryx Data Collector v3.7.2.0data status	okinstallation	princeton_trtdifferential loss correction	single-endedforward channel	channel 1reverse channel	N/Adate	2019/09/12time	18:05:34forward acquisition time	15.00reverse acquisition time	0.00gamma	496.2192k internal	0.2316k external	0.2316temperature offset calibration	1.0106default loss term (dB/km)	0.3790temperature slope calibration	1.0000multiplexer offset coefficient	1.0000multiplexer slope coefficient	1.0000fibre end	0.00T internal ref (°C)	33.69T ext. ref 1 (°C)	2.98T ext. ref 2 (°C)	28.20length (m)	temperature (°C)	Stokes	anti-Stokes-747.200	300.474	-0.259	0.485
-746.185	-200.000	-0.119	0.758
-745.171	-95.478	-1.155	0.314
-744.156	65.343	0.550	0.564
-743.142	44.104	-0.277	-0.258
-742.127	-41.293	0.502	0.262
-741.112	194.228	0.451	-0.693
-740.098	-140.310	-0.412	-0.044
-739.083	110.964	-0.332	-0.405
-738.069	-12.110	-0.317	0.210
-737.054	-157.212	0.464	-0.029
-736.039	-36.796	-0.623	0.338
-735.025	800.000	-0.125	0.426
-734.010	-200.000	-0.016	-0.780
-732.996	-30.454	-0.273	-0.157
-731.981	-54.943	0.535	-0.244
-730.966	-35.332	0.939	0.517
-729.952	-200.000	0.067	-0.533
-728.937	-0.900	-0.641	0.459
-727.923	-147.367	-0.555	-0.048
-726.908	-9.951	0.284	0.191
-725.894	-155.007	0.653	-0.043
-724.879	-146.062	0.293	-0.026
-723.864	-40.968	0.141	0.074
-722.850	260.901	0.187	-0.328
-721.835	-200.000	0.135	-0.632
-720.821	119.742	-0.271	-0.339
-719.806	-120.152	-0.323	0.056
-718.791	800.000	0.309	-0.981
-717.777	52.890	-0.693	0.670
-716.762	138.973	-0.161	0.214
-715.748	-200.000	-0.028	0.186
-714.733	-168.705	-0.706	-0.027
-713.718	473.933	0.227	-0.518
-712.704	-38.475	0.316	-0.169
-711.689	153.296	0.064	0.089
-710.675	19.523	-0.279	0.227
-709.660	-170.083	0.403	-0.014
-708.645	96.716	-0.539	-0.624
-707.631	101.748	-0.491	-0.580
-706.616	-200.000	0.007	-0.205
-705.602	-98.283	0.359	-0.093
-704.587	-88.344	0.363	-0.110
-703.572	-20.500	0.318	-0.198
-702.558	-200.000	0.033	0.213
-701.543	301.825	0.459	-0.857
-700.529	-49.446	0.766	-0.369
-699.514	65.709	-0.411	-0.422
-698.499	220.886	0.502	-0.814
-697.485	25.404	-0.473	-0.398
-696.470	-138.639	0.968	0.107
-695.456	49.164	0.232	0.220
-694.441	-109.475	-0.218	0.047
-693.426	-97.225	0.381	-0.101
-692.412	-107.633	-0.231	0.051
-691.397	-200.000	-0.053	-0.408
-690.383	-140.880	-0.419	-0.044
-689.368	-16.541	-0.603	0.386
-688.354	-200.000	0.079	0.839
-687.339	-144.081	-0.458	-0.043
-686.324	-30.652	-0.395	-0.226
-685.310	139.823	0.547	-0.728
-684.295	42.280	-0.730	-0.670
-683.281	-200.000	0.091	-0.656
-682.266	-161.684	0.822	-0.042
-681.251	-200.000	0.005	-0.309
-680.237	-135.365	-0.595	0.072
-679.222	30.375	0.445	-0.384
-678.208	-200.000	-0.004	0.157
-677.193	-103.293	0.367	-0.088
-676.178	271.427	0.079	-0.141
-675.164	-155.313	-0.360	-0.024
-674.149	30.393	-0.233	-0.201
-673.135	-200.000	-0.045	0.258
-672.120	129.608	0.444	0.573
-671.105	-200.000	-0.088	-1.023
-670.091	-70.385	-0.821	-0.314
-669.076	336.415	-0.219	-0.430
-668.062	92.667	-0.115	0.132
-667.047	165.440	-0.192	-0.274
-666.032	5.417	0.747	0.557
-665.018	219.561	-0.116	0.187
-664.003	-11.207	-0.331	0.220
-662.989	65.850	-0.435	-0.446
-661.974	133.414	-0.181	-0.236
-660.959	800.000	0.191	-0.766
-659.945	-154.738	0.076	-0.005
-658.930	-200.000	0.005	-0.117
-657.916	-23.433	-0.578	-0.350
-656.901	104.436	0.606	-0.720
-655.886	-200.000	-0.051	-0.804
-654.872	-59.010	-0.368	-0.160
-653.857	96.414	0.149	-0.172
-652.843	-200.000	0.105	0.518
-651.828	-137.675	-0.564	-0.064
-650.814	131.419	0.481	0.624
-649.799	-200.000	-0.035	0.489
-648.784	57.350	0.489	0.482
-647.770	-65.948	-1.011	-0.407
-646.755	-200.000	0.064	-0.329
-645.741	86.441	-0.222	-0.247
-644.726	-57.904	0.773	-0.341
-643.711	-200.000	-0.033	-0.270
-642.697	8.431	-0.174	0.132
-641.682	41.898	0.287	-0.263
-640.668	750.260	0.228	0.621
-639.653	-13.813	-0.333	-0.217
-638.638	-200.000	0.001	0.238
-637.624	-54.414	0.202	-0.092
-636.609	-200.000	-0.109	0.704
-635.595	-96.078	0.431	-0.116
-634.580	-121.635	0.426	0.071
-633.565	-109.030	0.514	-0.111
-632.551	72.098	0.197	-0.207
-631.536	105.255	-0.435	0.518
-630.522	74.254	-0.244	-0.258
-629.507	-143.354	0.235	-0.023
-628.492	-126.577	0.513	0.077
-627.478	-3.159	-0.672	-0.473
-626.463	-168.410	-0.240	0.009
-625.449	-155.614	0.330	0.021
-624.434	-119.255	0.161	-0.028
-623.419	-88.411	-0.509	0.153
-622.405	345.856	0.371	0.736
-621.390	-200.000	0.025	-0.774
-620.376	-200.000	-0.217	1.566
-619.361	-59.603	-0.542	0.234
-618.346	800.000	-0.147	-0.417
-617.332	662.039	-0.268	-0.697
-616.317	-82.320	-0.790	0.259
-615.303	800.000	0.061	-0.201
-614.288	-200.000	0.002	-0.189
-613.273	110.821	-0.065	0.079
-612.259	61.548	0.242	0.242
-611.244	141.177	-0.179	-0.238
-610.230	-31.820	-0.720	-0.407
-609.215	-87.450	0.134	-0.041
-608.201	-8.949	0.254	-0.171
-607.186	69.282	-0.309	-0.321
-606.171	-166.431	-0.151	0.006
-605.157	-195.294	-0.420	-0.003
-604.142	78.229	0.134	-0.144
-603.128	172.570	-0.248	0.360
-602.113	800.000	0.361	-1.343
-601.098	800.000	0.136	-0.495
-600.084	133.569	0.220	-0.287
-599.069	199.866	-0.217	-0.335
-598.055	-134.725	0.688	0.084
-597.040	217.632	-0.235	-0.378
-596.025	376.681	0.316	-0.650
-595.011	-65.932	-0.220	0.089
-593.996	-12.392	-0.200	-0.132
-592.982	-200.000	0.056	0.414
-591.967	-200.000	0.053	-0.459
-590.952	165.016	-0.642	-0.913
-589.938	560.342	-0.177	0.431
-588.923	-118.545	-0.445	-0.079
-587.909	-200.000	0.033	0.152
-586.894	800.000	-0.188	0.815
-585.879	-123.922	-0.402	0.064
-584.865	-30.025	0.510	0.292
-583.850	81.075	-0.425	0.462
-582.836	-107.298	-0.993	-0.220
-581.821	-200.000	-0.069	-0.356
-580.806	-200.000	0.103	-0.786
-579.792	-118.809	1.118	-0.198
-578.777	-97.492	-1.035	-0.271
-577.763	383.072	-0.222	-0.460
-576.748	292.171	0.335	0.613
-575.733	-200.000	0.030	-0.690
-574.719	800.000	-0.222	-0.823
-573.704	587.377	-0.222	-0.549
-572.690	-78.064	0.482	0.167
-571.675	-200.000	-0.064	-0.523
-570.661	185.661	-0.161	0.240
-569.646	446.653	0.167	-0.370
-568.631	328.652	-0.255	-0.493
-567.617	166.394	0.330	0.470
-566.602	359.670	0.116	0.234
-565.588	-200.000	0.336	-0.001
-564.573	-200.000	0.108	-0.543
-563.558	-82.539	-0.305	0.099
-562.544	179.312	0.143	-0.211
-561.529	58.869	-0.368	0.364
-560.515	800.000	0.096	0.362
-559.500	108.451	-0.182	0.218
-558.485	153.280	0.243	-0.335
-557.471	293.376	-0.151	-0.277
-556.456	-20.054	0.574	0.356
-555.442	800.000	0.115	-0.439
-554.427	-110.506	-0.645	0.134
-553.412	-72.540	0.442	0.164
-552.398	-100.157	0.220	-0.055
-551.383	-77.622	0.619	0.216
-550.369	544.340	-0.120	0.287
-549.354	-200.000	0.026	0.604
-548.339	21.584	-0.462	-0.378
-547.325	-200.000	0.019	0.208
-546.310	-103.407	-0.349	-0.083
-545.296	-123.203	-0.271	0.044
-544.281	206.949	-0.285	-0.447
-543.266	-200.000	0.023	-0.126
-542.252	-200.000	0.097	-0.722
-541.237	74.775	-0.272	0.288
-540.223	499.573	0.141	0.327
-539.208	-80.872	-0.560	-0.187
-538.193	-5.449	0.269	-0.185
-537.179	0.589	0.244	0.175
-536.164	-200.000	0.098	0.485
-535.150	-115.767	0.260	-0.049
-534.135	-34.066	-0.249	0.138
-533.121	78.217	-0.298	-0.320
-532.106	-131.197	0.305	-0.041
-531.091	-94.004	-0.558	0.154
-530.077	-200.000	0.055	-1.517
-529.062	-200.000	-0.035	0.702
-528.048	175.739	0.338	0.492
-527.033	-49.697	-0.492	-0.235
-526.018	-175.005	-0.571	-0.016
-525.004	800.000	-0.226	0.819
-523.989	545.156	-0.199	-0.477
-522.975	-200.000	-0.020	-0.878
-521.960	287.681	0.272	0.494
-520.945	12.078	0.469	-0.363
-519.931	-142.171	-1.398	-0.139
-518.916	-37.057	0.711	0.383
-517.902	-167.109	-0.904	0.037
-516.887	-200.000	-0.035	-0.469
-515.872	145.376	0.402	0.541
-514.858	43.821	-0.223	0.205
-513.843	800.000	0.228	-0.876
-512.829	-70.880	0.308	-0.117
-511.814	-124.425	0.352	-0.055
-510.799	800.000	0.058	-0.216
-509.785	-14.508	-0.356	0.230
-508.770	-110.248	-0.615	-0.129
-507.756	-126.297	-0.441	-0.066
-506.741	-200.000	-0.060	0.353
-505.726	800.000	-0.054	-0.166
-504.712	133.658	0.147	-0.191
-503.697	-44.933	-0.318	0.159
-502.683	-54.644	-0.667	0.303
-501.668	36.488	0.329	0.291
-500.653	367.336	-0.259	0.525
-499.639	60.811	0.359	0.357
-498.624	-52.407	-0.555	-0.258
-497.610	-35.550	-0.171	0.093
-496.595	253.299	-0.423	-0.724
-495.581	-200.000	-0.054	0.552
-494.566	-118.742	-0.912	-0.161
-493.551	-200.000	-0.052	0.261
-492.537	800.000	0.325	0.976
-491.522	-80.464	0.735	0.246
-490.508	-200.000	-0.008	-0.068
-489.493	-158.658	0.189	-0.011
-488.478	-18.570	-1.008	0.631
-487.464	158.673	0.293	-0.408
-486.449	142.858	-0.384	0.512
-485.435	-100.300	0.668	-0.166
-484.420	287.373	-0.141	-0.255
-483.405	-107.251	-1.060	-0.234
-482.391	3.648	0.573	0.419
-481.376	12.701	0.490	-0.379
-480.362	-200.000	0.051	-0.476
-479.347	-102.929	-0.360	-0.086
-478.332	-105.596	0.905	0.206
-477.318	-200.000	0.017	0.448
-476.303	-200.000	0.021	-0.493
-475.289	-122.044	-0.592	0.098
-474.274	20.397	-0.917	-0.742
-473.259	-94.603	0.104	0.028
-472.245	-41.051	-0.670	-0.347
-471.230	-63.635	-0.472	0.194
-470.216	800.000	-0.059	-0.181
-469.201	140.424	-0.043	0.057
-468.186	-200.000	-0.056	0.512
-467.172	170.880	0.107	-0.153
-466.157	106.844	0.346	-0.411
-465.143	78.154	-0.363	-0.388
-464.128	-18.365	-0.141	0.088
-463.113	95.427	-0.228	-0.260
-462.099	144.234	0.409	0.547
-461.084	660.134	-0.260	0.671
-460.070	8.670	-0.688	-0.519
-459.055	-200.000	-0.041	-0.545
-458.040	-200.000	-0.093	1.427
-457.026	520.612	0.373	0.876
-456.011	-17.899	0.074	0.046
-454.997	-71.150	-1.029	0.387
-453.982	417.033	0.586	-1.254
-452.968	602.324	0.049	-0.122
-451.953	-174.129	0.167	-0.005
-450.938	285.144	-0.223	0.402
-449.924	-15.341	0.420	0.269
-448.909	421.752	0.188	-0.405
-447.895	-148.209	-0.193	-0.016
-446.880	26.424	0.754	-0.631
-445.865	-83.485	-0.575	-0.184
-444.851	800.000	-0.314	-1.375
-443.836	115.673	0.494	0.605
-442.822	59.139	-0.733	0.722
-441.807	800.000	0.150	-0.427
-440.792	-28.470	0.758	-0.438
-439.778	-81.835	0.850	0.279
-438.763	777.070	0.143	0.390
-437.749	258.014	-0.638	1.100
-436.734	24.127	0.399	-0.330
-435.719	-23.166	0.710	-0.428
-434.705	800.000	-0.195	-0.691
-433.690	-76.010	0.504	-0.178
-432.676	60.787	0.549	0.545
-431.661	277.081	0.217	-0.386
-430.646	-121.803	-0.633	-0.105
-429.632	-14.364	-0.554	-0.357
-428.617	800.000	-0.042	-0.163
-427.603	196.541	-0.423	-0.644
-426.588	-200.000	-0.077	0.913
-425.573	-186.714	-0.699	0.010
-424.559	-30.367	-0.338	0.192
-423.544	-200.000	0.017	-0.421
-422.530	-130.394	0.213	0.029
-421.515	-6.800	0.226	-0.154
-420.500	-71.159	0.467	0.176
-419.486	519.487	-0.264	0.619
-418.471	-133.903	0.193	-0.024
-417.457	-117.132	-1.073	0.195
-416.442	-96.872	0.383	0.101
-415.428	-189.393	0.326	0.004
-414.413	-200.000	-0.073	0.997
-413.398	-67.563	0.342	0.134
-412.384	525.329	0.065	-0.153
-411.369	-200.000	0.043	-0.367
-410.355	-166.156	-0.934	0.040
-409.340	-82.061	0.130	-0.042
-408.325	-200.000	-0.075	-0.692
-407.311	384.551	-0.200	0.411
-406.296	-29.682	0.405	0.231
-405.282	40.368	0.211	0.190
-404.267	29.843	0.301	-0.257
-403.252	-78.421	0.221	0.076
-402.238	-7.974	0.812	-0.547
-401.223	800.000	-0.341	-1.010
-400.209	-134.567	0.368	-0.045
-399.194	593.561	-0.270	0.666
-398.179	-200.000	-0.091	0.415
-397.165	-55.945	0.366	-0.163
-396.150	-200.000	0.104	-0.529
-395.136	115.104	-0.163	0.199
-394.121	189.891	0.094	-0.141
-393.106	800.000	-0.163	0.654
-392.092	-8.477	-0.742	0.498
-391.077	-151.640	-0.059	0.004
-390.063	46.806	0.443	-0.411
-389.048	-200.000	0.051	0.392
-388.033	514.467	0.238	-0.555
-387.019	-35.093	-0.360	-0.196
-386.004	-154.175	-0.179	-0.012
-384.990	145.290	0.360	-0.481
-383.975	149.609	0.247	0.335
-382.960	-102.401	0.483	0.116
-381.946	-200.000	0.008	-0.056
-380.931	-105.468	0.386	-0.088
-379.917	800.000	0.287	1.174
-378.902	-200.000	0.019	-0.846
-377.888	193.142	-0.335	-0.506
-376.873	-152.130	0.436	-0.032
-375.858	-33.977	-0.899	0.494
-374.844	800.000	-0.048	-0.134
-373.829	-200.000	0.137	-1.210
-372.815	-122.398	0.336	0.055
-371.800	-176.766	-0.573	-0.015
-370.785	45.321	-0.376	0.346
-369.771	682.086	0.048	0.125
-368.756	-200.000	-0.170	0.923
-367.742	-48.377	-0.312	0.150
-366.727	175.625	0.436	0.632
-365.712	-100.492	0.135	-0.033
-364.698	178.513	0.554	-0.807
-363.683	-62.023	0.085	-0.036
-362.669	-79.996	0.310	-0.104
-361.654	35.503	0.590	-0.517
-360.639	-35.885	-0.105	-0.057
-359.625	-115.086	-0.633	0.120
-358.610	782.845	0.153	-0.418
-357.596	800.000	0.131	0.362
-356.581	67.607	0.126	0.129
-355.566	-89.224	0.983	0.289
-354.552	-62.840	0.335	-0.139
-353.537	-65.847	0.371	0.148
-352.523	54.955	-0.242	-0.233
-351.508	-159.259	0.864	0.048
-350.493	-76.705	0.568	0.199
-349.479	796.803	-0.273	0.751
-348.464	-11.863	0.550	-0.360
-347.450	-200.000	0.052	-0.860
-346.435	605.933	-0.264	-0.656
-345.420	323.283	-0.306	-0.583
-344.406	246.977	0.329	-0.553
-343.391	61.653	0.395	0.392
-342.377	55.367	0.280	0.270
-341.362	92.176	0.816	0.917
-340.348	125.344	0.305	-0.384
-339.333	65.364	0.795	0.802
-338.318	225.399	-0.349	-0.564
-337.304	148.065	0.039	0.053
-336.289	15.618	-0.058	0.045
-335.275	-200.000	-0.004	-0.624
-334.260	800.000	0.088	-0.369
-333.245	-10.107	0.699	0.463
-332.231	-200.000	0.034	-0.569
-331.216	-200.000	0.177	0.801
-330.202	800.000	-0.047	-0.160
-329.187	-200.000	0.036	-0.242
-328.172	-8.996	0.246	0.164
-327.158	49.080	0.287	0.269
-326.143	-30.158	-1.326	-0.751
-325.129	177.884	0.375	0.545
-324.114	800.000	0.085	-0.325
-323.099	-138.929	0.301	0.033
-322.085	143.031	-0.296	-0.393
-321.070	3.293	-0.187	0.135
-320.056	167.602	0.458	0.648
-319.041	-121.035	1.140	-0.191
-318.026	71.680	-0.458	0.475
-317.012	75.436	0.900	-0.946
-315.997	-200.000	-0.230	-1.037
-314.983	28.199	0.136	0.114
-313.968	-161.979	-0.583	-0.029
-312.953	190.220	0.329	0.493
-311.939	800.000	-0.184	-0.520
-310.924	-139.304	0.287	0.031
-309.910	-200.000	-0.454	-0.001
-308.895	93.116	0.167	0.188
-307.880	798.299	0.180	-0.495
-306.866	46.493	0.351	0.324
-305.851	-134.259	-0.303	0.037
-304.837	-200.000	0.091	-0.447
-303.822	-200.000	-0.044	0.529
-302.807	-72.996	0.172	-0.063
-301.793	11.424	0.298	0.227
-300.778	-200.000	-0.001	0.562
-299.764	800.000	-0.169	-0.682
-298.749	23.274	0.681	-0.557
-297.735	30.844	0.417	-0.356
-296.720	-99.574	0.481	-0.120
-295.705	352.634	-0.239	0.472
-294.691	-0.786	0.367	0.259
-293.676	-157.670	1.335	-0.079
-292.662	800.000	0.140	-0.515
-291.647	20.760	-0.206	0.166
-290.632	129.288	0.203	-0.258
-289.618	-129.212	-0.733	-0.102
-288.603	-60.211	-0.401	-0.170
-287.589	-107.479	-0.523	0.114
-286.574	-62.334	1.131	0.469
-285.559	38.150	0.065	0.057
-284.545	-177.824	-0.711	-0.017
-283.530	-157.176	-0.515	-0.031
-282.516	762.641	-0.327	0.882
-281.501	160.032	-0.657	0.911
-280.486	-22.731	-0.359	0.216
-279.472	-87.775	-0.434	-0.130
-278.457	-49.344	0.116	0.055
-277.443	165.940	0.304	0.428
-276.428	-129.648	-0.989	0.136
-275.413	-6.369	0.817	0.554
-274.399	-48.807	-0.946	-0.452
-273.384	285.836	0.309	0.555
-272.370	-132.799	-0.670	0.085
-271.355	218.321	-0.318	-0.504
-270.340	175.564	0.395	0.570
-269.326	-200.000	-0.057	0.722
-268.311	800.000	-0.290	0.887
-267.297	-200.000	0.647	0.000
-266.282	-78.787	0.251	-0.085
-265.267	794.362	0.084	-0.230
-264.253	-105.334	0.299	0.068
-263.238	800.000	0.119	0.477
-262.224	-118.727	0.349	-0.061
-261.209	800.000	0.080	0.235
-260.195	52.223	0.276	0.262
-259.180	137.116	0.568	0.738
-258.165	800.000	-0.026	-0.082
-257.151	141.551	-0.183	-0.240
-256.136	800.000	-0.057	0.238
-255.122	165.349	0.149	0.209
-254.107	-59.599	-0.334	0.142
-253.092	800.000	0.195	0.569
-252.078	28.363	-0.706	-0.593
-251.063	-114.666	0.619	-0.118
-250.049	-148.279	-0.559	0.046
-249.034	76.920	-0.379	-0.399
-248.019	433.812	-0.134	0.288
-247.005	-177.456	-0.123	-0.003
-245.990	800.000	-0.175	-0.616
-244.976	800.000	-0.047	-0.169
-243.961	77.586	0.424	0.448
-242.946	393.325	0.123	0.254
-241.932	334.137	-0.244	-0.470
-240.917	800.000	-0.273	0.811
-239.903	-200.000	0.022	0.622
-238.888	-191.401	-0.413	0.004
-237.873	270.852	0.243	0.424
-236.859	-15.759	-0.412	-0.261
-235.844	-84.510	0.408	-0.128
-234.830	113.864	0.294	-0.355
-233.815	-200.000	-0.060	-0.571
-232.800	304.075	-0.677	1.247
-231.786	108.147	0.165	-0.195
-230.771	800.000	0.133	-0.388
-229.757	88.679	-0.403	-0.445
-228.742	614.867	-0.127	0.316
-227.727	-113.695	0.328	0.063
-226.713	285.868	-0.151	0.270
-225.698	-200.000	0.041	-0.211
-224.684	-102.129	0.541	-0.129
-223.669	468.689	-0.150	0.334
-222.655	47.227	0.448	-0.414
-221.640	75.079	0.646	0.675
-220.625	-50.531	1.108	-0.519
-219.611	800.000	-0.239	-0.813
-218.596	33.035	0.385	0.331
-217.582	515.355	-0.031	-0.072
-216.567	-200.000	-0.035	0.157
-215.552	-15.786	-0.392	-0.248
-214.538	-200.000	-0.045	0.235
-213.523	800.000	-0.126	0.469
-212.509	40.729	-0.285	0.255
-211.494	-36.078	-0.847	-0.454
-210.479	-171.746	0.360	0.012
-209.465	-13.487	0.508	0.327
-208.450	-65.096	-0.454	0.182
-207.436	-40.678	-0.538	-0.277
-206.421	0.932	-0.423	0.300
-205.406	65.407	0.272	0.273
-204.392	328.853	0.286	-0.545
-203.377	9.825	-0.262	-0.197
-202.363	800.000	-0.213	-0.839
-201.348	200.183	-0.366	-0.557
-200.333	-200.000	0.247	-1.112
-199.319	261.861	-0.389	0.669
-198.304	235.443	-0.387	0.633
-197.290	-138.840	0.231	-0.025
-196.275	800.000	-0.111	0.323
-195.260	-157.511	0.833	0.050
-194.246	137.177	-0.119	-0.154
-193.231	-164.764	-0.479	0.021
-192.217	113.425	0.503	0.605
-191.202	-34.600	-0.607	-0.329
-190.187	-160.564	0.314	-0.017
-189.173	41.826	0.244	-0.219
-188.158	-56.508	-0.724	-0.318
-187.144	148.545	0.600	0.804
-186.129	32.929	-0.349	-0.299
-185.114	-69.491	0.994	0.378
-184.100	-42.363	-0.515	-0.261
-183.085	239.679	0.198	0.327
-182.071	142.574	0.073	0.096
-181.056	101.554	0.303	-0.350
-180.042	800.000	0.036	0.100
-179.027	800.000	0.165	0.620
-178.012	473.420	-0.179	0.399
-176.998	-30.870	-0.258	0.145
-175.983	163.745	-0.239	-0.333
-174.969	-61.775	-0.710	-0.295
-173.954	130.597	0.293	0.373
-172.939	424.850	-0.311	0.663
-171.925	218.869	-0.503	0.796
-170.910	-90.590	-1.016	0.291
-169.896	-200.000	0.037	0.975
-168.881	-87.256	0.897	0.270
-167.866	-37.155	-0.155	-0.082
-166.852	-102.714	0.379	0.089
-165.837	67.878	0.418	0.423
-164.823	800.000	-0.180	-0.593
-163.808	-200.000	-0.036	-0.666
-162.793	114.834	0.315	-0.380
-161.779	-200.000	0.026	-0.212
-160.764	-86.799	0.671	0.203
-159.750	-54.831	0.649	-0.290
-158.735	-200.000	-0.676	0.003
-157.720	-200.000	0.057	-0.265
-156.706	-127.813	0.802	0.114
-155.691	-77.555	0.577	0.198
-154.677	349.665	0.155	0.304
-153.662	592.973	-0.102	0.248
-152.647	12.841	-0.342	0.261
-151.633	-151.069	-0.411	0.031
-150.618	800.000	-0.144	0.511
-149.604	141.215	0.439	0.574
-148.589	-85.598	0.894	-0.275
-147.574	467.372	-0.355	0.789
-146.560	70.527	-0.509	0.521
-145.545	66.139	-0.349	0.350
-144.531	-142.109	0.569	0.056
-143.516	243.665	0.434	0.720
-142.502	107.343	0.184	0.216
-141.487	313.397	-0.208	0.386
-140.472	-89.746	-0.478	0.138
-139.458	365.281	0.104	0.208
-138.443	-162.286	1.139	-0.056
-137.429	75.874	-0.324	-0.339
-136.414	800.000	-0.103	0.328
-135.399	-101.091	-0.588	0.142
-134.385	232.805	0.318	0.516
-133.370	55.292	-0.438	0.419
-132.356	74.076	0.057	-0.059
-131.341	-101.310	0.867	-0.209
-130.326	303.278	-0.237	-0.433
-129.312	-200.000	-0.053	0.235
-128.297	-18.149	-0.598	-0.370
-127.283	800.000	0.215	0.748
-126.268	16.551	-0.385	-0.301
-125.253	-200.000	0.020	-0.468
-124.239	131.834	-0.296	0.377
-123.224	418.047	-0.281	-0.594
-122.210	-200.000	-0.085	-0.779
