DTS Sentinel unit serial number:	SN413079Multiplexer serial number:	ORYXHardware model number:	OX4-SRSoftware version number:	ORYX F/W v4.00 Oryx Data Collector v3.7.2.0data status	okinstallation	princeton_trtdifferential loss correction	single-endedforward channel	channel 1reverse channel	N/Adate	2019/09/13time	22:18:35forward acquisition time	60.00reverse acquisition time	0.00gamma	496.2192k internal	0.2332k external	0.2332temperature offset calibration	1.0085default loss term (dB/km)	0.3790temperature slope calibration	1.0000multiplexer offset coefficient	1.0000multiplexer slope coefficient	1.0000fibre end	0.00T internal ref (°C)	27.87T ext. ref 1 (°C)	3.24T ext. ref 2 (°C)	22.54length (m)	temperature (°C)	Stokes	anti-Stokes-747.200	-127.771	0.248	-0.036
-746.185	-50.438	-0.392	0.186
-745.171	-8.220	0.300	0.203
-744.156	177.103	0.282	0.412
-743.142	-20.674	-0.109	0.067
-742.127	-177.525	-0.337	-0.008
-741.112	615.447	0.098	0.247
-740.098	-130.031	-0.323	0.044
-739.083	222.300	0.165	-0.267
-738.069	691.006	0.058	0.152
-737.054	349.644	0.059	0.117
-736.039	9.800	0.041	-0.032
-735.025	800.000	-0.145	0.503
-734.010	-62.319	0.121	-0.051
-732.996	-200.000	-0.017	-0.481
-731.981	195.897	-0.194	-0.297
-730.966	-97.265	0.332	0.087
-729.952	174.161	0.052	-0.076
-728.937	36.647	-0.081	-0.072
-727.923	-200.000	0.019	-0.097
-726.908	-26.612	-0.029	-0.017
-725.894	-143.351	-0.023	-0.002
-724.879	-200.000	0.050	-0.235
-723.864	-143.526	-0.347	0.033
-722.850	800.000	-0.015	-0.063
-721.835	48.367	0.195	0.183
-720.821	-29.983	-0.151	0.086
-719.806	-200.000	-0.011	0.091
-718.791	232.466	-0.089	-0.147
-717.777	334.953	-0.133	-0.259
-716.762	-200.000	-0.033	-0.179
-715.748	-44.279	-0.150	-0.076
-714.733	-147.366	0.266	-0.023
-713.718	-80.765	0.137	-0.046
-712.704	-142.717	-0.671	-0.066
-711.689	-97.086	-0.371	0.097
-710.675	-200.000	0.053	-0.385
-709.660	713.310	-0.061	0.162
-708.645	-200.000	-0.011	-0.135
-707.631	-200.000	0.072	0.522
-706.616	79.184	0.094	0.102
-705.602	-200.000	0.030	0.255
-704.587	-200.000	0.003	0.175
-703.572	-27.739	0.190	0.111
-702.558	-91.231	-0.281	0.081
-701.543	203.707	-0.101	0.157
-700.529	9.041	0.049	0.037
-699.514	-81.871	-0.351	-0.115
-698.499	206.272	0.028	-0.043
-697.485	800.000	-0.032	0.138
-696.470	-200.000	0.019	0.089
-695.456	59.472	0.102	-0.101
-694.441	59.048	-0.103	-0.101
-693.426	-200.000	-0.034	-0.169
-692.412	-200.000	-0.005	-0.041
-691.397	800.000	-0.071	0.300
-690.383	729.090	-0.140	-0.376
-689.368	328.567	0.097	-0.187
-688.354	-134.444	0.200	0.025
-687.339	-56.243	0.027	-0.012
-686.324	800.000	0.069	-0.297
-685.310	-15.331	0.204	0.131
-684.295	-200.000	0.033	0.214
-683.281	335.038	-0.032	0.062
-682.266	-26.572	-0.201	-0.118
-681.251	-200.000	-0.016	0.141
-680.237	50.232	0.044	0.042
-679.222	122.115	0.245	-0.307
-678.208	-84.894	0.098	-0.031
-677.193	80.654	-0.176	-0.191
-676.178	212.999	-0.046	-0.073
-675.164	46.434	0.095	0.089
-674.149	800.000	-0.057	-0.186
-673.135	238.757	-0.208	-0.346
-672.120	800.000	0.065	0.208
-671.105	-200.000	-0.009	0.215
-670.091	-12.140	-0.098	0.064
-669.076	548.135	-0.167	0.401
-668.062	-77.656	-0.397	0.138
-667.047	-13.778	0.276	-0.179
-666.032	-178.511	-0.322	0.007
-665.018	53.598	0.085	0.082
-664.003	-200.000	0.034	0.352
-662.989	23.579	-0.161	0.133
-661.974	-68.130	-0.214	-0.084
-660.959	-139.033	0.400	-0.043
-659.945	-157.452	0.240	-0.014
-658.930	-2.452	0.032	0.022
-657.916	235.301	-0.154	0.254
-656.901	-200.000	-0.014	-0.215
-655.886	73.567	-0.216	-0.226
-654.872	-200.000	0.016	-0.239
-653.857	-14.855	-0.144	-0.093
-652.843	126.211	0.102	0.129
-651.828	21.811	0.077	-0.063
-650.814	-136.742	-0.399	0.046
-649.799	-76.300	-0.226	0.080
-648.784	-149.159	0.290	-0.023
-647.770	116.303	0.102	-0.125
-646.755	-200.000	0.026	0.246
-645.741	208.033	-0.165	-0.259
-644.726	101.838	0.235	-0.275
-643.711	-154.505	0.158	0.011
-642.697	-56.929	0.270	-0.119
-641.682	-116.916	0.293	-0.054
-640.668	-127.004	-0.270	-0.040
-639.653	309.766	-0.275	-0.515
-638.638	76.108	0.458	-0.486
-637.624	-200.000	0.029	-0.417
-636.609	-126.380	-0.471	-0.070
-635.595	-200.000	0.017	0.121
-634.580	-103.411	-0.129	0.030
-633.565	-18.984	0.250	-0.156
-632.551	1.665	-0.237	-0.171
-631.536	122.528	-0.175	-0.219
-630.522	12.890	0.120	0.093
-629.507	-200.000	-0.058	-0.376
-628.492	88.763	-0.079	-0.088
-627.478	7.719	0.197	0.147
-626.463	-18.132	-0.035	0.022
-625.449	-154.653	-0.302	0.020
-624.434	-143.358	0.247	-0.024
-623.419	-108.641	0.094	0.020
-622.405	-86.239	-0.159	-0.049
-621.390	77.279	0.179	-0.190
-620.376	-13.244	-0.147	0.096
-619.361	-10.734	-0.205	-0.136
-618.346	-200.000	0.074	-0.418
-617.332	-87.906	-0.342	0.103
-616.317	483.654	-0.136	-0.309
-615.303	-35.665	-0.102	0.055
-614.288	-67.143	0.224	0.088
-613.273	244.465	0.012	0.021
-612.259	-90.270	-0.230	-0.067
-611.244	-200.000	0.040	-0.400
-610.230	-176.090	0.086	0.002
-609.215	19.315	-0.220	0.177
-608.201	126.837	-0.147	0.187
-607.186	4.325	-0.075	-0.055
-606.171	215.426	-0.113	0.179
-605.157	-59.239	-0.070	0.030
-604.142	15.529	-0.050	0.040
-603.128	-200.000	-0.049	-0.304
-602.113	-102.976	0.308	0.073
-601.098	-98.091	0.277	0.071
-600.084	205.117	-0.171	-0.266
-599.069	-38.865	0.107	0.056
-598.055	-200.000	-0.009	0.080
-597.040	-6.790	-0.319	0.217
-596.025	800.000	-0.061	0.214
-595.011	44.592	-0.174	0.160
-593.996	-200.000	-0.014	-0.085
-592.982	292.779	0.053	-0.097
-591.967	443.129	-0.067	0.146
-590.952	-200.000	-0.001	-0.174
-589.938	800.000	-0.054	-0.215
-588.923	-75.261	0.248	0.089
-587.909	465.127	0.060	-0.133
-586.894	94.812	-0.124	0.141
-585.879	-69.524	0.078	0.030
-584.865	-83.348	0.210	0.067
-583.850	11.130	0.241	0.184
-582.836	-200.000	0.070	0.361
-581.821	227.739	0.149	-0.242
-580.806	150.098	-0.116	0.157
-579.792	800.000	-0.032	-0.124
-578.777	-200.000	-0.048	-0.260
-577.763	-200.000	-0.040	0.218
-576.748	270.876	0.131	0.230
-575.733	-190.369	-0.194	0.002
-574.719	62.551	0.052	0.052
-573.704	43.504	0.031	-0.028
-572.690	-200.000	0.004	0.123
-571.675	-76.761	0.091	-0.032
-570.661	100.504	0.212	-0.246
-569.646	71.275	0.054	0.056
-568.631	111.913	0.231	-0.279
-567.617	-200.000	0.015	-0.250
-566.602	-200.000	-0.026	0.197
-565.588	800.000	-0.034	0.121
-564.573	-135.840	-0.256	-0.030
-563.558	-193.274	-0.089	0.001
-562.544	-146.151	-0.144	-0.013
-561.529	-200.000	0.029	-0.148
-560.515	22.105	-0.334	-0.272
-559.500	176.946	-0.167	0.243
-558.485	185.768	0.200	0.297
-557.471	-125.243	-0.257	-0.039
-556.456	-200.000	0.079	-0.408
-555.442	-114.649	-0.127	0.024
-554.427	-33.419	0.372	-0.205
-553.412	-171.928	0.293	0.010
-552.398	-40.151	0.082	-0.043
-551.383	-200.000	-0.044	0.396
-550.369	-131.252	0.182	0.024
-549.354	-49.750	-0.136	-0.064
-548.339	-200.000	-0.030	0.274
-547.325	165.877	0.158	-0.223
-546.310	800.000	0.119	0.339
-545.296	136.335	0.199	0.259
-544.281	-101.384	-0.215	-0.052
-543.266	-38.445	0.235	-0.124
-542.252	-92.906	0.151	0.042
-541.237	-121.024	0.356	0.060
-540.223	-200.000	0.011	-0.058
-539.208	138.601	0.376	0.492
-538.193	68.461	-0.125	0.128
-537.179	-56.499	-0.244	-0.108
-536.164	-10.234	-0.154	0.102
-535.150	-159.031	-0.480	-0.027
-534.135	45.793	-0.082	0.075
-533.121	260.298	-0.100	0.172
-532.106	179.316	-0.067	0.098
-531.091	800.000	0.022	-0.067
-530.077	-33.629	0.304	-0.167
-529.062	-160.956	0.213	0.011
-528.048	54.819	0.140	-0.135
-527.033	218.943	-0.127	-0.202
-526.018	74.607	-0.243	0.255
-525.004	-9.155	-0.130	-0.087
-523.989	800.000	-0.057	0.157
-522.975	155.067	-0.311	0.426
-521.960	-200.000	-0.015	0.330
-520.945	-200.000	0.045	0.249
-519.931	509.808	0.020	0.047
-518.916	-200.000	0.042	0.207
-517.902	-120.111	0.226	0.039
-516.887	-200.000	0.026	0.123
-515.872	1.196	-0.174	0.125
-514.858	-20.728	0.118	0.072
-513.843	14.384	0.106	0.082
-512.829	800.000	0.037	0.160
-511.814	1.506	-0.129	0.093
-510.799	532.015	-0.094	-0.222
-509.785	-200.000	0.010	0.152
-508.770	-37.051	0.238	0.127
-507.756	132.781	-0.159	-0.204
-506.741	-29.724	-0.365	-0.207
-505.726	694.160	-0.089	-0.232
-504.712	-200.000	-0.000	-0.083
-503.697	800.000	0.041	0.177
-502.683	92.801	0.134	0.151
-501.668	-89.590	-0.210	0.062
-500.653	-200.000	-0.009	0.061
-499.639	-200.000	0.046	0.315
-498.624	-79.583	-0.304	-0.102
-497.610	-95.231	-0.111	-0.030
-496.595	108.912	-0.194	0.231
-495.581	10.039	0.365	0.276
-494.566	455.767	0.129	0.284
-493.551	-200.000	0.012	-0.127
-492.537	-101.882	-0.315	0.076
-491.522	-108.856	-0.087	0.019
-490.508	130.842	0.109	-0.139
-489.493	328.720	0.071	-0.135
-488.478	-91.234	0.044	0.013
-487.464	-104.162	0.196	-0.045
-486.449	800.000	0.026	-0.082
-485.435	-33.543	-0.115	0.063
-484.420	158.478	-0.050	-0.069
-483.405	83.605	0.141	-0.154
-482.391	-146.141	0.227	0.020
-481.376	-110.570	0.232	0.048
-480.362	-96.404	-0.139	0.037
-479.347	-149.675	-0.249	-0.020
-478.332	-100.794	0.135	-0.033
-477.318	262.359	0.251	0.433
-476.303	-24.211	-0.191	0.113
-475.289	-81.262	0.115	-0.038
-474.274	-200.000	-0.007	0.216
-473.259	487.418	-0.116	0.263
-472.245	-67.201	0.160	0.063
-471.230	28.607	0.411	0.346
-470.216	-200.000	-0.009	0.337
-469.201	-200.000	0.013	-0.134
-468.186	-61.693	0.277	-0.116
-467.172	62.201	-0.072	-0.072
-466.157	-69.151	-0.152	-0.058
-465.143	-156.294	-0.192	-0.012
-464.128	-60.310	-0.074	0.032
-463.113	800.000	-0.073	-0.315
-462.099	184.905	0.031	0.045
-461.084	800.000	-0.114	-0.409
-460.070	56.974	0.093	-0.091
-459.055	141.648	-0.062	-0.082
-458.040	-200.000	0.014	-0.112
-457.026	-143.457	-0.121	0.011
-456.011	93.702	0.112	0.126
-454.997	-84.026	-0.041	-0.013
-453.982	-143.849	-0.171	0.016
-452.968	-80.542	0.275	0.091
-451.953	-106.140	-0.209	-0.047
-450.938	202.621	-0.254	0.390
-449.924	19.319	0.326	-0.260
-448.909	787.539	0.059	0.162
-447.895	164.236	0.170	0.238
-446.880	185.165	-0.056	0.082
-445.865	-200.000	-0.003	0.385
-444.851	-192.566	-0.283	-0.003
-443.836	-46.198	-0.419	0.205
-442.822	17.663	-0.213	-0.169
-441.807	144.340	-0.217	0.287
-440.792	-200.000	-0.012	-0.126
-439.778	244.975	0.019	-0.031
-438.763	-32.484	0.053	0.030
-437.749	-67.824	0.404	-0.157
-436.734	-80.883	0.220	-0.073
-435.719	-20.946	0.150	0.092
-434.705	-166.831	0.165	0.007
-433.690	583.162	-0.128	0.313
-432.676	800.000	0.031	-0.133
-431.661	-90.237	-0.228	-0.066
-430.646	-200.000	0.005	0.207
-429.632	-35.337	-0.095	0.051
-428.617	130.547	-0.088	-0.112
-427.603	-83.367	0.241	-0.077
-426.588	550.637	0.002	-0.005
-425.573	97.390	0.084	0.095
-424.559	-200.000	-0.015	-0.070
-423.544	28.816	-0.337	-0.283
-422.530	-82.920	0.190	-0.061
-421.515	373.732	-0.081	-0.164
-420.500	-200.000	0.008	0.061
-419.486	414.375	0.041	-0.088
-418.471	5.270	0.336	0.246
-417.457	-119.369	-0.289	0.050
-416.442	1.061	-0.083	0.059
-415.428	800.000	-0.184	-0.508
-414.413	-167.461	-0.454	-0.018
-413.398	-89.985	0.207	-0.060
-412.384	-200.000	0.031	0.196
-411.369	39.036	-0.162	-0.143
-410.355	93.547	0.154	-0.173
-409.340	78.823	-0.158	0.167
-408.325	800.000	0.006	0.023
-407.311	800.000	0.028	-0.089
-406.296	17.815	-0.219	-0.173
-405.282	406.453	-0.063	-0.132
-404.267	85.328	-0.097	-0.106
-403.252	-66.989	-0.227	-0.089
-402.238	-142.198	0.176	0.017
-401.223	374.050	0.125	-0.252
-400.209	-14.156	0.286	0.183
-399.194	800.000	0.111	0.382
-398.179	-200.000	-0.012	0.269
-397.165	6.394	0.208	-0.153
-396.150	95.666	0.120	-0.135
-395.136	-200.000	-0.020	-0.393
-394.121	91.810	0.144	-0.161
-393.106	482.550	0.162	-0.365
-392.092	178.212	0.282	0.409
-391.077	-95.672	0.077	0.021
-390.063	84.679	0.132	0.143
-389.048	2.467	-0.143	-0.103
-388.033	-98.758	-0.081	0.020
-387.019	449.765	0.070	0.153
-386.004	-200.000	-0.022	-0.150
-384.990	-32.875	-0.056	0.031
-383.975	-72.899	-0.187	0.068
-382.960	-113.811	-0.137	-0.027
-381.946	-200.000	0.010	-0.223
-380.931	179.707	0.091	-0.132
-379.917	-69.701	0.357	-0.135
-378.902	-30.302	0.094	0.053
-377.888	-200.000	-0.022	0.213
-376.873	-151.994	0.212	0.015
-375.858	-28.017	0.073	-0.042
-374.844	212.573	0.131	-0.204
-373.829	12.133	0.296	-0.226
-372.815	84.866	0.190	0.206
-371.800	-111.125	-0.140	-0.028
-370.785	83.417	-0.271	0.292
-369.771	123.625	0.117	0.145
-368.756	800.000	-0.054	-0.173
-367.742	800.000	0.096	-0.393
-366.727	250.042	-0.199	-0.335
-365.712	-60.520	0.228	-0.096
-364.698	-200.000	-0.007	-0.103
-363.683	800.000	-0.126	0.389
-362.669	-200.000	0.023	-0.156
-361.654	-200.000	0.004	0.029
-360.639	-130.576	0.267	0.036
-359.625	-200.000	-0.012	-0.330
-358.610	-200.000	0.033	-0.298
-357.596	800.000	0.091	0.291
-356.581	-88.535	-0.440	0.130
-355.566	-37.757	-0.132	0.070
-354.552	-200.000	0.014	-0.099
-353.537	-81.193	-0.218	0.071
-352.523	-200.000	0.010	0.165
-351.508	-67.756	0.145	0.056
-350.493	-102.166	-0.204	-0.048
-349.479	-103.403	-0.437	-0.102
-348.464	150.748	0.148	0.199
-347.450	-183.844	0.216	0.004
-346.435	-100.925	-0.233	0.057
-345.420	-96.182	0.039	-0.010
-344.406	55.117	-0.205	-0.196
-343.391	-200.000	0.041	0.274
-342.377	152.685	-0.140	-0.190
-341.362	800.000	0.011	-0.036
-340.348	-200.000	0.055	0.274
-339.333	18.157	0.195	-0.154
-338.318	201.518	0.221	0.338
-337.304	269.762	-0.198	0.345
-336.289	-81.965	0.060	-0.019
-335.275	-76.368	0.268	-0.093
-334.260	-200.000	0.004	0.043
-333.245	178.536	-0.035	0.050
-332.231	-153.529	0.099	-0.007
-331.216	109.007	0.059	0.070
-330.202	-82.855	-0.200	0.064
-329.187	-89.570	-0.314	-0.091
-328.172	-143.863	-0.315	0.029
-327.158	43.410	0.134	-0.121
-326.143	100.041	-0.134	-0.153
-325.129	17.653	0.279	0.220
-324.114	-200.000	0.067	0.322
-323.099	-200.000	-0.031	0.176
-322.085	57.857	-0.310	-0.300
-321.070	-64.137	-0.295	-0.119
-320.056	-200.000	-0.014	0.087
-319.041	-99.859	-0.153	-0.038
-318.026	-98.139	0.360	-0.092
-317.012	78.696	-0.176	-0.186
-315.997	5.423	0.216	0.158
-314.983	-119.698	-0.253	0.043
-313.968	-200.000	-0.021	0.272
-312.953	-200.000	0.037	-0.275
-311.939	-104.627	0.475	0.108
-310.924	-200.000	0.013	-0.357
-309.910	-135.907	-0.207	-0.024
-308.895	216.832	0.185	0.291
-307.880	44.769	-0.054	0.049
-306.866	-200.000	-0.010	0.130
-305.851	-101.834	-0.131	-0.031
-304.837	699.965	0.050	0.129
-303.822	-69.039	0.159	-0.061
-302.807	-200.000	-0.029	0.207
-301.793	-200.000	0.035	0.468
-300.778	4.199	-0.103	-0.075
-299.764	-200.000	-0.014	0.206
-298.749	320.658	-0.086	0.162
-297.735	-121.287	0.261	0.043
-296.720	235.738	0.132	0.215
-295.705	-107.706	0.212	-0.046
-294.691	-200.000	0.049	-0.428
-293.676	-29.371	-0.339	0.192
-292.662	800.000	-0.066	0.209
-291.647	-175.893	-0.162	-0.004
-290.632	307.744	-0.061	-0.112
-289.618	-200.000	-0.023	-0.211
-288.603	322.195	-0.158	-0.298
-287.589	-84.867	-0.171	0.053
-286.574	-200.000	-0.046	-0.352
-285.559	-200.000	-0.019	-0.150
-284.545	11.610	0.238	-0.180
-283.530	-88.872	0.071	-0.021
-282.516	-58.262	0.193	0.083
-281.501	-200.000	0.018	0.128
-280.486	-133.431	-0.101	0.013
-279.472	-137.610	-0.134	0.015
-278.457	-66.177	-0.122	-0.048
-277.443	-87.010	0.168	0.051
-276.428	-131.531	-0.213	0.028
-275.413	67.518	-0.134	-0.136
-274.399	333.168	-0.174	-0.332
-273.384	-200.000	0.004	-0.116
-272.370	120.554	-0.208	0.256
-271.355	-200.000	0.041	0.201
-270.340	8.661	-0.116	0.086
-269.326	-66.335	-0.117	-0.046
-268.311	636.003	0.017	-0.043
-267.297	-29.579	0.231	-0.130
-266.282	43.013	0.115	-0.104
-265.267	-170.052	0.138	-0.005
-264.253	-85.484	-0.187	0.057
-263.238	370.759	-0.153	-0.307
-262.224	-86.314	0.094	-0.029
-261.209	-102.861	0.126	-0.029
-260.195	81.240	0.147	0.156
-259.180	800.000	-0.051	0.209
-258.165	32.267	0.165	-0.140
-257.151	800.000	0.132	-0.537
-256.136	800.000	-0.153	0.447
-255.122	-62.831	0.215	-0.088
-254.107	-12.710	-0.229	-0.148
-253.092	-136.739	-0.251	-0.029
-252.078	29.587	-0.114	0.096
-251.063	90.130	-0.069	-0.076
-250.049	37.736	0.197	0.173
-249.034	-124.973	-0.188	0.029
-248.019	-156.280	0.344	-0.021
-247.005	-24.783	-0.154	-0.091
-245.990	-200.000	0.020	-0.171
-244.976	93.820	0.102	-0.114
-243.961	-103.318	0.284	-0.066
-242.946	651.046	-0.132	-0.333
-241.932	57.369	0.147	0.141
-240.917	281.041	-0.074	0.131
-239.903	-90.298	0.175	0.050
-238.888	13.363	0.100	-0.076
-237.873	-97.564	0.178	0.045
-236.859	-74.549	0.315	-0.112
-235.844	-45.516	0.213	0.104
-234.830	-200.000	0.053	0.253
-233.815	19.902	-0.178	-0.142
-232.800	-112.659	0.346	-0.068
-231.786	214.119	-0.059	-0.092
-230.771	-200.000	0.046	-0.257
-229.757	380.408	0.100	0.201
-228.742	-158.551	-0.147	0.008
-227.727	-64.483	-0.201	-0.081
-226.713	-149.419	-0.130	-0.010
-225.698	-24.845	-0.114	0.067
-224.684	-157.449	0.573	-0.034
-223.669	-196.517	0.303	-0.002
-222.655	-14.514	-0.159	-0.101
-221.640	-200.000	-0.063	-0.458
-220.625	-200.000	0.062	0.431
-219.611	-56.103	0.125	0.055
-218.596	131.375	0.072	-0.091
-217.582	-60.092	0.034	0.014
-216.567	800.000	-0.007	0.027
-215.552	506.298	-0.030	-0.069
-214.538	124.639	0.099	-0.123
-213.523	-200.000	0.002	-0.206
-212.509	800.000	0.050	-0.137
-211.494	-200.000	-0.009	-0.377
-210.479	-87.193	0.293	0.088
-209.465	-148.900	0.206	-0.016
-208.450	206.457	0.033	0.050
-207.436	-99.169	-0.693	0.173
-206.421	118.292	-0.087	0.106
-205.406	-200.000	-0.005	0.250
-204.392	177.640	-0.204	0.293
-203.377	-200.000	0.001	-0.122
-202.363	216.379	0.067	-0.105
-201.348	-73.595	-0.155	0.056
-200.333	800.000	0.041	0.136
-199.319	299.095	0.043	-0.078
-198.304	-56.912	0.150	0.065
-197.290	143.208	-0.072	-0.094
-196.275	65.780	0.282	-0.282
-195.260	360.816	-0.104	-0.206
-194.246	-65.610	-0.166	-0.065
-193.231	-107.281	0.229	-0.050
-192.217	1.316	0.283	-0.200
-191.202	218.616	-0.086	0.135
-190.187	59.794	0.106	-0.103
-189.173	-122.886	0.377	-0.060
-188.158	28.165	-0.111	0.093
-187.144	-145.208	0.175	0.016
-186.129	490.833	-0.047	0.106
-185.114	-64.676	0.082	0.033
-184.100	-111.932	0.265	0.053
-183.085	274.281	0.076	0.133
-182.071	-200.000	0.006	0.186
-181.056	800.000	0.046	0.163
-180.042	-200.000	-0.060	0.314
-179.027	-82.558	0.191	-0.061
-178.012	-200.000	-0.041	-0.214
-176.998	-86.526	-0.303	0.091
-175.983	-160.125	0.203	0.011
-174.969	29.693	-0.252	0.211
-173.954	-140.823	0.104	0.011
-172.939	-95.669	-0.258	0.068
-171.925	-200.000	-0.018	0.223
-170.910	-91.421	0.305	-0.086
-169.896	-90.180	0.093	0.027
-168.881	-35.989	-0.226	0.120
-167.866	512.324	-0.090	0.207
-166.852	-125.485	-0.323	0.048
-165.837	171.491	-0.049	-0.069
-164.823	-102.524	0.378	0.089
-163.808	-19.812	-0.399	-0.243
-162.793	-167.847	-0.393	-0.015
-161.779	-173.957	-0.319	0.009
-160.764	76.985	0.116	0.121
-159.750	60.165	0.134	-0.130
-158.735	7.353	0.240	-0.176
-157.720	-58.356	-0.316	-0.135
-156.706	18.622	-0.205	0.161
-155.691	-92.839	0.047	0.013
-154.677	63.684	-0.410	-0.405
-153.662	-200.000	-0.002	0.160
-152.647	-140.273	-0.370	-0.038
-151.633	57.748	0.133	0.128
-150.618	-200.000	0.089	-0.419
-149.604	-69.540	0.252	0.095
-148.589	-200.000	0.040	0.262
-147.574	-62.865	-0.330	0.134
-146.560	-95.384	0.196	-0.052
-145.545	-145.349	0.061	0.005
-144.531	-51.691	-0.117	0.054
-143.516	-200.000	-0.013	-0.202
-142.502	800.000	0.080	0.248
-141.487	-200.000	0.009	0.176
-140.472	-2.066	0.161	0.111
-139.458	-49.883	0.098	0.046
-138.443	228.214	-0.117	-0.187
-137.429	44.567	0.103	-0.093
-136.414	-76.058	0.204	-0.071
-135.399	53.578	0.149	0.140
-134.385	88.047	0.089	-0.097
-133.370	76.338	0.102	-0.107
-132.356	145.803	-0.170	0.224
-131.341	-185.703	0.058	-0.001
-130.326	101.061	0.174	0.199
-129.312	-200.000	0.005	0.150
-128.297	-200.000	-0.019	-0.271
-127.283	-200.000	0.031	0.399
-126.268	249.417	-0.039	-0.065
-125.253	151.072	0.070	0.093
-124.239	13.843	0.141	0.108
-123.224	-74.263	0.122	-0.043
-122.210	69.581	0.165	0.167
-121.195	-13.024	0.176	0.112
