DTS Sentinel unit serial number:	SN413079Multiplexer serial number:	ORYXHardware model number:	OX4-SRSoftware version number:	ORYX F/W v4.00 Oryx Data Collector v3.7.2.0data status	okinstallation	princeton_trtdifferential loss correction	single-endedforward channel	channel 1reverse channel	N/Adate	2019/09/11time	00:12:11forward acquisition time	60.00reverse acquisition time	0.00gamma	496.2192k internal	0.2331k external	0.2331temperature offset calibration	0.9939default loss term (dB/km)	0.3790temperature slope calibration	1.0000multiplexer offset coefficient	1.0000multiplexer slope coefficient	1.0000fibre end	0.00T internal ref (°C)	29.33T ext. ref 1 (°C)	-0.31T ext. ref 2 (°C)	22.89length (m)	temperature (°C)	Stokes	anti-Stokes-747.200	276.417	-0.144	-0.257
-746.185	65.274	-0.179	0.182
-745.171	-74.420	0.021	-0.008
-744.156	-62.984	0.233	0.097
-743.142	125.461	-0.198	0.251
-742.127	-200.000	0.018	0.254
-741.112	-200.000	0.060	0.398
-740.098	-65.484	0.157	0.063
-739.083	800.000	0.064	0.195
-738.069	-57.428	0.127	0.056
-737.054	-84.724	0.355	0.113
-736.039	454.477	-0.093	0.206
-735.025	-105.045	-0.097	0.022
-734.010	-100.540	-0.284	-0.071
-732.996	40.402	-0.137	-0.124
-731.981	349.249	0.021	-0.042
-730.966	-121.168	0.114	-0.019
-729.952	-200.000	-0.037	-0.290
-728.937	800.000	-0.076	-0.263
-727.923	-200.000	0.024	-0.124
-726.908	16.256	0.067	0.053
-725.894	755.030	-0.085	0.231
-724.879	-123.026	-0.186	0.030
-723.864	334.303	0.086	-0.168
-722.850	-16.202	-0.094	0.060
-721.835	457.046	-0.081	-0.180
-720.821	-145.066	-0.522	-0.048
-719.806	-200.000	-0.011	-0.197
-718.791	119.591	-0.090	-0.112
-717.777	-58.671	0.036	-0.016
-716.762	-37.925	-0.136	-0.073
-715.748	760.663	-0.078	-0.212
-714.733	-24.255	-0.185	-0.111
-713.718	70.161	-0.170	-0.176
-712.704	-95.981	-0.259	-0.069
-711.689	-80.462	-0.264	0.089
-710.675	800.000	-0.028	-0.098
-709.660	-135.579	0.122	0.015
-708.645	800.000	-0.029	-0.125
-707.631	-145.980	-0.103	-0.009
-706.616	800.000	-0.059	-0.223
-705.602	-200.000	0.024	-0.134
-704.587	-106.268	0.208	-0.047
-703.572	-200.000	0.032	0.182
-702.558	349.189	-0.097	0.192
-701.543	3.126	0.244	-0.178
-700.529	-138.370	-0.170	-0.019
-699.514	-200.000	-0.032	-0.143
-698.499	107.043	0.085	-0.101
-697.485	5.506	-0.092	0.068
-696.470	-98.006	-0.266	-0.069
-695.456	84.986	0.092	-0.101
-694.441	-96.500	-0.236	-0.063
-693.426	-101.256	-0.166	-0.041
-692.412	14.072	0.169	0.132
-691.397	-200.000	-0.094	0.417
-690.383	-22.802	-0.294	-0.178
-689.368	-177.539	-0.248	-0.006
-688.354	-127.653	-0.268	0.039
-687.339	-51.530	-0.184	0.086
-686.324	125.146	-0.054	0.068
-685.310	-94.968	-0.254	-0.069
-684.295	800.000	0.045	0.186
-683.281	22.187	0.280	-0.230
-682.266	-124.820	-0.285	-0.044
-681.251	-164.455	-0.363	-0.017
-680.237	-200.000	-0.026	0.130
-679.222	-110.887	-0.173	0.036
-678.208	758.668	0.060	-0.164
-677.193	-200.000	-0.002	-0.023
-676.178	-40.485	0.144	0.075
-675.164	800.000	0.031	0.091
-674.149	-4.358	0.260	-0.181
-673.135	97.117	0.111	0.128
-672.120	-200.000	0.046	0.399
-671.105	-110.429	-0.141	0.029
-670.091	419.651	0.053	-0.113
-669.076	-44.496	0.252	0.126
-668.062	28.871	-0.039	0.033
-667.047	110.605	0.042	0.051
-666.032	392.605	-0.179	-0.374
-665.018	280.602	0.150	-0.269
-664.003	224.756	-0.209	-0.338
-662.989	-21.983	0.178	-0.108
-661.974	79.872	-0.194	-0.209
-660.959	-200.000	-0.005	0.092
-659.945	-200.000	0.019	-0.419
-658.930	270.284	0.069	-0.122
-657.916	-200.000	0.008	-0.086
-656.901	-168.236	0.210	-0.008
-655.886	131.020	-0.118	-0.151
-654.872	-101.193	0.280	-0.069
-653.857	-53.221	-0.135	-0.062
-652.843	-81.590	0.318	-0.105
-651.828	800.000	0.041	-0.165
-650.814	800.000	0.061	0.205
-649.799	74.204	0.186	-0.196
-648.784	-200.000	0.063	-0.311
-647.770	597.721	0.076	0.190
-646.755	369.455	0.075	-0.152
-645.741	-73.344	0.257	-0.094
-644.726	41.028	-0.234	-0.212
-643.711	800.000	-0.090	-0.251
-642.697	-36.165	0.232	0.125
-641.682	34.758	-0.238	0.209
-640.668	800.000	-0.106	0.406
-639.653	-54.837	0.356	0.161
-638.638	-45.611	0.048	-0.024
-637.624	-88.538	-0.288	0.086
-636.609	-200.000	-0.006	0.035
-635.595	160.522	-0.096	-0.135
-634.580	-41.976	-0.115	0.059
-633.565	177.386	0.287	-0.419
-632.551	235.450	0.126	-0.208
-631.536	80.400	0.176	-0.190
-630.522	96.370	0.253	-0.290
-629.507	-200.000	0.010	0.211
-628.492	74.663	0.177	0.187
-627.478	-151.007	-0.271	0.020
-626.463	-35.456	-0.115	-0.062
-625.449	-200.000	0.014	-0.125
-624.434	60.765	0.292	-0.290
-623.419	64.155	0.193	-0.194
-622.405	800.000	0.127	0.433
-621.390	-56.925	0.490	0.217
-620.376	105.999	-0.233	-0.276
-619.361	618.532	0.110	-0.276
-618.346	5.823	0.158	-0.117
-617.332	237.377	0.167	-0.278
-616.317	800.000	-0.056	0.168
-615.303	493.390	-0.076	-0.174
-614.288	-173.027	0.331	-0.010
-613.273	800.000	-0.132	0.422
-612.259	76.528	0.119	-0.127
-611.244	63.660	0.118	0.119
-610.230	20.691	-0.455	-0.369
-609.215	-80.673	-0.020	-0.007
-608.201	-120.628	0.207	0.035
-607.186	-0.453	-0.134	-0.095
-606.171	9.412	0.161	0.122
-605.157	-4.095	0.128	0.089
-604.142	213.591	-0.039	-0.062
-603.128	-140.990	0.173	-0.018
-602.113	-200.000	-0.041	-0.275
-601.098	-98.248	-0.272	-0.070
-600.084	-200.000	-0.020	-0.293
-599.069	-151.296	-0.363	-0.027
-598.055	800.000	0.105	-0.293
-597.040	-19.554	0.110	0.068
-596.025	69.567	0.056	0.058
-595.011	-139.217	-0.089	-0.010
-593.996	232.237	0.151	-0.249
-592.982	-57.751	0.174	0.076
-591.967	-24.092	0.071	0.042
-590.952	397.403	-0.093	0.194
-589.938	106.821	0.180	0.214
-588.923	131.376	0.108	-0.139
-587.909	-200.000	0.012	-0.183
-586.894	-66.575	-0.030	-0.012
-585.879	751.025	0.078	-0.210
-584.865	-34.447	0.059	-0.032
-583.850	-132.067	0.187	-0.024
-582.836	17.515	0.150	-0.119
-581.821	19.345	-0.288	0.232
-580.806	792.411	0.039	0.108
-579.792	-200.000	0.003	-0.484
-578.777	800.000	-0.014	-0.040
-577.763	-130.052	0.250	0.034
-576.748	-121.838	0.388	0.064
-575.733	-10.253	0.172	-0.114
-574.719	-132.662	0.196	0.025
-573.704	800.000	-0.049	-0.183
-572.690	-178.470	-0.358	0.008
-571.675	-29.966	0.221	0.126
-570.661	800.000	-0.022	-0.069
-569.646	14.342	-0.130	-0.101
-568.631	-200.000	0.053	-0.247
-567.617	83.869	-0.206	-0.225
-566.602	-29.856	-0.288	0.164
-565.588	800.000	0.080	0.335
-564.573	-102.212	0.273	0.066
-563.558	-200.000	-0.055	0.416
-562.544	-39.996	0.093	-0.048
-561.529	58.648	-0.076	-0.074
-560.515	-134.945	-0.153	0.019
-559.500	-82.495	-0.239	-0.077
-558.485	222.647	0.134	0.215
-557.471	800.000	-0.081	0.240
-556.456	153.230	-0.080	-0.110
-555.442	-200.000	0.065	0.384
-554.427	-161.052	0.340	-0.018
-553.412	233.430	-0.178	0.293
-552.398	800.000	0.024	-0.090
-551.383	800.000	-0.042	0.119
-550.369	-99.502	0.199	-0.050
-549.354	36.227	0.181	0.159
-548.339	-200.000	0.021	-0.196
-547.325	156.120	-0.094	-0.130
-546.310	82.725	-0.166	0.181
-545.296	65.606	-0.242	-0.245
-544.281	-25.679	0.277	-0.163
-543.266	-61.770	-0.294	0.123
-542.252	441.826	0.064	-0.139
-541.237	800.000	-0.057	0.182
-540.223	11.890	0.260	0.200
-539.208	187.478	0.039	0.058
-538.193	-46.650	0.163	0.080
-537.179	-95.838	-0.127	-0.034
-536.164	71.837	-0.135	0.140
-535.150	-25.104	0.144	-0.085
-534.135	-96.149	0.162	-0.043
-533.121	-142.610	0.149	-0.015
-532.106	134.044	0.163	-0.211
-531.091	-168.953	0.171	-0.006
-530.077	31.635	-0.121	0.104
-529.062	-81.242	-0.340	-0.112
-528.048	25.684	0.146	-0.121
-527.033	-49.140	-0.223	0.106
-526.018	57.032	-0.275	0.268
-525.004	-50.155	-0.294	-0.139
-523.989	696.147	0.041	0.108
-522.975	23.513	-0.139	0.114
-521.960	-136.624	-0.170	0.020
-520.945	219.940	0.031	-0.050
-519.931	53.143	0.022	0.021
-518.916	-189.485	-0.089	-0.001
-517.902	238.532	0.307	-0.510
-516.887	-200.000	0.012	-0.081
-515.872	-55.487	-0.221	-0.099
-514.858	-200.000	-0.062	0.276
-513.843	90.613	-0.167	-0.186
-512.829	-22.594	0.176	-0.106
-511.814	-40.099	0.110	0.057
-510.799	800.000	0.076	-0.221
-509.785	-91.533	-0.235	-0.067
-508.770	108.160	0.072	-0.085
-507.756	114.773	0.074	0.090
-506.741	-77.779	-0.291	-0.100
-505.726	282.654	-0.042	0.075
-504.712	-64.767	-0.209	-0.084
-503.697	39.390	-0.351	0.313
-502.683	236.565	0.184	0.303
-501.668	371.546	0.069	-0.139
-500.653	145.954	-0.068	-0.091
-499.639	-109.842	0.286	0.060
-498.624	85.931	0.067	-0.073
-497.610	-47.150	0.148	0.072
-496.595	692.443	-0.097	0.254
-495.581	-122.523	0.106	0.017
-494.566	28.398	-0.107	-0.090
-493.551	-78.658	-0.044	0.015
-492.537	94.221	0.142	-0.160
-491.522	-28.149	0.072	-0.041
-490.508	-200.000	-0.012	0.213
-489.493	-187.944	-0.116	-0.001
-488.478	-53.523	-0.152	-0.069
-487.464	229.133	0.033	-0.053
-486.449	4.941	-0.319	0.234
-485.435	-10.564	0.036	-0.024
-484.420	148.298	0.142	-0.191
-483.405	-200.000	-0.020	-0.256
-482.391	-139.323	-0.298	0.032
-481.376	103.633	0.069	-0.080
-480.362	-200.000	0.023	0.369
-479.347	800.000	0.020	-0.085
-478.332	630.203	-0.096	-0.241
-477.318	574.134	0.107	-0.259
-476.303	9.425	0.205	0.155
-475.289	-93.369	-0.269	0.074
-474.274	73.389	0.279	-0.291
-473.259	68.909	0.242	0.248
-472.245	800.000	0.009	0.031
-471.230	63.629	-0.147	-0.147
-470.216	800.000	0.048	-0.162
-469.201	-200.000	-0.020	-0.133
-468.186	-137.395	0.126	0.014
-467.172	-200.000	0.004	0.097
-466.157	-200.000	-0.007	0.090
-465.143	765.982	-0.037	-0.101
-464.128	27.835	-0.044	0.037
-463.113	75.078	-0.020	0.021
-462.099	-7.748	-0.268	0.180
-461.084	9.906	-0.265	0.201
-460.070	-55.448	0.236	0.105
-459.055	367.620	0.023	0.047
-458.040	-116.236	-0.140	-0.026
-457.026	-200.000	-0.037	-0.487
-456.011	379.033	-0.035	-0.072
-454.997	-84.094	0.338	0.107
-453.982	515.245	0.037	0.085
-452.968	800.000	-0.053	-0.153
-451.953	327.672	-0.132	0.252
-450.938	135.558	-0.100	0.130
-449.924	446.721	-0.161	-0.352
-448.909	-89.222	-0.161	0.047
-447.895	-126.337	0.163	0.024
-446.880	164.821	-0.054	-0.076
-445.865	618.099	0.145	0.362
-444.851	-63.381	-0.191	-0.078
-443.836	461.713	0.175	0.387
-442.822	48.455	-0.222	0.207
-441.807	800.000	0.037	-0.131
-440.792	800.000	0.038	-0.163
-439.778	-200.000	0.006	-0.233
-438.763	-200.000	0.058	0.369
-437.749	-10.537	0.078	0.052
-436.734	206.905	0.079	-0.123
-435.719	70.958	-0.170	0.175
-434.705	-93.215	0.068	0.019
-433.690	746.357	-0.084	-0.225
-432.676	-200.000	-0.022	-0.222
-431.661	-51.131	0.299	-0.139
-430.646	-200.000	-0.024	-0.184
-429.632	164.355	0.059	-0.083
-428.617	-113.718	0.159	-0.031
-427.603	-3.546	0.106	0.074
-426.588	-102.212	-0.056	0.013
-425.573	-200.000	-0.038	0.207
-424.559	-54.090	-0.147	-0.067
-423.544	800.000	-0.073	0.249
-422.530	311.576	0.057	0.106
-421.515	-146.049	-0.242	0.021
-420.500	4.231	0.233	-0.170
-419.486	240.845	0.178	-0.295
-418.471	-117.398	-0.331	-0.059
-417.457	383.276	0.130	0.267
-416.442	-85.606	-0.103	-0.032
-415.428	-22.045	-0.351	-0.212
-414.413	-200.000	0.024	-0.119
-413.398	353.284	-0.062	0.123
-412.384	800.000	0.155	0.581
-411.369	800.000	0.060	0.215
-410.355	-150.310	-0.364	-0.028
-409.340	-127.706	-0.309	-0.044
-408.325	800.000	0.152	0.432
-407.311	800.000	-0.029	-0.096
-406.296	-34.861	0.252	0.137
-405.282	-200.000	-0.014	0.185
-404.267	77.797	0.067	-0.071
-403.252	-93.646	0.074	-0.020
-402.238	-140.280	0.108	0.011
-401.223	387.938	0.156	-0.321
-400.209	605.779	0.111	-0.275
-399.194	-162.233	-0.245	0.012
-398.179	-170.795	-0.118	-0.004
-397.165	-82.646	0.301	-0.097
-396.150	133.409	0.187	0.240
-395.136	-107.954	-0.160	0.034
-394.121	-39.542	-0.433	0.225
-393.106	515.058	-0.049	-0.115
-392.092	31.255	-0.191	-0.163
-391.077	35.717	0.230	-0.200
-390.063	-200.000	0.017	0.164
-389.048	221.881	-0.044	0.071
-388.033	800.000	-0.022	-0.085
-387.019	-200.000	0.015	0.320
-386.004	250.134	0.137	-0.232
-384.990	98.018	-0.291	-0.332
-383.975	-6.771	0.432	0.291
-382.960	-23.919	0.243	0.144
-381.946	11.900	-0.165	0.126
-380.931	-200.000	-0.001	-0.093
-379.917	154.332	-0.068	-0.092
-378.902	257.700	-0.157	-0.268
-377.888	156.818	-0.028	0.039
-376.873	99.411	0.169	-0.194
-375.858	-200.000	-0.001	-0.022
-374.844	-200.000	-0.407	-0.000
-373.829	-200.000	-0.076	-0.397
-372.815	437.622	0.181	0.391
-371.800	-119.170	-0.436	-0.076
-370.785	-200.000	-0.009	-0.549
-369.771	-95.372	0.224	0.060
-368.756	-72.129	-0.308	0.113
-367.742	763.428	-0.076	-0.205
-366.727	281.919	0.117	0.207
-365.712	185.820	-0.294	-0.434
-364.698	284.339	-0.054	-0.096
-363.683	-159.363	-0.150	0.008
-362.669	196.365	0.275	0.415
-361.654	800.000	-0.020	0.062
-360.639	-45.289	0.271	-0.133
-359.625	577.828	0.047	0.113
-358.610	-103.220	0.122	-0.028
-357.596	74.079	0.247	-0.257
-356.581	-32.549	-0.270	0.149
-355.566	179.260	-0.210	-0.305
-354.552	-95.934	0.112	0.030
-353.537	-113.095	0.161	0.032
-352.523	173.847	-0.079	0.113
-351.508	30.951	0.167	0.142
-350.493	-27.907	0.098	0.056
-349.479	-109.284	0.250	-0.053
-348.464	-56.151	0.091	-0.040
-347.450	-200.000	0.006	-0.360
-346.435	-109.687	0.061	0.013
-345.420	800.000	-0.056	-0.162
-344.406	581.393	0.144	-0.349
-343.391	-200.000	0.087	-0.428
-342.377	-187.192	-0.615	-0.008
-341.362	-200.000	-0.020	0.333
-340.348	-147.727	0.086	-0.007
-339.333	243.162	0.152	-0.253
-338.318	281.301	0.149	-0.264
-337.304	800.000	0.124	-0.418
-336.289	47.106	-0.086	0.079
-335.275	143.721	-0.134	0.177
-334.260	428.077	0.073	-0.156
-333.245	6.310	-0.030	0.022
-332.231	-31.757	-0.188	-0.104
-331.216	-200.000	-0.008	0.214
-330.202	41.725	0.084	0.076
-329.187	610.763	-0.090	-0.224
-328.172	227.708	-0.029	-0.047
-327.158	-120.530	0.126	-0.021
-326.143	-28.182	-0.365	0.209
-325.129	-149.275	-0.229	-0.018
-324.114	-46.429	-0.131	-0.064
-323.099	-82.446	0.341	-0.110
-322.085	-86.950	0.265	0.080
-321.070	-38.901	-0.037	-0.019
-320.056	-69.577	-0.206	-0.078
-319.041	-163.181	0.277	0.013
-318.026	121.080	0.166	-0.205
-317.012	800.000	0.067	0.208
-315.997	80.273	-0.272	-0.290
-314.983	-137.851	0.269	-0.030
-313.968	800.000	0.121	0.491
-312.953	-105.023	-0.332	0.075
-311.939	105.264	-0.118	-0.138
-310.924	388.084	-0.032	0.066
-309.910	-163.393	0.097	-0.005
-308.895	-129.882	-0.224	0.030
-307.880	-200.000	-0.021	-0.209
-306.866	-167.255	0.330	-0.013
-305.851	-200.000	-0.002	0.123
-304.837	37.175	0.070	0.062
-303.822	-21.436	-0.108	-0.065
-302.807	86.411	0.147	-0.160
-301.793	535.435	-0.033	0.076
-300.778	-2.001	0.095	-0.066
-299.764	800.000	0.029	0.099
-298.749	-200.000	0.007	-0.041
-297.735	-46.947	0.197	-0.095
-296.720	116.944	0.204	-0.248
-295.705	-200.000	0.166	-0.000
-294.691	91.414	0.137	0.152
-293.676	-96.147	0.255	-0.067
-292.662	-6.267	-0.378	0.255
-291.647	-74.217	0.066	-0.024
-290.632	-90.615	-0.166	-0.047
-289.618	-98.616	-0.197	-0.050
-288.603	194.505	-0.201	0.301
-287.589	-162.068	0.319	0.016
-286.574	13.366	0.093	-0.071
-285.559	14.814	-0.171	0.132
-284.545	-168.866	-0.387	0.014
-283.530	-172.709	-0.215	-0.007
-282.516	-200.000	0.099	0.590
-281.501	800.000	0.049	0.165
-280.486	94.433	-0.078	0.088
-279.472	365.667	0.068	0.136
-278.457	-36.848	0.072	-0.038
-277.443	-145.414	-0.310	-0.028
-276.428	-98.667	0.143	-0.036
-275.413	106.378	-0.140	0.164
-274.399	-24.242	0.214	0.126
-273.384	-200.000	0.023	0.163
-272.370	-29.385	-0.262	-0.148
-271.355	-29.683	0.220	0.124
-270.340	462.541	-0.085	0.189
-269.326	311.426	0.007	-0.013
-268.311	45.935	-0.204	-0.186
-267.297	-177.725	0.043	-0.001
-266.282	206.918	-0.086	0.132
-265.267	-200.000	0.050	0.221
-264.253	165.526	0.076	-0.106
-263.238	-187.148	0.275	0.004
-262.224	-171.026	0.217	-0.007
-261.209	800.000	0.113	-0.334
-260.195	-77.028	-0.279	-0.096
-259.180	-106.069	0.346	0.077
-258.165	85.769	-0.236	-0.257
-257.151	-28.403	-0.257	-0.146
-256.136	12.789	-0.255	0.195
-255.122	-108.026	-0.232	0.050
-254.107	526.003	-0.063	0.147
-253.092	0.616	-0.123	0.087
-252.078	120.253	-0.119	0.146
-251.063	306.777	-0.050	-0.091
-250.049	-62.455	-0.242	-0.099
-249.034	-200.000	0.036	-0.285
-248.019	-130.492	-0.351	-0.047
-247.005	325.034	0.098	0.185
-245.990	-129.369	-0.103	-0.014
-244.976	-200.000	-0.013	0.162
-243.961	-118.529	-0.388	0.068
-242.946	-67.442	0.040	0.015
-241.932	-200.000	-0.032	0.270
-240.917	800.000	0.117	0.382
-239.903	800.000	0.082	0.275
-238.888	227.865	0.124	0.199
-237.873	29.631	0.072	-0.060
-236.859	-200.000	-0.023	-0.132
-235.844	-187.295	-0.532	0.007
-234.830	-112.809	0.198	0.039
-233.815	-84.608	-0.134	0.042
-232.800	-182.875	-0.318	0.006
-231.786	-103.004	0.090	0.021
-230.771	-200.000	-0.020	0.442
-229.757	-139.790	0.449	0.047
-228.742	-117.409	-0.310	0.055
-227.727	-38.951	0.123	0.064
-226.713	23.386	0.074	-0.060
-225.698	31.448	-0.307	0.260
-224.684	-52.041	-0.397	-0.182
-223.669	-83.699	0.187	0.059
-222.655	-80.297	-0.358	0.118
-221.640	-35.435	0.020	-0.011
-220.625	800.000	-0.026	0.100
-219.611	249.723	-0.099	-0.165
-218.596	-106.890	0.123	-0.027
-217.582	800.000	-0.089	0.333
-216.567	800.000	-0.048	0.154
-215.552	-124.534	-0.200	-0.031
-214.538	757.738	0.084	0.224
-213.523	-182.461	-0.163	0.003
-212.509	-200.000	-0.054	0.352
-211.494	-200.000	0.056	0.338
-210.479	-159.577	-0.418	-0.023
-209.465	-45.798	-0.224	0.109
-208.450	-200.000	-0.009	-0.061
-207.436	-150.713	0.207	0.016
-206.421	58.512	0.102	-0.098
-205.406	-13.760	-0.318	0.203
-204.392	65.972	-0.131	0.131
-203.377	800.000	-0.023	0.089
-202.363	220.369	0.105	-0.166
-201.348	36.664	-0.146	0.127
-200.333	-60.157	-0.164	0.069
-199.319	-37.193	-0.078	0.041
-198.304	-58.632	0.380	0.162
-197.290	-200.000	0.054	0.259
-196.275	503.590	-0.216	0.493
-195.260	-200.000	-0.048	0.276
-194.246	338.441	0.214	-0.410
-193.231	-31.502	0.110	-0.061
-192.217	-107.812	-0.202	-0.043
-191.202	454.775	0.078	0.170
-190.187	-200.000	0.006	0.042
-189.173	-200.000	0.061	-0.000
-188.158	-149.841	0.317	0.024
-187.144	-127.244	-0.045	0.007
-186.129	-200.000	0.030	-0.174
-185.114	32.986	0.064	-0.055
-184.100	-200.000	-0.004	0.201
-183.085	-200.000	0.021	0.186
-182.071	194.559	-0.201	-0.301
-181.056	-70.954	-0.140	-0.052
-180.042	107.585	-0.193	-0.226
-179.027	-9.698	-0.196	0.129
-178.012	29.680	0.237	-0.199
-176.998	183.892	0.047	-0.069
-175.983	-197.937	0.453	-0.003
-174.969	-177.291	0.280	0.007
-173.954	29.337	0.178	-0.149
-172.939	-200.000	-0.008	-0.203
-171.925	-200.000	-0.072	-0.460
-170.910	144.715	0.088	-0.115
-169.896	1.417	0.206	0.146
-168.881	-51.180	-0.296	-0.136
-167.866	-170.535	0.138	-0.005
-166.852	-118.636	0.178	-0.031
-165.837	48.734	-0.089	0.082
-164.823	-20.823	0.152	0.092
-163.808	-170.362	-0.121	0.004
-162.793	205.039	0.159	-0.243
-161.779	-70.048	0.302	0.113
-160.764	-200.000	-0.033	0.437
-159.750	112.591	0.303	0.361
-158.735	-67.860	0.259	-0.100
-157.720	16.471	0.163	-0.127
-156.706	-88.476	0.182	0.053
-155.691	104.692	0.153	-0.177
-154.677	-200.000	0.031	0.227
-153.662	-22.994	-0.108	0.064
-152.647	-200.000	-0.009	-0.338
-151.633	-93.492	-0.118	-0.032
-150.618	132.561	-0.073	-0.092
-149.604	800.000	0.037	0.108
-148.589	-47.686	-0.226	-0.108
-147.574	307.094	-0.014	-0.026
-146.560	-86.308	-0.256	-0.077
-145.545	-93.337	-0.014	-0.004
-144.531	-200.000	0.055	0.323
-143.516	9.879	-0.155	0.116
-142.502	-84.120	-0.209	-0.065
-141.487	-99.698	0.498	-0.123
-140.472	-103.566	-0.218	0.050
-139.458	380.311	0.067	-0.136
-138.443	-200.000	0.117	0.000
-137.429	-169.064	0.073	-0.003
-136.414	-200.000	0.007	0.047
-135.399	337.696	-0.107	0.204
-134.385	55.059	0.272	0.258
-133.370	-200.000	0.032	0.238
-132.356	91.913	-0.098	0.108
-131.341	800.000	-0.056	0.178
-130.326	-153.823	0.256	0.017
-129.312	287.685	-0.063	-0.112
-128.297	225.676	-0.126	0.200
-127.283	800.000	0.114	0.309
-126.268	317.775	0.038	-0.071
-125.253	-200.000	0.017	0.139
-124.239	24.703	-0.369	-0.300
-123.224	-62.965	0.201	-0.082
-122.210	-67.668	0.187	-0.072
