DTS Sentinel unit serial number:	SN413079Multiplexer serial number:	ORYXHardware model number:	OX4-SRSoftware version number:	ORYX F/W v4.00 Oryx Data Collector v3.7.2.0data status	okinstallation	princeton_trtdifferential loss correction	single-endedforward channel	channel 1reverse channel	N/Adate	2019/09/18time	13:30:35forward acquisition time	60.00reverse acquisition time	0.00gamma	496.2192k internal	0.2313k external	0.2313temperature offset calibration	0.9981default loss term (dB/km)	0.3790temperature slope calibration	1.0000multiplexer offset coefficient	1.0000multiplexer slope coefficient	1.0000fibre end	0.00T internal ref (°C)	34.25T ext. ref 1 (°C)	0.62T ext. ref 2 (°C)	31.09length (m)	temperature (°C)	Stokes	anti-Stokes-747.200	-200.000	-0.031	-0.153
-746.185	-200.000	-0.041	0.253
-745.171	800.000	-0.097	0.315
-744.156	15.621	0.234	0.186
-743.142	117.795	0.035	-0.044
-742.127	82.184	-0.029	0.032
-741.112	800.000	0.103	0.386
-740.098	-56.539	-0.234	-0.105
-739.083	800.000	-0.098	-0.312
-738.069	-131.474	-0.474	-0.063
-737.054	-38.011	-0.140	-0.075
-736.039	-200.000	0.013	-0.403
-735.025	-127.488	0.341	0.050
-734.010	-56.973	-0.141	-0.063
-732.996	223.336	-0.075	0.122
-731.981	-69.351	-0.046	0.018
-730.966	-31.414	0.266	-0.152
-729.952	61.415	0.100	-0.101
-728.937	417.959	0.206	0.446
-727.923	463.256	0.073	-0.166
-726.908	-200.000	0.020	-0.107
-725.894	-182.061	-0.476	-0.009
-724.879	-35.779	-0.105	0.058
-723.864	-88.657	-0.315	0.095
-722.850	22.182	0.349	0.289
-721.835	118.596	-0.157	-0.196
-720.821	-122.793	-0.256	-0.042
-719.806	39.133	0.097	0.088
-718.791	735.159	0.042	-0.113
-717.777	-120.357	-0.260	0.045
-716.762	-120.835	-0.073	0.012
-715.748	79.994	-0.255	-0.277
-714.733	339.160	-0.122	-0.241
-713.718	66.079	0.118	-0.121
-712.704	282.684	0.151	-0.275
-711.689	-200.000	0.013	0.098
-710.675	800.000	-0.095	-0.343
-709.660	-67.151	-0.270	-0.108
-708.645	-123.915	0.168	0.027
-707.631	-91.791	0.172	0.050
-706.616	-7.939	0.153	0.105
-705.602	-67.493	0.322	-0.128
-704.587	-27.557	-0.159	0.094
-703.572	800.000	0.098	0.325
-702.558	167.233	-0.161	-0.232
-701.543	117.515	0.252	0.313
-700.529	-110.163	-0.224	0.047
-699.514	598.209	0.057	-0.144
-698.499	748.543	0.100	-0.272
-697.485	-200.000	0.026	0.215
-696.470	34.116	-0.271	0.239
-695.456	-19.223	0.253	0.159
-694.441	174.081	0.158	0.231
-693.426	-200.000	0.046	-0.263
-692.412	800.000	-0.042	-0.136
-691.397	162.900	-0.094	0.133
-690.383	-54.937	0.234	0.107
-689.368	-112.748	0.181	0.036
-688.354	-66.391	0.113	-0.045
-687.339	-126.250	0.414	-0.063
-686.324	-200.000	-0.011	0.352
-685.310	-116.953	0.159	-0.029
-684.295	-23.639	0.210	-0.127
-683.281	239.583	-0.092	0.155
-682.266	-152.661	-0.221	0.016
-681.251	-200.000	0.048	-0.257
-680.237	751.481	0.148	-0.405
-679.222	-35.258	0.114	0.063
-678.208	136.604	0.072	0.095
-677.193	-95.291	0.314	0.086
-676.178	69.147	0.038	0.039
-675.164	-200.000	0.012	0.395
-674.149	0.582	-0.134	-0.097
-673.135	-165.693	0.286	-0.013
-672.120	-200.000	0.022	-0.141
-671.105	-200.000	-0.018	-0.123
-670.091	-107.569	0.435	-0.096
-669.076	-200.000	0.003	0.187
-668.062	247.851	-0.039	-0.067
-667.047	-145.409	0.093	-0.009
-666.032	-200.000	-0.098	0.537
-665.018	-200.000	0.008	-0.069
-664.003	-22.911	-0.405	-0.247
-662.989	-200.000	-0.481	0.001
-661.974	-5.369	0.260	-0.181
-660.959	36.375	-0.200	-0.178
-659.945	-200.000	0.084	0.376
-658.930	2.312	0.304	0.223
-657.916	69.444	-0.095	0.099
-656.901	-90.660	0.352	0.103
-655.886	114.410	0.154	0.189
-654.872	-106.451	0.165	-0.037
-653.857	800.000	-0.058	-0.194
-652.843	-87.442	0.130	0.040
-651.828	-152.317	0.228	0.017
-650.814	-44.067	0.151	0.077
-649.799	-91.524	0.224	-0.065
-648.784	86.173	-0.161	0.179
-647.770	316.379	0.120	-0.229
-646.755	85.913	-0.029	0.032
-645.741	-33.623	0.198	0.111
-644.726	800.000	-0.059	-0.210
-643.711	-165.419	0.477	0.021
-642.697	66.807	-0.219	-0.226
-641.682	-110.010	0.203	-0.043
-640.668	-200.000	-0.005	0.101
-639.653	-58.156	-0.248	-0.109
-638.638	-200.000	0.009	0.065
-637.624	-156.385	0.094	-0.006
-636.609	-200.000	0.041	0.274
-635.595	-200.000	0.031	-0.326
-634.580	-200.000	-0.003	0.030
-633.565	800.000	-0.077	-0.238
-632.551	800.000	-0.043	-0.188
-631.536	131.198	0.250	0.325
-630.522	-131.662	0.212	0.028
-629.507	16.413	0.216	-0.172
-628.492	-200.000	-0.042	0.408
-627.478	1.154	0.158	0.114
-626.463	750.891	0.159	0.433
-625.449	224.954	0.111	-0.181
-624.434	-6.172	-0.322	-0.222
-623.419	-200.000	0.008	-0.143
-622.405	-6.387	0.088	-0.061
-621.390	382.551	0.117	0.242
-620.376	800.000	-0.061	-0.184
-619.361	135.818	0.123	-0.162
-618.346	24.034	-0.045	-0.038
-617.332	800.000	-0.050	0.170
-616.317	58.019	-0.146	0.145
-615.303	-49.282	-0.208	0.100
-614.288	-118.577	-0.056	-0.010
-613.273	-37.414	-0.423	0.228
-612.259	3.858	0.125	0.092
-611.244	-70.045	0.248	0.095
-610.230	-5.461	0.124	-0.086
-609.215	108.901	-0.172	0.208
-608.201	-200.000	-0.047	-0.386
-607.186	-179.541	-0.254	-0.006
-606.171	66.987	0.186	0.191
-605.157	-154.596	0.239	0.016
-604.142	252.342	0.073	-0.125
-603.128	-148.555	-0.200	0.017
-602.113	-117.103	-0.194	-0.036
-601.098	25.488	0.139	0.117
-600.084	-114.298	0.264	-0.051
-599.069	134.507	-0.074	0.097
-598.055	-58.620	0.230	0.101
-597.040	-174.683	-0.284	-0.008
-596.025	-200.000	-0.014	0.102
-595.011	145.677	-0.149	-0.201
-593.996	-11.191	-0.156	0.103
-592.982	411.020	-0.115	-0.245
-591.967	287.972	-0.112	-0.204
-590.952	-63.461	0.276	-0.115
-589.938	800.000	0.040	-0.115
-588.923	338.246	-0.040	-0.079
-587.909	286.894	0.204	0.371
-586.894	-15.574	-0.105	0.068
-585.879	800.000	-0.049	0.200
-584.865	-103.326	0.206	-0.049
-583.850	96.587	-0.099	-0.115
-582.836	-200.000	0.001	0.123
-581.821	-18.270	-0.298	0.188
-580.806	800.000	-0.065	-0.185
-579.792	407.533	-0.197	0.421
-578.777	89.943	0.181	-0.204
-577.763	551.065	0.123	-0.297
-576.748	-200.000	-0.019	0.285
-575.733	-7.946	-0.063	-0.042
-574.719	-63.303	-0.383	-0.159
-573.704	-90.131	-0.264	-0.078
-572.690	800.000	-0.069	-0.287
-571.675	800.000	-0.020	0.061
-570.661	-30.878	-0.108	-0.061
-569.646	-175.243	-0.215	-0.006
-568.631	286.879	0.131	0.238
-567.617	535.333	0.065	-0.155
-566.602	-200.000	-0.009	0.253
-565.588	-200.000	-0.017	0.263
-564.573	-57.962	-0.252	-0.111
-563.558	321.267	-0.122	0.233
-562.544	342.490	0.086	0.170
-561.529	800.000	-0.052	0.196
-560.515	-123.223	-0.498	-0.080
-559.500	800.000	0.063	-0.185
-558.485	57.144	-0.090	0.089
-557.471	74.263	-0.104	0.110
-556.456	-157.325	-0.208	0.013
-555.442	-200.000	0.003	-0.078
-554.427	-170.714	0.381	0.013
-553.412	-142.070	0.269	0.027
-552.398	119.014	-0.224	-0.278
-551.383	-11.893	0.059	0.039
-550.369	-60.399	-0.293	0.125
-549.354	290.583	0.113	-0.207
-548.339	483.334	-0.125	-0.285
-547.325	-200.000	0.003	0.084
-546.310	-200.000	0.019	-0.094
-545.296	-17.257	-0.060	0.038
-544.281	-50.041	0.131	0.063
-543.266	-200.000	-0.056	0.368
-542.252	-62.888	-0.326	-0.136
-541.237	800.000	0.087	0.327
-540.223	-113.298	0.188	0.037
-539.208	304.611	-0.143	0.268
-538.193	89.572	-0.299	-0.335
-537.179	53.791	-0.119	-0.115
-536.164	-96.806	0.178	0.047
-535.150	-2.072	-0.087	-0.061
-534.135	-173.965	0.347	0.010
-533.121	42.600	0.078	-0.072
-532.106	-27.054	0.419	0.246
-531.091	-5.975	0.264	-0.182
-530.077	-2.030	-0.056	-0.039
-529.062	800.000	-0.129	0.392
-528.048	800.000	-0.044	-0.162
-527.033	22.448	0.184	-0.151
-526.018	800.000	0.136	0.465
-525.004	-59.828	0.233	0.100
-523.989	800.000	-0.054	0.177
-522.975	-20.525	-0.278	0.172
-521.960	321.579	0.097	0.185
-520.945	315.260	0.122	-0.231
-519.931	15.933	0.150	0.119
-518.916	-22.440	-0.261	-0.159
-517.902	720.176	0.019	0.052
-516.887	-147.242	0.279	0.024
-515.872	-48.424	-0.101	0.049
-514.858	-200.000	0.028	0.238
-513.843	-200.000	-0.028	-0.234
-512.829	-70.104	0.318	-0.122
-511.814	69.113	-0.172	-0.178
-510.799	-87.538	-0.196	-0.060
-509.785	-103.775	-0.244	0.057
-508.770	229.497	-0.156	-0.256
-507.756	30.574	0.384	-0.330
-506.741	800.000	-0.118	-0.358
-505.726	-100.604	0.393	-0.097
-504.712	169.405	0.237	0.341
-503.697	217.595	0.032	0.052
-502.683	-52.224	0.212	0.099
-501.668	147.405	0.165	0.223
-500.653	174.193	0.194	0.281
-499.639	-72.372	-0.297	-0.111
-498.624	-55.899	-0.226	0.101
-497.610	-82.147	-0.101	-0.033
-496.595	-57.514	-0.481	-0.212
-495.581	485.361	0.020	0.046
-494.566	-112.248	0.210	-0.042
-493.551	134.613	0.142	-0.185
-492.537	-58.431	0.144	-0.063
-491.522	-109.157	-0.112	0.024
-490.508	347.178	0.056	-0.111
-489.493	-99.733	-0.063	0.016
-488.478	800.000	-0.050	-0.182
-487.464	50.172	0.106	0.100
-486.449	-27.221	-0.077	0.045
-485.435	156.617	-0.072	0.100
-484.420	-200.000	-0.019	-0.158
-483.405	-174.539	0.384	0.011
-482.391	-78.589	0.187	-0.064
-481.376	4.458	0.167	0.123
-480.362	-2.361	-0.212	0.149
-479.347	-200.000	-0.030	-0.342
-478.332	207.088	-0.308	-0.483
-477.318	109.029	-0.087	0.104
-476.303	-39.994	-0.225	-0.118
-475.289	363.277	0.122	-0.245
-474.274	370.810	0.019	-0.039
-473.259	-200.000	0.073	-0.434
-472.245	-83.278	0.107	-0.035
-471.230	232.604	0.209	0.345
-470.216	-51.160	0.289	-0.136
-469.201	-200.000	-0.027	0.265
-468.186	124.359	-0.135	0.170
-467.172	-152.728	-0.420	0.030
-466.157	-42.003	-0.422	-0.217
-465.143	-61.970	-0.246	0.103
-464.128	-200.000	-0.018	-0.452
-463.113	157.578	-0.085	0.118
-462.099	316.040	-0.165	-0.312
-461.084	-138.630	-0.343	0.038
-460.070	-34.908	0.383	-0.210
-459.055	-200.000	0.043	-0.218
-458.040	-24.418	-0.148	0.089
-457.026	302.836	0.132	-0.245
-456.011	175.460	-0.129	-0.187
-454.997	-101.232	0.093	0.023
-453.982	52.715	0.183	0.175
-452.968	800.000	-0.115	-0.354
-451.953	135.364	0.167	0.218
-450.938	-200.000	0.015	0.237
-449.924	-52.386	0.065	0.030
-448.909	103.627	0.228	-0.269
-447.895	236.402	-0.089	0.148
-446.880	-200.000	-0.027	0.130
-445.865	-200.000	0.005	-0.068
-444.851	168.077	-0.099	-0.141
-443.836	7.924	0.182	0.137
-442.822	-129.605	-0.172	-0.024
-441.807	-80.299	-0.020	-0.007
-440.792	-92.969	-0.114	-0.032
-439.778	319.699	-0.078	0.148
-438.763	-30.958	0.341	-0.193
-437.749	-100.246	-0.357	0.089
-436.734	-112.431	-0.185	0.037
-435.719	62.702	0.164	-0.164
-434.705	-108.955	0.242	0.052
-433.690	800.000	0.046	-0.163
-432.676	-128.936	0.112	0.016
-431.661	800.000	-0.077	0.282
-430.646	800.000	-0.051	-0.146
-429.632	240.685	0.118	-0.197
-428.617	550.179	0.141	0.339
-427.603	800.000	-0.094	-0.411
-426.588	800.000	0.117	0.401
-425.573	-95.685	0.279	-0.075
-424.559	-10.589	-0.205	0.136
-423.544	-31.955	0.132	-0.074
-422.530	-200.000	0.013	0.115
-421.515	124.709	-0.164	-0.207
-420.500	347.738	0.131	-0.258
-419.486	14.151	0.203	-0.158
-418.471	-200.000	-0.001	0.010
-417.457	-4.599	-0.067	-0.046
-416.442	800.000	-0.105	0.387
-415.428	-200.000	0.021	0.136
-414.413	800.000	0.077	0.321
-413.398	-88.998	0.251	-0.074
-412.384	157.398	-0.160	0.222
-411.369	1.349	0.256	-0.184
-410.355	479.664	-0.042	-0.096
-409.340	-3.305	0.166	0.116
-408.325	-200.000	-0.006	-0.146
-407.311	8.561	0.221	-0.167
-406.296	-200.000	-0.073	-0.375
-405.282	195.734	-0.054	-0.082
-404.267	1.967	0.180	-0.130
-403.252	-145.011	0.090	-0.008
-402.238	-58.505	-0.243	-0.106
-401.223	53.547	-0.029	-0.028
-400.209	800.000	0.038	-0.130
-399.194	269.965	-0.102	0.179
-398.179	168.189	0.087	0.124
-397.165	-97.920	0.125	0.032
-396.150	-10.692	-0.270	-0.179
-395.136	-48.132	-0.292	0.141
-394.121	306.081	-0.111	-0.206
-393.106	-90.018	-0.204	-0.060
-392.092	-104.449	0.132	0.031
-391.077	-200.000	-0.041	-0.199
-390.063	-24.004	-0.168	-0.101
-389.048	30.322	0.096	-0.082
-388.033	-62.398	0.155	0.064
-387.019	119.571	-0.163	0.202
-386.004	233.031	-0.133	-0.218
-384.990	800.000	0.107	0.345
-383.975	635.297	0.207	0.526
-382.960	499.719	-0.105	0.242
-381.946	315.421	0.070	0.132
-380.931	-40.542	0.072	0.038
-379.917	800.000	-0.042	0.121
-378.902	-200.000	-0.009	-0.077
-377.888	3.057	-0.334	-0.242
-376.873	-69.469	0.257	0.098
-375.858	-104.680	0.189	-0.043
-374.844	-200.000	-0.053	-0.339
-373.829	800.000	-0.058	-0.204
-372.815	-18.935	0.223	0.139
-371.800	-13.489	0.070	0.045
-370.785	131.185	-0.175	-0.224
-369.771	-63.676	0.117	-0.048
-368.756	91.500	-0.148	-0.167
-367.742	28.912	0.055	-0.046
-366.727	-99.463	-0.182	0.046
-365.712	-24.441	-0.107	0.064
-364.698	-21.551	0.279	0.170
-363.683	-119.841	-0.209	-0.036
-362.669	143.483	0.170	-0.226
-361.654	-42.147	-0.340	-0.174
-360.639	800.000	-0.016	-0.057
-359.625	217.913	0.088	-0.141
-358.610	800.000	-0.029	0.101
-357.596	420.285	0.022	-0.047
-356.581	82.744	-0.101	-0.109
-355.566	-77.880	0.325	0.112
-354.552	365.447	0.042	-0.084
-353.537	-159.965	-0.163	-0.009
-352.523	32.136	0.076	-0.065
-351.508	-200.000	0.005	0.191
-350.493	-57.719	-0.190	-0.083
-349.479	620.943	0.062	-0.157
-348.464	178.335	0.060	-0.088
-347.450	-82.055	0.188	0.061
-346.435	177.194	0.118	-0.171
-345.420	-15.487	0.118	-0.075
-344.406	-194.315	-0.233	0.002
-343.391	800.000	0.061	0.171
-342.377	-200.000	-0.016	-0.192
-341.362	289.595	-0.057	0.102
-340.348	-200.000	-0.041	-0.297
-339.333	191.510	0.090	-0.135
-338.318	-16.028	-0.166	0.105
-337.304	-109.472	0.032	-0.007
-336.289	233.327	0.130	-0.214
-335.275	261.639	0.120	0.208
-334.260	800.000	-0.015	0.046
-333.245	-99.909	-0.261	0.065
-332.231	-168.992	0.369	0.014
-331.216	564.630	0.095	0.229
-330.202	-98.861	-0.090	-0.023
-329.187	174.490	-0.217	0.313
-328.172	-70.185	-0.285	0.108
-327.158	-200.000	-0.056	0.284
-326.143	78.461	0.189	-0.202
-325.129	-200.000	0.005	-0.097
-324.114	-151.090	0.222	-0.017
-323.099	-152.171	-0.328	-0.024
-322.085	-123.340	0.315	-0.050
-321.070	-136.443	0.187	0.022
-320.056	-13.540	0.154	-0.099
-319.041	-31.615	-0.277	-0.155
-318.026	-137.205	0.183	0.021
-317.012	-66.858	-0.127	0.050
-315.997	45.568	-0.120	0.110
-314.983	41.999	-0.337	-0.305
-313.968	-141.992	0.298	0.030
-312.953	482.326	0.046	0.104
-311.939	800.000	-0.063	0.191
-310.924	414.703	0.166	0.353
-309.910	25.968	0.074	-0.061
-308.895	543.245	0.081	0.193
-307.880	-106.292	0.178	0.040
-306.866	-77.859	0.206	0.071
-305.851	-94.898	0.330	0.089
-304.837	-38.616	0.116	-0.061
-303.822	-200.000	-0.006	0.078
-302.807	-200.000	-0.009	0.382
-301.793	620.408	-0.145	0.364
-300.778	171.650	-0.207	-0.296
-299.764	263.213	-0.067	-0.116
-298.749	-200.000	0.042	-0.303
-297.735	121.887	0.096	-0.120
-296.720	-200.000	-0.023	0.113
-295.705	-200.000	0.026	0.119
-294.691	21.854	-0.138	-0.112
-293.676	-176.998	0.105	0.003
-292.662	-9.802	-0.026	-0.017
-291.647	-93.770	0.432	-0.119
-290.632	800.000	0.055	-0.169
-289.618	-83.122	-0.126	-0.040
-288.603	-98.320	0.213	0.055
-287.589	-200.000	-0.069	-0.380
-286.574	-12.542	0.110	0.072
-285.559	-76.372	0.135	0.047
-284.545	125.515	0.151	-0.190
-283.530	-113.138	-0.305	-0.060
-282.516	118.696	0.107	-0.132
-281.501	-125.613	0.201	-0.030
-280.486	-63.164	-0.071	0.029
-279.472	44.663	-0.135	0.124
-278.457	800.000	-0.087	-0.335
-277.443	248.190	0.069	-0.117
-276.428	800.000	0.077	0.311
-275.413	-11.432	-0.354	0.232
-274.399	-69.486	-0.445	0.170
-273.384	-156.363	-0.135	0.008
-272.370	-200.000	-0.010	-0.057
-271.355	216.986	0.149	-0.237
-270.340	-173.329	0.330	0.010
-269.326	-200.000	0.044	0.194
-268.311	800.000	-0.061	0.224
-267.297	-141.432	-0.088	0.009
-266.282	-62.690	0.178	0.074
-265.267	-14.003	0.129	-0.083
-264.253	664.887	0.141	-0.363
-263.238	264.745	-0.261	0.453
-262.224	800.000	-0.050	0.157
-261.209	-85.046	0.189	-0.059
-260.195	-102.068	-0.165	0.040
-259.180	-144.028	-0.343	0.032
-258.165	-112.347	0.322	-0.064
-257.151	800.000	-0.036	0.140
-256.136	800.000	-0.007	0.027
-255.122	46.830	0.147	-0.136
-254.107	-35.997	-0.261	-0.140
-253.092	-52.568	-0.221	0.101
-252.078	142.007	-0.149	-0.196
-251.063	-151.102	0.327	0.024
-250.049	800.000	0.044	-0.182
-249.034	-200.000	-0.047	0.251
-248.019	-130.710	-0.123	-0.016
-247.005	-82.738	0.056	-0.018
-245.990	-83.260	0.256	0.082
-244.976	475.353	0.089	0.200
-243.961	238.666	-0.176	0.291
-242.946	26.561	-0.367	-0.306
-241.932	-71.994	0.475	-0.176
-240.917	-135.111	-0.185	-0.022
-239.903	-200.000	0.040	0.241
-238.888	138.233	-0.167	0.217
-237.873	18.263	0.154	0.122
-236.859	-200.000	-0.012	-0.203
-235.844	800.000	-0.045	-0.141
-234.830	397.766	-0.022	-0.047
-233.815	68.901	0.061	-0.063
-232.800	-29.594	-0.077	-0.044
-231.786	192.413	0.055	0.082
-230.771	-174.450	-0.007	-0.000
-229.757	81.794	0.026	0.028
-228.742	-200.000	-0.011	-0.056
-227.727	800.000	-0.032	-0.099
-226.713	208.654	-0.261	0.406
-225.698	-200.000	0.016	0.247
-224.684	-200.000	0.038	-0.179
-223.669	-77.468	-0.296	-0.102
-222.655	-35.917	-0.115	-0.062
-221.640	800.000	-0.066	0.182
-220.625	-114.050	-0.085	0.016
-219.611	587.257	0.061	-0.150
-218.596	113.300	0.166	0.200
-217.582	800.000	0.048	-0.207
-216.567	-127.568	0.158	0.023
-215.552	33.834	-0.125	0.108
-214.538	510.983	0.080	-0.185
-213.523	-10.065	-0.151	-0.100
-212.509	-104.582	-0.047	0.011
-211.494	88.617	0.076	0.084
-210.479	-200.000	-0.002	-0.044
-209.465	119.389	-0.149	0.184
-208.450	-200.000	-0.003	0.119
-207.436	113.402	0.146	-0.176
-206.421	800.000	-0.076	-0.260
-205.406	800.000	0.040	0.134
-204.392	-128.830	0.446	-0.062
-203.377	-131.768	-0.189	-0.025
-202.363	-125.145	-0.205	-0.031
-201.348	-80.239	-0.206	0.068
-200.333	-87.444	0.177	0.053
-199.319	-200.000	0.005	-0.115
-198.304	394.561	0.032	0.066
-197.290	-200.000	0.015	-0.090
-196.275	-161.968	-0.389	-0.019
-195.260	-114.421	0.366	-0.070
-194.246	255.983	-0.150	0.256
-193.231	-33.601	-0.161	-0.088
-192.217	34.214	-0.230	0.199
-191.202	-200.000	0.022	0.131
-190.187	-200.000	-0.001	0.104
-189.173	-21.094	0.291	0.177
-188.158	458.055	0.102	0.225
-187.144	-167.886	-0.079	-0.003
-186.129	86.172	-0.160	-0.175
-185.114	-89.879	-0.115	-0.033
-184.100	-94.882	-0.128	-0.034
-183.085	-200.000	-0.053	0.254
-182.071	-125.880	-0.138	0.021
-181.056	800.000	-0.031	0.105
-180.042	254.665	0.149	0.253
-179.027	-96.094	0.190	-0.050
-178.012	513.819	-0.067	-0.155
-176.998	-200.000	-0.003	-0.242
-175.983	-178.979	-0.084	0.002
-174.969	47.425	0.225	-0.208
-173.954	650.629	0.142	0.361
-172.939	800.000	-0.099	0.297
-171.925	488.538	-0.087	0.197
-170.910	-8.338	-0.030	-0.020
-169.896	-110.958	0.195	-0.040
-168.881	-60.598	-0.159	0.067
-167.866	71.061	0.164	0.168
-166.852	-114.302	-0.436	0.083
-165.837	-172.706	0.223	0.007
-164.823	-104.488	0.228	-0.052
-163.808	-48.466	-0.205	-0.098
-162.793	-200.000	-0.023	-0.190
-161.779	-15.417	-0.086	-0.054
-160.764	-25.865	0.128	0.075
-159.750	-200.000	-0.005	-0.075
-158.735	-200.000	0.078	0.417
-157.720	-89.571	-0.110	0.032
-156.706	-200.000	0.013	-0.302
-155.691	-200.000	0.005	0.034
-154.677	-63.717	-0.221	-0.090
-153.662	-103.133	-0.139	-0.033
-152.647	-200.000	-0.064	0.295
-151.633	-80.940	0.286	0.094
-150.618	3.139	0.166	0.120
-149.604	182.250	-0.237	-0.346
-148.589	800.000	-0.039	0.139
-147.574	-116.202	-0.287	0.053
-146.560	80.197	0.104	0.111
-145.545	-200.000	-0.008	0.061
-144.531	-200.000	-0.028	0.198
-143.516	-200.000	0.025	0.575
-142.502	192.229	0.104	-0.156
-141.487	305.025	-0.182	0.334
-140.472	180.897	-0.091	0.132
-139.458	67.952	-0.239	0.242
-138.443	68.542	0.254	0.258
-137.429	-200.000	-0.006	0.173
-136.414	-127.705	-0.036	-0.005
-135.399	-140.371	0.285	-0.029
-134.385	-125.818	0.037	-0.005
-133.370	800.000	-0.038	0.146
-132.356	-123.048	-0.522	-0.083
-131.341	-62.584	0.252	-0.104
-130.326	800.000	0.073	-0.208
-129.312	0.171	0.300	-0.212
-128.297	51.502	-0.169	-0.159
-127.283	-70.273	-0.301	0.113
-126.268	-14.434	0.367	-0.234
-125.253	800.000	-0.019	0.057
-124.239	89.649	-0.140	0.155
-123.224	7.402	0.153	0.113
-122.210	-107.913	0.196	0.042
