DTS Sentinel unit serial number:	SN413079Multiplexer serial number:	ORYXHardware model number:	OX4-SRSoftware version number:	ORYX F/W v4.00 Oryx Data Collector v3.7.2.0data status	okinstallation	princeton_trtdifferential loss correction	single-endedforward channel	channel 1reverse channel	N/Adate	2019/09/14time	15:46:35forward acquisition time	60.00reverse acquisition time	0.00gamma	496.2192k internal	0.2295k external	0.2295temperature offset calibration	1.0070default loss term (dB/km)	0.3790temperature slope calibration	1.0000multiplexer offset coefficient	1.0000multiplexer slope coefficient	1.0000fibre end	0.00T internal ref (°C)	38.75T ext. ref 1 (°C)	5.12T ext. ref 2 (°C)	34.28length (m)	temperature (°C)	Stokes	anti-Stokes-747.200	-103.842	-0.149	-0.036
-746.185	15.037	-0.416	0.333
-745.171	800.000	-0.124	0.370
-744.156	-200.000	-0.019	0.119
-743.142	118.839	0.213	0.269
-742.127	-82.555	0.326	0.108
-741.112	223.174	0.158	-0.260
-740.098	-11.551	-0.058	0.039
-739.083	-34.747	-0.235	-0.131
-738.069	190.070	-0.111	0.170
-737.054	-87.388	-0.331	0.102
-736.039	-64.918	-0.363	-0.150
-735.025	-8.723	0.164	-0.112
-734.010	5.453	-0.085	0.064
-732.996	-154.634	-0.367	-0.025
-731.981	-147.081	0.296	-0.026
-730.966	-140.089	0.139	-0.015
-729.952	800.000	0.098	-0.348
-728.937	85.222	-0.200	-0.224
-727.923	-132.206	-0.721	0.095
-726.908	550.303	0.133	-0.327
-725.894	-83.236	-0.183	-0.060
-724.879	-200.000	-0.004	0.184
-723.864	400.658	-0.186	-0.399
-722.850	-81.706	-0.446	-0.149
-721.835	188.164	-0.101	0.154
-720.821	479.999	-0.027	-0.063
-719.806	370.798	-0.029	-0.059
-718.791	8.769	0.107	0.082
-717.777	-170.203	-0.321	-0.012
-716.762	-117.368	-0.225	-0.042
-715.748	-136.145	-0.190	0.023
-714.733	300.526	-0.157	-0.296
-713.718	-36.943	-0.273	0.149
-712.704	2.724	-0.069	0.051
-711.689	-148.984	0.174	-0.014
-710.675	-200.000	0.012	-0.232
-709.660	461.505	-0.065	0.147
-708.645	336.412	0.100	-0.197
-707.631	800.000	-0.055	-0.179
-706.616	800.000	-0.029	-0.098
-705.602	116.519	-0.156	0.195
-704.587	21.764	-0.102	-0.085
-703.572	-200.000	-0.016	-0.153
-702.558	-140.932	-0.513	0.054
-701.543	157.027	0.100	0.142
-700.529	-200.000	-0.028	-0.263
-699.514	-0.800	-0.320	-0.231
-698.499	-200.000	0.003	-0.126
-697.485	137.138	-0.117	0.156
-696.470	-200.000	0.029	-0.177
-695.456	-88.194	0.215	-0.066
-694.441	551.682	0.121	-0.298
-693.426	758.081	0.164	-0.452
-692.412	800.000	-0.047	-0.161
-691.397	-11.651	0.114	0.077
-690.383	209.205	0.119	-0.190
-689.368	-200.000	0.012	-0.106
-688.354	-200.000	-0.010	-0.438
-687.339	-98.305	0.025	0.007
-686.324	-200.000	0.001	-0.019
-685.310	773.096	0.120	-0.334
-684.295	62.601	-0.054	0.056
-683.281	-24.753	0.213	0.129
-682.266	8.130	0.439	-0.336
-681.251	800.000	0.049	-0.183
-680.237	-102.614	-0.118	0.029
-679.222	3.956	0.170	-0.126
-678.208	40.167	-0.182	-0.167
-677.193	10.108	-0.290	-0.224
-676.178	149.837	-0.077	0.107
-675.164	259.941	0.157	-0.277
-674.149	26.420	-0.130	-0.111
-673.135	-35.936	-0.146	0.081
-672.120	800.000	-0.043	0.159
-671.105	-88.924	0.139	-0.042
-670.091	94.484	0.114	0.132
-669.076	-94.965	0.076	-0.021
-668.062	-118.201	-0.150	-0.027
-667.047	177.699	-0.346	0.514
-666.032	736.306	-0.061	-0.167
-665.018	282.393	-0.043	0.078
-664.003	195.545	0.142	0.220
-662.989	-179.858	0.232	-0.005
-661.974	-106.814	-0.282	-0.064
-660.959	147.419	-0.217	-0.298
-659.945	188.629	0.200	-0.305
-658.930	23.342	-0.197	0.165
-657.916	-200.000	0.023	-0.401
-656.901	80.538	0.134	-0.148
-655.886	-28.119	-0.122	0.072
-654.872	-132.022	-0.260	0.034
-653.857	-97.311	-0.229	-0.061
-652.843	-177.821	0.205	0.005
-651.828	-132.022	0.320	-0.042
-650.814	1.976	0.051	0.038
-649.799	22.370	-0.040	0.033
-648.784	-8.865	0.174	0.119
-647.770	186.358	0.189	-0.286
-646.755	800.000	-0.014	0.055
-645.741	486.576	0.152	-0.354
-644.726	-9.602	0.419	-0.285
-643.711	-154.116	-0.125	0.009
-642.697	-186.629	-0.287	0.004
-641.682	46.385	-0.167	-0.158
-640.668	-93.477	0.273	-0.077
-639.653	-200.000	-0.024	-0.133
-638.638	-21.681	0.052	-0.032
-637.624	228.446	-0.067	-0.112
-636.609	-200.000	0.035	0.273
-635.595	50.726	0.148	-0.143
-634.580	-32.486	-0.178	0.101
-633.565	-122.619	0.184	0.030
-632.551	210.486	-0.070	-0.113
-631.536	110.341	0.203	0.249
-630.522	-61.713	0.081	-0.035
-629.507	197.412	0.065	-0.101
-628.492	259.271	0.211	0.371
-627.478	635.210	0.046	0.118
-626.463	800.000	0.047	-0.134
-625.449	-128.737	0.369	-0.053
-624.434	330.580	-0.105	-0.206
-623.419	324.196	-0.054	-0.105
-622.405	800.000	-0.055	-0.212
-621.390	-200.000	-0.005	-0.196
-620.376	-142.502	0.272	-0.027
-619.361	63.050	0.024	0.024
-618.346	-187.261	-0.171	0.002
-617.332	40.347	-0.163	-0.149
-616.317	-126.933	0.072	-0.011
-615.303	41.049	0.139	0.127
-614.288	132.663	-0.113	0.148
-613.273	131.912	-0.213	0.279
-612.259	6.258	0.116	-0.087
-611.244	-200.000	-0.036	-0.197
-610.230	800.000	-0.156	0.445
-609.215	-33.296	0.030	0.017
-608.201	-171.646	-0.177	-0.006
-607.186	-41.828	-0.114	0.060
-606.171	-115.501	-0.271	-0.052
-605.157	-41.412	0.167	-0.087
-604.142	78.867	-0.160	0.174
-603.128	149.228	-0.024	-0.034
-602.113	633.305	0.027	0.070
-601.098	-118.566	-0.330	-0.059
-600.084	-200.000	0.007	0.107
-599.069	48.812	-0.105	0.101
-598.055	57.321	0.031	-0.031
-597.040	257.717	-0.148	0.259
-596.025	-53.479	-0.264	0.123
-595.011	14.107	-0.110	0.087
-593.996	-88.221	-0.049	0.015
-592.982	-200.000	-0.039	0.186
-591.967	517.694	-0.169	-0.401
-590.952	-16.007	-0.047	-0.030
-589.938	-48.807	0.396	-0.193
-588.923	800.000	0.033	-0.148
-587.909	786.114	-0.054	0.151
-586.894	155.829	-0.031	-0.044
-585.879	-61.332	-0.308	-0.132
-584.865	120.354	0.122	-0.154
-583.850	-126.334	0.115	0.018
-582.836	50.002	-0.103	0.099
-581.821	-152.771	-0.387	-0.028
-580.806	753.242	-0.021	0.059
-579.792	-19.517	0.032	-0.020
-578.777	-27.400	0.112	-0.066
-577.763	52.478	-0.051	0.049
-576.748	86.478	-0.265	-0.297
-575.733	-200.000	0.006	-0.378
-574.719	35.576	0.173	-0.154
-573.704	-36.429	-0.211	0.115
-572.690	59.751	-0.076	0.076
-571.675	-146.454	0.243	0.022
-570.661	-12.905	0.194	-0.128
-569.646	136.210	-0.100	0.132
-568.631	474.700	0.064	-0.147
-567.617	800.000	0.084	0.242
-566.602	-35.163	0.494	-0.273
-565.588	-10.149	-0.322	-0.217
-564.573	-112.503	-0.219	0.044
-563.558	-15.052	0.249	0.162
-562.544	-50.139	-0.073	-0.035
-561.529	-200.000	0.050	-0.232
-560.515	29.875	-0.129	0.112
-559.500	5.465	-0.283	0.212
-558.485	533.035	0.110	-0.265
-557.471	350.719	0.110	0.220
-556.456	43.613	0.261	-0.242
-555.442	-200.000	0.036	-0.222
-554.427	58.464	-0.241	-0.240
-553.412	-1.121	0.085	0.061
-552.398	55.145	-0.154	-0.151
-551.383	800.000	0.082	0.330
-550.369	74.185	-0.193	-0.206
-549.354	-200.000	-0.020	-0.162
-548.339	30.348	-0.206	0.178
-547.325	118.088	-0.128	0.161
-546.310	-200.000	0.014	0.254
-545.296	108.700	-0.145	-0.176
-544.281	139.583	0.144	-0.192
-543.266	-200.000	0.053	-0.273
-542.252	-53.069	0.143	0.067
-541.237	800.000	0.097	0.344
-540.223	-200.000	0.064	0.474
-539.208	117.271	-0.074	0.093
-538.193	-138.399	0.130	0.015
-537.179	-78.009	0.311	0.109
-536.164	-15.371	-0.021	0.013
-535.150	700.176	-0.095	-0.253
-534.135	-130.560	0.415	-0.057
-533.121	-87.704	0.153	0.047
-532.106	9.110	0.131	-0.100
-531.091	187.174	0.170	0.257
-530.077	22.245	-0.111	-0.092
-529.062	-181.374	0.089	0.002
-528.048	564.475	0.023	-0.056
-527.033	-53.654	0.036	0.017
-526.018	-71.169	0.342	-0.130
-525.004	69.835	-0.065	0.068
-523.989	-142.162	0.270	-0.027
-522.975	-200.000	-0.024	0.184
-521.960	533.589	-0.055	0.132
-520.945	800.000	0.103	0.355
-519.931	327.675	-0.023	0.046
-518.916	340.770	-0.072	-0.143
-517.902	159.502	-0.182	-0.256
-516.887	-90.329	-0.203	0.060
-515.872	-200.000	0.002	-0.128
-514.858	217.970	-0.041	-0.067
-513.843	800.000	0.061	0.202
-512.829	-200.000	0.057	0.312
-511.814	235.781	0.169	0.282
-510.799	-74.422	0.043	0.016
-509.785	330.003	-0.076	0.148
-508.770	-200.000	-0.034	-0.188
-507.756	-71.314	-0.235	-0.089
-506.741	61.931	0.117	-0.118
-505.726	103.159	-0.068	0.080
-504.712	-200.000	0.005	-0.237
-503.697	-90.691	-0.185	0.054
-502.683	-200.000	0.020	0.315
-501.668	480.256	0.066	0.152
-500.653	448.575	0.053	-0.118
-499.639	214.541	-0.063	-0.101
-498.624	-50.491	0.448	-0.214
-497.610	-90.184	-0.159	0.047
-496.595	800.000	-0.051	0.165
-495.581	-117.262	0.054	-0.010
-494.566	-130.218	-0.178	-0.025
-493.551	-80.437	-0.363	-0.123
-492.537	-66.536	-0.243	0.098
-491.522	-65.786	0.341	-0.138
-490.508	-24.846	0.135	-0.081
-489.493	-134.141	-0.103	0.013
-488.478	-124.798	0.220	0.034
-487.464	-153.920	-0.286	0.020
-486.449	-113.591	0.191	-0.038
-485.435	-200.000	0.015	0.370
-484.420	-200.000	0.025	0.147
-483.405	66.431	0.314	0.322
-482.391	-67.491	0.142	-0.057
-481.376	-200.000	0.016	-0.171
-480.362	-200.000	-0.023	-0.367
-479.347	-120.303	-0.239	0.041
-478.332	202.780	0.127	0.199
-477.318	-60.464	-0.089	-0.038
-476.303	764.826	-0.064	0.176
-475.289	274.622	0.041	-0.074
-474.274	-166.003	0.182	0.008
-473.259	-107.940	-0.024	-0.005
-472.245	-37.833	-0.255	0.137
-471.230	-26.139	0.262	0.156
-470.216	76.699	0.137	0.147
-469.201	-200.000	-0.041	0.242
-468.186	-73.827	-0.392	-0.144
-467.172	-124.877	-0.265	-0.041
-466.157	553.721	-0.240	-0.585
-465.143	33.815	0.194	0.171
-464.128	-32.796	-0.230	0.129
-463.113	-23.864	-0.157	-0.095
-462.099	25.379	-0.019	-0.016
-461.084	-33.830	0.056	0.031
-460.070	-152.828	0.125	-0.009
-459.055	-140.455	-0.131	0.014
-458.040	-6.278	0.143	0.098
-457.026	692.097	-0.138	0.365
-456.011	53.499	0.214	0.207
-454.997	-18.430	-0.193	0.122
-453.982	49.903	-0.207	0.198
-452.968	305.640	-0.021	-0.039
-451.953	337.699	0.130	-0.256
-450.938	-85.751	0.207	0.065
-449.924	-200.000	0.007	-0.113
-448.909	300.130	0.126	0.235
-447.895	1.727	0.199	0.145
-446.880	6.414	0.271	0.203
-445.865	-126.258	-0.247	0.037
-444.851	-110.195	-0.204	0.043
-443.836	-90.488	0.157	-0.046
-442.822	-40.083	0.078	-0.041
-441.807	613.514	0.125	-0.315
-440.792	-40.616	-0.186	0.098
-439.778	-200.000	0.040	-0.257
-438.763	-144.375	0.098	0.009
-437.749	51.551	0.096	0.092
-436.734	118.276	-0.069	-0.086
-435.719	331.311	0.117	0.229
-434.705	-20.051	-0.207	0.129
-433.690	2.359	-0.177	0.129
-432.676	-73.105	-0.166	0.061
-431.661	-99.061	-0.527	-0.135
-430.646	111.861	0.171	0.209
-429.632	468.675	0.073	-0.166
-428.617	35.756	0.178	0.158
-427.603	800.000	-0.094	-0.316
-426.588	-96.101	0.322	-0.086
-425.573	-200.000	0.052	-0.311
-424.559	800.000	-0.069	-0.283
-423.544	-200.000	-0.035	0.506
-422.530	51.214	-0.138	-0.132
-421.515	-141.092	-0.384	0.040
-420.500	-98.445	0.106	-0.027
-419.486	-139.615	0.418	-0.045
-418.471	-81.334	0.206	-0.068
-417.457	-200.000	0.012	-0.100
-416.442	-200.000	-0.005	0.157
-415.428	258.453	0.082	0.142
-414.413	178.169	0.139	0.204
-413.398	-153.305	-0.218	-0.015
-412.384	-42.107	-0.256	-0.132
-411.369	-200.000	-0.006	-0.144
-410.355	95.472	0.148	0.170
-409.340	-47.192	0.072	0.035
-408.325	192.983	0.095	-0.145
-407.311	-200.000	-0.028	-0.214
-406.296	73.777	0.087	-0.092
-405.282	-133.657	0.091	-0.011
-404.267	-11.577	-0.124	-0.082
-403.252	-117.662	-0.203	-0.037
-402.238	450.695	0.055	0.122
-401.223	-15.511	0.324	-0.209
-400.209	-49.366	-0.289	-0.139
-399.194	800.000	0.072	0.213
-398.179	-200.000	-0.047	-0.252
-397.165	800.000	-0.004	-0.013
-396.150	19.284	0.305	-0.247
-395.136	578.743	-0.099	-0.245
-394.121	-58.604	-0.422	-0.184
-393.106	193.937	0.160	0.245
-392.092	-65.546	0.270	0.109
-391.077	-59.256	0.121	0.052
-390.063	196.966	-0.088	0.135
-389.048	-200.000	-0.003	0.080
-388.033	800.000	-0.073	-0.306
-387.019	-112.605	0.134	0.027
-386.004	-19.417	-0.017	-0.010
-384.990	-200.000	-0.016	-0.335
-383.975	-155.081	-0.162	0.011
-382.960	351.482	0.180	-0.360
-381.946	53.037	0.122	0.118
-380.931	-67.406	-0.138	-0.055
-379.917	-200.000	-0.019	0.256
-378.902	-57.233	-0.322	-0.143
-377.888	-69.515	0.072	0.028
-376.873	-84.115	0.167	-0.053
-375.858	178.883	0.221	-0.325
-374.844	-200.000	0.008	-0.038
-373.829	-200.000	0.005	0.384
-372.815	119.906	0.234	0.293
-371.800	-51.531	0.306	-0.144
-370.785	-200.000	-0.026	0.132
-369.771	-200.000	0.014	0.307
-368.756	-94.873	0.040	0.011
-367.742	800.000	0.046	0.186
-366.727	-200.000	0.004	0.256
-365.712	-50.962	0.075	-0.035
-364.698	-64.622	0.131	-0.054
-363.683	113.645	-0.148	0.181
-362.669	800.000	0.023	0.084
-361.654	-200.000	-0.010	-0.222
-360.639	74.421	0.122	0.129
-359.625	-47.629	0.166	-0.081
-358.610	67.617	-0.138	0.142
-357.596	-52.298	-0.204	-0.095
-356.581	181.227	0.141	0.209
-355.566	-118.819	0.437	0.077
-354.552	800.000	-0.034	-0.145
-353.537	-96.516	0.133	-0.035
-352.523	-124.935	0.203	-0.031
-351.508	70.800	0.221	0.231
-350.493	48.209	-0.100	0.094
-349.479	280.731	-0.200	-0.361
-348.464	12.290	0.192	-0.149
-347.450	-163.080	-0.284	0.014
-346.435	97.091	0.130	0.150
-345.420	69.939	-0.078	-0.081
-344.406	-79.008	0.186	-0.064
-343.391	-80.460	0.366	-0.123
-342.377	13.259	-0.036	0.028
-341.362	-160.106	-0.280	0.015
-340.348	48.521	0.199	-0.187
-339.333	800.000	-0.011	0.047
-338.318	-136.136	-0.136	0.016
-337.304	-200.000	0.020	-0.245
-336.289	32.695	0.265	-0.231
-335.275	-16.875	-0.056	-0.036
-334.260	-95.700	0.460	-0.124
-333.245	145.670	-0.308	-0.415
-332.231	102.880	0.030	-0.035
-331.216	-200.000	0.052	-0.276
-330.202	-94.569	-0.197	-0.054
-329.187	304.588	-0.157	0.294
-328.172	800.000	-0.007	-0.029
-327.158	-200.000	-0.002	-0.218
-326.143	-45.270	0.229	0.114
-325.129	221.510	0.120	-0.193
-324.114	-101.027	-0.063	0.015
-323.099	-147.435	-0.265	-0.023
-322.085	800.000	-0.108	0.321
-321.070	354.885	-0.181	0.361
-320.056	325.818	-0.442	-0.851
-319.041	-158.959	-0.117	-0.007
-318.026	38.427	-0.097	-0.087
-317.012	550.535	-0.066	0.159
-315.997	110.606	-0.087	0.105
-314.983	-79.666	0.328	0.111
-313.968	-23.711	0.421	0.254
-312.953	103.146	0.143	-0.169
-311.939	-67.828	0.251	0.099
-310.924	408.180	0.106	0.225
-309.910	-200.000	-0.073	-0.441
-308.895	-200.000	-0.023	0.175
-307.880	278.348	0.130	0.232
-306.866	-59.608	0.146	-0.063
-305.851	-5.350	0.030	0.020
-304.837	320.540	-0.057	-0.109
-303.822	265.302	-0.173	-0.303
-302.807	-200.000	-0.005	0.030
-301.793	800.000	-0.034	0.106
-300.778	120.709	0.181	-0.226
-299.764	-44.171	-0.290	-0.146
-298.749	552.554	0.087	0.210
-297.735	-200.000	-0.002	0.192
-296.720	-119.970	0.092	-0.016
-295.705	-0.946	0.208	-0.148
-294.691	-109.984	-0.314	-0.066
-293.676	-200.000	-0.046	0.368
-292.662	-36.669	0.210	-0.114
-291.647	-69.433	-0.068	0.026
-290.632	-35.707	0.310	0.169
-289.618	-200.000	0.001	0.220
-288.603	-53.400	-0.147	-0.068
-287.589	-68.364	-0.316	-0.123
-286.574	-102.869	0.300	-0.072
-285.559	-15.872	-0.227	-0.145
-284.545	122.857	-0.171	0.215
-283.530	374.962	0.047	0.095
-282.516	-11.825	0.405	0.267
-281.501	800.000	-0.072	0.285
-280.486	-45.717	-0.078	0.039
-279.472	139.455	0.386	-0.511
-278.457	-200.000	-0.082	-0.385
-277.443	191.291	-0.242	0.366
-276.428	17.015	0.285	-0.227
-275.413	-101.138	0.226	0.056
-274.399	-152.011	0.075	-0.005
-273.384	-58.835	-0.286	0.124
-272.370	12.224	-0.210	0.162
-271.355	98.626	-0.182	0.210
-270.340	-200.000	0.015	-0.244
-269.326	141.737	-0.140	-0.187
-268.311	-200.000	-0.016	0.307
-267.297	287.343	-0.007	0.012
-266.282	-43.616	0.194	-0.098
-265.267	450.841	0.106	0.234
-264.253	-21.980	-0.184	0.112
-263.238	-38.124	-0.120	-0.064
-262.224	-131.033	-0.265	0.035
-261.209	-181.050	-0.163	-0.003
-260.195	52.665	-0.225	-0.216
-259.180	101.350	0.086	-0.100
-258.165	175.163	0.046	0.067
-257.151	161.987	0.174	-0.244
-256.136	-200.000	0.016	0.182
-255.122	20.081	0.051	-0.041
-254.107	800.000	0.038	-0.122
-253.092	-104.203	-0.041	0.009
-252.078	-57.411	0.141	0.062
-251.063	-43.903	-0.093	0.047
-250.049	-98.731	-0.221	0.056
-249.034	800.000	0.077	-0.331
-248.019	230.230	-0.025	-0.041
-247.005	469.754	0.112	0.252
-245.990	253.504	-0.080	0.137
-244.976	800.000	0.091	0.326
-243.961	-124.897	-0.442	-0.068
-242.946	-134.097	-0.437	0.054
-241.932	-107.746	0.040	0.009
-240.917	-121.883	0.035	-0.006
-239.903	-200.000	-0.036	-0.186
-238.888	14.794	0.087	0.068
-237.873	71.458	-0.092	0.096
-236.859	-157.553	-0.101	0.006
-235.844	-70.472	-0.202	-0.077
-234.830	53.970	0.137	0.132
-233.815	41.592	0.119	-0.108
-232.800	-69.215	0.113	-0.044
-231.786	60.548	-0.135	0.134
-230.771	-34.087	-0.158	0.087
-229.757	-36.891	-0.240	0.129
-228.742	-195.633	-0.161	0.001
-227.727	168.514	0.084	0.120
-226.713	-108.243	0.284	0.062
-225.698	800.000	-0.105	-0.389
-224.684	800.000	-0.114	-0.376
-223.669	-5.561	-0.160	-0.110
-222.655	164.964	-0.239	-0.338
-221.640	63.773	0.166	0.167
-220.625	179.625	0.258	0.378
-219.611	-188.223	-0.104	-0.001
-218.596	800.000	0.073	-0.287
-217.582	-200.000	-0.049	-0.260
-216.567	-71.716	-0.182	-0.068
-215.552	69.263	-0.129	0.133
-214.538	-162.963	0.140	0.007
-213.523	800.000	-0.136	0.540
-212.509	121.278	-0.044	-0.055
-211.494	47.286	0.130	-0.121
-210.479	3.235	0.148	-0.108
-209.465	-29.489	-0.193	0.110
-208.450	256.453	0.105	-0.181
-207.436	458.601	0.142	-0.317
-206.421	-2.348	-0.081	-0.057
-205.406	-200.000	-0.424	-0.000
-204.392	-200.000	-0.002	0.047
-203.377	537.097	0.055	0.131
-202.363	-200.000	-0.028	-0.139
-201.348	-91.764	0.166	-0.047
-200.333	72.161	-0.208	-0.217
-199.319	800.000	-0.038	-0.124
-198.304	349.266	-0.144	0.284
-197.290	-26.692	-0.249	0.146
-196.275	800.000	0.028	0.114
-195.260	43.912	0.091	-0.083
-194.246	-200.000	-0.050	0.223
-193.231	92.810	-0.121	0.137
-192.217	105.833	-0.051	0.060
-191.202	71.205	0.158	0.164
-190.187	123.197	0.074	-0.093
-189.173	800.000	0.051	0.177
-188.158	5.290	-0.183	-0.135
-187.144	22.995	0.155	-0.127
-186.129	-200.000	0.014	0.245
-185.114	379.104	0.059	0.120
-184.100	800.000	-0.106	-0.312
-183.085	-39.229	0.020	-0.011
-182.071	-200.000	-0.036	-0.261
-181.056	800.000	0.112	0.350
-180.042	125.258	-0.123	0.155
-179.027	450.413	0.220	0.485
-178.012	-200.000	0.024	0.117
-176.998	-132.623	0.169	-0.022
-175.983	-45.961	-0.298	0.147
-174.969	800.000	-0.067	0.256
-173.954	265.423	0.238	0.415
-172.939	800.000	0.099	0.309
-171.925	-47.286	0.391	-0.190
-170.910	-200.000	-0.025	-0.269
-169.896	800.000	-0.135	-0.377
-168.881	-0.972	-0.335	-0.237
-167.866	-122.616	0.046	0.007
-166.852	-200.000	-0.036	0.335
-165.837	-73.246	-0.215	0.079
-164.823	135.259	0.067	-0.088
-163.808	285.321	-0.082	0.147
-162.793	17.013	-0.249	0.197
-161.779	396.038	0.077	-0.161
-160.764	424.792	-0.111	-0.238
-159.750	167.211	-0.073	-0.103
-158.735	-94.836	0.261	-0.071
-157.720	-155.236	-0.105	-0.007
-156.706	800.000	0.064	-0.238
-155.691	-134.291	-0.308	-0.038
-154.677	264.148	0.232	-0.403
-153.662	-151.260	0.097	0.007
-152.647	275.719	-0.121	0.215
-151.633	-200.000	0.073	0.458
-150.618	275.456	-0.178	0.316
-149.604	-24.685	-0.060	-0.036
-148.589	-11.502	-0.089	0.059
-147.574	-72.474	0.273	-0.101
-146.560	-13.826	0.455	0.294
-145.545	50.644	-0.136	-0.128
-144.531	-100.034	-0.099	0.025
-143.516	-18.051	-0.101	-0.063
-142.502	117.194	-0.235	0.288
-141.487	-34.997	0.245	0.133
-140.472	-200.000	-0.002	-0.082
-139.458	382.893	0.046	-0.095
-138.443	-35.702	-0.110	0.060
-137.429	-200.000	-0.045	0.338
-136.414	83.515	-0.027	0.030
-135.399	3.385	-0.165	-0.120
-134.385	68.247	-0.027	0.028
-133.370	44.512	-0.016	-0.015
-132.356	16.861	0.236	0.186
-131.341	36.341	-0.106	0.093
-130.326	154.466	0.048	-0.065
-129.312	-108.426	-0.313	0.067
-128.297	800.000	-0.026	0.083
-127.283	-75.045	0.178	-0.063
-126.268	167.098	0.144	0.204
-125.253	800.000	-0.071	0.210
-124.239	447.462	0.149	0.328
-123.224	-200.000	0.026	0.172
-122.210	-53.139	-0.169	-0.077
-121.195	-19.762	0.160	0.098
