DTS Sentinel unit serial number:	SN413079Multiplexer serial number:	ORYXHardware model number:	OX4-SRSoftware version number:	ORYX F/W v4.00 Oryx Data Collector v3.7.2.0data status	okinstallation	princeton_trtdifferential loss correction	single-endedforward channel	channel 1reverse channel	N/Adate	2019/09/15time	19:38:35forward acquisition time	60.00reverse acquisition time	0.00gamma	496.2192k internal	0.2305k external	0.2305temperature offset calibration	0.9950default loss term (dB/km)	0.3790temperature slope calibration	1.0000multiplexer offset coefficient	1.0000multiplexer slope coefficient	1.0000fibre end	0.00T internal ref (°C)	37.84T ext. ref 1 (°C)	7.37T ext. ref 2 (°C)	27.61length (m)	temperature (°C)	Stokes	anti-Stokes-747.200	-200.000	-0.015	0.093
-746.185	303.814	-0.141	0.267
-745.171	744.292	0.064	0.175
-744.156	-84.770	-0.175	0.056
-743.142	-22.583	-0.040	-0.025
-742.127	-129.081	0.166	-0.024
-741.112	800.000	0.037	-0.134
-740.098	800.000	0.095	0.303
-739.083	-47.536	0.115	0.057
-738.069	292.956	0.176	0.327
-737.054	-200.000	0.010	-0.260
-736.039	686.429	0.021	0.056
-735.025	62.091	-0.187	0.190
-734.010	-37.430	-0.472	-0.256
-732.996	7.157	0.162	0.123
-731.981	9.025	-0.243	-0.187
-730.966	532.948	-0.051	0.122
-729.952	340.979	0.101	0.201
-728.937	-56.885	0.078	-0.035
-727.923	-91.613	-0.266	-0.077
-726.908	-26.051	-0.222	-0.133
-725.894	-46.105	-0.262	0.131
-724.879	84.985	0.153	0.170
-723.864	-15.373	-0.110	0.071
-722.850	-109.375	-0.159	-0.034
-721.835	77.879	-0.219	0.237
-720.821	364.729	-0.124	0.253
-719.806	2.527	0.322	-0.237
-718.791	2.667	-0.094	0.069
-717.777	-74.081	0.093	0.034
-716.762	-41.620	-0.176	0.092
-715.748	-45.974	0.177	-0.089
-714.733	52.324	0.052	-0.050
-713.718	-31.829	0.170	-0.097
-712.704	-37.186	0.160	-0.087
-711.689	168.712	-0.164	-0.238
-710.675	101.041	0.170	0.201
-709.660	174.241	-0.196	0.288
-708.645	-113.686	0.177	-0.035
-707.631	-79.287	-0.247	-0.085
-706.616	-200.000	-0.011	-0.350
-705.602	800.000	-0.066	-0.246
-704.587	-108.133	-0.097	-0.021
-703.572	-21.094	0.105	-0.065
-702.558	307.603	0.147	-0.278
-701.543	-41.783	-0.396	-0.207
-700.529	-50.906	-0.156	0.075
-699.514	40.411	-0.237	-0.216
-698.499	493.137	-0.053	-0.123
-697.485	-59.768	-0.136	-0.059
-696.470	57.429	-0.083	-0.083
-695.456	17.961	0.170	-0.137
-694.441	800.000	-0.027	-0.104
-693.426	-200.000	-0.056	0.371
-692.412	-200.000	-0.028	-0.306
-691.397	36.806	0.246	-0.221
-690.383	-174.592	-0.210	0.006
-689.368	-200.000	0.289	0.001
-688.354	-79.040	0.212	0.073
-687.339	-138.584	0.438	0.049
-686.324	-28.176	-0.114	-0.067
-685.310	526.486	-0.022	-0.052
-684.295	313.552	0.076	0.145
-683.281	142.371	-0.119	-0.160
-682.266	102.665	0.114	0.135
-681.251	800.000	-0.040	-0.169
-680.237	-135.487	-0.097	-0.012
-679.222	18.782	0.271	0.220
-678.208	55.365	0.063	-0.062
-677.193	-13.908	-0.119	0.078
-676.178	-144.774	0.247	-0.023
-675.164	-45.891	0.102	-0.051
-674.149	-200.000	0.025	0.127
-673.135	395.875	0.088	0.186
-672.120	45.749	-0.117	0.109
-671.105	155.553	-0.045	0.063
-670.091	-67.643	-0.149	0.059
-669.076	105.246	0.068	0.082
-668.062	-200.000	-0.027	0.302
-667.047	-139.991	-0.055	0.006
-666.032	800.000	0.083	-0.328
-665.018	7.206	0.217	-0.164
-664.003	800.000	-0.055	-0.198
-662.989	-200.000	-0.005	-0.031
-661.974	634.551	0.055	0.140
-660.959	227.656	0.052	-0.085
-659.945	-200.000	-0.002	0.320
-658.930	484.152	0.041	-0.095
-657.916	-32.761	0.272	-0.154
-656.901	-3.443	-0.168	-0.118
-655.886	685.135	0.040	0.105
-654.872	-55.712	-0.203	-0.092
-653.857	-161.774	0.382	-0.020
-652.843	-33.056	0.045	0.025
-651.828	-198.467	-0.258	-0.001
-650.814	82.197	0.259	-0.285
-649.799	-115.268	-0.169	-0.033
-648.784	-167.110	-0.328	-0.014
-647.770	-135.641	-0.216	0.026
-646.755	176.548	-0.186	0.274
-645.741	-63.732	0.205	-0.085
-644.726	-24.416	-0.358	-0.216
-643.711	-200.000	0.017	0.345
-642.697	-142.205	-0.018	-0.002
-641.682	452.087	0.106	-0.239
-640.668	-165.588	0.388	-0.017
-639.653	319.024	0.150	0.288
-638.638	33.828	0.101	0.089
-637.624	-71.136	-0.179	-0.068
-636.609	-200.000	0.001	-0.101
-635.595	-73.143	0.322	-0.120
-634.580	-54.957	0.188	-0.086
-633.565	-200.000	0.010	-0.081
-632.551	-12.352	0.130	0.086
-631.536	-65.621	-0.064	0.026
-630.522	-200.000	0.019	-0.594
-629.507	-164.530	-0.212	0.010
-628.492	-74.171	0.228	0.084
-627.478	101.822	0.054	0.064
-626.463	-7.599	-0.212	-0.145
-625.449	-200.000	0.061	-0.271
-624.434	-177.855	0.451	0.011
-623.419	643.748	-0.040	0.103
-622.405	-200.000	0.005	0.060
-621.390	423.776	0.044	-0.096
-620.376	-200.000	-0.003	0.095
-619.361	-89.599	-0.348	-0.104
-618.346	37.562	-0.218	-0.196
-617.332	-6.341	0.029	-0.020
-616.317	210.699	-0.076	-0.120
-615.303	19.939	0.236	0.192
-614.288	13.444	-0.118	-0.093
-613.273	-80.391	-0.460	-0.156
-612.259	-98.431	0.301	-0.078
-611.244	-119.922	0.171	-0.030
-610.230	-17.883	-0.420	0.267
-609.215	442.215	-0.064	0.143
-608.201	800.000	-0.026	-0.096
-607.186	143.873	-0.085	0.115
-606.171	-36.059	-0.153	-0.084
-605.157	800.000	0.020	-0.066
-604.142	-200.000	-0.004	-0.207
-603.128	-60.805	-0.225	0.096
-602.113	-66.407	0.018	0.007
-601.098	-44.237	-0.214	-0.108
-600.084	-200.000	0.000	-0.130
-599.069	800.000	0.081	-0.276
-598.055	-71.061	-0.104	0.040
-597.040	-200.000	-0.010	-0.143
-596.025	-47.071	0.087	0.043
-595.011	-83.937	0.464	-0.149
-593.996	244.289	-0.014	0.023
-592.982	277.886	-0.088	0.159
-591.967	-30.873	0.247	0.141
-590.952	-33.827	0.125	-0.069
-589.938	11.042	0.138	-0.107
-588.923	-200.000	0.003	-0.252
-587.909	800.000	-0.055	-0.167
-586.894	4.500	0.165	0.122
-585.879	-146.975	0.075	0.007
-584.865	237.897	0.204	0.343
-583.850	45.573	-0.165	-0.154
-582.836	8.880	0.239	0.182
-581.821	11.975	0.053	0.042
-580.806	676.750	-0.109	0.287
-579.792	-44.259	-0.478	-0.243
-578.777	-196.808	-0.488	0.003
-577.763	-200.000	-0.050	-0.237
-576.748	107.212	-0.056	-0.068
-575.733	-96.002	0.291	-0.078
-574.719	2.013	-0.232	0.169
-573.704	-107.127	0.196	0.044
-572.690	127.332	0.149	0.192
-571.675	86.754	0.269	-0.300
-570.661	-50.719	-0.216	-0.103
-569.646	3.529	0.078	0.057
-568.631	100.009	0.056	0.066
-567.617	-84.535	-0.405	-0.129
-566.602	57.118	0.143	0.141
-565.588	-200.000	0.358	-0.001
-564.573	-23.339	-0.118	-0.072
-563.558	-6.229	-0.077	0.053
-562.544	665.911	0.098	0.255
-561.529	-10.984	-0.140	0.093
-560.515	800.000	0.104	-0.411
-559.500	-130.444	0.059	0.008
-558.485	-200.000	-0.039	0.178
-557.471	-169.637	0.299	0.011
-556.456	503.221	-0.051	-0.120
-555.442	98.610	-0.103	0.120
-554.427	10.254	0.254	0.195
-553.412	463.189	-0.077	0.174
-552.398	-200.000	-0.003	-0.338
-551.383	-147.671	-0.138	-0.012
-550.369	-200.000	0.047	-0.239
-549.354	221.487	0.265	0.431
-548.339	-65.778	-0.248	-0.100
-547.325	800.000	-0.063	-0.251
-546.310	187.341	-0.143	0.216
-545.296	195.256	0.123	-0.189
-544.281	451.022	0.091	0.202
-543.266	-200.000	-0.016	0.168
-542.252	574.376	0.062	0.152
-541.237	-169.255	-0.226	0.008
-540.223	88.381	-0.173	0.194
-539.208	64.000	0.234	-0.237
-538.193	-6.968	-0.501	0.343
-537.179	-128.604	0.267	0.038
-536.164	-154.995	0.557	-0.037
-535.150	282.110	0.069	0.126
-534.135	800.000	0.099	0.295
-533.121	-97.803	-0.021	0.005
-532.106	193.964	-0.110	-0.168
-531.091	-200.000	-0.002	0.044
-530.077	-102.847	0.213	-0.051
-529.062	-34.355	-0.026	0.014
-528.048	-200.000	-0.006	-0.285
-527.033	-200.000	0.033	0.262
-526.018	800.000	-0.084	0.254
-525.004	-200.000	0.021	0.192
-523.989	754.154	0.026	0.071
-522.975	800.000	0.039	0.145
-521.960	-200.000	-0.021	0.179
-520.945	-91.883	-0.086	-0.025
-519.931	-200.000	0.010	0.063
-518.916	-65.422	0.194	0.079
-517.902	65.033	-0.106	-0.108
-516.887	-129.575	-0.083	0.012
-515.872	-71.303	0.084	-0.032
-514.858	-98.437	0.142	0.037
-513.843	79.229	0.063	-0.068
-512.829	43.307	-0.175	-0.161
-511.814	781.210	0.069	0.189
-510.799	-163.990	0.297	0.014
-509.785	800.000	0.114	-0.395
-508.770	-116.674	0.330	0.061
-507.756	800.000	0.035	0.146
-506.741	176.440	-0.133	-0.195
-505.726	-52.875	-0.057	0.027
-504.712	191.227	-0.042	-0.064
-503.697	-71.681	-0.240	-0.090
-502.683	24.163	-0.251	0.209
-501.668	-23.334	-0.133	0.081
-500.653	310.331	0.079	0.149
-499.639	-87.173	0.198	0.061
-498.624	357.645	0.091	0.184
-497.610	19.189	-0.036	0.029
-496.595	186.094	-0.186	-0.279
-495.581	264.786	0.116	-0.203
-494.566	-142.339	0.068	0.007
-493.551	-200.000	0.061	0.347
-492.537	143.681	0.119	-0.159
-491.522	-200.000	-0.044	-0.270
-490.508	-98.600	0.162	-0.042
-489.493	-13.994	-0.207	-0.135
-488.478	800.000	-0.066	-0.186
-487.464	-84.363	-0.174	-0.055
-486.449	-47.916	0.064	-0.031
-485.435	-24.042	0.205	0.123
-484.420	81.709	-0.098	0.107
-483.405	416.062	-0.152	-0.326
-482.391	-151.791	-0.036	0.003
-481.376	277.544	0.142	0.254
-480.362	-103.519	0.573	0.136
-479.347	23.067	-0.226	0.187
-478.332	-108.693	0.186	-0.040
-477.318	-110.353	-0.230	-0.048
-476.303	335.113	0.161	0.313
-475.289	800.000	-0.058	-0.169
-474.274	-200.000	-0.011	0.148
-473.259	299.659	-0.199	0.370
-472.245	-28.068	-0.119	-0.069
-471.230	-200.000	-0.008	-0.078
-470.216	171.300	0.111	0.161
-469.201	800.000	0.050	0.177
-468.186	-160.873	-0.206	0.011
-467.172	-134.064	-0.184	-0.023
-466.157	-200.000	-0.077	0.400
-465.143	-47.290	-0.256	0.125
-464.128	90.127	0.126	-0.141
-463.113	-34.094	0.367	-0.203
-462.099	-47.449	0.187	-0.091
-461.084	244.772	-0.157	0.266
-460.070	59.961	-0.263	-0.261
-459.055	273.338	0.161	-0.286
-458.040	10.370	-0.065	-0.050
-457.026	508.288	0.090	0.211
-456.011	579.703	0.134	-0.331
-454.997	-200.000	-0.010	-0.105
-453.982	-11.191	0.108	-0.072
-452.968	-87.581	0.075	-0.023
-451.953	198.547	0.163	-0.251
-450.938	12.670	-0.062	-0.048
-449.924	37.190	-0.111	0.099
-448.909	-65.735	-0.176	0.071
-447.895	-23.370	-0.308	-0.187
-446.880	-153.931	-0.177	-0.012
-445.865	269.691	-0.068	0.121
-444.851	21.723	-0.124	0.101
-443.836	-83.974	-0.076	0.024
-442.822	599.510	0.089	-0.223
-441.807	134.707	-0.216	-0.281
-440.792	-150.992	-0.121	0.009
-439.778	800.000	-0.066	-0.225
-438.763	-80.268	0.295	0.099
-437.749	18.032	-0.152	0.122
-436.734	-51.251	-0.080	-0.038
-435.719	-95.873	-0.033	0.009
-434.705	-152.398	-0.322	0.023
-433.690	-122.474	0.314	0.051
-432.676	158.521	-0.148	0.206
-431.661	800.000	-0.074	0.211
-430.646	-75.977	-0.220	0.078
-429.632	-200.000	-0.050	0.274
-428.617	32.458	-0.139	0.121
-427.603	262.957	0.153	0.268
-426.588	-200.000	0.027	0.142
-425.573	-53.137	-0.179	0.083
-424.559	479.806	0.078	-0.177
-423.544	-23.252	0.067	0.041
-422.530	-200.000	0.016	0.147
-421.515	-200.000	-0.025	-0.184
-420.500	-197.888	-0.097	0.001
-419.486	-75.711	0.124	-0.044
-418.471	-43.699	0.338	-0.171
-417.457	-19.287	0.232	-0.145
-416.442	-24.706	0.029	-0.017
-415.428	-200.000	-0.036	-0.212
-414.413	-200.000	-0.009	-0.118
-413.398	61.983	0.124	-0.125
-412.384	-105.913	-0.118	0.027
-411.369	89.810	-0.119	0.134
-410.355	-139.823	-0.178	0.019
-409.340	5.303	0.165	-0.122
-408.325	-200.000	0.038	-0.383
-407.311	20.039	0.118	-0.095
-406.296	800.000	-0.029	-0.108
-405.282	-88.120	-0.506	0.152
-404.267	-75.247	0.096	0.035
-403.252	173.641	0.132	-0.192
-402.238	-65.498	-0.251	-0.101
-401.223	-43.620	0.123	0.062
-400.209	-44.850	-0.168	0.084
-399.194	37.499	0.284	0.253
-398.179	-10.624	0.071	-0.047
-397.165	2.820	-0.385	-0.281
-396.150	800.000	-0.028	0.087
-395.136	243.113	-0.068	0.115
-394.121	-185.857	0.287	0.004
-393.106	-200.000	-0.013	0.092
-392.092	-20.917	-0.271	-0.167
-391.077	24.062	0.333	-0.276
-390.063	-200.000	0.071	0.354
-389.048	-23.499	0.159	-0.096
-388.033	69.862	0.099	0.102
-387.019	-120.627	0.114	-0.019
-386.004	800.000	0.115	-0.438
-384.990	-76.850	-0.049	0.017
-383.975	157.293	-0.136	-0.189
-382.960	-27.433	-0.093	0.054
-381.946	3.711	-0.143	0.105
-380.931	-14.584	-0.094	0.061
-379.917	-61.037	0.391	-0.166
-378.902	-123.054	0.252	-0.041
-377.888	56.123	0.330	-0.321
-376.873	800.000	0.053	-0.213
-375.858	122.956	0.116	0.145
-374.844	-200.000	0.018	-0.188
-373.829	-158.349	0.081	0.005
-372.815	800.000	0.097	0.313
-371.800	-141.100	0.265	0.027
-370.785	354.845	-0.170	0.339
-369.771	-23.460	0.182	-0.109
-368.756	-171.526	0.209	0.007
-367.742	424.448	0.180	0.389
-366.727	-48.826	-0.166	0.080
-365.712	-200.000	0.021	0.099
-364.698	800.000	-0.034	-0.147
-363.683	-147.562	0.291	0.025
-362.669	-23.176	0.283	-0.171
-361.654	36.724	0.272	-0.241
-360.639	-25.997	0.076	0.045
-359.625	155.256	-0.125	-0.172
-358.610	-88.295	0.285	-0.085
-357.596	550.797	0.045	-0.109
-356.581	-97.095	-0.120	-0.031
-355.566	-150.128	0.360	0.028
-354.552	-48.564	0.114	-0.055
-353.537	-28.961	-0.270	-0.156
-352.523	19.666	0.086	-0.069
-351.508	-104.153	0.281	-0.065
-350.493	14.766	-0.197	-0.155
-349.479	-147.615	0.310	0.026
-348.464	-200.000	0.040	0.275
-347.450	359.897	-0.117	0.234
-346.435	-17.726	-0.217	0.136
-345.420	-51.899	-0.226	-0.105
-344.406	-136.240	-0.313	-0.037
-343.391	20.567	0.210	-0.170
-342.377	-56.352	0.150	0.067
-341.362	386.598	0.111	-0.230
-340.348	72.155	-0.167	0.175
-339.333	-96.249	-0.404	-0.107
-338.318	-24.690	-0.092	0.055
-337.304	-22.367	-0.152	-0.092
-336.289	-1.664	0.055	0.039
-335.275	291.791	0.088	0.160
-334.260	-18.659	0.107	0.067
-333.245	-31.980	-0.078	-0.044
-332.231	-200.000	0.025	0.170
-331.216	-200.000	0.005	-0.165
-330.202	-16.403	-0.113	0.072
-329.187	800.000	-0.056	-0.182
-328.172	-200.000	0.004	0.074
-327.158	174.808	0.225	-0.326
-326.143	-130.766	0.237	-0.032
-325.129	799.042	0.116	0.321
-324.114	104.102	-0.104	-0.122
-323.099	223.938	0.177	-0.286
-322.085	800.000	-0.043	0.148
-321.070	-200.000	-0.009	-0.073
-320.056	325.414	-0.022	0.041
-319.041	126.769	-0.161	0.204
-318.026	593.145	0.039	0.095
-317.012	-52.878	0.185	-0.085
-315.997	-102.588	0.087	0.021
-314.983	-200.000	0.061	0.327
-313.968	-138.075	0.130	0.015
-312.953	159.878	-0.095	-0.133
-311.939	-34.993	-0.337	0.184
-310.924	-39.457	-0.246	0.129
-309.910	-138.627	-0.253	-0.028
-308.895	800.000	0.088	0.303
-307.880	-71.992	-0.113	-0.042
-306.866	-200.000	0.007	-0.162
-305.851	-17.200	-0.387	0.244
-304.837	424.512	0.119	0.257
-303.822	-136.045	0.286	-0.034
-302.807	-200.000	-0.043	-0.235
-301.793	-200.000	-0.174	0.000
-300.778	247.156	0.176	-0.298
-299.764	-138.129	0.386	-0.043
-298.749	-27.129	0.289	0.169
-297.735	-138.170	0.257	0.028
-296.720	239.115	0.049	0.081
-295.705	-200.000	0.024	0.128
-294.691	333.653	-0.160	0.310
-293.676	-139.278	0.176	0.019
-292.662	-200.000	-0.006	0.113
-291.647	-165.427	0.237	0.010
-290.632	200.717	-0.254	-0.391
-289.618	-112.136	0.177	-0.036
-288.603	-105.730	-0.378	-0.085
-287.589	151.801	-0.163	-0.222
-286.574	542.265	-0.056	-0.134
-285.559	-87.607	0.203	0.061
-284.545	64.656	-0.153	0.155
-283.530	800.000	-0.080	0.259
-282.516	136.908	-0.214	-0.280
-281.501	-69.171	-0.129	0.050
-280.486	-128.471	0.281	0.040
-279.472	-37.034	-0.385	-0.206
-278.457	45.787	-0.122	-0.113
-277.443	-37.550	-0.064	-0.034
-276.428	26.508	0.053	0.044
-275.413	92.733	-0.170	0.192
-274.399	8.857	-0.209	0.158
-273.384	368.009	-0.161	-0.324
-272.370	118.288	0.089	0.110
-271.355	279.578	0.133	0.238
-270.340	243.116	-0.155	-0.260
-269.326	39.721	0.070	-0.062
-268.311	55.658	-0.141	0.136
-267.297	800.000	-0.059	-0.168
-266.282	39.971	-0.209	0.187
-265.267	68.523	0.097	0.100
-264.253	-89.431	0.453	0.133
-263.238	177.611	0.116	-0.169
-262.224	-23.455	-0.634	0.380
-261.209	119.501	-0.115	0.142
-260.195	-200.000	0.028	0.185
-259.180	-76.865	-0.544	-0.190
-258.165	750.283	-0.066	0.178
-257.151	178.631	-0.032	0.047
-256.136	-78.656	0.086	-0.029
-255.122	-22.527	0.195	-0.118
-254.107	-136.929	0.436	0.050
-253.092	141.893	-0.045	0.060
-252.078	-167.452	0.126	-0.005
-251.063	149.575	0.139	-0.188
-250.049	356.309	-0.036	-0.072
-249.034	66.621	-0.145	-0.147
-248.019	-104.544	-0.214	-0.049
-247.005	800.000	0.048	0.205
-245.990	-200.000	-0.009	0.062
-244.976	800.000	-0.062	0.196
-243.961	-152.363	0.035	0.003
-242.946	-200.000	-0.036	-0.243
-241.932	800.000	-0.078	-0.249
-240.917	-118.373	-0.393	0.070
-239.903	-178.619	-0.078	-0.002
-238.888	-200.000	-0.076	0.425
-237.873	800.000	-0.053	-0.168
-236.859	-134.724	0.284	-0.034
-235.844	-121.791	0.326	0.054
-234.830	83.292	0.043	-0.047
-233.815	171.783	0.275	-0.394
-232.800	-43.232	-0.062	-0.031
-231.786	-11.845	-0.029	0.019
-230.771	-70.837	0.247	-0.093
-229.757	135.254	0.023	-0.030
-228.742	-165.856	0.318	0.014
-227.727	30.912	0.076	0.065
-226.713	321.949	0.109	0.208
-225.698	152.719	0.097	-0.132
-224.684	800.000	0.010	0.032
-223.669	-200.000	0.008	0.191
-222.655	800.000	-0.104	0.338
-221.640	-200.000	0.006	-0.133
-220.625	-63.490	-0.084	-0.034
-219.611	-135.852	0.115	0.013
-218.596	-60.453	-0.166	-0.070
-217.582	49.473	0.225	-0.211
-216.567	211.716	0.042	0.067
-215.552	247.001	0.092	0.154
-214.538	-91.128	-0.481	0.138
-213.523	-200.000	0.074	-0.401
-212.509	-200.000	0.037	0.257
-211.494	-200.000	0.274	0.000
-210.479	-50.514	0.143	-0.067
-209.465	466.397	0.105	-0.235
-208.450	38.911	-0.190	-0.169
-207.436	-158.800	-0.297	-0.017
-206.421	-200.000	-0.015	-0.186
-205.406	-186.344	-0.125	-0.002
-204.392	72.819	0.298	-0.310
-203.377	110.558	0.143	-0.172
-202.363	428.143	-0.089	0.193
-201.348	800.000	0.069	0.264
-200.333	169.030	-0.157	0.224
-199.319	800.000	0.021	-0.075
-198.304	-200.000	0.066	-0.383
-197.290	173.045	-0.109	0.156
-196.275	-45.219	-0.415	0.205
-195.260	-121.903	0.155	0.025
-194.246	313.836	-0.038	-0.071
-193.231	77.882	0.064	-0.068
-192.217	-44.080	-0.188	0.094
-191.202	-200.000	-0.007	-0.098
-190.187	-200.000	0.021	0.213
-189.173	-197.243	-0.210	0.001
-188.158	390.575	-0.076	-0.157
-187.144	158.009	-0.135	-0.186
-186.129	-115.320	0.072	0.013
-185.114	-128.349	0.174	0.025
-184.100	-127.779	-0.282	0.040
-183.085	-134.944	0.324	0.039
-182.071	800.000	-0.072	-0.219
-181.056	196.634	0.152	0.231
-180.042	12.928	-0.034	-0.026
-179.027	-102.417	0.359	-0.086
-178.012	-200.000	-0.120	-0.000
-176.998	-25.257	-0.105	-0.062
-175.983	-54.856	0.128	-0.057
-174.969	335.682	0.103	0.199
-173.954	-200.000	0.087	0.568
-172.939	-163.254	-0.245	0.012
-171.925	222.070	0.149	-0.238
-170.910	545.421	-0.122	0.291
-169.896	-200.000	0.015	0.240
-168.881	800.000	0.023	-0.074
-167.866	151.948	-0.132	-0.179
-166.852	37.978	-0.235	0.208
-165.837	-157.450	0.352	0.021
-164.823	800.000	0.110	0.335
-163.808	-87.500	-0.186	-0.056
-162.793	58.360	-0.211	-0.206
-161.779	407.854	-0.090	-0.189
-160.764	102.549	0.084	0.097
-159.750	-58.919	-0.204	0.088
-158.735	800.000	-0.048	0.158
-157.720	-153.695	-0.354	-0.024
-156.706	68.051	-0.103	0.105
-155.691	-40.891	-0.108	-0.056
-154.677	-75.687	-0.299	-0.106
-153.662	-12.204	-0.046	-0.030
-152.647	-46.019	-0.255	-0.125
-151.633	37.299	0.192	0.170
-150.618	366.786	-0.091	0.182
-149.604	-92.675	-0.113	0.031
-148.589	-200.000	-0.058	-0.354
-147.574	98.335	-0.134	0.154
-146.560	107.098	-0.068	-0.080
-145.545	-200.000	-0.014	0.166
-144.531	-12.129	0.359	0.233
-143.516	-153.372	0.714	0.049
-142.502	39.165	-0.072	0.064
-141.487	94.668	0.224	0.254
-140.472	-125.304	0.214	-0.033
-139.458	183.396	0.175	-0.258
-138.443	321.477	0.129	-0.244
-137.429	-76.949	-0.133	-0.046
-136.414	800.000	-0.046	0.140
-135.399	-74.578	0.199	0.071
-134.385	-40.718	-0.136	0.070
-133.370	176.266	-0.177	0.255
-132.356	-86.906	0.021	0.006
-131.341	205.481	-0.054	0.084
-130.326	123.933	0.028	-0.035
-129.312	61.362	-0.136	0.135
-128.297	23.043	-0.094	0.076
-127.283	246.197	-0.107	0.179
-126.268	800.000	-0.056	-0.207
-125.253	-169.693	0.058	-0.002
-124.239	-48.196	0.183	-0.088
-123.224	-49.247	-0.145	-0.069
-122.210	-200.000	-0.013	-0.167
-121.195	-81.063	-0.114	-0.037
