DTS Sentinel unit serial number:	SN413079Multiplexer serial number:	ORYXHardware model number:	OX4-SRSoftware version number:	ORYX F/W v4.00 Oryx Data Collector v3.7.2.0data status	okinstallation	princeton_trtdifferential loss correction	single-endedforward channel	channel 1reverse channel	N/Adate	2019/09/18time	06:34:35forward acquisition time	60.00reverse acquisition time	0.00gamma	496.2192k internal	0.2339k external	0.2339temperature offset calibration	0.9979default loss term (dB/km)	0.3790temperature slope calibration	1.0000multiplexer offset coefficient	1.0000multiplexer slope coefficient	1.0000fibre end	0.00T internal ref (°C)	23.27T ext. ref 1 (°C)	0.19T ext. ref 2 (°C)	17.25length (m)	temperature (°C)	Stokes	anti-Stokes-747.200	-77.948	0.183	0.063
-746.185	-102.777	-0.155	-0.037
-745.171	-14.726	-0.219	0.141
-744.156	-92.489	-0.085	-0.024
-743.142	800.000	0.053	-0.176
-742.127	468.884	-0.139	-0.313
-741.112	107.194	-0.132	0.158
-740.098	-200.000	0.016	0.122
-739.083	-200.000	0.001	-0.249
-738.069	357.950	0.058	0.116
-737.054	800.000	-0.044	0.137
-736.039	-42.506	-0.342	-0.175
-735.025	207.360	0.203	0.318
-734.010	109.302	-0.165	-0.198
-732.996	800.000	0.124	-0.459
-731.981	-200.000	0.007	0.309
-730.966	23.938	-0.282	-0.233
-729.952	-200.000	0.022	-0.528
-728.937	191.660	-0.121	0.182
-727.923	800.000	0.038	0.116
-726.908	800.000	-0.034	-0.115
-725.894	-100.039	-0.161	0.040
-724.879	386.438	-0.046	0.095
-723.864	-200.000	-0.029	0.297
-722.850	-110.694	0.209	-0.043
-721.835	249.931	0.209	0.356
-720.821	58.745	-0.248	0.244
-719.806	-98.380	0.212	0.054
-718.791	-44.976	0.121	-0.060
-717.777	-2.808	0.060	0.042
-716.762	800.000	-0.220	0.629
-715.748	-200.000	0.004	0.155
-714.733	800.000	-0.056	0.193
-713.718	-100.519	-0.057	0.014
-712.704	339.530	-0.054	-0.105
-711.689	-178.976	0.281	0.006
-710.675	-84.328	0.051	-0.016
-709.660	-77.272	-0.360	-0.125
-708.645	-200.000	0.036	0.235
-707.631	-8.263	0.146	0.098
-706.616	-74.586	-0.091	-0.033
-705.602	-81.109	0.219	0.073
-704.587	-147.919	-0.293	-0.024
-703.572	38.316	-0.080	-0.071
-702.558	-152.206	-0.048	0.003
-701.543	34.983	0.064	-0.056
-700.529	-123.061	0.224	-0.036
-699.514	1.935	-0.327	0.236
-698.499	-154.034	-0.520	0.035
-697.485	800.000	0.061	-0.252
-696.470	-77.105	0.378	-0.132
-695.456	-200.000	0.016	0.244
-694.441	800.000	-0.110	0.357
-693.426	-200.000	-0.039	0.386
-692.412	-8.825	0.110	-0.074
-691.397	-105.294	-0.198	-0.045
-690.383	42.804	-0.098	-0.090
-689.368	185.574	-0.112	-0.167
-688.354	79.117	-0.172	0.184
-687.339	-104.703	0.444	0.102
-686.324	326.662	-0.143	0.274
-685.310	800.000	0.077	0.231
-684.295	157.674	-0.205	0.284
-683.281	93.485	-0.184	-0.209
-682.266	216.624	0.167	-0.266
-681.251	-200.000	0.029	-0.243
-680.237	69.719	-0.144	0.149
-679.222	109.494	-0.057	-0.068
-678.208	-1.272	0.199	-0.141
-677.193	-67.600	-0.162	0.064
-676.178	-200.000	0.010	-0.180
-675.164	436.445	-0.148	0.323
-674.149	267.440	0.167	-0.292
-673.135	68.253	0.068	0.069
-672.120	559.540	-0.016	-0.038
-671.105	251.221	0.060	-0.102
-670.091	38.207	-0.124	0.111
-669.076	-79.262	-0.147	0.050
-668.062	-164.665	-0.213	-0.010
-667.047	59.829	-0.373	0.368
-666.032	402.153	-0.113	-0.237
-665.018	-50.837	0.179	0.084
-664.003	-20.103	0.091	0.056
-662.989	-200.000	-0.041	-0.361
-661.974	37.956	0.126	-0.112
-660.959	-200.000	0.042	0.328
-659.945	-200.000	-0.026	-0.186
-658.930	-15.559	-0.168	0.107
-657.916	747.984	0.048	-0.131
-656.901	23.409	0.067	0.055
-655.886	-200.000	0.024	-0.273
-654.872	656.400	-0.153	0.392
-653.857	800.000	-0.059	-0.179
-652.843	-36.242	0.252	0.136
-651.828	-149.321	-0.264	-0.021
-650.814	-16.355	-0.207	0.131
-649.799	-70.934	-0.173	-0.065
-648.784	-200.000	0.040	0.181
-647.770	800.000	-0.137	-0.395
-646.755	252.412	-0.065	-0.111
-645.741	-167.236	-0.260	-0.011
-644.726	105.710	-0.096	-0.114
-643.711	171.615	0.138	0.199
-642.697	240.281	-0.122	0.203
-641.682	11.744	0.237	0.182
-640.668	546.765	0.035	0.083
-639.653	363.107	-0.021	-0.042
-638.638	-70.165	0.228	0.087
-637.624	-200.000	-0.016	0.119
-636.609	-126.542	-0.136	-0.020
-635.595	-200.000	0.045	-0.199
-634.580	-15.123	-0.365	0.234
-633.565	-62.400	-0.142	-0.059
-632.551	-200.000	0.040	-0.242
-631.536	-200.000	-0.007	-0.199
-630.522	-182.420	-0.179	-0.003
-629.507	110.774	0.112	0.135
-628.492	-10.510	0.222	-0.147
-627.478	-54.336	-0.567	-0.257
-626.463	-63.186	0.134	0.055
-625.449	800.000	0.028	0.088
-624.434	100.692	-0.143	-0.165
-623.419	-110.965	0.032	-0.006
-622.405	-69.331	0.375	0.144
-621.390	29.657	-0.235	0.199
-620.376	5.805	-0.272	0.201
-619.361	272.964	0.191	-0.338
-618.346	68.178	0.139	-0.142
-617.332	124.361	-0.176	-0.221
-616.317	-200.000	-0.022	-0.277
-615.303	800.000	0.131	0.366
-614.288	172.674	-0.307	-0.441
-613.273	671.969	-0.071	-0.184
-612.259	-80.103	-0.245	0.082
-611.244	800.000	0.047	0.198
-610.230	-100.614	0.046	0.011
-609.215	335.206	-0.169	-0.327
-608.201	0.840	0.142	-0.101
-607.186	-140.009	-0.222	0.023
-606.171	-124.183	0.069	0.011
-605.157	-166.095	-0.423	-0.018
-604.142	-64.069	0.175	0.071
-603.128	-44.873	-0.063	0.031
-602.113	689.142	0.078	-0.204
-601.098	105.815	-0.238	0.281
-600.084	-94.624	0.205	-0.056
-599.069	800.000	0.088	-0.242
-598.055	-39.450	0.335	-0.175
-597.040	112.164	0.110	0.133
-596.025	800.000	0.023	-0.082
-595.011	736.320	0.090	-0.241
-593.996	-158.031	-0.256	-0.015
-592.982	-28.636	-0.181	-0.104
-591.967	-81.567	0.034	-0.011
-590.952	114.409	0.104	-0.126
-589.938	-77.682	-0.276	-0.095
-588.923	-200.000	-0.026	-0.176
-587.909	54.991	0.101	-0.098
-586.894	120.466	-0.093	-0.116
-585.879	800.000	0.095	-0.281
-584.865	-24.945	-0.269	-0.159
-583.850	-200.000	-0.002	-0.075
-582.836	279.418	0.074	-0.131
-581.821	317.673	0.157	-0.296
-580.806	-131.712	-0.209	-0.027
-579.792	13.420	-0.056	-0.043
-578.777	219.839	-0.235	-0.375
-577.763	-200.000	-0.029	0.138
-576.748	-100.761	-0.206	-0.050
-575.733	-200.000	0.015	0.247
-574.719	248.904	0.040	0.068
-573.704	800.000	0.052	0.187
-572.690	-21.546	0.095	0.058
-571.675	-74.380	0.266	-0.096
-570.661	-71.311	-0.099	-0.037
-569.646	64.298	0.263	-0.264
-568.631	800.000	-0.065	0.233
-567.617	563.785	0.066	0.160
-566.602	-60.887	-0.221	0.093
-565.588	-117.323	0.190	0.034
-564.573	35.966	0.265	-0.232
-563.558	90.800	0.321	-0.359
-562.544	5.622	-0.197	0.145
-561.529	-200.000	-0.041	-0.323
-560.515	-200.000	-0.015	-0.088
-559.500	531.920	0.122	-0.288
-558.485	-147.860	0.056	0.005
-557.471	-121.727	-0.200	-0.033
-556.456	-135.584	0.244	-0.029
-555.442	5.370	-0.244	0.179
-554.427	-79.504	0.123	0.041
-553.412	-76.910	-0.173	-0.060
-552.398	-112.957	0.271	-0.053
-551.383	-106.104	-0.431	0.096
-550.369	-125.528	-0.091	-0.014
-549.354	31.326	0.212	0.181
-548.339	381.481	-0.188	0.384
-547.325	-22.514	0.239	-0.144
-546.310	-119.701	-0.173	-0.030
-545.296	-47.057	-0.135	0.066
-544.281	-104.321	0.355	0.082
-543.266	13.698	-0.191	-0.148
-542.252	-200.000	0.011	-0.078
-541.237	19.312	-0.144	-0.115
-540.223	-200.000	0.006	0.155
-539.208	222.106	-0.080	-0.129
-538.193	800.000	-0.025	-0.102
-537.179	213.371	0.043	-0.068
-536.164	-200.000	0.058	-0.324
-535.150	-109.844	-0.164	-0.034
-534.135	-200.000	-0.007	0.045
-533.121	-45.173	-0.160	-0.079
-532.106	-200.000	-0.012	0.053
-531.091	-127.632	-0.236	0.034
-530.077	-53.046	0.238	0.109
-529.062	-74.497	-0.135	0.049
-528.048	-18.073	0.097	-0.061
-527.033	-17.589	-0.150	0.094
-526.018	-200.000	-0.001	0.113
-525.004	27.070	-0.167	-0.139
-523.989	-200.000	-0.034	0.190
-522.975	85.445	0.069	-0.075
-521.960	61.052	0.206	0.204
-520.945	-200.000	-0.002	0.136
-519.931	420.265	0.063	0.134
-518.916	-200.000	-0.073	0.351
-517.902	-21.073	0.334	0.203
-516.887	1.307	-0.020	0.014
-515.872	-131.748	0.347	-0.045
-514.858	800.000	-0.054	0.149
-513.843	-108.126	0.264	-0.057
-512.829	-21.149	-0.087	0.053
-511.814	49.955	-0.052	0.048
-510.799	165.610	-0.147	0.207
-509.785	-6.832	0.155	0.105
-508.770	-151.637	0.281	0.021
-507.756	-83.617	-0.302	-0.096
-506.741	800.000	-0.151	-0.452
-505.726	-101.078	0.133	-0.032
-504.712	-200.000	-0.040	0.215
-503.697	194.285	0.074	-0.111
-502.683	800.000	-0.069	-0.275
-501.668	180.910	0.175	-0.255
-500.653	-200.000	0.028	-0.272
-499.639	-131.551	-0.193	0.025
-498.624	-200.000	-0.024	-0.215
-497.610	800.000	-0.073	-0.234
-496.595	125.189	0.093	-0.116
-495.581	227.427	-0.275	-0.444
-494.566	-72.584	-0.003	0.001
-493.551	-126.176	0.295	-0.044
-492.537	-200.000	0.037	0.284
-491.522	77.640	-0.140	0.148
-490.508	65.307	0.056	-0.056
-489.493	-121.771	0.416	0.068
-488.478	-94.582	-0.280	0.076
-487.464	31.395	0.265	-0.226
-486.449	-200.000	-0.191	0.000
-485.435	276.907	0.078	-0.138
-484.420	69.826	-0.039	0.040
-483.405	210.290	0.240	-0.374
-482.391	-104.454	-0.249	0.057
-481.376	325.695	0.090	0.171
-480.362	-29.578	0.285	0.162
-479.347	394.902	-0.081	-0.167
-478.332	204.439	0.068	-0.105
-477.318	111.321	0.107	0.128
-476.303	-178.595	0.193	0.004
-475.289	179.623	-0.104	-0.152
-474.274	108.799	0.154	-0.182
-473.259	1.924	-0.129	-0.092
-472.245	-81.812	0.237	0.077
-471.230	371.524	-0.090	0.181
-470.216	800.000	-0.077	-0.278
-469.201	-39.239	-0.269	0.140
-468.186	274.783	0.128	-0.224
-467.172	-147.569	-0.179	-0.015
-466.157	-134.978	-0.304	-0.036
-465.143	-200.000	-0.044	0.297
-464.128	-63.743	0.286	-0.116
-463.113	-115.086	-0.155	-0.029
-462.099	292.445	0.073	-0.131
-461.084	800.000	0.081	0.317
-460.070	800.000	-0.043	0.140
-459.055	452.554	-0.067	-0.146
-458.040	-200.000	-0.004	0.107
-457.026	-200.000	-0.048	0.233
-456.011	-119.429	0.434	0.075
-454.997	-121.542	-0.155	-0.026
-453.982	235.122	-0.179	0.293
-452.968	18.157	-0.051	0.040
-451.953	-69.176	-0.331	0.126
-450.938	43.665	0.088	0.080
-449.924	800.000	-0.051	-0.204
-448.909	-12.476	0.159	0.103
-447.895	-200.000	0.037	-0.260
-446.880	-200.000	0.115	-0.523
-445.865	-200.000	0.003	-0.061
-444.851	-200.000	-0.058	0.312
-443.836	-38.398	-0.123	-0.065
-442.822	-200.000	0.010	-0.129
-441.807	606.746	0.039	0.097
-440.792	76.436	0.112	0.118
-439.778	-155.698	-0.215	0.014
-438.763	-200.000	0.021	0.131
-437.749	-13.937	0.231	0.148
-436.734	-114.138	0.220	0.042
-435.719	800.000	-0.029	-0.099
-434.705	236.022	0.159	0.260
-433.690	-130.537	0.262	0.035
-432.676	-33.670	-0.141	-0.077
-431.661	-200.000	-0.044	0.272
-430.646	600.028	0.134	-0.330
-429.632	-40.322	-0.224	0.115
-428.617	-17.323	-0.026	0.016
-427.603	-200.000	0.028	0.331
-426.588	-50.723	0.182	0.085
-425.573	800.000	-0.091	-0.264
-424.559	790.037	-0.116	0.314
-423.544	156.304	-0.260	0.356
-422.530	32.455	0.226	0.194
-421.515	-65.400	-0.070	0.028
-420.500	187.463	0.167	-0.247
-419.486	800.000	-0.045	-0.139
-418.471	237.875	0.078	0.129
-417.457	-65.691	0.246	-0.098
-416.442	-200.000	-0.050	0.317
-415.428	320.095	0.087	0.163
-414.413	-200.000	0.010	-0.114
-413.398	800.000	0.061	-0.176
-412.384	-47.826	0.331	-0.159
-411.369	-110.815	0.099	-0.020
-410.355	-149.311	-0.176	-0.014
-409.340	800.000	-0.073	0.285
-408.325	301.760	-0.110	0.201
-407.311	197.487	0.064	-0.097
-406.296	-20.908	0.090	0.055
-405.282	800.000	-0.113	0.446
-404.267	-80.583	0.121	-0.040
-403.252	-200.000	-0.028	0.129
-402.238	39.211	-0.211	-0.187
-401.223	-47.281	-0.284	0.137
-400.209	-37.495	-0.336	0.177
-399.194	30.795	-0.134	0.114
-398.179	151.785	-0.098	-0.132
-397.165	9.998	0.146	-0.110
-396.150	10.344	0.310	-0.234
-395.136	70.824	-0.162	-0.166
-394.121	800.000	-0.083	0.228
-393.106	-96.591	0.336	0.088
-392.092	34.622	-0.205	0.177
-391.077	14.170	0.136	-0.105
-390.063	800.000	0.069	0.194
-389.048	-70.283	-0.505	0.190
-388.033	-200.000	-0.094	0.526
-387.019	800.000	0.036	-0.137
-386.004	-69.075	-0.097	-0.037
-384.990	167.937	0.135	0.190
-383.975	310.780	0.050	-0.092
-382.960	-11.015	0.037	-0.024
-381.946	-182.449	0.247	0.004
-380.931	-23.198	-0.009	0.006
-379.917	-100.943	0.151	0.037
-378.902	-86.166	-0.075	-0.023
-377.888	-126.608	0.153	-0.022
-376.873	-86.570	-0.132	0.040
-375.858	-200.000	0.059	-0.446
-374.844	272.962	-0.130	-0.228
-373.829	-86.954	-0.155	-0.047
-372.815	-200.000	0.001	0.304
-371.800	-78.937	-0.237	-0.080
-370.785	-200.000	-0.040	-0.237
-369.771	118.246	0.077	0.094
-368.756	-74.608	0.259	-0.092
-367.742	327.614	0.049	0.092
-366.727	150.287	-0.176	0.236
-365.712	-59.617	-0.197	0.083
-364.698	49.411	0.078	0.072
-363.683	-2.368	-0.031	-0.021
-362.669	-200.000	0.012	0.066
-361.654	128.360	-0.324	0.408
-360.639	174.896	0.147	-0.210
-359.625	-124.909	-0.157	0.024
-358.610	-118.008	-0.366	-0.065
-357.596	42.252	0.195	-0.175
-356.581	-133.138	-0.295	-0.037
-355.566	-59.628	-0.450	-0.191
-354.552	-123.769	0.284	-0.044
-353.537	-16.427	-0.206	-0.129
-352.523	93.730	-0.066	-0.074
-351.508	-70.765	-0.295	-0.110
-350.493	263.291	0.079	-0.135
-349.479	800.000	-0.066	-0.239
-348.464	-200.000	0.002	0.021
-347.450	118.903	-0.071	-0.087
-346.435	-114.644	0.222	0.042
-345.420	87.041	-0.154	0.168
-344.406	800.000	0.062	0.214
-343.391	-81.837	-0.483	0.156
-342.377	-110.783	0.233	-0.047
-341.362	60.351	0.103	0.101
-340.348	-13.265	-0.067	0.043
-339.333	177.701	0.072	-0.103
-338.318	-27.700	-0.250	0.143
-337.304	-76.377	0.262	0.091
-336.289	146.597	0.102	-0.135
-335.275	-200.000	-0.001	0.194
-334.260	215.250	0.250	0.391
-333.245	49.609	-0.298	-0.277
-332.231	-200.000	-0.004	0.229
-331.216	-200.000	0.037	0.247
-330.202	26.003	0.364	0.300
-329.187	-200.000	0.024	0.144
-328.172	160.642	0.058	0.080
-327.158	6.775	0.213	-0.156
-326.143	16.356	0.289	0.225
-325.129	32.632	0.192	0.164
-324.114	476.789	-0.111	-0.249
-323.099	393.701	-0.063	-0.129
-322.085	58.347	0.187	0.181
-321.070	6.867	0.111	0.081
-320.056	-138.063	0.165	-0.018
-319.041	-193.166	0.175	0.002
-318.026	-67.263	0.229	-0.089
-317.012	-142.747	-0.139	-0.013
-315.997	319.956	-0.046	0.085
-314.983	108.950	0.096	0.113
-313.968	425.772	-0.132	0.280
-312.953	800.000	0.046	-0.192
-311.939	281.375	-0.152	-0.268
-310.924	-1.844	0.117	0.081
-309.910	-144.900	-0.288	-0.026
-308.895	-93.468	0.248	-0.068
-307.880	626.493	-0.114	-0.284
-306.866	99.234	0.181	-0.207
-305.851	-160.884	0.369	-0.019
-304.837	24.005	0.113	0.092
-303.822	-200.000	-0.013	0.239
-302.807	-109.040	-0.365	0.077
-301.793	361.909	0.052	-0.103
-300.778	-39.946	0.284	-0.146
-299.764	-59.927	-0.035	-0.015
-298.749	-45.242	-0.310	-0.152
-297.735	-48.588	-0.154	-0.073
-296.720	554.672	0.126	-0.298
-295.705	-162.757	0.145	-0.007
-294.691	-35.665	-0.346	0.185
-293.676	-200.000	-0.042	-0.198
-292.662	-200.000	0.047	0.223
-291.647	-66.890	-0.037	0.014
-290.632	-23.576	0.099	0.058
-289.618	-190.925	-0.176	-0.002
-288.603	115.606	0.147	0.178
-287.589	-104.650	-0.102	-0.023
-286.574	471.404	-0.092	-0.205
-285.559	-189.689	-0.128	0.001
-284.545	-3.278	0.184	0.126
-283.530	-200.000	-0.006	0.266
-282.516	569.011	0.045	0.108
-281.501	-79.199	0.102	0.034
-280.486	-112.551	-0.096	0.019
-279.472	51.733	-0.248	-0.233
-278.457	166.485	-0.152	-0.212
-277.443	-28.859	0.376	-0.213
-276.428	-60.740	0.088	0.037
-275.413	-108.814	0.288	-0.061
-274.399	45.482	0.093	0.085
-273.384	-104.502	0.221	-0.050
-272.370	-148.535	0.198	0.016
-271.355	44.125	-0.049	-0.045
-270.340	-125.427	0.133	0.020
-269.326	145.973	0.129	-0.171
-268.311	5.070	-0.264	-0.191
-267.297	-50.434	0.287	0.133
-266.282	-156.937	0.270	-0.016
-265.267	800.000	-0.051	0.173
-264.253	94.485	-0.078	-0.087
-263.238	-139.937	-0.333	-0.035
-262.224	800.000	-0.056	0.176
-261.209	104.235	-0.149	-0.173
-260.195	647.664	-0.019	-0.047
-259.180	195.425	0.140	-0.209
-258.165	-79.590	-0.130	0.043
-257.151	47.542	-0.259	0.238
-256.136	-1.717	0.120	-0.083
-255.122	-200.000	0.046	-0.239
-254.107	-51.652	-0.086	-0.039
-253.092	9.181	0.166	-0.124
-252.078	800.000	-0.043	-0.128
-251.063	-81.289	0.189	0.061
-250.049	-62.487	-0.163	-0.067
-249.034	-63.363	0.208	-0.084
-248.019	-33.358	-0.261	-0.142
-247.005	156.944	0.048	-0.065
-245.990	-24.240	0.147	-0.086
-244.976	543.784	0.180	0.423
-243.961	-71.356	0.200	0.074
-242.946	95.111	0.230	-0.257
-241.932	-16.254	0.200	-0.125
-240.917	-200.000	0.056	-0.366
-239.903	-7.823	-0.338	0.225
-238.888	-156.773	-0.221	-0.013
-237.873	161.226	-0.077	0.105
-236.859	117.513	0.114	-0.138
-235.844	457.656	0.055	-0.120
-234.830	-200.000	-0.004	0.157
-233.815	-200.000	0.094	0.473
-232.800	279.252	-0.143	-0.251
-231.786	66.272	0.086	0.086
-230.771	147.574	0.031	-0.040
-229.757	426.302	-0.110	-0.233
-228.742	-23.013	-0.307	0.182
-227.727	243.542	0.100	-0.165
-226.713	87.959	-0.099	-0.108
-225.698	219.804	0.112	0.176
-224.684	-7.040	0.124	-0.083
-223.669	800.000	-0.143	-0.449
-222.655	-200.000	0.000	-0.229
-221.640	25.875	-0.177	0.145
-220.625	-66.001	0.176	-0.069
-219.611	-92.158	-0.257	-0.071
-218.596	-200.000	0.014	-0.103
-217.582	-1.679	0.329	0.228
-216.567	336.728	-0.040	-0.076
-215.552	245.443	-0.063	0.105
-214.538	-14.527	-0.117	0.074
-213.523	800.000	-0.102	-0.323
-212.509	-41.071	-0.111	0.056
-211.494	59.794	-0.345	-0.334
-210.479	49.420	0.077	-0.071
-209.465	-117.500	0.169	-0.030
-208.450	-52.801	-0.225	-0.102
-207.436	-131.632	-0.233	-0.030
-206.421	-90.936	-0.085	0.024
-205.406	-200.000	0.022	-0.210
-204.392	-151.762	-0.136	-0.010
-203.377	-69.864	0.140	0.052
-202.363	800.000	0.063	0.260
-201.348	-99.481	-0.241	0.059
-200.333	187.545	-0.277	0.406
-199.319	210.774	-0.215	0.332
-198.304	-170.820	-0.206	0.007
-197.290	142.367	-0.090	0.118
-196.275	-69.016	0.084	0.032
-195.260	90.410	0.161	0.177
-194.246	-77.326	0.160	0.055
-193.231	275.881	0.100	-0.174
-192.217	-11.679	-0.203	0.131
-191.202	800.000	0.065	0.221
-190.187	-200.000	-0.023	0.343
-189.173	14.520	0.349	0.268
-188.158	39.854	-0.261	0.230
-187.144	437.276	0.130	-0.278
-186.129	-200.000	0.035	0.334
-185.114	800.000	-0.043	0.128
-184.100	-166.317	0.220	-0.009
-183.085	275.946	-0.198	0.345
-182.071	-162.538	-0.067	0.003
-181.056	-25.020	0.124	0.072
-180.042	-29.337	0.304	-0.171
-179.027	65.750	-0.042	0.041
-178.012	-2.306	-0.102	0.070
-176.998	-100.833	-0.026	-0.006
-175.983	73.443	-0.233	0.239
-174.969	-113.951	0.141	0.027
-173.954	-176.125	0.326	0.008
-172.939	-47.660	0.320	-0.152
-171.925	232.864	0.111	-0.178
-170.910	-17.767	0.180	-0.111
-169.896	-89.658	-0.153	0.044
-168.881	-152.743	0.239	0.017
-167.866	22.119	-0.152	-0.122
-166.852	-147.687	-0.118	0.010
-165.837	-45.908	0.218	-0.105
-164.823	383.254	-0.076	-0.153
-163.808	-200.000	-0.063	0.300
-162.793	4.054	0.089	-0.064
-161.779	-200.000	0.041	0.252
-160.764	-108.621	0.343	0.072
-159.750	11.006	0.134	0.101
-158.735	-200.000	-0.037	0.329
-157.720	800.000	-0.075	0.319
-156.706	-152.785	0.098	-0.007
-155.691	-200.000	-0.011	0.175
-154.677	-109.089	0.176	0.037
-153.662	404.455	0.089	-0.185
-152.647	-200.000	0.006	0.268
-151.633	223.714	0.142	0.225
-150.618	-200.000	-0.005	-0.229
-149.604	-181.184	0.166	0.003
-148.589	-200.000	0.001	0.452
-147.574	189.421	0.081	-0.119
-146.560	800.000	-0.085	-0.239
-145.545	-80.556	0.117	0.038
-144.531	-63.366	0.177	0.071
-143.516	-64.594	0.152	0.061
-142.502	-200.000	-0.064	0.406
-141.487	-200.000	0.001	-0.134
-140.472	-29.490	0.380	-0.213
-139.458	50.254	0.206	-0.190
-138.443	130.461	0.199	0.250
-137.429	-43.280	0.223	-0.111
-136.414	141.021	0.237	0.307
-135.399	-200.000	-0.010	-0.140
-134.385	296.445	-0.134	0.241
-133.370	-200.000	-0.094	0.414
-132.356	6.697	-0.288	-0.210
-131.341	-200.000	-0.009	0.078
-130.326	11.794	0.263	-0.198
-129.312	281.890	0.092	0.161
-128.297	-124.475	-0.034	-0.005
-127.283	800.000	0.024	0.094
-126.268	-92.043	0.208	-0.058
-125.253	51.499	-0.221	0.206
-124.239	281.826	0.111	0.194
-123.224	186.164	-0.141	-0.205
-122.210	626.669	0.044	-0.109
-121.195	71.972	-0.227	0.231
