DTS Sentinel unit serial number:	SN413079Multiplexer serial number:	ORYXHardware model number:	OX4-SRSoftware version number:	ORYX F/W v4.00 Oryx Data Collector v3.7.2.0data status	okinstallation	princeton_trtdifferential loss correction	single-endedforward channel	channel 1reverse channel	N/Adate	2019/09/17time	21:02:35forward acquisition time	60.00reverse acquisition time	0.00gamma	496.2192k internal	0.2335k external	0.2335temperature offset calibration	0.9979default loss term (dB/km)	0.3790temperature slope calibration	1.0000multiplexer offset coefficient	1.0000multiplexer slope coefficient	1.0000fibre end	0.00T internal ref (°C)	28.52T ext. ref 1 (°C)	0.21T ext. ref 2 (°C)	20.07length (m)	temperature (°C)	Stokes	anti-Stokes-747.200	-200.000	-0.012	-0.397
-746.185	183.718	0.155	0.230
-745.171	212.640	0.081	0.129
-744.156	76.885	0.204	0.217
-743.142	19.367	0.211	-0.170
-742.127	-200.000	-0.057	0.514
-741.112	-116.987	0.303	0.056
-740.098	-200.000	0.016	0.206
-739.083	-87.400	0.193	-0.059
-738.069	-200.000	0.038	0.224
-737.054	-7.572	0.044	0.030
-736.039	253.001	-0.135	-0.231
-735.025	-200.000	0.010	-0.224
-734.010	800.000	0.064	0.205
-732.996	120.145	-0.211	-0.263
-731.981	-33.208	-0.197	0.110
-730.966	100.256	-0.155	0.180
-729.952	-87.214	-0.188	0.057
-728.937	-104.997	-0.344	-0.079
-727.923	-30.398	-0.213	-0.121
-726.908	800.000	-0.072	-0.273
-725.894	281.055	-0.064	0.116
-724.879	-67.729	-0.145	-0.057
-723.864	800.000	0.069	-0.295
-722.850	310.505	0.019	-0.036
-721.835	604.057	0.059	-0.147
-720.821	310.107	0.070	-0.132
-719.806	33.130	0.271	-0.236
-718.791	294.275	0.022	0.040
-717.777	-200.000	-0.018	-0.171
-716.762	800.000	-0.089	0.383
-715.748	71.259	0.074	0.077
-714.733	-200.000	0.012	-0.167
-713.718	386.478	-0.107	-0.222
-712.704	-200.000	0.392	0.000
-711.689	-51.307	-0.222	-0.104
-710.675	800.000	0.123	0.474
-709.660	-200.000	-0.003	0.213
-708.645	-177.562	0.106	0.003
-707.631	800.000	0.121	0.405
-706.616	12.570	0.125	-0.097
-705.602	212.509	0.097	-0.153
-704.587	214.954	-0.162	0.258
-703.572	485.066	-0.050	0.113
-702.558	306.673	-0.137	-0.255
-701.543	-200.000	0.015	-0.240
-700.529	-200.000	0.065	0.363
-699.514	-160.148	0.320	0.017
-698.499	-125.706	-0.194	-0.029
-697.485	-79.530	-0.351	-0.119
-696.470	275.583	-0.176	-0.313
-695.456	-200.000	-0.003	0.063
-694.441	-200.000	-0.015	-0.143
-693.426	-132.600	0.150	-0.019
-692.412	-110.694	-0.211	0.044
-691.397	-14.465	0.217	0.140
-690.383	-33.588	-0.280	0.155
-689.368	-91.898	-0.295	-0.084
-688.354	16.215	0.269	0.213
-687.339	800.000	-0.032	0.125
-686.324	442.949	-0.163	0.357
-685.310	-104.916	0.260	0.060
-684.295	67.289	0.098	0.100
-683.281	-69.406	0.210	-0.081
-682.266	-200.000	-0.003	-0.195
-681.251	50.517	-0.208	0.197
-680.237	-182.175	-0.502	0.009
-679.222	-37.739	-0.188	-0.100
-678.208	-104.984	-0.143	-0.033
-677.193	-200.000	-0.030	-0.230
-676.178	-14.568	0.353	-0.227
-675.164	-22.583	0.218	-0.132
-674.149	-95.208	-0.257	-0.069
-673.135	10.240	-0.176	-0.134
-672.120	13.213	-0.202	-0.157
-671.105	-80.182	0.395	0.132
-670.091	726.930	-0.077	-0.205
-669.076	-200.000	-0.002	-0.027
-668.062	-60.902	-0.303	0.129
-667.047	13.377	0.139	0.108
-666.032	254.471	-0.047	-0.081
-665.018	-112.280	0.193	0.039
-664.003	800.000	0.066	0.197
-662.989	800.000	-0.080	0.223
-661.974	-58.161	-0.148	0.065
-660.959	-200.000	-0.008	-0.216
-659.945	-200.000	-0.012	0.061
-658.930	-26.590	0.276	-0.162
-657.916	-2.607	-0.188	0.132
-656.901	-200.000	0.012	0.137
-655.886	-67.975	-0.351	-0.137
-654.872	27.666	-0.040	0.034
-653.857	800.000	-0.063	-0.226
-652.843	330.764	-0.073	-0.140
-651.828	328.112	-0.064	-0.122
-650.814	-120.619	-0.046	0.008
-649.799	74.974	-0.019	0.020
-648.784	-21.233	-0.021	-0.013
-647.770	-200.000	0.007	-0.151
-646.755	-30.732	0.035	-0.020
-645.741	21.193	-0.116	-0.095
-644.726	-129.439	0.163	0.023
-643.711	-41.320	0.261	0.135
-642.697	-200.000	-0.005	-0.147
-641.682	675.346	-0.103	0.266
-640.668	-30.362	-0.096	-0.055
-639.653	163.897	0.070	-0.098
-638.638	-32.872	0.198	-0.110
-637.624	-160.411	0.211	-0.011
-636.609	800.000	-0.056	-0.242
-635.595	800.000	-0.084	-0.335
-634.580	800.000	-0.123	0.485
-633.565	263.539	-0.076	0.132
-632.551	-200.000	0.003	-0.327
-631.536	280.838	-0.210	-0.376
-630.522	-135.442	-0.156	-0.019
-629.507	92.552	0.106	0.120
-628.492	226.005	-0.022	0.035
-627.478	-200.000	-0.226	-0.000
-626.463	-150.029	-0.186	-0.014
-625.449	-200.000	0.013	-0.186
-624.434	-107.441	0.218	-0.048
-623.419	733.557	0.094	-0.251
-622.405	-5.644	0.383	0.263
-621.390	301.962	-0.226	-0.417
-620.376	15.759	-0.191	-0.150
-619.361	-200.000	-0.044	-0.332
-618.346	-200.000	-0.026	0.164
-617.332	-200.000	-0.019	0.148
-616.317	-58.913	0.067	0.029
-615.303	64.394	-0.146	-0.147
-614.288	-95.560	0.138	0.037
-613.273	40.451	-0.400	0.360
-612.259	13.592	-0.043	0.033
-611.244	-139.665	0.133	-0.014
-610.230	-200.000	0.069	0.303
-609.215	186.544	0.136	0.202
-608.201	284.456	-0.049	0.089
-607.186	-129.331	0.213	-0.030
-606.171	-71.848	-0.289	-0.108
-605.157	357.980	0.104	0.208
-604.142	301.179	0.024	0.045
-603.128	-200.000	0.046	-0.230
-602.113	13.443	-0.142	-0.110
-601.098	-169.012	-0.189	0.007
-600.084	-74.934	0.204	0.073
-599.069	124.341	-0.063	-0.079
-598.055	800.000	-0.020	-0.065
-597.040	-200.000	-0.043	0.253
-596.025	-200.000	-0.040	-0.213
-595.011	-124.377	0.280	-0.044
-593.996	-17.107	0.251	0.158
-592.982	44.290	-0.123	0.113
-591.967	119.144	-0.227	0.280
-590.952	622.161	0.069	0.172
-589.938	-58.028	-0.109	0.048
-588.923	800.000	0.053	-0.177
-587.909	221.907	0.020	0.033
-586.894	90.819	0.292	-0.327
-585.879	-200.000	0.077	0.442
-584.865	-174.703	-0.171	-0.005
-583.850	-200.000	-0.022	-0.122
-582.836	24.356	0.277	-0.229
-581.821	122.603	0.136	-0.170
-580.806	140.646	0.210	0.276
-579.792	147.410	-0.030	0.040
-578.777	-76.708	0.228	-0.080
-577.763	-200.000	0.035	-0.300
-576.748	-200.000	-0.001	-0.097
-575.733	737.865	-0.030	-0.081
-574.719	14.873	-0.160	0.125
-573.704	-100.036	-0.740	0.184
-572.690	-10.208	0.188	-0.125
-571.675	0.499	-0.217	0.155
-570.661	-168.656	0.218	-0.008
-569.646	131.635	0.242	-0.310
-568.631	-118.052	-0.287	0.051
-567.617	101.887	0.073	0.085
-566.602	79.379	-0.108	-0.116
-565.588	-127.359	-0.444	-0.065
-564.573	-200.000	-0.001	-0.404
-563.558	63.743	0.177	-0.178
-562.544	219.932	0.119	-0.190
-561.529	-132.413	0.166	0.021
-560.515	372.099	-0.066	0.134
-559.500	-200.000	0.003	-0.037
-558.485	737.574	-0.056	0.149
-557.471	-27.554	0.187	0.108
-556.456	800.000	0.058	-0.194
-555.442	323.302	0.018	-0.035
-554.427	-84.769	0.043	-0.013
-553.412	0.824	-0.119	-0.085
-552.398	297.669	-0.065	0.119
-551.383	-126.413	-0.090	-0.013
-550.369	195.784	-0.137	-0.207
-549.354	800.000	-0.041	-0.167
-548.339	656.490	-0.098	-0.250
-547.325	800.000	0.124	-0.458
-546.310	-51.552	-0.070	-0.032
-545.296	259.974	0.044	-0.076
-544.281	-95.951	-0.154	-0.041
-543.266	309.177	0.063	-0.118
-542.252	-155.991	-0.100	-0.006
-541.237	239.425	-0.214	-0.355
-540.223	132.349	0.142	0.183
-539.208	-55.641	0.154	-0.069
-538.193	-95.481	0.167	-0.045
-537.179	-162.041	0.247	0.012
-536.164	-131.883	0.144	-0.019
-535.150	96.896	-0.243	0.278
-534.135	148.236	-0.070	-0.094
-533.121	-31.556	0.143	-0.080
-532.106	76.275	0.099	0.105
-531.091	-50.899	-0.340	0.159
-530.077	-174.374	-0.225	0.006
-529.062	-84.088	0.415	-0.131
-528.048	327.000	0.144	-0.275
-527.033	-74.014	0.115	-0.042
-526.018	-200.000	-0.010	-0.171
-525.004	-200.000	0.005	-0.354
-523.989	-18.013	-0.243	-0.152
-522.975	-110.520	-0.288	-0.059
-521.960	-106.387	0.082	0.018
-520.945	319.514	0.066	0.125
-519.931	15.285	0.234	-0.182
-518.916	624.505	-0.084	-0.212
-517.902	-128.927	0.310	-0.043
-516.887	9.514	0.205	0.155
-515.872	147.119	0.122	0.164
-514.858	800.000	0.077	0.282
-513.843	-200.000	-0.060	-0.368
-512.829	-126.352	-0.109	-0.016
-511.814	431.125	0.109	-0.236
-510.799	199.351	0.128	-0.195
-509.785	-15.407	0.418	-0.266
-508.770	127.742	-0.095	0.120
-507.756	136.535	-0.066	0.086
-506.741	17.948	0.058	0.046
-505.726	-200.000	-0.046	-0.253
-504.712	-80.615	-0.178	0.059
-503.697	-87.722	-0.289	0.087
-502.683	-200.000	-0.003	-0.251
-501.668	-138.484	-0.466	0.051
-500.653	-0.500	-0.097	0.068
-499.639	689.235	-0.105	-0.272
-498.624	-121.807	-0.111	-0.018
-497.610	-22.876	0.395	-0.237
-496.595	-4.689	-0.256	0.176
-495.581	-200.000	-0.010	-0.062
-494.566	-71.536	0.132	-0.049
-493.551	-49.374	0.254	-0.121
-492.537	87.492	-0.405	0.446
-491.522	301.349	0.033	-0.062
-490.508	254.826	0.039	-0.066
-489.493	31.461	0.172	0.147
-488.478	-200.000	0.035	-0.198
-487.464	-200.000	0.007	-0.440
-486.449	742.415	-0.119	-0.318
-485.435	-200.000	-0.020	0.138
-484.420	20.214	-0.083	0.067
-483.405	165.243	0.011	-0.015
-482.391	-103.500	0.301	-0.070
-481.376	-41.491	0.269	0.138
-480.362	-200.000	0.014	0.062
-479.347	21.873	0.117	-0.095
-478.332	-57.758	-0.226	-0.098
-477.318	55.590	0.061	0.058
-476.303	800.000	-0.046	-0.131
-475.289	388.121	-0.025	-0.051
-474.274	-200.000	-0.003	-0.195
-473.259	40.976	0.154	-0.138
-472.245	-200.000	-0.017	-0.192
-471.230	-200.000	0.004	-0.078
-470.216	-174.531	-0.175	-0.005
-469.201	554.759	0.074	-0.177
-468.186	34.658	0.160	-0.139
-467.172	-200.000	0.009	-0.375
-466.157	252.480	0.138	-0.234
-465.143	-106.080	0.426	-0.095
-464.128	303.700	-0.163	-0.300
-463.113	3.496	-0.282	-0.204
-462.099	-200.000	0.001	-0.066
-461.084	405.003	-0.060	0.126
-460.070	-200.000	0.013	0.218
-459.055	24.812	-0.034	0.028
-458.040	-11.142	0.226	0.148
-457.026	-185.167	-0.216	0.003
-456.011	-200.000	-0.046	-0.221
-454.997	190.155	-0.147	0.219
-453.982	576.929	-0.115	0.279
-452.968	-200.000	-0.015	-0.108
-451.953	53.891	-0.254	0.243
-450.938	-79.524	0.110	0.037
-449.924	-16.067	0.187	0.118
-448.909	-147.488	0.036	-0.003
-447.895	-101.278	-0.129	-0.031
-446.880	-4.244	-0.137	-0.094
-445.865	-78.612	0.159	-0.054
-444.851	182.705	0.121	0.177
-443.836	320.877	-0.093	0.176
-442.822	-39.295	-0.159	-0.083
-441.807	274.715	0.053	0.092
-440.792	-11.590	-0.016	0.010
-439.778	-2.775	0.088	-0.061
-438.763	509.919	-0.168	0.387
-437.749	-52.035	0.134	0.062
-436.734	-200.000	-0.003	-0.051
-435.719	214.059	0.215	-0.338
-434.705	-72.897	0.200	-0.073
-433.690	328.787	0.037	-0.071
-432.676	-97.256	-0.404	-0.105
-431.661	217.878	-0.231	-0.365
-430.646	-137.521	0.191	-0.021
-429.632	800.000	-0.053	0.148
-428.617	50.746	0.178	0.167
-427.603	-200.000	0.036	0.306
-426.588	-14.789	-0.197	0.125
-425.573	103.889	0.218	-0.254
-424.559	10.143	0.198	-0.150
-423.544	74.970	-0.050	0.052
-422.530	105.167	0.231	-0.270
-421.515	-200.000	0.005	0.038
-420.500	103.151	-0.239	-0.278
-419.486	489.079	-0.182	0.412
-418.471	-170.318	-0.177	-0.006
-417.457	-200.000	0.005	0.034
-416.442	774.850	0.056	-0.153
-415.428	13.687	-0.248	-0.191
-414.413	800.000	0.057	-0.179
-413.398	800.000	0.095	-0.290
-412.384	-200.000	-0.026	0.291
-411.369	-200.000	0.001	-0.186
-410.355	47.878	-0.044	0.041
-409.340	800.000	0.039	-0.110
-408.325	-76.470	0.159	0.055
-407.311	-19.521	-0.156	0.096
-406.296	-190.953	-0.208	-0.002
-405.282	40.872	-0.117	0.104
-404.267	-121.217	-0.235	-0.039
-403.252	20.963	0.162	-0.130
-402.238	-91.693	0.165	0.047
-401.223	-200.000	-0.045	-0.288
-400.209	85.964	0.199	-0.217
-399.194	800.000	0.034	-0.096
-398.179	-34.528	-0.371	0.201
-397.165	253.637	0.147	-0.249
-396.150	233.177	-0.208	0.339
-395.136	-130.433	-0.388	-0.052
-394.121	231.286	0.157	-0.254
-393.106	-200.000	0.014	-0.279
-392.092	800.000	0.079	-0.279
-391.077	166.640	-0.179	0.251
-390.063	45.422	-0.082	0.075
-389.048	-105.721	0.268	-0.060
-388.033	-200.000	0.058	0.328
-387.019	-169.062	0.078	0.003
-386.004	-200.000	0.039	-0.382
-384.990	56.608	-0.354	-0.341
-383.975	-200.000	0.023	0.152
-382.960	-52.931	0.155	0.071
-381.946	199.302	-0.166	-0.252
-380.931	-200.000	0.012	0.167
-379.917	-200.000	0.010	0.131
-378.902	311.255	0.220	-0.409
-377.888	-94.709	-0.255	-0.069
-376.873	-48.760	0.321	0.152
-375.858	800.000	-0.043	-0.165
-374.844	-49.701	-0.277	0.131
-373.829	-200.000	0.371	-0.002
-372.815	-200.000	0.027	-0.182
-371.800	-72.043	-0.054	0.020
-370.785	74.615	-0.244	0.254
-369.771	191.106	-0.122	-0.181
-368.756	-113.826	-0.287	-0.055
-367.742	800.000	-0.059	0.189
-366.727	-200.000	-0.026	0.271
-365.712	191.201	0.221	-0.330
-364.698	-67.298	0.167	0.065
-363.683	-96.355	-0.147	-0.039
-362.669	-101.908	0.111	0.026
-361.654	-125.875	0.201	0.030
-360.639	-200.000	-0.045	-0.194
-359.625	-200.000	0.056	0.309
-358.610	-1.237	-0.263	-0.184
-357.596	40.568	-0.208	-0.186
-356.581	-200.000	-0.051	0.318
-355.566	60.026	-0.249	0.244
-354.552	17.309	0.171	0.135
-353.537	-91.021	-0.129	-0.037
-352.523	22.453	0.176	-0.142
-351.508	374.089	0.078	-0.157
-350.493	179.054	0.165	-0.238
-349.479	680.982	-0.197	0.509
-348.464	-64.608	0.110	0.044
-347.450	581.775	-0.057	-0.137
-346.435	73.280	0.096	0.099
-345.420	220.256	0.270	0.428
-344.406	-81.621	-0.305	0.099
-343.391	129.363	0.251	-0.317
-342.377	75.119	0.166	0.173
-341.362	-91.315	0.127	-0.036
-340.348	721.561	-0.097	-0.254
-339.333	-37.649	0.043	-0.022
-338.318	7.317	-0.148	-0.109
-337.304	-79.590	-0.122	-0.041
-336.289	253.813	0.208	-0.351
-335.275	60.573	-0.138	-0.135
-334.260	-0.728	0.123	0.086
-333.245	117.091	-0.183	0.223
-332.231	13.158	-0.028	-0.022
-331.216	217.091	0.185	0.291
-330.202	228.289	0.086	0.139
-329.187	-200.000	-0.008	0.154
-328.172	-59.483	0.239	0.101
-327.158	332.065	0.203	-0.387
-326.143	-73.814	-0.098	-0.035
-325.129	-6.638	-0.185	-0.124
-324.114	800.000	0.130	-0.444
-323.099	-158.511	-0.139	0.008
-322.085	800.000	0.084	0.349
-321.070	592.064	0.131	0.319
-320.056	3.068	0.363	0.261
-319.041	125.110	-0.062	-0.078
-318.026	800.000	0.054	0.206
-317.012	-200.000	0.042	0.387
-315.997	294.072	-0.044	0.080
-314.983	434.572	-0.047	0.101
-313.968	-200.000	-0.004	0.128
-312.953	343.790	-0.041	0.080
-311.939	-97.683	0.129	0.033
-310.924	-162.888	-0.255	-0.012
-309.910	266.090	-0.096	-0.166
-308.895	-124.928	0.200	0.030
-307.880	800.000	-0.083	0.329
-306.866	-28.294	-0.196	0.112
-305.851	347.655	-0.110	0.214
-304.837	-37.829	-0.308	0.162
-303.822	-200.000	-0.007	-0.047
-302.807	-200.000	-0.031	0.272
-301.793	-97.056	0.244	0.063
-300.778	-200.000	0.014	-0.094
-299.764	-200.000	0.104	0.489
-298.749	88.244	-0.124	0.135
-297.735	170.962	0.174	-0.247
-296.720	-200.000	-0.018	-0.170
-295.705	228.659	0.089	0.143
-294.691	-108.496	0.138	0.029
-293.676	488.988	-0.034	0.076
-292.662	-200.000	0.026	0.220
-291.647	61.127	0.138	-0.135
-290.632	35.876	-0.272	-0.236
-289.618	800.000	0.037	0.148
-288.603	8.088	-0.082	-0.061
-287.589	-97.260	0.282	0.073
-286.574	-57.869	0.242	0.104
-285.559	800.000	0.014	0.045
-284.545	800.000	-0.077	0.214
-283.530	103.879	-0.302	0.350
-282.516	114.634	0.210	0.253
-281.501	-116.011	-0.162	0.030
-280.486	-89.990	-0.120	0.035
-279.472	255.093	-0.209	0.354
-278.457	800.000	-0.036	-0.142
-277.443	85.367	-0.083	0.089
-276.428	800.000	-0.024	0.079
-275.413	-45.205	-0.347	-0.170
-274.399	238.619	-0.311	0.510
-273.384	319.075	0.036	0.067
-272.370	800.000	-0.077	0.328
-271.355	-16.618	-0.126	0.079
-270.340	-66.652	-0.243	0.095
-269.326	-200.000	-0.019	0.138
-268.311	-8.345	0.165	0.110
-267.297	-28.438	-0.201	-0.114
-266.282	41.872	0.444	0.397
-265.267	-200.000	-0.010	-0.301
-264.253	488.386	0.140	0.315
-263.238	-94.335	0.170	0.046
-262.224	455.691	-0.039	0.084
-261.209	274.419	0.106	0.186
-260.195	-200.000	-0.004	0.194
-259.180	-33.467	-0.092	0.050
-258.165	-41.456	0.486	-0.247
-257.151	38.471	0.047	-0.041
-256.136	-200.000	0.009	-0.258
-255.122	5.264	0.218	-0.158
-254.107	-200.000	-0.007	0.159
-253.092	217.292	-0.104	-0.164
-252.078	-200.000	0.000	0.212
-251.063	-200.000	-0.001	0.156
-250.049	48.937	0.147	0.136
-249.034	-71.112	-0.146	0.054
-248.019	95.555	-0.050	0.056
-247.005	800.000	0.061	-0.223
-245.990	346.190	-0.199	0.386
-244.976	329.763	-0.071	0.135
-243.961	142.734	-0.154	0.201
-242.946	798.003	-0.100	0.272
-241.932	408.488	0.155	0.323
-240.917	155.474	0.162	0.220
-239.903	93.694	-0.052	-0.059
-238.888	728.796	0.105	0.277
-237.873	-200.000	-0.056	-0.350
-236.859	12.408	0.142	-0.108
-235.844	434.515	0.140	0.299
-234.830	94.514	-0.071	0.080
-233.815	-200.000	-0.015	0.199
-232.800	-172.740	-0.127	0.004
-231.786	-49.722	-0.102	-0.048
-230.771	-182.656	-0.096	-0.002
-229.757	-21.553	0.201	0.121
-228.742	-179.552	0.245	0.005
-227.727	7.936	0.216	-0.159
-226.713	368.180	-0.213	0.423
-225.698	-9.172	-0.045	-0.029
-224.684	-94.774	0.300	0.080
-223.669	-108.995	0.290	0.061
-222.655	5.915	-0.028	-0.021
-221.640	311.789	-0.032	0.060
-220.625	-200.000	-0.006	-0.132
-219.611	-99.948	0.554	0.136
-218.596	22.936	0.172	-0.139
-217.582	-60.941	0.216	0.090
-216.567	244.419	-0.090	-0.149
-215.552	88.182	-0.143	0.156
-214.538	-91.475	0.069	0.020
-213.523	291.432	-0.034	0.062
-212.509	-131.714	0.089	-0.012
-211.494	-10.314	0.169	-0.111
-210.479	-200.000	-0.019	0.243
-209.465	-200.000	0.001	0.121
-208.450	-22.112	-0.202	-0.121
-207.436	-144.827	-0.475	-0.043
-206.421	27.804	-0.250	0.207
-205.406	-200.000	-0.006	-0.106
-204.392	10.167	0.061	-0.046
-203.377	117.199	-0.077	-0.094
-202.363	237.923	-0.071	-0.116
-201.348	-75.368	-0.220	-0.077
-200.333	133.600	0.127	-0.161
-199.319	-105.225	-0.667	0.150
-198.304	50.409	0.136	0.127
-197.290	313.776	0.103	0.190
-196.275	-87.111	0.028	0.009
-195.260	-85.065	-0.392	0.121
-194.246	-157.895	0.221	-0.013
-193.231	79.161	-0.022	0.023
-192.217	12.181	-0.379	0.287
-191.202	-156.070	0.125	-0.008
-190.187	800.000	-0.019	0.052
-189.173	-125.253	0.133	-0.020
-188.158	-83.850	0.349	0.109
-187.144	83.925	0.144	-0.154
-186.129	22.866	-0.059	0.047
-185.114	800.000	-0.061	0.184
-184.100	-74.276	-0.178	0.063
-183.085	19.124	-0.176	-0.138
-182.071	-135.589	0.105	-0.012
-181.056	-77.313	0.135	-0.046
-180.042	-63.217	0.220	-0.089
-179.027	-156.330	-0.192	-0.012
-178.012	173.962	-0.188	0.266
-176.998	59.005	0.250	-0.242
-175.983	270.033	-0.047	-0.081
-174.969	-138.557	0.393	0.042
-173.954	800.000	0.092	0.368
-172.939	-200.000	0.002	-0.059
-171.925	-200.000	-0.014	-0.273
-170.910	-48.052	-0.010	-0.005
-169.896	-66.597	0.277	-0.108
-168.881	-200.000	-0.005	0.153
-167.866	719.688	-0.060	0.157
-166.852	261.625	-0.067	0.115
-165.837	38.693	0.047	0.042
-164.823	800.000	0.036	0.129
-163.808	-15.351	-0.019	-0.012
-162.793	800.000	-0.078	-0.240
-161.779	210.332	0.181	-0.279
-160.764	109.700	-0.225	-0.265
-159.750	-115.233	-0.273	0.051
-158.735	-107.679	0.110	0.024
-157.720	120.574	-0.188	-0.230
-156.706	800.000	-0.051	0.170
-155.691	244.284	0.059	0.098
-154.677	599.149	-0.208	0.507
-153.662	-178.498	0.257	0.006
-152.647	-33.246	-0.154	0.084
-151.633	-200.000	-0.002	-0.329
-150.618	-75.388	-0.138	-0.048
-149.604	-183.969	-0.248	-0.004
-148.589	-179.496	0.259	-0.006
-147.574	-21.275	-0.215	-0.129
-146.560	-17.012	0.377	-0.234
-145.545	190.948	-0.093	0.138
-144.531	-200.000	-0.004	0.206
-143.516	-33.192	-0.314	-0.171
-142.502	-200.000	-0.027	0.185
-141.487	87.374	-0.177	-0.193
-140.472	205.698	-0.040	-0.060
-139.458	-200.000	0.026	0.198
-138.443	366.710	-0.092	-0.182
-137.429	39.664	0.344	-0.303
-136.414	220.403	0.006	0.010
-135.399	97.581	-0.260	-0.294
-134.385	57.485	0.054	0.052
-133.370	96.979	0.223	-0.251
-132.356	-14.458	0.201	0.127
-131.341	-87.807	0.054	0.016
-130.326	-200.000	-0.005	0.111
-129.312	481.628	-0.077	-0.171
-128.297	-99.770	-0.388	0.095
-127.283	507.982	-0.059	-0.135
-126.268	293.197	-0.095	-0.170
-125.253	152.291	0.086	-0.115
-124.239	73.168	-0.146	0.149
-123.224	-63.923	0.411	0.165
-122.210	-9.333	-0.109	0.071
