DTS Sentinel unit serial number:	SN413079Multiplexer serial number:	ORYXHardware model number:	OX4-SRSoftware version number:	ORYX F/W v4.00 Oryx Data Collector v3.7.2.0data status	okinstallation	princeton_trtdifferential loss correction	single-endedforward channel	channel 1reverse channel	N/Adate	2019/09/15time	11:50:35forward acquisition time	60.00reverse acquisition time	0.00gamma	496.2192k internal	0.2307k external	0.2307temperature offset calibration	0.9983default loss term (dB/km)	0.3790temperature slope calibration	1.0000multiplexer offset coefficient	1.0000multiplexer slope coefficient	1.0000fibre end	0.00T internal ref (°C)	34.37T ext. ref 1 (°C)	5.05T ext. ref 2 (°C)	30.00length (m)	temperature (°C)	Stokes	anti-Stokes-747.200	-200.000	0.019	0.385
-746.185	-28.420	-0.189	0.111
-745.171	-200.000	-0.007	0.226
-744.156	-200.000	-0.006	0.101
-743.142	-11.540	0.290	0.194
-742.127	541.218	-0.059	0.143
-741.112	135.496	-0.142	0.188
-740.098	347.499	-0.129	-0.259
-739.083	22.868	-0.445	0.371
-738.069	-200.000	0.001	0.252
-737.054	-152.524	-0.281	0.020
-736.039	286.507	-0.078	-0.143
-735.025	173.598	0.190	0.278
-734.010	-107.404	-0.195	-0.043
-732.996	800.000	0.047	0.149
-731.981	-27.260	0.030	-0.018
-730.966	-59.378	0.312	-0.136
-729.952	148.534	0.095	0.130
-728.937	-33.958	-0.164	-0.092
-727.923	594.443	-0.087	0.218
-726.908	122.250	-0.241	0.306
-725.894	54.732	-0.238	0.233
-724.879	-192.258	-0.100	-0.001
-723.864	308.096	-0.162	-0.307
-722.850	-55.813	0.294	0.133
-721.835	137.532	0.143	0.190
-720.821	338.795	0.111	0.220
-719.806	-9.693	-0.113	0.076
-718.791	-74.393	-0.061	-0.022
-717.777	-75.926	-0.212	0.076
-716.762	-200.000	-0.075	-0.367
-715.748	-164.375	0.216	0.010
-714.733	-151.819	0.077	-0.006
-713.718	0.715	0.275	0.200
-712.704	527.086	-0.123	-0.295
-711.689	-86.026	-0.154	-0.048
-710.675	-200.000	-0.073	-0.377
-709.660	-157.183	-0.637	-0.039
-708.645	800.000	0.069	-0.236
-707.631	-138.024	-0.301	0.034
-706.616	-200.000	-0.014	-0.127
-705.602	200.800	0.151	-0.236
-704.587	-200.000	0.038	-0.191
-703.572	-132.312	-0.425	0.056
-702.558	-87.358	0.196	-0.060
-701.543	126.178	-0.153	0.196
-700.529	-65.180	0.307	0.126
-699.514	-200.000	-0.025	-0.203
-698.499	90.432	-0.051	-0.058
-697.485	220.338	0.134	-0.218
-696.470	-200.000	0.025	0.178
-695.456	-4.590	-0.123	0.087
-694.441	57.284	0.106	0.105
-693.426	-108.591	0.229	0.050
-692.412	16.696	-0.051	-0.041
-691.397	431.153	0.085	0.186
-690.383	306.479	-0.081	0.154
-689.368	-95.549	-0.138	-0.038
-688.354	-200.000	-0.009	-0.105
-687.339	-6.599	0.055	-0.038
-686.324	121.363	0.037	0.046
-685.310	29.668	-0.242	-0.209
-684.295	-135.295	0.139	0.017
-683.281	354.822	-0.020	0.041
-682.266	-114.536	-0.050	0.010
-681.251	-200.000	-0.038	-0.266
-680.237	301.893	0.170	-0.320
-679.222	27.849	0.273	-0.234
-678.208	-200.000	-0.005	-0.377
-677.193	-47.935	0.249	-0.122
-676.178	800.000	-0.101	-0.406
-675.164	368.546	0.096	-0.196
-674.149	239.145	-0.093	-0.158
-673.135	-96.272	-0.047	0.013
-672.120	491.726	-0.097	-0.226
-671.105	164.483	-0.209	-0.299
-670.091	487.005	-0.037	0.086
-669.076	9.234	0.132	-0.101
-668.062	44.765	0.114	0.107
-667.047	-127.186	0.111	0.016
-666.032	-34.297	-0.176	0.098
-665.018	-200.000	-0.071	-0.436
-664.003	20.792	0.276	-0.227
-662.989	71.173	-0.298	-0.313
-661.974	410.828	0.167	0.360
-660.959	-99.374	0.088	0.023
-659.945	-164.710	0.177	-0.008
-658.930	-166.350	0.361	-0.015
-657.916	-83.182	0.158	-0.051
-656.901	63.188	-0.109	-0.111
-655.886	-61.081	-0.364	-0.156
-654.872	227.061	-0.020	0.032
-653.857	26.481	0.058	-0.049
-652.843	-200.000	-0.009	0.259
-651.828	94.917	0.214	0.247
-650.814	-100.774	0.066	-0.016
-649.799	-18.197	-0.072	0.046
-648.784	-200.000	-0.027	0.267
-647.770	-145.748	-0.057	-0.005
-646.755	800.000	-0.069	-0.200
-645.741	264.884	-0.083	0.147
-644.726	-21.728	0.247	-0.152
-643.711	-126.175	0.215	0.033
-642.697	800.000	-0.028	0.119
-641.682	-162.947	-0.277	0.014
-640.668	800.000	0.087	0.284
-639.653	27.866	0.050	-0.042
-638.638	363.653	0.099	-0.201
-637.624	577.777	-0.141	-0.349
-636.609	-200.000	-0.029	0.138
-635.595	22.034	-0.158	-0.131
-634.580	-200.000	-0.077	-0.434
-633.565	-200.000	0.017	0.140
-632.551	-200.000	-0.014	0.463
-631.536	-200.000	0.016	0.078
-630.522	-174.334	0.150	0.004
-629.507	800.000	-0.050	0.156
-628.492	65.289	-0.178	0.182
-627.478	800.000	-0.053	0.208
-626.463	-200.000	0.003	0.165
-625.449	-135.634	0.196	0.024
-624.434	-24.629	0.298	-0.180
-623.419	146.604	0.070	-0.095
-622.405	-87.166	-0.181	0.056
-621.390	-200.000	-0.048	-0.299
-620.376	-143.661	0.338	-0.032
-619.361	800.000	-0.095	-0.269
-618.346	-91.618	0.338	-0.097
-617.332	-16.589	0.027	-0.017
-616.317	-129.908	0.163	0.023
-615.303	800.000	0.082	-0.338
-614.288	150.493	0.097	-0.133
-613.273	-117.064	-0.244	0.045
-612.259	-166.793	0.158	-0.007
-611.244	-79.891	-0.154	0.052
-610.230	-200.000	-0.004	-0.087
-609.215	-41.787	0.429	-0.223
-608.201	800.000	-0.081	0.250
-607.186	-200.000	0.016	0.429
-606.171	27.140	-0.260	-0.221
-605.157	-79.302	-0.350	-0.120
-604.142	126.475	0.029	-0.037
-603.128	-200.000	-0.020	0.102
-602.113	13.349	-0.189	0.148
-601.098	-200.000	0.015	0.159
-600.084	265.556	0.121	0.213
-599.069	470.253	-0.096	0.218
-598.055	-67.235	0.033	-0.013
-597.040	800.000	0.030	0.096
-596.025	302.665	0.014	0.027
-595.011	11.563	0.256	-0.198
-593.996	-73.547	-0.175	0.065
-592.982	-137.785	-0.467	-0.053
-591.967	46.838	0.126	-0.118
-590.952	-90.474	0.104	-0.030
-589.938	-27.179	-0.143	0.084
-588.923	-150.071	-0.258	-0.020
-587.909	31.461	0.087	0.076
-586.894	-200.000	0.000	-0.087
-585.879	5.753	-0.115	-0.086
-584.865	170.768	0.085	0.124
-583.850	62.876	-0.112	-0.113
-582.836	-115.647	-0.150	-0.028
-581.821	-7.524	-0.071	0.048
-580.806	-26.291	-0.431	-0.256
-579.792	-200.000	-0.045	0.268
-578.777	351.346	0.221	-0.442
-577.763	366.366	0.114	-0.232
-576.748	12.968	0.249	-0.194
-575.733	245.268	-0.161	-0.274
-574.719	132.653	0.072	-0.093
-573.704	-87.684	-0.279	0.085
-572.690	-200.000	-0.006	-0.046
-571.675	-53.238	0.396	0.184
-570.661	163.949	0.113	-0.161
-569.646	-200.000	0.002	-0.095
-568.631	-143.568	-0.107	-0.010
-567.617	-81.519	-0.146	-0.049
-566.602	102.857	-0.076	-0.089
-565.588	327.965	0.056	0.109
-564.573	-46.094	-0.365	0.182
-563.558	268.459	0.093	0.164
-562.544	88.750	0.026	-0.029
-561.529	-21.152	-0.189	0.117
-560.515	166.542	0.054	-0.077
-559.500	65.806	-0.047	0.048
-558.485	704.256	-0.094	-0.251
-557.471	53.949	-0.108	0.105
-556.456	-200.000	-0.039	-0.215
-555.442	-200.000	0.061	0.420
-554.427	-64.662	0.173	0.071
-553.412	328.673	-0.148	0.287
-552.398	-200.000	-0.006	-0.093
-551.383	-200.000	0.014	-0.080
-550.369	15.079	-0.061	-0.048
-549.354	109.755	0.116	0.140
-548.339	-120.199	0.348	0.060
-547.325	-154.841	0.175	0.012
-546.310	37.629	-0.101	0.091
-545.296	546.739	-0.101	-0.244
-544.281	-200.000	-0.036	-0.258
-543.266	326.214	-0.086	0.167
-542.252	412.351	0.073	-0.157
-541.237	-91.218	0.507	-0.146
-540.223	209.873	0.106	-0.167
-539.208	-189.119	0.080	0.001
-538.193	26.617	-0.319	-0.269
-537.179	172.518	0.029	0.042
-536.164	-120.072	-0.179	0.031
-535.150	-155.568	0.260	-0.017
-534.135	60.537	0.108	-0.108
-533.121	-200.000	-0.008	0.148
-532.106	78.170	0.125	-0.135
-531.091	-200.000	-0.026	0.168
-530.077	93.006	0.061	0.069
-529.062	24.905	0.067	0.056
-528.048	-37.557	0.228	0.123
-527.033	-44.967	0.322	0.162
-526.018	-200.000	-0.022	0.236
-525.004	346.718	0.114	-0.225
-523.989	-30.264	0.157	-0.090
-522.975	349.255	-0.147	-0.292
-521.960	-200.000	0.041	-0.444
-520.945	800.000	-0.048	-0.200
-519.931	-159.884	-0.206	-0.011
-518.916	-77.878	0.294	0.102
-517.902	-124.690	-0.238	0.037
-516.887	-69.905	0.289	-0.111
-515.872	337.229	0.044	-0.085
-514.858	-9.362	-0.421	0.283
-513.843	139.307	-0.194	0.257
-512.829	601.646	0.082	0.206
-511.814	67.331	-0.163	-0.167
-510.799	-4.475	-0.222	-0.155
-509.785	-148.415	-0.145	-0.012
-508.770	529.815	-0.119	0.284
-507.756	-200.000	-0.016	-0.168
-506.741	258.600	-0.045	0.078
-505.726	-129.539	-0.496	0.069
-504.712	338.676	-0.022	-0.043
-503.697	155.137	-0.222	-0.308
-502.683	-94.267	-0.179	-0.049
-501.668	-136.648	-0.280	0.033
-500.653	35.397	0.248	-0.219
-499.639	-68.955	-0.327	-0.127
-498.624	224.107	-0.081	-0.131
-497.610	91.484	0.104	-0.118
-496.595	301.447	-0.057	0.106
-495.581	800.000	-0.038	0.133
-494.566	-65.848	-0.375	-0.151
-493.551	197.701	0.151	0.232
-492.537	-105.946	-0.260	0.059
-491.522	-76.426	0.150	-0.053
-490.508	-132.355	-0.229	0.030
-489.493	-50.669	0.038	0.018
-488.478	2.325	0.042	0.031
-487.464	-108.013	-0.086	-0.019
-486.449	-200.000	0.008	-0.128
-485.435	257.106	-0.004	-0.007
-484.420	-200.000	0.063	0.409
-483.405	-126.368	0.304	0.046
-482.391	-200.000	0.009	0.140
-481.376	-103.146	0.179	0.043
-480.362	-166.857	0.124	-0.005
-479.347	500.860	-0.233	0.541
-478.332	38.179	-0.052	0.047
-477.318	-73.709	0.147	-0.054
-476.303	461.315	-0.102	-0.229
-475.289	-200.000	-0.050	-0.324
-474.274	234.260	0.150	-0.249
-473.259	-70.744	-0.274	0.104
-472.245	-106.633	-0.199	-0.045
-471.230	249.803	0.131	-0.223
-470.216	-200.000	0.022	-0.295
-469.201	800.000	-0.053	-0.200
-468.186	-12.639	-0.215	0.141
-467.172	-145.106	-0.215	-0.020
-466.157	-80.232	-0.403	-0.136
-465.143	87.155	0.107	0.118
-464.128	-77.532	-0.390	0.136
-463.113	-97.175	0.422	-0.111
-462.099	-105.284	-0.177	-0.041
-461.084	-38.647	-0.139	-0.074
-460.070	-167.778	0.080	0.003
-459.055	-123.020	0.170	-0.028
-458.040	72.837	-0.046	0.048
-457.026	55.738	-0.141	-0.137
-456.011	-200.000	0.048	-0.234
-454.997	-65.273	0.043	0.017
-453.982	140.100	0.278	-0.368
-452.968	800.000	-0.100	0.289
-451.953	-32.387	0.161	0.090
-450.938	-200.000	-0.004	0.042
-449.924	-24.985	0.224	0.133
-448.909	-147.249	0.208	0.018
-447.895	-200.000	-0.010	-0.347
-446.880	-200.000	-0.018	0.177
-445.865	188.335	-0.106	-0.160
-444.851	-40.312	0.267	-0.140
-443.836	68.932	0.108	-0.112
-442.822	-200.000	0.011	-0.072
-441.807	-108.651	0.123	-0.027
-440.792	105.740	0.219	0.260
-439.778	-62.195	-0.048	-0.020
-438.763	526.912	0.091	-0.215
-437.749	-151.977	0.145	0.011
-436.734	-83.956	0.259	0.083
-435.719	-62.379	-0.366	0.153
-434.705	81.330	-0.270	0.293
-433.690	-153.350	0.252	0.018
-432.676	-58.179	0.272	-0.119
-431.661	556.059	0.081	-0.195
-430.646	-200.000	0.005	-0.216
-429.632	51.089	0.337	0.321
-428.617	134.235	-0.258	-0.336
-427.603	44.246	-0.151	-0.139
-426.588	800.000	0.064	0.186
-425.573	-116.734	0.265	0.049
-424.559	-106.073	0.036	-0.008
-423.544	-140.303	0.315	-0.033
-422.530	21.521	-0.196	0.160
-421.515	588.210	-0.098	0.242
-420.500	-8.961	-0.238	-0.160
-419.486	-126.129	0.501	-0.075
-418.471	800.000	0.098	-0.279
-417.457	-200.000	-0.002	-0.075
-416.442	385.621	-0.140	0.290
-415.428	-92.777	0.143	0.040
-414.413	96.999	-0.030	-0.035
-413.398	-106.743	0.285	-0.064
-412.384	-3.056	-0.352	-0.246
-411.369	-43.668	-0.271	-0.137
-410.355	-200.000	0.009	-0.196
-409.340	800.000	0.061	0.207
-408.325	-134.766	-0.175	0.021
-407.311	509.850	-0.063	0.146
-406.296	-114.463	-0.153	0.029
-405.282	800.000	0.062	-0.194
-404.267	-200.000	-0.020	-0.098
-403.252	-160.112	-0.148	0.008
-402.238	-35.653	0.057	-0.031
-401.223	-92.333	0.188	-0.053
-400.209	215.507	-0.118	-0.188
-399.194	-83.337	0.050	0.016
-398.179	17.837	0.208	0.166
-397.165	-100.742	-0.159	-0.039
-396.150	-148.544	0.157	-0.013
-395.136	145.041	0.022	0.030
-394.121	288.359	0.198	0.360
-393.106	114.576	-0.141	0.172
-392.092	-200.000	0.110	0.498
-391.077	40.810	0.315	0.285
-390.063	-99.347	0.228	0.058
-389.048	-18.789	0.331	-0.207
-388.033	-116.916	0.085	0.016
-387.019	30.431	-0.101	-0.087
-386.004	-151.914	-0.123	-0.009
-384.990	-11.265	-0.402	-0.265
-383.975	800.000	-0.047	-0.161
-382.960	-100.934	0.147	-0.036
-381.946	36.548	0.286	-0.253
-380.931	-200.000	0.029	0.150
-379.917	-36.738	-0.186	0.100
-378.902	7.875	0.173	-0.130
-377.888	222.401	0.137	-0.222
-376.873	8.341	-0.094	-0.071
-375.858	46.079	-0.091	-0.085
-374.844	40.935	0.202	0.182
-373.829	68.437	0.224	-0.230
-372.815	-29.537	-0.100	-0.057
-371.800	-200.000	-0.056	-0.302
-370.785	10.109	0.240	0.182
-369.771	413.523	0.151	-0.322
-368.756	637.550	0.104	0.264
-367.742	373.974	-0.110	-0.224
-366.727	35.777	0.328	0.289
-365.712	39.315	0.031	0.028
-364.698	130.228	-0.009	-0.011
-363.683	28.174	0.062	-0.053
-362.669	-62.848	-0.216	-0.090
-361.654	-92.580	-0.419	-0.118
-360.639	-159.442	0.126	0.007
-359.625	-113.956	-0.180	0.035
-358.610	301.191	0.196	0.363
-357.596	-9.984	0.070	0.047
-356.581	616.461	-0.142	0.356
-355.566	-122.028	-0.092	-0.015
-354.552	-89.496	-0.208	-0.061
-353.537	-134.378	-0.210	0.026
-352.523	-200.000	0.014	-0.316
-351.508	-27.941	-0.353	-0.205
-350.493	-26.333	-0.301	-0.177
-349.479	-4.182	0.323	0.224
-348.464	-133.672	-0.376	-0.047
-347.450	36.539	-0.169	-0.149
-346.435	-42.247	-0.135	-0.069
-345.420	449.252	-0.105	0.231
-344.406	226.297	0.191	-0.310
-343.391	89.881	0.152	-0.170
-342.377	-43.877	-0.303	0.152
-341.362	-53.505	0.121	0.055
-340.348	76.011	0.108	-0.114
-339.333	-199.953	-0.431	-0.002
-338.318	-200.000	-0.040	0.217
-337.304	84.228	-0.106	0.116
-336.289	360.906	-0.070	0.140
-335.275	-78.614	0.120	0.041
-334.260	359.101	-0.171	0.343
-333.245	-200.000	0.033	0.279
-332.231	60.073	0.274	-0.271
-331.216	354.580	-0.092	-0.182
-330.202	492.961	-0.102	-0.233
-329.187	341.683	-0.067	0.131
-328.172	-170.763	-0.131	0.005
-327.158	129.480	0.315	-0.402
-326.143	-59.114	-0.091	-0.039
-325.129	334.653	-0.038	0.073
-324.114	11.231	0.264	-0.202
-323.099	143.379	-0.091	0.122
-322.085	-48.824	-0.177	-0.085
-321.070	371.504	-0.045	-0.092
-320.056	-200.000	-0.013	0.076
-319.041	-0.834	0.302	-0.214
-318.026	-110.248	0.141	0.029
-317.012	-151.900	0.228	-0.017
-315.997	239.435	-0.157	-0.262
-314.983	150.586	0.283	0.385
-313.968	-76.404	-0.227	-0.080
-312.953	193.213	0.240	-0.363
-311.939	-141.581	0.166	-0.017
-310.924	126.118	-0.025	-0.031
-309.910	79.395	0.184	0.198
-308.895	-74.171	0.281	0.102
-307.880	-57.837	0.116	0.051
-306.866	-131.590	0.287	-0.038
-305.851	199.649	0.141	-0.216
-304.837	-97.677	0.093	-0.024
-303.822	189.342	-0.146	0.219
-302.807	-39.739	-0.373	-0.195
-301.793	800.000	0.041	0.159
-300.778	405.704	-0.153	0.322
-299.764	12.072	-0.120	-0.093
-298.749	-40.919	-0.244	-0.126
-297.735	-200.000	0.013	0.127
-296.720	122.839	-0.044	0.055
-295.705	3.420	0.030	-0.022
-294.691	565.674	-0.138	0.335
-293.676	37.086	0.194	0.172
-292.662	0.468	0.298	0.213
-291.647	-12.153	-0.185	0.121
-290.632	-42.041	0.208	0.106
-289.618	-200.000	-0.011	-0.070
-288.603	158.792	-0.067	0.094
-287.589	-150.229	-0.193	-0.015
-286.574	-53.732	-0.211	-0.096
-285.559	74.573	-0.199	-0.209
-284.545	129.485	0.115	-0.146
-283.530	800.000	-0.039	-0.115
-282.516	-46.077	-0.183	0.090
-281.501	84.847	0.020	-0.022
-280.486	142.003	0.181	0.239
-279.472	-102.151	-0.031	-0.007
-278.457	124.265	-0.026	0.032
-277.443	188.987	-0.048	-0.072
-276.428	-154.264	0.144	-0.010
-275.413	800.000	-0.054	-0.171
-274.399	-8.426	0.328	0.220
-273.384	606.764	-0.162	-0.403
-272.370	68.091	0.063	-0.064
-271.355	189.378	0.088	-0.132
-270.340	14.496	0.169	0.132
-269.326	743.306	0.113	0.303
-268.311	800.000	0.025	0.085
-267.297	-200.000	0.008	-0.115
-266.282	800.000	-0.034	0.109
-265.267	-41.902	0.130	-0.066
-264.253	120.513	0.099	0.122
-263.238	218.414	0.058	0.093
-262.224	-153.791	0.342	0.023
-261.209	-33.257	0.060	-0.033
-260.195	800.000	0.034	0.146
-259.180	-200.000	-0.003	-0.179
-258.165	-169.945	0.098	0.003
-257.151	-165.855	0.251	0.011
-256.136	92.554	0.190	0.214
-255.122	-152.269	-0.108	0.008
-254.107	-200.000	-0.036	0.190
-253.092	-81.531	0.126	0.041
-252.078	-96.245	-0.348	0.092
-251.063	-200.000	0.009	0.068
-250.049	350.608	-0.124	0.244
-249.034	800.000	-0.060	0.205
-248.019	-147.194	0.228	0.019
-247.005	40.862	0.219	0.197
-245.990	-129.058	-0.175	0.024
-244.976	685.886	-0.176	0.458
-243.961	-72.870	0.080	0.029
-242.946	-133.446	-0.126	0.016
-241.932	-143.789	-0.234	-0.022
-240.917	-54.568	0.078	-0.035
-239.903	800.000	-0.095	0.262
-238.888	-38.386	0.075	0.040
-237.873	324.208	0.042	0.079
-236.859	-47.744	-0.076	-0.037
-235.844	95.457	0.105	0.119
-234.830	387.733	-0.095	0.196
-233.815	-59.442	-0.303	-0.130
-232.800	800.000	-0.078	-0.294
-231.786	217.914	-0.150	-0.238
-230.771	37.848	-0.120	-0.106
-229.757	35.804	0.179	0.156
-228.742	-105.338	-0.297	0.067
-227.727	-99.731	0.053	-0.013
-226.713	800.000	-0.109	-0.358
-225.698	-85.295	0.233	0.073
-224.684	81.772	-0.203	0.219
-223.669	72.311	0.238	-0.248
-222.655	-60.739	0.378	-0.159
-221.640	-26.723	0.032	-0.019
-220.625	-200.000	0.012	-0.207
-219.611	-200.000	0.061	0.313
-218.596	0.825	-0.055	0.039
-217.582	-164.193	-0.196	-0.009
-216.567	-89.026	-0.188	-0.055
-215.552	294.946	-0.191	0.348
-214.538	193.238	0.138	0.208
-213.523	-96.586	0.140	-0.037
-212.509	-200.000	0.057	0.335
-211.494	-156.776	0.238	-0.015
-210.479	-143.937	-0.053	0.005
-209.465	33.174	0.221	0.191
-208.450	800.000	-0.057	-0.214
-207.436	199.129	0.168	-0.256
-206.421	-66.041	-0.155	-0.062
-205.406	263.866	0.240	0.416
-204.392	-77.766	-0.263	-0.091
-203.377	155.942	-0.121	-0.166
-202.363	-200.000	-0.012	0.109
-201.348	800.000	0.115	0.353
-200.333	-44.320	-0.128	0.064
-199.319	-84.397	0.122	0.038
-198.304	-177.279	0.081	0.002
-197.290	-200.000	-0.013	0.081
-196.275	-200.000	-0.022	-0.400
-195.260	13.221	-0.359	0.277
-194.246	406.853	0.077	0.161
-193.231	345.045	0.091	-0.178
-192.217	-108.174	-0.287	-0.062
-191.202	800.000	0.084	0.244
-190.187	540.804	-0.076	0.179
-189.173	-62.286	-0.144	-0.060
-188.158	-17.592	0.095	0.060
-187.144	131.157	0.169	0.215
-186.129	602.157	-0.045	-0.111
-185.114	25.443	-0.104	0.086
-184.100	-120.643	0.187	0.031
-183.085	504.366	0.104	0.238
-182.071	-48.558	0.075	-0.036
-181.056	383.660	0.062	-0.127
-180.042	319.006	-0.115	-0.217
-179.027	-51.547	0.051	-0.024
-178.012	800.000	0.042	-0.125
-176.998	-200.000	-0.044	-0.420
-175.983	143.524	0.096	0.128
-174.969	800.000	0.067	0.228
-173.954	667.154	-0.047	-0.121
-172.939	14.789	-0.112	0.087
-171.925	-200.000	0.003	0.048
-170.910	-200.000	0.046	0.304
-169.896	-147.993	0.112	0.009
-168.881	-149.712	0.440	0.034
-167.866	411.424	0.148	-0.312
-166.852	800.000	0.018	0.064
-165.837	101.041	0.160	0.185
-164.823	42.144	-0.223	0.202
-163.808	37.863	-0.052	0.046
-162.793	82.886	0.070	0.076
-161.779	194.511	-0.232	-0.350
-160.764	800.000	-0.042	-0.118
-159.750	-200.000	0.002	0.672
-158.735	-200.000	0.036	0.190
-157.720	-66.769	-0.327	-0.128
-156.706	-200.000	0.011	-0.344
-155.691	-110.252	-0.231	0.048
-154.677	-36.388	-0.324	0.173
-153.662	-200.000	-0.037	-0.356
-152.647	-25.774	-0.056	-0.033
-151.633	-20.260	0.217	-0.133
-150.618	-70.486	-0.122	0.046
-149.604	-122.514	0.307	0.050
-148.589	800.000	0.060	-0.225
-147.574	-26.341	-0.259	0.151
-146.560	-47.307	-0.167	-0.081
-145.545	29.636	-0.138	0.117
-144.531	368.605	-0.241	-0.484
-143.516	-200.000	0.005	0.083
-142.502	-91.472	-0.208	-0.059
-141.487	-144.224	0.321	-0.030
-140.472	145.015	-0.131	-0.174
-139.458	-129.784	-0.325	0.044
-138.443	416.934	0.100	-0.212
-137.429	-140.958	0.560	-0.057
-136.414	-62.384	-0.294	-0.121
-135.399	-191.247	-0.139	-0.001
-134.385	800.000	0.048	0.188
-133.370	-71.224	0.187	0.070
-132.356	456.155	0.110	-0.242
-131.341	62.095	-0.427	-0.423
-130.326	-161.552	-0.264	-0.013
-129.312	-200.000	-0.077	-0.348
-128.297	357.285	0.030	-0.060
-127.283	62.172	0.083	0.082
-126.268	127.842	-0.217	0.273
-125.253	642.991	-0.100	-0.253
-124.239	43.516	0.048	-0.043
-123.224	-125.189	-0.219	-0.033
-122.210	-76.889	0.124	-0.043
