DTS Sentinel unit serial number:	SN413079Multiplexer serial number:	ORYXHardware model number:	OX4-SRSoftware version number:	ORYX F/W v4.00 Oryx Data Collector v3.7.2.0data status	okinstallation	princeton_trtdifferential loss correction	single-endedforward channel	channel 1reverse channel	N/Adate	2019/09/11time	06:12:11forward acquisition time	60.00reverse acquisition time	0.00gamma	496.2192k internal	0.2331k external	0.2331temperature offset calibration	0.9924default loss term (dB/km)	0.3790temperature slope calibration	1.0000multiplexer offset coefficient	1.0000multiplexer slope coefficient	1.0000fibre end	0.00T internal ref (°C)	29.50T ext. ref 1 (°C)	-0.23T ext. ref 2 (°C)	23.75length (m)	temperature (°C)	Stokes	anti-Stokes-747.200	293.595	-0.073	0.134
-746.185	-143.619	-0.222	-0.021
-745.171	-56.200	-0.132	0.059
-744.156	-71.896	-0.358	-0.134
-743.142	-132.551	0.286	-0.037
-742.127	-200.000	0.016	-0.333
-741.112	137.259	0.176	-0.231
-740.098	-200.000	-0.039	0.183
-739.083	-129.713	-0.208	0.029
-738.069	61.159	-0.186	0.186
-737.054	114.290	0.071	0.087
-736.039	96.964	-0.294	0.339
-735.025	-66.029	0.439	0.176
-734.010	-200.000	0.006	-0.262
-732.996	-200.000	0.007	-0.448
-731.981	780.131	-0.073	-0.200
-730.966	-59.340	-0.283	-0.122
-729.952	-192.201	-0.245	0.002
-728.937	756.480	-0.158	0.431
-727.923	-103.308	-0.314	0.074
-726.908	-200.000	0.007	0.067
-725.894	-106.689	0.338	0.075
-724.879	55.146	-0.030	-0.029
-723.864	26.350	-0.277	0.233
-722.850	87.439	-0.275	0.306
-721.835	-82.279	-0.142	0.046
-720.821	-66.226	-0.178	-0.071
-719.806	-200.000	0.003	-0.335
-718.791	234.627	0.179	-0.297
-717.777	-118.984	0.126	-0.022
-716.762	-85.772	-0.065	0.020
-715.748	-169.408	0.003	0.000
-714.733	-126.680	-0.320	-0.048
-713.718	272.006	-0.182	-0.323
-712.704	-200.000	0.011	0.123
-711.689	-39.222	0.066	-0.035
-710.675	-52.573	0.227	-0.105
-709.660	-112.062	0.111	0.023
-708.645	-200.000	0.025	-0.227
-707.631	-200.000	-0.043	-0.441
-706.616	-200.000	-0.062	-0.316
-705.602	-200.000	-0.005	-0.392
-704.587	58.472	0.122	-0.120
-703.572	-37.109	-0.086	0.046
-702.558	-200.000	-0.000	0.103
-701.543	-153.925	-0.242	0.017
-700.529	-200.000	-0.030	0.400
-699.514	1.504	-0.204	0.148
-698.499	-200.000	0.043	0.295
-697.485	17.277	0.251	-0.200
-696.470	-54.375	-0.306	-0.139
-695.456	17.150	-0.103	-0.082
-694.441	53.395	0.263	-0.253
-693.426	-33.387	0.159	0.088
-692.412	-200.000	0.022	0.166
-691.397	132.616	-0.447	-0.580
-690.383	-200.000	-0.012	-0.321
-689.368	-48.523	-0.107	-0.052
-688.354	127.554	0.131	0.167
-687.339	-67.233	0.149	0.059
-686.324	-200.000	0.069	0.410
-685.310	149.504	-0.139	-0.189
-684.295	-168.653	0.041	0.002
-683.281	-200.000	-0.062	-0.326
-682.266	-75.192	-0.301	0.108
-681.251	97.002	0.196	0.225
-680.237	-10.449	-0.181	-0.121
-679.222	-176.553	-0.357	-0.009
-678.208	-58.873	0.205	-0.089
-677.193	-65.744	0.281	0.113
-676.178	-200.000	0.016	0.233
-675.164	-200.000	-0.040	-0.336
-674.149	-55.051	0.093	-0.042
-673.135	-64.018	0.028	0.011
-672.120	-4.609	0.293	0.203
-671.105	-200.000	-0.098	0.616
-670.091	430.395	-0.062	-0.135
-669.076	800.000	0.063	-0.221
-668.062	-49.574	0.030	-0.014
-667.047	-53.518	-0.073	-0.034
-666.032	-155.727	-0.202	-0.013
-665.018	-20.981	-0.197	-0.121
-664.003	800.000	0.072	-0.258
-662.989	-86.802	0.185	-0.057
-661.974	-36.892	-0.103	0.055
-660.959	3.034	-0.099	-0.072
-659.945	541.043	-0.048	-0.114
-658.930	800.000	0.072	0.227
-657.916	528.630	-0.127	0.301
-656.901	408.591	-0.215	-0.457
-655.886	43.879	-0.213	-0.196
-654.872	800.000	-0.094	-0.275
-653.857	800.000	-0.216	-0.745
-652.843	-24.604	0.152	-0.091
-651.828	301.888	0.159	0.294
-650.814	-176.506	0.171	0.004
-649.799	-200.000	-0.067	-0.584
-648.784	309.324	-0.107	0.200
-647.770	-200.000	-0.065	-0.386
-646.755	66.550	-0.123	0.125
-645.741	75.426	-0.241	-0.255
-644.726	23.319	0.170	0.140
-643.711	187.930	0.048	-0.073
-642.697	103.303	-0.118	-0.139
-641.682	-200.000	0.004	0.199
-640.668	-200.000	-0.115	-0.516
-639.653	-20.759	-0.312	-0.192
-638.638	280.331	-0.126	-0.226
-637.624	312.100	-0.067	0.126
-636.609	-158.927	0.112	-0.006
-635.595	55.013	-0.151	0.147
-634.580	363.663	0.137	-0.275
-633.565	-200.000	-0.036	0.382
-632.551	635.723	0.091	0.233
-631.536	298.174	-0.017	-0.031
-630.522	800.000	0.011	0.049
-629.507	-45.219	-0.307	-0.153
-628.492	-99.401	-0.177	0.045
-627.478	91.882	0.187	0.211
-626.463	-200.000	0.021	0.183
-625.449	-144.426	-0.349	0.032
-624.434	89.807	0.209	-0.233
-623.419	-19.200	-0.211	-0.131
-622.405	800.000	0.032	0.091
-621.390	800.000	0.108	0.316
-620.376	800.000	-0.023	-0.081
-619.361	-200.000	0.025	0.277
-618.346	607.948	0.016	0.040
-617.332	-200.000	-0.069	-0.378
-616.317	385.501	-0.018	-0.037
-615.303	800.000	-0.051	0.184
-614.288	288.382	0.164	0.298
-613.273	-200.000	-0.028	-0.326
-612.259	334.153	-0.090	0.174
-611.244	110.244	0.241	0.290
-610.230	-171.372	0.114	0.004
-609.215	295.589	-0.039	-0.072
-608.201	2.653	0.490	-0.355
-607.186	8.910	0.139	0.105
-606.171	-102.494	0.495	0.118
-605.157	-200.000	-0.034	0.207
-604.142	800.000	-0.128	0.412
-603.128	108.147	-0.255	-0.304
-602.113	281.044	0.090	0.162
-601.098	72.276	-0.078	0.081
-600.084	100.071	-0.217	0.251
-599.069	800.000	-0.056	-0.189
-598.055	-111.808	-0.300	0.061
-597.040	-200.000	0.005	0.096
-596.025	-19.798	-0.153	-0.094
-595.011	101.197	0.112	0.131
-593.996	800.000	-0.131	-0.415
-592.982	-100.410	0.083	0.021
-591.967	29.618	0.244	-0.207
-590.952	-135.011	-0.284	-0.034
-589.938	22.980	-0.261	0.214
-588.923	445.602	0.075	0.165
-587.909	513.650	-0.102	0.239
-586.894	-200.000	0.003	-0.405
-585.879	-15.538	0.220	-0.141
-584.865	-93.959	-0.308	-0.085
-583.850	-163.072	0.257	0.012
-582.836	69.646	0.207	-0.214
-581.821	-18.709	-0.106	0.066
-580.806	-13.474	0.232	0.150
-579.792	-102.539	-0.256	0.061
-578.777	-158.514	0.179	0.010
-577.763	252.241	-0.048	0.082
-576.748	52.488	0.148	-0.142
-575.733	-88.678	0.339	0.101
-574.719	458.248	0.115	-0.255
-573.704	-200.000	-0.026	-0.330
-572.690	71.487	-0.052	-0.054
-571.675	-167.495	-0.064	-0.003
-570.661	-89.115	0.216	-0.064
-569.646	-200.000	-0.044	0.242
-568.631	57.593	-0.113	0.111
-567.617	-124.821	-0.206	0.032
-566.602	246.928	-0.098	0.165
-565.588	-6.609	0.364	0.248
-564.573	31.385	-0.173	-0.148
-563.558	467.721	-0.119	-0.267
-562.544	78.562	-0.068	-0.073
-561.529	117.535	-0.285	-0.351
-560.515	219.308	0.133	-0.213
-559.500	195.922	-0.117	0.178
-558.485	-200.000	0.027	-0.284
-557.471	7.103	0.137	-0.102
-556.456	-200.000	-0.015	-0.373
-555.442	44.558	-0.220	-0.202
-554.427	-200.000	-0.011	0.413
-553.412	-103.405	0.363	-0.085
-552.398	-112.519	-0.463	0.092
-551.383	12.746	-0.330	0.255
-550.369	91.345	-0.110	0.123
-549.354	363.824	-0.161	-0.322
-548.339	-59.266	-0.361	-0.155
-547.325	-162.164	0.172	-0.009
-546.310	-86.576	-0.346	-0.106
-545.296	-55.789	-0.098	0.044
-544.281	-60.742	-0.192	-0.081
-543.266	41.525	0.098	0.089
-542.252	81.908	0.089	0.096
-541.237	-39.351	0.159	0.083
-540.223	-200.000	-0.008	-0.257
-539.208	-200.000	0.010	-0.301
-538.193	800.000	-0.054	-0.182
-537.179	-200.000	-0.049	0.333
-536.164	333.844	-0.104	-0.200
-535.150	-142.595	-0.349	0.034
-534.135	128.994	0.197	0.251
-533.121	138.445	-0.059	0.078
-532.106	-88.230	0.336	-0.100
-531.091	-137.827	0.253	0.028
-530.077	351.602	-0.181	-0.358
-529.062	800.000	-0.048	-0.163
-528.048	-187.448	0.184	0.002
-527.033	-200.000	-0.014	0.534
-526.018	-200.000	-0.453	0.002
-525.004	-170.302	-0.284	-0.010
-523.989	26.821	-0.049	0.041
-522.975	-38.808	0.083	0.044
-521.960	86.997	0.143	-0.158
-520.945	-200.000	-0.009	0.271
-519.931	800.000	-0.067	-0.206
-518.916	99.292	0.087	0.101
-517.902	7.702	-0.117	-0.087
-516.887	11.123	-0.150	0.114
-515.872	-46.240	-0.138	-0.068
-514.858	-19.552	0.211	0.131
-513.843	274.642	0.027	0.048
-512.829	-47.636	-0.056	0.027
-511.814	-199.583	0.128	-0.001
-510.799	-47.814	-0.110	0.053
-509.785	800.000	-0.042	-0.162
-508.770	-66.038	-0.032	0.013
-507.756	104.096	0.195	0.228
-506.741	800.000	0.066	0.255
-505.726	-75.294	0.224	0.080
-504.712	205.539	-0.183	0.283
-503.697	-101.774	-0.478	0.115
-502.683	-14.162	0.216	-0.139
-501.668	342.452	0.043	0.084
-500.653	-20.654	-0.261	0.160
-499.639	59.643	-0.221	-0.217
-498.624	177.044	-0.116	0.169
-497.610	78.384	0.302	0.322
-496.595	-154.285	0.159	-0.011
-495.581	-41.966	-0.026	-0.013
-494.566	-73.916	0.277	0.100
-493.551	-81.869	0.171	-0.056
-492.537	168.153	-0.115	0.163
-491.522	25.978	0.253	-0.210
-490.508	77.011	-0.089	0.094
-489.493	800.000	0.065	0.254
-488.478	121.001	-0.205	-0.254
-487.464	77.317	-0.167	-0.177
-486.449	-200.000	-0.013	-0.092
-485.435	210.692	0.105	-0.164
-484.420	800.000	-0.020	0.062
-483.405	279.416	-0.047	-0.083
-482.391	21.289	-0.264	-0.214
-481.376	21.111	0.068	0.055
-480.362	250.295	-0.156	-0.264
-479.347	-113.189	0.185	-0.036
-478.332	77.856	-0.167	-0.178
-477.318	70.399	-0.113	0.116
-476.303	-45.909	0.595	-0.293
-475.289	-157.360	0.080	0.005
-474.274	-73.745	-0.036	0.013
-473.259	-78.465	0.202	0.069
-472.245	350.429	0.048	0.094
-471.230	800.000	0.028	0.092
-470.216	531.131	-0.168	-0.396
-469.201	34.604	0.080	0.070
-468.186	4.871	0.137	0.100
-467.172	-166.939	-0.057	0.002
-466.157	157.193	-0.168	0.232
-465.143	-200.000	0.014	-0.134
-464.128	-83.765	-0.219	-0.070
-463.113	321.655	0.109	0.207
-462.099	-200.000	0.037	0.217
-461.084	-200.000	-0.012	0.117
-460.070	-77.236	0.102	-0.035
-459.055	11.004	0.088	-0.067
-458.040	-149.754	-0.222	-0.017
-457.026	123.905	0.284	0.355
-456.011	-10.914	0.429	-0.282
-454.997	-200.000	-0.006	0.039
-453.982	-46.715	-0.280	0.136
-452.968	-11.795	-0.086	0.056
-451.953	-86.730	-0.161	-0.049
-450.938	800.000	0.107	0.363
-449.924	84.645	0.112	0.122
-448.909	73.382	-0.106	0.110
-447.895	-119.669	-0.153	-0.026
-446.880	-48.533	-0.270	0.129
-445.865	71.136	-0.157	0.162
-444.851	-119.318	-0.192	-0.033
-443.836	-115.567	0.024	-0.004
-442.822	-73.524	-0.489	-0.177
-441.807	419.192	0.034	0.071
-440.792	-200.000	-0.052	0.333
-439.778	-200.000	-0.034	0.254
-438.763	-88.124	0.101	-0.030
-437.749	-90.171	0.077	-0.022
-436.734	-200.000	-0.028	0.317
-435.719	18.788	0.183	0.146
-434.705	-46.527	0.152	-0.074
-433.690	234.264	-0.041	-0.068
-432.676	-200.000	0.059	0.545
-431.661	-200.000	-0.000	-0.313
-430.646	726.297	-0.127	-0.338
-429.632	-200.000	-0.006	-0.123
-428.617	493.285	-0.077	-0.177
-427.603	800.000	-0.023	-0.082
-426.588	-200.000	-0.004	0.078
-425.573	19.232	0.125	-0.100
-424.559	-151.877	0.266	0.019
-423.544	-112.745	-0.079	-0.016
-422.530	3.124	-0.180	-0.130
-421.515	19.585	-0.183	0.146
-420.500	800.000	-0.049	0.182
-419.486	12.872	0.197	-0.151
-418.471	-25.622	-0.103	0.060
-417.457	-73.530	0.270	0.098
-416.442	428.815	-0.085	0.182
-415.428	800.000	-0.043	-0.175
-414.413	119.969	-0.154	-0.189
-413.398	10.119	-0.278	-0.210
-412.384	-124.940	0.263	-0.040
-411.369	-36.770	-0.175	0.093
-410.355	30.934	0.152	-0.129
-409.340	-200.000	-0.039	-0.186
-408.325	57.529	-0.210	0.204
-407.311	94.615	-0.189	0.213
-406.296	-59.314	0.148	0.063
-405.282	-14.653	-0.132	0.084
-404.267	-116.896	0.528	0.096
-403.252	-200.000	0.009	-0.412
-402.238	81.755	0.053	0.057
-401.223	144.889	-0.026	-0.035
-400.209	-23.934	-0.178	-0.106
-399.194	-23.544	0.039	-0.023
-398.179	-200.000	0.031	0.260
-397.165	-44.552	-0.109	-0.054
-396.150	193.783	-0.151	-0.227
-395.136	-14.681	-0.049	-0.031
-394.121	-200.000	-0.065	0.338
-393.106	-200.000	-0.004	0.196
-392.092	56.341	0.085	0.082
-391.077	-135.441	-0.269	-0.032
-390.063	-200.000	-0.001	-0.207
-389.048	181.733	-0.033	-0.049
-388.033	-47.311	-0.169	-0.082
-387.019	-200.000	-0.066	0.319
-386.004	213.571	-0.133	0.209
-384.990	-125.033	0.092	-0.014
-383.975	-63.122	0.217	-0.089
-382.960	800.000	-0.078	-0.310
-381.946	148.311	0.047	-0.063
-380.931	800.000	0.028	0.091
-379.917	-90.753	0.165	0.047
-378.902	-200.000	0.039	0.310
-377.888	-143.365	-0.174	0.017
-376.873	-116.847	-0.225	-0.041
-375.858	59.968	-0.035	-0.034
-374.844	337.921	0.089	0.171
-373.829	-86.843	-0.174	0.053
-372.815	170.724	-0.063	-0.089
-371.800	800.000	0.108	-0.340
-370.785	205.811	0.207	-0.320
-369.771	10.432	0.101	0.077
-368.756	184.539	0.129	-0.190
-367.742	-177.141	0.039	0.001
-366.727	271.022	-0.033	-0.057
-365.712	-200.000	0.034	-0.153
-364.698	427.669	0.074	-0.159
-363.683	-82.899	-0.132	0.042
-362.669	-200.000	0.002	0.101
-361.654	525.000	-0.131	0.306
-360.639	-103.666	0.266	-0.062
-359.625	42.384	0.154	0.139
-358.610	-200.000	-0.007	0.222
-357.596	-137.102	0.577	-0.065
-356.581	42.861	-0.183	0.165
-355.566	-200.000	-0.015	0.325
-354.552	-200.000	-0.010	0.124
-353.537	-200.000	-0.016	0.164
-352.523	234.991	-0.178	-0.291
-351.508	-75.849	-0.254	0.089
-350.493	503.461	-0.087	0.198
-349.479	109.345	0.203	0.241
-348.464	-63.575	-0.103	0.042
-347.450	7.363	0.061	-0.045
-346.435	800.000	0.046	0.175
-345.420	737.787	0.036	-0.095
-344.406	150.449	-0.153	-0.206
-343.391	36.407	-0.146	-0.127
-342.377	-105.055	-0.070	-0.016
-341.362	4.209	0.231	-0.168
-340.348	-200.000	0.012	0.056
-339.333	23.144	-0.284	0.231
-338.318	465.695	0.085	-0.190
-337.304	-22.237	0.307	0.185
-336.289	43.693	-0.331	0.300
-335.275	-87.225	-0.251	0.075
-334.260	-200.000	-0.033	0.232
-333.245	-19.223	-0.066	0.041
-332.231	-98.453	0.312	0.079
-331.216	-122.560	0.056	-0.009
-330.202	226.364	0.296	-0.475
-329.187	800.000	0.036	-0.111
-328.172	-200.000	-0.001	0.158
-327.158	-109.275	0.387	0.081
-326.143	-117.937	-0.356	-0.063
-325.129	53.337	0.141	-0.134
-324.114	228.245	0.069	0.111
-323.099	-20.921	0.201	-0.122
-322.085	-200.000	0.022	-0.336
-321.070	64.210	-0.198	-0.197
-320.056	-170.245	0.254	0.009
-319.041	-32.446	-0.178	0.098
-318.026	32.685	0.188	0.161
-317.012	-200.000	0.015	0.159
-315.997	-184.739	0.152	-0.002
-314.983	-162.947	-0.141	0.007
-313.968	145.646	-0.156	-0.207
-312.953	278.109	0.098	-0.173
-311.939	-48.215	0.122	-0.058
-310.924	2.319	0.084	-0.060
-309.910	-71.636	-0.377	0.139
-308.895	-8.331	0.053	0.035
-307.880	-74.010	-0.303	0.109
-306.866	308.185	0.135	-0.250
-305.851	-87.958	0.467	-0.139
-304.837	-200.000	0.054	-0.356
-303.822	800.000	-0.059	-0.209
-302.807	-200.000	0.051	0.256
-301.793	83.234	0.080	-0.087
-300.778	446.050	-0.088	0.191
-299.764	170.765	0.214	-0.303
-298.749	-200.000	-0.095	0.000
-297.735	314.588	-0.079	0.148
-296.720	-69.923	0.125	-0.047
-295.705	42.918	0.323	-0.291
-294.691	-168.673	0.176	0.007
-293.676	-33.580	0.039	0.021
-292.662	-9.429	0.304	-0.201
-291.647	-25.339	-0.491	-0.287
-290.632	-200.000	0.024	-0.407
-289.618	-168.077	0.201	-0.008
-288.603	9.068	-0.211	0.158
-287.589	112.719	0.288	0.344
-286.574	10.545	-0.246	0.186
-285.559	-41.909	-0.198	-0.100
-284.545	-200.000	0.005	0.087
-283.530	-200.000	0.068	0.474
-282.516	104.263	0.155	0.181
-281.501	-200.000	0.033	0.396
-280.486	31.961	-0.120	0.102
-279.472	-7.229	0.226	0.151
-278.457	-200.000	0.017	-0.246
-277.443	30.016	-0.306	-0.258
-276.428	800.000	-0.008	-0.024
-275.413	0.177	0.259	-0.183
-274.399	-168.348	-0.170	0.006
-273.384	-200.000	-0.018	0.112
-272.370	-182.940	0.012	-0.000
-271.355	-98.598	-0.177	0.045
-270.340	-200.000	0.019	0.103
-269.326	184.909	0.091	0.133
-268.311	21.306	-0.134	-0.107
-267.297	-112.404	-0.167	-0.033
-266.282	83.128	0.209	-0.224
-265.267	-200.000	-0.050	-0.434
-264.253	128.243	0.206	0.259
-263.238	-200.000	-0.008	0.055
-262.224	-35.825	-0.140	0.075
-261.209	-191.190	0.076	-0.001
-260.195	-200.000	-0.032	0.205
-259.180	800.000	-0.056	-0.177
-258.165	56.450	0.244	-0.234
-257.151	-56.240	-0.326	-0.143
-256.136	-200.000	-0.013	-0.079
-255.122	288.638	0.064	0.114
-254.107	-12.092	0.304	-0.196
-253.092	500.148	-0.022	-0.050
-252.078	34.850	0.329	-0.284
-251.063	-115.873	0.413	-0.076
-250.049	16.602	0.255	0.199
-249.034	-76.905	0.401	-0.138
-248.019	-184.312	0.407	0.007
-247.005	-164.804	0.284	0.013
-245.990	800.000	0.087	-0.289
-244.976	338.581	0.175	-0.337
-243.961	-45.551	-0.159	0.078
-242.946	-200.000	-0.064	-0.359
-241.932	800.000	-0.052	0.209
-240.917	352.828	0.066	0.128
-239.903	-200.000	0.019	0.288
-238.888	800.000	-0.064	-0.242
-237.873	-30.221	-0.324	0.181
-236.859	-200.000	0.010	-0.096
-235.844	46.361	-0.213	0.195
-234.830	-80.765	-0.189	-0.062
-233.815	-83.459	-0.347	0.110
-232.800	48.141	0.118	0.109
-231.786	-200.000	-0.003	0.158
-230.771	570.422	0.057	0.136
-229.757	90.379	-0.112	-0.123
-228.742	362.128	-0.124	0.244
-227.727	-61.991	-0.073	-0.030
-226.713	-62.358	0.012	-0.005
-225.698	-200.000	0.004	0.077
-224.684	-83.950	-0.119	0.037
-223.669	-26.948	-0.223	0.128
-222.655	-200.000	0.010	-0.066
-221.640	386.801	-0.069	0.140
-220.625	-27.039	-0.214	0.123
-219.611	-100.313	0.461	0.113
-218.596	800.000	-0.102	-0.288
-217.582	34.496	0.059	0.051
-216.567	332.458	0.096	0.182
-215.552	292.553	-0.096	-0.173
-214.538	-111.416	-0.181	0.036
-213.523	-171.395	-0.250	0.008
-212.509	-47.314	0.155	-0.074
-211.494	-66.977	0.122	-0.047
-210.479	103.323	0.397	-0.459
-209.465	225.178	0.077	-0.123
-208.450	-200.000	0.011	0.110
-207.436	12.495	-0.162	-0.123
-206.421	20.399	-0.258	-0.206
-205.406	-117.622	0.257	0.046
-204.392	-152.404	0.150	0.011
-203.377	-139.165	0.083	-0.009
-202.363	421.075	0.100	0.212
-201.348	-54.244	0.210	0.094
-200.333	800.000	-0.040	-0.158
-199.319	-26.851	-0.115	0.066
-198.304	234.257	-0.081	0.131
-197.290	60.974	0.101	0.099
-196.275	391.439	-0.157	0.322
-195.260	-1.699	-0.161	0.112
-194.246	-75.919	0.235	0.082
-193.231	258.620	-0.068	-0.116
-192.217	-96.050	0.118	0.031
-191.202	0.759	-0.088	0.062
-190.187	-145.921	0.088	0.008
-189.173	-200.000	-0.001	0.138
-188.158	135.527	0.030	-0.039
-187.144	-125.601	-0.084	-0.013
-186.129	-136.471	-0.091	0.010
-185.114	-200.000	-0.004	-0.103
-184.100	467.986	0.084	0.185
-183.085	26.636	0.264	0.217
-182.071	226.148	0.067	0.107
-181.056	-140.654	0.005	0.001
-180.042	-61.205	0.374	-0.155
-179.027	-9.825	-0.148	-0.097
-178.012	209.342	0.046	-0.071
-176.998	-48.587	0.364	-0.172
-175.983	372.568	0.085	0.169
-174.969	46.360	-0.169	-0.154
-173.954	800.000	0.129	0.352
-172.939	393.264	-0.037	-0.077
-171.925	331.711	-0.081	0.154
-170.910	-200.000	-0.025	-0.262
-169.896	-44.923	-0.175	0.086
-168.881	-150.745	0.169	-0.013
-167.866	104.596	0.122	0.141
-166.852	-200.000	0.051	0.280
-165.837	11.779	0.137	-0.103
-164.823	-106.795	0.165	0.036
-163.808	-55.177	0.152	-0.067
-162.793	767.202	-0.039	-0.105
-161.779	78.157	-0.326	-0.342
-160.764	-121.616	-0.033	0.005
-159.750	442.843	-0.029	-0.062
-158.735	93.048	0.140	-0.156
-157.720	-154.168	0.196	0.013
-156.706	-30.899	0.154	-0.086
-155.691	-200.000	0.004	-0.143
-154.677	-200.000	-0.063	-0.327
-153.662	-200.000	-0.002	0.158
-152.647	91.596	-0.164	0.181
-151.633	-17.826	-0.160	0.099
-150.618	-19.211	-0.068	0.042
-149.604	407.308	0.064	-0.132
-148.589	113.839	0.174	-0.208
-147.574	800.000	-0.068	0.265
-146.560	19.113	0.129	-0.102
-145.545	92.491	0.219	0.242
-144.531	-28.195	0.348	-0.198
-143.516	665.544	0.165	0.419
-142.502	378.077	0.111	0.223
-141.487	-64.504	0.084	-0.034
-140.472	-92.310	0.218	-0.060
-139.458	-200.000	-0.012	0.092
-138.443	326.814	-0.081	0.153
-137.429	127.715	-0.119	-0.149
-136.414	45.943	0.154	0.140
-135.399	800.000	0.030	-0.112
-134.385	-200.000	-0.051	0.321
-133.370	253.004	0.163	0.274
-132.356	248.087	-0.178	0.295
-131.341	800.000	-0.013	-0.052
-130.326	63.732	-0.145	-0.143
-129.312	-200.000	0.007	-0.175
-128.297	68.280	-0.121	-0.122
-127.283	-27.041	-0.234	-0.134
-126.268	0.758	-0.201	-0.141
-125.253	-6.373	0.184	0.123
-124.239	-124.952	0.154	-0.023
-123.224	-18.070	0.145	-0.089
-122.210	-176.373	0.148	0.004
-121.195	69.400	0.073	0.074
