DTS Sentinel unit serial number:	SN413079Multiplexer serial number:	ORYXHardware model number:	OX4-SRSoftware version number:	ORYX F/W v4.00 Oryx Data Collector v3.7.2.0data status	okinstallation	princeton_trtdifferential loss correction	single-endedforward channel	channel 1reverse channel	N/Adate	2019/09/18time	23:06:35forward acquisition time	60.00reverse acquisition time	0.00gamma	496.2192k internal	0.2341k external	0.2341temperature offset calibration	1.0016default loss term (dB/km)	0.3790temperature slope calibration	1.0000multiplexer offset coefficient	1.0000multiplexer slope coefficient	1.0000fibre end	0.00T internal ref (°C)	24.00T ext. ref 1 (°C)	0.78T ext. ref 2 (°C)	17.65length (m)	temperature (°C)	Stokes	anti-Stokes-747.200	-119.796	-0.322	-0.056
-746.185	-56.229	0.137	-0.061
-745.171	684.347	0.047	-0.124
-744.156	-87.355	-0.481	-0.146
-743.142	-92.208	0.010	0.003
-742.127	239.377	-0.035	0.058
-741.112	-26.109	-0.061	-0.036
-740.098	638.173	-0.151	0.386
-739.083	67.431	-0.141	0.144
-738.069	-200.000	-0.041	0.241
-737.054	181.724	0.038	0.056
-736.039	-144.126	-0.430	0.040
-735.025	313.069	0.135	0.253
-734.010	-66.037	0.007	0.003
-732.996	22.806	-0.220	0.180
-731.981	-126.132	-0.179	0.027
-730.966	438.994	0.095	-0.207
-729.952	-58.747	-0.198	0.086
-728.937	742.903	0.005	0.014
-727.923	366.273	-0.102	-0.205
-726.908	622.728	-0.043	0.108
-725.894	308.013	-0.201	-0.376
-724.879	-86.906	0.378	-0.116
-723.864	254.896	-0.070	0.120
-722.850	134.497	0.146	-0.189
-721.835	109.003	0.079	-0.094
-720.821	-200.000	-0.021	0.188
-719.806	800.000	-0.085	0.294
-718.791	-200.000	-0.020	0.202
-717.777	39.291	-0.373	-0.334
-716.762	271.020	0.123	-0.217
-715.748	651.221	0.049	0.127
-714.733	132.976	-0.173	0.224
-713.718	-200.000	-0.012	-0.367
-712.704	119.071	0.133	0.165
-711.689	302.232	-0.107	-0.199
-710.675	-126.698	0.214	-0.032
-709.660	88.818	-0.204	0.227
-708.645	7.376	-0.123	-0.092
-707.631	-119.600	-0.235	0.041
-706.616	321.137	-0.105	0.199
-705.602	-178.824	-0.190	-0.004
-704.587	173.922	-0.109	-0.158
-703.572	112.394	0.294	-0.356
-702.558	-73.637	0.202	0.073
-701.543	282.148	0.198	0.355
-700.529	-160.137	0.170	-0.009
-699.514	100.441	-0.179	0.208
-698.499	40.813	-0.124	0.112
-697.485	-137.844	-0.139	0.016
-696.470	-200.000	-0.038	-0.167
-695.456	-61.636	-0.122	0.051
-694.441	-200.000	-0.002	0.095
-693.426	-184.962	0.340	-0.005
-692.412	88.160	0.113	0.125
-691.397	-200.000	0.020	-0.388
-690.383	-172.052	-0.180	-0.006
-689.368	3.405	-0.401	-0.292
-688.354	-46.814	0.372	-0.182
-687.339	764.718	-0.159	-0.433
-686.324	800.000	-0.042	0.142
-685.310	-200.000	-0.033	-0.257
-684.295	662.420	0.110	0.283
-683.281	6.117	-0.275	-0.204
-682.266	-98.053	0.063	0.016
-681.251	395.706	-0.040	0.083
-680.237	-40.704	0.252	0.130
-679.222	-200.000	-0.001	-0.012
-678.208	-12.600	-0.123	-0.080
-677.193	69.080	-0.178	-0.183
-676.178	-34.339	-0.123	0.068
-675.164	742.512	-0.033	-0.089
-674.149	-82.258	0.088	0.029
-673.135	-55.453	0.259	0.116
-672.120	-82.261	-0.223	0.073
-671.105	-41.676	0.090	0.046
-670.091	-200.000	0.062	-0.304
-669.076	-90.202	-0.434	-0.126
-668.062	490.191	-0.088	0.201
-667.047	-115.815	0.234	-0.044
-666.032	-110.698	0.217	0.045
-665.018	105.451	-0.234	-0.277
-664.003	-29.055	0.164	-0.094
-662.989	463.113	-0.047	0.105
-661.974	-150.411	0.162	0.012
-660.959	-200.000	0.086	0.425
-659.945	-2.543	0.151	0.106
-658.930	-131.722	0.469	0.061
-657.916	-200.000	-0.013	-0.073
-656.901	-200.000	-0.005	-0.097
-655.886	119.850	-0.007	-0.009
-654.872	800.000	0.005	0.015
-653.857	800.000	-0.038	-0.164
-652.843	-101.087	0.083	-0.020
-651.828	-200.000	-0.004	0.054
-650.814	-33.176	-0.155	-0.086
-649.799	82.006	-0.201	-0.217
-648.784	89.623	-0.140	-0.156
-647.770	-200.000	0.007	0.082
-646.755	-200.000	-0.020	-0.185
-645.741	800.000	0.105	-0.399
-644.726	327.002	0.201	0.384
-643.711	141.318	-0.109	-0.143
-642.697	211.328	-0.148	-0.232
-641.682	-200.000	0.037	-0.190
-640.668	-150.323	0.187	-0.014
-639.653	570.720	0.087	-0.212
-638.638	-12.348	0.323	0.210
-637.624	-153.428	-0.110	-0.008
-636.609	107.443	0.195	0.231
-635.595	-75.825	0.365	0.129
-634.580	102.516	-0.138	0.161
-633.565	551.610	-0.104	-0.249
-632.551	647.111	0.046	0.117
-631.536	-200.000	0.011	0.108
-630.522	-13.014	0.153	0.099
-629.507	-86.166	0.204	0.063
-628.492	366.862	-0.151	-0.305
-627.478	5.745	-0.260	-0.192
-626.463	-58.958	0.393	0.169
-625.449	54.002	-0.073	-0.070
-624.434	149.278	-0.088	0.119
-623.419	124.144	-0.192	0.240
-622.405	-159.247	0.297	-0.017
-621.390	-64.016	-0.235	0.096
-620.376	-61.807	0.239	-0.100
-619.361	-0.659	0.169	0.119
-618.346	35.160	0.104	0.091
-617.332	-171.985	0.178	0.006
-616.317	-133.375	-0.087	0.011
-615.303	-90.338	-0.088	-0.025
-614.288	337.979	-0.093	0.181
-613.273	108.278	0.175	0.208
-612.259	800.000	0.098	-0.280
-611.244	800.000	-0.068	0.262
-610.230	-179.368	-0.217	-0.005
-609.215	-82.807	-0.451	-0.145
-608.201	180.882	0.167	-0.244
-607.186	-118.479	-0.231	-0.041
-606.171	92.120	0.121	0.136
-605.157	-63.844	0.194	-0.079
-604.142	102.891	0.184	0.215
-603.128	-12.021	-0.149	-0.097
-602.113	800.000	-0.158	0.526
-601.098	-8.314	0.134	0.090
-600.084	-144.092	-0.260	0.024
-599.069	162.549	-0.261	0.365
-598.055	-105.167	0.013	-0.003
-597.040	518.528	0.042	0.099
-596.025	-142.510	-0.311	-0.030
-595.011	800.000	-0.046	-0.151
-593.996	44.406	0.379	-0.347
-592.982	-156.665	-0.150	-0.009
-591.967	33.480	-0.244	0.211
-590.952	-69.536	-0.216	-0.082
-589.938	-193.955	-0.075	-0.001
-588.923	304.230	-0.169	-0.313
-587.909	-133.253	-0.024	-0.003
-586.894	124.133	-0.089	-0.111
-585.879	-105.897	-0.187	0.042
-584.865	185.743	-0.116	0.172
-583.850	-94.874	0.096	-0.026
-582.836	16.585	-0.305	-0.240
-581.821	-101.807	-0.424	-0.102
-580.806	-200.000	-0.017	0.274
-579.792	217.426	-0.225	-0.356
-578.777	-194.877	0.312	-0.002
-577.763	800.000	0.105	-0.389
-576.748	97.374	-0.249	-0.284
-575.733	-20.672	0.181	-0.111
-574.719	-200.000	0.043	-0.302
-573.704	-190.399	-0.084	-0.001
-572.690	800.000	-0.044	-0.146
-571.675	532.776	-0.008	-0.019
-570.661	-46.426	-0.157	0.077
-569.646	-138.592	0.454	0.050
-568.631	-25.659	-0.200	0.118
-567.617	-24.391	0.244	0.145
-566.602	22.241	-0.129	0.105
-565.588	-169.381	0.309	-0.011
-564.573	7.574	0.201	-0.149
-563.558	-200.000	-0.238	-0.000
-562.544	19.142	0.249	0.199
-561.529	-190.431	-0.245	0.003
-560.515	362.182	0.135	0.270
-559.500	-22.812	-0.087	-0.052
-558.485	800.000	-0.079	0.327
-557.471	-37.181	-0.159	-0.084
-556.456	224.598	-0.058	-0.094
-555.442	-71.792	0.107	-0.040
-554.427	-58.337	0.178	0.077
-553.412	-200.000	0.016	-0.136
-552.398	87.348	0.238	-0.262
-551.383	295.425	-0.136	-0.248
-550.369	117.049	0.031	0.038
-549.354	342.524	-0.094	0.183
-548.339	-94.932	-0.170	0.046
-547.325	-200.000	0.002	-0.126
-546.310	103.629	0.195	0.228
-545.296	-17.841	0.172	-0.107
-544.281	170.444	0.091	0.130
-543.266	687.816	-0.051	0.133
-542.252	-200.000	0.001	0.164
-541.237	-200.000	0.043	0.260
-540.223	648.010	0.002	-0.006
-539.208	77.148	-0.278	-0.294
-538.193	-200.000	0.042	-0.252
-537.179	326.761	0.035	0.066
-536.164	-200.000	-0.022	0.148
-535.150	-144.146	-0.197	-0.018
-534.135	359.425	-0.119	0.236
-533.121	131.643	0.133	-0.170
-532.106	76.030	-0.105	0.111
-531.091	173.728	-0.075	0.108
-530.077	124.123	-0.209	-0.261
-529.062	-108.065	-0.099	0.021
-528.048	-36.982	-0.100	-0.053
-527.033	-79.719	-0.245	0.082
-526.018	800.000	-0.082	-0.287
-525.004	-58.502	-0.363	0.157
-523.989	664.075	-0.057	0.145
-522.975	490.049	-0.077	0.175
-521.960	28.143	0.330	0.276
-520.945	-200.000	0.015	-0.097
-519.931	110.950	-0.224	0.268
-518.916	-200.000	-0.049	-0.300
-517.902	800.000	0.036	0.122
-516.887	123.448	-0.123	-0.153
-515.872	81.555	0.069	-0.074
-514.858	-3.190	0.072	-0.050
-513.843	800.000	0.048	-0.193
-512.829	353.144	0.040	-0.079
-511.814	-90.407	-0.275	0.079
-510.799	-200.000	-0.006	0.088
-509.785	153.165	-0.076	0.104
-508.770	800.000	-0.074	-0.316
-507.756	130.264	0.070	0.088
-506.741	800.000	0.022	0.081
-505.726	-88.128	-0.355	-0.106
-504.712	-200.000	0.006	-0.324
-503.697	-68.933	-0.091	-0.035
-502.683	59.402	-0.076	-0.075
-501.668	-134.767	-0.128	0.015
-500.653	614.032	0.057	-0.141
-499.639	800.000	0.028	-0.097
-498.624	-200.000	0.035	-0.157
-497.610	800.000	-0.016	0.059
-496.595	163.476	0.146	-0.204
-495.581	465.921	-0.115	-0.256
-494.566	-200.000	-0.022	0.184
-493.551	-200.000	-0.041	0.293
-492.537	-20.375	-0.224	-0.137
-491.522	-200.000	-0.073	-0.360
-490.508	78.353	-0.290	0.307
-489.493	-154.690	0.265	0.017
-488.478	-60.818	-0.078	0.033
-487.464	-200.000	0.010	0.193
-486.449	40.178	0.082	0.073
-485.435	-200.000	-0.003	-0.164
-484.420	14.029	-0.054	0.042
-483.405	-87.659	0.277	0.083
-482.391	180.790	-0.137	-0.199
-481.376	-64.070	-0.123	0.050
-480.362	-37.536	0.069	-0.036
-479.347	-110.793	0.050	0.010
-478.332	169.229	0.102	0.144
-477.318	-55.450	-0.220	0.098
-476.303	-98.255	0.168	0.043
-475.289	-176.468	-0.146	-0.004
-474.274	137.382	0.082	-0.107
-473.259	-200.000	0.009	-0.053
-472.245	-46.263	0.216	0.105
-471.230	-96.662	0.273	0.071
-470.216	-92.149	0.162	-0.045
-469.201	-1.805	-0.068	0.047
-468.186	451.282	-0.140	-0.306
-467.172	144.287	-0.146	-0.193
-466.157	-118.907	-0.183	0.032
-465.143	-68.052	-0.036	0.014
-464.128	800.000	-0.116	-0.501
-463.113	100.157	-0.227	0.261
-462.099	-20.714	0.139	0.084
-461.084	800.000	-0.116	0.335
-460.070	-71.372	0.192	-0.071
-459.055	40.846	-0.093	-0.083
-458.040	-137.313	-0.308	-0.035
-457.026	187.254	0.148	-0.219
-456.011	-200.000	0.019	0.141
-454.997	-76.624	-0.281	-0.098
-453.982	-200.000	-0.010	0.057
-452.968	-200.000	-0.017	-0.119
-451.953	-25.807	0.112	-0.065
-450.938	309.586	0.175	-0.324
-449.924	216.776	0.098	0.154
-448.909	-18.422	-0.090	0.056
-447.895	26.192	0.092	-0.076
-446.880	770.088	0.029	-0.078
-445.865	343.650	0.087	0.169
-444.851	-111.981	0.131	0.026
-443.836	183.545	-0.124	-0.181
-442.822	224.392	0.161	0.258
-441.807	-200.000	0.058	-0.301
-440.792	-24.939	-0.215	0.126
-439.778	71.578	-0.117	0.120
-438.763	-64.303	0.356	0.144
-437.749	203.493	-0.097	0.148
-436.734	-155.553	-0.189	-0.012
-435.719	27.543	-0.318	0.265
-434.705	800.000	0.056	0.173
-433.690	528.892	0.050	0.116
-432.676	-139.745	-0.221	0.023
-431.661	-131.094	-0.248	-0.033
-430.646	-190.298	0.234	-0.003
-429.632	-93.725	-0.199	-0.054
-428.617	91.718	-0.222	0.247
-427.603	-94.178	-0.357	-0.097
-426.588	141.492	0.041	0.053
-425.573	-117.646	-0.276	-0.049
-424.559	-200.000	-0.018	0.184
-423.544	-30.411	0.105	0.059
-422.530	-135.550	-0.197	-0.023
-421.515	-100.806	-0.068	-0.017
-420.500	66.288	0.017	-0.017
-419.486	-97.122	0.064	-0.017
-418.471	592.130	0.152	-0.372
-417.457	201.010	0.098	-0.149
-416.442	211.529	-0.117	-0.182
-415.428	-124.246	0.259	-0.040
-414.413	365.194	-0.147	-0.293
-413.398	-7.533	0.273	0.183
-412.384	-200.000	0.298	0.001
-411.369	-200.000	0.027	-0.266
-410.355	-67.741	0.287	-0.111
-409.340	-140.234	0.563	0.058
-408.325	81.346	0.135	-0.144
-407.311	76.099	0.314	-0.329
-406.296	-200.000	-0.068	-0.323
-405.282	800.000	-0.043	0.184
-404.267	19.939	0.133	0.106
-403.252	639.052	0.012	-0.029
-402.238	247.784	-0.144	-0.240
-401.223	190.403	0.117	0.174
-400.209	-200.000	-0.026	0.156
-399.194	79.789	0.204	0.217
-398.179	126.940	-0.099	-0.124
-397.165	165.591	0.075	-0.105
-396.150	-149.276	-0.256	-0.020
-395.136	-200.000	0.010	-0.287
-394.121	-200.000	0.020	-0.267
-393.106	800.000	-0.056	0.219
-392.092	-200.000	0.025	0.130
-391.077	-36.884	0.111	0.059
-390.063	-33.154	-0.208	-0.114
-389.048	-61.190	-0.241	0.100
-388.033	800.000	-0.053	-0.222
-387.019	48.817	0.115	-0.107
-386.004	-60.599	0.269	0.113
-384.990	451.517	-0.084	0.184
-383.975	-189.865	-0.157	0.002
-382.960	456.757	0.055	-0.121
-381.946	54.593	-0.099	0.094
-380.931	67.246	-0.270	-0.272
-379.917	736.730	-0.083	0.220
-378.902	213.115	0.101	0.158
-377.888	30.559	-0.283	0.239
-376.873	-176.536	0.285	0.007
-375.858	77.780	-0.081	-0.086
-374.844	800.000	-0.071	-0.273
-373.829	800.000	-0.073	-0.212
-372.815	800.000	-0.046	-0.167
-371.800	-74.948	0.108	-0.038
-370.785	-13.213	0.141	-0.090
-369.771	-200.000	0.027	-0.443
-368.756	-200.000	0.028	0.306
-367.742	74.368	-0.148	0.153
-366.727	-200.000	-0.029	0.166
-365.712	-200.000	-0.002	0.113
-364.698	-155.694	-0.304	0.019
-363.683	-11.124	0.104	0.068
-362.669	-75.015	-0.069	-0.024
-361.654	-200.000	-0.037	0.337
-360.639	282.994	-0.141	0.249
-359.625	-200.000	0.013	0.316
-358.610	-135.614	-0.210	0.025
-357.596	-132.608	0.177	-0.022
-356.581	-129.683	-0.415	-0.056
-355.566	-84.713	0.149	-0.046
-354.552	-22.636	0.148	-0.088
-353.537	-94.234	-0.132	-0.036
-352.523	196.367	0.075	0.113
-351.508	41.518	-0.183	-0.163
-350.493	218.910	-0.046	0.072
-349.479	-200.000	0.020	0.299
-348.464	-29.232	-0.309	0.175
-347.450	-200.000	0.017	0.423
-346.435	-124.704	-0.177	-0.027
-345.420	342.176	0.157	-0.303
-344.406	-30.132	0.119	0.067
-343.391	357.567	0.221	0.434
-342.377	800.000	0.009	-0.024
-341.362	120.843	0.074	0.091
-340.348	800.000	0.024	0.070
-339.333	-137.613	0.059	-0.007
-338.318	-200.000	-0.040	-0.192
-337.304	-79.124	0.028	-0.010
-336.289	800.000	0.035	-0.105
-335.275	-80.404	-0.132	-0.044
-334.260	30.360	0.239	-0.201
-333.245	-105.860	-0.323	0.072
-332.231	-107.182	-0.011	-0.002
-331.216	-153.357	0.160	-0.011
-330.202	2.659	-0.098	-0.070
-329.187	-200.000	0.031	0.262
-328.172	-200.000	-0.001	-0.017
-327.158	-129.851	0.093	0.013
-326.143	-146.806	-0.569	0.048
-325.129	-200.000	-0.047	0.222
-324.114	800.000	-0.118	0.409
-323.099	152.996	0.223	0.301
-322.085	-109.850	-0.093	-0.019
-321.070	678.906	0.173	-0.444
-320.056	-200.000	0.004	0.074
-319.041	-19.158	-0.322	0.197
-318.026	-187.202	0.278	-0.004
-317.012	310.229	0.149	0.275
-315.997	800.000	-0.068	0.257
-314.983	239.270	0.137	-0.225
-313.968	315.005	-0.115	0.214
-312.953	800.000	0.057	-0.179
-311.939	800.000	-0.056	0.175
-310.924	800.000	0.053	0.150
-309.910	68.673	0.252	-0.255
-308.895	12.935	-0.226	0.172
-307.880	-200.000	-0.046	0.440
-306.866	-10.120	0.135	0.088
-305.851	-200.000	0.044	-0.217
-304.837	105.074	0.152	-0.177
-303.822	-9.767	-0.236	-0.155
-302.807	-61.421	0.196	-0.081
-301.793	20.830	-0.068	-0.055
-300.778	114.211	-0.176	0.211
-299.764	-47.155	-0.220	0.106
-298.749	-85.536	-0.211	-0.065
-297.735	-8.873	-0.208	0.138
-296.720	171.578	0.212	0.299
-295.705	209.244	0.215	0.332
-294.691	-97.764	-0.279	0.071
-293.676	186.375	0.020	-0.030
-292.662	-157.019	0.335	0.020
-291.647	-188.812	-0.126	-0.002
-290.632	-200.000	-0.017	-0.163
-289.618	-100.897	0.166	-0.040
-288.603	458.671	-0.064	-0.140
-287.589	-56.354	-0.044	-0.019
-286.574	699.006	-0.048	0.125
-285.559	283.648	0.165	0.291
-284.545	-84.504	0.256	-0.080
-283.530	209.030	-0.098	-0.151
-282.516	-116.433	0.207	-0.038
-281.501	9.183	0.203	0.151
-280.486	-200.000	-0.014	0.106
-279.472	61.506	0.173	0.170
-278.457	486.762	0.061	-0.136
-277.443	-200.000	0.020	-0.166
-276.428	800.000	-0.044	-0.134
-275.413	-86.420	0.120	-0.036
-274.399	800.000	0.097	-0.326
-273.384	-200.000	0.014	0.117
-272.370	-200.000	-0.001	0.075
-271.355	260.655	0.065	0.110
-270.340	-200.000	0.042	-0.359
-269.326	-200.000	-0.002	-0.103
-268.311	-200.000	-0.002	-0.129
-267.297	323.904	-0.116	-0.217
-266.282	213.483	-0.049	-0.076
-265.267	-200.000	-0.062	0.325
-264.253	-76.701	0.209	0.072
-263.238	-200.000	-0.016	-0.171
-262.224	49.963	0.134	-0.125
-261.209	377.703	0.155	0.312
-260.195	12.201	0.120	0.091
-259.180	89.085	0.138	0.151
-258.165	-61.154	-0.044	-0.018
-257.151	-200.000	0.056	-0.244
-256.136	687.526	0.026	0.067
-255.122	800.000	-0.030	-0.129
-254.107	800.000	0.044	0.159
-253.092	-59.374	0.194	0.082
-252.078	11.995	-0.237	0.179
-251.063	-140.515	0.277	0.028
-250.049	-200.000	0.016	0.289
-249.034	515.431	-0.150	0.345
-248.019	-200.000	0.033	-0.303
-247.005	800.000	0.106	-0.332
-245.990	800.000	-0.074	0.220
-244.976	239.589	-0.167	-0.273
-243.961	-104.254	0.274	-0.063
-242.946	200.550	-0.030	-0.045
-241.932	31.608	0.203	0.171
-240.917	-73.746	0.240	0.086
-239.903	-192.632	-0.161	0.001
-238.888	-19.913	0.610	0.370
-237.873	71.269	0.188	0.191
-236.859	-97.409	-0.231	-0.059
-235.844	1.331	-0.239	-0.169
-234.830	160.576	-0.166	-0.227
-233.815	49.851	-0.079	-0.073
-232.800	-55.892	0.311	0.136
-231.786	-200.000	0.095	-0.440
-230.771	511.931	-0.130	-0.298
-229.757	-10.576	0.192	0.125
-228.742	281.477	0.088	0.155
-227.727	8.220	-0.363	-0.268
-226.713	304.238	-0.091	-0.166
-225.698	662.933	0.187	-0.473
-224.684	-159.026	-0.254	-0.014
-223.669	-56.536	-0.348	-0.151
-222.655	100.944	-0.043	-0.049
-221.640	234.193	-0.081	-0.132
-220.625	800.000	0.103	0.330
-219.611	-164.564	0.310	-0.014
-218.596	-127.688	-0.235	-0.033
-217.582	800.000	-0.069	0.190
-216.567	800.000	-0.063	-0.204
-215.552	-106.051	0.253	0.056
-214.538	-62.148	0.187	-0.077
-213.523	-119.879	0.141	-0.024
-212.509	-1.777	0.311	0.215
-211.494	-113.859	-0.040	0.008
-210.479	208.283	0.126	0.193
-209.465	-57.026	0.037	-0.016
-208.450	-173.899	0.436	-0.013
-207.436	-127.759	0.135	0.019
-206.421	-50.979	0.351	0.162
-205.406	-44.219	-0.185	0.091
-204.392	800.000	0.073	0.306
-203.377	-107.041	0.162	0.035
-202.363	11.172	-0.099	-0.074
-201.348	577.876	0.105	-0.252
-200.333	-73.109	-0.225	-0.081
-199.319	140.160	-0.183	0.237
-198.304	212.254	0.166	0.257
-197.290	-43.060	0.276	0.137
-196.275	-200.000	0.000	0.060
-195.260	51.629	0.305	0.285
-194.246	-200.000	-0.312	0.001
-193.231	-92.380	0.219	0.060
-192.217	513.746	-0.141	-0.322
-191.202	-20.761	-0.105	-0.063
-190.187	157.554	0.112	0.152
-189.173	-200.000	-0.187	-0.000
-188.158	800.000	0.020	-0.062
-187.144	471.082	0.141	-0.311
-186.129	2.439	0.092	-0.065
-185.114	800.000	-0.004	-0.012
-184.100	-200.000	0.020	-0.182
-183.085	-200.000	0.008	0.140
-182.071	224.818	-0.173	0.274
-181.056	-123.810	0.290	0.045
-180.042	-6.716	-0.112	-0.075
-179.027	396.743	-0.082	-0.168
-178.012	332.186	0.219	-0.414
-176.998	330.217	-0.077	0.146
-175.983	800.000	0.069	-0.278
-174.969	113.882	0.096	-0.114
-173.954	-200.000	-0.013	-0.089
-172.939	-60.318	0.209	-0.087
-171.925	257.081	0.168	0.283
-170.910	-103.676	-0.131	-0.030
-169.896	225.153	-0.030	0.047
-168.881	76.834	0.188	-0.195
-167.866	-39.367	-0.134	0.069
-166.852	-68.895	0.192	-0.073
-165.837	279.275	0.107	0.187
-164.823	131.912	0.029	0.036
-163.808	-200.000	0.010	0.116
-162.793	-148.721	-0.503	0.040
-161.779	-146.352	0.127	-0.011
-160.764	22.928	0.123	0.099
-159.750	-111.099	-0.103	0.021
-158.735	-135.526	0.312	-0.036
-157.720	-200.000	-0.059	-0.303
-156.706	146.062	-0.114	0.149
-155.691	496.513	0.062	-0.141
-154.677	94.465	0.194	0.216
-153.662	-11.282	-0.272	0.176
-152.647	165.901	0.170	-0.236
-151.633	-12.751	-0.094	-0.060
-150.618	800.000	0.036	-0.110
-149.604	-200.000	0.021	-0.136
-148.589	-200.000	0.027	-0.375
-147.574	-93.356	-0.122	0.033
-146.560	-25.072	0.079	0.046
-145.545	-200.000	0.001	-0.018
-144.531	46.105	-0.138	-0.125
-143.516	-58.045	-0.158	0.068
-142.502	203.657	0.158	-0.240
-141.487	67.120	-0.014	-0.014
-140.472	-200.000	0.028	-0.232
-139.458	-188.076	-0.345	-0.004
-138.443	800.000	0.035	0.110
-137.429	800.000	-0.065	-0.187
-136.414	238.128	-0.099	0.161
-135.399	38.455	-0.108	-0.094
-134.385	-78.161	0.093	-0.031
-133.370	-146.796	-0.228	0.019
-132.356	492.065	0.074	0.165
-131.341	-7.442	0.248	0.164
-130.326	49.346	0.142	-0.131
-129.312	151.961	-0.210	-0.280
-128.297	140.464	0.159	0.205
-127.283	560.871	0.037	0.088
-126.268	26.691	-0.154	-0.126
-125.253	-172.362	0.123	0.004
-124.239	-89.237	-0.179	0.052
-123.224	-19.028	0.108	0.066
-122.210	-23.349	0.087	0.051
