DTS Sentinel unit serial number:	SN413079Multiplexer serial number:	ORYXHardware model number:	OX4-SRSoftware version number:	ORYX F/W v4.00 Oryx Data Collector v3.7.2.0data status	okinstallation	princeton_trtdifferential loss correction	single-endedforward channel	channel 1reverse channel	N/Adate	2019/09/14time	21:50:35forward acquisition time	60.00reverse acquisition time	0.00gamma	496.2192k internal	0.2319k external	0.2319temperature offset calibration	1.0005default loss term (dB/km)	0.3790temperature slope calibration	1.0000multiplexer offset coefficient	1.0000multiplexer slope coefficient	1.0000fibre end	0.00T internal ref (°C)	32.75T ext. ref 1 (°C)	4.72T ext. ref 2 (°C)	27.69length (m)	temperature (°C)	Stokes	anti-Stokes-747.200	383.459	0.097	-0.201
-746.185	800.000	0.088	0.286
-745.171	-124.187	0.145	-0.023
-744.156	175.267	0.072	-0.105
-743.142	-70.815	0.403	-0.154
-742.127	381.872	-0.083	0.172
-741.112	-128.571	0.173	0.025
-740.098	-120.162	0.149	0.026
-739.083	467.913	-0.060	0.136
-738.069	800.000	-0.063	0.201
-737.054	-83.656	-0.037	0.012
-736.039	-34.143	0.004	-0.002
-735.025	478.334	-0.054	-0.124
-734.010	21.383	-0.154	-0.126
-732.996	291.036	-0.058	-0.106
-731.981	-97.677	0.399	-0.105
-730.966	5.124	-0.324	-0.241
-729.952	-73.152	-0.075	0.028
-728.937	41.367	0.316	-0.289
-727.923	68.426	-0.202	-0.210
-726.908	21.615	0.064	0.053
-725.894	-75.628	0.215	-0.077
-724.879	-125.947	0.145	-0.022
-723.864	800.000	-0.052	0.151
-722.850	800.000	-0.024	0.070
-721.835	-2.031	0.170	-0.121
-720.821	-124.421	-0.198	0.031
-719.806	-100.672	-0.154	-0.038
-718.791	349.334	0.086	0.172
-717.777	388.558	0.157	-0.328
-716.762	149.416	0.085	-0.117
-715.748	658.745	-0.089	0.233
-714.733	800.000	-0.099	-0.358
-713.718	-88.333	-0.096	-0.029
-712.704	-200.000	-0.032	-0.157
-711.689	-57.481	-0.155	0.069
-710.675	97.515	-0.118	-0.137
-709.660	-46.462	-0.187	-0.093
-708.645	86.072	-0.125	-0.139
-707.631	-200.000	0.039	0.356
-706.616	117.348	-0.020	0.025
-705.602	-200.000	0.007	0.166
-704.587	506.582	0.058	-0.137
-703.572	-200.000	-0.032	-0.390
-702.558	-32.727	0.470	-0.264
-701.543	-200.000	-0.072	-0.336
-700.529	5.473	-0.070	0.052
-699.514	-56.736	-0.150	-0.067
-698.499	-31.210	0.316	-0.180
-697.485	800.000	0.192	-0.597
-696.470	80.907	0.067	-0.073
-695.456	60.841	0.130	0.130
-694.441	-200.000	0.014	-0.318
-693.426	-104.230	-0.224	-0.052
-692.412	59.299	-0.286	0.285
-691.397	617.098	0.155	0.393
-690.383	-134.340	-0.257	0.032
-689.368	-200.000	-0.023	0.180
-688.354	800.000	-0.063	-0.218
-687.339	-200.000	-0.035	-0.237
-686.324	358.020	0.015	0.030
-685.310	79.777	-0.179	-0.194
-684.295	-47.631	-0.163	0.080
-683.281	35.994	-0.088	0.078
-682.266	-200.000	-0.041	-0.212
-681.251	127.566	0.051	-0.065
-680.237	-46.418	-0.342	0.169
-679.222	42.935	0.153	-0.141
-678.208	-43.925	0.177	0.090
-677.193	-37.077	-0.217	0.117
-676.178	103.861	-0.126	0.149
-675.164	352.098	0.135	-0.271
-674.149	32.774	-0.136	0.119
-673.135	29.621	0.064	-0.055
-672.120	613.342	0.078	-0.197
-671.105	-112.428	-0.129	0.026
-670.091	159.061	0.212	-0.297
-669.076	142.828	-0.148	-0.198
-668.062	201.399	-0.051	-0.080
-667.047	616.892	-0.073	0.186
-666.032	-41.993	-0.215	0.111
-665.018	-123.737	0.266	0.042
-664.003	194.737	-0.152	0.232
-662.989	234.578	-0.138	-0.229
-661.974	7.830	-0.313	-0.236
-660.959	335.824	-0.039	0.076
-659.945	-102.384	-0.064	0.015
-658.930	-200.000	-0.028	-0.331
-657.916	217.292	-0.170	-0.272
-656.901	-10.189	0.257	0.172
-655.886	-62.640	-0.101	0.042
-654.872	-200.000	0.034	0.208
-653.857	-200.000	0.007	0.152
-652.843	-34.447	0.235	-0.130
-651.828	-54.808	-0.156	0.071
-650.814	113.581	-0.078	-0.095
-649.799	-70.490	0.346	-0.132
-648.784	256.798	-0.123	-0.214
-647.770	30.586	0.137	0.118
-646.755	177.162	-0.069	-0.101
-645.741	-200.000	0.011	-0.085
-644.726	145.105	0.297	-0.401
-643.711	-34.051	-0.267	-0.148
-642.697	311.354	0.148	-0.280
-641.682	-200.000	0.004	-0.150
-640.668	-77.181	-0.176	0.062
-639.653	-41.439	-0.084	-0.043
-638.638	223.613	-0.179	-0.291
-637.624	41.575	0.362	-0.330
-636.609	11.196	-0.246	0.189
-635.595	-200.000	-0.002	-0.329
-634.580	452.665	0.064	0.143
-633.565	-123.393	0.138	-0.022
-632.551	-72.824	-0.177	0.066
-631.536	31.670	0.284	-0.246
-630.522	-150.401	0.161	-0.013
-629.507	-150.128	-0.138	-0.011
-628.492	-118.028	-0.273	0.049
-627.478	-3.368	-0.058	-0.041
-626.463	-41.048	-0.095	0.049
-625.449	-200.000	0.003	0.149
-624.434	108.479	0.009	-0.010
-623.419	-92.568	0.263	0.074
-622.405	-200.000	-0.023	0.292
-621.390	-41.399	-0.184	0.096
-620.376	133.856	0.137	0.179
-619.361	-62.431	-0.308	-0.129
-618.346	0.431	0.176	0.127
-617.332	-2.179	0.131	0.093
-616.317	133.098	0.069	-0.090
-615.303	149.883	-0.060	0.082
-614.288	-148.754	0.429	0.035
-613.273	800.000	-0.105	-0.354
-612.259	68.562	-0.127	-0.131
-611.244	-154.262	0.163	-0.011
-610.230	-36.894	-0.221	-0.120
-609.215	800.000	-0.030	-0.095
-608.201	-154.007	-0.281	0.019
-607.186	800.000	-0.083	-0.240
-606.171	800.000	-0.032	0.118
-605.157	119.307	0.192	-0.239
-604.142	524.301	0.048	0.114
-603.128	599.757	-0.057	0.144
-602.113	-127.767	0.120	-0.017
-601.098	-200.000	-0.007	0.094
-600.084	447.938	-0.065	0.145
-599.069	134.757	0.207	-0.270
-598.055	342.780	0.242	-0.476
-597.040	-200.000	0.101	-0.532
-596.025	-91.366	0.183	-0.053
-595.011	105.710	-0.101	0.121
-593.996	-36.064	0.382	0.208
-592.982	-85.953	-0.296	0.092
-591.967	-58.692	-0.097	-0.042
-590.952	-89.025	0.073	-0.022
-589.938	800.000	0.030	-0.105
-588.923	59.403	0.172	-0.170
-587.909	45.725	0.105	0.097
-586.894	210.257	-0.172	-0.272
-585.879	402.246	-0.025	-0.053
-584.865	-137.738	-0.039	0.004
-583.850	279.291	0.135	-0.242
-582.836	800.000	-0.011	0.043
-581.821	-193.508	0.175	-0.002
-580.806	22.156	-0.111	-0.091
-579.792	-29.028	0.128	0.074
-578.777	-200.000	-0.004	0.061
-577.763	123.030	0.054	-0.068
-576.748	398.751	-0.070	0.148
-575.733	-200.000	0.014	-0.109
-574.719	-74.590	-0.030	0.011
-573.704	-200.000	0.008	-0.333
-572.690	800.000	-0.015	-0.065
-571.675	-33.788	-0.221	-0.123
-570.661	34.668	0.098	0.086
-569.646	632.125	0.025	0.064
-568.631	-200.000	-0.011	0.055
-567.617	-40.295	-0.209	0.109
-566.602	-67.442	-0.148	-0.059
-565.588	307.035	-0.044	-0.082
-564.573	-76.957	0.117	-0.041
-563.558	633.436	0.055	0.140
-562.544	-31.054	-0.048	-0.027
-561.529	-102.440	0.261	-0.063
-560.515	-172.966	0.184	-0.006
-559.500	-112.019	-0.134	-0.027
-558.485	-71.133	-0.376	0.142
-557.471	160.161	0.138	-0.193
-556.456	-200.000	-0.020	0.229
-555.442	260.762	-0.088	-0.153
-554.427	12.286	-0.268	-0.207
-553.412	384.062	-0.168	-0.348
-552.398	-51.439	-0.382	-0.179
-551.383	10.486	-0.318	0.243
-550.369	149.380	-0.084	-0.114
-549.354	-80.385	0.208	-0.070
-548.339	-158.819	0.302	0.017
-547.325	-129.016	0.288	-0.041
-546.310	-200.000	-0.005	0.112
-545.296	-87.221	-0.310	0.094
-544.281	-101.837	-0.324	0.079
-543.266	-63.646	0.082	-0.034
-542.252	5.528	-0.204	-0.151
-541.237	-128.976	0.058	-0.008
-540.223	-164.521	-0.031	-0.001
-539.208	190.207	-0.050	-0.075
-538.193	14.302	-0.110	0.086
-537.179	650.247	0.072	-0.185
-536.164	-200.000	0.024	-0.124
-535.150	-98.134	0.254	-0.066
-534.135	470.299	0.091	0.205
-533.121	533.454	-0.057	-0.135
-532.106	-21.243	0.376	-0.231
-531.091	-69.786	-0.141	-0.054
-530.077	-200.000	0.005	0.025
-529.062	281.991	0.073	0.131
-528.048	124.124	0.088	-0.111
-527.033	-13.866	0.196	-0.127
-526.018	-155.693	-0.202	0.013
-525.004	-74.277	-0.237	0.086
-523.989	-75.024	-0.081	0.029
-522.975	512.816	-0.083	0.195
-521.960	-200.000	0.023	-0.347
-520.945	602.142	0.145	0.361
-519.931	-200.000	-0.088	0.535
-518.916	-200.000	0.062	-0.388
-517.902	800.000	-0.035	-0.145
-516.887	41.625	-0.179	0.163
-515.872	-51.085	0.405	-0.190
-514.858	361.293	-0.130	0.262
-513.843	546.828	-0.098	0.236
-512.829	800.000	0.146	0.482
-511.814	348.473	-0.187	-0.371
-510.799	-107.011	-0.370	0.082
-509.785	0.815	-0.223	0.160
-508.770	38.414	0.266	0.237
-507.756	-3.856	-0.076	-0.053
-506.741	-105.577	-0.438	0.100
-505.726	42.075	0.144	0.131
-504.712	-28.847	0.227	0.131
-503.697	554.699	0.119	-0.288
-502.683	800.000	0.071	0.264
-501.668	800.000	-0.082	0.357
-500.653	800.000	0.168	-0.485
-499.639	-147.919	0.037	-0.003
-498.624	-200.000	0.009	-0.193
-497.610	-86.368	-0.172	0.053
-496.595	-71.052	0.166	-0.063
-495.581	800.000	0.060	0.201
-494.566	-29.303	-0.334	-0.192
-493.551	-155.266	0.231	-0.015
-492.537	-200.000	0.004	0.053
-491.522	-200.000	0.001	0.300
-490.508	800.000	0.139	0.534
-489.493	-3.409	-0.196	0.136
-488.478	-11.788	0.172	-0.113
-487.464	70.797	0.066	-0.069
-486.449	-200.000	0.025	-0.139
-485.435	186.365	-0.181	-0.269
-484.420	-154.697	0.145	0.010
-483.405	-65.879	-0.205	0.082
-482.391	603.849	0.108	-0.270
-481.376	38.401	-0.221	-0.198
-480.362	65.371	-0.264	0.267
-479.347	-200.000	-0.028	0.179
-478.332	-43.820	-0.236	0.119
-477.318	-152.079	0.311	-0.023
-476.303	-200.000	-0.012	-0.169
-475.289	-11.234	-0.288	-0.190
-474.274	72.456	-0.050	-0.052
-473.259	-200.000	0.045	0.201
-472.245	14.804	-0.184	-0.144
-471.230	157.418	0.019	0.027
-470.216	-200.000	0.003	-0.155
-469.201	-164.377	-0.452	-0.021
-468.186	-20.027	-0.062	-0.038
-467.172	29.400	0.304	0.258
-466.157	-200.000	-0.014	0.111
-465.143	108.236	-0.356	-0.425
-464.128	-53.656	0.206	0.094
-463.113	-200.000	-0.002	0.087
-462.099	-116.265	-0.278	0.051
-461.084	-137.040	0.164	0.019
-460.070	-147.718	0.119	-0.010
-459.055	72.996	0.237	-0.248
-458.040	800.000	-0.047	-0.194
-457.026	268.978	0.085	0.150
-456.011	-148.506	-0.267	-0.022
-454.997	800.000	-0.052	-0.152
-453.982	800.000	-0.069	-0.222
-452.968	-200.000	-0.041	-0.303
-451.953	59.788	-0.039	-0.039
-450.938	-6.041	-0.334	-0.228
-449.924	800.000	0.097	0.395
-448.909	800.000	-0.072	0.261
-447.895	67.043	0.213	0.217
-446.880	95.093	0.136	-0.155
-445.865	519.030	-0.144	-0.338
-444.851	16.599	-0.394	0.312
-443.836	-97.057	0.217	-0.057
-442.822	492.347	0.016	-0.036
-441.807	-138.637	0.158	-0.017
-440.792	-200.000	-0.018	-0.325
-439.778	800.000	0.120	-0.389
-438.763	288.590	0.124	0.224
-437.749	-149.769	0.165	-0.013
-436.734	-175.058	0.275	0.008
-435.719	-68.148	0.290	-0.113
-434.705	-42.815	0.213	0.108
-433.690	-89.950	-0.276	-0.081
-432.676	-47.163	0.088	0.043
-431.661	507.626	0.087	-0.202
-430.646	-79.871	0.194	-0.065
-429.632	-148.173	-0.077	0.006
-428.617	39.933	-0.199	0.179
-427.603	-200.000	0.009	0.073
-426.588	-42.362	0.120	-0.061
-425.573	-111.411	-0.132	0.027
-424.559	-113.330	-0.221	0.043
-423.544	-200.000	0.072	0.322
-422.530	58.981	0.142	0.139
-421.515	444.474	0.145	-0.317
-420.500	111.190	0.116	0.140
-419.486	-29.050	-0.220	0.126
-418.471	231.457	0.142	0.233
-417.457	-200.000	0.011	-0.155
-416.442	84.398	0.246	0.269
-415.428	19.296	0.100	0.080
-414.413	85.013	-0.107	-0.117
-413.398	-38.244	0.145	0.077
-412.384	34.888	0.372	0.325
-411.369	526.167	0.181	-0.426
-410.355	800.000	0.087	-0.338
-409.340	-105.443	-0.283	-0.064
-408.325	-100.685	0.289	-0.071
-407.311	-135.019	-0.297	0.036
-406.296	121.583	0.205	-0.255
-405.282	-65.330	-0.101	-0.041
-404.267	-110.113	0.173	-0.036
-403.252	-30.556	0.128	0.072
-402.238	-200.000	-0.019	-0.119
-401.223	-64.290	0.361	-0.147
-400.209	-200.000	-0.062	-0.325
-399.194	184.631	0.129	-0.191
-398.179	580.264	-0.109	-0.265
-397.165	-200.000	0.017	-0.125
-396.150	-81.000	-0.281	0.093
-395.136	-141.560	0.021	-0.002
-394.121	-93.321	-0.320	-0.089
-393.106	-95.767	-0.354	-0.094
-392.092	-200.000	0.044	0.282
-391.077	-24.568	0.159	-0.094
-390.063	-87.821	0.327	0.098
-389.048	270.313	-0.091	0.160
-388.033	-71.482	0.277	0.103
-387.019	-200.000	-0.055	0.375
-386.004	25.471	0.068	-0.056
-384.990	15.781	0.230	0.181
-383.975	-200.000	-0.006	0.239
-382.960	113.769	-0.199	0.241
-381.946	-90.512	-0.111	0.032
-380.931	157.796	-0.085	-0.117
-379.917	126.581	0.105	0.133
-378.902	-200.000	0.030	-0.142
-377.888	-65.059	0.084	0.034
-376.873	-200.000	-0.007	0.090
-375.858	-128.475	-0.246	-0.035
-374.844	173.029	0.083	0.120
-373.829	-11.899	-0.345	0.225
-372.815	800.000	0.065	0.193
-371.800	-55.565	-0.053	0.024
-370.785	800.000	0.116	-0.461
-369.771	-106.172	-0.055	0.012
-368.756	800.000	-0.048	0.168
-367.742	-200.000	-0.011	0.132
-366.727	-77.717	-0.270	0.093
-365.712	-200.000	-0.032	-0.227
-364.698	221.462	-0.029	-0.047
-363.683	-200.000	0.001	0.030
-362.669	68.549	0.049	0.050
-361.654	126.740	0.166	0.209
-360.639	-200.000	-0.026	-0.342
-359.625	-200.000	0.007	0.035
-358.610	-55.336	0.035	-0.016
-357.596	-59.536	-0.278	-0.119
-356.581	-200.000	-0.028	-0.219
-355.566	609.213	0.118	-0.295
-354.552	127.314	0.043	0.054
-353.537	800.000	-0.032	0.112
-352.523	-200.000	0.027	0.358
-351.508	599.062	-0.131	0.324
-350.493	-66.254	-0.172	0.068
-349.479	247.808	0.088	-0.148
-348.464	-81.825	-0.252	-0.082
-347.450	342.969	0.192	0.374
-346.435	16.816	-0.224	0.177
-345.420	-49.710	0.023	0.011
-344.406	-200.000	-0.029	0.309
-343.391	-200.000	0.038	0.235
-342.377	-200.000	-0.013	0.301
-341.362	-131.585	-0.349	0.046
-340.348	-200.000	0.051	-0.259
-339.333	-175.956	0.177	0.005
-338.318	12.826	0.216	0.166
-337.304	-94.380	-0.170	-0.046
-336.289	-73.137	-0.154	0.056
-335.275	-100.472	-0.265	0.065
-334.260	-78.112	0.159	0.054
-333.245	106.601	0.130	-0.154
-332.231	192.419	0.092	-0.138
-331.216	-20.680	-0.099	0.061
-330.202	-62.496	0.092	-0.038
-329.187	-92.021	0.224	0.063
-328.172	-200.000	0.000	-0.031
-327.158	-200.000	0.011	0.242
-326.143	212.262	0.124	0.194
-325.129	-146.304	0.370	0.032
-324.114	183.173	0.255	-0.374
-323.099	93.317	-0.090	0.101
-322.085	-200.000	0.003	0.026
-321.070	-200.000	-0.014	-0.180
-320.056	-109.499	0.328	-0.069
-319.041	-200.000	-0.006	-0.054
-318.026	596.432	-0.079	-0.196
-317.012	-170.410	0.160	-0.006
-315.997	800.000	-0.071	-0.203
-314.983	800.000	-0.092	-0.275
-313.968	658.100	0.073	-0.186
-312.953	21.793	-0.121	-0.098
-311.939	-200.000	-0.012	-0.087
-310.924	-67.532	0.107	-0.042
-309.910	-200.000	0.024	-0.145
-308.895	-200.000	-0.031	0.202
-307.880	49.824	0.122	-0.114
-306.866	444.484	-0.143	-0.313
-305.851	-86.768	0.359	0.109
-304.837	-200.000	0.019	-0.108
-303.822	-45.481	-0.290	-0.143
-302.807	127.248	0.116	0.146
-301.793	270.353	-0.270	0.472
-300.778	411.575	0.031	0.066
-299.764	61.274	-0.153	-0.151
-298.749	-200.000	0.053	0.258
-297.735	54.876	-0.042	-0.040
-296.720	-137.830	0.150	-0.017
-295.705	-48.488	-0.128	-0.061
-294.691	-146.036	-0.106	0.009
-293.676	-83.456	0.095	-0.030
-292.662	53.227	0.138	-0.132
-291.647	241.375	-0.087	-0.144
-290.632	61.253	-0.282	0.278
-289.618	800.000	-0.066	0.242
-288.603	625.686	0.070	0.176
-287.589	800.000	0.034	-0.142
-286.574	-122.138	0.217	0.035
-285.559	168.457	-0.212	-0.300
-284.545	-91.853	-0.261	0.074
-283.530	217.621	-0.081	-0.128
-282.516	277.487	0.127	0.225
-281.501	312.920	0.073	-0.137
-280.486	84.215	-0.224	-0.243
-279.472	800.000	-0.055	0.177
-278.457	-21.411	0.073	-0.044
-277.443	216.854	0.146	0.232
-276.428	356.056	0.078	0.155
-275.413	-200.000	0.000	0.237
-274.399	800.000	-0.056	0.162
-273.384	-200.000	-0.041	0.230
-272.370	-132.543	0.166	0.021
-271.355	53.099	0.180	0.172
-270.340	-200.000	0.203	0.001
-269.326	-200.000	0.015	0.213
-268.311	458.426	-0.098	-0.216
-267.297	136.317	-0.165	0.213
-266.282	-200.000	0.005	0.130
-265.267	-122.923	-0.100	0.016
-264.253	-51.567	-0.203	-0.094
-263.238	-79.644	0.125	0.042
-262.224	131.524	-0.105	0.134
-261.209	15.702	-0.196	0.153
-260.195	46.053	0.100	-0.092
-259.180	800.000	-0.024	0.092
-258.165	-104.958	0.255	0.058
-257.151	437.385	0.070	-0.152
-256.136	-190.261	-0.048	-0.001
-255.122	-27.629	-0.459	0.265
-254.107	-56.780	0.168	-0.074
-253.092	125.719	-0.099	-0.125
-252.078	351.315	0.069	-0.135
-251.063	101.676	0.152	0.176
-250.049	288.057	0.042	0.075
-249.034	-200.000	0.018	-0.083
-248.019	-43.292	0.186	-0.093
-247.005	-124.575	-0.077	0.012
-245.990	-200.000	-0.014	-0.109
-244.976	113.917	-0.134	-0.162
-243.961	-200.000	0.019	0.386
-242.946	-128.068	0.145	-0.021
-241.932	111.868	-0.072	0.087
-240.917	-17.516	0.092	-0.057
-239.903	64.128	0.123	0.123
-238.888	61.474	-0.241	0.238
-237.873	20.125	0.261	0.209
-236.859	-200.000	0.053	0.346
-235.844	128.000	-0.266	-0.336
-234.830	42.751	-0.263	-0.238
-233.815	182.866	0.125	0.183
-232.800	518.244	-0.036	0.083
-231.786	-23.518	0.090	-0.053
-230.771	-0.827	-0.169	-0.119
-229.757	266.984	-0.113	0.196
-228.742	800.000	0.109	0.306
-227.727	20.870	0.173	0.139
-226.713	-36.786	-0.335	-0.178
-225.698	61.798	0.255	0.251
-224.684	-35.014	0.172	-0.093
-223.669	-112.086	-0.207	0.041
-222.655	-200.000	-0.023	-0.271
-221.640	800.000	0.054	0.179
-220.625	800.000	-0.056	-0.205
-219.611	14.080	-0.056	-0.043
-218.596	-77.376	-0.053	0.018
-217.582	9.087	-0.201	-0.151
-216.567	-84.702	0.175	0.054
-215.552	289.693	0.112	0.202
-214.538	-200.000	-0.046	0.216
-213.523	-54.466	-0.365	-0.164
-212.509	110.554	0.278	0.331
-211.494	-16.440	0.097	-0.061
-210.479	17.133	0.131	0.103
-209.465	800.000	0.066	-0.209
-208.450	-36.834	0.068	0.036
-207.436	19.272	-0.167	-0.133
-206.421	21.534	-0.075	-0.061
-205.406	-63.442	-0.267	-0.109
-204.392	532.652	0.094	-0.220
-203.377	456.114	0.090	-0.197
-202.363	-78.628	-0.139	0.047
-201.348	-200.000	-0.048	0.397
-200.333	25.335	-0.076	0.063
-199.319	-60.383	-0.342	-0.144
-198.304	-65.477	0.176	-0.070
-197.290	-9.367	-0.144	-0.096
-196.275	-200.000	-0.014	0.185
-195.260	800.000	-0.032	0.097
-194.246	26.066	0.090	0.075
-193.231	-145.268	0.424	0.038
-192.217	-159.708	-0.185	-0.010
-191.202	39.651	0.097	0.086
-190.187	-39.261	-0.030	0.015
-189.173	59.885	-0.150	0.147
-188.158	344.305	0.069	0.135
-187.144	-200.000	0.001	0.176
-186.129	71.872	0.258	0.266
-185.114	6.241	0.104	-0.076
-184.100	90.926	0.165	-0.183
-183.085	-180.230	0.389	0.008
-182.071	38.539	-0.161	-0.142
-181.056	-92.371	-0.364	-0.102
-180.042	312.555	0.053	0.098
-179.027	216.316	-0.108	0.170
-178.012	-20.758	-0.090	-0.055
-176.998	22.197	0.273	-0.221
-175.983	-112.431	0.169	0.034
-174.969	121.488	-0.110	0.135
-173.954	-159.908	0.340	-0.018
-172.939	800.000	0.138	-0.401
-171.925	-13.006	-0.096	0.062
-170.910	698.400	0.192	0.500
-169.896	-200.000	-0.017	0.166
-168.881	800.000	0.084	-0.242
-167.866	104.482	-0.167	0.194
-166.852	-99.413	-0.279	0.069
-165.837	-173.445	0.113	0.003
-164.823	800.000	-0.042	0.172
-163.808	-200.000	-0.004	-0.068
-162.793	745.311	-0.051	-0.135
-161.779	-50.959	-0.100	0.047
-160.764	294.384	-0.040	0.072
-159.750	800.000	0.002	-0.007
-158.735	402.961	0.150	0.311
-157.720	-200.000	-0.024	0.176
-156.706	-200.000	0.001	-0.159
-155.691	155.888	-0.046	-0.063
-154.677	294.062	-0.131	-0.237
-153.662	89.913	-0.225	0.249
-152.647	-116.740	-0.081	0.015
-151.633	-146.932	0.255	0.022
-150.618	106.993	0.125	0.147
-149.604	86.841	0.044	-0.048
-148.589	292.718	0.051	0.091
-147.574	411.952	0.087	0.182
-146.560	283.509	-0.220	-0.391
-145.545	0.620	0.117	-0.082
-144.531	139.586	-0.080	0.104
-143.516	1.090	-0.277	-0.197
-142.502	800.000	0.052	0.146
-141.487	105.319	-0.329	-0.384
-140.472	258.283	-0.288	-0.491
-139.458	20.654	-0.286	0.229
-138.443	-159.833	0.392	0.021
-137.429	-104.533	-0.049	0.011
-136.414	82.624	-0.013	0.014
-135.399	800.000	0.070	-0.200
-134.385	67.584	-0.238	0.240
-133.370	-79.419	-0.102	0.034
-132.356	-74.688	-0.166	0.059
-131.341	256.123	-0.282	-0.478
-130.326	-193.359	-0.147	-0.001
-129.312	-47.839	0.120	0.057
-128.297	68.739	-0.135	0.136
-127.283	-200.000	0.016	-0.151
-126.268	800.000	-0.084	0.281
-125.253	-41.191	0.024	0.012
-124.239	182.642	0.151	-0.220
-123.224	-128.143	0.367	-0.052
-122.210	126.779	0.131	0.164
-121.195	-200.000	-0.001	0.132
