DTS Sentinel unit serial number:	SN413079Multiplexer serial number:	ORYXHardware model number:	OX4-SRSoftware version number:	ORYX F/W v4.00 Oryx Data Collector v3.7.2.0data status	okinstallation	princeton_trtdifferential loss correction	single-endedforward channel	channel 1reverse channel	N/Adate	2019/09/12time	16:00:11forward acquisition time	60.00reverse acquisition time	0.00gamma	496.2192k internal	0.2298k external	0.2298temperature offset calibration	1.0084default loss term (dB/km)	0.3790temperature slope calibration	1.0000multiplexer offset coefficient	1.0000multiplexer slope coefficient	1.0000fibre end	0.00T internal ref (°C)	39.03T ext. ref 1 (°C)	2.51T ext. ref 2 (°C)	31.93length (m)	temperature (°C)	Stokes	anti-Stokes-747.200	800.000	-0.041	-0.173
-746.185	-70.557	-0.145	0.056
-745.171	-148.066	0.213	-0.018
-744.156	134.264	0.270	0.357
-743.142	379.186	-0.075	0.156
-742.127	-200.000	-0.004	0.169
-741.112	-57.714	0.319	-0.142
-740.098	263.060	-0.018	-0.032
-739.083	286.195	0.041	-0.075
-738.069	-10.801	0.117	-0.079
-737.054	-200.000	-0.003	-0.530
-736.039	139.331	-0.119	-0.159
-735.025	470.631	0.067	0.154
-734.010	-97.569	-0.353	-0.093
-732.996	-36.351	-0.227	-0.125
-731.981	726.897	-0.128	-0.347
-730.966	-156.867	-0.181	-0.011
-729.952	-200.000	0.014	0.215
-728.937	279.363	-0.053	0.097
-727.923	35.333	0.096	-0.086
-726.908	-76.555	-0.148	-0.053
-725.894	-72.062	-0.173	0.066
-724.879	-133.347	-0.122	0.016
-723.864	-177.055	0.094	0.002
-722.850	26.565	-0.182	0.156
-721.835	80.287	-0.112	-0.123
-720.821	-200.000	-0.002	0.113
-719.806	-119.671	-0.117	0.021
-718.791	800.000	0.012	0.047
-717.777	-200.000	-0.053	-0.257
-716.762	350.593	0.187	-0.378
-715.748	3.344	-0.171	-0.127
-714.733	23.553	0.124	0.104
-713.718	49.831	0.191	-0.184
-712.704	-5.707	-0.059	0.041
-711.689	-59.594	0.062	-0.027
-710.675	359.145	0.195	-0.398
-709.660	-137.052	-0.251	0.029
-708.645	-200.000	0.098	-0.499
-707.631	-200.000	-0.020	0.090
-706.616	800.000	0.031	-0.092
-705.602	-80.166	-0.144	-0.049
-704.587	-200.000	-0.038	-0.218
-703.572	57.550	-0.208	0.207
-702.558	-200.000	0.041	-0.202
-701.543	-152.145	-0.105	0.008
-700.529	-200.000	-0.025	0.287
-699.514	219.381	0.116	-0.188
-698.499	105.027	-0.073	-0.087
-697.485	51.940	0.088	0.085
-696.470	-127.403	0.378	-0.056
-695.456	518.744	0.127	-0.303
-694.441	-83.423	-0.379	-0.124
-693.426	145.206	0.141	0.192
-692.412	-186.194	0.334	0.005
-691.397	109.960	-0.195	0.238
-690.383	301.274	-0.172	0.324
-689.368	424.052	-0.045	-0.098
-688.354	-200.000	-0.085	-0.403
-687.339	-37.817	0.209	-0.113
-686.324	17.057	-0.202	0.163
-685.310	-139.596	-0.127	0.014
-684.295	-131.956	-0.246	0.033
-683.281	272.972	0.046	-0.084
-682.266	99.199	-0.219	-0.258
-681.251	763.895	0.050	-0.138
-680.237	-86.808	-0.607	0.189
-679.222	-143.593	0.192	0.019
-678.208	-59.305	0.114	-0.050
-677.193	-131.406	-0.220	0.030
-676.178	174.298	-0.193	-0.284
-675.164	-43.368	-0.184	0.095
-674.149	-91.068	0.218	-0.064
-673.135	-200.000	-0.030	0.275
-672.120	-182.429	0.129	0.002
-671.105	220.388	0.128	-0.208
-670.091	-185.834	0.209	0.003
-669.076	-200.000	0.016	0.091
-668.062	94.055	0.135	-0.155
-667.047	16.493	-0.320	0.257
-666.032	128.413	-0.339	-0.439
-665.018	-136.586	-0.194	0.023
-664.003	-200.000	-0.030	0.527
-662.989	-104.984	0.013	0.003
-661.974	-62.571	-0.060	-0.025
-660.959	-200.000	0.008	0.197
-659.945	-24.802	-0.211	-0.127
-658.930	-69.003	-0.537	0.211
-657.916	-141.752	0.345	-0.035
-656.901	201.901	-0.068	0.106
-655.886	-200.000	0.034	0.219
-654.872	546.288	0.054	-0.131
-653.857	-77.284	-0.089	0.031
-652.843	23.513	-0.289	0.242
-651.828	205.737	0.004	-0.007
-650.814	461.180	-0.104	0.237
-649.799	-200.000	-0.003	0.038
-648.784	-200.000	-0.017	-0.134
-647.770	800.000	-0.073	-0.304
-646.755	-35.782	-0.296	0.163
-645.741	54.144	0.218	0.213
-644.726	-79.657	0.070	-0.024
-643.711	-72.064	0.219	0.083
-642.697	-0.212	-0.189	-0.137
-641.682	-55.164	-0.292	-0.134
-640.668	646.712	0.065	-0.168
-639.653	-91.689	-0.198	-0.057
-638.638	64.000	-0.152	-0.155
-637.624	-200.000	0.060	-0.336
-636.609	55.539	0.110	0.108
-635.595	-66.053	-0.122	-0.050
-634.580	-108.153	-0.137	-0.030
-633.565	-200.000	-0.018	-0.448
-632.551	57.487	-0.120	0.119
-631.536	-40.143	0.198	0.105
-630.522	-200.000	0.027	-0.157
-629.507	-50.830	0.059	0.028
-628.492	302.137	0.100	0.188
-627.478	-39.206	-0.145	0.078
-626.463	-67.569	-0.092	-0.037
-625.449	-200.000	-0.030	-0.351
-624.434	800.000	0.088	-0.256
-623.419	-200.000	0.001	-0.182
-622.405	432.981	-0.030	0.066
-621.390	-200.000	0.009	0.098
-620.376	240.882	-0.063	0.107
-619.361	-89.334	-0.204	-0.061
-618.346	-200.000	-0.008	-0.299
-617.332	51.959	0.090	-0.087
-616.317	-85.211	-0.373	-0.118
-615.303	-141.502	-0.378	-0.039
-614.288	-123.750	-0.545	0.088
-613.273	-104.695	-0.265	-0.062
-612.259	-119.515	0.225	0.040
-611.244	-43.523	-0.028	-0.014
-610.230	274.143	0.142	0.255
-609.215	327.717	0.112	-0.219
-608.201	302.073	0.078	0.147
-607.186	-200.000	0.005	0.326
-606.171	546.132	-0.121	-0.295
-605.157	-73.543	0.072	0.027
-604.142	800.000	0.074	0.217
-603.128	134.352	-0.224	0.295
-602.113	-200.000	-0.024	0.334
-601.098	128.111	-0.063	-0.081
-600.084	800.000	0.038	0.130
-599.069	90.085	-0.036	0.041
-598.055	83.074	0.127	0.140
-597.040	-81.449	-0.347	-0.116
-596.025	-40.643	0.200	-0.105
-595.011	-200.000	-0.299	-0.001
-593.996	1.586	0.464	-0.339
-592.982	422.431	0.131	-0.286
-591.967	707.185	-0.071	0.191
-590.952	174.900	0.055	-0.081
-589.938	-135.744	0.016	0.002
-588.923	-105.010	0.166	-0.039
-587.909	800.000	0.079	-0.324
-586.894	-200.000	0.006	-0.271
-585.879	96.109	0.090	0.104
-584.865	69.318	-0.163	0.170
-583.850	501.343	0.087	0.205
-582.836	-200.000	-0.024	0.155
-581.821	-99.966	0.143	-0.036
-580.806	-139.026	-0.245	-0.027
-579.792	185.769	-0.077	-0.116
-578.777	152.410	-0.211	-0.292
-577.763	655.766	-0.129	-0.335
-576.748	-0.686	0.281	-0.202
-575.733	17.634	0.020	0.016
-574.719	-200.000	-0.039	-0.278
-573.704	33.920	0.151	-0.133
-572.690	-200.000	0.082	0.377
-571.675	-200.000	0.039	0.318
-570.661	-200.000	0.025	0.119
-569.646	-83.988	0.195	0.063
-568.631	-200.000	0.044	-0.327
-567.617	-116.127	0.276	-0.052
-566.602	800.000	-0.114	0.387
-565.588	274.222	-0.158	0.283
-564.573	-200.000	0.002	-0.031
-563.558	623.895	-0.061	0.155
-562.544	42.024	0.061	0.056
-561.529	616.381	-0.080	-0.204
-560.515	46.002	0.237	0.222
-559.500	800.000	-0.056	-0.173
-558.485	-78.663	0.101	-0.035
-557.471	57.478	-0.120	-0.119
-556.456	-7.117	-0.059	-0.040
-555.442	-79.716	0.212	-0.072
-554.427	-87.667	-0.280	-0.086
-553.412	-200.000	0.012	0.156
-552.398	-143.211	0.154	0.015
-551.383	-63.790	-0.135	-0.056
-550.369	-23.541	0.241	-0.147
-549.354	50.413	0.260	-0.249
-548.339	248.494	0.047	0.080
-547.325	-34.375	0.390	-0.217
-546.310	2.292	-0.110	0.080
-545.296	153.939	-0.022	0.030
-544.281	-200.000	0.041	0.194
-543.266	-11.797	0.106	-0.071
-542.252	-200.000	0.001	-0.248
-541.237	172.260	-0.152	-0.222
-540.223	800.000	0.073	0.298
-539.208	13.859	-0.135	0.106
-538.193	-200.000	0.000	-0.203
-537.179	-193.598	0.116	-0.001
-536.164	68.876	-0.186	0.194
-535.150	-121.565	0.191	0.032
-534.135	-200.000	-0.263	0.000
-533.121	197.721	-0.221	-0.341
-532.106	-200.000	0.012	0.064
-531.091	248.414	-0.047	-0.081
-530.077	-172.043	0.147	0.005
-529.062	-41.881	0.187	0.097
-528.048	-139.378	-0.363	0.039
-527.033	532.120	0.073	-0.174
-526.018	-46.793	0.266	-0.132
-525.004	-60.256	0.192	0.083
-523.989	42.324	0.109	0.101
-522.975	13.392	0.205	-0.161
-521.960	-68.349	0.176	-0.069
-520.945	-154.411	0.146	-0.010
-519.931	-111.406	0.298	-0.062
-518.916	-23.899	-0.254	-0.154
-517.902	-200.000	0.013	-0.417
-516.887	78.113	-0.158	-0.171
-515.872	-116.199	0.309	-0.058
-514.858	108.458	-0.160	0.193
-513.843	-48.766	-0.203	0.099
-512.829	-174.988	0.258	0.007
-511.814	-22.339	0.189	-0.116
-510.799	385.304	-0.059	0.123
-509.785	-148.495	-0.270	0.022
-508.770	647.582	-0.095	0.246
-507.756	-86.174	0.298	0.093
-506.741	430.385	-0.170	-0.371
-505.726	-134.782	0.299	0.037
-504.712	-127.064	-0.176	-0.026
-503.697	-200.000	-0.005	0.152
-502.683	-200.000	-0.003	0.166
-501.668	-63.390	0.231	0.096
-500.653	-84.570	-0.176	0.056
-499.639	-79.975	-0.215	0.073
-498.624	-62.907	0.165	-0.069
-497.610	-48.117	0.084	-0.041
-496.595	-88.537	0.529	-0.159
-495.581	79.799	-0.133	0.144
-494.566	-111.531	0.343	-0.071
-493.551	-39.428	0.136	-0.072
-492.537	-126.354	-0.160	-0.024
-491.522	-200.000	-0.021	-0.200
-490.508	-33.460	-0.073	0.041
-489.493	-39.370	-0.183	0.097
-488.478	63.381	0.157	0.159
-487.464	175.825	-0.050	0.073
-486.449	800.000	0.016	0.054
-485.435	205.767	0.166	-0.261
-484.420	-200.000	0.010	-0.114
-483.405	19.659	-0.189	-0.154
-482.391	6.976	0.226	0.170
-481.376	132.588	-0.223	-0.291
-480.362	192.113	0.052	0.080
-479.347	800.000	-0.043	0.137
-478.332	-190.065	-0.516	0.006
-477.318	-200.000	0.035	-0.185
-476.303	-38.625	0.141	-0.075
-475.289	-146.616	0.300	0.026
-474.274	-193.012	0.233	0.002
-473.259	-47.744	-0.191	0.094
-472.245	-41.733	0.228	-0.118
-471.230	-180.273	0.271	-0.006
-470.216	-83.708	-0.371	0.119
-469.201	167.579	-0.016	-0.024
-468.186	309.983	-0.058	-0.110
-467.172	-54.139	0.281	-0.129
-466.157	66.842	-0.073	-0.075
-465.143	186.791	-0.172	0.258
-464.128	800.000	-0.008	-0.024
-463.113	-124.946	0.226	0.035
-462.099	240.033	-0.162	-0.273
-461.084	656.111	0.023	0.059
-460.070	-200.000	-0.022	0.482
-459.055	-77.197	-0.083	-0.029
-458.040	556.808	-0.054	0.130
-457.026	-57.087	-0.246	0.109
-456.011	387.821	0.043	0.090
-454.997	227.904	-0.252	-0.413
-453.982	-200.000	-0.038	-0.233
-452.968	-85.449	-0.252	-0.079
-451.953	714.508	0.005	-0.013
-450.938	-200.000	-0.055	-0.256
-449.924	-143.578	-0.394	0.038
-448.909	800.000	0.060	0.217
-447.895	-200.000	-0.086	0.624
-446.880	-200.000	0.050	-0.467
-445.865	-200.000	0.023	0.158
-444.851	-200.000	-0.010	-0.107
-443.836	278.155	-0.170	-0.305
-442.822	-35.056	0.265	0.146
-441.807	-130.735	-0.194	-0.026
-440.792	59.497	0.101	-0.101
-439.778	107.569	-0.133	0.160
-438.763	133.021	0.094	0.123
-437.749	537.425	0.038	-0.091
-436.734	608.606	0.218	0.549
-435.719	83.037	-0.096	0.106
-434.705	-200.000	0.031	0.237
-433.690	363.225	-0.178	0.361
-432.676	551.941	-0.073	0.178
-431.661	172.424	0.065	0.095
-430.646	-40.793	0.139	0.072
-429.632	-166.873	-0.169	0.007
-428.617	-27.788	-0.049	0.029
-427.603	-43.036	0.097	-0.049
-426.588	219.296	0.029	-0.047
-425.573	330.507	-0.019	-0.036
-424.559	455.754	-0.085	-0.189
-423.544	-24.343	-0.050	-0.030
-422.530	346.258	0.163	0.323
-421.515	108.263	-0.084	0.101
-420.500	800.000	-0.091	-0.305
-419.486	79.363	-0.079	0.086
-418.471	143.374	0.138	-0.185
-417.457	413.893	0.061	-0.130
-416.442	-65.372	-0.123	-0.050
-415.428	319.792	-0.176	-0.337
-414.413	-200.000	-0.029	0.304
-413.398	-74.356	-0.220	-0.080
-412.384	-200.000	0.094	-0.000
-411.369	213.464	0.128	0.204
-410.355	129.484	0.134	-0.172
-409.340	-118.331	-0.074	-0.013
-408.325	294.319	-0.099	-0.183
-407.311	800.000	-0.033	0.108
-406.296	-52.213	0.366	-0.171
-405.282	800.000	-0.084	-0.350
-404.267	-111.166	-0.303	-0.062
-403.252	624.890	-0.092	-0.234
-402.238	-82.294	-0.217	0.071
-401.223	91.641	-0.128	0.145
-400.209	553.200	0.061	0.148
-399.194	-35.409	-0.233	-0.128
-398.179	-157.122	0.214	0.013
-397.165	-120.670	0.157	0.027
-396.150	-125.742	-0.212	0.032
-395.136	118.101	0.218	-0.270
-394.121	308.419	-0.060	0.113
-393.106	-200.000	0.007	0.153
-392.092	-10.555	-0.203	-0.136
-391.077	-104.628	-0.052	-0.012
-390.063	-52.655	0.161	0.075
-389.048	409.395	0.061	0.130
-388.033	19.738	0.372	0.301
-387.019	43.428	-0.073	-0.067
-386.004	272.681	-0.078	0.138
-384.990	573.796	-0.142	0.349
-383.975	106.926	-0.135	0.161
-382.960	409.236	0.094	-0.200
-381.946	-47.774	0.262	-0.128
-380.931	-200.000	-0.003	-0.248
-379.917	277.420	0.203	0.363
-378.902	-200.000	-0.006	0.120
-377.888	188.077	-0.147	-0.220
-376.873	-124.584	-0.252	-0.039
-375.858	-196.862	0.374	-0.002
-374.844	-100.128	-0.062	0.015
-373.829	-122.253	-0.403	-0.066
-372.815	-103.765	-0.304	-0.071
-371.800	-200.000	-0.010	0.062
-370.785	-83.220	-0.228	0.074
-369.771	110.687	0.127	-0.154
-368.756	-200.000	-0.029	-0.351
-367.742	-200.000	-0.017	-0.234
-366.727	386.783	-0.050	0.104
-365.712	320.986	-0.021	-0.040
-364.698	31.821	-0.022	-0.019
-363.683	-200.000	0.005	-0.165
-362.669	103.345	0.074	-0.088
-361.654	27.649	-0.222	0.188
-360.639	-126.010	0.150	-0.023
-359.625	-131.016	-0.260	-0.035
-358.610	-42.006	0.158	0.081
-357.596	125.405	-0.040	0.051
-356.581	527.525	-0.104	-0.248
-355.566	330.321	-0.160	-0.310
-354.552	-134.463	0.220	0.027
-353.537	-118.442	-0.195	-0.035
-352.523	-63.736	0.063	-0.026
-351.508	522.042	-0.161	0.379
-350.493	578.324	-0.023	0.057
-349.479	-25.671	-0.167	0.099
-348.464	-200.000	0.026	-0.143
-347.450	422.447	-0.115	-0.249
-346.435	-160.353	0.134	-0.007
-345.420	-200.000	0.033	-0.185
-344.406	-200.000	0.010	0.082
-343.391	-200.000	-0.069	-0.329
-342.377	124.980	-0.207	-0.262
-341.362	-200.000	-0.013	-0.279
-340.348	-200.000	-0.017	-0.322
-339.333	800.000	0.074	0.318
-338.318	-124.726	0.339	-0.053
-337.304	42.319	-0.161	0.147
-336.289	-200.000	-0.027	-0.351
-335.275	-148.593	0.147	0.012
-334.260	800.000	0.064	0.271
-333.245	-200.000	-0.016	-0.157
-332.231	-200.000	-0.011	0.074
-331.216	64.216	0.110	-0.111
-330.202	-40.458	0.054	-0.028
-329.187	157.782	0.089	0.124
-328.172	-200.000	0.010	0.311
-327.158	716.777	-0.036	0.097
-326.143	-200.000	0.077	-0.000
-325.129	800.000	0.166	-0.492
-324.114	-200.000	0.001	-0.023
-323.099	363.249	-0.012	0.024
-322.085	78.877	0.066	0.071
-321.070	-200.000	-0.005	-0.189
-320.056	-167.292	0.175	-0.007
-319.041	-52.188	-0.191	0.089
-318.026	-200.000	-0.001	0.014
-317.012	800.000	0.023	-0.087
-315.997	90.695	-0.190	-0.214
-314.983	-200.000	-0.007	-0.048
-313.968	225.455	0.046	0.075
-312.953	-200.000	0.009	0.053
-311.939	348.594	0.044	-0.088
-310.924	257.709	0.113	0.195
-309.910	-200.000	0.197	-0.000
-308.895	86.374	0.197	0.218
-307.880	18.246	0.181	0.145
-306.866	213.284	-0.202	0.321
-305.851	24.218	0.188	0.156
-304.837	647.592	-0.065	-0.167
-303.822	-200.000	0.033	0.214
-302.807	-29.736	-0.070	-0.040
-301.793	800.000	-0.070	0.228
-300.778	800.000	0.074	0.318
-299.764	-77.791	-0.155	0.054
-298.749	-166.977	-0.218	0.009
-297.735	144.894	0.070	0.094
-296.720	114.731	0.071	-0.086
-295.705	-200.000	0.007	0.068
-294.691	-103.161	0.185	0.044
-293.676	394.634	0.110	-0.230
-292.662	251.199	0.147	-0.250
-291.647	-200.000	-0.044	0.287
-290.632	742.158	0.075	0.203
-289.618	-148.805	-0.010	0.001
-288.603	-34.965	-0.219	-0.120
-287.589	-71.780	-0.101	-0.038
-286.574	259.002	0.049	0.085
-285.559	246.325	-0.074	-0.126
-284.545	-200.000	-0.001	-0.003
-283.530	-200.000	-0.057	-0.304
-282.516	-5.611	-0.153	0.105
-281.501	25.132	-0.042	0.035
-280.486	-200.000	0.003	-0.049
-279.472	800.000	-0.048	-0.211
-278.457	800.000	-0.069	0.246
-277.443	0.941	-0.353	0.254
-276.428	46.145	-0.037	0.035
-275.413	57.103	-0.071	0.069
-274.399	18.834	0.256	-0.206
-273.384	276.546	0.086	-0.154
-272.370	492.208	0.003	-0.008
-271.355	-96.319	-0.262	-0.069
-270.340	800.000	0.067	-0.186
-269.326	-200.000	-0.024	0.306
-268.311	800.000	-0.058	-0.215
-267.297	-200.000	0.002	0.196
-266.282	149.597	0.088	0.119
-265.267	83.532	-0.079	-0.086
-264.253	12.782	0.072	0.055
-263.238	-77.245	-0.180	0.063
-262.224	-200.000	0.068	0.446
-261.209	-78.191	-0.133	0.046
-260.195	443.330	0.041	-0.089
-259.180	489.106	-0.025	0.058
-258.165	202.766	-0.132	-0.205
-257.151	290.463	-0.082	-0.150
-256.136	-57.661	0.391	-0.172
-255.122	-200.000	0.024	-0.283
-254.107	111.314	-0.107	0.129
-253.092	769.071	-0.031	0.085
-252.078	695.635	0.061	-0.160
-251.063	-137.521	-0.092	0.010
-250.049	-200.000	-0.016	0.418
-249.034	-25.671	0.237	-0.140
-248.019	-19.168	0.144	-0.090
-247.005	236.585	-0.177	-0.294
-245.990	-200.000	0.019	-0.242
-244.976	-147.233	0.285	-0.024
-243.961	-200.000	0.031	-0.192
-242.946	16.446	-0.165	0.130
-241.932	-42.292	-0.125	-0.064
-240.917	-116.511	0.452	0.083
-239.903	374.822	-0.067	-0.137
-238.888	-127.959	0.151	0.022
-237.873	19.594	0.192	0.154
-236.859	28.106	0.098	-0.083
-235.844	-200.000	-0.008	-0.081
-234.830	-16.823	0.348	-0.220
-233.815	-200.000	-0.022	0.113
-232.800	14.841	-0.217	0.170
-231.786	10.102	-0.216	0.164
-230.771	35.538	0.181	-0.159
-229.757	-140.058	-0.277	-0.029
-228.742	-200.000	-0.012	0.229
-227.727	-81.912	-0.208	-0.068
-226.713	-43.798	-0.150	0.076
-225.698	101.898	-0.147	0.172
-224.684	-121.448	0.063	0.011
-223.669	-200.000	-0.005	0.073
-222.655	324.807	0.156	0.299
-221.640	63.442	-0.132	0.133
-220.625	561.032	0.097	-0.234
-219.611	-170.246	0.292	0.010
-218.596	-200.000	-0.047	0.518
-217.582	-14.193	-0.293	0.189
-216.567	-200.000	0.087	0.442
-215.552	14.087	-0.170	0.133
-214.538	-28.392	-0.169	0.098
-213.523	674.835	0.089	-0.232
-212.509	-156.479	0.181	-0.011
-211.494	-117.362	-0.531	-0.096
-210.479	-200.000	-0.014	-0.117
-209.465	-8.668	0.393	0.263
-208.450	-54.276	0.025	0.011
-207.436	104.993	0.233	0.275
-206.421	658.165	-0.114	0.293
-205.406	-118.815	0.194	0.034
-204.392	-200.000	0.006	-0.228
-203.377	-98.003	-0.102	-0.026
-202.363	44.708	0.120	0.111
-201.348	-103.404	-0.038	-0.009
-200.333	449.044	0.134	0.296
-199.319	10.367	-0.077	0.059
-198.304	-200.000	0.020	-0.095
-197.290	-142.694	0.046	0.005
-196.275	9.160	0.102	-0.077
-195.260	-125.001	0.175	0.027
-194.246	541.793	-0.085	-0.203
-193.231	383.163	0.207	-0.425
-192.217	425.524	-0.092	-0.198
-191.202	168.507	-0.151	-0.214
-190.187	-200.000	-0.008	-0.082
-189.173	64.532	0.130	0.131
-188.158	-200.000	0.021	-0.203
-187.144	74.505	-0.077	0.081
-186.129	800.000	0.132	0.428
-185.114	370.359	-0.077	0.157
-184.100	109.819	0.153	0.183
-183.085	-127.364	0.128	-0.019
-182.071	-200.000	0.029	-0.236
-181.056	-85.151	-0.218	0.068
-180.042	301.053	-0.050	0.092
-179.027	373.232	-0.085	0.173
-178.012	-26.696	0.128	-0.075
-176.998	800.000	-0.057	0.162
-175.983	208.661	0.089	-0.139
-174.969	-117.885	-0.271	-0.048
-173.954	800.000	-0.076	0.290
-172.939	511.853	0.111	0.258
-171.925	800.000	0.081	0.306
-170.910	198.058	0.182	-0.277
-169.896	41.455	-0.129	0.116
-168.881	800.000	0.069	0.289
-167.866	29.661	-0.232	-0.197
-166.852	329.216	0.079	0.152
-165.837	133.949	0.176	0.227
-164.823	-200.000	-0.035	0.610
-163.808	-44.587	0.360	0.180
-162.793	190.549	-0.088	0.132
-161.779	-200.000	0.027	-0.169
-160.764	-200.000	0.005	0.099
-159.750	49.345	-0.253	-0.238
-158.735	8.599	0.206	0.155
-157.720	-125.007	-0.302	0.046
-156.706	-200.000	-0.026	-0.292
-155.691	36.411	0.066	0.058
-154.677	-25.264	0.496	0.293
-153.662	-49.164	0.171	-0.081
-152.647	-89.531	0.280	0.082
-151.633	-200.000	0.002	0.226
-150.618	-200.000	-0.028	-0.266
-149.604	8.923	0.110	0.083
-148.589	800.000	0.014	-0.045
-147.574	-145.278	0.361	0.033
-146.560	309.647	-0.166	0.310
-145.545	-149.033	-0.296	-0.024
-144.531	800.000	-0.062	0.212
-143.516	2.912	-0.071	-0.051
-142.502	800.000	-0.094	-0.319
-141.487	-87.244	0.282	-0.085
-140.472	-126.933	0.220	-0.032
-139.458	-62.013	0.125	-0.052
-138.443	-200.000	-0.007	0.113
-137.429	148.540	-0.172	0.231
-136.414	-80.518	0.151	0.050
-135.399	48.369	-0.147	-0.137
-134.385	-115.591	0.185	0.035
-133.370	76.547	-0.087	0.092
-132.356	101.090	-0.227	0.263
-131.341	594.094	0.099	0.245
-130.326	-108.482	-0.108	0.023
-129.312	800.000	-0.058	-0.235
-128.297	-69.901	-0.065	0.025
-127.283	-137.362	-0.205	-0.023
-126.268	-149.092	0.197	0.016
-125.253	-104.920	0.161	0.037
-124.239	112.116	0.060	-0.073
-123.224	240.360	-0.081	0.135
