DTS Sentinel unit serial number:	SN413079Multiplexer serial number:	ORYXHardware model number:	OX4-SRSoftware version number:	ORYX F/W v4.00 Oryx Data Collector v3.7.2.0data status	okinstallation	princeton_trtdifferential loss correction	single-endedforward channel	channel 1reverse channel	N/Adate	2019/09/15time	15:26:35forward acquisition time	60.00reverse acquisition time	0.00gamma	496.2192k internal	0.2291k external	0.2291temperature offset calibration	0.9948default loss term (dB/km)	0.3790temperature slope calibration	1.0000multiplexer offset coefficient	1.0000multiplexer slope coefficient	1.0000fibre end	0.00T internal ref (°C)	41.06T ext. ref 1 (°C)	5.08T ext. ref 2 (°C)	38.50length (m)	temperature (°C)	Stokes	anti-Stokes-747.200	39.737	-0.199	0.183
-746.185	138.724	-0.075	0.100
-745.171	54.726	-0.139	-0.138
-744.156	206.909	0.030	0.047
-743.142	75.504	0.201	0.218
-742.127	222.373	-0.264	0.434
-741.112	-24.938	-0.135	0.082
-740.098	800.000	0.081	-0.241
-739.083	-2.730	-0.256	0.184
-738.069	-114.980	-0.196	0.038
-737.054	-46.098	0.282	0.142
-736.039	84.157	0.158	-0.177
-735.025	-198.731	0.201	-0.001
-734.010	184.703	-0.173	0.262
-732.996	-118.035	-0.303	0.055
-731.981	314.888	-0.091	-0.176
-730.966	680.737	0.101	0.269
-729.952	-12.853	-0.146	-0.098
-728.937	-159.201	0.216	-0.012
-727.923	-83.536	-0.200	-0.066
-726.908	122.715	0.177	-0.227
-725.894	-102.347	-0.206	-0.051
-724.879	-94.789	-0.319	0.089
-723.864	-130.067	0.245	0.034
-722.850	-118.605	0.129	-0.023
-721.835	-200.000	0.027	0.155
-720.821	-143.911	0.085	0.008
-719.806	-95.867	0.013	-0.003
-718.791	-60.441	0.103	-0.045
-717.777	-200.000	-0.006	-0.026
-716.762	232.268	0.211	0.353
-715.748	-62.779	0.065	0.028
-714.733	355.545	-0.032	0.065
-713.718	800.000	-0.048	-0.187
-712.704	-87.375	0.097	0.030
-711.689	645.503	-0.060	0.158
-710.675	-159.255	-0.592	0.034
-709.660	-200.000	0.016	-0.261
-708.645	-34.237	0.178	0.100
-707.631	59.075	0.183	-0.184
-706.616	-48.546	0.216	0.106
-705.602	-79.309	0.284	-0.098
-704.587	800.000	-0.077	0.239
-703.572	277.793	0.201	0.365
-702.558	92.125	0.063	-0.072
-701.543	-200.000	0.052	-0.461
-700.529	157.842	-0.282	-0.400
-699.514	-66.239	-0.081	-0.033
-698.499	-3.094	0.229	-0.164
-697.485	-90.077	0.130	-0.039
-696.470	-200.000	0.019	0.142
-695.456	166.009	-0.133	0.193
-694.441	480.061	0.038	0.088
-693.426	-200.000	0.053	0.398
-692.412	-23.323	0.141	-0.086
-691.397	349.809	0.073	0.147
-690.383	800.000	-0.058	-0.204
-689.368	86.445	0.029	0.032
-688.354	-200.000	0.055	0.377
-687.339	43.743	0.120	-0.112
-686.324	-58.334	0.104	0.046
-685.310	-161.091	-0.357	-0.019
-684.295	-66.831	-0.269	0.109
-683.281	-146.407	0.184	0.016
-682.266	-71.125	-0.291	-0.112
-681.251	-110.025	-0.336	0.072
-680.237	30.257	0.168	-0.146
-679.222	-115.951	-0.309	0.059
-678.208	578.085	0.130	-0.324
-677.193	589.368	-0.040	0.100
-676.178	-57.782	0.107	0.048
-675.164	-200.000	-0.016	-0.378
-674.149	150.093	0.140	0.193
-673.135	800.000	-0.066	0.188
-672.120	-40.122	0.225	0.120
-671.105	782.973	0.051	0.143
-670.091	-200.000	-0.014	-0.136
-669.076	41.376	0.185	0.171
-668.062	-200.000	0.019	0.139
-667.047	-200.000	-0.005	0.036
-666.032	408.756	0.134	-0.289
-665.018	311.391	0.060	0.115
-664.003	303.707	-0.231	-0.436
-662.989	107.913	-0.120	0.146
-661.974	-185.612	-0.301	0.005
-660.959	116.257	0.117	-0.147
-659.945	-97.701	0.211	0.056
-658.930	-18.963	-0.292	-0.186
-657.916	-200.000	-0.007	-0.032
-656.901	87.760	-0.286	-0.324
-655.886	-11.982	0.064	0.043
-654.872	-93.306	-0.218	0.062
-653.857	419.867	0.093	-0.203
-652.843	-77.657	-0.382	-0.135
-651.828	18.368	-0.111	0.090
-650.814	414.374	-0.081	0.176
-649.799	-200.000	-0.003	-0.218
-648.784	95.496	-0.066	-0.077
-647.770	-168.189	0.200	0.008
-646.755	51.571	-0.152	-0.147
-645.741	-200.000	0.006	-0.106
-644.726	-200.000	0.059	-0.328
-643.711	-200.000	-0.021	-0.425
-642.697	-129.966	0.224	0.031
-641.682	136.810	-0.114	0.152
-640.668	-200.000	-0.045	0.225
-639.653	-200.000	-0.013	0.073
-638.638	361.867	-0.066	-0.135
-637.624	139.182	-0.042	0.057
-636.609	-14.925	-0.193	0.126
-635.595	-121.419	-0.263	0.045
-634.580	800.000	-0.095	-0.375
-633.565	-49.913	0.342	0.166
-632.551	430.751	0.077	-0.171
-631.536	184.691	-0.159	-0.240
-630.522	-103.393	-0.066	-0.016
-629.507	-31.645	0.119	0.068
-628.492	48.535	0.206	0.197
-627.478	71.192	0.123	-0.130
-626.463	-130.533	-0.326	-0.045
-625.449	-200.000	0.013	0.396
-624.434	800.000	-0.020	-0.073
-623.419	-76.153	-0.095	0.034
-622.405	-33.398	0.129	-0.073
-621.390	800.000	-0.020	-0.061
-620.376	-93.440	0.157	0.044
-619.361	-98.766	-0.382	-0.099
-618.346	166.551	-0.022	-0.031
-617.332	334.016	0.065	-0.128
-616.317	236.960	-0.099	0.167
-615.303	111.924	-0.348	0.428
-614.288	-85.426	0.180	0.057
-613.273	-200.000	0.006	-0.099
-612.259	-61.506	0.263	-0.112
-611.244	176.091	0.109	0.162
-610.230	-81.818	0.220	0.073
-609.215	116.529	0.146	-0.182
-608.201	800.000	-0.035	-0.131
-607.186	99.255	-0.014	-0.016
-606.171	-7.506	-0.132	0.091
-605.157	491.276	0.099	-0.231
-604.142	800.000	0.005	-0.024
-603.128	-70.459	-0.181	0.070
-602.113	-114.400	-0.017	0.003
-601.098	800.000	-0.019	0.070
-600.084	-147.898	-0.294	0.025
-599.069	-103.743	0.293	-0.070
-598.055	102.681	-0.148	0.176
-597.040	-153.846	0.154	0.011
-596.025	-61.328	-0.269	0.115
-595.011	-130.783	0.128	0.018
-593.996	-200.000	0.000	-0.301
-592.982	167.056	-0.165	-0.239
-591.967	-142.032	0.086	0.009
-590.952	124.339	0.090	-0.115
-589.938	-114.065	-0.263	-0.052
-588.923	800.000	0.049	0.205
-587.909	382.030	-0.157	0.328
-586.894	70.337	-0.132	0.139
-585.879	-125.894	0.061	-0.009
-584.865	24.934	-0.148	0.125
-583.850	-110.849	0.218	-0.046
-582.836	-200.000	0.001	0.010
-581.821	-200.000	-0.017	0.520
-580.806	-71.861	-0.190	0.072
-579.792	-47.536	0.180	-0.089
-578.777	-112.472	0.083	0.017
-577.763	347.168	-0.106	0.213
-576.748	-96.454	0.048	-0.013
-575.733	-70.158	0.245	0.095
-574.719	-119.396	-0.312	0.055
-573.704	-13.788	-0.487	-0.320
-572.690	800.000	0.036	0.115
-571.675	-117.780	-0.160	-0.029
-570.661	-20.792	-0.124	-0.077
-569.646	-200.000	0.073	0.421
-568.631	-200.000	0.013	-0.267
-567.617	-115.139	-0.254	-0.049
-566.602	145.185	-0.353	-0.480
-565.588	775.165	0.044	-0.123
-564.573	100.306	0.069	0.081
-563.558	64.429	0.210	0.215
-562.544	-51.452	0.205	0.097
-561.529	800.000	0.045	0.156
-560.515	275.991	-0.108	-0.195
-559.500	800.000	0.065	-0.238
-558.485	-200.000	-0.010	-0.424
-557.471	97.688	-0.102	-0.119
-556.456	172.990	-0.242	-0.354
-555.442	-139.936	-0.253	0.027
-554.427	-200.000	0.087	-0.448
-553.412	-43.502	-0.137	-0.071
-552.398	129.268	0.177	-0.229
-551.383	-200.000	-0.054	-0.415
-550.369	-115.601	-0.142	0.027
-549.354	107.050	-0.105	-0.127
-548.339	-128.169	-0.068	-0.010
-547.325	800.000	0.070	-0.203
-546.310	-188.636	0.257	-0.003
-545.296	800.000	-0.061	-0.208
-544.281	-97.404	0.360	0.095
-543.266	324.075	0.175	-0.339
-542.252	235.931	-0.274	-0.460
-541.237	19.187	0.236	0.193
-540.223	-200.000	-0.031	0.224
-539.208	-200.000	0.018	0.092
-538.193	-98.646	0.193	-0.050
-537.179	14.050	-0.220	-0.174
-536.164	179.269	0.045	-0.066
-535.150	800.000	-0.068	-0.206
-534.135	163.560	0.235	0.336
-533.121	252.364	0.104	0.180
-532.106	13.825	0.101	-0.079
-531.091	-200.000	0.066	-0.318
-530.077	-93.134	-0.065	0.018
-529.062	38.378	0.102	-0.092
-528.048	186.410	-0.213	-0.322
-527.033	146.604	0.079	0.107
-526.018	158.526	0.062	0.088
-525.004	474.198	-0.120	-0.274
-523.989	-200.000	0.015	-0.104
-522.975	-70.030	0.075	0.029
-521.960	-200.000	-0.016	-0.144
-520.945	469.414	-0.088	-0.201
-519.931	800.000	0.101	-0.302
-518.916	106.526	0.080	-0.097
-517.902	-148.850	-0.146	-0.012
-516.887	-159.813	-0.243	0.014
-515.872	-200.000	-0.040	0.365
-514.858	-15.855	-0.385	0.248
-513.843	-4.689	-0.066	-0.046
-512.829	55.487	-0.085	-0.084
-511.814	-33.710	-0.196	0.109
-510.799	11.151	0.104	0.081
-509.785	-200.000	-0.029	-0.172
-508.770	800.000	-0.123	0.351
-507.756	40.714	-0.149	0.137
-506.741	428.566	-0.068	-0.149
-505.726	-95.387	0.268	-0.073
-504.712	-100.106	-0.375	0.095
-503.697	-24.787	-0.161	0.097
-502.683	-200.000	-0.021	-0.266
-501.668	521.850	-0.062	-0.147
-500.653	-200.000	0.019	-0.336
-499.639	204.093	0.004	-0.006
-498.624	-200.000	-0.021	-0.322
-497.610	-160.358	-0.221	0.012
-496.595	385.208	-0.021	-0.044
-495.581	-200.000	0.037	-0.251
-494.566	-107.729	-0.435	0.096
-493.551	559.553	0.160	0.392
-492.537	110.808	-0.117	-0.142
-491.522	-5.611	0.196	0.136
-490.508	800.000	-0.052	-0.202
-489.493	-200.000	-0.067	-0.312
-488.478	96.776	-0.094	-0.109
-487.464	370.840	-0.089	-0.182
-486.449	-110.666	-0.180	0.038
-485.435	-49.981	0.188	0.090
-484.420	233.789	0.199	0.331
-483.405	282.478	0.157	0.286
-482.391	-93.389	0.259	-0.073
-481.376	106.086	-0.126	0.151
-480.362	800.000	-0.047	0.190
-479.347	800.000	0.003	0.012
-478.332	137.149	0.127	-0.168
-477.318	63.853	0.127	0.130
-476.303	22.416	-0.151	0.125
-475.289	-87.849	0.161	-0.049
-474.274	190.946	-0.180	-0.275
-473.259	-61.827	-0.279	0.118
-472.245	-14.349	0.291	-0.190
-471.230	-34.903	0.524	0.290
-470.216	-200.000	0.018	0.142
-469.201	-200.000	0.042	-0.268
-468.186	282.854	0.135	0.246
-467.172	-200.000	-0.050	0.417
-466.157	-46.300	-0.134	0.067
-465.143	270.018	0.230	-0.409
-464.128	-109.727	0.281	0.060
-463.113	-67.719	0.215	-0.085
-462.099	-21.853	-0.238	0.146
-461.084	599.905	-0.079	0.197
-460.070	272.869	0.192	0.344
-459.055	487.017	-0.059	0.137
-458.040	-200.000	-0.019	-0.176
-457.026	-73.104	-0.315	-0.117
-456.011	-139.933	-0.149	0.016
-454.997	-61.316	0.133	-0.057
-453.982	-200.000	0.070	0.398
-452.968	483.258	-0.126	-0.290
-451.953	-28.382	-0.332	-0.194
-450.938	-106.817	0.246	-0.055
-449.924	71.470	0.328	0.345
-448.909	800.000	-0.074	0.327
-447.895	-57.577	0.083	0.037
-446.880	-125.402	-0.279	-0.043
-445.865	-138.162	-0.281	-0.032
-444.851	800.000	-0.077	0.306
-443.836	-200.000	-0.004	0.211
-442.822	103.686	0.036	0.043
-441.807	-64.776	-0.079	-0.033
-440.792	-17.046	-0.162	0.103
-439.778	-168.784	-0.045	-0.002
-438.763	379.267	0.226	-0.468
-437.749	800.000	-0.063	0.187
-436.734	-59.546	-0.082	0.036
-435.719	31.762	0.278	0.242
-434.705	-157.905	0.318	0.019
-433.690	-67.162	-0.060	0.024
-432.676	112.289	-0.155	0.189
-431.661	27.829	0.051	0.043
-430.646	-10.180	-0.118	-0.079
-429.632	139.158	-0.169	0.225
-428.617	-157.673	0.286	0.017
-427.603	-135.553	0.422	-0.051
-426.588	532.908	-0.061	-0.146
-425.573	-130.194	-0.292	-0.040
-424.559	140.166	0.123	-0.164
-423.544	226.867	0.034	0.055
-422.530	163.108	-0.179	-0.255
-421.515	101.961	0.083	0.098
-420.500	162.428	0.101	-0.142
-419.486	19.551	0.118	0.096
-418.471	93.659	0.127	0.146
-417.457	-0.428	0.159	-0.114
-416.442	-71.041	-0.229	0.087
-415.428	-19.875	0.471	-0.294
-414.413	-167.811	-0.215	-0.009
-413.398	-4.297	0.286	0.200
-412.384	111.588	-0.062	-0.076
-411.369	61.676	-0.144	-0.145
-410.355	-200.000	-0.032	0.267
-409.340	123.065	0.213	0.270
-408.325	701.749	0.028	-0.074
-407.311	-120.784	-0.297	0.051
-406.296	117.157	-0.298	-0.370
-405.282	33.879	-0.129	-0.114
-404.267	800.000	0.073	-0.209
-403.252	54.778	0.128	0.124
-402.238	-100.900	-0.288	-0.072
-401.223	-20.616	0.252	-0.156
-400.209	-149.249	0.158	-0.013
-399.194	-128.220	-0.231	-0.033
-398.179	-97.022	-0.127	0.034
-397.165	-96.304	0.097	0.026
-396.150	-200.000	0.030	-0.324
-395.136	-95.584	-0.203	-0.055
-394.121	356.989	0.123	0.247
-393.106	-2.504	-0.337	0.238
-392.092	-200.000	-0.016	0.145
-391.077	-75.781	-0.281	-0.101
-390.063	138.614	0.081	-0.107
-389.048	44.400	0.278	-0.258
-388.033	255.299	-0.158	0.274
-387.019	-76.031	0.053	0.019
-386.004	212.763	0.163	-0.259
-384.990	-62.221	0.419	-0.176
-383.975	-72.422	0.231	0.086
-382.960	-113.306	-0.332	-0.066
-381.946	-66.982	-0.100	-0.040
-380.931	-200.000	0.043	-0.311
-379.917	-132.332	-0.108	-0.014
-378.902	-39.691	-0.269	0.142
-377.888	-38.017	0.189	-0.102
-376.873	800.000	0.053	-0.191
-375.858	58.442	0.329	-0.325
-374.844	-50.108	0.239	0.114
-373.829	-107.379	-0.187	-0.041
-372.815	-140.724	0.170	-0.018
-371.800	278.679	-0.015	-0.028
-370.785	715.746	-0.056	0.150
-369.771	-34.286	-0.118	0.065
-368.756	63.221	-0.183	0.185
-367.742	253.066	0.118	0.203
-366.727	11.801	-0.173	0.134
-365.712	161.370	-0.093	0.132
-364.698	-200.000	0.012	-0.085
-363.683	800.000	0.107	-0.467
-362.669	-60.274	-0.282	0.121
-361.654	67.266	0.060	0.062
-360.639	-200.000	-0.049	0.467
-359.625	-95.860	0.104	0.028
-358.610	80.867	0.169	-0.184
-357.596	17.159	-0.341	0.273
-356.581	800.000	0.039	0.154
-355.566	166.089	-0.190	0.271
-354.552	800.000	-0.084	0.274
-353.537	115.216	-0.155	0.190
-352.523	-200.000	-0.045	-0.270
-351.508	-104.622	-0.208	0.048
-350.493	-175.820	0.399	-0.011
-349.479	-200.000	-0.017	-0.146
-348.464	-191.902	-0.309	0.003
-347.450	-200.000	-0.028	-0.134
-346.435	-200.000	-0.018	-0.164
-345.420	-149.165	-0.339	0.027
-344.406	-33.571	0.178	0.099
-343.391	45.152	-0.180	0.167
-342.377	265.463	-0.023	-0.040
-341.362	796.439	0.038	0.104
-340.348	462.703	0.106	-0.238
-339.333	37.105	-0.184	-0.164
-338.318	72.261	-0.083	-0.087
-337.304	-71.066	-0.151	-0.057
-336.289	25.544	-0.228	-0.191
-335.275	-129.506	0.220	-0.031
-334.260	12.444	0.185	0.143
-333.245	-75.723	0.191	-0.068
-332.231	-125.108	-0.331	-0.051
-331.216	-109.435	-0.327	0.070
-330.202	17.938	0.090	-0.072
-329.187	-200.000	0.001	-0.039
-328.172	-107.613	0.124	-0.027
-327.158	-200.000	-0.001	0.145
-326.143	-139.935	-0.050	-0.005
-325.129	-200.000	-0.006	-0.135
-324.114	-200.000	-0.041	-0.215
-323.099	490.517	0.110	-0.254
-322.085	23.938	0.120	0.099
-321.070	-174.100	-0.311	-0.009
-320.056	258.086	0.040	0.069
-319.041	-200.000	0.000	0.091
-318.026	-200.000	0.023	0.177
-317.012	33.100	-0.043	0.038
-315.997	-121.345	0.246	-0.041
-314.983	800.000	0.149	0.447
-313.968	76.337	-0.205	0.219
-312.953	246.550	0.140	0.237
-311.939	-59.526	-0.122	0.053
-310.924	35.908	-0.138	-0.122
-309.910	-200.000	0.024	0.359
-308.895	-15.567	0.160	0.103
-307.880	-94.818	0.137	0.037
-306.866	99.286	0.180	0.210
-305.851	565.599	0.095	-0.231
-304.837	-42.047	0.151	-0.078
-303.822	-126.471	0.383	0.057
-302.807	6.290	-0.058	-0.044
-301.793	-37.522	-0.241	0.129
-300.778	224.564	-0.075	-0.122
-299.764	-192.345	-0.352	-0.003
-298.749	-94.613	-0.502	-0.137
-297.735	800.000	0.072	0.249
-296.720	614.327	0.078	-0.197
-295.705	800.000	-0.017	-0.067
-294.691	-66.478	-0.171	-0.068
-293.676	134.807	0.057	0.074
-292.662	35.881	0.603	0.533
-291.647	22.936	-0.103	0.085
-290.632	173.859	0.248	-0.360
-289.618	-71.274	0.062	-0.024
-288.603	144.492	0.088	0.118
-287.589	126.901	-0.131	-0.167
-286.574	133.234	-0.109	0.142
-285.559	555.387	0.080	0.193
-284.545	-200.000	-0.003	0.303
-283.530	-200.000	-0.016	-0.221
-282.516	173.084	-0.156	0.226
-281.501	-113.951	0.163	0.032
-280.486	7.806	0.126	-0.095
-279.472	355.380	0.026	0.053
-278.457	-117.033	0.079	-0.014
-277.443	800.000	0.091	-0.317
-276.428	-118.180	-0.222	0.040
-275.413	-48.309	-0.033	0.016
-274.399	800.000	0.087	0.365
-273.384	-200.000	-0.033	-0.181
-272.370	-53.578	-0.301	-0.138
-271.355	16.288	0.170	-0.134
-270.340	-15.968	0.211	-0.135
-269.326	-43.384	0.128	0.065
-268.311	-200.000	-0.002	0.142
-267.297	573.051	0.057	0.141
-266.282	-200.000	0.003	0.154
-265.267	-130.477	-0.303	0.041
-264.253	-8.738	-0.082	0.055
-263.238	786.202	0.138	0.380
-262.224	800.000	0.031	-0.091
-261.209	-115.095	0.211	0.040
-260.195	182.354	-0.021	0.031
-259.180	50.639	0.068	-0.065
-258.165	17.872	0.216	0.173
-257.151	115.918	-0.197	-0.242
-256.136	-200.000	0.036	-0.299
-255.122	131.403	0.108	-0.140
-254.107	394.581	-0.076	0.159
-253.092	-172.632	-0.012	-0.000
-252.078	-123.730	-0.229	0.036
-251.063	-137.882	0.204	-0.023
-250.049	242.948	0.079	-0.133
-249.034	-79.717	-0.145	0.049
-248.019	-200.000	-0.063	-0.347
-247.005	451.331	-0.068	-0.151
-245.990	-200.000	0.035	0.190
-244.976	-65.459	0.158	-0.064
-243.961	-187.774	0.048	0.001
-242.946	-4.439	0.074	-0.052
-241.932	-200.000	0.006	-0.032
-240.917	130.054	0.035	0.045
-239.903	-73.650	0.123	-0.045
-238.888	20.224	0.068	-0.055
-237.873	79.202	0.171	-0.184
-236.859	-93.177	0.200	0.056
-235.844	-200.000	0.013	0.069
-234.830	-5.871	0.237	-0.163
-233.815	-107.189	0.132	0.029
-232.800	-30.414	0.122	-0.069
-231.786	-139.019	0.345	-0.037
-230.771	723.345	0.069	0.185
-229.757	800.000	-0.020	-0.079
-228.742	241.973	0.171	0.286
-227.727	446.323	0.117	0.258
-226.713	189.935	0.166	-0.251
-225.698	93.305	0.062	-0.070
-224.684	254.954	0.292	-0.502
-223.669	-93.915	0.221	-0.061
-222.655	38.793	0.243	0.217
-221.640	123.998	0.075	0.094
-220.625	172.203	0.111	0.161
-219.611	20.461	-0.251	-0.204
-218.596	28.447	-0.151	0.128
-217.582	266.016	0.019	-0.034
-216.567	-50.881	0.089	0.042
-215.552	-2.022	-0.124	0.087
-214.538	-35.878	-0.136	0.074
-213.523	-10.521	0.302	0.201
-212.509	751.281	-0.040	-0.108
-211.494	-67.201	0.279	-0.110
-210.479	401.155	0.074	0.155
-209.465	-200.000	-0.026	-0.199
-208.450	-25.998	-0.106	0.062
-207.436	218.993	-0.052	0.083
-206.421	51.965	-0.178	0.170
-205.406	191.736	-0.046	0.069
-204.392	-56.150	-0.033	-0.015
-203.377	-15.011	-0.149	0.095
-202.363	-13.345	-0.155	0.101
-201.348	394.096	0.045	-0.093
-200.333	60.311	0.031	0.030
-199.319	-194.338	-0.280	0.002
-198.304	-89.305	0.152	-0.045
-197.290	-62.356	0.166	-0.069
-196.275	114.506	0.243	0.297
-195.260	94.102	0.125	-0.142
-194.246	8.302	-0.154	0.116
-193.231	77.684	-0.097	0.104
-192.217	196.240	0.062	0.095
-191.202	800.000	-0.033	0.112
-190.187	800.000	0.072	0.314
-189.173	-179.290	0.136	0.003
-188.158	182.281	-0.300	-0.442
-187.144	-30.070	0.220	0.126
-186.129	-200.000	0.003	-0.162
-185.114	-136.774	0.258	-0.030
-184.100	-150.140	0.207	0.016
-183.085	-105.851	0.035	-0.008
-182.071	122.591	-0.063	0.079
-181.056	6.838	-0.193	-0.144
-180.042	127.552	-0.160	-0.203
-179.027	-113.059	0.266	0.053
-178.012	-156.710	0.212	0.013
-176.998	800.000	0.062	0.241
-175.983	-82.767	-0.265	0.086
-174.969	22.147	-0.235	-0.192
-173.954	800.000	-0.014	-0.042
-172.939	-137.155	-0.207	0.024
-171.925	-200.000	-0.002	-0.024
-170.910	800.000	0.039	0.133
-169.896	-200.000	0.027	-0.226
-168.881	274.791	0.192	0.341
-167.866	-200.000	0.038	0.316
-166.852	289.580	-0.051	0.093
-165.837	5.589	-0.235	-0.174
-164.823	-12.156	-0.302	0.198
-163.808	44.297	0.067	0.061
-162.793	-200.000	-0.014	0.170
-161.779	-102.256	0.259	0.062
-160.764	72.676	-0.168	0.175
-159.750	-200.000	0.000	0.231
-158.735	-27.207	0.111	0.065
-157.720	-200.000	-0.273	0.001
-156.706	170.910	-0.138	0.197
-155.691	-8.053	0.147	0.099
-154.677	-141.170	0.186	0.019
-153.662	165.852	0.134	-0.190
-152.647	-200.000	0.094	0.415
-151.633	800.000	0.105	-0.311
-150.618	69.304	0.270	-0.278
-149.604	-200.000	-0.005	-0.260
-148.589	-200.000	-0.014	-0.130
-147.574	800.000	-0.123	0.442
-146.560	435.366	-0.126	0.273
-145.545	-200.000	0.002	0.156
-144.531	183.255	0.142	0.210
-143.516	51.104	0.172	0.163
-142.502	-183.260	-0.471	-0.008
-141.487	431.794	0.138	0.300
-140.472	800.000	0.053	0.171
-139.458	-94.295	-0.091	0.025
-138.443	794.260	-0.125	-0.345
-137.429	-123.508	0.053	0.008
-136.414	155.336	0.047	0.064
-135.399	800.000	-0.032	0.101
-134.385	-200.000	0.013	0.090
-133.370	172.476	0.072	0.103
-132.356	-5.585	-0.142	0.097
-131.341	66.195	-0.148	0.150
-130.326	-44.665	-0.154	0.077
-129.312	-200.000	-0.019	0.104
-128.297	-116.294	0.439	0.081
-127.283	-200.000	0.003	-0.228
-126.268	-138.419	0.332	-0.037
-125.253	-80.050	0.275	-0.092
-124.239	229.075	-0.145	0.236
-123.224	-7.795	-0.244	-0.165
-122.210	-200.000	-0.008	-0.174
-121.195	800.000	-0.027	0.080
