DTS Sentinel unit serial number:	SN413079Multiplexer serial number:	ORYXHardware model number:	OX4-SRSoftware version number:	ORYX F/W v4.00 Oryx Data Collector v3.7.2.0data status	okinstallation	princeton_trtdifferential loss correction	single-endedforward channel	channel 1reverse channel	N/Adate	2019/09/15time	01:18:35forward acquisition time	60.00reverse acquisition time	0.00gamma	496.2192k internal	0.2321k external	0.2321temperature offset calibration	0.9982default loss term (dB/km)	0.3790temperature slope calibration	1.0000multiplexer offset coefficient	1.0000multiplexer slope coefficient	1.0000fibre end	0.00T internal ref (°C)	31.94T ext. ref 1 (°C)	4.51T ext. ref 2 (°C)	26.83length (m)	temperature (°C)	Stokes	anti-Stokes-747.200	-136.568	0.254	-0.030
-746.185	800.000	0.117	0.366
-745.171	69.549	0.180	0.187
-744.156	289.955	0.033	0.060
-743.142	4.507	-0.195	0.144
-742.127	-19.097	-0.128	-0.080
-741.112	-103.713	0.200	0.047
-740.098	326.775	0.061	0.118
-739.083	-148.770	-0.205	0.017
-738.069	800.000	0.055	0.244
-737.054	800.000	0.088	0.251
-736.039	15.968	-0.373	-0.296
-735.025	-200.000	0.053	0.331
-734.010	-164.914	-0.246	-0.011
-732.996	392.006	0.142	-0.299
-731.981	-78.277	-0.108	0.037
-730.966	487.615	-0.087	-0.200
-729.952	171.301	-0.120	-0.173
-728.937	-87.231	-0.122	-0.037
-727.923	414.790	0.074	0.160
-726.908	-147.982	0.276	0.023
-725.894	166.964	-0.131	0.188
-724.879	-11.018	0.136	-0.091
-723.864	800.000	-0.066	-0.255
-722.850	-17.158	0.140	-0.089
-721.835	20.513	-0.168	-0.137
-720.821	36.818	-0.155	0.138
-719.806	-119.782	-0.157	0.027
-718.791	57.514	-0.342	0.337
-717.777	-86.015	0.141	0.044
-716.762	-35.990	-0.083	0.045
-715.748	-102.027	-0.098	0.024
-714.733	114.033	-0.090	0.110
-713.718	-200.000	0.009	0.164
-712.704	-200.000	-0.030	-0.327
-711.689	-55.633	0.255	-0.115
-710.675	-37.571	0.216	0.116
-709.660	-154.350	-0.289	0.020
-708.645	-152.547	-0.128	0.009
-707.631	230.523	0.075	0.124
-706.616	-30.595	0.158	-0.090
-705.602	-170.877	-0.326	-0.011
-704.587	-0.446	0.109	0.078
-703.572	318.909	0.178	0.341
-702.558	45.684	0.253	0.236
-701.543	-147.824	0.141	0.012
-700.529	-200.000	-0.018	0.260
-699.514	138.425	-0.202	0.268
-698.499	-38.511	0.274	0.146
-697.485	101.905	-0.120	-0.141
-696.470	800.000	-0.029	-0.099
-695.456	-149.638	0.100	-0.008
-694.441	183.393	0.173	-0.257
-693.426	-24.516	-0.208	-0.125
-692.412	145.793	0.128	0.174
-691.397	-200.000	-0.017	0.103
-690.383	-74.760	-0.107	0.039
-689.368	-27.956	0.039	-0.023
-688.354	365.891	0.169	-0.344
-687.339	-23.256	-0.152	-0.092
-686.324	15.292	-0.180	0.142
-685.310	-200.000	0.014	-0.143
-684.295	-66.729	-0.104	-0.041
-683.281	-38.538	-0.321	0.171
-682.266	-16.037	0.221	-0.142
-681.251	-121.885	-0.197	0.033
-680.237	-123.501	0.278	-0.045
-679.222	-99.616	-0.199	-0.050
-678.208	800.000	0.059	0.249
-677.193	800.000	0.022	-0.068
-676.178	245.495	-0.140	-0.238
-675.164	196.470	-0.288	-0.442
-674.149	-200.000	-0.050	-0.353
-673.135	-12.105	0.220	-0.145
-672.120	800.000	0.099	0.425
-671.105	-200.000	0.005	-0.260
-670.091	800.000	0.084	-0.253
-669.076	82.154	0.106	0.115
-668.062	800.000	-0.063	0.227
-667.047	-200.000	0.044	0.217
-666.032	215.447	-0.039	0.063
-665.018	70.398	-0.040	0.042
-664.003	-200.000	-0.001	-0.077
-662.989	-133.347	0.491	0.062
-661.974	-69.590	-0.179	-0.069
-660.959	433.934	-0.112	-0.245
-659.945	-200.000	0.016	0.165
-658.930	-50.853	-0.191	-0.091
-657.916	99.001	-0.158	-0.184
-656.901	2.742	-0.134	0.098
-655.886	-111.871	-0.448	-0.091
-654.872	168.055	-0.104	0.148
-653.857	-42.208	-0.274	0.141
-652.843	-37.177	-0.348	-0.187
-651.828	-63.641	0.386	-0.160
-650.814	-59.623	-0.098	-0.042
-649.799	-26.895	-0.050	-0.030
-648.784	-185.456	0.240	-0.004
-647.770	-200.000	-0.011	-0.138
-646.755	253.523	0.074	0.128
-645.741	67.879	0.059	0.061
-644.726	282.349	0.135	-0.243
-643.711	-82.351	-0.094	0.031
-642.697	-115.310	-0.397	0.076
-641.682	269.795	0.068	-0.121
-640.668	123.411	-0.109	0.137
-639.653	-200.000	-0.013	0.104
-638.638	-44.108	0.209	0.106
-637.624	345.180	-0.185	-0.367
-636.609	800.000	-0.027	-0.098
-635.595	15.823	-0.072	0.057
-634.580	-74.557	-0.168	-0.061
-633.565	-99.474	-0.047	-0.012
-632.551	-53.618	-0.110	0.051
-631.536	-16.148	-0.244	-0.156
-630.522	-44.707	-0.157	-0.079
-629.507	-93.225	0.041	-0.012
-628.492	10.498	0.237	-0.182
-627.478	-103.540	0.186	-0.044
-626.463	-200.000	0.091	-0.429
-625.449	-118.577	-0.329	0.059
-624.434	-121.440	-0.253	-0.042
-623.419	-200.000	0.003	-0.267
-622.405	-1.618	0.163	0.116
-621.390	-25.752	0.257	0.152
-620.376	800.000	0.015	-0.052
-619.361	-200.000	0.019	-0.165
-618.346	800.000	0.075	-0.315
-617.332	-200.000	-0.001	0.232
-616.317	800.000	0.019	0.056
-615.303	686.977	0.121	0.319
-614.288	226.270	0.086	0.141
-613.273	-120.346	0.051	0.009
-612.259	-61.051	0.190	0.081
-611.244	-200.000	0.012	-0.232
-610.230	84.365	0.074	-0.081
-609.215	800.000	0.044	0.172
-608.201	2.015	0.035	0.026
-607.186	15.660	-0.215	0.170
-606.171	7.626	0.095	-0.072
-605.157	-115.935	-0.116	0.022
-604.142	-78.570	-0.163	0.056
-603.128	-67.973	-0.336	0.132
-602.113	601.453	-0.090	-0.225
-601.098	-5.429	-0.104	0.072
-600.084	38.950	-0.217	-0.195
-599.069	189.300	-0.052	-0.078
-598.055	153.335	0.031	-0.043
-597.040	-78.725	-0.237	-0.081
-596.025	-200.000	0.047	-0.257
-595.011	222.400	-0.070	-0.112
-593.996	168.483	0.328	-0.470
-592.982	-51.918	0.505	-0.236
-591.967	-44.881	-0.146	0.073
-590.952	51.925	0.140	-0.134
-589.938	-111.300	-0.171	0.035
-588.923	3.777	0.163	0.120
-587.909	800.000	-0.079	-0.277
-586.894	-91.650	-0.271	-0.077
-585.879	223.956	0.179	-0.290
-584.865	127.562	0.162	-0.207
-583.850	525.274	-0.046	0.109
-582.836	-67.703	0.543	-0.214
-581.821	-60.242	-0.109	0.046
-580.806	-200.000	-0.012	0.081
-579.792	103.878	-0.099	-0.117
-578.777	-114.561	-0.218	0.042
-577.763	800.000	0.094	0.312
-576.748	-200.000	0.003	-0.206
-575.733	430.172	-0.211	-0.458
-574.719	-200.000	0.027	0.292
-573.704	186.540	-0.053	-0.079
-572.690	-127.867	-0.115	0.017
-571.675	-30.963	0.205	-0.116
-570.661	-120.477	0.078	-0.013
-569.646	159.253	-0.192	0.267
-568.631	317.992	-0.091	0.173
-567.617	800.000	-0.014	-0.061
-566.602	-200.000	-0.072	0.472
-565.588	79.180	-0.124	-0.133
-564.573	30.985	-0.076	0.066
-563.558	-127.385	0.329	-0.048
-562.544	50.369	-0.173	0.164
-561.529	290.873	-0.069	0.126
-560.515	10.950	0.213	-0.163
-559.500	-200.000	-0.060	-0.442
-558.485	-42.300	-0.137	-0.070
-557.471	50.385	-0.261	0.248
-556.456	-174.025	0.240	-0.007
-555.442	-200.000	0.006	0.096
-554.427	677.091	-0.034	0.090
-553.412	-200.000	-0.022	0.245
-552.398	145.865	-0.267	0.359
-551.383	-3.759	-0.227	-0.158
-550.369	114.990	-0.117	0.144
-549.354	-22.512	-0.279	0.169
-548.339	212.007	0.159	0.251
-547.325	29.457	-0.122	-0.104
-546.310	-200.000	-0.013	0.059
-545.296	-29.063	0.208	0.119
-544.281	695.859	-0.161	0.424
-543.266	24.704	-0.138	-0.115
-542.252	-200.000	-0.015	-0.316
-541.237	-0.975	-0.270	0.192
-540.223	-40.522	0.249	-0.129
-539.208	-70.845	-0.088	-0.033
-538.193	380.329	0.036	-0.073
-537.179	410.883	-0.142	0.303
-536.164	27.488	0.295	0.248
-535.150	267.496	-0.040	-0.071
-534.135	42.324	-0.165	0.151
-533.121	129.591	-0.108	-0.138
-532.106	-167.021	-0.139	0.006
-531.091	75.037	0.089	-0.094
-530.077	-1.826	-0.135	0.095
-529.062	-41.656	0.098	-0.050
-528.048	-186.546	-0.045	0.001
-527.033	-146.145	0.191	-0.017
-526.018	-54.221	-0.206	-0.094
-525.004	800.000	-0.022	0.086
-523.989	-21.901	0.205	0.125
-522.975	108.151	0.107	0.128
-521.960	165.701	-0.049	-0.070
-520.945	8.512	-0.336	0.253
-519.931	800.000	-0.056	-0.173
-518.916	44.362	0.251	-0.230
-517.902	800.000	0.082	-0.294
-516.887	-149.742	-0.417	0.033
-515.872	800.000	-0.051	-0.194
-514.858	-199.815	0.172	-0.001
-513.843	-200.000	0.008	-0.111
-512.829	104.458	0.145	-0.170
-511.814	-158.818	-0.157	0.009
-510.799	90.895	0.233	0.262
-509.785	168.311	0.082	-0.117
-508.770	-200.000	-0.067	0.296
-507.756	-200.000	0.007	0.279
-506.741	-137.554	-0.134	-0.015
-505.726	398.758	-0.110	0.231
-504.712	32.051	0.080	0.069
-503.697	461.598	0.133	0.297
-502.683	50.416	-0.144	-0.137
-501.668	-41.786	-0.262	0.135
-500.653	-70.344	-0.181	-0.069
-499.639	120.324	-0.007	0.009
-498.624	-72.081	0.200	0.074
-497.610	-200.000	-0.039	-0.281
-496.595	-2.366	-0.107	-0.075
-495.581	-165.716	-0.176	0.008
-494.566	-200.000	-0.045	-0.255
-493.551	114.615	-0.304	-0.371
-492.537	800.000	-0.056	0.175
-491.522	462.383	0.059	-0.131
-490.508	-200.000	-0.017	0.179
-489.493	-149.164	-0.112	0.009
-488.478	-62.067	0.094	0.039
-487.464	253.203	0.080	0.137
-486.449	-92.843	0.339	-0.095
-485.435	252.823	0.106	-0.181
-484.420	-7.280	-0.124	0.084
-483.405	-38.983	0.195	0.103
-482.391	800.000	-0.055	-0.170
-481.376	-200.000	-0.043	0.315
-480.362	239.523	-0.147	0.245
-479.347	-86.119	-0.053	-0.016
-478.332	-66.173	-0.049	-0.020
-477.318	-125.553	-0.220	0.033
-476.303	-145.504	0.260	0.023
-475.289	-200.000	-0.030	0.162
-474.274	-115.708	0.297	0.056
-473.259	13.636	0.228	-0.177
-472.245	-73.092	0.212	-0.078
-471.230	-200.000	0.039	0.199
-470.216	800.000	0.018	-0.077
-469.201	654.343	-0.106	0.271
-468.186	-116.460	0.311	0.057
-467.172	40.145	0.105	0.094
-466.157	633.888	0.071	0.180
-465.143	9.003	0.053	0.040
-464.128	416.733	0.008	-0.018
-463.113	-126.343	0.206	-0.031
-462.099	176.262	-0.165	-0.239
-461.084	257.811	-0.192	-0.330
-460.070	-200.000	0.018	0.381
-459.055	704.780	-0.117	-0.310
-458.040	-27.121	-0.361	0.210
-457.026	-146.010	0.105	-0.009
-456.011	-118.200	-0.227	-0.040
-454.997	-156.267	0.086	0.005
-453.982	-88.452	-0.057	-0.017
-452.968	-200.000	-0.006	0.242
-451.953	37.357	0.231	0.205
-450.938	-69.902	0.126	0.048
-449.924	328.751	-0.202	0.389
-448.909	-200.000	-0.007	0.152
-447.895	-86.054	0.045	-0.014
-446.880	33.535	-0.318	0.276
-445.865	-200.000	-0.042	0.196
-444.851	-88.553	0.404	0.120
-443.836	-104.871	-0.250	0.057
-442.822	485.748	0.058	-0.133
-441.807	-52.632	0.202	0.093
-440.792	800.000	-0.196	0.751
-439.778	-116.864	-0.300	0.055
-438.763	-200.000	-0.027	-0.180
-437.749	171.736	0.125	0.179
-436.734	-200.000	-0.016	0.213
-435.719	55.183	-0.124	-0.120
-434.705	365.746	-0.034	-0.069
-433.690	-62.457	0.289	-0.120
-432.676	800.000	-0.072	-0.237
-431.661	-65.022	0.139	-0.056
-430.646	750.554	0.072	0.194
-429.632	-29.614	0.169	0.096
-428.617	-62.244	-0.141	0.059
-427.603	-96.138	0.106	-0.028
-426.588	-200.000	0.069	-0.312
-425.573	-124.146	-0.135	-0.021
-424.559	-102.728	-0.134	-0.032
-423.544	-200.000	-0.075	-0.420
-422.530	800.000	-0.039	-0.113
-421.515	69.742	-0.193	0.198
-420.500	396.727	0.067	-0.140
-419.486	-117.468	0.111	-0.020
-418.471	51.001	-0.182	0.172
-417.457	-86.168	0.257	0.079
-416.442	-200.000	0.015	0.132
-415.428	-195.124	-0.238	0.002
-414.413	800.000	-0.065	-0.208
-413.398	-177.645	0.295	0.007
-412.384	-128.288	-0.368	-0.052
-411.369	26.175	0.312	0.260
-410.355	581.140	0.036	-0.089
-409.340	-35.127	-0.243	0.132
-408.325	-108.241	0.310	-0.067
-407.311	295.066	-0.133	0.242
-406.296	800.000	-0.075	0.248
-405.282	-106.589	0.136	-0.030
-404.267	56.443	0.186	-0.181
-403.252	-26.323	0.228	0.133
-402.238	-70.682	0.086	-0.032
-401.223	-70.287	-0.154	-0.058
-400.209	104.748	0.150	-0.176
-399.194	800.000	-0.052	0.189
-398.179	-152.727	0.081	-0.006
-397.165	-176.715	0.042	0.001
-396.150	176.392	-0.131	-0.190
-395.136	52.402	0.199	0.189
-394.121	46.242	0.072	-0.067
-393.106	-78.341	-0.255	-0.087
-392.092	16.513	0.022	-0.018
-391.077	-200.000	0.005	-0.031
-390.063	305.898	-0.108	-0.200
-389.048	-127.480	0.355	-0.051
-388.033	800.000	-0.086	-0.314
-387.019	-73.052	-0.387	0.141
-386.004	800.000	0.142	0.433
-384.990	157.311	0.062	-0.085
-383.975	176.459	-0.120	0.173
-382.960	-133.801	0.359	-0.045
-381.946	-163.597	-0.232	-0.011
-380.931	-23.277	0.080	0.048
-379.917	-71.414	0.096	-0.036
-378.902	213.629	0.167	-0.263
-377.888	-44.380	0.025	-0.012
-376.873	116.465	-0.224	-0.273
-375.858	800.000	-0.061	-0.221
-374.844	129.706	0.073	-0.093
-373.829	103.399	-0.212	0.248
-372.815	46.449	0.107	0.099
-371.800	-176.506	-0.125	-0.003
-370.785	-200.000	0.019	0.329
-369.771	1.668	0.265	0.190
-368.756	800.000	0.041	0.139
-367.742	154.884	-0.112	0.153
-366.727	-32.893	-0.184	-0.102
-365.712	800.000	-0.057	-0.213
-364.698	-103.983	-0.234	-0.054
-363.683	381.487	0.161	-0.329
-362.669	800.000	0.033	-0.129
-361.654	-86.861	-0.174	0.053
-360.639	25.779	-0.334	0.277
-359.625	-31.140	0.129	-0.072
-358.610	-200.000	0.040	0.192
-357.596	18.962	-0.052	0.042
-356.581	618.495	0.087	0.217
-355.566	-122.893	0.187	-0.030
-354.552	800.000	-0.043	-0.166
-353.537	24.047	0.359	-0.295
-352.523	377.006	0.075	0.153
-351.508	-10.779	0.088	-0.058
-350.493	-57.164	-0.212	-0.093
-349.479	-200.000	-0.016	-0.082
-348.464	179.523	0.030	0.044
-347.450	166.698	-0.020	-0.028
-346.435	61.349	0.168	-0.166
-345.420	-200.000	-0.019	0.208
-344.406	203.377	0.037	-0.056
-343.391	57.076	0.345	0.335
-342.377	292.054	-0.222	-0.403
-341.362	-200.000	-0.008	0.334
-340.348	-26.746	0.039	0.023
-339.333	13.606	0.185	-0.143
-338.318	-81.526	0.230	0.075
-337.304	-150.732	-0.313	-0.024
-336.289	-112.797	-0.167	-0.033
-335.275	-17.257	0.151	-0.094
-334.260	800.000	-0.067	0.239
-333.245	216.971	0.100	0.159
-332.231	-69.772	-0.226	-0.086
-331.216	-184.582	-0.225	0.004
-330.202	369.856	0.058	-0.117
-329.187	595.793	0.077	-0.189
-328.172	-92.835	0.325	-0.090
-327.158	-200.000	0.017	0.314
-326.143	800.000	0.044	0.186
-325.129	-1.526	0.166	-0.117
-324.114	32.627	-0.190	-0.164
-323.099	800.000	-0.026	0.079
-322.085	149.581	0.113	0.152
-321.070	196.834	0.143	0.217
-320.056	-55.853	0.145	0.065
-319.041	-121.285	0.307	-0.051
-318.026	47.234	0.040	0.037
-317.012	66.715	0.169	-0.171
-315.997	276.170	-0.024	-0.043
-314.983	-28.038	0.246	-0.141
-313.968	-192.617	0.273	-0.003
-312.953	-27.718	-0.188	-0.108
-311.939	-14.780	-0.031	-0.020
-310.924	-124.622	0.364	-0.056
-309.910	69.674	0.148	0.152
-308.895	114.965	-0.084	-0.102
-307.880	-86.297	0.255	0.078
-306.866	516.852	0.074	-0.172
-305.851	329.931	-0.160	-0.306
-304.837	457.386	0.063	0.139
-303.822	439.594	-0.086	0.187
-302.807	-10.867	0.269	0.176
-301.793	43.165	-0.291	0.263
-300.778	-129.313	0.115	-0.016
-299.764	-135.664	-0.268	0.032
-298.749	-74.473	-0.247	0.089
-297.735	-200.000	0.002	-0.161
-296.720	514.778	0.037	0.086
-295.705	-50.648	0.183	-0.086
-294.691	-92.849	0.142	0.040
-293.676	-125.878	-0.056	-0.008
-292.662	393.553	0.118	-0.244
-291.647	103.355	0.075	-0.087
-290.632	372.520	-0.073	0.148
-289.618	-200.000	0.023	-0.126
-288.603	800.000	-0.045	-0.168
-287.589	-116.151	0.284	-0.052
-286.574	-200.000	-0.015	-0.176
-285.559	-89.584	-0.363	0.106
-284.545	800.000	-0.080	-0.296
-283.530	2.892	0.246	-0.177
-282.516	-138.604	-0.106	-0.012
-281.501	302.888	0.188	0.345
-280.486	-84.427	0.243	0.076
-279.472	424.154	0.185	0.395
-278.457	-200.000	-0.118	-0.521
-277.443	-174.132	-0.211	0.006
-276.428	-120.958	0.222	0.037
-275.413	-14.859	-0.280	0.178
-274.399	-200.000	-0.034	0.218
-273.384	-143.753	0.390	-0.037
-272.370	800.000	0.059	-0.183
-271.355	-119.373	-0.656	0.113
-270.340	-200.000	-0.006	-0.287
-269.326	-200.000	-0.026	-0.126
-268.311	196.553	0.120	-0.181
-267.297	-99.498	0.140	-0.035
-266.282	-139.926	-0.274	0.029
-265.267	338.610	0.142	-0.273
-264.253	800.000	-0.046	0.186
-263.238	-137.305	0.356	0.040
-262.224	72.104	0.169	-0.174
-261.209	-98.508	-0.226	0.057
-260.195	64.434	0.050	0.050
-259.180	-52.187	-0.147	0.068
-258.165	103.198	0.214	0.249
-257.151	272.776	-0.078	0.137
-256.136	-176.252	-0.067	-0.002
-255.122	-10.838	0.133	-0.087
-254.107	99.820	0.175	0.201
-253.092	-200.000	0.042	0.271
-252.078	-162.166	-0.389	0.019
-251.063	-200.000	0.033	0.163
-250.049	304.576	-0.053	-0.098
-249.034	207.947	0.094	0.146
-248.019	179.151	0.120	-0.174
-247.005	-76.921	-0.116	-0.040
-245.990	-31.834	-0.257	-0.143
-244.976	800.000	0.052	-0.200
-243.961	-101.146	-0.104	-0.025
-242.946	297.140	0.069	-0.126
-241.932	-64.100	0.124	0.050
-240.917	4.718	0.232	-0.169
-239.903	98.684	-0.149	0.171
-238.888	183.910	-0.120	-0.176
-237.873	-200.000	-0.006	-0.235
-236.859	233.235	0.043	0.071
-235.844	-200.000	-0.079	-0.385
-234.830	143.937	-0.164	-0.217
-233.815	-107.503	-0.375	-0.081
-232.800	23.799	-0.072	0.058
-231.786	800.000	-0.071	0.207
-230.771	-94.188	-0.073	0.020
-229.757	11.954	-0.021	0.016
-228.742	286.844	-0.102	0.182
-227.727	69.075	-0.197	0.201
-226.713	43.516	-0.200	-0.181
-225.698	135.851	0.096	0.124
-224.684	-145.657	-0.275	0.024
-223.669	-63.261	0.202	0.083
-222.655	-200.000	0.026	0.113
-221.640	646.322	0.010	-0.027
-220.625	-144.869	0.206	0.019
-219.611	210.377	0.043	-0.066
-218.596	-13.797	-0.196	0.125
-217.582	-52.442	0.332	0.152
-216.567	131.962	0.083	0.105
-215.552	-200.000	0.022	0.167
-214.538	313.780	0.093	0.173
-213.523	289.799	-0.108	0.194
-212.509	800.000	-0.072	0.271
-211.494	800.000	-0.119	0.389
-210.479	-65.130	-0.346	0.138
-209.465	45.576	-0.109	0.100
-208.450	-200.000	0.028	0.243
-207.436	159.453	0.180	-0.248
-206.421	36.253	0.320	-0.279
-205.406	116.814	-0.076	-0.093
-204.392	41.835	-0.113	-0.101
-203.377	93.483	-0.286	0.321
-202.363	-105.352	-0.212	0.048
-201.348	442.843	0.142	-0.307
-200.333	387.898	-0.078	0.160
-199.319	-200.000	-0.058	-0.397
-198.304	537.434	0.088	0.206
-197.290	-200.000	-0.004	-0.087
-196.275	800.000	-0.021	-0.059
-195.260	-56.445	-0.295	0.130
-194.246	800.000	0.052	0.159
-193.231	-131.107	0.235	-0.031
-192.217	-200.000	-0.015	-0.285
-191.202	789.946	0.064	-0.174
-190.187	492.371	-0.043	0.098
-189.173	-15.594	0.127	-0.080
-188.158	93.005	-0.110	0.123
-187.144	-118.972	-0.249	0.043
-186.129	163.812	-0.155	-0.216
-185.114	-73.201	0.109	0.039
-184.100	-200.000	-0.004	0.152
-183.085	800.000	0.101	0.402
-182.071	-200.000	0.030	-0.338
-181.056	800.000	0.042	-0.163
-180.042	-54.169	-0.198	-0.089
-179.027	13.353	0.139	-0.107
-178.012	143.700	-0.257	-0.339
-176.998	-102.814	-0.085	-0.020
-175.983	748.120	0.089	0.236
-174.969	-152.538	0.055	0.004
-173.954	-163.507	0.130	0.006
-172.939	-200.000	-0.053	-0.255
-171.925	362.187	0.207	-0.410
-170.910	-34.817	-0.139	-0.075
-169.896	85.851	0.353	-0.383
-168.881	138.645	-0.155	0.201
-167.866	174.309	0.134	0.191
-166.852	800.000	-0.070	0.217
-165.837	-12.843	0.106	-0.068
-164.823	-60.733	0.119	-0.050
-163.808	131.272	0.246	-0.313
-162.793	-103.349	-0.232	-0.054
-161.779	-72.086	0.123	0.045
-160.764	620.248	-0.028	0.071
-159.750	-46.315	0.020	0.010
-158.735	-38.912	0.079	-0.041
-157.720	-113.309	0.287	-0.056
-156.706	-200.000	0.034	0.177
-155.691	-200.000	-0.038	-0.377
-154.677	-116.185	0.172	-0.032
-153.662	-90.601	0.038	-0.011
-152.647	390.555	0.107	-0.220
-151.633	-200.000	0.020	-0.090
-150.618	-65.867	-0.128	0.051
-149.604	-182.998	0.338	0.006
-148.589	95.082	-0.249	0.280
-147.574	24.847	-0.149	-0.122
-146.560	-35.048	0.312	0.168
-145.545	16.430	-0.115	-0.090
-144.531	136.008	0.117	-0.150
-143.516	-119.077	0.123	-0.021
-142.502	37.837	0.083	-0.073
-141.487	-47.182	0.037	-0.018
-140.472	800.000	0.059	-0.199
-139.458	448.729	0.041	-0.089
-138.443	-89.428	0.268	-0.078
-137.429	109.510	-0.058	0.069
-136.414	286.569	0.129	0.229
-135.399	222.045	-0.125	-0.198
-134.385	79.370	-0.112	0.119
-133.370	800.000	-0.120	0.424
-132.356	138.501	0.181	-0.235
-131.341	44.082	0.091	-0.082
-130.326	-200.000	0.005	-0.197
-129.312	-83.581	0.238	0.075
-128.297	-74.826	0.284	-0.100
-127.283	240.328	0.034	-0.057
-126.268	665.770	0.079	0.202
-125.253	-41.494	0.222	-0.113
-124.239	14.620	-0.193	0.149
-123.224	351.638	-0.079	-0.154
-122.210	-171.495	0.386	0.013
-121.195	-119.985	0.347	-0.059
