DTS Sentinel unit serial number:	SN413079Multiplexer serial number:	ORYXHardware model number:	OX4-SRSoftware version number:	ORYX F/W v4.00 Oryx Data Collector v3.7.2.0data status	okinstallation	princeton_trtdifferential loss correction	single-endedforward channel	channel 1reverse channel	N/Adate	2019/09/15time	09:50:35forward acquisition time	60.00reverse acquisition time	0.00gamma	496.2192k internal	0.2310k external	0.2310temperature offset calibration	0.9982default loss term (dB/km)	0.3790temperature slope calibration	1.0000multiplexer offset coefficient	1.0000multiplexer slope coefficient	1.0000fibre end	0.00T internal ref (°C)	34.06T ext. ref 1 (°C)	4.98T ext. ref 2 (°C)	29.79length (m)	temperature (°C)	Stokes	anti-Stokes-747.200	-200.000	-0.004	0.181
-746.185	-36.081	-0.317	-0.174
-745.171	-113.568	0.040	-0.008
-744.156	800.000	0.099	0.345
-743.142	800.000	-0.065	0.236
-742.127	80.994	0.131	0.144
-741.112	164.633	0.148	-0.212
-740.098	-200.000	0.005	-0.159
-739.083	64.747	-0.084	0.086
-738.069	800.000	0.112	0.442
-737.054	-142.582	0.372	0.037
-736.039	-90.580	-0.194	0.057
-735.025	-114.992	-0.136	0.026
-734.010	-200.000	0.065	0.400
-732.996	18.137	-0.290	0.235
-731.981	450.861	-0.162	-0.363
-730.966	213.955	0.242	-0.388
-729.952	509.494	-0.059	-0.139
-728.937	22.553	-0.328	-0.273
-727.923	145.389	0.032	0.043
-726.908	174.682	0.103	-0.152
-725.894	50.446	0.015	-0.015
-724.879	-166.001	0.105	0.005
-723.864	150.354	0.252	0.348
-722.850	402.279	-0.095	-0.203
-721.835	-29.919	-0.160	-0.092
-720.821	84.229	0.102	-0.113
-719.806	40.463	0.198	-0.181
-718.791	-76.272	0.086	-0.031
-717.777	-200.000	-0.018	0.182
-716.762	264.438	-0.208	-0.367
-715.748	607.929	-0.129	-0.327
-714.733	786.247	0.058	0.160
-713.718	-181.633	0.027	-0.001
-712.704	183.682	0.042	-0.064
-711.689	-200.000	0.023	-0.318
-710.675	-174.714	0.219	0.006
-709.660	-135.231	-0.104	0.013
-708.645	12.984	0.151	0.118
-707.631	-200.000	-0.016	-0.469
-706.616	800.000	-0.030	-0.107
-705.602	-30.446	0.228	-0.131
-704.587	755.558	0.086	-0.235
-703.572	25.235	-0.159	-0.134
-702.558	-13.914	-0.137	-0.090
-701.543	-25.487	-0.144	0.086
-700.529	-51.619	0.231	-0.109
-699.514	800.000	-0.133	-0.465
-698.499	266.441	-0.043	0.077
-697.485	57.137	-0.024	0.024
-696.470	244.634	0.099	-0.169
-695.456	-128.714	0.046	0.007
-694.441	-139.710	0.089	-0.010
-693.426	-200.000	0.039	0.255
-692.412	264.646	-0.095	0.167
-691.397	597.770	0.077	-0.193
-690.383	-118.659	0.146	0.026
-689.368	459.849	0.148	-0.333
-688.354	64.567	-0.267	-0.272
-687.339	-39.771	0.144	-0.076
-686.324	-137.005	0.135	-0.016
-685.310	800.000	-0.056	-0.163
-684.295	130.438	-0.144	-0.187
-683.281	-70.063	0.140	-0.054
-682.266	-38.673	-0.212	-0.113
-681.251	16.271	0.165	-0.132
-680.237	800.000	0.063	0.179
-679.222	-200.000	0.214	-0.000
-678.208	800.000	0.137	0.591
-677.193	-26.391	-0.222	-0.132
-676.178	274.344	-0.256	-0.460
-675.164	8.276	-0.038	-0.029
-674.149	-114.426	-0.069	-0.013
-673.135	-25.157	-0.172	-0.103
-672.120	221.660	-0.121	-0.197
-671.105	266.903	-0.072	-0.127
-670.091	800.000	-0.098	-0.337
-669.076	-104.653	-0.061	0.014
-668.062	-26.787	0.231	0.137
-667.047	800.000	-0.096	-0.353
-666.032	50.127	-0.088	0.084
-665.018	50.064	-0.119	-0.114
-664.003	-126.525	-0.197	0.030
-662.989	-57.699	0.161	0.071
-661.974	74.305	0.197	-0.209
-660.959	496.257	0.037	-0.087
-659.945	-200.000	0.010	0.065
-658.930	206.020	-0.102	-0.160
-657.916	800.000	0.082	0.249
-656.901	517.368	-0.085	0.202
-655.886	26.107	0.031	0.026
-654.872	321.862	0.254	-0.490
-653.857	138.369	0.177	0.235
-652.843	196.444	-0.157	0.241
-651.828	-4.777	-0.271	-0.189
-650.814	-200.000	-0.100	0.000
-649.799	346.300	-0.028	-0.055
-648.784	-73.230	-0.104	-0.039
-647.770	-77.816	0.144	-0.050
-646.755	-85.507	0.390	-0.123
-645.741	334.447	-0.176	-0.345
-644.726	-200.000	0.049	-0.279
-643.711	-186.455	-0.066	-0.001
-642.697	-34.021	-0.369	0.205
-641.682	800.000	0.040	0.174
-640.668	-47.405	0.348	-0.171
-639.653	-47.087	0.187	-0.092
-638.638	-104.204	0.093	-0.022
-637.624	-103.097	-0.337	-0.081
-636.609	-87.828	-0.019	0.006
-635.595	-200.000	0.014	-0.248
-634.580	800.000	-0.051	-0.207
-633.565	-200.000	-0.015	0.159
-632.551	-200.000	-0.220	-0.001
-631.536	50.410	-0.165	0.158
-630.522	800.000	0.027	0.091
-629.507	-143.688	0.016	-0.002
-628.492	-17.014	-0.247	-0.158
-627.478	-119.689	0.367	0.064
-626.463	71.055	-0.268	-0.281
-625.449	318.437	0.104	0.200
-624.434	25.228	0.070	-0.058
-623.419	-85.901	-0.443	0.139
-622.405	36.598	0.053	0.047
-621.390	158.355	0.144	-0.201
-620.376	-141.598	-0.026	-0.003
-619.361	-106.255	-0.352	0.080
-618.346	-35.336	0.192	-0.106
-617.332	-82.910	-0.091	-0.030
-616.317	267.439	-0.022	0.040
-615.303	800.000	-0.129	0.371
-614.288	296.751	-0.119	0.220
-613.273	-52.593	-0.336	0.157
-612.259	-7.190	0.307	0.210
-611.244	629.404	-0.065	0.166
-610.230	-69.230	0.316	-0.123
-609.215	117.754	-0.200	0.249
-608.201	-143.766	-0.181	-0.017
-607.186	-32.358	-0.290	0.164
-606.171	-101.565	-0.193	0.047
-605.157	-79.401	-0.175	-0.060
-604.142	-76.501	-0.022	-0.008
-603.128	-7.434	-0.145	0.099
-602.113	-20.201	0.365	0.227
-601.098	112.787	0.151	-0.185
-600.084	546.766	0.136	0.328
-599.069	39.505	0.210	-0.190
-598.055	-200.000	-0.025	-0.158
-597.040	225.711	0.041	0.067
-596.025	-200.000	0.115	-0.547
-595.011	-200.000	0.011	-0.185
-593.996	-40.986	0.184	0.096
-592.982	-46.740	-0.357	-0.177
-591.967	280.554	0.120	0.216
-590.952	-164.995	0.265	0.012
-589.938	82.311	-0.144	-0.158
-588.923	-39.794	0.026	-0.014
-587.909	-163.213	-0.219	-0.011
-586.894	107.696	-0.023	-0.028
-585.879	391.441	-0.138	-0.288
-584.865	340.878	-0.030	-0.059
-583.850	-200.000	-0.005	-0.081
-582.836	-65.900	0.412	-0.166
-581.821	800.000	0.027	0.117
-580.806	70.082	-0.042	0.044
-579.792	800.000	0.019	-0.055
-578.777	-65.846	0.130	0.053
-577.763	-77.125	-0.138	0.048
-576.748	-200.000	-0.015	0.248
-575.733	-38.904	0.248	0.132
-574.719	-117.267	0.226	-0.041
-573.704	-200.000	-0.011	0.166
-572.690	-105.271	-0.035	0.008
-571.675	-110.201	0.213	-0.045
-570.661	800.000	0.061	-0.170
-569.646	-107.587	-0.398	-0.088
-568.631	-103.795	-0.161	-0.038
-567.617	767.989	-0.030	0.083
-566.602	-200.000	0.025	-0.183
-565.588	-39.007	0.210	0.111
-564.573	31.033	-0.177	-0.153
-563.558	-23.488	-0.292	-0.177
-562.544	-48.707	-0.300	0.145
-561.529	187.272	0.130	0.196
-560.515	-200.000	0.004	0.020
-559.500	-94.677	-0.476	-0.131
-558.485	736.487	0.064	0.172
-557.471	-114.111	-0.072	0.014
-556.456	-76.019	0.442	0.158
-555.442	-50.343	0.520	0.248
-554.427	443.596	0.040	0.089
-553.412	-21.792	0.283	0.174
-552.398	381.366	-0.088	0.182
-551.383	-200.000	-0.019	0.171
-550.369	-8.185	-0.177	0.120
-549.354	-190.204	0.207	-0.002
-548.339	-200.000	-0.002	-0.240
-547.325	-200.000	-0.038	-0.325
-546.310	253.826	-0.114	0.196
-545.296	-14.723	-0.438	0.284
-544.281	108.640	-0.192	0.231
-543.266	-79.119	0.245	-0.084
-542.252	-25.267	-0.127	0.076
-541.237	594.749	0.017	0.044
-540.223	-168.800	-0.221	0.008
-539.208	800.000	-0.066	-0.244
-538.193	-24.869	0.143	-0.086
-537.179	270.880	-0.128	-0.227
-536.164	-38.013	0.154	0.083
-535.150	56.509	-0.064	-0.062
-534.135	666.972	0.028	0.074
-533.121	-40.864	-0.069	0.036
-532.106	-106.977	-0.060	-0.013
-531.091	-81.397	0.388	-0.129
-530.077	-66.652	-0.292	0.117
-529.062	800.000	-0.073	0.263
-528.048	163.678	-0.128	-0.181
-527.033	-11.597	-0.123	0.082
-526.018	-59.833	-0.203	-0.087
-525.004	23.594	0.208	0.172
-523.989	-0.563	0.086	0.061
-522.975	-3.733	0.109	0.076
-521.960	-10.714	-0.498	0.332
-520.945	-62.909	-0.235	0.098
-519.931	-131.941	0.364	-0.048
-518.916	93.442	0.286	-0.326
-517.902	50.873	0.163	-0.155
-516.887	-26.914	-0.130	-0.076
-515.872	-80.607	0.281	0.094
-514.858	336.014	-0.158	0.308
-513.843	75.524	-0.085	0.090
-512.829	-129.699	-0.169	0.024
-511.814	126.791	-0.085	0.109
-510.799	74.950	-0.149	-0.158
-509.785	14.648	0.228	0.179
-508.770	-71.241	0.498	0.188
-507.756	13.422	-0.179	-0.140
-506.741	46.759	-0.106	-0.099
-505.726	800.000	-0.109	-0.412
-504.712	-84.650	0.113	0.036
-503.697	-200.000	-0.018	0.105
-502.683	26.025	0.240	0.202
-501.668	68.583	-0.083	0.086
-500.653	-15.672	0.195	-0.125
-499.639	204.973	-0.218	-0.340
-498.624	252.658	-0.113	0.194
-497.610	-200.000	0.011	-0.089
-496.595	-200.000	0.048	-0.282
-495.581	446.078	0.017	0.037
-494.566	-48.761	0.424	-0.205
-493.551	800.000	0.095	-0.297
-492.537	-95.736	0.178	0.048
-491.522	-31.333	0.149	0.084
-490.508	-200.000	0.015	0.104
-489.493	-74.865	-0.164	-0.059
-488.478	317.399	0.035	0.066
-487.464	110.079	-0.137	0.165
-486.449	110.142	0.098	-0.118
-485.435	99.303	-0.176	0.205
-484.420	173.200	0.050	0.073
-483.405	120.611	0.204	0.255
-482.391	-127.961	-0.322	-0.047
-481.376	-200.000	0.007	0.043
-480.362	800.000	-0.078	0.270
-479.347	-200.000	-0.025	0.275
-478.332	-152.170	0.315	0.023
-477.318	-87.769	-0.106	-0.032
-476.303	-181.706	0.119	-0.002
-475.289	800.000	-0.052	-0.214
-474.274	-77.892	-0.236	0.082
-473.259	-200.000	0.007	-0.183
-472.245	-200.000	-0.013	0.292
-471.230	152.875	-0.083	0.114
-470.216	-147.512	0.174	0.015
-469.201	437.624	-0.099	0.217
-468.186	492.446	0.071	-0.164
-467.172	-198.710	-0.384	0.002
-466.157	-72.419	0.429	0.159
-465.143	414.934	-0.040	0.087
-464.128	-68.392	-0.238	-0.093
-463.113	-200.000	-0.036	0.241
-462.099	367.418	0.131	-0.267
-461.084	-200.000	0.029	-0.174
-460.070	292.361	-0.089	0.163
-459.055	-200.000	-0.012	-0.187
-458.040	32.745	0.235	-0.204
-457.026	3.353	-0.281	0.206
-456.011	-95.456	-0.161	-0.043
-454.997	209.873	0.065	0.103
-453.982	-84.737	0.286	0.090
-452.968	768.881	0.089	0.243
-451.953	221.862	0.060	0.097
-450.938	-200.000	-0.010	0.254
-449.924	-130.327	-0.075	0.010
-448.909	-89.204	0.266	0.079
-447.895	696.815	-0.109	0.286
-446.880	-124.829	-0.345	-0.053
-445.865	463.688	-0.018	0.041
-444.851	737.672	0.059	0.158
-443.836	-200.000	0.014	0.421
-442.822	-200.000	0.017	0.225
-441.807	115.230	0.024	-0.029
-440.792	-68.540	-0.196	0.076
-439.778	-0.331	-0.304	-0.217
-438.763	-14.677	-0.112	0.072
-437.749	142.465	-0.019	-0.026
-436.734	-83.757	-0.041	0.013
-435.719	800.000	-0.054	-0.154
-434.705	800.000	-0.066	-0.239
-433.690	-200.000	-0.016	-0.090
-432.676	-200.000	0.007	0.076
-431.661	-145.127	-0.041	0.004
-430.646	23.713	0.276	0.228
-429.632	114.428	0.211	-0.257
-428.617	-200.000	-0.003	0.206
-427.603	-134.323	0.273	-0.034
-426.588	130.423	0.220	-0.282
-425.573	-69.256	0.126	-0.049
-424.559	166.625	0.207	0.295
-423.544	-121.710	-0.050	0.008
-422.530	-103.461	0.271	0.064
-421.515	-6.022	-0.278	0.191
-420.500	-177.527	0.161	0.004
-419.486	363.897	-0.036	0.072
-418.471	-126.895	0.180	-0.027
-417.457	276.125	-0.034	-0.060
-416.442	-94.540	-0.030	0.008
-415.428	800.000	-0.045	-0.146
-414.413	-33.064	0.119	-0.066
-413.398	629.019	0.020	-0.051
-412.384	-177.502	-0.299	-0.007
-411.369	236.645	0.023	0.038
-410.355	-200.000	-0.057	0.263
-409.340	-20.421	0.300	0.185
-408.325	800.000	0.047	-0.181
-407.311	-71.623	-0.095	-0.035
-406.296	72.957	-0.113	-0.118
-405.282	-39.346	0.050	-0.026
-404.267	-62.764	0.271	0.113
-403.252	-54.915	-0.130	-0.059
-402.238	-200.000	0.015	-0.343
-401.223	-138.864	-0.316	0.034
-400.209	-136.829	0.402	-0.046
-399.194	40.429	0.141	0.128
-398.179	-156.887	-0.416	-0.026
-397.165	800.000	-0.106	-0.352
-396.150	-23.275	0.182	0.110
-395.136	-200.000	0.054	0.297
-394.121	373.533	-0.067	0.137
-393.106	-81.391	0.171	0.056
-392.092	-200.000	-0.001	-0.084
-391.077	-87.405	-0.105	-0.032
-390.063	-200.000	0.023	-0.119
-389.048	-200.000	-0.064	-0.302
-388.033	551.778	0.092	-0.220
-387.019	800.000	0.110	-0.307
-386.004	-200.000	0.012	0.068
-384.990	-126.307	-0.357	0.053
-383.975	211.504	-0.165	-0.260
-382.960	-17.059	-0.269	-0.170
-381.946	177.204	0.091	0.133
-380.931	26.800	0.222	0.186
-379.917	42.585	-0.339	0.309
-378.902	800.000	-0.078	0.257
-377.888	-110.713	-0.268	0.055
-376.873	-200.000	0.035	-0.185
-375.858	-200.000	-0.008	-0.363
-374.844	130.132	-0.052	-0.066
-373.829	-94.341	0.228	0.062
-372.815	-151.364	-0.098	0.007
-371.800	158.033	-0.169	-0.234
-370.785	-55.007	0.051	0.023
-369.771	-200.000	0.033	0.205
-368.756	331.601	-0.204	-0.394
-367.742	640.264	-0.080	0.204
-366.727	-71.308	0.219	-0.082
-365.712	-200.000	-0.014	0.217
-364.698	-200.000	0.019	0.525
-363.683	-200.000	-0.002	-0.381
-362.669	361.641	0.142	0.285
-361.654	-200.000	0.090	-0.398
-360.639	-66.258	-0.196	0.078
-359.625	64.304	0.164	0.166
-358.610	-200.000	-0.004	0.117
-357.596	181.387	0.144	0.212
-356.581	17.565	0.075	-0.060
-355.566	800.000	-0.073	0.229
-354.552	800.000	-0.076	-0.231
-353.537	800.000	-0.076	-0.254
-352.523	-103.021	0.330	-0.078
-351.508	735.460	-0.056	0.149
-350.493	683.953	-0.058	0.152
-349.479	-109.309	0.110	0.023
-348.464	-172.736	0.178	0.006
-347.450	79.808	0.175	-0.187
-346.435	-200.000	-0.038	-0.191
-345.420	1.790	-0.110	0.079
-344.406	-189.618	-0.328	0.004
-343.391	540.810	0.120	-0.286
-342.377	-129.830	0.214	0.029
-341.362	88.379	0.186	-0.206
-340.348	-174.651	-0.029	-0.001
-339.333	138.410	0.199	0.260
-338.318	4.936	0.199	0.146
-337.304	98.714	-0.115	0.133
-336.289	-26.686	-0.079	0.046
-335.275	82.209	-0.078	-0.084
-334.260	3.003	-0.256	0.186
-333.245	800.000	0.042	-0.171
-332.231	-82.258	0.200	-0.065
-331.216	34.244	0.239	0.208
-330.202	274.586	-0.240	-0.424
-329.187	-200.000	0.023	-0.144
-328.172	-200.000	0.062	0.434
-327.158	173.480	-0.138	-0.199
-326.143	-110.867	-0.251	-0.052
-325.129	56.181	-0.205	0.199
-324.114	-44.557	0.083	-0.041
-323.099	800.000	0.091	-0.307
-322.085	-146.521	-0.315	-0.027
-321.070	-24.101	-0.193	-0.115
-320.056	641.648	0.032	-0.083
-319.041	-74.654	0.216	0.078
-318.026	791.948	0.036	0.098
-317.012	-200.000	-0.008	0.176
-315.997	473.647	0.070	0.157
-314.983	96.421	0.145	0.165
-313.968	-97.171	-0.092	-0.024
-312.953	-148.241	-0.278	-0.023
-311.939	73.721	0.140	0.146
-310.924	-82.649	-0.190	0.061
-309.910	-12.118	0.279	0.182
-308.895	14.333	-0.175	0.136
-307.880	800.000	0.061	-0.217
-306.866	285.349	0.183	-0.328
-305.851	800.000	-0.067	-0.234
-304.837	262.531	-0.068	-0.118
-303.822	-200.000	0.029	0.281
-302.807	-22.197	0.036	0.022
-301.793	-48.385	-0.167	-0.081
-300.778	-72.337	0.238	-0.088
-299.764	800.000	-0.044	0.125
-298.749	345.944	-0.077	-0.152
-297.735	-131.872	-0.302	0.039
-296.720	-200.000	0.015	-0.091
-295.705	83.038	0.046	0.050
-294.691	390.678	-0.160	0.332
-293.676	-104.814	0.147	0.034
-292.662	800.000	-0.032	-0.094
-291.647	-67.330	0.157	-0.062
-290.632	125.519	0.236	-0.297
-289.618	-200.000	-0.010	-0.066
-288.603	-18.966	-0.368	0.228
-287.589	-83.154	-0.321	0.103
-286.574	-120.047	0.129	-0.022
-285.559	-83.255	-0.344	0.110
-284.545	800.000	-0.042	0.136
-283.530	-175.943	0.277	0.007
-282.516	590.379	-0.116	-0.285
-281.501	-147.225	0.298	0.025
-280.486	44.078	0.211	-0.193
-279.472	-171.319	-0.162	-0.005
-278.457	800.000	-0.042	-0.173
-277.443	-200.000	0.062	-0.353
-276.428	-200.000	-0.014	-0.152
-275.413	800.000	-0.050	-0.147
-274.399	-36.976	-0.203	0.109
-273.384	-63.817	0.207	-0.085
-272.370	-29.583	0.170	-0.097
-271.355	107.588	0.100	0.119
-270.340	-61.465	-0.206	-0.086
-269.326	800.000	-0.024	-0.074
-268.311	800.000	0.074	-0.205
-267.297	-132.276	0.215	0.028
-266.282	-32.858	-0.151	0.083
-265.267	91.544	-0.284	0.318
-264.253	-21.044	-0.131	-0.080
-263.238	-112.750	0.250	-0.049
-262.224	-200.000	-0.025	-0.222
-261.209	207.411	0.135	-0.210
-260.195	-93.598	0.217	-0.060
-259.180	37.420	0.214	-0.189
-258.165	-140.764	0.295	0.030
-257.151	800.000	-0.050	-0.195
-256.136	57.527	0.094	-0.092
-255.122	800.000	0.086	-0.284
-254.107	-36.513	-0.292	0.156
-253.092	-91.953	-0.133	-0.038
-252.078	-35.398	0.134	-0.072
-251.063	370.150	-0.227	0.459
-250.049	181.910	0.188	-0.276
-249.034	-154.805	-0.235	-0.016
-248.019	495.789	0.096	-0.220
-247.005	-200.000	0.009	-0.298
-245.990	-18.840	0.178	-0.110
-244.976	-200.000	-0.042	0.270
-243.961	-200.000	-0.032	-0.366
-242.946	-129.498	-0.126	-0.017
-241.932	-60.016	-0.028	0.012
-240.917	800.000	-0.053	-0.166
-239.903	92.468	0.153	-0.172
-238.888	-130.598	0.407	-0.055
-237.873	800.000	0.152	0.618
-236.859	800.000	-0.062	0.193
-235.844	358.619	-0.078	-0.155
-234.830	66.818	-0.179	0.181
-233.815	-161.448	-0.059	0.003
-232.800	455.327	-0.014	0.032
-231.786	800.000	0.024	-0.077
-230.771	800.000	-0.035	-0.143
-229.757	167.652	-0.207	0.293
-228.742	-105.613	-0.396	-0.089
-227.727	-200.000	-0.055	-0.290
-226.713	-200.000	0.022	-0.111
-225.698	-145.165	0.290	-0.026
-224.684	800.000	-0.100	-0.375
-223.669	-96.817	-0.147	0.039
-222.655	228.181	0.121	0.196
-221.640	-190.626	0.229	-0.002
-220.625	381.424	0.031	-0.064
-219.611	331.694	0.006	-0.011
-218.596	-126.049	0.297	-0.044
-217.582	38.201	0.127	-0.112
-216.567	42.778	-0.155	-0.140
-215.552	673.902	0.119	0.308
-214.538	-119.992	-0.257	-0.044
-213.523	99.837	0.124	0.143
-212.509	-32.899	-0.216	-0.119
-211.494	-200.000	0.031	-0.438
-210.479	174.580	-0.100	0.144
-209.465	126.246	0.182	-0.229
-208.450	161.928	0.180	0.250
-207.436	-21.494	0.250	-0.152
-206.421	10.636	-0.121	0.092
-205.406	-200.000	0.020	-0.378
-204.392	35.138	0.172	-0.150
-203.377	-25.356	0.038	0.023
-202.363	-67.199	0.059	-0.023
-201.348	68.011	-0.127	0.130
-200.333	-200.000	-0.045	0.420
-199.319	300.725	-0.046	-0.084
-198.304	-154.205	0.315	-0.021
-197.290	-80.752	0.262	-0.087
-196.275	-92.769	0.148	-0.041
-195.260	-10.688	0.055	-0.036
-194.246	79.098	-0.056	0.059
-193.231	340.543	-0.151	0.292
-192.217	800.000	-0.037	0.122
-191.202	-63.144	-0.093	0.038
-190.187	158.269	0.113	0.156
-189.173	21.707	-0.044	-0.036
-188.158	-200.000	-0.011	0.383
-187.144	-48.634	0.005	-0.002
-186.129	14.072	0.323	-0.250
-185.114	93.639	-0.098	0.110
-184.100	547.354	0.036	0.085
-183.085	-16.216	-0.134	0.085
-182.071	233.017	-0.075	0.123
-181.056	-44.507	-0.206	-0.102
-180.042	-103.663	0.136	-0.032
-179.027	173.261	0.114	0.163
-178.012	611.659	0.036	0.091
-176.998	-88.847	0.233	0.069
-175.983	-92.002	-0.210	-0.059
-174.969	-44.444	0.183	0.091
-173.954	422.371	-0.053	0.112
-172.939	-200.000	0.331	0.000
-171.925	-36.539	-0.138	-0.074
-170.910	-2.272	0.295	0.205
-169.896	-200.000	-0.025	0.155
-168.881	800.000	-0.054	0.204
-167.866	40.172	-0.164	-0.147
-166.852	-200.000	0.012	0.584
-165.837	-59.518	-0.177	0.075
-164.823	800.000	0.038	-0.107
-163.808	753.067	0.040	-0.109
-162.793	-200.000	-0.065	-0.458
-161.779	800.000	-0.090	-0.300
-160.764	369.982	0.095	-0.190
-159.750	-157.372	-0.336	0.020
-158.735	50.051	0.154	0.145
-157.720	293.558	-0.127	-0.230
-156.706	214.049	0.117	-0.183
-155.691	39.660	-0.055	-0.049
-154.677	-17.231	0.227	0.142
-153.662	723.050	-0.085	0.224
-152.647	-105.131	-0.044	0.010
-151.633	-77.074	-0.540	-0.187
-150.618	-29.715	0.126	-0.071
-149.604	-200.000	-0.046	-0.332
-148.589	-9.641	0.112	0.074
-147.574	-7.829	0.143	-0.096
-146.560	-200.000	0.056	0.288
-145.545	385.122	0.085	0.173
-144.531	188.888	-0.218	-0.324
-143.516	92.101	0.083	0.093
-142.502	145.819	-0.085	-0.113
-141.487	-200.000	0.012	0.209
-140.472	86.000	0.242	0.264
-139.458	-200.000	0.046	-0.375
-138.443	734.619	0.088	-0.234
-137.429	414.972	-0.041	0.086
-136.414	158.456	-0.168	0.231
-135.399	-84.732	0.266	0.083
-134.385	-170.813	-0.329	-0.011
-133.370	416.754	0.043	0.092
-132.356	-17.147	0.156	-0.098
-131.341	-200.000	0.028	0.349
-130.326	-30.208	-0.104	-0.059
-129.312	-135.441	0.294	-0.035
-128.297	-84.722	-0.147	-0.046
-127.283	-30.316	-0.148	0.083
-126.268	-200.000	-0.010	0.317
-125.253	630.863	-0.067	-0.168
-124.239	-200.000	0.055	0.247
-123.224	495.137	0.173	-0.394
-122.210	62.320	-0.325	0.321
