DTS Sentinel unit serial number:	SN413079Multiplexer serial number:	ORYXHardware model number:	OX4-SRSoftware version number:	ORYX F/W v4.00 Oryx Data Collector v3.7.2.0data status	okinstallation	princeton_trtdifferential loss correction	single-endedforward channel	channel 1reverse channel	N/Adate	2019/09/12time	18:25:34forward acquisition time	15.00reverse acquisition time	0.00gamma	496.2192k internal	0.2318k external	0.2318temperature offset calibration	1.0105default loss term (dB/km)	0.3790temperature slope calibration	1.0000multiplexer offset coefficient	1.0000multiplexer slope coefficient	1.0000fibre end	0.00T internal ref (°C)	33.31T ext. ref 1 (°C)	3.01T ext. ref 2 (°C)	28.00length (m)	temperature (°C)	Stokes	anti-Stokes-747.200	118.771	0.375	0.468
-746.185	-116.844	0.429	0.079
-745.171	-161.805	0.670	-0.034
-744.156	-124.566	0.364	0.057
-743.142	75.863	0.163	0.174
-742.127	-200.000	0.072	1.294
-741.112	413.437	0.376	0.809
-740.098	545.038	-0.190	0.459
-739.083	0.077	0.204	-0.147
-738.069	472.591	-0.141	0.322
-737.054	182.930	-0.363	0.543
-736.039	800.000	-0.115	0.407
-735.025	-58.164	0.139	0.061
-734.010	94.334	-0.031	-0.036
-732.996	10.311	0.537	-0.413
-731.981	-0.761	-0.820	0.588
-730.966	-200.000	-0.008	0.305
-729.952	239.290	0.115	-0.194
-728.937	238.091	0.240	-0.404
-727.923	-63.471	0.473	0.197
-726.908	156.306	0.124	-0.174
-725.894	160.329	0.298	-0.421
-724.879	262.058	-0.380	0.667
-723.864	75.602	0.141	-0.151
-722.850	75.677	0.072	-0.077
-721.835	309.656	-0.166	0.314
-720.821	-200.000	0.057	0.679
-719.806	-15.142	-0.460	0.298
-718.791	-200.000	0.069	0.363
-717.777	-129.216	0.794	-0.112
-716.762	-62.820	-0.422	-0.177
-715.748	567.999	-0.145	-0.356
-714.733	-71.078	0.894	-0.340
-713.718	-57.555	-0.199	0.088
-712.704	163.267	0.207	0.295
-711.689	-79.659	0.351	-0.120
-710.675	-47.375	0.406	-0.200
-709.660	48.428	0.290	0.275
-708.645	-11.250	0.639	0.425
-707.631	128.303	0.261	0.336
-706.616	-85.042	-0.233	0.074
-705.602	800.000	0.200	-0.563
-704.587	-47.667	-0.310	-0.152
-703.572	153.301	0.219	-0.302
-702.558	230.733	0.452	-0.747
-701.543	-200.000	-0.012	-0.529
-700.529	-36.367	-0.498	0.271
-699.514	460.245	0.091	0.205
-698.499	-106.528	-0.599	0.135
-697.485	800.000	0.099	-0.436
-696.470	113.770	-0.181	0.222
-695.456	776.513	-0.391	1.080
-694.441	-200.000	-0.002	-0.110
-693.426	0.952	0.481	-0.348
-692.412	120.629	0.296	-0.372
-691.397	-60.761	-0.524	0.224
-690.383	-85.398	0.502	0.158
-689.368	-132.842	0.779	-0.100
-688.354	-156.649	0.346	-0.022
-687.339	38.797	0.149	-0.134
-686.324	-2.367	0.150	-0.106
-685.310	800.000	0.146	-0.433
-684.295	127.053	-0.237	-0.303
-683.281	-200.000	-0.080	0.431
-682.266	272.299	-0.237	0.423
-681.251	235.179	-0.123	0.205
-680.237	-200.000	0.059	0.295
-679.222	15.170	0.442	-0.350
-678.208	-200.000	0.008	-0.572
-677.193	-200.000	0.119	0.997
-676.178	-111.161	0.343	-0.071
-675.164	800.000	-0.203	-0.751
-674.149	-171.560	0.831	0.028
-673.135	100.363	-0.725	0.849
-672.120	-81.535	-0.203	-0.068
-671.105	-88.160	0.395	-0.119
-670.091	-53.109	0.310	-0.144
-669.076	68.597	-0.928	-0.960
-668.062	69.866	-0.157	-0.163
-667.047	-68.043	0.293	-0.115
-666.032	268.794	0.203	0.359
-665.018	-200.000	0.101	0.590
-664.003	-200.000	0.016	-0.308
-662.989	120.309	-0.217	0.271
-661.974	74.342	0.317	0.336
-660.959	-200.000	-0.150	-0.683
-659.945	-123.015	-0.388	0.063
-658.930	403.161	-0.238	0.504
-657.916	192.495	-0.104	0.158
-656.901	-62.144	-0.104	-0.044
-655.886	-50.348	0.523	-0.249
-654.872	50.649	0.332	0.317
-653.857	-134.421	-1.060	0.131
-652.843	-200.000	0.020	-1.194
-651.828	12.628	-0.109	-0.085
-650.814	372.788	0.205	-0.421
-649.799	358.777	-0.471	-0.950
-648.784	-30.903	-0.176	0.100
-647.770	120.651	0.267	-0.334
-646.755	-95.525	-0.450	-0.122
-645.741	28.900	-0.109	0.093
-644.726	-200.000	-0.016	0.201
-643.711	31.651	-0.299	0.259
-642.697	-68.064	1.001	0.393
-641.682	-88.702	-0.381	-0.114
-640.668	54.892	0.427	-0.416
-639.653	-4.463	-0.355	0.248
-638.638	490.099	-0.164	0.377
-637.624	-132.392	-0.245	-0.032
-636.609	-179.452	1.066	-0.024
-635.595	-75.969	0.189	-0.067
-634.580	-90.540	0.188	0.055
-633.565	-63.494	-0.351	-0.145
-632.551	-76.122	-0.448	-0.160
-631.536	-21.570	0.512	0.315
-630.522	518.036	0.263	0.620
-629.507	535.002	0.347	0.828
-628.492	341.484	-0.351	-0.692
-627.478	-70.335	0.933	-0.357
-626.463	179.043	-0.571	0.842
-625.449	125.796	0.281	0.357
-624.434	641.557	-0.185	-0.475
-623.419	-87.129	-0.482	-0.148
-622.405	192.828	0.188	-0.286
-621.390	131.752	0.712	-0.923
-620.376	631.898	-0.117	-0.297
-619.361	306.615	0.266	-0.500
-618.346	-22.810	-0.765	0.465
-617.332	-98.531	-0.534	0.137
-616.317	-200.000	0.028	-0.195
-615.303	68.053	-0.612	-0.631
-614.288	77.905	-0.031	0.034
-613.273	-88.185	0.564	-0.170
-612.259	225.033	-0.511	0.832
-611.244	-73.260	0.834	-0.308
-610.230	263.761	0.034	0.060
-609.215	-146.372	-0.726	-0.064
-608.201	136.032	0.352	-0.462
-607.186	-165.204	0.705	0.031
-606.171	-200.000	0.067	0.632
-605.157	-4.545	0.524	-0.364
-604.142	464.215	0.253	-0.569
-603.128	65.146	0.244	-0.248
-602.113	-94.463	0.299	-0.082
-601.098	95.479	0.226	0.259
-600.084	-175.113	1.106	-0.031
-599.069	-13.398	-0.512	0.334
-598.055	-62.777	0.092	0.038
-597.040	-87.814	0.685	0.208
-596.025	-57.354	-0.220	-0.097
-595.011	800.000	-0.129	0.465
-593.996	54.321	0.316	0.307
-592.982	194.866	-0.095	0.145
-591.967	-61.092	-0.350	0.149
-590.952	444.515	-0.042	-0.094
-589.938	12.691	-0.281	-0.219
-588.923	273.618	-0.196	0.349
-587.909	107.019	0.619	-0.740
-586.894	-79.053	0.517	-0.177
-585.879	432.464	0.221	-0.482
-584.865	-72.533	0.393	0.146
-583.850	-82.691	-0.137	-0.045
-582.836	295.657	0.408	0.753
-581.821	-64.183	0.605	-0.248
-580.806	2.553	-0.483	0.352
-579.792	-200.000	-0.162	0.803
-578.777	213.067	0.180	-0.287
-577.763	-20.696	0.710	-0.438
-576.748	114.502	0.360	-0.441
-575.733	124.177	0.435	0.550
-574.719	-119.215	0.646	0.113
-573.704	800.000	-0.244	1.027
-572.690	-200.000	-0.050	-1.605
-571.675	-134.094	-0.058	-0.007
-570.661	-39.139	-0.439	0.232
-569.646	800.000	0.296	-0.895
-568.631	-43.851	-0.663	0.335
-567.617	14.519	0.199	-0.156
-566.602	41.774	0.150	-0.137
-565.588	-131.834	0.422	0.056
-564.573	-200.000	-0.154	0.814
-563.558	-200.000	0.207	-1.197
-562.544	39.868	-0.198	-0.178
-561.529	329.290	0.195	-0.376
-560.515	149.357	-0.207	-0.282
-559.500	208.542	-0.247	0.388
-558.485	148.138	-0.169	-0.229
-557.471	-41.750	0.757	0.390
-556.456	119.975	-0.463	0.577
-555.442	-125.535	-0.727	0.111
-554.427	-200.000	0.033	0.263
-553.412	-75.834	0.413	-0.147
-552.398	229.735	0.422	0.692
-551.383	34.478	0.103	-0.090
-550.369	-200.000	-0.098	0.735
-549.354	61.444	0.505	0.505
-548.339	154.676	-0.245	-0.338
-547.325	500.842	0.150	0.347
-546.310	800.000	-0.219	-0.866
-545.296	-200.000	0.056	-0.290
-544.281	3.524	0.646	0.473
-543.266	-15.738	-0.172	-0.110
-542.252	77.621	-0.319	-0.341
-541.237	143.700	-0.386	-0.516
-540.223	-49.821	0.477	0.228
-539.208	358.756	0.734	1.472
-538.193	-74.321	-0.930	0.337
-537.179	425.515	-0.301	-0.651
-536.164	-200.000	-0.251	1.186
-535.150	-142.126	0.728	-0.073
-534.135	244.764	0.241	0.407
-533.121	-101.638	-0.289	-0.070
-532.106	800.000	-0.129	-0.544
-531.091	-114.533	-0.548	0.106
-530.077	45.218	0.397	-0.367
-529.062	6.919	-0.691	-0.517
-528.048	-200.000	0.066	-0.340
-527.033	40.771	0.136	0.123
-526.018	-50.335	0.697	0.330
-525.004	19.066	0.709	-0.571
-523.989	249.086	-0.231	-0.393
-522.975	273.140	-0.280	-0.496
-521.960	298.770	-0.228	-0.421
-520.945	147.362	0.049	0.066
-519.931	9.189	0.307	0.233
-518.916	-5.337	-0.276	-0.190
-517.902	-26.486	-0.378	0.223
-516.887	123.291	-0.031	0.038
-515.872	101.345	0.124	-0.145
-514.858	711.769	-0.181	0.481
-513.843	158.241	0.411	0.572
-512.829	-62.449	-0.474	0.198
-511.814	508.536	0.231	-0.539
-510.799	239.363	-0.209	0.349
-509.785	-75.576	0.169	0.060
-508.770	-38.301	-0.676	-0.359
-507.756	559.141	0.262	0.634
-506.741	-200.000	0.105	0.468
-505.726	-15.613	0.280	0.179
-504.712	762.194	-0.238	-0.648
-503.697	157.549	-0.245	0.341
-502.683	800.000	-0.039	0.145
-501.668	800.000	0.041	0.119
-500.653	73.176	-0.347	-0.364
-499.639	83.911	0.520	-0.569
-498.624	-200.000	-0.006	-0.102
-497.610	-14.345	-0.219	-0.141
-496.595	724.023	0.116	-0.310
-495.581	52.631	0.591	-0.566
-494.566	-132.123	0.140	-0.018
-493.551	-105.806	-0.364	0.082
-492.537	-33.588	0.771	0.426
-491.522	800.000	0.159	0.684
-490.508	-133.145	-0.811	0.103
-489.493	-200.000	-0.010	0.124
-488.478	-105.701	0.155	0.035
-487.464	-90.579	-0.359	0.104
-486.449	-12.866	-0.787	-0.513
-485.435	63.061	0.340	0.341
-484.420	110.057	0.369	0.443
-483.405	-91.411	-0.188	0.054
-482.391	358.424	0.421	-0.843
-481.376	390.186	0.440	-0.914
-480.362	296.845	-0.254	-0.468
-479.347	-103.170	-0.314	0.074
-478.332	800.000	0.230	0.930
-477.318	617.921	0.248	-0.623
-476.303	-111.572	0.456	0.093
-475.289	800.000	-0.215	-0.875
-474.274	20.648	-0.321	0.260
-473.259	22.581	0.376	0.308
-472.245	28.172	-0.455	0.385
-471.230	-19.269	-0.535	0.333
-470.216	153.718	0.458	-0.628
-469.201	97.763	-0.264	-0.304
-468.186	-32.273	0.168	-0.094
-467.172	-76.017	-0.409	-0.145
-466.157	263.536	-0.482	-0.840
-465.143	116.936	0.680	-0.837
-464.128	440.466	0.437	0.957
-463.113	-200.000	-0.059	0.516
-462.099	475.010	-0.181	0.408
-461.084	-100.479	-0.419	-0.104
-460.070	-200.000	0.025	0.770
-459.055	-14.368	0.289	-0.186
-458.040	518.644	-0.386	-0.904
-457.026	-169.215	-0.496	0.018
-456.011	-88.419	0.864	0.258
-454.997	-153.004	0.701	-0.049
-453.982	-169.299	0.327	-0.012
-452.968	-200.000	0.029	0.524
-451.953	-200.000	0.115	0.504
-450.938	76.226	0.436	-0.462
-449.924	65.658	-0.349	0.353
-448.909	184.602	0.331	0.491
-447.895	120.605	-0.250	-0.311
-446.880	-36.815	-0.268	-0.144
-445.865	288.276	-0.200	-0.362
-444.851	800.000	-0.400	1.249
-443.836	-64.446	-0.548	0.223
-442.822	-7.345	0.217	-0.147
-441.807	-82.991	0.791	-0.255
-440.792	230.195	0.196	0.320
-439.778	62.031	0.199	-0.199
-438.763	18.475	0.610	0.488
-437.749	-75.677	0.721	-0.256
-436.734	-137.117	0.945	-0.108
-435.719	800.000	0.191	0.536
-434.705	-200.000	-0.009	0.200
-433.690	-68.249	0.491	-0.191
-432.676	-116.536	0.441	-0.081
-431.661	-200.000	0.014	-0.115
-430.646	800.000	-0.090	0.353
-429.632	-126.245	-0.651	-0.097
-428.617	-61.184	0.626	-0.264
-427.603	14.824	-0.386	0.302
-426.588	594.688	0.136	0.335
-425.573	58.828	0.418	0.411
-424.559	431.441	0.319	0.690
-423.544	310.701	-0.230	0.431
-422.530	98.482	-0.601	-0.692
-421.515	743.042	-0.022	0.058
-420.500	-103.403	-0.397	-0.093
-419.486	-200.000	-0.014	-0.250
-418.471	-137.229	-0.686	0.078
-417.457	29.763	0.412	0.351
-416.442	202.674	0.369	0.569
-415.428	-15.955	0.382	0.243
-414.413	-37.344	0.500	0.267
-413.398	49.248	-0.237	-0.223
-412.384	-86.613	-0.182	-0.056
-411.369	800.000	0.113	-0.428
-410.355	349.325	-0.361	0.711
-409.340	-116.099	0.140	-0.026
-408.325	610.444	-0.356	-0.890
-407.311	-91.979	0.254	-0.072
-406.296	30.025	-0.108	0.092
-405.282	-0.828	-0.336	0.238
-404.267	-27.757	0.154	-0.089
-403.252	-8.304	0.554	0.372
-402.238	-50.378	0.793	-0.374
-401.223	-144.794	-0.384	-0.035
-400.209	229.644	-0.362	-0.590
-399.194	-60.477	-0.185	0.079
-398.179	35.850	0.157	-0.138
-397.165	-33.385	-0.779	-0.430
-396.150	-184.148	0.128	-0.002
-395.136	-130.732	0.289	-0.039
-394.121	-121.107	-0.572	-0.096
-393.106	-55.847	0.133	-0.059
-392.092	-200.000	0.059	0.545
-391.077	127.179	0.456	0.578
-390.063	-200.000	-0.085	1.038
-389.048	-47.807	-0.392	-0.190
-388.033	800.000	-0.045	0.150
-387.019	306.644	0.288	-0.536
-386.004	33.072	-0.188	-0.163
-384.990	-148.704	-1.067	0.087
-383.975	-114.237	-0.617	-0.119
-382.960	-74.259	-0.597	0.215
-381.946	-200.000	0.055	-0.431
-380.931	800.000	-0.075	0.304
-379.917	290.626	-0.074	0.133
-378.902	-133.202	-0.508	0.064
-377.888	156.122	-0.204	0.281
-376.873	699.422	-0.127	-0.333
-375.858	-54.038	0.466	-0.212
-374.844	471.275	0.246	-0.553
-373.829	-200.000	-0.012	-0.070
-372.815	253.098	-0.190	-0.324
-371.800	-200.000	0.009	-0.065
-370.785	-87.909	-0.216	0.065
-369.771	2.564	0.319	-0.231
-368.756	-200.000	0.012	-0.204
-367.742	-66.562	-0.210	-0.083
-366.727	-119.927	0.142	-0.024
-365.712	512.522	-0.241	-0.560
-364.698	182.980	-0.158	0.232
-363.683	-118.686	0.250	0.044
-362.669	548.943	-0.131	-0.314
-361.654	-38.471	1.089	-0.574
-360.639	800.000	0.113	-0.399
-359.625	-200.000	-0.099	-0.462
-358.610	278.310	0.098	0.174
-357.596	-127.627	-1.092	0.158
-356.581	48.338	-0.505	0.472
-355.566	-137.588	-0.669	0.075
-354.552	15.400	0.513	-0.401
-353.537	171.973	-0.141	0.202
-352.523	-200.000	-0.168	0.818
-351.508	800.000	0.150	0.601
-350.493	-200.000	-0.077	0.456
-349.479	88.226	-0.560	0.620
-348.464	-121.257	-0.515	0.086
-347.450	-193.449	0.362	-0.003
-346.435	293.596	-0.061	-0.110
-345.420	-48.136	-0.088	0.042
-344.406	800.000	0.149	0.434
-343.391	12.472	-0.238	-0.183
-342.377	800.000	0.267	0.882
-341.362	-57.786	-0.558	-0.243
-340.348	95.212	0.342	-0.388
-339.333	306.360	-0.377	-0.699
-338.318	144.872	0.464	-0.618
-337.304	-200.000	-0.042	-1.279
-336.289	320.421	0.142	0.269
-335.275	-152.647	-0.683	0.049
-334.260	28.788	-0.085	-0.071
-333.245	32.573	-0.454	0.391
-332.231	-164.153	-0.489	-0.022
-331.216	-15.047	-0.358	-0.229
-330.202	-200.000	0.013	0.432
-329.187	-85.475	-0.805	-0.250
-328.172	16.323	-0.342	0.269
-327.158	800.000	-0.057	-0.219
-326.143	-25.618	-0.921	0.542
-325.129	31.504	0.547	-0.468
-324.114	-79.369	0.168	-0.057
-323.099	73.171	-0.429	0.447
-322.085	133.559	0.662	-0.853
-321.070	347.583	0.061	-0.120
-320.056	-67.682	-0.762	-0.297
-319.041	137.747	-0.497	-0.648
-318.026	-200.000	0.020	0.204
-317.012	-126.624	-0.130	0.019
-315.997	37.668	0.796	0.703
-314.983	64.213	0.452	0.453
-313.968	187.794	0.299	0.445
-312.953	79.942	0.209	-0.223
-311.939	-74.245	-0.414	0.149
-310.924	-113.143	-0.822	-0.161
-309.910	-106.383	-0.757	0.168
-308.895	-52.588	0.719	0.331
-307.880	-200.000	0.030	-0.340
-306.866	-57.598	-0.276	0.120
-305.851	800.000	-0.317	1.264
-304.837	180.365	0.461	0.673
-303.822	-49.856	1.111	0.525
-302.807	-87.728	0.947	0.284
-301.793	246.068	0.087	-0.146
-300.778	46.330	0.289	0.267
-299.764	800.000	-0.292	-0.851
-298.749	800.000	-0.026	-0.110
-297.735	-13.579	-0.074	-0.048
-296.720	-15.950	-0.067	0.043
-295.705	129.866	-0.227	0.289
-294.691	-105.842	-0.995	0.223
-293.676	-200.000	-0.061	0.504
-292.662	480.924	0.081	0.183
-291.647	800.000	-0.235	0.963
-290.632	-169.840	-1.066	0.038
-289.618	181.892	0.307	0.450
-288.603	800.000	-0.097	-0.267
-287.589	-6.831	0.323	-0.218
-286.574	34.159	0.515	-0.446
-285.559	-76.070	0.273	-0.096
-284.545	-200.000	-0.014	0.238
-283.530	-200.000	-0.107	0.615
-282.516	-200.000	-0.062	0.278
-281.501	96.427	0.528	-0.600
-280.486	267.811	0.123	0.214
-279.472	794.924	-0.073	-0.201
-278.457	-90.109	0.761	-0.220
-277.443	133.027	-0.325	0.418
-276.428	326.271	0.439	0.836
-275.413	434.676	0.185	-0.399
-274.399	800.000	-0.163	-0.549
-273.384	-46.638	0.491	-0.239
-272.370	-37.122	-0.592	0.315
-271.355	69.252	0.122	0.125
-270.340	154.973	-0.392	0.536
-269.326	-41.981	0.442	-0.225
-268.311	-200.000	-0.003	0.185
-267.297	499.168	0.403	-0.923
-266.282	800.000	0.186	0.711
-265.267	274.063	-0.119	-0.209
-264.253	-22.816	-0.191	0.115
-263.238	343.957	-0.365	-0.711
-262.224	800.000	-0.045	-0.141
-261.209	303.582	-0.376	0.693
-260.195	800.000	-0.280	0.883
-259.180	240.447	0.321	-0.531
-258.165	-200.000	0.045	-0.544
-257.151	-200.000	-0.081	-0.384
-256.136	-104.314	0.065	-0.015
-255.122	-200.000	0.054	0.534
-254.107	800.000	-0.265	-0.976
-253.092	195.341	0.576	-0.870
-252.078	800.000	-0.189	-0.597
-251.063	-200.000	-0.030	-0.814
-250.049	-200.000	0.057	-0.719
-249.034	-127.184	-0.436	-0.063
-248.019	188.410	0.074	0.110
-247.005	11.205	0.723	-0.549
-245.990	-86.630	1.000	0.304
-244.976	-200.000	-0.140	0.689
-243.961	800.000	0.071	-0.270
-242.946	-86.044	-1.023	-0.314
-241.932	800.000	0.132	0.379
-240.917	-77.775	-0.567	0.194
-239.903	-2.170	1.039	0.724
-238.888	130.539	0.284	-0.362
-237.873	-117.086	-0.507	-0.092
-236.859	-62.618	-0.146	0.060
-235.844	210.158	0.225	-0.350
-234.830	-43.059	-0.734	-0.369
-233.815	800.000	0.074	-0.298
-232.800	430.550	0.062	0.133
-231.786	111.667	-0.558	-0.668
-230.771	-92.992	-0.191	0.053
-229.757	217.660	-0.405	0.640
-228.742	-167.393	0.715	0.028
-227.727	-113.661	0.322	-0.062
-226.713	-112.995	-0.995	0.195
-225.698	800.000	0.196	0.557
-224.684	-200.000	-0.015	-0.716
-223.669	-108.491	-0.041	-0.009
-222.655	-200.000	0.090	-0.423
-221.640	-23.581	-0.313	0.186
-220.625	298.719	-0.186	0.339
-219.611	361.220	-0.279	-0.555
-218.596	141.481	0.271	-0.356
-217.582	6.635	-0.396	-0.292
-216.567	-200.000	-0.045	-0.495
-215.552	-67.949	-0.962	-0.372
-214.538	-10.110	0.410	-0.270
-213.523	98.632	-0.159	0.182
-212.509	-16.105	-0.392	0.247
-211.494	-200.000	-0.137	-0.735
-210.479	-13.183	0.310	0.200
-209.465	-200.000	-0.001	0.721
-208.450	243.157	-0.300	-0.498
-207.436	-54.213	0.281	-0.127
-206.421	14.604	-0.486	-0.376
-205.406	380.643	0.051	0.104
-204.392	102.144	0.481	-0.556
-203.377	-200.000	-0.054	-0.464
-202.363	-172.227	0.506	0.016
-201.348	-12.439	-0.273	0.177
-200.333	-200.000	0.065	1.486
-199.319	-72.349	0.474	-0.174
-198.304	-35.259	-0.953	0.514
-197.290	-10.757	0.112	-0.073
-196.275	-10.540	-0.352	0.231
-195.260	-156.195	-0.395	-0.025
-194.246	363.694	0.031	0.062
-193.231	-200.000	0.026	-0.553
-192.217	-200.000	-0.021	0.349
-191.202	84.987	0.203	0.220
-190.187	19.981	-0.172	-0.138
-189.173	-74.642	0.620	0.221
-188.158	-200.000	0.002	0.867
-187.144	-62.366	-0.210	-0.087
-186.129	240.877	-0.475	-0.785
-185.114	-138.587	-0.370	-0.040
-184.100	-139.920	0.517	0.054
-183.085	-33.109	-0.338	0.186
-182.071	65.157	-0.078	-0.078
-181.056	51.677	0.389	-0.366
-180.042	-101.056	-0.273	-0.066
-179.027	800.000	-0.159	-0.549
-178.012	-200.000	-0.013	0.229
-176.998	213.141	-0.365	-0.571
-175.983	-200.000	0.027	-0.284
-174.969	-4.011	0.060	0.041
-173.954	-200.000	-0.015	0.111
-172.939	-49.735	0.718	0.338
-171.925	80.783	0.288	-0.307
-170.910	-200.000	0.027	-0.163
-169.896	-123.806	-0.755	0.118
-168.881	800.000	-0.334	0.960
-167.866	143.710	0.324	0.428
-166.852	282.352	0.128	0.227
-165.837	-77.490	0.340	-0.117
-164.823	800.000	0.042	-0.118
-163.808	-200.000	-0.010	-0.638
-162.793	-116.439	-0.143	-0.026
-161.779	-200.000	0.048	0.247
-160.764	800.000	0.129	-0.545
-159.750	-49.211	0.855	0.404
-158.735	52.481	0.301	0.284
-157.720	49.492	-0.414	0.386
-156.706	-54.681	0.170	0.076
-155.691	296.787	-0.523	-0.950
-154.677	-200.000	0.083	0.900
-153.662	-54.335	-0.406	0.182
-152.647	-61.760	-0.361	-0.149
-151.633	509.538	-0.023	-0.052
-150.618	253.777	-0.168	0.284
-149.604	-9.358	0.703	-0.464
-148.589	113.146	0.530	0.635
-147.574	-32.147	-0.015	-0.008
-146.560	-76.806	-0.218	-0.075
-145.545	725.736	0.124	0.328
-144.531	-149.494	0.457	0.036
-143.516	795.318	-0.078	0.213
-142.502	-76.342	-0.820	0.286
-141.487	194.840	-0.454	0.681
-140.472	-200.000	0.013	0.280
-139.458	2.162	0.669	0.478
-138.443	-200.000	0.036	-0.612
-137.429	-200.000	-0.088	0.467
-136.414	-90.013	0.707	0.204
-135.399	97.689	0.338	0.384
-134.385	-200.000	0.058	0.597
-133.370	800.000	0.287	0.874
-132.356	11.467	0.291	-0.220
-131.341	19.582	0.807	-0.642
-130.326	111.708	0.124	-0.148
-129.312	125.066	-0.150	-0.187
-128.297	167.947	-0.611	-0.858
-127.283	-93.072	0.178	-0.049
-126.268	-76.395	0.356	-0.124
-125.253	800.000	-0.370	-1.234
-124.239	-100.852	-0.337	0.082
-123.224	-200.000	-0.157	1.073
-122.210	-60.781	0.244	0.102
-121.195	800.000	-0.202	-0.690
-120.180	187.072	0.389	0.573
