DTS Sentinel unit serial number:	SN413079Multiplexer serial number:	ORYXHardware model number:	OX4-SRSoftware version number:	ORYX F/W v4.00 Oryx Data Collector v3.7.2.0data status	okinstallation	princeton_trtdifferential loss correction	single-endedforward channel	channel 1reverse channel	N/Adate	2019/09/14time	04:26:35forward acquisition time	60.00reverse acquisition time	0.00gamma	496.2192k internal	0.2335k external	0.2335temperature offset calibration	1.0078default loss term (dB/km)	0.3790temperature slope calibration	1.0000multiplexer offset coefficient	1.0000multiplexer slope coefficient	1.0000fibre end	0.00T internal ref (°C)	26.75T ext. ref 1 (°C)	3.34T ext. ref 2 (°C)	21.90length (m)	temperature (°C)	Stokes	anti-Stokes-747.200	97.169	0.206	0.238
-746.185	-77.556	-0.500	-0.174
-745.171	63.617	-0.271	0.273
-744.156	37.099	-0.098	0.088
-743.142	-117.512	-0.180	0.033
-742.127	175.570	-0.144	0.210
-741.112	-159.944	-0.241	-0.013
-740.098	-174.997	-0.198	-0.006
-739.083	57.002	-0.084	0.082
-738.069	-54.695	-0.220	-0.100
-737.054	-200.000	-0.055	-0.366
-736.039	-200.000	-0.034	-0.267
-735.025	-200.000	-0.006	0.033
-734.010	381.960	0.177	-0.366
-732.996	-200.000	-0.056	0.348
-731.981	103.087	0.076	0.089
-730.966	-76.701	-0.207	0.073
-729.952	20.146	-0.109	0.088
-728.937	182.254	-0.117	-0.173
-727.923	152.736	0.073	0.100
-726.908	231.790	0.083	0.137
-725.894	-200.000	0.027	0.149
-724.879	-200.000	0.001	-0.007
-723.864	50.976	-0.220	-0.209
-722.850	508.342	-0.172	-0.401
-721.835	-200.000	-0.012	0.059
-720.821	-91.167	-0.225	0.065
-719.806	304.004	-0.259	0.483
-718.791	-3.083	-0.187	0.131
-717.777	-200.000	-0.009	-0.402
-716.762	362.893	-0.072	0.146
-715.748	17.912	-0.260	0.208
-714.733	-95.009	0.377	0.102
-713.718	-66.533	-0.370	0.147
-712.704	-138.029	-0.247	0.028
-711.689	-4.187	0.012	-0.008
-710.675	-67.139	-0.394	0.156
-709.660	-51.777	-0.264	0.123
-708.645	-123.916	-0.173	-0.027
-707.631	-114.173	-0.334	-0.065
-706.616	-137.269	-0.083	0.009
-705.602	799.746	0.061	-0.168
-704.587	-200.000	-0.040	-0.258
-703.572	225.715	-0.157	-0.256
-702.558	675.568	0.098	-0.255
-701.543	800.000	-0.036	0.135
-700.529	246.244	0.065	0.111
-699.514	120.886	0.159	0.199
-698.499	-113.735	0.055	0.011
-697.485	15.234	-0.124	0.098
-696.470	24.934	0.273	-0.227
-695.456	-200.000	0.005	-0.304
-694.441	358.021	0.059	0.118
-693.426	263.819	0.100	-0.174
-692.412	-153.190	-0.192	0.013
-691.397	-200.000	0.014	0.140
-690.383	800.000	0.086	0.348
-689.368	3.787	-0.021	0.016
-688.354	-111.791	-0.201	0.041
-687.339	800.000	-0.090	-0.395
-686.324	-153.687	0.131	0.009
-685.310	-178.159	-0.167	0.004
-684.295	45.845	0.054	-0.050
-683.281	-15.941	-0.052	0.033
-682.266	-200.000	-0.033	0.186
-681.251	-200.000	-0.074	0.379
-680.237	230.965	0.145	0.237
-679.222	-143.297	0.294	0.028
-678.208	-99.997	-0.410	0.103
-677.193	25.423	0.214	-0.178
-676.178	-13.659	0.043	-0.028
-675.164	-200.000	-0.016	0.086
-674.149	-113.022	0.236	-0.047
-673.135	83.506	0.260	0.284
-672.120	34.505	0.160	0.140
-671.105	77.115	0.120	0.128
-670.091	-9.440	0.242	-0.162
-669.076	-72.045	0.229	0.085
-668.062	624.903	0.062	0.157
-667.047	195.776	0.211	-0.321
-666.032	37.373	-0.347	-0.308
-665.018	91.926	0.217	-0.245
-664.003	-57.563	-0.179	-0.079
-662.989	800.000	0.035	-0.144
-661.974	292.987	0.190	-0.348
-660.959	800.000	0.071	0.221
-659.945	149.067	0.107	-0.144
-658.930	237.032	-0.198	-0.328
-657.916	-111.681	0.412	0.084
-656.901	-73.828	0.375	0.137
-655.886	-72.469	-0.362	0.134
-654.872	800.000	0.066	-0.214
-653.857	800.000	-0.111	-0.309
-652.843	6.020	-0.145	0.108
-651.828	-112.096	0.134	-0.027
-650.814	-200.000	-0.059	0.287
-649.799	-200.000	-0.043	0.242
-648.784	800.000	-0.081	-0.352
-647.770	800.000	0.014	0.058
-646.755	-200.000	0.068	0.361
-645.741	-200.000	0.039	0.179
-644.726	-200.000	-0.011	0.093
-643.711	-89.595	-0.288	-0.085
-642.697	-86.536	0.052	0.016
-641.682	1.537	0.254	0.183
-640.668	479.305	-0.026	0.058
-639.653	800.000	0.078	0.225
-638.638	-98.081	-0.258	-0.066
-637.624	61.222	-0.110	-0.110
-636.609	800.000	0.044	0.131
-635.595	71.800	-0.101	0.105
-634.580	-200.000	0.054	0.261
-633.565	-106.324	-0.168	0.038
-632.551	222.129	-0.189	-0.305
-631.536	-200.000	0.066	0.365
-630.522	97.188	0.180	-0.207
-629.507	800.000	0.066	0.278
-628.492	800.000	-0.048	-0.164
-627.478	443.962	-0.161	0.354
-626.463	-157.915	0.125	0.007
-625.449	800.000	-0.095	-0.338
-624.434	264.414	-0.074	-0.129
-623.419	172.428	-0.049	-0.070
-622.405	-113.702	0.240	-0.047
-621.390	800.000	0.036	-0.140
-620.376	-189.547	-0.456	0.005
-619.361	14.437	-0.268	-0.209
-618.346	175.526	0.031	-0.045
-617.332	-136.716	0.302	0.035
-616.317	-102.880	-0.225	-0.054
-615.303	450.080	0.047	-0.104
-614.288	-123.726	-0.046	0.007
-613.273	59.976	-0.282	-0.279
-612.259	14.194	-0.010	-0.007
-611.244	411.691	0.072	-0.152
-610.230	800.000	-0.040	0.120
-609.215	-7.064	-0.119	-0.081
-608.201	-53.742	-0.193	0.088
-607.186	-200.000	0.029	-0.259
-606.171	800.000	-0.037	-0.134
-605.157	-19.371	-0.178	-0.110
-604.142	-19.235	0.076	0.047
-603.128	-143.779	0.118	0.011
-602.113	325.101	-0.108	0.206
-601.098	800.000	-0.171	-0.567
-600.084	23.492	0.204	0.168
-599.069	-13.891	-0.248	-0.160
-598.055	508.736	-0.183	0.426
-597.040	34.485	-0.324	0.282
-596.025	64.721	-0.069	-0.070
-595.011	129.025	0.071	-0.091
-593.996	-141.644	0.084	0.008
-592.982	106.370	-0.020	0.024
-591.967	-42.239	0.234	-0.119
-590.952	-55.232	-0.281	-0.126
-589.938	800.000	-0.032	0.114
-588.923	22.043	0.202	-0.164
-587.909	-70.706	0.417	-0.157
-586.894	-188.640	0.267	-0.003
-585.879	-87.173	-0.191	-0.058
-584.865	-180.402	0.056	0.001
-583.850	95.332	0.113	0.129
-582.836	-81.094	0.198	0.065
-581.821	-46.538	-0.203	-0.099
-580.806	-200.000	0.060	-0.282
-579.792	800.000	-0.118	0.349
-578.777	-200.000	-0.016	0.179
-577.763	4.051	0.173	-0.127
-576.748	800.000	0.064	0.180
-575.733	73.485	0.264	0.276
-574.719	107.320	-0.294	0.349
-573.704	-200.000	0.020	-0.215
-572.690	-58.918	0.180	0.078
-571.675	118.642	0.067	-0.082
-570.661	-70.591	-0.372	0.141
-569.646	-110.023	0.439	-0.092
-568.631	-82.500	0.494	0.160
-567.617	-200.000	-0.001	-0.023
-566.602	-200.000	-0.026	-0.180
-565.588	-37.429	0.238	0.127
-564.573	-185.497	-0.441	-0.007
-563.558	-58.295	0.227	0.099
-562.544	-157.654	0.080	-0.005
-561.529	-96.638	0.052	0.014
-560.515	-125.100	-0.357	-0.055
-559.500	-178.780	-0.297	0.007
-558.485	-66.155	-0.290	0.115
-557.471	-200.000	-0.028	0.173
-556.456	229.025	0.137	0.223
-555.442	-51.207	-0.218	-0.102
-554.427	258.589	-0.055	-0.094
-553.412	-137.512	-0.098	0.011
-552.398	-164.166	-0.097	-0.004
-551.383	-79.332	0.139	0.047
-550.369	800.000	-0.024	0.083
-549.354	-61.537	0.126	-0.053
-548.339	3.571	-0.017	0.012
-547.325	-140.043	-0.152	0.016
-546.310	-67.371	0.245	-0.096
-545.296	-152.568	0.243	0.017
-544.281	22.246	0.244	-0.198
-543.266	415.683	0.037	0.078
-542.252	800.000	0.047	-0.178
-541.237	-101.165	0.137	-0.034
-540.223	-89.565	0.332	-0.097
-539.208	-62.601	0.285	-0.118
-538.193	-200.000	-0.036	-0.229
-537.179	800.000	0.110	0.309
-536.164	484.641	0.064	0.145
-535.150	800.000	0.075	-0.304
-534.135	39.688	-0.328	0.293
-533.121	176.858	-0.043	0.063
-532.106	130.896	-0.149	-0.190
-531.091	-143.296	-0.201	0.019
-530.077	207.352	0.152	-0.236
-529.062	-159.243	0.291	0.016
-528.048	-172.180	-0.223	-0.007
-527.033	-14.771	0.033	-0.021
-526.018	-109.405	0.262	0.055
-525.004	419.499	-0.035	0.074
-523.989	-125.860	0.052	0.008
-522.975	377.194	-0.016	-0.034
-521.960	246.441	0.133	-0.224
-520.945	-13.535	-0.071	-0.046
-519.931	86.224	0.158	-0.174
-518.916	-114.150	-0.639	0.123
-517.902	484.265	-0.160	-0.363
-516.887	-132.752	-0.315	0.040
-515.872	538.841	0.028	0.067
-514.858	284.151	0.144	-0.258
-513.843	380.816	0.025	-0.051
-512.829	-168.200	-0.064	0.002
-511.814	297.297	0.007	0.013
-510.799	554.250	-0.084	0.202
-509.785	-101.084	-0.346	0.085
-508.770	110.117	0.211	-0.252
-507.756	-54.195	0.103	0.046
-506.741	-47.920	-0.216	0.104
-505.726	49.902	0.135	0.127
-504.712	-134.950	-0.131	-0.016
-503.697	-200.000	-0.273	0.001
-502.683	-114.017	0.225	0.043
-501.668	800.000	-0.072	-0.296
-500.653	497.384	-0.121	-0.276
-499.639	-5.615	0.249	0.170
-498.624	-29.445	0.194	-0.110
-497.610	-191.927	0.151	0.001
-496.595	183.753	0.169	-0.249
-495.581	465.751	-0.129	-0.288
-494.566	68.960	0.235	0.240
-493.551	-122.278	-0.070	-0.011
-492.537	92.602	0.103	-0.116
-491.522	74.775	-0.272	-0.285
-490.508	800.000	0.053	0.207
-489.493	-143.549	0.349	0.033
-488.478	308.588	-0.007	-0.014
-487.464	554.054	0.024	-0.058
-486.449	-126.989	0.188	0.027
-485.435	-131.792	0.328	-0.043
-484.420	-84.634	0.040	-0.012
-483.405	-200.000	-0.046	0.251
-482.391	167.982	-0.102	-0.144
-481.376	402.875	0.086	0.179
-480.362	47.844	-0.535	0.497
-479.347	-200.000	-0.143	0.000
-478.332	800.000	-0.026	0.099
-477.318	800.000	-0.041	0.169
-476.303	304.121	-0.034	-0.062
-475.289	-200.000	-0.052	0.331
-474.274	-118.089	-0.190	0.034
-473.259	274.488	-0.104	0.184
-472.245	203.197	0.100	-0.154
-471.230	-110.848	0.139	-0.028
-470.216	561.715	-0.049	-0.117
-469.201	-200.000	-0.053	0.275
-468.186	-26.209	-0.237	-0.139
-467.172	-30.159	0.172	-0.097
-466.157	605.315	-0.104	0.257
-465.143	-100.396	0.212	-0.052
-464.128	-200.000	-0.020	0.250
-463.113	-29.485	0.120	-0.068
-462.099	800.000	-0.016	-0.064
-461.084	-200.000	-0.031	0.347
-460.070	36.891	0.244	-0.214
-459.055	-111.192	0.278	0.057
-458.040	1.457	0.032	0.023
-457.026	800.000	-0.071	-0.228
-456.011	-117.436	0.188	0.034
-454.997	-56.297	-0.180	-0.079
-453.982	685.832	-0.071	0.185
-452.968	-147.816	-0.285	-0.024
-451.953	-200.000	-0.020	-0.108
-450.938	-43.590	0.115	-0.058
-449.924	234.025	0.035	0.057
-448.909	46.013	-0.271	0.249
-447.895	695.697	-0.114	0.298
-446.880	-47.208	0.075	-0.036
-445.865	-78.938	0.188	-0.064
-444.851	-29.445	0.298	0.169
-443.836	-200.000	-0.023	-0.258
-442.822	800.000	0.015	0.059
-441.807	362.749	-0.102	-0.203
-440.792	579.298	0.148	-0.360
-439.778	61.870	-0.032	-0.032
-438.763	52.225	0.329	0.311
-437.749	199.987	-0.182	-0.277
-436.734	-1.486	0.020	-0.014
-435.719	-139.943	-0.273	0.029
-434.705	0.293	-0.190	0.134
-433.690	574.746	0.105	0.255
-432.676	188.192	0.096	-0.143
-431.661	-99.857	-0.189	-0.047
-430.646	191.951	-0.084	0.126
-429.632	-156.113	0.241	0.015
-428.617	496.159	-0.011	-0.024
-427.603	-100.592	-0.123	-0.030
-426.588	105.005	0.153	-0.179
-425.573	-175.561	0.240	-0.006
-424.559	455.774	0.038	0.083
-423.544	800.000	0.026	-0.092
-422.530	-200.000	-0.036	-0.248
-421.515	734.257	0.117	0.312
-420.500	-80.945	-0.167	-0.055
-419.486	51.713	0.166	-0.157
-418.471	-155.928	-0.121	-0.008
-417.457	-5.063	0.134	-0.091
-416.442	-24.370	0.212	-0.125
-415.428	-110.140	0.319	-0.066
-414.413	108.778	0.035	-0.041
-413.398	214.642	-0.070	-0.110
-412.384	-41.009	0.246	-0.126
-411.369	386.226	0.183	-0.376
-410.355	800.000	-0.077	-0.263
-409.340	800.000	-0.044	0.133
-408.325	-77.204	-0.247	0.085
-407.311	23.868	0.319	0.261
-406.296	-200.000	0.029	0.283
-405.282	-172.240	-0.489	0.016
-404.267	-119.843	0.370	-0.063
-403.252	118.381	-0.304	0.372
-402.238	70.540	0.136	0.140
-401.223	-46.642	0.081	-0.039
-400.209	-13.904	-0.182	-0.117
-399.194	172.289	-0.097	0.138
-398.179	163.442	0.087	0.121
-397.165	752.130	0.054	-0.145
-396.150	143.653	-0.069	-0.091
-395.136	44.028	-0.236	-0.215
-394.121	-200.000	0.019	0.219
-393.106	45.308	-0.089	0.081
-392.092	-129.037	0.234	0.033
-391.077	770.203	-0.141	0.381
-390.063	4.067	0.073	-0.053
-389.048	-200.000	-0.048	-0.274
-388.033	-64.254	-0.025	0.010
-387.019	800.000	-0.029	-0.101
-386.004	271.132	0.126	-0.220
-384.990	296.748	0.074	-0.135
-383.975	-122.703	0.124	-0.020
-382.960	181.361	-0.115	-0.168
-381.946	502.920	-0.084	-0.193
-380.931	-43.892	0.054	0.027
-379.917	-85.775	-0.351	0.108
-378.902	-74.422	-0.193	-0.069
-377.888	-18.677	0.160	-0.099
-376.873	800.000	0.051	-0.140
-375.858	748.341	0.162	0.433
-374.844	-91.570	-0.058	-0.016
-373.829	33.518	-0.156	0.134
-372.815	800.000	-0.061	-0.255
-371.800	-40.679	0.373	0.192
-370.785	798.707	0.131	-0.357
-369.771	599.102	0.076	-0.186
-368.756	-72.714	0.063	0.023
-367.742	178.122	0.199	0.288
-366.727	0.702	0.065	0.046
-365.712	43.004	-0.065	-0.059
-364.698	139.506	-0.297	0.387
-363.683	-63.753	0.106	0.043
-362.669	-200.000	0.000	0.258
-361.654	-200.000	-0.037	0.181
-360.639	30.940	0.254	0.216
-359.625	92.859	-0.154	0.172
-358.610	-95.508	-0.221	0.059
-357.596	-10.412	-0.068	-0.045
-356.581	272.237	-0.104	0.182
-355.566	75.267	0.255	0.266
-354.552	-34.627	0.189	0.102
-353.537	102.353	-0.138	-0.160
-352.523	97.683	0.012	0.014
-351.508	-200.000	0.026	0.163
-350.493	-55.338	0.115	0.051
-349.479	-200.000	-0.028	-0.146
-348.464	-53.801	0.272	0.123
-347.450	800.000	-0.030	0.094
-346.435	800.000	-0.093	-0.264
-345.420	0.571	-0.061	0.043
-344.406	565.849	-0.029	0.071
-343.391	3.989	-0.076	-0.055
-342.377	-136.437	0.166	-0.019
-341.362	76.836	-0.069	0.073
-340.348	-178.444	0.288	0.007
-339.333	63.258	-0.134	0.133
-338.318	13.289	-0.159	-0.122
-337.304	13.199	0.094	0.072
-336.289	-36.180	0.495	-0.264
-335.275	-200.000	-0.006	0.146
-334.260	800.000	0.120	-0.388
-333.245	-28.841	0.098	-0.055
-332.231	88.922	0.293	-0.323
-331.216	800.000	0.013	-0.052
-330.202	-200.000	0.029	0.153
-329.187	800.000	0.069	-0.245
-328.172	-64.680	-0.078	0.031
-327.158	-200.000	0.013	0.181
-326.143	64.482	0.028	0.027
-325.129	295.179	0.113	-0.204
-324.114	-179.803	-0.443	-0.009
-323.099	-13.134	0.158	0.102
-322.085	-67.387	-0.116	-0.045
-321.070	800.000	0.065	-0.180
-320.056	-27.008	-0.019	0.011
-319.041	-76.162	0.170	0.059
-318.026	-8.803	0.320	0.212
-317.012	-166.861	-0.074	-0.003
-315.997	-112.486	0.276	-0.054
-314.983	-122.654	-0.100	-0.016
-313.968	-94.557	-0.220	0.059
-312.953	-200.000	0.077	-0.344
-311.939	249.643	-0.117	-0.197
-310.924	-200.000	-0.016	0.086
-309.910	-10.354	0.210	0.138
-308.895	481.273	-0.051	0.114
-307.880	-47.018	-0.146	0.070
-306.866	5.435	-0.179	-0.130
-305.851	122.989	-0.160	0.198
-304.837	-139.388	0.161	0.017
-303.822	-200.000	-0.023	-0.148
-302.807	-62.526	-0.164	-0.067
-301.793	573.205	-0.080	-0.192
-300.778	-200.000	-0.026	-0.121
-299.764	800.000	0.099	-0.297
-298.749	160.135	0.069	0.095
-297.735	800.000	-0.035	0.150
-296.720	-111.181	0.427	0.086
-295.705	317.067	0.089	-0.166
-294.691	-200.000	0.016	0.180
-293.676	-200.000	0.001	0.354
-292.662	-200.000	-0.002	0.151
-291.647	32.999	0.103	0.088
-290.632	273.381	0.080	0.139
-289.618	-59.163	0.123	-0.052
-288.603	165.098	0.112	0.156
-287.589	-200.000	0.013	-0.093
-286.574	-200.000	-0.031	-0.140
-285.559	110.307	0.160	-0.190
-284.545	111.370	-0.074	-0.088
-283.530	-200.000	0.025	0.352
-282.516	-200.000	0.083	0.463
-281.501	-200.000	-0.002	-0.114
-280.486	-200.000	-0.001	0.139
-279.472	81.106	0.021	0.023
-278.457	-109.989	0.216	0.045
-277.443	-116.912	0.149	-0.027
-276.428	158.305	-0.084	-0.116
-275.413	-150.751	-0.148	0.011
-274.399	-4.496	0.025	0.017
-273.384	-200.000	0.013	-0.128
-272.370	800.000	-0.117	0.334
-271.355	146.174	-0.162	0.215
-270.340	800.000	-0.048	-0.181
-269.326	-200.000	0.005	0.029
-268.311	408.999	-0.019	-0.039
-267.297	291.564	-0.051	-0.091
-266.282	800.000	0.040	-0.127
-265.267	-200.000	0.001	0.135
-264.253	-31.551	-0.163	-0.090
-263.238	-74.885	0.163	-0.058
-262.224	72.289	-0.085	-0.087
-261.209	800.000	0.036	-0.118
-260.195	-137.970	-0.251	0.028
-259.180	-92.084	-0.414	-0.115
-258.165	-135.502	0.276	-0.032
-257.151	-38.798	0.082	0.042
-256.136	-189.649	-0.343	-0.004
-255.122	-71.068	0.096	-0.035
-254.107	-200.000	-0.010	0.125
-253.092	57.103	0.141	0.136
-252.078	-82.991	0.041	-0.013
-251.063	-114.445	-0.348	-0.066
-250.049	-200.000	0.023	-0.179
-249.034	-200.000	-0.047	-0.322
-248.019	-43.136	0.132	-0.066
-247.005	-134.296	0.316	-0.038
-245.990	604.053	-0.091	-0.224
-244.976	96.738	0.058	0.065
-243.961	-200.000	-0.045	-0.325
-242.946	35.840	0.091	0.079
-241.932	369.182	0.045	-0.089
-240.917	109.682	-0.039	0.046
-239.903	88.354	0.210	0.230
-238.888	-146.943	-0.308	0.026
-237.873	-200.000	0.031	-0.170
-236.859	52.482	0.049	-0.046
-235.844	-7.544	0.097	-0.065
-234.830	420.051	0.065	-0.137
-233.815	160.919	-0.179	-0.247
-232.800	800.000	-0.062	0.206
-231.786	-40.523	0.198	0.101
-230.771	-200.000	-0.003	0.030
-229.757	18.122	0.209	0.164
-228.742	-51.110	0.031	0.014
-227.727	800.000	0.047	0.162
-226.713	348.350	-0.028	-0.055
-225.698	394.843	-0.113	-0.232
-224.684	-123.602	-0.119	-0.019
-223.669	-23.660	-0.222	-0.131
-222.655	800.000	-0.086	-0.268
-221.640	98.968	-0.172	0.195
-220.625	-115.693	0.134	0.025
-219.611	-200.000	-0.056	-0.457
-218.596	800.000	0.090	-0.344
-217.582	-200.000	-0.003	-0.090
-216.567	217.646	0.088	0.139
-215.552	-56.015	0.340	0.149
-214.538	-183.907	-0.255	-0.004
-213.523	800.000	0.084	0.245
-212.509	-44.045	-0.275	0.136
-211.494	800.000	0.133	-0.419
-210.479	-200.000	0.004	-0.031
-209.465	-72.730	-0.078	0.028
-208.450	800.000	-0.020	0.062
-207.436	164.678	0.038	0.053
-206.421	210.882	0.120	0.186
-205.406	-200.000	-0.005	-0.096
-204.392	-47.279	0.276	-0.132
-203.377	-200.000	0.060	-0.411
-202.363	-200.000	0.010	-0.129
-201.348	286.609	-0.082	-0.145
-200.333	452.294	-0.128	0.279
-199.319	800.000	0.036	-0.130
-198.304	193.648	-0.148	-0.221
-197.290	-12.834	-0.260	0.167
-196.275	800.000	0.060	0.185
-195.260	-57.565	-0.278	0.120
-194.246	114.979	-0.215	0.258
-193.231	113.217	0.237	0.282
-192.217	-82.210	-0.116	0.037
-191.202	-89.457	-0.248	0.072
-190.187	-200.000	-0.005	-0.033
-189.173	-48.421	-0.223	-0.105
-188.158	59.518	-0.161	0.157
-187.144	400.769	-0.029	-0.059
-186.129	-159.041	0.170	0.009
-185.114	-159.468	-0.124	0.007
-184.100	-200.000	-0.048	0.366
-183.085	-83.931	-0.338	-0.106
-182.071	311.196	-0.148	-0.273
-181.056	800.000	-0.069	-0.270
-180.042	-13.370	0.115	-0.073
-179.027	-14.736	-0.116	0.073
-178.012	38.614	-0.153	0.135
-176.998	81.063	-0.308	0.326
-175.983	245.089	0.129	0.213
-174.969	387.870	0.067	0.137
-173.954	-109.236	-0.202	-0.042
-172.939	-200.000	0.013	0.329
-171.925	-43.044	-0.214	-0.106
-170.910	412.562	-0.206	-0.430
-169.896	-76.076	0.188	0.065
-168.881	25.515	-0.201	-0.165
-167.866	-200.000	-0.041	-0.330
-166.852	-200.000	-0.009	-0.067
-165.837	125.503	-0.084	-0.104
-164.823	197.079	0.051	-0.077
-163.808	639.567	0.112	-0.280
-162.793	19.092	0.292	0.230
-161.779	110.254	0.151	0.178
-160.764	-10.601	0.083	0.054
-159.750	-200.000	-0.002	0.202
-158.735	75.954	0.106	-0.110
-157.720	-200.000	0.014	0.220
-156.706	142.431	-0.161	0.209
-155.691	-132.441	0.126	-0.016
-154.677	-200.000	0.030	0.255
-153.662	800.000	0.032	0.120
-152.647	-200.000	0.011	0.190
-151.633	-7.845	-0.339	-0.225
-150.618	-109.431	0.393	-0.082
-149.604	800.000	-0.110	-0.384
-148.589	58.479	0.172	-0.166
-147.574	72.014	0.201	-0.205
-146.560	20.059	-0.062	-0.049
-145.545	-50.765	0.121	0.056
-144.531	170.607	0.149	-0.210
-143.516	160.240	0.036	0.049
-142.502	-98.290	-0.199	0.050
-141.487	-109.335	0.136	0.028
-140.472	78.077	-0.219	0.230
-139.458	51.533	0.072	-0.068
-138.443	320.628	0.150	0.280
-137.429	800.000	0.060	0.239
-136.414	-200.000	0.016	0.176
-135.399	-24.730	-0.199	0.116
-134.385	199.874	0.173	-0.260
-133.370	-146.894	-0.369	-0.031
-132.356	404.662	-0.121	0.250
-131.341	-200.000	-0.000	0.187
-130.326	497.756	0.151	0.340
-129.312	-75.858	-0.288	-0.100
-128.297	-200.000	-0.022	-0.159
-127.283	-150.317	-0.170	-0.013
-126.268	-114.636	0.128	-0.024
-125.253	245.705	0.163	0.269
-124.239	-134.161	-0.333	-0.040
-123.224	34.327	0.159	0.136
-122.210	-200.000	0.045	0.292
-121.195	-41.402	0.115	-0.058
