DTS Sentinel unit serial number:	SN413079Multiplexer serial number:	ORYXHardware model number:	OX4-SRSoftware version number:	ORYX F/W v4.00 Oryx Data Collector v3.7.2.0data status	okinstallation	princeton_trtdifferential loss correction	single-endedforward channel	channel 1reverse channel	N/Adate	2019/09/19time	02:46:35forward acquisition time	60.00reverse acquisition time	0.00gamma	496.2192k internal	0.2344k external	0.2344temperature offset calibration	1.0016default loss term (dB/km)	0.3790temperature slope calibration	1.0000multiplexer offset coefficient	1.0000multiplexer slope coefficient	1.0000fibre end	0.00T internal ref (°C)	20.92T ext. ref 1 (°C)	0.66T ext. ref 2 (°C)	14.60length (m)	temperature (°C)	Stokes	anti-Stokes-747.200	-7.438	-0.128	0.087
-746.185	-200.000	0.016	0.235
-745.171	-200.000	-0.064	0.290
-744.156	-200.000	-0.063	0.345
-743.142	507.077	-0.073	-0.168
-742.127	-100.047	-0.521	0.130
-741.112	800.000	-0.148	0.416
-740.098	-200.000	0.022	0.150
-739.083	-200.000	0.011	-0.107
-738.069	-55.832	-0.063	0.028
-737.054	-13.835	-0.253	-0.163
-736.039	-200.000	-0.025	-0.126
-735.025	237.561	-0.080	0.133
-734.010	800.000	-0.051	-0.160
-732.996	155.153	-0.322	0.443
-731.981	-53.849	0.240	-0.109
-730.966	800.000	-0.078	-0.255
-729.952	-60.194	-0.040	-0.017
-728.937	392.464	0.016	0.034
-727.923	-69.879	0.139	-0.053
-726.908	183.329	0.182	0.268
-725.894	-75.018	-0.089	-0.032
-724.879	-200.000	-0.017	-0.148
-723.864	800.000	0.032	-0.137
-722.850	2.178	0.040	-0.029
-721.835	-200.000	-0.045	0.250
-720.821	14.123	-0.258	-0.201
-719.806	-24.075	0.389	-0.232
-718.791	800.000	0.020	-0.058
-717.777	-2.569	-0.288	0.202
-716.762	286.232	0.108	-0.195
-715.748	-90.230	-0.356	-0.104
-714.733	120.202	0.047	-0.059
-713.718	-47.078	-0.099	-0.049
-712.704	-64.465	0.287	-0.116
-711.689	800.000	-0.045	0.163
-710.675	-53.152	0.196	-0.090
-709.660	800.000	-0.098	-0.390
-708.645	136.273	0.204	-0.266
-707.631	-38.412	-0.079	0.042
-706.616	-54.778	0.103	-0.046
-705.602	-200.000	0.045	0.256
-704.587	-200.000	-0.013	0.074
-703.572	1.616	0.225	0.162
-702.558	-20.170	-0.242	0.149
-701.543	-150.817	0.108	0.008
-700.529	104.257	0.099	-0.116
-699.514	-200.000	-0.029	-0.243
-698.499	65.272	-0.133	0.134
-697.485	-93.902	-0.073	0.020
-696.470	77.542	-0.276	-0.294
-695.456	301.947	0.063	0.117
-694.441	70.820	0.302	0.313
-693.426	-147.138	-0.174	0.015
-692.412	-68.322	-0.261	-0.101
-691.397	41.391	0.136	-0.123
-690.383	21.475	-0.142	-0.115
-689.368	-92.962	-0.029	-0.008
-688.354	106.882	0.095	0.113
-687.339	22.624	-0.279	0.228
-686.324	13.095	-0.088	-0.068
-685.310	720.524	-0.087	0.232
-684.295	274.515	-0.197	0.349
-683.281	27.733	-0.151	0.127
-682.266	170.673	0.028	-0.040
-681.251	-7.935	-0.203	0.137
-680.237	-55.457	-0.259	0.116
-679.222	-0.914	-0.008	0.005
-678.208	-107.020	-0.221	-0.049
-677.193	-161.082	-0.179	0.009
-676.178	-83.738	-0.266	0.085
-675.164	-200.000	0.024	0.237
-674.149	-42.667	0.140	0.071
-673.135	-200.000	-0.010	0.060
-672.120	800.000	-0.068	-0.213
-671.105	-200.000	-0.006	0.442
-670.091	800.000	0.083	0.255
-669.076	-120.948	-0.510	-0.086
-668.062	-200.000	0.057	-0.514
-667.047	96.233	-0.192	0.219
-666.032	-120.014	-0.179	0.031
-665.018	-24.007	0.113	-0.068
-664.003	598.830	-0.121	-0.300
-662.989	-82.817	0.166	-0.053
-661.974	-3.739	-0.168	-0.116
-660.959	3.082	-0.141	-0.102
-659.945	219.187	0.305	-0.487
-658.930	186.100	-0.312	-0.463
-657.916	800.000	0.053	0.195
-656.901	-200.000	-0.020	0.345
-655.886	331.095	0.045	-0.086
-654.872	-73.050	0.211	-0.077
-653.857	2.260	-0.271	0.196
-652.843	123.310	0.141	0.176
-651.828	-46.651	0.242	0.118
-650.814	16.180	0.051	-0.040
-649.799	-156.682	-0.145	0.009
-648.784	-132.668	-0.214	0.027
-647.770	-200.000	0.043	-0.405
-646.755	111.131	0.173	-0.208
-645.741	654.818	-0.026	-0.066
-644.726	326.833	-0.084	0.161
-643.711	-29.634	-0.109	0.062
-642.697	800.000	0.044	-0.176
-641.682	-200.000	-0.021	-0.105
-640.668	162.648	-0.134	-0.188
-639.653	-1.828	-0.047	-0.033
-638.638	-46.076	-0.136	0.067
-637.624	353.817	0.059	-0.118
-636.609	134.709	0.073	0.094
-635.595	548.126	-0.143	0.342
-634.580	-60.609	-0.298	0.126
-633.565	-131.522	-0.296	-0.039
-632.551	-96.864	0.097	-0.025
-631.536	800.000	-0.030	-0.097
-630.522	-52.162	-0.280	0.129
-629.507	800.000	0.044	-0.134
-628.492	-76.371	-0.421	-0.148
-627.478	-102.991	-0.256	-0.060
-626.463	336.647	0.082	0.160
-625.449	-200.000	0.010	-0.275
-624.434	800.000	-0.051	0.148
-623.419	-32.196	-0.259	-0.144
-622.405	49.563	-0.108	-0.102
-621.390	9.031	0.322	-0.242
-620.376	800.000	-0.048	-0.209
-619.361	460.110	-0.153	0.340
-618.346	-56.551	0.277	0.122
-617.332	54.711	0.201	-0.193
-616.317	-147.680	-0.027	-0.002
-615.303	85.151	0.083	0.091
-614.288	526.411	-0.106	-0.248
-613.273	75.336	0.323	-0.339
-612.259	96.914	-0.226	0.258
-611.244	102.926	-0.218	-0.254
-610.230	-93.563	-0.277	-0.076
-609.215	136.844	-0.113	0.147
-608.201	365.215	0.080	-0.161
-607.186	248.800	-0.076	-0.129
-606.171	196.626	0.111	0.168
-605.157	33.906	0.085	-0.073
-604.142	635.437	-0.143	-0.361
-603.128	800.000	0.076	-0.303
-602.113	-200.000	-0.002	-0.041
-601.098	-39.242	-0.239	0.125
-600.084	83.331	-0.098	-0.107
-599.069	158.442	-0.064	0.088
-598.055	412.529	0.050	0.106
-597.040	216.945	-0.052	0.082
-596.025	-103.677	0.246	-0.057
-595.011	455.392	-0.041	0.091
-593.996	34.469	0.106	-0.092
-592.982	-138.233	-0.149	-0.016
-591.967	-60.196	-0.142	-0.060
-590.952	-200.000	0.000	0.028
-589.938	-200.000	-0.043	-0.414
-588.923	-26.772	0.167	0.097
-587.909	-25.858	-0.104	-0.061
-586.894	59.829	0.068	-0.067
-585.879	245.031	-0.067	-0.111
-584.865	59.445	0.068	0.067
-583.850	-177.265	-0.096	0.002
-582.836	32.705	-0.241	-0.207
-581.821	75.350	-0.153	-0.160
-580.806	-200.000	0.045	-0.393
-579.792	-69.228	-0.172	0.066
-578.777	-78.890	0.147	0.050
-577.763	50.887	-0.163	-0.153
-576.748	382.414	0.080	-0.164
-575.733	252.857	0.137	-0.233
-574.719	330.625	-0.075	0.143
-573.704	38.115	-0.403	-0.357
-572.690	-120.901	0.200	-0.034
-571.675	345.578	-0.091	0.178
-570.661	-200.000	0.014	-0.079
-569.646	625.965	-0.020	0.051
-568.631	-12.605	0.327	0.212
-567.617	27.449	0.108	-0.090
-566.602	-200.000	-0.083	0.000
-565.588	-36.059	-0.224	0.120
-564.573	-200.000	-0.101	0.459
-563.558	784.775	0.055	-0.149
-562.544	800.000	0.041	-0.151
-561.529	3.492	-0.094	0.068
-560.515	467.767	-0.153	0.342
-559.500	-200.000	0.007	0.037
-558.485	-147.525	0.179	-0.015
-557.471	595.111	0.063	0.154
-556.456	70.235	-0.046	0.048
-555.442	169.125	-0.124	0.176
-554.427	-36.366	0.213	-0.114
-553.412	277.935	0.165	-0.292
-552.398	63.775	-0.208	0.208
-551.383	441.988	-0.150	0.326
-550.369	800.000	0.094	0.409
-549.354	-121.203	0.118	0.020
-548.339	-34.607	-0.215	-0.117
-547.325	-127.656	-0.140	-0.020
-546.310	130.433	0.196	-0.249
-545.296	-97.016	0.145	0.038
-544.281	-200.000	-0.033	0.148
-543.266	800.000	-0.105	0.302
-542.252	424.469	-0.015	0.031
-541.237	-58.278	0.137	0.059
-540.223	689.134	0.087	0.226
-539.208	707.354	0.116	-0.304
-538.193	-17.726	-0.117	0.073
-537.179	-148.440	-0.128	0.010
-536.164	-130.781	0.081	0.011
-535.150	-138.618	0.175	0.019
-534.135	-173.744	-0.196	0.006
-533.121	140.210	0.059	-0.077
-532.106	620.979	0.066	-0.165
-531.091	-200.000	-0.014	-0.094
-530.077	25.723	0.093	-0.077
-529.062	-119.727	0.264	-0.045
-528.048	14.005	-0.279	0.215
-527.033	-15.501	-0.054	-0.034
-526.018	-8.611	-0.247	-0.165
-525.004	-196.258	0.325	-0.002
-523.989	247.253	0.175	0.293
-522.975	-200.000	-0.010	0.063
-521.960	82.972	-0.180	0.195
-520.945	96.824	0.330	-0.375
-519.931	-107.872	0.115	-0.025
-518.916	596.390	0.035	-0.085
-517.902	101.244	-0.113	0.131
-516.887	800.000	-0.029	-0.111
-515.872	-52.036	0.307	0.141
-514.858	55.225	-0.077	0.074
-513.843	-27.770	0.199	0.115
-512.829	-112.000	0.169	0.034
-511.814	800.000	0.050	-0.154
-510.799	-57.934	0.064	-0.028
-509.785	-105.816	0.183	-0.041
-508.770	12.384	-0.259	-0.198
-507.756	-6.072	0.048	0.033
-506.741	149.690	0.102	-0.137
-505.726	-165.149	-0.057	-0.003
-504.712	99.907	-0.015	-0.017
-503.697	800.000	-0.098	-0.297
-502.683	27.524	0.173	-0.144
-501.668	-166.201	0.067	0.003
-500.653	58.320	0.232	-0.226
-499.639	-111.346	-0.148	0.030
-498.624	143.153	-0.073	-0.096
-497.610	24.559	-0.082	-0.068
-496.595	-23.813	-0.144	0.085
-495.581	-200.000	-0.353	-0.001
-494.566	-27.038	-0.324	0.187
-493.551	800.000	0.121	0.386
-492.537	300.776	-0.094	0.171
-491.522	800.000	-0.022	0.064
-490.508	-104.800	-0.089	0.020
-489.493	800.000	-0.077	-0.222
-488.478	-65.718	-0.231	0.092
-487.464	800.000	-0.101	0.428
-486.449	-200.000	-0.011	0.291
-485.435	-99.114	-0.293	0.073
-484.420	-145.651	0.149	-0.013
-483.405	0.708	0.215	0.152
-482.391	47.409	-0.192	0.177
-481.376	-200.000	0.003	-0.404
-480.362	165.269	-0.092	0.128
-479.347	800.000	0.100	-0.339
-478.332	-113.047	-0.309	-0.060
-477.318	-115.783	0.202	-0.037
-476.303	-200.000	-0.010	0.177
-475.289	-124.040	-0.173	-0.027
-474.274	21.357	-0.562	0.452
-473.259	-133.512	-0.214	-0.027
-472.245	-58.041	0.334	0.144
-471.230	-200.000	0.039	0.346
-470.216	-62.387	0.111	0.046
-469.201	63.655	0.031	-0.031
-468.186	-100.812	-0.196	0.048
-467.172	108.917	0.111	0.131
-466.157	0.929	0.321	-0.228
-465.143	-133.984	-0.536	0.066
-464.128	-70.064	0.393	-0.148
-463.113	-33.849	-0.202	0.110
-462.099	-123.993	0.203	-0.032
-461.084	-200.000	0.014	0.308
-460.070	381.008	0.141	-0.287
-459.055	-168.869	-0.151	-0.006
-458.040	800.000	-0.118	0.372
-457.026	784.187	0.013	0.035
-456.011	800.000	0.056	0.179
-454.997	800.000	-0.100	-0.316
-453.982	-200.000	-0.002	0.147
-452.968	800.000	0.042	0.152
-451.953	-200.000	-0.027	0.171
-450.938	-26.275	0.291	0.169
-449.924	-173.644	-0.105	-0.003
-448.909	149.920	-0.050	-0.068
-447.895	800.000	0.014	0.057
-446.880	464.552	0.164	0.363
-445.865	-30.487	-0.149	-0.084
-444.851	56.961	-0.086	-0.083
-443.836	16.453	0.170	-0.133
-442.822	-125.014	-0.098	0.015
-441.807	-24.030	-0.246	0.145
-440.792	-137.323	-0.238	-0.027
-439.778	-200.000	0.036	-0.223
-438.763	-33.128	-0.027	0.015
-437.749	-88.084	-0.338	0.100
-436.734	81.291	-0.158	-0.169
-435.719	-83.423	0.179	0.057
-434.705	46.039	0.160	0.146
-433.690	235.541	-0.133	0.218
-432.676	-200.000	-0.015	-0.224
-431.661	-27.805	-0.054	0.031
-430.646	81.944	0.284	0.304
-429.632	-200.000	0.004	0.336
-428.617	107.253	-0.218	-0.256
-427.603	-56.727	-0.230	-0.101
-426.588	-44.224	-0.225	-0.112
-425.573	-200.000	0.001	-0.145
-424.559	716.245	-0.183	-0.479
-423.544	205.517	-0.079	0.121
-422.530	200.620	0.231	-0.351
-421.515	740.277	0.074	0.197
-420.500	-75.559	0.563	0.198
-419.486	-63.809	-0.265	-0.107
-418.471	116.710	0.022	0.027
-417.457	207.965	-0.029	0.045
-416.442	-16.068	0.179	-0.112
-415.428	21.501	0.243	0.195
-414.413	-41.069	0.164	-0.084
-413.398	-131.647	-0.229	0.030
-412.384	220.678	0.063	-0.100
-411.369	82.613	-0.400	-0.429
-410.355	-98.308	-0.241	-0.061
-409.340	673.971	-0.058	0.148
-408.325	86.643	0.311	0.338
-407.311	-193.168	0.322	0.003
-406.296	-200.000	0.008	-0.152
-405.282	735.481	0.120	-0.318
-404.267	-200.000	-0.025	-0.146
-403.252	1.474	-0.075	-0.053
-402.238	-21.191	-0.100	0.060
-401.223	-200.000	0.067	0.306
-400.209	-92.621	-0.064	0.018
-399.194	65.669	0.219	0.219
-398.179	-58.212	0.087	0.037
-397.165	375.658	0.073	-0.148
-396.150	800.000	0.055	0.199
-395.136	-37.767	0.112	0.059
-394.121	566.369	0.041	0.098
-393.106	-134.188	-0.243	-0.030
-392.092	-72.993	-0.086	-0.031
-391.077	-200.000	0.001	-0.044
-390.063	-98.931	-0.174	-0.044
-389.048	319.566	-0.129	0.241
-388.033	-72.280	0.322	-0.118
-387.019	-200.000	0.024	0.238
-386.004	291.560	0.045	0.080
-384.990	-200.000	-0.007	-0.064
-383.975	-43.122	-0.278	0.139
-382.960	-52.901	-0.057	0.026
-381.946	-49.417	0.240	0.113
-380.931	180.708	0.123	0.178
-379.917	10.100	-0.111	0.084
-378.902	-120.870	-0.282	-0.047
-377.888	144.734	0.165	0.217
-376.873	-200.000	-0.072	-0.484
-375.858	67.877	-0.152	-0.154
-374.844	-102.279	-0.230	0.054
-373.829	281.697	0.186	-0.328
-372.815	72.785	-0.213	-0.219
-371.800	-114.015	0.225	0.043
-370.785	80.612	-0.261	-0.277
-369.771	-5.419	-0.162	0.110
-368.756	60.111	-0.292	0.285
-367.742	375.182	0.129	0.259
-366.727	-28.412	0.198	0.113
-365.712	800.000	-0.088	-0.286
-364.698	38.085	-0.052	-0.046
-363.683	147.933	-0.063	-0.084
-362.669	-46.772	0.190	0.092
-361.654	569.481	-0.072	0.172
-360.639	-76.541	-0.117	0.041
-359.625	-64.369	0.212	0.085
-358.610	283.460	-0.111	0.196
-357.596	345.120	0.019	-0.037
-356.581	-60.663	-0.280	-0.117
-355.566	9.228	-0.143	-0.107
-354.552	-98.769	0.331	0.083
-353.537	71.473	0.266	0.272
-352.523	800.000	-0.074	0.283
-351.508	-76.818	-0.060	-0.021
-350.493	501.211	0.150	-0.342
-349.479	137.834	-0.042	0.055
-348.464	-103.031	0.201	-0.047
-347.450	246.106	-0.028	-0.046
-346.435	-200.000	0.012	0.218
-345.420	3.746	0.158	-0.114
-344.406	184.546	0.111	-0.163
-343.391	36.671	0.045	0.039
-342.377	800.000	-0.101	-0.342
-341.362	-169.096	0.194	-0.007
-340.348	281.796	-0.064	-0.114
-339.333	-105.478	0.159	-0.036
-338.318	45.807	0.154	-0.141
-337.304	134.037	-0.146	-0.187
-336.289	478.775	0.029	0.064
-335.275	92.443	0.201	-0.223
-334.260	-176.216	-0.299	-0.008
-333.245	30.159	0.239	-0.201
-332.231	-200.000	-0.003	-0.147
-331.216	-143.033	-0.271	0.026
-330.202	-184.134	0.326	0.005
-329.187	208.347	0.132	-0.204
-328.172	43.177	0.061	-0.055
-327.158	800.000	0.050	0.214
-326.143	441.206	-0.019	0.040
-325.129	800.000	-0.022	0.059
-324.114	-154.574	-0.215	-0.014
-323.099	121.098	-0.194	-0.238
-322.085	742.447	0.073	0.194
-321.070	92.564	0.091	0.101
-320.056	-87.798	0.316	-0.094
-319.041	-63.290	0.176	0.071
-318.026	-21.545	0.226	-0.135
-317.012	-85.792	0.305	0.093
-315.997	-90.063	0.124	0.036
-314.983	-131.066	-0.438	0.057
-313.968	-40.886	-0.321	-0.163
-312.953	-86.087	-0.186	0.056
-311.939	6.965	0.239	0.175
-310.924	73.251	0.085	-0.088
-309.910	124.027	0.038	-0.047
-308.895	800.000	-0.026	-0.087
-307.880	-200.000	-0.019	-0.168
-306.866	-200.000	-0.039	0.194
-305.851	34.151	0.196	0.168
-304.837	800.000	-0.031	-0.116
-303.822	-83.896	0.355	0.111
-302.807	-147.144	-0.329	-0.028
-301.793	-113.672	0.286	0.055
-300.778	201.783	0.127	-0.192
-299.764	-110.331	0.462	0.095
-298.749	-34.483	-0.225	-0.121
-297.735	8.361	-0.127	-0.094
-296.720	-131.910	0.187	-0.024
-295.705	33.181	0.044	0.038
-294.691	-2.568	0.139	-0.096
-293.676	73.313	-0.137	0.141
-292.662	800.000	0.038	0.147
-291.647	86.762	0.035	0.038
-290.632	73.074	-0.130	0.133
-289.618	-54.076	0.299	0.134
-288.603	289.579	-0.078	-0.139
-287.589	-89.144	0.281	0.082
-286.574	-200.000	-0.050	0.227
-285.559	-70.508	-0.328	0.122
-284.545	374.137	-0.182	0.364
-283.530	-146.030	-0.142	-0.012
-282.516	-62.556	-0.250	-0.102
-281.501	167.618	-0.076	0.106
-280.486	-200.000	0.003	-0.371
-279.472	-42.227	-0.089	-0.045
-278.457	59.267	-0.180	-0.174
-277.443	16.475	-0.102	0.079
-276.428	-50.382	0.226	0.105
-275.413	-200.000	0.017	0.197
-274.399	472.264	0.158	0.350
-273.384	-190.253	0.411	-0.004
-272.370	-148.815	-0.388	0.031
-271.355	-93.181	-0.054	0.015
-270.340	-200.000	0.018	-0.239
-269.326	800.000	0.053	-0.155
-268.311	184.270	-0.098	-0.142
-267.297	-103.200	-0.238	-0.055
-266.282	-27.079	-0.280	0.160
-265.267	53.014	-0.036	0.033
-264.253	-160.207	-0.187	0.010
-263.238	118.633	0.244	0.296
-262.224	-147.152	0.087	0.007
-261.209	-200.000	-0.024	0.220
-260.195	800.000	-0.070	-0.296
-259.180	204.802	-0.213	-0.325
-258.165	-200.000	0.047	-0.298
-257.151	-115.910	0.142	-0.026
-256.136	-52.801	-0.192	-0.087
-255.122	-97.781	0.263	0.067
-254.107	19.658	0.121	0.096
-253.092	148.337	0.193	-0.255
-252.078	33.222	-0.325	0.277
-251.063	-92.429	-0.172	-0.048
-250.049	800.000	0.037	-0.118
-249.034	-10.275	0.127	0.083
-248.019	-200.000	-0.006	0.188
-247.005	787.049	0.100	-0.268
-245.990	421.076	0.005	0.011
-244.976	800.000	-0.079	0.267
-243.961	-115.338	0.151	0.028
-242.946	124.326	0.105	-0.129
-241.932	-200.000	-0.058	0.250
-240.917	76.769	0.224	0.233
-239.903	17.836	-0.141	-0.110
-238.888	88.136	0.149	-0.163
-237.873	-57.232	0.611	-0.264
-236.859	-118.943	-0.220	0.038
-235.844	-139.375	-0.302	0.032
-234.830	-119.152	0.233	0.040
-233.815	-13.414	-0.419	0.267
-232.800	20.092	-0.213	-0.169
-231.786	192.431	0.154	0.228
-230.771	535.637	0.061	0.141
-229.757	353.773	-0.056	0.109
-228.742	49.610	0.153	-0.141
-227.727	800.000	-0.056	0.200
-226.713	197.899	0.344	-0.516
-225.698	75.839	-0.190	-0.197
-224.684	13.683	0.126	0.096
-223.669	-200.000	0.039	0.205
-222.655	-114.716	-0.356	-0.067
-221.640	-53.974	-0.172	0.077
-220.625	-200.000	0.029	-0.146
-219.611	502.180	-0.087	-0.197
-218.596	-137.845	-0.124	-0.014
-217.582	-99.554	0.220	-0.054
-216.567	1.042	-0.109	-0.076
-215.552	-200.000	0.020	-0.202
-214.538	105.179	0.139	-0.161
-213.523	-200.000	0.011	-0.138
-212.509	44.348	0.222	0.200
-211.494	-38.427	0.414	-0.215
-210.479	331.221	0.070	-0.133
-209.465	23.696	-0.311	0.251
-208.450	-47.977	0.405	-0.192
-207.436	275.257	-0.080	0.138
-206.421	14.456	0.103	-0.078
-205.406	147.903	0.122	0.161
-204.392	238.189	0.126	0.205
-203.377	-127.931	0.123	-0.017
-202.363	137.563	-0.152	0.194
-201.348	555.478	-0.056	0.133
-200.333	-200.000	-0.041	-0.365
-199.319	-62.767	-0.116	-0.047
-198.304	470.390	-0.050	-0.110
-197.290	-3.513	0.156	0.106
-196.275	-96.896	0.212	-0.055
-195.260	-10.925	0.161	-0.104
-194.246	-200.000	-0.004	0.126
-193.231	93.841	0.117	-0.130
-192.217	229.406	0.296	-0.474
-191.202	438.700	0.129	-0.276
-190.187	-104.439	-0.409	0.093
-189.173	-31.559	-0.201	0.111
-188.158	-200.000	-0.058	0.305
-187.144	85.813	0.158	-0.170
-186.129	-148.055	-0.245	0.020
-185.114	71.630	0.238	-0.242
-184.100	-97.418	0.305	-0.078
-183.085	79.666	0.162	0.171
-182.071	61.824	-0.290	-0.283
-181.056	47.871	-0.022	-0.020
-180.042	-111.347	-0.177	-0.035
-179.027	359.595	0.022	-0.044
-178.012	18.040	0.187	0.146
-176.998	-71.215	0.267	0.098
-175.983	-104.066	0.294	0.067
-174.969	800.000	-0.065	0.176
-173.954	-200.000	0.004	0.293
-172.939	788.733	0.102	0.274
-171.925	70.594	-0.259	0.262
-170.910	800.000	-0.026	-0.084
-169.896	-200.000	0.001	0.085
-168.881	-154.645	0.449	0.029
-167.866	-200.000	0.008	-0.077
-166.852	-15.976	0.126	-0.079
-165.837	62.996	0.085	0.083
-164.823	349.761	0.135	0.262
-163.808	156.146	0.192	0.259
-162.793	323.463	0.076	-0.141
-161.779	-86.650	0.158	0.047
-160.764	-200.000	0.005	-0.059
-159.750	85.363	-0.228	0.245
-158.735	-111.756	-0.345	0.068
-157.720	-200.000	0.013	0.196
-156.706	123.214	0.169	0.207
-155.691	-164.298	0.321	0.014
-154.677	59.658	0.174	-0.168
-153.662	-131.139	-0.117	-0.015
-152.647	-113.984	0.143	0.027
-151.633	1.117	0.063	0.044
-150.618	-83.849	-0.224	0.070
-149.604	30.525	-0.236	0.197
-148.589	800.000	-0.055	-0.149
-147.574	-0.572	-0.244	-0.170
-146.560	-113.176	-0.091	0.018
-145.545	183.725	-0.216	-0.312
-144.531	-44.367	0.115	0.056
-143.516	-200.000	-0.006	0.322
-142.502	-96.953	-0.130	-0.033
-141.487	-25.545	0.326	0.188
-140.472	800.000	-0.053	0.147
-139.458	266.852	-0.084	-0.143
-138.443	40.935	-0.214	0.189
-137.429	-66.827	-0.174	0.067
-136.414	-200.000	-0.049	-0.213
-135.399	174.209	0.217	-0.307
-134.385	-91.559	-0.116	-0.032
-133.370	-28.091	-0.101	-0.057
-132.356	-89.554	0.449	-0.129
-131.341	-200.000	0.011	-0.217
-130.326	332.795	0.274	0.517
-129.312	-121.402	0.154	-0.025
-128.297	69.484	-0.055	0.055
-127.283	-102.880	-0.143	-0.033
-126.268	162.557	0.113	-0.155
-125.253	-25.752	0.119	0.068
-124.239	-200.000	0.010	-0.091
-123.224	-27.858	-0.025	0.014
-122.210	-135.184	0.287	0.034
-121.195	-200.000	-0.032	-0.513
-120.180	-96.244	0.152	-0.039
