DTS Sentinel unit serial number:	SN413079Multiplexer serial number:	ORYXHardware model number:	OX4-SRSoftware version number:	ORYX F/W v4.00 Oryx Data Collector v3.7.2.0data status	okinstallation	princeton_trtdifferential loss correction	single-endedforward channel	channel 1reverse channel	N/Adate	2019/09/11time	14:08:11forward acquisition time	60.00reverse acquisition time	0.00gamma	496.2192k internal	0.2293k external	0.2293temperature offset calibration	0.9987default loss term (dB/km)	0.3790temperature slope calibration	1.0000multiplexer offset coefficient	1.0000multiplexer slope coefficient	1.0000fibre end	0.00T internal ref (°C)	41.87T ext. ref 1 (°C)	0.86T ext. ref 2 (°C)	36.10length (m)	temperature (°C)	Stokes	anti-Stokes-747.200	191.010	0.092	0.142
-746.185	496.095	-0.048	0.113
-745.171	15.543	0.104	0.083
-744.156	-200.000	-0.024	-0.200
-743.142	-200.000	-0.039	-0.456
-742.127	800.000	-0.149	0.604
-741.112	13.316	0.173	-0.137
-740.098	-112.075	0.323	0.067
-739.083	12.965	0.286	0.226
-738.069	-200.000	-0.063	0.347
-737.054	-168.130	-0.238	0.009
-736.039	167.614	0.209	-0.304
-735.025	167.254	0.178	0.258
-734.010	-144.858	-0.133	0.012
-732.996	-200.000	-0.034	0.178
-731.981	800.000	-0.108	-0.407
-730.966	-200.000	-0.003	0.295
-729.952	-110.036	-0.223	0.048
-728.937	800.000	0.041	-0.169
-727.923	-69.746	-0.322	-0.126
-726.908	-200.000	-0.000	0.082
-725.894	186.838	-0.162	-0.247
-724.879	-148.249	0.276	-0.023
-723.864	66.663	-0.169	-0.176
-722.850	-36.876	0.164	-0.090
-721.835	102.794	-0.133	0.159
-720.821	-4.773	-0.414	0.292
-719.806	-122.405	0.191	0.032
-718.791	-55.401	-0.200	-0.092
-717.777	512.408	0.158	-0.376
-716.762	257.883	-0.189	0.333
-715.748	800.000	0.056	-0.184
-714.733	445.063	-0.121	-0.272
-713.718	800.000	0.052	-0.191
-712.704	-200.000	0.029	-0.193
-711.689	-65.281	0.109	-0.045
-710.675	-82.439	-0.178	0.059
-709.660	9.897	-0.181	-0.140
-708.645	-90.846	0.227	0.067
-707.631	103.516	0.144	-0.173
-706.616	-200.000	0.012	0.065
-705.602	-41.210	-0.356	-0.188
-704.587	800.000	0.029	0.106
-703.572	161.751	0.099	-0.142
-702.558	642.063	-0.053	-0.139
-701.543	511.317	0.186	0.442
-700.529	-126.940	0.388	-0.058
-699.514	-44.819	-0.226	-0.115
-698.499	-200.000	-0.050	-0.274
-697.485	371.105	-0.074	0.153
-696.470	-200.000	-0.014	0.164
-695.456	-9.700	0.112	0.076
-694.441	98.443	-0.057	-0.067
-693.426	26.327	-0.132	0.112
-692.412	5.202	-0.079	0.059
-691.397	800.000	0.021	-0.080
-690.383	-200.000	0.003	-0.122
-689.368	800.000	0.016	0.048
-688.354	26.248	-0.181	0.154
-687.339	-25.618	-0.156	-0.094
-686.324	800.000	0.063	0.189
-685.310	17.683	-0.196	0.159
-684.295	-105.716	-0.292	0.067
-683.281	-52.471	-0.192	-0.091
-682.266	43.091	-0.172	0.160
-681.251	-145.026	-0.195	0.018
-680.237	-19.981	0.121	-0.076
-679.222	-52.161	-0.246	0.116
-678.208	-86.292	0.371	-0.116
-677.193	-78.500	0.188	-0.066
-676.178	-133.715	-0.080	0.010
-675.164	-172.518	-0.335	-0.011
-674.149	-24.287	-0.231	0.141
-673.135	23.214	-0.068	-0.057
-672.120	81.131	0.153	-0.168
-671.105	-127.846	0.430	0.063
-670.091	800.000	-0.057	-0.164
-669.076	103.942	0.226	-0.271
-668.062	-200.000	-0.037	-0.232
-667.047	661.405	0.031	0.082
-666.032	325.798	0.094	-0.183
-665.018	623.054	0.040	-0.103
-664.003	26.533	0.159	0.136
-662.989	-93.205	-0.141	0.040
-661.974	-87.789	-0.397	0.122
-660.959	84.987	-0.055	-0.061
-659.945	-200.000	-0.001	-0.196
-658.930	19.477	-0.188	-0.154
-657.916	800.000	0.096	0.270
-656.901	-4.010	0.059	0.042
-655.886	205.859	0.019	-0.031
-654.872	-121.124	-0.101	-0.017
-653.857	91.041	0.022	-0.025
-652.843	-122.041	0.291	0.049
-651.828	587.116	0.060	0.150
-650.814	800.000	-0.032	0.122
-649.799	-129.478	-0.219	-0.031
-648.784	406.130	0.155	0.333
-647.770	800.000	0.054	-0.179
-646.755	-134.905	0.327	0.040
-645.741	-57.086	0.063	-0.028
-644.726	192.390	-0.032	0.049
-643.711	171.541	-0.082	-0.120
-642.697	12.433	0.326	-0.256
-641.682	-44.219	0.235	-0.120
-640.668	-200.000	0.014	0.067
-639.653	103.158	0.161	-0.192
-638.638	730.891	-0.112	-0.305
-637.624	12.162	0.186	0.146
-636.609	-200.000	-0.006	0.138
-635.595	-71.363	0.112	-0.043
-634.580	0.369	-0.420	-0.306
-633.565	159.208	-0.011	0.016
-632.551	27.996	0.253	-0.218
-631.536	-200.000	0.005	-0.092
-630.522	-178.555	0.253	0.006
-629.507	-200.000	0.017	-0.118
-628.492	-86.309	-0.203	-0.064
-627.478	222.639	0.210	0.344
-626.463	800.000	-0.031	-0.094
-625.449	800.000	-0.055	-0.204
-624.434	220.356	-0.066	-0.109
-623.419	-168.802	-0.080	0.003
-622.405	30.226	-0.222	0.193
-621.390	800.000	-0.107	-0.377
-620.376	544.961	-0.043	-0.104
-619.361	144.616	0.069	-0.093
-618.346	-200.000	-0.004	-0.081
-617.332	-9.469	-0.179	0.122
-616.317	-200.000	-0.044	-0.231
-615.303	-198.838	0.075	0.000
-614.288	-200.000	-0.066	0.360
-613.273	-200.000	0.019	0.101
-612.259	314.831	0.121	0.233
-611.244	208.908	-0.076	0.121
-610.230	-105.349	-0.339	0.078
-609.215	-190.306	0.069	-0.001
-608.201	-24.648	-0.073	-0.044
-607.186	-125.230	-0.094	0.015
-606.171	-80.010	0.167	0.057
-605.157	-200.000	0.030	-0.181
-604.142	-85.371	-0.107	-0.034
-603.128	105.676	-0.254	-0.306
-602.113	-200.000	0.030	-0.149
-601.098	139.762	-0.096	0.129
-600.084	44.239	0.164	0.153
-599.069	800.000	0.073	-0.302
-598.055	-200.000	-0.051	0.374
-597.040	-200.000	0.040	0.216
-596.025	73.963	0.129	-0.137
-595.011	-200.000	-0.006	-0.360
-593.996	489.189	-0.188	-0.437
-592.982	-126.909	-0.071	0.011
-591.967	476.166	-0.135	0.309
-590.952	82.880	-0.181	0.200
-589.938	-88.589	-0.285	-0.086
-588.923	29.764	0.224	0.194
-587.909	-200.000	0.042	0.247
-586.894	-83.784	-0.447	-0.145
-585.879	-200.000	-0.036	0.474
-584.865	-200.000	-0.021	0.109
-583.850	-152.665	-0.270	-0.020
-582.836	304.959	0.011	-0.021
-581.821	-66.629	-0.041	0.016
-580.806	70.770	-0.281	-0.296
-579.792	-16.937	-0.248	-0.160
-578.777	51.570	0.154	-0.149
-577.763	-27.056	-0.170	0.101
-576.748	-94.134	-0.220	0.061
-575.733	-47.897	0.102	-0.050
-574.719	-34.951	0.236	-0.131
-573.704	391.703	-0.074	0.156
-572.690	800.000	-0.107	-0.315
-571.675	-156.144	-0.125	-0.008
-570.661	-37.828	0.098	0.053
-569.646	-60.622	-0.067	-0.029
-568.631	-200.000	0.031	0.311
-567.617	98.200	0.042	0.049
-566.602	81.755	0.263	-0.289
-565.588	212.736	-0.108	-0.172
-564.573	48.903	-0.131	0.125
-563.558	-76.235	0.087	0.031
-562.544	-200.000	-0.037	-0.251
-561.529	-110.437	-0.387	-0.082
-560.515	65.426	0.306	0.314
-559.500	325.468	-0.041	-0.079
-558.485	105.425	-0.051	0.061
-557.471	-91.802	-0.517	0.149
-556.456	144.007	0.115	0.156
-555.442	102.565	0.174	-0.206
-554.427	87.526	0.114	0.128
-553.412	800.000	0.089	-0.292
-552.398	150.178	0.125	-0.173
-551.383	800.000	-0.039	0.120
-550.369	-200.000	-0.014	0.314
-549.354	-200.000	0.034	0.247
-548.339	29.270	-0.202	-0.174
-547.325	117.139	0.151	0.188
-546.310	-131.973	0.352	0.047
-545.296	-89.939	0.294	0.087
-544.281	22.863	-0.166	-0.138
-543.266	-65.452	-0.194	-0.079
-542.252	169.310	0.322	0.466
-541.237	-200.000	0.035	0.622
-540.223	147.242	0.253	0.345
-539.208	-81.248	-0.323	0.108
-538.193	-1.877	-0.158	0.113
-537.179	-2.789	-0.171	0.121
-536.164	-141.729	-0.061	-0.006
-535.150	109.719	-0.241	0.293
-534.135	800.000	-0.094	-0.272
-533.121	-37.926	0.170	-0.092
-532.106	1.136	-0.253	-0.184
-531.091	117.612	-0.115	-0.143
-530.077	10.399	-0.149	0.115
-529.062	51.221	0.139	-0.134
-528.048	281.195	0.154	0.279
-527.033	-200.000	-0.010	-0.122
-526.018	800.000	0.026	0.098
-525.004	800.000	-0.026	-0.092
-523.989	-25.386	0.123	0.074
-522.975	342.986	-0.073	-0.145
-521.960	-175.916	0.054	0.001
-520.945	57.780	0.199	0.197
-519.931	213.182	-0.194	0.311
-518.916	800.000	0.012	0.052
-517.902	-200.000	0.004	0.093
-516.887	-71.614	0.126	-0.048
-515.872	-140.913	-0.269	0.028
-514.858	92.823	-0.151	0.173
-513.843	800.000	-0.091	-0.317
-512.829	544.507	0.163	0.396
-511.814	193.711	0.036	0.055
-510.799	-200.000	-0.025	-0.229
-509.785	23.065	-0.180	-0.149
-508.770	-24.565	0.087	-0.053
-507.756	323.460	0.082	0.158
-506.741	-151.802	0.190	0.014
-505.726	143.158	-0.083	0.113
-504.712	-105.445	0.122	-0.028
-503.697	46.893	-0.212	0.200
-502.683	296.510	0.014	-0.026
-501.668	-45.735	0.229	-0.115
-500.653	119.691	0.132	-0.165
-499.639	76.090	0.216	0.232
-498.624	129.943	-0.146	0.189
-497.610	613.300	-0.089	0.226
-496.595	-200.000	0.073	-0.415
-495.581	-200.000	0.021	-0.099
-494.566	-200.000	-0.010	-0.135
-493.551	66.811	-0.067	0.069
-492.537	-74.288	0.326	-0.119
-491.522	-89.764	0.340	0.101
-490.508	162.285	0.272	-0.387
-489.493	-67.334	0.347	0.138
-488.478	-200.000	0.006	-0.160
-487.464	64.163	0.152	-0.155
-486.449	-178.721	0.287	-0.007
-485.435	-160.792	-0.268	0.014
-484.420	596.176	-0.076	0.190
-483.405	-97.928	0.281	0.073
-482.391	800.000	-0.037	0.144
-481.376	-38.626	-0.272	-0.145
-480.362	-15.102	-0.071	-0.046
-479.347	-200.000	-0.030	-0.182
-478.332	251.965	0.028	-0.049
-477.318	272.634	0.153	-0.273
-476.303	-19.582	0.130	0.082
-475.289	800.000	0.104	-0.332
-474.274	286.410	0.143	0.261
-473.259	-166.019	-0.354	-0.015
-472.245	192.675	0.056	-0.085
-471.230	12.650	0.115	0.090
-470.216	-125.319	-0.150	-0.023
-469.201	405.123	-0.082	-0.174
-468.186	-13.115	0.190	0.125
-467.172	-200.000	-0.001	-0.051
-466.157	-200.000	0.029	-0.133
-465.143	333.433	0.047	0.092
-464.128	-200.000	-0.072	0.396
-463.113	0.315	-0.188	-0.136
-462.099	-185.800	0.401	-0.006
-461.084	-152.343	0.106	-0.008
-460.070	-168.116	-0.098	0.004
-459.055	174.954	-0.084	-0.123
-458.040	194.588	0.115	-0.177
-457.026	54.068	0.118	0.114
-456.011	73.799	0.101	-0.107
-454.997	40.190	-0.129	-0.117
-453.982	-121.748	-0.209	0.035
-452.968	-27.972	-0.079	-0.046
-451.953	69.612	0.177	-0.184
-450.938	157.657	-0.253	0.355
-449.924	45.012	0.203	0.189
-448.909	-118.878	0.327	0.058
-447.895	101.848	-0.075	-0.088
-446.880	-200.000	0.047	-0.259
-445.865	-200.000	-0.008	0.047
-444.851	-8.525	0.179	0.121
-443.836	14.537	-0.093	-0.074
-442.822	176.247	0.133	0.195
-441.807	-136.015	0.126	-0.015
-440.792	3.103	0.065	-0.048
-439.778	90.053	-0.227	0.256
-438.763	-52.253	0.090	-0.042
-437.749	202.747	-0.098	0.153
-436.734	800.000	0.027	0.100
-435.719	800.000	0.033	-0.118
-434.705	-200.000	0.006	-0.053
-433.690	800.000	0.053	-0.199
-432.676	-140.337	0.313	-0.033
-431.661	73.432	-0.010	0.010
-430.646	133.357	-0.153	0.200
-429.632	-9.044	-0.206	0.139
-428.617	-200.000	-0.047	0.413
-427.603	54.283	0.237	0.231
-426.588	94.297	-0.031	-0.035
-425.573	-23.210	-0.171	-0.104
-424.559	-127.841	0.216	0.031
-423.544	-122.070	-0.424	-0.070
-422.530	-61.896	0.032	0.014
-421.515	-142.872	-0.238	-0.023
-420.500	800.000	0.051	-0.208
-419.486	-46.426	0.113	-0.056
-418.471	229.644	0.134	-0.222
-417.457	800.000	-0.155	-0.483
-416.442	-87.221	0.164	-0.050
-415.428	77.158	-0.131	0.140
-414.413	24.902	-0.088	0.074
-413.398	85.156	0.145	-0.160
-412.384	59.155	-0.239	-0.237
-411.369	213.277	-0.245	0.391
-410.355	60.604	0.177	0.177
-409.340	-51.622	-0.225	0.106
-408.325	-200.000	0.009	-0.150
-407.311	101.084	0.063	0.074
-406.296	91.805	0.262	0.298
-405.282	-200.000	-0.014	0.311
-404.267	-7.326	-0.114	0.078
-403.252	-200.000	0.054	-0.387
-402.238	-94.923	-0.026	0.007
-401.223	800.000	0.055	0.229
-400.209	239.174	0.198	-0.333
-399.194	353.525	-0.062	0.125
-398.179	54.800	0.315	-0.306
-397.165	64.667	0.067	-0.068
-396.150	-200.000	0.042	0.211
-395.136	-9.753	-0.162	-0.109
-394.121	-11.758	-0.058	0.038
-393.106	661.340	0.048	-0.126
-392.092	-96.658	-0.174	-0.046
-391.077	91.343	0.120	-0.136
-390.063	143.447	0.205	0.275
-389.048	-200.000	0.039	0.253
-388.033	365.311	0.297	-0.603
-387.019	-200.000	-0.009	-0.132
-386.004	800.000	-0.010	-0.042
-384.990	-3.631	0.209	-0.146
-383.975	-107.074	0.308	-0.069
-382.960	-28.922	0.214	-0.124
-381.946	-63.185	-0.026	0.011
-380.931	224.160	-0.112	0.182
-379.917	-65.009	-0.090	-0.037
-378.902	119.512	0.100	0.125
-377.888	-103.506	-0.372	-0.088
-376.873	17.015	0.194	-0.155
-375.858	-66.968	-0.119	0.047
-374.844	800.000	-0.090	0.271
-373.829	-125.497	-0.061	0.009
-372.815	-61.750	0.091	0.039
-371.800	-70.711	0.183	-0.070
-370.785	-104.753	0.165	0.038
-369.771	-48.359	-0.226	0.110
-368.756	-118.249	-0.268	0.048
-367.742	343.761	-0.191	0.378
-366.727	-81.006	-0.118	-0.039
-365.712	-55.155	0.084	-0.038
-364.698	190.453	-0.147	-0.223
-363.683	-89.749	-0.228	-0.067
-362.669	-19.030	-0.261	0.164
-361.654	-40.738	0.249	0.130
-360.639	321.953	0.064	0.123
-359.625	368.670	-0.146	-0.298
-358.610	47.810	0.115	-0.108
-357.596	57.991	-0.144	0.142
-356.581	-161.340	0.017	0.001
-355.566	800.000	0.045	0.159
-354.552	-84.889	0.155	-0.049
-353.537	453.060	-0.144	0.321
-352.523	-178.228	0.051	0.001
-351.508	255.049	0.039	0.067
-350.493	-145.432	-0.344	0.031
-349.479	502.819	0.072	-0.168
-348.464	107.711	0.120	-0.144
-347.450	367.038	-0.083	-0.170
-346.435	761.333	0.035	0.097
-345.420	-4.667	-0.113	-0.078
-344.406	-17.305	-0.298	-0.189
-343.391	184.419	0.145	-0.216
-342.377	-38.842	0.102	0.054
-341.362	-132.214	0.350	-0.046
-340.348	382.800	0.029	0.059
-339.333	-127.714	0.294	-0.043
-338.318	-200.000	-0.021	0.099
-337.304	34.734	0.329	0.290
-336.289	-186.023	0.121	0.002
-335.275	-185.145	0.257	-0.004
-334.260	-200.000	0.014	0.363
-333.245	-48.776	-0.235	-0.114
-332.231	33.974	-0.084	0.074
-331.216	-3.539	0.158	0.110
-330.202	45.129	0.213	-0.198
-329.187	52.860	-0.210	0.202
-328.172	490.526	0.017	-0.039
-327.158	-9.128	-0.148	-0.100
-326.143	352.275	-0.078	-0.155
-325.129	-114.513	-0.108	-0.021
-324.114	-137.521	-0.307	0.035
-323.099	449.369	0.017	-0.037
-322.085	15.285	-0.226	0.178
-321.070	130.045	-0.158	0.204
-320.056	-97.296	0.089	-0.023
-319.041	250.303	0.088	0.151
-318.026	245.579	0.134	0.227
-317.012	-22.425	-0.183	0.112
-315.997	800.000	0.053	-0.179
-314.983	-31.180	0.294	0.167
-313.968	-155.951	-0.086	0.006
-312.953	-143.951	0.303	-0.029
-311.939	36.922	0.270	-0.240
-310.924	122.733	-0.108	0.137
-309.910	-200.000	0.086	0.417
-308.895	-67.824	0.038	-0.015
-307.880	800.000	-0.055	0.191
-306.866	-52.391	-0.349	-0.163
-305.851	202.461	0.092	0.143
-304.837	-52.180	0.079	0.037
-303.822	-200.000	0.023	0.121
-302.807	-3.737	0.056	0.039
-301.793	-74.893	0.230	-0.083
-300.778	-200.000	-0.012	-0.210
-299.764	-25.690	-0.061	0.036
-298.749	800.000	0.059	0.251
-297.735	-200.000	0.020	-0.317
-296.720	529.438	-0.036	-0.085
-295.705	-164.901	-0.089	0.004
-294.691	572.300	-0.041	0.100
-293.676	-79.230	-0.295	0.101
-292.662	10.234	0.221	-0.169
-291.647	-100.212	0.042	0.011
-290.632	-200.000	-0.032	0.294
-289.618	-134.928	0.271	0.033
-288.603	-200.000	-0.015	0.095
-287.589	359.114	-0.104	-0.209
-286.574	157.970	0.139	-0.193
-285.559	203.995	-0.137	0.214
-284.545	800.000	-0.027	0.109
-283.530	11.751	-0.167	0.129
-282.516	-99.336	-0.194	-0.049
-281.501	475.668	-0.225	-0.510
-280.486	15.873	0.164	0.130
-279.472	189.695	0.056	0.085
-278.457	-141.660	-0.199	0.020
-277.443	36.436	0.116	-0.103
-276.428	-42.571	-0.169	-0.086
-275.413	-200.000	-0.005	0.333
-274.399	-159.374	0.346	-0.019
-273.384	-53.654	-0.126	-0.058
-272.370	242.911	0.066	0.111
-271.355	154.437	0.135	0.186
-270.340	54.644	0.090	-0.087
-269.326	-9.603	0.174	-0.116
-268.311	-51.437	0.209	0.098
-267.297	-186.713	0.093	-0.001
-266.282	268.084	-0.133	0.233
-265.267	-200.000	0.030	0.159
-264.253	678.482	0.088	0.231
-263.238	-45.358	0.214	0.106
-262.224	-30.836	-0.284	-0.161
-261.209	-1.676	0.371	-0.262
-260.195	151.623	0.005	-0.007
-259.180	-78.206	-0.272	-0.094
-258.165	-55.449	-0.263	-0.118
-257.151	615.157	0.106	0.267
-256.136	95.187	-0.160	0.183
-255.122	-96.057	-0.110	-0.029
-254.107	-200.000	0.019	0.181
-253.092	35.518	-0.051	0.045
-252.078	-200.000	0.049	0.221
-251.063	49.585	-0.232	0.220
-250.049	800.000	-0.132	-0.419
-249.034	22.521	0.209	-0.172
-248.019	478.047	-0.027	-0.061
-247.005	-156.282	-0.198	0.012
-245.990	-11.386	-0.150	-0.099
-244.976	46.520	0.356	-0.332
-243.961	231.741	-0.125	0.205
-242.946	16.229	0.164	0.130
-241.932	-12.910	-0.174	-0.113
-240.917	528.146	-0.044	0.104
-239.903	160.830	-0.120	-0.168
-238.888	50.178	0.120	0.113
-237.873	-59.872	-0.215	-0.092
-236.859	-92.671	-0.141	-0.040
-235.844	800.000	0.115	-0.478
-234.830	-138.114	-0.177	-0.020
-233.815	76.294	0.198	-0.210
-232.800	-119.483	-0.064	-0.011
-231.786	-127.687	0.353	0.051
-230.771	-9.995	0.110	0.073
-229.757	-52.956	-0.179	0.083
-228.742	169.486	-0.296	0.424
-227.727	-160.661	0.176	-0.009
-226.713	-156.852	0.327	-0.020
-225.698	73.826	0.072	-0.076
-224.684	32.904	-0.066	-0.057
-223.669	-200.000	0.031	-0.236
-222.655	28.775	-0.034	0.028
-221.640	-71.434	-0.396	0.149
-220.625	129.674	0.346	0.443
-219.611	209.996	-0.167	0.263
-218.596	56.181	0.188	-0.183
-217.582	-31.908	0.090	0.050
-216.567	332.821	0.056	0.109
-215.552	-200.000	0.004	0.128
-214.538	320.645	0.024	-0.046
-213.523	800.000	0.122	0.353
-212.509	-200.000	0.016	-0.141
-211.494	26.399	-0.088	0.073
-210.479	95.909	0.047	-0.054
-209.465	800.000	0.104	0.324
-208.450	255.636	0.100	-0.172
-207.436	319.399	0.104	-0.198
-206.421	800.000	0.083	-0.240
-205.406	521.727	0.043	0.101
-204.392	495.643	-0.061	-0.139
-203.377	81.178	0.023	0.025
-202.363	-62.312	-0.288	-0.120
-201.348	-200.000	-0.003	0.048
-200.333	218.960	0.159	-0.254
-199.319	-108.488	0.091	0.020
-198.304	43.969	0.110	-0.101
-197.290	15.765	-0.316	-0.249
-196.275	800.000	0.069	-0.207
-195.260	340.773	0.091	-0.178
-194.246	-120.803	-0.075	-0.013
-193.231	-134.857	-0.213	-0.026
-192.217	353.076	0.147	-0.292
-191.202	-200.000	0.008	0.097
-190.187	-200.000	0.012	-0.204
-189.173	-91.657	-0.096	0.027
-188.158	102.353	-0.172	0.202
-187.144	719.039	0.150	-0.399
-186.129	27.110	0.150	0.126
-185.114	466.169	-0.063	0.141
-184.100	-200.000	0.284	-0.001
-183.085	-125.034	-0.429	-0.066
-182.071	92.862	-0.135	-0.152
-181.056	42.949	-0.220	-0.200
-180.042	800.000	-0.167	-0.473
-179.027	-117.556	0.211	-0.038
-178.012	271.282	0.133	0.235
-176.998	-145.931	-0.419	0.037
-175.983	92.613	-0.133	-0.150
-174.969	-19.468	-0.211	0.131
-173.954	168.843	0.119	-0.169
-172.939	-58.275	0.155	-0.067
-171.925	-62.417	0.303	0.126
-170.910	-28.575	-0.165	-0.095
-169.896	-124.393	0.200	-0.031
-168.881	-103.514	-0.303	-0.071
-167.866	800.000	0.024	-0.100
-166.852	349.429	0.106	0.209
-165.837	1.525	0.353	0.254
-164.823	-200.000	-0.016	-0.079
-163.808	192.629	-0.239	-0.361
-162.793	-62.505	-0.425	0.177
-161.779	-200.000	-0.003	0.073
-160.764	-15.819	0.324	0.207
-159.750	-200.000	-0.017	0.171
-158.735	-3.398	-0.176	-0.122
-157.720	-11.835	-0.209	-0.137
-156.706	-98.794	0.254	-0.065
-155.691	58.087	-0.154	-0.151
-154.677	-46.509	-0.220	0.108
-153.662	-97.998	-0.342	-0.088
-152.647	702.357	0.136	-0.357
-151.633	-104.607	-0.189	-0.044
-150.618	-12.566	0.093	-0.061
-149.604	-105.818	-0.259	-0.059
-148.589	429.086	-0.050	-0.107
-147.574	-200.000	0.013	-0.298
-146.560	-200.000	0.021	0.276
-145.545	113.861	-0.063	0.077
-144.531	315.431	-0.124	-0.233
-143.516	-77.292	0.125	-0.043
-142.502	-182.633	-0.170	0.003
-141.487	800.000	0.107	-0.305
-140.472	-200.000	0.032	-0.225
-139.458	-5.266	0.155	-0.107
-138.443	61.986	0.078	-0.078
-137.429	-200.000	0.034	0.196
-136.414	77.504	-0.197	0.209
-135.399	47.301	0.240	0.223
-134.385	800.000	0.106	-0.446
-133.370	3.775	-0.231	-0.169
-132.356	-200.000	0.027	0.150
-131.341	421.329	0.158	0.339
-130.326	-159.220	-0.163	0.009
-129.312	-31.795	0.210	-0.118
-128.297	116.286	0.185	-0.227
-127.283	-127.490	0.118	0.017
-126.268	114.858	0.058	-0.070
-125.253	-200.000	-0.251	0.000
-124.239	-68.733	0.432	0.167
-123.224	-93.674	0.279	0.077
-122.210	-149.295	-0.242	0.019
-121.195	800.000	-0.018	0.073
-120.180	-72.415	-0.045	-0.017
