DTS Sentinel unit serial number:	SN413079Multiplexer serial number:	ORYXHardware model number:	OX4-SRSoftware version number:	ORYX F/W v4.00 Oryx Data Collector v3.7.2.0data status	okinstallation	princeton_trtdifferential loss correction	single-endedforward channel	channel 1reverse channel	N/Adate	2019/09/12time	13:00:11forward acquisition time	60.00reverse acquisition time	0.00gamma	496.2192k internal	0.2292k external	0.2292temperature offset calibration	1.0042default loss term (dB/km)	0.3790temperature slope calibration	1.0000multiplexer offset coefficient	1.0000multiplexer slope coefficient	1.0000fibre end	0.00T internal ref (°C)	40.91T ext. ref 1 (°C)	2.09T ext. ref 2 (°C)	37.65length (m)	temperature (°C)	Stokes	anti-Stokes-747.200	39.006	0.104	-0.095
-746.185	-25.274	-0.463	0.280
-745.171	-200.000	-0.256	0.001
-744.156	800.000	-0.073	0.320
-743.142	800.000	0.031	-0.125
-742.127	125.839	-0.153	0.198
-741.112	169.651	-0.135	-0.198
-740.098	-200.000	0.050	0.331
-739.083	-69.021	-0.060	-0.024
-738.069	61.707	-0.257	0.262
-737.054	-84.488	0.215	0.070
-736.039	-65.736	0.140	0.057
-735.025	104.099	0.246	0.296
-734.010	-21.668	0.107	0.067
-732.996	-3.789	-0.178	0.127
-731.981	287.663	0.067	0.124
-730.966	-200.000	-0.007	0.263
-729.952	-8.066	0.114	0.079
-728.937	750.912	0.051	0.141
-727.923	-125.852	0.334	-0.051
-726.908	-80.878	-0.313	-0.106
-725.894	254.985	-0.262	-0.459
-724.879	409.536	-0.074	0.161
-723.864	-19.424	0.312	-0.198
-722.850	-200.000	-0.016	0.158
-721.835	-200.000	-0.012	-0.086
-720.821	-30.029	0.204	0.119
-719.806	-25.626	-0.178	0.108
-718.791	8.003	-0.191	0.147
-717.777	107.310	0.310	0.377
-716.762	46.921	-0.132	0.125
-715.748	-187.570	-0.226	-0.003
-714.733	-153.324	-0.380	0.027
-713.718	-58.950	-0.073	0.032
-712.704	178.866	0.105	-0.157
-711.689	-56.604	0.145	0.066
-710.675	-3.748	-0.215	-0.152
-709.660	-18.852	0.162	0.103
-708.645	-138.982	-0.195	-0.022
-707.631	-200.000	-0.020	0.302
-706.616	-13.475	-0.487	-0.322
-705.602	127.750	-0.268	-0.349
-704.587	-2.660	0.299	0.214
-703.572	-139.003	-0.123	-0.014
-702.558	-200.000	0.025	0.309
-701.543	-88.554	0.286	0.087
-700.529	800.000	0.098	-0.408
-699.514	800.000	0.094	-0.286
-698.499	192.188	-0.161	-0.248
-697.485	268.964	0.114	0.205
-696.470	298.683	-0.163	0.306
-695.456	-108.363	0.102	0.022
-694.441	800.000	0.128	0.372
-693.426	-200.000	-0.006	-0.327
-692.412	55.931	-0.152	-0.150
-691.397	-33.667	0.122	-0.069
-690.383	-71.250	-0.113	0.043
-689.368	-114.204	0.324	-0.064
-688.354	-86.542	-0.250	0.078
-687.339	-19.340	0.270	0.171
-686.324	800.000	0.086	0.351
-685.310	-65.916	0.222	0.091
-684.295	-34.769	0.211	-0.118
-683.281	28.953	-0.295	0.255
-682.266	81.687	0.313	-0.346
-681.251	-171.552	-0.161	-0.005
-680.237	-200.000	-0.003	0.083
-679.222	302.189	-0.182	0.345
-678.208	-200.000	0.013	0.072
-677.193	-108.289	-0.124	-0.027
-676.178	-200.000	-0.185	0.001
-675.164	55.485	-0.366	-0.362
-674.149	93.283	0.020	0.024
-673.135	-200.000	0.007	0.303
-672.120	256.674	0.087	-0.152
-671.105	-117.398	0.110	-0.020
-670.091	-200.000	0.013	-0.263
-669.076	-200.000	-0.034	-0.224
-668.062	-20.507	-0.295	0.185
-667.047	800.000	0.044	0.126
-666.032	116.459	0.224	-0.280
-665.018	715.329	-0.071	0.191
-664.003	-136.113	-0.179	0.021
-662.989	-195.496	0.184	0.001
-661.974	-200.000	0.022	0.234
-660.959	24.620	0.130	-0.110
-659.945	-86.981	-0.259	-0.081
-658.930	-77.480	0.061	0.022
-657.916	-37.021	-0.257	0.141
-656.901	-34.101	0.111	0.062
-655.886	-200.000	-0.072	0.512
-654.872	800.000	0.061	0.190
-653.857	30.833	0.100	0.087
-652.843	-18.458	-0.218	-0.139
-651.828	-200.000	0.008	-0.060
-650.814	-86.879	0.334	-0.104
-649.799	-200.000	-0.067	0.300
-648.784	13.957	-0.105	-0.083
-647.770	-200.000	-0.015	0.130
-646.755	111.811	-0.033	0.041
-645.741	242.599	0.026	0.045
-644.726	-46.766	-0.083	0.041
-643.711	-78.721	-0.181	0.063
-642.697	6.495	0.112	0.085
-641.682	73.785	-0.138	-0.147
-640.668	-96.416	0.360	0.097
-639.653	-131.848	0.089	-0.012
-638.638	61.868	-0.153	-0.155
-637.624	-36.546	-0.068	-0.037
-636.609	-95.245	-0.209	0.058
-635.595	800.000	0.044	-0.194
-634.580	800.000	0.065	-0.194
-633.565	-81.207	0.280	0.094
-632.551	-120.091	-0.113	0.020
-631.536	84.168	0.081	0.090
-630.522	-42.440	0.076	0.039
-629.507	-200.000	0.101	-0.000
-628.492	-200.000	0.051	-0.335
-627.478	-60.338	-0.137	0.059
-626.463	-191.257	-0.252	-0.003
-625.449	84.631	-0.186	-0.208
-624.434	-85.763	0.359	0.114
-623.419	-89.702	-0.465	-0.139
-622.405	-134.537	-0.215	0.027
-621.390	-63.794	0.340	0.142
-620.376	162.142	0.098	0.140
-619.361	26.860	-0.252	-0.215
-618.346	-200.000	0.033	0.204
-617.332	-47.927	0.343	-0.169
-616.317	11.230	-0.164	-0.128
-615.303	-101.279	-0.173	0.043
-614.288	-66.497	-0.349	0.141
-613.273	32.491	0.031	-0.028
-612.259	-200.000	0.013	-0.092
-611.244	-199.656	0.049	-0.000
-610.230	-119.802	-0.084	-0.015
-609.215	800.000	-0.014	-0.050
-608.201	12.936	0.163	-0.129
-607.186	437.756	0.228	-0.506
-606.171	-200.000	-0.004	0.345
-605.157	-45.004	0.027	0.014
-604.142	800.000	-0.064	-0.284
-603.128	-200.000	0.047	0.268
-602.113	800.000	-0.133	0.451
-601.098	-129.063	0.338	0.048
-600.084	-85.758	0.018	0.006
-599.069	24.944	0.051	-0.043
-598.055	-106.487	-0.075	0.017
-597.040	-200.000	-0.378	0.001
-596.025	-200.000	-0.000	0.068
-595.011	33.303	0.321	-0.283
-593.996	-140.895	0.251	-0.026
-592.982	800.000	0.070	-0.270
-591.967	-200.000	0.052	0.234
-590.952	303.202	0.098	0.184
-589.938	-62.357	0.251	0.106
-588.923	478.533	0.129	0.297
-587.909	14.173	0.127	-0.100
-586.894	99.053	0.193	0.227
-585.879	246.877	0.103	0.176
-584.865	302.718	0.033	0.062
-583.850	-64.958	-0.244	0.100
-582.836	28.815	0.044	0.038
-581.821	800.000	0.100	-0.304
-580.806	-200.000	0.006	-0.167
-579.792	195.701	0.120	0.186
-578.777	-200.000	0.001	0.351
-577.763	-200.000	-0.023	-0.126
-576.748	6.682	-0.114	0.087
-575.733	167.005	0.162	0.234
-574.719	37.948	-0.287	-0.259
-573.704	-36.407	0.361	0.198
-572.690	-200.000	0.035	0.162
-571.675	-85.714	-0.311	-0.098
-570.661	-100.335	-0.247	-0.062
-569.646	-200.000	-0.018	-0.235
-568.631	31.984	0.041	-0.036
-567.617	-75.534	-0.132	-0.048
-566.602	112.824	-0.078	-0.096
-565.588	-200.000	0.068	-0.414
-564.573	713.330	-0.109	-0.292
-563.558	-56.102	0.189	-0.085
-562.544	-78.681	-0.332	0.115
-561.529	-122.668	-0.425	-0.070
-560.515	-200.000	-0.014	0.105
-559.500	298.779	0.029	-0.054
-558.485	90.485	0.357	-0.406
-557.471	395.404	0.066	-0.139
-556.456	-74.901	0.154	0.056
-555.442	151.817	0.069	0.096
-554.427	755.207	-0.028	-0.078
-553.412	-87.165	-0.167	-0.052
-552.398	800.000	-0.124	-0.349
-551.383	-182.556	0.361	0.007
-550.369	-96.133	-0.433	0.117
-549.354	-200.000	-0.010	-0.085
-548.339	22.389	-0.162	0.134
-547.325	29.136	-0.320	0.276
-546.310	162.049	0.057	-0.081
-545.296	-82.322	-0.076	-0.025
-544.281	274.239	-0.054	0.097
-543.266	-52.341	0.127	0.060
-542.252	-137.443	0.062	0.007
-541.237	800.000	0.096	-0.314
-540.223	48.022	-0.151	0.143
-539.208	26.465	-0.215	-0.182
-538.193	324.690	0.046	-0.088
-537.179	-200.000	-0.021	-0.137
-536.164	99.643	0.122	-0.143
-535.150	800.000	0.188	0.607
-534.135	-78.154	0.037	0.013
-533.121	35.231	-0.175	0.155
-532.106	-111.163	-0.251	-0.052
-531.091	-40.223	0.186	0.098
-530.077	-82.022	-0.194	-0.064
-529.062	800.000	0.116	0.386
-528.048	-200.000	-0.064	-0.285
-527.033	-56.067	-0.205	0.093
-526.018	130.357	0.249	0.324
-525.004	-62.250	0.147	0.062
-523.989	-3.178	0.168	0.119
-522.975	-37.991	0.112	0.061
-521.960	79.697	-0.097	-0.106
-520.945	-194.582	-0.124	-0.001
-519.931	-11.235	-0.308	-0.206
-518.916	-200.000	0.022	-0.187
-517.902	-200.000	0.001	-0.054
-516.887	-77.976	-0.312	-0.109
-515.872	-200.000	0.035	-0.237
-514.858	103.189	0.061	0.073
-513.843	-39.447	-0.167	0.089
-512.829	-36.466	-0.114	-0.062
-511.814	-200.000	-0.021	-0.265
-510.799	9.716	0.161	-0.124
-509.785	89.634	-0.068	-0.077
-508.770	-200.000	-0.014	0.239
-507.756	-200.000	-0.004	-0.274
-506.741	800.000	0.066	-0.225
-505.726	-40.170	-0.104	0.055
-504.712	510.868	-0.157	0.370
-503.697	-200.000	0.034	0.232
-502.683	377.313	-0.178	-0.370
-501.668	81.148	-0.195	-0.214
-500.653	28.061	0.185	0.158
-499.639	800.000	-0.048	0.180
-498.624	-81.579	-0.269	0.090
-497.610	190.814	-0.172	0.262
-496.595	-26.401	0.130	-0.077
-495.581	-200.000	0.032	-0.148
-494.566	-200.000	0.053	-0.244
-493.551	-9.678	0.085	-0.057
-492.537	-78.522	0.183	0.064
-491.522	253.173	0.150	0.259
-490.508	12.027	-0.379	-0.296
-489.493	224.561	0.089	-0.145
-488.478	-81.442	0.103	-0.034
-487.464	-23.758	-0.041	-0.025
-486.449	59.009	-0.276	-0.276
-485.435	476.280	-0.042	0.097
-484.420	259.659	0.066	0.115
-483.405	-200.000	-0.017	-0.114
-482.391	111.819	0.127	0.155
-481.376	-44.460	0.303	0.153
-480.362	-41.871	0.203	0.105
-479.347	-192.972	-0.191	-0.002
-478.332	-200.000	0.028	0.377
-477.318	-200.000	-0.040	-0.185
-476.303	147.997	-0.157	-0.215
-475.289	-134.145	-0.421	-0.053
-474.274	89.227	-0.178	0.200
-473.259	155.920	-0.117	-0.163
-472.245	-72.133	0.227	-0.086
-471.230	-35.763	0.040	-0.022
-470.216	-130.971	-0.363	-0.049
-469.201	84.439	-0.277	-0.306
-468.186	-17.535	0.277	-0.176
-467.172	-112.920	-0.023	0.005
-466.157	-103.959	0.088	-0.021
-465.143	800.000	0.153	-0.451
-464.128	-159.908	-0.152	-0.008
-463.113	-200.000	-0.025	0.356
-462.099	-200.000	-0.024	0.374
-461.084	800.000	-0.125	-0.367
-460.070	127.082	-0.096	-0.124
-459.055	800.000	-0.004	-0.017
-458.040	163.493	-0.145	-0.207
-457.026	800.000	0.021	-0.087
-456.011	800.000	-0.063	-0.205
-454.997	-149.285	-0.241	0.019
-453.982	-190.662	0.416	0.004
-452.968	-154.257	0.240	0.016
-451.953	-123.622	-0.279	0.045
-450.938	177.903	0.048	-0.071
-449.924	800.000	0.036	0.105
-448.909	-31.015	0.178	-0.102
-447.895	-116.959	0.075	0.014
-446.880	572.844	-0.158	0.391
-445.865	-133.842	-0.105	0.013
-444.851	-34.651	0.087	-0.048
-443.836	-159.820	-0.047	-0.003
-442.822	-124.417	0.285	-0.045
-441.807	800.000	0.039	0.124
-440.792	-36.354	-0.211	0.115
-439.778	-165.010	-0.143	0.006
-438.763	118.314	0.164	0.205
-437.749	-39.857	-0.299	0.158
-436.734	800.000	0.059	-0.176
-435.719	640.062	0.092	-0.236
-434.705	-6.074	-0.286	0.197
-433.690	310.824	0.056	-0.107
-432.676	-27.629	-0.173	0.101
-431.661	-200.000	0.001	-0.030
-430.646	331.699	-0.059	0.115
-429.632	-200.000	-0.043	0.199
-428.617	-200.000	-0.050	-0.247
-427.603	461.568	0.108	-0.244
-426.588	-200.000	-0.007	0.130
-425.573	54.669	0.179	0.175
-424.559	-200.000	-0.007	0.300
-423.544	-139.591	-0.440	0.047
-422.530	74.794	0.245	-0.261
-421.515	194.585	-0.089	-0.136
-420.500	-105.367	0.144	-0.033
-419.486	-97.181	-0.043	-0.011
-418.471	800.000	0.131	0.470
-417.457	800.000	0.042	-0.131
-416.442	-200.000	-0.051	-0.576
-415.428	-50.276	-0.231	0.111
-414.413	26.542	0.214	-0.181
-413.398	-200.000	0.019	-0.087
-412.384	-31.160	-0.071	0.040
-411.369	-40.858	-0.175	-0.091
-410.355	-101.104	0.103	0.025
-409.340	344.650	-0.134	-0.266
-408.325	269.021	-0.056	-0.100
-407.311	639.608	0.010	-0.025
-406.296	-89.834	-0.157	0.046
-405.282	-147.027	-0.110	0.010
-404.267	246.586	-0.115	0.196
-403.252	687.694	0.058	0.154
-402.238	-39.043	0.207	0.110
-401.223	800.000	-0.083	-0.277
-400.209	-200.000	-0.016	-0.111
-399.194	800.000	-0.182	0.566
-398.179	-60.006	-0.235	0.101
-397.165	7.674	-0.164	0.124
-396.150	-141.876	0.175	0.018
-395.136	89.631	-0.136	0.153
-394.121	-29.174	-0.176	-0.102
-393.106	-0.452	-0.250	-0.180
-392.092	-174.948	0.290	0.008
-391.077	-192.647	-0.148	0.001
-390.063	-200.000	-0.009	-0.216
-389.048	-76.734	0.198	0.070
-388.033	-86.683	0.112	-0.035
-387.019	-128.996	0.368	-0.052
-386.004	-165.258	-0.211	0.009
-384.990	-110.712	0.155	-0.032
-383.975	144.767	0.286	0.385
-382.960	-200.000	0.034	-0.261
-381.946	5.790	0.174	0.130
-380.931	-72.971	0.140	0.052
-379.917	22.230	-0.172	-0.141
-378.902	605.083	-0.116	-0.291
-377.888	-37.180	-0.237	-0.128
-376.873	-200.000	-0.021	0.125
-375.858	-134.418	0.248	-0.031
-374.844	-6.182	-0.223	-0.153
-373.829	65.090	-0.204	-0.208
-372.815	65.264	-0.079	0.080
-371.800	-87.343	-0.336	-0.103
-370.785	109.795	-0.134	-0.162
-369.771	-96.068	-0.304	-0.081
-368.756	318.955	0.288	-0.552
-367.742	192.617	0.059	0.090
-366.727	647.317	-0.100	0.257
-365.712	231.645	0.058	-0.095
-364.698	181.585	0.246	-0.365
-363.683	-187.423	-0.195	-0.003
-362.669	-55.069	0.145	0.066
-361.654	-196.786	-0.162	0.001
-360.639	83.274	0.110	0.121
-359.625	800.000	-0.109	0.322
-358.610	521.192	-0.125	0.296
-357.596	-200.000	0.010	0.543
-356.581	-126.778	-0.184	0.027
-355.566	-200.000	-0.028	0.424
-354.552	2.737	0.183	-0.134
-353.537	107.867	0.177	-0.213
-352.523	125.606	0.139	0.177
-351.508	-200.000	0.025	-0.268
-350.493	-35.767	0.280	0.153
-349.479	-200.000	0.035	0.396
-348.464	174.727	-0.047	0.068
-347.450	-78.894	-0.019	0.007
-346.435	404.305	-0.051	0.108
-345.420	-200.000	0.137	0.000
-344.406	0.525	0.327	-0.235
-343.391	-125.433	0.150	-0.023
-342.377	-41.390	0.110	-0.057
-341.362	-84.376	0.104	-0.033
-340.348	731.635	-0.114	0.308
-339.333	-200.000	-0.101	0.472
-338.318	-54.218	0.207	0.095
-337.304	-136.790	0.375	0.044
-336.289	-13.681	0.160	0.104
-335.275	800.000	0.004	-0.014
-334.260	372.471	0.105	-0.214
-333.245	-200.000	-0.045	0.275
-332.231	-30.062	-0.302	-0.173
-331.216	800.000	0.030	0.128
-330.202	27.461	0.028	0.024
-329.187	-40.982	-0.286	0.149
-328.172	-136.442	-0.092	0.011
-327.158	-134.393	-0.218	0.027
-326.143	-158.450	-0.344	0.020
-325.129	-200.000	0.036	-0.179
-324.114	-93.469	-0.139	0.039
-323.099	-200.000	0.014	-0.100
-322.085	-200.000	0.056	-0.386
-321.070	-200.000	-0.070	0.373
-320.056	614.596	-0.074	0.188
-319.041	209.961	0.221	-0.349
-318.026	800.000	0.069	0.198
-317.012	800.000	0.121	0.401
-315.997	-200.000	0.031	-0.154
-314.983	-24.533	-0.200	-0.120
-313.968	6.606	0.412	0.308
-312.953	-200.000	0.033	-0.214
-311.939	-70.278	-0.197	0.075
-310.924	-200.000	-0.094	-0.495
-309.910	89.677	0.105	-0.118
-308.895	-56.177	0.187	0.084
-307.880	-68.563	0.084	-0.033
-306.866	3.771	-0.107	0.078
-305.851	-200.000	-0.070	-0.315
-304.837	-83.740	0.182	0.059
-303.822	152.279	-0.084	-0.115
-302.807	-93.683	0.361	0.100
-301.793	5.233	0.183	-0.135
-300.778	-189.244	-0.278	0.003
-299.764	-3.124	0.129	0.090
-298.749	-7.222	0.073	0.050
-297.735	153.259	-0.110	0.152
-296.720	-48.552	0.370	0.179
-295.705	-138.210	0.187	-0.021
-294.691	-200.000	0.010	0.254
-293.676	-200.000	0.009	-0.083
-292.662	-70.123	-0.155	-0.059
-291.647	-50.607	0.159	0.075
-290.632	-139.238	0.081	0.009
-289.618	150.107	0.087	-0.119
-288.603	199.487	0.163	-0.251
-287.589	-153.632	0.174	0.012
-286.574	-200.000	0.002	-0.055
-285.559	41.325	0.193	-0.175
-284.545	32.415	0.284	-0.246
-283.530	-106.381	-0.113	0.025
-282.516	-160.153	-0.359	-0.020
-281.501	-42.541	-0.054	-0.028
-280.486	76.618	-0.071	-0.076
-279.472	-200.000	0.013	0.178
-278.457	800.000	0.061	-0.244
-277.443	-80.484	0.255	-0.085
-276.428	800.000	0.073	0.205
-275.413	-200.000	-0.063	-0.335
-274.399	-185.159	-0.249	0.004
-273.384	800.000	0.118	-0.365
-272.370	-200.000	-0.022	0.197
-271.355	45.278	-0.173	0.160
-270.340	-58.899	-0.081	-0.035
-269.326	-146.221	0.338	-0.030
-268.311	-200.000	-0.033	0.232
-267.297	-113.194	0.324	0.064
-266.282	-200.000	0.012	0.173
-265.267	-200.000	0.007	-0.420
-264.253	800.000	-0.035	-0.129
-263.238	-85.791	-0.380	0.118
-262.224	702.182	-0.058	0.154
-261.209	-35.961	-0.343	0.186
-260.195	260.677	-0.075	0.130
-259.180	-112.938	0.346	-0.069
-258.165	150.816	-0.086	-0.117
-257.151	-8.572	0.184	-0.124
-256.136	117.553	0.139	-0.172
-255.122	-20.595	-0.005	-0.003
-254.107	-88.346	-0.138	-0.042
-253.092	427.149	0.094	-0.203
-252.078	-200.000	0.011	-0.066
-251.063	-94.728	-0.398	0.108
-250.049	-91.261	0.254	-0.073
-249.034	61.265	-0.117	-0.117
-248.019	-19.622	-0.238	0.148
-247.005	-200.000	0.066	0.367
-245.990	240.449	-0.095	0.160
-244.976	43.167	-0.228	0.209
-243.961	159.340	-0.194	0.271
-242.946	800.000	0.036	0.124
-241.932	514.075	-0.120	0.281
-240.917	42.833	0.109	-0.100
-239.903	4.823	0.119	0.088
-238.888	-112.212	-0.349	-0.070
-237.873	63.060	0.122	0.123
-236.859	800.000	-0.117	0.325
-235.844	800.000	0.036	0.127
-234.830	-200.000	-0.015	0.478
-233.815	800.000	-0.040	0.148
-232.800	-200.000	0.014	-0.231
-231.786	-151.552	0.115	0.009
-230.771	-200.000	-0.003	0.147
-229.757	217.570	0.104	-0.167
-228.742	-32.412	-0.142	0.079
-227.727	18.920	0.173	-0.139
-226.713	-56.569	-0.107	-0.048
-225.698	135.957	0.184	0.240
-224.684	-133.169	-0.261	0.033
-223.669	168.304	0.082	-0.118
-222.655	800.000	0.043	-0.186
-221.640	-200.000	0.023	0.192
-220.625	297.492	0.041	0.075
-219.611	-200.000	-0.022	0.126
-218.596	-55.897	-0.234	0.105
-217.582	-74.244	-0.088	0.032
-216.567	427.896	0.010	0.022
-215.552	-82.163	0.115	-0.038
-214.538	-200.000	-0.015	-0.340
-213.523	-140.028	0.035	-0.004
-212.509	-91.290	-0.137	0.039
-211.494	-99.073	-0.095	0.024
-210.479	244.182	0.213	0.359
-209.465	-41.993	0.203	0.104
-208.450	118.833	0.075	0.092
-207.436	465.989	0.105	0.235
-206.421	340.261	-0.101	0.197
-205.406	333.777	-0.043	0.083
-204.392	257.478	0.155	-0.267
-203.377	13.206	0.303	-0.235
-202.363	112.944	0.163	0.197
-201.348	-146.648	-0.188	0.016
-200.333	-143.918	-0.221	-0.021
-199.319	-173.646	0.479	-0.014
-198.304	-50.026	0.148	0.070
-197.290	-200.000	0.021	0.100
-196.275	-49.458	-0.030	-0.015
-195.260	-89.623	0.269	-0.079
-194.246	-15.899	-0.212	-0.135
-193.231	800.000	0.020	0.068
-192.217	-82.216	0.261	0.085
-191.202	37.936	0.297	0.264
-190.187	-144.080	0.047	-0.004
-189.173	-105.577	-0.112	0.025
-188.158	285.025	0.105	0.190
-187.144	52.886	0.190	0.182
-186.129	82.795	0.208	-0.227
-185.114	528.404	-0.143	-0.338
-184.100	17.287	0.231	-0.184
-183.085	-85.392	0.380	-0.119
-182.071	-137.788	0.406	-0.046
-181.056	538.651	0.055	0.132
-180.042	79.673	-0.189	0.204
-179.027	-105.296	0.012	0.003
-178.012	800.000	-0.167	0.464
-176.998	800.000	-0.101	-0.347
-175.983	46.321	-0.034	0.031
-174.969	-54.252	0.379	0.172
-173.954	-25.958	0.068	-0.040
-172.939	1.753	-0.159	-0.115
-171.925	527.816	-0.006	-0.013
-170.910	709.977	-0.057	0.150
-169.896	678.226	0.108	-0.281
-168.881	-106.745	0.263	-0.058
-167.866	-158.953	-0.204	0.012
-166.852	-200.000	0.030	0.220
-165.837	231.429	0.155	-0.254
-164.823	44.316	-0.187	-0.171
-163.808	800.000	0.078	-0.289
-162.793	-200.000	0.008	-0.241
-161.779	11.445	0.234	-0.179
-160.764	94.077	-0.207	-0.236
-159.750	-195.096	-0.170	-0.001
-158.735	145.547	-0.213	-0.286
-157.720	370.637	-0.148	0.301
-156.706	125.847	0.135	-0.171
-155.691	800.000	0.020	0.073
-154.677	-143.684	-0.275	-0.026
-153.662	34.673	0.271	0.237
-152.647	60.290	-0.117	-0.116
-151.633	800.000	0.040	-0.136
-150.618	713.747	0.109	-0.289
-149.604	-200.000	0.025	0.114
-148.589	-48.741	0.264	0.127
-147.574	-200.000	-0.196	0.001
-146.560	88.624	-0.155	0.172
-145.545	-32.071	-0.351	0.197
-144.531	800.000	0.090	0.252
-143.516	-200.000	-0.012	-0.199
-142.502	21.556	-0.196	0.159
-141.487	800.000	0.076	0.233
-140.472	-34.916	-0.124	0.068
-139.458	-79.444	-0.194	-0.066
-138.443	95.194	0.223	0.254
-137.429	-112.713	0.280	0.056
-136.414	-58.041	0.579	0.252
-135.399	245.850	-0.076	0.128
-134.385	-152.879	-0.232	0.016
-133.370	-157.419	0.277	0.017
-132.356	89.545	0.357	0.398
-131.341	-52.722	-0.107	0.049
-130.326	86.277	-0.134	0.148
-129.312	134.230	0.076	-0.099
-128.297	-91.939	0.069	0.020
-127.283	39.400	-0.016	0.014
-126.268	-130.306	-0.229	0.031
-125.253	-145.840	-0.108	-0.010
-124.239	-82.341	0.114	0.037
-123.224	800.000	-0.048	-0.155
-122.210	-109.371	-0.171	0.036
-121.195	-173.194	-0.052	-0.002
-120.180	303.355	0.122	0.227
