DTS Sentinel unit serial number:	SN413079Multiplexer serial number:	ORYXHardware model number:	OX4-SRSoftware version number:	ORYX F/W v4.00 Oryx Data Collector v3.7.2.0data status	okinstallation	princeton_trtdifferential loss correction	single-endedforward channel	channel 1reverse channel	N/Adate	2019/09/15time	22:30:35forward acquisition time	60.00reverse acquisition time	0.00gamma	496.2192k internal	0.2331k external	0.2331temperature offset calibration	0.9969default loss term (dB/km)	0.3790temperature slope calibration	1.0000multiplexer offset coefficient	1.0000multiplexer slope coefficient	1.0000fibre end	0.00T internal ref (°C)	29.12T ext. ref 1 (°C)	8.74T ext. ref 2 (°C)	22.57length (m)	temperature (°C)	Stokes	anti-Stokes-747.200	32.542	-0.122	0.106
-746.185	-30.304	0.039	0.022
-745.171	-200.000	-0.057	0.318
-744.156	800.000	-0.044	0.180
-743.142	230.143	0.237	0.391
-742.127	800.000	0.010	0.043
-741.112	-71.656	0.281	-0.105
-740.098	311.187	0.197	0.372
-739.083	9.427	0.265	0.201
-738.069	-200.000	0.007	0.202
-737.054	800.000	-0.049	0.141
-736.039	193.369	0.039	-0.059
-735.025	800.000	0.073	-0.226
-734.010	271.165	-0.054	-0.096
-732.996	-104.733	-0.207	0.048
-731.981	-13.356	0.101	-0.066
-730.966	-119.738	-0.358	-0.062
-729.952	-63.117	0.034	-0.014
-728.937	192.154	-0.048	0.073
-727.923	800.000	0.065	0.267
-726.908	137.173	0.190	-0.250
-725.894	442.594	-0.037	0.082
-724.879	-180.494	0.157	-0.003
-723.864	-90.986	-0.147	0.043
-722.850	231.593	-0.162	-0.267
-721.835	500.264	-0.037	0.085
-720.821	141.715	-0.242	0.322
-719.806	709.183	0.052	0.137
-718.791	-107.629	-0.358	0.079
-717.777	800.000	0.071	-0.237
-716.762	-200.000	-0.008	0.134
-715.748	-200.000	-0.031	-0.338
-714.733	101.953	-0.117	-0.137
-713.718	-114.232	-0.460	0.089
-712.704	-25.456	-0.157	0.093
-711.689	244.148	-0.093	-0.157
-710.675	457.817	0.056	0.125
-709.660	-0.260	0.037	-0.026
-708.645	-5.385	0.291	-0.201
-707.631	338.413	-0.175	-0.342
-706.616	-102.071	0.198	-0.048
-705.602	800.000	0.059	0.166
-704.587	235.391	0.165	-0.275
-703.572	-200.000	0.006	-0.266
-702.558	-7.010	-0.307	-0.209
-701.543	-139.893	0.335	-0.036
-700.529	800.000	-0.109	-0.413
-699.514	-19.476	-0.257	-0.160
-698.499	250.293	-0.076	-0.130
-697.485	-91.554	-0.149	0.043
-696.470	-129.568	-0.239	0.033
-695.456	32.375	0.158	0.137
-694.441	-200.000	-0.070	-0.406
-693.426	-17.215	-0.064	-0.041
-692.412	304.086	0.190	-0.354
-691.397	-82.096	-0.171	-0.056
-690.383	-200.000	0.013	0.074
-689.368	79.972	-0.177	-0.192
-688.354	-5.526	0.219	-0.151
-687.339	157.206	0.224	-0.312
-686.324	503.080	0.140	-0.325
-685.310	-0.091	0.310	0.222
-684.295	800.000	0.052	-0.195
-683.281	-200.000	0.041	-0.318
-682.266	-93.987	-0.328	0.090
-681.251	800.000	0.021	-0.078
-680.237	-200.000	0.017	0.323
-679.222	-12.204	-0.262	-0.172
-678.208	284.456	-0.059	0.107
-677.193	334.573	-0.154	0.300
-676.178	-103.587	-0.398	-0.094
-675.164	102.184	-0.206	-0.241
-674.149	263.333	0.047	0.082
-673.135	800.000	-0.060	0.241
-672.120	-107.390	0.065	-0.014
-671.105	769.938	0.034	-0.094
-670.091	209.666	0.135	-0.213
-669.076	-186.075	-0.248	0.004
-668.062	-125.659	0.129	0.020
-667.047	-156.261	-0.314	-0.020
-666.032	-83.872	0.225	-0.072
-665.018	-200.000	-0.009	0.267
-664.003	800.000	0.034	0.134
-662.989	-117.057	0.229	0.042
-661.974	-148.764	0.286	-0.023
-660.959	-118.238	-0.031	-0.006
-659.945	-90.891	-0.265	0.077
-658.930	123.923	0.109	0.137
-657.916	800.000	-0.054	0.230
-656.901	800.000	-0.009	0.027
-655.886	-17.744	0.149	-0.094
-654.872	133.426	-0.067	-0.086
-653.857	65.269	-0.201	-0.203
-652.843	-124.130	-0.228	-0.036
-651.828	-200.000	-0.022	-0.370
-650.814	72.930	-0.150	-0.157
-649.799	800.000	-0.209	0.626
-648.784	-200.000	-0.015	0.069
-647.770	516.477	-0.069	0.161
-646.755	-143.837	0.187	-0.018
-645.741	779.358	-0.139	0.382
-644.726	-162.746	0.075	0.004
-643.711	4.375	0.158	0.116
-642.697	-10.592	0.207	-0.138
-641.682	-117.010	0.062	-0.011
-640.668	1.122	-0.276	-0.199
-639.653	227.208	0.173	0.283
-638.638	800.000	-0.075	-0.290
-637.624	129.535	0.113	-0.145
-636.609	-82.714	0.110	0.036
-635.595	124.836	-0.171	-0.215
-634.580	-200.000	-0.048	0.352
-633.565	-200.000	-0.023	-0.159
-632.551	43.963	0.155	-0.143
-631.536	-200.000	0.002	-0.070
-630.522	514.136	-0.132	-0.309
-629.507	-200.000	-0.018	0.127
-628.492	84.975	0.104	0.114
-627.478	-121.563	-0.085	0.014
-626.463	-200.000	0.070	-0.335
-625.449	-200.000	0.030	-0.153
-624.434	662.096	-0.080	0.207
-623.419	-200.000	-0.034	-0.210
-622.405	-137.011	0.273	0.031
-621.390	82.013	-0.159	-0.172
-620.376	-84.434	0.209	0.066
-619.361	565.889	-0.140	-0.339
-618.346	800.000	0.042	-0.173
-617.332	-64.887	0.178	0.072
-616.317	800.000	-0.012	0.035
-615.303	-200.000	0.001	0.029
-614.288	-16.459	-0.197	-0.125
-613.273	166.791	0.034	-0.048
-612.259	1.178	0.352	-0.253
-611.244	-145.058	-0.039	-0.004
-610.230	7.792	-0.200	-0.150
-609.215	97.549	0.105	0.121
-608.201	150.427	-0.019	-0.026
-607.186	-135.800	-0.385	-0.046
-606.171	-112.268	0.288	-0.058
-605.157	379.408	-0.154	-0.317
-604.142	-143.796	0.459	0.043
-603.128	144.200	0.089	-0.119
-602.113	3.896	0.226	0.166
-601.098	345.432	-0.076	0.150
-600.084	74.979	0.133	-0.140
-599.069	232.530	-0.148	0.243
-598.055	-9.003	0.166	-0.111
-597.040	562.320	-0.118	-0.287
-596.025	-200.000	0.002	-0.181
-595.011	-21.117	-0.158	-0.097
-593.996	-65.842	-0.149	0.060
-592.982	69.803	0.143	-0.148
-591.967	20.518	-0.132	-0.106
-590.952	-103.453	0.213	0.050
-589.938	-200.000	-0.028	0.130
-588.923	27.518	-0.159	0.134
-587.909	-60.693	-0.518	0.220
-586.894	800.000	-0.015	-0.056
-585.879	-60.832	-0.232	-0.098
-584.865	-200.000	0.002	-0.060
-583.850	800.000	0.103	-0.336
-582.836	800.000	0.015	0.052
-581.821	49.618	0.162	0.152
-580.806	-200.000	-0.049	0.255
-579.792	383.008	0.098	-0.203
-578.777	-151.571	0.315	-0.023
-577.763	-84.525	-0.353	0.112
-576.748	-48.094	-0.263	0.127
-575.733	-129.390	-0.221	-0.031
-574.719	78.097	-0.243	-0.259
-573.704	455.356	-0.060	0.132
-572.690	-200.000	-0.020	-0.234
-571.675	53.885	0.137	0.131
-570.661	-200.000	0.016	0.178
-569.646	-55.181	-0.168	0.076
-568.631	7.480	-0.069	0.051
-567.617	-200.000	0.021	-0.107
-566.602	-200.000	-0.004	0.175
-565.588	800.000	0.054	0.153
-564.573	-101.216	-0.026	-0.006
-563.558	-110.661	0.204	0.042
-562.544	800.000	0.005	-0.019
-561.529	189.926	-0.152	0.228
-560.515	112.074	-0.170	-0.205
-559.500	-15.852	0.104	-0.066
-558.485	-130.342	-0.203	0.027
-557.471	66.169	-0.189	0.192
-556.456	-27.890	-0.088	-0.051
-555.442	-12.777	-0.058	-0.038
-554.427	-69.968	-0.076	-0.029
-553.412	-72.854	0.045	-0.017
-552.398	-96.900	-0.527	-0.138
-551.383	-200.000	0.007	-0.132
-550.369	63.169	0.239	-0.239
-549.354	-200.000	0.009	-0.161
-548.339	367.278	-0.157	0.316
-547.325	38.047	0.096	0.085
-546.310	800.000	-0.076	0.317
-545.296	455.395	-0.069	0.153
-544.281	-200.000	0.003	-0.446
-543.266	44.772	0.088	0.081
-542.252	-200.000	0.002	-0.034
-541.237	-107.965	-0.330	0.072
-540.223	-101.671	-0.261	0.063
-539.208	-71.514	0.026	-0.010
-538.193	-120.752	0.609	0.103
-537.179	199.564	-0.240	0.367
-536.164	628.835	0.042	0.105
-535.150	800.000	-0.052	-0.227
-534.135	-3.314	0.150	0.105
-533.121	30.730	-0.203	-0.174
-532.106	-9.575	0.247	-0.165
-531.091	4.898	0.075	-0.055
-530.077	-57.689	-0.098	-0.043
-529.062	290.468	0.048	0.086
-528.048	433.821	-0.095	0.207
-527.033	-200.000	-0.019	0.433
-526.018	-39.950	-0.127	0.066
-525.004	-47.661	0.082	0.040
-523.989	800.000	0.037	0.137
-522.975	-200.000	0.050	0.323
-521.960	-174.738	-0.021	0.001
-520.945	-56.657	-0.131	-0.058
-519.931	300.129	-0.125	-0.229
-518.916	109.801	-0.158	0.188
-517.902	-200.000	0.129	0.595
-516.887	24.662	-0.231	-0.191
-515.872	-147.064	-0.118	-0.010
-514.858	103.485	0.104	0.121
-513.843	302.146	0.098	-0.180
-512.829	34.030	0.133	-0.116
-511.814	-200.000	-0.031	0.164
-510.799	-93.580	0.112	0.031
-509.785	-127.461	0.193	-0.028
-508.770	-200.000	0.065	-0.336
-507.756	660.862	0.076	0.195
-506.741	-111.924	0.102	0.020
-505.726	-86.257	0.194	-0.060
-504.712	13.754	0.140	-0.109
-503.697	-140.040	0.180	-0.019
-502.683	279.194	0.100	0.177
-501.668	569.524	0.050	-0.122
-500.653	82.009	-0.024	-0.026
-499.639	800.000	0.109	-0.332
-498.624	-88.485	-0.193	-0.057
-497.610	158.626	0.163	-0.226
-496.595	425.650	0.096	0.206
-495.581	-5.981	-0.205	-0.140
-494.566	-4.891	-0.158	-0.109
-493.551	741.257	-0.031	0.083
-492.537	90.956	-0.134	0.150
-491.522	-87.916	-0.150	0.045
-490.508	-154.207	-0.160	0.011
-489.493	-100.028	0.254	0.063
-488.478	198.768	0.101	0.154
-487.464	-200.000	-0.003	-0.286
-486.449	-125.333	0.102	0.016
-485.435	87.167	-0.129	0.142
-484.420	-83.752	0.188	-0.060
-483.405	-200.000	0.014	-0.092
-482.391	-143.577	0.073	0.007
-481.376	343.267	-0.041	-0.080
-480.362	79.350	0.128	-0.136
-479.347	49.406	-0.125	-0.117
-478.332	73.940	0.101	-0.106
-477.318	401.440	0.088	-0.184
-476.303	-7.729	0.120	0.081
-475.289	-200.000	-0.020	-0.188
-474.274	800.000	0.096	-0.301
-473.259	800.000	-0.052	-0.187
-472.245	189.857	0.194	0.291
-471.230	-76.519	0.262	-0.092
-470.216	171.628	-0.217	-0.311
-469.201	-200.000	0.021	-0.281
-468.186	88.186	-0.025	0.027
-467.172	-134.436	-0.446	-0.054
-466.157	-30.828	0.257	-0.145
-465.143	74.620	0.212	-0.222
-464.128	51.760	0.142	-0.134
-463.113	-200.000	0.039	-0.414
-462.099	251.116	0.099	-0.167
-461.084	-96.019	-0.181	0.048
-460.070	189.021	0.087	0.130
-459.055	97.184	0.193	-0.220
-458.040	-67.302	-0.292	-0.114
-457.026	-200.000	-0.019	-0.262
-456.011	-200.000	0.032	0.169
-454.997	-33.265	-0.069	0.038
-453.982	-200.000	0.049	-0.488
-452.968	-1.211	0.131	0.092
-451.953	-127.048	0.197	0.029
-450.938	526.438	0.199	0.467
-449.924	496.698	-0.121	0.276
-448.909	691.950	0.040	0.104
-447.895	-200.000	0.023	0.129
-446.880	0.270	0.190	0.135
-445.865	-187.774	-0.360	0.005
-444.851	-40.754	0.051	-0.026
-443.836	235.983	-0.146	0.240
-442.822	-200.000	-0.040	0.328
-441.807	800.000	0.071	0.310
-440.792	-67.050	-0.197	-0.077
-439.778	-200.000	-0.010	-0.151
-438.763	800.000	-0.031	-0.111
-437.749	-138.476	0.245	0.027
-436.734	627.141	-0.190	0.476
-435.719	-148.268	-0.331	0.027
-434.705	19.707	-0.099	0.079
-433.690	253.575	-0.140	-0.237
-432.676	271.434	-0.151	-0.265
-431.661	-200.000	0.033	-0.423
-430.646	118.721	-0.060	-0.074
-429.632	-122.304	0.262	-0.043
-428.617	170.516	-0.223	-0.317
-427.603	4.584	0.148	-0.108
-426.588	329.455	-0.066	0.127
-425.573	155.769	0.220	-0.302
-424.559	-0.342	-0.381	0.270
-423.544	-105.350	-0.072	-0.016
-422.530	-13.125	-0.178	0.115
-421.515	3.314	0.193	0.139
-420.500	-44.541	-0.214	-0.106
-419.486	125.075	0.267	-0.335
-418.471	199.000	0.126	0.192
-417.457	-16.169	-0.336	0.212
-416.442	800.000	-0.080	0.286
-415.428	-74.240	-0.285	0.102
-414.413	-91.455	-0.152	-0.043
-413.398	-200.000	0.036	-0.162
-412.384	-143.983	0.097	-0.009
-411.369	-42.351	0.282	-0.143
-410.355	-127.847	0.268	-0.038
-409.340	438.182	0.005	0.012
-408.325	-7.964	0.060	-0.040
-407.311	187.561	-0.236	0.350
-406.296	154.367	0.103	0.140
-405.282	-200.000	-0.047	0.283
-404.267	83.000	-0.180	-0.194
-403.252	-159.202	0.049	-0.003
-402.238	-70.176	-0.232	-0.088
-401.223	-51.536	0.336	-0.156
-400.209	190.764	-0.121	-0.180
-399.194	42.899	0.131	-0.118
-398.179	-133.226	0.088	0.011
-397.165	-47.151	0.158	0.076
-396.150	-200.000	0.018	-0.264
-395.136	371.638	0.106	-0.213
-394.121	163.504	0.122	-0.170
-393.106	-23.274	-0.218	-0.130
-392.092	-170.577	-0.245	-0.008
-391.077	468.994	-0.272	-0.607
-390.063	-27.358	0.238	-0.137
-389.048	146.456	0.027	0.036
-388.033	-200.000	-0.008	-0.220
-387.019	-100.604	0.340	-0.083
-386.004	-194.817	0.172	-0.001
-384.990	-104.544	-0.137	0.031
-383.975	354.324	-0.124	0.244
-382.960	800.000	-0.051	-0.188
-381.946	-43.551	0.150	0.075
-380.931	-113.308	0.202	-0.039
-379.917	346.784	-0.023	0.045
-378.902	-67.016	0.182	-0.071
-377.888	-67.760	0.214	-0.083
-376.873	800.000	0.038	-0.157
-375.858	-200.000	-0.094	-0.476
-374.844	-143.412	-0.319	0.030
-373.829	159.086	0.140	0.193
-372.815	457.729	-0.034	0.075
-371.800	-200.000	0.028	0.155
-370.785	22.484	0.037	0.030
-369.771	94.161	0.221	-0.248
-368.756	800.000	-0.068	-0.227
-367.742	65.085	-0.230	0.231
-366.727	312.291	0.131	-0.245
-365.712	642.854	0.056	-0.141
-364.698	800.000	0.038	-0.127
-363.683	170.992	0.146	0.208
-362.669	445.995	-0.133	0.289
-361.654	20.158	-0.067	0.054
-360.639	20.474	0.277	0.222
-359.625	39.031	0.216	-0.192
-358.610	-200.000	-0.015	-0.150
-357.596	62.090	0.400	0.396
-356.581	25.885	-0.038	0.032
-355.566	-200.000	0.023	-0.379
-354.552	72.926	0.096	0.099
-353.537	34.938	-0.313	0.271
-352.523	-76.706	0.286	0.099
-351.508	1.398	-0.115	0.082
-350.493	-200.000	-0.031	-0.445
-349.479	33.816	0.253	-0.218
-348.464	-25.404	0.098	-0.058
-347.450	657.356	-0.121	0.309
-346.435	105.016	0.110	-0.129
-345.420	618.925	-0.017	-0.042
-344.406	189.245	-0.097	-0.144
-343.391	217.296	-0.060	-0.095
-342.377	-85.608	0.248	-0.076
-341.362	-135.018	-0.082	-0.010
-340.348	281.865	-0.187	0.331
-339.333	311.090	0.119	0.221
-338.318	-174.176	-0.158	0.005
-337.304	-200.000	-0.006	0.317
-336.289	795.009	0.117	0.318
-335.275	-200.000	0.007	-0.312
-334.260	-120.459	0.030	0.005
-333.245	-163.220	0.509	0.024
-332.231	312.832	0.095	-0.177
-331.216	-103.421	-0.192	-0.045
-330.202	800.000	0.087	0.358
-329.187	-87.300	0.071	0.021
-328.172	730.516	-0.136	-0.361
-327.158	-33.172	0.278	-0.153
-326.143	210.652	-0.278	0.432
-325.129	1.630	-0.146	0.104
-324.114	-63.182	0.434	-0.177
-323.099	-79.183	0.278	0.093
-322.085	-0.493	0.253	-0.178
-321.070	-200.000	0.009	-0.101
-320.056	121.337	0.060	0.074
-319.041	46.788	0.134	0.123
-318.026	-112.033	-0.103	0.021
-317.012	275.916	0.187	0.329
-315.997	-200.000	-0.044	0.209
-314.983	211.200	0.139	-0.217
-313.968	48.666	0.192	0.178
-312.953	32.783	0.310	0.265
-311.939	-68.595	-0.231	0.089
-310.924	442.250	0.050	-0.108
-309.910	-16.462	-0.290	0.182
-308.895	-30.331	-0.159	0.089
-307.880	123.677	-0.312	-0.387
-306.866	392.025	0.180	-0.370
-305.851	-30.267	0.219	0.123
-304.837	218.314	0.135	0.212
-303.822	-49.976	0.029	-0.014
-302.807	800.000	0.034	0.107
-301.793	47.888	-0.058	0.054
-300.778	-87.092	-0.075	-0.023
-299.764	-200.000	0.015	0.105
-298.749	131.941	0.107	0.137
-297.735	216.790	0.071	0.112
-296.720	369.559	-0.096	-0.192
-295.705	800.000	-0.077	-0.245
-294.691	-57.581	0.236	-0.102
-293.676	192.701	-0.087	0.131
-292.662	800.000	-0.015	0.055
-291.647	-45.804	0.353	0.172
-290.632	18.798	-0.054	-0.043
-289.618	27.416	-0.230	0.191
-288.603	-200.000	0.002	-0.148
-287.589	-68.366	0.053	0.020
-286.574	-20.622	-0.040	-0.025
-285.559	19.598	0.216	0.172
-284.545	-132.203	0.296	0.038
-283.530	5.516	-0.179	-0.130
-282.516	800.000	-0.088	0.359
-281.501	-158.427	-0.170	0.010
-280.486	166.371	-0.203	0.284
-279.472	44.950	-0.216	0.197
-278.457	103.079	-0.313	0.363
-277.443	800.000	0.089	0.249
-276.428	-200.000	0.020	0.335
-275.413	8.301	-0.175	0.130
-274.399	-139.908	0.367	-0.038
-273.384	-200.000	-0.035	0.262
-272.370	-186.762	-0.204	0.003
-271.355	514.091	-0.059	-0.137
-270.340	800.000	0.073	0.260
-269.326	53.778	0.076	0.072
-268.311	-137.251	-0.116	-0.013
-267.297	277.593	0.144	0.254
-266.282	37.900	-0.221	0.194
-265.267	-56.430	0.027	-0.012
-264.253	-28.018	0.148	-0.084
-263.238	79.990	0.155	-0.165
-262.224	142.747	0.135	-0.178
-261.209	238.954	-0.076	-0.124
-260.195	800.000	0.140	-0.416
-259.180	-47.708	0.163	-0.078
-258.165	800.000	-0.012	-0.045
-257.151	-200.000	-0.025	0.139
-256.136	80.207	0.080	0.085
-255.122	-200.000	-0.019	0.242
-254.107	-200.000	-0.023	0.245
-253.092	-200.000	-0.013	0.130
-252.078	-200.000	-0.031	-0.176
-251.063	244.162	-0.058	0.096
-250.049	17.159	0.101	-0.079
-249.034	-52.939	0.090	0.041
-248.019	-193.386	-0.157	0.001
-247.005	540.534	-0.100	0.235
-245.990	165.185	0.155	0.216
-244.976	-200.000	-0.013	-0.118
-243.961	-142.483	-0.139	-0.014
-242.946	344.776	0.114	-0.221
-241.932	-17.020	-0.115	-0.072
-240.917	-200.000	-0.005	-0.174
-239.903	800.000	0.154	0.484
-238.888	-83.986	0.464	0.146
-237.873	-0.881	-0.140	0.098
-236.859	-16.615	-0.249	-0.156
-235.844	-200.000	0.007	-0.064
-234.830	800.000	-0.096	-0.332
-233.815	340.854	0.087	-0.167
-232.800	-99.746	-0.286	-0.071
-231.786	-200.000	0.028	-0.255
-230.771	23.117	0.115	-0.093
-229.757	-200.000	-0.001	0.087
-228.742	-89.057	0.122	-0.036
-227.727	88.194	-0.115	0.126
-226.713	-31.409	-0.096	0.053
-225.698	607.103	-0.182	0.448
-224.684	-148.119	-0.124	-0.010
-223.669	-0.402	0.172	-0.120
-222.655	277.973	-0.145	0.255
-221.640	160.108	0.092	0.126
-220.625	-104.363	-0.069	-0.016
-219.611	-72.677	-0.284	-0.103
-218.596	462.366	-0.012	0.026
-217.582	-200.000	0.021	0.129
-216.567	5.890	-0.207	-0.151
-215.552	-200.000	-0.037	-0.240
-214.538	-92.348	-0.286	0.079
-213.523	52.430	-0.168	-0.158
-212.509	241.336	-0.068	0.111
-211.494	178.486	0.046	-0.066
-210.479	153.556	0.118	-0.160
-209.465	149.356	-0.102	0.137
-208.450	-150.197	0.373	0.028
-207.436	157.263	-0.017	0.024
-206.421	77.077	-0.127	0.133
-205.406	-108.273	-0.334	0.071
-204.392	83.616	-0.130	-0.139
-203.377	-200.000	0.042	-0.261
-202.363	-130.719	0.265	0.035
-201.348	-21.176	-0.270	0.163
-200.333	55.474	-0.140	0.134
-199.319	-96.369	0.218	0.057
-198.304	91.257	-0.182	-0.201
-197.290	-200.000	-0.024	-0.341
-196.275	-100.196	-0.169	-0.041
-195.260	-130.870	0.101	0.013
-194.246	-168.119	-0.397	-0.015
-193.231	-99.141	0.485	-0.121
-192.217	-68.672	-0.278	-0.106
-191.202	800.000	0.084	0.294
-190.187	98.477	-0.091	0.104
-189.173	527.535	-0.209	-0.486
-188.158	134.246	-0.170	0.218
-187.144	-138.483	-0.209	0.023
-186.129	22.391	0.041	-0.033
-185.114	-200.000	0.031	-0.185
-184.100	-200.000	0.046	-0.222
-183.085	77.345	0.046	0.048
-182.071	-200.000	0.035	0.434
-181.056	-13.248	0.103	-0.066
-180.042	34.278	-0.101	-0.087
-179.027	-200.000	-0.054	0.251
-178.012	-66.802	-0.210	0.082
-176.998	800.000	0.026	-0.074
-175.983	-136.580	0.246	0.028
-174.969	9.163	0.215	0.160
-173.954	-200.000	0.043	0.344
-172.939	-69.702	0.221	0.083
-171.925	-13.053	-0.042	-0.027
-170.910	-49.511	-0.214	0.100
-169.896	-200.000	-0.010	-0.123
-168.881	188.197	0.148	0.218
-167.866	557.635	-0.065	0.154
-166.852	-0.497	0.169	0.118
-165.837	800.000	-0.007	0.027
-164.823	-57.272	-0.136	-0.059
-163.808	800.000	0.113	0.313
-162.793	-190.730	-0.326	-0.003
-161.779	-162.187	-0.137	-0.007
-160.764	-200.000	-0.003	0.125
-159.750	182.206	-0.249	0.361
-158.735	800.000	-0.074	-0.285
-157.720	282.491	-0.188	-0.332
-156.706	-113.783	0.276	-0.053
-155.691	800.000	0.069	0.191
-154.677	-200.000	-0.043	-0.188
-153.662	-46.532	0.170	-0.082
-152.647	319.586	-0.023	-0.042
-151.633	34.746	-0.149	-0.129
-150.618	130.711	-0.010	0.012
-149.604	800.000	-0.059	-0.188
-148.589	-13.432	0.338	0.215
-147.574	-97.272	0.228	0.058
-146.560	67.148	-0.025	0.025
-145.545	-43.781	-0.432	0.214
-144.531	472.546	0.165	0.365
-143.516	539.905	-0.037	0.087
-142.502	-200.000	-0.003	0.299
-141.487	55.902	0.176	0.168
-140.472	800.000	0.030	-0.121
-139.458	414.739	-0.070	0.146
-138.443	-200.000	-0.003	0.032
-137.429	-144.949	-0.185	0.017
-136.414	312.668	0.070	-0.130
-135.399	-181.494	-0.408	0.008
-134.385	-200.000	-0.007	0.227
-133.370	104.567	-0.082	0.095
-132.356	-136.935	-0.132	0.015
-131.341	-84.578	-0.260	-0.081
-130.326	-200.000	0.010	-0.096
-129.312	-29.331	0.174	0.098
-128.297	127.376	-0.172	-0.215
-127.283	-46.691	0.087	-0.042
-126.268	-51.229	0.288	-0.133
-125.253	-174.724	-0.280	-0.008
-124.239	-200.000	-0.014	-0.202
-123.224	160.477	-0.367	-0.503
-122.210	-165.431	0.183	0.008
-121.195	230.631	0.180	0.290
