DTS Sentinel unit serial number:	SN413079Multiplexer serial number:	ORYXHardware model number:	OX4-SRSoftware version number:	ORYX F/W v4.00 Oryx Data Collector v3.7.2.0data status	okinstallation	princeton_trtdifferential loss correction	single-endedforward channel	channel 1reverse channel	N/Adate	2019/09/12time	23:14:35forward acquisition time	60.00reverse acquisition time	0.00gamma	496.2192k internal	0.2327k external	0.2327temperature offset calibration	1.0144default loss term (dB/km)	0.3790temperature slope calibration	1.0000multiplexer offset coefficient	1.0000multiplexer slope coefficient	1.0000fibre end	0.00T internal ref (°C)	29.14T ext. ref 1 (°C)	3.74T ext. ref 2 (°C)	23.79length (m)	temperature (°C)	Stokes	anti-Stokes-747.200	46.687	0.208	0.195
-746.185	637.031	-0.107	0.274
-745.171	60.799	-0.093	0.093
-744.156	64.745	0.179	0.182
-743.142	15.798	0.073	-0.058
-742.127	800.000	0.025	0.077
-741.112	-200.000	-0.051	-0.337
-740.098	-200.000	0.009	0.063
-739.083	155.787	0.081	0.112
-738.069	-16.921	-0.176	0.112
-737.054	-183.267	0.619	-0.011
-736.039	-1.512	-0.509	-0.362
-735.025	245.461	0.222	0.377
-734.010	-37.454	-0.185	-0.099
-732.996	-21.219	-0.202	-0.125
-731.981	-17.997	0.280	0.177
-730.966	-200.000	0.004	0.136
-729.952	265.962	-0.063	-0.111
-728.937	800.000	-0.043	-0.123
-727.923	160.848	-0.128	-0.180
-726.908	42.453	-0.126	0.116
-725.894	-200.000	0.000	-0.080
-724.879	31.105	-0.077	0.066
-723.864	60.141	-0.161	-0.160
-722.850	-32.258	0.171	0.096
-721.835	-200.000	-0.024	0.288
-720.821	-200.000	0.006	0.206
-719.806	107.774	0.042	-0.051
-718.791	100.545	-0.177	-0.207
-717.777	762.477	-0.076	0.206
-716.762	-35.332	-0.015	0.008
-715.748	-13.028	0.221	-0.145
-714.733	8.369	-0.208	0.157
-713.718	-29.433	-0.197	-0.114
-712.704	233.424	0.121	0.200
-711.689	8.492	0.118	0.089
-710.675	-200.000	0.004	-0.279
-709.660	-117.503	0.123	0.022
-708.645	-130.319	0.144	-0.020
-707.631	293.571	-0.124	-0.228
-706.616	800.000	0.097	0.299
-705.602	-200.000	-0.022	0.253
-704.587	-200.000	0.048	0.334
-703.572	121.646	0.134	-0.169
-702.558	-200.000	-0.018	0.117
-701.543	259.841	0.082	0.143
-700.529	-126.065	-0.211	0.032
-699.514	800.000	-0.058	0.174
-698.499	29.541	0.204	0.175
-697.485	272.924	-0.028	0.050
-696.470	-200.000	-0.056	0.528
-695.456	-114.982	0.149	-0.029
-694.441	163.272	0.041	0.058
-693.426	-112.077	0.162	-0.033
-692.412	-71.522	0.057	-0.022
-691.397	-104.834	0.284	0.066
-690.383	69.324	0.094	-0.098
-689.368	41.363	0.261	0.237
-688.354	207.580	0.193	0.303
-687.339	-200.000	-0.000	-0.064
-686.324	43.387	0.225	-0.207
-685.310	-200.000	0.001	0.022
-684.295	-106.951	0.251	-0.056
-683.281	-121.152	-0.357	-0.060
-682.266	-124.041	-0.184	0.029
-681.251	-200.000	-0.038	0.470
-680.237	-162.267	0.113	0.006
-679.222	-200.000	0.032	-0.234
-678.208	303.522	-0.178	-0.332
-677.193	191.982	0.029	0.044
-676.178	-58.608	0.402	0.175
-675.164	-107.619	-0.076	0.017
-674.149	-159.750	-0.416	0.023
-673.135	-73.698	0.434	-0.159
-672.120	122.492	-0.165	0.208
-671.105	-15.413	-0.161	-0.104
-670.091	136.902	0.080	-0.105
-669.076	98.292	-0.153	-0.177
-668.062	-34.393	0.187	0.103
-667.047	-200.000	-0.005	0.096
-666.032	-50.209	0.358	0.170
-665.018	800.000	0.037	0.114
-664.003	-107.638	-0.096	0.021
-662.989	-154.223	0.202	0.014
-661.974	417.162	0.051	0.110
-660.959	800.000	-0.060	-0.209
-659.945	277.020	0.144	-0.257
-658.930	-9.495	0.381	0.256
-657.916	723.049	0.072	-0.192
-656.901	116.228	-0.089	0.110
-655.886	-189.779	-0.179	-0.002
-654.872	800.000	0.039	-0.163
-653.857	17.473	0.236	0.188
-652.843	-142.495	0.346	0.034
-651.828	-27.996	0.170	-0.099
-650.814	4.988	-0.078	-0.058
-649.799	-54.082	-0.017	0.008
-648.784	-200.000	0.021	0.198
-647.770	326.106	-0.109	-0.210
-646.755	-122.511	0.297	-0.048
-645.741	-47.111	0.065	-0.032
-644.726	91.596	0.194	0.219
-643.711	800.000	-0.067	-0.258
-642.697	-44.177	0.136	0.068
-641.682	-200.000	0.093	0.419
-640.668	-200.000	-0.031	0.319
-639.653	275.354	-0.079	0.141
-638.638	-40.614	-0.217	0.113
-637.624	-66.042	-0.227	-0.091
-636.609	-103.072	-0.501	0.119
-635.595	-105.749	-0.220	0.050
-634.580	-134.080	-0.264	0.033
-633.565	-135.068	-0.142	-0.017
-632.551	-200.000	-0.016	0.089
-631.536	137.228	0.082	0.107
-630.522	61.337	-0.047	0.047
-629.507	-200.000	0.018	0.429
-628.492	11.606	-0.045	0.035
-627.478	22.664	-0.163	-0.134
-626.463	460.506	0.108	0.242
-625.449	-200.000	0.001	0.096
-624.434	-107.993	0.207	0.045
-623.419	163.969	-0.234	-0.331
-622.405	18.527	-0.175	0.141
-621.390	-53.763	-0.095	-0.043
-620.376	-178.210	-0.304	0.007
-619.361	-58.466	0.190	-0.083
-618.346	-79.368	0.256	-0.087
-617.332	-192.187	-0.561	0.005
-616.317	-8.669	-0.141	-0.095
-615.303	-177.352	0.113	-0.003
-614.288	102.808	-0.162	-0.191
-613.273	-192.919	-0.266	0.002
-612.259	239.984	-0.014	-0.023
-611.244	36.876	-0.078	-0.069
-610.230	256.712	0.174	0.299
-609.215	164.206	-0.085	0.120
-608.201	226.706	0.013	-0.021
-607.186	-4.293	0.172	-0.119
-606.171	-172.055	-0.099	-0.003
-605.157	-41.485	0.084	-0.044
-604.142	-112.187	0.313	0.063
-603.128	161.170	0.050	-0.071
-602.113	591.007	0.121	-0.298
-601.098	-153.188	0.218	0.015
-600.084	-189.195	0.195	-0.002
-599.069	95.025	-0.160	-0.183
-598.055	-64.697	0.147	0.060
-597.040	88.146	0.076	0.085
-596.025	118.412	-0.189	-0.234
-595.011	403.226	0.145	-0.305
-593.996	-187.671	-0.220	-0.003
-592.982	78.621	0.116	0.124
-591.967	-58.931	-0.289	-0.125
-590.952	-47.193	0.109	0.053
-589.938	-71.178	-0.083	-0.031
-588.923	-141.271	-0.127	0.013
-587.909	-65.942	0.184	0.074
-586.894	479.641	0.034	0.077
-585.879	595.946	0.160	-0.397
-584.865	-40.654	-0.245	0.127
-583.850	26.008	-0.121	0.101
-582.836	93.680	0.096	-0.109
-581.821	267.342	-0.068	-0.118
-580.806	310.452	-0.173	-0.324
-579.792	-200.000	-0.315	-0.001
-578.777	373.607	0.194	0.396
-577.763	800.000	-0.056	-0.180
-576.748	800.000	-0.098	-0.385
-575.733	122.786	-0.204	-0.255
-574.719	243.037	0.056	-0.094
-573.704	-88.008	-0.119	0.036
-572.690	-200.000	-0.018	-0.153
-571.675	-17.782	0.233	0.146
-570.661	-200.000	-0.027	0.271
-569.646	-200.000	0.073	-0.341
-568.631	-200.000	-0.022	-0.179
-567.617	-200.000	-0.026	-0.344
-566.602	-120.068	-0.024	0.004
-565.588	302.162	0.046	-0.085
-564.573	-46.626	-0.126	0.062
-563.558	-200.000	-0.037	0.200
-562.544	-56.045	0.030	-0.013
-561.529	-103.621	-0.298	0.070
-560.515	378.977	0.164	0.336
-559.500	85.619	0.184	0.202
-558.485	800.000	0.093	0.313
-557.471	-200.000	0.027	-0.255
-556.456	52.525	-0.069	-0.066
-555.442	-128.770	0.177	-0.025
-554.427	351.136	-0.118	0.233
-553.412	-28.328	-0.212	-0.123
-552.398	-78.813	0.353	-0.121
-551.383	-124.076	-0.063	-0.010
-550.369	-200.000	0.011	-0.143
-549.354	-40.259	0.054	0.028
-548.339	10.306	0.094	-0.072
-547.325	-15.748	-0.249	0.159
-546.310	402.521	0.036	0.076
-545.296	-200.000	-0.088	0.526
-544.281	-200.000	0.067	-0.379
-543.266	324.796	0.074	-0.141
-542.252	-30.370	-0.339	-0.193
-541.237	12.836	0.146	-0.113
-540.223	188.334	-0.195	-0.292
-539.208	452.080	-0.086	-0.191
-538.193	240.022	0.096	-0.159
-537.179	281.076	0.054	0.096
-536.164	-47.986	0.059	0.029
-535.150	-151.459	0.065	0.005
-534.135	-103.684	-0.098	-0.023
-533.121	800.000	0.062	0.208
-532.106	-200.000	-0.001	-0.195
-531.091	-56.669	-0.115	-0.051
-530.077	-200.000	0.048	0.409
-529.062	1.850	-0.172	0.124
-528.048	-5.352	0.217	0.149
-527.033	-106.099	0.294	-0.066
-526.018	150.089	-0.113	-0.153
-525.004	-200.000	-0.003	-0.175
-523.989	168.450	-0.157	0.224
-522.975	447.057	-0.040	0.089
-521.960	-200.000	0.010	0.254
-520.945	-200.000	0.044	-0.366
-519.931	-200.000	0.019	0.204
-518.916	-18.911	0.205	0.127
-517.902	86.673	0.256	0.282
-516.887	-90.799	-0.248	-0.071
-515.872	80.482	-0.178	-0.192
-514.858	154.494	0.217	0.298
-513.843	-69.599	-0.323	0.123
-512.829	103.737	-0.049	0.057
-511.814	28.979	0.106	0.090
-510.799	-141.795	0.192	-0.019
-509.785	-200.000	0.024	-0.230
-508.770	-129.764	-0.120	0.017
-507.756	-161.822	-0.208	0.011
-506.741	-200.000	-0.011	0.277
-505.726	238.697	0.136	0.225
-504.712	800.000	0.054	0.163
-503.697	800.000	0.060	-0.257
-502.683	-200.000	-0.045	-0.513
-501.668	-61.939	-0.191	-0.080
-500.653	-60.166	-0.225	-0.096
-499.639	272.126	-0.103	0.182
-498.624	-200.000	-0.005	0.246
-497.610	-51.465	0.181	-0.085
-496.595	-200.000	0.012	0.156
-495.581	-68.306	0.431	-0.167
-494.566	-116.602	0.188	0.035
-493.551	-200.000	0.061	-0.470
-492.537	800.000	0.074	-0.212
-491.522	-200.000	-0.014	-0.106
-490.508	-141.829	-0.422	0.042
-489.493	87.471	0.175	0.194
-488.478	800.000	0.094	0.262
-487.464	-63.286	-0.188	0.077
-486.449	-200.000	0.033	-0.255
-485.435	-47.879	-0.123	-0.059
-484.420	-200.000	-0.007	0.083
-483.405	-53.085	-0.195	-0.089
-482.391	-136.014	0.226	0.026
-481.376	71.579	0.190	0.197
-480.362	-9.713	0.186	0.124
-479.347	-200.000	0.021	0.175
-478.332	-51.858	-0.184	0.085
-477.318	17.096	0.192	-0.152
-476.303	645.247	-0.097	0.248
-475.289	800.000	0.059	0.235
-474.274	-43.424	-0.132	-0.066
-473.259	399.310	0.144	0.302
-472.245	732.266	0.093	-0.248
-471.230	800.000	-0.037	0.130
-470.216	30.169	-0.089	-0.076
-469.201	39.099	-0.024	-0.022
-468.186	-71.990	-0.261	-0.097
-467.172	166.892	0.190	0.269
-466.157	32.439	-0.214	-0.184
-465.143	800.000	0.038	0.154
-464.128	191.208	0.090	-0.136
-463.113	-200.000	0.037	0.430
-462.099	-200.000	-0.050	0.330
-461.084	800.000	-0.060	0.230
-460.070	173.346	-0.101	0.145
-459.055	303.982	0.240	0.444
-458.040	-8.915	-0.067	-0.045
-457.026	800.000	0.050	-0.177
-456.011	22.287	-0.189	0.154
-454.997	21.902	-0.240	-0.195
-453.982	-103.650	0.464	-0.109
-452.968	89.065	0.061	-0.068
-451.953	10.395	0.097	-0.074
-450.938	-62.520	-0.333	-0.138
-449.924	-200.000	0.013	-0.218
-448.909	-71.545	0.172	0.064
-447.895	-200.000	-0.024	-0.266
-446.880	-105.218	-0.070	0.016
-445.865	800.000	-0.050	0.160
-444.851	-155.060	-0.308	-0.020
-443.836	80.451	0.146	-0.157
-442.822	-6.630	-0.207	0.141
-441.807	5.811	-0.222	-0.164
-440.792	-200.000	0.006	-0.233
-439.778	-93.125	0.568	0.158
-438.763	114.589	-0.123	0.150
-437.749	-61.352	-0.237	0.099
-436.734	-111.079	-0.031	-0.006
-435.719	-200.000	-0.060	-0.363
-434.705	291.315	-0.048	0.087
-433.690	498.355	0.048	-0.111
-432.676	-5.023	-0.187	0.128
-431.661	114.667	-0.149	0.180
-430.646	72.645	0.104	-0.108
-429.632	201.291	0.063	0.097
-428.617	-27.590	-0.184	0.106
-427.603	-78.647	-0.350	-0.119
-426.588	524.584	0.113	-0.264
-425.573	-200.000	0.004	-0.064
-424.559	-35.022	-0.180	0.098
-423.544	332.975	0.045	-0.086
-422.530	78.913	0.152	-0.162
-421.515	-190.348	-0.077	-0.001
-420.500	73.150	0.158	-0.164
-419.486	0.457	0.086	-0.061
-418.471	35.790	-0.206	0.180
-417.457	206.024	-0.040	0.063
-416.442	82.822	-0.070	0.076
-415.428	-2.841	0.267	0.186
-414.413	192.277	0.160	-0.240
-413.398	793.843	-0.034	0.092
-412.384	-200.000	0.015	-0.070
-411.369	-189.030	0.107	-0.001
-410.355	-59.155	-0.237	-0.102
-409.340	36.228	0.057	-0.050
-408.325	-200.000	-0.073	0.353
-407.311	-65.362	-0.144	-0.058
-406.296	11.069	0.191	-0.146
-405.282	-161.415	0.348	-0.018
-404.267	-200.000	0.052	0.269
-403.252	-200.000	-0.010	0.271
-402.238	-200.000	-0.018	0.180
-401.223	57.566	-0.098	-0.095
-400.209	-23.962	-0.253	-0.151
-399.194	-200.000	-0.004	-0.166
-398.179	110.691	0.118	0.141
-397.165	208.811	0.033	0.052
-396.150	265.650	-0.118	0.204
-395.136	167.418	0.164	0.231
-394.121	-67.618	-0.128	0.050
-393.106	42.505	0.117	0.106
-392.092	-200.000	0.002	0.156
-391.077	800.000	-0.031	-0.100
-390.063	-77.414	0.186	-0.064
-389.048	473.914	0.018	-0.041
-388.033	800.000	0.085	0.316
-387.019	-39.386	-0.150	-0.078
-386.004	-171.626	-0.365	-0.012
-384.990	-165.484	-0.252	-0.011
-383.975	-200.000	-0.047	-0.252
-382.960	-200.000	-0.016	-0.248
-381.946	101.873	0.082	0.096
-380.931	800.000	-0.067	0.195
-379.917	-200.000	-0.000	-0.042
-378.902	-125.696	0.217	-0.033
-377.888	94.829	-0.241	-0.273
-376.873	56.985	-0.202	0.195
-375.858	-163.720	0.260	-0.012
-374.844	20.529	0.169	0.136
-373.829	-138.773	-0.082	-0.009
-372.815	30.920	-0.215	0.183
-371.800	181.941	-0.175	0.255
-370.785	-200.000	-0.012	0.169
-369.771	-148.285	0.449	-0.037
-368.756	-62.161	0.208	-0.086
-367.742	-98.626	-0.157	-0.040
-366.727	21.472	-0.120	0.097
-365.712	800.000	0.050	0.203
-364.698	14.456	-0.198	0.153
-363.683	-141.846	-0.064	-0.006
-362.669	-99.908	0.125	-0.031
-361.654	-173.645	-0.351	0.010
-360.639	800.000	-0.081	0.264
-359.625	-52.734	0.390	-0.179
-358.610	800.000	0.056	0.202
-357.596	-49.324	-0.202	0.096
-356.581	115.415	-0.073	-0.088
-355.566	148.456	0.286	-0.384
-354.552	-71.731	-0.184	0.068
-353.537	-65.782	0.172	0.068
-352.523	189.385	-0.017	0.025
-351.508	-200.000	-0.025	0.198
-350.493	24.776	0.222	-0.183
-349.479	11.300	0.244	-0.185
-348.464	-200.000	-0.008	0.087
-347.450	447.709	-0.124	0.270
-346.435	230.013	0.139	0.225
-345.420	-161.257	-0.267	-0.014
-344.406	284.662	0.086	-0.154
-343.391	-200.000	0.008	0.203
-342.377	-200.000	-0.074	0.363
-341.362	231.791	-0.083	0.135
-340.348	72.930	-0.205	-0.213
-339.333	-28.628	0.186	-0.106
-338.318	-17.906	0.035	0.022
-337.304	-39.998	-0.187	-0.097
-336.289	-39.876	0.154	-0.080
-335.275	-140.611	-0.132	-0.014
-334.260	800.000	-0.062	0.176
-333.245	306.832	0.193	-0.356
-332.231	-200.000	0.002	0.240
-331.216	264.628	0.080	0.138
-330.202	158.722	0.012	0.017
-329.187	52.169	0.275	0.260
-328.172	800.000	-0.056	0.230
-327.158	181.133	0.004	0.006
-326.143	49.637	0.235	0.220
-325.129	-73.156	0.202	0.073
-324.114	800.000	0.064	0.240
-323.099	46.369	-0.229	0.210
-322.085	339.968	-0.142	0.274
-321.070	-200.000	-0.020	-0.181
-320.056	430.840	0.042	0.090
-319.041	-71.308	-0.232	-0.086
-318.026	336.227	-0.334	0.643
-317.012	49.699	0.035	-0.033
-315.997	-17.166	0.260	-0.163
-314.983	214.655	0.170	-0.268
-313.968	-116.784	-0.261	-0.047
-312.953	-31.557	0.336	-0.187
-311.939	668.516	-0.041	-0.105
-310.924	-8.083	-0.143	0.096
-309.910	800.000	0.032	-0.131
-308.895	-200.000	0.022	-0.221
-307.880	-200.000	0.014	-0.062
-306.866	65.747	0.081	-0.082
-305.851	800.000	0.079	0.218
-304.837	-200.000	-0.050	0.253
-303.822	800.000	-0.027	0.106
-302.807	-189.690	-0.167	-0.002
-301.793	-35.634	0.170	0.092
-300.778	-17.449	0.204	-0.127
-299.764	521.043	-0.053	0.122
-298.749	-80.097	0.194	0.065
-297.735	-200.000	-0.014	0.192
-296.720	-141.816	-0.160	0.016
-295.705	210.429	-0.068	-0.106
-294.691	481.127	-0.042	0.095
-293.676	-200.000	0.003	-0.068
-292.662	139.539	0.107	0.139
-291.647	-176.063	0.291	0.008
-290.632	-200.000	-0.009	-0.058
-289.618	-200.000	-0.071	-0.317
-288.603	85.426	-0.286	-0.311
-287.589	-26.477	0.204	0.118
-286.574	800.000	0.048	-0.185
-285.559	136.955	0.143	0.185
-284.545	-200.000	-0.007	-0.080
-283.530	456.599	0.080	-0.176
-282.516	-108.091	-0.151	-0.032
-281.501	21.857	0.161	-0.130
-280.486	-183.115	0.357	0.006
-279.472	-62.967	-0.212	0.087
-278.457	92.390	-0.191	-0.213
-277.443	147.606	0.135	-0.180
-276.428	350.426	0.066	-0.130
-275.413	545.137	0.025	-0.060
-274.399	-0.442	0.099	0.070
-273.384	-200.000	-0.020	-0.140
-272.370	-200.000	-0.036	-0.164
-271.355	-171.929	0.186	0.006
-270.340	15.726	-0.073	0.057
-269.326	-119.487	-0.095	0.016
-268.311	800.000	-0.111	-0.335
-267.297	-200.000	0.005	-0.210
-266.282	-149.767	0.070	-0.005
-265.267	800.000	-0.166	-0.462
-264.253	-200.000	0.060	0.396
-263.238	-56.112	0.154	0.068
-262.224	-26.060	-0.126	-0.073
-261.209	-31.153	0.435	0.242
-260.195	438.258	-0.088	-0.191
-259.180	-44.657	-0.085	-0.042
-258.165	-112.239	0.480	-0.095
-257.151	-200.000	-0.011	-0.186
-256.136	-200.000	-0.014	-0.184
-255.122	-139.983	0.193	-0.020
-254.107	40.891	0.084	-0.075
-253.092	-57.355	0.587	-0.255
-252.078	-38.447	0.183	-0.096
-251.063	-200.000	0.039	-0.217
-250.049	424.165	0.068	0.145
-249.034	-133.074	-0.294	-0.037
-248.019	507.444	0.010	0.023
-247.005	-200.000	-0.009	-0.127
-245.990	800.000	-0.024	0.068
-244.976	476.780	0.111	-0.248
-243.961	-61.519	0.115	0.048
-242.946	-99.222	0.381	-0.095
-241.932	-200.000	0.082	0.516
-240.917	-45.533	-0.223	0.109
-239.903	104.176	-0.070	-0.081
-238.888	-123.987	-0.096	-0.015
-237.873	-126.241	-0.496	0.073
-236.859	22.661	-0.214	0.173
-235.844	173.436	0.098	0.139
-234.830	311.274	0.037	-0.069
-233.815	1.797	0.244	0.173
-232.800	800.000	0.033	0.096
-231.786	121.550	0.122	0.150
-230.771	42.538	-0.130	-0.117
-229.757	-200.000	0.030	-0.151
-228.742	133.699	-0.194	-0.248
-227.727	129.175	0.154	-0.194
-226.713	-108.535	-0.241	0.051
-225.698	704.345	-0.073	-0.190
-224.684	560.996	-0.079	0.187
-223.669	-39.492	0.097	0.050
-222.655	277.199	0.048	0.084
-221.640	13.477	0.115	-0.088
-220.625	-40.595	0.174	0.089
-219.611	-47.267	-0.253	-0.122
-218.596	-20.693	-0.362	-0.220
-217.582	-71.541	0.074	-0.027
-216.567	-200.000	-0.008	-0.084
-215.552	172.680	0.123	-0.175
-214.538	-200.000	-0.012	-0.169
-213.523	153.508	-0.096	-0.130
-212.509	53.712	-0.118	-0.112
-211.494	-129.504	-0.076	-0.010
-210.479	-113.503	0.228	-0.044
-209.465	-60.551	-0.220	-0.092
-208.450	330.403	0.057	-0.108
-207.436	800.000	0.062	0.262
-206.421	-112.312	0.179	-0.035
-205.406	278.395	0.101	0.177
-204.392	95.827	0.161	-0.182
-203.377	-61.118	0.280	0.116
-202.363	-200.000	0.015	-0.259
-201.348	-200.000	-0.051	-0.287
-200.333	74.786	0.167	0.173
-199.319	800.000	-0.116	-0.333
-198.304	-3.105	-0.049	-0.034
-197.290	-81.311	0.244	0.079
-196.275	218.325	0.030	0.047
-195.260	-5.302	0.081	0.055
-194.246	264.251	-0.115	-0.198
-193.231	31.402	-0.135	-0.114
-192.217	-200.000	0.020	0.119
-191.202	-53.820	0.383	0.172
-190.187	65.043	0.221	-0.220
-189.173	186.154	-0.124	0.183
-188.158	125.271	0.064	-0.080
-187.144	800.000	0.062	-0.248
-186.129	-3.933	-0.488	-0.334
-185.114	-80.313	-0.082	-0.027
-184.100	-104.422	-0.108	-0.025
-183.085	-92.393	-0.118	-0.033
-182.071	88.363	-0.245	0.269
-181.056	-40.890	-0.168	0.086
-180.042	-200.000	-0.011	-0.130
-179.027	800.000	-0.125	-0.409
-178.012	-161.125	0.324	0.017
-176.998	466.436	-0.107	-0.237
-175.983	-105.821	-0.207	0.046
-174.969	-155.306	0.247	-0.016
-173.954	-5.134	-0.071	-0.048
-172.939	800.000	0.019	0.061
-171.925	-47.717	-0.244	0.117
-170.910	-74.911	0.229	0.081
-169.896	34.140	-0.070	-0.060
-168.881	82.847	0.339	-0.363
-167.866	469.204	0.011	-0.025
-166.852	743.264	-0.067	0.177
-165.837	-19.580	0.262	0.160
-164.823	141.193	0.037	0.049
-163.808	-141.102	0.213	0.021
-162.793	800.000	0.045	0.143
-161.779	-18.565	0.311	0.191
-160.764	75.017	-0.143	0.149
-159.750	-3.873	0.140	-0.096
-158.735	-200.000	0.033	0.218
-157.720	-47.988	-0.121	0.058
-156.706	62.659	-0.111	0.109
-155.691	-185.996	-0.109	-0.002
-154.677	64.373	0.243	-0.241
-153.662	800.000	-0.117	-0.370
-152.647	-95.363	-0.184	0.049
-151.633	20.423	0.119	0.095
-150.618	367.897	0.057	0.114
-149.604	-86.180	0.380	-0.115
-148.589	-75.700	0.152	0.053
-147.574	92.914	0.147	0.164
-146.560	450.602	-0.130	0.283
-145.545	-74.573	-0.332	-0.118
-144.531	-32.612	-0.375	0.206
-143.516	127.542	0.167	0.208
-142.502	273.632	-0.164	0.286
-141.487	581.585	0.051	-0.123
-140.472	497.937	-0.056	-0.126
-139.458	-63.755	0.179	0.072
-138.443	-71.032	0.319	-0.118
-137.429	-110.257	0.191	-0.039
-136.414	-200.000	-0.004	0.176
-135.399	-116.229	0.094	0.017
-134.385	-102.163	0.479	-0.113
-133.370	59.706	-0.375	0.364
-132.356	-133.756	0.173	0.021
-131.341	-19.904	-0.326	0.198
-130.326	-200.000	-0.024	-0.191
-129.312	72.580	-0.153	0.157
-128.297	97.247	-0.115	-0.130
-127.283	-11.033	0.164	0.107
-126.268	-200.000	0.037	0.245
-125.253	41.381	-0.088	-0.079
-124.239	141.946	-0.154	0.201
-123.224	91.362	0.052	0.057
-122.210	-88.167	0.225	0.066
-121.195	-8.316	0.246	0.163
