DTS Sentinel unit serial number:	SN413079Multiplexer serial number:	ORYXHardware model number:	OX4-SRSoftware version number:	ORYX F/W v4.00 Oryx Data Collector v3.7.2.0data status	okinstallation	princeton_trtdifferential loss correction	single-endedforward channel	channel 1reverse channel	N/Adate	2019/09/15time	12:42:36forward acquisition time	60.00reverse acquisition time	0.00gamma	496.2192k internal	0.2297k external	0.2297temperature offset calibration	0.9983default loss term (dB/km)	0.3790temperature slope calibration	1.0000multiplexer offset coefficient	1.0000multiplexer slope coefficient	1.0000fibre end	0.00T internal ref (°C)	35.67T ext. ref 1 (°C)	5.05T ext. ref 2 (°C)	33.51length (m)	temperature (°C)	Stokes	anti-Stokes-747.200	4.322	0.026	0.020
-746.185	-200.000	0.018	0.193
-745.171	102.126	-0.055	-0.065
-744.156	800.000	-0.034	0.102
-743.142	12.693	0.154	-0.121
-742.127	-9.575	-0.249	0.169
-741.112	-160.874	0.318	-0.017
-740.098	800.000	-0.104	0.320
-739.083	93.648	0.198	0.229
-738.069	-137.758	-0.262	0.030
-737.054	-148.518	-0.136	0.011
-736.039	139.285	-0.134	0.179
-735.025	-133.475	0.239	0.031
-734.010	706.092	-0.011	-0.029
-732.996	-42.737	-0.277	-0.144
-731.981	-139.950	-0.147	0.016
-730.966	-116.679	0.192	0.036
-729.952	800.000	-0.092	-0.372
-728.937	40.047	-0.251	-0.230
-727.923	-178.872	-0.407	0.009
-726.908	-171.484	-0.255	-0.009
-725.894	-200.000	-0.434	0.000
-724.879	669.386	0.013	0.034
-723.864	173.909	0.091	-0.134
-722.850	26.029	-0.087	0.074
-721.835	800.000	0.099	-0.364
-720.821	800.000	-0.119	-0.395
-719.806	-200.000	-0.018	0.219
-718.791	-200.000	-0.009	-0.192
-717.777	-135.494	-0.187	-0.023
-716.762	150.964	-0.109	0.151
-715.748	-88.704	0.287	0.087
-714.733	-56.565	0.363	0.164
-713.718	28.172	0.127	0.109
-712.704	-82.194	-0.221	-0.073
-711.689	-87.245	0.428	-0.133
-710.675	456.319	0.087	0.198
-709.660	39.544	-0.294	0.269
-708.645	-134.984	0.134	-0.017
-707.631	413.566	0.054	0.117
-706.616	100.345	-0.192	-0.227
-705.602	-37.618	-0.188	-0.102
-704.587	9.205	-0.243	0.187
-703.572	-200.000	0.001	0.154
-702.558	-125.395	0.307	-0.048
-701.543	-92.698	0.094	0.027
-700.529	-21.396	0.359	0.223
-699.514	-118.901	-0.291	0.052
-698.499	-151.982	-0.021	-0.002
-697.485	291.294	0.113	0.210
-696.470	22.994	-0.149	0.125
-695.456	-74.487	0.222	0.082
-694.441	545.681	0.186	0.453
-693.426	-95.924	0.106	0.029
-692.412	-112.767	0.074	0.015
-691.397	-200.000	-0.049	0.295
-690.383	-200.000	-0.006	-0.210
-689.368	79.831	0.141	-0.154
-688.354	541.298	-0.091	-0.221
-687.339	73.777	-0.174	0.185
-686.324	724.017	0.066	-0.179
-685.310	-99.954	0.157	0.040
-684.295	89.645	-0.091	-0.104
-683.281	-50.795	0.195	-0.093
-682.266	-34.420	-0.341	-0.190
-681.251	610.148	0.137	0.350
-680.237	-200.000	0.017	0.177
-679.222	468.884	-0.073	0.167
-678.208	800.000	-0.118	-0.414
-677.193	-200.000	-0.040	0.191
-676.178	161.591	0.087	-0.124
-675.164	-44.646	-0.155	-0.079
-674.149	-22.314	0.141	-0.087
-673.135	-84.647	0.155	0.050
-672.120	505.281	0.061	-0.144
-671.105	-200.000	-0.019	-0.169
-670.091	297.252	-0.155	0.289
-669.076	44.699	-0.017	-0.016
-668.062	-47.033	-0.080	0.040
-667.047	63.346	0.106	0.109
-666.032	-16.907	0.198	-0.128
-665.018	139.657	-0.025	-0.034
-664.003	-132.072	0.202	0.027
-662.989	27.211	0.153	0.131
-661.974	-200.000	-0.018	0.174
-660.959	-153.503	0.083	-0.006
-659.945	169.771	-0.203	0.296
-658.930	376.790	-0.074	0.154
-657.916	-144.239	-0.448	0.043
-656.901	-200.000	0.017	0.145
-655.886	390.649	-0.124	0.261
-654.872	-55.685	-0.350	0.159
-653.857	-22.165	-0.250	-0.154
-652.843	-88.238	0.388	-0.118
-651.828	51.606	0.147	0.142
-650.814	625.001	-0.075	0.192
-649.799	130.196	0.112	-0.146
-648.784	-63.669	-0.208	0.087
-647.770	-14.429	-0.122	0.080
-646.755	-40.101	-0.323	0.171
-645.741	-24.034	-0.214	-0.130
-644.726	36.902	-0.210	0.189
-643.711	55.060	0.159	-0.157
-642.697	-200.000	-0.024	-0.195
-641.682	-107.984	0.084	0.018
-640.668	-19.905	0.310	-0.195
-639.653	-200.000	0.004	0.408
-638.638	-200.000	0.046	0.508
-637.624	-31.536	-0.306	-0.175
-636.609	92.721	-0.207	0.238
-635.595	-126.643	0.136	-0.021
-634.580	800.000	0.074	0.231
-633.565	-200.000	0.039	-0.288
-632.551	-200.000	0.000	-0.229
-631.536	-53.059	-0.148	0.069
-630.522	532.033	-0.050	0.120
-629.507	-35.935	-0.159	0.087
-628.492	198.062	0.066	-0.102
-627.478	-109.343	0.217	-0.047
-626.463	-176.853	-0.343	0.009
-625.449	225.090	-0.078	0.128
-624.434	129.114	0.043	0.055
-623.419	-64.275	-0.255	0.105
-622.405	306.242	-0.046	0.088
-621.390	529.050	-0.027	-0.064
-620.376	-93.047	-0.016	0.005
-619.361	-16.683	0.402	0.259
-618.346	227.803	-0.242	-0.401
-617.332	800.000	0.110	0.474
-616.317	-200.000	-0.036	0.201
-615.303	302.860	0.034	-0.064
-614.288	800.000	0.117	0.341
-613.273	-200.000	0.251	-0.001
-612.259	-179.239	-0.378	0.009
-611.244	183.841	-0.082	0.124
-610.230	-64.704	-0.204	0.084
-609.215	-101.542	-0.062	0.015
-608.201	218.685	0.073	-0.118
-607.186	-45.097	-0.097	0.049
-606.171	-110.677	0.114	-0.024
-605.157	27.867	0.326	-0.279
-604.142	39.526	-0.083	0.076
-603.128	581.733	-0.172	-0.428
-602.113	49.388	-0.188	0.179
-601.098	579.040	0.165	-0.410
-600.084	240.023	0.130	0.220
-599.069	-200.000	-0.013	-0.115
-598.055	-7.583	-0.084	-0.058
-597.040	-200.000	0.033	-0.173
-596.025	-200.000	-0.007	-0.093
-595.011	-61.111	-0.185	0.079
-593.996	43.543	-0.102	0.095
-592.982	382.410	-0.031	0.065
-591.967	-118.563	0.328	0.059
-590.952	31.186	-0.151	0.131
-589.938	50.799	-0.047	-0.045
-588.923	125.304	-0.123	-0.157
-587.909	503.479	-0.159	0.374
-586.894	-200.000	0.032	0.294
-585.879	125.881	0.097	0.125
-584.865	706.351	0.074	0.197
-583.850	260.393	-0.100	-0.175
-582.836	633.365	0.062	0.159
-581.821	800.000	0.065	0.192
-580.806	800.000	0.058	0.224
-579.792	134.239	-0.135	-0.178
-578.777	133.592	0.071	0.093
-577.763	-90.247	-0.014	-0.004
-576.748	800.000	-0.062	-0.258
-575.733	-200.000	0.066	-0.466
-574.719	-11.905	0.265	-0.177
-573.704	-200.000	-0.003	-0.047
-572.690	-200.000	0.040	-0.189
-571.675	-78.418	-0.086	-0.030
-570.661	-31.010	-0.178	-0.102
-569.646	-66.765	0.277	-0.111
-568.631	-200.000	-0.011	-0.110
-567.617	218.712	0.155	0.251
-566.602	66.162	-0.327	-0.336
-565.588	448.863	0.055	0.124
-564.573	-16.619	-0.173	-0.111
-563.558	126.889	0.119	0.153
-562.544	39.133	0.127	-0.115
-561.529	800.000	-0.042	0.159
-560.515	-76.309	-0.250	0.089
-559.500	15.090	-0.196	-0.155
-558.485	227.230	0.164	-0.271
-557.471	-200.000	-0.058	0.337
-556.456	-25.919	0.178	-0.106
-555.442	-60.901	-0.213	0.092
-554.427	-35.032	0.273	0.151
-553.412	89.361	-0.319	-0.361
-552.398	-30.334	-0.308	-0.177
-551.383	547.427	-0.077	0.186
-550.369	-97.929	-0.050	-0.013
-549.354	-89.500	0.367	0.109
-548.339	18.821	-0.056	0.045
-547.325	-132.645	-0.205	-0.027
-546.310	-173.737	-0.160	0.005
-545.296	800.000	0.041	-0.126
-544.281	-200.000	0.029	-0.131
-543.266	800.000	0.105	-0.396
-542.252	-200.000	0.021	0.215
-541.237	110.342	-0.145	-0.176
-540.223	-87.144	0.013	-0.004
-539.208	55.726	0.048	-0.047
-538.193	-53.896	-0.301	0.139
-537.179	-200.000	-0.011	0.153
-536.164	561.305	0.014	0.035
-535.150	115.920	-0.085	0.106
-534.135	-78.793	0.250	-0.086
-533.121	-200.000	-0.001	-0.142
-532.106	28.960	0.327	-0.281
-531.091	289.000	0.139	-0.254
-530.077	474.608	-0.067	-0.152
-529.062	379.020	-0.162	-0.335
-528.048	49.399	-0.223	-0.212
-527.033	463.647	0.075	0.170
-526.018	358.997	-0.094	0.189
-525.004	-200.000	0.015	0.201
-523.989	-28.191	0.186	0.109
-522.975	-7.082	0.372	0.256
-521.960	800.000	0.110	-0.342
-520.945	579.319	0.069	-0.170
-519.931	-125.802	-0.111	0.017
-518.916	-28.144	-0.187	0.110
-517.902	-125.325	-0.171	0.027
-516.887	800.000	0.049	-0.192
-515.872	-186.410	0.198	-0.003
-514.858	-32.239	0.123	-0.070
-513.843	5.375	0.308	0.230
-512.829	18.901	-0.127	-0.103
-511.814	296.408	-0.246	0.456
-510.799	303.875	-0.080	0.151
-509.785	-21.615	0.209	0.129
-508.770	91.279	0.142	-0.161
-507.756	-200.000	-0.052	-0.263
-506.741	-200.000	0.005	0.076
-505.726	-149.818	-0.306	-0.024
-504.712	800.000	-0.074	-0.268
-503.697	-200.000	-0.071	-0.407
-502.683	-153.886	-0.156	-0.011
-501.668	64.228	-0.235	-0.239
-500.653	306.503	-0.217	-0.409
-499.639	-122.946	-0.418	-0.068
-498.624	-3.525	0.272	0.192
-497.610	11.326	-0.408	0.316
-496.595	277.468	-0.057	-0.102
-495.581	-20.402	0.284	-0.177
-494.566	362.007	-0.016	0.033
-493.551	-79.561	0.218	0.075
-492.537	-200.000	-0.036	0.287
-491.522	-36.051	-0.049	0.027
-490.508	800.000	0.024	0.073
-489.493	800.000	0.066	-0.267
-488.478	372.452	0.027	0.055
-487.464	-200.000	0.043	-0.204
-486.449	-48.449	-0.077	0.037
-485.435	-3.826	-0.263	0.185
-484.420	800.000	0.042	0.169
-483.405	245.887	0.008	0.014
-482.391	362.423	0.091	-0.184
-481.376	37.974	0.229	-0.206
-480.362	-163.773	0.174	-0.008
-479.347	36.966	0.317	0.284
-478.332	-36.596	0.267	-0.145
-477.318	0.708	0.066	0.047
-476.303	-175.888	-0.284	0.008
-475.289	-91.500	0.191	-0.055
-474.274	85.615	0.121	-0.134
-473.259	256.013	-0.080	0.139
-472.245	24.440	0.078	-0.065
-471.230	261.851	-0.129	0.226
-470.216	-71.873	0.356	-0.134
-469.201	342.584	0.160	-0.317
-468.186	-200.000	-0.009	-0.046
-467.172	425.128	-0.054	-0.118
-466.157	800.000	-0.020	-0.069
-465.143	489.263	0.057	-0.132
-464.128	-131.997	0.296	0.039
-463.113	800.000	0.019	-0.067
-462.099	-200.000	-0.007	0.352
-461.084	-67.975	-0.485	0.191
-460.070	188.444	0.162	-0.245
-459.055	123.247	-0.068	-0.086
-458.040	-200.000	-0.007	-0.133
-457.026	-200.000	0.006	-0.145
-456.011	515.258	0.096	-0.226
-454.997	-200.000	0.034	-0.319
-453.982	145.248	-0.027	-0.036
-452.968	-105.690	-0.272	-0.062
-451.953	800.000	-0.066	-0.222
-450.938	-200.000	0.007	-0.055
-449.924	56.306	-0.087	-0.086
-448.909	107.447	-0.130	-0.156
-447.895	-200.000	-0.026	0.182
-446.880	127.703	0.029	0.037
-445.865	-200.000	-0.008	-0.052
-444.851	-69.447	0.169	0.066
-443.836	195.428	-0.208	-0.319
-442.822	-200.000	-0.041	-0.402
-441.807	-162.760	0.218	0.011
-440.792	-200.000	-0.009	-0.083
-439.778	192.894	-0.051	-0.078
-438.763	210.434	-0.061	0.096
-437.749	3.429	-0.380	-0.279
-436.734	800.000	-0.111	0.327
-435.719	800.000	-0.024	-0.095
-434.705	800.000	0.052	0.197
-433.690	289.620	0.073	0.134
-432.676	800.000	-0.142	0.580
-431.661	67.525	0.133	0.137
-430.646	-68.298	0.177	0.070
-429.632	-98.118	0.142	0.037
-428.617	-123.983	0.095	0.015
-427.603	-66.239	0.293	-0.118
-426.588	-90.693	-0.391	0.114
-425.573	86.110	0.183	-0.203
-424.559	84.049	0.217	0.239
-423.544	-55.595	-0.092	-0.041
-422.530	108.257	0.039	0.047
-421.515	-200.000	-0.036	-0.201
-420.500	-200.000	0.043	-0.327
-419.486	-109.853	0.396	-0.084
-418.471	173.897	-0.167	0.243
-417.457	-106.342	-0.387	-0.087
-416.442	-200.000	0.013	-0.286
-415.428	125.904	-0.174	-0.221
-414.413	-200.000	0.061	0.336
-413.398	222.651	0.104	0.169
-412.384	133.578	-0.105	-0.136
-411.369	-77.265	-0.286	0.100
-410.355	-7.472	-0.145	-0.099
-409.340	-3.893	-0.183	0.128
-408.325	-200.000	-0.045	-0.381
-407.311	-200.000	-0.000	-0.094
-406.296	124.401	0.330	-0.418
-405.282	-200.000	0.020	0.173
-404.267	-186.642	-0.067	-0.001
-403.252	286.221	0.142	-0.258
-402.238	291.938	0.071	0.130
-401.223	-200.000	-0.009	0.054
-400.209	-174.805	-0.322	0.009
-399.194	-30.397	-0.121	0.069
-398.179	226.635	-0.131	0.214
-397.165	-155.015	0.075	-0.005
-396.150	-200.000	-0.026	0.144
-395.136	-146.842	-0.326	0.028
-394.121	152.345	0.126	-0.174
-393.106	57.264	0.228	-0.224
-392.092	130.672	0.137	0.177
-391.077	77.702	0.281	-0.302
-390.063	183.510	-0.147	-0.219
-389.048	31.947	-0.160	0.139
-388.033	800.000	0.076	0.225
-387.019	-200.000	0.022	-0.158
-386.004	-118.593	-0.510	-0.091
-384.990	-58.235	0.274	-0.120
-383.975	326.600	0.139	-0.267
-382.960	53.621	0.141	-0.136
-381.946	307.246	0.118	-0.221
-380.931	255.598	-0.152	-0.262
-379.917	140.431	0.056	-0.075
-378.902	50.613	-0.154	-0.147
-377.888	-137.648	-0.416	0.047
-376.873	-104.692	-0.077	-0.018
-375.858	82.760	0.055	0.060
-374.844	43.797	0.328	-0.302
-373.829	46.390	-0.084	-0.079
-372.815	67.144	0.239	0.245
-371.800	25.693	-0.184	-0.154
-370.785	148.349	-0.135	-0.184
-369.771	-74.340	0.253	0.092
-368.756	196.066	-0.207	-0.316
-367.742	315.169	0.061	-0.115
-366.727	800.000	0.046	0.139
-365.712	117.516	-0.046	0.057
-364.698	666.577	0.065	0.170
-363.683	61.178	-0.181	0.181
-362.669	-200.000	0.061	0.465
-361.654	-112.632	-0.170	-0.034
-360.639	-27.120	-0.065	-0.038
-359.625	-144.051	0.174	-0.016
-358.610	-168.911	0.081	-0.003
-357.596	-125.625	-0.196	0.030
-356.581	-200.000	-0.023	-0.216
-355.566	167.765	0.250	0.357
-354.552	166.539	0.131	-0.187
-353.537	-22.866	-0.122	-0.074
-352.523	-144.648	0.257	-0.024
-351.508	-113.802	-0.122	0.024
-350.493	705.878	-0.053	0.140
-349.479	113.650	0.076	0.092
-348.464	-200.000	0.097	0.453
-347.450	800.000	0.057	0.177
-346.435	-49.512	0.356	0.171
-345.420	335.853	0.085	-0.165
-344.406	800.000	-0.057	0.186
-343.391	-107.487	-0.145	0.032
-342.377	-75.407	-0.180	0.065
-341.362	-112.244	0.060	-0.012
-340.348	-148.326	0.241	0.020
-339.333	-10.391	0.209	0.139
-338.318	-129.559	-0.211	-0.029
-337.304	-75.236	-0.276	-0.099
-336.289	71.886	0.317	0.332
-335.275	-50.567	0.048	-0.023
-334.260	-168.722	-0.279	0.011
-333.245	-53.692	0.270	-0.124
-332.231	800.000	0.050	0.208
-331.216	343.395	-0.144	0.283
-330.202	-49.391	-0.128	0.062
-329.187	-147.699	-0.246	0.021
-328.172	-56.701	0.219	0.098
-327.158	28.185	-0.230	0.195
-326.143	22.150	-0.216	-0.177
-325.129	-200.000	0.008	0.062
-324.114	-90.016	-0.175	-0.051
-323.099	-113.805	-0.189	0.037
-322.085	645.892	0.028	0.071
-321.070	-102.936	-0.061	0.015
-320.056	327.430	0.104	0.199
-319.041	60.931	0.059	-0.059
-318.026	199.244	-0.254	0.390
-317.012	-200.000	0.263	-0.001
-315.997	-200.000	-0.010	-0.188
-314.983	97.670	-0.158	-0.182
-313.968	-111.308	0.340	-0.070
-312.953	-131.390	-0.195	-0.026
-311.939	-122.256	0.132	-0.022
-310.924	-124.823	0.137	0.021
-309.910	800.000	-0.099	0.363
-308.895	-21.516	-0.084	0.052
-307.880	-200.000	-0.020	-0.157
-306.866	-8.687	0.064	0.043
-305.851	89.681	0.311	-0.348
-304.837	800.000	0.018	0.075
-303.822	-147.899	-0.042	0.003
-302.807	-141.102	0.112	0.012
-301.793	169.161	-0.125	0.179
-300.778	24.820	-0.076	-0.063
-299.764	69.888	0.249	-0.258
-298.749	-159.016	-0.197	0.011
-297.735	-142.569	-0.361	-0.036
-296.720	-200.000	0.011	0.097
-295.705	-67.718	0.087	0.034
-294.691	-73.921	0.356	0.130
-293.676	-115.278	0.072	-0.014
-292.662	-12.402	0.165	0.108
-291.647	461.659	-0.209	-0.468
-290.632	-26.545	0.127	-0.075
-289.618	125.576	0.151	0.191
-288.603	-200.000	-0.000	0.345
-287.589	297.033	-0.181	0.334
-286.574	169.156	0.079	0.114
-285.559	511.157	-0.029	0.069
-284.545	243.969	-0.039	0.066
-283.530	40.299	-0.217	0.195
-282.516	15.472	-0.126	-0.100
-281.501	247.109	0.093	-0.157
-280.486	-119.328	-0.082	0.014
-279.472	800.000	0.027	-0.116
-278.457	-200.000	-0.024	0.315
-277.443	-200.000	0.010	0.137
-276.428	79.692	-0.205	-0.221
-275.413	113.887	-0.127	0.154
-274.399	-22.970	0.290	0.175
-273.384	800.000	-0.097	-0.420
-272.370	800.000	0.116	-0.341
-271.355	33.081	0.132	-0.115
-270.340	80.614	-0.080	-0.086
-269.326	15.716	0.109	0.086
-268.311	-95.217	0.193	0.052
-267.297	2.207	0.226	0.164
-266.282	-94.726	-0.099	-0.027
-265.267	-17.408	-0.055	-0.035
-264.253	-53.930	0.341	-0.156
-263.238	68.596	0.397	0.408
-262.224	-140.797	0.417	-0.043
-261.209	-5.327	0.137	0.094
-260.195	-171.338	0.258	-0.009
-259.180	-181.997	-0.059	0.001
-258.165	-200.000	-0.043	-0.256
-257.151	141.240	0.098	0.131
-256.136	-53.419	0.110	-0.051
-255.122	19.008	-0.206	-0.166
-254.107	-23.226	0.186	-0.112
-253.092	-59.509	-0.094	-0.041
-252.078	800.000	0.057	0.175
-251.063	72.901	0.212	0.222
-250.049	4.790	-0.116	-0.086
-249.034	-131.376	0.179	0.024
-248.019	-38.496	-0.082	-0.043
-247.005	800.000	-0.036	-0.105
-245.990	-53.512	0.117	-0.054
-244.976	-87.929	0.386	0.116
-243.961	104.068	0.149	0.175
-242.946	362.836	0.090	-0.182
-241.932	-24.644	0.149	-0.089
-240.917	230.170	0.135	-0.221
-239.903	-99.302	0.499	0.126
-238.888	800.000	0.050	0.184
-237.873	-122.081	0.360	-0.059
-236.859	-200.000	-0.054	-0.278
-235.844	-118.223	-0.103	-0.018
-234.830	413.297	0.105	0.225
-233.815	100.398	-0.270	0.314
-232.800	-53.980	0.330	0.151
-231.786	-133.000	0.618	0.079
-230.771	800.000	0.025	-0.089
-229.757	-107.312	-0.182	-0.040
-228.742	184.366	-0.218	0.323
-227.727	-112.450	-0.184	-0.037
-226.713	-149.942	0.394	-0.031
-225.698	167.582	-0.154	0.219
-224.684	-3.746	0.314	-0.219
-223.669	45.678	0.180	0.166
-222.655	74.899	-0.132	-0.139
-221.640	-74.665	0.139	-0.050
-220.625	800.000	-0.095	-0.262
-219.611	43.777	-0.157	0.144
-218.596	-148.634	-0.261	0.021
-217.582	616.823	0.036	-0.090
-216.567	199.970	-0.223	-0.343
-215.552	-6.205	-0.085	0.058
-214.538	72.510	0.310	0.323
-213.523	-26.519	-0.216	0.127
-212.509	-83.821	0.105	-0.033
-211.494	-200.000	-0.075	0.538
-210.479	-172.074	-0.452	-0.015
-209.465	6.610	-0.118	-0.088
-208.450	663.849	0.058	0.150
-207.436	-200.000	-0.026	-0.192
-206.421	-200.000	-0.110	-0.000
-205.406	193.273	0.023	0.035
-204.392	-81.656	-0.217	-0.071
-203.377	41.074	-0.292	0.264
-202.363	38.512	0.141	0.126
-201.348	-36.783	0.077	-0.041
-200.333	-66.980	-0.106	0.042
-199.319	-200.000	0.029	-0.136
-198.304	-95.288	-0.265	-0.071
-197.290	10.041	0.304	0.231
-196.275	-101.122	-0.304	0.074
-195.260	-200.000	0.013	-0.070
-194.246	-159.512	0.097	0.005
-193.231	-134.389	-0.380	0.047
-192.217	-200.000	0.016	0.215
-191.202	800.000	0.066	-0.248
-190.187	-200.000	0.043	-0.247
-189.173	-120.592	-0.242	0.041
-188.158	-178.376	-0.169	0.004
-187.144	97.273	-0.082	0.094
-186.129	-200.000	-0.034	0.236
-185.114	222.861	0.100	-0.161
-184.100	420.359	0.085	-0.183
-183.085	800.000	0.080	0.219
-182.071	-200.000	-0.005	0.165
-181.056	800.000	-0.051	-0.144
-180.042	47.521	-0.139	-0.130
-179.027	-152.248	0.385	-0.028
-178.012	800.000	0.007	-0.019
-176.998	-66.553	0.249	0.099
-175.983	-153.854	-0.218	-0.015
-174.969	-58.082	0.155	0.068
-173.954	51.995	0.112	0.107
-172.939	-6.594	0.034	0.023
-171.925	729.918	-0.092	0.247
-170.910	58.465	0.142	0.139
-169.896	-9.555	0.175	0.117
-168.881	-200.000	0.015	0.105
-167.866	-98.509	0.271	-0.069
-166.852	-50.016	-0.121	-0.057
-165.837	-21.424	-0.106	0.065
-164.823	-110.333	-0.147	-0.030
-163.808	328.903	-0.193	0.371
-162.793	254.752	-0.105	0.179
-161.779	12.399	-0.042	-0.032
-160.764	-142.635	-0.238	0.023
-159.750	-200.000	-0.037	-0.196
-158.735	-200.000	-0.078	-0.366
-157.720	13.032	-0.332	-0.256
-156.706	-130.954	0.457	-0.061
-155.691	-200.000	-0.006	0.167
-154.677	251.018	0.206	0.349
-153.662	-134.925	0.023	-0.003
-152.647	-75.221	-0.106	0.038
-151.633	-158.865	-0.309	0.018
-150.618	15.921	-0.072	-0.056
-149.604	-131.000	0.161	0.021
-148.589	-4.565	-0.203	0.140
-147.574	-200.000	0.027	-0.177
-146.560	-153.660	0.301	0.021
-145.545	800.000	-0.081	-0.322
-144.531	135.647	0.203	-0.264
-143.516	223.194	-0.137	-0.220
-142.502	-89.026	-0.409	-0.121
-141.487	187.766	-0.091	-0.135
-140.472	82.910	-0.062	0.067
-139.458	-85.749	-0.162	0.050
-138.443	257.619	0.201	-0.345
-137.429	22.031	-0.141	0.115
-136.414	-200.000	-0.029	0.172
-135.399	-193.576	0.182	0.002
-134.385	-78.001	-0.079	0.027
-133.370	231.234	0.331	0.540
-132.356	117.081	0.169	0.207
-131.341	166.687	0.072	-0.102
-130.326	294.269	0.069	-0.125
-129.312	-45.190	0.284	0.141
-128.297	41.840	0.016	-0.014
-127.283	-200.000	0.044	-0.323
-126.268	-64.719	0.190	-0.077
-125.253	-115.212	0.258	0.049
-124.239	-105.375	-0.115	-0.026
-123.224	-120.802	-0.173	-0.029
-122.210	97.494	-0.109	0.125
-121.195	-22.671	-0.195	-0.118
