DTS Sentinel unit serial number:	SN413079Multiplexer serial number:	ORYXHardware model number:	OX4-SRSoftware version number:	ORYX F/W v4.00 Oryx Data Collector v3.7.2.0data status	okinstallation	princeton_trtdifferential loss correction	single-endedforward channel	channel 1reverse channel	N/Adate	2019/09/12time	18:28:34forward acquisition time	15.00reverse acquisition time	0.00gamma	496.2192k internal	0.2318k external	0.2318temperature offset calibration	1.0109default loss term (dB/km)	0.3790temperature slope calibration	1.0000multiplexer offset coefficient	1.0000multiplexer slope coefficient	1.0000fibre end	0.00T internal ref (°C)	33.25T ext. ref 1 (°C)	2.93T ext. ref 2 (°C)	27.93length (m)	temperature (°C)	Stokes	anti-Stokes-747.200	-97.746	-0.425	-0.111
-746.185	-197.969	-0.582	-0.004
-745.171	-43.340	-0.484	0.248
-744.156	-200.000	-0.015	0.308
-743.142	-200.000	0.213	1.052
-742.127	11.671	-0.928	0.721
-741.112	-113.889	-0.143	-0.028
-740.098	248.771	0.257	-0.440
-739.083	-93.233	0.190	-0.054
-738.069	-147.630	0.398	0.034
-737.054	-63.350	0.109	0.045
-736.039	59.631	0.196	0.195
-735.025	-114.326	-0.939	0.183
-734.010	398.285	-0.064	-0.136
-732.996	-31.428	-0.325	0.185
-731.981	-117.456	-0.227	0.042
-730.966	196.556	-0.050	-0.077
-729.952	-3.711	0.506	-0.355
-728.937	699.470	0.176	-0.467
-727.923	-200.000	0.053	0.720
-726.908	150.914	0.473	-0.651
-725.894	-200.000	0.056	-0.821
-724.879	-83.048	0.560	0.183
-723.864	189.611	-0.116	-0.176
-722.850	800.000	-0.148	-0.451
-721.835	337.398	-0.062	-0.121
-720.821	62.979	0.121	-0.122
-719.806	42.315	-0.323	0.297
-718.791	-73.009	0.839	0.312
-717.777	94.296	-0.443	-0.508
-716.762	-38.936	0.838	-0.446
-715.748	137.064	0.268	0.354
-714.733	-200.000	-0.112	0.774
-713.718	-24.913	-0.643	-0.386
-712.704	-131.812	-1.172	-0.155
-711.689	-200.000	0.054	-0.725
-710.675	-38.244	-0.144	0.077
-709.660	-179.952	0.251	-0.005
-708.645	-132.230	0.757	-0.099
-707.631	-40.560	0.548	0.288
-706.616	141.072	-0.216	-0.288
-705.602	755.317	-0.249	-0.681
-704.587	-53.672	-0.483	0.223
-703.572	-98.163	-1.081	-0.281
-702.558	14.081	0.461	-0.363
-701.543	174.649	-0.159	-0.233
-700.529	145.359	-0.308	-0.417
-699.514	58.512	0.394	0.391
-698.499	-200.000	-0.092	-0.637
-697.485	-87.154	-0.567	0.174
-696.470	75.435	0.198	-0.211
-695.456	800.000	0.105	-0.379
-694.441	-200.000	0.131	-0.960
-693.426	-144.132	-0.664	0.063
-692.412	-200.000	0.098	-0.690
-691.397	-82.702	-0.502	0.164
-690.383	-200.000	0.036	-1.163
-689.368	-47.879	0.228	0.111
-688.354	-200.000	-0.063	-0.554
-687.339	-154.759	-0.519	0.035
-686.324	800.000	-0.157	-0.585
-685.310	61.670	-0.371	-0.373
-684.295	34.654	0.210	-0.185
-683.281	800.000	-0.173	-0.678
-682.266	145.583	0.120	-0.162
-681.251	-200.000	-0.142	0.957
-680.237	-56.149	0.299	-0.134
-679.222	-18.142	-0.382	-0.241
-678.208	-136.498	0.982	0.115
-677.193	31.545	-0.547	-0.474
-676.178	-138.220	-1.101	-0.123
-675.164	-34.900	-0.555	-0.306
-674.149	-191.657	-0.788	-0.008
-673.135	65.473	-0.598	0.611
-672.120	7.854	0.233	0.176
-671.105	-77.172	0.447	0.157
-670.091	-7.054	0.356	0.244
-669.076	297.404	-0.275	0.510
-668.062	654.321	0.033	0.086
-667.047	207.651	-0.227	-0.358
-666.032	800.000	-0.193	-0.676
-665.018	-20.537	0.279	0.173
-664.003	-51.965	-0.102	-0.048
-662.989	-97.751	0.403	0.105
-661.974	73.807	0.800	0.846
-660.959	-200.000	0.108	0.587
-659.945	275.927	-0.451	0.807
-658.930	403.946	0.076	-0.162
-657.916	800.000	0.139	0.448
-656.901	-200.000	-0.001	0.360
-655.886	800.000	0.252	0.711
-654.872	800.000	-0.115	0.406
-653.857	-200.000	0.065	-0.735
-652.843	800.000	-0.055	0.239
-651.828	-4.773	-0.639	0.444
-650.814	-67.622	0.041	0.016
-649.799	112.379	0.485	0.592
-648.784	800.000	-0.158	0.443
-647.770	-200.000	0.090	-0.695
-646.755	308.316	-0.212	-0.399
-645.741	562.400	0.094	-0.230
-644.726	51.375	0.604	-0.578
-643.711	135.355	-0.345	-0.452
-642.697	40.270	-0.423	-0.383
-641.682	-102.729	0.802	-0.193
-640.668	-0.631	-0.391	0.280
-639.653	-200.000	0.021	-0.563
-638.638	-89.055	0.955	-0.285
-637.624	-106.593	-0.095	-0.021
-636.609	-52.702	0.104	0.048
-635.595	-58.390	0.552	0.242
-634.580	269.132	-0.230	0.407
-633.565	-64.767	-0.218	-0.089
-632.551	-200.000	-0.061	-0.351
-631.536	439.735	0.277	-0.609
-630.522	-200.000	0.018	-0.307
-629.507	483.603	-0.285	0.653
-628.492	273.834	-0.227	0.405
-627.478	-45.163	-0.200	0.100
-626.463	-200.000	-0.024	-0.431
-625.449	-200.000	-0.037	0.541
-624.434	-87.586	0.391	-0.119
-623.419	-200.000	-0.075	-0.727
-622.405	367.792	0.288	-0.586
-621.390	226.487	-0.123	-0.201
-620.376	87.322	0.626	0.698
-619.361	-200.000	0.130	-0.794
-618.346	134.147	-0.456	-0.596
-617.332	-79.701	-0.406	0.138
-616.317	-185.807	0.495	0.007
-615.303	-129.576	0.303	0.042
-614.288	-65.528	-0.293	0.119
-613.273	240.377	-0.171	0.287
-612.259	-5.462	-0.160	-0.110
-611.244	-79.102	-0.348	-0.119
-610.230	198.730	-0.235	-0.363
-609.215	-200.000	-0.080	0.815
-608.201	249.199	-0.610	-1.041
-607.186	-200.000	0.062	0.510
-606.171	-200.000	0.054	0.405
-605.157	265.795	-0.166	-0.291
-604.142	-171.738	0.593	-0.020
-603.128	800.000	-0.179	0.722
-602.113	-200.000	0.113	1.047
-601.098	267.927	-0.328	-0.578
-600.084	-54.043	-0.420	0.192
-599.069	13.920	0.390	-0.306
-598.055	58.196	-0.505	-0.498
-597.040	248.441	-0.223	-0.380
-596.025	-70.929	0.830	-0.315
-595.011	-200.000	-0.010	-0.424
-593.996	-200.000	0.014	-0.221
-592.982	46.648	0.411	-0.384
-591.967	800.000	0.154	0.448
-590.952	-12.162	-0.291	0.192
-589.938	-77.082	-0.320	0.112
-588.923	-200.000	0.080	0.399
-587.909	118.237	-0.157	-0.195
-586.894	8.112	-0.427	-0.322
-585.879	800.000	-0.259	0.843
-584.865	637.918	0.021	0.054
-583.850	-31.844	-0.403	0.227
-582.836	8.463	0.561	-0.424
-581.821	-3.053	0.205	0.144
-580.806	-173.531	-0.572	-0.017
-579.792	-78.592	0.470	-0.162
-578.777	-90.201	0.437	0.128
-577.763	75.166	-0.774	-0.820
-576.748	27.412	0.594	0.502
-575.733	-109.792	-0.395	-0.083
-574.719	-39.325	-0.511	0.269
-573.704	153.352	-0.411	-0.565
-572.690	-200.000	0.099	1.053
-571.675	496.307	-0.250	0.577
-570.661	502.660	-0.337	0.784
-569.646	242.538	0.185	0.312
-568.631	213.342	0.260	-0.413
-567.617	232.022	0.400	-0.660
-566.602	198.102	-0.081	-0.124
-565.588	-104.799	0.403	0.093
-564.573	-200.000	0.000	0.685
-563.558	46.211	0.774	-0.721
-562.544	-200.000	-0.142	-0.674
-561.529	800.000	0.144	0.460
-560.515	-159.660	0.483	0.027
-559.500	607.830	-0.334	0.838
-558.485	-189.699	-0.275	0.003
-557.471	-34.789	0.181	-0.099
-556.456	-200.000	-0.007	0.352
-555.442	13.951	-0.370	0.289
-554.427	-198.294	0.256	0.001
-553.412	-67.548	-0.455	-0.179
-552.398	195.496	0.055	-0.085
-551.383	-112.379	0.657	-0.132
-550.369	-200.000	0.070	-0.436
-549.354	25.899	-0.430	0.360
-548.339	126.060	-0.313	0.398
-547.325	-200.000	-0.051	0.593
-546.310	280.342	0.123	-0.221
-545.296	69.921	-0.269	0.278
-544.281	61.915	-0.420	-0.421
-543.266	-170.609	0.788	-0.027
-542.252	800.000	-0.115	0.500
-541.237	488.748	0.168	-0.385
-540.223	32.190	-0.778	-0.674
-539.208	6.669	-0.595	0.444
-538.193	-31.834	0.318	0.179
-537.179	800.000	0.172	-0.527
-536.164	-78.334	0.491	0.169
-535.150	-45.033	0.304	-0.152
-534.135	-200.000	0.092	1.011
-533.121	-91.013	-0.317	0.091
-532.106	-153.706	-0.838	0.058
-531.091	800.000	0.082	-0.277
-530.077	-88.988	0.542	-0.161
-529.062	-65.880	0.884	0.355
-528.048	552.322	-0.339	-0.818
-527.033	191.561	0.372	-0.563
-526.018	-200.000	0.061	0.529
-525.004	-144.133	-0.344	-0.032
-523.989	-200.000	-0.028	0.171
-522.975	-28.210	-0.642	-0.372
-521.960	63.910	-0.551	-0.556
-520.945	-140.036	-0.359	0.038
-519.931	-87.707	-0.519	-0.157
-518.916	-200.000	0.051	0.450
-517.902	-12.430	0.634	-0.416
-516.887	493.772	-0.157	0.360
-515.872	98.339	0.169	0.195
-514.858	621.910	0.253	-0.638
-513.843	-200.000	-0.769	-0.002
-512.829	697.277	-0.283	-0.745
-511.814	-200.000	-0.004	-0.625
-510.799	24.781	-0.974	0.810
-509.785	233.959	-0.160	0.264
-508.770	-179.207	-0.258	0.006
-507.756	-55.170	-0.564	0.255
-506.741	-159.435	0.123	0.007
-505.726	-200.000	0.023	0.368
-504.712	-14.530	-0.453	0.292
-503.697	-200.000	0.093	-0.609
-502.683	-134.504	-0.311	-0.038
-501.668	21.527	-0.557	-0.454
-500.653	-102.181	0.447	0.108
-499.639	126.968	0.139	0.176
-498.624	-200.000	0.108	0.507
-497.610	324.062	0.124	0.238
-496.595	611.224	0.175	-0.438
-495.581	-86.436	-0.437	0.135
-494.566	128.126	-0.193	-0.247
-493.551	-91.461	0.296	-0.085
-492.537	-61.847	-0.388	-0.163
-491.522	-157.121	0.981	0.060
-490.508	789.297	-0.200	0.550
-489.493	-126.829	-0.877	-0.130
-488.478	-200.000	-0.036	-0.585
-487.464	71.784	-0.565	-0.588
-486.449	24.858	1.110	0.922
-485.435	-88.090	0.179	0.054
-484.420	-200.000	0.089	0.441
-483.405	-200.000	-0.012	0.677
-482.391	37.115	-0.629	-0.558
-481.376	800.000	0.158	-0.628
-480.362	-19.414	-0.405	0.252
-479.347	-1.713	0.364	-0.257
-478.332	34.169	-0.173	-0.151
-477.318	388.047	-0.429	-0.889
-476.303	-16.850	0.238	-0.150
-475.289	-200.000	-0.056	-0.250
-474.274	-74.986	-0.440	-0.158
-473.259	-6.633	-0.388	-0.265
-472.245	47.877	-0.556	0.520
-471.230	16.604	0.281	-0.223
-470.216	800.000	0.276	0.959
-469.201	-80.103	0.926	0.311
-468.186	-174.569	-0.084	0.002
-467.172	-148.963	-0.247	0.020
-466.157	36.122	0.367	0.324
-465.143	388.824	0.208	-0.432
-464.128	105.821	0.135	0.160
-463.113	-200.000	0.171	0.966
-462.099	-33.558	0.556	0.308
-461.084	-200.000	-0.043	0.272
-460.070	-200.000	-0.031	0.567
-459.055	626.881	-0.173	0.437
-458.040	602.109	-0.190	0.473
-457.026	55.788	-0.320	-0.310
-456.011	-62.021	-0.406	-0.170
-454.997	-0.699	-0.342	0.242
-453.982	109.869	-0.534	-0.640
-452.968	-53.055	-0.153	0.070
-451.953	-48.717	-0.511	0.245
-450.938	132.835	-0.308	-0.397
-449.924	-28.267	0.247	-0.143
-448.909	-18.146	-0.590	0.370
-447.895	574.037	0.197	0.481
-446.880	57.399	0.447	0.436
-445.865	354.656	0.192	-0.381
-444.851	-85.779	-0.042	0.013
-443.836	230.742	-0.265	0.433
-442.822	-200.000	0.048	-0.293
-441.807	238.244	-0.106	-0.177
-440.792	-12.171	-1.017	0.666
-439.778	64.551	-0.277	0.279
-438.763	-113.906	-0.330	-0.064
-437.749	-69.603	-0.159	0.061
-436.734	-200.000	0.113	0.529
-435.719	70.585	0.472	-0.489
-434.705	-87.223	0.351	0.107
-433.690	-200.000	-0.061	0.443
-432.676	98.102	0.676	-0.779
-431.661	-66.846	-1.004	0.397
-430.646	-200.000	0.019	-0.094
-429.632	-121.967	0.199	0.033
-428.617	-161.534	0.509	-0.026
-427.603	-106.014	0.151	0.034
-426.588	6.191	-0.559	-0.414
-425.573	800.000	0.107	-0.300
-424.559	-69.030	-0.201	-0.078
-423.544	87.781	0.240	-0.265
-422.530	138.626	0.073	0.096
-421.515	460.613	-0.180	-0.402
-420.500	-200.000	-0.008	-0.205
-419.486	-200.000	0.078	-0.512
-418.471	-125.629	0.560	0.085
-417.457	9.038	-0.081	0.061
-416.442	-185.031	0.325	-0.005
-415.428	-81.756	0.680	-0.223
-414.413	1.562	0.286	0.206
-413.398	-93.200	0.213	-0.059
-412.384	-200.000	0.016	-0.515
-411.369	-60.133	-0.755	0.322
-410.355	533.456	-0.092	0.219
-409.340	-200.000	-0.043	-0.274
-408.325	8.656	-0.333	0.251
-407.311	-111.282	0.361	0.074
-406.296	575.820	-0.128	-0.313
-405.282	54.741	0.290	-0.280
-404.267	-144.193	0.730	0.068
-403.252	-144.027	0.681	0.064
-402.238	-7.863	-0.342	-0.230
-401.223	-103.452	-0.168	0.039
-400.209	-200.000	0.154	0.923
-399.194	-14.310	0.199	-0.128
-398.179	439.883	-0.267	-0.583
-397.165	-176.145	-0.415	0.011
-396.150	-148.614	-0.281	0.023
-395.136	6.816	0.403	0.300
-394.121	4.515	0.793	-0.581
-393.106	-200.000	-0.025	-0.299
-392.092	-76.732	0.068	-0.024
-391.077	161.798	0.300	-0.419
-390.063	0.700	0.358	-0.256
-389.048	-126.235	0.537	-0.080
-388.033	-200.000	0.014	0.208
-387.019	-49.352	-0.933	-0.444
-386.004	143.176	0.235	-0.312
-384.990	-157.906	-0.382	-0.023
-383.975	5.553	-0.345	0.254
-382.960	-188.745	-0.965	0.012
-381.946	800.000	-0.168	0.464
-380.931	305.190	0.391	0.724
-379.917	145.593	0.453	-0.606
-378.902	-15.639	-0.645	0.411
-377.888	199.860	-0.153	-0.235
-376.873	-96.597	-0.564	0.148
-375.858	29.792	0.201	-0.171
-374.844	160.038	0.296	-0.412
-373.829	73.432	0.094	0.098
-372.815	800.000	0.303	-1.153
-371.800	-200.000	-0.100	-0.608
-370.785	15.899	0.729	-0.572
-369.771	37.691	0.481	0.426
-368.756	22.991	0.231	0.189
-367.742	-200.000	-0.033	0.442
-366.727	800.000	0.191	-0.605
-365.712	3.939	0.501	0.365
-364.698	-200.000	0.147	0.759
-363.683	-135.635	0.382	-0.045
-362.669	84.437	0.397	0.433
-361.654	-200.000	-0.054	0.514
-360.639	-145.558	0.638	-0.057
-359.625	61.330	-0.336	-0.333
-358.610	-136.772	-0.309	0.036
-357.596	-43.984	-0.327	-0.164
-356.581	-27.569	0.303	-0.175
-355.566	-200.000	0.041	0.772
-354.552	326.297	0.422	0.806
-353.537	800.000	0.050	-0.213
-352.523	74.479	0.580	0.608
-351.508	-36.123	0.874	-0.471
-350.493	-200.000	0.150	0.888
-349.479	-200.000	-0.040	0.754
-348.464	157.697	-0.084	-0.116
-347.450	101.372	-0.172	0.200
-346.435	-200.000	0.124	-0.584
-345.420	87.805	0.320	0.353
-344.406	-200.000	-0.070	0.478
-343.391	-178.355	0.266	0.006
-342.377	-95.974	0.737	0.196
-341.362	56.266	0.230	0.223
-340.348	76.811	-0.665	0.703
-339.333	-74.127	-0.407	0.147
-338.318	-200.000	0.086	0.498
-337.304	81.690	0.256	0.276
-336.289	439.991	-0.094	-0.204
-335.275	135.008	-0.226	0.293
-334.260	105.948	0.246	0.290
-333.245	-58.308	0.370	0.160
-332.231	-124.919	-0.531	0.081
-331.216	-200.000	-0.162	0.724
-330.202	168.194	0.498	-0.706
-329.187	800.000	-0.349	0.979
-328.172	800.000	0.161	-0.487
-327.158	800.000	-0.104	-0.344
-326.143	497.242	-0.184	0.422
-325.129	-84.129	-0.676	0.214
-324.114	-24.041	0.804	0.479
-323.099	-69.187	1.412	-0.541
-322.085	-120.706	0.236	0.040
-321.070	800.000	0.227	-0.774
-320.056	13.973	-0.052	-0.041
-319.041	-164.860	0.504	0.023
-318.026	248.510	0.227	0.382
-317.012	-103.687	-1.170	0.273
-315.997	-59.518	0.731	0.312
-314.983	271.038	-0.325	-0.570
-313.968	-161.910	0.418	0.021
-312.953	260.581	-0.346	-0.595
-311.939	-152.759	0.102	-0.007
-310.924	-200.000	-0.019	0.178
-309.910	-4.036	-0.501	-0.346
-308.895	86.821	-0.133	-0.146
-307.880	-23.259	0.653	0.391
-306.866	-90.534	-0.504	0.145
-305.851	-200.000	-0.083	-1.068
-304.837	167.348	0.137	0.194
-303.822	103.845	-0.779	-0.910
-302.807	789.660	-0.174	-0.474
-301.793	13.353	0.616	0.475
-300.778	422.582	0.223	-0.476
-299.764	287.058	0.212	-0.381
-298.749	-56.043	-0.122	-0.054
-297.735	800.000	-0.122	0.521
-296.720	5.146	-0.887	0.650
-295.705	54.946	-1.037	0.996
-294.691	-37.359	0.647	0.344
-293.676	-8.768	0.053	-0.035
-292.662	-200.000	0.073	-1.088
-291.647	-200.000	0.068	-0.570
-290.632	122.077	-0.286	0.355
-289.618	-159.357	-0.349	0.019
-288.603	216.715	-0.360	-0.569
-287.589	-91.171	-0.605	-0.172
-286.574	-47.498	-0.073	0.035
-285.559	25.915	-0.460	0.382
-284.545	102.569	0.482	0.561
-283.530	704.161	0.119	0.313
-282.516	116.581	-0.225	0.275
-281.501	-62.042	-0.515	-0.214
-280.486	292.496	-0.475	0.860
-279.472	800.000	0.241	-0.662
-278.457	-190.197	0.892	-0.010
-277.443	-76.528	-0.715	-0.249
-276.428	-84.721	0.654	-0.204
-275.413	172.462	-0.391	-0.560
-274.399	665.832	-0.189	0.486
-273.384	-123.118	-0.204	-0.033
-272.370	800.000	-0.354	1.168
-271.355	-200.000	0.031	-0.416
-270.340	643.334	-0.141	-0.358
-269.326	678.844	-0.254	-0.657
-268.311	-126.793	0.565	0.083
-267.297	218.765	0.489	-0.776
-266.282	-200.000	0.056	-0.433
-265.267	-66.843	-0.202	-0.080
-264.253	-154.664	-0.280	0.018
-263.238	-131.993	0.121	-0.016
-262.224	-6.098	-1.268	0.861
-261.209	-17.124	0.333	0.208
-260.195	411.150	0.411	-0.867
-259.180	-200.000	-0.041	-0.880
-258.165	800.000	-0.090	0.392
-257.151	294.088	0.554	-1.005
-256.136	107.981	0.232	0.274
-255.122	-124.419	-0.458	-0.071
-254.107	-78.379	0.181	0.062
-253.092	-113.527	0.156	-0.030
-252.078	-156.988	-0.255	-0.016
-251.063	-31.794	-0.971	-0.540
-250.049	-25.425	0.014	-0.008
-249.034	-37.173	-0.871	-0.463
-248.019	147.327	-0.480	0.642
-247.005	-42.853	-0.257	-0.130
-245.990	151.929	-0.251	-0.340
-244.976	57.171	0.633	-0.613
-243.961	-31.077	-0.378	0.212
-242.946	-56.459	-1.107	-0.488
-241.932	-64.910	0.362	0.145
-240.917	46.322	-0.400	0.368
-239.903	-200.000	-0.056	-0.421
-238.888	285.234	0.244	-0.437
-237.873	-200.000	0.008	-0.378
-236.859	31.953	0.228	0.195
-235.844	-200.000	0.054	-0.757
-234.830	-200.000	-0.041	0.973
-233.815	-129.177	0.660	0.091
-232.800	658.794	-0.110	-0.281
-231.786	-80.597	-0.185	-0.061
-230.771	-127.016	-0.651	0.095
-229.757	-26.719	-0.549	0.319
-228.742	-2.752	0.409	0.283
-227.727	-58.324	1.035	0.447
-226.713	-200.000	0.127	0.723
-225.698	800.000	-0.175	-0.502
-224.684	386.986	0.104	0.213
-223.669	-43.925	1.129	0.563
-222.655	-127.577	-0.176	0.025
-221.640	24.583	-0.161	-0.132
-220.625	-200.000	-0.112	-0.602
-219.611	800.000	0.057	-0.240
-218.596	-200.000	0.030	-0.275
-217.582	-106.093	-0.554	-0.124
-216.567	69.477	0.192	0.196
-215.552	496.970	0.325	-0.740
-214.538	-57.473	-0.392	0.170
-213.523	-14.317	-0.643	0.410
-212.509	-200.000	-0.025	0.741
-211.494	-89.371	0.073	-0.021
-210.479	36.548	-0.483	0.423
-209.465	-167.290	0.521	0.021
-208.450	25.666	-0.317	-0.262
-207.436	-200.000	-0.060	-1.131
-206.421	800.000	0.153	0.500
-205.406	-200.000	0.003	0.152
-204.392	100.039	0.301	-0.346
-203.377	-200.000	0.189	0.860
-202.363	-152.267	0.453	-0.032
-201.348	-73.655	-0.175	0.063
-200.333	-105.244	0.248	-0.056
-199.319	747.492	0.163	-0.435
-198.304	-146.514	-0.295	-0.025
-197.290	75.204	0.507	-0.530
-196.275	-200.000	0.036	-0.320
-195.260	-97.704	-0.651	0.167
-194.246	211.191	0.149	-0.232
-193.231	-122.981	0.308	-0.049
-192.217	103.259	0.259	0.301
-191.202	-200.000	0.262	1.196
-190.187	-96.810	0.422	-0.110
-189.173	-200.000	-0.013	-0.469
-188.158	162.148	-0.392	0.544
-187.144	242.398	0.531	-0.880
-186.129	-120.138	0.557	-0.094
-185.114	-121.675	0.535	-0.088
-184.100	-83.726	0.827	-0.261
-183.085	522.900	0.144	-0.336
-182.071	-200.000	0.080	0.989
-181.056	-200.000	0.056	0.287
-180.042	-85.290	-0.272	-0.084
-179.027	-151.418	0.256	-0.019
-178.012	800.000	-0.238	0.953
-176.998	-126.728	-1.059	-0.155
-175.983	-200.000	0.013	0.223
-174.969	-81.864	-1.124	-0.364
-173.954	-71.655	0.352	0.130
-172.939	-200.000	0.139	0.738
-171.925	-61.872	0.444	0.184
-170.910	-3.500	0.547	0.376
-169.896	133.098	-0.120	0.153
-168.881	26.023	-0.520	-0.429
-167.866	79.160	0.227	-0.241
-166.852	612.564	-0.254	0.628
-165.837	330.120	0.454	-0.864
-164.823	-154.916	0.890	0.058
-163.808	236.465	0.627	1.026
-162.793	35.614	0.629	-0.547
-161.779	-200.000	-0.106	-0.542
-160.764	-200.000	0.113	-0.523
-159.750	-100.578	0.454	-0.111
-158.735	-14.025	0.358	-0.228
-157.720	154.202	-0.174	0.236
-156.706	-200.000	0.043	0.341
-155.691	-200.000	-0.028	-0.514
-154.677	-50.963	-0.589	0.273
-153.662	-200.000	0.489	-0.001
-152.647	137.774	-0.175	0.227
-151.633	800.000	-0.190	0.601
-150.618	-200.000	0.162	0.770
-149.604	687.631	-0.354	-0.916
-148.589	354.779	0.289	-0.567
-147.574	800.000	-0.113	-0.363
-146.560	-69.220	0.609	-0.232
-145.545	-200.000	0.014	-0.764
-144.531	61.937	-0.534	-0.526
-143.516	25.044	-0.370	-0.304
-142.502	-200.000	-0.035	-0.253
-141.487	735.557	0.445	-1.179
-140.472	-124.282	0.349	0.054
-139.458	41.803	0.146	0.131
-138.443	-200.000	0.045	0.438
-137.429	-5.400	0.685	-0.465
-136.414	380.246	-0.244	0.494
-135.399	220.291	-0.103	-0.164
-134.385	25.733	-0.660	0.543
-133.370	491.866	0.175	-0.395
-132.356	202.912	0.771	-1.178
-131.341	-130.364	-0.670	0.090
-130.326	-200.000	-0.057	0.923
-129.312	227.648	0.292	0.469
-128.297	-87.484	-0.656	-0.196
-127.283	-132.615	0.238	0.030
-126.268	90.991	0.577	0.640
-125.253	66.793	0.586	-0.589
-124.239	65.577	0.695	0.695
-123.224	10.305	-0.325	-0.245
-122.210	-200.000	-0.104	-0.820
-121.195	649.247	0.260	0.658
