DTS Sentinel unit serial number:	SN413079Multiplexer serial number:	ORYXHardware model number:	OX4-SRSoftware version number:	ORYX F/W v4.00 Oryx Data Collector v3.7.2.0data status	okinstallation	princeton_trtdifferential loss correction	single-endedforward channel	channel 1reverse channel	N/Adate	2019/09/17time	12:58:35forward acquisition time	60.00reverse acquisition time	0.00gamma	496.2192k internal	0.2314k external	0.2314temperature offset calibration	0.9967default loss term (dB/km)	0.3790temperature slope calibration	1.0000multiplexer offset coefficient	1.0000multiplexer slope coefficient	1.0000fibre end	0.00T internal ref (°C)	33.25T ext. ref 1 (°C)	0.44T ext. ref 2 (°C)	31.47length (m)	temperature (°C)	Stokes	anti-Stokes-747.200	77.471	-0.104	-0.112
-746.185	-49.598	-0.418	0.202
-745.171	800.000	-0.081	0.252
-744.156	-200.000	0.055	-0.275
-743.142	-200.000	-0.070	0.321
-742.127	800.000	0.033	0.096
-741.112	165.320	0.032	-0.046
-740.098	-118.164	0.140	0.025
-739.083	45.048	0.064	0.060
-738.069	-200.000	-0.001	-0.030
-737.054	-127.509	0.152	-0.022
-736.039	800.000	0.117	0.488
-735.025	800.000	0.051	0.145
-734.010	124.025	-0.158	-0.201
-732.996	-75.047	0.101	0.037
-731.981	-77.361	-0.259	-0.091
-730.966	800.000	0.087	0.287
-729.952	-128.061	0.046	-0.007
-728.937	800.000	-0.108	-0.385
-727.923	74.762	-0.279	-0.298
-726.908	-156.731	-0.232	0.015
-725.894	204.834	-0.170	-0.268
-724.879	357.074	0.037	0.075
-723.864	389.836	0.005	-0.010
-722.850	-77.407	0.256	-0.090
-721.835	-63.138	-0.174	0.073
-720.821	-37.662	-0.135	0.073
-719.806	-200.000	-0.053	-0.313
-718.791	386.215	-0.171	0.357
-717.777	-200.000	-0.004	-0.259
-716.762	40.289	0.195	-0.177
-715.748	85.744	0.069	-0.077
-714.733	-47.654	-0.370	0.182
-713.718	-200.000	0.008	-0.131
-712.704	194.791	-0.142	0.218
-711.689	39.472	-0.210	0.191
-710.675	-22.726	-0.180	0.110
-709.660	-200.000	-0.031	0.283
-708.645	276.514	-0.143	-0.258
-707.631	215.908	0.201	-0.323
-706.616	-71.612	-0.405	-0.153
-705.602	18.956	-0.310	0.252
-704.587	-74.674	-0.141	-0.051
-703.572	118.896	-0.101	-0.126
-702.558	63.960	-0.095	0.096
-701.543	254.054	-0.078	-0.135
-700.529	-95.929	-0.143	-0.038
-699.514	-200.000	-0.023	-0.114
-698.499	-200.000	-0.010	-0.229
-697.485	55.330	0.027	-0.027
-696.470	-73.446	0.336	0.124
-695.456	-200.000	-0.020	-0.281
-694.441	-200.000	0.050	0.368
-693.426	77.912	0.045	0.048
-692.412	-200.000	0.010	0.251
-691.397	-53.514	-0.251	0.116
-690.383	-54.948	0.442	-0.202
-689.368	78.896	0.068	0.073
-688.354	-93.094	0.109	-0.031
-687.339	-33.986	-0.054	-0.030
-686.324	-88.178	-0.060	0.018
-685.310	-142.244	0.357	0.036
-684.295	800.000	-0.111	0.382
-683.281	-88.075	-0.149	0.045
-682.266	4.390	0.105	-0.078
-681.251	-200.000	0.011	-0.195
-680.237	-200.000	-0.031	0.218
-679.222	230.453	0.123	0.204
-678.208	-126.670	-0.469	0.070
-677.193	-18.676	-0.244	0.154
-676.178	154.571	-0.196	-0.272
-675.164	25.337	0.170	0.143
-674.149	-9.587	-0.076	0.051
-673.135	-200.000	0.038	0.168
-672.120	-128.020	0.126	-0.018
-671.105	60.538	-0.132	-0.132
-670.091	-121.484	-0.407	0.068
-669.076	-128.012	0.219	0.032
-668.062	-82.711	-0.283	-0.092
-667.047	-13.853	0.175	0.114
-666.032	-200.000	0.001	-0.141
-665.018	-144.927	0.128	0.012
-664.003	454.996	-0.115	-0.259
-662.989	-200.000	-0.125	-0.001
-661.974	244.665	0.256	-0.435
-660.959	192.711	-0.100	-0.152
-659.945	105.852	0.151	0.181
-658.930	-200.000	0.051	0.240
-657.916	257.319	0.088	0.152
-656.901	44.132	0.201	0.186
-655.886	-200.000	0.012	0.256
-654.872	800.000	0.021	-0.086
-653.857	10.920	0.559	-0.431
-652.843	214.055	0.080	-0.128
-651.828	-200.000	0.016	0.298
-650.814	-51.377	-0.195	-0.092
-649.799	188.795	-0.125	0.190
-648.784	-200.000	0.014	0.183
-647.770	81.183	0.314	0.343
-646.755	-200.000	-0.009	-0.213
-645.741	108.127	0.032	-0.038
-644.726	-200.000	0.025	-0.178
-643.711	-200.000	-0.034	-0.172
-642.697	800.000	0.020	0.059
-641.682	337.253	-0.092	-0.180
-640.668	-200.000	-0.050	0.378
-639.653	742.306	0.110	0.300
-638.638	-42.819	-0.213	0.109
-637.624	800.000	0.055	-0.218
-636.609	800.000	-0.043	-0.146
-635.595	-200.000	0.039	-0.312
-634.580	63.402	-0.155	-0.157
-633.565	3.782	-0.053	-0.039
-632.551	-55.802	-0.298	-0.135
-631.536	155.382	-0.150	0.209
-630.522	-41.375	0.258	-0.134
-629.507	-70.173	-0.296	-0.114
-628.492	22.986	-0.217	0.180
-627.478	243.834	0.060	-0.102
-626.463	-108.536	0.300	0.065
-625.449	800.000	-0.020	-0.073
-624.434	756.330	0.023	0.064
-623.419	-159.877	0.440	-0.024
-622.405	123.429	-0.231	-0.292
-621.390	0.361	-0.210	-0.151
-620.376	393.211	0.173	-0.363
-619.361	449.845	0.074	0.164
-618.346	82.920	0.149	0.164
-617.332	337.992	-0.116	0.229
-616.317	-7.274	0.212	0.145
-615.303	101.944	-0.238	-0.280
-614.288	-37.584	0.254	-0.137
-613.273	-35.902	-0.381	-0.208
-612.259	-200.000	-0.006	-0.071
-611.244	181.799	-0.047	-0.070
-610.230	-200.000	-0.008	0.070
-609.215	-200.000	0.045	-0.256
-608.201	-44.952	0.116	0.058
-607.186	800.000	0.044	-0.149
-606.171	121.943	0.192	0.242
-605.157	-38.884	-0.197	0.105
-604.142	-98.157	-0.129	0.034
-603.128	-128.300	-0.198	0.028
-602.113	353.645	-0.073	0.146
-601.098	36.310	0.129	0.115
-600.084	57.646	0.282	0.278
-599.069	155.257	0.117	0.163
-598.055	64.863	-0.267	0.272
-597.040	-200.000	-0.003	-0.034
-596.025	-148.633	-0.345	0.028
-595.011	800.000	0.102	-0.320
-593.996	306.314	0.109	0.205
-592.982	-88.477	0.325	-0.098
-591.967	-200.000	-0.050	-0.233
-590.952	104.008	-0.240	0.285
-589.938	155.384	0.073	-0.101
-588.923	-200.000	0.066	-0.296
-587.909	-147.954	0.160	-0.013
-586.894	-110.290	-0.306	-0.064
-585.879	23.696	0.078	-0.065
-584.865	230.939	-0.032	0.053
-583.850	777.771	0.065	0.178
-582.836	-200.000	-0.018	-0.236
-581.821	-200.000	0.003	0.073
-580.806	-200.000	-0.005	0.077
-579.792	-19.405	-0.339	0.212
-578.777	503.074	0.028	0.065
-577.763	99.996	-0.192	-0.225
-576.748	0.673	0.217	-0.156
-575.733	-161.858	-0.409	0.021
-574.719	7.159	0.175	0.132
-573.704	-38.175	0.160	-0.085
-572.690	-199.687	-0.402	0.002
-571.675	270.597	0.090	-0.159
-570.661	-106.233	-0.160	0.036
-569.646	-72.315	0.214	-0.080
-568.631	800.000	-0.077	-0.285
-567.617	328.950	0.091	-0.177
-566.602	-200.000	0.015	-0.296
-565.588	-30.855	-0.074	0.042
-564.573	261.188	0.050	0.087
-563.558	-88.641	0.117	0.035
-562.544	180.408	0.180	0.266
-561.529	510.276	0.106	-0.249
-560.515	-41.655	-0.171	-0.089
-559.500	800.000	0.021	0.067
-558.485	-37.053	-0.130	-0.070
-557.471	176.519	-0.135	-0.198
-556.456	-16.608	-0.176	-0.112
-555.442	304.078	-0.132	0.246
-554.427	103.780	0.136	-0.160
-553.412	-200.000	0.005	0.368
-552.398	116.851	-0.142	-0.175
-551.383	-133.257	-0.015	0.002
-550.369	-56.076	-0.298	0.134
-549.354	196.737	-0.118	-0.181
-548.339	22.323	-0.085	0.070
-547.325	800.000	-0.048	0.168
-546.310	-99.556	-0.231	-0.058
-545.296	-20.742	0.151	-0.093
-544.281	31.463	-0.118	-0.102
-543.266	-59.036	0.066	0.029
-542.252	-81.211	-0.421	-0.140
-541.237	244.984	0.112	-0.190
-540.223	-200.000	0.017	0.078
-539.208	280.193	-0.149	0.268
-538.193	-169.767	-0.504	-0.018
-537.179	7.554	-0.022	0.017
-536.164	-139.106	-0.160	-0.017
-535.150	-200.000	0.058	0.386
-534.135	30.204	-0.071	-0.061
-533.121	-86.967	0.188	-0.058
-532.106	-85.936	-0.059	-0.018
-531.091	98.277	-0.136	0.157
-530.077	-37.121	0.265	-0.143
-529.062	-110.281	-0.127	-0.027
-528.048	-31.804	0.262	-0.148
-527.033	-145.596	-0.063	-0.006
-526.018	-54.415	0.068	0.031
-525.004	-161.309	0.113	0.006
-523.989	346.912	-0.064	0.126
-522.975	692.975	-0.013	0.034
-521.960	758.708	-0.140	0.382
-520.945	-105.972	-0.130	0.029
-519.931	-114.648	0.219	-0.042
-518.916	800.000	0.044	-0.175
-517.902	800.000	-0.081	-0.265
-516.887	-85.320	0.190	-0.060
-515.872	201.953	0.113	0.176
-514.858	-44.690	-0.102	-0.051
-513.843	-144.576	-0.507	0.047
-512.829	800.000	-0.050	-0.195
-511.814	37.697	0.218	0.195
-510.799	-12.168	0.297	0.195
-509.785	-120.682	-0.282	0.048
-508.770	97.449	0.209	0.241
-507.756	800.000	-0.008	0.027
-506.741	-200.000	-0.068	-0.322
-505.726	57.772	-0.202	0.198
-504.712	382.292	-0.103	0.214
-503.697	-200.000	-0.034	-0.258
-502.683	172.456	-0.040	0.057
-501.668	-200.000	0.012	-0.055
-500.653	-200.000	0.018	0.089
-499.639	292.457	0.105	-0.192
-498.624	-190.884	0.143	-0.002
-497.610	-109.937	0.171	-0.036
-496.595	-62.688	0.088	-0.037
-495.581	-89.447	0.500	0.148
-494.566	3.210	0.171	0.125
-493.551	-200.000	-0.010	0.143
-492.537	800.000	-0.014	-0.060
-491.522	57.048	0.052	-0.051
-490.508	-43.196	0.136	-0.069
-489.493	-99.968	-0.139	0.035
-488.478	-16.598	0.238	-0.151
-487.464	-16.016	-0.243	0.155
-486.449	335.404	0.088	-0.171
-485.435	781.129	0.099	0.273
-484.420	-56.203	0.251	0.112
-483.405	75.145	-0.244	0.258
-482.391	-80.696	-0.297	-0.099
-481.376	-200.000	0.011	0.094
-480.362	371.446	-0.094	0.190
-479.347	-160.550	0.122	0.007
-478.332	81.813	0.214	0.233
-477.318	31.907	0.059	0.051
-476.303	-200.000	-0.042	-0.330
-475.289	108.771	0.129	-0.155
-474.274	89.698	-0.023	-0.025
-473.259	144.364	-0.062	0.083
-472.245	53.048	0.120	0.115
-471.230	16.473	0.156	0.124
-470.216	-21.878	0.221	-0.135
-469.201	-73.821	-0.118	-0.043
-468.186	-200.000	-0.026	0.132
-467.172	15.615	-0.088	-0.069
-466.157	-134.489	0.370	0.045
-465.143	45.851	-0.229	-0.212
-464.128	-200.000	-0.031	-0.209
-463.113	-135.057	-0.045	0.005
-462.099	-90.081	-0.200	-0.059
-461.084	-25.067	-0.200	0.119
-460.070	372.271	0.096	0.196
-459.055	607.645	0.123	-0.307
-458.040	-61.497	-0.174	-0.073
-457.026	-60.114	-0.288	-0.123
-456.011	-200.000	-0.033	0.193
-454.997	-200.000	0.007	0.300
-453.982	771.106	0.028	0.076
-452.968	156.811	0.065	-0.091
-451.953	-12.229	-0.211	-0.138
-450.938	202.936	0.147	-0.228
-449.924	185.368	0.116	0.172
-448.909	-200.000	-0.018	-0.261
-447.895	-66.693	0.198	0.078
-446.880	-170.737	-0.215	0.007
-445.865	800.000	-0.079	0.241
-444.851	214.317	0.136	-0.216
-443.836	-200.000	0.041	0.430
-442.822	-200.000	-0.027	0.159
-441.807	-27.106	0.136	0.080
-440.792	-200.000	0.020	0.163
-439.778	800.000	0.077	-0.264
-438.763	-14.909	0.318	-0.205
-437.749	-177.562	0.072	0.002
-436.734	-61.508	0.351	0.148
-435.719	-37.838	-0.100	-0.053
-434.705	-130.622	-0.141	-0.019
-433.690	81.463	-0.182	0.197
-432.676	-200.000	0.068	0.359
-431.661	453.190	-0.158	-0.350
-430.646	-77.244	0.495	0.172
-429.632	348.809	-0.050	0.100
-428.617	-200.000	-0.003	-0.299
-427.603	361.996	-0.097	0.195
-426.588	-200.000	-0.007	0.318
-425.573	-200.000	-0.038	-0.220
-424.559	-109.170	0.220	-0.047
-423.544	-45.877	-0.255	-0.126
-422.530	69.732	0.170	-0.175
-421.515	64.358	0.383	0.386
-420.500	119.864	0.249	0.309
-419.486	186.889	-0.113	-0.168
-418.471	80.911	-0.160	0.173
-417.457	74.175	0.047	-0.049
-416.442	800.000	0.042	0.159
-415.428	50.086	0.089	0.084
-414.413	800.000	-0.035	0.133
-413.398	-200.000	0.039	0.214
-412.384	-200.000	0.007	-0.183
-411.369	-155.601	-0.148	-0.010
-410.355	-64.770	0.176	-0.071
-409.340	-200.000	-0.016	-0.223
-408.325	-106.707	0.288	0.064
-407.311	124.986	-0.111	0.141
-406.296	-200.000	0.006	0.081
-405.282	19.799	0.141	-0.113
-404.267	-200.000	0.038	0.206
-403.252	53.311	-0.125	-0.120
-402.238	2.395	-0.065	-0.047
-401.223	-98.062	-0.310	-0.080
-400.209	-200.000	0.074	-0.536
-399.194	123.658	0.133	-0.167
-398.179	-185.627	0.608	0.009
-397.165	-33.011	-0.176	-0.098
-396.150	34.042	-0.090	0.078
-395.136	27.195	-0.077	-0.064
-394.121	751.324	0.058	-0.155
-393.106	-49.619	0.163	-0.078
-392.092	-25.809	-0.371	0.219
-391.077	65.888	-0.268	-0.272
-390.063	-137.236	0.093	0.011
-389.048	-34.358	-0.270	-0.148
-388.033	177.885	0.146	0.213
-387.019	669.447	0.048	-0.125
-386.004	179.204	-0.003	-0.004
-384.990	-123.896	0.208	-0.033
-383.975	615.775	0.043	-0.109
-382.960	-15.496	0.176	0.112
-381.946	-62.619	-0.115	-0.048
-380.931	-200.000	-0.013	-0.280
-379.917	21.416	0.282	-0.229
-378.902	800.000	-0.041	-0.124
-377.888	349.270	0.072	0.142
-376.873	-82.433	-0.220	-0.071
-375.858	-84.627	0.134	0.042
-374.844	-124.160	0.131	-0.021
-373.829	-25.909	-0.046	0.027
-372.815	-200.000	-0.010	0.357
-371.800	193.794	-0.249	0.376
-370.785	642.353	0.033	0.084
-369.771	16.471	-0.033	-0.026
-368.756	-7.277	0.251	0.170
-367.742	-200.000	0.029	-0.161
-366.727	-200.000	-0.092	-0.408
-365.712	-92.109	0.130	-0.037
-364.698	91.538	0.080	0.089
-363.683	800.000	-0.096	0.346
-362.669	241.962	0.138	0.231
-361.654	44.750	-0.219	0.201
-360.639	121.192	-0.169	0.210
-359.625	-164.584	0.305	0.014
-358.610	-161.509	-0.116	-0.006
-357.596	85.101	-0.152	0.166
-356.581	-109.939	-0.199	-0.042
-355.566	98.210	-0.167	-0.192
-354.552	22.362	-0.151	0.123
-353.537	113.297	0.105	0.127
-352.523	-200.000	0.035	-0.180
-351.508	-200.000	-0.002	0.121
-350.493	-200.000	-0.027	0.216
-349.479	800.000	-0.068	0.216
-348.464	800.000	-0.109	0.400
-347.450	-47.739	0.178	-0.086
-346.435	60.020	0.188	0.186
-345.420	156.974	-0.160	0.221
-344.406	-110.410	0.215	0.045
-343.391	-200.000	-0.036	0.357
-342.377	-123.032	-0.107	-0.017
-341.362	-117.710	0.264	0.047
-340.348	-200.000	0.023	0.269
-339.333	617.447	-0.061	0.153
-338.318	-25.843	-0.252	-0.148
-337.304	-130.487	-0.343	-0.046
-336.289	780.942	-0.043	0.118
-335.275	-6.380	-0.173	0.118
-334.260	800.000	0.056	0.224
-333.245	-81.977	-0.294	0.096
-332.231	98.832	-0.115	-0.132
-331.216	138.541	0.201	0.263
-330.202	-200.000	0.034	0.362
-329.187	10.364	0.155	0.118
-328.172	800.000	-0.079	0.254
-327.158	-187.562	-0.301	0.004
-326.143	800.000	0.065	0.248
-325.129	800.000	-0.048	0.139
-324.114	-47.908	0.171	-0.083
-323.099	380.822	-0.131	-0.269
-322.085	-200.000	0.024	-0.383
-321.070	88.812	0.104	-0.115
-320.056	468.172	-0.091	-0.205
-319.041	634.878	-0.109	0.277
-318.026	99.507	0.035	-0.040
-317.012	-136.266	0.214	0.025
-315.997	-200.000	0.011	-0.248
-314.983	-130.199	-0.048	0.007
-313.968	-36.163	0.167	-0.090
-312.953	132.003	-0.045	-0.057
-311.939	-53.572	-0.243	0.111
-310.924	-200.000	0.000	0.052
-309.910	-38.267	0.059	-0.031
-308.895	-171.067	-0.066	-0.002
-307.880	800.000	-0.118	0.401
-306.866	-57.027	-0.197	-0.087
-305.851	-41.040	-0.267	0.137
-304.837	195.959	-0.197	-0.299
-303.822	800.000	0.039	0.143
-302.807	-200.000	0.063	-0.359
-301.793	289.592	-0.069	0.125
-300.778	127.087	-0.157	-0.199
-299.764	6.582	0.052	0.038
-298.749	800.000	0.080	0.248
-297.735	610.843	0.038	-0.094
-296.720	10.806	0.347	0.264
-295.705	-173.452	0.103	0.003
-294.691	148.371	0.029	0.040
-293.676	-68.808	0.042	-0.016
-292.662	-21.878	-0.101	-0.061
-291.647	-111.277	0.160	0.033
-290.632	-200.000	-0.004	-0.151
-289.618	-35.059	0.353	-0.192
-288.603	5.023	0.281	0.206
-287.589	-103.463	-0.392	-0.092
-286.574	242.292	-0.113	-0.188
-285.559	571.242	0.061	-0.148
-284.545	-149.073	0.174	0.014
-283.530	495.055	0.039	-0.090
-282.516	7.091	0.214	-0.159
-281.501	-122.723	0.166	0.027
-280.486	721.988	0.051	-0.135
-279.472	91.947	0.004	-0.004
-278.457	-111.016	0.222	0.045
-277.443	-135.051	0.181	-0.022
-276.428	-115.946	0.380	-0.071
-275.413	324.178	-0.225	-0.428
-274.399	7.750	-0.367	0.273
-273.384	-200.000	0.001	-0.256
-272.370	-59.128	-0.308	0.132
-271.355	-112.073	-0.179	-0.036
-270.340	10.419	0.376	0.285
-269.326	-200.000	-0.020	0.184
-268.311	-161.895	-0.159	-0.008
-267.297	-60.018	0.176	0.075
-266.282	800.000	0.127	0.373
-265.267	-102.646	-0.239	0.057
-264.253	-7.083	-0.095	0.064
-263.238	-44.572	0.076	-0.038
-262.224	52.917	0.223	-0.212
-261.209	20.979	0.166	0.134
-260.195	-58.297	0.230	-0.100
-259.180	58.263	-0.103	0.101
-258.165	-7.694	-0.089	-0.060
-257.151	-86.092	0.246	0.076
-256.136	800.000	0.154	-0.431
-255.122	-200.000	-0.072	0.351
-254.107	87.678	-0.116	-0.128
-253.092	-167.704	-0.384	0.015
-252.078	-118.177	0.249	0.044
-251.063	-56.822	-0.162	-0.071
-250.049	544.042	-0.087	-0.207
-249.034	-61.169	-0.119	-0.050
-248.019	-94.637	-0.251	0.068
-247.005	150.609	-0.265	-0.358
-245.990	75.584	-0.158	0.166
-244.976	-12.195	0.314	0.204
-243.961	-167.403	-0.142	-0.006
-242.946	-73.429	-0.258	-0.094
-241.932	800.000	-0.083	0.250
-240.917	-200.000	0.039	0.179
-239.903	-200.000	-0.008	-0.227
-238.888	362.727	-0.065	-0.130
-237.873	-76.871	0.425	-0.148
-236.859	-81.059	-0.288	-0.095
-235.844	-97.546	0.073	-0.019
-234.830	127.877	-0.091	0.115
-233.815	-127.977	0.152	0.022
-232.800	-58.645	0.147	0.064
-231.786	-200.000	0.009	-0.246
-230.771	-61.842	-0.139	-0.058
-229.757	12.133	0.174	-0.133
-228.742	132.708	-0.096	-0.123
-227.727	132.440	-0.114	-0.147
-226.713	255.994	-0.168	0.287
-225.698	800.000	0.069	0.201
-224.684	-140.546	0.282	-0.029
-223.669	412.422	-0.095	0.200
-222.655	93.922	-0.074	-0.084
-221.640	-193.623	0.418	0.004
-220.625	800.000	0.127	-0.409
-219.611	-200.000	0.065	-0.442
-218.596	-152.371	0.278	-0.020
-217.582	106.152	-0.119	0.140
-216.567	158.351	-0.103	-0.141
-215.552	-200.000	0.017	0.174
-214.538	800.000	0.096	0.315
-213.523	61.562	-0.132	0.131
-212.509	800.000	-0.037	-0.126
-211.494	-200.000	-0.004	0.085
-210.479	59.235	0.299	-0.293
-209.465	-200.000	-0.011	-0.094
-208.450	-65.544	-0.313	-0.125
-207.436	88.383	-0.059	-0.065
-206.421	-200.000	0.030	-0.228
-205.406	240.179	-0.023	-0.038
-204.392	800.000	-0.054	0.199
-203.377	65.769	0.111	0.111
-202.363	189.159	0.099	0.148
-201.348	186.393	-0.051	-0.075
-200.333	94.011	-0.062	-0.069
-199.319	34.742	0.124	0.108
-198.304	-200.000	-0.008	-0.192
-197.290	800.000	-0.080	0.225
-196.275	-68.024	-0.163	-0.063
-195.260	31.834	0.307	-0.263
-194.246	800.000	0.076	-0.293
-193.231	335.598	-0.218	-0.419
-192.217	279.728	-0.064	-0.113
-191.202	123.254	-0.208	0.259
-190.187	-200.000	-0.037	-0.232
-189.173	86.159	0.288	-0.315
-188.158	-60.361	-0.181	0.077
-187.144	-115.056	-0.151	-0.029
-186.129	800.000	-0.100	0.354
-185.114	-108.237	0.097	0.021
-184.100	-19.497	0.092	-0.056
-183.085	144.170	0.159	-0.210
-182.071	-71.578	0.036	0.013
-181.056	-64.377	0.219	0.088
-180.042	-200.000	-0.003	0.085
-179.027	-34.050	-0.240	-0.131
-178.012	784.592	-0.026	-0.070
-176.998	-23.129	0.300	-0.179
-175.983	800.000	-0.037	-0.138
-174.969	-88.223	-0.362	0.108
-173.954	-27.121	0.146	-0.084
-172.939	-134.930	0.229	0.027
-171.925	-36.516	-0.105	-0.056
-170.910	688.111	-0.082	0.212
-169.896	-107.241	0.073	0.016
-168.881	-200.000	-0.103	-0.460
-167.866	120.390	0.111	0.137
-166.852	-77.734	-0.393	0.135
-165.837	555.892	0.126	-0.301
-164.823	-200.000	0.020	0.163
-163.808	-37.705	0.434	0.229
-162.793	-71.694	0.231	0.085
-161.779	-9.493	-0.252	0.167
-160.764	800.000	0.049	-0.165
-159.750	-65.461	0.605	0.241
-158.735	-200.000	0.003	-0.086
-157.720	800.000	0.149	-0.442
-156.706	401.503	0.119	0.248
-155.691	-129.503	-0.071	-0.010
-154.677	-99.065	-0.152	0.038
-153.662	389.587	-0.165	-0.339
-152.647	800.000	-0.033	-0.097
-151.633	15.253	-0.241	-0.187
-150.618	-99.157	-0.291	-0.073
-149.604	-63.215	-0.142	-0.058
-148.589	16.753	-0.193	0.151
-147.574	-200.000	0.017	-0.280
-146.560	750.909	0.020	-0.053
-145.545	-66.319	-0.243	0.096
-144.531	94.425	-0.160	-0.180
-143.516	172.741	-0.214	-0.306
-142.502	-200.000	0.024	-0.280
-141.487	-4.454	0.051	-0.035
-140.472	-95.981	0.137	0.036
-139.458	360.983	0.082	-0.163
-138.443	-122.322	-0.152	0.025
-137.429	-200.000	-0.020	-0.179
-136.414	30.386	0.169	-0.143
-135.399	764.716	0.018	0.048
-134.385	280.726	-0.108	0.191
-133.370	-114.036	0.327	-0.063
-132.356	234.699	-0.186	-0.304
-131.341	-200.000	-0.028	-0.185
-130.326	18.264	0.297	-0.234
-129.312	-36.674	0.135	-0.072
-128.297	-200.000	0.047	0.222
-127.283	-200.000	-0.031	-0.207
-126.268	27.046	-0.078	-0.065
-125.253	167.568	0.063	0.089
-124.239	-30.475	0.219	-0.123
-123.224	115.125	0.022	0.027
-122.210	-79.506	0.234	-0.078
-121.195	-138.088	-0.159	0.017
