DTS Sentinel unit serial number:	SN413079Multiplexer serial number:	ORYXHardware model number:	OX4-SRSoftware version number:	ORYX F/W v4.00 Oryx Data Collector v3.7.2.0data status	okinstallation	princeton_trtdifferential loss correction	single-endedforward channel	channel 1reverse channel	N/Adate	2019/09/14time	12:18:35forward acquisition time	60.00reverse acquisition time	0.00gamma	496.2192k internal	0.2295k external	0.2295temperature offset calibration	1.0089default loss term (dB/km)	0.3790temperature slope calibration	1.0000multiplexer offset coefficient	1.0000multiplexer slope coefficient	1.0000fibre end	0.00T internal ref (°C)	37.69T ext. ref 1 (°C)	4.75T ext. ref 2 (°C)	34.39length (m)	temperature (°C)	Stokes	anti-Stokes-747.200	-200.000	0.005	0.345
-746.185	-61.693	-0.054	0.023
-745.171	-171.920	0.175	-0.006
-744.156	-102.850	-0.099	0.024
-743.142	-78.337	0.105	-0.037
-742.127	-22.104	0.217	0.135
-741.112	48.758	-0.135	-0.130
-740.098	119.781	0.237	-0.300
-739.083	-159.641	-0.165	0.009
-738.069	-200.000	-0.052	0.265
-737.054	-200.000	-0.005	0.066
-736.039	-7.179	-0.213	-0.148
-735.025	-94.726	0.262	-0.073
-734.010	517.951	-0.148	-0.354
-732.996	-146.263	-0.556	-0.050
-731.981	86.378	0.065	0.073
-730.966	602.663	0.084	0.214
-729.952	127.385	-0.107	0.139
-728.937	75.895	-0.139	0.150
-727.923	-5.677	-0.174	0.122
-726.908	185.704	-0.099	-0.150
-725.894	587.183	-0.134	0.336
-724.879	302.593	0.043	-0.081
-723.864	800.000	0.114	-0.380
-722.850	-80.274	-0.120	-0.041
-721.835	-120.669	-0.294	0.051
-720.821	800.000	0.054	0.153
-719.806	-84.758	0.161	0.052
-718.791	-30.882	-0.118	-0.068
-717.777	800.000	0.049	-0.202
-716.762	-34.198	-0.245	-0.137
-715.748	686.364	0.096	-0.256
-714.733	-123.090	0.281	0.046
-713.718	256.636	-0.109	-0.191
-712.704	713.463	0.069	-0.188
-711.689	800.000	-0.074	-0.273
-710.675	-36.258	0.282	0.156
-709.660	-125.941	-0.179	-0.027
-708.645	124.012	0.223	0.286
-707.631	-93.739	0.014	-0.004
-706.616	-200.000	-0.020	-0.264
-705.602	-171.985	0.163	0.005
-704.587	-90.538	0.405	0.120
-703.572	-15.221	-0.332	-0.217
-702.558	-200.000	-0.018	0.207
-701.543	-104.255	-0.196	0.046
-700.529	-18.402	0.098	0.063
-699.514	61.203	0.082	-0.083
-698.499	61.115	-0.088	0.089
-697.485	84.098	0.151	-0.168
-696.470	55.713	0.134	0.133
-695.456	-157.602	-0.306	-0.019
-694.441	-115.605	-0.139	0.027
-693.426	114.521	-0.174	-0.216
-692.412	800.000	-0.067	-0.285
-691.397	-200.000	0.018	-0.441
-690.383	-123.305	0.135	-0.022
-689.368	550.067	-0.128	0.312
-688.354	225.638	0.046	-0.076
-687.339	800.000	0.082	0.340
-686.324	117.277	0.211	0.265
-685.310	196.901	-0.136	0.212
-684.295	-200.000	-0.062	0.367
-683.281	-200.000	0.014	0.164
-682.266	800.000	0.065	0.209
-681.251	29.439	0.304	0.264
-680.237	39.638	-0.058	0.053
-679.222	-47.031	0.158	-0.079
-678.208	288.029	0.016	-0.030
-677.193	21.596	-0.279	-0.231
-676.178	-55.153	-0.191	0.088
-675.164	-71.203	0.200	0.077
-674.149	137.403	-0.155	-0.207
-673.135	156.454	0.122	-0.171
-672.120	-101.590	0.200	-0.050
-671.105	209.948	-0.112	0.178
-670.091	-102.228	0.228	0.056
-669.076	800.000	0.032	0.106
-668.062	-29.216	-0.166	-0.097
-667.047	-64.868	-0.301	0.124
-666.032	255.130	-0.198	0.345
-665.018	651.900	0.084	0.219
-664.003	-8.449	0.127	-0.087
-662.989	-73.622	-0.327	-0.121
-661.974	-34.989	0.231	-0.129
-660.959	-200.000	0.027	-0.225
-659.945	45.548	0.150	-0.141
-658.930	-35.646	-0.148	-0.082
-657.916	44.796	-0.335	0.314
-656.901	66.448	-0.084	-0.087
-655.886	17.293	-0.252	0.204
-654.872	235.172	-0.102	-0.172
-653.857	-116.555	-0.297	0.056
-652.843	311.198	0.143	-0.273
-651.828	-200.000	-0.048	-0.394
-650.814	-42.022	-0.184	0.096
-649.799	-20.915	-0.207	-0.129
-648.784	14.199	0.053	-0.042
-647.770	191.122	-0.114	0.175
-646.755	-23.205	-0.168	-0.103
-645.741	28.772	-0.098	-0.084
-644.726	-37.409	-0.088	-0.048
-643.711	800.000	-0.035	0.132
-642.697	-3.640	0.235	0.166
-641.682	13.179	0.355	-0.280
-640.668	273.340	-0.129	-0.232
-639.653	-179.604	-0.076	-0.002
-638.638	-200.000	-0.007	-0.361
-637.624	-70.173	-0.029	-0.011
-636.609	-37.689	-0.176	-0.095
-635.595	800.000	-0.099	-0.399
-634.580	-108.316	0.115	-0.025
-633.565	-101.515	-0.195	-0.048
-632.551	-200.000	-0.020	0.239
-631.536	71.023	-0.146	0.154
-630.522	-4.909	-0.222	0.156
-629.507	-90.300	-0.359	-0.106
-628.492	33.515	0.184	-0.163
-627.478	288.832	0.126	-0.233
-626.463	-180.889	-0.219	0.005
-625.449	0.552	0.336	-0.244
-624.434	37.252	-0.211	-0.190
-623.419	9.016	0.066	-0.051
-622.405	-121.796	0.166	0.028
-621.390	-35.154	-0.203	0.112
-620.376	-111.222	-0.183	-0.038
-619.361	-140.328	0.375	-0.040
-618.346	87.647	-0.263	0.296
-617.332	-200.000	0.026	-0.200
-616.317	103.063	0.174	-0.207
-615.303	251.662	-0.194	-0.335
-614.288	-63.612	-0.354	0.148
-613.273	800.000	-0.058	-0.170
-612.259	-43.443	-0.335	0.172
-611.244	-200.000	0.056	0.254
-610.230	-200.000	-0.065	0.377
-609.215	-200.000	0.010	0.131
-608.201	-173.582	0.135	-0.004
-607.186	21.694	-0.105	0.087
-606.171	-20.489	0.264	0.165
-605.157	97.056	-0.162	-0.189
-604.142	-67.656	0.190	0.076
-603.128	-89.295	-0.209	-0.063
-602.113	-133.937	-0.130	-0.016
-601.098	-200.000	0.003	-0.055
-600.084	328.769	0.041	0.081
-599.069	800.000	-0.056	-0.181
-598.055	424.407	-0.288	-0.630
-597.040	-105.676	0.071	-0.016
-596.025	-100.745	-0.051	0.013
-595.011	-69.806	0.073	0.028
-593.996	-25.119	0.135	0.081
-592.982	-200.000	-0.006	0.196
-591.967	193.266	-0.115	0.177
-590.952	800.000	0.026	0.098
-589.938	71.718	0.131	-0.139
-588.923	-122.934	-0.111	0.018
-587.909	-54.777	0.026	0.012
-586.894	-68.999	-0.055	-0.022
-585.879	-144.356	0.257	0.024
-584.865	-83.625	0.198	0.064
-583.850	-200.000	0.019	0.113
-582.836	169.791	-0.130	0.189
-581.821	-100.040	-0.266	-0.067
-580.806	-200.000	-0.056	-0.313
-579.792	-177.810	-0.095	-0.002
-578.777	683.338	0.132	-0.350
-577.763	-200.000	0.040	-0.280
-576.748	-21.167	-0.108	-0.067
-575.733	-63.194	-0.233	0.098
-574.719	57.319	-0.314	-0.311
-573.704	113.808	-0.259	0.319
-572.690	432.834	-0.071	-0.155
-571.675	130.967	-0.033	0.043
-570.661	137.540	-0.074	0.098
-569.646	38.966	0.143	-0.130
-568.631	-200.000	0.019	-0.083
-567.617	209.456	0.063	-0.100
-566.602	99.068	-0.204	-0.240
-565.588	-200.000	-0.097	-0.467
-564.573	800.000	0.055	-0.184
-563.558	-68.090	0.356	-0.141
-562.544	-78.573	-0.327	0.114
-561.529	318.372	0.073	0.139
-560.515	-88.403	0.188	-0.057
-559.500	-200.000	-0.006	-0.038
-558.485	211.326	-0.154	0.245
-557.471	800.000	-0.069	-0.220
-556.456	-186.817	-0.171	-0.002
-555.442	184.913	0.198	-0.298
-554.427	394.984	-0.114	0.242
-553.412	-104.493	-0.297	-0.070
-552.398	-116.742	0.077	-0.014
-551.383	-147.182	0.432	-0.037
-550.369	332.960	-0.070	-0.137
-549.354	-200.000	-0.279	-0.001
-548.339	-70.179	-0.034	-0.013
-547.325	757.466	-0.099	0.273
-546.310	-84.063	-0.324	-0.104
-545.296	-160.566	-0.187	0.010
-544.281	800.000	-0.028	0.122
-543.266	422.869	-0.091	-0.198
-542.252	94.274	-0.293	0.338
-541.237	-156.151	-0.352	0.022
-540.223	154.820	-0.217	0.303
-539.208	158.818	0.160	0.225
-538.193	96.587	0.040	-0.046
-537.179	-134.783	-0.137	-0.017
-536.164	-154.776	0.045	-0.003
-535.150	-99.094	0.241	-0.062
-534.135	-200.000	-0.005	-0.207
-533.121	-189.079	0.285	0.003
-532.106	-144.458	0.217	-0.020
-531.091	486.374	-0.073	-0.169
-530.077	-109.396	-0.368	0.079
-529.062	380.769	-0.033	0.069
-528.048	-168.528	0.191	0.007
-527.033	352.191	0.051	0.102
-526.018	-68.983	0.111	0.043
-525.004	-82.436	-0.104	0.034
-523.989	87.975	-0.153	0.172
-522.975	-63.722	-0.332	0.138
-521.960	-34.897	0.195	-0.108
-520.945	403.299	-0.045	-0.097
-519.931	-12.633	0.180	-0.119
-518.916	-76.840	0.312	-0.110
-517.902	-2.499	0.087	-0.062
-516.887	81.712	0.119	0.130
-515.872	-200.000	0.014	0.161
-514.858	-62.907	-0.289	-0.121
-513.843	-73.728	0.350	0.129
-512.829	-62.882	0.372	0.156
-511.814	-64.273	-0.343	-0.141
-510.799	1.162	-0.078	0.056
-509.785	31.774	-0.225	0.196
-508.770	-167.076	0.340	0.014
-507.756	-192.133	0.249	-0.002
-506.741	177.983	0.224	0.331
-505.726	50.313	0.126	-0.121
-504.712	-120.750	0.101	0.017
-503.697	-58.726	-0.239	0.105
-502.683	117.305	0.089	-0.111
-501.668	-8.202	0.203	-0.138
-500.653	310.848	-0.046	-0.087
-499.639	-182.870	0.345	-0.006
-498.624	-160.120	-0.295	0.016
-497.610	-200.000	-0.008	0.125
-496.595	-49.817	-0.307	-0.148
-495.581	800.000	-0.047	0.135
-494.566	800.000	0.056	0.165
-493.551	63.990	0.127	-0.130
-492.537	-62.450	0.279	0.117
-491.522	96.767	0.165	0.191
-490.508	-200.000	0.023	-0.262
-489.493	800.000	0.037	-0.133
-488.478	-200.000	0.063	0.315
-487.464	800.000	0.115	0.390
-486.449	-36.651	0.148	0.080
-485.435	282.686	0.138	-0.250
-484.420	196.002	0.184	0.284
-483.405	-200.000	0.022	0.145
-482.391	-200.000	0.002	-0.023
-481.376	296.036	0.026	-0.048
-480.362	158.946	0.319	-0.448
-479.347	800.000	0.141	-0.533
-478.332	134.941	-0.137	0.180
-477.318	108.998	0.171	0.206
-476.303	731.470	0.064	-0.174
-475.289	115.154	-0.187	-0.231
-474.274	-130.439	0.186	0.025
-473.259	-65.049	-0.340	0.139
-472.245	-48.883	-0.245	0.119
-471.230	-96.944	0.025	-0.007
-470.216	800.000	0.046	0.168
-469.201	-122.029	0.212	0.035
-468.186	219.306	0.219	-0.354
-467.172	800.000	-0.093	-0.387
-466.157	142.426	0.166	-0.223
-465.143	13.317	-0.100	0.079
-464.128	-100.969	0.162	0.040
-463.113	527.551	-0.114	0.271
-462.099	-200.000	-0.006	-0.095
-461.084	-118.978	0.044	-0.008
-460.070	800.000	0.147	-0.617
-459.055	-106.546	-0.169	0.038
-458.040	437.351	0.185	0.407
-457.026	-19.459	0.060	-0.038
-456.011	492.912	-0.107	0.247
-454.997	-30.750	0.224	-0.128
-453.982	-200.000	-0.041	-0.193
-452.968	-200.000	-0.007	0.221
-451.953	-163.933	-0.034	-0.002
-450.938	-65.153	0.349	-0.142
-449.924	345.631	0.094	0.186
-448.909	-200.000	0.034	-0.231
-447.895	68.193	-0.154	-0.160
-446.880	-59.961	0.383	0.165
-445.865	-107.664	-0.113	-0.025
-444.851	132.946	0.083	0.109
-443.836	247.485	-0.084	0.143
-442.822	3.953	-0.202	0.149
-441.807	-87.414	0.062	-0.019
-440.792	-7.044	0.096	-0.066
-439.778	-16.767	-0.202	-0.129
-438.763	387.138	0.077	-0.161
-437.749	126.416	-0.115	-0.147
-436.734	223.767	0.129	0.210
-435.719	-93.905	-0.326	-0.090
-434.705	21.619	0.089	-0.073
-433.690	-90.281	0.249	0.073
-432.676	-200.000	0.037	-0.169
-431.661	-84.643	-0.038	-0.012
-430.646	146.511	0.061	0.083
-429.632	5.490	-0.133	-0.099
-428.617	-200.000	0.014	0.214
-427.603	800.000	-0.160	-0.463
-426.588	482.955	-0.086	-0.197
-425.573	-103.208	-0.172	-0.041
-424.559	-200.000	0.013	-0.320
-423.544	314.167	-0.079	0.150
-422.530	68.507	-0.063	0.065
-421.515	-48.521	0.137	0.067
-420.500	-117.332	0.185	0.034
-419.486	23.916	0.103	-0.086
-418.471	-150.387	-0.152	-0.012
-417.457	-43.630	0.101	-0.051
-416.442	-200.000	0.053	-0.255
-415.428	-145.098	0.166	0.015
-414.413	-200.000	0.040	0.256
-413.398	-33.869	-0.295	-0.164
-412.384	-200.000	-0.007	-0.149
-411.369	293.390	0.162	0.298
-410.355	74.911	-0.044	-0.046
-409.340	-9.139	-0.131	0.088
-408.325	-44.547	-0.076	0.038
-407.311	800.000	-0.032	-0.091
-406.296	760.961	0.053	0.146
-405.282	-34.156	-0.432	0.239
-404.267	800.000	-0.058	0.237
-403.252	-198.358	-0.120	-0.001
-402.238	-42.350	0.083	0.043
-401.223	800.000	-0.063	0.249
-400.209	499.183	-0.049	-0.113
-399.194	800.000	-0.081	0.230
-398.179	-179.735	-0.179	-0.004
-397.165	197.380	-0.019	-0.030
-396.150	-101.389	-0.212	0.052
-395.136	382.865	0.043	-0.089
-394.121	232.999	-0.144	-0.238
-393.106	27.501	0.199	0.169
-392.092	-43.016	0.252	0.129
-391.077	148.707	0.179	0.244
-390.063	-62.261	-0.220	0.092
-389.048	-83.543	-0.282	0.091
-388.033	-75.911	0.139	0.050
-387.019	301.644	-0.153	-0.286
-386.004	-37.837	-0.199	0.106
-384.990	800.000	0.043	-0.142
-383.975	-200.000	-0.012	0.111
-382.960	-165.539	0.411	0.018
-381.946	170.041	-0.073	-0.104
-380.931	-200.000	-0.005	0.096
-379.917	-200.000	-0.007	0.452
-378.902	-200.000	0.023	-0.135
-377.888	81.046	-0.127	0.138
-376.873	-88.068	-0.187	-0.056
-375.858	129.685	0.065	0.084
-374.844	-200.000	0.008	0.240
-373.829	-137.029	0.118	-0.014
-372.815	404.626	0.144	-0.307
-371.800	239.681	0.098	-0.164
-370.785	-200.000	-0.020	0.189
-369.771	81.622	-0.090	-0.098
-368.756	-200.000	-0.003	-0.250
-367.742	40.042	0.090	0.081
-366.727	800.000	-0.062	0.234
-365.712	18.678	0.268	-0.216
-364.698	57.386	0.222	0.218
-363.683	81.074	-0.067	-0.073
-362.669	-55.077	-0.126	-0.057
-361.654	124.012	-0.003	-0.004
-360.639	797.878	-0.084	-0.233
-359.625	-72.893	0.345	-0.128
-358.610	46.969	-0.263	-0.247
-357.596	800.000	-0.138	-0.444
-356.581	2.525	-0.061	-0.045
-355.566	489.325	0.026	-0.061
-354.552	33.678	-0.342	-0.299
-353.537	800.000	0.053	-0.148
-352.523	322.039	0.108	-0.206
-351.508	800.000	0.038	0.146
-350.493	-25.061	0.092	0.055
-349.479	8.543	-0.179	-0.135
-348.464	-128.245	-0.112	-0.016
-347.450	-122.607	-0.208	0.034
-346.435	800.000	-0.088	0.367
-345.420	-23.633	0.182	-0.110
-344.406	-200.000	-0.004	-0.240
-343.391	97.957	0.135	0.157
-342.377	-123.235	-0.344	0.055
-341.362	71.217	0.110	-0.115
-340.348	279.479	-0.105	0.189
-339.333	118.755	-0.167	-0.207
-338.318	507.914	-0.179	0.417
-337.304	71.421	0.285	0.297
-336.289	-20.833	0.015	-0.009
-335.275	244.277	0.177	-0.299
-334.260	-200.000	-0.007	0.100
-333.245	-84.838	0.234	0.074
-332.231	226.415	-0.089	0.144
-331.216	363.792	-0.104	-0.209
-330.202	563.025	0.048	0.117
-329.187	138.084	0.140	-0.184
-328.172	269.808	-0.018	0.032
-327.158	-96.108	-0.318	-0.085
-326.143	-166.440	-0.158	-0.007
-325.129	-93.959	-0.149	-0.041
-324.114	61.970	-0.065	-0.065
-323.099	-200.000	0.004	0.158
-322.085	18.079	0.207	-0.166
-321.070	432.030	0.103	0.225
-320.056	-120.258	-0.382	-0.065
-319.041	72.599	0.179	0.188
-318.026	636.011	0.088	-0.223
-317.012	222.588	-0.065	0.105
-315.997	509.339	0.084	-0.195
-314.983	-4.673	0.180	0.125
-313.968	-136.272	0.026	-0.003
-312.953	406.747	-0.040	-0.086
-311.939	-200.000	0.045	-0.222
-310.924	299.753	-0.260	-0.482
-309.910	-109.881	0.351	0.074
-308.895	28.126	-0.047	-0.040
-307.880	-200.000	-0.042	-0.245
-306.866	94.166	-0.178	0.203
-305.851	75.816	0.085	-0.090
-304.837	-43.166	0.238	0.121
-303.822	556.576	0.028	-0.068
-302.807	-13.124	0.091	-0.059
-301.793	61.928	-0.129	-0.129
-300.778	-20.288	0.318	0.196
-299.764	-23.283	0.266	-0.161
-298.749	-200.000	0.014	-0.102
-297.735	18.807	-0.185	0.149
-296.720	-200.000	-0.036	-0.194
-295.705	-200.000	-0.263	0.000
-294.691	173.991	0.071	-0.103
-293.676	-90.955	0.236	0.068
-292.662	800.000	-0.081	-0.279
-291.647	-43.902	-0.275	0.139
-290.632	515.629	0.066	0.155
-289.618	800.000	0.072	0.237
-288.603	428.663	0.114	0.247
-287.589	800.000	0.010	0.042
-286.574	-50.369	0.238	0.113
-285.559	39.243	0.323	0.290
-284.545	-55.325	-0.381	0.172
-283.530	-200.000	-0.016	0.120
-282.516	800.000	0.042	-0.133
-281.501	-100.700	0.113	-0.028
-280.486	57.020	-0.043	0.042
-279.472	-135.152	0.234	0.028
-278.457	-200.000	-0.029	0.195
-277.443	-71.930	-0.268	0.100
-276.428	19.609	-0.035	0.028
-275.413	-180.544	-0.385	-0.008
-274.399	-131.345	-0.217	0.029
-273.384	202.239	0.077	-0.119
-272.370	290.417	0.104	-0.189
-271.355	121.375	-0.359	0.449
-270.340	-20.203	0.359	0.222
-269.326	-200.000	-0.030	-0.248
-268.311	-79.688	-0.094	0.032
-267.297	800.000	-0.017	0.059
-266.282	800.000	-0.040	0.156
-265.267	69.855	0.123	-0.127
-264.253	129.275	0.150	0.192
-263.238	-77.812	0.224	0.078
-262.224	-164.623	0.032	0.001
-261.209	-200.000	-0.009	0.214
-260.195	-115.095	0.201	-0.038
-259.180	150.176	0.216	-0.294
-258.165	74.400	0.052	0.054
-257.151	32.481	-0.069	-0.060
-256.136	-165.984	-0.249	0.011
-255.122	-137.773	0.119	0.013
-254.107	800.000	0.097	-0.297
-253.092	-76.910	0.164	-0.058
-252.078	-123.943	0.197	0.031
-251.063	-56.073	0.104	-0.047
-250.049	800.000	0.043	0.178
-249.034	21.781	-0.106	-0.087
-248.019	800.000	-0.013	0.037
-247.005	-200.000	-0.012	0.225
-245.990	250.835	-0.168	0.286
-244.976	24.261	-0.264	-0.219
-243.961	116.963	-0.192	-0.236
-242.946	-200.000	-0.062	-0.369
-241.932	25.349	-0.113	0.094
-240.917	494.829	-0.101	-0.232
-239.903	-200.000	-0.003	-0.155
-238.888	800.000	-0.066	0.198
-237.873	10.430	0.212	0.162
-236.859	117.924	0.094	-0.116
-235.844	130.569	0.081	0.104
-234.830	-88.635	0.220	0.066
-233.815	274.303	0.112	0.199
-232.800	-124.433	0.136	0.021
-231.786	-200.000	0.008	0.057
-230.771	-45.888	0.196	0.097
-229.757	-29.001	-0.094	-0.054
-228.742	-106.490	0.121	0.027
-227.727	-200.000	-0.062	0.390
-226.713	-102.714	0.451	0.108
-225.698	-148.778	-0.351	0.028
-224.684	-200.000	0.009	0.081
-223.669	-159.343	-0.471	0.026
-222.655	-67.383	0.068	0.027
-221.640	-164.995	-0.282	0.013
-220.625	-200.000	0.029	-0.167
-219.611	-200.000	-0.067	0.315
-218.596	259.187	0.220	0.380
-217.582	-200.000	-0.052	0.419
-216.567	-114.883	-0.042	0.008
-215.552	58.720	0.214	-0.210
-214.538	-42.965	0.139	-0.071
-213.523	235.269	-0.046	0.076
-212.509	-55.183	-0.196	-0.088
-211.494	-15.673	-0.233	-0.149
-210.479	800.000	-0.032	0.130
-209.465	-37.123	-0.151	-0.081
-208.450	108.052	-0.057	-0.068
-207.436	-21.552	0.269	-0.164
-206.421	-142.633	0.081	-0.008
-205.406	-129.499	0.075	0.010
-204.392	-96.230	0.408	0.108
-203.377	-52.843	0.352	-0.162
-202.363	44.557	-0.209	-0.192
-201.348	800.000	-0.095	-0.307
-200.333	68.277	0.298	0.306
-199.319	-168.200	0.125	0.005
-198.304	7.588	0.114	0.085
-197.290	-168.564	0.404	0.015
-196.275	-57.807	0.239	0.105
-195.260	74.499	0.061	-0.064
-194.246	-200.000	0.000	-0.023
-193.231	-92.884	-0.210	-0.059
-192.217	-130.523	-0.133	0.018
-191.202	-22.272	0.165	-0.100
-190.187	-61.823	0.119	-0.050
-189.173	-109.922	-0.175	0.037
-188.158	-120.522	0.153	-0.026
-187.144	115.433	-0.185	0.226
-186.129	800.000	0.040	0.118
-185.114	337.813	0.200	0.390
-184.100	-200.000	0.022	-0.232
-183.085	-114.471	-0.080	0.015
-182.071	800.000	-0.083	0.237
-181.056	-4.171	-0.160	0.111
-180.042	-104.836	0.257	-0.059
-179.027	-200.000	0.032	-0.195
-178.012	127.023	-0.113	0.143
-176.998	134.678	0.125	0.163
-175.983	-117.564	-0.187	0.034
-174.969	3.774	0.144	0.105
-173.954	-200.000	0.003	-0.329
-172.939	-50.783	0.143	-0.067
-171.925	-200.000	-0.050	0.332
-170.910	-72.226	-0.055	0.020
-169.896	-89.209	0.291	0.086
-168.881	88.126	0.174	0.193
-167.866	800.000	-0.031	0.121
-166.852	-200.000	-0.010	-0.056
-165.837	-200.000	-0.040	0.185
-164.823	800.000	-0.051	-0.145
-163.808	365.176	0.083	0.168
-162.793	-200.000	-0.015	0.272
-161.779	15.913	-0.257	-0.202
-160.764	-85.492	-0.265	-0.082
-159.750	-66.031	0.069	0.028
-158.735	-43.890	-0.130	0.065
-157.720	41.889	-0.211	0.191
-156.706	-200.000	0.041	0.311
-155.691	-29.078	0.329	-0.188
-154.677	-200.000	0.022	-0.113
-153.662	-195.860	-0.111	0.001
-152.647	-200.000	0.015	0.134
-151.633	-200.000	0.026	0.151
-150.618	631.452	-0.038	0.097
-149.604	-25.579	-0.142	-0.084
-148.589	-200.000	0.001	0.433
-147.574	-32.828	-0.182	-0.101
-146.560	-67.370	0.056	0.022
-145.545	-33.711	0.177	-0.098
-144.531	69.613	0.205	-0.210
-143.516	-95.619	-0.089	0.024
-142.502	-94.987	-0.127	-0.034
-141.487	234.666	0.125	0.206
-140.472	-115.469	-0.177	-0.033
-139.458	240.657	-0.113	-0.189
-138.443	-48.820	-0.075	-0.036
-137.429	-148.866	0.090	-0.007
-136.414	96.066	-0.046	-0.052
-135.399	203.054	0.204	-0.314
-134.385	160.534	-0.164	0.228
-133.370	-200.000	-0.017	-0.224
-132.356	-9.961	0.100	-0.066
-131.341	384.510	-0.093	-0.192
-130.326	-200.000	0.030	0.246
-129.312	102.233	0.176	0.205
-128.297	-180.188	-0.062	0.001
-127.283	-47.399	-0.223	0.108
-126.268	603.308	-0.006	0.015
-125.253	-21.972	0.036	-0.022
-124.239	-194.161	-0.132	-0.001
-123.224	33.727	-0.286	-0.248
-122.210	-200.000	-0.016	-0.178
