DTS Sentinel unit serial number:	SN413079Multiplexer serial number:	ORYXHardware model number:	OX4-SRSoftware version number:	ORYX F/W v4.00 Oryx Data Collector v3.7.2.0data status	okinstallation	princeton_trtdifferential loss correction	single-endedforward channel	channel 1reverse channel	N/Adate	2019/09/17time	13:50:35forward acquisition time	60.00reverse acquisition time	0.00gamma	496.2192k internal	0.2303k external	0.2303temperature offset calibration	0.9973default loss term (dB/km)	0.3790temperature slope calibration	1.0000multiplexer offset coefficient	1.0000multiplexer slope coefficient	1.0000fibre end	0.00T internal ref (°C)	35.25T ext. ref 1 (°C)	0.42T ext. ref 2 (°C)	32.40length (m)	temperature (°C)	Stokes	anti-Stokes-747.200	-103.028	0.293	0.071
-746.185	-200.000	-0.019	0.160
-745.171	800.000	0.053	0.187
-744.156	-109.179	0.143	0.031
-743.142	187.840	0.096	-0.146
-742.127	-176.785	-0.160	0.004
-741.112	-90.522	0.194	0.057
-740.098	305.716	-0.134	0.254
-739.083	-200.000	-0.007	-0.087
-738.069	28.198	-0.275	0.237
-737.054	-200.000	-0.012	-0.197
-736.039	-66.354	-0.381	-0.154
-735.025	-3.073	0.218	0.155
-734.010	-200.000	-0.012	-0.071
-732.996	-70.547	-0.394	0.152
-731.981	90.231	0.185	0.211
-730.966	-160.241	-0.258	0.014
-729.952	-21.198	0.343	0.214
-728.937	800.000	0.100	-0.282
-727.923	-2.403	0.133	0.095
-726.908	800.000	0.047	-0.202
-725.894	-29.270	-0.074	0.043
-724.879	-200.000	0.053	-0.269
-723.864	-200.000	-0.020	-0.105
-722.850	189.814	-0.162	-0.247
-721.835	-125.131	-0.126	0.020
-720.821	52.029	-0.105	0.102
-719.806	-23.988	-0.023	0.014
-718.791	-200.000	0.056	-0.446
-717.777	800.000	0.058	-0.209
-716.762	376.281	-0.107	0.222
-715.748	92.459	-0.234	-0.269
-714.733	-91.598	0.240	-0.069
-713.718	-200.000	-0.047	-0.333
-712.704	-96.037	-0.061	-0.017
-711.689	-117.345	0.183	0.034
-710.675	-200.000	-0.089	0.523
-709.660	-100.158	-0.485	-0.123
-708.645	81.245	0.184	0.203
-707.631	173.285	-0.058	0.086
-706.616	603.015	-0.095	0.240
-705.602	-147.456	0.019	-0.002
-704.587	-23.310	0.140	-0.085
-703.572	-127.615	-0.300	0.044
-702.558	-126.477	-0.156	-0.024
-701.543	347.834	0.043	0.087
-700.529	9.758	-0.122	0.094
-699.514	112.325	-0.229	-0.282
-698.499	-54.147	0.044	0.020
-697.485	58.710	0.243	-0.243
-696.470	459.735	-0.124	-0.281
-695.456	52.729	-0.258	-0.250
-694.441	-107.864	-0.232	-0.051
-693.426	223.187	0.100	-0.164
-692.412	-9.392	-0.153	0.104
-691.397	513.346	-0.201	-0.476
-690.383	800.000	0.112	-0.324
-689.368	-79.491	0.190	0.065
-688.354	-94.266	0.207	0.058
-687.339	-200.000	-0.025	-0.149
-686.324	800.000	-0.056	0.215
-685.310	-14.283	0.197	0.129
-684.295	-110.462	0.226	-0.048
-683.281	32.259	0.253	-0.222
-682.266	-200.000	-0.004	0.125
-681.251	-20.786	-0.185	-0.115
-680.237	-94.266	0.209	-0.058
-679.222	-200.000	0.064	-0.296
-678.208	-26.898	-0.083	0.050
-677.193	380.238	-0.018	0.037
-676.178	-92.313	-0.241	-0.069
-675.164	-0.322	-0.256	-0.185
-674.149	46.506	0.079	-0.074
-673.135	800.000	0.006	-0.026
-672.120	318.812	-0.117	-0.225
-671.105	157.928	0.010	-0.014
-670.091	-129.448	0.220	0.031
-669.076	19.655	0.145	-0.118
-668.062	224.478	-0.128	-0.210
-667.047	-200.000	-0.007	0.268
-666.032	-146.089	0.082	0.007
-665.018	-108.727	0.046	-0.010
-664.003	-200.000	-0.002	0.072
-662.989	800.000	0.085	-0.253
-661.974	-68.539	0.384	-0.151
-660.959	-49.185	0.080	-0.039
-659.945	162.635	-0.183	-0.261
-658.930	362.737	0.062	-0.127
-657.916	-85.356	-0.143	0.045
-656.901	86.855	0.101	0.113
-655.886	-120.174	-0.248	0.043
-654.872	73.211	0.219	0.233
-653.857	-112.812	0.122	-0.025
-652.843	-200.000	0.000	-0.243
-651.828	-129.092	0.184	0.026
-650.814	-97.814	-0.152	-0.040
-649.799	54.751	-0.111	0.108
-648.784	-77.316	0.048	0.017
-647.770	561.060	-0.031	0.077
-646.755	466.739	-0.134	0.305
-645.741	350.312	0.070	-0.140
-644.726	-200.000	-0.051	-0.298
-643.711	119.223	0.286	-0.359
-642.697	-200.000	-0.043	-0.311
-641.682	551.691	-0.033	-0.081
-640.668	-82.513	-0.313	-0.103
-639.653	-113.941	-0.316	-0.062
-638.638	-76.980	0.402	-0.142
-637.624	-200.000	-0.004	0.216
-636.609	164.690	-0.139	0.199
-635.595	44.836	-0.111	-0.104
-634.580	589.578	0.078	0.196
-633.565	-164.879	-0.283	0.013
-632.551	12.881	-0.261	0.205
-631.536	194.402	-0.096	-0.148
-630.522	-200.000	0.044	-0.199
-629.507	-109.703	-0.104	-0.022
-628.492	-13.795	-0.169	-0.111
-627.478	-65.609	0.229	-0.093
-626.463	153.104	0.115	0.160
-625.449	115.348	0.096	-0.119
-624.434	238.118	-0.127	-0.215
-623.419	-152.098	-0.148	0.011
-622.405	-35.859	0.111	-0.061
-621.390	509.703	0.120	-0.283
-620.376	-160.233	-0.138	-0.008
-619.361	-62.196	-0.282	-0.119
-618.346	72.021	0.284	-0.300
-617.332	-180.550	-0.360	0.008
-616.317	-47.666	0.197	-0.097
-615.303	-23.177	0.199	0.121
-614.288	-200.000	-0.060	0.561
-613.273	161.332	-0.082	0.116
-612.259	4.509	0.141	-0.105
-611.244	-157.185	0.414	0.025
-610.230	800.000	-0.037	0.140
-609.215	-98.872	-0.123	-0.032
-608.201	-44.549	0.080	-0.041
-607.186	-200.000	0.001	0.207
-606.171	-150.184	-0.321	-0.025
-605.157	-200.000	0.059	-0.274
-604.142	776.399	0.093	0.258
-603.128	8.483	0.135	0.103
-602.113	-42.115	-0.069	0.036
-601.098	-93.374	-0.374	0.105
-600.084	506.902	-0.053	0.126
-599.069	251.213	0.073	-0.126
-598.055	335.758	-0.122	-0.240
-597.040	800.000	-0.059	-0.213
-596.025	-2.930	-0.118	-0.083
-595.011	-200.000	-0.092	0.499
-593.996	800.000	-0.038	0.129
-592.982	800.000	-0.109	-0.310
-591.967	-8.550	-0.233	-0.159
-590.952	-28.749	0.142	-0.083
-589.938	95.679	0.080	-0.093
-588.923	-112.300	0.214	-0.043
-587.909	46.720	0.079	0.075
-586.894	-123.226	0.063	-0.010
-585.879	800.000	0.086	0.284
-584.865	800.000	-0.083	-0.279
-583.850	800.000	0.041	-0.117
-582.836	57.509	-0.183	0.181
-581.821	-70.260	-0.380	0.146
-580.806	326.250	-0.077	-0.150
-579.792	186.130	-0.243	0.365
-578.777	-37.355	0.171	-0.093
-577.763	-155.648	0.187	0.012
-576.748	-76.787	-0.160	-0.057
-575.733	-105.603	-0.234	0.054
-574.719	455.847	-0.147	0.329
-573.704	-109.486	0.060	0.013
-572.690	-83.996	-0.315	0.101
-571.675	-110.422	-0.332	-0.070
-570.661	-94.995	0.177	-0.048
-569.646	-37.028	0.210	-0.114
-568.631	137.970	-0.106	0.140
-567.617	-48.336	0.179	-0.087
-566.602	-70.019	-0.213	0.082
-565.588	-200.000	0.003	-0.051
-564.573	-70.671	0.192	0.073
-563.558	-67.036	0.248	0.099
-562.544	115.446	-0.091	0.113
-561.529	107.482	0.093	0.112
-560.515	-44.297	-0.231	-0.117
-559.500	-200.000	0.019	-0.132
-558.485	-73.332	-0.098	-0.036
-557.471	163.883	0.176	-0.250
-556.456	800.000	-0.059	0.222
-555.442	-128.400	-0.324	0.047
-554.427	352.070	0.142	0.285
-553.412	-52.219	0.216	0.101
-552.398	255.984	-0.083	0.144
-551.383	98.357	0.209	-0.243
-550.369	800.000	0.006	0.023
-549.354	800.000	-0.060	0.201
-548.339	800.000	-0.055	0.164
-547.325	232.457	0.092	-0.153
-546.310	-56.892	0.291	-0.130
-545.296	-93.534	-0.228	0.064
-544.281	-138.215	0.187	-0.021
-543.266	-128.668	0.278	0.040
-542.252	-200.000	-0.011	0.112
-541.237	-148.695	-0.137	-0.011
-540.223	389.800	0.223	0.466
-539.208	-69.839	0.234	0.090
-538.193	14.415	0.124	0.098
-537.179	225.657	0.117	0.191
-536.164	-4.970	0.229	-0.159
-535.150	251.155	0.086	-0.147
-534.135	151.318	0.084	-0.115
-533.121	-145.300	-0.271	-0.025
-532.106	-45.387	0.201	-0.101
-531.091	-103.645	-0.276	0.065
-530.077	-200.000	0.012	0.153
-529.062	8.507	-0.248	0.189
-528.048	-200.000	0.032	0.163
-527.033	-129.069	0.334	0.047
-526.018	-146.949	0.119	-0.010
-525.004	138.423	-0.133	-0.176
-523.989	-200.000	0.051	0.294
-522.975	380.676	-0.132	0.274
-521.960	272.774	-0.141	-0.251
-520.945	-23.448	0.152	-0.092
-519.931	-123.291	-0.280	0.045
-518.916	-200.000	-0.014	-0.332
-517.902	557.102	0.052	0.126
-516.887	-105.740	0.068	0.016
-515.872	198.789	-0.142	-0.220
-514.858	102.292	0.164	-0.194
-513.843	412.131	0.136	-0.291
-512.829	-118.821	-0.102	0.018
-511.814	161.180	0.132	0.187
-510.799	-200.000	0.013	-0.074
-509.785	-200.000	-0.044	0.206
-508.770	44.316	-0.093	-0.086
-507.756	-23.807	-0.158	-0.095
-506.741	110.851	-0.225	0.273
-505.726	141.310	0.094	0.125
-504.712	-78.990	-0.163	-0.056
-503.697	-103.387	-0.141	0.033
-502.683	-178.389	0.107	-0.003
-501.668	-200.000	-0.019	-0.250
-500.653	-200.000	0.053	0.273
-499.639	490.334	-0.112	-0.258
-498.624	-132.404	0.178	-0.023
-497.610	-200.000	0.001	-0.112
-496.595	-200.000	0.012	0.188
-495.581	-200.000	0.009	0.049
-494.566	-200.000	-0.040	-0.336
-493.551	-75.628	-0.378	-0.136
-492.537	800.000	-0.080	0.319
-491.522	16.298	0.262	0.208
-490.508	-200.000	-0.085	0.397
-489.493	324.827	-0.106	0.204
-488.478	800.000	-0.051	-0.192
-487.464	800.000	0.099	-0.316
-486.449	81.548	0.069	0.075
-485.435	-200.000	-0.033	0.322
-484.420	-200.000	-0.029	-0.239
-483.405	-200.000	0.036	-0.174
-482.391	800.000	-0.041	-0.136
-481.376	68.497	0.206	0.213
-480.362	384.586	-0.145	0.301
-479.347	-170.700	-0.197	-0.007
-478.332	-119.511	-0.192	-0.034
-477.318	21.955	0.128	0.105
-476.303	142.483	-0.082	0.110
-475.289	-200.000	0.023	-0.246
-474.274	-107.625	-0.188	0.041
-473.259	265.160	0.107	0.187
-472.245	108.068	-0.085	0.102
-471.230	-77.230	0.338	0.119
-470.216	-7.323	0.141	-0.096
-469.201	800.000	0.034	-0.101
-468.186	136.084	-0.100	-0.131
-467.172	-94.542	0.130	-0.036
-466.157	17.464	-0.190	0.152
-465.143	-14.091	-0.088	0.058
-464.128	38.200	-0.177	0.159
-463.113	-131.399	0.362	-0.048
-462.099	-130.858	-0.170	0.023
-461.084	12.147	0.266	-0.207
-460.070	-118.460	-0.296	0.053
-459.055	84.072	-0.381	-0.420
-458.040	-200.000	0.036	-0.257
-457.026	800.000	-0.062	-0.190
-456.011	-80.061	0.067	-0.023
-454.997	344.555	0.171	-0.338
-453.982	190.211	0.020	0.030
-452.968	-200.000	0.013	-0.065
-451.953	-72.068	-0.149	0.056
-450.938	513.119	0.066	0.156
-449.924	-109.171	0.227	-0.049
-448.909	800.000	0.042	-0.120
-447.895	393.892	-0.177	-0.372
-446.880	-6.855	0.226	-0.155
-445.865	2.858	-0.134	-0.098
-444.851	-200.000	0.006	-0.207
-443.836	150.141	-0.043	-0.059
-442.822	-200.000	0.044	-0.273
-441.807	-116.943	0.171	0.031
-440.792	800.000	0.015	0.044
-439.778	-46.316	-0.073	0.036
-438.763	-69.251	0.361	-0.140
-437.749	153.250	-0.294	0.404
-436.734	108.477	0.116	-0.139
-435.719	54.246	-0.091	-0.088
-434.705	30.157	0.198	0.170
-433.690	14.275	-0.281	0.220
-432.676	800.000	-0.046	-0.150
-431.661	80.840	0.172	0.187
-430.646	-74.324	0.353	-0.128
-429.632	-53.723	0.035	0.016
-428.617	298.350	0.099	-0.184
-427.603	575.205	-0.069	-0.168
-426.588	-200.000	0.026	0.167
-425.573	65.309	-0.321	0.327
-424.559	800.000	0.023	-0.092
-423.544	-71.856	-0.279	-0.104
-422.530	-154.885	-0.059	-0.004
-421.515	800.000	-0.073	-0.204
-420.500	800.000	-0.042	0.118
-419.486	237.639	0.176	-0.294
-418.471	-30.838	0.146	-0.083
-417.457	-191.640	0.030	0.000
-416.442	362.553	-0.140	-0.283
-415.428	443.209	-0.169	-0.373
-414.413	800.000	0.035	0.133
-413.398	-101.418	-0.090	0.022
-412.384	-13.010	-0.155	0.101
-411.369	132.163	0.103	-0.134
-410.355	-200.000	-0.079	-0.347
-409.340	523.071	-0.081	-0.191
-408.325	91.246	0.283	-0.320
-407.311	-121.613	-0.213	0.035
-406.296	193.147	0.208	-0.317
-405.282	542.001	0.039	-0.093
-404.267	663.991	-0.033	-0.087
-403.252	-200.000	-0.040	-0.220
-402.238	613.711	0.148	0.373
-401.223	800.000	0.055	0.165
-400.209	-139.151	-0.243	0.026
-399.194	-200.000	-0.012	0.062
-398.179	-42.671	0.121	0.062
-397.165	262.583	-0.119	0.207
-396.150	-200.000	0.003	0.086
-395.136	-23.762	-0.188	-0.113
-394.121	603.099	0.104	0.259
-393.106	-44.554	-0.061	0.031
-392.092	-200.000	0.046	-0.214
-391.077	800.000	0.079	-0.337
-390.063	250.701	-0.042	0.073
-389.048	-39.702	0.199	0.104
-388.033	-57.557	-0.046	0.020
-387.019	96.010	0.152	0.174
-386.004	800.000	0.017	0.069
-384.990	53.800	0.038	0.036
-383.975	800.000	-0.049	0.160
-382.960	29.928	0.102	0.087
-381.946	240.757	0.080	0.134
-380.931	202.851	-0.005	0.008
-379.917	160.388	-0.124	-0.173
-378.902	800.000	0.059	0.231
-377.888	631.903	0.193	-0.492
-376.873	763.857	-0.092	-0.250
-375.858	-200.000	0.009	0.115
-374.844	594.263	0.041	0.102
-373.829	-100.147	-0.130	0.033
-372.815	-85.588	0.208	-0.065
-371.800	26.880	-0.202	0.170
-370.785	-200.000	-0.012	-0.098
-369.771	800.000	-0.026	0.087
-368.756	61.543	-0.118	0.118
-367.742	-130.586	0.081	-0.011
-366.727	109.960	-0.106	-0.128
-365.712	-200.000	-0.019	0.694
-364.698	196.160	0.068	0.104
-363.683	-75.060	-0.120	-0.043
-362.669	206.993	0.151	0.237
-361.654	592.965	-0.108	0.268
-360.639	-35.846	-0.158	0.086
-359.625	-200.000	0.031	0.478
-358.610	37.438	0.015	0.013
-357.596	-200.000	0.014	0.130
-356.581	-200.000	-0.035	0.184
-355.566	-143.657	-0.148	0.014
-354.552	-46.663	0.087	-0.043
-353.537	-135.012	-0.389	-0.047
-352.523	-122.368	-0.113	-0.019
-351.508	216.641	-0.041	-0.065
-350.493	-32.299	0.215	0.120
-349.479	-70.466	-0.183	0.070
-348.464	392.386	0.164	-0.342
-347.450	-50.292	0.127	0.060
-346.435	251.193	-0.104	-0.178
-345.420	-154.159	-0.294	-0.020
-344.406	-38.676	0.477	-0.253
-343.391	-89.951	0.134	0.039
-342.377	800.000	0.062	0.210
-341.362	800.000	-0.025	-0.075
-340.348	-200.000	-0.005	-0.201
-339.333	118.514	-0.121	0.150
-338.318	-155.781	0.030	-0.002
-337.304	-200.000	0.001	0.255
-336.289	38.566	0.129	-0.115
-335.275	-200.000	0.003	-0.205
-334.260	-30.020	-0.137	-0.078
-333.245	329.027	0.163	0.315
-332.231	-137.516	0.366	0.041
-331.216	365.422	0.177	-0.357
-330.202	127.228	0.074	0.095
-329.187	-95.646	0.135	-0.036
-328.172	51.579	-0.091	-0.087
-327.158	12.712	0.023	-0.018
-326.143	-200.000	0.003	0.081
-325.129	-105.065	0.175	-0.040
-324.114	-20.487	0.263	0.162
-323.099	-42.791	-0.034	-0.018
-322.085	-135.574	0.136	0.016
-321.070	-200.000	-0.015	-0.183
-320.056	24.985	0.060	0.050
-319.041	327.551	0.012	-0.022
-318.026	774.458	-0.070	-0.191
-317.012	-200.000	0.013	-0.150
-315.997	141.690	0.148	-0.196
-314.983	-63.459	-0.361	0.148
-313.968	-101.761	0.292	0.071
-312.953	-200.000	-0.028	0.289
-311.939	-99.826	0.448	0.112
-310.924	245.282	0.052	0.088
-309.910	-142.308	0.189	0.019
-308.895	-100.068	0.078	0.020
-307.880	-200.000	-0.007	0.306
-306.866	-125.844	0.093	0.014
-305.851	23.414	0.132	0.108
-304.837	520.376	-0.073	0.173
-303.822	82.704	0.112	0.121
-302.807	-195.907	-0.327	0.002
-301.793	-81.501	-0.250	-0.082
-300.778	-43.751	-0.174	0.088
-299.764	-16.969	0.070	0.044
-298.749	-200.000	-0.109	0.000
-297.735	-173.581	-0.138	0.004
-296.720	12.148	0.178	0.137
-295.705	270.310	-0.035	-0.061
-294.691	-86.585	-0.350	-0.107
-293.676	-200.000	0.015	0.207
-292.662	280.681	0.198	0.355
-291.647	-200.000	0.034	0.234
-290.632	-123.885	0.228	0.036
-289.618	-179.074	0.205	0.005
-288.603	5.160	0.378	0.279
-287.589	800.000	0.060	-0.224
-286.574	-200.000	-0.006	-0.033
-285.559	-200.000	-0.005	-0.161
-284.545	-77.796	0.061	-0.021
-283.530	800.000	0.075	-0.219
-282.516	427.972	0.010	-0.022
-281.501	800.000	-0.033	0.106
-280.486	-32.915	0.100	-0.056
-279.472	100.167	0.084	-0.098
-278.457	-200.000	0.014	-0.182
-277.443	-200.000	-0.033	0.162
-276.428	51.188	0.052	0.050
-275.413	-149.866	-0.184	-0.014
-274.399	-138.938	0.100	-0.011
-273.384	-150.864	-0.108	0.008
-272.370	-200.000	0.018	0.231
-271.355	-36.170	-0.128	0.069
-270.340	-99.087	0.131	-0.033
-269.326	-200.000	0.015	0.094
-268.311	38.756	0.135	0.121
-267.297	210.480	-0.144	0.227
-266.282	2.062	0.084	0.060
-265.267	-200.000	0.017	-0.137
-264.253	-200.000	0.047	-0.208
-263.238	22.294	-0.118	0.097
-262.224	-200.000	-0.040	0.244
-261.209	-200.000	-0.002	0.013
-260.195	-132.443	-0.585	0.075
-259.180	-200.000	-0.032	-0.157
-258.165	105.309	0.168	-0.199
-257.151	619.282	-0.075	0.189
-256.136	50.320	-0.296	-0.280
-255.122	245.463	-0.066	-0.112
-254.107	-63.213	-0.281	-0.116
-253.092	800.000	-0.042	0.143
-252.078	-200.000	0.033	0.441
-251.063	418.200	-0.047	0.100
-250.049	-156.704	-0.128	-0.008
-249.034	37.450	0.177	-0.157
-248.019	34.511	0.088	-0.077
-247.005	-66.165	0.223	0.089
-245.990	26.072	0.242	-0.202
-244.976	688.124	0.042	-0.110
-243.961	60.430	-0.101	0.100
-242.946	-93.775	-0.073	-0.020
-241.932	800.000	0.069	-0.195
-240.917	386.946	-0.226	0.465
-239.903	339.034	0.058	-0.113
-238.888	-77.731	-0.065	-0.023
-237.873	-118.613	0.052	0.009
-236.859	169.997	0.084	-0.120
-235.844	99.999	-0.064	0.074
-234.830	271.751	0.180	0.316
-233.815	-100.558	-0.238	0.059
-232.800	564.510	0.075	-0.182
-231.786	-100.592	0.132	0.033
-230.771	800.000	-0.015	0.064
-229.757	-144.795	0.222	-0.020
-228.742	-100.741	-0.150	0.037
-227.727	-109.877	-0.086	-0.018
-226.713	-71.586	0.062	-0.023
-225.698	-140.230	0.239	0.025
-224.684	536.067	0.145	-0.342
-223.669	3.057	-0.157	0.114
-222.655	-45.459	0.194	0.096
-221.640	435.491	-0.065	0.142
-220.625	334.008	0.218	-0.420
-219.611	-150.165	-0.495	-0.038
-218.596	800.000	-0.137	0.406
-217.582	-91.988	-0.208	0.059
-216.567	-157.064	0.258	0.016
-215.552	-155.684	0.307	-0.020
-214.538	11.296	-0.221	0.169
-213.523	-48.218	0.389	-0.187
-212.509	800.000	-0.085	0.330
-211.494	-142.218	0.289	0.029
-210.479	-108.030	0.250	-0.054
-209.465	-11.069	-0.430	0.283
-208.450	-18.211	-0.234	0.146
-207.436	800.000	0.074	-0.280
-206.421	73.039	0.098	-0.103
-205.406	800.000	-0.043	0.188
-204.392	-12.293	0.303	-0.197
-203.377	800.000	-0.092	-0.290
-202.363	233.836	-0.083	-0.137
-201.348	368.613	-0.078	-0.157
-200.333	548.225	0.152	-0.364
-199.319	319.032	-0.023	0.043
-198.304	-136.150	-0.183	0.021
-197.290	-6.107	-0.184	0.125
-196.275	-155.411	-0.080	0.005
-195.260	-27.460	-0.264	0.153
-194.246	-200.000	-0.013	-0.072
-193.231	713.816	-0.041	-0.108
-192.217	-123.593	-0.083	-0.013
-191.202	-74.703	-0.126	0.045
-190.187	172.144	0.175	-0.251
-189.173	-200.000	0.047	0.325
-188.158	119.000	0.166	-0.204
-187.144	-200.000	0.028	-0.361
-186.129	-93.334	0.101	-0.028
-185.114	-176.849	-0.433	0.011
-184.100	-84.640	-0.205	-0.064
-183.085	-126.421	-0.114	-0.017
-182.071	172.172	0.085	-0.121
-181.056	800.000	0.044	0.135
-180.042	181.636	0.026	0.038
-179.027	240.373	-0.049	-0.081
-178.012	-102.834	0.131	-0.031
-176.998	216.966	-0.292	0.463
-175.983	389.171	-0.056	0.115
-174.969	172.922	0.139	-0.199
-173.954	-82.341	0.074	0.024
-172.939	20.188	-0.025	-0.020
-171.925	38.175	-0.178	-0.158
-170.910	-200.000	0.039	-0.255
-169.896	-200.000	0.001	-0.203
-168.881	3.823	0.182	0.132
-167.866	800.000	0.050	0.154
-166.852	-107.119	-0.118	-0.026
-165.837	96.528	-0.166	-0.190
-164.823	-86.245	0.271	-0.083
-163.808	-19.877	0.229	0.141
-162.793	-54.373	0.132	0.060
-161.779	54.078	0.199	0.191
-160.764	800.000	0.098	-0.392
-159.750	-200.000	-0.064	-0.295
-158.735	-3.644	-0.114	0.079
-157.720	-159.752	0.189	0.010
-156.706	-200.000	0.013	-0.136
-155.691	64.022	-0.113	-0.113
-154.677	-200.000	-0.029	-0.258
-153.662	800.000	0.120	0.370
-152.647	165.790	0.140	0.197
-151.633	569.032	0.066	-0.159
-150.618	32.304	0.231	-0.199
-149.604	800.000	-0.115	-0.364
-148.589	359.004	-0.106	0.211
-147.574	800.000	-0.070	-0.219
-146.560	87.206	-0.135	-0.148
-145.545	-92.991	-0.145	-0.040
-144.531	0.481	0.123	0.088
-143.516	350.222	-0.112	0.221
-142.502	18.362	0.219	0.174
-141.487	138.352	-0.085	0.112
-140.472	78.493	0.039	-0.041
-139.458	-93.999	-0.310	0.085
-138.443	4.483	-0.360	-0.262
-137.429	-152.113	0.398	0.029
-136.414	543.555	0.058	0.139
-135.399	-125.647	-0.297	-0.045
-134.385	-58.457	-0.094	-0.040
-133.370	278.199	-0.118	0.209
-132.356	-129.089	-0.092	0.013
-131.341	-200.000	0.028	-0.271
-130.326	-81.391	-0.106	0.035
-129.312	-52.287	0.051	0.023
-128.297	-142.411	0.261	-0.026
-127.283	-52.579	-0.223	0.102
-126.268	800.000	0.051	-0.182
-125.253	223.946	-0.044	0.071
-124.239	800.000	-0.104	-0.363
-123.224	-187.792	0.080	-0.001
-122.210	-65.901	0.069	0.027
