DTS Sentinel unit serial number:	SN413079Multiplexer serial number:	ORYXHardware model number:	OX4-SRSoftware version number:	ORYX F/W v4.00 Oryx Data Collector v3.7.2.0data status	okinstallation	princeton_trtdifferential loss correction	single-endedforward channel	channel 1reverse channel	N/Adate	2019/09/16time	06:46:35forward acquisition time	60.00reverse acquisition time	0.00gamma	496.2192k internal	0.2331k external	0.2331temperature offset calibration	0.9987default loss term (dB/km)	0.3790temperature slope calibration	1.0000multiplexer offset coefficient	1.0000multiplexer slope coefficient	1.0000fibre end	0.00T internal ref (°C)	27.37T ext. ref 1 (°C)	11.45T ext. ref 2 (°C)	21.83length (m)	temperature (°C)	Stokes	anti-Stokes-747.200	-200.000	-0.041	-0.216
-746.185	800.000	-0.097	0.401
-745.171	-35.134	0.207	0.114
-744.156	-200.000	-0.062	-0.311
-743.142	-110.937	-0.316	0.065
-742.127	-114.481	-0.220	-0.043
-741.112	-119.285	0.337	-0.059
-740.098	800.000	-0.146	0.557
-739.083	291.048	0.070	-0.128
-738.069	6.400	-0.148	-0.111
-737.054	-52.140	0.247	0.115
-736.039	-18.878	-0.276	-0.173
-735.025	40.114	0.325	0.294
-734.010	17.289	-0.104	-0.083
-732.996	173.138	-0.257	0.373
-731.981	800.000	-0.076	0.307
-730.966	119.145	-0.086	-0.107
-729.952	20.969	0.184	-0.150
-728.937	-200.000	0.062	0.312
-727.923	-74.844	-0.228	-0.082
-726.908	276.321	0.050	-0.090
-725.894	-116.326	-0.170	-0.032
-724.879	-193.940	-0.242	-0.002
-723.864	27.772	-0.258	-0.219
-722.850	-43.229	-0.105	0.053
-721.835	-77.251	0.147	-0.051
-720.821	-200.000	-0.008	0.066
-719.806	-110.199	0.285	-0.060
-718.791	-42.790	-0.052	0.026
-717.777	626.615	-0.087	0.222
-716.762	25.721	0.236	0.198
-715.748	24.057	0.259	-0.215
-714.733	72.634	-0.161	-0.169
-713.718	132.077	-0.266	-0.344
-712.704	-54.321	-0.311	0.142
-711.689	-200.000	-0.012	0.165
-710.675	800.000	0.109	-0.304
-709.660	325.041	0.173	-0.333
-708.645	-163.109	-0.247	-0.012
-707.631	28.251	-0.202	0.172
-706.616	140.485	0.255	0.339
-705.602	-166.279	0.159	0.007
-704.587	-130.755	-0.315	-0.043
-703.572	68.932	-0.162	0.167
-702.558	-112.159	0.202	0.041
-701.543	95.960	0.176	0.202
-700.529	-200.000	-0.019	0.156
-699.514	102.460	0.396	-0.465
-698.499	-12.039	-0.137	-0.090
-697.485	800.000	-0.089	0.291
-696.470	-135.124	-0.100	0.012
-695.456	-200.000	-0.024	0.120
-694.441	486.005	-0.119	-0.273
-693.426	800.000	0.040	0.149
-692.412	148.758	-0.052	-0.070
-691.397	-135.415	0.111	0.013
-690.383	-200.000	0.010	-0.308
-689.368	800.000	0.004	-0.012
-688.354	-153.712	-0.313	0.022
-687.339	280.088	-0.034	0.062
-686.324	-200.000	0.041	-0.273
-685.310	621.499	-0.048	-0.122
-684.295	-108.688	-0.612	0.132
-683.281	-28.344	0.156	0.090
-682.266	122.821	0.121	0.152
-681.251	-175.184	-0.217	0.006
-680.237	-195.537	-0.155	-0.001
-679.222	-41.937	0.279	0.143
-678.208	-100.235	0.047	0.012
-677.193	-19.015	0.081	0.050
-676.178	277.373	0.158	0.283
-675.164	-116.307	-0.303	-0.056
-674.149	-102.237	-0.319	-0.077
-673.135	-200.000	-0.009	0.209
-672.120	469.877	-0.098	0.221
-671.105	-132.926	0.209	0.027
-670.091	-200.000	0.001	0.102
-669.076	730.631	0.110	-0.296
-668.062	-200.000	-0.054	0.474
-667.047	-200.000	0.067	0.318
-666.032	90.963	0.205	0.230
-665.018	-115.567	-0.117	-0.022
-664.003	196.273	-0.116	0.178
-662.989	-70.120	-0.231	-0.088
-661.974	16.386	-0.136	0.108
-660.959	80.483	-0.205	-0.222
-659.945	36.575	0.171	0.151
-658.930	-102.559	0.199	-0.048
-657.916	-0.000	-0.089	0.064
-656.901	-148.518	-0.043	0.003
-655.886	-147.443	0.325	-0.028
-654.872	800.000	0.064	-0.206
-653.857	-113.556	0.247	0.048
-652.843	124.395	-0.230	0.290
-651.828	-200.000	0.047	-0.227
-650.814	44.228	-0.234	0.215
-649.799	259.965	0.118	-0.204
-648.784	-21.983	0.095	0.058
-647.770	-49.623	0.164	-0.078
-646.755	-43.271	-0.168	0.085
-645.741	800.000	-0.025	-0.071
-644.726	-42.034	0.332	-0.170
-643.711	233.775	-0.057	0.094
-642.697	-116.718	-0.097	0.018
-641.682	214.101	0.033	0.053
-640.668	-130.940	-0.289	0.039
-639.653	68.454	0.205	-0.210
-638.638	456.734	-0.130	-0.290
-637.624	17.017	-0.238	-0.189
-636.609	-200.000	0.016	0.087
-635.595	-130.049	-0.304	0.042
-634.580	-96.537	-0.241	-0.064
-633.565	-100.998	0.368	-0.091
-632.551	69.245	0.098	-0.101
-631.536	131.335	-0.127	-0.163
-630.522	174.659	-0.070	-0.102
-629.507	420.875	0.246	-0.528
-628.492	-15.336	-0.347	0.222
-627.478	0.193	0.087	-0.062
-626.463	-26.338	-0.170	-0.100
-625.449	-200.000	-0.025	0.335
-624.434	-77.256	-0.189	-0.066
-623.419	-27.395	-0.187	-0.109
-622.405	-188.352	0.230	0.003
-621.390	182.628	0.081	-0.119
-620.376	111.627	0.154	-0.186
-619.361	800.000	0.059	-0.207
-618.346	31.376	0.253	-0.217
-617.332	50.838	-0.079	-0.075
-616.317	-51.764	-0.129	0.060
-615.303	-52.748	0.063	0.029
-614.288	-47.259	-0.028	-0.013
-613.273	-200.000	-0.014	-0.263
-612.259	-200.000	0.020	-0.333
-611.244	-20.118	-0.290	0.179
-610.230	-31.458	-0.087	0.049
-609.215	-200.000	0.029	0.158
-608.201	143.006	0.134	-0.178
-607.186	99.868	-0.058	-0.068
-606.171	92.475	-0.118	0.133
-605.157	-200.000	0.023	0.265
-604.142	6.825	0.079	0.059
-603.128	174.276	0.138	-0.200
-602.113	-20.076	-0.057	0.035
-601.098	37.683	-0.133	0.118
-600.084	-19.067	-0.162	-0.101
-599.069	70.931	0.198	-0.205
-598.055	-46.110	-0.151	-0.074
-597.040	800.000	-0.023	-0.069
-596.025	-115.011	-0.275	0.052
-595.011	-57.757	0.143	0.062
-593.996	155.163	-0.075	0.104
-592.982	53.882	0.359	0.345
-591.967	227.654	0.096	0.156
-590.952	-82.695	-0.310	-0.100
-589.938	-21.555	-0.245	-0.150
-588.923	50.435	0.165	-0.156
-587.909	-90.992	-0.099	-0.029
-586.894	210.475	0.191	0.300
-585.879	-135.154	-0.076	-0.009
-584.865	111.487	-0.258	-0.311
-583.850	51.165	-0.133	-0.127
-582.836	327.673	0.012	-0.022
-581.821	800.000	0.048	0.132
-580.806	14.818	-0.216	-0.169
-579.792	-15.428	-0.357	-0.228
-578.777	303.578	-0.033	0.061
-577.763	-91.778	-0.356	-0.101
-576.748	339.208	-0.065	0.126
-575.733	2.816	0.136	0.099
-574.719	78.032	-0.219	-0.234
-573.704	800.000	0.045	0.134
-572.690	-183.069	-0.237	0.004
-571.675	-200.000	-0.006	-0.173
-570.661	84.477	-0.141	-0.154
-569.646	-200.000	-0.011	0.134
-568.631	-200.000	0.011	0.275
-567.617	800.000	-0.108	-0.372
-566.602	144.504	0.116	-0.154
-565.588	-0.283	-0.280	0.199
-564.573	800.000	0.064	0.234
-563.558	205.411	0.082	0.127
-562.544	-200.000	-0.058	-0.512
-561.529	-105.942	-0.116	0.026
-560.515	-200.000	0.007	0.213
-559.500	-32.102	0.112	0.063
-558.485	242.012	-0.015	-0.024
-557.471	-200.000	0.004	-0.038
-556.456	800.000	0.016	-0.047
-555.442	9.905	-0.105	-0.080
-554.427	-87.801	-0.259	-0.078
-553.412	-200.000	0.022	0.110
-552.398	766.922	-0.131	-0.357
-551.383	-4.946	0.190	-0.131
-550.369	214.611	0.114	-0.181
-549.354	-199.788	-0.279	0.001
-548.339	29.975	-0.229	-0.195
-547.325	-47.963	-0.222	0.107
-546.310	-108.018	0.274	-0.059
-545.296	-200.000	0.002	0.197
-544.281	53.421	-0.114	0.109
-543.266	61.266	-0.243	-0.241
-542.252	-43.475	0.187	0.094
-541.237	-118.239	0.169	-0.030
-540.223	44.429	0.169	0.155
-539.208	800.000	-0.060	0.179
-538.193	-27.203	-0.172	0.100
-537.179	31.246	-0.058	0.050
-536.164	144.308	-0.086	-0.114
-535.150	30.240	0.314	0.268
-534.135	97.443	-0.053	0.061
-533.121	-82.314	0.189	0.061
-532.106	-145.835	0.362	0.032
-531.091	-92.145	0.036	0.010
-530.077	-53.408	0.352	-0.161
-529.062	711.729	-0.080	-0.211
-528.048	276.897	-0.121	0.215
-527.033	-66.507	0.101	0.040
-526.018	800.000	-0.058	0.220
-525.004	-200.000	0.021	-0.111
-523.989	-189.932	-0.295	0.003
-522.975	506.054	0.074	0.170
-521.960	-200.000	-0.011	0.232
-520.945	189.288	-0.024	-0.036
-519.931	-200.000	0.001	-0.015
-518.916	-200.000	0.052	0.390
-517.902	407.682	-0.098	-0.207
-516.887	241.868	-0.164	0.273
-515.872	800.000	-0.054	0.208
-514.858	-102.725	-0.260	-0.062
-513.843	461.705	0.193	0.429
-512.829	111.918	0.129	-0.155
-511.814	76.553	0.198	0.209
-510.799	300.802	0.096	-0.177
-509.785	800.000	0.141	0.425
-508.770	-200.000	0.054	-0.273
-507.756	-52.461	0.112	0.051
-506.741	-36.722	0.329	-0.176
-505.726	151.958	-0.129	0.175
-504.712	610.831	0.054	-0.135
-503.697	-109.674	-0.158	0.033
-502.683	-62.577	0.167	0.069
-501.668	-31.111	-0.045	0.025
-500.653	-139.764	-0.287	-0.030
-499.639	-103.376	-0.134	0.032
-498.624	-200.000	-0.060	0.350
-497.610	-114.391	0.109	0.021
-496.595	-200.000	-0.007	0.037
-495.581	-200.000	0.016	-0.109
-494.566	58.595	0.096	0.094
-493.551	-87.699	-0.044	-0.013
-492.537	334.353	0.087	0.167
-491.522	-118.146	-0.437	-0.078
-490.508	57.811	0.170	0.166
-489.493	-167.990	-0.432	0.017
-488.478	-124.993	0.222	0.034
-487.464	437.453	0.057	0.123
-486.449	-200.000	-0.019	0.141
-485.435	377.485	0.038	0.078
-484.420	616.586	0.188	0.469
-483.405	-200.000	0.013	0.483
-482.391	-118.092	-0.282	0.050
-481.376	-200.000	0.010	-0.237
-480.362	39.955	-0.366	0.328
-479.347	97.532	-0.106	0.122
-478.332	-200.000	-0.014	0.129
-477.318	-76.972	-0.154	-0.054
-476.303	-200.000	0.014	-0.206
-475.289	800.000	-0.011	0.041
-474.274	-126.511	0.208	0.031
-473.259	156.973	-0.068	0.094
-472.245	103.319	0.214	0.249
-471.230	800.000	-0.114	0.365
-470.216	800.000	-0.082	-0.262
-469.201	-123.251	-0.083	0.013
-468.186	40.281	0.136	0.122
-467.172	800.000	-0.222	-0.616
-466.157	124.409	-0.061	0.076
-465.143	-143.644	-0.076	-0.007
-464.128	130.502	-0.077	0.098
-463.113	-9.135	0.110	-0.073
-462.099	800.000	0.110	-0.331
-461.084	476.124	-0.070	0.156
-460.070	-200.000	0.027	0.239
-459.055	-84.540	0.279	-0.088
-458.040	-100.310	-0.436	0.108
-457.026	-68.250	0.420	-0.162
-456.011	-52.651	-0.061	-0.028
-454.997	-11.924	-0.162	0.106
-453.982	75.180	-0.091	-0.095
-452.968	800.000	-0.124	0.432
-451.953	52.937	-0.194	0.185
-450.938	12.450	0.175	0.134
-449.924	-63.066	0.088	0.036
-448.909	330.097	-0.153	0.292
-447.895	800.000	-0.098	-0.350
-446.880	144.024	0.183	0.243
-445.865	214.630	-0.104	0.164
-444.851	0.329	-0.176	0.125
-443.836	-123.007	-0.156	0.025
-442.822	-118.562	-0.293	0.052
-441.807	192.640	0.129	-0.194
-440.792	-53.505	-0.318	-0.145
-439.778	-200.000	0.001	-0.032
-438.763	191.082	0.140	0.209
-437.749	226.528	0.127	0.205
-436.734	-65.080	-0.305	0.122
-435.719	65.952	-0.177	0.179
-434.705	293.060	0.112	0.203
-433.690	46.922	0.055	0.051
-432.676	-200.000	0.007	-0.099
-431.661	68.416	0.198	0.201
-430.646	787.406	-0.071	-0.192
-429.632	64.744	0.058	-0.058
-428.617	17.881	-0.153	0.121
-427.603	-185.224	0.130	0.002
-426.588	282.967	-0.048	-0.085
-425.573	493.143	-0.055	0.125
-424.559	-159.774	0.224	-0.012
-423.544	26.029	0.076	-0.063
-422.530	-200.000	0.019	-0.162
-421.515	60.057	0.065	-0.064
-420.500	-183.702	0.292	0.005
-419.486	-2.224	-0.217	-0.152
-418.471	4.705	-0.078	-0.057
-417.457	800.000	-0.021	0.069
-416.442	-32.941	-0.142	0.078
-415.428	-138.934	0.093	0.010
-414.413	-40.410	0.158	-0.081
-413.398	-87.389	0.241	0.072
-412.384	146.080	0.303	0.404
-411.369	-115.005	-0.059	0.011
-410.355	176.911	0.088	0.127
-409.340	800.000	-0.011	-0.042
-408.325	9.329	0.197	0.148
-407.311	103.556	0.115	0.134
-406.296	-47.615	-0.342	-0.165
-405.282	67.727	-0.140	-0.142
-404.267	-146.917	0.114	0.010
-403.252	-141.669	0.179	-0.018
-402.238	-101.714	0.201	-0.048
-401.223	49.779	0.148	-0.138
-400.209	-47.236	0.335	0.162
-399.194	-113.800	0.228	-0.044
-398.179	-35.821	0.272	-0.146
-397.165	-167.086	0.101	-0.004
-396.150	-178.960	-0.201	0.005
-395.136	222.735	0.164	-0.263
-394.121	-200.000	0.020	-0.182
-393.106	800.000	0.044	-0.150
-392.092	-200.000	-0.006	0.193
-391.077	-200.000	0.011	-0.094
-390.063	-200.000	0.075	-0.363
-389.048	-93.336	-0.301	0.083
-388.033	20.430	0.088	-0.071
-387.019	-11.119	0.122	0.080
-386.004	-200.000	-0.018	-0.083
-384.990	349.893	-0.089	-0.174
-383.975	-200.000	0.048	0.305
-382.960	172.559	0.055	0.078
-381.946	-132.803	-0.227	-0.029
-380.931	157.055	0.070	-0.095
-379.917	1.403	-0.114	0.081
-378.902	-16.602	0.149	-0.093
-377.888	-7.546	0.136	-0.091
-376.873	-83.788	0.380	-0.120
-375.858	81.073	0.098	-0.105
-374.844	127.697	-0.160	0.201
-373.829	-1.753	-0.295	-0.206
-372.815	-145.561	0.413	0.037
-371.800	-200.000	0.005	0.038
-370.785	-72.403	0.062	0.023
-369.771	-131.117	0.239	0.032
-368.756	456.417	-0.039	-0.085
-367.742	123.583	0.047	0.059
-366.727	-102.167	0.154	-0.037
-365.712	800.000	0.052	0.159
-364.698	800.000	-0.057	-0.155
-363.683	103.704	-0.080	0.093
-362.669	562.824	0.103	0.248
-361.654	55.567	-0.077	0.074
-360.639	-0.275	0.077	-0.055
-359.625	-15.677	-0.072	-0.045
-358.610	800.000	-0.039	0.164
-357.596	-112.971	-0.199	0.039
-356.581	-31.136	0.267	0.149
-355.566	-10.101	-0.114	0.075
-354.552	-58.536	0.238	-0.103
-353.537	13.860	0.070	-0.054
-352.523	392.741	-0.108	-0.223
-351.508	-43.053	0.282	-0.142
-350.493	-200.000	0.070	-0.376
-349.479	800.000	-0.063	0.191
-348.464	274.091	-0.116	-0.203
-347.450	49.375	-0.318	0.297
-346.435	-200.000	-0.016	-0.120
-345.420	-97.908	0.276	-0.071
-344.406	242.305	0.085	-0.140
-343.391	-83.858	-0.287	-0.090
-342.377	-93.064	-0.099	-0.027
-341.362	89.885	0.025	-0.027
-340.348	-200.000	-0.049	0.242
-339.333	-61.951	0.043	-0.018
-338.318	-171.972	-0.238	0.008
-337.304	800.000	0.029	0.118
-336.289	-176.471	0.339	0.009
-335.275	800.000	-0.091	-0.269
-334.260	-169.771	0.256	-0.009
-333.245	-98.363	0.220	0.056
-332.231	-200.000	0.049	0.446
-331.216	-58.019	-0.122	0.053
-330.202	-9.414	-0.320	0.211
-329.187	-61.562	-0.268	-0.111
-328.172	46.057	-0.151	-0.139
-327.158	693.922	-0.046	0.119
-326.143	-72.964	0.242	-0.088
-325.129	-100.338	-0.157	0.039
-324.114	-35.944	0.186	-0.099
-323.099	677.334	0.287	-0.737
-322.085	-90.241	0.102	0.029
-321.070	-193.256	0.261	0.002
-320.056	292.060	0.155	-0.280
-319.041	-124.096	0.074	-0.012
-318.026	738.651	-0.132	0.350
-317.012	-101.174	0.119	-0.029
-315.997	-200.000	-0.023	-0.129
-314.983	-200.000	0.008	0.243
-313.968	800.000	0.008	0.025
-312.953	-26.760	0.251	-0.145
-311.939	78.957	-0.100	0.106
-310.924	69.023	-0.208	0.212
-309.910	586.608	-0.057	-0.139
-308.895	-25.760	-0.245	0.143
-307.880	-200.000	-0.037	-0.295
-306.866	-141.749	0.520	-0.052
-305.851	437.818	0.023	0.050
-304.837	-35.339	0.117	0.063
-303.822	27.142	0.178	0.148
-302.807	-157.554	-0.290	-0.017
-301.793	-30.433	-0.142	-0.080
-300.778	164.973	0.161	-0.224
-299.764	-80.253	0.137	0.045
-298.749	-115.645	0.271	0.050
-297.735	800.000	-0.026	-0.075
-296.720	-19.630	-0.310	-0.190
-295.705	179.562	0.090	-0.130
-294.691	-200.000	-0.045	-0.467
-293.676	-200.000	0.006	-0.190
-292.662	-53.151	-0.093	-0.042
-291.647	-62.160	-0.292	-0.120
-290.632	69.309	-0.137	-0.139
-289.618	-128.837	-0.238	0.033
-288.603	-44.072	0.112	0.056
-287.589	-17.025	-0.110	-0.069
-286.574	9.948	0.204	-0.153
-285.559	-143.004	-0.210	0.020
-284.545	-129.626	-0.137	-0.019
-283.530	-75.443	-0.162	0.057
-282.516	-115.280	-0.042	-0.008
-281.501	44.531	0.128	-0.116
-280.486	-127.968	0.179	0.025
-279.472	-162.350	0.098	-0.005
-278.457	-200.000	-0.017	0.129
-277.443	137.206	0.101	0.130
-276.428	161.793	-0.095	-0.132
-275.413	-56.127	-0.145	-0.064
-274.399	-200.000	-0.012	-0.058
-273.384	-135.122	0.243	-0.029
-272.370	800.000	-0.064	-0.245
-271.355	137.119	-0.058	-0.074
-270.340	-16.852	-0.106	-0.066
-269.326	23.527	-0.269	-0.218
-268.311	-15.641	0.280	-0.176
-267.297	-19.091	0.160	-0.098
-266.282	134.634	0.235	-0.301
-265.267	143.910	-0.059	-0.078
-264.253	-109.545	-0.273	-0.057
-263.238	463.555	0.128	0.282
-262.224	340.612	0.199	0.383
-261.209	800.000	0.044	-0.151
-260.195	-64.627	0.141	0.057
-259.180	-23.557	-0.100	-0.059
-258.165	800.000	-0.121	0.344
-257.151	83.373	0.163	-0.176
-256.136	93.758	-0.042	0.047
-255.122	-57.980	-0.076	0.033
-254.107	-200.000	0.026	0.204
-253.092	123.644	0.265	0.328
-252.078	-35.703	-0.190	0.102
-251.063	160.220	0.081	0.111
-250.049	234.282	-0.182	0.297
-249.034	800.000	-0.064	0.200
-248.019	-37.420	0.231	0.122
-247.005	19.154	-0.309	-0.245
-245.990	84.154	-0.125	-0.134
-244.976	800.000	0.037	0.138
-243.961	37.194	0.108	0.094
-242.946	-200.000	0.013	0.116
-241.932	-144.946	-0.233	-0.021
-240.917	-74.624	-0.196	-0.070
-239.903	-51.230	0.350	-0.162
-238.888	-112.386	-0.113	-0.022
-237.873	10.846	0.141	0.106
-236.859	-39.398	0.139	0.072
-235.844	-122.528	-0.373	-0.060
-234.830	-200.000	0.057	0.399
-233.815	29.838	-0.219	-0.184
-232.800	219.229	-0.111	-0.176
-231.786	-73.981	-0.225	0.080
-230.771	1.481	0.388	-0.276
-229.757	66.819	0.049	0.049
-228.742	65.173	-0.191	0.190
-227.727	-120.457	0.137	-0.023
-226.713	800.000	0.060	0.222
-225.698	-92.238	0.206	-0.057
-224.684	635.386	0.166	-0.414
-223.669	-64.031	0.158	-0.064
-222.655	-200.000	0.032	-0.201
-221.640	-40.906	-0.159	-0.081
-220.625	-106.882	-0.338	-0.074
-219.611	391.443	0.093	-0.191
-218.596	-72.374	-0.140	0.051
-217.582	-160.346	0.240	-0.013
-216.567	430.579	0.067	0.144
-215.552	-63.669	-0.357	0.144
-214.538	-110.143	-0.254	-0.052
-213.523	-200.000	0.053	-0.337
-212.509	37.759	0.119	-0.104
-211.494	11.858	0.069	0.052
-210.479	58.248	-0.320	-0.309
-209.465	-122.423	-0.189	0.030
-208.450	-74.795	0.138	0.049
-207.436	51.707	-0.188	0.177
-206.421	-200.000	-0.010	-0.064
-205.406	106.264	-0.076	0.088
-204.392	800.000	0.027	0.075
-203.377	7.151	0.442	0.325
-202.363	120.255	0.143	0.175
-201.348	-153.563	-0.141	-0.010
-200.333	554.291	0.040	0.096
-199.319	39.061	0.160	-0.141
-198.304	-52.510	-0.159	0.072
-197.290	800.000	0.185	0.530
-196.275	289.990	-0.064	-0.114
-195.260	402.970	0.107	-0.222
-194.246	800.000	0.189	0.595
-193.231	328.276	0.187	-0.354
-192.217	800.000	-0.050	0.167
-191.202	-105.482	-0.326	0.073
-190.187	-47.099	0.410	-0.197
-189.173	18.844	-0.079	0.062
-188.158	91.177	-0.274	0.303
-187.144	-86.326	-0.075	-0.023
-186.129	-73.706	0.077	-0.028
-185.114	-156.877	0.078	-0.005
-184.100	39.100	-0.107	-0.094
-183.085	-155.804	0.075	-0.005
-182.071	47.618	0.160	0.147
-181.056	101.923	0.226	-0.260
-180.042	-72.674	-0.258	0.094
-179.027	-167.130	0.090	0.004
-178.012	-200.000	-0.005	0.104
-176.998	241.040	0.100	-0.164
-175.983	-200.000	-0.021	-0.128
-174.969	1.037	-0.212	0.150
-173.954	444.602	-0.035	0.075
-172.939	55.969	0.024	-0.023
-171.925	-55.414	0.193	0.085
-170.910	800.000	0.078	0.311
-169.896	-200.000	-0.019	0.217
-168.881	-1.975	0.216	0.149
-167.866	106.927	0.108	-0.126
-166.852	666.076	-0.089	-0.225
-165.837	800.000	0.046	0.184
-164.823	719.056	0.064	0.168
-163.808	-200.000	-0.048	-0.413
-162.793	119.042	-0.200	-0.243
-161.779	748.248	0.100	0.264
-160.764	800.000	-0.106	0.450
-159.750	800.000	-0.069	0.275
-158.735	480.362	-0.149	-0.332
-157.720	-200.000	-0.020	-0.138
-156.706	-123.448	0.328	0.051
-155.691	-43.639	0.242	-0.120
-154.677	-103.044	0.131	0.030
-153.662	74.309	0.266	-0.275
-152.647	-200.000	-0.069	-0.467
-151.633	-200.000	0.036	-0.240
-150.618	-103.431	-0.261	-0.060
-149.604	52.552	0.097	-0.091
-148.589	-41.963	-0.195	-0.098
-147.574	800.000	-0.020	0.059
-146.560	800.000	0.164	-0.561
-145.545	-89.150	0.290	-0.084
-144.531	651.715	0.210	0.530
-143.516	800.000	0.051	0.216
-142.502	143.300	-0.061	-0.079
-141.487	65.526	0.085	-0.085
-140.472	-200.000	-0.035	-0.177
-139.458	-123.778	0.110	0.017
-138.443	-180.871	0.055	0.001
-137.429	800.000	-0.113	0.406
-136.414	-17.534	0.236	-0.146
-135.399	82.779	-0.153	-0.163
-134.385	-200.000	-0.014	-0.119
-133.370	800.000	-0.132	-0.380
-132.356	3.884	0.187	-0.134
-131.341	-97.758	0.216	-0.055
-130.326	-137.789	-0.147	-0.016
-129.312	-106.297	0.191	-0.042
-128.297	-139.659	0.271	-0.028
-127.283	-200.000	-0.034	0.173
-126.268	-147.842	-0.142	-0.012
-125.253	-200.000	-0.058	0.319
-124.239	26.894	0.077	-0.063
-123.224	-200.000	-0.032	0.170
-122.210	-140.031	-0.180	0.019
-121.195	-9.925	-0.253	0.165
