DTS Sentinel unit serial number:	SN413079Multiplexer serial number:	ORYXHardware model number:	OX4-SRSoftware version number:	ORYX F/W v4.00 Oryx Data Collector v3.7.2.0data status	okinstallation	princeton_trtdifferential loss correction	single-endedforward channel	channel 1reverse channel	N/Adate	2019/09/19time	00:06:36forward acquisition time	60.00reverse acquisition time	0.00gamma	496.2192k internal	0.2342k external	0.2342temperature offset calibration	1.0019default loss term (dB/km)	0.3790temperature slope calibration	1.0000multiplexer offset coefficient	1.0000multiplexer slope coefficient	1.0000fibre end	0.00T internal ref (°C)	22.94T ext. ref 1 (°C)	0.75T ext. ref 2 (°C)	15.80length (m)	temperature (°C)	Stokes	anti-Stokes-747.200	159.313	0.251	0.350
-746.185	-33.286	-0.387	0.215
-745.171	71.927	0.252	0.263
-744.156	-90.428	0.318	0.092
-743.142	-46.147	-0.052	-0.026
-742.127	800.000	-0.109	0.305
-741.112	-200.000	-0.005	0.139
-740.098	-178.847	-0.482	-0.011
-739.083	-61.377	0.292	0.123
-738.069	265.202	-0.048	0.084
-737.054	-73.563	0.109	0.040
-736.039	-109.360	-0.541	0.115
-735.025	9.787	0.326	0.247
-734.010	190.865	-0.159	-0.240
-732.996	-200.000	-0.003	-0.279
-731.981	36.084	-0.283	-0.250
-730.966	205.350	0.036	0.056
-729.952	304.612	-0.088	-0.163
-728.937	-200.000	-0.033	-0.475
-727.923	800.000	0.044	0.171
-726.908	-18.157	-0.277	0.173
-725.894	-110.982	0.077	0.016
-724.879	-48.931	0.251	-0.120
-723.864	476.471	-0.041	-0.093
-722.850	-200.000	-0.024	-0.211
-721.835	-18.674	0.130	-0.081
-720.821	-138.146	-0.186	0.021
-719.806	-200.000	0.000	0.248
-718.791	-140.046	0.264	0.028
-717.777	800.000	-0.142	-0.600
-716.762	-200.000	-0.041	0.262
-715.748	800.000	0.107	0.414
-714.733	-187.959	0.154	0.002
-713.718	800.000	-0.044	-0.139
-712.704	10.102	-0.236	0.180
-711.689	438.694	-0.158	-0.346
-710.675	304.362	0.083	-0.154
-709.660	301.124	-0.105	-0.193
-708.645	800.000	-0.099	0.384
-707.631	-200.000	-0.044	0.474
-706.616	-141.835	0.229	0.023
-705.602	77.702	0.075	0.080
-704.587	78.328	0.103	0.111
-703.572	-179.039	0.078	-0.002
-702.558	-145.444	0.298	0.027
-701.543	-23.008	-0.283	-0.171
-700.529	-200.000	0.018	0.196
-699.514	-111.521	-0.286	-0.058
-698.499	211.161	0.116	0.183
-697.485	37.036	0.200	-0.177
-696.470	-138.705	0.286	0.031
-695.456	254.175	-0.114	0.195
-694.441	-109.299	0.194	0.041
-693.426	-167.941	0.285	0.011
-692.412	-120.824	-0.139	0.023
-691.397	-172.128	0.082	-0.003
-690.383	-52.505	0.147	-0.068
-689.368	800.000	0.063	0.186
-688.354	-68.856	-0.338	0.130
-687.339	-128.772	-0.281	0.040
-686.324	-15.220	0.146	0.093
-685.310	-133.376	-0.264	-0.033
-684.295	-8.324	0.364	-0.244
-683.281	-168.532	-0.093	-0.004
-682.266	-181.026	-0.381	0.008
-681.251	169.203	-0.056	-0.080
-680.237	45.963	-0.180	0.167
-679.222	85.426	-0.195	0.214
-678.208	271.899	0.160	-0.281
-677.193	-200.000	0.048	-0.215
-676.178	-99.195	-0.267	-0.067
-675.164	-40.329	0.157	0.081
-674.149	-124.590	0.142	0.022
-673.135	120.025	-0.188	0.233
-672.120	800.000	-0.055	0.225
-671.105	-142.136	0.352	0.035
-670.091	800.000	-0.028	0.111
-669.076	-200.000	-0.008	0.223
-668.062	103.968	-0.157	0.185
-667.047	-200.000	0.043	-0.216
-666.032	204.232	-0.175	0.271
-665.018	-200.000	-0.005	0.242
-664.003	-200.000	-0.018	-0.165
-662.989	-104.887	0.094	-0.022
-661.974	-124.277	-0.195	0.030
-660.959	307.449	0.113	0.209
-659.945	-44.086	-0.161	0.081
-658.930	244.524	-0.110	-0.184
-657.916	-124.195	0.407	-0.064
-656.901	49.352	-0.084	0.079
-655.886	732.645	-0.053	-0.141
-654.872	-200.000	-0.000	0.232
-653.857	319.104	-0.240	0.454
-652.843	-72.752	0.209	-0.077
-651.828	-37.240	-0.199	-0.106
-650.814	30.796	0.171	-0.146
-649.799	-76.968	0.261	0.091
-648.784	800.000	-0.045	0.141
-647.770	369.835	0.066	0.133
-646.755	-33.761	0.149	-0.082
-645.741	325.644	-0.230	-0.440
-644.726	-120.866	-0.214	-0.036
-643.711	191.773	0.083	-0.125
-642.697	-200.000	-0.027	0.155
-641.682	-200.000	-0.102	-0.473
-640.668	800.000	0.027	-0.115
-639.653	-145.350	-0.172	0.015
-638.638	122.277	-0.069	0.086
-637.624	800.000	-0.163	-0.564
-636.609	-73.242	-0.094	0.034
-635.595	-200.000	-0.015	0.147
-634.580	0.360	-0.170	-0.121
-633.565	464.704	-0.054	-0.120
-632.551	54.049	0.128	-0.123
-631.536	149.922	-0.038	0.051
-630.522	-112.022	0.365	-0.073
-629.507	30.016	-0.219	-0.186
-628.492	-168.545	0.172	0.007
-627.478	285.705	0.202	0.363
-626.463	412.333	-0.053	-0.112
-625.449	-200.000	-0.012	0.115
-624.434	-200.000	-0.013	0.256
-623.419	249.477	0.269	-0.455
-622.405	800.000	0.087	-0.283
-621.390	-68.364	0.244	0.094
-620.376	-101.438	-0.115	-0.028
-619.361	165.057	0.066	0.093
-618.346	-100.811	0.158	-0.039
-617.332	-200.000	0.014	0.183
-616.317	118.233	0.196	0.241
-615.303	-100.338	-0.129	-0.032
-614.288	71.689	-0.106	0.110
-613.273	800.000	0.087	0.374
-612.259	172.354	-0.016	0.022
-611.244	310.229	-0.146	0.272
-610.230	-108.947	-0.327	-0.070
-609.215	-98.743	-0.083	-0.021
-608.201	-32.022	0.245	-0.137
-607.186	99.902	0.242	0.279
-606.171	215.541	0.161	0.255
-605.157	80.679	0.059	-0.064
-604.142	-135.716	0.063	-0.007
-603.128	-47.961	-0.202	0.097
-602.113	90.199	0.090	0.100
-601.098	-78.511	0.072	0.025
-600.084	-141.714	-0.211	0.021
-599.069	-167.717	0.291	0.011
-598.055	80.428	0.223	0.239
-597.040	8.014	-0.213	-0.159
-596.025	-82.339	0.093	0.030
-595.011	26.985	0.174	0.145
-593.996	227.732	-0.085	-0.138
-592.982	301.551	0.090	-0.165
-591.967	376.846	0.025	0.051
-590.952	800.000	-0.056	0.169
-589.938	-124.669	-0.365	-0.056
-588.923	-200.000	0.089	0.418
-587.909	-200.000	0.013	-0.227
-586.894	186.456	0.050	0.075
-585.879	537.391	0.091	-0.215
-584.865	-100.226	-0.123	-0.031
-583.850	-9.250	-0.074	-0.049
-582.836	59.988	-0.084	-0.082
-581.821	88.197	0.155	0.171
-580.806	-26.736	0.148	0.086
-579.792	-109.569	-0.046	-0.010
-578.777	-200.000	-0.020	-0.193
-577.763	-200.000	-0.003	0.353
-576.748	-200.000	0.033	-0.221
-575.733	439.026	-0.023	0.050
-574.719	-69.576	-0.198	0.075
-573.704	-200.000	-0.013	0.212
-572.690	-50.069	-0.150	-0.071
-571.675	-1.827	-0.315	-0.221
-570.661	-71.599	0.210	-0.078
-569.646	30.564	-0.116	-0.099
-568.631	58.537	-0.186	0.182
-567.617	-200.000	-0.001	0.225
-566.602	9.840	-0.097	-0.073
-565.588	557.129	-0.134	-0.322
-564.573	-200.000	-0.010	-0.179
-563.558	-200.000	-0.004	0.117
-562.544	-167.526	0.428	-0.017
-561.529	-200.000	0.010	0.146
-560.515	40.899	-0.122	-0.110
-559.500	-13.945	-0.059	0.038
-558.485	299.056	0.126	0.230
-557.471	219.948	-0.094	-0.150
-556.456	-200.000	-0.006	0.042
-555.442	-93.934	-0.380	0.104
-554.427	-32.951	0.239	0.132
-553.412	68.148	-0.037	0.037
-552.398	-1.169	-0.159	0.111
-551.383	63.073	-0.274	-0.273
-550.369	-56.290	0.025	-0.011
-549.354	800.000	0.011	-0.046
-548.339	256.558	-0.227	-0.387
-547.325	-50.518	-0.151	0.071
-546.310	-67.841	-0.174	0.068
-545.296	-113.284	-0.226	0.044
-544.281	800.000	0.066	0.212
-543.266	800.000	0.133	-0.414
-542.252	6.139	-0.161	-0.119
-541.237	292.752	0.045	-0.082
-540.223	800.000	0.045	-0.168
-539.208	800.000	-0.135	0.491
-538.193	-173.100	-0.290	-0.009
-537.179	30.299	-0.162	-0.137
-536.164	415.760	-0.067	0.142
-535.150	-200.000	-0.014	-0.101
-534.135	41.306	0.252	0.227
-533.121	187.389	-0.081	-0.120
-532.106	275.001	-0.131	-0.230
-531.091	453.342	0.046	-0.101
-530.077	423.252	-0.060	-0.129
-529.062	-200.000	-0.001	0.031
-528.048	-17.203	-0.391	-0.245
-527.033	800.000	-0.044	0.151
-526.018	-67.754	0.138	-0.054
-525.004	120.039	-0.040	-0.049
-523.989	265.425	-0.173	-0.300
-522.975	23.726	-0.309	-0.253
-521.960	-155.763	-0.069	-0.004
-520.945	88.850	0.255	0.282
-519.931	800.000	0.056	-0.163
-518.916	-86.572	0.102	-0.031
-517.902	69.227	0.060	-0.061
-516.887	-173.971	-0.213	-0.006
-515.872	39.617	0.256	0.228
-514.858	126.162	0.148	0.186
-513.843	-163.485	-0.105	0.005
-512.829	-77.495	0.159	-0.055
-511.814	-87.390	0.160	-0.048
-510.799	-200.000	0.020	0.460
-509.785	-53.399	-0.178	-0.081
-508.770	-31.602	0.136	0.076
-507.756	110.837	-0.233	-0.279
-506.741	277.080	0.083	0.147
-505.726	492.420	-0.141	-0.321
-504.712	-200.000	0.048	-0.260
-503.697	29.168	0.123	0.104
-502.683	513.395	-0.149	-0.345
-501.668	-200.000	-0.000	0.184
-500.653	4.343	0.282	0.205
-499.639	-114.255	0.204	0.039
-498.624	-103.096	0.275	-0.065
-497.610	71.513	-0.194	0.200
-496.595	-96.583	-0.173	0.045
-495.581	-200.000	-0.037	0.253
-494.566	-123.918	-0.105	0.016
-493.551	-103.781	-0.151	-0.035
-492.537	-77.231	0.259	-0.089
-491.522	-68.197	-0.280	-0.108
-490.508	-146.309	0.065	0.006
-489.493	-35.095	-0.252	-0.136
-488.478	-19.338	0.148	0.091
-487.464	58.897	-0.169	0.165
-486.449	800.000	0.038	-0.150
-485.435	301.114	-0.096	-0.176
-484.420	87.924	0.068	-0.075
-483.405	800.000	-0.073	0.262
-482.391	-110.883	0.309	0.063
-481.376	-16.663	0.294	0.184
-480.362	-65.139	-0.260	0.104
-479.347	800.000	-0.034	0.106
-478.332	800.000	0.073	-0.254
-477.318	419.326	-0.151	-0.321
-476.303	-138.584	0.102	-0.011
-475.289	107.459	0.119	-0.140
-474.274	-88.882	0.344	-0.101
-473.259	-78.185	0.293	-0.100
-472.245	80.005	0.113	-0.120
-471.230	119.691	-0.312	0.383
-470.216	-99.188	0.205	-0.051
-469.201	360.846	-0.063	-0.125
-468.186	18.804	-0.195	-0.155
-467.172	-79.756	-0.260	-0.087
-466.157	-200.000	-0.042	-0.191
-465.143	800.000	-0.082	0.250
-464.128	315.508	-0.069	-0.128
-463.113	-100.342	-0.110	-0.027
-462.099	-128.348	-0.030	0.004
-461.084	800.000	-0.041	-0.153
-460.070	-145.472	0.168	-0.015
-459.055	56.155	0.122	-0.118
-458.040	87.000	0.233	0.255
-457.026	13.879	0.232	-0.179
-456.011	-200.000	0.013	-0.089
-454.997	52.362	0.250	0.236
-453.982	-73.421	-0.334	-0.121
-452.968	800.000	0.011	0.035
-451.953	520.994	0.129	-0.299
-450.938	-163.415	0.111	0.005
-449.924	0.149	0.165	0.116
-448.909	-161.050	0.225	-0.012
-447.895	-200.000	0.055	-0.245
-446.880	800.000	-0.117	0.323
-445.865	-0.269	0.105	0.074
-444.851	-200.000	0.051	-0.247
-443.836	522.286	0.169	-0.394
-442.822	14.300	-0.307	-0.237
-441.807	-46.499	0.201	-0.098
-440.792	-45.932	-0.454	0.222
-439.778	-84.981	-0.117	-0.036
-438.763	-124.845	-0.163	-0.025
-437.749	800.000	0.025	-0.090
-436.734	587.291	-0.059	0.144
-435.719	661.593	-0.067	0.172
-434.705	-200.000	-0.001	-0.246
-433.690	3.543	-0.154	0.111
-432.676	-14.234	-0.177	-0.113
-431.661	-159.457	0.393	-0.022
-430.646	-60.511	0.316	0.133
-429.632	-148.714	-0.330	-0.027
-428.617	-120.688	0.408	0.068
-427.603	-159.145	0.255	-0.014
-426.588	523.737	-0.050	-0.117
-425.573	-57.281	0.063	0.027
-424.559	-116.958	0.139	0.025
-423.544	-63.404	0.115	-0.047
-422.530	-143.332	-0.314	0.030
-421.515	-200.000	0.073	-0.342
-420.500	13.422	-0.203	-0.156
-419.486	-80.068	-0.127	0.042
-418.471	-24.872	0.201	-0.118
-417.457	48.889	-0.295	0.273
-416.442	22.402	-0.113	-0.092
-415.428	525.978	-0.072	0.167
-414.413	-94.345	-0.150	-0.041
-413.398	-10.714	-0.066	-0.043
-412.384	-85.923	0.104	-0.032
-411.369	-146.526	0.153	-0.013
-410.355	-80.981	-0.194	0.063
-409.340	-200.000	0.003	-0.095
-408.325	508.162	-0.115	0.264
-407.311	560.934	-0.139	0.332
-406.296	272.201	-0.229	-0.399
-405.282	-136.879	0.097	-0.011
-404.267	105.720	-0.043	-0.050
-403.252	-200.000	0.005	0.243
-402.238	-200.000	-0.009	-0.161
-401.223	-200.000	0.026	0.177
-400.209	72.606	0.122	0.125
-399.194	635.268	-0.063	0.159
-398.179	189.532	-0.095	-0.141
-397.165	31.343	-0.067	-0.057
-396.150	-78.988	0.268	0.090
-395.136	281.986	-0.112	0.198
-394.121	-72.143	0.348	0.127
-393.106	-68.731	-0.314	0.120
-392.092	190.815	0.062	-0.092
-391.077	84.038	-0.085	0.092
-390.063	426.171	0.151	-0.322
-389.048	-40.309	0.061	-0.032
-388.033	-122.377	0.232	0.037
-387.019	-150.075	0.121	-0.009
-386.004	76.746	0.206	-0.216
-384.990	31.119	0.224	0.190
-383.975	188.188	-0.118	0.174
-382.960	-129.101	0.352	0.049
-381.946	-173.102	0.115	-0.004
-380.931	800.000	-0.102	0.340
-379.917	143.211	0.342	0.449
-378.902	361.162	-0.009	0.019
-377.888	-0.366	0.197	0.138
-376.873	-10.029	-0.095	-0.063
-375.858	800.000	0.034	-0.116
-374.844	-200.000	-0.008	-0.047
-373.829	-73.471	-0.128	-0.046
-372.815	-200.000	0.008	-0.189
-371.800	237.100	-0.192	0.314
-370.785	0.935	-0.116	-0.082
-369.771	-56.187	-0.342	-0.150
-368.756	59.575	0.136	-0.133
-367.742	684.839	0.095	-0.245
-366.727	101.231	-0.103	-0.118
-365.712	80.527	-0.159	0.169
-364.698	233.169	-0.020	-0.032
-363.683	45.524	-0.330	-0.301
-362.669	800.000	0.052	0.178
-361.654	-200.000	0.283	-0.001
-360.639	-93.389	0.276	-0.076
-359.625	122.371	0.244	0.300
-358.610	-4.521	0.168	0.115
-357.596	424.747	-0.037	-0.078
-356.581	-99.307	0.482	0.120
-355.566	15.179	0.116	0.089
-354.552	800.000	0.093	0.312
-353.537	-1.900	0.116	-0.081
-352.523	710.555	-0.069	0.179
-351.508	91.591	0.249	-0.276
-350.493	-69.432	-0.295	0.112
-349.479	-200.000	-0.028	0.194
-348.464	-200.000	0.004	0.083
-347.450	-200.000	0.005	0.088
-346.435	-119.789	-0.174	0.030
-345.420	-200.000	-0.010	-0.097
-344.406	52.726	-0.240	-0.226
-343.391	54.677	-0.226	0.215
-342.377	-121.845	-0.158	0.026
-341.362	560.568	-0.199	0.474
-340.348	-130.770	0.223	0.030
-339.333	1.014	-0.385	-0.272
-338.318	65.095	-0.217	0.216
-337.304	111.086	-0.112	-0.133
-336.289	259.756	-0.209	-0.356
-335.275	2.646	-0.187	0.134
-334.260	13.919	-0.332	0.255
-333.245	117.669	0.153	-0.186
-332.231	-200.000	0.004	-0.325
-331.216	264.755	0.246	-0.422
-330.202	-31.999	-0.175	-0.097
-329.187	77.082	-0.131	-0.137
-328.172	-200.000	-0.025	-0.133
-327.158	-81.674	-0.148	0.048
-326.143	182.116	-0.065	0.094
-325.129	92.224	0.149	0.165
-324.114	88.897	-0.036	0.040
-323.099	800.000	-0.067	-0.278
-322.085	800.000	-0.045	0.157
-321.070	266.389	-0.085	0.147
-320.056	-103.487	-0.102	-0.024
-319.041	135.433	-0.196	0.251
-318.026	-200.000	-0.009	0.094
-317.012	800.000	-0.079	-0.316
-315.997	800.000	0.035	0.110
-314.983	-59.582	-0.448	-0.189
-313.968	-19.620	0.231	-0.141
-312.953	203.508	-0.167	-0.254
-311.939	-200.000	0.055	0.289
-310.924	1.705	0.186	0.132
-309.910	167.105	0.154	0.216
-308.895	-81.552	0.136	-0.044
-307.880	-159.376	-0.129	-0.007
-306.866	-2.417	0.266	0.184
-305.851	767.806	0.120	0.321
-304.837	11.912	-0.138	0.105
-303.822	317.354	0.191	-0.355
-302.807	110.267	0.057	-0.067
-301.793	120.306	0.034	-0.042
-300.778	-126.464	0.206	0.030
-299.764	-200.000	-0.011	0.071
-298.749	361.278	-0.194	-0.382
-297.735	32.472	-0.077	0.065
-296.720	-200.000	0.027	-0.208
-295.705	129.707	-0.105	-0.132
-294.691	-38.230	-0.185	0.096
-293.676	-64.781	-0.149	-0.059
-292.662	-44.176	0.157	0.078
-291.647	126.457	0.176	-0.220
-290.632	462.437	0.180	-0.395
-289.618	-200.000	0.037	0.485
-288.603	106.942	-0.144	0.168
-287.589	114.998	-0.170	0.204
-286.574	-98.762	0.269	0.067
-285.559	-125.465	-0.140	0.021
-284.545	-42.963	0.089	-0.044
-283.530	-59.023	0.258	-0.110
-282.516	214.826	0.182	-0.284
-281.501	-103.044	-0.130	0.030
-280.486	-37.636	0.571	0.299
-279.472	615.147	-0.074	0.181
-278.457	580.749	0.125	-0.301
-277.443	-1.599	0.275	0.190
-276.428	56.528	0.032	-0.031
-275.413	-40.428	0.136	0.070
-274.399	163.914	-0.220	-0.305
-273.384	591.231	-0.046	0.112
-272.370	-21.763	0.122	0.073
-271.355	98.252	-0.348	-0.394
-270.340	-200.000	-0.004	0.024
-269.326	165.942	0.171	0.238
-268.311	-140.975	0.148	-0.015
-267.297	-51.074	-0.082	-0.038
-266.282	500.498	-0.204	0.463
-265.267	-175.634	-0.090	0.002
-264.253	-49.300	-0.304	-0.143
-263.238	-76.291	-0.239	-0.083
-262.224	464.608	-0.006	0.014
-261.209	-28.734	0.304	0.172
-260.195	-27.645	0.187	0.107
-259.180	-40.601	-0.143	-0.073
-258.165	209.987	0.246	-0.380
-257.151	-200.000	0.005	-0.032
-256.136	24.113	0.221	0.179
-255.122	-106.145	0.278	-0.061
-254.107	398.233	-0.078	0.161
-253.092	149.324	0.070	-0.094
-252.078	30.693	0.070	0.059
-251.063	33.203	-0.189	0.161
-250.049	-55.645	0.262	0.115
-249.034	800.000	0.085	-0.291
-248.019	162.569	-0.103	-0.143
-247.005	41.731	-0.151	0.134
-245.990	316.303	0.194	-0.359
-244.976	800.000	0.133	-0.440
-243.961	110.811	0.096	-0.113
-242.946	-35.074	-0.100	0.053
-241.932	-200.000	0.020	0.317
-240.917	-89.792	-0.311	0.089
-239.903	-200.000	-0.032	0.216
-238.888	-200.000	0.007	0.063
-237.873	149.079	-0.092	-0.123
-236.859	-59.862	0.172	-0.072
-235.844	-86.160	-0.104	-0.032
-234.830	500.083	-0.050	0.114
-233.815	-24.180	0.011	-0.007
-232.800	-6.272	0.071	-0.048
-231.786	-200.000	-0.062	0.311
-230.771	-136.538	0.173	-0.020
-229.757	800.000	-0.016	0.049
-228.742	685.875	0.090	0.230
-227.727	132.428	0.124	0.157
-226.713	-34.795	0.117	-0.063
-225.698	-117.126	-0.144	-0.026
-224.684	-80.311	0.064	-0.021
-223.669	-200.000	0.055	-0.301
-222.655	92.109	0.200	-0.221
-221.640	-200.000	-0.029	0.285
-220.625	-14.757	-0.281	-0.177
-219.611	-200.000	-0.011	0.380
-218.596	-56.935	0.089	0.038
-217.582	154.532	0.333	0.448
-216.567	-91.230	-0.076	-0.021
-215.552	-67.688	0.118	0.045
-214.538	177.306	0.060	-0.086
-213.523	-200.000	-0.018	0.445
-212.509	165.466	0.185	-0.256
-211.494	-181.982	-0.228	-0.004
-210.479	353.606	-0.117	0.227
-209.465	-2.976	0.256	0.175
-208.450	800.000	0.061	-0.201
-207.436	180.955	-0.102	-0.146
-206.421	-74.944	0.259	-0.091
-205.406	800.000	0.053	-0.161
-204.392	716.720	-0.022	-0.058
-203.377	-200.000	-0.008	-0.048
-202.363	-125.614	-0.497	-0.074
-201.348	800.000	-0.057	0.212
-200.333	-53.942	0.370	-0.165
-199.319	-33.391	-0.052	0.028
-198.304	334.946	-0.118	-0.224
-197.290	-200.000	-0.056	0.278
-196.275	299.091	0.048	-0.087
-195.260	-127.430	0.164	-0.023
-194.246	717.432	0.010	-0.027
-193.231	-200.000	0.054	0.318
-192.217	29.146	0.022	-0.018
-191.202	47.366	-0.161	-0.147
-190.187	71.781	0.278	-0.284
-189.173	800.000	0.071	-0.299
-188.158	800.000	-0.057	0.176
-187.144	142.114	-0.151	0.196
-186.129	-200.000	-0.025	-0.111
-185.114	-27.916	0.058	0.033
-184.100	-200.000	0.017	-0.099
-183.085	453.202	-0.090	0.194
-182.071	402.676	-0.107	0.221
-181.056	-130.630	0.490	-0.065
-180.042	-200.000	0.023	-0.188
-179.027	-117.413	-0.289	-0.051
-178.012	42.764	0.128	0.115
-176.998	-200.000	0.009	0.275
-175.983	399.184	-0.047	-0.096
-174.969	-23.284	-0.163	0.096
-173.954	-110.450	-0.202	-0.041
-172.939	800.000	0.014	-0.047
-171.925	-114.643	-0.233	0.044
-170.910	-53.416	-0.134	0.060
-169.896	131.023	-0.128	0.161
-168.881	-88.735	-0.183	-0.053
-167.866	62.680	-0.106	-0.104
-166.852	-200.000	0.092	0.412
-165.837	143.532	0.091	0.118
-164.823	240.607	0.044	0.073
-163.808	800.000	0.082	-0.222
-162.793	800.000	0.077	-0.295
-161.779	316.659	-0.112	0.207
-160.764	-200.000	-0.018	0.147
-159.750	-136.307	0.323	-0.037
-158.735	-25.782	0.312	-0.180
-157.720	-42.818	0.076	-0.038
-156.706	-75.286	-0.194	-0.068
-155.691	281.070	-0.122	0.214
-154.677	179.472	0.145	-0.208
-153.662	-120.686	-0.318	0.053
-152.647	192.931	0.177	0.261
-151.633	-123.715	-0.206	0.032
-150.618	800.000	-0.032	-0.114
-149.604	-138.218	-0.149	-0.016
-148.589	-200.000	0.047	0.212
-147.574	-200.000	0.065	0.463
-146.560	-68.575	-0.304	0.115
-145.545	-103.052	0.333	-0.077
-144.531	110.698	-0.060	-0.071
-143.516	-150.342	0.220	-0.017
-142.502	-200.000	-0.069	0.360
-141.487	-145.044	0.137	0.012
-140.472	343.033	-0.103	-0.197
-139.458	-96.407	0.173	0.045
-138.443	-156.181	0.278	-0.017
-137.429	-200.000	0.011	0.062
-136.414	-113.665	-0.221	0.042
-135.399	-93.912	-0.162	0.044
-134.385	-178.106	-0.368	0.009
-133.370	-11.247	-0.395	0.255
-132.356	20.195	0.122	-0.096
-131.341	155.410	0.250	0.336
-130.326	72.916	-0.066	0.067
-129.312	329.569	0.110	0.207
-128.297	371.050	0.033	0.064
-127.283	-22.562	-0.252	-0.149
-126.268	-86.328	-0.107	-0.032
-125.253	41.404	0.234	0.207
-124.239	18.091	-0.136	0.106
-123.224	246.787	0.068	0.112
-122.210	-200.000	-0.056	0.346
