DTS Sentinel unit serial number:	SN413079Multiplexer serial number:	ORYXHardware model number:	OX4-SRSoftware version number:	ORYX F/W v4.00 Oryx Data Collector v3.7.2.0data status	okinstallation	princeton_trtdifferential loss correction	single-endedforward channel	channel 1reverse channel	N/Adate	2019/09/10time	21:08:11forward acquisition time	60.00reverse acquisition time	0.00gamma	496.2192k internal	0.2329k external	0.2329temperature offset calibration	0.9935default loss term (dB/km)	0.3790temperature slope calibration	1.0000multiplexer offset coefficient	1.0000multiplexer slope coefficient	1.0000fibre end	0.00T internal ref (°C)	31.50T ext. ref 1 (°C)	-0.32T ext. ref 2 (°C)	24.58length (m)	temperature (°C)	Stokes	anti-Stokes-747.200	800.000	-0.043	0.152
-746.185	133.971	-0.177	0.231
-745.171	-60.633	0.044	-0.019
-744.156	309.182	-0.109	-0.206
-743.142	-139.966	0.045	-0.005
-742.127	49.807	-0.274	0.260
-741.112	315.568	0.021	0.040
-740.098	-200.000	0.045	0.352
-739.083	-74.971	-0.157	-0.057
-738.069	-200.000	0.016	0.154
-737.054	79.474	-0.189	0.204
-736.039	118.734	-0.071	0.088
-735.025	-200.000	0.009	0.061
-734.010	29.171	0.186	-0.159
-732.996	-200.000	-0.021	-0.152
-731.981	-18.104	-0.250	0.158
-730.966	390.218	0.051	-0.106
-729.952	-195.670	-0.197	-0.001
-728.937	-125.680	-0.421	-0.064
-727.923	367.222	-0.140	-0.284
-726.908	123.230	-0.218	-0.275
-725.894	-173.965	0.184	-0.005
-724.879	-44.290	-0.165	-0.083
-723.864	31.107	-0.135	-0.116
-722.850	-111.392	0.157	0.032
-721.835	-67.907	-0.169	0.067
-720.821	24.524	-0.139	-0.115
-719.806	75.811	-0.235	-0.250
-718.791	800.000	-0.166	-0.531
-717.777	-200.000	-0.009	0.073
-716.762	-167.037	0.234	0.010
-715.748	272.447	-0.109	-0.194
-714.733	65.363	-0.247	-0.252
-713.718	122.430	0.113	-0.142
-712.704	206.103	0.061	-0.095
-711.689	-31.667	0.160	-0.091
-710.675	800.000	0.061	-0.173
-709.660	-95.685	-0.124	0.033
-708.645	-0.289	-0.161	0.115
-707.631	-77.962	-0.089	0.031
-706.616	-200.000	0.012	-0.097
-705.602	255.026	0.130	-0.225
-704.587	6.400	0.084	-0.063
-703.572	-200.000	-0.079	-0.381
-702.558	-191.336	-0.157	0.002
-701.543	-3.787	0.197	0.138
-700.529	800.000	0.073	-0.214
-699.514	103.368	0.182	-0.215
-698.499	-200.000	0.012	0.089
-697.485	20.052	-0.054	-0.044
-696.470	-30.532	-0.178	-0.102
-695.456	-153.896	0.323	-0.022
-694.441	-181.379	-0.089	0.002
-693.426	95.257	0.256	-0.294
-692.412	257.001	-0.108	-0.186
-691.397	30.297	0.140	0.120
-690.383	57.845	0.194	-0.191
-689.368	104.115	-0.257	0.304
-688.354	800.000	0.083	-0.310
-687.339	47.672	0.086	0.081
-686.324	116.458	0.077	0.095
-685.310	-186.509	-0.494	-0.007
-684.295	-163.252	0.261	0.013
-683.281	-40.831	-0.055	0.029
-682.266	-124.798	-0.316	-0.049
-681.251	-26.193	-0.253	0.149
-680.237	130.398	-0.150	-0.193
-679.222	315.841	0.203	-0.384
-678.208	-131.397	-0.255	-0.034
-677.193	-116.830	-0.327	-0.060
-676.178	-32.074	0.188	0.106
-675.164	49.793	0.154	0.146
-674.149	97.970	-0.089	-0.103
-673.135	-99.852	-0.066	-0.017
-672.120	357.195	0.141	-0.283
-671.105	-83.457	-0.207	-0.067
-670.091	-57.117	-0.284	-0.126
-669.076	-94.234	0.010	-0.003
-668.062	381.537	0.082	0.170
-667.047	-93.105	-0.335	-0.094
-666.032	-45.765	-0.221	-0.110
-665.018	-101.296	-0.406	-0.100
-664.003	-149.930	-0.377	-0.030
-662.989	-200.000	-0.037	-0.229
-661.974	-200.000	0.005	-0.049
-660.959	-87.793	-0.319	-0.096
-659.945	-56.893	-0.168	-0.075
-658.930	81.084	0.159	0.172
-657.916	172.696	-0.026	-0.037
-656.901	-200.000	-0.074	-0.339
-655.886	-102.860	-0.317	-0.076
-654.872	-63.177	0.080	-0.033
-653.857	-200.000	0.020	-0.156
-652.843	504.406	-0.070	-0.163
-651.828	-200.000	-0.053	-0.259
-650.814	311.339	0.109	-0.205
-649.799	98.314	0.058	-0.067
-648.784	-200.000	-0.037	-0.257
-647.770	64.186	0.304	-0.307
-646.755	-150.967	-0.452	-0.034
-645.741	-200.000	0.005	0.128
-644.726	48.132	-0.055	-0.052
-643.711	-53.098	-0.165	0.076
-642.697	-200.000	-0.026	-0.282
-641.682	-8.567	0.243	-0.164
-640.668	-69.057	-0.243	-0.094
-639.653	-157.391	-0.025	-0.002
-638.638	-200.000	-0.017	0.094
-637.624	-200.000	0.009	-0.256
-636.609	-50.396	-0.475	-0.225
-635.595	-200.000	0.025	-0.150
-634.580	30.003	-0.261	-0.223
-633.565	-200.000	-0.121	0.001
-632.551	800.000	-0.038	-0.135
-631.536	-200.000	-0.113	0.509
-630.522	-56.499	-0.534	-0.238
-629.507	509.147	-0.113	-0.264
-628.492	-39.307	-0.289	-0.152
-627.478	440.717	0.170	-0.373
-626.463	-50.677	0.194	0.092
-625.449	-200.000	-0.051	0.225
-624.434	-105.161	-0.164	-0.038
-623.419	92.208	0.090	0.101
-622.405	69.728	-0.137	0.141
-621.390	438.563	-0.074	0.161
-620.376	-54.401	0.104	-0.047
-619.361	-34.593	0.210	0.115
-618.346	-95.268	-0.342	-0.092
-617.332	-88.139	-0.151	0.045
-616.317	-82.566	-0.122	-0.040
-615.303	-123.059	0.391	0.063
-614.288	-1.004	0.325	0.230
-613.273	142.977	-0.282	-0.376
-612.259	-43.546	-0.215	-0.109
-611.244	-136.339	-0.378	0.044
-610.230	164.119	0.048	0.068
-609.215	-200.000	0.022	-0.168
-608.201	340.437	-0.089	-0.173
-607.186	384.016	-0.130	-0.268
-606.171	-80.647	-0.294	-0.098
-605.157	87.397	-0.105	0.116
-604.142	283.718	-0.129	0.232
-603.128	106.870	-0.172	-0.205
-602.113	352.100	0.099	-0.196
-601.098	-8.792	-0.233	-0.156
-600.084	-193.594	0.161	0.001
-599.069	-91.258	-0.198	0.057
-598.055	107.436	-0.164	-0.196
-597.040	32.070	0.193	-0.167
-596.025	-62.550	-0.144	-0.060
-595.011	-72.040	-0.109	-0.040
-593.996	-2.534	0.172	-0.120
-592.982	800.000	-0.059	0.219
-591.967	-148.968	0.298	0.024
-590.952	-200.000	0.100	0.000
-589.938	-28.098	0.252	0.146
-588.923	-200.000	0.002	0.012
-587.909	-129.677	0.121	0.017
-586.894	-62.927	-0.312	-0.129
-585.879	-200.000	-0.002	-0.174
-584.865	-200.000	-0.039	0.345
-583.850	-132.402	0.127	-0.016
-582.836	363.874	0.281	-0.565
-581.821	-77.869	-0.188	-0.065
-580.806	-35.323	-0.117	-0.064
-579.792	-200.000	-0.038	-0.222
-578.777	73.447	0.151	-0.158
-577.763	5.104	-0.212	-0.156
-576.748	-148.803	-0.291	-0.024
-575.733	364.974	-0.165	-0.332
-574.719	-14.234	-0.202	-0.130
-573.704	-21.180	-0.212	0.130
-572.690	-82.440	-0.082	-0.027
-571.675	-39.591	0.230	-0.121
-570.661	-200.000	0.002	0.232
-569.646	-200.000	-0.151	-0.001
-568.631	-11.735	0.124	0.082
-567.617	-200.000	0.056	0.354
-566.602	-74.793	-0.203	-0.073
-565.588	-13.457	0.234	-0.152
-564.573	800.000	-0.115	0.414
-563.558	-200.000	-0.056	-0.253
-562.544	-200.000	0.006	0.133
-561.529	-125.761	-0.100	0.015
-560.515	36.969	0.342	0.303
-559.500	423.427	0.085	-0.184
-558.485	166.972	-0.125	-0.177
-557.471	20.979	0.229	0.186
-556.456	286.025	-0.063	-0.113
-555.442	800.000	0.065	0.267
-554.427	-200.000	-0.008	0.071
-553.412	800.000	-0.071	0.263
-552.398	-200.000	-0.057	-0.359
-551.383	800.000	-0.052	0.198
-550.369	-78.747	0.434	0.148
-549.354	44.345	-0.274	-0.252
-548.339	800.000	0.047	-0.186
-547.325	112.736	0.188	0.228
-546.310	-64.283	-0.156	-0.063
-545.296	-163.154	0.233	-0.011
-544.281	416.736	-0.033	0.071
-543.266	124.346	-0.120	-0.150
-542.252	-200.000	0.019	-0.430
-541.237	-57.328	0.129	0.057
-540.223	-72.544	-0.233	-0.086
-539.208	-0.244	0.116	0.082
-538.193	-9.514	-0.291	-0.194
-537.179	66.121	-0.221	-0.224
-536.164	-200.000	-0.017	0.182
-535.150	800.000	-0.096	0.333
-534.135	679.259	-0.101	0.264
-533.121	-180.011	-0.256	-0.005
-532.106	-200.000	-0.010	0.108
-531.091	122.874	0.031	0.038
-530.077	247.134	-0.164	-0.277
-529.062	-200.000	0.013	0.518
-528.048	-153.702	0.175	-0.012
-527.033	-117.865	0.346	0.062
-526.018	-200.000	-0.010	0.176
-525.004	800.000	0.036	-0.156
-523.989	468.987	0.119	-0.266
-522.975	52.580	-0.093	-0.089
-521.960	-4.951	-0.354	-0.243
-520.945	-66.177	-0.282	-0.112
-519.931	-53.712	0.114	0.052
-518.916	14.376	-0.119	-0.093
-517.902	98.469	-0.064	0.074
-516.887	-1.643	0.148	-0.104
-515.872	99.107	-0.210	0.242
-514.858	-164.364	0.217	-0.010
-513.843	96.457	-0.150	-0.171
-512.829	-200.000	0.034	0.446
-511.814	-158.493	-0.177	0.010
-510.799	420.703	-0.206	-0.441
-509.785	114.632	0.261	0.317
-508.770	245.928	-0.108	-0.182
-507.756	-200.000	-0.044	0.278
-506.741	575.838	0.086	-0.210
-505.726	-147.095	0.256	-0.022
-504.712	-2.711	0.217	-0.151
-503.697	7.229	-0.317	-0.236
-502.683	-66.826	-0.265	-0.105
-501.668	-142.655	0.060	-0.006
-500.653	-29.066	0.106	-0.061
-499.639	437.768	-0.103	-0.223
-498.624	-200.000	-0.027	0.153
-497.610	242.256	0.108	0.180
-496.595	-60.328	-0.245	0.104
-495.581	15.016	0.124	-0.097
-494.566	-167.251	-0.234	-0.009
-493.551	-129.899	0.340	0.047
-492.537	-200.000	0.306	-0.001
-491.522	-5.519	0.224	-0.154
-490.508	-200.000	0.001	0.026
-489.493	219.427	-0.136	-0.218
-488.478	-118.872	0.164	-0.029
-487.464	398.944	-0.138	0.288
-486.449	-200.000	-0.005	0.170
-485.435	-200.000	0.004	-0.069
-484.420	33.631	-0.238	0.206
-483.405	26.645	0.143	-0.119
-482.391	-200.000	0.011	-0.329
-481.376	-81.593	0.053	0.017
-480.362	-200.000	0.026	0.204
-479.347	-200.000	0.070	-0.310
-478.332	266.800	0.226	0.393
-477.318	606.634	-0.021	0.053
-476.303	773.762	-0.159	0.432
-475.289	-200.000	-0.024	0.274
-474.274	-104.817	-0.243	-0.056
-473.259	-200.000	0.055	-0.428
-472.245	47.470	0.167	-0.155
-471.230	14.681	0.098	-0.076
-470.216	-142.495	0.066	0.006
-469.201	175.230	-0.150	0.216
-468.186	171.569	0.111	-0.159
-467.172	151.819	-0.045	-0.062
-466.157	-200.000	-0.055	-0.292
-465.143	-59.269	-0.192	-0.083
-464.128	-180.918	-0.160	-0.003
-463.113	-85.547	0.248	0.077
-462.099	-166.755	-0.225	0.009
-461.084	77.861	-0.075	0.080
-460.070	-109.019	-0.181	0.038
-459.055	800.000	-0.029	-0.092
-458.040	-200.000	-0.044	0.200
-457.026	800.000	-0.050	0.150
-456.011	800.000	-0.119	-0.351
-454.997	-72.612	-0.308	0.113
-453.982	800.000	-0.154	0.460
-452.968	313.063	0.071	0.133
-451.953	-62.972	0.352	0.145
-450.938	17.462	-0.181	-0.143
-449.924	-78.839	0.298	-0.101
-448.909	8.700	0.152	-0.114
-447.895	-38.012	-0.322	0.170
-446.880	-200.000	-0.060	0.361
-445.865	-48.498	0.035	0.017
-444.851	-191.305	0.217	0.002
-443.836	126.978	-0.110	0.139
-442.822	65.247	-0.085	-0.086
-441.807	14.229	0.179	0.139
-440.792	-176.299	0.142	0.004
-439.778	800.000	-0.056	0.159
-438.763	141.808	-0.004	-0.005
-437.749	-159.539	0.257	-0.014
-436.734	-200.000	0.028	-0.168
-435.719	-48.008	0.032	-0.015
-434.705	-14.530	-0.373	-0.239
-433.690	-200.000	0.011	0.060
-432.676	-28.834	0.395	-0.226
-431.661	642.906	-0.037	-0.094
-430.646	154.571	0.164	0.224
-429.632	-64.974	0.244	0.098
-428.617	-200.000	-0.041	-0.359
-427.603	-105.775	-0.054	0.012
-426.588	-88.150	0.187	0.056
-425.573	-60.036	0.142	-0.060
-424.559	119.381	-0.238	0.293
-423.544	497.630	0.053	0.121
-422.530	98.978	-0.070	0.081
-421.515	-93.552	0.044	-0.012
-420.500	626.314	-0.053	-0.134
-419.486	-144.163	0.173	0.016
-418.471	94.390	-0.248	-0.280
-417.457	124.728	0.185	0.231
-416.442	800.000	0.118	-0.348
-415.428	217.994	-0.212	-0.337
-414.413	-37.039	-0.272	-0.145
-413.398	-99.918	-0.289	0.072
-412.384	22.920	-0.159	0.129
-411.369	-81.306	0.353	-0.116
-410.355	-103.315	-0.089	0.021
-409.340	-79.282	-0.034	-0.012
-408.325	40.033	-0.245	-0.219
-407.311	-147.354	0.352	0.030
-406.296	-56.158	0.246	-0.109
-405.282	-94.589	0.142	-0.038
-404.267	88.870	-0.065	-0.072
-403.252	3.381	0.218	0.158
-402.238	-118.860	0.165	-0.029
-401.223	-147.308	0.331	0.028
-400.209	32.462	0.179	-0.154
-399.194	-95.265	0.086	0.023
-398.179	-200.000	-0.013	0.149
-397.165	-200.000	-0.043	-0.295
-396.150	-60.266	0.128	0.054
-395.136	158.811	0.133	-0.184
-394.121	800.000	-0.090	0.264
-393.106	77.389	-0.075	0.079
-392.092	521.778	0.064	-0.149
-391.077	551.781	-0.175	-0.418
-390.063	704.643	-0.083	-0.218
-389.048	-200.000	0.038	0.178
-388.033	715.558	-0.079	-0.209
-387.019	256.936	-0.073	-0.124
-386.004	-200.000	-0.024	0.136
-384.990	6.876	-0.272	0.201
-383.975	-88.804	0.236	-0.069
-382.960	-17.877	0.158	-0.098
-381.946	800.000	0.038	-0.163
-380.931	800.000	0.052	-0.154
-379.917	33.026	0.016	-0.014
-378.902	-120.976	-0.245	0.041
-377.888	-51.162	-0.269	0.125
-376.873	221.368	0.124	0.198
-375.858	-200.000	0.003	-0.227
-374.844	248.623	0.182	0.306
-373.829	-200.000	-0.019	0.211
-372.815	141.411	0.087	-0.114
-371.800	-49.355	0.357	-0.169
-370.785	403.708	-0.073	0.152
-369.771	-200.000	0.013	0.260
-368.756	-67.251	-0.151	-0.059
-367.742	800.000	-0.077	0.254
-366.727	86.467	0.110	0.120
-365.712	23.921	0.114	0.093
-364.698	-125.031	-0.108	0.017
-363.683	-200.000	-0.010	-0.061
-362.669	-149.655	0.174	-0.014
-361.654	-123.328	0.288	-0.046
-360.639	-102.139	0.138	-0.033
-359.625	147.266	-0.150	0.200
-358.610	-99.190	0.207	0.052
-357.596	-80.033	-0.334	0.111
-356.581	-166.046	0.212	0.009
-355.566	-113.399	0.456	0.089
-354.552	785.187	-0.046	-0.124
-353.537	142.250	-0.035	0.047
-352.523	800.000	-0.106	-0.337
-351.508	-83.835	0.101	-0.032
-350.493	124.304	-0.166	0.206
-349.479	-77.848	0.178	-0.061
-348.464	1.055	-0.115	-0.082
-347.450	800.000	0.035	0.121
-346.435	-200.000	0.028	-0.217
-345.420	64.398	-0.250	0.250
-344.406	-60.324	0.126	-0.053
-343.391	-1.494	-0.432	0.302
-342.377	-200.000	-0.017	0.102
-341.362	800.000	-0.040	-0.163
-340.348	-20.583	0.213	-0.130
-339.333	174.718	0.127	0.183
-338.318	-103.170	-0.056	0.013
-337.304	388.496	-0.106	0.217
-336.289	-192.050	0.057	-0.001
-335.275	60.615	0.178	-0.175
-334.260	800.000	-0.034	-0.103
-333.245	616.212	-0.067	-0.167
-332.231	800.000	0.045	-0.141
-331.216	-200.000	-0.011	-0.085
-330.202	-76.390	0.258	0.090
-329.187	-75.894	0.252	-0.089
-328.172	74.322	0.126	0.131
-327.158	73.672	-0.365	0.379
-326.143	-59.195	0.056	0.024
-325.129	585.143	-0.084	0.206
-324.114	-200.000	0.013	0.198
-323.099	-200.000	0.020	0.202
-322.085	-26.467	0.139	-0.081
-321.070	-200.000	0.009	-0.100
-320.056	190.833	-0.257	0.383
-319.041	27.336	-0.151	-0.126
-318.026	-27.641	0.442	0.254
-317.012	191.498	-0.035	-0.053
-315.997	23.553	0.236	0.192
-314.983	-51.660	0.215	-0.099
-313.968	800.000	-0.075	-0.216
-312.953	-200.000	0.040	-0.186
-311.939	198.627	0.062	-0.093
-310.924	-200.000	0.045	-0.282
-309.910	-28.162	-0.053	0.030
-308.895	112.968	0.049	0.059
-307.880	77.007	-0.131	0.138
-306.866	-17.896	-0.011	0.007
-305.851	357.484	-0.111	-0.220
-304.837	-200.000	0.036	0.163
-303.822	-200.000	-0.023	0.148
-302.807	-28.585	-0.055	0.031
-301.793	-185.556	0.273	-0.004
-300.778	-200.000	-0.019	-0.131
-299.764	-47.491	0.152	0.073
-298.749	800.000	0.112	0.314
-297.735	1.519	0.289	0.206
-296.720	43.412	-0.155	0.140
-295.705	-136.322	-0.153	-0.018
-294.691	349.411	0.050	0.098
-293.676	800.000	0.107	-0.322
-292.662	15.160	-0.343	0.266
-291.647	-99.588	-0.271	0.067
-290.632	29.364	0.246	0.207
-289.618	135.763	0.183	0.235
-288.603	-99.659	-0.364	0.090
-287.589	209.263	0.059	0.091
-286.574	10.273	0.193	0.145
-285.559	66.708	-0.346	0.348
-284.545	235.245	0.214	-0.349
-283.530	800.000	0.107	-0.327
-282.516	13.614	0.123	0.095
-281.501	62.619	0.195	-0.193
-280.486	-2.700	-0.031	0.021
-279.472	-200.000	0.049	-0.271
-278.457	551.521	0.076	0.180
-277.443	-104.177	-0.255	0.059
-276.428	-200.000	-0.007	-0.155
-275.413	87.548	-0.189	0.207
-274.399	120.936	0.270	0.332
-273.384	219.876	-0.103	0.164
-272.370	-92.777	0.218	0.060
-271.355	-106.632	-0.335	0.074
-270.340	6.230	0.193	-0.142
-269.326	-163.870	0.474	-0.022
-268.311	-96.229	-0.332	-0.087
-267.297	338.756	0.065	0.124
-266.282	39.038	0.086	-0.076
-265.267	-83.312	0.183	0.058
-264.253	-40.560	-0.154	-0.079
-263.238	96.144	0.108	-0.122
-262.224	518.293	0.080	-0.186
-261.209	406.040	-0.100	0.209
-260.195	262.400	-0.026	-0.045
-259.180	-118.386	-0.164	0.029
-258.165	800.000	0.113	0.323
-257.151	-114.943	-0.367	-0.069
-256.136	-140.717	-0.299	-0.031
-255.122	-97.703	-0.190	0.049
-254.107	-142.090	-0.118	0.012
-253.092	800.000	-0.019	-0.055
-252.078	-122.696	-0.020	0.003
-251.063	-29.969	-0.264	0.149
-250.049	162.816	0.109	-0.151
-249.034	-15.146	-0.409	-0.259
-248.019	-100.090	-0.220	0.054
-247.005	131.269	0.189	0.240
-245.990	-200.000	0.014	-0.216
-244.976	-59.608	-0.150	-0.064
-243.961	114.758	0.165	-0.199
-242.946	800.000	0.032	-0.112
-241.932	458.277	0.094	0.207
-240.917	-148.301	-0.228	-0.019
-239.903	230.981	0.091	-0.148
-238.888	487.356	-0.162	-0.366
-237.873	800.000	-0.033	-0.099
-236.859	-72.331	-0.377	-0.138
-235.844	64.956	-0.030	0.030
-234.830	579.466	-0.032	-0.078
-233.815	3.529	0.094	0.068
-232.800	48.328	0.288	0.266
-231.786	800.000	-0.086	0.302
-230.771	800.000	0.022	0.077
-229.757	-154.508	0.317	-0.021
-228.742	-142.812	0.293	-0.028
-227.727	-150.259	-0.208	0.016
-226.713	800.000	0.047	0.161
-225.698	-36.775	-0.064	-0.034
-224.684	-132.654	0.186	0.023
-223.669	14.614	-0.047	-0.036
-222.655	-55.625	0.328	-0.145
-221.640	22.580	-0.084	0.068
-220.625	-188.974	0.452	0.005
-219.611	153.230	0.128	-0.172
-218.596	636.584	0.128	-0.320
-217.582	49.485	-0.228	0.212
-216.567	-37.306	-0.366	0.193
-215.552	25.648	0.150	-0.123
-214.538	-200.000	0.075	0.440
-213.523	-155.541	0.112	-0.007
-212.509	-10.149	-0.062	0.040
-211.494	32.922	0.192	0.164
-210.479	-101.389	0.252	-0.060
-209.465	800.000	0.054	0.153
-208.450	-54.771	0.225	-0.100
-207.436	-125.905	-0.280	0.042
-206.421	357.945	-0.140	-0.276
-205.406	-127.317	0.334	-0.048
-204.392	800.000	-0.008	0.033
-203.377	340.173	-0.151	0.290
-202.363	491.457	-0.185	0.418
-201.348	-13.426	0.253	0.162
-200.333	32.415	0.010	-0.008
-199.319	-63.473	0.178	-0.072
-198.304	62.393	0.068	0.067
-197.290	-200.000	-0.012	0.149
-196.275	800.000	-0.115	0.369
-195.260	-194.569	-0.205	0.002
-194.246	162.357	-0.308	0.426
-193.231	368.427	0.132	-0.263
-192.217	-35.755	-0.269	-0.144
-191.202	51.787	0.283	-0.266
-190.187	491.933	0.126	-0.286
-189.173	222.582	0.107	0.170
-188.158	-172.520	-0.297	0.009
-187.144	3.848	0.195	0.140
-186.129	-27.927	0.305	0.174
-185.114	-80.661	0.147	0.048
-184.100	-29.874	0.036	-0.020
-183.085	352.977	-0.138	0.269
-182.071	173.839	0.065	0.092
-181.056	-200.000	0.001	0.114
-180.042	-200.000	0.003	0.122
-179.027	189.939	0.208	0.308
-178.012	281.794	-0.058	0.102
-176.998	135.287	-0.194	-0.248
-175.983	800.000	-0.050	0.149
-174.969	-170.313	0.106	0.004
-173.954	-193.104	-0.096	-0.001
-172.939	599.616	0.051	0.125
-171.925	-73.535	0.291	-0.104
-170.910	-32.271	-0.154	-0.085
-169.896	24.623	0.147	0.120
-168.881	-17.282	0.286	0.178
-167.866	-83.269	0.157	-0.050
-166.852	283.627	0.101	0.178
-165.837	229.845	0.144	-0.231
-164.823	359.775	0.086	0.170
-163.808	-54.639	0.303	-0.135
-162.793	-26.371	-0.299	-0.173
-161.779	-200.000	0.044	-0.507
-160.764	28.563	0.132	-0.110
-159.750	-162.463	0.214	0.010
-158.735	-38.083	0.142	0.074
-157.720	-12.599	0.109	-0.070
-156.706	193.863	-0.115	0.172
-155.691	-6.437	0.157	0.105
-154.677	-43.222	0.011	-0.006
-153.662	-90.734	-0.182	-0.052
-152.647	-138.130	0.101	-0.011
-151.633	-104.809	-0.244	0.055
-150.618	800.000	-0.060	-0.249
-149.604	-110.398	0.268	0.055
-148.589	-200.000	0.024	-0.311
-147.574	-30.315	-0.058	-0.032
-146.560	258.253	0.064	-0.109
-145.545	-200.000	-0.052	-0.232
-144.531	108.712	0.229	-0.269
-143.516	53.302	-0.063	0.060
-142.502	-13.098	-0.148	0.095
-141.487	-101.033	0.155	-0.037
-140.472	-4.814	0.269	-0.182
-139.458	129.110	0.155	-0.195
-138.443	128.510	-0.177	-0.222
-137.429	-104.917	0.288	-0.065
-136.414	800.000	-0.065	-0.191
-135.399	175.857	0.066	-0.094
-134.385	-200.000	0.002	-0.162
-133.370	-200.000	0.013	0.135
-132.356	-41.992	-0.101	-0.051
-131.341	-128.218	0.310	-0.044
-130.326	-43.929	-0.300	-0.149
-129.312	-200.000	-0.007	-0.042
-128.297	624.283	-0.164	0.407
-127.283	800.000	-0.070	0.198
-126.268	511.764	-0.162	0.371
-125.253	31.623	0.328	-0.277
-124.239	-200.000	0.038	0.263
-123.224	-118.698	-0.183	-0.032
-122.210	234.687	0.099	0.160
