DTS Sentinel unit serial number:	SN413079Multiplexer serial number:	ORYXHardware model number:	OX4-SRSoftware version number:	ORYX F/W v4.00 Oryx Data Collector v3.7.2.0data status	okinstallation	princeton_trtdifferential loss correction	single-endedforward channel	channel 1reverse channel	N/Adate	2019/09/16time	10:22:35forward acquisition time	60.00reverse acquisition time	0.00gamma	496.2192k internal	0.2308k external	0.2308temperature offset calibration	0.9966default loss term (dB/km)	0.3790temperature slope calibration	1.0000multiplexer offset coefficient	1.0000multiplexer slope coefficient	1.0000fibre end	0.00T internal ref (°C)	34.83T ext. ref 1 (°C)	12.53T ext. ref 2 (°C)	33.24length (m)	temperature (°C)	Stokes	anti-Stokes-747.200	-48.623	0.271	-0.132
-746.185	-117.368	0.309	0.057
-745.171	560.036	0.145	0.356
-744.156	27.295	-0.198	0.169
-743.142	374.561	-0.114	-0.237
-742.127	-93.123	-0.324	0.092
-741.112	800.000	0.045	-0.149
-740.098	250.574	-0.070	0.122
-739.083	-156.318	0.274	-0.017
-738.069	-168.648	-0.257	-0.010
-737.054	-52.437	0.183	-0.086
-736.039	-182.631	0.169	0.003
-735.025	-200.000	0.058	0.355
-734.010	425.536	-0.157	-0.343
-732.996	800.000	-0.070	-0.210
-731.981	800.000	0.021	-0.092
-730.966	234.098	0.032	0.054
-729.952	-117.901	-0.185	0.034
-728.937	-145.646	-0.303	-0.028
-727.923	-44.133	0.143	0.073
-726.908	352.498	0.201	-0.405
-725.894	-200.000	-0.280	0.000
-724.879	308.425	-0.117	0.221
-723.864	414.047	-0.028	0.060
-722.850	686.087	0.058	0.153
-721.835	-200.000	0.000	0.253
-720.821	-63.199	-0.149	-0.062
-719.806	474.922	-0.246	0.564
-718.791	128.747	-0.158	0.205
-717.777	-18.934	-0.256	-0.162
-716.762	376.815	0.091	-0.189
-715.748	-160.818	-0.208	0.011
-714.733	442.138	-0.102	-0.226
-713.718	-200.000	-0.003	-0.106
-712.704	-200.000	0.022	0.179
-711.689	-200.000	0.068	0.372
-710.675	-135.530	0.173	0.021
-709.660	-200.000	0.001	-0.343
-708.645	31.192	-0.076	-0.066
-707.631	-19.205	0.129	-0.081
-706.616	254.208	0.077	0.133
-705.602	200.029	-0.192	-0.299
-704.587	-61.860	-0.189	-0.080
-703.572	8.347	-0.137	0.104
-702.558	-200.000	0.014	0.125
-701.543	-38.610	0.073	-0.039
-700.529	800.000	0.023	0.102
-699.514	230.366	-0.147	0.243
-698.499	-43.808	0.090	-0.046
-697.485	800.000	0.071	-0.273
-696.470	550.518	-0.128	-0.311
-695.456	401.524	-0.205	-0.437
-694.441	641.692	0.044	-0.113
-693.426	-97.101	-0.124	-0.033
-692.412	-22.647	0.391	0.240
-691.397	-200.000	0.003	0.110
-690.383	-14.727	0.204	-0.133
-689.368	-157.700	-0.368	-0.022
-688.354	524.144	0.060	-0.144
-687.339	-54.636	-0.063	0.029
-686.324	53.502	-0.134	0.130
-685.310	800.000	-0.007	0.031
-684.295	800.000	-0.119	-0.426
-683.281	800.000	0.074	-0.217
-682.266	-75.258	0.329	0.119
-681.251	179.998	0.125	-0.186
-680.237	-40.456	-0.328	-0.173
-679.222	143.072	-0.166	0.224
-678.208	643.014	0.144	0.371
-677.193	-14.764	-0.158	-0.103
-676.178	619.788	-0.077	-0.195
-675.164	61.571	-0.164	-0.165
-674.149	-200.000	0.025	-0.152
-673.135	-38.064	0.068	0.037
-672.120	-124.802	0.223	0.035
-671.105	-200.000	0.033	-0.147
-670.091	-200.000	0.031	-0.239
-669.076	800.000	0.007	0.028
-668.062	-125.562	-0.222	-0.034
-667.047	-200.000	-0.238	0.000
-666.032	-200.000	-0.073	-0.655
-665.018	-64.996	-0.193	-0.079
-664.003	81.752	0.295	0.323
-662.989	-147.997	-0.248	-0.021
-661.974	139.048	-0.334	0.444
-660.959	800.000	0.026	-0.073
-659.945	11.984	0.074	0.058
-658.930	-200.000	-0.006	-0.147
-657.916	-30.293	0.154	0.089
-656.901	48.492	-0.256	0.243
-655.886	207.981	-0.162	-0.256
-654.872	28.440	-0.203	0.173
-653.857	115.966	-0.232	-0.287
-652.843	-73.403	0.255	-0.094
-651.828	545.867	-0.126	-0.305
-650.814	125.450	-0.144	-0.185
-649.799	124.025	0.068	0.086
-648.784	-84.996	0.062	-0.020
-647.770	108.603	0.203	-0.245
-646.755	288.953	0.096	-0.177
-645.741	-121.046	-0.178	-0.030
-644.726	-153.095	-0.305	0.022
-643.711	800.000	-0.030	0.089
-642.697	21.158	0.195	-0.160
-641.682	800.000	-0.048	-0.159
-640.668	800.000	0.095	0.266
-639.653	-65.788	0.125	0.051
-638.638	374.357	-0.068	-0.140
-637.624	506.015	0.094	-0.221
-636.609	460.769	-0.203	-0.457
-635.595	-75.761	0.125	-0.045
-634.580	262.963	-0.127	-0.224
-633.565	-29.496	-0.069	0.040
-632.551	-200.000	-0.067	0.365
-631.536	-8.351	-0.048	-0.033
-630.522	111.749	0.099	0.121
-629.507	-119.596	0.378	0.066
-628.492	114.335	-0.190	-0.234
-627.478	-8.621	-0.295	-0.200
-626.463	800.000	0.004	0.013
-625.449	-79.893	-0.347	-0.118
-624.434	-105.621	-0.277	-0.063
-623.419	15.920	0.168	0.133
-622.405	126.273	-0.266	-0.340
-621.390	-200.000	0.071	-0.319
-620.376	48.731	0.152	-0.144
-619.361	269.745	-0.030	-0.053
-618.346	130.729	-0.046	0.059
-617.332	800.000	0.052	0.153
-616.317	-66.675	0.154	-0.062
-615.303	138.988	0.211	0.281
-614.288	-46.370	-0.595	-0.296
-613.273	-200.000	-0.007	-0.186
-612.259	330.868	0.218	-0.424
-611.244	-200.000	0.000	-0.023
-610.230	800.000	0.024	-0.071
-609.215	-5.399	-0.036	0.025
-608.201	-148.224	0.220	-0.018
-607.186	159.120	-0.044	0.061
-606.171	38.088	-0.072	-0.065
-605.157	132.055	-0.286	-0.372
-604.142	-143.490	-0.420	-0.040
-603.128	557.108	0.049	0.120
-602.113	-200.000	-0.023	0.114
-601.098	41.902	0.223	-0.204
-600.084	800.000	-0.068	-0.242
-599.069	-109.143	-0.229	-0.049
-598.055	-157.452	0.249	-0.015
-597.040	-87.286	-0.078	-0.024
-596.025	121.763	-0.240	0.303
-595.011	800.000	-0.116	0.409
-593.996	-21.641	0.114	0.070
-592.982	20.946	0.176	0.144
-591.967	800.000	-0.056	0.161
-590.952	40.126	-0.105	-0.095
-589.938	-200.000	-0.057	-0.307
-588.923	-107.342	-0.206	0.046
-587.909	-200.000	-0.007	-0.060
-586.894	-116.052	-0.300	0.056
-585.879	800.000	0.057	-0.238
-584.865	792.795	0.079	-0.219
-583.850	166.852	-0.127	-0.181
-582.836	37.084	0.200	-0.179
-581.821	-72.842	-0.145	-0.054
-580.806	35.915	0.125	-0.111
-579.792	-148.529	0.174	-0.014
-578.777	-200.000	-0.013	0.096
-577.763	-157.695	-0.123	-0.007
-576.748	-138.918	-0.143	0.016
-575.733	800.000	-0.028	0.107
-574.719	-200.000	0.035	-0.254
-573.704	231.416	-0.106	-0.175
-572.690	203.737	-0.146	0.228
-571.675	-200.000	-0.000	0.104
-570.661	80.425	0.209	-0.228
-569.646	-17.232	-0.171	0.109
-568.631	800.000	0.005	-0.020
-567.617	-50.276	-0.069	0.033
-566.602	439.018	-0.055	-0.120
-565.588	151.997	-0.025	-0.034
-564.573	-150.808	-0.216	0.017
-563.558	-90.327	-0.268	-0.079
-562.544	-200.000	-0.012	-0.176
-561.529	-10.115	-0.322	-0.216
-560.515	-96.264	0.225	-0.060
-559.500	-200.000	-0.013	0.507
-558.485	329.132	-0.081	0.157
-557.471	-200.000	0.001	0.123
-556.456	42.659	-0.442	0.406
-555.442	149.072	0.088	0.120
-554.427	119.392	0.109	0.136
-553.412	-200.000	0.012	0.170
-552.398	261.555	-0.088	-0.154
-551.383	6.863	0.218	-0.164
-550.369	-51.364	-0.159	-0.075
-549.354	-58.956	0.103	0.045
-548.339	-200.000	0.001	-0.159
-547.325	-38.185	-0.195	-0.104
-546.310	-55.349	0.228	0.103
-545.296	26.791	-0.104	0.088
-544.281	-200.000	0.023	0.530
-543.266	453.512	-0.119	0.266
-542.252	150.938	-0.102	0.139
-541.237	-48.406	-0.206	-0.100
-540.223	67.082	-0.287	-0.294
-539.208	41.412	0.212	0.193
-538.193	-200.000	-0.034	-0.218
-537.179	67.713	-0.229	0.236
-536.164	-182.258	-0.186	0.004
-535.150	800.000	-0.094	0.391
-534.135	-200.000	-0.001	0.159
-533.121	-78.428	0.262	-0.091
-532.106	-137.018	0.218	-0.025
-531.091	-200.000	0.063	-0.294
-530.077	18.343	-0.153	-0.123
-529.062	-77.849	-0.152	0.053
-528.048	-16.912	-0.050	-0.032
-527.033	416.371	-0.035	-0.076
-526.018	34.170	0.170	-0.149
-525.004	-200.000	-0.021	0.230
-523.989	2.027	-0.135	-0.098
-522.975	800.000	-0.104	-0.310
-521.960	209.304	0.075	-0.118
-520.945	122.855	-0.188	0.237
-519.931	-153.913	0.141	0.010
-518.916	-200.000	-0.360	0.002
-517.902	-200.000	-0.198	-0.000
-516.887	800.000	0.020	0.083
-515.872	102.170	0.150	-0.177
-514.858	800.000	0.118	-0.354
-513.843	71.690	-0.144	0.151
-512.829	-65.998	0.265	-0.107
-511.814	-200.000	-0.001	-0.047
-510.799	538.861	0.165	-0.395
-509.785	57.850	0.165	-0.163
-508.770	762.649	0.115	-0.315
-507.756	-49.050	-0.284	0.137
-506.741	-179.255	-0.052	-0.001
-505.726	734.764	0.053	-0.142
-504.712	-200.000	-0.165	-0.001
-503.697	-45.614	-0.148	-0.073
-502.683	239.179	-0.142	-0.238
-501.668	-13.574	-0.230	0.150
-500.653	194.306	-0.068	0.104
-499.639	-200.000	0.020	0.188
-498.624	12.861	0.090	-0.070
-497.610	-43.154	-0.184	-0.094
-496.595	-39.475	-0.287	-0.151
-495.581	-120.302	0.129	-0.022
-494.566	-36.172	-0.330	0.180
-493.551	-3.843	0.226	-0.158
-492.537	-193.536	-0.174	0.002
-491.522	85.887	0.061	-0.067
-490.508	438.423	0.180	-0.395
-489.493	175.819	0.076	-0.111
-488.478	70.306	-0.316	-0.329
-487.464	-74.673	0.195	0.070
-486.449	-200.000	-0.007	-0.249
-485.435	-200.000	0.000	-0.150
-484.420	-164.429	-0.001	0.000
-483.405	112.124	-0.212	-0.258
-482.391	-200.000	0.000	0.318
-481.376	-200.000	-0.052	0.751
-480.362	800.000	0.067	-0.284
-479.347	8.441	0.320	-0.242
-478.332	-90.540	0.179	0.052
-477.318	612.846	0.108	0.272
-476.303	0.997	0.014	-0.010
-475.289	-163.153	0.134	0.006
-474.274	354.621	0.138	-0.276
-473.259	-155.789	-0.139	-0.009
-472.245	103.563	0.069	0.081
-471.230	800.000	-0.063	0.178
-470.216	-200.000	0.095	0.458
-469.201	135.654	-0.141	0.184
-468.186	267.890	-0.136	-0.239
-467.172	122.752	0.176	0.221
-466.157	800.000	-0.102	-0.356
-465.143	-104.600	0.121	-0.028
-464.128	100.014	-0.160	0.187
-463.113	-30.701	-0.108	0.061
-462.099	-200.000	-0.014	-0.247
-461.084	-86.091	-0.130	0.040
-460.070	-200.000	-0.069	-0.336
-459.055	39.261	-0.192	-0.172
-458.040	-48.293	-0.425	0.206
-457.026	-14.581	0.167	-0.108
-456.011	800.000	-0.051	-0.153
-454.997	-200.000	-0.002	-0.075
-453.982	176.291	0.161	-0.235
-452.968	115.205	0.282	0.346
-451.953	71.483	-0.074	0.077
-450.938	13.314	0.241	0.187
-449.924	-59.645	0.112	0.048
-448.909	72.456	-0.095	0.099
-447.895	230.358	0.058	-0.095
-446.880	800.000	-0.083	0.241
-445.865	-164.331	-0.229	0.011
-444.851	-138.841	-0.192	0.021
-443.836	673.928	-0.059	-0.153
-442.822	514.199	-0.063	0.148
-441.807	-200.000	-0.037	-0.251
-440.792	92.380	-0.160	0.181
-439.778	-19.848	0.130	0.081
-438.763	72.800	-0.071	-0.074
-437.749	421.796	-0.051	-0.109
-436.734	302.857	-0.088	-0.163
-435.719	210.142	0.116	-0.182
-434.705	351.348	0.187	0.372
-433.690	97.981	-0.076	-0.088
-432.676	-200.000	0.012	-0.113
-431.661	10.692	-0.035	-0.027
-430.646	-200.000	-0.022	-0.100
-429.632	800.000	0.031	-0.098
-428.617	233.032	-0.169	-0.279
-427.603	28.677	0.128	-0.109
-426.588	800.000	0.058	0.208
-425.573	-53.547	-0.443	0.203
-424.559	-26.771	0.260	-0.152
-423.544	800.000	-0.086	-0.341
-422.530	-65.120	-0.126	-0.051
-421.515	-83.732	-0.102	0.033
-420.500	-57.917	0.219	-0.096
-419.486	317.069	0.147	-0.278
-418.471	40.289	-0.110	-0.099
-417.457	-0.601	-0.224	0.159
-416.442	-129.605	-0.316	-0.044
-415.428	465.937	-0.114	0.257
-414.413	200.224	-0.158	0.244
-413.398	-112.080	0.281	-0.057
-412.384	-4.128	-0.176	-0.122
-411.369	-139.080	0.141	-0.015
-410.355	-200.000	-0.018	-0.271
-409.340	41.586	0.314	0.286
-408.325	284.309	-0.107	-0.193
-407.311	52.378	0.113	-0.108
-406.296	-74.676	0.250	0.090
-405.282	-200.000	-0.018	-0.090
-404.267	-200.000	-0.014	-0.176
-403.252	99.573	-0.120	-0.140
-402.238	-113.802	-0.217	-0.042
-401.223	-96.589	-0.230	0.061
-400.209	-200.000	0.009	-0.116
-399.194	-200.000	-0.051	-0.243
-398.179	302.234	-0.087	0.161
-397.165	-132.613	0.230	0.030
-396.150	-200.000	0.058	0.339
-395.136	-128.836	-0.020	-0.003
-394.121	-200.000	0.048	-0.241
-393.106	-30.089	-0.391	0.223
-392.092	800.000	0.054	0.192
-391.077	-32.824	0.323	0.180
-390.063	-125.586	0.310	0.047
-389.048	-108.347	-0.071	-0.015
-388.033	64.825	0.306	-0.310
-387.019	37.502	-0.125	-0.111
-386.004	-200.000	0.037	-0.310
-384.990	-200.000	-0.007	-0.214
-383.975	202.747	0.070	-0.108
-382.960	258.137	-0.022	-0.038
-381.946	-200.000	0.007	-0.272
-380.931	-67.029	0.360	-0.142
-379.917	104.590	0.252	-0.297
-378.902	-6.279	-0.125	0.086
-377.888	501.953	-0.024	0.056
-376.873	-128.116	0.107	0.015
-375.858	-169.518	0.201	-0.007
-374.844	800.000	-0.034	-0.131
-373.829	146.656	-0.136	0.183
-372.815	-18.218	0.346	0.217
-371.800	-200.000	-0.012	0.054
-370.785	-200.000	-0.084	0.000
-369.771	256.092	0.226	-0.388
-368.756	250.936	-0.117	-0.200
-367.742	-12.857	0.165	0.108
-366.727	276.502	-0.097	0.173
-365.712	-108.682	-0.058	0.012
-364.698	-36.605	0.117	0.063
-363.683	800.000	0.065	-0.195
-362.669	-146.405	0.273	0.024
-361.654	115.980	0.078	0.095
-360.639	-186.512	0.279	-0.004
-359.625	447.502	0.057	0.126
-358.610	468.428	-0.109	-0.246
-357.596	-70.291	-0.242	0.092
-356.581	416.560	-0.078	-0.167
-355.566	-93.571	0.141	0.039
-354.552	-200.000	0.010	0.114
-353.537	-65.774	0.283	0.114
-352.523	153.576	0.072	-0.099
-351.508	-28.555	0.163	-0.094
-350.493	124.988	0.155	0.195
-349.479	-88.859	0.185	-0.055
-348.464	-133.731	0.246	-0.031
-347.450	332.697	-0.203	0.393
-346.435	489.587	-0.055	0.126
-345.420	25.754	0.021	0.017
-344.406	-29.580	-0.270	0.154
-343.391	-164.408	0.371	-0.017
-342.377	115.866	0.055	-0.067
-341.362	-73.675	0.369	0.134
-340.348	-200.000	-0.020	-0.166
-339.333	221.544	0.157	-0.253
-338.318	-200.000	0.001	-0.089
-337.304	-43.966	-0.302	-0.152
-336.289	218.887	0.163	0.261
-335.275	800.000	0.086	-0.275
-334.260	12.483	-0.132	-0.102
-333.245	-13.886	-0.278	-0.180
-332.231	295.959	-0.088	0.162
-331.216	48.269	-0.226	0.211
-330.202	800.000	0.077	0.304
-329.187	60.236	0.085	-0.084
-328.172	395.939	-0.079	0.164
-327.158	-152.171	0.097	0.007
-326.143	-100.719	0.357	-0.088
-325.129	63.068	0.104	0.104
-324.114	-150.067	-0.173	-0.013
-323.099	170.743	0.136	0.194
-322.085	-200.000	0.002	0.406
-321.070	-102.896	-0.145	-0.034
-320.056	-78.208	-0.223	0.077
-319.041	-79.999	-0.203	-0.068
-318.026	-200.000	-0.051	0.242
-317.012	-200.000	0.011	-0.154
-315.997	-170.549	-0.176	0.006
-314.983	-3.065	0.194	0.135
-313.968	166.226	-0.178	0.252
-312.953	800.000	0.043	0.120
-311.939	-118.284	0.142	0.025
-310.924	-200.000	0.000	0.329
-309.910	317.313	0.119	-0.225
-308.895	-200.000	-0.008	-0.280
-307.880	-49.777	0.132	-0.062
-306.866	259.122	-0.094	0.162
-305.851	-33.453	0.138	-0.076
-304.837	-98.083	0.259	-0.067
-303.822	477.069	-0.049	0.110
-302.807	216.463	-0.138	-0.219
-301.793	-89.275	-0.352	0.104
-300.778	2.026	-0.071	0.051
-299.764	-200.000	-0.002	0.080
-298.749	-51.713	-0.284	-0.132
-297.735	391.795	0.118	0.244
-296.720	-98.582	0.072	0.018
-295.705	123.379	0.188	0.236
-294.691	-85.881	0.106	0.033
-293.676	136.421	0.049	0.064
-292.662	215.703	0.149	0.237
-291.647	-6.641	0.104	0.071
-290.632	116.602	-0.083	-0.102
-289.618	-15.727	0.258	0.164
-288.603	-59.414	0.145	0.062
-287.589	300.266	0.102	0.189
-286.574	-33.213	-0.139	-0.077
-285.559	414.946	-0.113	0.240
-284.545	-90.037	-0.073	-0.021
-283.530	-85.797	-0.143	-0.044
-282.516	67.443	0.195	-0.199
-281.501	5.864	0.097	0.071
-280.486	-110.514	0.274	-0.057
-279.472	13.625	-0.095	0.074
-278.457	59.795	-0.049	-0.048
-277.443	-60.762	-0.305	0.129
-276.428	-200.000	-0.004	0.380
-275.413	4.353	0.241	0.177
-274.399	-17.372	-0.205	-0.129
-273.384	105.219	0.170	0.200
-272.370	116.924	0.109	0.133
-271.355	-65.605	0.303	0.121
-270.340	755.065	-0.068	-0.183
-269.326	759.579	-0.030	-0.081
-268.311	-196.610	-0.080	0.001
-267.297	-200.000	0.031	0.465
-266.282	-200.000	-0.231	0.000
-265.267	-18.354	-0.321	-0.200
-264.253	-62.517	-0.046	-0.019
-263.238	-92.583	-0.150	-0.042
-262.224	-200.000	-0.001	-0.218
-261.209	-58.115	0.518	-0.225
-260.195	-106.644	-0.200	-0.044
-259.180	-200.000	-0.006	-0.098
-258.165	112.432	-0.369	-0.445
-257.151	7.880	-0.299	-0.224
-256.136	-200.000	0.054	0.258
-255.122	800.000	-0.087	0.243
-254.107	-200.000	-0.005	-0.055
-253.092	10.098	0.055	0.041
-252.078	-200.000	-0.023	0.113
-251.063	-200.000	0.028	-0.232
-250.049	22.051	-0.318	0.258
-249.034	57.042	-0.076	0.073
-248.019	-200.000	-0.031	0.147
-247.005	58.521	-0.107	-0.105
-245.990	-96.693	0.369	-0.097
-244.976	-81.037	-0.203	0.067
-243.961	-200.000	-0.012	0.064
-242.946	463.700	-0.025	-0.055
-241.932	-185.789	-0.133	-0.002
-240.917	16.750	-0.092	-0.072
-239.903	-17.565	-0.054	0.034
-238.888	295.236	0.003	-0.005
-237.873	284.220	0.051	-0.091
-236.859	-95.106	0.082	-0.022
-235.844	-21.930	-0.378	-0.229
-234.830	91.876	0.141	-0.159
-233.815	-200.000	0.017	-0.307
-232.800	-177.110	0.237	-0.006
-231.786	-200.000	-0.036	-0.214
-230.771	-109.423	0.132	-0.028
-229.757	-200.000	0.016	0.344
-228.742	-200.000	0.002	-0.047
-227.727	-64.234	-0.170	0.069
-226.713	-173.835	-0.318	0.009
-225.698	88.677	0.112	-0.124
-224.684	-200.000	-0.014	-0.065
-223.669	137.535	-0.124	0.162
-222.655	290.006	-0.136	0.245
-221.640	-168.685	0.136	0.005
-220.625	-56.015	0.296	-0.131
-219.611	61.000	-0.146	0.144
-218.596	800.000	0.034	-0.136
-217.582	-93.850	-0.152	-0.042
-216.567	-105.944	0.251	-0.056
-215.552	253.729	-0.093	0.159
-214.538	322.477	0.060	0.113
-213.523	-62.459	0.040	0.017
-212.509	-200.000	0.076	0.480
-211.494	-200.000	-0.005	0.174
-210.479	-17.933	0.221	0.138
-209.465	-200.000	-0.008	-0.149
-208.450	168.508	0.173	0.246
-207.436	-122.059	0.204	0.033
-206.421	-200.000	0.306	-0.001
-205.406	800.000	-0.007	-0.024
-204.392	-95.855	0.187	-0.050
-203.377	658.654	0.078	0.200
-202.363	18.240	-0.127	0.101
-201.348	192.907	0.141	0.211
-200.333	-37.094	0.277	0.147
-199.319	-200.000	-0.009	0.079
-198.304	-200.000	0.029	0.161
-197.290	84.421	-0.135	-0.147
-196.275	-3.773	-0.044	-0.030
-195.260	-200.000	0.311	-0.001
-194.246	-114.093	0.433	0.083
-193.231	66.315	-0.174	-0.176
-192.217	7.147	0.176	0.130
-191.202	47.643	0.220	0.204
-190.187	523.628	-0.172	0.402
-189.173	21.217	0.100	-0.081
-188.158	424.804	-0.033	-0.070
-187.144	-200.000	-0.022	0.215
-186.129	800.000	0.018	0.063
-185.114	328.221	-0.085	-0.162
-184.100	800.000	-0.033	-0.137
-183.085	800.000	0.067	0.193
-182.071	18.508	0.062	0.049
-181.056	-200.000	0.017	0.129
-180.042	14.590	0.316	0.245
-179.027	426.940	0.140	-0.300
-178.012	-157.190	-0.108	-0.007
-176.998	-147.521	-0.181	0.015
-175.983	-91.663	-0.061	-0.017
-174.969	613.776	-0.075	0.187
-173.954	48.313	0.166	0.155
-172.939	63.052	0.129	0.128
-171.925	40.117	0.313	0.280
-170.910	191.520	0.131	0.196
-169.896	7.946	-0.124	-0.092
-168.881	-76.627	0.263	0.092
-167.866	67.596	0.357	0.362
-166.852	113.207	-0.242	0.291
-165.837	-129.013	0.317	-0.044
-164.823	1.657	-0.278	0.199
-163.808	-200.000	-0.005	0.490
-162.793	-166.227	0.203	-0.009
-161.779	25.314	0.120	-0.099
-160.764	-93.130	-0.132	-0.037
-159.750	-200.000	-0.005	0.056
-158.735	487.954	-0.042	0.094
-157.720	182.949	0.111	-0.163
-156.706	-91.431	0.154	0.044
-155.691	800.000	-0.018	0.058
-154.677	-71.695	-0.156	0.058
-153.662	26.123	0.153	-0.127
-152.647	-48.275	0.403	0.193
-151.633	-200.000	-0.018	-0.088
-150.618	96.071	-0.264	0.299
-149.604	800.000	-0.037	0.140
-148.589	-112.363	-0.213	-0.042
-147.574	-175.790	-0.168	0.004
-146.560	800.000	-0.045	-0.132
-145.545	231.606	-0.079	-0.128
-144.531	-81.007	0.139	0.046
-143.516	-200.000	0.039	0.362
-142.502	98.680	0.091	0.104
-141.487	-136.459	0.075	0.009
-140.472	-23.458	-0.015	0.009
-139.458	-164.372	0.347	0.016
-138.443	-171.594	-0.101	-0.003
-137.429	-200.000	-0.007	-0.037
-136.414	-185.206	0.293	-0.005
-135.399	-27.593	-0.399	-0.230
-134.385	407.667	-0.100	-0.210
-133.370	-200.000	0.033	0.282
-132.356	-56.831	0.015	0.007
-131.341	98.997	0.115	0.131
-130.326	56.801	0.264	0.255
-129.312	-31.648	-0.446	0.249
-128.297	-200.000	-0.008	0.203
-127.283	491.152	0.169	0.385
-126.268	800.000	0.033	0.100
-125.253	395.079	0.042	0.086
-124.239	473.056	0.170	0.380
-123.224	800.000	0.020	0.075
-122.210	-200.000	-0.023	-0.168
