DTS Sentinel unit serial number:	SN413079Multiplexer serial number:	ORYXHardware model number:	OX4-SRSoftware version number:	ORYX F/W v4.00 Oryx Data Collector v3.7.2.0data status	okinstallation	princeton_trtdifferential loss correction	single-endedforward channel	channel 1reverse channel	N/Adate	2019/09/13time	14:18:35forward acquisition time	60.00reverse acquisition time	0.00gamma	496.2192k internal	0.2303k external	0.2303temperature offset calibration	1.0159default loss term (dB/km)	0.3790temperature slope calibration	1.0000multiplexer offset coefficient	1.0000multiplexer slope coefficient	1.0000fibre end	0.00T internal ref (°C)	35.28T ext. ref 1 (°C)	4.62T ext. ref 2 (°C)	31.54length (m)	temperature (°C)	Stokes	anti-Stokes-747.200	682.907	-0.049	-0.131
-746.185	0.610	0.167	0.122
-745.171	-200.000	-0.089	-0.417
-744.156	-200.000	-0.053	0.485
-743.142	-48.408	-0.187	0.092
-742.127	-92.247	0.044	-0.013
-741.112	-145.964	0.254	-0.023
-740.098	-14.986	0.267	0.175
-739.083	-130.232	-0.130	-0.018
-738.069	389.988	-0.116	0.245
-737.054	-200.000	-0.032	0.366
-736.039	7.798	-0.088	0.067
-735.025	800.000	0.056	-0.210
-734.010	-200.000	-0.025	-0.243
-732.996	21.156	-0.333	0.275
-731.981	800.000	0.092	-0.274
-730.966	90.669	-0.079	0.090
-729.952	-200.000	0.011	0.189
-728.937	8.444	-0.224	0.172
-727.923	107.220	-0.046	0.056
-726.908	135.264	0.221	0.293
-725.894	-175.424	-0.218	-0.006
-724.879	104.725	-0.104	-0.125
-723.864	-143.637	-0.429	0.041
-722.850	-11.434	0.123	0.082
-721.835	36.931	-0.073	0.065
-720.821	393.209	0.141	0.298
-719.806	-154.721	-0.215	-0.015
-718.791	-176.642	-0.097	0.003
-717.777	-200.000	0.022	-0.172
-716.762	402.434	-0.112	-0.240
-715.748	0.063	-0.172	0.125
-714.733	800.000	-0.062	-0.260
-713.718	-101.230	-0.201	0.050
-712.704	65.306	-0.325	-0.335
-711.689	47.107	-0.132	-0.125
-710.675	800.000	0.039	0.146
-709.660	-35.020	-0.101	-0.056
-708.645	-200.000	-0.001	-0.283
-707.631	160.390	0.115	0.163
-706.616	197.820	-0.034	-0.053
-705.602	-156.193	-0.101	-0.006
-704.587	-17.520	0.289	-0.185
-703.572	33.937	-0.136	-0.120
-702.558	632.136	0.067	0.173
-701.543	17.466	-0.190	-0.153
-700.529	-200.000	-0.003	-0.283
-699.514	800.000	-0.011	-0.044
-698.499	308.999	0.116	-0.221
-697.485	-200.000	0.015	-0.279
-696.470	-7.365	0.226	-0.156
-695.456	-133.856	0.384	-0.049
-694.441	-112.543	0.108	0.022
-693.426	22.306	0.237	-0.197
-692.412	117.301	0.159	0.199
-691.397	-200.000	-0.008	0.151
-690.383	371.162	0.207	-0.428
-689.368	25.961	-0.192	0.163
-688.354	-21.478	-0.122	0.076
-687.339	13.786	0.323	0.255
-686.324	85.590	-0.082	-0.092
-685.310	-85.823	0.316	0.100
-684.295	800.000	-0.062	-0.263
-683.281	-200.000	0.032	-0.285
-682.266	800.000	-0.039	0.118
-681.251	-41.111	-0.170	-0.089
-680.237	38.051	-0.152	-0.137
-679.222	-52.410	0.218	-0.103
-678.208	64.773	0.149	-0.153
-677.193	28.575	0.095	0.082
-676.178	-134.460	-0.340	0.042
-675.164	-111.765	0.059	0.012
-674.149	-46.295	-0.224	0.112
-673.135	-30.689	0.151	-0.087
-672.120	800.000	-0.083	-0.261
-671.105	-11.166	-0.378	-0.253
-670.091	-68.638	0.106	-0.042
-669.076	11.876	-0.147	0.115
-668.062	-20.811	-0.186	-0.116
-667.047	800.000	-0.080	-0.292
-666.032	-3.617	0.104	0.073
-665.018	800.000	0.050	0.161
-664.003	-9.334	0.071	-0.048
-662.989	-95.985	-0.319	0.086
-661.974	561.644	-0.082	0.201
-660.959	136.409	0.217	0.287
-659.945	-200.000	0.027	0.294
-658.930	-16.889	-0.099	-0.063
-657.916	-147.868	0.149	0.013
-656.901	315.825	-0.109	0.209
-655.886	138.323	-0.192	0.256
-654.872	-9.957	0.184	-0.124
-653.857	17.850	0.326	-0.264
-652.843	-167.863	0.029	-0.001
-651.828	29.809	-0.106	-0.091
-650.814	77.805	0.321	0.347
-649.799	340.353	-0.029	0.058
-648.784	-78.367	0.275	0.096
-647.770	800.000	0.188	0.534
-646.755	182.518	-0.059	0.089
-645.741	-200.000	0.019	0.201
-644.726	800.000	-0.056	-0.158
-643.711	-25.061	-0.175	0.105
-642.697	694.318	-0.113	-0.301
-641.682	61.221	0.026	-0.027
-640.668	-36.345	0.315	0.172
-639.653	-62.879	-0.204	0.086
-638.638	800.000	-0.070	0.299
-637.624	92.568	0.118	-0.135
-636.609	591.671	0.084	-0.209
-635.595	-36.042	-0.219	0.120
-634.580	-200.000	0.031	-0.193
-633.565	800.000	0.068	-0.261
-632.551	-53.991	0.122	-0.056
-631.536	-26.007	-0.349	-0.208
-630.522	-34.777	-0.072	-0.040
-629.507	-92.936	0.247	0.070
-628.492	-200.000	0.008	0.077
-627.478	41.933	0.131	0.121
-626.463	-9.095	0.227	-0.154
-625.449	9.189	0.105	0.080
-624.434	-61.616	-0.048	-0.021
-623.419	-200.000	0.026	-0.374
-622.405	94.488	0.174	-0.200
-621.390	104.720	-0.144	-0.172
-620.376	-200.000	-0.006	0.239
-619.361	-200.000	0.000	-0.109
-618.346	800.000	0.049	-0.138
-617.332	-128.888	-0.197	0.028
-616.317	-125.243	-0.200	0.031
-615.303	-96.282	0.229	-0.062
-614.288	-142.262	0.104	0.010
-613.273	-200.000	-0.037	-0.454
-612.259	357.719	-0.157	-0.317
-611.244	67.431	-0.098	0.101
-610.230	182.468	0.108	-0.161
-609.215	-200.000	-0.022	-0.333
-608.201	-41.527	-0.226	-0.118
-607.186	800.000	0.055	0.231
-606.171	71.004	-0.127	-0.133
-605.157	480.019	-0.111	-0.254
-604.142	-200.000	0.023	0.204
-603.128	28.979	-0.045	-0.038
-602.113	170.701	-0.187	-0.272
-601.098	-200.000	0.031	-0.276
-600.084	-104.802	-0.013	-0.003
-599.069	-87.762	0.063	0.019
-598.055	165.231	0.040	0.057
-597.040	-200.000	-0.011	0.153
-596.025	-51.600	-0.018	-0.008
-595.011	-200.000	-0.472	0.001
-593.996	-200.000	-0.018	0.155
-592.982	296.620	0.183	-0.339
-591.967	-56.486	0.110	-0.050
-590.952	-122.330	0.140	0.023
-589.938	223.543	-0.128	-0.210
-588.923	130.669	-0.213	0.277
-587.909	-72.349	0.389	0.146
-586.894	-187.432	-0.229	0.003
-585.879	707.268	-0.060	0.160
-584.865	-84.513	-0.166	-0.053
-583.850	-200.000	-0.013	0.108
-582.836	-144.973	0.408	0.038
-581.821	-58.669	-0.134	-0.059
-580.806	190.613	0.163	0.249
-579.792	-200.000	0.013	0.152
-578.777	800.000	-0.048	0.177
-577.763	-131.933	0.147	-0.019
-576.748	106.775	0.193	0.232
-575.733	800.000	-0.029	0.110
-574.719	217.161	-0.061	-0.099
-573.704	-94.057	-0.063	-0.017
-572.690	85.883	0.123	-0.137
-571.675	37.975	0.042	0.038
-570.661	-43.008	-0.133	-0.068
-569.646	-200.000	0.063	0.416
-568.631	-200.000	-0.002	-0.091
-567.617	-15.418	0.377	-0.243
-566.602	-110.462	0.149	-0.031
-565.588	-25.172	-0.241	0.145
-564.573	-149.628	-0.255	-0.020
-563.558	-68.224	-0.242	-0.095
-562.544	-107.188	-0.162	-0.036
-561.529	-200.000	-0.047	-0.272
-560.515	800.000	0.048	-0.140
-559.500	-200.000	0.039	0.185
-558.485	470.145	0.073	0.165
-557.471	145.781	0.148	-0.201
-556.456	-9.903	0.038	0.025
-555.442	-200.000	-0.018	-0.140
-554.427	-200.000	0.015	0.170
-553.412	800.000	-0.168	-0.521
-552.398	-39.920	0.159	-0.084
-551.383	-165.524	-0.144	-0.006
-550.369	15.835	-0.016	-0.012
-549.354	768.831	-0.005	0.015
-548.339	-200.000	0.014	-0.512
-547.325	800.000	-0.069	-0.225
-546.310	-62.196	0.145	-0.061
-545.296	737.294	-0.035	-0.094
-544.281	643.769	-0.070	-0.180
-543.266	-183.943	0.286	-0.005
-542.252	-13.760	-0.323	0.211
-541.237	-100.507	0.072	-0.018
-540.223	-125.636	-0.115	0.018
-539.208	-80.952	0.195	-0.065
-538.193	317.274	-0.086	0.165
-537.179	-200.000	0.025	-0.117
-536.164	-31.095	-0.158	0.090
-535.150	-200.000	0.017	-0.211
-534.135	191.910	0.051	0.078
-533.121	257.315	0.025	0.043
-532.106	-9.713	-0.135	-0.091
-531.091	127.984	-0.083	-0.106
-530.077	681.954	0.126	0.332
-529.062	56.094	-0.029	0.029
-528.048	-88.928	0.150	0.045
-527.033	432.632	0.080	0.176
-526.018	635.845	-0.119	-0.304
-525.004	800.000	-0.124	0.485
-523.989	-16.150	0.259	-0.167
-522.975	39.308	-0.183	0.165
-521.960	303.993	0.088	0.165
-520.945	-200.000	0.066	0.337
-519.931	-104.385	0.429	-0.100
-518.916	-146.878	-0.385	0.033
-517.902	-144.563	-0.355	-0.033
-516.887	-45.320	-0.162	0.081
-515.872	-49.846	-0.334	0.160
-514.858	583.146	-0.034	0.083
-513.843	-200.000	0.008	-0.093
-512.829	246.538	0.176	0.299
-511.814	800.000	-0.081	0.360
-510.799	561.892	-0.198	-0.484
-509.785	-200.000	0.047	0.249
-508.770	-99.608	-0.129	0.033
-507.756	800.000	0.109	-0.355
-506.741	-45.251	-0.264	0.132
-505.726	-200.000	0.037	-0.168
-504.712	-44.998	0.079	-0.039
-503.697	-125.657	0.496	-0.076
-502.683	800.000	0.018	0.076
-501.668	-3.228	0.212	-0.149
-500.653	800.000	-0.047	0.186
-499.639	6.761	-0.063	0.047
-498.624	191.402	0.118	-0.180
-497.610	202.387	0.185	0.287
-496.595	64.444	-0.284	-0.288
-495.581	241.211	-0.077	0.130
-494.566	-200.000	0.012	-0.171
-493.551	-105.366	-0.147	0.034
-492.537	-71.672	-0.252	0.095
-491.522	-0.598	-0.341	-0.244
-490.508	800.000	0.055	-0.238
-489.493	468.119	0.134	0.303
-488.478	-200.000	-0.009	-0.089
-487.464	407.860	-0.082	0.175
-486.449	800.000	0.054	0.199
-485.435	71.536	0.064	0.067
-484.420	-14.058	0.219	-0.142
-483.405	-200.000	0.026	-0.197
-482.391	800.000	-0.010	0.043
-481.376	-200.000	0.004	0.127
-480.362	-141.446	-0.088	-0.009
-479.347	25.495	0.068	0.057
-478.332	66.633	-0.254	-0.261
-477.318	432.814	0.019	0.041
-476.303	-200.000	-0.069	0.433
-475.289	58.341	0.217	0.215
-474.274	-72.347	-0.154	0.057
-473.259	-21.528	0.197	-0.121
-472.245	800.000	0.082	-0.227
-471.230	800.000	-0.049	-0.210
-470.216	-99.282	0.193	-0.049
-469.201	-65.323	-0.128	0.052
-468.186	-200.000	0.009	-0.244
-467.172	334.822	0.131	-0.256
-466.157	-121.404	0.294	-0.049
-465.143	-37.857	0.162	-0.087
-464.128	3.503	-0.122	0.090
-463.113	176.209	-0.097	-0.142
-462.099	-200.000	-0.021	-0.139
-461.084	-141.610	0.154	-0.016
-460.070	580.580	-0.059	-0.145
-459.055	-130.465	0.084	0.011
-458.040	-200.000	-0.023	-0.109
-457.026	-94.498	0.378	-0.104
-456.011	26.473	-0.166	0.140
-454.997	-200.000	0.049	-0.230
-453.982	453.754	0.092	-0.204
-452.968	-127.206	-0.035	0.005
-451.953	-88.587	0.231	-0.069
-450.938	-102.479	-0.406	-0.098
-449.924	-37.174	-0.179	0.096
-448.909	290.581	-0.136	0.249
-447.895	-200.000	0.013	0.141
-446.880	57.141	-0.069	-0.068
-445.865	-112.742	0.182	0.036
-444.851	800.000	-0.055	0.218
-443.836	-15.572	0.079	-0.051
-442.822	189.992	0.217	-0.328
-441.807	-200.000	-0.055	0.287
-440.792	145.452	-0.051	0.069
-439.778	511.116	-0.035	-0.082
-438.763	-90.545	0.209	-0.061
-437.749	23.083	-0.075	-0.062
-436.734	-68.523	-0.303	-0.118
-435.719	-72.487	-0.191	0.071
-434.705	-20.512	-0.217	-0.134
-433.690	-72.718	-0.221	0.082
-432.676	-200.000	0.005	-0.165
-431.661	-121.469	-0.524	-0.088
-430.646	11.734	-0.148	-0.115
-429.632	75.708	-0.114	-0.122
-428.617	-85.750	-0.174	0.054
-427.603	311.251	-0.092	-0.173
-426.588	-45.387	0.271	-0.135
-425.573	-64.802	-0.187	0.076
-424.559	278.092	-0.183	0.329
-423.544	152.858	0.132	0.182
-422.530	-120.750	-0.099	-0.017
-421.515	123.498	-0.394	0.497
-420.500	-200.000	-0.031	0.217
-419.486	800.000	0.038	-0.141
-418.471	63.105	-0.072	-0.073
-417.457	-200.000	0.011	0.537
-416.442	1.275	-0.112	-0.081
-415.428	9.437	-0.218	-0.166
-414.413	-21.822	-0.394	-0.241
-413.398	-9.283	0.167	0.112
-412.384	-74.555	0.304	0.110
-411.369	258.144	0.043	-0.075
-410.355	-200.000	0.011	0.282
-409.340	-32.538	0.308	-0.172
-408.325	800.000	-0.031	-0.119
-407.311	-48.213	-0.123	0.060
-406.296	800.000	0.068	0.209
-405.282	-200.000	0.048	-0.252
-404.267	2.820	0.185	0.135
-403.252	-14.267	0.069	0.044
-402.238	-64.953	-0.290	0.118
-401.223	-200.000	0.008	0.041
-400.209	212.595	-0.099	-0.157
-399.194	293.243	-0.136	-0.250
-398.179	-200.000	0.008	-0.085
-397.165	-174.557	0.094	0.003
-396.150	-84.517	0.161	-0.051
-395.136	620.229	0.058	-0.147
-394.121	-19.944	-0.267	-0.166
-393.106	-56.361	-0.204	-0.091
-392.092	-137.320	0.401	-0.046
-391.077	-200.000	0.019	0.157
-390.063	24.681	0.260	0.216
-389.048	-200.000	0.045	0.361
-388.033	-130.175	-0.322	0.044
-387.019	-41.307	0.266	0.138
-386.004	-97.652	0.065	0.017
-384.990	74.858	-0.223	-0.236
-383.975	-200.000	-0.006	0.187
-382.960	223.899	-0.115	0.187
-381.946	30.727	-0.025	-0.021
-380.931	111.760	-0.088	0.107
-379.917	800.000	-0.039	0.118
-378.902	-35.208	-0.295	0.161
-377.888	733.630	0.146	0.393
-376.873	-200.000	0.036	-0.297
-375.858	800.000	-0.035	0.119
-374.844	237.328	-0.102	0.169
-373.829	-58.552	0.189	-0.082
-372.815	-86.956	0.324	-0.099
-371.800	-0.797	0.317	0.226
-370.785	-7.187	-0.209	-0.142
-369.771	-41.708	-0.071	-0.036
-368.756	71.105	0.089	0.092
-367.742	-200.000	0.027	0.245
-366.727	800.000	-0.080	0.283
-365.712	-101.061	-0.189	-0.047
-364.698	28.608	0.230	-0.195
-363.683	800.000	0.030	-0.099
-362.669	-102.672	0.378	-0.090
-361.654	70.148	-0.085	-0.088
-360.639	-200.000	0.001	-0.323
-359.625	93.769	-0.259	0.295
-358.610	-139.472	0.202	-0.022
-357.596	659.738	0.070	-0.180
-356.581	-47.040	0.309	0.151
-355.566	189.633	0.084	-0.126
-354.552	781.047	0.080	0.219
-353.537	315.929	0.052	0.098
-352.523	401.162	0.062	0.131
-351.508	-174.650	-0.068	0.002
-350.493	150.991	-0.219	-0.299
-349.479	800.000	0.044	-0.151
-348.464	-20.984	0.197	0.121
-347.450	800.000	-0.069	0.242
-346.435	289.828	0.017	-0.030
-345.420	-76.336	-0.142	-0.050
-344.406	157.085	0.089	-0.124
-343.391	-53.401	0.367	-0.169
-342.377	-200.000	0.000	0.241
-341.362	450.293	0.094	0.208
-340.348	46.143	-0.149	-0.138
-339.333	-200.000	0.013	0.086
-338.318	-77.239	0.105	-0.037
-337.304	145.939	-0.099	0.133
-336.289	94.860	0.125	0.143
-335.275	-137.881	0.347	-0.039
-334.260	-137.907	0.087	-0.010
-333.245	192.396	0.082	-0.124
-332.231	-37.893	-0.154	-0.082
-331.216	-102.369	-0.267	0.064
-330.202	27.210	-0.136	0.114
-329.187	292.254	-0.067	-0.123
-328.172	-200.000	-0.047	0.266
-327.158	-200.000	-0.009	0.211
-326.143	800.000	0.089	-0.285
-325.129	294.295	-0.186	-0.340
-324.114	455.802	0.040	0.089
-323.099	800.000	0.053	0.217
-322.085	141.623	-0.221	-0.293
-321.070	-102.810	0.079	-0.019
-320.056	-75.678	0.219	-0.078
-319.041	800.000	-0.119	0.416
-318.026	237.683	-0.078	0.130
-317.012	90.820	0.146	-0.163
-315.997	-66.616	-0.199	0.079
-314.983	41.875	-0.075	-0.068
-313.968	53.901	-0.260	-0.250
-312.953	-49.777	-0.413	0.197
-311.939	12.162	0.089	-0.069
-310.924	-37.608	0.185	0.099
-309.910	38.780	-0.170	-0.152
-308.895	30.981	-0.211	-0.181
-307.880	-91.347	-0.186	0.053
-306.866	369.447	-0.165	0.334
-305.851	-118.835	-0.059	-0.010
-304.837	-200.000	-0.004	-0.028
-303.822	-101.830	0.240	-0.058
-302.807	-200.000	0.004	-0.022
-301.793	26.963	0.105	-0.088
-300.778	-22.192	0.066	-0.040
-299.764	239.678	-0.070	0.116
-298.749	-160.612	0.142	-0.008
-297.735	-200.000	0.020	-0.161
-296.720	-123.474	0.092	-0.015
-295.705	-90.470	0.153	0.044
-294.691	31.294	-0.168	-0.145
-293.676	-200.000	0.023	-0.164
-292.662	157.816	0.112	-0.155
-291.647	534.400	-0.049	-0.117
-290.632	-17.790	-0.028	0.018
-289.618	607.871	0.071	-0.178
-288.603	-161.509	-0.130	0.007
-287.589	110.043	-0.053	0.064
-286.574	-200.000	0.008	0.159
-285.559	129.893	-0.099	-0.126
-284.545	334.252	-0.086	-0.167
-283.530	12.817	0.165	0.128
-282.516	800.000	0.042	0.121
-281.501	191.223	-0.196	0.296
-280.486	13.257	0.062	-0.048
-279.472	188.731	-0.118	-0.176
-278.457	-128.783	-0.007	0.001
-277.443	-127.398	-0.040	-0.006
-276.428	340.560	-0.065	0.127
-275.413	-95.432	-0.229	-0.062
-274.399	197.472	0.141	0.215
-273.384	-200.000	0.033	-0.168
-272.370	-119.487	-0.300	0.052
-271.355	800.000	-0.020	0.074
-270.340	-200.000	0.008	-0.071
-269.326	-194.867	0.178	0.001
-268.311	-73.728	-0.056	0.020
-267.297	-58.250	-0.216	0.094
-266.282	60.165	0.099	-0.098
-265.267	-15.297	0.289	-0.184
-264.253	289.785	0.078	-0.141
-263.238	8.158	-0.097	-0.073
-262.224	-72.237	-0.218	-0.081
-261.209	-158.767	0.144	0.008
-260.195	-29.869	-0.324	-0.184
-259.180	800.000	-0.090	0.383
-258.165	686.985	0.107	0.280
-257.151	-42.959	0.057	0.029
-256.136	-40.335	0.103	-0.054
-255.122	279.862	0.083	0.148
-254.107	76.794	0.146	-0.155
-253.092	2.068	0.021	0.015
-252.078	508.467	0.073	0.168
-251.063	-132.169	0.265	0.034
-250.049	36.545	-0.151	-0.134
-249.034	800.000	-0.073	-0.264
-248.019	-28.461	0.302	0.174
-247.005	107.072	0.158	-0.187
-245.990	86.026	-0.220	-0.242
-244.976	-124.887	0.150	-0.023
-243.961	265.281	-0.082	-0.143
-242.946	-71.164	-0.272	0.102
-241.932	-131.586	0.063	0.008
-240.917	-29.459	-0.164	0.094
-239.903	123.472	-0.107	-0.135
-238.888	-80.240	0.191	-0.064
-237.873	39.097	0.169	0.151
-236.859	-12.041	-0.103	-0.068
-235.844	-87.661	0.108	0.033
-234.830	-131.148	0.422	-0.056
-233.815	14.928	0.146	0.114
-232.800	143.202	0.348	0.463
-231.786	800.000	0.106	0.329
-230.771	148.002	-0.181	-0.244
-229.757	197.531	-0.094	0.143
-228.742	372.858	-0.016	0.032
-227.727	-147.865	0.392	0.033
-226.713	-200.000	-0.017	-0.078
-225.698	281.888	0.099	-0.177
-224.684	37.493	0.090	0.080
-223.669	-56.689	-0.141	-0.062
-222.655	-33.084	0.298	0.165
-221.640	24.697	-0.092	0.076
-220.625	9.599	-0.131	-0.099
-219.611	-27.970	0.065	-0.038
-218.596	125.323	0.205	-0.258
-217.582	-76.924	0.246	-0.086
-216.567	-200.000	0.017	-0.143
-215.552	-113.648	-0.236	-0.046
-214.538	-113.545	0.214	0.042
-213.523	-16.505	-0.205	-0.129
-212.509	63.836	0.296	0.297
-211.494	-92.734	-0.486	-0.136
-210.479	-58.348	-0.126	0.055
-209.465	-177.997	-0.113	-0.003
-208.450	173.189	-0.058	0.084
-207.436	-94.249	-0.471	0.129
-206.421	-200.000	-0.021	0.250
-205.406	-200.000	-0.021	0.325
-204.392	261.431	-0.035	0.061
-203.377	-91.806	0.145	-0.041
-202.363	180.201	-0.097	-0.142
-201.348	179.597	0.045	-0.065
-200.333	389.069	-0.109	0.225
-199.319	800.000	-0.026	-0.112
-198.304	146.570	0.040	0.054
-197.290	322.083	0.098	-0.186
-196.275	-200.000	0.074	0.356
-195.260	-95.177	-0.183	-0.049
-194.246	-112.772	0.136	-0.027
-193.231	-50.546	0.203	-0.095
-192.217	-47.841	-0.406	0.196
-191.202	-12.870	0.255	0.166
-190.187	396.731	0.092	-0.191
-189.173	-35.418	0.409	-0.221
-188.158	-180.075	-0.086	0.002
-187.144	-111.369	0.378	0.077
-186.129	-200.000	-0.021	-0.332
-185.114	-85.325	0.082	0.025
-184.100	800.000	0.116	0.350
-183.085	-200.000	-0.031	-0.362
-182.071	264.717	0.204	0.355
-181.056	-130.282	-0.130	0.018
-180.042	585.277	-0.062	0.151
-179.027	108.226	-0.079	0.094
-178.012	16.040	0.161	0.127
-176.998	279.228	0.122	-0.217
-175.983	-200.000	0.020	-0.102
-174.969	-48.490	-0.088	-0.042
-173.954	137.235	0.155	-0.202
-172.939	-52.988	0.322	0.148
-171.925	239.644	0.157	0.261
-170.910	23.662	0.143	0.118
-169.896	-0.818	0.292	-0.206
-168.881	-57.932	-0.268	0.117
-167.866	170.656	0.174	0.248
-166.852	417.161	-0.112	0.237
-165.837	-96.686	-0.149	-0.039
-164.823	-57.814	-0.220	0.096
-163.808	-118.469	0.169	0.030
-162.793	657.091	0.035	0.089
-161.779	-200.000	0.017	0.240
-160.764	800.000	0.060	-0.215
-159.750	-25.928	0.195	0.114
-158.735	-168.945	-0.223	0.008
-157.720	-39.229	-0.218	0.114
-156.706	3.328	0.305	-0.221
-155.691	800.000	0.051	-0.166
-154.677	-200.000	0.046	-0.342
-153.662	-27.331	-0.187	0.109
-152.647	60.308	0.262	0.258
-151.633	-169.199	-0.457	0.017
-150.618	-53.965	0.194	0.088
-149.604	37.982	-0.123	-0.109
-148.589	23.789	0.300	0.246
-147.574	800.000	-0.107	0.387
-146.560	-200.000	0.018	-0.082
-145.545	-6.035	-0.165	0.112
-144.531	466.367	-0.091	0.203
-143.516	800.000	-0.093	0.308
-142.502	800.000	0.041	-0.113
-141.487	-90.167	-0.142	0.041
-140.472	-135.239	-0.483	-0.058
-139.458	-78.479	0.170	-0.058
-138.443	-63.287	-0.088	0.036
-137.429	537.146	0.089	0.211
-136.414	800.000	-0.133	-0.408
-135.399	-200.000	0.018	0.103
-134.385	-3.108	-0.144	-0.100
-133.370	-90.080	-0.222	-0.064
-132.356	277.466	0.216	-0.382
-131.341	65.252	-0.214	0.215
-130.326	-117.236	0.312	-0.056
-129.312	-167.078	-0.076	-0.003
-128.297	118.358	0.199	0.245
-127.283	-52.004	0.346	0.160
-126.268	-69.293	0.107	-0.041
-125.253	-200.000	-0.002	-0.039
-124.239	800.000	-0.064	-0.246
-123.224	215.758	-0.133	0.210
-122.210	-187.950	0.150	0.002
-121.195	181.228	-0.048	-0.070
