DTS Sentinel unit serial number:	SN413079Multiplexer serial number:	ORYXHardware model number:	OX4-SRSoftware version number:	ORYX F/W v4.00 Oryx Data Collector v3.7.2.0data status	okinstallation	princeton_trtdifferential loss correction	single-endedforward channel	channel 1reverse channel	N/Adate	2019/09/11time	01:12:11forward acquisition time	60.00reverse acquisition time	0.00gamma	496.2192k internal	0.2331k external	0.2331temperature offset calibration	0.9931default loss term (dB/km)	0.3790temperature slope calibration	1.0000multiplexer offset coefficient	1.0000multiplexer slope coefficient	1.0000fibre end	0.00T internal ref (°C)	29.12T ext. ref 1 (°C)	-0.30T ext. ref 2 (°C)	23.11length (m)	temperature (°C)	Stokes	anti-Stokes-747.200	37.402	-0.046	0.041
-746.185	233.111	0.180	0.297
-745.171	-110.218	0.294	-0.062
-744.156	124.290	-0.211	0.268
-743.142	-19.772	-0.252	0.157
-742.127	461.871	0.136	0.305
-741.112	-200.000	-0.005	0.411
-740.098	702.343	-0.106	-0.280
-739.083	-106.539	0.341	-0.076
-738.069	33.989	-0.220	-0.193
-737.054	-136.046	0.187	0.022
-736.039	74.762	-0.168	-0.178
-735.025	-136.015	0.274	-0.032
-734.010	-18.522	-0.262	0.164
-732.996	-145.332	-0.576	-0.052
-731.981	320.131	0.165	-0.314
-730.966	-75.045	-0.280	-0.101
-729.952	73.424	-0.128	0.135
-728.937	-46.883	-0.194	-0.096
-727.923	-10.113	-0.183	-0.122
-726.908	-100.379	-0.266	-0.066
-725.894	-164.626	-0.290	-0.013
-724.879	-124.338	-0.118	-0.018
-723.864	-111.881	-0.214	0.043
-722.850	167.867	0.120	-0.171
-721.835	-85.350	0.467	-0.147
-720.821	720.010	-0.051	-0.136
-719.806	-32.956	-0.271	-0.152
-718.791	-138.586	-0.406	-0.045
-717.777	327.702	0.063	-0.121
-716.762	-12.329	-0.216	0.142
-715.748	716.654	-0.050	0.134
-714.733	109.843	-0.081	0.098
-713.718	223.334	0.065	0.106
-712.704	-127.668	0.148	-0.021
-711.689	800.000	0.052	0.220
-710.675	-32.114	0.148	0.083
-709.660	-146.441	0.113	0.010
-708.645	78.136	0.224	0.240
-707.631	-200.000	-0.026	0.349
-706.616	-50.658	-0.177	-0.084
-705.602	128.339	-0.103	0.132
-704.587	140.253	0.077	0.102
-703.572	-170.395	-0.300	-0.011
-702.558	800.000	0.072	0.219
-701.543	-61.802	-0.022	-0.009
-700.529	-200.000	0.009	-0.109
-699.514	83.009	-0.238	-0.260
-698.499	216.984	-0.126	0.201
-697.485	-152.935	0.201	-0.014
-696.470	800.000	-0.058	0.188
-695.456	429.150	0.078	0.169
-694.441	190.982	0.326	0.493
-693.426	127.568	0.186	-0.237
-692.412	-57.949	-0.342	-0.150
-691.397	-132.802	-0.208	0.027
-690.383	-76.530	0.204	-0.072
-689.368	800.000	0.021	-0.082
-688.354	-144.000	-0.349	-0.033
-687.339	-200.000	-0.054	-0.239
-686.324	-137.803	-0.217	-0.024
-685.310	-130.556	-0.074	0.010
-684.295	-110.209	-0.225	-0.047
-683.281	-19.014	0.320	-0.200
-682.266	-200.000	-0.029	-0.193
-681.251	375.680	-0.076	-0.155
-680.237	-43.583	-0.098	0.050
-679.222	800.000	0.025	-0.112
-678.208	-78.974	-0.137	-0.047
-677.193	-183.841	0.140	-0.002
-676.178	-88.985	0.222	0.066
-675.164	-124.568	-0.323	0.050
-674.149	800.000	-0.077	-0.246
-673.135	800.000	-0.080	-0.257
-672.120	-20.854	0.164	0.101
-671.105	155.044	-0.291	0.402
-670.091	17.511	-0.252	0.201
-669.076	294.795	-0.234	-0.430
-668.062	-46.698	-0.194	0.095
-667.047	-200.000	0.025	0.172
-666.032	233.137	-0.194	0.319
-665.018	134.137	-0.143	-0.186
-664.003	294.471	-0.131	0.240
-662.989	-200.000	0.007	0.175
-661.974	159.776	0.051	0.072
-660.959	800.000	0.034	0.112
-659.945	128.410	0.060	0.077
-658.930	-48.000	-0.196	0.095
-657.916	148.239	0.187	-0.252
-656.901	211.635	0.111	0.176
-655.886	-70.809	-0.224	0.085
-654.872	60.397	-0.090	0.089
-653.857	-123.328	0.105	-0.017
-652.843	253.275	-0.115	-0.197
-651.828	800.000	-0.084	-0.365
-650.814	706.547	0.042	-0.112
-649.799	74.220	-0.076	0.080
-648.784	800.000	0.044	0.142
-647.770	125.059	-0.061	0.078
-646.755	9.366	-0.086	0.065
-645.741	-127.277	-0.404	-0.059
-644.726	49.708	0.194	-0.183
-643.711	-151.130	0.439	0.033
-642.697	-89.551	-0.219	-0.064
-641.682	-200.000	-0.197	-0.000
-640.668	-48.502	-0.107	0.052
-639.653	469.217	0.099	-0.222
-638.638	352.096	-0.020	0.040
-637.624	-169.687	-0.133	0.005
-636.609	289.443	0.094	0.171
-635.595	-200.000	-0.016	0.087
-634.580	-0.924	-0.226	-0.160
-633.565	721.298	0.052	-0.138
-632.551	-54.477	-0.172	-0.078
-631.536	-85.556	-0.236	-0.074
-630.522	-45.309	0.260	-0.129
-629.507	-81.854	-0.096	-0.031
-628.492	-8.877	-0.263	0.176
-627.478	-200.000	-0.013	-0.319
-626.463	-200.000	0.060	-0.286
-625.449	-195.718	-0.112	-0.001
-624.434	800.000	-0.181	0.515
-623.419	321.308	-0.144	0.275
-622.405	-119.171	0.348	-0.061
-621.390	-12.398	0.154	0.101
-620.376	35.130	-0.282	0.247
-619.361	102.825	0.153	-0.180
-618.346	693.673	0.126	-0.331
-617.332	-86.215	0.408	0.126
-616.317	-113.720	0.201	-0.039
-615.303	-148.154	0.148	-0.012
-614.288	-88.317	-0.188	0.056
-613.273	294.580	0.044	-0.081
-612.259	-200.000	-0.051	-0.370
-611.244	136.069	-0.273	-0.357
-610.230	65.152	-0.033	-0.033
-609.215	334.585	-0.087	-0.168
-608.201	-200.000	0.005	-0.394
-607.186	-200.000	-0.021	0.098
-606.171	40.244	0.028	0.025
-605.157	174.093	0.141	0.203
-604.142	160.126	0.184	-0.257
-603.128	127.505	-0.180	0.229
-602.113	329.650	-0.169	-0.324
-601.098	-155.499	-0.135	0.009
-600.084	-25.895	-0.096	0.057
-599.069	-97.558	0.261	0.068
-598.055	54.547	-0.102	0.099
-597.040	644.314	0.190	0.486
-596.025	68.517	-0.204	-0.209
-595.011	-200.000	0.017	0.132
-593.996	135.922	-0.136	0.178
-592.982	-200.000	0.009	-0.046
-591.967	753.498	0.073	0.199
-590.952	-200.000	-0.021	0.256
-589.938	-56.928	-0.066	0.029
-588.923	-200.000	-0.046	0.254
-587.909	55.830	0.170	-0.165
-586.894	800.000	0.094	-0.407
-585.879	-107.239	0.084	0.019
-584.865	-63.220	0.146	0.060
-583.850	-88.686	0.365	0.109
-582.836	-200.000	-0.025	0.147
-581.821	-83.428	0.283	0.091
-580.806	-2.675	0.162	0.113
-579.792	-200.000	0.013	-0.061
-578.777	90.224	0.200	0.224
-577.763	606.956	-0.022	-0.056
-576.748	-171.860	0.098	-0.003
-575.733	-200.000	-0.048	0.257
-574.719	-22.614	-0.191	-0.115
-573.704	13.483	0.112	-0.087
-572.690	98.219	-0.154	0.177
-571.675	134.467	0.170	-0.220
-570.661	219.983	-0.063	-0.101
-569.646	-200.000	0.035	0.241
-568.631	-44.018	0.225	0.113
-567.617	800.000	0.047	-0.138
-566.602	391.917	0.124	0.257
-565.588	729.830	-0.039	-0.105
-564.573	166.469	-0.196	-0.277
-563.558	5.410	0.261	-0.192
-562.544	-51.975	-0.200	-0.093
-561.529	-135.747	-0.358	0.042
-560.515	729.446	0.075	0.201
-559.500	-179.031	-0.258	0.006
-558.485	-51.298	-0.287	0.134
-557.471	-110.022	-0.200	-0.042
-556.456	800.000	0.105	-0.333
-555.442	-200.000	0.118	-0.000
-554.427	-200.000	0.007	0.196
-553.412	7.976	-0.097	-0.073
-552.398	535.402	-0.153	-0.363
-551.383	800.000	0.119	0.417
-550.369	-200.000	-0.045	-0.351
-549.354	321.727	-0.121	0.229
-548.339	-200.000	0.053	-0.387
-547.325	-107.891	-0.161	0.035
-546.310	329.406	0.210	-0.403
-545.296	-2.956	0.040	0.028
-544.281	-100.832	0.264	-0.065
-543.266	-78.911	-0.205	-0.070
-542.252	190.371	0.147	-0.220
-541.237	729.481	0.080	0.214
-540.223	-200.000	0.024	-0.376
-539.208	528.238	-0.066	-0.156
-538.193	-200.000	-0.026	0.150
-537.179	228.900	0.102	-0.166
-536.164	-108.998	0.126	0.027
-535.150	-18.769	0.120	-0.075
-534.135	162.135	-0.093	-0.130
-533.121	-200.000	0.028	-0.214
-532.106	-200.000	0.011	-0.228
-531.091	364.714	0.082	0.165
-530.077	-45.141	0.183	-0.091
-529.062	-200.000	0.001	-0.241
-528.048	-200.000	-0.014	0.113
-527.033	-6.582	-0.176	0.120
-526.018	61.472	-0.352	-0.350
-525.004	-29.411	0.160	0.091
-523.989	92.888	-0.154	0.174
-522.975	-200.000	0.015	0.181
-521.960	-119.197	0.246	0.043
-520.945	800.000	-0.073	0.208
-519.931	-61.739	0.240	0.101
-518.916	-200.000	-0.009	0.317
-517.902	-114.799	0.128	0.024
-516.887	-200.000	-0.027	0.178
-515.872	3.604	0.054	0.040
-514.858	228.741	-0.058	0.094
-513.843	-11.604	-0.319	0.209
-512.829	417.614	-0.129	0.274
-511.814	-70.516	0.305	-0.115
-510.799	-200.000	-0.008	-0.076
-509.785	-79.058	-0.432	-0.147
-508.770	800.000	-0.072	-0.234
-507.756	-200.000	-0.045	-0.222
-506.741	-106.179	-0.371	-0.083
-505.726	-50.421	-0.169	0.079
-504.712	-27.251	0.333	-0.193
-503.697	-98.882	0.478	0.121
-502.683	-104.144	0.138	-0.032
-501.668	139.828	0.206	-0.271
-500.653	-200.000	0.003	-0.198
-499.639	-93.212	0.252	0.070
-498.624	479.223	-0.188	-0.424
-497.610	225.672	-0.052	-0.085
-496.595	-138.384	-0.301	0.033
-495.581	-50.162	0.143	0.067
-494.566	54.128	-0.210	0.202
-493.551	-8.746	0.272	0.182
-492.537	-106.723	-0.074	-0.016
-491.522	-200.000	0.002	-0.069
-490.508	66.694	-0.038	0.038
-489.493	800.000	-0.032	-0.094
-488.478	-84.518	-0.222	0.070
-487.464	201.796	-0.168	0.257
-486.449	-200.000	0.042	0.287
-485.435	-56.577	-0.283	-0.125
-484.420	-200.000	0.040	-0.232
-483.405	9.802	0.069	-0.052
-482.391	-106.274	-0.052	0.012
-481.376	164.310	0.268	-0.377
-480.362	-159.921	-0.305	-0.017
-479.347	-54.913	0.193	0.087
-478.332	378.568	-0.161	-0.328
-477.318	11.660	-0.139	-0.106
-476.303	351.485	0.058	-0.115
-475.289	126.584	0.178	-0.225
-474.274	-3.995	-0.021	0.014
-473.259	-165.167	0.150	0.007
-472.245	-1.518	-0.180	0.127
-471.230	-200.000	-0.005	-0.346
-470.216	119.570	-0.145	-0.179
-469.201	-24.372	-0.081	-0.048
-468.186	-96.894	0.229	0.060
-467.172	-21.387	-0.194	-0.118
-466.157	-200.000	0.011	0.060
-465.143	-53.232	-0.185	-0.085
-464.128	299.812	-0.150	0.275
-463.113	78.242	-0.090	0.096
-462.099	209.222	0.057	0.089
-461.084	-200.000	-0.028	-0.173
-460.070	-33.942	0.164	-0.090
-459.055	-23.558	0.266	-0.159
-458.040	735.365	-0.110	0.292
-457.026	-200.000	-0.004	0.057
-456.011	800.000	-0.053	0.201
-454.997	147.778	0.179	-0.241
-453.982	-200.000	0.008	-0.100
-452.968	158.915	-0.168	-0.232
-451.953	-113.417	-0.216	0.042
-450.938	-104.238	0.170	0.039
-449.924	144.102	-0.077	-0.102
-448.909	-133.478	0.129	-0.016
-447.895	390.066	0.064	0.131
-446.880	594.403	0.128	0.315
-445.865	-200.000	-0.002	0.524
-444.851	800.000	0.086	-0.281
-443.836	-76.834	-0.164	0.057
-442.822	-61.869	0.136	0.057
-441.807	-147.003	0.038	0.003
-440.792	225.217	-0.052	-0.084
-439.778	-200.000	0.006	0.134
-438.763	800.000	-0.054	0.150
-437.749	-107.132	-0.190	0.042
-436.734	800.000	0.084	-0.363
-435.719	-104.920	-0.150	-0.034
-434.705	-119.963	0.182	0.031
-433.690	38.608	-0.166	-0.147
-432.676	180.420	-0.080	0.117
-431.661	118.480	0.099	-0.122
-430.646	293.441	-0.107	0.194
-429.632	-181.835	0.304	0.006
-428.617	22.920	0.084	-0.069
-427.603	-200.000	0.049	0.256
-426.588	19.436	-0.139	0.111
-425.573	-41.559	0.212	-0.108
-424.559	-144.938	0.158	0.014
-423.544	508.190	-0.079	0.182
-422.530	800.000	-0.047	-0.131
-421.515	-123.020	-0.257	0.041
-420.500	94.873	0.138	0.156
-419.486	-67.668	-0.112	0.044
-418.471	228.732	-0.166	-0.268
-417.457	470.130	0.055	-0.122
-416.442	-36.825	-0.244	-0.130
-415.428	403.427	0.093	-0.195
-414.413	-111.814	0.334	0.067
-413.398	49.829	0.137	-0.128
-412.384	-200.000	0.036	0.211
-411.369	116.187	-0.084	-0.102
-410.355	-40.000	-0.257	0.133
-409.340	215.183	-0.108	-0.170
-408.325	21.628	-0.161	0.130
-407.311	534.133	0.015	0.034
-406.296	363.142	-0.110	0.219
-405.282	-200.000	-0.004	-0.345
-404.267	-100.279	-0.124	0.031
-403.252	-33.860	0.219	0.120
-402.238	525.657	0.165	0.385
-401.223	800.000	0.022	0.089
-400.209	-176.315	-0.147	0.004
-399.194	-138.201	0.216	0.024
-398.179	18.498	0.127	-0.101
-397.165	-200.000	0.007	0.307
-396.150	-39.260	0.355	0.185
-395.136	-84.012	0.152	-0.048
-394.121	33.004	-0.199	0.171
-393.106	-200.000	-0.003	-0.097
-392.092	-200.000	0.033	-0.394
-391.077	-12.669	0.117	-0.076
-390.063	800.000	0.041	0.150
-389.048	54.021	0.050	-0.048
-388.033	229.378	-0.078	0.126
-387.019	-200.000	0.018	-0.196
-386.004	800.000	0.089	-0.315
-384.990	-96.317	0.280	0.074
-383.975	800.000	0.117	0.322
-382.960	-74.551	-0.191	-0.068
-381.946	113.130	-0.200	-0.241
-380.931	48.322	0.162	0.150
-379.917	9.169	0.056	-0.042
-378.902	-169.440	-0.229	-0.008
-377.888	-140.079	-0.257	0.027
-376.873	-200.000	0.049	-0.336
-375.858	-113.415	0.155	0.030
-374.844	-92.694	0.247	-0.069
-373.829	-200.000	-0.026	-0.270
-372.815	-27.310	0.116	0.067
-371.800	-182.208	0.093	0.002
-370.785	-47.603	0.155	0.075
-369.771	78.167	-0.071	-0.075
-368.756	-155.353	0.090	-0.006
-367.742	-200.000	0.035	0.340
-366.727	207.928	-0.247	-0.383
-365.712	800.000	0.109	-0.315
-364.698	31.153	-0.258	0.220
-363.683	-81.917	0.204	-0.066
-362.669	28.188	-0.186	-0.156
-361.654	-182.451	0.338	0.006
-360.639	302.771	0.040	-0.073
-359.625	-78.694	0.155	0.052
-358.610	-72.802	0.057	0.021
-357.596	-104.170	-0.415	-0.096
-356.581	34.743	0.261	-0.227
-355.566	14.529	0.084	0.065
-354.552	-200.000	-0.048	0.245
-353.537	-134.865	-0.015	-0.002
-352.523	10.214	0.052	0.039
-351.508	-18.484	0.099	0.061
-350.493	-125.099	-0.211	-0.032
-349.479	20.637	-0.221	0.177
-348.464	109.637	-0.285	0.339
-347.450	-200.000	-0.028	0.375
-346.435	8.235	0.180	-0.134
-345.420	220.642	0.191	-0.304
-344.406	114.850	0.117	-0.142
-343.391	-35.028	0.162	-0.087
-342.377	800.000	-0.041	0.159
-341.362	-200.000	0.057	-0.260
-340.348	800.000	-0.094	-0.314
-339.333	348.578	-0.225	-0.439
-338.318	800.000	-0.066	-0.200
-337.304	-50.411	-0.188	-0.088
-336.289	-146.740	0.371	0.032
-335.275	-200.000	-0.020	0.236
-334.260	-83.539	0.134	-0.042
-333.245	186.880	-0.181	0.267
-332.231	-200.000	0.010	0.213
-331.216	336.585	-0.044	-0.084
-330.202	-90.909	0.511	0.146
-329.187	-200.000	0.064	0.314
-328.172	236.914	-0.128	0.210
-327.158	-200.000	0.004	0.326
-326.143	-200.000	-0.013	-0.207
-325.129	53.840	-0.134	-0.128
-324.114	-119.471	0.253	0.044
-323.099	174.362	-0.167	0.239
-322.085	220.333	0.070	-0.112
-321.070	14.204	-0.138	0.107
-320.056	-142.364	0.154	0.015
-319.041	19.145	0.115	0.092
-318.026	-194.498	-0.225	0.002
-317.012	-93.985	-0.221	0.060
-315.997	267.436	-0.108	0.187
-314.983	50.263	-0.219	0.205
-313.968	800.000	0.037	-0.135
-312.953	-79.630	-0.453	0.151
-311.939	-28.678	-0.165	-0.094
-310.924	88.124	0.087	0.095
-309.910	800.000	0.022	-0.084
-308.895	150.566	-0.039	0.052
-307.880	-200.000	0.019	0.285
-306.866	520.233	0.083	-0.192
-305.851	-107.979	-0.304	0.065
-304.837	612.687	0.070	-0.174
-303.822	50.688	0.097	0.091
-302.807	-200.000	-0.014	0.220
-301.793	800.000	-0.049	0.145
-300.778	-108.253	-0.055	-0.012
-299.764	656.126	0.059	0.149
-298.749	788.577	0.019	0.051
-297.735	800.000	-0.020	0.078
-296.720	7.245	0.196	0.145
-295.705	-200.000	-0.029	-0.161
-294.691	347.345	0.106	-0.206
-293.676	12.169	0.045	-0.034
-292.662	301.143	0.196	-0.357
-291.647	49.384	0.137	-0.128
-290.632	478.159	-0.066	-0.148
-289.618	-200.000	-0.076	0.348
-288.603	-200.000	-0.007	0.138
-287.589	-28.631	0.136	-0.077
-286.574	13.200	0.196	-0.150
-285.559	404.446	0.135	0.281
-284.545	-116.614	-0.141	0.026
-283.530	-161.956	0.280	0.014
-282.516	-146.632	-0.219	-0.019
-281.501	272.368	0.046	-0.081
-280.486	-46.231	-0.207	0.101
-279.472	-200.000	-0.021	0.267
-278.457	-140.798	-0.037	-0.004
-277.443	14.191	-0.176	0.135
-276.428	-200.000	0.009	-0.181
-275.413	88.640	0.017	-0.019
-274.399	-136.515	0.291	-0.033
-273.384	-200.000	0.037	0.327
-272.370	-81.459	0.189	-0.062
-271.355	-113.775	0.327	0.063
-270.340	-132.757	-0.202	-0.025
-269.326	414.192	0.040	-0.085
-268.311	800.000	0.084	-0.294
-267.297	31.290	-0.258	-0.218
-266.282	800.000	0.012	0.038
-265.267	727.471	-0.133	0.352
-264.253	-200.000	-0.014	-0.099
-263.238	284.563	0.147	0.261
-262.224	122.791	-0.185	-0.229
-261.209	470.864	-0.182	0.403
-260.195	-36.224	-0.198	0.106
-259.180	-20.556	-0.166	0.101
-258.165	108.532	-0.199	0.235
-257.151	182.353	-0.077	-0.112
-256.136	140.930	-0.165	0.215
-255.122	-188.233	-0.331	0.004
-254.107	19.976	0.218	0.173
-253.092	-138.821	0.186	0.020
-252.078	-84.225	0.183	0.057
-251.063	19.921	-0.058	-0.046
-250.049	-51.831	-0.210	-0.097
-249.034	483.451	-0.033	-0.075
-248.019	-200.000	-0.006	-0.112
-247.005	-98.660	-0.293	0.074
-245.990	151.478	0.202	-0.271
-244.976	-200.000	0.052	-0.244
-243.961	-114.188	0.056	0.011
-242.946	-200.000	0.003	0.256
-241.932	800.000	-0.086	0.291
-240.917	49.475	-0.076	0.071
-239.903	57.710	0.198	0.191
-238.888	-200.000	0.037	-0.175
-237.873	-200.000	-0.023	0.303
-236.859	800.000	0.060	-0.231
-235.844	-48.150	0.026	0.012
-234.830	42.568	-0.182	-0.164
-233.815	-50.946	-0.149	-0.069
-232.800	343.838	-0.074	0.143
-231.786	461.215	0.115	0.252
-230.771	400.237	0.034	0.071
-229.757	-135.957	-0.315	-0.037
-228.742	800.000	0.074	-0.252
-227.727	109.937	-0.240	-0.284
-226.713	-107.768	0.388	-0.083
-225.698	800.000	-0.068	-0.258
-224.684	68.298	-0.095	0.096
-223.669	-200.000	-0.021	0.484
-222.655	-200.000	0.019	0.225
-221.640	-49.240	0.455	0.214
-220.625	-26.774	0.142	-0.082
-219.611	55.408	0.126	0.120
-218.596	-104.549	0.385	0.088
-217.582	-98.070	-0.176	-0.045
-216.567	-29.181	0.154	-0.087
-215.552	-200.000	0.026	0.125
-214.538	-130.484	0.204	0.027
-213.523	-200.000	-0.063	-0.339
-212.509	-200.000	0.053	-0.272
-211.494	-200.000	-0.080	-0.458
-210.479	-99.807	-0.370	-0.091
-209.465	419.255	-0.100	0.211
-208.450	30.151	-0.191	0.161
-207.436	800.000	0.040	-0.140
-206.421	-92.584	-0.184	-0.051
-205.406	490.674	-0.066	-0.149
-204.392	-105.856	0.075	0.017
-203.377	-7.709	-0.194	0.129
-202.363	-200.000	-0.006	-0.157
-201.348	-102.331	-0.273	0.065
-200.333	-153.009	0.278	-0.019
-199.319	-123.824	0.091	-0.014
-198.304	54.298	0.125	0.119
-197.290	-200.000	-0.001	-0.134
-196.275	800.000	-0.086	-0.276
-195.260	-108.973	-0.121	0.025
-194.246	800.000	-0.029	-0.091
-193.231	-9.400	0.175	0.115
-192.217	800.000	0.034	-0.130
-191.202	370.899	-0.031	0.061
-190.187	501.035	0.048	-0.110
-189.173	91.345	-0.161	0.178
-188.158	-16.413	0.099	-0.062
-187.144	-122.927	0.274	0.043
-186.129	-26.127	-0.181	-0.105
-185.114	98.534	-0.133	-0.151
-184.100	223.271	0.228	0.362
-183.085	-200.000	-0.031	0.328
-182.071	150.934	0.228	0.306
-181.056	63.882	0.084	-0.084
-180.042	216.300	-0.069	0.108
-179.027	-200.000	0.005	0.050
-178.012	-200.000	0.059	0.306
-176.998	-59.725	-0.216	0.091
-175.983	175.351	0.047	0.067
-174.969	-32.567	-0.162	-0.089
-173.954	70.943	0.163	-0.166
-172.939	-105.895	0.218	-0.048
-171.925	-200.000	0.063	-0.397
-170.910	104.491	-0.130	-0.151
-169.896	-62.165	-0.068	0.028
-168.881	800.000	-0.046	-0.164
-167.866	203.162	0.100	-0.152
-166.852	800.000	-0.168	0.523
-165.837	-57.475	0.241	-0.104
-164.823	-74.318	-0.151	0.054
-163.808	107.461	-0.045	0.053
-162.793	-200.000	-0.095	0.505
-161.779	-185.254	-0.185	0.003
-160.764	-53.245	0.322	0.146
-159.750	-200.000	-0.022	-0.157
-158.735	-200.000	0.014	0.377
-157.720	532.270	0.139	-0.324
-156.706	-10.381	-0.198	0.129
-155.691	-200.000	0.029	0.132
-154.677	-81.094	0.152	0.050
-153.662	800.000	-0.014	-0.039
-152.647	-123.376	0.216	-0.034
-151.633	511.078	-0.121	-0.277
-150.618	176.234	-0.212	0.303
-149.604	13.788	0.230	-0.176
-148.589	8.609	0.163	-0.121
-147.574	234.792	0.103	-0.168
-146.560	-135.125	-0.340	0.040
-145.545	-200.000	-0.035	0.314
-144.531	63.992	0.024	0.024
-143.516	-66.508	0.228	0.089
-142.502	16.809	0.327	0.254
-141.487	-200.000	0.023	0.256
-140.472	69.618	-0.213	0.215
-139.458	167.118	-0.043	-0.060
-138.443	-200.000	0.040	-0.224
-137.429	-200.000	-0.037	-0.296
-136.414	89.989	0.191	-0.210
-135.399	-94.245	-0.159	-0.043
-134.385	-71.241	0.218	-0.080
-133.370	-65.516	-0.060	0.024
-132.356	-154.039	-0.230	0.015
-131.341	-159.334	-0.059	-0.003
-130.326	173.565	0.093	0.132
-129.312	-200.000	0.006	-0.205
-128.297	-73.798	-0.037	-0.013
-127.283	-144.720	0.125	-0.011
-126.268	512.127	-0.116	-0.265
-125.253	-62.782	0.095	-0.039
-124.239	-46.168	-0.214	0.103
-123.224	-200.000	-0.017	0.214
-122.210	-150.732	0.051	-0.004
