DTS Sentinel unit serial number:	SN413079Multiplexer serial number:	ORYXHardware model number:	OX4-SRSoftware version number:	ORYX F/W v4.00 Oryx Data Collector v3.7.2.0data status	okinstallation	princeton_trtdifferential loss correction	single-endedforward channel	channel 1reverse channel	N/Adate	2019/09/17time	21:58:35forward acquisition time	60.00reverse acquisition time	0.00gamma	496.2192k internal	0.2340k external	0.2340temperature offset calibration	0.9975default loss term (dB/km)	0.3790temperature slope calibration	1.0000multiplexer offset coefficient	1.0000multiplexer slope coefficient	1.0000fibre end	0.00T internal ref (°C)	26.12T ext. ref 1 (°C)	0.19T ext. ref 2 (°C)	18.85length (m)	temperature (°C)	Stokes	anti-Stokes-747.200	-142.471	-0.247	0.024
-746.185	-153.269	0.172	0.012
-745.171	172.403	-0.198	0.285
-744.156	-200.000	-0.014	-0.096
-743.142	-200.000	0.006	-0.167
-742.127	-89.335	-0.108	0.032
-741.112	800.000	-0.092	-0.311
-740.098	346.270	0.142	0.280
-739.083	-200.000	0.016	0.597
-738.069	42.314	-0.197	0.179
-737.054	47.768	0.171	0.160
-736.039	-171.557	-0.353	-0.012
-735.025	242.038	0.165	-0.276
-734.010	-44.355	-0.112	0.056
-732.996	126.671	-0.069	-0.088
-731.981	59.149	0.040	0.040
-730.966	800.000	0.062	0.205
-729.952	305.068	0.232	-0.433
-728.937	56.702	-0.180	0.176
-727.923	364.931	-0.101	-0.204
-726.908	184.934	-0.116	-0.172
-725.894	9.104	-0.204	0.155
-724.879	-200.000	0.002	-0.090
-723.864	309.683	0.085	0.159
-722.850	-75.639	0.429	0.153
-721.835	29.006	-0.272	-0.231
-720.821	200.997	0.071	0.109
-719.806	800.000	-0.104	-0.323
-718.791	705.733	0.025	0.067
-717.777	800.000	-0.028	0.086
-716.762	-159.147	0.169	-0.010
-715.748	42.647	-0.051	-0.046
-714.733	-68.421	0.192	0.075
-713.718	-175.305	-0.431	-0.012
-712.704	189.025	-0.115	-0.173
-711.689	501.230	0.101	-0.233
-710.675	49.040	0.185	0.174
-709.660	149.230	-0.206	-0.280
-708.645	-125.259	-0.009	0.001
-707.631	-91.735	-0.142	-0.040
-706.616	-132.796	0.341	0.044
-705.602	-0.593	-0.221	0.157
-704.587	433.769	-0.027	0.060
-703.572	-200.000	-0.000	0.108
-702.558	320.987	0.036	0.068
-701.543	-96.951	0.130	0.034
-700.529	-104.816	-0.083	-0.019
-699.514	800.000	-0.053	0.150
-698.499	24.500	-0.066	-0.055
-697.485	-95.731	-0.261	0.070
-696.470	-200.000	0.003	0.156
-695.456	-67.234	-0.092	0.036
-694.441	-143.398	0.096	-0.009
-693.426	-9.765	-0.150	0.100
-692.412	491.998	-0.053	-0.121
-691.397	-200.000	-0.020	0.168
-690.383	-49.578	0.137	-0.065
-689.368	77.777	0.233	0.248
-688.354	14.869	0.044	0.034
-687.339	-65.101	0.051	-0.021
-686.324	54.636	-0.105	0.101
-685.310	-186.109	-0.122	0.002
-684.295	800.000	-0.038	-0.120
-683.281	236.658	-0.134	0.221
-682.266	651.942	0.099	0.254
-681.251	448.396	-0.166	-0.365
-680.237	320.469	-0.264	-0.502
-679.222	-171.027	0.358	0.012
-678.208	-200.000	-0.025	-0.292
-677.193	-14.000	0.324	-0.209
-676.178	-137.095	0.112	-0.013
-675.164	-30.511	0.153	0.087
-674.149	-200.000	0.026	-0.128
-673.135	355.357	-0.072	0.143
-672.120	134.049	0.088	-0.113
-671.105	-153.361	0.254	-0.018
-670.091	800.000	0.058	-0.234
-669.076	-8.930	-0.025	-0.017
-668.062	-4.021	-0.221	-0.153
-667.047	-200.000	0.040	-0.261
-666.032	-200.000	-0.054	-0.340
-665.018	669.203	-0.068	0.176
-664.003	217.189	0.175	-0.278
-662.989	54.513	-0.073	-0.070
-661.974	81.286	-0.109	-0.117
-660.959	-0.245	0.082	-0.059
-659.945	-118.307	-0.168	-0.030
-658.930	208.084	-0.067	-0.105
-657.916	-62.361	-0.252	0.105
-656.901	-105.097	0.194	0.044
-655.886	-154.285	-0.475	0.032
-654.872	-200.000	0.024	-0.122
-653.857	-133.133	-0.142	0.018
-652.843	206.845	0.216	0.336
-651.828	-0.172	-0.116	-0.082
-650.814	-200.000	0.005	-0.080
-649.799	525.761	0.140	-0.328
-648.784	695.317	-0.019	-0.051
-647.770	800.000	-0.056	0.210
-646.755	800.000	-0.127	0.399
-645.741	265.662	0.218	-0.379
-644.726	800.000	-0.021	-0.082
-643.711	-200.000	-0.011	-0.123
-642.697	-200.000	-0.023	-0.350
-641.682	376.220	-0.046	-0.093
-640.668	-6.814	-0.176	-0.119
-639.653	-200.000	-0.011	-0.376
-638.638	-93.777	-0.119	-0.033
-637.624	-200.000	0.089	-0.567
-636.609	-91.431	-0.135	0.039
-635.595	-33.269	0.057	0.031
-634.580	154.028	-0.148	0.203
-633.565	576.006	0.102	-0.249
-632.551	-200.000	-0.012	-0.355
-631.536	569.068	0.090	-0.218
-630.522	-21.463	0.059	0.036
-629.507	26.216	-0.077	0.064
-628.492	154.316	0.084	0.116
-627.478	-41.116	-0.037	-0.019
-626.463	-70.484	0.135	0.051
-625.449	125.793	0.168	-0.212
-624.434	800.000	0.096	-0.287
-623.419	159.413	-0.193	-0.268
-622.405	38.321	-0.164	-0.146
-621.390	-91.032	0.242	-0.069
-620.376	-165.781	0.348	-0.015
-619.361	-153.836	-0.313	-0.021
-618.346	-200.000	0.009	0.100
-617.332	-162.633	0.238	0.012
-616.317	36.801	-0.102	0.090
-615.303	-200.000	0.015	0.161
-614.288	-151.127	-0.145	-0.011
-613.273	-111.736	-0.222	0.045
-612.259	800.000	0.025	-0.103
-611.244	-102.074	0.126	0.030
-610.230	800.000	-0.062	-0.242
-609.215	343.767	-0.124	0.243
-608.201	-200.000	-0.006	-0.277
-607.186	118.588	0.119	0.146
-606.171	-113.374	0.149	0.029
-605.157	-89.286	-0.214	-0.063
-604.142	-24.627	0.236	0.140
-603.128	-68.166	-0.055	0.021
-602.113	444.600	0.123	0.268
-601.098	90.247	0.088	-0.098
-600.084	-135.483	0.192	-0.023
-599.069	20.767	0.245	0.198
-598.055	800.000	0.073	-0.236
-597.040	-123.188	-0.166	0.027
-596.025	-61.448	-0.145	0.061
-595.011	-72.366	-0.122	0.045
-593.996	173.904	-0.072	-0.103
-592.982	334.031	0.150	-0.288
-591.967	189.723	-0.107	-0.160
-590.952	478.388	-0.142	-0.321
-589.938	-93.728	0.251	0.069
-588.923	800.000	-0.053	-0.167
-587.909	171.758	-0.205	-0.294
-586.894	-200.000	0.015	-0.123
-585.879	-177.376	-0.423	0.010
-584.865	372.847	-0.078	0.158
-583.850	90.765	-0.102	0.114
-582.836	58.689	0.082	-0.080
-581.821	-99.261	-0.167	0.042
-580.806	-115.327	-0.367	0.069
-579.792	-24.552	0.178	0.106
-578.777	-107.270	-0.352	-0.077
-577.763	79.143	0.224	-0.239
-576.748	386.478	-0.046	-0.095
-575.733	263.668	-0.087	-0.151
-574.719	-56.544	-0.080	0.035
-573.704	-104.804	0.295	0.068
-572.690	17.905	-0.146	0.116
-571.675	116.291	-0.125	0.153
-570.661	-11.288	0.041	0.027
-569.646	110.019	0.156	-0.187
-568.631	-200.000	0.036	-0.631
-567.617	362.293	-0.101	-0.203
-566.602	-129.748	-0.210	0.029
-565.588	744.210	0.070	-0.188
-564.573	70.467	0.077	-0.079
-563.558	-200.000	-0.042	0.189
-562.544	800.000	0.061	0.181
-561.529	-200.000	-0.006	0.034
-560.515	-200.000	-0.111	-0.517
-559.500	764.493	-0.046	-0.125
-558.485	-200.000	0.037	-0.203
-557.471	-30.915	-0.198	-0.111
-556.456	-200.000	0.061	0.458
-555.442	72.794	-0.068	0.071
-554.427	-200.000	-0.005	-0.067
-553.412	-162.330	-0.318	0.016
-552.398	204.931	-0.119	-0.184
-551.383	-76.368	0.144	-0.050
-550.369	-67.794	-0.226	-0.088
-549.354	-173.055	-0.043	-0.001
-548.339	553.067	-0.110	-0.263
-547.325	-132.466	-0.093	-0.012
-546.310	-21.335	0.283	0.172
-545.296	-150.918	-0.184	0.014
-544.281	-24.956	-0.257	0.152
-543.266	-12.597	0.155	0.100
-542.252	166.644	-0.076	0.107
-541.237	278.852	0.243	0.431
-540.223	-74.329	0.131	-0.047
-539.208	382.539	-0.106	0.216
-538.193	-45.682	0.187	0.092
-537.179	-12.551	0.156	-0.101
-536.164	-56.804	0.152	-0.067
-535.150	-118.690	0.128	-0.022
-534.135	800.000	0.073	0.295
-533.121	-49.838	0.077	-0.036
-532.106	-180.025	0.296	-0.006
-531.091	-74.964	-0.313	-0.111
-530.077	-143.399	0.223	-0.021
-529.062	800.000	0.039	0.115
-528.048	-30.046	0.129	-0.073
-527.033	-20.041	-0.332	0.204
-526.018	15.521	-0.115	-0.090
-525.004	-200.000	-0.047	0.592
-523.989	267.743	0.122	0.213
-522.975	-200.000	-0.000	0.048
-521.960	800.000	-0.118	-0.442
-520.945	451.736	-0.073	0.161
-519.931	18.488	-0.090	0.072
-518.916	-67.053	-0.319	-0.125
-517.902	37.985	-0.076	-0.067
-516.887	-200.000	-0.028	0.243
-515.872	225.521	0.141	-0.227
-514.858	489.376	-0.121	-0.274
-513.843	-99.751	0.199	0.050
-512.829	146.576	0.158	0.211
-511.814	104.527	0.072	0.084
-510.799	228.182	-0.210	0.339
-509.785	442.438	0.018	0.039
-508.770	-94.924	-0.035	0.010
-507.756	190.803	0.068	0.101
-506.741	344.422	-0.157	-0.306
-505.726	164.714	0.044	0.062
-504.712	800.000	0.107	-0.431
-503.697	-47.128	0.316	0.153
-502.683	-41.164	-0.250	0.128
-501.668	-200.000	-0.028	0.133
-500.653	88.914	0.029	0.032
-499.639	-95.250	-0.081	-0.022
-498.624	-35.279	0.142	-0.077
-497.610	100.579	-0.323	0.372
-496.595	-155.730	0.355	-0.023
-495.581	23.583	-0.254	-0.208
-494.566	243.236	-0.039	-0.064
-493.551	-57.021	-0.146	-0.064
-492.537	-64.597	0.313	0.126
-491.522	90.578	0.166	-0.185
-490.508	800.000	-0.085	0.255
-489.493	-46.590	0.248	-0.121
-488.478	196.625	0.142	-0.215
-487.464	-195.236	-0.175	0.001
-486.449	130.998	-0.237	-0.301
-485.435	160.690	0.074	0.102
-484.420	-20.877	-0.075	0.045
-483.405	112.038	0.116	0.139
-482.391	113.141	-0.268	0.323
-481.376	-170.933	-0.163	-0.006
-480.362	148.714	-0.192	0.258
-479.347	-200.000	-0.004	0.031
-478.332	-200.000	0.068	-0.459
-477.318	-21.995	-0.243	0.147
-476.303	-80.026	-0.246	-0.082
-475.289	-200.000	0.041	0.368
-474.274	-81.428	0.145	0.047
-473.259	8.112	-0.494	0.368
-472.245	4.051	-0.125	0.091
-471.230	800.000	0.015	0.049
-470.216	585.361	0.092	-0.225
-469.201	638.575	0.150	-0.379
-468.186	-104.727	-0.253	-0.058
-467.172	-200.000	0.031	0.230
-466.157	250.647	0.164	0.276
-465.143	-108.690	0.369	-0.079
-464.128	-91.535	-0.104	-0.029
-463.113	98.462	0.418	-0.478
-462.099	9.803	0.165	-0.124
-461.084	75.819	0.323	0.339
-460.070	331.514	-0.166	-0.317
-459.055	-167.028	0.133	-0.005
-458.040	686.967	0.051	0.132
-457.026	-88.026	0.185	-0.055
-456.011	201.408	0.122	-0.186
-454.997	280.310	0.107	-0.189
-453.982	800.000	-0.025	0.108
-452.968	-23.724	-0.215	0.127
-451.953	490.242	0.163	-0.370
-450.938	45.838	0.203	0.186
-449.924	800.000	0.074	-0.312
-448.909	800.000	0.106	0.354
-447.895	43.067	0.250	-0.226
-446.880	-42.513	0.243	-0.123
-445.865	-200.000	-0.044	-0.305
-444.851	-200.000	-0.030	-0.130
-443.836	-95.408	0.037	-0.010
-442.822	104.673	-0.268	-0.313
-441.807	8.387	0.165	-0.123
-440.792	348.530	-0.043	-0.085
-439.778	199.396	0.193	0.292
-438.763	-200.000	-0.029	0.360
-437.749	95.843	0.146	-0.165
-436.734	-99.613	-0.195	-0.049
-435.719	-149.715	0.044	0.003
-434.705	-38.711	-0.202	0.106
-433.690	220.021	0.070	-0.111
-432.676	-33.540	-0.089	-0.049
-431.661	-148.261	0.198	-0.016
-430.646	430.643	-0.089	0.190
-429.632	243.613	-0.112	-0.186
-428.617	-200.000	0.004	0.156
-427.603	-38.387	0.127	0.067
-426.588	700.684	-0.180	0.468
-425.573	197.724	0.130	-0.197
-424.559	-115.995	-0.291	0.054
-423.544	-148.666	-0.403	-0.032
-422.530	-200.000	0.013	-0.074
-421.515	275.772	-0.091	0.160
-420.500	-200.000	-0.028	0.173
-419.486	639.127	0.110	-0.277
-418.471	800.000	0.078	-0.308
-417.457	357.765	0.116	0.230
-416.442	-164.307	-0.135	-0.006
-415.428	2.316	0.255	0.183
-414.413	-31.029	0.407	0.228
-413.398	106.467	0.128	-0.150
-412.384	237.859	0.111	0.182
-411.369	-200.000	-0.039	-0.314
-410.355	-147.283	0.081	0.007
-409.340	144.584	0.073	0.096
-408.325	79.373	-0.017	0.018
-407.311	-200.000	0.014	-0.187
-406.296	-200.000	0.023	-0.154
-405.282	-131.059	0.291	0.038
-404.267	-200.000	0.018	0.141
-403.252	-148.176	0.049	0.004
-402.238	-200.000	0.018	0.206
-401.223	156.863	0.115	0.157
-400.209	-72.663	-0.052	-0.019
-399.194	129.790	-0.208	-0.263
-398.179	-79.188	-0.063	-0.021
-397.165	800.000	0.066	-0.275
-396.150	8.644	-0.252	0.188
-395.136	-25.206	-0.001	0.000
-394.121	-200.000	0.004	-0.171
-393.106	-164.951	0.201	-0.009
-392.092	-139.190	-0.177	-0.019
-391.077	733.589	-0.040	0.106
-390.063	0.842	-0.264	0.187
-389.048	-96.672	-0.063	-0.016
-388.033	800.000	0.058	-0.228
-387.019	140.789	-0.188	-0.245
-386.004	13.442	-0.346	-0.265
-384.990	17.191	-0.226	-0.177
-383.975	35.782	0.177	-0.153
-382.960	-200.000	0.052	0.263
-381.946	54.435	0.029	0.028
-380.931	-101.700	-0.227	-0.054
-379.917	-200.000	-0.023	-0.216
-378.902	513.003	0.017	0.040
-377.888	-52.800	-0.019	0.009
-376.873	-176.544	0.291	-0.007
-375.858	-93.297	-0.566	-0.155
-374.844	-35.205	-0.152	0.082
-373.829	-71.164	0.117	-0.044
-372.815	31.437	-0.153	-0.130
-371.800	-200.000	-0.026	0.173
-370.785	39.253	-0.172	0.152
-369.771	-38.548	0.196	0.102
-368.756	-78.804	0.141	-0.047
-367.742	126.963	0.131	-0.164
-366.727	-134.033	-0.192	-0.023
-365.712	21.692	-0.096	0.077
-364.698	-200.000	-0.072	-0.313
-363.683	-200.000	-0.054	0.254
-362.669	4.310	0.063	-0.045
-361.654	-200.000	-0.052	-0.559
-360.639	-177.374	0.152	-0.004
-359.625	8.467	-0.097	-0.072
-358.610	-1.080	0.135	0.094
-357.596	-85.802	-0.209	-0.064
-356.581	344.349	-0.119	0.230
-355.566	700.974	-0.039	-0.101
-354.552	-200.000	0.014	0.082
-353.537	-107.700	-0.335	-0.072
-352.523	105.453	0.121	0.141
-351.508	-114.094	0.193	0.037
-350.493	-54.286	-0.415	-0.186
-349.479	-18.719	-0.304	0.187
-348.464	-200.000	0.025	0.222
-347.450	90.280	0.170	-0.187
-346.435	-104.387	-0.227	0.052
-345.420	-200.000	-0.017	-0.100
-344.406	185.112	0.203	0.297
-343.391	139.000	0.222	0.289
-342.377	413.781	-0.147	0.308
-341.362	-2.798	-0.026	-0.018
-340.348	227.730	0.073	-0.117
-339.333	140.548	-0.371	-0.484
-338.318	23.115	-0.224	0.181
-337.304	-38.390	-0.209	-0.109
-336.289	13.778	-0.197	0.151
-335.275	800.000	0.049	0.137
-334.260	-109.964	-0.268	-0.055
-333.245	549.776	0.030	0.071
-332.231	-16.244	-0.179	-0.112
-331.216	49.734	-0.195	-0.181
-330.202	-130.182	0.191	0.026
-329.187	-102.225	0.424	0.101
-328.172	-86.989	0.172	-0.052
-327.158	-200.000	0.017	-0.244
-326.143	-200.000	-0.000	0.188
-325.129	-111.987	-0.312	-0.062
-324.114	14.131	0.208	-0.160
-323.099	-200.000	0.024	0.206
-322.085	-82.807	-0.160	-0.051
-321.070	466.473	-0.172	-0.381
-320.056	-200.000	-0.019	0.209
-319.041	800.000	0.096	0.281
-318.026	761.266	0.107	-0.285
-317.012	6.733	-0.153	0.112
-315.997	-51.764	-0.170	-0.078
-314.983	353.879	-0.143	0.280
-313.968	80.788	0.140	0.148
-312.953	-64.322	0.323	0.129
-311.939	-46.719	0.183	-0.088
-310.924	68.364	0.068	0.069
-309.910	323.132	-0.030	0.056
-308.895	-200.000	-0.027	0.205
-307.880	-54.024	-0.030	0.014
-306.866	-200.000	0.020	0.236
-305.851	124.363	-0.144	-0.179
-304.837	122.389	-0.202	-0.249
-303.822	-200.000	0.074	0.448
-302.807	-11.103	0.244	0.159
-301.793	-200.000	0.062	0.276
-300.778	-100.548	-0.252	0.061
-299.764	632.038	-0.031	-0.078
-298.749	-157.746	0.324	0.019
-297.735	41.224	0.115	0.102
-296.720	-93.225	-0.197	0.054
-295.705	-101.813	0.118	-0.028
-294.691	-135.320	-0.110	-0.013
-293.676	295.887	-0.258	0.466
-292.662	329.468	0.131	0.248
-291.647	-110.046	-0.080	0.016
-290.632	-200.000	-0.008	-0.054
-289.618	176.183	-0.023	-0.033
-288.603	800.000	-0.061	0.178
-287.589	36.538	-0.154	0.134
-286.574	12.795	-0.143	0.109
-285.559	-200.000	0.047	-0.368
-284.545	-200.000	0.009	-0.100
-283.530	-200.000	-0.025	-0.295
-282.516	-51.682	0.200	0.092
-281.501	32.172	0.092	0.078
-280.486	102.841	-0.050	-0.058
-279.472	-123.828	0.235	0.037
-278.457	-36.721	-0.293	0.155
-277.443	-188.118	-0.412	-0.005
-276.428	-200.000	0.007	0.217
-275.413	109.644	0.271	0.320
-274.399	-43.620	0.365	-0.181
-273.384	38.892	0.093	-0.082
-272.370	-87.102	0.402	-0.121
-271.355	-138.322	0.278	0.030
-270.340	75.157	-0.125	-0.129
-269.326	70.455	-0.110	0.112
-268.311	-200.000	-0.022	0.141
-267.297	19.781	-0.208	0.165
-266.282	800.000	-0.064	0.255
-265.267	740.924	0.116	0.308
-264.253	92.561	0.318	0.353
-263.238	-100.796	0.160	0.039
-262.224	-200.000	0.025	-0.199
-261.209	50.360	-0.028	0.026
-260.195	49.377	-0.220	-0.203
-259.180	-200.000	0.041	0.271
-258.165	-9.564	0.210	-0.138
-257.151	-61.616	-0.162	-0.067
-256.136	316.940	0.183	-0.340
-255.122	-110.916	-0.212	-0.043
-254.107	-114.000	0.223	-0.042
-253.092	-161.140	0.130	-0.007
-252.078	300.968	-0.227	0.413
-251.063	364.500	0.143	0.282
-250.049	50.829	0.273	0.255
-249.034	66.447	0.166	0.165
-248.019	121.981	0.129	0.158
-247.005	-96.755	-0.306	-0.079
-245.990	-66.730	0.315	-0.123
-244.976	72.856	0.152	-0.156
-243.961	-200.000	-0.025	-0.126
-242.946	18.618	-0.117	-0.092
-241.932	-63.481	0.169	0.068
-240.917	6.798	-0.024	-0.018
-239.903	-162.203	-0.120	0.006
-238.888	-169.681	0.129	-0.005
-237.873	72.764	-0.283	-0.290
-236.859	-41.196	0.351	-0.178
-235.844	-25.124	0.036	0.021
-234.830	-6.018	-0.221	-0.148
-233.815	-81.554	-0.334	0.108
-232.800	800.000	-0.050	-0.142
-231.786	-200.000	-0.025	-0.325
-230.771	22.667	0.175	0.141
-229.757	-20.041	-0.115	-0.070
-228.742	-55.895	-0.199	0.087
-227.727	91.539	-0.187	0.206
-226.713	152.692	-0.112	0.151
-225.698	330.278	0.076	0.143
-224.684	688.473	0.025	-0.063
-223.669	-200.000	-0.018	-0.205
-222.655	122.981	-0.077	-0.095
-221.640	-200.000	0.004	0.137
-220.625	-181.454	-0.085	-0.002
-219.611	31.752	0.254	0.215
-218.596	-23.101	-0.284	-0.168
-217.582	-162.091	-0.108	0.005
-216.567	-53.181	0.188	0.085
-215.552	-127.394	0.278	0.040
-214.538	-18.035	0.185	-0.114
-213.523	-61.336	-0.257	0.106
-212.509	800.000	0.093	-0.334
-211.494	-200.000	-0.025	0.135
-210.479	-90.917	0.259	-0.073
-209.465	154.656	-0.011	-0.015
-208.450	155.785	-0.072	-0.097
-207.436	-200.000	-0.002	-0.152
-206.421	-105.674	-0.176	0.039
-205.406	-44.838	0.312	-0.153
-204.392	-51.937	-0.106	-0.048
-203.377	114.668	-0.135	-0.161
-202.363	800.000	-0.053	-0.207
-201.348	-200.000	-0.066	0.359
-200.333	-28.361	0.071	0.040
-199.319	-200.000	-0.005	-0.259
-198.304	124.487	0.021	0.026
-197.290	96.029	0.361	0.404
-196.275	-62.592	-0.284	0.116
-195.260	-200.000	-0.000	0.020
-194.246	-19.517	-0.122	0.074
-193.231	-200.000	0.213	0.000
-192.217	78.628	0.122	0.128
-191.202	-200.000	-0.021	0.190
-190.187	218.349	0.085	-0.133
-189.173	-71.523	0.177	0.065
-188.158	-200.000	-0.012	-0.080
-187.144	302.044	-0.098	-0.178
-186.129	-68.706	0.335	0.127
-185.114	89.663	0.114	0.125
-184.100	283.929	0.218	0.384
-183.085	-200.000	-0.197	-0.000
-182.071	-36.945	0.286	0.150
-181.056	-106.948	-0.180	0.039
-180.042	390.743	-0.088	-0.178
-179.027	166.034	0.093	0.129
-178.012	800.000	-0.039	-0.119
-176.998	800.000	-0.051	-0.216
-175.983	800.000	0.056	-0.154
-174.969	87.850	0.261	0.284
-173.954	-200.000	0.006	-0.048
-172.939	495.356	0.151	-0.341
-171.925	224.159	-0.131	0.207
-170.910	66.576	-0.169	-0.168
-169.896	-57.747	-0.318	0.136
-168.881	-200.000	0.000	0.044
-167.866	80.518	-0.146	0.154
-166.852	-186.994	-0.271	0.004
-165.837	-118.866	-0.201	0.035
-164.823	132.365	0.054	-0.068
-163.808	277.281	-0.039	0.068
-162.793	108.646	0.330	0.387
-161.779	-85.938	0.211	0.064
-160.764	-60.687	-0.113	-0.047
-159.750	21.453	0.363	0.289
-158.735	111.500	0.251	0.297
-157.720	82.735	0.384	0.409
-156.706	800.000	-0.095	0.269
-155.691	0.793	0.402	0.282
-154.677	-200.000	0.243	0.000
-153.662	-200.000	-0.008	0.077
-152.647	-51.269	-0.092	0.042
-151.633	-200.000	0.027	-0.311
-150.618	-200.000	-0.007	-0.300
-149.604	-88.870	0.389	-0.113
-148.589	110.737	0.054	-0.064
-147.574	-200.000	-0.073	0.453
-146.560	-93.416	-0.363	-0.099
-145.545	-51.854	0.097	-0.044
-144.531	-132.840	0.072	-0.009
-143.516	29.406	0.361	0.301
-142.502	-183.532	-0.059	0.001
-141.487	-122.917	0.131	-0.021
-140.472	-162.623	-0.163	0.008
-139.458	-200.000	-0.018	-0.129
-138.443	18.644	-0.186	0.146
-137.429	-14.097	0.234	0.148
-136.414	-200.000	-0.001	-0.028
-135.399	-1.031	-0.049	0.034
-134.385	-92.747	0.210	0.058
-133.370	-114.043	-0.203	0.038
-132.356	-72.711	-0.238	-0.086
-131.341	-138.991	-0.379	0.040
-130.326	-31.365	-0.042	-0.023
-129.312	176.278	0.127	-0.181
-128.297	-83.491	0.098	0.031
-127.283	110.287	-0.106	-0.124
-126.268	-44.005	0.312	-0.153
-125.253	65.431	-0.124	-0.123
-124.239	-200.000	0.021	0.140
-123.224	-42.127	-0.160	0.080
-122.210	-155.693	0.650	0.041
