DTS Sentinel unit serial number:	SN413079Multiplexer serial number:	ORYXHardware model number:	OX4-SRSoftware version number:	ORYX F/W v4.00 Oryx Data Collector v3.7.2.0data status	okinstallation	princeton_trtdifferential loss correction	single-endedforward channel	channel 1reverse channel	N/Adate	2019/09/15time	18:02:35forward acquisition time	60.00reverse acquisition time	0.00gamma	496.2192k internal	0.2290k external	0.2290temperature offset calibration	0.9935default loss term (dB/km)	0.3790temperature slope calibration	1.0000multiplexer offset coefficient	1.0000multiplexer slope coefficient	1.0000fibre end	0.00T internal ref (°C)	44.69T ext. ref 1 (°C)	6.48T ext. ref 2 (°C)	39.09length (m)	temperature (°C)	Stokes	anti-Stokes-747.200	-196.540	0.358	-0.002
-746.185	115.004	0.089	-0.111
-745.171	-200.000	0.250	-0.001
-744.156	-200.000	0.083	0.411
-743.142	558.512	0.157	-0.388
-742.127	-25.162	-0.383	0.232
-741.112	31.215	0.140	-0.123
-740.098	-200.000	0.038	0.229
-739.083	639.985	-0.070	0.182
-738.069	-93.819	0.152	-0.043
-737.054	-132.370	-0.137	-0.018
-736.039	60.635	-0.159	-0.161
-735.025	-153.421	0.209	0.015
-734.010	27.337	0.178	-0.153
-732.996	-76.442	-0.101	0.036
-731.981	-61.399	0.248	-0.107
-730.966	-200.000	0.019	0.111
-729.952	-99.291	-0.226	-0.059
-728.937	117.050	-0.206	-0.260
-727.923	325.170	0.107	-0.210
-726.908	-200.000	-0.037	0.201
-725.894	8.597	-0.267	-0.206
-724.879	-37.741	0.139	0.076
-723.864	26.378	-0.138	0.118
-722.850	179.418	-0.202	-0.303
-721.835	-27.513	0.210	-0.125
-720.821	-200.000	0.062	-0.356
-719.806	-200.000	-0.060	-0.527
-718.791	-142.551	-0.163	0.016
-717.777	48.223	-0.184	0.176
-716.762	-67.259	0.232	-0.093
-715.748	16.224	0.243	-0.196
-714.733	800.000	-0.045	-0.193
-713.718	-90.990	-0.238	-0.070
-712.704	800.000	0.051	0.155
-711.689	-200.000	0.018	-0.136
-710.675	192.655	0.174	-0.269
-709.660	800.000	0.016	-0.056
-708.645	5.557	-0.110	-0.083
-707.631	-118.799	0.243	-0.044
-706.616	-200.000	-0.038	-0.238
-705.602	800.000	0.016	-0.065
-704.587	-26.431	0.032	0.019
-703.572	-155.218	-0.351	0.023
-702.558	-34.729	0.204	0.114
-701.543	-92.096	0.226	-0.065
-700.529	27.888	-0.172	-0.148
-699.514	-89.293	0.274	0.082
-698.499	614.990	-0.162	0.415
-697.485	-99.034	-0.244	-0.063
-696.470	95.188	0.099	0.115
-695.456	-16.770	0.018	-0.012
-694.441	-200.000	0.001	0.040
-693.426	605.936	-0.014	-0.036
-692.412	433.540	0.112	0.249
-691.397	-132.680	-0.142	-0.019
-690.383	-21.789	0.172	-0.107
-689.368	-11.826	-0.090	0.060
-688.354	641.950	0.146	-0.380
-687.339	800.000	-0.085	0.300
-686.324	-126.896	-0.395	0.059
-685.310	-133.957	0.199	0.025
-684.295	-18.446	0.203	-0.129
-683.281	800.000	-0.117	-0.380
-682.266	-62.870	0.147	-0.062
-681.251	800.000	-0.121	-0.498
-680.237	122.615	0.099	-0.126
-679.222	610.881	0.086	0.220
-678.208	240.421	-0.219	-0.374
-677.193	-200.000	0.018	-0.117
-676.178	-76.845	0.124	-0.044
-675.164	-81.088	0.125	0.042
-674.149	185.354	0.316	-0.479
-673.135	-156.221	-0.479	-0.031
-672.120	413.083	-0.098	-0.214
-671.105	-141.806	0.106	-0.011
-670.091	-84.810	-0.297	-0.095
-669.076	19.535	0.116	0.095
-668.062	-113.422	0.109	0.022
-667.047	-193.417	-0.037	-0.000
-666.032	410.655	-0.057	-0.124
-665.018	-35.814	0.283	0.156
-664.003	282.551	0.085	-0.157
-662.989	261.927	0.146	-0.259
-661.974	800.000	0.049	0.146
-660.959	-200.000	-0.009	-0.113
-659.945	800.000	-0.059	0.167
-658.930	46.673	0.297	0.281
-657.916	800.000	0.052	-0.192
-656.901	-200.000	-0.055	0.257
-655.886	18.287	-0.278	-0.227
-654.872	-11.814	0.181	-0.121
-653.857	247.646	0.138	-0.238
-652.843	-121.271	0.318	-0.054
-651.828	-57.417	-0.180	-0.081
-650.814	-115.306	0.234	-0.045
-649.799	-3.819	-0.212	-0.150
-648.784	298.186	-0.094	0.176
-647.770	-37.869	0.095	-0.052
-646.755	68.385	-0.174	-0.182
-645.741	-200.000	0.007	0.165
-644.726	270.340	0.066	-0.119
-643.711	800.000	-0.105	-0.466
-642.697	-78.297	0.198	0.069
-641.682	-73.179	0.237	-0.089
-640.668	311.986	0.036	-0.069
-639.653	394.238	0.117	0.249
-638.638	-200.000	0.016	-0.217
-637.624	4.124	0.247	0.185
-636.609	661.046	0.031	-0.082
-635.595	-123.994	0.447	-0.072
-634.580	221.027	-0.044	0.073
-633.565	-58.753	-0.091	0.040
-632.551	-84.890	0.351	-0.113
-631.536	90.912	-0.215	0.246
-630.522	-200.000	0.019	-0.246
-629.507	164.401	-0.194	-0.279
-628.492	-200.000	0.000	0.186
-627.478	-110.551	0.364	-0.077
-626.463	-50.451	-0.195	0.094
-625.449	-51.274	-0.261	0.125
-624.434	308.274	0.180	0.342
-623.419	84.797	-0.109	0.122
-622.405	-52.103	-0.136	-0.064
-621.390	-135.119	0.050	-0.006
-620.376	149.736	-0.228	0.316
-619.361	-129.977	0.138	0.019
-618.346	800.000	-0.064	0.258
-617.332	263.825	0.145	0.257
-616.317	510.368	-0.136	0.321
-615.303	-55.691	-0.177	-0.081
-614.288	800.000	-0.046	0.193
-613.273	-124.590	0.198	0.031
-612.259	800.000	0.092	-0.277
-611.244	379.712	0.053	-0.110
-610.230	-43.261	-0.330	-0.170
-609.215	731.852	-0.069	-0.189
-608.201	800.000	-0.097	-0.330
-607.186	-163.198	0.256	0.013
-606.171	-114.011	-0.211	0.042
-605.157	-124.549	-0.212	-0.033
-604.142	62.262	0.143	0.146
-603.128	-158.258	-0.186	-0.011
-602.113	800.000	-0.093	0.354
-601.098	21.543	-0.026	-0.021
-600.084	91.402	0.172	-0.196
-599.069	-70.081	-0.142	0.055
-598.055	-200.000	0.033	-0.157
-597.040	-200.000	-0.018	-0.313
-596.025	-200.000	0.056	0.276
-595.011	56.325	0.105	0.104
-593.996	272.019	0.064	0.115
-592.982	-200.000	0.014	0.333
-591.967	-200.000	-0.038	0.310
-590.952	37.806	-0.277	0.251
-589.938	417.563	-0.041	0.090
-588.923	-141.275	-0.161	0.017
-587.909	579.348	0.083	-0.208
-586.894	129.130	-0.085	0.111
-585.879	800.000	0.092	-0.397
-584.865	800.000	-0.032	0.103
-583.850	800.000	0.135	0.567
-582.836	-102.459	-0.188	0.046
-581.821	800.000	0.039	-0.131
-580.806	-140.283	-0.062	-0.007
-579.792	-23.975	0.014	0.009
-578.777	-125.303	0.072	-0.011
-577.763	152.938	-0.214	-0.297
-576.748	-200.000	-0.004	-0.150
-575.733	-111.340	-0.103	-0.021
-574.719	-4.754	-0.205	-0.144
-573.704	636.642	0.080	0.207
-572.690	65.397	0.049	0.050
-571.675	357.137	-0.101	0.206
-570.661	153.391	-0.190	0.264
-569.646	1.232	0.107	0.078
-568.631	-27.642	0.090	0.053
-567.617	48.096	-0.264	0.251
-566.602	-85.910	0.080	-0.025
-565.588	-200.000	-0.008	0.222
-564.573	228.393	0.107	0.177
-563.558	-27.678	-0.085	0.050
-562.544	-80.240	0.151	-0.051
-561.529	340.741	-0.103	-0.205
-560.515	-19.669	-0.355	-0.224
-559.500	23.138	-0.206	0.172
-558.485	-200.000	-0.028	0.260
-557.471	-0.068	0.134	-0.097
-556.456	-59.139	-0.320	-0.140
-555.442	214.822	0.116	0.186
-554.427	-116.450	0.025	-0.005
-553.412	42.503	0.028	-0.026
-552.398	-119.696	-0.243	0.043
-551.383	1.461	-0.271	0.198
-550.369	-193.765	0.092	0.001
-549.354	-140.532	-0.261	0.028
-548.339	257.849	-0.094	-0.164
-547.325	-92.528	-0.075	0.021
-546.310	-200.000	0.018	0.228
-545.296	214.151	-0.136	-0.218
-544.281	-68.810	0.031	0.012
-543.266	-135.458	-0.361	-0.044
-542.252	93.820	-0.159	0.183
-541.237	-157.337	-0.198	0.012
-540.223	24.987	-0.113	-0.095
-539.208	714.707	-0.081	-0.219
-538.193	208.786	0.121	-0.193
-537.179	-156.673	0.117	0.007
-536.164	-200.000	-0.029	-0.170
-535.150	-162.466	-0.207	-0.010
-534.135	-161.220	0.122	0.006
-533.121	543.825	0.093	0.227
-532.106	588.824	0.137	-0.344
-531.091	155.092	-0.284	-0.397
-530.077	-40.467	0.492	0.260
-529.062	245.575	0.054	-0.092
-528.048	97.142	-0.204	0.237
-527.033	381.034	-0.101	0.211
-526.018	-57.602	0.329	-0.146
-525.004	-92.465	-0.086	0.025
-523.989	107.597	-0.166	0.200
-522.975	129.495	0.146	-0.189
-521.960	-45.569	0.395	0.199
-520.945	-200.000	0.022	-0.336
-519.931	-200.000	0.054	-0.335
-518.916	0.516	0.156	0.113
-517.902	-128.587	-0.299	-0.043
-516.887	108.553	-0.212	-0.257
-515.872	-107.554	-0.121	-0.027
-514.858	161.406	0.141	-0.201
-513.843	-82.117	-0.125	-0.042
-512.829	354.015	-0.048	-0.096
-511.814	-200.000	0.098	0.551
-510.799	359.421	0.073	0.148
-509.785	-59.334	0.040	0.017
-508.770	611.837	0.029	0.073
-507.756	-200.000	0.020	-0.105
-506.741	-63.621	0.272	0.113
-505.726	753.665	-0.007	-0.018
-504.712	125.767	-0.163	-0.208
-503.697	-96.930	-0.234	0.062
-502.683	218.346	-0.055	-0.089
-501.668	306.191	0.041	-0.077
-500.653	-76.268	-0.068	-0.024
-499.639	-200.000	-0.026	0.154
-498.624	-13.279	0.240	0.158
-497.610	202.984	0.211	0.330
-496.595	97.660	0.103	-0.121
-495.581	-107.773	-0.287	-0.063
-494.566	34.865	-0.218	-0.194
-493.551	-157.747	-0.216	-0.013
-492.537	-9.008	-0.161	-0.109
-491.522	-200.000	-0.005	0.107
-490.508	-142.352	0.273	-0.027
-489.493	456.549	0.097	-0.218
-488.478	-48.438	0.287	0.140
-487.464	-200.000	-0.030	-0.424
-486.449	644.424	0.061	-0.158
-485.435	378.545	0.097	0.201
-484.420	76.901	0.007	-0.008
-483.405	-57.335	-0.288	-0.128
-482.391	-137.670	0.190	-0.022
-481.376	9.024	-0.305	0.234
-480.362	144.587	-0.082	-0.110
-479.347	505.409	-0.111	0.261
-478.332	283.137	-0.184	-0.335
-477.318	161.422	-0.168	0.238
-476.303	-29.277	-0.089	-0.052
-475.289	-200.000	0.030	0.382
-474.274	6.408	0.367	0.276
-473.259	479.868	-0.093	0.214
-472.245	-34.085	-0.275	0.153
-471.230	-200.000	0.003	-0.190
-470.216	-200.000	0.016	0.232
-469.201	-119.259	0.090	0.016
-468.186	800.000	-0.039	-0.150
-467.172	410.573	0.132	-0.283
-466.157	-200.000	0.001	-0.247
-465.143	-200.000	-0.003	-0.205
-464.128	376.913	0.069	-0.142
-463.113	-200.000	-0.007	0.097
-462.099	-76.145	-0.108	-0.039
-461.084	241.129	0.113	0.191
-460.070	234.789	-0.075	0.125
-459.055	527.077	-0.163	0.390
-458.040	82.371	0.107	-0.118
-457.026	800.000	-0.061	-0.271
-456.011	8.680	-0.200	0.153
-454.997	91.799	-0.140	-0.159
-453.982	800.000	-0.044	-0.133
-452.968	612.614	-0.021	0.054
-451.953	-33.485	-0.314	0.176
-450.938	18.408	0.113	-0.092
-449.924	107.210	-0.097	-0.116
-448.909	800.000	0.075	-0.245
-447.895	280.171	-0.115	-0.209
-446.880	267.696	0.104	-0.184
-445.865	84.149	0.053	-0.058
-444.851	259.087	0.022	0.039
-443.836	183.529	-0.223	-0.334
-442.822	60.822	0.212	0.212
-441.807	-91.768	0.391	-0.112
-440.792	359.322	0.068	0.137
-439.778	-27.533	-0.148	0.087
-438.763	519.297	0.028	0.066
-437.749	150.401	0.185	-0.254
-436.734	114.535	0.095	0.117
-435.719	84.842	0.235	-0.261
-434.705	-200.000	0.040	-0.209
-433.690	17.955	-0.148	0.119
-432.676	-113.351	0.100	-0.020
-431.661	1.220	0.044	0.032
-430.646	-154.219	-0.185	0.013
-429.632	-81.488	0.235	-0.078
-428.617	15.596	0.036	0.028
-427.603	96.655	0.170	-0.197
-426.588	305.145	-0.020	-0.037
-425.573	-115.238	-0.366	0.070
-424.559	-83.311	-0.249	0.081
-423.544	-200.000	0.163	0.000
-422.530	206.450	-0.078	-0.123
-421.515	-137.198	-0.236	-0.027
-420.500	-141.045	0.172	0.018
-419.486	41.011	-0.192	-0.176
-418.471	-99.676	-0.254	-0.065
-417.457	-76.312	0.214	-0.076
-416.442	-200.000	-0.026	-0.322
-415.428	52.342	0.147	0.142
-414.413	-56.005	0.172	0.078
-413.398	-119.286	0.287	-0.051
-412.384	-102.646	-0.192	0.046
-411.369	349.949	-0.093	0.186
-410.355	800.000	0.031	0.102
-409.340	-106.097	0.113	-0.026
-408.325	-200.000	-0.060	-0.266
-407.311	-200.000	0.018	0.510
-406.296	174.919	0.172	0.251
-405.282	84.999	0.107	0.119
-404.267	636.462	-0.044	0.113
-403.252	-45.521	0.098	-0.049
-402.238	-91.753	-0.117	0.034
-401.223	800.000	0.016	-0.050
-400.209	-200.000	-0.005	-0.147
-399.194	-7.222	-0.224	0.153
-398.179	1.408	-0.071	0.052
-397.165	-200.000	0.027	-0.124
-396.150	800.000	0.078	-0.241
-395.136	363.965	0.112	-0.227
-394.121	246.081	-0.290	-0.494
-393.106	-73.077	-0.141	-0.052
-392.092	77.327	-0.116	-0.125
-391.077	-130.042	0.192	-0.026
-390.063	-62.850	0.391	0.163
-389.048	104.891	-0.138	0.164
-388.033	54.796	-0.087	-0.085
-387.019	800.000	0.062	0.212
-386.004	-91.567	-0.350	-0.101
-384.990	-198.840	-0.246	-0.001
-383.975	139.617	-0.289	0.385
-382.960	800.000	-0.075	0.316
-381.946	-105.929	0.115	0.026
-380.931	-77.382	-0.184	-0.065
-379.917	-82.303	-0.162	0.053
-378.902	800.000	0.067	0.225
-377.888	-123.642	-0.100	-0.016
-376.873	39.799	-0.308	-0.279
-375.858	170.276	0.048	-0.069
-374.844	122.652	-0.099	-0.125
-373.829	-38.160	0.105	0.056
-372.815	-24.217	-0.147	0.088
-371.800	-200.000	-0.049	-0.304
-370.785	-86.027	-0.125	0.039
-369.771	153.105	0.069	-0.095
-368.756	-79.840	-0.168	-0.057
-367.742	16.638	0.236	0.188
-366.727	499.948	-0.078	-0.183
-365.712	-91.585	-0.045	-0.013
-364.698	-96.341	0.100	0.027
-363.683	147.283	-0.154	0.209
-362.669	22.659	-0.087	-0.072
-361.654	-68.035	-0.314	-0.123
-360.639	-81.590	0.080	-0.026
-359.625	-200.000	-0.010	-0.103
-358.610	-200.000	0.020	-0.187
-357.596	146.284	-0.008	0.011
-356.581	-81.412	0.290	-0.097
-355.566	31.999	0.294	-0.255
-354.552	-97.913	0.208	-0.054
-353.537	258.103	-0.098	-0.170
-352.523	159.196	0.140	-0.196
-351.508	669.104	0.089	-0.233
-350.493	44.049	0.320	-0.296
-349.479	-200.000	0.012	0.090
-348.464	-75.624	-0.275	-0.098
-347.450	-80.805	-0.173	0.058
-346.435	-36.590	0.115	-0.063
-345.420	558.491	-0.124	-0.302
-344.406	89.350	0.247	-0.278
-343.391	25.587	-0.116	0.098
-342.377	800.000	-0.062	-0.215
-341.362	120.580	0.118	-0.148
-340.348	-200.000	0.013	-0.267
-339.333	-200.000	-0.033	-0.268
-338.318	-100.511	-0.098	-0.024
-337.304	-146.479	-0.382	0.034
-336.289	59.039	-0.232	0.230
-335.275	774.036	0.136	0.374
-334.260	3.216	0.403	0.296
-333.245	-43.501	0.088	-0.045
-332.231	154.482	0.228	0.316
-331.216	-194.001	0.101	-0.001
-330.202	800.000	-0.031	0.113
-329.187	663.427	-0.013	0.033
-328.172	-84.409	0.364	0.116
-327.158	90.396	0.070	0.079
-326.143	800.000	-0.099	0.372
-325.129	50.250	-0.132	-0.126
-324.114	-200.000	0.016	0.319
-323.099	-79.098	-0.147	-0.050
-322.085	-200.000	0.090	0.584
-321.070	140.796	0.279	-0.372
-320.056	-44.296	-0.120	0.061
-319.041	182.941	-0.184	0.273
-318.026	-176.148	-0.094	0.002
-317.012	268.858	0.141	-0.250
-315.997	-70.131	-0.143	0.055
-314.983	45.793	0.234	0.218
-313.968	800.000	0.038	0.108
-312.953	35.071	-0.005	-0.004
-311.939	-200.000	-0.012	-0.062
-310.924	-6.266	0.398	-0.274
-309.910	34.161	0.058	-0.051
-308.895	800.000	0.058	0.163
-307.880	-146.557	0.194	-0.017
-306.866	250.677	0.137	-0.234
-305.851	-80.904	-0.098	-0.033
-304.837	-106.047	0.333	-0.075
-303.822	-140.090	-0.110	0.012
-302.807	-107.624	-0.140	-0.031
-301.793	-95.393	-0.142	-0.038
-300.778	46.113	0.061	-0.057
-299.764	-176.683	0.160	0.004
-298.749	-33.262	-0.289	-0.161
-297.735	1.992	-0.208	0.151
-296.720	227.317	-0.021	0.034
-295.705	44.715	-0.030	-0.028
-294.691	500.694	0.054	0.125
-293.676	-200.000	-0.018	0.333
-292.662	-164.978	0.173	0.008
-291.647	-110.394	0.456	-0.095
-290.632	126.635	-0.285	-0.363
-289.618	800.000	-0.043	0.133
-288.603	800.000	0.047	-0.156
-287.589	118.187	0.223	0.276
-286.574	447.866	0.070	0.156
-285.559	-143.828	-0.213	-0.020
-284.545	162.392	-0.044	0.062
-283.530	-125.335	0.309	-0.047
-282.516	24.601	-0.158	0.132
-281.501	121.151	-0.170	0.212
-280.486	152.130	-0.064	-0.088
-279.472	15.657	0.096	-0.076
-278.457	673.481	0.069	-0.179
-277.443	-123.661	0.243	-0.039
-276.428	79.913	-0.101	0.109
-275.413	800.000	-0.039	0.126
-274.399	253.698	0.031	-0.054
-273.384	-183.931	-0.357	0.006
-272.370	-200.000	-0.012	-0.210
-271.355	141.646	0.264	-0.352
-270.340	-108.743	0.054	0.012
-269.326	800.000	-0.030	-0.103
-268.311	679.484	-0.076	-0.198
-267.297	-80.828	0.342	-0.114
-266.282	85.031	0.236	0.260
-265.267	258.141	0.207	0.359
-264.253	-30.350	0.110	-0.063
-263.238	229.125	-0.179	-0.293
-262.224	-48.453	-0.180	0.087
-261.209	-84.294	-0.262	-0.083
-260.195	-3.185	0.306	0.215
-259.180	150.289	-0.111	-0.152
-258.165	744.798	-0.089	-0.241
-257.151	-43.568	-0.186	-0.094
-256.136	-200.000	-0.039	0.267
-255.122	-162.047	0.158	0.008
-254.107	90.477	0.167	0.188
-253.092	115.652	0.043	-0.053
-252.078	-107.701	-0.319	0.070
-251.063	-108.493	0.158	0.034
-250.049	-33.240	0.032	0.018
-249.034	350.862	0.070	-0.140
-248.019	44.187	-0.025	0.023
-247.005	-200.000	0.007	0.127
-245.990	20.768	-0.095	-0.078
-244.976	-200.000	0.085	-0.431
-243.961	314.721	-0.054	-0.102
-242.946	91.216	-0.048	0.054
-241.932	-142.929	-0.056	-0.005
-240.917	-137.713	-0.103	-0.012
-239.903	-106.129	0.497	0.112
-238.888	-91.618	-0.232	0.066
-237.873	503.572	0.036	0.084
-236.859	159.049	-0.123	0.171
-235.844	93.016	0.342	0.388
-234.830	153.173	0.123	-0.168
-233.815	-17.047	0.204	-0.129
-232.800	-8.600	0.017	-0.012
-231.786	-117.216	0.318	0.058
-230.771	242.326	0.185	-0.310
-229.757	800.000	0.080	0.225
-228.742	-177.073	-0.052	0.001
-227.727	19.493	-0.224	-0.181
-226.713	108.682	0.192	0.230
-225.698	326.940	0.029	0.056
-224.684	-11.936	0.114	0.075
-223.669	-200.000	-0.046	0.228
-222.655	-200.000	-0.016	0.091
-221.640	-2.586	0.196	-0.138
-220.625	-163.202	-0.173	-0.008
-219.611	-56.938	-0.369	-0.164
-218.596	-131.414	0.287	0.038
-217.582	-141.700	0.218	0.022
-216.567	-148.342	0.114	-0.009
-215.552	-73.992	0.152	-0.055
-214.538	632.774	-0.208	0.530
-213.523	-63.374	-0.025	0.010
-212.509	-124.527	0.250	0.039
-211.494	267.454	0.139	-0.244
-210.479	-49.572	-0.340	0.162
-209.465	144.513	0.162	-0.217
-208.450	11.285	0.254	0.195
-207.436	146.204	-0.206	-0.277
-206.421	374.458	-0.010	0.020
-205.406	222.891	-0.060	0.097
-204.392	-200.000	0.160	-0.001
-203.377	-97.009	0.321	0.084
-202.363	-62.578	-0.145	0.060
-201.348	-31.319	0.416	0.235
-200.333	-139.961	0.582	-0.062
-199.319	108.849	0.152	-0.182
-198.304	-118.188	0.251	0.045
-197.290	-43.331	0.084	0.042
-196.275	-200.000	0.056	-0.359
-195.260	-154.979	-0.140	0.009
-194.246	-65.759	-0.117	0.047
-193.231	123.203	-0.039	0.049
-192.217	-113.029	-0.098	-0.019
-191.202	-200.000	-0.004	0.132
-190.187	191.455	0.030	-0.046
-189.173	-117.397	0.425	0.077
-188.158	-69.694	-0.208	-0.080
-187.144	495.567	0.050	0.115
-186.129	176.677	-0.063	-0.091
-185.114	123.259	-0.059	0.074
-184.100	201.015	-0.164	-0.253
-183.085	-200.000	0.016	-0.295
-182.071	800.000	-0.078	-0.225
-181.056	-87.503	-0.303	0.092
-180.042	1.732	0.087	0.063
-179.027	122.083	-0.311	0.389
-178.012	-200.000	-0.016	0.167
-176.998	-32.848	0.307	0.171
-175.983	800.000	-0.044	-0.159
-174.969	-161.497	-0.290	-0.015
-173.954	739.634	-0.047	0.126
-172.939	50.875	-0.166	0.158
-171.925	6.125	-0.262	0.195
-170.910	41.024	-0.031	-0.028
-169.896	-99.902	-0.059	-0.015
-168.881	109.810	0.069	0.083
-167.866	-200.000	0.047	0.272
-166.852	-170.851	0.146	-0.005
-165.837	800.000	0.036	0.135
-164.823	-200.000	-0.010	0.154
-163.808	654.513	0.044	-0.114
-162.793	-65.948	-0.168	-0.067
-161.779	-60.001	0.159	0.068
-160.764	-200.000	0.041	-0.371
-159.750	-200.000	-0.015	-0.189
-158.735	131.348	0.069	0.089
-157.720	64.279	0.197	-0.198
-156.706	89.017	-0.131	-0.146
-155.691	1.902	0.046	-0.033
-154.677	-127.295	0.209	0.030
-153.662	97.901	0.081	0.093
-152.647	194.358	0.088	0.134
-151.633	-26.943	-0.074	0.043
-150.618	-16.719	-0.108	-0.068
-149.604	110.100	0.122	-0.147
-148.589	-127.760	0.062	0.009
-147.574	-200.000	0.016	0.239
-146.560	406.183	-0.149	0.315
-145.545	-74.653	-0.286	0.103
-144.531	-38.803	0.378	-0.199
-143.516	-200.000	-0.014	0.122
-142.502	-146.373	-0.094	0.008
-141.487	40.696	-0.073	-0.066
-140.472	-200.000	-0.048	0.382
-139.458	60.445	-0.128	-0.127
-138.443	-200.000	-0.017	0.087
-137.429	133.752	-0.034	-0.044
-136.414	-138.525	-0.429	-0.047
-135.399	-200.000	-0.032	0.274
-134.385	683.132	-0.062	0.162
-133.370	-99.394	0.044	-0.011
-132.356	-200.000	-0.054	0.420
-131.341	36.471	0.208	0.184
-130.326	233.440	0.131	-0.216
-129.312	-107.280	-0.222	-0.049
-128.297	-74.591	-0.242	-0.087
-127.283	-158.392	0.318	-0.018
-126.268	227.505	-0.076	0.123
-125.253	800.000	-0.053	0.201
-124.239	110.643	-0.134	-0.161
-123.224	38.073	0.247	0.219
-122.210	-181.083	0.307	0.006
-121.195	-17.152	0.135	0.085
