DTS Sentinel unit serial number:	SN413079Multiplexer serial number:	ORYXHardware model number:	OX4-SRSoftware version number:	ORYX F/W v4.00 Oryx Data Collector v3.7.2.0data status	okinstallation	princeton_trtdifferential loss correction	single-endedforward channel	channel 1reverse channel	N/Adate	2019/09/16time	06:42:35forward acquisition time	60.00reverse acquisition time	0.00gamma	496.2192k internal	0.2331k external	0.2331temperature offset calibration	0.9985default loss term (dB/km)	0.3790temperature slope calibration	1.0000multiplexer offset coefficient	1.0000multiplexer slope coefficient	1.0000fibre end	0.00T internal ref (°C)	27.37T ext. ref 1 (°C)	11.43T ext. ref 2 (°C)	21.89length (m)	temperature (°C)	Stokes	anti-Stokes-747.200	46.164	0.114	-0.107
-746.185	-117.019	0.060	-0.011
-745.171	-43.156	0.079	0.040
-744.156	135.166	-0.068	0.090
-743.142	800.000	0.065	0.204
-742.127	-109.670	-0.248	-0.052
-741.112	137.167	0.166	0.219
-740.098	-11.411	-0.343	0.227
-739.083	-38.054	-0.238	0.127
-738.069	-69.864	-0.140	-0.054
-737.054	674.190	0.098	0.257
-736.039	-71.046	-0.250	0.095
-735.025	-200.000	0.029	0.180
-734.010	-135.712	0.177	0.021
-732.996	-200.000	-0.005	-0.135
-731.981	405.211	0.045	0.095
-730.966	29.601	-0.082	0.070
-729.952	-44.676	-0.187	-0.094
-728.937	-35.383	-0.068	-0.037
-727.923	-47.632	0.228	-0.111
-726.908	-200.000	0.019	0.248
-725.894	-99.428	-0.224	-0.057
-724.879	0.204	0.334	-0.240
-723.864	-34.820	-0.148	-0.082
-722.850	-43.407	-0.278	-0.141
-721.835	-200.000	0.046	-0.504
-720.821	-144.515	-0.377	-0.035
-719.806	430.388	-0.143	0.311
-718.791	-200.000	-0.069	0.329
-717.777	-200.000	0.010	-0.144
-716.762	800.000	0.036	-0.141
-715.748	-80.917	0.080	-0.027
-714.733	114.556	0.272	-0.333
-713.718	-200.000	-0.050	0.228
-712.704	151.202	-0.120	-0.165
-711.689	-200.000	-0.041	-0.322
-710.675	-200.000	0.011	-0.173
-709.660	6.946	-0.330	0.247
-708.645	-200.000	-0.020	-0.288
-707.631	-200.000	0.016	-0.107
-706.616	-119.982	0.311	0.054
-705.602	576.975	0.137	-0.335
-704.587	-144.598	-0.267	-0.025
-703.572	800.000	0.119	-0.337
-702.558	2.795	0.202	-0.147
-701.543	-129.285	0.164	0.023
-700.529	41.122	0.099	0.090
-699.514	10.533	-0.256	-0.196
-698.499	800.000	0.081	0.247
-697.485	-128.675	0.197	-0.028
-696.470	132.232	-0.071	-0.092
-695.456	34.628	0.189	0.166
-694.441	800.000	0.040	0.115
-693.426	169.088	-0.131	-0.187
-692.412	28.805	0.167	-0.142
-691.397	121.186	0.011	-0.014
-690.383	-200.000	0.023	-0.125
-689.368	56.356	-0.197	0.192
-688.354	47.797	-0.066	0.062
-687.339	204.221	0.176	-0.273
-686.324	800.000	-0.034	-0.119
-685.310	-26.255	0.245	-0.144
-684.295	800.000	0.065	0.274
-683.281	-24.970	0.296	-0.176
-682.266	201.281	-0.132	0.204
-681.251	-53.850	-0.125	-0.057
-680.237	398.617	-0.098	-0.206
-679.222	46.716	0.037	0.035
-678.208	141.631	-0.120	-0.160
-677.193	-74.518	-0.124	0.045
-676.178	-67.972	0.221	0.087
-675.164	39.028	0.217	-0.194
-674.149	-200.000	-0.046	0.343
-673.135	800.000	-0.034	0.133
-672.120	-104.872	-0.116	-0.027
-671.105	-67.068	-0.204	-0.081
-670.091	-200.000	0.010	0.043
-669.076	800.000	0.061	-0.250
-668.062	-124.289	0.241	-0.038
-667.047	68.859	0.171	0.176
-666.032	467.982	0.091	-0.205
-665.018	-132.583	-0.281	0.036
-664.003	800.000	0.050	0.156
-662.989	-40.078	-0.392	-0.205
-661.974	-61.613	0.073	-0.031
-660.959	136.486	0.238	0.311
-659.945	-200.000	0.034	0.300
-658.930	-47.243	0.226	0.110
-657.916	-53.128	-0.190	-0.087
-656.901	74.641	0.054	0.057
-655.886	-200.000	-0.015	0.233
-654.872	60.402	-0.318	-0.316
-653.857	-13.598	0.200	-0.130
-652.843	141.107	0.131	-0.173
-651.828	-151.237	-0.083	0.006
-650.814	-35.710	-0.184	0.100
-649.799	800.000	0.025	-0.072
-648.784	-117.916	-0.083	-0.015
-647.770	10.174	0.083	-0.063
-646.755	320.251	-0.094	0.180
-645.741	-88.814	0.339	0.101
-644.726	27.300	-0.109	-0.092
-643.711	6.594	0.191	0.143
-642.697	396.337	-0.095	-0.200
-641.682	-94.323	0.117	0.032
-640.668	800.000	0.032	0.095
-639.653	55.647	-0.258	-0.250
-638.638	191.156	0.084	0.126
-637.624	-183.711	-0.331	-0.006
-636.609	-200.000	0.089	0.458
-635.595	-124.250	0.287	0.045
-634.580	17.157	0.188	-0.149
-633.565	421.797	-0.048	0.104
-632.551	147.973	-0.154	-0.208
-631.536	226.641	0.119	-0.194
-630.522	70.165	0.111	0.115
-629.507	35.923	-0.143	-0.126
-628.492	666.912	0.108	0.280
-627.478	800.000	0.024	0.091
-626.463	-93.065	0.050	0.014
-625.449	-200.000	-0.041	-0.350
-624.434	-5.419	-0.201	-0.139
-623.419	-68.106	0.222	0.087
-622.405	-200.000	-0.073	-0.351
-621.390	-173.073	0.516	-0.016
-620.376	-200.000	0.048	0.268
-619.361	280.879	-0.156	0.279
-618.346	-200.000	-0.058	0.306
-617.332	268.170	0.129	0.227
-616.317	542.940	-0.027	-0.064
-615.303	247.922	-0.119	-0.202
-614.288	-200.000	-0.014	0.292
-613.273	-125.086	0.186	-0.029
-612.259	66.694	-0.081	-0.082
-611.244	-200.000	-0.010	-0.050
-610.230	23.692	-0.033	-0.027
-609.215	-90.955	-0.168	-0.048
-608.201	800.000	-0.062	0.265
-607.186	-48.097	0.292	0.141
-606.171	71.845	0.142	-0.147
-605.157	435.683	0.096	0.210
-604.142	-35.401	-0.141	-0.077
-603.128	-136.334	-0.368	-0.043
-602.113	-40.307	-0.267	-0.139
-601.098	38.505	0.219	-0.196
-600.084	-170.005	0.476	0.017
-599.069	-32.686	-0.131	0.073
-598.055	411.058	-0.122	0.258
-597.040	-95.951	0.178	-0.047
-596.025	-70.890	0.230	0.087
-595.011	-87.751	-0.249	-0.075
-593.996	170.924	-0.128	-0.184
-592.982	14.060	0.129	0.101
-591.967	-82.143	0.272	-0.089
-590.952	800.000	-0.090	0.317
-589.938	27.557	-0.114	-0.096
-588.923	-200.000	0.054	0.325
-587.909	363.464	0.063	0.128
-586.894	-176.331	-0.399	-0.010
-585.879	-44.695	-0.148	-0.074
-584.865	800.000	-0.020	0.079
-583.850	136.355	-0.190	0.248
-582.836	302.333	-0.209	0.387
-581.821	800.000	-0.033	-0.134
-580.806	-200.000	0.044	0.412
-579.792	200.942	0.206	-0.317
-578.777	-105.278	-0.279	0.064
-577.763	-26.355	-0.152	0.089
-576.748	539.679	0.137	-0.326
-575.733	4.510	0.414	0.304
-574.719	-53.551	-0.295	0.135
-573.704	29.154	-0.194	-0.164
-572.690	-200.000	-0.041	0.274
-571.675	-189.868	0.360	0.004
-570.661	-0.486	-0.128	0.091
-569.646	-200.000	-0.006	0.234
-568.631	272.805	0.124	0.219
-567.617	-57.233	-0.161	-0.071
-566.602	-116.430	-0.342	-0.063
-565.588	-40.040	0.492	0.256
-564.573	-200.000	0.036	-0.190
-563.558	-200.000	0.046	-0.312
-562.544	74.902	0.048	-0.050
-561.529	-108.891	-0.292	-0.062
-560.515	-87.673	0.114	-0.034
-559.500	93.854	-0.204	-0.231
-558.485	-154.178	0.207	-0.014
-557.471	39.191	0.178	-0.159
-556.456	65.806	-0.172	-0.174
-555.442	176.269	-0.150	0.218
-554.427	800.000	0.030	0.114
-553.412	568.436	-0.099	0.239
-552.398	-200.000	0.030	0.207
-551.383	698.309	0.103	-0.271
-550.369	324.496	-0.087	0.167
-549.354	-95.617	-0.268	-0.072
-548.339	78.671	0.141	0.151
-547.325	-200.000	-0.053	-0.353
-546.310	-200.000	0.042	-0.274
-545.296	800.000	-0.157	0.528
-544.281	-113.309	0.203	0.040
-543.266	581.517	0.048	-0.119
-542.252	-200.000	-0.005	-0.196
-541.237	-38.342	-0.271	-0.143
-540.223	176.757	-0.264	0.383
-539.208	284.049	-0.094	-0.170
-538.193	-26.028	0.167	-0.098
-537.179	67.699	-0.119	0.122
-536.164	698.580	0.041	-0.107
-535.150	10.694	-0.182	0.139
-534.135	795.026	-0.051	0.141
-533.121	-200.000	-0.020	-0.208
-532.106	-32.418	0.186	-0.103
-531.091	436.427	0.064	0.139
-530.077	800.000	0.062	-0.255
-529.062	-108.119	-0.160	-0.035
-528.048	18.491	-0.208	-0.166
-527.033	800.000	0.055	0.211
-526.018	793.908	-0.070	0.191
-525.004	-104.962	-0.212	0.048
-523.989	110.616	0.073	-0.088
-522.975	30.279	-0.076	-0.065
-521.960	-3.620	-0.348	0.241
-520.945	-18.882	-0.081	-0.051
-519.931	-139.440	0.168	0.018
-518.916	-36.951	0.310	-0.166
-517.902	-200.000	0.044	-0.264
-516.887	800.000	0.010	-0.034
-515.872	-200.000	-0.011	-0.339
-514.858	760.741	0.035	-0.095
-513.843	-20.154	0.068	0.042
-512.829	-147.158	-0.303	0.026
-511.814	139.790	0.171	-0.224
-510.799	169.603	0.028	-0.040
-509.785	-100.416	-0.126	0.031
-508.770	-56.707	-0.062	-0.028
-507.756	428.622	-0.175	-0.377
-506.741	228.792	0.147	-0.240
-505.726	106.645	-0.080	0.094
-504.712	233.775	-0.204	-0.334
-503.697	-68.268	0.075	0.029
-502.683	74.143	0.316	-0.330
-501.668	75.997	-0.173	-0.182
-500.653	-200.000	-0.020	-0.337
-499.639	111.137	-0.202	-0.242
-498.624	-30.429	0.105	0.059
-497.610	-59.620	0.186	-0.080
-496.595	19.206	-0.311	-0.249
-495.581	138.884	0.129	-0.169
-494.566	-19.474	-0.278	-0.172
-493.551	-75.082	-0.111	0.040
-492.537	800.000	0.017	-0.055
-491.522	759.157	0.101	0.274
-490.508	461.193	-0.110	-0.245
-489.493	-53.755	0.081	-0.037
-488.478	800.000	0.092	0.297
-487.464	-35.277	-0.110	-0.060
-486.449	-125.713	0.399	-0.060
-485.435	61.446	-0.170	0.168
-484.420	-200.000	-0.063	0.285
-483.405	85.861	0.167	0.183
-482.391	231.049	-0.056	-0.092
-481.376	50.920	-0.176	-0.166
-480.362	221.940	0.126	0.202
-479.347	781.336	0.095	-0.258
-478.332	178.055	-0.081	-0.117
-477.318	-31.600	-0.083	0.046
-476.303	-10.773	-0.252	0.166
-475.289	-179.220	0.148	-0.003
-474.274	800.000	0.044	-0.153
-473.259	250.789	-0.038	0.064
-472.245	800.000	0.087	-0.254
-471.230	-104.524	-0.218	-0.050
-470.216	-154.324	0.167	0.011
-469.201	-76.114	-0.239	0.084
-468.186	800.000	0.021	-0.059
-467.172	190.069	-0.066	0.099
-466.157	-88.599	-0.080	0.024
-465.143	-119.927	-0.072	0.012
-464.128	-98.090	0.218	-0.056
-463.113	489.334	0.087	-0.197
-462.099	-52.645	-0.089	0.041
-461.084	-200.000	0.043	-0.246
-460.070	-111.495	-0.393	-0.080
-459.055	12.741	0.223	-0.172
-458.040	-200.000	0.037	-0.170
-457.026	-105.235	-0.147	0.033
-456.011	-155.208	-0.276	0.018
-454.997	95.409	0.054	0.061
-453.982	392.759	0.037	0.077
-452.968	-6.669	0.103	0.070
-451.953	-25.892	-0.294	-0.172
-450.938	112.915	-0.309	-0.372
-449.924	-52.507	0.495	0.228
-448.909	-0.345	-0.242	-0.171
-447.895	-33.880	-0.232	-0.127
-446.880	32.876	0.117	-0.101
-445.865	0.053	0.236	-0.167
-444.851	147.346	-0.114	0.153
-443.836	-93.847	0.272	-0.075
-442.822	-200.000	-0.009	0.117
-441.807	117.125	0.306	0.373
-440.792	800.000	-0.121	-0.365
-439.778	122.818	-0.198	-0.246
-438.763	41.454	-0.324	0.292
-437.749	-200.000	-0.043	-0.265
-436.734	-200.000	0.024	0.133
-435.719	-93.431	0.482	0.133
-434.705	467.629	0.124	-0.277
-433.690	-149.991	-0.158	0.012
-432.676	-200.000	-0.025	-0.297
-431.661	44.674	-0.119	0.109
-430.646	-200.000	-0.003	0.041
-429.632	-30.160	-0.135	0.076
-428.617	-123.988	0.132	-0.021
-427.603	-66.123	0.287	-0.114
-426.588	-160.710	-0.205	0.011
-425.573	-200.000	-0.022	-0.124
-424.559	-48.617	0.180	-0.086
-423.544	21.744	-0.149	0.120
-422.530	272.487	-0.060	-0.105
-421.515	-32.552	0.114	0.063
-420.500	74.559	-0.150	-0.157
-419.486	-200.000	0.059	-0.455
-418.471	64.001	0.414	-0.413
-417.457	-71.711	0.309	0.114
-416.442	800.000	-0.024	0.093
-415.428	18.589	-0.233	0.185
-414.413	363.123	-0.006	-0.012
-413.398	-200.000	-0.028	0.175
-412.384	800.000	0.068	0.226
-411.369	800.000	0.091	0.341
-410.355	358.292	-0.028	-0.056
-409.340	90.952	-0.298	0.331
-408.325	128.877	-0.218	0.277
-407.311	-200.000	0.009	-0.038
-406.296	-152.704	0.349	-0.025
-405.282	635.190	-0.075	-0.189
-404.267	-25.380	-0.115	0.068
-403.252	115.756	0.059	-0.071
-402.238	-167.578	0.146	0.006
-401.223	94.990	0.066	0.075
-400.209	37.766	0.425	-0.375
-399.194	-53.241	-0.233	0.106
-398.179	-200.000	0.001	-0.264
-397.165	-89.810	-0.058	-0.017
-396.150	800.000	-0.025	-0.070
-395.136	-200.000	-0.047	-0.215
-394.121	24.286	-0.106	-0.087
-393.106	-19.704	-0.163	0.100
-392.092	-29.732	0.132	-0.075
-391.077	-200.000	0.007	-0.078
-390.063	-18.949	0.355	-0.219
-389.048	-80.564	-0.253	-0.084
-388.033	20.367	-0.141	-0.113
-387.019	-131.904	0.160	-0.021
-386.004	148.152	-0.182	-0.244
-384.990	107.481	-0.194	0.229
-383.975	130.485	-0.212	0.270
-382.960	501.070	-0.130	0.298
-381.946	-200.000	-0.127	0.000
-380.931	-135.673	0.363	-0.043
-379.917	-139.409	0.297	-0.032
-378.902	800.000	0.017	-0.070
-377.888	-200.000	-0.010	0.148
-376.873	-3.515	0.126	-0.087
-375.858	-31.629	0.248	0.138
-374.844	352.498	-0.072	-0.141
-373.829	-200.000	0.056	-0.342
-372.815	371.426	-0.163	-0.328
-371.800	-69.562	0.386	0.147
-370.785	-29.925	0.287	0.162
-369.771	-14.097	0.276	-0.177
-368.756	-149.473	0.263	-0.021
-367.742	164.881	-0.135	-0.189
-366.727	111.112	0.105	-0.126
-365.712	499.628	0.069	-0.158
-364.698	303.941	-0.105	0.193
-363.683	-200.000	-0.066	0.406
-362.669	-200.000	-0.004	0.045
-361.654	2.603	0.328	0.236
-360.639	-200.000	-0.057	-0.365
-359.625	-1.127	-0.135	-0.094
-358.610	-136.272	-0.251	0.029
-357.596	186.532	-0.191	-0.282
-356.581	-130.720	0.290	0.039
-355.566	-200.000	-0.065	0.434
-354.552	-52.286	0.351	0.161
-353.537	74.972	-0.157	-0.164
-352.523	77.622	-0.097	0.102
-351.508	133.397	0.064	-0.082
-350.493	-48.462	0.348	-0.166
-349.479	-200.000	0.028	0.263
-348.464	-66.470	-0.138	-0.054
-347.450	426.719	0.080	-0.170
-346.435	-200.000	0.059	0.298
-345.420	-172.527	0.649	0.020
-344.406	-200.000	0.005	0.160
-343.391	-90.417	0.266	-0.076
-342.377	-45.805	-0.191	0.094
-341.362	73.330	-0.107	0.111
-340.348	-61.486	-0.363	-0.151
-339.333	260.339	-0.033	0.057
-338.318	6.702	0.047	-0.035
-337.304	78.395	0.253	0.267
-336.289	255.584	-0.197	-0.335
-335.275	465.739	-0.046	0.103
-334.260	800.000	-0.049	0.173
-333.245	-197.789	-0.146	0.001
-332.231	-167.781	0.123	-0.005
-331.216	-148.544	0.281	0.023
-330.202	-200.000	0.005	-0.073
-329.187	14.602	-0.103	0.079
-328.172	93.980	-0.048	0.054
-327.158	469.204	0.026	-0.058
-326.143	-200.000	0.005	-0.355
-325.129	48.875	0.082	-0.076
-324.114	800.000	-0.069	0.212
-323.099	-62.927	-0.353	-0.145
-322.085	800.000	0.090	-0.390
-321.070	15.645	-0.205	-0.159
-320.056	-118.773	0.285	-0.050
-319.041	-200.000	0.003	0.090
-318.026	-105.899	0.165	-0.037
-317.012	175.975	-0.227	0.326
-315.997	156.347	0.043	0.059
-314.983	-44.046	0.244	0.121
-313.968	218.821	-0.116	0.183
-312.953	-59.191	-0.198	-0.084
-311.939	304.688	-0.122	0.225
-310.924	800.000	0.047	0.146
-309.910	-130.950	0.065	0.009
-308.895	-116.723	-0.034	0.006
-307.880	-18.353	0.193	0.119
-306.866	-200.000	-0.014	-0.183
-305.851	109.246	0.071	0.084
-304.837	427.630	-0.154	0.328
-303.822	-91.972	0.240	0.067
-302.807	151.149	-0.128	0.172
-301.793	-55.613	0.199	0.088
-300.778	800.000	0.059	-0.256
-299.764	59.426	0.077	-0.075
-298.749	-42.435	-0.197	-0.099
-297.735	-169.966	0.393	0.014
-296.720	-45.231	-0.386	0.189
-295.705	101.769	-0.139	-0.160
-294.691	93.697	0.119	0.134
-293.676	-15.745	-0.220	-0.139
-292.662	800.000	-0.018	-0.060
-291.647	31.887	0.227	0.193
-290.632	-44.262	-0.166	0.082
-289.618	-136.065	-0.369	-0.043
-288.603	26.786	0.290	-0.240
-287.589	-200.000	-0.024	-0.124
-286.574	800.000	0.027	0.082
-285.559	644.532	0.209	0.527
-284.545	679.116	-0.095	-0.244
-283.530	251.376	0.095	-0.160
-282.516	50.529	0.142	0.133
-281.501	-1.457	0.116	0.081
-280.486	378.733	-0.050	0.101
-279.472	332.547	-0.108	0.205
-278.457	800.000	-0.030	0.097
-277.443	-96.035	0.154	-0.041
-276.428	18.529	-0.198	-0.156
-275.413	111.105	-0.203	0.242
-274.399	-116.835	-0.360	-0.065
-273.384	347.617	0.021	0.041
-272.370	-60.367	0.394	0.166
-271.355	-26.442	0.153	0.089
-270.340	-128.694	-0.328	0.046
-269.326	185.379	0.077	-0.113
-268.311	-200.000	0.030	0.209
-267.297	-144.174	-0.068	-0.006
-266.282	-144.258	0.065	-0.006
-265.267	-200.000	0.000	0.221
-264.253	99.050	-0.050	0.057
-263.238	-102.587	-0.156	0.037
-262.224	41.109	0.210	0.187
-261.209	316.402	0.102	0.190
-260.195	-27.907	-0.221	-0.126
-259.180	-33.786	0.229	0.124
-258.165	800.000	-0.049	0.137
-257.151	143.942	0.179	-0.235
-256.136	770.449	0.045	-0.122
-255.122	-200.000	-0.046	-0.268
-254.107	-98.564	0.018	-0.004
-253.092	-200.000	0.018	0.147
-252.078	-200.000	0.008	0.195
-251.063	-46.587	-0.178	0.086
-250.049	-63.386	0.287	-0.117
-249.034	800.000	0.136	0.440
-248.019	203.907	0.102	0.155
-247.005	204.863	0.355	-0.544
-245.990	35.910	-0.228	-0.198
-244.976	800.000	-0.071	-0.260
-243.961	361.868	-0.116	-0.229
-242.946	60.182	0.129	-0.126
-241.932	112.681	-0.156	0.186
-240.917	219.612	-0.182	-0.288
-239.903	209.122	-0.065	-0.100
-238.888	233.509	0.214	-0.347
-237.873	18.388	0.378	-0.298
-236.859	383.902	-0.155	0.315
-235.844	158.001	0.134	0.183
-234.830	-200.000	0.010	-0.174
-233.815	-118.564	-0.328	0.057
-232.800	85.585	-0.122	0.133
-231.786	12.700	0.077	-0.059
-230.771	326.361	-0.071	0.134
-229.757	141.084	0.138	-0.181
-228.742	-28.471	-0.337	-0.192
-227.727	-33.233	-0.113	-0.062
-226.713	-121.697	-0.357	-0.058
-225.698	410.610	-0.066	0.138
-224.684	-200.000	-0.001	0.274
-223.669	-121.650	0.198	-0.032
-222.655	467.458	0.194	0.429
-221.640	-96.467	-0.181	0.047
-220.625	-200.000	-0.003	-0.315
-219.611	-200.000	-0.032	0.158
-218.596	29.109	-0.055	-0.046
-217.582	-139.604	0.205	0.022
-216.567	-166.512	0.200	-0.008
-215.552	-200.000	-0.020	0.194
-214.538	133.866	0.111	0.141
-213.523	-164.751	-0.054	-0.002
-212.509	800.000	0.050	-0.176
-211.494	336.923	0.043	-0.082
-210.479	96.557	-0.048	0.054
-209.465	80.504	0.098	-0.104
-208.450	335.506	-0.115	-0.220
-207.436	28.783	-0.155	0.129
-206.421	-78.918	0.135	-0.045
-205.406	-200.000	-0.058	-0.273
-204.392	-8.831	0.110	-0.073
-203.377	39.481	-0.122	-0.108
-202.363	-133.518	0.272	-0.034
-201.348	107.497	-0.153	-0.179
-200.333	-17.065	0.090	-0.056
-199.319	-200.000	-0.050	0.245
-198.304	-200.000	-0.094	0.482
-197.290	497.437	0.073	-0.166
-196.275	5.331	0.072	0.052
-195.260	-20.291	0.164	-0.099
-194.246	291.561	-0.197	-0.353
-193.231	32.208	0.176	0.150
-192.217	-60.858	-0.207	-0.086
-191.202	-82.896	0.119	-0.038
-190.187	-38.069	0.158	0.083
-189.173	-75.007	-0.117	-0.041
-188.158	139.242	0.089	-0.116
-187.144	191.203	-0.183	-0.271
-186.129	-147.432	0.243	-0.020
-185.114	-154.081	-0.055	0.004
-184.100	800.000	-0.183	0.548
-183.085	299.727	-0.075	0.137
-182.071	-200.000	-0.038	-0.301
-181.056	-88.696	-0.186	-0.054
-180.042	-200.000	-0.010	0.130
-179.027	-36.449	0.074	-0.039
-178.012	800.000	0.071	0.281
-176.998	107.419	0.102	0.120
-175.983	-25.320	0.076	0.044
-174.969	-75.149	-0.126	0.044
-173.954	618.614	0.063	0.157
-172.939	-200.000	-0.007	0.078
-171.925	353.735	0.099	0.193
-170.910	127.376	0.395	0.494
-169.896	-106.804	0.405	0.088
-168.881	168.757	-0.173	0.243
-167.866	349.181	-0.080	-0.156
-166.852	-174.666	-0.021	0.001
-165.837	195.151	-0.165	0.246
-164.823	-200.000	-0.002	0.027
-163.808	-200.000	-0.046	0.247
-162.793	33.301	0.174	0.148
-161.779	-161.905	-0.481	0.024
-160.764	-200.000	0.014	-0.187
-159.750	89.457	-0.183	0.200
-158.735	191.005	0.197	0.292
-157.720	48.177	-0.344	-0.317
-156.706	338.597	-0.116	0.221
-155.691	800.000	-0.033	-0.103
-154.677	-174.426	0.141	0.004
-153.662	-137.767	-0.196	-0.022
-152.647	213.622	-0.094	0.146
-151.633	522.969	0.057	0.131
-150.618	-200.000	-0.036	0.306
-149.604	-93.426	-0.455	-0.124
-148.589	684.982	0.021	-0.053
-147.574	800.000	-0.056	-0.190
-146.560	800.000	0.158	-0.460
-145.545	-182.169	0.101	0.002
-144.531	119.247	-0.119	0.145
-143.516	-133.101	0.325	0.040
-142.502	-200.000	-0.004	-0.114
-141.487	302.089	0.076	-0.139
-140.472	477.008	0.059	0.131
-139.458	-113.215	0.128	-0.025
-138.443	-176.713	-0.195	0.005
-137.429	731.959	0.161	-0.423
-136.414	-10.895	0.072	-0.046
-135.399	-200.000	-0.051	-0.235
-134.385	39.404	0.045	-0.039
-133.370	-50.145	0.106	0.049
-132.356	-90.820	-0.066	0.019
-131.341	-200.000	0.027	0.159
-130.326	800.000	-0.081	0.245
-129.312	329.017	0.106	-0.200
-128.297	69.582	0.109	-0.111
-127.283	-28.186	0.148	-0.084
-126.268	-200.000	0.010	0.090
-125.253	800.000	0.042	-0.175
-124.239	-200.000	-0.005	-0.025
-123.224	-200.000	0.019	-0.146
-122.210	54.355	0.179	-0.169
-121.195	800.000	-0.081	0.224
