DTS Sentinel unit serial number:	SN413079Multiplexer serial number:	ORYXHardware model number:	OX4-SRSoftware version number:	ORYX F/W v4.00 Oryx Data Collector v3.7.2.0data status	okinstallation	princeton_trtdifferential loss correction	single-endedforward channel	channel 1reverse channel	N/Adate	2019/09/18time	11:22:35forward acquisition time	60.00reverse acquisition time	0.00gamma	496.2192k internal	0.2326k external	0.2326temperature offset calibration	0.9975default loss term (dB/km)	0.3790temperature slope calibration	1.0000multiplexer offset coefficient	1.0000multiplexer slope coefficient	1.0000fibre end	0.00T internal ref (°C)	30.06T ext. ref 1 (°C)	0.42T ext. ref 2 (°C)	27.78length (m)	temperature (°C)	Stokes	anti-Stokes-747.200	-125.759	-0.082	-0.012
-746.185	26.065	0.114	-0.096
-745.171	344.002	-0.112	0.221
-744.156	-95.805	-0.188	-0.051
-743.142	-200.000	-0.019	0.234
-742.127	786.330	0.073	0.201
-741.112	-38.744	0.231	0.123
-740.098	12.483	0.196	-0.153
-739.083	-200.000	-0.006	0.110
-738.069	10.506	0.044	0.034
-737.054	-36.180	-0.193	0.105
-736.039	-8.687	0.196	0.133
-735.025	-200.000	-0.017	0.448
-734.010	-54.999	-0.232	0.105
-732.996	577.737	-0.031	-0.076
-731.981	-200.000	0.075	-0.375
-730.966	423.833	-0.103	-0.223
-729.952	75.796	-0.273	-0.291
-728.937	105.631	0.226	0.270
-727.923	-118.933	-0.336	0.059
-726.908	186.080	-0.066	-0.098
-725.894	-140.006	-0.084	-0.009
-724.879	567.387	-0.063	0.155
-723.864	47.725	-0.170	-0.160
-722.850	-177.795	0.176	-0.004
-721.835	-92.430	-0.206	-0.058
-720.821	56.775	0.051	-0.050
-719.806	-200.000	0.013	-0.318
-718.791	-110.612	-0.348	0.073
-717.777	-41.303	-0.119	-0.062
-716.762	-163.925	0.391	-0.018
-715.748	-9.294	0.193	0.130
-714.733	-200.000	-0.054	0.369
-713.718	-200.000	-0.016	0.202
-712.704	800.000	-0.068	0.209
-711.689	280.404	0.081	0.145
-710.675	195.019	0.113	-0.173
-709.660	784.749	0.224	-0.619
-708.645	385.135	0.189	-0.393
-707.631	-200.000	0.062	0.458
-706.616	-200.000	-0.028	0.160
-705.602	254.667	-0.254	-0.437
-704.587	-123.615	0.105	-0.017
-703.572	-200.000	0.030	-0.286
-702.558	-58.002	0.189	-0.083
-701.543	-200.000	-0.046	-0.265
-700.529	350.358	-0.078	-0.155
-699.514	61.136	-0.075	-0.075
-698.499	-56.742	-0.150	-0.067
-697.485	800.000	-0.092	0.307
-696.470	800.000	0.107	-0.337
-695.456	-91.409	0.248	-0.071
-694.441	-111.058	-0.205	-0.042
-693.426	95.347	-0.345	-0.396
-692.412	-200.000	0.046	-0.450
-691.397	77.201	0.065	-0.070
-690.383	67.851	-0.137	-0.141
-689.368	260.054	-0.074	-0.129
-688.354	-118.001	0.280	-0.050
-687.339	-27.963	-0.176	-0.103
-686.324	-200.000	-0.009	-0.316
-685.310	800.000	0.059	0.253
-684.295	8.496	-0.254	-0.193
-683.281	-3.469	-0.310	-0.217
-682.266	709.593	-0.083	0.222
-681.251	-85.816	0.191	0.060
-680.237	505.216	0.040	0.094
-679.222	-91.973	0.352	-0.100
-678.208	800.000	-0.036	-0.143
-677.193	-53.654	-0.263	0.121
-676.178	-3.865	-0.128	0.089
-675.164	149.308	-0.059	-0.080
-674.149	241.525	0.095	0.160
-673.135	-97.146	0.329	-0.087
-672.120	-2.028	0.026	-0.018
-671.105	-200.000	-0.020	-0.158
-670.091	-200.000	-0.032	-0.211
-669.076	257.859	-0.250	0.433
-668.062	800.000	0.049	-0.146
-667.047	-72.177	-0.198	-0.074
-666.032	68.190	-0.121	0.125
-665.018	253.330	-0.159	-0.274
-664.003	800.000	-0.042	-0.162
-662.989	781.784	0.063	-0.174
-661.974	800.000	-0.062	-0.179
-660.959	-200.000	0.035	0.270
-659.945	-200.000	-0.002	0.208
-658.930	-24.027	-0.094	0.057
-657.916	419.915	0.083	0.179
-656.901	-200.000	-0.010	-0.080
-655.886	800.000	-0.073	-0.298
-654.872	-16.896	-0.416	-0.264
-653.857	-200.000	0.009	0.045
-652.843	-76.496	-0.075	0.027
-651.828	-200.000	0.065	-0.291
-650.814	9.820	-0.180	-0.137
-649.799	107.459	0.199	0.238
-648.784	376.115	-0.103	0.211
-647.770	-88.958	0.202	-0.060
-646.755	-23.559	0.092	-0.055
-645.741	800.000	0.068	-0.299
-644.726	-144.750	-0.080	-0.007
-643.711	-200.000	0.045	-0.318
-642.697	-75.216	-0.426	0.153
-641.682	800.000	0.016	-0.056
-640.668	-200.000	0.000	0.045
-639.653	-200.000	0.013	-0.163
-638.638	147.233	0.160	0.216
-637.624	800.000	-0.051	-0.219
-636.609	-96.561	0.155	-0.041
-635.595	-90.861	-0.132	-0.038
-634.580	800.000	0.061	-0.198
-633.565	289.018	-0.135	-0.247
-632.551	-141.969	-0.572	0.057
-631.536	-101.424	0.249	0.061
-630.522	57.676	-0.271	0.266
-629.507	287.025	0.145	-0.262
-628.492	-200.000	-0.075	0.395
-627.478	467.887	-0.067	-0.150
-626.463	256.009	-0.128	0.220
-625.449	757.841	-0.064	-0.173
-624.434	69.847	0.213	-0.221
-623.419	91.455	-0.253	-0.285
-622.405	123.439	0.195	0.246
-621.390	800.000	0.011	0.030
-620.376	800.000	0.057	0.236
-619.361	-200.000	-0.022	-0.251
-618.346	79.642	-0.063	0.068
-617.332	-200.000	-0.025	-0.120
-616.317	-107.761	0.083	-0.018
-615.303	174.551	-0.093	-0.135
-614.288	-127.852	-0.046	-0.007
-613.273	-200.000	-0.004	0.024
-612.259	-200.000	0.006	-0.247
-611.244	220.027	0.157	0.252
-610.230	-200.000	-0.038	-0.400
-609.215	-3.712	-0.136	0.095
-608.201	-90.950	0.185	-0.053
-607.186	597.133	-0.104	0.258
-606.171	50.308	-0.283	-0.268
-605.157	103.724	0.353	-0.416
-604.142	800.000	0.054	0.235
-603.128	-42.982	0.156	0.080
-602.113	39.223	0.138	0.124
-601.098	60.377	-0.159	0.157
-600.084	-200.000	0.066	0.422
-599.069	118.850	-0.159	0.198
-598.055	144.472	-0.114	-0.152
-597.040	800.000	-0.008	-0.028
-596.025	-200.000	0.000	-0.138
-595.011	329.676	0.139	0.269
-593.996	139.852	0.051	0.068
-592.982	800.000	-0.052	-0.188
-591.967	222.661	-0.084	0.136
-590.952	-83.992	0.067	-0.021
-589.938	268.066	0.162	-0.284
-588.923	61.056	-0.158	-0.157
-587.909	-197.587	0.071	-0.000
-586.894	-200.000	-0.037	-0.203
-585.879	-75.002	-0.050	0.018
-584.865	599.964	0.184	0.459
-583.850	-32.249	-0.067	0.038
-582.836	-200.000	0.013	-0.308
-581.821	-130.893	-0.494	0.066
-580.806	91.078	-0.383	-0.431
-579.792	-200.000	0.037	0.206
-578.777	800.000	0.045	0.164
-577.763	-24.625	0.218	0.130
-576.748	-47.710	-0.346	-0.168
-575.733	-200.000	-0.004	-0.049
-574.719	338.304	0.025	0.048
-573.704	122.016	-0.096	-0.120
-572.690	-120.278	-0.159	-0.027
-571.675	-200.000	-0.023	-0.543
-570.661	-200.000	0.027	-0.144
-569.646	-200.000	-0.002	0.355
-568.631	660.617	-0.152	0.391
-567.617	800.000	0.051	-0.181
-566.602	-7.408	0.144	-0.098
-565.588	-51.656	-0.252	0.118
-564.573	19.148	-0.186	0.150
-563.558	172.551	0.198	0.286
-562.544	267.081	-0.177	-0.309
-561.529	90.853	0.103	-0.115
-560.515	-71.049	0.209	-0.079
-559.500	-119.502	0.188	0.033
-558.485	-95.225	0.182	-0.049
-557.471	-92.005	-0.128	-0.036
-556.456	300.429	-0.098	0.180
-555.442	-200.000	-0.023	-0.162
-554.427	-172.108	0.175	0.006
-553.412	800.000	0.038	-0.110
-552.398	647.167	-0.037	0.095
-551.383	2.594	-0.219	0.159
-550.369	129.389	0.046	0.058
-549.354	361.111	0.163	-0.328
-548.339	489.487	0.058	-0.133
-547.325	-13.387	0.024	-0.015
-546.310	-200.000	-0.000	-0.260
-545.296	-83.929	-0.064	-0.020
-544.281	54.082	-0.352	0.339
-543.266	-106.746	0.057	0.013
-542.252	62.195	0.037	-0.037
-541.237	-200.000	-0.022	-0.142
-540.223	4.873	0.111	-0.082
-539.208	-200.000	0.030	-0.153
-538.193	102.390	-0.075	0.087
-537.179	234.803	0.222	-0.366
-536.164	-70.118	0.199	-0.076
-535.150	207.892	-0.085	0.134
-534.135	-84.805	0.273	0.086
-533.121	-200.000	-0.011	0.121
-532.106	-114.975	-0.193	0.037
-531.091	100.623	0.160	0.186
-530.077	-23.842	0.113	0.068
-529.062	672.827	-0.051	-0.133
-528.048	56.873	-0.074	0.072
-527.033	-3.360	-0.295	0.205
-526.018	-87.771	0.263	-0.079
-525.004	-35.139	-0.432	0.235
-523.989	-97.210	0.441	0.115
-522.975	422.730	0.039	0.084
-521.960	278.912	-0.029	-0.051
-520.945	-200.000	0.015	-0.214
-519.931	4.124	-0.004	0.003
-518.916	87.446	0.202	-0.223
-517.902	35.908	-0.098	0.086
-516.887	-45.731	0.275	-0.136
-515.872	194.974	0.292	-0.443
-514.858	6.334	-0.216	-0.160
-513.843	-26.589	-0.199	0.117
-512.829	-200.000	0.029	-0.256
-511.814	-69.025	-0.229	0.088
-510.799	-112.274	0.414	-0.083
-509.785	-46.954	-0.595	0.291
-508.770	-146.558	0.140	0.012
-507.756	-200.000	-0.025	-0.165
-506.741	-79.666	0.557	0.188
-505.726	167.194	0.247	-0.351
-504.712	65.408	0.144	-0.145
-503.697	-138.411	0.135	0.015
-502.683	-22.332	0.032	0.020
-501.668	-99.754	0.028	-0.007
-500.653	-200.000	-0.043	0.294
-499.639	-156.363	0.265	-0.017
-498.624	-122.117	0.251	0.041
-497.610	28.896	0.140	-0.118
-496.595	1.004	-0.426	-0.305
-495.581	-79.294	-0.132	-0.045
-494.566	800.000	-0.079	0.241
-493.551	244.329	-0.069	0.115
-492.537	-200.000	0.024	0.278
-491.522	-97.955	-0.270	0.069
-490.508	-80.314	-0.112	0.038
-489.493	-51.522	0.159	0.074
-488.478	-32.486	-0.335	-0.186
-487.464	61.201	-0.111	-0.110
-486.449	-21.192	-0.238	-0.145
-485.435	-98.352	0.133	0.034
-484.420	-108.789	-0.210	0.045
-483.405	12.210	-0.162	0.125
-482.391	106.566	0.117	0.139
-481.376	-95.118	-0.243	-0.066
-480.362	-200.000	-0.004	-0.203
-479.347	-200.000	0.055	0.263
-478.332	-187.325	-0.142	-0.002
-477.318	86.464	0.320	0.352
-476.303	75.762	0.170	0.179
-475.289	-200.000	0.115	-0.508
-474.274	-200.000	0.027	0.136
-473.259	-98.165	-0.195	0.050
-472.245	101.026	-0.242	0.281
-471.230	-200.000	-0.004	-0.085
-470.216	-17.068	-0.064	0.040
-469.201	800.000	0.034	0.118
-468.186	-165.054	-0.057	-0.003
-467.172	-200.000	0.002	-0.252
-466.157	-173.259	-0.395	-0.012
-465.143	53.340	0.143	0.137
-464.128	45.897	0.127	0.117
-463.113	36.686	-0.169	-0.149
-462.099	212.906	0.011	-0.017
-461.084	-200.000	-0.008	-0.315
-460.070	-200.000	-0.010	0.255
-459.055	452.144	-0.100	0.221
-458.040	161.172	-0.092	0.128
-457.026	-200.000	0.016	-0.162
-456.011	-200.000	0.034	-0.150
-454.997	-0.086	-0.233	0.166
-453.982	35.974	0.093	0.082
-452.968	-200.000	-0.000	-0.047
-451.953	69.797	0.262	-0.269
-450.938	13.094	-0.286	-0.220
-449.924	-136.420	0.328	0.038
-448.909	-146.451	-0.198	-0.017
-447.895	-133.425	-0.362	0.045
-446.880	-200.000	0.012	0.060
-445.865	468.580	-0.111	0.247
-444.851	-12.997	0.583	0.378
-443.836	-176.386	-0.092	0.002
-442.822	-171.709	-0.167	-0.005
-441.807	32.419	0.108	-0.093
-440.792	38.774	-0.144	0.128
-439.778	86.791	0.276	-0.304
-438.763	126.841	-0.240	-0.303
-437.749	67.629	-0.016	-0.017
-436.734	117.945	0.077	0.094
-435.719	-62.819	-0.150	-0.062
-434.705	-107.841	0.171	-0.037
-433.690	-154.547	0.158	-0.011
-432.676	-200.000	0.065	0.334
-431.661	800.000	-0.043	0.136
-430.646	-134.955	-0.185	0.022
-429.632	-114.973	0.277	0.053
-428.617	39.783	0.075	-0.067
-427.603	-43.977	0.245	-0.123
-426.588	121.727	0.087	0.108
-425.573	41.321	0.069	0.062
-424.559	-200.000	-0.057	0.445
-423.544	-200.000	-0.059	-0.335
-422.530	-95.890	-0.206	-0.055
-421.515	-104.495	-0.139	-0.032
-420.500	-15.139	0.130	-0.083
-419.486	-120.354	0.105	-0.018
-418.471	87.968	-0.154	-0.170
-417.457	-200.000	0.017	0.184
-416.442	357.103	0.111	-0.220
-415.428	262.196	-0.145	-0.251
-414.413	-200.000	-0.009	-0.087
-413.398	-200.000	-0.027	-0.228
-412.384	-0.034	0.204	0.144
-411.369	28.398	0.330	0.278
-410.355	-5.017	-0.139	-0.095
-409.340	466.291	0.090	0.201
-408.325	-30.349	0.253	0.143
-407.311	-164.514	0.282	0.013
-406.296	-200.000	0.014	-0.119
-405.282	52.728	0.233	-0.221
-404.267	346.858	0.048	0.095
-403.252	54.846	0.159	-0.153
-402.238	-200.000	-0.024	-0.294
-401.223	800.000	-0.094	-0.361
-400.209	800.000	-0.131	-0.364
-399.194	51.645	-0.110	0.104
-398.179	-40.039	0.412	0.214
-397.165	-200.000	0.004	-0.306
-396.150	-98.952	0.075	-0.019
-395.136	262.525	-0.137	0.237
-394.121	228.785	-0.031	-0.050
-393.106	28.992	-0.141	0.119
-392.092	-200.000	-0.041	-0.193
-391.077	-200.000	-0.007	-0.194
-390.063	-179.880	-0.244	0.005
-389.048	800.000	-0.059	-0.224
-388.033	81.640	-0.223	-0.240
-387.019	-101.265	-0.104	0.025
-386.004	-38.053	0.108	0.057
-384.990	78.027	-0.122	0.130
-383.975	-97.308	-0.210	-0.055
-382.960	-200.000	-0.007	-0.145
-381.946	-15.432	-0.135	-0.086
-380.931	800.000	-0.105	-0.304
-379.917	28.603	-0.141	0.119
-378.902	-134.902	0.181	-0.022
-377.888	-200.000	-0.014	-0.066
-376.873	34.482	0.097	-0.084
-375.858	-200.000	-0.019	0.314
-374.844	-96.142	-0.249	0.066
-373.829	371.779	-0.083	-0.168
-372.815	-122.147	0.267	-0.043
-371.800	534.968	-0.037	-0.087
-370.785	-200.000	0.003	-0.067
-369.771	49.522	-0.113	-0.106
-368.756	-122.395	0.488	0.079
-367.742	-200.000	0.022	-0.111
-366.727	142.831	0.180	0.238
-365.712	-200.000	-0.042	0.183
-364.698	234.280	0.069	0.113
-363.683	509.707	0.054	0.126
-362.669	135.431	0.134	0.174
-361.654	61.550	0.317	0.313
-360.639	-154.194	0.097	-0.007
-359.625	270.129	-0.103	0.181
-358.610	71.458	-0.192	-0.198
-357.596	136.533	0.052	0.067
-356.581	-6.007	-0.186	-0.126
-355.566	-175.263	0.265	-0.007
-354.552	-200.000	-0.026	-0.600
-353.537	-23.063	-0.317	0.190
-352.523	-61.766	-0.052	0.022
-351.508	800.000	0.096	0.270
-350.493	800.000	-0.042	-0.162
-349.479	201.263	-0.134	0.205
-348.464	129.660	-0.129	0.163
-347.450	800.000	-0.108	-0.400
-346.435	105.417	-0.138	-0.162
-345.420	122.235	-0.218	-0.271
-344.406	-92.838	0.555	-0.154
-343.391	-45.769	-0.338	-0.166
-342.377	190.171	0.051	0.076
-341.362	-56.244	-0.290	-0.128
-340.348	-200.000	0.048	-0.263
-339.333	187.065	-0.114	-0.169
-338.318	-62.050	0.086	-0.036
-337.304	-129.613	0.038	-0.005
-336.289	-29.167	0.231	-0.132
-335.275	-108.277	0.180	-0.039
-334.260	-46.423	0.089	0.043
-333.245	-200.000	0.002	0.167
-332.231	-200.000	-0.005	0.080
-331.216	177.179	-0.165	0.238
-330.202	209.137	-0.214	0.333
-329.187	95.309	-0.196	-0.221
-328.172	-76.226	0.101	0.035
-327.158	-190.091	-0.431	0.005
-326.143	71.687	0.042	-0.043
-325.129	-108.344	-0.252	0.054
-324.114	-200.000	0.037	-0.271
-323.099	-147.717	0.373	0.031
-322.085	108.179	0.183	0.216
-321.070	-200.000	-0.043	-0.325
-320.056	-70.318	-0.121	-0.046
-319.041	173.602	0.081	0.116
-318.026	238.530	-0.120	0.197
-317.012	8.759	-0.111	0.083
-315.997	-128.350	-0.159	-0.022
-314.983	672.568	-0.061	0.157
-313.968	-200.000	0.010	0.054
-312.953	800.000	-0.092	-0.353
-311.939	161.678	-0.165	-0.229
-310.924	800.000	0.056	0.167
-309.910	-21.456	-0.127	-0.077
-308.895	14.827	0.091	0.070
-307.880	-68.523	-0.338	0.130
-306.866	800.000	0.127	0.435
-305.851	71.105	0.318	0.327
-304.837	92.820	0.212	0.237
-303.822	209.831	-0.136	0.212
-302.807	-105.830	0.170	0.038
-301.793	339.638	-0.106	-0.205
-300.778	171.109	0.097	0.138
-299.764	800.000	0.124	0.392
-298.749	800.000	-0.055	-0.192
-297.735	-40.997	-0.475	0.243
-296.720	140.139	0.150	0.196
-295.705	-165.170	0.173	0.008
-294.691	-43.053	-0.055	-0.028
-293.676	-53.452	0.055	-0.025
-292.662	63.422	0.009	-0.009
-291.647	276.162	0.077	-0.136
-290.632	-100.286	-0.164	-0.040
-289.618	-83.601	0.043	-0.013
-288.603	-75.360	0.154	-0.055
-287.589	-200.000	-0.025	0.348
-286.574	800.000	-0.071	0.266
-285.559	238.849	0.105	0.173
-284.545	295.383	0.058	0.104
-283.530	800.000	0.124	0.364
-282.516	800.000	0.033	0.092
-281.501	-23.702	-0.132	0.078
-280.486	62.237	0.144	0.142
-279.472	-97.211	-0.128	-0.033
-278.457	550.801	0.074	0.176
-277.443	-52.445	-0.369	-0.169
-276.428	139.528	-0.222	-0.290
-275.413	-76.155	-0.210	-0.073
-274.399	208.611	0.129	0.200
-273.384	70.312	0.172	0.176
-272.370	-200.000	-0.056	-0.266
-271.355	-71.728	0.195	0.072
-270.340	85.558	-0.137	0.149
-269.326	800.000	-0.082	-0.303
-268.311	202.907	0.050	-0.076
-267.297	-10.924	-0.271	-0.177
-266.282	68.388	0.158	-0.160
-265.267	454.982	-0.057	-0.124
-264.253	-97.261	0.208	0.054
-263.238	-14.584	0.074	-0.047
-262.224	715.189	0.095	0.250
-261.209	-200.000	0.008	0.160
-260.195	-33.520	-0.186	0.102
-259.180	54.534	-0.274	0.261
-258.165	-200.000	0.032	0.425
-257.151	800.000	-0.014	-0.055
-256.136	-70.796	0.020	-0.008
-255.122	-33.470	0.241	-0.132
-254.107	35.741	0.041	0.036
-253.092	-200.000	0.032	-0.404
-252.078	33.289	-0.073	-0.063
-251.063	96.085	0.046	0.053
-250.049	744.736	-0.072	-0.193
-249.034	84.331	-0.247	0.267
-248.019	116.745	-0.184	0.223
-247.005	-1.719	0.099	0.069
-245.990	-155.725	-0.175	-0.011
-244.976	1.062	0.124	0.088
-243.961	-200.000	0.029	0.201
-242.946	334.748	0.140	0.268
-241.932	-168.435	-0.161	0.006
-240.917	694.492	-0.105	0.274
-239.903	263.103	0.031	0.054
-238.888	-200.000	0.015	-0.256
-237.873	-119.103	0.243	0.042
-236.859	-200.000	-0.013	0.061
-235.844	-67.256	0.210	0.082
-234.830	-162.978	-0.043	-0.002
-233.815	-54.555	-0.190	-0.085
-232.800	800.000	-0.051	-0.206
-231.786	-118.966	0.062	-0.011
-230.771	179.472	0.102	0.147
-229.757	-47.933	-0.198	0.095
-228.742	800.000	0.037	0.157
-227.727	-76.579	0.236	0.082
-226.713	56.007	0.219	-0.210
-225.698	31.698	0.188	-0.160
-224.684	307.560	0.058	0.106
-223.669	205.686	0.102	-0.156
-222.655	-50.325	0.198	0.093
-221.640	311.564	0.093	0.173
-220.625	315.674	0.100	-0.186
-219.611	-176.719	-0.029	-0.001
-218.596	5.598	-0.321	-0.234
-217.582	213.464	0.036	-0.056
-216.567	33.142	0.251	-0.215
-215.552	604.652	0.071	-0.176
-214.538	11.611	-0.086	0.065
-213.523	-162.136	0.162	0.008
-212.509	-200.000	0.046	0.271
-211.494	207.631	-0.117	0.181
-210.479	-89.673	-0.276	-0.080
-209.465	33.801	-0.081	0.070
-208.450	-95.662	-0.368	0.097
-207.436	195.620	-0.081	0.121
-206.421	800.000	0.104	0.343
-205.406	99.471	0.292	-0.333
-204.392	800.000	-0.082	-0.228
-203.377	-72.595	-0.098	0.036
-202.363	166.174	0.126	-0.176
-201.348	-4.543	0.341	-0.233
-200.333	16.145	0.108	0.084
-199.319	-200.000	-0.062	0.293
-198.304	-159.349	0.201	-0.011
-197.290	16.395	0.316	0.246
-196.275	156.243	-0.072	-0.098
-195.260	800.000	0.068	0.196
-194.246	86.896	-0.199	-0.217
-193.231	94.363	0.074	-0.083
-192.217	102.665	-0.148	0.171
-191.202	353.862	0.111	-0.217
-190.187	165.883	-0.195	0.272
-189.173	580.017	0.090	0.218
-188.158	33.787	0.260	-0.223
-187.144	-10.986	0.419	-0.273
-186.129	-65.468	-0.242	-0.096
-185.114	34.328	0.301	0.259
-184.100	-200.000	0.059	0.279
-183.085	-66.952	0.145	-0.056
-182.071	800.000	0.024	0.067
-181.056	166.172	-0.255	0.356
-180.042	-200.000	0.005	0.033
-179.027	-200.000	-0.001	0.031
-178.012	251.442	-0.183	-0.307
-176.998	-12.781	0.153	-0.099
-175.983	-39.504	-0.140	-0.072
-174.969	310.052	-0.140	-0.259
-173.954	-200.000	-0.060	0.267
-172.939	-95.718	0.209	-0.055
-171.925	-12.983	-0.065	0.042
-170.910	488.368	0.074	-0.167
-169.896	-14.479	0.113	0.072
-168.881	13.495	-0.208	0.159
-167.866	79.081	0.231	-0.244
-166.852	212.438	-0.258	0.402
-165.837	-14.870	-0.059	0.038
-164.823	800.000	0.060	0.215
-163.808	785.263	-0.065	-0.174
-162.793	-200.000	0.020	-0.163
-161.779	273.419	0.139	-0.243
-160.764	-102.694	-0.212	0.050
-159.750	-75.977	0.378	0.132
-158.735	-34.379	-0.125	0.068
-157.720	-200.000	-0.001	0.156
-156.706	-86.626	0.230	-0.070
-155.691	109.173	-0.093	-0.110
-154.677	-61.592	-0.195	-0.081
-153.662	-200.000	0.008	-0.139
-152.647	83.529	0.041	-0.044
-151.633	17.226	0.190	0.148
-150.618	473.851	0.076	0.170
-149.604	353.615	-0.195	-0.381
-148.589	-200.000	0.014	-0.072
-147.574	-26.184	0.112	-0.065
-146.560	-200.000	0.019	0.114
-145.545	-156.268	0.062	0.004
-144.531	-37.114	-0.096	0.050
-143.516	73.361	-0.234	-0.241
-142.502	-85.946	0.334	0.102
-141.487	217.101	0.171	0.268
-140.472	360.255	-0.131	0.257
-139.458	-95.459	0.297	-0.078
-138.443	-77.062	0.101	0.035
-137.429	800.000	0.050	-0.144
-136.414	-19.886	0.221	-0.134
-135.399	-200.000	-0.003	0.329
-134.385	81.151	-0.086	-0.092
-133.370	-172.972	0.210	0.006
-132.356	122.491	0.199	-0.245
-131.341	459.769	0.023	0.050
-130.326	-6.332	-0.205	0.138
-129.312	-200.000	-0.005	0.030
-128.297	-200.000	-0.029	0.271
-127.283	-142.518	0.207	-0.020
-126.268	-27.084	-0.095	-0.054
-125.253	-200.000	0.002	-0.192
-124.239	-160.588	-0.324	-0.017
-123.224	146.443	0.082	-0.108
-122.210	-84.017	0.232	-0.073
-121.195	-60.956	-0.200	-0.083
