DTS Sentinel unit serial number:	SN413079Multiplexer serial number:	ORYXHardware model number:	OX4-SRSoftware version number:	ORYX F/W v4.00 Oryx Data Collector v3.7.2.0data status	okinstallation	princeton_trtdifferential loss correction	single-endedforward channel	channel 1reverse channel	N/Adate	2019/09/12time	16:48:11forward acquisition time	60.00reverse acquisition time	0.00gamma	496.2192k internal	0.2308k external	0.2308temperature offset calibration	1.0098default loss term (dB/km)	0.3790temperature slope calibration	1.0000multiplexer offset coefficient	1.0000multiplexer slope coefficient	1.0000fibre end	0.00T internal ref (°C)	36.34T ext. ref 1 (°C)	2.75T ext. ref 2 (°C)	29.58length (m)	temperature (°C)	Stokes	anti-Stokes-747.200	-200.000	0.017	-0.261
-746.185	-200.000	0.069	0.357
-745.171	-97.263	0.161	0.043
-744.156	800.000	0.071	0.283
-743.142	91.942	0.060	0.068
-742.127	-114.352	-0.102	0.020
-741.112	60.937	0.143	0.145
-740.098	-200.000	-0.068	0.407
-739.083	144.982	-0.083	-0.113
-738.069	-200.000	0.032	0.228
-737.054	32.323	0.099	-0.087
-736.039	54.261	-0.181	-0.177
-735.025	23.412	0.436	0.364
-734.010	116.593	-0.388	-0.484
-732.996	-37.880	-0.050	-0.027
-731.981	84.780	0.043	-0.048
-730.966	566.443	-0.106	-0.261
-729.952	-200.000	-0.030	-0.211
-728.937	-66.005	0.221	0.090
-727.923	-133.515	0.242	0.031
-726.908	-46.339	-0.392	0.196
-725.894	-200.000	0.003	-0.203
-724.879	197.364	0.061	0.095
-723.864	-40.282	-0.344	0.182
-722.850	59.244	0.077	0.077
-721.835	548.812	0.058	-0.141
-720.821	-147.753	-0.129	-0.011
-719.806	-200.000	0.030	-0.278
-718.791	800.000	-0.019	0.074
-717.777	114.928	0.108	0.134
-716.762	205.043	-0.313	-0.493
-715.748	458.009	0.047	-0.106
-714.733	-70.269	-0.237	0.091
-713.718	400.728	-0.024	0.051
-712.704	-200.000	0.044	0.220
-711.689	42.045	-0.187	0.172
-710.675	-200.000	-0.060	0.318
-709.660	-147.332	-0.519	0.045
-708.645	-88.555	0.117	-0.035
-707.631	285.750	0.128	0.234
-706.616	16.900	0.111	-0.089
-705.602	146.196	0.133	-0.182
-704.587	-102.188	-0.192	0.047
-703.572	-8.360	-0.147	0.100
-702.558	57.207	-0.138	0.137
-701.543	800.000	0.029	0.100
-700.529	-200.000	0.008	-0.102
-699.514	800.000	-0.018	-0.068
-698.499	-16.182	-0.064	-0.041
-697.485	23.107	-0.162	0.135
-696.470	-97.237	0.085	-0.023
-695.456	-165.861	-0.211	0.009
-694.441	300.223	0.269	0.504
-693.426	-144.092	0.084	0.008
-692.412	10.588	0.038	0.029
-691.397	-38.882	-0.209	0.112
-690.383	-10.761	0.137	-0.092
-689.368	-73.651	-0.368	0.136
-688.354	-114.878	-0.369	0.071
-687.339	146.729	-0.242	0.329
-686.324	800.000	0.131	0.374
-685.310	221.281	0.217	-0.354
-684.295	-38.105	0.460	0.248
-683.281	800.000	-0.085	-0.238
-682.266	466.805	-0.118	-0.268
-681.251	-76.930	0.123	0.043
-680.237	358.563	-0.056	0.114
-679.222	-42.900	-0.146	0.075
-678.208	-200.000	-0.055	0.386
-677.193	-200.000	0.023	0.135
-676.178	1.191	-0.195	-0.142
-675.164	132.489	0.197	0.257
-674.149	286.860	0.086	0.157
-673.135	800.000	-0.068	-0.298
-672.120	-44.704	0.160	0.081
-671.105	-147.115	-0.182	0.016
-670.091	-1.912	0.303	-0.216
-669.076	-200.000	-0.016	0.323
-668.062	171.298	0.258	0.376
-667.047	514.412	-0.069	-0.164
-666.032	422.276	0.139	-0.303
-665.018	409.392	0.142	0.305
-664.003	106.132	-0.165	-0.198
-662.989	116.849	-0.015	-0.019
-661.974	407.818	0.049	0.105
-660.959	119.191	0.115	-0.145
-659.945	50.069	-0.224	0.214
-658.930	-200.000	0.053	0.356
-657.916	46.999	-0.119	0.112
-656.901	-200.000	0.003	0.023
-655.886	220.219	-0.138	-0.224
-654.872	58.921	-0.246	-0.245
-653.857	579.426	-0.055	0.135
-652.843	110.297	0.100	0.122
-651.828	-143.743	0.130	-0.012
-650.814	-6.949	0.163	0.112
-649.799	-162.866	-0.321	0.016
-648.784	-169.865	0.041	-0.001
-647.770	-200.000	-0.006	-0.412
-646.755	168.126	-0.118	0.170
-645.741	-130.067	0.154	0.021
-644.726	0.796	-0.154	0.111
-643.711	62.706	0.173	-0.175
-642.697	25.652	0.145	0.123
-641.682	33.802	-0.185	-0.163
-640.668	-9.553	0.034	0.023
-639.653	-200.000	-0.030	-0.248
-638.638	-200.000	-0.040	-0.385
-637.624	195.381	-0.204	-0.314
-636.609	240.417	0.133	0.224
-635.595	225.911	-0.141	0.231
-634.580	140.582	-0.070	0.094
-633.565	-5.042	-0.205	0.143
-632.551	-64.891	-0.119	0.049
-631.536	-200.000	0.009	-0.113
-630.522	151.813	-0.035	0.048
-629.507	-50.614	-0.159	-0.076
-628.492	150.043	-0.071	-0.098
-627.478	-19.136	-0.137	-0.086
-626.463	122.204	0.090	-0.113
-625.449	145.290	0.167	-0.227
-624.434	-200.000	-0.036	-0.176
-623.419	200.262	0.054	0.084
-622.405	-144.277	0.257	0.024
-621.390	114.292	-0.140	0.172
-620.376	165.306	0.129	0.184
-619.361	125.689	-0.102	0.130
-618.346	65.591	-0.093	0.095
-617.332	-200.000	-0.053	-0.301
-616.317	-115.263	-0.328	0.063
-615.303	-162.458	0.059	0.003
-614.288	-168.483	-0.157	-0.006
-613.273	83.458	0.114	-0.126
-612.259	86.987	-0.169	0.189
-611.244	166.474	-0.061	0.087
-610.230	-35.067	-0.276	-0.152
-609.215	-2.122	-0.155	-0.110
-608.201	181.776	0.083	-0.123
-607.186	535.393	-0.132	-0.316
-606.171	800.000	0.076	-0.242
-605.157	-106.471	-0.089	-0.020
-604.142	-106.054	0.214	0.049
-603.128	468.977	-0.108	0.245
-602.113	-186.462	-0.287	-0.004
-601.098	167.469	0.048	-0.069
-600.084	-200.000	0.028	-0.368
-599.069	800.000	0.115	0.388
-598.055	-19.684	-0.234	-0.146
-597.040	209.469	-0.022	-0.035
-596.025	-138.761	0.245	-0.027
-595.011	123.003	-0.164	-0.208
-593.996	800.000	0.042	0.178
-592.982	-45.580	-0.214	0.107
-591.967	430.436	-0.143	-0.313
-590.952	800.000	0.104	-0.412
-589.938	-75.705	-0.180	-0.065
-588.923	800.000	-0.087	0.356
-587.909	-104.627	-0.191	-0.045
-586.894	-153.745	0.254	0.018
-585.879	182.992	0.238	0.355
-584.865	0.198	0.045	-0.032
-583.850	438.090	-0.121	-0.266
-582.836	737.042	-0.117	-0.318
-581.821	-132.963	-0.076	0.010
-580.806	-141.085	-0.246	-0.025
-579.792	98.818	-0.031	0.036
-578.777	-121.282	0.310	0.052
-577.763	453.746	0.130	-0.290
-576.748	-164.684	-0.404	-0.018
-575.733	-125.901	-0.180	-0.027
-574.719	-104.615	-0.185	-0.043
-573.704	160.440	-0.072	0.101
-572.690	-48.999	0.186	-0.090
-571.675	-200.000	0.008	-0.116
-570.661	-88.705	-0.038	-0.011
-569.646	-107.061	0.158	-0.035
-568.631	-74.600	0.282	-0.102
-567.617	-54.544	0.150	0.069
-566.602	800.000	0.058	-0.172
-565.588	-138.683	0.258	-0.028
-564.573	-105.960	-0.169	-0.038
-563.558	-124.331	0.302	0.048
-562.544	-200.000	0.051	0.227
-561.529	220.711	0.123	-0.200
-560.515	-200.000	0.010	-0.303
-559.500	-200.000	-0.003	-0.134
-558.485	800.000	0.041	-0.153
-557.471	-3.611	-0.259	0.182
-556.456	800.000	0.048	0.188
-555.442	-200.000	0.012	0.208
-554.427	732.110	-0.046	0.124
-553.412	259.794	0.059	-0.102
-552.398	-200.000	-0.003	-0.248
-551.383	-110.430	0.318	-0.067
-550.369	-126.495	0.232	-0.035
-549.354	800.000	0.040	0.147
-548.339	-110.448	0.239	-0.050
-547.325	749.722	-0.033	0.089
-546.310	113.511	0.130	0.159
-545.296	117.636	-0.166	0.206
-544.281	-98.666	0.028	0.007
-543.266	185.028	0.168	-0.251
-542.252	-121.870	0.156	-0.026
-541.237	-4.844	-0.061	-0.043
-540.223	146.659	0.115	0.156
-539.208	67.769	-0.195	-0.201
-538.193	478.755	0.070	0.159
-537.179	-56.219	-0.403	-0.181
-536.164	-200.000	0.007	0.198
-535.150	139.482	0.204	0.270
-534.135	-200.000	-0.020	-0.099
-533.121	800.000	0.102	-0.300
-532.106	284.468	0.016	0.029
-531.091	418.373	0.031	-0.068
-530.077	-23.699	0.242	0.146
-529.062	189.133	-0.274	-0.414
-528.048	194.479	0.042	0.065
-527.033	675.271	-0.075	-0.195
-526.018	-27.039	0.102	0.060
-525.004	-200.000	-0.070	0.351
-523.989	-197.177	-0.258	-0.002
-522.975	-0.296	0.132	0.095
-521.960	93.644	-0.286	0.326
-520.945	414.214	0.092	0.198
-519.931	187.601	0.037	-0.055
-518.916	-55.713	0.197	0.089
-517.902	800.000	-0.073	0.221
-516.887	-200.000	0.021	-0.166
-515.872	800.000	0.106	-0.414
-514.858	-32.124	-0.089	0.050
-513.843	-96.014	0.142	-0.038
-512.829	-200.000	0.008	-0.096
-511.814	800.000	0.112	0.318
-510.799	-88.158	0.119	-0.036
-509.785	297.931	0.086	0.160
-508.770	-40.228	-0.083	0.044
-507.756	-200.000	-0.078	-0.470
-506.741	-78.539	0.211	0.073
-505.726	-94.993	-0.185	0.050
-504.712	225.771	-0.175	-0.286
-503.697	-200.000	-0.047	-0.322
-502.683	112.362	-0.310	-0.378
-501.668	-124.992	-0.321	-0.050
-500.653	130.905	0.106	0.137
-499.639	-45.782	-0.099	0.049
-498.624	-154.032	-0.106	0.007
-497.610	-200.000	-0.013	-0.275
-496.595	184.185	-0.059	-0.088
-495.581	17.896	0.065	0.052
-494.566	-200.000	-0.044	0.207
-493.551	-200.000	0.002	0.197
-492.537	-42.183	0.308	-0.158
-491.522	-189.342	-0.098	0.001
-490.508	502.270	-0.021	0.048
-489.493	-200.000	-0.054	-0.558
-488.478	40.157	0.112	-0.102
-487.464	51.746	-0.102	0.097
-486.449	800.000	0.082	-0.302
-485.435	-79.947	-0.175	0.059
-484.420	249.095	0.067	-0.115
-483.405	-33.402	-0.161	-0.090
-482.391	800.000	-0.055	-0.220
-481.376	800.000	0.167	0.483
-480.362	-146.846	0.384	-0.033
-479.347	52.878	0.176	0.169
-478.332	-28.503	-0.211	-0.122
-477.318	-200.000	0.017	0.421
-476.303	-125.307	-0.246	-0.038
-475.289	217.314	-0.135	0.217
-474.274	-200.000	-0.019	0.101
-473.259	-200.000	-0.005	-0.149
-472.245	-116.750	-0.129	0.024
-471.230	-88.548	-0.096	0.029
-470.216	800.000	0.030	-0.105
-469.201	-200.000	-0.011	0.131
-468.186	215.195	0.099	0.158
-467.172	-42.119	0.171	0.088
-466.157	10.986	-0.025	-0.019
-465.143	3.167	-0.072	-0.053
-464.128	414.322	0.126	-0.269
-463.113	45.359	-0.060	0.056
-462.099	43.091	0.059	0.054
-461.084	-48.171	-0.306	-0.148
-460.070	-200.000	-0.016	0.187
-459.055	-200.000	-0.034	-0.155
-458.040	394.022	-0.133	0.277
-457.026	103.396	0.028	0.033
-456.011	-104.158	0.270	-0.063
-454.997	-43.848	-0.222	-0.113
-453.982	-123.466	0.325	-0.052
-452.968	249.963	-0.059	-0.101
-451.953	76.471	0.103	0.109
-450.938	-73.277	-0.015	0.005
-449.924	352.688	-0.016	-0.032
-448.909	-50.883	0.057	0.027
-447.895	-200.000	-0.056	0.405
-446.880	97.400	0.219	-0.252
-445.865	-200.000	0.038	0.362
-444.851	-146.317	0.263	-0.023
-443.836	-41.416	0.104	-0.054
-442.822	-58.092	-0.054	-0.023
-441.807	-8.272	0.132	0.089
-440.792	800.000	-0.018	-0.063
-439.778	-71.942	0.085	-0.032
-438.763	339.259	0.050	-0.098
-437.749	-143.040	-0.518	-0.050
-436.734	117.966	0.267	0.330
-435.719	-27.310	0.146	-0.086
-434.705	-200.000	-0.028	0.194
-433.690	-8.619	0.125	0.084
-432.676	75.632	0.098	0.104
-431.661	340.134	-0.237	-0.463
-430.646	-40.333	0.254	-0.133
-429.632	30.441	-0.064	0.055
-428.617	46.688	-0.139	0.129
-427.603	-82.025	0.246	-0.081
-426.588	108.740	0.150	0.179
-425.573	781.181	-0.076	-0.207
-424.559	209.510	-0.171	0.269
-423.544	145.905	0.134	-0.181
-422.530	-155.031	0.069	0.005
-421.515	132.751	-0.121	0.156
-420.500	-78.349	0.161	0.055
-419.486	246.272	0.091	-0.154
-418.471	-82.021	-0.149	0.049
-417.457	72.927	0.157	0.165
-416.442	25.647	0.059	-0.049
-415.428	-200.000	0.001	0.095
-414.413	-54.059	-0.196	-0.089
-413.398	-83.925	-0.496	0.158
-412.384	-82.846	-0.121	0.039
-411.369	800.000	0.043	0.182
-410.355	199.643	0.210	0.324
-409.340	-3.710	0.278	0.194
-408.325	-63.463	-0.258	0.106
-407.311	192.668	0.080	-0.121
-406.296	-116.671	-0.225	-0.041
-405.282	-189.254	0.088	-0.001
-404.267	181.142	-0.206	-0.304
-403.252	686.162	0.150	0.393
-402.238	356.564	0.044	-0.087
-401.223	-3.582	-0.105	-0.073
-400.209	-200.000	-0.042	0.253
-399.194	-44.240	0.239	0.120
-398.179	800.000	-0.054	-0.225
-397.165	562.154	-0.077	-0.187
-396.150	-200.000	0.065	-0.404
-395.136	155.226	-0.090	-0.124
-394.121	231.171	-0.273	-0.447
-393.106	800.000	0.032	0.139
-392.092	800.000	0.135	0.408
-391.077	484.002	-0.098	0.223
-390.063	245.321	0.117	0.198
-389.048	-200.000	-0.014	0.079
-388.033	-28.237	0.200	-0.116
-387.019	-66.236	0.203	0.081
-386.004	54.991	-0.088	-0.085
-384.990	137.148	-0.232	0.304
-383.975	-200.000	-0.008	-0.318
-382.960	256.646	-0.016	0.027
-381.946	-182.563	0.104	0.002
-380.931	-30.606	-0.101	0.057
-379.917	800.000	0.061	-0.213
-378.902	-80.030	0.453	0.152
-377.888	-200.000	0.007	0.195
-376.873	-57.095	-0.214	-0.095
-375.858	20.136	0.285	-0.230
-374.844	248.742	0.036	0.061
-373.829	326.007	0.155	-0.298
-372.815	-200.000	0.005	-0.070
-371.800	-200.000	-0.004	0.444
-370.785	800.000	-0.083	0.312
-369.771	73.623	0.049	-0.052
-368.756	399.214	-0.126	0.265
-367.742	-200.000	0.030	0.400
-366.727	-183.591	0.009	0.000
-365.712	-39.773	0.136	0.071
-364.698	-152.140	0.239	0.017
-363.683	-59.907	-0.210	-0.090
-362.669	-200.000	0.003	0.230
-361.654	223.423	0.150	0.243
-360.639	-200.000	-0.013	-0.177
-359.625	-200.000	-0.017	0.208
-358.610	18.806	-0.351	0.281
-357.596	800.000	0.036	-0.110
-356.581	268.409	-0.153	-0.269
-355.566	-100.689	-0.272	0.067
-354.552	-200.000	-0.013	-0.105
-353.537	492.550	-0.032	0.074
-352.523	-200.000	0.033	0.260
-351.508	-158.257	-0.302	0.018
-350.493	-149.010	0.186	0.015
-349.479	-70.895	-0.089	-0.033
-348.464	-200.000	-0.023	0.189
-347.450	800.000	-0.085	0.337
-346.435	-93.938	-0.171	0.047
-345.420	84.549	-0.159	0.174
-344.406	704.843	0.041	0.109
-343.391	3.574	0.221	0.161
-342.377	-78.205	-0.395	0.136
-341.362	800.000	0.029	-0.121
-340.348	-53.265	0.076	0.035
-339.333	51.898	0.237	0.226
-338.318	-200.000	0.049	-0.352
-337.304	97.722	-0.114	-0.131
-336.289	-200.000	-0.011	-0.079
-335.275	25.236	0.197	0.164
-334.260	215.137	-0.106	-0.168
-333.245	-200.000	0.026	0.219
-332.231	800.000	-0.017	0.050
-331.216	800.000	-0.126	0.388
-330.202	-47.151	0.048	-0.024
-329.187	247.054	0.045	0.075
-328.172	-97.084	0.150	0.039
-327.158	-52.150	0.313	0.145
-326.143	-176.887	-0.170	0.004
-325.129	4.259	0.206	0.151
-324.114	9.021	0.264	0.200
-323.099	78.605	-0.084	-0.090
-322.085	272.623	-0.154	-0.272
-321.070	335.360	-0.081	-0.158
-320.056	-200.000	-0.008	-0.242
-319.041	800.000	-0.094	-0.267
-318.026	-80.852	0.214	-0.071
-317.012	0.596	-0.307	0.219
-315.997	-200.000	-0.001	0.191
-314.983	800.000	0.061	-0.251
-313.968	280.396	0.200	-0.357
-312.953	-21.607	0.282	0.172
-311.939	15.323	-0.130	-0.102
-310.924	141.676	0.154	0.204
-309.910	-200.000	0.007	0.158
-308.895	43.221	-0.141	0.128
-307.880	800.000	0.064	0.229
-306.866	133.422	-0.108	-0.140
-305.851	-6.473	0.187	-0.127
-304.837	-12.714	0.228	-0.148
-303.822	-118.270	-0.474	0.084
-302.807	800.000	-0.070	-0.224
-301.793	84.914	0.089	-0.098
-300.778	-28.532	-0.144	-0.083
-299.764	800.000	0.037	-0.126
-298.749	-65.918	-0.374	0.149
-297.735	37.550	-0.190	-0.168
-296.720	-200.000	0.002	0.121
-295.705	-200.000	0.035	0.194
-294.691	-185.098	-0.173	-0.003
-293.676	-200.000	-0.017	0.097
-292.662	-4.473	-0.256	-0.177
-291.647	413.908	-0.150	0.319
-290.632	69.488	0.079	0.081
-289.618	0.794	-0.206	0.147
-288.603	-2.786	-0.228	-0.159
-287.589	135.722	0.099	0.129
-286.574	114.169	0.219	0.266
-285.559	108.109	0.059	-0.070
-284.545	-67.787	0.135	-0.053
-283.530	169.973	-0.069	0.099
-282.516	398.300	0.246	0.514
-281.501	292.528	-0.057	0.104
-280.486	746.840	-0.028	0.075
-279.472	-200.000	0.075	0.472
-278.457	23.987	-0.072	0.060
-277.443	154.201	0.175	-0.239
-276.428	181.274	0.168	-0.246
-275.413	-103.902	-0.356	0.083
-274.399	55.276	0.194	-0.187
-273.384	800.000	-0.078	-0.244
-272.370	-25.968	-0.255	-0.149
-271.355	63.213	0.094	0.094
-270.340	-22.898	-0.122	-0.073
-269.326	-58.640	0.064	0.028
-268.311	-133.168	-0.146	0.018
-267.297	-29.163	0.174	-0.100
-266.282	800.000	0.096	0.281
-265.267	4.150	-0.147	-0.107
-264.253	-200.000	-0.002	-0.071
-263.238	-78.918	0.228	-0.077
-262.224	747.387	0.117	0.313
-261.209	800.000	0.051	0.213
-260.195	800.000	0.014	0.043
-259.180	-118.093	-0.248	0.044
-258.165	112.705	0.090	-0.108
-257.151	800.000	-0.035	-0.119
-256.136	28.413	0.051	0.043
-255.122	-52.302	0.359	0.166
-254.107	180.257	0.108	0.158
-253.092	9.045	-0.219	-0.165
-252.078	133.229	-0.116	-0.150
-251.063	-158.769	0.216	-0.012
-250.049	-200.000	-0.063	-0.288
-249.034	320.977	0.096	-0.182
-248.019	37.994	0.174	0.154
-247.005	-30.049	-0.289	-0.164
-245.990	800.000	0.088	-0.247
-244.976	800.000	-0.066	-0.201
-243.961	-119.183	0.376	-0.065
-242.946	327.933	0.097	-0.186
-241.932	-117.439	0.228	-0.041
-240.917	303.826	0.211	-0.391
-239.903	211.665	-0.140	0.220
-238.888	800.000	0.048	-0.139
-237.873	-93.146	0.319	-0.088
-236.859	-200.000	-0.057	0.290
-235.844	-51.222	0.092	-0.043
-234.830	-50.071	-0.119	0.056
-233.815	-127.767	0.079	-0.011
-232.800	311.444	0.141	0.263
-231.786	-200.000	0.018	-0.153
-230.771	17.747	0.156	0.124
-229.757	-84.417	0.169	-0.053
-228.742	-85.747	-0.160	-0.050
-227.727	-95.838	0.150	-0.040
-226.713	-88.178	0.347	-0.104
-225.698	800.000	-0.100	-0.300
-224.684	147.957	0.054	0.073
-223.669	-0.323	-0.292	0.207
-222.655	569.213	0.131	0.317
-221.640	-54.731	0.199	0.089
-220.625	-200.000	-0.004	0.177
-219.611	-90.119	-0.075	-0.022
-218.596	27.187	0.258	-0.216
-217.582	800.000	0.093	-0.282
-216.567	50.134	0.072	0.068
-215.552	-143.639	0.207	-0.020
-214.538	-99.541	0.307	-0.077
-213.523	-200.000	0.016	-0.085
-212.509	286.039	-0.072	0.129
-211.494	-200.000	0.016	-0.258
-210.479	-101.912	-0.421	-0.101
-209.465	800.000	0.055	0.201
-208.450	-110.924	-0.158	0.032
-207.436	392.012	0.108	-0.223
-206.421	-99.433	-0.315	-0.079
-205.406	-186.499	0.169	-0.002
-204.392	-6.587	-0.229	0.155
-203.377	315.774	-0.066	0.124
-202.363	-142.738	0.191	-0.019
-201.348	-0.980	-0.127	0.089
-200.333	1.166	-0.146	0.104
-199.319	391.565	-0.227	0.469
-198.304	10.710	-0.146	-0.111
-197.290	-48.215	-0.334	-0.160
-196.275	-200.000	-0.253	0.000
-195.260	92.527	-0.106	-0.119
-194.246	183.777	0.251	0.369
-193.231	800.000	-0.079	-0.216
-192.217	-200.000	0.024	0.175
-191.202	-153.172	-0.137	-0.010
-190.187	412.005	0.039	-0.083
-189.173	-200.000	-0.022	-0.274
-188.158	-110.185	0.096	0.020
-187.144	-200.000	0.012	0.134
-186.129	9.415	-0.240	-0.180
-185.114	66.023	0.192	-0.194
-184.100	176.270	-0.072	0.103
-183.085	-108.715	0.284	-0.060
-182.071	800.000	-0.061	-0.236
-181.056	50.181	-0.235	-0.221
-180.042	43.921	-0.055	0.050
-179.027	517.018	-0.104	0.242
-178.012	255.565	-0.123	0.209
-176.998	0.547	-0.226	0.161
-175.983	91.767	0.279	0.312
-174.969	86.402	-0.164	0.180
-173.954	-30.575	0.481	-0.271
-172.939	106.130	-0.072	-0.085
-171.925	70.544	0.080	0.082
-170.910	-16.923	0.293	-0.184
-169.896	-200.000	-0.033	-0.284
-168.881	220.031	-0.158	0.252
-167.866	389.090	-0.105	-0.217
-166.852	-184.682	0.271	-0.004
-165.837	-101.899	-0.124	0.030
-164.823	-200.000	0.041	-0.310
-163.808	-6.630	-0.107	-0.073
-162.793	481.158	0.134	-0.301
-161.779	-1.630	-0.174	-0.122
-160.764	800.000	-0.039	0.152
-159.750	-41.913	0.122	-0.062
-158.735	149.118	0.154	0.208
-157.720	-200.000	0.028	0.269
-156.706	-200.000	0.040	0.299
-155.691	-136.888	0.173	0.020
-154.677	60.823	0.059	0.058
-153.662	371.989	0.098	-0.197
-152.647	-84.934	0.160	0.050
-151.633	37.670	-0.165	-0.146
-150.618	555.947	0.050	-0.119
-149.604	800.000	-0.149	-0.461
-148.589	-28.118	-0.448	0.257
-147.574	800.000	-0.034	-0.109
-146.560	-111.547	0.216	0.044
-145.545	-50.408	-0.207	0.097
-144.531	-200.000	0.024	0.413
-143.516	-200.000	0.032	-0.192
-142.502	-200.000	-0.017	-0.140
-141.487	-110.174	0.340	-0.070
-140.472	-200.000	-0.040	0.300
-139.458	159.420	0.077	0.107
-138.443	-200.000	-0.020	0.204
-137.429	-85.719	0.024	-0.007
-136.414	373.387	0.140	-0.283
-135.399	30.119	0.133	-0.112
-134.385	-122.543	-0.259	-0.042
-133.370	4.280	-0.218	-0.159
-132.356	233.119	-0.220	0.359
-131.341	-200.000	0.073	-0.336
-130.326	-120.145	0.211	0.036
-129.312	-200.000	0.063	-0.289
-128.297	-96.826	-0.375	0.098
-127.283	-200.000	-0.023	0.148
-126.268	17.458	0.131	-0.104
-125.253	-115.632	0.168	-0.031
-124.239	85.150	0.156	-0.169
-123.224	257.746	-0.122	0.209
-122.210	-107.940	-0.328	-0.071
-121.195	-200.000	-0.013	-0.465
-120.180	-27.385	0.219	-0.126
