DTS Sentinel unit serial number:	SN413079Multiplexer serial number:	ORYXHardware model number:	OX4-SRSoftware version number:	ORYX F/W v4.00 Oryx Data Collector v3.7.2.0data status	okinstallation	princeton_trtdifferential loss correction	single-endedforward channel	channel 1reverse channel	N/Adate	2019/09/18time	09:02:35forward acquisition time	60.00reverse acquisition time	0.00gamma	496.2192k internal	0.2336k external	0.2336temperature offset calibration	0.9969default loss term (dB/km)	0.3790temperature slope calibration	1.0000multiplexer offset coefficient	1.0000multiplexer slope coefficient	1.0000fibre end	0.00T internal ref (°C)	25.16T ext. ref 1 (°C)	0.23T ext. ref 2 (°C)	21.99length (m)	temperature (°C)	Stokes	anti-Stokes-747.200	-200.000	0.005	0.165
-746.185	-142.254	-0.350	-0.035
-745.171	-179.164	-0.185	-0.004
-744.156	-4.520	-0.206	0.143
-743.142	-186.595	-0.396	0.006
-742.127	43.362	-0.300	0.275
-741.112	28.811	-0.243	-0.207
-740.098	-129.238	0.029	0.004
-739.083	-200.000	-0.006	0.037
-738.069	109.573	0.273	0.329
-737.054	-75.938	-0.147	-0.052
-736.039	-200.000	0.027	-0.156
-735.025	260.091	0.211	0.366
-734.010	-101.707	-0.446	-0.109
-732.996	-111.021	-0.050	-0.010
-731.981	-200.000	-0.006	0.373
-730.966	-126.144	-0.290	0.044
-729.952	-200.000	0.008	0.067
-728.937	443.954	-0.105	0.232
-727.923	-200.000	-0.003	-0.130
-726.908	-165.353	-0.394	-0.017
-725.894	-179.136	-0.240	-0.005
-724.879	-114.439	0.111	0.021
-723.864	149.487	-0.251	0.341
-722.850	-157.928	-0.256	0.015
-721.835	32.013	0.130	0.112
-720.821	11.768	-0.125	0.096
-719.806	124.491	0.173	0.218
-718.791	-81.424	-0.095	-0.031
-717.777	156.569	-0.104	0.144
-716.762	800.000	0.022	0.097
-715.748	-99.234	-0.252	0.064
-714.733	778.707	0.069	-0.188
-713.718	800.000	0.065	0.257
-712.704	-200.000	-0.087	-0.387
-711.689	29.009	0.271	-0.231
-710.675	-200.000	-0.022	0.140
-709.660	-108.976	0.197	-0.042
-708.645	-23.919	0.360	-0.216
-707.631	-200.000	-0.023	0.148
-706.616	53.707	-0.298	0.287
-705.602	-63.044	-0.203	0.084
-704.587	800.000	-0.044	0.145
-703.572	800.000	-0.016	0.047
-702.558	-200.000	0.000	-0.175
-701.543	-178.033	-0.295	-0.007
-700.529	-189.268	-0.100	-0.001
-699.514	604.115	-0.149	-0.373
-698.499	177.652	-0.173	0.253
-697.485	192.911	0.084	0.128
-696.470	-53.408	-0.268	0.123
-695.456	46.429	-0.114	-0.106
-694.441	-168.770	-0.227	-0.009
-693.426	-88.063	-0.182	0.055
-692.412	198.652	-0.261	-0.401
-691.397	617.853	0.110	-0.276
-690.383	71.506	-0.257	-0.267
-689.368	-67.815	-0.352	-0.138
-688.354	-200.000	-0.051	-0.227
-687.339	800.000	-0.051	-0.215
-686.324	-13.260	0.146	0.095
-685.310	-154.516	0.139	0.009
-684.295	62.092	-0.088	0.088
-683.281	-200.000	-0.005	0.144
-682.266	-77.467	-0.226	-0.078
-681.251	-38.572	0.153	0.081
-680.237	-200.000	-0.003	-0.089
-679.222	22.934	0.093	-0.076
-678.208	-200.000	0.073	0.542
-677.193	-71.113	0.508	0.191
-676.178	69.925	-0.181	0.187
-675.164	96.755	-0.083	0.095
-674.149	800.000	0.025	0.078
-673.135	215.613	0.130	-0.207
-672.120	-200.000	0.016	0.199
-671.105	213.782	-0.294	-0.465
-670.091	17.122	0.199	-0.158
-669.076	94.677	-0.061	-0.070
-668.062	800.000	0.038	-0.152
-667.047	-53.130	-0.172	-0.079
-666.032	-19.823	0.259	0.160
-665.018	224.282	-0.060	-0.097
-664.003	22.912	0.052	-0.043
-662.989	-84.480	-0.367	-0.116
-661.974	-200.000	0.001	-0.225
-660.959	734.996	-0.032	-0.086
-659.945	-31.877	-0.346	0.194
-658.930	215.805	0.145	-0.230
-657.916	-1.618	-0.208	-0.147
-656.901	-200.000	0.017	0.194
-655.886	124.613	-0.164	0.207
-654.872	627.211	-0.162	-0.409
-653.857	-27.929	0.124	-0.072
-652.843	-83.702	-0.101	-0.032
-651.828	220.248	-0.130	0.209
-650.814	52.659	-0.151	0.144
-649.799	74.367	-0.102	-0.108
-648.784	-200.000	0.039	0.343
-647.770	-151.152	0.216	-0.016
-646.755	-200.000	-0.077	0.411
-645.741	-71.791	-0.248	-0.093
-644.726	-96.013	0.179	-0.048
-643.711	78.172	-0.133	-0.142
-642.697	-117.740	-0.454	-0.082
-641.682	-29.013	0.229	-0.132
-640.668	-45.872	0.390	-0.192
-639.653	137.106	0.085	0.111
-638.638	193.217	-0.119	0.180
-637.624	-78.977	0.201	-0.068
-636.609	766.407	0.176	-0.478
-635.595	-39.494	-0.199	-0.104
-634.580	-141.172	-0.123	-0.013
-633.565	6.728	0.036	0.027
-632.551	49.686	-0.174	-0.164
-631.536	625.583	0.062	-0.158
-630.522	85.723	-0.171	0.188
-629.507	17.845	-0.059	0.047
-628.492	-65.838	-0.271	0.108
-627.478	186.536	-0.074	-0.110
-626.463	-119.077	0.210	-0.037
-625.449	16.823	-0.204	0.161
-624.434	-200.000	-0.011	0.122
-623.419	-67.212	-0.260	-0.102
-622.405	-61.646	0.434	0.182
-621.390	134.146	-0.053	-0.069
-620.376	194.656	0.269	-0.408
-619.361	-149.538	0.291	0.023
-618.346	-107.227	-0.128	-0.028
-617.332	68.578	-0.198	-0.203
-616.317	-9.432	-0.282	-0.188
-615.303	215.504	0.106	0.169
-614.288	92.509	-0.078	0.088
-613.273	-40.932	-0.162	0.084
-612.259	800.000	0.063	0.258
-611.244	800.000	-0.093	0.258
-610.230	-66.578	-0.127	-0.050
-609.215	-200.000	0.039	-0.225
-608.201	137.779	-0.066	-0.086
-607.186	24.905	-0.138	0.114
-606.171	-97.292	0.228	-0.059
-605.157	-6.226	0.121	-0.083
-604.142	-75.894	-0.165	0.058
-603.128	-8.010	-0.166	-0.112
-602.113	-30.260	-0.488	-0.277
-601.098	208.569	-0.146	-0.228
-600.084	-185.169	-0.179	0.003
-599.069	349.078	0.151	-0.298
-598.055	-200.000	0.022	0.151
-597.040	637.260	0.056	-0.142
-596.025	-88.171	0.383	0.115
-595.011	-42.905	0.236	-0.120
-593.996	38.619	-0.083	-0.074
-592.982	-188.537	-0.227	-0.003
-591.967	-47.898	0.108	-0.052
-590.952	800.000	-0.092	-0.264
-589.938	132.503	0.122	0.157
-588.923	-200.000	0.028	0.237
-587.909	-95.899	-0.329	-0.088
-586.894	-139.963	0.324	0.034
-585.879	800.000	0.071	0.202
-584.865	-18.685	-0.228	0.142
-583.850	94.371	0.082	-0.093
-582.836	-200.000	-0.021	0.172
-581.821	-130.296	-0.129	-0.017
-580.806	107.702	0.141	-0.168
-579.792	-80.855	0.202	0.067
-578.777	-44.691	-0.234	-0.116
-577.763	800.000	0.106	0.317
-576.748	-128.465	0.236	0.033
-575.733	-0.452	0.182	0.129
-574.719	800.000	-0.119	0.333
-573.704	-200.000	0.006	-0.056
-572.690	-37.227	0.162	-0.087
-571.675	-119.727	-0.256	0.044
-570.661	77.064	-0.106	0.112
-569.646	195.229	0.078	-0.119
-568.631	-162.637	-0.091	0.004
-567.617	-200.000	0.040	0.304
-566.602	-80.684	0.180	-0.060
-565.588	800.000	-0.194	-0.584
-564.573	-124.395	-0.223	-0.035
-563.558	800.000	-0.059	-0.211
-562.544	-88.786	0.218	-0.065
-561.529	800.000	-0.046	-0.182
-560.515	-200.000	0.026	-0.185
-559.500	-163.674	-0.052	-0.002
-558.485	-200.000	0.010	-0.269
-557.471	532.692	-0.094	0.221
-556.456	176.768	0.098	-0.142
-555.442	800.000	0.068	0.196
-554.427	-200.000	-0.017	0.195
-553.412	-200.000	0.008	0.094
-552.398	-144.216	-0.335	0.031
-551.383	-200.000	0.001	-0.222
-550.369	290.560	0.182	-0.329
-549.354	-100.016	-0.479	-0.119
-548.339	234.737	0.127	-0.209
-547.325	-95.619	0.058	-0.015
-546.310	378.868	-0.156	0.318
-545.296	-200.000	-0.069	-0.370
-544.281	78.125	-0.025	-0.026
-543.266	127.403	0.164	0.207
-542.252	-68.459	-0.053	0.020
-541.237	-200.000	0.068	0.360
-540.223	83.723	0.187	-0.203
-539.208	284.791	-0.223	-0.400
-538.193	-62.092	0.117	-0.049
-537.179	-72.551	0.228	-0.084
-536.164	-200.000	-0.031	0.266
-535.150	-46.656	-0.385	-0.188
-534.135	105.844	0.029	-0.034
-533.121	318.344	-0.065	-0.123
-532.106	63.443	0.334	0.334
-531.091	-68.946	-0.233	0.090
-530.077	182.002	0.049	0.072
-529.062	-69.157	0.342	0.131
-528.048	-43.779	0.064	-0.032
-527.033	800.000	-0.041	-0.119
-526.018	-7.304	-0.086	0.058
-525.004	406.342	0.095	-0.200
-523.989	317.089	0.115	0.217
-522.975	800.000	-0.105	0.336
-521.960	-200.000	-0.044	-0.242
-520.945	-200.000	0.007	-0.153
-519.931	-8.737	0.038	0.025
-518.916	-55.559	0.449	0.200
-517.902	-197.833	-0.174	0.001
-516.887	205.190	-0.190	-0.293
-515.872	-116.641	0.085	0.016
-514.858	-71.877	-0.158	-0.058
-513.843	-54.384	0.215	-0.097
-512.829	-200.000	-0.027	0.277
-511.814	79.821	0.207	-0.221
-510.799	275.045	-0.048	-0.085
-509.785	-36.735	0.173	-0.092
-508.770	-113.806	0.181	0.035
-507.756	-155.027	0.387	0.025
-506.741	80.713	-0.070	-0.075
-505.726	800.000	-0.104	-0.361
-504.712	-155.439	-0.491	0.032
-503.697	48.979	0.058	0.054
-502.683	121.350	0.130	0.161
-501.668	-55.396	-0.091	-0.041
-500.653	-41.979	-0.144	-0.073
-499.639	78.059	0.023	0.024
-498.624	-200.000	-0.014	-0.145
-497.610	-115.428	-0.436	-0.082
-496.595	110.029	0.195	-0.233
-495.581	800.000	0.083	-0.345
-494.566	359.343	-0.088	0.175
-493.551	169.273	-0.151	0.214
-492.537	-128.945	-0.156	-0.022
-491.522	-200.000	-0.002	0.051
-490.508	-38.587	0.178	-0.093
-489.493	176.725	-0.047	0.068
-488.478	19.654	-0.124	-0.099
-487.464	-200.000	0.025	0.160
-486.449	-44.531	0.279	0.139
-485.435	199.725	0.044	-0.067
-484.420	800.000	-0.111	-0.356
-483.405	-68.286	0.076	-0.029
-482.391	-200.000	-0.001	0.162
-481.376	-72.023	-0.034	0.012
-480.362	104.895	0.165	0.193
-479.347	16.746	-0.025	0.020
-478.332	55.617	0.256	0.247
-477.318	538.862	-0.027	-0.065
-476.303	-71.445	-0.339	-0.126
-475.289	-200.000	-0.029	-0.194
-474.274	-53.986	-0.247	-0.112
-473.259	141.212	0.014	0.018
-472.245	-200.000	-0.007	0.158
-471.230	-200.000	-0.017	-0.112
-470.216	222.497	0.252	0.403
-469.201	436.445	-0.088	-0.191
-468.186	110.662	-0.153	0.183
-467.172	205.360	-0.124	-0.192
-466.157	-94.238	-0.061	-0.017
-465.143	608.004	-0.106	0.262
-464.128	-75.172	-0.287	0.102
-463.113	148.475	0.212	0.284
-462.099	-153.028	0.196	-0.014
-461.084	310.027	-0.138	-0.256
-460.070	-82.249	0.330	0.107
-459.055	800.000	0.043	0.150
-458.040	52.918	-0.142	-0.135
-457.026	-200.000	-0.070	-0.327
-456.011	-135.857	0.323	0.038
-454.997	-200.000	-0.031	0.183
-453.982	12.813	0.152	0.117
-452.968	37.990	-0.115	-0.101
-451.953	-200.000	-0.048	0.347
-450.938	-123.554	-0.267	0.042
-449.924	-200.000	0.059	0.472
-448.909	-14.188	-0.369	0.236
-447.895	121.221	-0.071	-0.088
-446.880	-132.200	-0.095	0.012
-445.865	729.594	0.070	0.185
-444.851	-1.705	0.193	-0.135
-443.836	800.000	0.126	-0.356
-442.822	-109.113	-0.394	-0.083
-441.807	-140.862	-0.135	0.014
-440.792	3.211	0.162	-0.117
-439.778	-200.000	-0.030	-0.147
-438.763	-200.000	-0.008	-0.037
-437.749	58.775	-0.209	-0.204
-436.734	204.576	0.134	0.206
-435.719	-103.531	0.211	0.049
-434.705	800.000	-0.077	-0.277
-433.690	-90.816	-0.265	0.076
-432.676	142.195	-0.231	0.304
-431.661	-25.857	0.270	-0.158
-430.646	270.163	0.210	-0.367
-429.632	3.840	-0.047	-0.034
-428.617	-124.837	-0.308	0.047
-427.603	-67.442	0.071	-0.028
-426.588	30.912	0.168	-0.143
-425.573	-200.000	0.004	0.244
-424.559	164.139	0.178	0.249
-423.544	-85.192	-0.282	-0.088
-422.530	-200.000	0.048	-0.276
-421.515	800.000	-0.073	0.233
-420.500	-104.072	-0.230	0.053
-419.486	-119.869	0.093	-0.016
-418.471	-200.000	0.002	0.052
-417.457	-154.339	-0.121	-0.008
-416.442	-200.000	-0.071	0.414
-415.428	191.459	-0.097	-0.145
-414.413	-14.059	0.047	-0.030
-413.398	8.040	0.005	0.004
-412.384	-200.000	-0.027	-0.314
-411.369	194.729	-0.250	-0.377
-410.355	-20.878	0.325	0.198
-409.340	-56.134	-0.178	-0.079
-408.325	800.000	-0.019	-0.067
-407.311	-68.178	-0.202	0.078
-406.296	-200.000	-0.026	0.165
-405.282	336.321	0.157	-0.302
-404.267	174.968	-0.104	0.150
-403.252	65.974	0.080	0.080
-402.238	116.636	0.157	0.191
-401.223	72.882	0.173	0.179
-400.209	601.346	-0.051	-0.126
-399.194	-200.000	0.037	0.230
-398.179	49.169	-0.012	-0.011
-397.165	-37.414	0.252	0.133
-396.150	180.001	0.141	0.205
-395.136	20.586	-0.256	0.206
-394.121	234.081	0.084	-0.138
-393.106	159.252	-0.064	0.088
-392.092	76.296	-0.216	0.227
-391.077	-99.025	0.338	-0.085
-390.063	-173.557	0.280	0.008
-389.048	800.000	0.053	-0.153
-388.033	742.684	-0.060	-0.160
-387.019	-133.397	-0.207	-0.026
-386.004	-49.184	0.206	-0.097
-384.990	119.838	-0.182	-0.224
-383.975	-200.000	0.021	-0.107
-382.960	-10.550	0.217	0.142
-381.946	-74.289	-0.377	0.135
-380.931	800.000	0.077	-0.281
-379.917	-7.497	-0.202	-0.136
-378.902	82.285	-0.073	0.079
-377.888	-2.792	0.058	-0.040
-376.873	61.807	-0.191	-0.189
-375.858	111.858	-0.155	0.186
-374.844	-200.000	-0.035	0.167
-373.829	800.000	0.050	-0.145
-372.815	-25.264	-0.233	-0.136
-371.800	336.611	0.092	-0.177
-370.785	-55.616	0.180	0.080
-369.771	-5.979	-0.231	0.157
-368.756	-127.783	0.211	-0.030
-367.742	-120.934	0.517	-0.086
-366.727	26.372	-0.126	-0.104
-365.712	-200.000	0.048	0.228
-364.698	13.407	-0.244	-0.187
-363.683	800.000	-0.009	0.031
-362.669	342.742	-0.167	0.323
-361.654	419.330	0.115	0.243
-360.639	-184.705	-0.184	0.003
-359.625	-98.518	-0.149	0.038
-358.610	-112.487	-0.286	0.057
-357.596	605.668	0.111	0.274
-356.581	-72.646	0.143	0.052
-355.566	10.955	-0.203	0.154
-354.552	-200.000	-0.068	-0.517
-353.537	-200.000	-0.012	-0.201
-352.523	-75.704	0.075	-0.026
-351.508	-200.000	-0.013	-0.230
-350.493	-68.635	0.063	0.024
-349.479	11.802	-0.220	-0.167
-348.464	63.541	0.251	-0.249
-347.450	800.000	-0.055	-0.210
-346.435	-20.507	-0.163	0.099
-345.420	14.230	-0.102	0.079
-344.406	364.947	0.097	0.194
-343.391	407.235	-0.105	-0.219
-342.377	800.000	-0.021	-0.082
-341.362	77.759	0.221	-0.233
-340.348	800.000	0.039	0.154
-339.333	234.522	0.076	-0.123
-338.318	800.000	-0.095	-0.332
-337.304	800.000	-0.012	-0.042
-336.289	-200.000	0.060	0.275
-335.275	-163.825	-0.212	-0.010
-334.260	36.199	0.213	-0.186
-333.245	-140.707	0.113	0.012
-332.231	-2.072	-0.280	-0.195
-331.216	800.000	0.054	0.204
-330.202	800.000	-0.134	-0.368
-329.187	-21.316	0.274	0.165
-328.172	3.744	-0.120	-0.086
-327.158	45.468	-0.221	0.201
-326.143	788.612	0.025	0.067
-325.129	-88.535	0.145	0.043
-324.114	243.244	0.146	0.243
-323.099	422.815	0.091	0.193
-322.085	41.345	-0.240	-0.214
-321.070	201.819	-0.156	0.237
-320.056	-51.364	0.159	0.074
-319.041	105.188	0.159	0.185
-318.026	129.258	0.073	-0.092
-317.012	-30.824	-0.047	0.026
-315.997	-3.431	-0.168	0.116
-314.983	-122.004	0.263	-0.043
-313.968	-5.794	0.327	-0.222
-312.953	-75.984	-0.318	0.111
-311.939	8.439	-0.273	0.203
-310.924	121.036	-0.043	-0.052
-309.910	-68.271	-0.087	0.033
-308.895	800.000	-0.087	0.276
-307.880	-17.953	-0.167	0.104
-306.866	-200.000	-0.068	-0.309
-305.851	-11.398	0.172	0.112
-304.837	78.199	0.192	-0.202
-303.822	94.735	0.116	0.130
-302.807	-200.000	-0.042	-0.217
-301.793	-78.744	0.252	0.085
-300.778	1.737	0.114	-0.081
-299.764	-155.380	-0.292	0.019
-298.749	-104.347	0.113	-0.026
-297.735	-43.467	0.215	-0.107
-296.720	566.408	0.078	0.187
-295.705	-98.581	0.164	0.041
-294.691	0.758	-0.071	0.050
-293.676	346.324	-0.059	0.115
-292.662	-13.441	-0.076	-0.048
-291.647	314.214	0.047	-0.088
-290.632	-77.236	0.051	-0.017
-289.618	-125.476	0.240	-0.036
-288.603	-124.982	-0.183	-0.028
-287.589	-124.133	0.257	0.040
-286.574	732.692	0.102	-0.268
-285.559	131.280	-0.108	-0.137
-284.545	16.901	-0.209	0.164
-283.530	423.053	0.207	-0.440
-282.516	-144.589	-0.096	-0.009
-281.501	-54.549	0.062	0.028
-280.486	487.413	-0.159	0.358
-279.472	-200.000	-0.051	0.350
-278.457	-134.454	-0.253	0.031
-277.443	113.408	0.128	-0.154
-276.428	327.929	-0.122	0.230
-275.413	-89.315	0.208	0.061
-274.399	126.106	-0.059	0.073
-273.384	461.264	0.016	0.036
-272.370	-200.000	-0.017	0.193
-271.355	-200.000	-0.030	-0.331
-270.340	64.566	0.139	-0.138
-269.326	-102.637	-0.155	0.036
-268.311	-122.285	-0.264	-0.042
-267.297	-22.873	0.052	0.031
-266.282	101.676	-0.070	0.081
-265.267	-10.564	-0.129	0.084
-264.253	-70.780	0.226	-0.084
-263.238	-169.080	0.084	0.003
-262.224	-60.850	-0.146	-0.061
-261.209	800.000	-0.016	-0.048
-260.195	-165.064	-0.146	0.006
-259.180	-47.913	0.157	0.075
-258.165	-200.000	-0.000	0.078
-257.151	800.000	-0.045	-0.136
-256.136	3.254	-0.042	-0.030
-255.122	86.014	0.024	0.026
-254.107	75.512	0.068	0.071
-253.092	-176.952	-0.127	-0.003
-252.078	-39.070	-0.104	-0.054
-251.063	-200.000	0.016	-0.085
-250.049	-28.671	0.133	0.076
-249.034	4.345	0.239	-0.173
-248.019	668.221	-0.060	0.153
-247.005	-200.000	-0.014	0.152
-245.990	-200.000	-0.043	-0.397
-244.976	569.872	0.137	-0.329
-243.961	-106.004	0.180	0.040
-242.946	94.389	-0.155	0.173
-241.932	20.329	-0.330	0.263
-240.917	178.803	0.185	0.267
-239.903	-200.000	0.027	0.125
-238.888	800.000	0.016	-0.065
-237.873	-63.702	0.194	0.078
-236.859	-200.000	-0.040	-0.522
-235.844	376.321	0.091	0.183
-234.830	-21.301	0.382	0.230
-233.815	-200.000	-0.012	0.111
-232.800	-66.108	0.292	0.114
-231.786	-1.953	-0.255	-0.176
-230.771	-83.463	-0.077	0.024
-229.757	-117.134	-0.210	0.038
-228.742	800.000	0.074	0.312
-227.727	-167.272	-0.198	-0.008
-226.713	-93.570	-0.295	0.080
-225.698	-200.000	0.115	0.532
-224.684	-200.000	0.046	0.232
-223.669	688.842	0.155	-0.398
-222.655	800.000	0.058	-0.235
-221.640	519.154	-0.110	0.254
-220.625	-200.000	-0.000	-0.007
-219.611	-111.538	0.266	0.053
-218.596	310.211	0.095	0.174
-217.582	-112.643	0.336	-0.066
-216.567	-30.824	0.178	-0.099
-215.552	91.423	-0.172	0.190
-214.538	-21.663	0.003	0.002
-213.523	-200.000	0.004	-0.108
-212.509	724.183	0.113	-0.297
-211.494	-9.615	0.278	0.182
-210.479	131.630	-0.209	-0.265
-209.465	-64.025	0.524	0.211
-208.450	36.514	0.086	-0.075
-207.436	-4.578	0.102	0.069
-206.421	-200.000	0.033	0.164
-205.406	19.668	-0.184	-0.146
-204.392	114.448	-0.155	0.186
-203.377	227.530	0.112	0.179
-202.363	-91.970	0.401	-0.112
-201.348	25.353	-0.187	-0.153
-200.333	405.346	0.168	0.348
-199.319	35.428	-0.234	0.202
-198.304	-115.439	-0.379	-0.070
-197.290	800.000	0.095	-0.267
-196.275	-109.398	-0.289	-0.060
-195.260	-99.131	0.596	0.148
-194.246	150.053	-0.098	-0.131
-193.231	-133.777	0.152	-0.019
-192.217	-138.764	0.141	0.015
-191.202	244.876	0.143	0.236
-190.187	-200.000	0.007	0.136
-189.173	-200.000	0.021	-0.273
-188.158	-108.728	0.240	0.051
-187.144	-66.479	-0.179	0.070
-186.129	288.318	0.137	0.243
-185.114	-44.571	0.242	-0.119
-184.100	-168.083	0.119	0.005
-183.085	800.000	0.041	0.115
-182.071	195.348	0.105	0.157
-181.056	-200.000	-0.006	0.254
-180.042	-131.716	-0.258	-0.033
-179.027	277.255	-0.102	0.178
-178.012	-48.532	0.245	0.116
-176.998	531.842	-0.121	-0.280
-175.983	-200.000	-0.004	0.147
-174.969	-138.626	0.191	0.021
-173.954	-42.799	0.122	-0.061
-172.939	280.437	-0.097	0.171
-171.925	-15.558	0.061	0.038
-170.910	-140.235	0.290	0.030
-169.896	-54.246	-0.134	0.060
-168.881	318.677	-0.106	-0.198
-167.866	53.444	-0.073	0.068
-166.852	268.399	-0.056	0.097
-165.837	-55.708	-0.183	0.080
-164.823	-110.142	-0.202	0.041
-163.808	-200.000	0.172	-0.000
-162.793	64.255	0.124	-0.122
-161.779	55.590	0.062	-0.059
-160.764	-106.340	-0.341	-0.075
-159.750	528.529	0.035	-0.081
-158.735	800.000	-0.134	0.386
-157.720	59.142	0.081	-0.079
-156.706	-104.172	0.477	-0.109
-155.691	-98.144	0.090	0.023
-154.677	311.639	0.176	-0.323
-153.662	72.269	-0.083	0.085
-152.647	-36.220	0.066	-0.035
-151.633	-181.583	-0.275	-0.005
-150.618	800.000	0.136	0.502
-149.604	-73.222	0.088	0.032
-148.589	800.000	0.050	0.151
-147.574	-72.508	0.180	0.065
-146.560	-106.846	0.324	0.071
-145.545	24.002	-0.101	0.082
-144.531	112.789	0.016	0.019
-143.516	27.175	0.158	-0.130
-142.502	84.970	0.227	-0.244
-141.487	104.391	0.100	-0.116
-140.472	-136.347	-0.152	-0.017
-139.458	61.373	-0.152	0.148
-138.443	-200.000	0.032	0.211
-137.429	667.465	0.112	-0.285
-136.414	-60.435	0.188	-0.079
-135.399	-79.099	-0.307	0.102
-134.385	-55.820	-0.098	0.043
-133.370	21.357	-0.352	0.281
-132.356	-154.770	-0.192	0.012
-131.341	129.804	-0.222	-0.278
-130.326	365.794	0.138	0.273
-129.312	800.000	-0.037	0.124
-128.297	-102.221	-0.040	-0.010
-127.283	-108.181	-0.371	-0.079
-126.268	-200.000	0.016	0.096
-125.253	-15.448	-0.153	-0.096
-124.239	-95.073	-0.296	0.078
-123.224	-200.000	-0.016	-0.178
-122.210	800.000	0.050	0.173
-121.195	-200.000	0.001	0.100
