DTS Sentinel unit serial number:	SN413079Multiplexer serial number:	ORYXHardware model number:	OX4-SRSoftware version number:	ORYX F/W v4.00 Oryx Data Collector v3.7.2.0data status	okinstallation	princeton_trtdifferential loss correction	single-endedforward channel	channel 1reverse channel	N/Adate	2019/09/17time	19:58:35forward acquisition time	60.00reverse acquisition time	0.00gamma	496.2192k internal	0.2323k external	0.2323temperature offset calibration	0.9978default loss term (dB/km)	0.3790temperature slope calibration	1.0000multiplexer offset coefficient	1.0000multiplexer slope coefficient	1.0000fibre end	0.00T internal ref (°C)	33.47T ext. ref 1 (°C)	0.23T ext. ref 2 (°C)	23.01length (m)	temperature (°C)	Stokes	anti-Stokes-747.200	60.952	-0.199	-0.199
-746.185	-200.000	-0.038	0.367
-745.171	-111.731	-0.161	0.033
-744.156	82.402	0.111	-0.122
-743.142	23.745	0.281	0.234
-742.127	-3.051	-0.313	0.221
-741.112	0.118	0.132	0.095
-740.098	-0.293	-0.236	0.169
-739.083	63.764	-0.216	0.219
-738.069	-37.735	-0.241	-0.130
-737.054	-101.899	-0.413	0.101
-736.039	492.917	-0.039	0.091
-735.025	-63.110	0.345	0.144
-734.010	26.841	-0.352	-0.297
-732.996	-200.000	-0.023	-0.189
-731.981	-200.000	0.088	0.422
-730.966	-51.033	0.103	0.049
-729.952	-200.000	-0.041	0.316
-728.937	-48.221	-0.078	0.038
-727.923	-121.093	-0.189	-0.032
-726.908	778.622	0.197	0.544
-725.894	800.000	0.074	0.286
-724.879	-166.220	0.263	0.011
-723.864	3.456	-0.116	0.085
-722.850	-164.945	0.446	-0.020
-721.835	120.263	-0.162	0.203
-720.821	5.086	0.103	-0.076
-719.806	93.254	-0.197	0.225
-718.791	308.334	-0.142	0.267
-717.777	-52.831	-0.262	-0.122
-716.762	705.267	0.077	-0.204
-715.748	-74.672	-0.049	0.018
-714.733	800.000	-0.109	-0.315
-713.718	-30.646	-0.215	0.123
-712.704	95.659	0.130	-0.149
-711.689	-53.133	-0.176	-0.082
-710.675	-200.000	0.045	-0.221
-709.660	545.388	-0.110	-0.264
-708.645	-45.528	-0.093	0.047
-707.631	-2.164	-0.244	0.173
-706.616	-83.546	0.139	0.045
-705.602	-12.510	-0.134	-0.088
-704.587	-8.959	-0.093	0.063
-703.572	-200.000	0.049	0.262
-702.558	-200.000	0.021	0.139
-701.543	-200.000	0.004	0.213
-700.529	214.742	0.066	-0.105
-699.514	102.386	-0.152	-0.179
-698.499	-200.000	-0.002	0.099
-697.485	40.440	0.153	-0.139
-696.470	800.000	-0.049	0.163
-695.456	81.737	-0.048	-0.052
-694.441	800.000	-0.090	0.270
-693.426	-95.433	-0.137	0.037
-692.412	122.478	-0.120	0.152
-691.397	144.902	-0.098	-0.132
-690.383	65.811	-0.255	0.260
-689.368	794.525	-0.082	0.228
-688.354	437.756	-0.085	-0.188
-687.339	165.520	-0.305	-0.434
-686.324	800.000	0.021	-0.072
-685.310	37.403	-0.079	-0.070
-684.295	-128.391	0.107	-0.015
-683.281	573.605	0.125	0.307
-682.266	-39.376	-0.171	-0.090
-681.251	-200.000	-0.002	-0.058
-680.237	51.807	0.208	-0.200
-679.222	-98.677	-0.122	0.031
-678.208	-134.527	-0.120	-0.015
-677.193	-38.996	-0.117	0.062
-676.178	-200.000	0.020	0.187
-675.164	-89.995	0.178	0.052
-674.149	113.270	-0.099	0.121
-673.135	-46.825	-0.074	0.036
-672.120	800.000	-0.032	0.126
-671.105	133.568	-0.123	0.161
-670.091	73.407	-0.110	-0.116
-669.076	531.919	0.034	0.080
-668.062	-75.367	-0.050	-0.018
-667.047	800.000	-0.038	0.156
-666.032	-150.570	-0.167	-0.013
-665.018	-128.262	0.118	-0.017
-664.003	42.042	-0.141	-0.129
-662.989	-200.000	0.009	0.116
-661.974	277.091	-0.125	0.224
-660.959	30.871	-0.175	0.151
-659.945	-107.009	0.341	0.076
-658.930	-16.273	-0.216	-0.138
-657.916	800.000	0.041	0.130
-656.901	347.307	-0.074	0.146
-655.886	-146.264	-0.280	-0.025
-654.872	-152.701	-0.266	0.019
-653.857	-200.000	0.013	-0.143
-652.843	-148.949	-0.447	0.036
-651.828	-117.435	-0.135	0.025
-650.814	-138.057	-0.279	0.031
-649.799	-63.150	-0.186	0.077
-648.784	49.181	0.061	-0.058
-647.770	355.499	0.107	0.214
-646.755	-200.000	0.019	0.168
-645.741	66.692	0.195	0.200
-644.726	-200.000	0.040	-0.554
-643.711	-64.633	-0.093	0.038
-642.697	-200.000	0.045	0.356
-641.682	670.283	-0.151	0.393
-640.668	800.000	-0.050	0.163
-639.653	800.000	0.093	-0.341
-638.638	-66.472	-0.219	0.087
-637.624	800.000	0.061	-0.259
-636.609	52.205	0.152	-0.146
-635.595	-200.000	0.024	0.227
-634.580	-12.707	0.098	-0.064
-633.565	-175.064	-0.586	0.016
-632.551	196.091	-0.107	-0.164
-631.536	225.192	0.225	-0.366
-630.522	-126.864	-0.365	-0.054
-629.507	-69.213	-0.287	-0.111
-628.492	-200.000	-0.018	0.085
-627.478	-144.923	-0.180	-0.017
-626.463	-200.000	-0.048	-0.227
-625.449	676.247	0.062	0.161
-624.434	-39.763	0.246	-0.129
-623.419	-84.292	-0.207	-0.066
-622.405	81.256	0.143	0.155
-621.390	-200.000	-0.002	-0.081
-620.376	55.499	0.243	-0.237
-619.361	-52.238	0.110	-0.051
-618.346	-135.420	0.263	-0.032
-617.332	145.418	-0.175	-0.235
-616.317	-96.687	-0.309	-0.082
-615.303	-55.709	0.023	-0.010
-614.288	800.000	0.035	-0.109
-613.273	115.821	0.188	0.231
-612.259	76.560	-0.107	0.115
-611.244	-1.212	0.081	-0.057
-610.230	-76.090	-0.382	0.135
-609.215	-94.465	0.195	0.053
-608.201	800.000	-0.044	-0.123
-607.186	52.913	-0.164	0.157
-606.171	89.092	-0.075	0.084
-605.157	-154.085	0.090	0.006
-604.142	94.574	-0.072	0.082
-603.128	433.352	-0.200	0.435
-602.113	90.272	0.012	-0.013
-601.098	281.821	-0.111	-0.199
-600.084	1.640	0.222	-0.160
-599.069	49.877	0.067	-0.063
-598.055	-200.000	0.043	-0.201
-597.040	-33.190	0.172	-0.096
-596.025	800.000	-0.025	0.097
-595.011	800.000	0.059	-0.195
-593.996	152.544	0.075	-0.102
-592.982	-81.597	-0.201	0.066
-591.967	775.659	0.076	0.207
-590.952	277.189	-0.117	0.210
-589.938	-200.000	0.039	-0.213
-588.923	21.083	-0.266	-0.216
-587.909	800.000	0.049	-0.164
-586.894	800.000	-0.020	-0.072
-585.879	-51.785	0.293	-0.137
-584.865	-112.346	0.068	-0.014
-583.850	108.822	0.222	-0.267
-582.836	-37.633	-0.054	0.029
-581.821	-101.879	0.083	-0.020
-580.806	-28.703	0.208	-0.120
-579.792	800.000	0.054	-0.182
-578.777	-200.000	-0.073	-0.383
-577.763	-200.000	0.011	0.157
-576.748	-95.169	-0.102	0.028
-575.733	-142.252	0.310	0.031
-574.719	-25.348	-0.173	-0.103
-573.704	-11.156	-0.270	-0.179
-572.690	800.000	-0.021	-0.088
-571.675	-74.554	0.087	-0.031
-570.661	-200.000	0.025	-0.199
-569.646	-90.287	-0.530	-0.154
-568.631	-35.710	0.038	-0.021
-567.617	-122.269	0.264	-0.043
-566.602	800.000	-0.025	0.102
-565.588	218.271	-0.120	-0.192
-564.573	44.116	-0.115	0.105
-563.558	678.907	-0.090	0.236
-562.544	-200.000	-0.002	0.159
-561.529	611.677	0.095	-0.238
-560.515	-78.466	-0.210	-0.072
-559.500	-40.351	0.129	0.067
-558.485	-200.000	-0.045	-0.283
-557.471	-200.000	0.026	0.117
-556.456	-108.176	0.185	0.040
-555.442	800.000	0.028	-0.100
-554.427	-200.000	0.014	-0.250
-553.412	722.083	0.038	-0.103
-552.398	-99.826	-0.158	0.040
-551.383	213.264	-0.090	0.143
-550.369	-21.764	-0.153	0.093
-549.354	5.138	-0.102	-0.075
-548.339	131.226	-0.131	-0.168
-547.325	-200.000	-0.006	0.060
-546.310	800.000	-0.106	-0.376
-545.296	-150.722	-0.271	0.021
-544.281	232.071	0.084	-0.138
-543.266	88.056	0.302	-0.336
-542.252	242.425	0.126	0.211
-541.237	7.090	-0.166	-0.124
-540.223	-69.929	-0.241	-0.092
-539.208	800.000	-0.063	0.220
-538.193	-172.527	0.194	0.006
-537.179	800.000	0.087	0.349
-536.164	218.434	-0.070	0.112
-535.150	731.520	0.073	0.196
-534.135	-200.000	-0.061	-0.282
-533.121	-129.253	-0.397	-0.055
-532.106	96.838	-0.160	-0.183
-531.091	148.974	0.182	0.246
-530.077	-200.000	-0.006	-0.066
-529.062	-9.241	-0.143	0.096
-528.048	-200.000	-0.036	-0.266
-527.033	-4.089	-0.044	0.030
-526.018	800.000	0.079	0.256
-525.004	278.219	-0.095	-0.169
-523.989	800.000	-0.017	0.070
-522.975	800.000	0.047	0.164
-521.960	742.065	0.110	0.296
-520.945	-105.848	-0.152	0.034
-519.931	326.038	0.033	0.063
-518.916	-200.000	-0.017	-0.227
-517.902	6.067	-0.255	-0.189
-516.887	-61.396	-0.208	0.088
-515.872	184.057	-0.163	0.242
-514.858	470.822	-0.086	0.195
-513.843	-52.050	-0.160	-0.074
-512.829	-200.000	0.042	-0.353
-511.814	-88.275	-0.223	-0.067
-510.799	-116.219	-0.253	-0.047
-509.785	-62.056	0.095	0.040
-508.770	-170.435	-0.214	0.007
-507.756	-200.000	-0.008	0.122
-506.741	200.087	-0.122	-0.187
-505.726	-153.799	0.079	-0.005
-504.712	300.638	0.115	0.213
-503.697	98.533	-0.181	-0.208
-502.683	800.000	-0.040	-0.113
-501.668	2.348	0.111	-0.080
-500.653	-200.000	0.017	0.150
-499.639	102.796	-0.094	-0.110
-498.624	64.986	0.124	0.125
-497.610	-200.000	-0.018	0.176
-496.595	78.174	-0.263	-0.281
-495.581	33.674	0.060	0.052
-494.566	36.923	-0.024	0.021
-493.551	32.263	-0.162	-0.139
-492.537	-157.163	0.568	0.035
-491.522	16.876	-0.226	0.179
-490.508	-53.959	0.373	-0.170
-489.493	-134.636	-0.250	0.031
-488.478	-12.926	0.114	0.074
-487.464	62.391	0.184	-0.184
-486.449	800.000	-0.041	0.146
-485.435	-27.199	-0.182	-0.106
-484.420	-32.545	-0.023	0.013
-483.405	8.436	-0.066	-0.050
-482.391	165.408	0.076	0.108
-481.376	242.892	-0.107	0.179
-480.362	-67.866	-0.227	-0.089
-479.347	-149.213	0.062	-0.005
-478.332	-70.810	-0.155	0.059
-477.318	-21.202	0.286	0.175
-476.303	-107.109	-0.309	0.068
-475.289	-17.393	-0.117	0.074
-474.274	-15.667	0.197	0.125
-473.259	-200.000	0.000	0.394
-472.245	235.994	-0.034	-0.056
-471.230	-200.000	-0.134	0.000
-470.216	107.266	0.069	-0.082
-469.201	81.135	-0.265	-0.286
-468.186	306.495	0.079	0.146
-467.172	-174.506	0.283	-0.008
-466.157	-45.270	-0.206	-0.102
-465.143	-139.859	0.408	-0.043
-464.128	320.274	-0.149	-0.283
-463.113	-119.063	0.080	0.014
-462.099	23.308	-0.378	-0.310
-461.084	-15.684	-0.219	0.140
-460.070	-200.000	-0.014	-0.080
-459.055	-57.352	-0.105	0.046
-458.040	194.616	-0.044	-0.066
-457.026	511.255	0.183	0.426
-456.011	-85.848	0.082	0.025
-454.997	386.219	0.083	0.172
-453.982	-200.000	-0.017	-0.179
-452.968	-11.205	-0.205	0.135
-451.953	24.191	-0.141	0.116
-450.938	800.000	0.074	0.229
-449.924	422.923	-0.086	-0.183
-448.909	-78.761	0.163	-0.056
-447.895	-45.955	0.095	-0.047
-446.880	800.000	0.039	0.143
-445.865	-192.314	0.056	-0.001
-444.851	-105.508	0.245	-0.056
-443.836	332.271	0.129	0.248
-442.822	-87.575	0.039	0.012
-441.807	1.429	-0.207	-0.149
-440.792	-31.305	-0.154	0.086
-439.778	-200.000	-0.013	0.416
-438.763	-200.000	0.019	-0.219
-437.749	19.011	-0.270	-0.216
-436.734	-200.000	0.041	0.197
-435.719	-12.265	0.072	0.047
-434.705	2.832	-0.159	0.115
-433.690	-200.000	-0.269	0.000
-432.676	-15.945	0.263	-0.167
-431.661	-200.000	0.037	0.276
-430.646	800.000	0.010	0.029
-429.632	18.128	0.174	0.138
-428.617	-54.051	-0.160	0.073
-427.603	800.000	-0.036	0.104
-426.588	-115.569	0.538	-0.101
-425.573	-158.411	0.358	-0.021
-424.559	-47.562	0.083	-0.040
-423.544	33.844	0.254	-0.221
-422.530	800.000	-0.104	-0.389
-421.515	272.748	-0.151	0.266
-420.500	-116.355	-0.167	0.031
-419.486	568.462	0.171	0.415
-418.471	265.249	0.103	0.179
-417.457	3.066	-0.195	0.141
-416.442	219.272	-0.197	0.314
-415.428	-200.000	0.027	0.275
-414.413	-51.103	-0.052	0.024
-413.398	13.042	0.237	-0.183
-412.384	-184.262	-0.122	-0.002
-411.369	-31.728	0.139	0.078
-410.355	274.010	-0.210	0.371
-409.340	436.858	0.061	-0.131
-408.325	-88.406	0.271	0.081
-407.311	202.357	0.185	0.285
-406.296	410.897	-0.155	-0.328
-405.282	447.190	-0.056	0.123
-404.267	3.652	-0.244	-0.178
-403.252	-60.894	-0.031	-0.013
-402.238	-200.000	0.028	0.201
-401.223	-115.636	-0.083	-0.016
-400.209	-200.000	-0.011	0.164
-399.194	-200.000	-0.015	0.184
-398.179	18.915	0.311	-0.248
-397.165	-15.087	0.100	0.064
-396.150	135.380	0.117	-0.152
-395.136	-75.344	0.219	-0.078
-394.121	-200.000	-0.036	0.290
-393.106	214.349	0.050	-0.078
-392.092	-35.949	0.273	0.147
-391.077	-5.944	-0.149	-0.101
-390.063	280.015	0.090	-0.160
-389.048	3.952	-0.345	0.252
-388.033	-200.000	-0.050	0.255
-387.019	-172.429	-0.280	-0.009
-386.004	-98.795	0.235	-0.059
-384.990	119.781	0.174	-0.214
-383.975	137.760	-0.210	-0.274
-382.960	800.000	0.081	0.276
-381.946	-129.059	0.086	0.012
-380.931	800.000	0.018	0.072
-379.917	9.103	-0.024	0.018
-378.902	17.904	-0.255	-0.202
-377.888	-93.322	-0.062	-0.017
-376.873	-159.237	0.137	-0.008
-375.858	500.033	-0.077	-0.177
-374.844	800.000	-0.055	-0.158
-373.829	800.000	-0.026	-0.071
-372.815	175.310	-0.045	-0.066
-371.800	35.779	-0.219	-0.191
-370.785	-38.349	-0.129	-0.068
-369.771	-200.000	0.025	0.219
-368.756	244.078	0.121	0.203
-367.742	-24.647	0.155	-0.092
-366.727	-200.000	0.054	0.274
-365.712	-43.404	-0.316	0.159
-364.698	-166.366	0.168	0.007
-363.683	-138.160	-0.256	-0.028
-362.669	0.816	-0.324	0.231
-361.654	-57.085	0.161	0.071
-360.639	-200.000	-0.002	-0.236
-359.625	-140.676	-0.119	-0.012
-358.610	457.670	0.035	-0.078
-357.596	37.426	0.263	0.232
-356.581	-157.922	-0.448	0.026
-355.566	-200.000	-0.023	-0.101
-354.552	-81.655	0.278	-0.091
-353.537	-131.756	0.220	-0.029
-352.523	81.124	0.174	-0.187
-351.508	-46.278	0.356	-0.174
-350.493	552.831	-0.115	-0.274
-349.479	41.690	0.286	-0.258
-348.464	-39.106	0.233	0.122
-347.450	-142.507	0.674	-0.066
-346.435	104.124	0.158	-0.185
-345.420	-109.625	0.158	0.033
-344.406	230.370	-0.231	-0.375
-343.391	-200.000	-0.003	0.228
-342.377	-51.586	0.117	-0.054
-341.362	-110.124	-0.478	-0.099
-340.348	737.216	0.091	-0.241
-339.333	25.321	0.135	0.111
-338.318	-93.019	-0.052	-0.014
-337.304	92.880	-0.048	0.054
-336.289	220.233	-0.170	0.271
-335.275	-176.892	0.298	-0.007
-334.260	-200.000	-0.012	-0.107
-333.245	-1.748	0.152	-0.107
-332.231	800.000	0.050	-0.203
-331.216	800.000	0.099	-0.297
-330.202	-69.257	0.382	-0.146
-329.187	-167.162	0.046	0.002
-328.172	253.416	0.204	0.347
-327.158	362.894	0.112	0.223
-326.143	-15.959	0.018	0.011
-325.129	-123.112	-0.189	-0.030
-324.114	-200.000	0.005	0.242
-323.099	-200.000	0.009	0.186
-322.085	800.000	-0.124	0.528
-321.070	-120.663	0.113	0.019
-320.056	800.000	0.039	0.163
-319.041	-109.488	0.246	0.052
-318.026	658.769	0.072	0.184
-317.012	176.014	-0.114	0.165
-315.997	-135.577	-0.236	0.028
-314.983	-18.805	-0.067	-0.042
-313.968	208.309	-0.287	-0.445
-312.953	-150.157	0.051	-0.004
-311.939	800.000	-0.053	-0.183
-310.924	-200.000	0.021	-0.396
-309.910	356.495	0.077	0.153
-308.895	-183.805	0.454	-0.008
-307.880	64.175	0.051	-0.051
-306.866	-200.000	0.026	-0.147
-305.851	437.481	0.129	-0.280
-304.837	-125.441	0.272	0.041
-303.822	73.949	-0.135	-0.140
-302.807	30.617	0.273	0.231
-301.793	-200.000	-0.023	0.000
-300.778	5.027	0.221	-0.161
-299.764	-128.022	0.311	0.044
-298.749	108.211	-0.084	0.099
-297.735	-68.886	0.052	0.020
-296.720	304.314	-0.053	-0.097
-295.705	-200.000	-0.001	-0.340
-294.691	7.973	-0.211	0.157
-293.676	73.222	-0.057	-0.059
-292.662	800.000	-0.057	-0.165
-291.647	-200.000	-0.018	0.098
-290.632	-9.316	0.302	-0.200
-289.618	-130.032	-0.224	-0.030
-288.603	-21.224	-0.120	-0.073
-287.589	-142.260	0.228	-0.022
-286.574	12.597	0.211	-0.162
-285.559	-95.984	-0.256	-0.068
-284.545	-117.483	0.276	-0.050
-283.530	-106.642	-0.160	0.035
-282.516	-69.716	-0.123	0.047
-281.501	800.000	-0.084	0.355
-280.486	145.736	0.029	0.038
-279.472	-9.148	-0.075	0.050
-278.457	369.702	0.120	0.240
-277.443	-132.482	0.298	0.038
-276.428	242.733	-0.187	-0.310
-275.413	108.362	-0.068	-0.080
-274.399	412.698	0.192	0.404
-273.384	-123.254	-0.143	0.023
-272.370	-0.613	-0.286	0.201
-271.355	0.324	-0.269	0.190
-270.340	74.640	0.114	0.119
-269.326	164.276	-0.109	0.153
-268.311	-118.907	0.527	0.092
-267.297	-45.630	0.146	-0.072
-266.282	-200.000	-0.014	-0.263
-265.267	-61.074	0.096	0.040
-264.253	-1.490	-0.290	0.202
-263.238	-97.006	0.212	0.055
-262.224	-98.653	-0.394	-0.100
-261.209	601.934	-0.210	-0.517
-260.195	-163.772	0.142	-0.007
-259.180	-96.060	0.205	-0.054
-258.165	-56.172	0.126	-0.056
-257.151	-200.000	0.017	-0.081
-256.136	-200.000	0.054	-0.290
-255.122	-200.000	-0.005	0.106
-254.107	-200.000	0.012	0.100
-253.092	-77.240	-0.110	-0.038
-252.078	800.000	0.077	0.211
-251.063	-200.000	-0.015	0.190
-250.049	170.797	0.161	0.228
-249.034	415.146	-0.061	-0.128
-248.019	60.079	0.205	-0.200
-247.005	-93.995	0.266	0.072
-245.990	58.213	-0.198	-0.192
-244.976	352.490	0.094	0.185
-243.961	-200.000	0.013	-0.195
-242.946	-58.338	0.191	0.082
-241.932	-82.084	-0.260	0.084
-240.917	-9.337	0.019	-0.012
-239.903	-35.209	0.246	-0.133
-238.888	-100.156	0.252	-0.062
-237.873	-94.556	0.124	0.033
-236.859	-200.000	-0.021	-0.214
-235.844	15.880	0.182	-0.142
-234.830	100.909	0.193	0.222
-233.815	-54.722	-0.211	0.094
-232.800	-60.028	-0.158	-0.067
-231.786	-109.769	0.203	-0.042
-230.771	-101.880	0.226	0.054
-229.757	-136.971	0.130	-0.015
-228.742	-55.398	0.058	-0.026
-227.727	-200.000	-0.298	0.001
-226.713	78.125	-0.094	-0.099
-225.698	-200.000	0.015	0.238
-224.684	-51.313	-0.322	0.149
-223.669	-114.327	-0.168	-0.032
-222.655	-200.000	0.005	0.290
-221.640	200.627	-0.085	0.130
-220.625	-77.321	-0.084	0.029
-219.611	-200.000	-0.004	0.092
-218.596	-200.000	-0.021	0.158
-217.582	-107.821	0.299	-0.064
-216.567	-77.175	-0.033	-0.012
-215.552	-55.192	-0.252	0.112
-214.538	-200.000	0.074	-0.402
-213.523	800.000	-0.081	0.339
-212.509	800.000	-0.020	-0.081
-211.494	-99.988	0.041	0.010
-210.479	-157.564	-0.244	0.014
-209.465	27.683	-0.022	-0.018
-208.450	-21.806	-0.230	0.138
-207.436	800.000	-0.093	0.391
-206.421	579.118	0.025	-0.061
-205.406	-200.000	-0.011	-0.203
-204.392	-200.000	0.019	-0.205
-203.377	45.177	0.116	0.105
-202.363	79.658	0.171	-0.181
-201.348	-200.000	-0.098	-0.432
-200.333	295.043	-0.072	-0.130
-199.319	-200.000	0.013	-0.116
-198.304	-134.191	0.144	0.018
-197.290	-59.767	-0.200	0.085
-196.275	46.504	0.190	-0.175
-195.260	800.000	0.056	0.179
-194.246	91.105	-0.233	0.259
-193.231	-173.379	-0.453	-0.014
-192.217	-24.272	0.126	0.074
-191.202	145.740	-0.089	0.117
-190.187	312.971	-0.146	0.272
-189.173	-200.000	-0.005	0.040
-188.158	-200.000	0.001	-0.010
-187.144	-71.223	0.145	-0.054
-186.129	-143.776	0.429	0.040
-185.114	-58.185	-0.369	0.159
-184.100	785.187	0.100	0.271
-183.085	-200.000	-0.036	0.250
-182.071	-200.000	-0.010	0.197
-181.056	426.635	0.108	0.230
-180.042	197.659	0.138	0.208
-179.027	-138.595	0.202	0.022
-178.012	-32.206	0.238	-0.131
-176.998	500.936	-0.055	0.125
-175.983	241.872	-0.057	0.093
-174.969	-53.851	0.129	0.058
-173.954	-200.000	0.016	-0.104
-172.939	-200.000	0.001	-0.285
-171.925	-68.289	-0.475	0.183
-170.910	769.262	-0.017	-0.045
-169.896	-17.172	-0.082	-0.051
-168.881	-99.794	0.269	-0.066
-167.866	40.816	0.227	-0.202
-166.852	289.853	-0.087	-0.155
-165.837	-118.859	0.298	0.052
-164.823	348.684	-0.132	0.258
-163.808	342.594	-0.015	-0.028
-162.793	-146.763	-0.584	-0.050
-161.779	332.870	-0.036	-0.069
-160.764	3.792	-0.177	-0.127
-159.750	800.000	-0.078	0.285
-158.735	537.599	0.089	-0.208
-157.720	-129.952	0.069	-0.009
-156.706	-200.000	0.047	-0.409
-155.691	-200.000	0.017	0.572
-154.677	457.330	0.037	0.082
-153.662	-127.104	0.190	0.028
-152.647	-98.727	0.203	-0.051
-151.633	607.865	-0.110	-0.271
-150.618	-140.195	0.315	0.033
-149.604	-116.508	-0.640	0.116
-148.589	-200.000	0.014	-0.136
-147.574	-159.058	-0.126	0.007
-146.560	-75.600	0.428	0.150
-145.545	-157.531	-0.388	-0.023
-144.531	91.628	-0.245	0.272
-143.516	800.000	-0.163	0.547
-142.502	746.580	0.057	-0.150
-141.487	800.000	-0.071	0.199
-140.472	129.173	0.237	0.299
-139.458	-152.856	0.256	0.018
-138.443	0.418	0.137	0.096
-137.429	-63.940	-0.080	-0.032
-136.414	-200.000	0.020	-0.111
-135.399	52.455	-0.039	-0.037
-134.385	-93.231	0.072	0.020
-133.370	644.144	-0.111	0.278
-132.356	-200.000	-0.008	0.131
-131.341	-200.000	-0.043	0.351
-130.326	-33.876	-0.163	0.088
-129.312	87.593	0.249	0.271
-128.297	557.771	-0.042	0.100
-127.283	16.986	-0.217	-0.170
-126.268	53.946	-0.116	0.110
-125.253	15.676	-0.285	-0.221
-124.239	95.523	-0.049	0.055
-123.224	-60.127	-0.134	-0.056
-122.210	735.803	-0.060	0.157
-121.195	-200.000	0.030	0.192
