DTS Sentinel unit serial number:	SN413079Multiplexer serial number:	ORYXHardware model number:	OX4-SRSoftware version number:	ORYX F/W v4.00 Oryx Data Collector v3.7.2.0data status	okinstallation	princeton_trtdifferential loss correction	single-endedforward channel	channel 1reverse channel	N/Adate	2019/09/16time	14:22:35forward acquisition time	60.00reverse acquisition time	0.00gamma	496.2192k internal	0.2293k external	0.2293temperature offset calibration	0.9953default loss term (dB/km)	0.3790temperature slope calibration	1.0000multiplexer offset coefficient	1.0000multiplexer slope coefficient	1.0000fibre end	0.00T internal ref (°C)	42.09T ext. ref 1 (°C)	14.18T ext. ref 2 (°C)	36.46length (m)	temperature (°C)	Stokes	anti-Stokes-747.200	-124.293	0.318	0.051
-746.185	-200.000	-0.031	0.393
-745.171	-200.000	-0.003	-0.134
-744.156	-102.562	0.270	0.066
-743.142	-200.000	-0.034	0.155
-742.127	-93.518	0.128	-0.036
-741.112	-20.157	-0.157	-0.099
-740.098	201.428	-0.128	0.202
-739.083	-200.000	0.062	0.430
-738.069	4.624	-0.271	0.203
-737.054	-61.012	0.226	0.097
-736.039	295.093	0.175	0.328
-735.025	-200.000	0.079	-0.381
-734.010	-104.378	-0.043	0.010
-732.996	-39.099	-0.337	0.181
-731.981	-29.901	-0.035	-0.020
-730.966	-62.336	-0.082	-0.035
-729.952	63.261	-0.237	-0.243
-728.937	-143.322	-0.211	-0.021
-727.923	-64.940	-0.130	-0.054
-726.908	32.966	-0.289	-0.256
-725.894	-200.000	-0.038	-0.174
-724.879	348.893	-0.185	-0.373
-723.864	-37.011	-0.283	0.155
-722.850	-43.255	-0.315	0.163
-721.835	-77.290	-0.500	0.178
-720.821	12.077	0.336	-0.264
-719.806	89.348	-0.262	-0.298
-718.791	-50.220	-0.138	0.067
-717.777	-23.722	-0.327	-0.200
-716.762	49.544	-0.166	0.160
-715.748	283.047	0.048	0.088
-714.733	-200.000	0.010	-0.118
-713.718	800.000	0.019	-0.056
-712.704	-200.000	0.000	0.340
-711.689	69.938	-0.128	-0.135
-710.675	800.000	-0.086	0.307
-709.660	182.601	0.154	-0.233
-708.645	47.085	0.220	-0.209
-707.631	199.856	-0.116	0.182
-706.616	-105.523	-0.182	-0.042
-705.602	-5.227	-0.341	-0.239
-704.587	800.000	-0.138	-0.460
-703.572	482.118	-0.025	-0.057
-702.558	-137.720	-0.082	-0.009
-701.543	-78.725	0.231	-0.080
-700.529	-148.173	0.208	-0.018
-699.514	-107.708	0.224	-0.050
-698.499	-200.000	0.012	-0.314
-697.485	228.667	-0.126	-0.210
-696.470	800.000	0.030	-0.116
-695.456	19.103	0.068	0.056
-694.441	168.652	-0.070	0.102
-693.426	-200.000	0.029	0.226
-692.412	800.000	-0.078	0.296
-691.397	-115.134	-0.310	-0.060
-690.383	-91.659	0.328	0.095
-689.368	-145.086	0.216	0.020
-688.354	-40.845	0.285	-0.151
-687.339	93.349	0.208	0.241
-686.324	476.145	0.039	-0.089
-685.310	-74.820	0.185	0.068
-684.295	16.418	-0.198	-0.160
-683.281	-92.007	0.129	-0.037
-682.266	-12.905	0.117	-0.078
-681.251	-54.824	-0.264	0.122
-680.237	-5.512	-0.116	-0.081
-679.222	46.504	-0.051	-0.049
-678.208	-118.414	-0.265	-0.048
-677.193	-188.916	-0.203	-0.003
-676.178	-2.255	-0.234	0.168
-675.164	800.000	0.099	-0.280
-674.149	-68.709	-0.216	-0.085
-673.135	800.000	0.049	0.178
-672.120	800.000	-0.060	-0.235
-671.105	-200.000	0.047	-0.210
-670.091	-50.977	0.321	-0.154
-669.076	-130.259	-0.300	0.042
-668.062	114.032	-0.054	0.067
-667.047	-38.906	-0.198	-0.107
-666.032	-21.414	-0.231	-0.144
-665.018	67.027	-0.200	-0.208
-664.003	66.682	-0.046	-0.048
-662.989	-106.437	0.171	-0.039
-661.974	800.000	0.085	-0.251
-660.959	11.768	0.036	-0.028
-659.945	-37.506	0.187	-0.102
-658.930	-10.542	-0.129	-0.087
-657.916	-200.000	-0.018	-0.190
-656.901	-109.338	-0.318	-0.069
-655.886	-128.633	0.242	0.035
-654.872	10.652	-0.191	-0.148
-653.857	-200.000	-0.009	-0.195
-652.843	77.722	-0.013	-0.014
-651.828	-64.051	-0.223	0.093
-650.814	263.289	0.126	-0.223
-649.799	-17.405	0.096	-0.061
-648.784	800.000	0.059	0.229
-647.770	-59.140	-0.087	-0.038
-646.755	-29.636	0.223	-0.130
-645.741	-36.050	-0.129	-0.071
-644.726	148.384	-0.080	0.110
-643.711	247.451	0.113	0.195
-642.697	-45.083	0.123	-0.062
-641.682	-200.000	-0.025	0.390
-640.668	-41.768	0.287	-0.150
-639.653	95.792	-0.173	-0.201
-638.638	-138.735	0.387	-0.043
-637.624	356.320	-0.040	0.082
-636.609	121.630	-0.098	0.124
-635.595	35.852	0.136	-0.122
-634.580	-200.000	-0.031	-0.174
-633.565	226.648	-0.195	0.322
-632.551	325.012	-0.164	-0.319
-631.536	27.440	0.233	-0.199
-630.522	-200.000	-0.027	-0.157
-629.507	399.878	0.157	0.336
-628.492	106.083	-0.171	0.207
-627.478	800.000	-0.015	0.050
-626.463	-14.737	0.311	0.203
-625.449	682.442	-0.048	0.128
-624.434	45.391	-0.278	-0.261
-623.419	-200.000	0.002	-0.092
-622.405	-31.547	-0.272	0.155
-621.390	-101.905	-0.259	0.064
-620.376	-102.455	-0.119	0.029
-619.361	270.090	-0.063	0.112
-618.346	99.587	0.045	0.053
-617.332	113.419	-0.061	-0.075
-616.317	-27.930	-0.237	0.140
-615.303	-22.377	-0.099	0.061
-614.288	198.519	-0.060	0.093
-613.273	708.771	-0.027	0.073
-612.259	-200.000	0.031	0.142
-611.244	-2.568	-0.274	-0.195
-610.230	-127.365	-0.308	-0.046
-609.215	-200.000	0.027	0.149
-608.201	-200.000	-0.013	-0.065
-607.186	-200.000	-0.015	-0.200
-606.171	-72.574	-0.272	-0.102
-605.157	-200.000	-0.007	0.070
-604.142	800.000	-0.066	-0.207
-603.128	80.658	-0.164	0.180
-602.113	46.259	-0.104	0.098
-601.098	-200.000	-0.028	-0.564
-600.084	623.172	-0.141	-0.361
-599.069	362.364	0.107	0.219
-598.055	75.011	0.368	0.394
-597.040	243.864	0.246	0.420
-596.025	-54.085	0.134	-0.062
-595.011	73.274	0.050	-0.053
-593.996	4.521	-0.238	0.178
-592.982	-122.612	-0.061	0.010
-591.967	-39.235	-0.071	-0.038
-590.952	226.348	-0.149	0.245
-589.938	233.759	0.067	-0.111
-588.923	-83.073	0.109	-0.036
-587.909	94.427	0.098	-0.113
-586.894	800.000	0.061	0.179
-585.879	-200.000	0.035	0.330
-584.865	-64.495	-0.235	-0.097
-583.850	-131.502	-0.407	-0.055
-582.836	-200.000	0.000	-0.369
-581.821	110.800	-0.152	0.186
-580.806	-160.819	0.036	0.002
-579.792	52.576	-0.169	-0.164
-578.777	368.523	-0.089	0.182
-577.763	-200.000	0.011	0.267
-576.748	140.554	0.094	-0.126
-575.733	783.919	0.171	0.477
-574.719	-65.909	0.051	-0.021
-573.704	-50.928	0.117	-0.056
-572.690	-96.916	0.206	0.055
-571.675	-118.598	0.188	0.034
-570.661	-200.000	0.023	-0.128
-569.646	-70.458	0.056	-0.022
-568.631	310.421	-0.103	0.196
-567.617	102.553	-0.101	-0.120
-566.602	-22.079	-0.469	0.289
-565.588	-22.095	0.042	0.026
-564.573	-182.910	0.129	0.002
-563.558	-200.000	0.025	0.171
-562.544	-63.474	-0.227	0.095
-561.529	-41.203	-0.136	0.071
-560.515	-200.000	0.035	-0.353
-559.500	-105.959	-0.287	-0.066
-558.485	-51.175	-0.008	0.004
-557.471	-200.000	0.018	-0.288
-556.456	-200.000	0.025	-0.225
-555.442	-31.032	-0.130	0.074
-554.427	580.085	-0.149	-0.371
-553.412	537.254	0.139	0.336
-552.398	532.135	0.072	-0.172
-551.383	-200.000	0.077	0.000
-550.369	-75.815	-0.144	-0.052
-549.354	-200.000	-0.007	-0.146
-548.339	800.000	0.041	0.151
-547.325	-96.794	0.116	0.031
-546.310	-200.000	0.002	0.192
-545.296	237.974	-0.117	-0.196
-544.281	243.269	-0.020	0.035
-543.266	-50.168	-0.293	-0.141
-542.252	-34.729	0.102	-0.057
-541.237	-75.871	-0.094	-0.034
-540.223	-15.130	-0.300	0.195
-539.208	-11.128	-0.307	0.205
-538.193	-200.000	0.003	0.027
-537.179	-200.000	0.019	-0.324
-536.164	-120.335	0.228	-0.039
-535.150	53.481	0.053	0.051
-534.135	527.180	-0.110	0.264
-533.121	-78.799	-0.257	0.089
-532.106	-145.448	-0.079	0.007
-531.091	-84.678	-0.029	0.009
-530.077	-90.324	-0.256	0.075
-529.062	209.390	0.141	0.225
-528.048	15.239	0.074	0.059
-527.033	11.842	0.074	0.058
-526.018	-98.638	0.237	0.061
-525.004	-93.190	0.123	-0.035
-523.989	-72.923	-0.294	0.109
-522.975	-93.032	0.172	0.049
-521.960	146.532	-0.353	-0.481
-520.945	-118.896	-0.271	0.048
-519.931	800.000	-0.012	0.050
-518.916	800.000	0.072	0.212
-517.902	580.481	0.107	0.266
-516.887	-200.000	0.002	-0.171
-515.872	-146.773	-0.064	0.006
-514.858	-78.245	0.386	0.135
-513.843	-47.000	-0.182	-0.090
-512.829	-12.039	0.084	-0.056
-511.814	476.067	0.085	-0.196
-510.799	-49.085	-0.269	-0.130
-509.785	-165.371	0.200	0.009
-508.770	-200.000	0.069	-0.351
-507.756	-200.000	0.008	-0.227
-506.741	-200.000	0.018	-0.470
-505.726	-65.267	0.141	-0.058
-504.712	115.007	0.097	-0.120
-503.697	-124.084	-0.091	-0.014
-502.683	276.003	0.064	-0.114
-501.668	18.732	-0.144	0.117
-500.653	800.000	-0.067	0.290
-499.639	147.017	0.254	-0.346
-498.624	-132.768	-0.133	0.017
-497.610	800.000	0.047	0.184
-496.595	39.072	-0.026	-0.023
-495.581	362.512	-0.031	0.063
-494.566	-200.000	0.065	0.356
-493.551	-61.655	0.238	0.101
-492.537	41.201	-0.139	0.127
-491.522	-200.000	-0.022	0.170
-490.508	-200.000	-0.074	-0.485
-489.493	-70.589	-0.124	0.047
-488.478	201.012	0.102	0.159
-487.464	32.071	0.228	-0.199
-486.449	-74.287	0.439	-0.161
-485.435	157.965	-0.251	-0.353
-484.420	-200.000	-0.001	0.465
-483.405	-200.000	-0.005	0.099
-482.391	-200.000	-0.004	0.194
-481.376	161.645	-0.142	-0.202
-480.362	91.889	0.252	-0.287
-479.347	30.335	0.106	0.092
-478.332	-200.000	-0.031	-0.149
-477.318	370.681	-0.032	-0.065
-476.303	4.065	0.286	-0.212
-475.289	800.000	0.084	-0.284
-474.274	308.034	0.038	-0.071
-473.259	-200.000	0.034	-0.200
-472.245	-200.000	0.017	0.155
-471.230	200.359	-0.046	0.072
-470.216	-66.522	-0.215	-0.086
-469.201	91.057	0.093	0.105
-468.186	-125.804	-0.147	0.022
-467.172	39.762	-0.285	0.258
-466.157	-200.000	-0.021	-0.176
-465.143	-200.000	-0.053	-0.316
-464.128	-200.000	-0.025	0.253
-463.113	9.516	-0.081	-0.062
-462.099	800.000	0.063	0.193
-461.084	-117.944	-0.315	-0.057
-460.070	-33.824	-0.094	0.052
-459.055	-56.001	-0.037	0.017
-458.040	-200.000	-0.015	0.169
-457.026	-51.823	0.278	-0.131
-456.011	-69.684	0.082	-0.032
-454.997	203.028	0.236	0.370
-453.982	103.816	0.146	0.174
-452.968	343.777	-0.094	0.186
-451.953	-200.000	-0.003	-0.114
-450.938	-174.862	0.098	0.003
-449.924	-151.609	0.089	-0.007
-448.909	-99.076	-0.170	0.043
-447.895	-200.000	0.065	-0.396
-446.880	74.065	-0.099	-0.105
-445.865	308.178	0.143	0.270
-444.851	71.662	-0.260	0.273
-443.836	166.778	0.032	0.046
-442.822	29.640	-0.159	0.137
-441.807	800.000	-0.094	0.277
-440.792	-200.000	-0.005	0.184
-439.778	52.305	0.019	0.018
-438.763	800.000	-0.090	-0.331
-437.749	265.204	0.155	-0.273
-436.734	800.000	-0.044	0.193
-435.719	-89.262	0.148	-0.044
-434.705	-111.873	-0.101	-0.021
-433.690	800.000	0.009	0.041
-432.676	21.132	0.221	-0.181
-431.661	-200.000	-0.031	0.217
-430.646	-71.622	0.127	0.048
-429.632	-50.873	0.247	0.117
-428.617	408.595	0.100	0.213
-427.603	37.163	0.189	0.169
-426.588	211.703	0.172	-0.274
-425.573	-77.535	0.136	0.048
-424.559	204.510	-0.042	-0.066
-423.544	86.091	-0.030	0.033
-422.530	-200.000	0.092	-0.468
-421.515	120.947	0.052	0.065
-420.500	-170.516	-0.257	0.009
-419.486	-200.000	0.013	0.070
-418.471	-158.353	0.465	-0.027
-417.457	-23.005	-0.069	0.042
-416.442	133.152	-0.199	0.259
-415.428	132.089	-0.055	-0.072
-414.413	476.091	0.055	-0.125
-413.398	-200.000	0.096	0.550
-412.384	800.000	0.017	-0.050
-411.369	286.991	0.135	0.247
-410.355	-43.872	0.085	0.043
-409.340	-200.000	-0.025	-0.242
-408.325	107.165	0.096	-0.115
-407.311	351.719	0.064	-0.127
-406.296	-20.294	0.126	-0.078
-405.282	58.001	-0.210	-0.208
-404.267	21.334	-0.125	-0.102
-403.252	-29.659	-0.145	-0.084
-402.238	-161.344	0.191	-0.010
-401.223	-110.499	0.535	-0.112
-400.209	800.000	0.064	-0.207
-399.194	63.870	0.138	-0.140
-398.179	-137.341	0.172	0.020
-397.165	-29.430	0.395	-0.228
-396.150	-134.361	0.229	-0.028
-395.136	-200.000	-0.005	-0.023
-394.121	438.299	0.195	0.429
-393.106	-141.355	0.012	0.001
-392.092	281.378	-0.081	0.147
-391.077	-200.000	-0.011	-0.166
-390.063	251.243	0.110	-0.189
-389.048	-115.975	-0.308	-0.058
-388.033	-84.877	0.087	-0.028
-387.019	20.780	-0.102	-0.083
-386.004	-82.374	-0.190	0.062
-384.990	-131.409	-0.122	0.016
-383.975	43.256	-0.133	0.122
-382.960	12.342	0.196	0.152
-381.946	-60.280	-0.366	0.157
-380.931	-153.306	-0.312	0.022
-379.917	-67.000	0.321	-0.128
-378.902	92.243	-0.073	0.083
-377.888	448.022	0.114	0.254
-376.873	800.000	0.038	-0.107
-375.858	-200.000	-0.063	-0.398
-374.844	-200.000	-0.016	0.330
-373.829	-200.000	0.066	0.305
-372.815	800.000	0.018	0.068
-371.800	-78.486	0.171	0.059
-370.785	-132.245	0.164	0.021
-369.771	-200.000	-0.033	-0.412
-368.756	-33.137	-0.143	-0.080
-367.742	-200.000	0.032	-0.203
-366.727	-120.551	-0.330	0.056
-365.712	-200.000	0.024	0.242
-364.698	-50.351	-0.216	0.103
-363.683	-92.367	-0.031	0.009
-362.669	-145.534	0.253	0.023
-361.654	-88.995	0.238	-0.071
-360.639	17.561	0.050	0.040
-359.625	-56.012	-0.139	-0.062
-358.610	378.636	-0.116	0.238
-357.596	308.676	-0.130	0.245
-356.581	26.992	-0.141	-0.119
-355.566	-176.546	-0.132	-0.003
-354.552	-178.801	0.149	0.003
-353.537	-200.000	-0.001	0.024
-352.523	2.710	0.321	-0.235
-351.508	-131.427	0.131	0.017
-350.493	279.702	0.145	-0.262
-349.479	-112.914	0.065	0.013
-348.464	101.435	0.140	0.164
-347.450	800.000	0.030	-0.099
-346.435	-51.389	-0.082	0.039
-345.420	-173.838	-0.289	-0.009
-344.406	-200.000	0.005	-0.073
-343.391	29.849	0.228	0.196
-342.377	-74.526	0.127	0.046
-341.362	800.000	0.039	0.117
-340.348	-61.914	0.112	-0.047
-339.333	142.359	0.056	0.074
-338.318	77.538	-0.078	-0.083
-337.304	-51.213	0.374	-0.176
-336.289	222.152	0.136	-0.221
-335.275	82.959	-0.115	-0.126
-334.260	224.895	-0.061	-0.099
-333.245	40.251	-0.134	-0.121
-332.231	-200.000	0.016	0.134
-331.216	387.703	0.108	-0.224
-330.202	115.976	-0.157	-0.193
-329.187	682.439	0.085	0.222
-328.172	3.114	0.187	-0.137
-327.158	213.621	-0.224	-0.357
-326.143	5.610	-0.276	-0.205
-325.129	-117.223	0.287	0.053
-324.114	116.263	-0.072	-0.088
-323.099	-33.440	0.049	0.027
-322.085	34.985	-0.337	0.297
-321.070	10.260	0.366	0.280
-320.056	-31.845	0.116	0.065
-319.041	-38.207	0.125	0.067
-318.026	-54.466	0.221	0.101
-317.012	-55.821	-0.185	-0.083
-315.997	62.276	0.016	0.016
-314.983	-133.301	-0.067	-0.008
-313.968	-91.397	0.386	-0.111
-312.953	172.132	-0.291	0.421
-311.939	70.168	0.206	0.214
-310.924	-53.852	-0.121	0.056
-309.910	-129.191	-0.356	-0.050
-308.895	-75.531	0.109	-0.039
-307.880	259.899	-0.107	-0.186
-306.866	-73.941	0.352	0.128
-305.851	-96.831	-0.273	0.072
-304.837	-102.167	-0.169	0.041
-303.822	36.344	-0.155	-0.137
-302.807	-200.000	0.012	-0.272
-301.793	-116.768	0.170	-0.031
-300.778	-200.000	-0.030	0.191
-299.764	244.054	0.051	-0.087
-298.749	800.000	0.068	0.211
-297.735	-20.702	-0.102	0.063
-296.720	558.774	0.058	0.140
-295.705	-28.761	0.236	0.136
-294.691	126.795	-0.191	0.243
-293.676	0.410	-0.402	-0.289
-292.662	79.543	-0.071	-0.077
-291.647	-200.000	-0.024	-0.110
-290.632	-200.000	-0.033	-0.471
-289.618	-199.325	0.082	-0.000
-288.603	-115.518	-0.075	-0.014
-287.589	-46.947	0.349	-0.171
-286.574	-200.000	-0.015	0.239
-285.559	-145.457	0.253	-0.023
-284.545	299.557	-0.210	-0.388
-283.530	68.348	0.259	-0.266
-282.516	-149.290	0.215	-0.017
-281.501	-168.796	0.478	0.018
-280.486	800.000	-0.072	-0.286
-279.472	-146.076	0.126	0.011
-278.457	-200.000	-0.038	0.322
-277.443	-39.660	0.127	0.066
-276.428	279.572	-0.100	0.179
-275.413	800.000	0.030	-0.107
-274.399	-177.190	0.213	0.005
-273.384	29.864	0.047	0.040
-272.370	100.199	-0.053	0.061
-271.355	800.000	0.078	0.307
-270.340	-200.000	-0.011	-0.291
-269.326	-200.000	0.006	0.079
-268.311	-78.877	-0.086	0.029
-267.297	-124.277	-0.252	0.040
-266.282	80.311	0.199	0.216
-265.267	1.642	-0.215	-0.156
-264.253	-86.464	-0.113	-0.035
-263.238	-200.000	-0.022	0.155
-262.224	-88.502	0.188	-0.056
-261.209	-200.000	-0.026	-0.117
-260.195	-121.532	0.561	-0.093
-259.180	96.236	-0.069	-0.079
-258.165	-200.000	0.029	-0.347
-257.151	-200.000	-0.003	-0.304
-256.136	608.694	-0.125	0.314
-255.122	606.201	0.081	0.202
-254.107	-136.283	0.312	0.036
-253.092	-200.000	0.009	0.155
-252.078	143.578	-0.058	0.077
-251.063	98.091	0.194	0.224
-250.049	-200.000	0.066	-0.293
-249.034	309.080	0.160	-0.300
-248.019	40.150	-0.190	-0.171
-247.005	64.776	0.090	0.091
-245.990	89.788	-0.120	0.135
-244.976	-200.000	-0.006	-0.040
-243.961	-34.723	0.129	0.071
-242.946	339.312	-0.042	0.081
-241.932	27.808	0.309	-0.261
-240.917	19.157	0.298	0.239
-239.903	800.000	-0.016	0.050
-238.888	14.994	0.262	-0.206
-237.873	664.281	0.086	-0.221
-236.859	-112.726	-0.069	-0.014
-235.844	87.605	-0.033	-0.037
-234.830	-200.000	0.008	-0.117
-233.815	5.773	0.217	-0.161
-232.800	727.782	-0.074	-0.197
-231.786	-194.428	0.127	0.001
-230.771	20.607	-0.069	-0.056
-229.757	102.709	-0.059	-0.069
-228.742	-122.614	0.292	-0.047
-227.727	-67.832	0.255	-0.100
-226.713	-100.366	0.268	0.067
-225.698	23.264	0.138	0.114
-224.684	-86.955	-0.337	-0.103
-223.669	107.979	0.046	-0.055
-222.655	-128.810	-0.167	-0.024
-221.640	1.695	-0.329	0.238
-220.625	-46.692	0.079	-0.039
-219.611	13.987	0.058	-0.045
-218.596	800.000	-0.045	-0.164
-217.582	800.000	0.040	-0.143
-216.567	-156.253	-0.245	-0.015
-215.552	800.000	-0.067	0.205
-214.538	-143.510	0.137	-0.013
-213.523	38.544	0.187	0.167
-212.509	787.812	-0.116	-0.318
-211.494	-1.123	-0.323	-0.229
-210.479	445.315	-0.037	0.080
-209.465	101.460	0.228	-0.266
-208.450	-39.859	0.123	0.065
-207.436	256.345	0.138	0.237
-206.421	-101.060	-0.236	-0.058
-205.406	-120.002	0.135	-0.023
-204.392	157.935	-0.216	0.300
-203.377	-69.269	-0.265	0.102
-202.363	-200.000	-0.001	0.138
-201.348	435.047	0.063	0.136
-200.333	-84.091	-0.380	0.121
-199.319	-200.000	-0.001	0.030
-198.304	-34.383	-0.222	0.122
-197.290	-50.890	0.178	0.084
-196.275	-138.736	-0.395	-0.043
-195.260	-74.307	0.124	-0.045
-194.246	-12.133	0.111	-0.073
-193.231	88.134	-0.173	0.193
-192.217	-121.716	-0.500	0.083
-191.202	-47.174	0.051	-0.025
-190.187	800.000	-0.060	-0.173
-189.173	-57.143	0.361	-0.159
-188.158	-42.707	-0.273	0.139
-187.144	-10.129	-0.190	0.126
-186.129	145.244	0.217	0.290
-185.114	-85.461	-0.448	0.140
-184.100	348.114	-0.118	0.233
-183.085	-133.426	-0.158	-0.020
-182.071	-200.000	-0.023	0.119
-181.056	-37.375	-0.250	-0.133
-180.042	-200.000	-0.026	-0.272
-179.027	-89.100	0.390	0.115
-178.012	-200.000	-0.000	0.087
-176.998	148.580	-0.151	0.204
-175.983	29.429	-0.014	-0.012
-174.969	-88.727	-0.166	0.049
-173.954	196.112	-0.102	0.156
-172.939	-200.000	0.020	0.282
-171.925	64.870	0.342	0.346
-170.910	-53.954	-0.327	0.149
-169.896	-200.000	-0.031	-0.190
-168.881	-94.449	-0.261	0.071
-167.866	-200.000	0.037	-0.299
-166.852	-68.450	-0.301	-0.117
-165.837	11.316	0.042	-0.032
-164.823	572.328	0.071	0.173
-163.808	-106.438	-0.356	0.080
-162.793	-106.190	-0.221	0.050
-161.779	-156.536	-0.098	0.006
-160.764	-65.401	0.246	-0.099
-159.750	315.865	-0.069	-0.130
-158.735	32.885	0.311	-0.269
-157.720	-45.971	-0.249	0.123
-156.706	800.000	-0.075	-0.262
-155.691	245.960	0.129	0.217
-154.677	17.140	-0.223	-0.177
-153.662	800.000	0.020	-0.080
-152.647	403.521	0.106	-0.223
-151.633	800.000	0.119	-0.350
-150.618	402.546	0.060	0.126
-149.604	-178.108	0.200	-0.005
-148.589	-8.448	0.297	0.199
-147.574	-92.274	-0.387	-0.109
-146.560	119.219	-0.139	0.172
-145.545	-200.000	-0.057	-0.608
-144.531	800.000	0.056	-0.171
-143.516	128.979	0.093	-0.119
-142.502	345.449	-0.139	-0.272
-141.487	-200.000	-0.003	-0.139
-140.472	800.000	0.075	0.247
-139.458	800.000	0.046	0.171
-138.443	-1.128	-0.288	-0.203
-137.429	-134.056	0.306	-0.038
-136.414	200.821	-0.024	-0.037
-135.399	800.000	-0.049	0.157
-134.385	39.356	-0.272	0.243
-133.370	-102.578	0.112	0.027
-132.356	-107.472	0.147	0.032
-131.341	-116.395	0.025	-0.005
-130.326	55.692	-0.070	-0.068
-129.312	800.000	0.104	-0.290
-128.297	40.717	-0.191	-0.172
-127.283	15.142	0.053	0.041
-126.268	70.425	-0.068	-0.070
-125.253	448.019	-0.167	-0.367
-124.239	-77.858	0.240	0.083
-123.224	-200.000	0.010	0.083
-122.210	220.756	0.160	0.256
