DTS Sentinel unit serial number:	SN413079Multiplexer serial number:	ORYXHardware model number:	OX4-SRSoftware version number:	ORYX F/W v4.00 Oryx Data Collector v3.7.2.0data status	okinstallation	princeton_trtdifferential loss correction	single-endedforward channel	channel 1reverse channel	N/Adate	2019/09/17time	19:10:35forward acquisition time	60.00reverse acquisition time	0.00gamma	496.2192k internal	0.2297k external	0.2297temperature offset calibration	0.9974default loss term (dB/km)	0.3790temperature slope calibration	1.0000multiplexer offset coefficient	1.0000multiplexer slope coefficient	1.0000fibre end	0.00T internal ref (°C)	39.31T ext. ref 1 (°C)	0.27T ext. ref 2 (°C)	27.50length (m)	temperature (°C)	Stokes	anti-Stokes-747.200	-78.500	0.138	-0.048
-746.185	442.049	-0.106	0.236
-745.171	487.410	-0.109	-0.253
-744.156	800.000	0.063	0.272
-743.142	724.420	0.108	0.294
-742.127	-21.806	-0.302	0.187
-741.112	486.172	-0.084	0.196
-740.098	76.237	-0.019	-0.020
-739.083	-9.406	0.291	-0.198
-738.069	-200.000	0.013	0.195
-737.054	-189.743	-0.141	0.002
-736.039	-71.084	-0.134	0.052
-735.025	-109.912	0.308	-0.066
-734.010	-200.000	0.001	-0.280
-732.996	-200.000	-0.048	-0.403
-731.981	12.213	-0.273	-0.214
-730.966	331.497	0.135	-0.265
-729.952	-77.553	-0.187	0.066
-728.937	-39.206	-0.279	-0.150
-727.923	-200.000	0.032	-0.148
-726.908	800.000	-0.065	-0.206
-725.894	48.540	-0.145	0.139
-724.879	119.133	0.204	-0.258
-723.864	-101.225	0.164	-0.041
-722.850	-76.687	-0.181	-0.065
-721.835	-64.156	0.185	-0.077
-720.821	-181.706	0.205	0.004
-719.806	-200.000	-0.035	-0.340
-718.791	-200.000	0.024	-0.246
-717.777	6.461	0.152	-0.115
-716.762	-105.162	-0.038	-0.009
-715.748	55.529	0.050	-0.050
-714.733	271.461	-0.142	-0.255
-713.718	119.043	-0.306	-0.386
-712.704	87.364	-0.100	0.113
-711.689	-19.655	0.125	-0.079
-710.675	-181.093	-0.182	-0.004
-709.660	-200.000	0.032	-0.490
-708.645	-130.238	0.165	-0.023
-707.631	10.342	0.039	0.031
-706.616	-167.657	-0.169	0.007
-705.602	430.914	-0.147	0.325
-704.587	-80.813	-0.294	-0.099
-703.572	-30.547	0.367	-0.212
-702.558	-200.000	0.063	-0.329
-701.543	-54.149	-0.175	-0.081
-700.529	-112.317	-0.083	-0.017
-699.514	67.695	-0.240	-0.250
-698.499	91.026	0.090	0.103
-697.485	485.298	-0.109	-0.254
-696.470	-16.749	0.300	0.193
-695.456	501.996	-0.117	0.276
-694.441	-200.000	0.058	0.403
-693.426	-4.619	0.294	0.207
-692.412	-125.035	-0.300	-0.047
-691.397	-98.553	0.285	-0.074
-690.383	-94.117	-0.257	-0.072
-689.368	145.298	-0.162	-0.221
-688.354	800.000	-0.059	0.171
-687.339	-91.090	0.236	-0.069
-686.324	-200.000	-0.032	0.203
-685.310	277.980	0.098	-0.177
-684.295	-200.000	0.022	0.212
-683.281	-136.686	0.320	0.038
-682.266	800.000	-0.026	0.090
-681.251	800.000	0.088	-0.294
-680.237	800.000	-0.082	0.362
-679.222	-200.000	-0.050	-0.476
-678.208	-118.845	0.208	0.037
-677.193	-200.000	-0.014	0.191
-676.178	-74.043	0.256	0.094
-675.164	421.787	-0.109	-0.238
-674.149	122.578	0.025	0.032
-673.135	-114.905	0.251	-0.049
-672.120	-199.844	0.287	-0.001
-671.105	-22.848	-0.110	-0.068
-670.091	-87.785	-0.102	0.031
-669.076	262.599	0.186	0.328
-668.062	-41.773	-0.261	-0.137
-667.047	-131.595	0.176	0.024
-666.032	263.031	0.045	-0.079
-665.018	-51.804	-0.332	-0.158
-664.003	-138.508	-0.298	0.033
-662.989	-151.967	0.169	-0.013
-661.974	-74.377	0.141	-0.052
-660.959	-25.801	0.142	-0.085
-659.945	-200.000	-0.027	0.229
-658.930	210.411	-0.121	0.193
-657.916	-141.558	-0.232	0.024
-656.901	-86.697	0.048	0.015
-655.886	-24.806	-0.271	-0.164
-654.872	7.120	0.340	0.258
-653.857	208.112	0.044	0.070
-652.843	-102.925	0.080	0.019
-651.828	101.244	-0.224	0.265
-650.814	12.290	-0.080	0.063
-649.799	48.107	-0.216	0.205
-648.784	121.428	-0.137	-0.173
-647.770	-126.662	0.151	0.023
-646.755	-200.000	0.028	0.140
-645.741	211.225	-0.091	0.146
-644.726	-200.000	0.041	0.183
-643.711	800.000	-0.083	0.267
-642.697	786.803	-0.133	-0.371
-641.682	-151.416	-0.146	0.011
-640.668	8.066	0.123	0.094
-639.653	-8.081	0.475	-0.326
-638.638	-134.189	0.085	-0.011
-637.624	47.716	-0.116	-0.110
-636.609	-1.966	0.125	0.090
-635.595	64.329	-0.013	-0.014
-634.580	-33.916	-0.204	-0.114
-633.565	-49.400	-0.128	-0.062
-632.551	-200.000	0.015	-0.329
-631.536	-113.980	-0.289	0.057
-630.522	501.679	-0.137	-0.322
-629.507	-115.730	0.389	-0.074
-628.492	-57.197	-0.067	-0.030
-627.478	-113.381	-0.363	0.072
-626.463	-130.891	-0.105	-0.014
-625.449	-111.358	0.476	0.099
-624.434	599.750	0.183	-0.461
-623.419	255.057	-0.098	-0.170
-622.405	-111.985	0.121	-0.025
-621.390	798.550	0.084	-0.234
-620.376	8.684	-0.286	-0.219
-619.361	-200.000	0.288	-0.001
-618.346	25.690	0.209	-0.177
-617.332	-16.017	-0.215	0.139
-616.317	-80.504	-0.373	0.126
-615.303	90.797	0.117	0.133
-614.288	135.391	0.151	-0.200
-613.273	-200.000	-0.027	0.258
-612.259	-179.789	0.139	0.003
-611.244	-93.985	-0.147	-0.041
-610.230	800.000	-0.024	0.095
-609.215	61.787	0.074	0.075
-608.201	-150.231	-0.137	0.011
-607.186	10.512	0.257	-0.199
-606.171	255.800	0.064	0.111
-605.157	55.067	-0.102	-0.100
-604.142	-90.172	0.278	0.082
-603.128	-140.238	-0.339	0.036
-602.113	349.325	0.088	0.177
-601.098	-82.734	-0.237	-0.078
-600.084	-24.859	-0.183	-0.110
-599.069	55.363	0.061	0.059
-598.055	3.171	0.039	-0.029
-597.040	-91.041	0.274	-0.080
-596.025	386.183	-0.091	0.191
-595.011	172.661	-0.156	-0.227
-593.996	-73.193	-0.158	0.059
-592.982	106.322	0.087	0.105
-591.967	351.604	-0.057	0.114
-590.952	-200.000	0.012	0.272
-589.938	-122.037	0.207	-0.035
-588.923	69.141	0.126	0.131
-587.909	-200.000	-0.007	0.031
-586.894	50.955	-0.117	-0.112
-585.879	-60.757	0.171	0.073
-584.865	278.937	-0.070	-0.127
-583.850	-200.000	-0.009	-0.072
-582.836	-142.865	-0.381	0.038
-581.821	-112.096	-0.226	-0.046
-580.806	96.092	-0.229	0.266
-579.792	800.000	0.049	0.167
-578.777	288.205	0.063	0.116
-577.763	800.000	-0.030	-0.122
-576.748	124.444	0.181	0.231
-575.733	116.703	-0.175	-0.218
-574.719	-200.000	0.050	-0.413
-573.704	-200.000	-0.027	-0.127
-572.690	800.000	0.019	-0.074
-571.675	89.969	0.277	-0.314
-570.661	-50.108	-0.055	0.026
-569.646	23.977	-0.044	-0.037
-568.631	371.683	-0.062	-0.127
-567.617	-50.282	0.459	-0.220
-566.602	-8.565	0.208	0.142
-565.588	165.576	-0.133	0.190
-564.573	170.279	-0.082	0.119
-563.558	-4.762	-0.112	0.078
-562.544	-32.257	-0.182	-0.103
-561.529	237.710	-0.129	0.218
-560.515	-94.038	0.254	-0.071
-559.500	165.532	0.214	-0.307
-558.485	-52.818	-0.135	0.063
-557.471	-135.953	-0.350	0.042
-556.456	30.643	-0.103	0.089
-555.442	-54.147	-0.074	-0.034
-554.427	800.000	0.036	-0.156
-553.412	-200.000	-0.017	0.239
-552.398	-136.116	0.106	0.013
-551.383	800.000	0.063	0.206
-550.369	255.314	0.062	0.107
-549.354	60.662	-0.147	-0.148
-548.339	15.750	0.056	0.044
-547.325	202.082	0.190	-0.297
-546.310	-200.000	-0.008	0.090
-545.296	563.319	0.075	-0.185
-544.281	5.263	0.077	-0.057
-543.266	146.250	-0.026	0.036
-542.252	39.631	0.106	0.096
-541.237	800.000	0.026	-0.074
-540.223	800.000	0.022	0.082
-539.208	220.292	-0.128	0.209
-538.193	-200.000	0.041	0.249
-537.179	-4.046	0.186	0.130
-536.164	-90.865	-0.229	-0.067
-535.150	-200.000	-0.005	-0.068
-534.135	377.058	-0.050	-0.104
-533.121	195.680	-0.101	-0.155
-532.106	241.941	-0.015	-0.025
-531.091	-134.370	0.321	0.040
-530.077	-48.625	-0.190	-0.093
-529.062	-43.374	-0.060	0.031
-528.048	84.852	0.271	0.301
-527.033	-196.181	0.305	0.002
-526.018	-200.000	0.044	0.308
-525.004	-108.470	0.088	-0.019
-523.989	-200.000	-0.010	-0.347
-522.975	-16.406	0.405	-0.260
-521.960	-200.000	0.000	-0.210
-520.945	-200.000	0.030	-0.145
-519.931	54.210	0.231	0.225
-518.916	55.642	0.047	-0.046
-517.902	-91.003	-0.121	-0.035
-516.887	-119.408	0.085	-0.015
-515.872	-32.491	-0.190	0.107
-514.858	-200.000	0.023	-0.301
-513.843	99.525	0.190	0.223
-512.829	-85.631	0.208	-0.065
-511.814	71.995	0.193	0.203
-510.799	46.369	-0.209	-0.196
-509.785	-144.249	-0.362	-0.034
-508.770	-148.366	-0.165	0.014
-507.756	-102.626	0.074	0.018
-506.741	-26.036	0.067	0.040
-505.726	-200.000	0.017	-0.241
-504.712	35.737	-0.277	-0.247
-503.697	-200.000	0.051	0.325
-502.683	49.904	-0.057	-0.055
-501.668	-9.039	0.095	-0.065
-500.653	51.594	0.024	-0.023
-499.639	282.195	-0.083	-0.150
-498.624	-24.077	-0.417	0.252
-497.610	-30.706	0.037	0.021
-496.595	54.364	0.361	0.352
-495.581	57.035	-0.305	-0.301
-494.566	-12.378	0.162	0.107
-493.551	-1.929	-0.215	-0.153
-492.537	-18.975	0.104	0.065
-491.522	800.000	0.101	-0.302
-490.508	763.700	0.086	-0.235
-489.493	601.776	0.109	-0.274
-488.478	12.074	0.194	-0.151
-487.464	22.112	0.036	-0.030
-486.449	129.102	0.076	0.098
-485.435	50.602	-0.075	-0.071
-484.420	200.723	-0.161	0.250
-483.405	-125.076	-0.202	-0.031
-482.391	56.733	0.170	-0.167
-481.376	-95.461	-0.319	-0.086
-480.362	800.000	0.051	0.171
-479.347	-91.178	-0.190	-0.055
-478.332	-164.919	0.094	0.004
-477.318	-200.000	0.013	-0.362
-476.303	-122.744	0.211	-0.035
-475.289	130.337	0.250	-0.324
-474.274	128.741	0.209	-0.270
-473.259	-4.204	0.266	-0.186
-472.245	39.510	0.139	-0.125
-471.230	-51.482	0.258	-0.122
-470.216	-14.607	-0.173	-0.112
-469.201	-96.089	0.201	0.054
-468.186	-10.513	0.059	0.039
-467.172	-200.000	-0.029	-0.434
-466.157	800.000	-0.110	-0.453
-465.143	446.051	-0.069	0.152
-464.128	49.348	-0.133	0.127
-463.113	-91.243	0.358	-0.104
-462.099	413.983	0.063	0.135
-461.084	-200.000	0.166	0.001
-460.070	87.851	0.223	0.249
-459.055	20.402	-0.153	-0.125
-458.040	82.286	-0.324	0.355
-457.026	231.300	0.068	-0.112
-456.011	-143.571	-0.319	0.031
-454.997	-58.620	0.137	0.060
-453.982	-71.051	-0.076	-0.029
-452.968	63.479	0.123	0.125
-451.953	-41.831	-0.119	0.062
-450.938	-200.000	-0.002	-0.272
-449.924	-200.000	-0.004	-0.059
-448.909	209.392	0.065	-0.102
-447.895	726.883	-0.085	0.229
-446.880	-62.076	-0.386	-0.163
-445.865	-200.000	0.027	-0.132
-444.851	-77.487	-0.184	0.064
-443.836	-200.000	0.011	-0.155
-442.822	-34.485	-0.232	0.128
-441.807	-57.752	-0.278	-0.123
-440.792	27.573	0.082	0.070
-439.778	800.000	0.017	0.062
-438.763	-30.034	-0.202	-0.116
-437.749	-200.000	0.030	-0.151
-436.734	-87.909	0.315	0.096
-435.719	209.996	0.201	0.319
-434.705	127.877	-0.135	-0.173
-433.690	89.468	0.249	-0.280
-432.676	-102.786	0.150	0.036
-431.661	-191.134	-0.321	-0.003
-430.646	153.809	0.120	0.166
-429.632	-49.360	-0.117	0.056
-428.617	-193.018	-0.048	-0.000
-427.603	339.084	-0.132	-0.260
-426.588	-129.667	0.227	-0.032
-425.573	171.381	-0.070	-0.102
-424.559	-140.677	0.203	-0.021
-423.544	-151.371	0.124	-0.009
-422.530	-46.451	0.082	-0.041
-421.515	136.403	-0.235	0.309
-420.500	-102.311	0.152	-0.037
-419.486	132.420	-0.185	-0.241
-418.471	-42.491	-0.482	0.248
-417.457	503.085	0.060	0.139
-416.442	800.000	-0.078	0.297
-415.428	577.164	0.047	0.117
-414.413	-141.610	-0.471	0.048
-413.398	-76.323	-0.154	-0.055
-412.384	3.355	-0.265	0.195
-411.369	-200.000	0.034	0.405
-410.355	-114.806	0.457	0.088
-409.340	207.786	-0.160	-0.252
-408.325	4.578	-0.307	-0.227
-407.311	800.000	0.102	-0.338
-406.296	115.974	0.138	0.171
-405.282	549.663	0.156	0.377
-404.267	114.478	0.031	0.038
-403.252	-200.000	0.011	0.432
-402.238	-76.699	-0.139	0.049
-401.223	212.436	0.266	0.423
-400.209	798.841	0.116	0.323
-399.194	50.009	-0.237	-0.225
-398.179	488.895	-0.040	-0.092
-397.165	608.311	0.103	-0.259
-396.150	-24.970	-0.271	-0.162
-395.136	-149.998	-0.048	0.004
-394.121	-150.564	-0.499	-0.038
-393.106	-130.267	0.281	0.039
-392.092	-200.000	0.027	-0.229
-391.077	220.944	-0.257	-0.415
-390.063	52.420	0.170	-0.163
-389.048	-29.237	-0.148	0.085
-388.033	-134.670	-0.092	0.011
-387.019	188.243	-0.127	0.192
-386.004	-200.000	-0.034	-0.164
-384.990	-142.391	0.264	0.026
-383.975	800.000	0.057	-0.183
-382.960	1.734	0.249	-0.180
-381.946	505.088	0.114	0.266
-380.931	38.254	-0.153	-0.137
-379.917	-200.000	0.032	-0.252
-378.902	-200.000	0.058	-0.364
-377.888	222.143	-0.043	-0.070
-376.873	19.289	0.116	0.094
-375.858	-149.118	0.214	0.017
-374.844	-136.427	-0.192	0.023
-373.829	-188.141	0.253	-0.003
-372.815	-21.248	-0.091	0.056
-371.800	-38.300	-0.221	0.118
-370.785	-200.000	0.020	0.208
-369.771	-77.313	0.072	0.025
-368.756	-200.000	0.004	0.102
-367.742	-103.497	0.089	0.021
-366.727	800.000	0.023	0.066
-365.712	150.665	-0.106	0.145
-364.698	-66.071	0.204	0.082
-363.683	-157.605	-0.521	-0.031
-362.669	27.587	-0.043	0.037
-361.654	-200.000	0.017	-0.170
-360.639	-200.000	-0.025	-0.148
-359.625	-200.000	-0.028	0.154
-358.610	-200.000	0.083	0.526
-357.596	38.804	-0.259	0.233
-356.581	13.572	0.066	0.051
-355.566	208.592	0.134	0.211
-354.552	152.032	-0.061	0.083
-353.537	58.405	0.192	-0.190
-352.523	-200.000	-0.005	0.023
-351.508	-103.277	-0.168	-0.040
-350.493	37.577	-0.080	-0.071
-349.479	800.000	0.095	0.319
-348.464	-200.000	0.021	0.334
-347.450	-200.000	-0.032	0.238
-346.435	47.626	0.233	-0.218
-345.420	-200.000	0.024	-0.113
-344.406	-132.773	0.245	-0.031
-343.391	143.303	0.185	-0.248
-342.377	-166.772	0.217	-0.009
-341.362	49.310	-0.309	0.292
-340.348	-200.000	-0.007	-0.293
-339.333	-68.452	0.339	-0.132
-338.318	800.000	0.094	0.288
-337.304	-15.062	-0.334	0.215
-336.289	171.994	-0.144	-0.208
-335.275	-13.842	-0.403	-0.262
-334.260	-35.477	-0.116	0.063
-333.245	717.115	0.096	0.256
-332.231	-106.963	-0.196	-0.044
-331.216	-200.000	-0.010	-0.389
-330.202	-84.794	0.143	0.045
-329.187	130.973	0.090	0.116
-328.172	-124.097	0.185	0.029
-327.158	124.681	-0.096	-0.122
-326.143	-86.478	-0.072	0.022
-325.129	-78.943	-0.373	-0.128
-324.114	-200.000	0.009	-0.074
-323.099	266.869	0.053	0.092
-322.085	-13.267	0.304	0.198
-321.070	-98.282	0.122	-0.031
-320.056	-200.000	0.038	-0.221
-319.041	-43.149	0.067	0.034
-318.026	-135.088	-0.387	0.047
-317.012	324.577	0.154	-0.296
-315.997	-200.000	0.005	0.029
-314.983	800.000	-0.051	0.197
-313.968	-151.011	0.284	-0.021
-312.953	131.312	0.045	0.059
-311.939	-122.452	0.065	-0.011
-310.924	-134.927	0.208	-0.025
-309.910	-200.000	0.000	0.271
-308.895	-200.000	0.010	0.346
-307.880	347.315	-0.078	0.155
-306.866	800.000	-0.028	0.092
-305.851	-200.000	0.016	0.208
-304.837	-106.947	0.108	-0.024
-303.822	-120.879	0.417	0.070
-302.807	-200.000	-0.008	-0.276
-301.793	37.956	0.225	-0.201
-300.778	-58.935	0.297	0.129
-299.764	144.565	0.204	-0.273
-298.749	-200.000	0.055	0.268
-297.735	-100.488	-0.137	-0.034
-296.720	-141.095	-0.285	0.029
-295.705	409.871	0.097	0.205
-294.691	800.000	0.055	0.164
-293.676	242.107	-0.145	0.243
-292.662	-2.410	0.221	-0.155
-291.647	156.163	-0.156	0.216
-290.632	-200.000	-0.029	0.222
-289.618	-200.000	-0.017	-0.181
-288.603	-200.000	0.029	-0.180
-287.589	270.606	-0.058	0.102
-286.574	-200.000	-0.014	-0.067
-285.559	-200.000	0.001	-0.258
-284.545	-69.871	-0.175	-0.067
-283.530	38.821	-0.209	0.187
-282.516	200.738	-0.121	-0.186
-281.501	-200.000	0.038	0.258
-280.486	78.859	-0.218	-0.234
-279.472	-30.784	0.347	-0.197
-278.457	-12.640	0.126	0.083
-277.443	-200.000	-0.003	-0.130
-276.428	273.953	0.055	0.098
-275.413	800.000	-0.050	0.158
-274.399	-184.015	-0.027	0.000
-273.384	-88.888	0.197	-0.058
-272.370	211.044	-0.058	0.092
-271.355	712.565	0.056	-0.149
-270.340	-200.000	0.012	0.192
-269.326	-36.030	-0.270	-0.146
-268.311	-46.998	-0.077	-0.038
-267.297	-94.769	-0.341	0.093
-266.282	209.149	0.268	0.421
-265.267	-109.562	-0.104	0.022
-264.253	-200.000	-0.007	-0.230
-263.238	-24.657	-0.112	0.067
-262.224	-200.000	0.036	-0.198
-261.209	-200.000	0.041	-0.365
-260.195	157.886	0.136	-0.189
-259.180	-200.000	-0.017	0.471
-258.165	-76.788	-0.243	0.085
-257.151	47.346	-0.238	0.222
-256.136	-174.764	-0.089	-0.003
-255.122	-129.372	0.127	-0.018
-254.107	-68.821	0.211	-0.082
-253.092	-89.386	0.080	0.024
-252.078	54.169	0.214	0.207
-251.063	-200.000	0.035	0.296
-250.049	-38.376	0.115	0.061
-249.034	-32.947	-0.129	-0.072
-248.019	-66.543	0.058	0.023
-247.005	-52.340	0.301	0.140
-245.990	88.025	0.213	0.237
-244.976	202.140	0.078	-0.120
-243.961	800.000	0.087	-0.317
-242.946	800.000	0.055	-0.202
-241.932	-27.562	-0.115	0.067
-240.917	-200.000	-0.001	0.108
-239.903	800.000	0.039	-0.120
-238.888	-147.074	-0.186	0.016
-237.873	86.235	0.127	0.140
-236.859	-136.661	0.157	0.018
-235.844	74.868	-0.155	0.163
-234.830	-200.000	-0.029	-0.383
-233.815	20.530	0.113	-0.091
-232.800	81.038	-0.141	-0.152
-231.786	-28.210	0.181	-0.104
-230.771	123.692	0.176	0.221
-229.757	107.151	0.217	0.258
-228.742	244.833	0.200	0.336
-227.727	800.000	0.039	-0.119
-226.713	-200.000	-0.035	0.266
-225.698	-64.078	-0.238	0.097
-224.684	64.762	-0.081	-0.081
-223.669	618.639	-0.067	-0.169
-222.655	-200.000	0.016	-0.314
-221.640	274.603	-0.138	0.244
-220.625	-120.518	0.384	-0.065
-219.611	36.356	0.135	-0.119
-218.596	-119.459	-0.382	0.066
-217.582	591.377	0.020	0.048
-216.567	-69.307	-0.130	0.050
-215.552	-200.000	0.033	-0.231
-214.538	-200.000	0.006	0.062
-213.523	-79.291	0.285	0.096
-212.509	63.144	0.203	-0.203
-211.494	107.002	-0.143	0.170
-210.479	718.617	-0.117	-0.310
-209.465	-94.615	-0.249	0.068
-208.450	-148.615	-0.039	0.003
-207.436	445.417	0.105	0.230
-206.421	14.726	-0.222	0.173
-205.406	272.643	-0.094	0.167
-204.392	-200.000	0.004	-0.255
-203.377	29.037	-0.252	-0.214
-202.363	-200.000	-0.078	0.371
-201.348	39.947	0.166	0.149
-200.333	-101.382	-0.434	0.106
-199.319	129.070	-0.041	-0.052
-198.304	-80.489	-0.163	0.054
-197.290	68.009	0.195	0.199
-196.275	-85.690	0.052	0.016
-195.260	11.240	0.138	0.105
-194.246	585.435	0.119	0.292
-193.231	-200.000	-0.002	-0.156
-192.217	-200.000	-0.003	0.113
-191.202	-29.669	0.100	0.057
-190.187	-112.040	0.096	-0.019
-189.173	-200.000	0.007	-0.136
-188.158	135.803	0.202	-0.263
-187.144	98.892	0.177	-0.204
-186.129	139.494	-0.353	0.465
-185.114	261.526	0.020	-0.034
-184.100	46.615	-0.080	0.074
-183.085	-10.903	0.198	0.131
-182.071	291.014	-0.015	-0.027
-181.056	21.681	0.155	0.126
-180.042	-177.342	0.341	-0.008
-179.027	-200.000	-0.003	0.228
-178.012	14.464	-0.186	0.145
-176.998	-156.639	-0.093	-0.006
-175.983	-124.558	-0.299	-0.046
-174.969	165.790	-0.201	-0.284
-173.954	695.966	0.060	-0.158
-172.939	450.539	-0.058	-0.129
-171.925	-149.298	-0.313	-0.025
-170.910	63.439	0.054	-0.054
-169.896	-35.617	-0.281	-0.152
-168.881	106.888	0.103	-0.122
-167.866	-25.962	-0.252	0.148
-166.852	800.000	-0.035	0.135
-165.837	69.236	-0.167	0.171
-164.823	128.606	0.132	0.167
-163.808	-101.662	0.057	0.014
-162.793	-6.397	0.094	0.064
-161.779	-25.805	-0.154	0.090
-160.764	-18.514	-0.289	-0.180
-159.750	-135.665	0.203	0.024
-158.735	-184.577	0.238	-0.004
-157.720	-102.462	0.210	0.050
-156.706	-63.773	-0.237	0.097
-155.691	43.748	-0.089	0.081
-154.677	108.521	-0.158	-0.188
-153.662	705.783	-0.045	-0.118
-152.647	618.600	-0.041	0.103
-151.633	-92.572	0.047	-0.013
-150.618	-7.325	-0.154	-0.104
-149.604	347.530	-0.013	0.026
-148.589	-98.463	0.256	0.065
-147.574	-27.394	0.216	-0.125
-146.560	-39.421	0.147	-0.077
-145.545	-139.251	0.384	0.041
-144.531	273.277	0.101	0.178
-143.516	568.089	0.050	0.121
-142.502	-83.847	-0.223	-0.071
-141.487	-21.745	0.189	-0.115
-140.472	-200.000	0.049	0.391
-139.458	800.000	-0.096	0.286
-138.443	800.000	0.059	-0.226
-137.429	-63.910	-0.249	0.101
-136.414	110.312	-0.171	-0.205
-135.399	-200.000	-0.067	0.328
-134.385	-145.856	-0.233	-0.021
-133.370	-200.000	0.022	0.118
-132.356	-168.101	0.506	0.020
-131.341	42.210	-0.198	0.180
-130.326	-150.797	0.290	-0.022
-129.312	-187.637	0.220	-0.003
-128.297	-25.284	-0.388	0.229
-127.283	186.245	-0.078	-0.116
-126.268	157.233	0.212	-0.292
-125.253	173.817	0.072	-0.104
-124.239	-54.427	-0.106	0.048
-123.224	-42.789	0.385	-0.195
-122.210	214.450	-0.102	0.162
-121.195	-200.000	0.001	0.027
