DTS Sentinel unit serial number:	SN413079Multiplexer serial number:	ORYXHardware model number:	OX4-SRSoftware version number:	ORYX F/W v4.00 Oryx Data Collector v3.7.2.0data status	okinstallation	princeton_trtdifferential loss correction	single-endedforward channel	channel 1reverse channel	N/Adate	2019/09/19time	09:06:35forward acquisition time	60.00reverse acquisition time	0.00gamma	496.2192k internal	0.2341k external	0.2341temperature offset calibration	1.0004default loss term (dB/km)	0.3790temperature slope calibration	1.0000multiplexer offset coefficient	1.0000multiplexer slope coefficient	1.0000fibre end	0.00T internal ref (°C)	21.73T ext. ref 1 (°C)	0.61T ext. ref 2 (°C)	18.77length (m)	temperature (°C)	Stokes	anti-Stokes-747.200	-148.223	0.229	-0.019
-746.185	800.000	-0.153	0.502
-745.171	-144.997	0.327	-0.030
-744.156	-200.000	0.020	0.160
-743.142	47.599	-0.159	-0.148
-742.127	32.759	-0.346	0.300
-741.112	171.714	-0.116	0.167
-740.098	-200.000	0.014	0.161
-739.083	83.829	-0.102	-0.111
-738.069	32.828	-0.114	0.099
-737.054	-145.900	0.219	0.019
-736.039	-147.424	-0.193	-0.016
-735.025	-167.059	0.568	0.023
-734.010	16.788	0.212	-0.168
-732.996	-84.214	-0.336	-0.107
-731.981	5.616	-0.290	-0.215
-730.966	800.000	0.043	0.140
-729.952	-200.000	-0.014	-0.111
-728.937	-117.433	0.213	-0.039
-727.923	800.000	-0.019	0.065
-726.908	-200.000	-0.009	-0.157
-725.894	452.193	0.077	-0.171
-724.879	89.567	0.070	-0.078
-723.864	800.000	0.048	-0.142
-722.850	-17.606	-0.030	0.019
-721.835	-200.000	-0.020	0.238
-720.821	-0.703	-0.073	-0.052
-719.806	254.910	-0.058	0.100
-718.791	-200.000	0.062	-0.291
-717.777	800.000	-0.040	0.118
-716.762	78.968	-0.190	0.204
-715.748	768.696	0.024	-0.065
-714.733	-15.291	0.237	-0.152
-713.718	152.915	-0.057	-0.078
-712.704	-90.754	0.183	0.053
-711.689	506.715	0.094	-0.219
-710.675	-50.828	-0.397	0.187
-709.660	-76.953	0.150	0.053
-708.645	-200.000	0.048	-0.229
-707.631	800.000	0.114	0.363
-706.616	-100.735	0.274	-0.068
-705.602	-31.519	-0.208	-0.117
-704.587	-113.194	0.125	0.025
-703.572	17.000	-0.116	0.092
-702.558	800.000	-0.017	0.067
-701.543	60.758	-0.050	0.050
-700.529	-55.266	-0.315	-0.141
-699.514	150.608	0.173	-0.235
-698.499	204.702	0.140	-0.218
-697.485	-200.000	0.013	-0.329
-696.470	-21.960	-0.233	0.142
-695.456	671.823	0.062	-0.161
-694.441	800.000	0.033	-0.096
-693.426	-200.000	-0.044	-0.331
-692.412	800.000	0.115	0.451
-691.397	-200.000	0.008	0.178
-690.383	31.590	0.254	0.219
-689.368	611.002	-0.090	-0.226
-688.354	-96.785	0.452	0.119
-687.339	16.381	0.176	-0.139
-686.324	383.995	-0.097	-0.200
-685.310	-200.000	-0.005	-0.192
-684.295	-130.211	-0.199	-0.027
-683.281	800.000	0.022	0.087
-682.266	-105.348	-0.340	-0.077
-681.251	-200.000	-0.022	0.106
-680.237	-46.242	-0.325	-0.160
-679.222	-200.000	-0.014	-0.212
-678.208	218.205	-0.149	-0.238
-677.193	-21.487	0.119	0.072
-676.178	543.104	0.007	0.018
-675.164	-28.589	-0.248	-0.143
-674.149	-24.129	-0.171	-0.102
-673.135	-81.529	-0.287	-0.094
-672.120	800.000	-0.048	0.176
-671.105	-95.910	-0.300	-0.080
-670.091	-71.459	0.123	0.046
-669.076	-42.323	-0.392	-0.200
-668.062	800.000	-0.119	0.411
-667.047	-37.692	0.238	0.126
-666.032	355.124	-0.189	0.375
-665.018	91.076	-0.126	0.141
-664.003	-148.615	-0.028	0.002
-662.989	-200.000	0.014	0.094
-661.974	-200.000	0.006	0.149
-660.959	-9.110	-0.065	0.044
-659.945	-200.000	-0.009	-0.078
-658.930	-200.000	-0.063	-0.331
-657.916	230.458	0.097	-0.158
-656.901	-105.052	0.438	-0.100
-655.886	-200.000	-0.052	-0.310
-654.872	-118.964	-0.104	0.018
-653.857	800.000	-0.020	-0.084
-652.843	126.908	0.096	-0.122
-651.828	-78.162	0.144	-0.049
-650.814	45.044	0.175	0.161
-649.799	800.000	-0.075	-0.209
-648.784	-200.000	0.043	-0.000
-647.770	-39.390	-0.263	-0.138
-646.755	384.307	0.156	-0.321
-645.741	-78.925	0.062	-0.021
-644.726	323.978	-0.148	-0.282
-643.711	-87.264	0.106	0.032
-642.697	-200.000	-0.026	-0.169
-641.682	702.569	-0.108	0.285
-640.668	-48.260	0.356	0.171
-639.653	302.388	0.074	0.137
-638.638	-200.000	0.024	-0.268
-637.624	-14.755	0.283	-0.181
-636.609	-92.626	-0.392	-0.110
-635.595	406.492	-0.133	0.280
-634.580	-144.516	-0.131	0.012
-633.565	-99.255	0.220	-0.056
-632.551	-121.226	0.090	0.015
-631.536	227.201	-0.210	-0.340
-630.522	116.923	0.090	-0.110
-629.507	224.796	0.033	0.053
-628.492	-135.108	-0.112	-0.013
-627.478	-147.555	0.110	0.009
-626.463	28.849	0.099	-0.084
-625.449	106.224	0.106	0.125
-624.434	453.076	-0.197	-0.435
-623.419	-95.596	-0.034	-0.009
-622.405	-41.947	-0.273	-0.139
-621.390	-200.000	0.076	0.334
-620.376	800.000	0.068	0.246
-619.361	-10.781	-0.171	0.112
-618.346	800.000	0.165	-0.541
-617.332	-124.950	-0.281	0.043
-616.317	-72.687	0.148	0.054
-615.303	130.864	-0.164	-0.209
-614.288	-200.000	0.021	-0.266
-613.273	-83.616	-0.214	-0.068
-612.259	-149.569	-0.105	0.008
-611.244	16.406	0.214	-0.168
-610.230	-200.000	0.001	-0.334
-609.215	192.163	0.056	-0.084
-608.201	402.225	0.032	-0.066
-607.186	40.103	-0.328	0.294
-606.171	-102.819	0.276	0.066
-605.157	-117.325	-0.187	0.034
-604.142	41.111	0.162	0.146
-603.128	800.000	-0.091	0.268
-602.113	-63.012	0.138	-0.057
-601.098	-104.291	0.159	0.037
-600.084	-83.247	0.077	-0.025
-599.069	-91.875	-0.179	-0.051
-598.055	-181.979	-0.073	-0.001
-597.040	383.351	-0.129	0.264
-596.025	98.691	0.190	0.218
-595.011	-0.824	0.150	-0.106
-593.996	-44.489	-0.184	0.091
-592.982	-200.000	0.105	0.625
-591.967	-188.287	0.192	-0.002
-590.952	-200.000	-0.028	-0.457
-589.938	800.000	-0.039	-0.128
-588.923	94.311	-0.198	-0.224
-587.909	-200.000	0.026	-0.210
-586.894	-83.445	0.148	-0.047
-585.879	-75.684	-0.238	0.084
-584.865	75.391	-0.196	-0.206
-583.850	-13.254	-0.101	0.065
-582.836	255.093	-0.100	-0.170
-581.821	-81.030	-0.341	-0.112
-580.806	-81.349	-0.240	-0.079
-579.792	574.221	0.055	-0.135
-578.777	-200.000	-0.016	-0.152
-577.763	-29.296	0.573	0.327
-576.748	-116.721	0.098	-0.018
-575.733	430.707	0.115	-0.248
-574.719	-74.902	0.139	-0.049
-573.704	380.243	-0.074	-0.151
-572.690	800.000	-0.114	-0.344
-571.675	800.000	-0.035	0.114
-570.661	53.027	0.163	0.155
-569.646	-48.666	-0.106	0.051
-568.631	271.280	-0.120	-0.211
-567.617	-109.568	-0.235	0.049
-566.602	-5.275	0.187	0.128
-565.588	693.229	-0.034	0.089
-564.573	-23.358	-0.269	-0.161
-563.558	800.000	0.095	-0.271
-562.544	-38.424	-0.088	0.046
-561.529	215.604	-0.128	-0.203
-560.515	107.692	-0.104	-0.123
-559.500	800.000	-0.083	0.294
-558.485	85.297	0.263	-0.288
-557.471	-200.000	-0.029	-0.144
-556.456	-200.000	0.016	-0.223
-555.442	-114.254	0.149	-0.029
-554.427	-200.000	0.007	-0.237
-553.412	160.182	-0.053	0.074
-552.398	-53.607	-0.120	-0.055
-551.383	101.040	-0.133	0.154
-550.369	-134.859	0.123	-0.015
-549.354	-55.774	-0.347	-0.154
-548.339	32.223	-0.195	0.168
-547.325	-124.994	0.164	0.025
-546.310	-200.000	-0.019	0.357
-545.296	106.038	-0.092	-0.108
-544.281	264.118	-0.148	-0.256
-543.266	5.572	-0.114	-0.084
-542.252	-86.310	-0.428	-0.131
-541.237	159.080	0.183	-0.253
-540.223	34.438	-0.137	-0.119
-539.208	40.000	-0.352	0.314
-538.193	129.733	-0.356	0.453
-537.179	800.000	0.119	0.388
-536.164	-22.889	0.129	-0.078
-535.150	-200.000	0.013	0.301
-534.135	-58.348	-0.178	0.077
-533.121	-5.074	0.459	-0.314
-532.106	239.848	-0.108	0.179
-531.091	800.000	-0.054	0.190
-530.077	-200.000	-0.004	0.106
-529.062	800.000	0.058	-0.196
-528.048	-112.754	-0.083	0.016
-527.033	-60.248	0.321	-0.136
-526.018	-160.673	-0.349	0.018
-525.004	-34.948	0.186	0.101
-523.989	117.334	0.150	-0.183
-522.975	-26.807	0.117	0.068
-521.960	-200.000	-0.003	-0.334
-520.945	-200.000	0.017	-0.142
-519.931	186.292	-0.142	-0.211
-518.916	692.162	-0.091	-0.237
-517.902	-107.990	0.093	-0.020
-516.887	7.189	0.291	0.216
-515.872	800.000	-0.026	-0.088
-514.858	53.917	0.104	0.099
-513.843	800.000	-0.055	0.204
-512.829	-200.000	-0.016	-0.160
-511.814	76.454	-0.238	0.250
-510.799	11.901	0.127	-0.097
-509.785	326.637	-0.051	-0.096
-508.770	443.697	0.135	0.294
-507.756	93.937	0.195	-0.219
-506.741	9.419	0.193	0.145
-505.726	130.774	0.238	-0.303
-504.712	361.226	-0.022	-0.044
-503.697	-37.368	0.062	0.033
-502.683	-45.919	-0.249	0.122
-501.668	40.982	0.324	0.291
-500.653	-118.339	-0.139	0.025
-499.639	-141.602	-0.097	-0.010
-498.624	-200.000	-0.012	-0.273
-497.610	800.000	0.007	0.023
-496.595	47.022	0.125	0.115
-495.581	636.033	0.064	-0.161
-494.566	800.000	-0.076	0.320
-493.551	185.912	-0.094	0.139
-492.537	800.000	-0.054	-0.176
-491.522	245.043	0.169	0.282
-490.508	-200.000	0.063	0.367
-489.493	-18.540	0.171	0.106
-488.478	-200.000	-0.046	-0.220
-487.464	-108.242	-0.270	0.058
-486.449	-146.983	0.142	-0.012
-485.435	24.898	0.172	-0.141
-484.420	-200.000	-0.009	0.173
-483.405	33.571	0.118	0.102
-482.391	-30.736	-0.246	-0.138
-481.376	-73.043	0.405	-0.147
-480.362	-34.297	-0.263	0.143
-479.347	411.442	-0.115	-0.243
-478.332	70.406	0.327	0.335
-477.318	-162.469	0.379	0.019
-476.303	726.923	0.120	0.316
-475.289	-31.090	0.215	0.121
-474.274	-18.402	0.203	-0.126
-473.259	-103.241	-0.290	0.068
-472.245	-103.851	0.118	0.027
-471.230	-44.845	0.202	0.100
-470.216	284.061	-0.164	0.293
-469.201	-82.077	-0.082	0.027
-468.186	-30.215	-0.277	0.156
-467.172	263.830	-0.073	0.126
-466.157	73.947	-0.145	-0.151
-465.143	488.918	-0.114	-0.257
-464.128	381.022	0.103	0.209
-463.113	92.187	0.193	0.216
-462.099	-200.000	0.014	0.060
-461.084	370.958	0.206	-0.414
-460.070	-57.540	-0.363	-0.158
-459.055	-46.091	-0.203	-0.099
-458.040	-49.291	-0.050	0.024
-457.026	59.255	0.232	-0.226
-456.011	166.791	-0.150	0.211
-454.997	-121.047	-0.245	-0.041
-453.982	547.676	-0.102	0.241
-452.968	800.000	0.012	0.045
-451.953	377.877	0.044	0.089
-450.938	31.681	-0.118	0.100
-449.924	-142.569	0.286	-0.028
-448.909	-168.833	-0.129	0.005
-447.895	-26.988	0.357	-0.206
-446.880	-90.178	-0.180	0.052
-445.865	-200.000	-0.081	0.410
-444.851	752.133	0.110	-0.295
-443.836	-130.961	-0.214	-0.028
-442.822	409.685	0.070	0.147
-441.807	352.494	-0.063	-0.123
-440.792	-200.000	0.020	0.101
-439.778	-149.683	0.317	0.025
-438.763	800.000	0.063	-0.186
-437.749	-73.602	0.193	-0.070
-436.734	-99.361	-0.171	0.043
-435.719	-200.000	-0.030	0.187
-434.705	-200.000	-0.005	0.077
-433.690	-82.128	0.259	-0.084
-432.676	27.940	0.286	-0.239
-431.661	51.105	-0.005	-0.005
-430.646	77.662	0.257	0.271
-429.632	-200.000	-0.006	0.289
-428.617	-127.346	-0.205	0.030
-427.603	-200.000	-0.019	-0.118
-426.588	271.671	-0.252	0.439
-425.573	272.618	-0.150	-0.262
-424.559	-200.000	0.011	0.061
-423.544	-20.404	0.063	0.039
-422.530	-102.336	-0.190	0.045
-421.515	-10.318	0.163	0.107
-420.500	800.000	0.026	-0.108
-419.486	57.414	-0.302	0.292
-418.471	-200.000	0.003	0.056
-417.457	-200.000	-0.026	0.335
-416.442	63.875	0.208	-0.206
-415.428	104.277	0.269	-0.313
-414.413	-200.000	0.014	-0.136
-413.398	57.556	-0.094	-0.091
-412.384	0.829	-0.089	0.063
-411.369	-200.000	-0.019	0.112
-410.355	321.804	-0.226	-0.425
-409.340	-61.714	-0.466	-0.193
-408.325	113.164	-0.057	-0.068
-407.311	-200.000	-0.040	-0.213
-406.296	800.000	-0.043	0.183
-405.282	-37.624	0.097	-0.051
-404.267	-86.171	0.493	0.150
-403.252	274.181	0.058	0.102
-402.238	75.967	0.249	0.261
-401.223	-134.880	-0.444	-0.053
-400.209	398.676	-0.195	0.403
-399.194	-122.391	0.257	-0.041
-398.179	800.000	-0.018	0.066
-397.165	800.000	-0.091	0.280
-396.150	269.221	-0.041	0.071
-395.136	377.231	-0.051	0.104
-394.121	784.250	0.049	-0.132
-393.106	-128.626	0.063	-0.009
-392.092	98.840	0.053	-0.060
-391.077	49.118	0.050	0.046
-390.063	-64.761	-0.121	0.048
-389.048	-98.140	0.241	0.061
-388.033	365.054	-0.122	-0.243
-387.019	-64.258	-0.157	0.063
-386.004	-31.417	0.096	-0.054
-384.990	411.912	-0.123	0.259
-383.975	-200.000	0.018	0.104
-382.960	-63.869	-0.369	-0.149
-381.946	-68.098	0.140	0.054
-380.931	-200.000	0.020	0.373
-379.917	-200.000	-0.001	-0.352
-378.902	92.450	-0.084	-0.094
-377.888	649.081	0.024	-0.059
-376.873	-41.243	0.223	-0.114
-375.858	-37.377	0.174	-0.092
-374.844	-200.000	-0.023	0.123
-373.829	-37.316	0.076	0.040
-372.815	-58.717	-0.321	-0.137
-371.800	-92.574	-0.164	0.045
-370.785	-90.131	0.169	0.049
-369.771	81.832	0.169	0.181
-368.756	-25.025	-0.146	-0.085
-367.742	-25.084	-0.265	0.155
-366.727	-51.282	0.276	-0.128
-365.712	-28.806	0.410	-0.233
-364.698	-200.000	0.094	-0.442
-363.683	-200.000	0.011	-0.239
-362.669	120.639	-0.150	0.184
-361.654	-28.549	0.359	-0.204
-360.639	-200.000	-0.050	0.293
-359.625	-137.385	0.169	-0.019
-358.610	-200.000	-0.014	0.201
-357.596	-200.000	0.014	0.230
-356.581	206.762	0.143	0.219
-355.566	-71.156	-0.168	-0.062
-354.552	-21.817	-0.134	0.081
-353.537	-45.038	-0.197	0.097
-352.523	-200.000	0.013	-0.133
-351.508	-200.000	-0.067	-0.515
-350.493	-200.000	0.012	0.181
-349.479	69.415	-0.267	-0.271
-348.464	-151.933	-0.225	-0.016
-347.450	-200.000	-0.258	0.000
-346.435	-200.000	0.017	0.109
-345.420	-169.208	0.210	-0.008
-344.406	73.256	0.294	0.303
-343.391	-71.489	-0.249	0.092
-342.377	-48.219	0.089	-0.042
-341.362	78.584	0.251	0.264
-340.348	800.000	0.065	-0.196
-339.333	-66.077	0.455	0.179
-338.318	100.872	-0.138	0.158
-337.304	209.884	-0.045	-0.070
-336.289	192.750	0.109	0.162
-335.275	-140.791	0.015	0.002
-334.260	-155.034	-0.338	0.022
-333.245	-75.041	0.060	0.021
-332.231	-200.000	0.025	-0.194
-331.216	-23.972	0.417	0.246
-330.202	-58.200	0.234	-0.101
-329.187	-22.815	-0.138	-0.082
-328.172	48.079	-0.263	-0.243
-327.158	-161.795	0.271	-0.014
-326.143	-1.534	-0.011	0.007
-325.129	-200.000	0.056	-0.305
-324.114	-23.537	0.443	0.262
-323.099	762.430	-0.057	0.154
-322.085	19.816	0.126	0.100
-321.070	-200.000	-0.021	0.305
-320.056	-92.680	0.344	-0.095
-319.041	-165.067	-0.374	0.016
-318.026	-94.616	-0.072	0.019
-317.012	-147.572	-0.171	0.014
-315.997	-95.368	0.409	0.108
-314.983	-9.071	0.039	0.026
-313.968	-200.000	-0.004	0.175
-312.953	48.894	0.174	0.161
-311.939	800.000	0.011	0.048
-310.924	48.992	0.103	-0.095
-309.910	98.980	-0.273	0.310
-308.895	281.166	0.103	0.181
-307.880	-68.493	0.148	-0.056
-306.866	-200.000	0.030	-0.330
-305.851	7.597	0.134	0.099
-304.837	-68.335	0.096	0.037
-303.822	-105.465	0.156	-0.035
-302.807	-56.322	-0.281	-0.123
-301.793	-187.074	0.128	0.002
-300.778	-102.355	-0.273	0.064
-299.764	800.000	0.015	0.050
-298.749	129.984	-0.095	-0.120
-297.735	-149.628	0.152	0.012
-296.720	800.000	0.111	-0.461
-295.705	-105.933	0.108	0.024
-294.691	545.954	0.012	-0.029
-293.676	-59.478	0.292	-0.123
-292.662	-52.731	0.190	-0.086
-291.647	-31.458	0.140	-0.077
-290.632	-21.536	-0.197	0.118
-289.618	91.051	0.025	-0.028
-288.603	178.102	-0.169	0.243
-287.589	800.000	0.067	0.252
-286.574	-200.000	-0.014	-0.092
-285.559	50.279	-0.089	-0.083
-284.545	-40.547	0.113	0.057
-283.530	800.000	-0.027	0.096
-282.516	29.076	0.016	0.014
-281.501	-130.769	-0.275	-0.036
-280.486	-92.340	-0.154	-0.043
-279.472	-167.314	-0.229	-0.009
-278.457	70.678	-0.203	0.207
-277.443	172.733	-0.177	-0.251
-276.428	-200.000	-0.015	0.178
-275.413	41.093	0.148	-0.132
-274.399	413.670	0.165	0.345
-273.384	800.000	0.148	-0.515
-272.370	-63.451	0.149	0.060
-271.355	-91.088	-0.046	0.013
-270.340	798.204	0.100	0.271
-269.326	35.069	-0.144	-0.124
-268.311	26.769	-0.131	0.108
-267.297	506.664	0.065	0.148
-266.282	800.000	-0.068	-0.253
-265.267	-122.610	0.200	0.032
-264.253	678.446	-0.069	0.178
-263.238	-200.000	-0.017	0.203
-262.224	-16.643	-0.274	-0.171
-261.209	-200.000	-0.015	-0.074
-260.195	-200.000	-0.018	0.153
-259.180	-87.841	-0.141	0.042
-258.165	-109.833	0.267	0.055
-257.151	243.551	0.058	0.095
-256.136	166.520	0.075	-0.105
-255.122	800.000	0.097	-0.340
-254.107	800.000	0.073	-0.292
-253.092	52.769	-0.051	0.048
-252.078	670.359	-0.046	0.118
-251.063	-123.027	-0.258	0.041
-250.049	126.341	-0.132	0.164
-249.034	-111.088	-0.237	-0.048
-248.019	210.024	0.221	0.341
-247.005	-55.949	-0.204	-0.090
-245.990	-97.885	-0.129	0.033
-244.976	-57.129	-0.460	-0.199
-243.961	-36.848	0.388	-0.204
-242.946	-62.630	0.263	0.107
-241.932	13.924	0.086	0.065
-240.917	528.346	0.073	-0.170
-239.903	-200.000	0.032	-0.140
-238.888	50.641	0.133	0.124
-237.873	-31.513	-0.123	-0.068
-236.859	24.742	0.131	-0.106
-235.844	-47.217	-0.133	-0.064
-234.830	-200.000	-0.005	0.108
-233.815	506.348	0.015	0.035
-232.800	-14.771	0.174	-0.110
-231.786	-98.742	-0.057	0.014
-230.771	261.845	0.099	0.169
-229.757	-185.704	0.155	0.002
-228.742	-178.511	0.322	-0.007
-227.727	-55.131	-0.452	-0.200
-226.713	-174.736	0.178	-0.005
-225.698	-122.245	0.268	-0.043
-224.684	61.815	0.141	0.138
-223.669	-39.506	-0.255	-0.131
-222.655	44.846	-0.092	-0.084
-221.640	173.078	-0.055	0.078
-220.625	-167.810	-0.267	0.010
-219.611	-92.927	0.164	0.045
-218.596	-38.945	-0.236	0.122
-217.582	800.000	-0.057	0.180
-216.567	571.648	-0.053	0.126
-215.552	-161.815	-0.243	-0.012
-214.538	696.919	-0.049	-0.125
-213.523	544.869	-0.124	-0.291
-212.509	-200.000	-0.004	0.287
-211.494	160.445	-0.178	0.244
-210.479	92.810	-0.123	-0.137
-209.465	-164.478	-0.161	-0.007
-208.450	407.157	-0.139	-0.287
-207.436	-65.864	0.216	-0.085
-206.421	300.008	-0.150	-0.272
-205.406	-174.691	0.279	0.008
-204.392	145.041	-0.178	-0.234
-203.377	-200.000	0.016	-0.239
-202.363	800.000	-0.043	-0.152
-201.348	313.964	-0.190	-0.351
-200.333	-90.947	0.146	0.041
-199.319	-62.441	0.340	0.139
-198.304	150.064	0.167	0.222
-197.290	99.297	-0.146	0.166
-196.275	800.000	-0.133	-0.384
-195.260	90.889	0.131	-0.144
-194.246	-3.519	-0.229	-0.156
-193.231	174.834	0.091	-0.129
-192.217	14.143	-0.092	0.070
-191.202	115.080	-0.177	0.212
-190.187	-107.636	0.136	0.029
-189.173	-98.129	0.180	-0.045
-188.158	-157.422	-0.159	-0.009
-187.144	-200.000	-0.020	0.246
-186.129	-96.689	-0.142	-0.037
-185.114	320.118	-0.199	-0.371
-184.100	-19.458	-0.243	-0.148
-183.085	-0.628	0.227	-0.158
-182.071	237.221	0.155	0.251
-181.056	-200.000	-0.064	0.393
-180.042	413.293	-0.061	0.127
-179.027	-157.896	0.214	0.012
-178.012	213.418	-0.353	-0.547
-176.998	-110.016	0.321	0.066
-175.983	-200.000	-0.009	0.317
-174.969	377.889	-0.137	0.274
-173.954	186.813	0.076	-0.111
-172.939	427.515	0.033	0.069
-171.925	38.312	0.178	0.156
-170.910	-35.775	0.083	-0.044
-169.896	81.769	0.232	-0.246
-168.881	263.097	-0.158	0.269
-167.866	800.000	-0.020	-0.056
-166.852	-200.000	0.094	0.423
-165.837	-90.168	-0.150	-0.043
-164.823	-200.000	0.037	0.242
-163.808	800.000	0.071	0.192
-162.793	-114.062	0.231	0.044
-161.779	-84.102	-0.178	-0.055
-160.764	-92.316	0.257	0.071
-159.750	-7.767	-0.288	0.190
-158.735	224.425	-0.016	-0.025
-157.720	508.417	-0.110	0.249
-156.706	-200.000	-0.036	-0.166
-155.691	406.538	-0.183	-0.379
-154.677	-56.707	0.122	-0.053
-153.662	800.000	0.083	0.259
-152.647	123.570	0.161	0.198
-151.633	800.000	0.047	-0.180
-150.618	800.000	0.084	0.318
-149.604	-200.000	-0.006	-0.033
-148.589	28.552	0.272	0.225
-147.574	156.432	-0.067	0.090
-146.560	-175.874	0.054	-0.001
-145.545	-38.888	0.161	-0.083
-144.531	8.036	0.064	0.047
-143.516	287.502	-0.146	-0.258
-142.502	-141.305	0.326	0.032
-141.487	-89.395	0.427	0.123
-140.472	-97.486	-0.129	0.033
-139.458	-36.289	0.220	-0.116
-138.443	433.270	0.065	0.138
-137.429	-200.000	0.064	-0.388
-136.414	-55.430	0.083	-0.036
-135.399	-58.521	-0.066	-0.028
-134.385	-146.238	-0.275	0.024
-133.370	49.731	0.133	-0.123
-132.356	120.803	0.206	0.250
-131.341	474.653	0.078	0.173
-130.326	-5.742	0.136	-0.091
-129.312	-200.000	-0.002	-0.402
-128.297	100.747	0.133	-0.152
-127.283	-123.354	-0.099	-0.015
-126.268	-85.282	0.215	0.066
-125.253	104.878	-0.189	-0.217
-124.239	-95.201	-0.237	-0.062
-123.224	399.893	0.185	0.379
-122.210	-146.930	0.057	-0.005
-121.195	279.826	-0.119	0.208
