DTS Sentinel unit serial number:	SN413079Multiplexer serial number:	ORYXHardware model number:	OX4-SRSoftware version number:	ORYX F/W v4.00 Oryx Data Collector v3.7.2.0data status	okinstallation	princeton_trtdifferential loss correction	single-endedforward channel	channel 1reverse channel	N/Adate	2019/09/16time	12:50:35forward acquisition time	60.00reverse acquisition time	0.00gamma	496.2192k internal	0.2294k external	0.2294temperature offset calibration	0.9953default loss term (dB/km)	0.3790temperature slope calibration	1.0000multiplexer offset coefficient	1.0000multiplexer slope coefficient	1.0000fibre end	0.00T internal ref (°C)	40.31T ext. ref 1 (°C)	13.51T ext. ref 2 (°C)	37.12length (m)	temperature (°C)	Stokes	anti-Stokes-747.200	-155.124	0.476	0.032
-746.185	-12.902	0.179	0.119
-745.171	437.652	-0.091	-0.204
-744.156	-129.095	0.189	0.027
-743.142	785.443	-0.139	-0.391
-742.127	-103.646	0.212	0.051
-741.112	-56.970	0.207	-0.093
-740.098	34.296	0.115	0.102
-739.083	549.519	-0.074	0.182
-738.069	12.224	-0.314	0.247
-737.054	226.412	-0.093	-0.155
-736.039	-200.000	0.051	-0.236
-735.025	-200.000	0.039	0.265
-734.010	14.256	0.109	-0.087
-732.996	64.136	-0.142	-0.146
-731.981	437.503	-0.078	0.173
-730.966	800.000	0.105	-0.400
-729.952	-200.000	0.051	-0.255
-728.937	67.852	-0.143	0.149
-727.923	-6.957	-0.165	-0.114
-726.908	-68.992	-0.417	-0.164
-725.894	118.517	0.111	-0.140
-724.879	224.784	-0.053	0.087
-723.864	-78.189	-0.148	-0.052
-722.850	-113.106	-0.178	-0.036
-721.835	194.082	0.184	0.284
-720.821	20.052	-0.247	0.204
-719.806	-72.123	0.267	-0.101
-718.791	-133.787	-0.206	0.026
-717.777	-200.000	-0.004	0.202
-716.762	800.000	-0.048	-0.145
-715.748	56.898	-0.168	-0.167
-714.733	800.000	0.082	0.245
-713.718	-200.000	-0.014	0.100
-712.704	-3.416	0.381	0.271
-711.689	177.715	-0.144	-0.214
-710.675	191.410	0.165	-0.254
-709.660	31.337	-0.328	-0.287
-708.645	-126.620	0.299	0.045
-707.631	286.064	0.163	-0.300
-706.616	800.000	0.014	-0.056
-705.602	-200.000	0.023	-0.125
-704.587	-76.011	-0.255	-0.092
-703.572	471.705	-0.052	0.118
-702.558	-47.388	0.148	-0.073
-701.543	-200.000	0.014	0.064
-700.529	-160.870	0.501	0.027
-699.514	-90.871	0.465	0.137
-698.499	85.273	-0.185	-0.207
-697.485	-200.000	0.048	-0.235
-696.470	-136.307	-0.336	-0.040
-695.456	-169.488	0.261	-0.010
-694.441	289.161	-0.106	-0.196
-693.426	201.988	-0.130	-0.205
-692.412	-33.270	-0.336	0.190
-691.397	-154.221	-0.146	-0.010
-690.383	800.000	-0.072	0.272
-689.368	-95.724	0.104	0.028
-688.354	-113.524	0.276	-0.055
-687.339	-200.000	0.039	0.326
-686.324	297.819	0.115	-0.215
-685.310	31.849	0.171	0.150
-684.295	800.000	-0.076	-0.225
-683.281	-200.000	0.014	0.233
-682.266	-81.257	-0.182	-0.061
-681.251	-17.391	0.211	0.136
-680.237	751.920	-0.009	0.025
-679.222	-4.927	0.161	-0.113
-678.208	-145.577	-0.277	0.025
-677.193	19.528	0.161	-0.132
-676.178	800.000	0.108	-0.400
-675.164	-180.684	-0.196	-0.004
-674.149	-200.000	-0.053	-0.241
-673.135	-200.000	0.030	-0.210
-672.120	-36.491	0.070	0.039
-671.105	-1.584	0.124	0.089
-670.091	697.028	-0.112	0.301
-669.076	49.772	0.051	0.049
-668.062	133.397	-0.213	0.280
-667.047	241.836	0.030	0.051
-666.032	-19.284	0.155	0.098
-665.018	-45.892	0.312	-0.157
-664.003	-8.666	-0.133	-0.091
-662.989	12.287	-0.246	-0.193
-661.974	-85.728	0.120	-0.038
-660.959	-2.333	0.055	-0.040
-659.945	128.520	0.088	-0.114
-658.930	205.317	-0.139	0.221
-657.916	-77.034	-0.194	-0.069
-656.901	-107.494	-0.181	0.040
-655.886	200.030	-0.233	-0.364
-654.872	-200.000	-0.041	-0.229
-653.857	800.000	-0.029	-0.121
-652.843	800.000	-0.061	-0.205
-651.828	16.527	-0.121	0.097
-650.814	53.561	-0.076	-0.074
-649.799	-60.369	-0.462	0.200
-648.784	800.000	-0.064	-0.200
-647.770	-200.000	-0.038	-0.311
-646.755	21.695	0.206	0.171
-645.741	-66.738	-0.345	0.139
-644.726	229.490	0.187	-0.310
-643.711	-159.061	-0.223	-0.013
-642.697	-200.000	0.006	0.247
-641.682	-112.681	0.330	0.067
-640.668	-121.704	-0.281	0.047
-639.653	174.009	-0.061	-0.089
-638.638	264.486	0.189	-0.336
-637.624	4.025	-0.316	0.235
-636.609	-200.000	-0.021	0.269
-635.595	-95.884	-0.164	-0.044
-634.580	571.303	-0.054	0.134
-633.565	-200.000	-0.033	0.147
-632.551	-134.246	0.167	0.021
-631.536	452.471	-0.121	-0.273
-630.522	800.000	0.016	-0.045
-629.507	34.834	-0.211	-0.188
-628.492	-96.360	0.165	0.044
-627.478	536.083	-0.014	-0.035
-626.463	-200.000	-0.286	0.000
-625.449	-35.415	0.130	0.072
-624.434	153.376	0.203	0.283
-623.419	364.276	0.057	0.116
-622.405	-73.667	-0.228	-0.084
-621.390	183.150	0.120	0.181
-620.376	-107.733	-0.184	-0.041
-619.361	64.939	0.291	-0.299
-618.346	-200.000	0.047	0.278
-617.332	28.629	-0.238	-0.205
-616.317	-96.445	-0.201	-0.054
-615.303	364.527	-0.022	-0.045
-614.288	-200.000	0.023	-0.112
-613.273	275.747	0.059	-0.107
-612.259	-200.000	-0.014	-0.106
-611.244	-200.000	0.022	-0.140
-610.230	-200.000	0.015	-0.126
-609.215	-6.623	-0.302	-0.209
-608.201	43.953	-0.202	0.188
-607.186	108.886	0.186	-0.226
-606.171	-39.999	0.166	-0.088
-605.157	-67.640	-0.257	-0.103
-604.142	70.493	0.198	-0.208
-603.128	800.000	0.048	0.185
-602.113	800.000	0.089	0.338
-601.098	-50.239	-0.329	0.158
-600.084	-34.094	-0.207	-0.116
-599.069	31.475	-0.147	-0.128
-598.055	-165.146	0.302	0.014
-597.040	47.093	-0.214	-0.202
-596.025	-146.694	0.313	-0.028
-595.011	227.945	0.088	0.145
-593.996	-103.082	0.145	0.035
-592.982	-15.920	-0.167	0.108
-591.967	-88.043	-0.105	0.032
-590.952	-200.000	0.014	-0.118
-589.938	336.880	0.136	0.268
-588.923	-73.970	0.270	-0.099
-587.909	-99.346	-0.093	0.024
-586.894	116.362	0.099	0.123
-585.879	129.737	-0.074	-0.096
-584.865	167.779	-0.077	-0.111
-583.850	177.963	0.136	0.202
-582.836	177.237	-0.104	0.154
-581.821	90.610	0.171	-0.194
-580.806	-130.353	-0.100	-0.014
-579.792	-54.429	-0.145	-0.067
-578.777	-83.163	-0.231	0.076
-577.763	-200.000	-0.044	-0.226
-576.748	-45.412	-0.074	0.037
-575.733	44.091	0.118	-0.110
-574.719	-68.860	0.241	0.095
-573.704	-32.521	-0.405	-0.229
-572.690	-72.530	-0.180	-0.068
-571.675	84.197	0.209	-0.232
-570.661	-114.062	0.173	0.034
-569.646	-200.000	0.007	-0.065
-568.631	-200.000	0.031	-0.224
-567.617	-40.935	0.278	-0.146
-566.602	-73.430	0.412	-0.153
-565.588	248.851	-0.171	-0.295
-564.573	-44.198	0.305	-0.155
-563.558	200.623	0.071	0.111
-562.544	-136.557	0.268	-0.032
-561.529	-200.000	0.014	0.214
-560.515	295.371	0.053	-0.099
-559.500	-57.767	0.131	0.058
-558.485	-85.695	0.140	0.044
-557.471	74.255	0.098	0.104
-556.456	-200.000	-0.024	0.126
-555.442	-54.473	-0.150	-0.069
-554.427	-107.254	-0.054	0.012
-553.412	-200.000	0.037	-0.364
-552.398	-64.757	-0.136	0.056
-551.383	-52.379	0.234	0.110
-550.369	800.000	0.055	0.219
-549.354	20.540	-0.207	-0.170
-548.339	764.028	-0.069	-0.190
-547.325	-200.000	-0.028	-0.177
-546.310	663.139	-0.046	-0.121
-545.296	682.497	-0.030	0.079
-544.281	-34.613	-0.279	-0.155
-543.266	34.281	0.056	0.050
-542.252	-200.000	0.049	0.272
-541.237	-93.307	-0.379	-0.107
-540.223	-200.000	-0.044	-0.195
-539.208	73.204	-0.028	-0.030
-538.193	800.000	-0.037	0.132
-537.179	-106.555	-0.499	-0.113
-536.164	800.000	0.061	0.206
-535.150	800.000	0.051	0.144
-534.135	-200.000	-0.010	-0.218
-533.121	231.460	0.098	-0.162
-532.106	360.385	0.054	0.110
-531.091	-200.000	0.001	-0.017
-530.077	49.263	-0.120	0.115
-529.062	-89.440	-0.116	-0.035
-528.048	-113.700	-0.074	-0.015
-527.033	-100.686	0.146	-0.037
-526.018	349.244	0.099	0.199
-525.004	-136.124	-0.182	-0.022
-523.989	-101.367	-0.135	-0.033
-522.975	320.352	0.100	0.192
-521.960	-95.216	0.150	-0.041
-520.945	-14.267	0.064	-0.042
-519.931	-200.000	0.089	0.411
-518.916	-200.000	0.091	-0.461
-517.902	-200.000	0.024	-0.254
-516.887	462.510	-0.182	0.412
-515.872	132.610	0.129	0.169
-514.858	232.175	-0.128	0.213
-513.843	-200.000	-0.021	0.093
-512.829	-107.946	0.273	0.060
-511.814	167.497	-0.124	0.179
-510.799	263.539	0.089	-0.156
-509.785	-200.000	-0.070	-0.454
-508.770	299.397	-0.135	0.252
-507.756	-114.566	-0.356	0.069
-506.741	-171.538	-0.409	0.014
-505.726	800.000	-0.021	-0.069
-504.712	-55.930	-0.177	0.080
-503.697	214.779	-0.035	0.057
-502.683	-90.048	0.284	0.084
-501.668	-50.546	0.112	0.054
-500.653	351.090	-0.050	-0.101
-499.639	77.800	-0.124	0.134
-498.624	74.543	-0.090	-0.096
-497.610	595.283	-0.083	0.209
-496.595	715.604	-0.086	0.230
-495.581	-200.000	-0.014	-0.167
-494.566	29.787	0.314	-0.271
-493.551	-200.000	-0.024	0.238
-492.537	28.028	0.190	0.162
-491.522	-97.370	0.101	0.027
-490.508	0.629	-0.168	-0.122
-489.493	132.438	-0.148	-0.193
-488.478	371.231	0.151	0.310
-487.464	23.096	-0.236	-0.196
-486.449	-179.049	-0.284	-0.006
-485.435	-50.296	0.258	-0.124
-484.420	-200.000	0.039	0.188
-483.405	-95.720	-0.236	0.064
-482.391	800.000	0.072	0.208
-481.376	252.397	0.043	-0.075
-480.362	-82.713	-0.139	-0.046
-479.347	-200.000	0.010	-0.120
-478.332	439.738	0.080	-0.177
-477.318	-155.445	0.151	0.010
-476.303	-44.503	0.051	-0.026
-475.289	408.716	-0.122	0.261
-474.274	90.810	0.042	0.047
-473.259	-184.242	0.325	-0.005
-472.245	377.086	-0.045	0.094
-471.230	245.932	-0.048	0.081
-470.216	302.436	-0.064	0.121
-469.201	800.000	-0.070	-0.199
-468.186	-59.936	0.424	0.183
-467.172	-70.379	0.242	-0.093
-466.157	13.756	-0.410	-0.322
-465.143	-85.956	0.126	-0.039
-464.128	-107.717	0.233	-0.051
-463.113	-200.000	0.010	0.055
-462.099	21.468	0.093	-0.077
-461.084	-200.000	0.010	-0.348
-460.070	102.572	-0.184	-0.218
-459.055	-200.000	-0.003	-0.117
-458.040	-175.998	0.113	0.003
-457.026	462.244	0.234	0.527
-456.011	127.221	-0.012	-0.016
-454.997	-45.666	0.235	-0.117
-453.982	268.719	-0.091	-0.161
-452.968	325.325	-0.044	-0.086
-451.953	-101.100	-0.035	0.009
-450.938	-200.000	0.013	-0.349
-449.924	-200.000	0.033	-0.158
-448.909	271.030	-0.102	0.182
-447.895	-6.993	-0.166	0.114
-446.880	452.486	0.135	0.302
-445.865	-11.586	-0.016	0.010
-444.851	-6.621	0.127	0.087
-443.836	154.372	-0.236	0.328
-442.822	800.000	0.062	0.214
-441.807	-18.582	0.264	0.167
-440.792	41.346	0.328	0.300
-439.778	-85.720	0.400	0.125
-438.763	339.033	0.089	0.175
-437.749	-200.000	0.003	0.136
-436.734	33.111	-0.075	-0.066
-435.719	-186.312	-0.036	-0.001
-434.705	319.623	-0.098	-0.187
-433.690	800.000	0.034	-0.120
-432.676	290.557	0.135	-0.248
-431.661	-110.802	0.412	0.086
-430.646	692.845	-0.080	-0.213
-429.632	-23.061	0.275	0.167
-428.617	-109.520	0.246	0.052
-427.603	-108.333	-0.314	0.069
-426.588	61.009	0.310	-0.310
-425.573	-200.000	-0.050	-0.244
-424.559	32.964	-0.255	-0.223
-423.544	259.326	0.269	-0.469
-422.530	233.797	0.083	-0.138
-421.515	497.894	0.101	-0.234
-420.500	255.381	-0.042	-0.073
-419.486	413.199	0.122	0.262
-418.471	-129.284	-0.051	-0.007
-417.457	69.952	0.077	-0.081
-416.442	-87.495	-0.343	0.105
-415.428	-10.077	-0.345	0.231
-414.413	189.879	-0.058	-0.087
-413.398	-200.000	0.033	-0.146
-412.384	-200.000	-0.011	0.536
-411.369	128.057	0.075	-0.096
-410.355	-200.000	-0.018	-0.374
-409.340	467.450	0.148	-0.335
-408.325	-68.749	-0.448	-0.175
-407.311	-8.907	0.144	0.097
-406.296	-45.048	0.187	-0.094
-405.282	41.421	0.067	0.062
-404.267	-139.539	0.082	0.009
-403.252	18.213	-0.214	0.172
-402.238	88.354	-0.103	0.115
-401.223	800.000	-0.059	-0.238
-400.209	27.577	-0.281	0.238
-399.194	312.541	-0.135	-0.255
-398.179	-66.924	-0.043	0.017
-397.165	540.730	-0.052	-0.125
-396.150	483.607	0.015	-0.034
-395.136	-163.955	-0.365	0.017
-394.121	48.850	0.053	-0.050
-393.106	180.775	0.070	-0.103
-392.092	-200.000	0.008	0.191
-391.077	27.557	-0.089	0.075
-390.063	-147.977	-0.079	0.007
-389.048	239.270	-0.136	-0.229
-388.033	-67.797	-0.245	0.097
-387.019	-200.000	-0.013	0.398
-386.004	158.169	-0.075	0.105
-384.990	-200.000	-0.019	0.143
-383.975	115.330	0.064	0.079
-382.960	498.412	0.022	-0.050
-381.946	-24.953	-0.175	0.105
-380.931	-138.438	-0.176	0.020
-379.917	158.141	-0.111	-0.155
-378.902	-200.000	0.033	-0.360
-377.888	800.000	-0.019	0.060
-376.873	800.000	-0.016	-0.047
-375.858	-22.387	0.336	0.205
-374.844	800.000	0.066	0.220
-373.829	-200.000	0.213	0.001
-372.815	800.000	-0.097	0.390
-371.800	-120.569	-0.300	0.051
-370.785	-200.000	0.048	-0.329
-369.771	651.152	0.141	0.365
-368.756	-200.000	0.002	0.159
-367.742	-56.090	-0.366	0.164
-366.727	171.729	0.043	0.063
-365.712	-125.556	0.227	0.035
-364.698	-148.992	0.411	0.033
-363.683	-64.759	0.136	0.056
-362.669	231.632	-0.019	-0.031
-361.654	527.212	-0.053	-0.125
-360.639	-200.000	0.006	-0.158
-359.625	-200.000	-0.128	0.001
-358.610	-9.200	-0.099	-0.067
-357.596	-80.124	0.233	0.079
-356.581	-200.000	-0.084	0.486
-355.566	800.000	-0.085	-0.281
-354.552	-93.589	-0.203	0.057
-353.537	-200.000	-0.027	0.240
-352.523	18.394	-0.034	0.027
-351.508	-200.000	-0.030	-0.372
-350.493	800.000	-0.104	0.401
-349.479	-200.000	-0.022	0.166
-348.464	-74.971	0.174	0.063
-347.450	15.635	-0.144	-0.114
-346.435	-42.050	-0.273	-0.140
-345.420	-94.694	0.108	0.029
-344.406	38.163	0.102	-0.091
-343.391	-28.157	0.349	-0.203
-342.377	-78.197	-0.478	0.166
-341.362	37.815	-0.248	0.222
-340.348	-77.414	0.158	-0.055
-339.333	159.116	-0.092	0.129
-338.318	71.262	0.201	0.210
-337.304	152.368	0.152	0.209
-336.289	-26.266	-0.354	0.209
-335.275	-19.174	0.149	-0.093
-334.260	96.531	-0.035	0.040
-333.245	191.128	-0.096	0.145
-332.231	228.028	0.100	-0.164
-331.216	-136.575	0.234	0.027
-330.202	239.229	-0.092	0.154
-329.187	-11.044	-0.367	0.244
-328.172	800.000	0.076	0.242
-327.158	-200.000	-0.016	-0.217
-326.143	-147.218	0.098	-0.008
-325.129	112.299	-0.110	0.134
-324.114	102.413	-0.226	-0.266
-323.099	-200.000	-0.024	-0.116
-322.085	25.150	-0.029	-0.024
-321.070	87.921	0.131	0.147
-320.056	-49.391	0.076	-0.037
-319.041	-200.000	0.009	-0.351
-318.026	-173.551	0.047	-0.001
-317.012	800.000	0.109	0.366
-315.997	-90.268	-0.311	-0.091
-314.983	-44.053	0.165	0.083
-313.968	67.317	-0.136	-0.139
-312.953	-200.000	0.010	-0.254
-311.939	-200.000	-0.006	-0.139
-310.924	47.819	-0.251	-0.236
-309.910	-200.000	0.034	-0.152
-308.895	-200.000	-0.004	0.043
-307.880	-77.956	0.091	0.032
-306.866	-28.728	0.182	0.105
-305.851	800.000	0.028	0.088
-304.837	-119.408	-0.108	-0.019
-303.822	-62.297	0.298	0.125
-302.807	-80.443	0.237	0.080
-301.793	341.254	-0.125	0.245
-300.778	-81.896	-0.075	0.025
-299.764	733.443	0.087	-0.234
-298.749	10.279	0.225	-0.172
-297.735	-200.000	0.055	0.301
-296.720	162.460	0.110	0.155
-295.705	-135.588	0.258	-0.031
-294.691	-168.114	-0.177	0.007
-293.676	-111.971	-0.123	-0.025
-292.662	-69.631	-0.325	0.125
-291.647	110.528	-0.178	0.215
-290.632	-71.091	-0.293	-0.111
-289.618	-76.777	0.195	0.069
-288.603	661.403	-0.116	-0.301
-287.589	279.402	0.116	0.209
-286.574	53.655	0.311	-0.300
-285.559	-89.642	-0.252	0.074
-284.545	-200.000	0.008	-0.210
-283.530	516.472	-0.010	0.024
-282.516	-200.000	-0.000	-0.249
-281.501	-200.000	0.051	0.341
-280.486	-189.358	-0.158	-0.002
-279.472	-55.745	0.193	-0.087
-278.457	-48.118	0.142	-0.069
-277.443	-72.476	0.176	0.065
-276.428	-62.331	-0.182	-0.076
-275.413	-33.493	0.184	0.102
-274.399	-146.463	0.235	0.021
-273.384	-98.929	-0.290	-0.074
-272.370	21.654	0.225	-0.184
-271.355	-60.445	-0.169	0.072
-270.340	57.946	0.088	0.086
-269.326	234.677	0.089	0.147
-268.311	376.307	-0.067	0.138
-267.297	26.902	0.099	0.083
-266.282	16.532	-0.065	-0.052
-265.267	-200.000	0.008	0.072
-264.253	-200.000	0.014	0.417
-263.238	-139.791	-0.220	0.023
-262.224	2.934	0.180	-0.131
-261.209	-11.236	0.103	0.068
-260.195	-195.423	-0.390	0.003
-259.180	-200.000	-0.018	0.221
-258.165	132.523	0.163	-0.211
-257.151	106.464	-0.094	-0.112
-256.136	800.000	0.024	-0.087
-255.122	-102.384	0.042	-0.010
-254.107	800.000	0.019	-0.071
-253.092	1.518	0.210	0.152
-252.078	-142.176	-0.250	0.025
-251.063	-200.000	0.022	-0.322
-250.049	33.203	-0.202	-0.176
-249.034	158.221	0.045	-0.063
-248.019	21.436	-0.257	-0.210
-247.005	64.731	-0.133	-0.135
-245.990	423.955	0.068	0.148
-244.976	-200.000	0.026	-0.451
-243.961	-103.763	-0.275	-0.065
-242.946	-108.488	-0.039	-0.008
-241.932	-11.635	0.319	0.210
-240.917	-200.000	-0.058	0.317
-239.903	-160.235	-0.259	-0.014
-238.888	55.096	-0.131	0.127
-237.873	-159.712	-0.321	-0.018
-236.859	192.681	0.076	0.115
-235.844	73.051	0.227	0.238
-234.830	-92.467	0.128	0.036
-233.815	137.360	0.151	-0.198
-232.800	-49.518	-0.119	0.057
-231.786	-200.000	0.033	-0.159
-230.771	515.580	-0.088	-0.207
-229.757	333.975	-0.076	-0.147
-228.742	800.000	0.032	-0.122
-227.727	-97.570	0.189	-0.049
-226.713	-88.552	0.131	0.039
-225.698	45.771	0.099	0.092
-224.684	-141.764	0.131	-0.013
-223.669	-200.000	0.086	0.562
-222.655	377.893	-0.081	0.165
-221.640	176.209	-0.054	-0.079
-220.625	450.901	0.149	0.330
-219.611	-194.157	-0.081	0.001
-218.596	332.945	-0.098	-0.190
-217.582	149.689	0.059	-0.080
-216.567	700.220	0.045	0.120
-215.552	382.183	-0.079	0.163
-214.538	601.487	0.132	-0.327
-213.523	-175.327	0.424	-0.012
-212.509	107.291	0.112	-0.133
-211.494	-200.000	0.048	-0.323
-210.479	322.854	0.158	-0.301
-209.465	137.560	-0.135	0.177
-208.450	-200.000	-0.051	0.339
-207.436	800.000	-0.061	-0.191
-206.421	42.213	-0.196	0.179
-205.406	-104.745	0.307	0.071
-204.392	402.470	0.081	-0.169
-203.377	-200.000	0.050	-0.448
-202.363	-100.458	0.099	-0.025
-201.348	-162.513	-0.476	-0.024
-200.333	-200.000	0.003	0.026
-199.319	-59.008	-0.184	0.080
-198.304	67.210	0.313	0.320
-197.290	182.583	-0.065	-0.095
-196.275	-98.335	-0.213	0.055
-195.260	-125.661	0.128	-0.019
-194.246	-174.017	0.326	-0.010
-193.231	-200.000	0.025	0.146
-192.217	554.361	-0.091	-0.220
-191.202	-166.780	0.153	-0.006
-190.187	-3.104	-0.209	0.146
-189.173	258.602	0.087	-0.150
-188.158	-19.224	-0.194	0.121
-187.144	-160.223	0.152	0.008
-186.129	-159.073	-0.015	-0.001
-185.114	86.034	-0.162	0.178
-184.100	-56.456	0.081	0.036
-183.085	800.000	0.168	0.587
-182.071	800.000	0.084	-0.330
-181.056	800.000	-0.103	-0.301
-180.042	-200.000	0.011	-0.141
-179.027	82.322	0.148	-0.161
-178.012	-191.752	-0.443	0.004
-176.998	460.481	-0.124	-0.276
-175.983	373.986	0.062	-0.125
-174.969	-200.000	0.003	0.194
-173.954	233.580	0.203	-0.333
-172.939	800.000	0.173	0.559
-171.925	-200.000	0.040	0.202
-170.910	539.721	0.143	-0.339
-169.896	141.925	0.132	-0.175
-168.881	-104.489	-0.225	0.052
-167.866	-120.165	-0.106	-0.018
-166.852	-53.437	0.207	0.095
-165.837	-200.000	0.004	0.127
-164.823	800.000	-0.049	0.165
-163.808	-200.000	-0.032	-0.165
-162.793	-88.503	0.169	-0.050
-161.779	30.203	-0.239	-0.204
-160.764	-21.544	0.362	0.221
-159.750	-200.000	-0.021	-0.292
-158.735	53.362	-0.088	0.084
-157.720	204.916	0.119	0.184
-156.706	-113.139	0.163	0.032
-155.691	773.167	-0.094	0.257
-154.677	-88.838	0.420	0.125
-153.662	800.000	-0.161	-0.445
-152.647	12.649	0.528	0.407
-151.633	-200.000	0.016	-0.110
-150.618	130.166	0.035	-0.045
-149.604	102.452	-0.171	0.200
-148.589	94.853	-0.320	-0.364
-147.574	800.000	-0.073	0.316
-146.560	800.000	0.026	-0.086
-145.545	-2.875	0.141	-0.098
-144.531	-7.566	0.139	-0.094
-143.516	-200.000	-0.021	0.103
-142.502	-147.762	-0.415	-0.035
-141.487	-200.000	0.002	0.267
-140.472	462.799	0.074	-0.165
-139.458	150.216	-0.019	-0.026
-138.443	140.207	0.035	0.047
-137.429	162.762	-0.062	-0.087
-136.414	-166.464	0.208	-0.009
-135.399	216.173	0.044	0.069
-134.385	-82.965	0.224	0.072
-133.370	192.777	0.131	0.197
-132.356	-200.000	-0.038	-0.320
-131.341	297.894	-0.067	0.123
-130.326	81.850	0.258	0.279
-129.312	-34.311	0.157	0.086
-128.297	556.547	-0.074	0.177
-127.283	-24.925	-0.006	-0.003
-126.268	-37.723	-0.156	-0.083
-125.253	-163.807	0.135	-0.006
-124.239	322.963	-0.137	-0.260
-123.224	-200.000	-0.001	-0.430
-122.210	-200.000	-0.035	-0.154
