DTS Sentinel unit serial number:	SN413079Multiplexer serial number:	ORYXHardware model number:	OX4-SRSoftware version number:	ORYX F/W v4.00 Oryx Data Collector v3.7.2.0data status	okinstallation	princeton_trtdifferential loss correction	single-endedforward channel	channel 1reverse channel	N/Adate	2019/09/14time	03:02:36forward acquisition time	60.00reverse acquisition time	0.00gamma	496.2192k internal	0.2336k external	0.2336temperature offset calibration	1.0078default loss term (dB/km)	0.3790temperature slope calibration	1.0000multiplexer offset coefficient	1.0000multiplexer slope coefficient	1.0000fibre end	0.00T internal ref (°C)	26.56T ext. ref 1 (°C)	3.25T ext. ref 2 (°C)	21.62length (m)	temperature (°C)	Stokes	anti-Stokes-747.200	-159.146	0.134	0.008
-746.185	-15.625	-0.306	0.196
-745.171	432.105	0.171	-0.373
-744.156	-196.572	-0.149	0.001
-743.142	360.280	0.178	0.357
-742.127	-72.783	-0.233	-0.086
-741.112	-200.000	0.034	0.177
-740.098	364.637	-0.094	0.190
-739.083	157.147	-0.153	0.212
-738.069	672.379	0.087	0.227
-737.054	27.645	-0.162	-0.137
-736.039	-116.647	-0.620	0.115
-735.025	-30.978	0.367	0.208
-734.010	-37.398	-0.406	0.218
-732.996	-9.843	-0.125	0.084
-731.981	90.503	-0.186	-0.209
-730.966	-200.000	-0.034	0.166
-729.952	323.619	-0.159	0.304
-728.937	70.856	-0.137	-0.142
-727.923	-15.882	0.109	0.070
-726.908	-200.000	-0.070	-0.626
-725.894	762.624	-0.023	0.063
-724.879	-200.000	-0.071	-0.496
-723.864	-146.935	0.074	-0.006
-722.850	-78.515	-0.205	0.070
-721.835	379.537	-0.124	-0.256
-720.821	-115.798	-0.168	-0.032
-719.806	58.440	-0.072	-0.070
-718.791	-200.000	-0.024	-0.213
-717.777	-74.676	-0.266	-0.096
-716.762	-166.790	0.062	0.003
-715.748	524.296	0.079	-0.188
-714.733	-122.743	0.313	0.051
-713.718	-132.045	-0.182	0.024
-712.704	367.726	0.164	-0.332
-711.689	445.167	0.074	-0.162
-710.675	335.330	-0.131	-0.255
-709.660	49.274	-0.031	0.029
-708.645	192.713	-0.062	0.094
-707.631	9.858	-0.017	0.013
-706.616	-20.947	-0.165	-0.101
-705.602	26.280	-0.178	-0.149
-704.587	556.607	-0.117	0.284
-703.572	65.510	-0.338	-0.343
-702.558	-34.863	0.103	-0.056
-701.543	-200.000	0.010	-0.177
-700.529	72.390	-0.069	0.072
-699.514	800.000	-0.064	-0.205
-698.499	-200.000	0.061	-0.342
-697.485	387.101	-0.149	0.309
-696.470	-127.378	0.254	-0.037
-695.456	800.000	-0.096	-0.374
-694.441	-175.980	-0.185	0.005
-693.426	127.984	-0.101	-0.128
-692.412	-27.533	-0.175	0.102
-691.397	210.266	-0.190	-0.299
-690.383	800.000	-0.102	0.311
-689.368	-200.000	-0.007	-0.097
-688.354	96.990	0.149	-0.172
-687.339	-130.258	0.057	-0.008
-686.324	178.607	0.117	-0.171
-685.310	154.048	0.190	-0.260
-684.295	4.104	-0.067	0.049
-683.281	800.000	-0.020	-0.071
-682.266	7.646	-0.264	0.198
-681.251	80.385	0.045	-0.049
-680.237	-128.104	0.206	-0.030
-679.222	12.489	0.121	-0.093
-678.208	-200.000	-0.022	-0.156
-677.193	800.000	-0.072	-0.246
-676.178	-200.000	-0.006	0.097
-675.164	-200.000	-0.073	0.400
-674.149	-102.601	0.031	0.007
-673.135	-120.245	-0.199	0.034
-672.120	70.373	0.272	0.282
-671.105	-157.755	-0.246	0.015
-670.091	-200.000	-0.013	0.055
-669.076	509.344	0.057	-0.132
-668.062	-21.532	-0.184	0.112
-667.047	-200.000	-0.002	0.126
-666.032	-38.119	0.256	-0.136
-665.018	-200.000	0.071	0.369
-664.003	800.000	-0.043	-0.157
-662.989	-200.000	0.009	0.186
-661.974	-123.875	0.433	0.068
-660.959	-200.000	0.009	0.307
-659.945	-126.420	0.186	0.028
-658.930	-200.000	-0.023	-0.179
-657.916	-200.000	0.007	0.037
-656.901	-48.085	-0.379	-0.183
-655.886	-10.078	0.160	-0.107
-654.872	-159.655	-0.188	-0.010
-653.857	137.849	-0.156	0.205
-652.843	-76.653	0.026	-0.009
-651.828	-200.000	0.059	-0.264
-650.814	-34.609	-0.093	-0.051
-649.799	77.315	-0.277	0.295
-648.784	169.138	0.175	0.249
-647.770	-144.593	-0.223	-0.021
-646.755	800.000	0.107	0.356
-645.741	-91.114	-0.363	-0.104
-644.726	800.000	-0.063	-0.189
-643.711	5.256	-0.156	0.115
-642.697	469.818	-0.094	-0.211
-641.682	19.749	0.098	-0.079
-640.668	73.059	0.102	0.107
-639.653	-167.483	-0.118	-0.005
-638.638	-159.768	0.373	-0.021
-637.624	800.000	0.016	0.063
-636.609	-124.134	0.151	0.024
-635.595	-29.302	0.140	-0.080
-634.580	-67.402	-0.170	0.067
-633.565	-160.481	0.135	-0.007
-632.551	-27.752	-0.048	0.028
-631.536	-200.000	-0.008	0.117
-630.522	-62.000	-0.131	-0.055
-629.507	800.000	0.045	0.186
-628.492	-110.113	0.092	0.019
-627.478	-200.000	-0.003	-0.037
-626.463	-101.124	0.145	0.036
-625.449	800.000	0.062	-0.207
-624.434	-37.472	-0.166	0.088
-623.419	65.157	0.234	0.237
-622.405	47.214	-0.034	0.032
-621.390	220.461	0.197	-0.316
-620.376	-200.000	-0.037	-0.322
-619.361	-101.425	-0.144	-0.035
-618.346	12.712	0.142	0.110
-617.332	160.529	-0.177	-0.247
-616.317	-60.023	0.138	-0.059
-615.303	24.861	0.198	0.164
-614.288	-200.000	0.039	0.280
-613.273	94.042	0.110	-0.125
-612.259	218.375	0.096	-0.153
-611.244	800.000	0.050	-0.217
-610.230	-40.636	0.111	0.058
-609.215	5.193	-0.059	-0.043
-608.201	-200.000	0.007	0.073
-607.186	35.657	0.010	-0.008
-606.171	104.007	0.231	-0.272
-605.157	130.581	-0.081	-0.103
-604.142	-122.064	-0.215	-0.035
-603.128	-200.000	0.015	-0.232
-602.113	4.807	-0.163	-0.120
-601.098	-147.139	0.106	-0.009
-600.084	-145.955	0.360	-0.032
-599.069	-31.794	-0.115	0.064
-598.055	800.000	-0.011	0.041
-597.040	616.243	-0.121	0.304
-596.025	800.000	0.019	0.063
-595.011	183.189	0.043	-0.064
-593.996	-80.610	-0.310	0.103
-592.982	188.226	-0.134	0.200
-591.967	16.185	0.213	0.167
-590.952	-111.763	-0.288	0.058
-589.938	-185.903	-0.093	-0.001
-588.923	-200.000	-0.040	0.216
-587.909	-72.454	0.073	-0.027
-586.894	-29.236	0.067	-0.038
-585.879	-11.003	0.089	-0.059
-584.865	-83.869	0.390	-0.124
-583.850	86.382	-0.117	0.129
-582.836	-93.489	-0.395	-0.109
-581.821	-150.961	-0.091	-0.007
-580.806	578.058	0.067	0.164
-579.792	15.736	-0.317	-0.249
-578.777	-87.179	0.441	0.134
-577.763	-200.000	0.056	0.272
-576.748	-189.909	0.200	0.002
-575.733	-200.000	0.026	-0.193
-574.719	98.100	-0.112	-0.129
-573.704	-200.000	-0.032	-0.252
-572.690	30.882	-0.261	-0.223
-571.675	-75.671	0.303	-0.107
-570.661	206.646	0.338	0.525
-569.646	-200.000	-0.009	0.221
-568.631	-38.034	0.107	0.057
-567.617	-51.788	0.144	-0.067
-566.602	7.013	0.174	-0.130
-565.588	-200.000	0.004	0.180
-564.573	-5.301	0.051	0.035
-563.558	-29.781	0.154	-0.088
-562.544	-115.527	-0.289	-0.054
-561.529	290.070	0.114	-0.207
-560.515	-41.474	-0.142	0.073
-559.500	-20.541	0.053	0.032
-558.485	-200.000	0.017	0.270
-557.471	394.081	-0.083	-0.172
-556.456	-138.348	-0.163	-0.018
-555.442	10.727	-0.256	0.195
-554.427	29.760	-0.142	0.120
-553.412	34.571	-0.239	0.208
-552.398	52.940	0.339	0.323
-551.383	800.000	0.084	-0.231
-550.369	-73.523	0.277	0.101
-549.354	-144.550	-0.127	0.012
-548.339	176.045	0.067	0.097
-547.325	125.376	-0.223	0.281
-546.310	-200.000	-0.097	-0.527
-545.296	-178.220	-0.489	-0.011
-544.281	-75.962	0.205	-0.072
-543.266	-99.124	0.078	0.020
-542.252	583.528	0.081	0.198
-541.237	73.613	-0.087	-0.090
-540.223	-34.374	-0.281	0.154
-539.208	-4.751	0.095	0.065
-538.193	-90.003	-0.132	0.038
-537.179	-52.345	-0.089	0.041
-536.164	-150.726	0.076	-0.006
-535.150	800.000	-0.017	-0.074
-534.135	-92.188	-0.177	0.050
-533.121	-2.342	-0.450	-0.315
-532.106	-199.445	-0.263	0.001
-531.091	181.922	-0.241	0.354
-530.077	-134.887	0.307	0.037
-529.062	800.000	0.053	0.175
-528.048	278.656	-0.061	-0.108
-527.033	166.150	-0.073	-0.103
-526.018	-57.765	-0.130	-0.057
-525.004	376.756	0.250	-0.508
-523.989	-200.000	-0.001	-0.159
-522.975	800.000	0.070	0.209
-521.960	-200.000	0.027	0.129
-520.945	800.000	0.107	-0.360
-519.931	114.153	0.269	-0.326
-518.916	-200.000	0.009	0.432
-517.902	-82.090	0.185	-0.060
-516.887	75.262	-0.052	-0.055
-515.872	-110.956	-0.228	-0.047
-514.858	-200.000	-0.005	-0.133
-513.843	484.516	0.100	-0.227
-512.829	473.326	0.076	0.171
-511.814	-200.000	-0.006	-0.053
-510.799	4.014	-0.417	0.303
-509.785	223.844	-0.098	0.157
-508.770	127.757	0.196	-0.247
-507.756	519.970	-0.180	0.420
-506.741	-200.000	-0.022	-0.112
-505.726	127.368	0.084	-0.106
-504.712	-149.773	-0.210	0.016
-503.697	-137.681	0.157	0.018
-502.683	-94.455	-0.055	0.015
-501.668	116.773	-0.086	0.105
-500.653	-4.344	-0.288	-0.198
-499.639	-200.000	-0.023	-0.443
-498.624	-187.697	-0.195	-0.003
-497.610	-35.893	0.261	0.140
-496.595	116.625	0.145	-0.177
-495.581	-12.435	0.076	-0.050
-494.566	-200.000	0.016	-0.190
-493.551	-116.940	0.098	-0.018
-492.537	-200.000	-0.002	0.055
-491.522	-200.000	0.021	0.176
-490.508	-33.503	-0.205	0.113
-489.493	-127.305	-0.125	0.018
-488.478	496.316	0.090	-0.207
-487.464	38.657	-0.131	0.116
-486.449	-107.975	0.076	-0.016
-485.435	167.348	-0.196	-0.277
-484.420	-29.943	0.348	-0.197
-483.405	59.768	-0.243	-0.239
-482.391	-61.689	-0.395	0.165
-481.376	70.373	-0.113	0.116
-480.362	45.777	0.117	0.107
-479.347	16.683	-0.276	-0.217
-478.332	-58.801	0.134	0.058
-477.318	-32.404	-0.134	0.074
-476.303	-111.434	0.136	0.028
-475.289	44.987	-0.117	-0.107
-474.274	-30.371	0.135	-0.076
-473.259	241.711	-0.206	0.342
-472.245	2.819	-0.285	0.205
-471.230	6.430	-0.127	-0.094
-470.216	460.878	-0.098	-0.217
-469.201	-200.000	-0.011	0.117
-468.186	-139.401	0.168	-0.018
-467.172	37.295	-0.255	0.224
-466.157	325.552	0.111	-0.211
-465.143	-158.620	0.123	0.007
-464.128	640.666	-0.087	-0.219
-463.113	612.712	-0.048	-0.119
-462.099	-112.436	0.277	0.055
-461.084	459.076	0.231	0.510
-460.070	800.000	0.040	0.153
-459.055	-200.000	-0.002	0.051
-458.040	-200.000	-0.019	0.155
-457.026	-200.000	0.024	-0.405
-456.011	29.049	-0.225	-0.189
-454.997	-118.989	0.287	-0.050
-453.982	333.974	0.113	-0.217
-452.968	-77.553	-0.233	0.080
-451.953	-153.467	0.182	-0.013
-450.938	-102.306	-0.242	-0.058
-449.924	800.000	-0.091	-0.269
-448.909	41.480	-0.136	-0.122
-447.895	800.000	0.086	0.258
-446.880	800.000	-0.044	-0.134
-445.865	800.000	0.072	0.201
-444.851	800.000	-0.172	-0.475
-443.836	-130.981	-0.249	-0.033
-442.822	265.301	0.016	0.027
-441.807	-200.000	0.006	0.076
-440.792	-75.707	0.281	0.099
-439.778	104.996	0.259	-0.303
-438.763	-200.000	0.002	0.443
-437.749	-56.224	0.236	-0.104
-436.734	611.016	0.070	-0.173
-435.719	93.268	-0.181	0.203
-434.705	48.677	-0.372	0.346
-433.690	-200.000	-0.025	0.113
-432.676	-53.983	0.292	0.132
-431.661	-147.132	-0.325	-0.028
-430.646	-200.000	-0.026	0.118
-429.632	169.416	-0.091	-0.130
-428.617	108.408	-0.341	-0.404
-427.603	-146.335	0.441	0.038
-426.588	188.002	0.209	-0.310
-425.573	8.713	0.339	-0.253
-424.559	345.626	0.151	-0.295
-423.544	-40.643	-0.160	0.082
-422.530	332.195	0.101	0.194
-421.515	192.458	-0.038	0.057
-420.500	-53.826	0.237	0.107
-419.486	-167.833	0.022	0.001
-418.471	-200.000	0.027	-0.339
-417.457	-200.000	0.006	0.098
-416.442	-14.779	-0.152	-0.097
-415.428	166.470	-0.047	-0.067
-414.413	353.467	0.021	-0.042
-413.398	-81.288	0.152	0.050
-412.384	800.000	0.113	-0.348
-411.369	-200.000	0.026	-0.369
-410.355	-200.000	-0.011	0.148
-409.340	326.091	-0.111	0.211
-408.325	220.614	0.092	-0.146
-407.311	-111.089	0.185	0.038
-406.296	337.273	0.148	0.285
-405.282	207.181	0.158	0.244
-404.267	733.388	0.053	0.142
-403.252	-200.000	-0.016	-0.158
-402.238	-19.678	-0.055	0.033
-401.223	-93.259	-0.321	-0.088
-400.209	-200.000	-0.038	0.168
-399.194	-200.000	0.049	-0.227
-398.179	-57.695	0.123	0.053
-397.165	-200.000	-0.002	0.097
-396.150	-200.000	-0.024	-0.126
-395.136	-200.000	0.038	-0.221
-394.121	-44.961	0.408	-0.201
-393.106	-200.000	-0.044	0.251
-392.092	-10.741	-0.233	-0.153
-391.077	-39.756	0.088	-0.045
-390.063	117.281	0.166	0.202
-389.048	-57.218	0.181	-0.079
-388.033	365.184	0.076	-0.152
-387.019	-29.216	0.360	-0.204
-386.004	-107.302	-0.250	0.054
-384.990	-102.132	0.392	0.094
-383.975	-54.792	-0.336	0.150
-382.960	800.000	-0.104	0.305
-381.946	-200.000	-0.052	-0.336
-380.931	-144.633	-0.221	0.020
-379.917	-47.321	0.453	0.218
-378.902	800.000	0.038	-0.128
-377.888	-158.374	-0.457	0.026
-376.873	-130.932	0.226	0.030
-375.858	-200.000	-0.041	-0.315
-374.844	342.927	0.035	-0.068
-373.829	-176.369	-0.111	0.003
-372.815	-80.828	-0.189	-0.062
-371.800	-108.844	-0.157	-0.033
-370.785	-200.000	-0.045	-0.199
-369.771	800.000	0.112	-0.353
-368.756	52.837	0.183	-0.174
-367.742	-200.000	-0.053	-0.299
-366.727	430.485	-0.099	-0.212
-365.712	119.307	-0.092	-0.112
-364.698	-101.758	-0.144	0.034
-363.683	-39.723	0.139	0.072
-362.669	-169.941	0.020	0.001
-361.654	800.000	0.024	0.090
-360.639	-200.000	-0.021	-0.128
-359.625	-78.254	-0.169	0.057
-358.610	69.386	-0.175	-0.178
-357.596	-125.531	-0.204	-0.031
-356.581	-200.000	-0.002	0.104
-355.566	16.130	0.135	0.105
-354.552	95.221	-0.426	-0.480
-353.537	102.956	0.067	0.078
-352.523	-98.686	0.149	0.038
-351.508	550.286	0.094	-0.224
-350.493	-135.249	-0.107	-0.013
-349.479	800.000	-0.033	-0.097
-348.464	-94.917	0.073	0.019
-347.450	-111.704	-0.111	-0.022
-346.435	-36.999	-0.123	0.065
-345.420	-85.232	-0.248	-0.077
-344.406	36.209	0.118	-0.103
-343.391	545.582	0.045	-0.107
-342.377	642.218	-0.092	-0.231
-341.362	-15.002	0.149	0.094
-340.348	-101.615	0.114	0.027
-339.333	800.000	-0.020	0.060
-338.318	72.638	-0.163	-0.168
-337.304	7.006	-0.210	-0.155
-336.289	-130.352	0.176	-0.024
-335.275	101.663	0.214	0.246
-334.260	-96.624	0.289	0.075
-333.245	-31.781	-0.164	-0.091
-332.231	-200.000	-0.077	-0.335
-331.216	7.873	0.050	0.037
-330.202	166.075	-0.116	0.162
-329.187	503.252	0.044	-0.100
-328.172	23.912	-0.089	-0.073
-327.158	-200.000	-0.055	0.344
-326.143	-200.000	-0.032	0.212
-325.129	-45.130	-0.306	0.150
-324.114	-37.472	0.275	0.145
-323.099	-21.455	-0.209	0.126
-322.085	-115.234	-0.222	-0.041
-321.070	-119.113	-0.423	-0.073
-320.056	800.000	-0.062	0.221
-319.041	681.003	-0.044	0.114
-318.026	619.046	0.009	0.022
-317.012	144.150	-0.180	-0.237
-315.997	-121.732	-0.031	-0.005
-314.983	18.758	-0.347	-0.274
-313.968	226.709	-0.130	0.208
-312.953	25.033	-0.158	-0.130
-311.939	-91.042	0.224	0.064
-310.924	65.770	-0.087	-0.087
-309.910	-168.312	-0.190	0.007
-308.895	-22.208	0.061	-0.037
-307.880	800.000	-0.069	0.249
-306.866	471.771	-0.139	0.309
-305.851	800.000	-0.055	0.165
-304.837	-158.632	-0.047	-0.003
-303.822	102.937	0.079	-0.091
-302.807	0.035	0.199	-0.140
-301.793	688.917	-0.080	0.207
-300.778	35.187	0.232	-0.201
-299.764	800.000	0.096	-0.311
-298.749	250.525	-0.059	0.099
-297.735	98.958	-0.247	0.282
-296.720	-3.114	0.109	-0.075
-295.705	-55.330	0.343	-0.152
-294.691	640.961	0.034	0.085
-293.676	-67.716	-0.168	0.065
-292.662	-143.563	0.147	-0.014
-291.647	-108.610	-0.034	-0.007
-290.632	233.933	-0.063	-0.103
-289.618	133.374	-0.098	-0.125
-288.603	4.513	0.303	-0.220
-287.589	-80.564	0.183	0.060
-286.574	224.639	-0.036	-0.057
-285.559	-200.000	0.008	0.357
-284.545	-108.801	-0.090	0.019
-283.530	-144.810	-0.234	0.021
-282.516	235.204	-0.262	0.427
-281.501	-85.096	-0.133	-0.041
-280.486	250.619	-0.017	0.028
-279.472	-200.000	0.008	-0.210
-278.457	800.000	0.083	-0.252
-277.443	-200.000	0.050	0.227
-276.428	-82.376	0.261	0.084
-275.413	-28.156	0.274	-0.156
-274.399	33.916	-0.319	0.274
-273.384	-1.973	0.186	-0.129
-272.370	-144.052	0.498	0.046
-271.355	800.000	0.026	-0.104
-270.340	-66.694	-0.052	0.020
-269.326	127.962	0.100	0.125
-268.311	-200.000	-0.000	-0.074
-267.297	35.060	-0.112	-0.097
-266.282	-101.372	-0.176	0.042
-265.267	-16.762	-0.071	-0.044
-264.253	-69.727	-0.273	-0.103
-263.238	149.885	0.067	-0.090
-262.224	415.588	0.069	-0.146
-261.209	517.151	-0.097	0.224
-260.195	-91.771	0.153	-0.043
-259.180	-200.000	0.022	0.361
-258.165	-61.143	0.401	-0.167
-257.151	201.551	-0.178	-0.270
-256.136	-57.412	-0.160	0.069
-255.122	-142.829	-0.155	0.015
-254.107	98.946	0.157	-0.179
-253.092	77.440	-0.276	0.289
-252.078	-200.000	0.008	-0.088
-251.063	-200.000	0.002	-0.050
-250.049	45.197	0.214	-0.194
-249.034	-12.417	0.173	0.111
-248.019	-152.045	-0.209	-0.015
-247.005	-122.523	0.086	0.014
-245.990	-120.376	0.280	0.047
-244.976	-117.313	0.080	0.014
-243.961	185.233	-0.155	0.227
-242.946	-39.489	0.383	0.197
-241.932	-159.594	0.152	-0.008
-240.917	-2.569	0.225	-0.155
-239.903	26.954	0.152	-0.125
-238.888	-200.000	0.015	0.087
-237.873	141.337	0.098	-0.128
-236.859	-200.000	-0.024	0.282
-235.844	486.539	0.103	-0.232
-234.830	-169.398	0.114	0.004
-233.815	-74.112	0.206	0.074
-232.800	45.995	-0.044	-0.040
-231.786	-48.973	-0.352	0.166
-230.771	8.657	-0.298	0.221
-229.757	-200.000	-0.019	-0.460
-228.742	465.973	-0.074	0.163
-227.727	249.512	0.246	0.410
-226.713	200.568	0.145	0.219
-225.698	-34.400	-0.401	0.216
-224.684	-100.644	-0.130	-0.032
-223.669	770.681	0.139	0.373
-222.655	28.527	-0.164	0.136
-221.640	-176.281	0.446	0.011
-220.625	-181.004	-0.160	-0.003
-219.611	496.051	-0.077	0.175
-218.596	-134.461	0.095	-0.011
-217.582	84.691	0.106	0.115
-216.567	-167.976	0.038	0.001
-215.552	-36.107	0.302	0.160
-214.538	-116.464	0.169	0.031
-213.523	179.755	-0.155	0.223
-212.509	85.842	0.128	-0.139
-211.494	800.000	0.083	-0.273
-210.479	-24.340	-0.211	-0.124
-209.465	613.764	-0.105	0.259
-208.450	-90.563	-0.253	-0.072
-207.436	800.000	0.033	-0.131
-206.421	-200.000	-0.042	-0.194
-205.406	5.649	0.160	-0.117
-204.392	-200.000	0.042	-0.322
-203.377	-102.822	-0.341	-0.080
-202.363	-200.000	0.037	0.253
-201.348	800.000	-0.051	-0.204
-200.333	-200.000	-0.040	0.334
-199.319	164.048	0.156	0.217
-198.304	-184.401	-0.321	0.005
-197.290	-130.083	-0.056	-0.008
-196.275	235.983	0.164	0.267
-195.260	81.932	0.193	0.206
-194.246	-200.000	-0.021	0.239
-193.231	800.000	-0.082	0.232
-192.217	-61.071	0.190	0.079
-191.202	-32.147	0.340	-0.187
-190.187	-138.165	-0.132	-0.014
-189.173	461.496	-0.128	0.281
-188.158	159.993	-0.108	-0.148
-187.144	57.941	0.261	0.251
-186.129	-92.069	0.083	0.023
-185.114	16.803	-0.158	0.123
-184.100	300.864	-0.157	0.285
-183.085	82.322	-0.208	-0.221
-182.071	-22.494	-0.227	-0.135
-181.056	800.000	0.055	-0.175
-180.042	-121.338	0.007	0.001
-179.027	59.491	0.201	0.194
-178.012	-48.643	-0.259	0.122
-176.998	-200.000	0.302	-0.001
-175.983	800.000	0.053	-0.190
-174.969	-51.554	0.171	0.078
-173.954	86.119	0.350	0.379
-172.939	-200.000	-0.006	-0.030
-171.925	558.902	-0.137	-0.325
-170.910	-200.000	-0.011	0.145
-169.896	16.211	0.106	0.082
-168.881	-10.806	0.220	-0.143
-167.866	-200.000	0.020	-0.165
-166.852	121.885	0.270	0.331
-165.837	255.379	0.039	0.065
-164.823	81.606	0.069	-0.074
-163.808	82.228	-0.181	0.193
-162.793	-79.062	-0.178	0.059
-161.779	-200.000	-0.015	-0.266
-160.764	-35.371	0.193	-0.103
-159.750	800.000	0.029	0.088
-158.735	-160.686	0.114	0.006
-157.720	-77.597	0.139	0.047
-156.706	223.031	-0.048	-0.075
-155.691	169.504	0.210	-0.295
-154.677	390.689	-0.120	0.244
-153.662	-44.303	0.154	0.076
-152.647	-200.000	0.009	0.094
-151.633	-30.498	0.236	0.131
-150.618	-65.164	0.147	-0.058
-149.604	70.124	0.055	-0.056
-148.589	640.277	-0.061	-0.151
-147.574	-174.979	0.126	-0.003
-146.560	-32.419	0.325	0.178
-145.545	-200.000	0.038	0.165
-144.531	-128.265	-0.101	0.014
-143.516	548.424	0.060	-0.142
-142.502	35.439	-0.031	0.027
-141.487	-98.226	0.164	0.041
-140.472	-62.546	0.418	-0.170
-139.458	-128.908	0.401	-0.055
-138.443	-8.079	-0.296	-0.196
-137.429	-52.952	0.229	-0.103
-136.414	-77.007	0.141	0.048
-135.399	0.007	-0.173	0.121
-134.385	-44.345	0.182	0.089
-133.370	800.000	0.049	0.154
-132.356	10.259	-0.266	0.198
-131.341	800.000	-0.106	0.442
-130.326	216.314	-0.164	-0.256
-129.312	-96.684	0.403	0.104
-128.297	18.707	0.182	0.143
-127.283	362.652	-0.123	-0.242
-126.268	800.000	0.040	0.117
-125.253	-4.709	0.106	-0.072
-124.239	-10.657	-0.449	0.291
-123.224	80.375	0.151	0.159
-122.210	172.452	-0.205	0.290
-121.195	196.032	0.094	-0.140
