DTS Sentinel unit serial number:	SN413079Multiplexer serial number:	ORYXHardware model number:	OX4-SRSoftware version number:	ORYX F/W v4.00 Oryx Data Collector v3.7.2.0data status	okinstallation	princeton_trtdifferential loss correction	single-endedforward channel	channel 1reverse channel	N/Adate	2019/09/11time	08:00:11forward acquisition time	60.00reverse acquisition time	0.00gamma	496.2192k internal	0.2321k external	0.2321temperature offset calibration	1.1218default loss term (dB/km)	0.3790temperature slope calibration	1.0000multiplexer offset coefficient	1.0000multiplexer slope coefficient	1.0000fibre end	0.00T internal ref (°C)	32.06T ext. ref 1 (°C)	19.26T ext. ref 2 (°C)	27.62length (m)	temperature (°C)	Stokes	anti-Stokes-747.200	56.339	-0.109	0.107
-746.185	-58.289	0.128	0.056
-745.171	-109.256	0.092	-0.020
-744.156	15.392	-0.159	-0.126
-743.142	-156.299	0.456	-0.029
-742.127	-200.000	-0.059	0.482
-741.112	-200.000	0.024	0.126
-740.098	574.312	-0.141	0.348
-739.083	800.000	-0.068	-0.202
-738.069	278.936	-0.041	-0.073
-737.054	25.650	-0.074	-0.062
-736.039	-200.000	0.000	0.187
-735.025	-200.000	-0.040	0.314
-734.010	177.097	0.082	-0.120
-732.996	-138.515	0.310	-0.034
-731.981	302.828	-0.088	0.165
-730.966	-128.856	0.122	-0.017
-729.952	-200.000	0.033	0.277
-728.937	-191.740	-0.277	0.003
-727.923	-34.698	0.253	-0.140
-726.908	84.587	-0.056	-0.062
-725.894	424.656	-0.033	-0.072
-724.879	49.751	-0.176	-0.168
-723.864	169.530	-0.118	-0.171
-722.850	185.208	0.129	0.194
-721.835	800.000	-0.029	0.107
-720.821	10.782	-0.116	0.089
-719.806	-129.578	-0.427	-0.060
-718.791	-39.203	-0.171	-0.091
-717.777	756.389	-0.147	-0.402
-716.762	252.768	0.250	-0.430
-715.748	-110.436	0.320	-0.067
-714.733	-133.309	-0.329	0.042
-713.718	-90.326	-0.329	0.096
-712.704	-200.000	-0.028	0.133
-711.689	18.126	0.191	-0.154
-710.675	138.759	0.096	-0.127
-709.660	40.276	-0.201	0.183
-708.645	-108.155	0.099	-0.022
-707.631	-30.367	-0.174	0.100
-706.616	-188.486	0.325	0.004
-705.602	-200.000	-0.003	0.295
-704.587	211.487	-0.113	-0.179
-703.572	-70.548	-0.235	0.090
-702.558	-166.546	-0.231	0.010
-701.543	39.547	0.044	-0.040
-700.529	-200.000	-0.014	-0.226
-699.514	580.306	-0.102	-0.251
-698.499	108.995	0.015	0.018
-697.485	24.490	0.355	0.296
-696.470	-52.623	-0.175	-0.082
-695.456	0.287	0.139	-0.100
-694.441	800.000	-0.053	0.198
-693.426	-69.627	0.215	0.083
-692.412	-0.595	-0.124	-0.089
-691.397	-47.659	-0.143	0.070
-690.383	-200.000	-0.007	-0.089
-689.368	524.714	0.070	0.166
-688.354	153.236	-0.078	0.107
-687.339	180.131	-0.197	0.291
-686.324	-40.291	-0.224	-0.118
-685.310	51.106	-0.169	0.161
-684.295	-42.531	-0.364	0.187
-683.281	800.000	0.100	0.324
-682.266	-69.721	0.162	0.062
-681.251	-76.959	-0.128	0.045
-680.237	-65.149	-0.062	0.025
-679.222	16.242	0.197	0.157
-678.208	-200.000	-0.008	-0.532
-677.193	-133.290	0.140	-0.018
-676.178	800.000	-0.043	-0.178
-675.164	800.000	0.083	-0.282
-674.149	93.421	-0.388	-0.443
-673.135	-128.807	-0.088	-0.012
-672.120	-200.000	0.009	0.089
-671.105	-200.000	-0.025	0.175
-670.091	-200.000	0.014	-0.249
-669.076	118.329	0.084	-0.104
-668.062	800.000	-0.025	-0.101
-667.047	100.257	-0.314	-0.367
-666.032	122.883	0.160	0.202
-665.018	-81.437	0.240	-0.080
-664.003	-200.000	0.032	-0.326
-662.989	48.501	-0.292	-0.276
-661.974	-200.000	-0.045	0.206
-660.959	-64.503	0.279	-0.114
-659.945	-101.305	0.170	-0.042
-658.930	3.860	-0.364	-0.268
-657.916	29.220	-0.127	0.109
-656.901	41.136	0.143	0.130
-655.886	800.000	0.112	-0.476
-654.872	86.371	-0.117	0.130
-653.857	204.523	-0.057	0.089
-652.843	101.682	-0.247	-0.290
-651.828	-200.000	-0.027	0.256
-650.814	-200.000	0.057	0.295
-649.799	276.170	-0.240	0.429
-648.784	738.915	0.051	0.137
-647.770	-47.289	-0.136	-0.067
-646.755	47.526	-0.113	0.106
-645.741	800.000	-0.078	-0.275
-644.726	-28.747	0.441	0.256
-643.711	-73.772	-0.392	-0.143
-642.697	132.101	-0.233	-0.302
-641.682	-200.000	-0.018	0.093
-640.668	259.725	-0.153	-0.266
-639.653	249.853	0.036	-0.062
-638.638	69.067	0.187	0.194
-637.624	-56.705	0.051	-0.023
-636.609	121.608	0.078	0.098
-635.595	-200.000	0.018	0.168
-634.580	-29.848	-0.158	-0.090
-633.565	-25.149	0.223	-0.133
-632.551	-151.991	-0.328	-0.024
-631.536	-82.735	-0.459	-0.149
-630.522	266.617	-0.068	-0.120
-629.507	-80.747	-0.126	-0.042
-628.492	-200.000	0.057	-0.391
-627.478	-88.791	-0.261	-0.078
-626.463	-153.296	0.188	-0.013
-625.449	10.013	-0.159	0.121
-624.434	179.452	-0.172	0.253
-623.419	-70.145	-0.273	-0.105
-622.405	63.135	0.200	-0.202
-621.390	47.794	-0.107	0.101
-620.376	-86.529	0.081	-0.025
-619.361	155.635	0.079	-0.109
-618.346	800.000	-0.122	-0.453
-617.332	194.172	-0.072	-0.109
-616.317	183.079	0.190	0.283
-615.303	800.000	-0.143	-0.506
-614.288	-109.626	-0.329	-0.070
-613.273	84.773	0.176	-0.194
-612.259	800.000	0.040	0.119
-611.244	800.000	0.144	0.493
-610.230	10.013	0.083	0.064
-609.215	381.793	-0.120	0.247
-608.201	-104.209	0.182	-0.042
-607.186	101.928	-0.254	-0.299
-606.171	-160.508	0.420	0.023
-605.157	800.000	-0.009	-0.029
-604.142	176.544	0.159	-0.233
-603.128	630.581	0.016	0.039
-602.113	111.221	0.116	0.140
-601.098	-175.635	0.184	0.005
-600.084	800.000	0.120	0.513
-599.069	-6.881	0.341	0.233
-598.055	28.795	0.110	0.094
-597.040	151.967	0.144	0.198
-596.025	800.000	-0.036	0.152
-595.011	62.321	-0.288	0.289
-593.996	201.838	-0.261	0.404
-592.982	2.942	0.107	-0.078
-591.967	-103.310	0.036	-0.009
-590.952	-51.740	0.268	0.126
-589.938	-200.000	0.031	-0.181
-588.923	-47.218	0.337	-0.165
-587.909	-200.000	0.020	-0.288
-586.894	800.000	-0.075	-0.221
-585.879	145.486	0.130	0.175
-584.865	93.468	-0.100	-0.113
-583.850	-166.108	-0.393	0.017
-582.836	448.088	-0.049	0.109
-581.821	211.967	0.148	-0.233
-580.806	-67.780	-0.226	-0.089
-579.792	-200.000	0.001	0.148
-578.777	-200.000	-0.002	0.087
-577.763	-200.000	0.004	-0.139
-576.748	800.000	0.092	-0.302
-575.733	-167.625	0.126	-0.005
-574.719	-11.626	-0.248	-0.164
-573.704	256.237	-0.115	-0.199
-572.690	800.000	-0.019	-0.080
-571.675	31.137	0.260	-0.224
-570.661	-152.671	-0.045	0.003
-569.646	305.018	-0.052	-0.096
-568.631	-200.000	0.008	-0.364
-567.617	414.483	0.080	0.171
-566.602	262.479	-0.093	-0.162
-565.588	275.610	0.185	0.330
-564.573	-200.000	0.028	0.297
-563.558	457.740	0.035	-0.078
-562.544	-147.985	-0.269	-0.022
-561.529	-98.101	0.264	0.068
-560.515	143.259	-0.057	0.076
-559.500	-128.169	-0.401	-0.057
-558.485	-109.488	0.308	0.065
-557.471	-200.000	-0.035	0.486
-556.456	358.099	0.078	-0.156
-555.442	-71.863	0.200	-0.075
-554.427	-99.570	-0.451	-0.114
-553.412	-200.000	0.025	0.318
-552.398	377.697	-0.019	0.039
-551.383	80.126	-0.020	0.021
-550.369	800.000	-0.072	-0.199
-549.354	-131.289	0.355	0.047
-548.339	-30.261	-0.118	-0.067
-547.325	-200.000	-0.001	-0.009
-546.310	87.758	0.207	0.230
-545.296	800.000	-0.041	-0.177
-544.281	-200.000	0.025	0.370
-543.266	23.079	-0.253	0.208
-542.252	-200.000	-0.031	-0.173
-541.237	-99.352	0.401	0.101
-540.223	-200.000	-0.035	0.175
-539.208	800.000	0.129	-0.374
-538.193	-200.000	0.006	-0.191
-537.179	-142.570	0.444	-0.044
-536.164	-102.107	-0.121	-0.029
-535.150	800.000	-0.063	-0.186
-534.135	246.133	0.171	-0.289
-533.121	-200.000	-0.024	0.108
-532.106	5.485	-0.165	0.122
-531.091	338.763	-0.099	0.193
-530.077	-84.239	-0.308	0.098
-529.062	26.961	0.086	0.072
-528.048	-44.475	0.075	-0.038
-527.033	-200.000	-0.016	-0.081
-526.018	-4.368	0.355	-0.246
-525.004	-52.323	-0.227	0.105
-523.989	91.283	0.184	0.207
-522.975	579.569	0.071	0.174
-521.960	-103.357	-0.212	-0.050
-520.945	-20.451	0.242	-0.149
-519.931	-29.259	0.037	-0.021
-518.916	-139.180	-0.181	0.020
-517.902	-39.485	-0.198	0.104
-516.887	-200.000	0.043	0.415
-515.872	266.115	0.142	-0.249
-514.858	-200.000	0.031	0.312
-513.843	58.297	-0.217	-0.213
-512.829	-69.714	-0.213	-0.082
-511.814	-200.000	0.010	-0.157
-510.799	-44.891	-0.132	-0.066
-509.785	800.000	0.082	-0.327
-508.770	9.242	0.125	0.095
-507.756	500.407	0.022	0.051
-506.741	698.563	0.063	0.166
-505.726	27.113	-0.062	-0.052
-504.712	-200.000	0.047	-0.275
-503.697	121.081	-0.200	-0.249
-502.683	-53.832	-0.201	-0.092
-501.668	800.000	-0.069	0.253
-500.653	-137.365	0.200	-0.023
-499.639	32.156	-0.055	0.048
-498.624	285.202	-0.130	0.235
-497.610	800.000	0.060	-0.224
-496.595	-40.212	-0.196	0.102
-495.581	332.406	-0.103	-0.199
-494.566	-8.255	0.238	-0.160
-493.551	-37.592	-0.267	-0.142
-492.537	-200.000	0.034	0.340
-491.522	-200.000	0.059	-0.339
-490.508	164.104	-0.155	-0.218
-489.493	-200.000	0.035	-0.212
-488.478	-146.578	0.242	-0.021
-487.464	-118.996	0.137	0.024
-486.449	539.083	-0.097	-0.231
-485.435	-3.852	-0.158	0.110
-484.420	-200.000	0.024	0.148
-483.405	-25.942	0.121	-0.071
-482.391	-200.000	0.054	-0.390
-481.376	-200.000	0.010	0.303
-480.362	800.000	0.020	0.067
-479.347	-43.734	-0.216	0.109
-478.332	321.175	-0.144	0.273
-477.318	112.407	-0.112	-0.135
-476.303	-72.414	0.217	0.080
-475.289	-200.000	0.032	-0.165
-474.274	330.979	-0.029	0.055
-473.259	-200.000	-0.088	-0.611
-472.245	-28.932	0.482	-0.277
-471.230	116.458	0.292	-0.358
-470.216	-140.730	0.193	-0.020
-469.201	128.842	-0.115	0.147
-468.186	-200.000	-0.042	-0.263
-467.172	300.861	-0.122	-0.225
-466.157	24.905	-0.066	-0.055
-465.143	613.927	-0.064	0.161
-464.128	477.894	0.071	0.161
-463.113	-197.624	-0.301	-0.002
-462.099	-200.000	0.038	-0.388
-461.084	412.060	0.127	-0.271
-460.070	-74.133	0.440	0.159
-459.055	-44.277	-0.118	0.059
-458.040	299.394	0.077	-0.143
-457.026	800.000	-0.077	-0.279
-456.011	-200.000	-0.008	0.134
-454.997	-200.000	-0.123	0.762
-453.982	47.328	0.078	-0.073
-452.968	-64.360	0.096	-0.039
-451.953	335.094	0.075	-0.145
-450.938	-200.000	0.043	0.192
-449.924	-46.465	-0.065	0.032
-448.909	294.352	0.167	0.304
-447.895	800.000	-0.063	-0.226
-446.880	388.126	0.064	0.132
-445.865	-194.430	-0.314	-0.003
-444.851	-98.200	0.166	0.043
-443.836	800.000	-0.034	-0.148
-442.822	338.392	0.011	0.022
-441.807	6.878	0.188	-0.140
-440.792	-94.629	-0.134	-0.036
-439.778	-48.461	0.106	0.051
-438.763	-151.751	-0.315	0.023
-437.749	275.086	0.066	0.118
-436.734	800.000	-0.037	-0.120
-435.719	-77.298	-0.122	-0.042
-434.705	-69.066	0.258	-0.099
-433.690	-200.000	0.001	0.040
-432.676	179.598	-0.127	0.185
-431.661	-82.730	0.161	-0.052
-430.646	-97.792	-0.398	-0.103
-429.632	556.362	0.093	-0.225
-428.617	-17.621	0.181	-0.114
-427.603	800.000	-0.062	-0.230
-426.588	43.334	0.103	0.093
-425.573	-190.317	-0.325	-0.004
-424.559	-5.506	0.061	-0.042
-423.544	-52.360	0.087	-0.040
-422.530	800.000	-0.083	0.295
-421.515	-10.578	-0.108	0.071
-420.500	-121.347	-0.274	-0.046
-419.486	363.709	0.195	0.391
-418.471	-71.721	0.181	0.067
-417.457	-101.985	-0.252	0.061
-416.442	46.591	0.328	-0.304
-415.428	112.523	-0.189	0.229
-414.413	-170.563	0.200	0.007
-413.398	800.000	-0.151	-0.470
-412.384	-200.000	-0.013	-0.239
-411.369	-200.000	-0.042	0.273
-410.355	501.862	-0.173	0.398
-409.340	781.159	-0.058	-0.157
-408.325	-200.000	-0.024	0.341
-407.311	-200.000	-0.054	-0.341
-406.296	203.445	0.166	0.256
-405.282	-152.523	0.127	0.009
-404.267	-49.116	-0.404	-0.193
-403.252	-131.324	-0.313	0.041
-402.238	19.454	-0.141	0.113
-401.223	609.161	0.143	0.356
-400.209	113.885	-0.231	-0.280
-399.194	399.323	-0.045	0.094
-398.179	-200.000	0.007	0.055
-397.165	-75.382	0.181	-0.064
-396.150	142.090	0.204	0.269
-395.136	-126.484	0.272	-0.040
-394.121	55.256	-0.203	0.195
-393.106	184.791	-0.073	-0.109
-392.092	-200.000	0.061	-0.444
-391.077	87.388	-0.112	-0.123
-390.063	-200.000	-0.030	-0.169
-389.048	156.685	0.239	0.330
-388.033	-116.052	0.239	-0.044
-387.019	125.049	0.076	-0.096
-386.004	-103.142	-0.160	0.038
-384.990	-7.994	-0.255	-0.171
-383.975	800.000	0.048	0.187
-382.960	169.431	-0.166	-0.236
-381.946	-37.383	0.228	0.121
-380.931	-151.465	-0.488	0.036
-379.917	800.000	-0.072	-0.227
-378.902	67.848	0.114	-0.117
-377.888	-200.000	0.010	0.194
-376.873	-200.000	0.042	0.222
-375.858	-73.277	-0.057	0.021
-374.844	-92.704	0.420	0.117
-373.829	-139.737	0.395	0.042
-372.815	575.949	-0.191	0.466
-371.800	-16.629	-0.272	0.171
-370.785	-200.000	-0.018	0.215
-369.771	-13.934	0.343	-0.221
-368.756	-56.602	-0.232	0.102
-367.742	-15.466	0.404	0.257
-366.727	-20.143	-0.210	-0.129
-365.712	-92.920	0.262	-0.073
-364.698	85.611	-0.250	0.273
-363.683	-159.480	0.082	0.005
-362.669	329.681	-0.116	0.222
-361.654	215.872	0.097	0.154
-360.639	122.233	-0.090	0.112
-359.625	-200.000	-0.047	0.226
-358.610	738.662	0.042	-0.113
-357.596	18.889	0.303	0.242
-356.581	754.684	-0.024	0.064
-355.566	354.641	-0.144	0.285
-354.552	-200.000	-0.004	0.057
-353.537	-121.883	0.198	0.032
-352.523	-107.100	0.256	0.056
-351.508	476.587	0.021	-0.046
-350.493	705.859	0.050	0.130
-349.479	251.938	0.195	-0.330
-348.464	-3.468	-0.259	0.179
-347.450	-9.101	0.246	0.164
-346.435	-185.003	0.180	-0.003
-345.420	59.220	-0.125	0.122
-344.406	-120.459	0.023	-0.004
-343.391	43.113	-0.221	-0.201
-342.377	-200.000	-0.038	0.254
-341.362	-178.734	-0.147	0.003
-340.348	-46.232	-0.412	-0.202
-339.333	797.576	0.116	-0.317
-338.318	-200.000	0.034	0.254
-337.304	-127.458	-0.152	0.022
-336.289	-46.766	-0.066	-0.032
-335.275	111.634	0.056	0.068
-334.260	-200.000	-0.003	-0.196
-333.245	99.616	0.313	0.361
-332.231	-68.889	-0.271	0.104
-331.216	-171.362	-0.177	0.006
-330.202	-200.000	0.012	-0.240
-329.187	106.823	-0.160	-0.189
-328.172	-200.000	0.082	-0.384
-327.158	62.373	-0.021	0.021
-326.143	-200.000	0.046	0.342
-325.129	-200.000	0.028	0.250
-324.114	-200.000	-0.006	-0.166
-323.099	800.000	-0.080	0.310
-322.085	-11.569	0.176	0.115
-321.070	28.688	0.193	-0.163
-320.056	-200.000	0.014	0.063
-319.041	-200.000	0.015	-0.337
-318.026	358.014	0.132	-0.262
-317.012	800.000	0.030	0.091
-315.997	31.912	-0.148	0.127
-314.983	-115.719	-0.148	-0.028
-313.968	71.923	-0.090	-0.093
-312.953	800.000	0.099	0.322
-311.939	-109.775	-0.043	0.009
-310.924	-200.000	0.011	0.283
-309.910	-149.641	-0.442	0.035
-308.895	106.522	0.127	-0.149
-307.880	-76.543	-0.046	-0.016
-306.866	400.232	0.035	-0.073
-305.851	-78.655	-0.124	-0.042
-304.837	-116.031	0.399	0.074
-303.822	73.114	-0.249	0.258
-302.807	-183.331	-0.200	-0.003
-301.793	-200.000	-0.018	-0.245
-300.778	2.297	0.186	-0.134
-299.764	251.625	0.092	-0.155
-298.749	-200.000	0.041	0.197
-297.735	-65.761	-0.119	-0.048
-296.720	-39.066	-0.197	0.103
-295.705	-111.215	0.238	-0.048
-294.691	222.861	-0.111	-0.177
-293.676	48.469	-0.135	0.126
-292.662	-177.468	-0.155	-0.004
-291.647	-200.000	-0.014	-0.209
-290.632	22.147	-0.098	-0.080
-289.618	-17.648	-0.312	0.195
-288.603	800.000	0.039	-0.161
-287.589	-97.163	-0.070	0.018
-286.574	-200.000	0.003	0.228
-285.559	51.472	-0.080	0.075
-284.545	257.184	0.024	0.042
-283.530	78.981	-0.138	0.147
-282.516	-28.064	-0.176	-0.101
-281.501	-111.975	0.168	0.034
-280.486	-33.577	-0.287	0.157
-279.472	-176.224	-0.240	-0.006
-278.457	-76.742	-0.250	0.087
-277.443	785.155	-0.105	0.286
-276.428	-59.941	-0.148	0.063
-275.413	5.518	-0.146	-0.107
-274.399	137.140	0.149	-0.193
-273.384	-21.677	0.196	0.119
-272.370	-42.375	0.170	-0.086
-271.355	800.000	0.125	0.534
-270.340	800.000	-0.104	0.445
-269.326	216.404	0.060	-0.094
-268.311	-200.000	0.058	-0.265
-267.297	-64.227	0.183	0.074
-266.282	-93.039	0.085	-0.023
-265.267	-119.593	0.271	0.046
-264.253	123.155	0.079	0.098
-263.238	800.000	-0.110	-0.330
-262.224	10.357	0.227	-0.171
-261.209	-160.072	0.437	-0.024
-260.195	800.000	-0.067	0.189
-259.180	48.751	0.171	0.159
-258.165	-82.204	-0.325	0.105
-257.151	-200.000	0.004	-0.242
-256.136	472.097	0.060	-0.133
-255.122	-155.037	-0.194	-0.013
-254.107	-200.000	0.001	-0.137
-253.092	252.795	0.097	0.163
-252.078	565.186	0.092	0.222
-251.063	-200.000	-0.016	0.280
-250.049	-144.026	0.187	-0.017
-249.034	-40.486	-0.188	-0.097
-248.019	800.000	0.073	-0.257
-247.005	168.343	-0.276	-0.389
-245.990	305.678	0.182	0.335
-244.976	514.758	0.086	-0.199
-243.961	142.649	-0.262	-0.344
-242.946	-200.000	-0.016	-0.109
-241.932	29.314	-0.103	0.087
-240.917	-30.632	-0.179	-0.100
-239.903	-108.844	-0.374	-0.079
-238.888	251.436	0.121	-0.204
-237.873	-62.406	0.311	-0.128
-236.859	179.075	-0.286	-0.414
-235.844	190.646	-0.094	0.140
-234.830	-44.321	0.483	0.240
-233.815	93.856	0.163	0.183
-232.800	26.067	-0.294	-0.243
-231.786	85.125	0.045	-0.048
-230.771	11.169	0.217	0.164
-229.757	-35.889	0.117	0.063
-228.742	789.790	0.040	0.109
-227.727	25.569	-0.121	-0.100
-226.713	-81.214	0.053	-0.017
-225.698	-112.909	0.195	-0.038
-224.684	-28.846	0.259	-0.147
-223.669	226.218	-0.153	0.246
-222.655	-200.000	-0.048	0.237
-221.640	-200.000	-0.014	0.175
-220.625	-41.519	0.037	0.019
-219.611	83.797	0.157	0.170
-218.596	-104.351	0.111	-0.026
-217.582	-21.378	0.144	0.087
-216.567	-200.000	0.000	-0.284
-215.552	-200.000	-0.056	-0.266
-214.538	25.320	0.165	0.136
-213.523	50.981	0.374	-0.351
-212.509	154.398	-0.157	0.213
-211.494	484.466	0.167	0.375
-210.479	800.000	0.104	0.306
-209.465	-49.291	0.318	0.150
-208.450	120.468	0.200	-0.246
-207.436	84.520	0.090	0.097
-206.421	-200.000	0.050	0.248
-205.406	403.267	-0.111	-0.231
-204.392	-102.022	-0.156	-0.037
-203.377	61.193	0.077	0.076
-202.363	32.690	0.262	-0.225
-201.348	208.736	-0.106	-0.165
-200.333	-200.000	-0.011	-0.138
-199.319	-140.164	0.302	-0.031
-198.304	-200.000	0.029	-0.248
-197.290	368.581	-0.066	-0.133
-196.275	-44.073	-0.248	-0.123
-195.260	-58.521	0.044	-0.019
-194.246	18.161	0.368	0.290
-193.231	800.000	-0.025	-0.092
-192.217	43.203	-0.185	-0.167
-191.202	210.632	0.172	0.268
-190.187	326.219	-0.062	-0.117
-189.173	-38.629	-0.118	0.062
-188.158	-141.645	-0.367	-0.037
-187.144	189.167	0.235	0.349
-186.129	-160.472	-0.205	0.011
-185.114	165.948	0.172	-0.241
-184.100	260.300	-0.057	0.097
-183.085	211.505	-0.112	-0.175
-182.071	-200.000	0.001	-0.061
-181.056	4.665	-0.079	-0.058
-180.042	-44.332	-0.199	-0.099
-179.027	-138.404	0.213	-0.023
-178.012	534.103	-0.093	-0.217
-176.998	311.523	0.046	-0.085
-175.983	-20.311	0.210	-0.128
-174.969	370.408	0.172	0.345
-173.954	-30.287	0.069	0.038
-172.939	-195.230	0.308	-0.002
-171.925	800.000	0.092	-0.382
-170.910	202.692	0.024	-0.037
-169.896	-30.839	-0.251	-0.140
-168.881	-102.756	0.140	0.033
-167.866	484.263	0.078	-0.174
-166.852	-92.596	-0.213	0.059
-165.837	-31.803	-0.320	-0.177
-164.823	20.622	0.247	0.198
-163.808	-152.134	0.106	-0.008
-162.793	0.567	-0.250	-0.177
-161.779	-108.535	0.173	-0.037
-160.764	119.277	-0.108	0.132
-159.750	99.931	0.051	0.058
-158.735	460.496	0.020	-0.043
-157.720	-200.000	-0.014	0.089
-156.706	-132.402	0.064	0.008
-155.691	-41.607	-0.201	0.102
-154.677	-53.702	-0.095	0.043
-153.662	239.081	-0.138	0.227
-152.647	-200.000	0.072	0.342
-151.633	-31.455	-0.162	0.090
-150.618	148.033	-0.099	0.132
-149.604	-97.764	-0.260	0.067
-148.589	-200.000	0.022	0.183
-147.574	-200.000	0.173	0.001
-146.560	181.649	0.053	-0.077
-145.545	-123.730	-0.141	0.022
-144.531	-155.083	-0.164	0.011
-143.516	-71.702	0.339	0.125
-142.502	391.516	-0.046	0.093
-141.487	-26.895	0.116	0.067
-140.472	93.947	-0.209	-0.234
-139.458	49.224	-0.178	-0.165
-138.443	-156.929	-0.008	-0.001
-137.429	-62.291	0.332	-0.136
-136.414	13.490	-0.263	-0.202
-135.399	-55.326	-0.318	0.141
-134.385	272.198	-0.110	-0.191
-133.370	800.000	-0.050	-0.211
-132.356	-158.291	-0.153	-0.009
-131.341	800.000	-0.092	-0.272
-130.326	-200.000	0.048	0.231
-129.312	40.637	0.030	-0.027
-128.297	-35.634	0.280	0.150
-127.283	20.522	0.124	0.099
-126.268	220.473	0.203	-0.321
-125.253	-104.710	0.273	-0.062
-124.239	-200.000	-0.017	-0.088
-123.224	218.074	0.173	0.273
-122.210	-200.000	0.006	0.230
