DTS Sentinel unit serial number:	SN413079Multiplexer serial number:	ORYXHardware model number:	OX4-SRSoftware version number:	ORYX F/W v4.00 Oryx Data Collector v3.7.2.0data status	okinstallation	princeton_trtdifferential loss correction	single-endedforward channel	channel 1reverse channel	N/Adate	2019/09/12time	15:12:11forward acquisition time	60.00reverse acquisition time	0.00gamma	496.2192k internal	0.2292k external	0.2292temperature offset calibration	1.0052default loss term (dB/km)	0.3790temperature slope calibration	1.0000multiplexer offset coefficient	1.0000multiplexer slope coefficient	1.0000fibre end	0.00T internal ref (°C)	40.66T ext. ref 1 (°C)	2.37T ext. ref 2 (°C)	37.83length (m)	temperature (°C)	Stokes	anti-Stokes-747.200	-200.000	0.002	-0.245
-746.185	-60.644	0.238	0.103
-745.171	-16.036	0.172	0.112
-744.156	155.206	-0.136	0.191
-743.142	3.691	0.158	0.118
-742.127	437.310	-0.073	-0.163
-741.112	-200.000	-0.038	0.209
-740.098	235.891	0.218	0.368
-739.083	2.610	-0.171	-0.127
-738.069	392.082	-0.183	0.389
-737.054	-87.743	0.208	-0.064
-736.039	398.475	-0.039	-0.083
-735.025	509.062	-0.030	0.070
-734.010	-72.068	-0.233	-0.089
-732.996	55.070	-0.324	-0.320
-731.981	-36.916	-0.070	-0.039
-730.966	294.460	-0.066	-0.124
-729.952	-33.825	0.019	-0.011
-728.937	473.891	-0.094	0.218
-727.923	800.000	0.087	-0.255
-726.908	44.583	0.181	-0.170
-725.894	-89.168	-0.165	0.050
-724.879	1.359	-0.208	0.153
-723.864	800.000	0.052	0.204
-722.850	-56.002	0.077	0.035
-721.835	-19.278	0.119	-0.075
-720.821	-75.455	-0.131	0.048
-719.806	-200.000	-0.056	-0.258
-718.791	7.382	0.128	-0.098
-717.777	-200.000	-0.009	0.121
-716.762	-200.000	-0.006	-0.096
-715.748	-92.663	-0.120	0.034
-714.733	622.901	-0.139	0.358
-713.718	-200.000	-0.027	0.250
-712.704	68.624	-0.381	0.400
-711.689	-143.605	0.218	0.021
-710.675	-60.451	-0.200	-0.087
-709.660	-109.284	-0.160	-0.035
-708.645	37.729	0.283	-0.257
-707.631	90.351	0.127	-0.145
-706.616	188.466	0.087	0.134
-705.602	-28.957	-0.093	0.055
-704.587	-3.172	0.093	0.067
-703.572	18.596	-0.225	0.184
-702.558	-162.248	-0.248	0.013
-701.543	30.980	-0.055	-0.048
-700.529	-72.581	-0.269	0.102
-699.514	-151.781	-0.174	-0.013
-698.499	-200.000	-0.021	-0.120
-697.485	800.000	-0.063	-0.276
-696.470	-200.000	-0.023	-0.175
-695.456	-90.023	-0.052	0.015
-694.441	34.324	-0.190	-0.169
-693.426	692.736	-0.150	-0.402
-692.412	-200.000	0.011	-0.395
-691.397	-200.000	0.004	-0.088
-690.383	-67.460	0.215	0.086
-689.368	24.485	-0.293	-0.247
-688.354	800.000	-0.043	-0.155
-687.339	-200.000	0.032	-0.494
-686.324	263.323	0.066	-0.118
-685.310	-200.000	-0.022	-0.106
-684.295	630.425	-0.040	-0.104
-683.281	-61.526	-0.311	0.133
-682.266	-87.308	0.373	0.115
-681.251	-71.214	0.064	-0.024
-680.237	71.058	0.293	-0.310
-679.222	275.202	-0.074	-0.134
-678.208	-186.418	-0.458	0.007
-677.193	226.697	0.124	-0.205
-676.178	-200.000	-0.007	0.190
-675.164	-200.000	-0.041	0.294
-674.149	-16.206	-0.272	0.176
-673.135	171.276	-0.012	0.018
-672.120	92.278	-0.250	-0.287
-671.105	-156.414	-0.221	0.014
-670.091	350.115	-0.111	-0.225
-669.076	-200.000	-0.064	0.296
-668.062	166.808	-0.137	0.198
-667.047	800.000	0.039	0.159
-666.032	36.302	0.198	0.178
-665.018	800.000	0.012	-0.047
-664.003	-25.072	-0.158	-0.096
-662.989	-30.375	-0.138	-0.080
-661.974	-200.000	-0.027	0.164
-660.959	-101.599	-0.132	-0.033
-659.945	-146.705	-0.072	-0.006
-658.930	800.000	0.032	0.106
-657.916	-200.000	-0.025	-0.217
-656.901	-200.000	-0.027	0.271
-655.886	-26.825	0.090	-0.054
-654.872	61.535	-0.081	0.082
-653.857	49.337	0.181	0.174
-652.843	-112.172	0.111	-0.023
-651.828	57.671	-0.113	-0.113
-650.814	-103.768	-0.068	-0.016
-649.799	-200.000	-0.054	0.352
-648.784	-200.000	0.004	0.239
-647.770	800.000	-0.015	-0.060
-646.755	435.690	-0.023	-0.051
-645.741	217.513	0.029	0.047
-644.726	800.000	-0.070	-0.246
-643.711	240.477	-0.131	0.223
-642.697	13.137	-0.380	-0.300
-641.682	-42.869	-0.069	-0.036
-640.668	26.813	-0.227	0.194
-639.653	-128.888	0.173	0.025
-638.638	-200.000	0.020	-0.243
-637.624	506.746	0.055	-0.130
-636.609	-200.000	0.024	0.107
-635.595	238.580	-0.115	-0.195
-634.580	-200.000	0.048	-0.246
-633.565	-200.000	-0.010	0.064
-632.551	244.642	-0.059	0.102
-631.536	404.563	-0.075	0.161
-630.522	134.124	0.012	0.016
-629.507	-160.004	0.182	0.010
-628.492	137.459	0.155	0.207
-627.478	-139.440	0.079	0.009
-626.463	800.000	0.054	-0.167
-625.449	-48.466	-0.096	-0.047
-624.434	800.000	0.029	0.106
-623.419	-77.208	0.298	-0.106
-622.405	76.796	0.181	-0.196
-621.390	800.000	-0.068	-0.207
-620.376	800.000	0.021	-0.091
-619.361	-200.000	0.015	0.378
-618.346	332.181	-0.157	0.309
-617.332	261.128	0.084	0.148
-616.317	129.526	-0.225	-0.293
-615.303	-200.000	-0.010	-0.213
-614.288	-21.404	0.228	0.142
-613.273	783.467	-0.091	0.254
-612.259	800.000	0.035	0.126
-611.244	129.671	0.211	-0.275
-610.230	7.379	-0.076	0.058
-609.215	-200.000	-0.039	-0.218
-608.201	183.412	-0.149	-0.225
-607.186	164.487	0.237	-0.340
-606.171	124.699	-0.103	-0.132
-605.157	-36.983	-0.317	-0.173
-604.142	800.000	-0.040	0.150
-603.128	-5.254	-0.028	0.019
-602.113	800.000	0.037	-0.154
-601.098	0.973	-0.540	0.394
-600.084	-38.375	-0.123	0.066
-599.069	-89.524	0.135	0.040
-598.055	241.369	0.050	0.086
-597.040	-19.369	0.067	-0.042
-596.025	800.000	0.036	-0.153
-595.011	135.006	-0.232	-0.307
-593.996	160.175	0.126	0.179
-592.982	105.150	-0.055	0.066
-591.967	-105.428	0.452	0.104
-590.952	49.358	0.314	-0.301
-589.938	389.217	0.202	-0.425
-588.923	231.659	0.028	0.047
-587.909	-130.552	0.278	0.038
-586.894	800.000	-0.068	0.241
-585.879	-200.000	-0.022	0.192
-584.865	-200.000	0.001	-0.539
-583.850	211.181	0.038	0.061
-582.836	557.285	-0.060	0.147
-581.821	512.558	0.067	-0.158
-580.806	62.568	-0.238	0.242
-579.792	-142.050	0.154	-0.016
-578.777	508.468	-0.125	-0.294
-577.763	-14.012	0.230	-0.151
-576.748	282.036	0.048	-0.087
-575.733	800.000	0.050	0.148
-574.719	84.325	-0.109	-0.121
-573.704	-200.000	-0.014	-0.368
-572.690	-200.000	0.005	-0.123
-571.675	-58.650	-0.116	-0.051
-570.661	800.000	0.096	0.383
-569.646	26.991	0.128	0.109
-568.631	800.000	-0.130	-0.405
-567.617	-53.769	0.218	0.101
-566.602	-200.000	-0.056	-0.259
-565.588	-131.786	-0.202	-0.027
-564.573	-151.045	0.201	-0.015
-563.558	-130.464	0.264	-0.036
-562.544	153.950	-0.074	0.103
-561.529	-200.000	-0.024	-0.118
-560.515	800.000	0.022	-0.087
-559.500	456.639	0.024	0.054
-558.485	26.497	-0.195	-0.166
-557.471	45.530	-0.250	-0.234
-556.456	-67.432	-0.066	0.026
-555.442	180.252	0.211	0.314
-554.427	-69.241	-0.167	0.065
-553.412	-200.000	-0.002	-0.037
-552.398	-29.259	-0.142	0.082
-551.383	-192.797	-0.272	0.003
-550.369	-148.392	-0.274	0.023
-549.354	688.871	-0.071	-0.188
-548.339	541.189	0.082	-0.199
-547.325	-158.930	0.193	-0.011
-546.310	65.486	-0.197	0.203
-545.296	-200.000	0.060	-0.474
-544.281	183.921	-0.149	0.224
-543.266	-141.496	0.104	0.011
-542.252	-95.445	-0.148	-0.040
-541.237	800.000	-0.051	-0.209
-540.223	800.000	-0.028	0.082
-539.208	45.336	-0.058	-0.055
-538.193	-110.937	-0.287	0.060
-537.179	43.247	0.114	0.106
-536.164	-91.867	-0.246	-0.071
-535.150	-76.067	-0.115	0.041
-534.135	-200.000	0.022	0.133
-533.121	800.000	-0.004	-0.015
-532.106	-108.722	-0.037	0.008
-531.091	-134.474	0.316	-0.039
-530.077	-187.101	-0.243	-0.003
-529.062	-150.328	-0.229	0.018
-528.048	62.026	0.066	0.066
-527.033	-141.085	-0.202	0.021
-526.018	49.165	-0.279	-0.267
-525.004	61.841	-0.191	0.193
-523.989	-31.654	0.139	0.079
-522.975	479.496	0.025	0.058
-521.960	-200.000	0.013	-0.177
-520.945	-200.000	-0.071	0.399
-519.931	-15.544	-0.064	0.041
-518.916	315.298	0.048	0.091
-517.902	-163.438	-0.182	0.009
-516.887	-200.000	-0.057	0.481
-515.872	-16.963	0.182	0.116
-514.858	39.637	-0.130	0.118
-513.843	-19.978	-0.273	0.171
-512.829	53.947	0.118	-0.115
-511.814	-127.559	-0.149	-0.022
-510.799	44.275	-0.109	-0.102
-509.785	127.741	0.098	-0.126
-508.770	201.845	-0.186	-0.290
-507.756	-20.979	0.072	0.045
-506.741	-72.816	-0.085	0.032
-505.726	-200.000	0.001	0.091
-504.712	-6.349	0.201	0.139
-503.697	-100.714	-0.350	0.088
-502.683	17.206	-0.285	-0.229
-501.668	-116.862	0.162	0.030
-500.653	-105.562	0.078	0.018
-499.639	-31.453	0.278	0.158
-498.624	-200.000	0.032	0.195
-497.610	113.207	-0.137	0.169
-496.595	415.563	-0.138	0.299
-495.581	218.061	-0.072	-0.116
-494.566	400.113	0.092	-0.197
-493.551	-186.390	-0.073	0.001
-492.537	-200.000	-0.023	0.176
-491.522	-200.000	-0.007	-0.365
-490.508	-200.000	0.012	-0.059
-489.493	32.325	-0.214	0.188
-488.478	800.000	0.028	0.094
-487.464	-101.344	0.135	0.033
-486.449	-31.811	0.191	0.108
-485.435	-173.272	-0.357	0.011
-484.420	398.564	0.144	-0.305
-483.405	800.000	0.062	0.181
-482.391	235.939	-0.026	-0.043
-481.376	-63.302	0.207	0.087
-480.362	-172.232	-0.041	-0.001
-479.347	119.353	-0.082	-0.103
-478.332	369.718	-0.096	0.197
-477.318	-128.778	0.179	-0.026
-476.303	-200.000	0.031	-0.201
-475.289	-200.000	-0.011	0.213
-474.274	-174.889	-0.449	-0.013
-473.259	83.803	0.112	0.124
-472.245	-107.699	0.026	-0.006
-471.230	-33.411	-0.291	-0.163
-470.216	-35.972	-0.117	-0.064
-469.201	-56.318	0.190	-0.086
-468.186	595.345	0.145	0.363
-467.172	800.000	0.092	-0.358
-466.157	209.362	0.014	0.022
-465.143	-118.884	-0.057	-0.010
-464.128	800.000	-0.044	0.179
-463.113	-102.339	-0.250	0.061
-462.099	800.000	-0.054	-0.201
-461.084	-13.868	0.205	0.134
-460.070	-200.000	-0.006	-0.098
-459.055	800.000	0.097	-0.328
-458.040	333.852	-0.152	0.298
-457.026	-112.036	-0.177	0.036
-456.011	-200.000	0.056	-0.307
-454.997	-95.973	0.478	0.129
-453.982	173.535	-0.168	-0.246
-452.968	429.232	0.049	0.108
-451.953	508.738	0.069	-0.163
-450.938	-84.402	0.211	0.068
-449.924	800.000	-0.044	0.181
-448.909	-76.703	0.136	-0.048
-447.895	201.440	-0.172	0.268
-446.880	-200.000	-0.042	0.375
-445.865	-200.000	0.009	0.214
-444.851	216.928	0.107	0.173
-443.836	-139.549	-0.007	0.001
-442.822	-102.121	0.220	0.053
-441.807	-96.311	-0.062	0.017
-440.792	-151.658	0.122	0.009
-439.778	800.000	-0.039	-0.142
-438.763	411.206	0.012	0.027
-437.749	-37.845	-0.065	-0.035
-436.734	-160.435	-0.142	-0.008
-435.719	348.760	0.061	-0.121
-434.705	-200.000	-0.051	-0.297
-433.690	628.697	0.096	0.245
-432.676	-44.178	0.303	-0.154
-431.661	725.386	0.100	-0.270
-430.646	800.000	-0.016	0.050
-429.632	-200.000	0.003	0.213
-428.617	-200.000	-0.042	0.243
-427.603	-37.915	0.185	-0.099
-426.588	-200.000	-0.002	0.144
-425.573	-83.653	0.057	0.019
-424.559	-7.153	0.194	-0.133
-423.544	-26.894	0.263	-0.155
-422.530	-106.327	0.570	0.129
-421.515	28.494	-0.144	-0.123
-420.500	-27.720	0.210	-0.123
-419.486	-200.000	-0.005	0.174
-418.471	251.154	0.048	0.083
-417.457	-79.387	0.114	0.039
-416.442	192.842	-0.158	-0.242
-415.428	163.683	0.086	-0.123
-414.413	-197.435	0.255	-0.002
-413.398	176.257	0.169	-0.248
-412.384	-58.750	0.088	-0.039
-411.369	-58.538	-0.323	-0.142
-410.355	256.600	0.152	-0.264
-409.340	-36.086	0.075	0.041
-408.325	-103.035	0.308	-0.074
-407.311	-200.000	-0.004	0.130
-406.296	112.030	0.072	-0.088
-405.282	27.156	0.340	-0.288
-404.267	32.425	0.142	-0.124
-403.252	-162.592	0.096	-0.005
-402.238	-4.073	0.043	-0.030
-401.223	-200.000	-0.035	-0.171
-400.209	110.579	-0.196	0.238
-399.194	513.904	-0.081	-0.192
-398.179	-105.853	-0.147	-0.034
-397.165	56.541	-0.066	-0.065
-396.150	33.068	-0.236	0.207
-395.136	384.346	-0.117	-0.244
-394.121	-74.694	0.034	-0.012
-393.106	-82.042	-0.446	-0.147
-392.092	103.141	-0.228	0.270
-391.077	56.759	0.061	0.060
-390.063	174.549	0.044	0.064
-389.048	-200.000	0.048	-0.351
-388.033	13.391	0.174	-0.136
-387.019	800.000	-0.080	0.234
-386.004	-200.000	0.012	0.303
-384.990	59.335	0.205	0.204
-383.975	-105.907	-0.265	-0.060
-382.960	-57.238	-0.123	-0.055
-381.946	108.121	0.370	0.446
-380.931	443.129	-0.076	-0.168
-379.917	-45.885	-0.206	-0.103
-378.902	162.624	-0.136	0.192
-377.888	166.167	-0.086	0.123
-376.873	-200.000	-0.011	-0.108
-375.858	-159.706	0.427	0.024
-374.844	96.266	0.127	-0.147
-373.829	466.989	0.096	0.218
-372.815	305.991	0.133	0.250
-371.800	187.014	-0.120	-0.181
-370.785	514.726	-0.088	-0.207
-369.771	800.000	-0.146	0.442
-368.756	-67.835	-0.076	-0.030
-367.742	179.578	-0.146	0.216
-366.727	144.411	0.119	0.161
-365.712	-200.000	-0.017	-0.213
-364.698	800.000	-0.110	-0.477
-363.683	-111.330	-0.198	0.041
-362.669	-200.000	-0.039	0.259
-361.654	73.535	-0.032	0.034
-360.639	-200.000	0.009	-0.040
-359.625	135.726	0.256	-0.336
-358.610	-54.918	0.210	0.095
-357.596	-111.413	0.066	-0.014
-356.581	-7.116	-0.188	0.129
-355.566	800.000	0.028	0.097
-354.552	-92.166	-0.497	0.142
-353.537	-90.748	0.279	-0.081
-352.523	574.612	-0.016	0.041
-351.508	257.365	-0.032	0.056
-350.493	-200.000	-0.022	-0.134
-349.479	800.000	-0.064	0.180
-348.464	-166.724	0.509	0.021
-347.450	123.085	-0.276	-0.348
-346.435	148.670	-0.023	-0.031
-345.420	-57.484	0.186	-0.082
-344.406	65.875	-0.192	0.197
-343.391	800.000	0.036	-0.149
-342.377	-93.244	0.299	-0.084
-341.362	-21.594	0.278	-0.171
-340.348	-55.775	-0.184	0.083
-339.333	86.571	-0.080	-0.089
-338.318	-29.587	-0.185	-0.106
-337.304	168.866	-0.092	0.132
-336.289	24.206	0.276	0.230
-335.275	121.083	0.020	0.025
-334.260	269.073	-0.084	-0.149
-333.245	671.652	0.022	0.057
-332.231	-55.956	-0.157	0.070
-331.216	-200.000	0.006	0.160
-330.202	57.725	0.128	0.126
-329.187	300.439	-0.196	0.364
-328.172	532.847	0.061	0.146
-327.158	168.757	-0.186	0.267
-326.143	800.000	0.043	0.147
-325.129	-102.181	0.354	-0.086
-324.114	-134.939	-0.145	-0.018
-323.099	1.670	0.190	-0.138
-322.085	-140.561	0.311	0.032
-321.070	545.400	-0.083	0.201
-320.056	-105.697	-0.182	0.042
-319.041	73.760	0.145	-0.153
-318.026	-155.340	-0.236	-0.015
-317.012	-33.285	-0.122	0.068
-315.997	200.549	0.192	-0.298
-314.983	153.322	0.189	-0.260
-313.968	13.758	-0.179	-0.140
-312.953	-19.813	0.037	-0.023
-311.939	317.405	-0.070	-0.134
-310.924	800.000	0.079	-0.240
-309.910	800.000	0.010	0.042
-308.895	42.429	0.270	0.247
-307.880	800.000	-0.063	-0.199
-306.866	-141.956	-0.260	0.026
-305.851	-21.537	0.360	-0.221
-304.837	-34.674	-0.262	0.144
-303.822	204.493	0.143	0.222
-302.807	-94.138	-0.261	0.072
-301.793	178.681	0.172	0.253
-300.778	-200.000	-0.002	0.281
-299.764	4.049	-0.333	-0.245
-298.749	30.629	0.161	0.139
-297.735	800.000	-0.026	0.087
-296.720	-200.000	-0.002	-0.262
-295.705	-98.674	-0.278	-0.071
-294.691	252.638	0.093	-0.160
-293.676	7.939	0.155	0.117
-292.662	16.589	0.267	-0.212
-291.647	408.160	0.112	-0.239
-290.632	588.743	0.023	-0.058
-289.618	-118.276	-0.276	-0.049
-288.603	20.585	0.155	0.126
-287.589	-140.712	0.126	-0.013
-286.574	239.559	-0.082	0.137
-285.559	800.000	0.083	0.251
-284.545	93.456	0.379	-0.431
-283.530	-150.960	0.260	0.020
-282.516	226.444	0.069	-0.112
-281.501	246.821	0.148	0.252
-280.486	466.464	-0.106	0.238
-279.472	5.309	0.156	0.116
-278.457	-34.050	-0.080	-0.044
-277.443	337.412	0.131	0.257
-276.428	-175.973	0.060	-0.002
-275.413	-83.090	0.056	0.018
-274.399	-200.000	-0.012	0.065
-273.384	-22.712	0.372	-0.226
-272.370	528.567	-0.042	0.101
-271.355	104.420	0.373	-0.442
-270.340	45.957	0.285	0.265
-269.326	47.710	-0.321	0.301
-268.311	140.360	-0.136	0.180
-267.297	302.162	0.103	-0.192
-266.282	117.697	0.100	0.124
-265.267	205.996	-0.114	0.178
-264.253	-106.178	-0.274	-0.062
-263.238	-86.330	-0.488	-0.151
-262.224	-27.185	0.298	-0.175
-261.209	-73.234	0.201	-0.074
-260.195	-200.000	-0.005	0.056
-259.180	-88.763	0.168	-0.050
-258.165	-36.852	-0.074	-0.040
-257.151	-130.709	0.192	-0.026
-256.136	800.000	0.119	-0.391
-255.122	799.048	0.024	0.066
-254.107	116.211	-0.085	0.104
-253.092	20.192	0.198	0.161
-252.078	125.370	-0.125	0.158
-251.063	-117.452	-0.104	0.019
-250.049	-200.000	-0.005	0.025
-249.034	-105.392	-0.359	-0.082
-248.019	-172.142	0.308	0.010
-247.005	736.331	0.052	-0.141
-245.990	-200.000	-0.038	-0.364
-244.976	4.866	-0.288	-0.213
-243.961	106.985	0.261	-0.311
-242.946	118.254	-0.127	0.157
-241.932	800.000	0.035	-0.143
-240.917	116.990	-0.032	0.039
-239.903	-132.506	0.297	0.038
-238.888	43.367	-0.055	-0.051
-237.873	-186.539	0.196	-0.003
-236.859	171.239	-0.106	0.153
-235.844	800.000	-0.042	-0.177
-234.830	83.034	0.141	0.154
-233.815	-96.296	-0.084	0.022
-232.800	-124.825	0.462	0.072
-231.786	800.000	0.063	0.189
-230.771	-116.692	-0.238	-0.044
-229.757	-145.289	0.184	0.017
-228.742	43.849	-0.144	0.132
-227.727	487.398	0.130	-0.298
-226.713	129.802	-0.032	-0.041
-225.698	472.874	-0.130	-0.294
-224.684	-173.845	0.165	0.005
-223.669	-11.551	-0.085	-0.056
-222.655	800.000	0.102	-0.324
-221.640	-98.934	-0.328	0.084
-220.625	-33.406	-0.246	0.137
-219.611	-83.385	0.136	-0.044
-218.596	141.588	-0.092	0.122
-217.582	-74.856	0.097	0.035
-216.567	-200.000	0.034	0.221
-215.552	342.743	-0.096	-0.189
-214.538	-38.071	-0.291	0.155
-213.523	69.322	0.095	0.098
-212.509	-200.000	-0.025	0.133
-211.494	61.513	-0.146	0.145
-210.479	546.523	-0.045	0.107
-209.465	77.665	-0.269	0.287
-208.450	149.652	0.154	0.209
-207.436	-43.306	0.142	0.072
-206.421	91.870	0.100	0.113
-205.406	800.000	-0.056	-0.240
-204.392	-161.986	0.560	0.028
-203.377	-20.030	-0.231	-0.143
-202.363	218.888	-0.136	0.218
-201.348	13.097	-0.089	0.069
-200.333	136.074	-0.238	-0.311
-199.319	21.752	0.103	-0.084
-198.304	-74.666	-0.092	-0.033
-197.290	390.080	-0.167	-0.346
-196.275	220.750	0.102	-0.165
-195.260	64.317	-0.148	-0.150
-194.246	-160.691	-0.270	0.014
-193.231	-200.000	-0.008	0.072
-192.217	-28.916	-0.252	-0.145
-191.202	-5.108	-0.150	0.104
-190.187	-22.722	-0.106	0.064
-189.173	107.917	0.071	0.084
-188.158	28.863	-0.054	-0.046
-187.144	-23.644	0.241	-0.145
-186.129	254.817	0.133	0.228
-185.114	96.487	-0.195	-0.223
-184.100	524.589	0.056	-0.132
-183.085	-200.000	-0.060	-0.329
-182.071	-137.102	0.119	-0.014
-181.056	-200.000	0.019	0.209
-180.042	-136.488	-0.250	-0.029
-179.027	109.201	-0.126	-0.152
-178.012	35.600	-0.082	0.072
-176.998	51.492	-0.074	-0.070
-175.983	55.153	0.365	-0.353
-174.969	-52.953	-0.229	0.106
-173.954	-153.321	-0.123	0.009
-172.939	-155.621	-0.247	0.016
-171.925	231.934	-0.145	0.239
-170.910	-140.348	0.124	0.013
-169.896	-200.000	-0.017	-0.407
-168.881	2.195	-0.322	0.233
-167.866	460.348	0.116	0.258
-166.852	50.551	-0.236	0.223
-165.837	5.759	0.127	0.094
-164.823	800.000	0.129	0.377
-163.808	800.000	0.119	0.480
-162.793	-19.820	-0.131	0.081
-161.779	800.000	-0.099	0.351
-160.764	-8.157	0.176	-0.119
-159.750	499.136	-0.085	-0.195
-158.735	82.512	0.021	0.023
-157.720	692.662	0.038	-0.099
-156.706	481.734	0.054	0.123
-155.691	-94.897	-0.204	0.055
-154.677	-200.000	-0.028	0.133
-153.662	471.479	0.200	0.449
-152.647	-182.224	0.263	0.005
-151.633	-12.919	0.100	-0.065
-150.618	-75.222	0.219	-0.078
-149.604	800.000	-0.062	-0.196
-148.589	-128.056	-0.098	0.014
-147.574	389.808	0.114	0.237
-146.560	-200.000	0.030	0.212
-145.545	380.325	0.050	0.103
-144.531	-120.983	-0.222	-0.037
-143.516	800.000	0.080	0.279
-142.502	-48.691	0.309	0.148
-141.487	-82.315	-0.207	-0.067
-140.472	-200.000	0.015	-0.209
-139.458	-16.374	-0.152	0.096
-138.443	319.627	-0.133	0.252
-137.429	-10.120	-0.069	-0.046
-136.414	-200.000	0.021	-0.246
-135.399	-200.000	0.024	0.291
-134.385	-200.000	0.057	-0.262
-133.370	-200.000	-0.028	-0.261
-132.356	183.632	-0.121	-0.178
-131.341	90.747	-0.081	0.090
-130.326	-124.252	0.162	-0.025
-129.312	335.172	-0.082	0.158
-128.297	15.702	-0.157	0.123
-127.283	6.259	-0.343	0.254
-126.268	68.015	0.182	0.186
-125.253	126.230	0.122	0.154
-124.239	-147.956	-0.129	0.011
-123.224	228.732	-0.030	-0.048
-122.210	76.761	-0.065	0.069
-121.195	175.776	-0.025	0.036
