DTS Sentinel unit serial number:	SN413079Multiplexer serial number:	ORYXHardware model number:	OX4-SRSoftware version number:	ORYX F/W v4.00 Oryx Data Collector v3.7.2.0data status	okinstallation	princeton_trtdifferential loss correction	single-endedforward channel	channel 1reverse channel	N/Adate	2019/09/13time	08:22:35forward acquisition time	60.00reverse acquisition time	0.00gamma	496.2192k internal	0.2330k external	0.2330temperature offset calibration	1.0166default loss term (dB/km)	0.3790temperature slope calibration	1.0000multiplexer offset coefficient	1.0000multiplexer slope coefficient	1.0000fibre end	0.00T internal ref (°C)	27.30T ext. ref 1 (°C)	4.28T ext. ref 2 (°C)	23.45length (m)	temperature (°C)	Stokes	anti-Stokes-747.200	18.800	-0.149	-0.121
-746.185	-200.000	-0.059	-0.273
-745.171	800.000	0.050	-0.188
-744.156	37.338	-0.171	0.153
-743.142	412.441	-0.098	0.210
-742.127	-200.000	-0.018	0.134
-741.112	-146.732	0.240	-0.021
-740.098	513.525	-0.183	0.429
-739.083	-75.241	0.054	0.020
-738.069	-63.535	0.273	0.113
-737.054	-116.133	0.387	0.072
-736.039	-74.074	-0.152	0.055
-735.025	-53.474	-0.032	-0.015
-734.010	-200.000	0.005	-0.166
-732.996	-169.979	-0.091	0.003
-731.981	-33.096	-0.111	-0.062
-730.966	42.706	0.175	-0.160
-729.952	394.829	-0.085	-0.179
-728.937	78.843	-0.076	-0.081
-727.923	800.000	-0.085	-0.239
-726.908	-155.613	-0.064	-0.004
-725.894	-9.330	0.293	-0.197
-724.879	-148.234	0.200	-0.017
-723.864	-59.047	-0.181	0.078
-722.850	-135.803	0.147	0.018
-721.835	279.914	-0.064	0.116
-720.821	-150.446	-0.073	-0.006
-719.806	-200.000	-0.028	0.351
-718.791	431.723	0.112	-0.243
-717.777	-103.995	-0.214	-0.050
-716.762	-71.404	0.166	-0.063
-715.748	538.380	-0.032	-0.077
-714.733	91.303	0.113	0.128
-713.718	-62.739	-0.157	-0.065
-712.704	-23.661	-0.581	-0.350
-711.689	58.834	-0.078	-0.077
-710.675	-200.000	0.038	0.296
-709.660	-50.523	0.057	0.027
-708.645	-3.062	0.100	0.070
-707.631	800.000	-0.037	0.152
-706.616	-126.636	0.086	0.013
-705.602	-21.469	0.114	-0.070
-704.587	800.000	-0.072	-0.307
-703.572	283.799	0.053	-0.096
-702.558	-82.923	0.212	-0.069
-701.543	75.553	-0.241	-0.256
-700.529	-82.138	0.201	-0.066
-699.514	177.591	0.150	-0.220
-698.499	88.960	-0.078	-0.087
-697.485	118.437	0.053	-0.065
-696.470	-81.406	0.182	0.060
-695.456	-105.238	-0.359	0.082
-694.441	-155.406	0.260	0.017
-693.426	448.793	-0.143	0.317
-692.412	-200.000	-0.034	0.350
-691.397	-169.577	-0.226	-0.008
-690.383	-200.000	-0.134	-0.677
-689.368	201.231	0.052	-0.081
-688.354	-83.141	0.168	0.054
-687.339	-92.818	-0.108	-0.030
-686.324	-200.000	0.045	-0.317
-685.310	-175.384	0.094	0.003
-684.295	195.093	-0.193	0.294
-683.281	410.265	-0.062	0.132
-682.266	-62.940	-0.313	-0.130
-681.251	-143.812	-0.057	-0.005
-680.237	-129.455	0.291	-0.041
-679.222	175.166	-0.157	0.229
-678.208	-185.353	-0.250	-0.004
-677.193	800.000	0.068	0.241
-676.178	266.640	0.021	0.037
-675.164	-25.546	0.391	-0.232
-674.149	96.524	-0.183	0.210
-673.135	133.925	0.187	0.243
-672.120	17.782	0.257	-0.205
-671.105	-87.967	0.336	0.101
-670.091	-0.788	0.099	0.070
-669.076	0.578	-0.033	0.024
-668.062	-115.728	-0.260	0.049
-667.047	-91.179	0.217	-0.062
-666.032	-72.554	0.379	0.141
-665.018	87.711	-0.183	-0.203
-664.003	-165.020	-0.212	-0.009
-662.989	-70.894	0.089	-0.033
-661.974	300.225	-0.160	0.297
-660.959	-171.986	-0.038	0.001
-659.945	28.230	0.263	0.223
-658.930	-200.000	-0.011	-0.049
-657.916	288.890	-0.158	0.287
-656.901	45.177	-0.113	0.105
-655.886	-200.000	-0.021	0.422
-654.872	93.055	-0.216	0.246
-653.857	271.044	0.115	0.204
-652.843	106.302	0.110	0.131
-651.828	-74.544	-0.101	-0.036
-650.814	-144.376	-0.122	-0.011
-649.799	-102.166	-0.146	-0.035
-648.784	251.889	0.065	-0.111
-647.770	-91.815	-0.190	-0.054
-646.755	800.000	-0.063	-0.228
-645.741	-200.000	-0.114	0.000
-644.726	-85.689	-0.119	-0.037
-643.711	611.744	-0.134	-0.336
-642.697	-74.576	0.180	-0.065
-641.682	-200.000	-0.059	-0.365
-640.668	-78.178	-0.097	0.033
-639.653	-87.811	-0.172	-0.052
-638.638	-81.895	0.313	-0.103
-637.624	-200.000	-0.004	0.229
-636.609	-9.801	0.051	-0.034
-635.595	-200.000	0.049	0.237
-634.580	290.955	-0.039	0.072
-633.565	743.116	0.061	0.165
-632.551	800.000	0.104	-0.300
-631.536	630.782	0.022	-0.057
-630.522	306.168	-0.022	-0.040
-629.507	-200.000	-0.002	0.154
-628.492	192.990	-0.237	0.359
-627.478	320.792	-0.051	0.097
-626.463	-94.636	0.309	-0.084
-625.449	31.795	0.099	0.085
-624.434	155.980	-0.163	0.225
-623.419	-57.253	-0.340	-0.150
-622.405	800.000	-0.155	0.453
-621.390	-200.000	0.011	-0.204
-620.376	-34.086	0.215	-0.119
-619.361	60.903	-0.098	-0.097
-618.346	204.937	-0.104	-0.162
-617.332	530.158	0.078	-0.185
-616.317	-200.000	-0.026	-0.285
-615.303	-200.000	-0.005	-0.027
-614.288	348.999	0.258	-0.510
-613.273	132.642	0.106	0.137
-612.259	486.601	-0.177	-0.404
-611.244	-92.727	0.284	-0.080
-610.230	800.000	-0.059	-0.227
-609.215	470.698	-0.076	0.171
-608.201	-69.068	0.073	-0.028
-607.186	800.000	-0.005	0.016
-606.171	-58.231	-0.143	0.062
-605.157	45.773	0.137	0.127
-604.142	177.532	-0.129	0.189
-603.128	79.072	0.265	-0.284
-602.113	-36.432	0.211	-0.114
-601.098	-112.626	-0.247	0.049
-600.084	-200.000	-0.007	0.192
-599.069	120.635	0.152	-0.189
-598.055	-144.432	0.145	-0.013
-597.040	-173.369	-0.279	0.008
-596.025	33.232	0.173	-0.150
-595.011	-19.403	0.042	0.026
-593.996	69.761	0.168	-0.173
-592.982	175.961	-0.149	-0.217
-591.967	800.000	-0.111	0.320
-590.952	-200.000	-0.013	0.160
-589.938	800.000	0.117	-0.361
-588.923	-200.000	0.009	-0.187
-587.909	127.330	0.028	-0.036
-586.894	45.983	0.214	-0.198
-585.879	-128.089	-0.417	-0.060
-584.865	9.954	-0.241	-0.183
-583.850	119.158	-0.129	0.160
-582.836	-33.193	0.234	-0.130
-581.821	800.000	-0.032	-0.121
-580.806	-69.260	-0.242	0.093
-579.792	-200.000	-0.029	0.260
-578.777	-2.786	-0.121	0.085
-577.763	50.034	-0.067	0.063
-576.748	-200.000	0.038	-0.277
-575.733	800.000	-0.033	0.134
-574.719	-200.000	-0.016	-0.125
-573.704	135.293	-0.174	-0.226
-572.690	9.081	0.262	0.198
-571.675	-89.857	-0.147	0.043
-570.661	-121.441	-0.092	0.015
-569.646	800.000	0.064	0.240
-568.631	800.000	-0.041	-0.135
-567.617	-12.941	0.135	-0.088
-566.602	-76.231	-0.057	0.020
-565.588	-200.000	-0.039	0.207
-564.573	-43.032	-0.291	0.148
-563.558	93.703	0.290	0.329
-562.544	307.575	-0.116	-0.215
-561.529	421.359	0.074	-0.158
-560.515	149.940	0.042	0.058
-559.500	-161.532	-0.044	0.002
-558.485	-200.000	-0.019	-0.157
-557.471	-52.327	-0.088	0.041
-556.456	-28.948	-0.285	0.164
-555.442	-76.074	0.151	-0.053
-554.427	-56.690	-0.162	0.072
-553.412	-57.637	0.283	-0.124
-552.398	-111.417	-0.428	-0.087
-551.383	143.088	0.121	0.160
-550.369	-44.182	0.199	0.100
-549.354	-200.000	0.008	-0.380
-548.339	-200.000	-0.023	-0.143
-547.325	-3.915	0.199	-0.138
-546.310	725.292	0.039	0.104
-545.296	406.164	0.159	0.335
-544.281	800.000	-0.035	-0.137
-543.266	-39.824	-0.277	0.145
-542.252	-23.143	0.239	0.144
-541.237	-200.000	0.009	-0.242
-540.223	-200.000	-0.022	0.102
-539.208	-8.441	-0.369	-0.248
-538.193	514.937	-0.077	0.179
-537.179	26.503	-0.320	0.267
-536.164	43.818	-0.170	0.156
-535.150	147.042	0.203	-0.273
-534.135	-49.105	0.107	-0.051
-533.121	-37.785	-0.085	0.045
-532.106	800.000	0.046	0.168
-531.091	-57.310	0.216	-0.095
-530.077	395.968	-0.168	-0.349
-529.062	142.549	-0.151	-0.200
-528.048	-125.877	0.269	0.041
-527.033	109.051	-0.147	0.176
-526.018	-62.706	0.468	-0.194
-525.004	64.780	0.044	-0.044
-523.989	-50.533	-0.158	0.074
-522.975	114.886	0.163	-0.199
-521.960	187.040	0.233	-0.347
-520.945	118.969	-0.117	-0.145
-519.931	38.817	-0.188	0.168
-518.916	-183.179	0.265	0.005
-517.902	-170.521	-0.397	0.014
-516.887	-155.190	0.192	0.013
-515.872	-25.122	-0.072	-0.042
-514.858	-128.681	-0.340	-0.048
-513.843	465.624	0.026	-0.059
-512.829	-200.000	0.070	0.440
-511.814	58.161	-0.093	-0.091
-510.799	-200.000	0.017	-0.151
-509.785	800.000	-0.086	0.256
-508.770	-68.076	0.238	0.092
-507.756	294.540	-0.093	0.169
-506.741	557.595	0.032	-0.077
-505.726	-200.000	0.035	0.161
-504.712	10.714	0.178	0.136
-503.697	-93.516	-0.220	-0.061
-502.683	-49.405	0.158	0.075
-501.668	97.794	-0.284	-0.325
-500.653	-200.000	-0.015	0.307
-499.639	-199.237	-0.140	-0.001
-498.624	18.008	0.223	0.177
-497.610	179.158	-0.202	-0.294
-496.595	524.079	-0.082	-0.192
-495.581	177.536	0.119	-0.174
-494.566	785.985	0.100	-0.274
-493.551	349.188	-0.126	-0.248
-492.537	-43.778	-0.155	-0.078
-491.522	395.601	0.077	-0.160
-490.508	-200.000	-0.002	0.150
-489.493	41.308	-0.154	0.139
-488.478	800.000	0.080	-0.257
-487.464	-153.925	0.430	0.029
-486.449	-200.000	0.011	0.068
-485.435	159.273	0.124	0.172
-484.420	55.314	0.095	0.092
-483.405	-86.222	-0.098	0.030
-482.391	-87.812	0.162	0.049
-481.376	16.770	0.235	0.186
-480.362	239.585	-0.132	0.220
-479.347	800.000	-0.033	0.095
-478.332	259.875	0.103	-0.177
-477.318	-98.994	-0.163	-0.041
-476.303	-200.000	0.013	-0.247
-475.289	-200.000	0.060	0.273
-474.274	107.457	-0.073	-0.086
-473.259	161.409	-0.019	0.026
-472.245	-200.000	0.013	0.157
-471.230	10.194	-0.133	-0.101
-470.216	-200.000	0.009	0.088
-469.201	-96.921	0.367	-0.096
-468.186	84.837	0.137	-0.149
-467.172	-47.940	-0.119	-0.057
-466.157	-83.395	-0.267	0.085
-465.143	139.690	0.257	-0.337
-464.128	546.654	-0.098	0.234
-463.113	-200.000	-0.011	0.158
-462.099	-200.000	0.057	0.454
-461.084	16.605	-0.225	0.177
-460.070	126.249	0.063	0.079
-459.055	800.000	-0.041	0.115
-458.040	-200.000	0.057	-0.286
-457.026	-200.000	0.089	-0.440
-456.011	-200.000	0.028	0.180
-454.997	117.351	0.246	-0.301
-453.982	-25.686	-0.216	0.127
-452.968	-168.526	0.180	-0.007
-451.953	800.000	0.067	-0.215
-450.938	-152.784	0.443	0.031
-449.924	800.000	-0.075	0.276
-448.909	227.050	0.079	-0.128
-447.895	-113.072	0.234	-0.046
-446.880	-16.309	0.134	0.085
-445.865	-60.462	0.201	0.085
-444.851	52.655	0.170	0.162
-443.836	-200.000	0.005	-0.058
-442.822	-56.226	-0.299	0.132
-441.807	-144.056	-0.306	0.029
-440.792	-8.718	-0.016	-0.011
-439.778	457.240	0.156	0.344
-438.763	-72.936	0.243	0.089
-437.749	-35.177	-0.216	0.117
-436.734	-68.226	0.512	0.198
-435.719	532.316	-0.091	0.214
-434.705	157.301	-0.129	-0.177
-433.690	-98.733	0.262	0.066
-432.676	-172.365	-0.145	-0.005
-431.661	-200.000	0.047	0.249
-430.646	59.734	0.139	-0.137
-429.632	-125.700	0.249	-0.037
-428.617	800.000	-0.058	-0.195
-427.603	172.596	-0.090	-0.128
-426.588	800.000	0.043	-0.155
-425.573	-60.907	-0.159	-0.067
-424.559	-114.476	0.057	-0.011
-423.544	132.597	-0.099	-0.127
-422.530	196.787	0.087	-0.132
-421.515	-70.371	0.412	-0.155
-420.500	705.776	0.141	0.371
-419.486	-44.618	0.167	-0.083
-418.471	-79.456	0.154	0.052
-417.457	-122.392	-0.195	0.032
-416.442	800.000	0.054	0.148
-415.428	19.285	0.045	-0.036
-414.413	365.364	-0.076	0.152
-413.398	-200.000	0.017	-0.098
-412.384	337.700	-0.081	0.157
-411.369	-82.991	-0.094	0.030
-410.355	185.527	0.140	0.206
-409.340	-16.970	0.102	0.064
-408.325	-128.257	-0.255	-0.036
-407.311	800.000	0.116	-0.358
-406.296	-109.106	-0.047	-0.010
-405.282	34.165	-0.304	0.264
-404.267	-75.752	-0.258	0.091
-403.252	800.000	0.092	-0.271
-402.238	-134.018	0.394	0.049
-401.223	-29.458	0.279	0.158
-400.209	-84.114	-0.286	-0.090
-399.194	99.641	-0.206	0.237
-398.179	583.322	-0.059	0.143
-397.165	124.818	-0.121	0.151
-396.150	729.828	0.060	0.160
-395.136	397.578	-0.130	-0.269
-394.121	-200.000	0.084	-0.405
-393.106	-129.317	-0.126	0.017
-392.092	28.982	-0.085	0.072
-391.077	-131.945	-0.440	0.057
-390.063	-28.745	-0.159	-0.091
-389.048	-47.455	0.215	0.104
-388.033	800.000	-0.034	0.095
-387.019	-70.614	0.150	0.056
-386.004	-28.534	-0.064	0.037
-384.990	2.149	0.256	-0.184
-383.975	-200.000	-0.039	-0.245
-382.960	-200.000	-0.085	0.452
-381.946	-107.530	-0.113	-0.024
-380.931	-19.458	0.200	-0.123
-379.917	-200.000	0.088	-0.432
-378.902	720.313	0.004	-0.012
-377.888	108.793	0.070	0.083
-376.873	4.235	-0.162	-0.118
-375.858	-200.000	0.017	-0.205
-374.844	-176.551	-0.055	0.001
-373.829	-79.325	0.399	0.134
-372.815	14.568	-0.172	0.134
-371.800	-107.965	-0.363	-0.078
-370.785	112.734	-0.205	-0.246
-369.771	7.247	0.096	-0.071
-368.756	-200.000	0.052	0.271
-367.742	315.093	0.108	0.202
-366.727	109.116	0.138	0.164
-365.712	-62.244	0.151	0.062
-364.698	-159.762	-0.254	-0.014
-363.683	64.305	0.194	-0.194
-362.669	-103.644	-0.183	0.043
-361.654	-59.704	-0.271	0.115
-360.639	336.209	0.055	0.105
-359.625	84.587	-0.085	0.092
-358.610	-118.286	0.106	0.019
-357.596	9.977	-0.118	-0.089
-356.581	-33.614	-0.088	0.048
-355.566	-126.982	-0.204	-0.030
-354.552	238.865	-0.148	-0.244
-353.537	800.000	-0.094	0.267
-352.523	-200.000	-0.003	-0.122
-351.508	584.626	-0.138	0.337
-350.493	800.000	0.045	-0.192
-349.479	664.578	-0.079	0.203
-348.464	-200.000	-0.051	-0.236
-347.450	68.108	0.107	-0.109
-346.435	800.000	0.078	-0.216
-345.420	-141.905	-0.298	-0.030
-344.406	-1.015	0.083	0.058
-343.391	-138.820	-0.380	-0.041
-342.377	339.318	-0.152	-0.293
-341.362	137.103	0.219	-0.283
-340.348	800.000	-0.087	0.325
-339.333	-0.770	-0.217	-0.153
-338.318	325.592	-0.071	-0.134
-337.304	302.608	0.243	0.446
-336.289	-30.256	0.101	0.057
-335.275	60.378	0.211	0.207
-334.260	493.921	-0.135	-0.306
-333.245	229.031	0.098	-0.159
-332.231	80.469	-0.256	-0.273
-331.216	-200.000	0.003	0.049
-330.202	25.532	0.179	0.148
-329.187	800.000	0.052	0.144
-328.172	28.757	0.041	-0.035
-327.158	-155.178	0.076	-0.005
-326.143	0.277	0.252	0.178
-325.129	-200.000	0.003	0.167
-324.114	-52.241	0.293	-0.135
-323.099	5.770	-0.106	-0.078
-322.085	-124.804	0.127	-0.019
-321.070	-200.000	0.046	0.333
-320.056	-200.000	0.037	0.331
-319.041	-39.692	-0.391	0.203
-318.026	800.000	0.118	0.379
-317.012	719.894	0.087	-0.228
-315.997	206.533	-0.147	0.227
-314.983	452.017	-0.089	0.195
-313.968	-82.940	0.425	0.136
-312.953	70.799	0.299	-0.307
-311.939	132.771	0.164	-0.209
-310.924	800.000	-0.076	0.257
-309.910	381.216	0.150	0.304
-308.895	-200.000	-0.011	-0.401
-307.880	235.741	-0.073	0.119
-306.866	-35.355	0.442	0.238
-305.851	25.272	-0.337	-0.277
-304.837	5.618	-0.235	-0.172
-303.822	59.595	-0.119	-0.116
-302.807	-114.916	-0.175	0.033
-301.793	-200.000	0.042	-0.228
-300.778	125.759	0.132	0.165
-299.764	-76.111	0.442	-0.155
-298.749	-80.488	0.333	0.110
-297.735	-200.000	-0.017	-0.277
-296.720	-200.000	0.038	0.232
-295.705	800.000	0.137	0.386
-294.691	245.941	0.052	-0.086
-293.676	-80.798	-0.245	0.080
-292.662	-120.322	0.125	-0.021
-291.647	-116.460	-0.071	-0.013
-290.632	-77.992	-0.350	-0.119
-289.618	-48.649	0.160	-0.076
-288.603	96.294	0.051	-0.057
-287.589	-125.256	-0.250	0.038
-286.574	-49.272	-0.040	-0.019
-285.559	-149.520	-0.077	-0.006
-284.545	-73.925	0.167	-0.060
-283.530	-200.000	0.003	-0.325
-282.516	800.000	0.034	-0.142
-281.501	236.399	0.024	0.040
-280.486	-105.490	-0.298	-0.067
-279.472	-71.734	-0.204	0.075
-278.457	800.000	0.075	0.319
-277.443	344.040	-0.138	0.268
-276.428	233.374	-0.079	0.129
-275.413	4.103	-0.255	-0.185
-274.399	14.003	0.244	-0.188
-273.384	106.009	0.213	-0.249
-272.370	247.086	-0.061	0.102
-271.355	-25.120	-0.310	0.182
-270.340	-200.000	-0.028	0.139
-269.326	800.000	-0.076	-0.247
-268.311	296.122	0.104	0.189
-267.297	-0.992	-0.169	0.118
-266.282	-125.519	0.195	-0.029
-265.267	53.894	0.197	-0.187
-264.253	-84.481	0.233	0.073
-263.238	-44.743	0.198	-0.098
-262.224	418.922	0.095	0.200
-261.209	722.755	-0.096	0.253
-260.195	800.000	0.067	0.273
-259.180	-88.977	0.404	0.118
-258.165	-200.000	0.018	-0.347
-257.151	-119.934	-0.112	-0.019
-256.136	60.523	0.077	-0.075
-255.122	398.725	-0.042	-0.087
-254.107	88.912	0.215	-0.236
-253.092	-200.000	-0.005	0.109
-252.078	-164.761	-0.184	-0.008
-251.063	67.280	0.293	0.296
-250.049	622.956	0.053	0.133
-249.034	800.000	0.014	0.051
-248.019	-200.000	-0.067	-0.532
-247.005	-44.798	-0.305	-0.150
-245.990	-200.000	-0.054	-0.272
-244.976	-39.908	-0.113	-0.058
-243.961	271.874	0.083	-0.144
-242.946	-200.000	0.012	-0.116
-241.932	100.653	-0.230	0.264
-240.917	-107.034	-0.056	-0.012
-239.903	24.019	0.062	0.050
-238.888	-30.627	-0.352	-0.197
-237.873	-102.133	-0.264	0.063
-236.859	800.000	0.100	0.289
-235.844	-114.370	0.307	0.058
-234.830	180.792	0.057	0.082
-233.815	158.194	-0.181	-0.248
-232.800	-17.086	0.106	-0.066
-231.786	-65.743	0.325	0.129
-230.771	-91.170	0.140	0.040
-229.757	133.894	-0.204	0.261
-228.742	800.000	-0.081	-0.249
-227.727	721.011	-0.047	-0.124
-226.713	-200.000	-0.035	0.158
-225.698	426.707	0.065	0.137
-224.684	-161.843	-0.043	-0.002
-223.669	-63.037	-0.319	-0.130
-222.655	-11.633	0.245	-0.159
-221.640	-200.000	0.051	-0.256
-220.625	708.726	-0.074	-0.194
-219.611	522.270	-0.077	-0.177
-218.596	544.463	-0.054	-0.126
-217.582	39.805	0.077	-0.068
-216.567	132.382	0.177	-0.225
-215.552	323.785	0.075	0.141
-214.538	532.695	-0.081	-0.190
-213.523	-123.854	0.349	-0.054
-212.509	-200.000	-0.004	-0.032
-211.494	9.580	0.059	0.044
-210.479	-200.000	-0.006	0.400
-209.465	800.000	0.029	0.117
-208.450	77.031	0.075	0.078
-207.436	-200.000	0.004	0.072
-206.421	3.246	0.238	0.170
-205.406	-109.458	-0.236	0.049
-204.392	-66.326	-0.177	0.069
-203.377	-66.560	-0.167	0.065
-202.363	-60.060	-0.105	0.044
-201.348	-200.000	0.027	0.294
-200.333	800.000	-0.064	-0.235
-199.319	-184.288	0.183	0.003
-198.304	-200.000	-0.030	0.237
-197.290	-125.976	0.245	-0.036
-196.275	-200.000	0.006	0.033
-195.260	502.538	-0.070	-0.158
-194.246	-54.996	0.152	0.068
-193.231	800.000	0.053	0.166
-192.217	-39.277	-0.090	0.047
-191.202	78.951	0.132	0.139
-190.187	800.000	-0.130	0.444
-189.173	114.723	-0.200	0.240
-188.158	137.943	-0.136	-0.176
-187.144	-92.231	-0.065	-0.018
-186.129	-2.501	-0.286	0.197
-185.114	-200.000	0.046	0.375
-184.100	-120.970	-0.533	-0.088
-183.085	-171.252	-0.363	-0.012
-182.071	800.000	-0.056	0.190
-181.056	-70.578	0.161	0.060
-180.042	-33.094	-0.201	0.110
-179.027	-73.567	0.126	-0.045
-178.012	-153.496	0.395	0.027
-176.998	122.268	-0.179	-0.220
-175.983	61.977	-0.260	-0.255
-174.969	800.000	-0.048	0.176
-173.954	15.881	-0.377	0.292
-172.939	800.000	-0.049	0.135
-171.925	93.676	0.128	0.143
-170.910	-22.311	0.078	-0.047
-169.896	-28.201	0.158	0.090
-168.881	77.246	-0.229	-0.239
-167.866	-118.780	0.282	0.049
-166.852	108.745	-0.144	0.169
-165.837	-84.557	0.172	0.053
-164.823	-74.573	0.311	-0.110
-163.808	-147.346	0.086	0.007
-162.793	-200.000	0.014	0.213
-161.779	165.196	-0.194	-0.270
-160.764	-126.529	-0.115	0.017
-159.750	-39.007	-0.188	-0.097
-158.735	-121.004	0.241	0.040
-157.720	-200.000	0.005	0.058
-156.706	-9.047	0.277	-0.183
-155.691	-21.745	0.139	0.083
-154.677	-127.841	0.180	0.026
-153.662	-29.845	0.047	-0.027
-152.647	-133.339	-0.139	0.017
-151.633	381.270	-0.167	-0.338
-150.618	800.000	0.093	-0.357
-149.604	-165.540	-0.344	0.015
-148.589	739.991	-0.069	-0.181
-147.574	-67.066	-0.152	0.059
-146.560	65.898	0.070	0.070
-145.545	422.135	0.053	0.111
-144.531	237.056	0.098	-0.159
-143.516	21.068	0.039	-0.031
-142.502	-102.540	-0.429	0.101
-141.487	16.668	-0.164	-0.127
-140.472	261.989	-0.117	0.200
-139.458	800.000	0.118	-0.324
-138.443	-19.029	-0.354	0.216
-137.429	-57.238	0.217	-0.094
-136.414	208.388	-0.153	0.235
-135.399	800.000	-0.025	0.070
-134.385	418.706	0.023	0.047
-133.370	-124.798	-0.204	0.031
-132.356	-200.000	-0.010	-0.059
-131.341	39.436	-0.179	-0.158
-130.326	-200.000	0.030	-0.139
-129.312	-200.000	0.017	-0.242
-128.297	166.886	0.203	0.284
-127.283	78.097	0.299	-0.314
-126.268	-139.065	-0.077	0.008
-125.253	-51.288	0.223	-0.103
-124.239	-33.341	0.275	-0.150
-123.224	479.516	0.098	-0.218
-122.210	-19.164	0.081	-0.050
-121.195	200.644	-0.158	-0.239
