DTS Sentinel unit serial number:	SN413079Multiplexer serial number:	ORYXHardware model number:	OX4-SRSoftware version number:	ORYX F/W v4.00 Oryx Data Collector v3.7.2.0data status	okinstallation	princeton_trtdifferential loss correction	single-endedforward channel	channel 1reverse channel	N/Adate	2019/09/11time	07:40:11forward acquisition time	60.00reverse acquisition time	0.00gamma	496.2192k internal	0.2324k external	0.2324temperature offset calibration	0.9909default loss term (dB/km)	0.3790temperature slope calibration	1.0000multiplexer offset coefficient	1.0000multiplexer slope coefficient	1.0000fibre end	0.00T internal ref (°C)	31.42T ext. ref 1 (°C)	-0.02T ext. ref 2 (°C)	27.77length (m)	temperature (°C)	Stokes	anti-Stokes-747.200	-19.809	-0.351	-0.219
-746.185	153.612	-0.257	0.355
-745.171	-96.330	0.105	0.028
-744.156	81.167	-0.178	-0.194
-743.142	-76.777	-0.263	-0.093
-742.127	32.931	-0.202	0.176
-741.112	-62.402	0.105	0.044
-740.098	250.775	-0.149	0.255
-739.083	800.000	0.119	-0.355
-738.069	800.000	-0.072	0.245
-737.054	207.457	-0.201	-0.316
-736.039	180.008	-0.156	-0.231
-735.025	13.890	0.129	0.101
-734.010	-200.000	-0.008	-0.282
-732.996	800.000	-0.063	-0.188
-731.981	-127.910	-0.030	-0.004
-730.966	-120.464	-0.119	-0.020
-729.952	-26.171	-0.274	-0.162
-728.937	800.000	0.083	-0.270
-727.923	-43.984	-0.171	-0.087
-726.908	-53.452	0.254	-0.117
-725.894	-46.069	-0.134	0.067
-724.879	-102.333	-0.096	0.023
-723.864	-121.281	-0.213	-0.036
-722.850	31.294	-0.236	0.205
-721.835	-200.000	-0.009	-0.110
-720.821	192.425	0.135	-0.205
-719.806	191.464	-0.035	-0.054
-718.791	325.374	-0.061	-0.117
-717.777	-5.226	0.228	-0.158
-716.762	-200.000	-0.052	0.294
-715.748	164.732	0.144	-0.204
-714.733	-3.656	-0.156	-0.109
-713.718	-39.541	0.277	-0.146
-712.704	-200.000	-0.005	-0.105
-711.689	-62.657	-0.117	0.049
-710.675	406.804	-0.115	-0.244
-709.660	148.634	0.161	-0.219
-708.645	509.012	0.045	0.105
-707.631	-200.000	-0.021	0.148
-706.616	-128.493	-0.192	0.027
-705.602	800.000	-0.015	0.046
-704.587	-113.232	-0.153	-0.030
-703.572	403.682	-0.075	0.159
-702.558	-200.000	-0.034	-0.171
-701.543	-200.000	0.059	-0.263
-700.529	-20.733	0.047	-0.029
-699.514	-200.000	-0.025	-0.280
-698.499	39.433	0.335	-0.303
-697.485	222.055	0.052	-0.084
-696.470	-18.270	-0.082	0.052
-695.456	115.431	-0.181	0.223
-694.441	28.776	-0.247	0.211
-693.426	208.162	-0.142	-0.223
-692.412	-17.408	0.112	-0.071
-691.397	-41.900	-0.366	-0.189
-690.383	-200.000	-0.076	-0.394
-689.368	-200.000	0.010	-0.124
-688.354	800.000	0.013	0.038
-687.339	354.243	0.128	-0.257
-686.324	-50.318	-0.136	0.065
-685.310	55.428	-0.235	-0.229
-684.295	-54.308	-0.199	-0.091
-683.281	-35.788	-0.375	0.205
-682.266	-55.140	-0.290	-0.131
-681.251	593.869	-0.062	0.154
-680.237	-129.170	-0.155	-0.022
-679.222	-113.623	-0.394	0.078
-678.208	-69.676	-0.110	0.042
-677.193	-104.000	0.090	0.021
-676.178	567.878	0.057	-0.140
-675.164	-35.089	-0.244	0.134
-674.149	-200.000	-0.006	-0.037
-673.135	-200.000	0.095	-0.485
-672.120	-77.878	-0.083	0.029
-671.105	-176.854	-0.206	-0.005
-670.091	127.698	0.055	-0.070
-669.076	388.478	-0.048	-0.101
-668.062	-200.000	-0.001	0.214
-667.047	319.020	0.083	0.159
-666.032	-99.709	-0.084	-0.021
-665.018	-200.000	-0.294	-0.001
-664.003	-92.467	-0.203	0.058
-662.989	-200.000	-0.020	-0.243
-661.974	11.587	-0.115	0.089
-660.959	800.000	-0.102	0.337
-659.945	175.018	0.217	0.316
-658.930	-65.832	0.004	-0.002
-657.916	-140.576	0.128	-0.013
-656.901	67.392	0.265	0.272
-655.886	212.933	0.065	0.104
-654.872	-200.000	0.046	-0.282
-653.857	316.581	-0.128	-0.243
-652.843	41.680	-0.109	-0.099
-651.828	254.354	-0.093	0.161
-650.814	-53.338	-0.195	-0.090
-649.799	192.972	0.108	0.164
-648.784	-143.374	0.144	-0.014
-647.770	214.195	-0.014	0.022
-646.755	-4.132	-0.177	-0.123
-645.741	-137.871	0.020	-0.002
-644.726	-200.000	-0.032	-0.192
-643.711	326.421	0.113	-0.218
-642.697	-200.000	0.025	-0.322
-641.682	-200.000	0.008	0.161
-640.668	800.000	-0.122	0.386
-639.653	-160.049	0.188	-0.010
-638.638	578.086	0.049	0.122
-637.624	-200.000	-0.026	0.341
-636.609	-19.617	-0.180	0.112
-635.595	-41.668	0.115	-0.059
-634.580	33.110	0.211	0.183
-633.565	-121.540	0.157	0.026
-632.551	-200.000	0.051	-0.252
-631.536	86.795	-0.105	-0.116
-630.522	-22.334	0.257	0.157
-629.507	-6.565	0.186	0.127
-628.492	4.307	-0.363	-0.268
-627.478	800.000	-0.083	-0.317
-626.463	-36.770	0.216	0.116
-625.449	-200.000	-0.039	-0.190
-624.434	-108.759	-0.234	-0.050
-623.419	-200.000	0.027	-0.252
-622.405	36.135	-0.059	0.052
-621.390	-37.360	-0.158	0.085
-620.376	-200.000	-0.025	0.247
-619.361	-137.259	-0.255	-0.029
-618.346	-200.000	-0.037	-0.183
-617.332	-124.999	-0.117	0.018
-616.317	-0.149	0.286	-0.204
-615.303	112.026	-0.131	0.159
-614.288	69.331	0.112	-0.115
-613.273	-48.106	0.218	-0.106
-612.259	471.488	0.044	0.099
-611.244	-140.764	-0.216	0.022
-610.230	467.076	0.214	0.483
-609.215	-99.771	0.337	0.085
-608.201	-27.393	-0.158	-0.092
-607.186	-106.567	0.162	0.036
-606.171	61.604	-0.298	0.298
-605.157	-66.316	-0.237	-0.095
-604.142	172.760	-0.118	-0.171
-603.128	58.098	0.213	0.209
-602.113	220.731	0.174	0.280
-601.098	-200.000	-0.041	0.235
-600.084	8.789	0.212	-0.160
-599.069	194.206	-0.112	-0.171
-598.055	-200.000	-0.062	0.380
-597.040	-4.707	-0.177	0.122
-596.025	30.559	-0.101	-0.086
-595.011	-200.000	-0.052	-0.432
-593.996	-200.000	0.054	-0.299
-592.982	-158.375	0.409	0.024
-591.967	140.468	-0.098	-0.129
-590.952	768.216	-0.078	0.214
-589.938	88.468	-0.128	0.143
-588.923	-135.695	-0.294	-0.035
-587.909	800.000	-0.044	0.124
-586.894	800.000	-0.064	0.242
-585.879	-198.062	-0.365	0.002
-584.865	-200.000	-0.020	0.105
-583.850	-200.000	-0.028	0.205
-582.836	-88.776	-0.048	0.014
-581.821	54.933	-0.287	0.278
-580.806	800.000	-0.058	-0.177
-579.792	-29.176	0.447	-0.257
-578.777	17.423	-0.311	0.248
-577.763	-200.000	-0.011	0.105
-576.748	-83.675	-0.217	0.069
-575.733	123.892	0.036	0.045
-574.719	-106.003	-0.105	0.024
-573.704	-200.000	0.021	0.219
-572.690	-200.000	0.005	0.149
-571.675	800.000	0.071	-0.295
-570.661	-142.046	0.136	0.014
-569.646	-200.000	0.014	0.149
-568.631	255.521	0.189	0.325
-567.617	-200.000	0.034	-0.184
-566.602	503.869	-0.106	-0.245
-565.588	-155.004	0.103	0.007
-564.573	-200.000	0.037	0.179
-563.558	59.370	-0.060	0.059
-562.544	-187.006	0.240	-0.003
-561.529	128.645	-0.238	-0.303
-560.515	260.743	0.102	0.177
-559.500	-200.000	0.070	-0.339
-558.485	-79.281	-0.164	-0.056
-557.471	-75.970	-0.294	-0.104
-556.456	-127.102	-0.398	0.058
-555.442	-78.073	-0.194	-0.067
-554.427	476.474	-0.159	-0.360
-553.412	-200.000	-0.032	0.163
-552.398	-200.000	0.009	0.334
-551.383	-28.981	-0.337	-0.194
-550.369	800.000	0.055	0.180
-549.354	800.000	0.090	-0.337
-548.339	800.000	-0.136	-0.430
-547.325	527.590	-0.087	-0.206
-546.310	-61.737	-0.238	0.100
-545.296	-104.689	-0.327	0.075
-544.281	44.245	-0.265	-0.244
-543.266	599.125	0.094	-0.233
-542.252	800.000	-0.100	-0.333
-541.237	800.000	0.089	0.259
-540.223	-200.000	-0.026	-0.377
-539.208	-200.000	0.021	-0.114
-538.193	124.396	0.164	-0.206
-537.179	95.442	-0.144	0.164
-536.164	75.596	0.205	0.216
-535.150	-102.128	-0.059	0.014
-534.135	1.742	-0.182	-0.131
-533.121	3.596	0.225	0.164
-532.106	-200.000	0.038	-0.559
-531.091	2.566	0.020	0.015
-530.077	-200.000	0.020	0.093
-529.062	31.872	0.232	-0.200
-528.048	-142.172	0.062	0.006
-527.033	-120.805	0.278	-0.047
-526.018	183.557	0.110	0.163
-525.004	800.000	-0.014	-0.054
-523.989	-46.041	0.113	0.056
-522.975	1.854	-0.101	-0.073
-521.960	-159.547	-0.049	-0.003
-520.945	281.539	0.030	-0.054
-519.931	704.367	0.138	0.364
-518.916	-200.000	-0.001	0.029
-517.902	156.968	0.127	-0.176
-516.887	124.585	-0.114	-0.144
-515.872	-200.000	-0.010	0.109
-514.858	711.589	0.085	0.225
-513.843	-107.018	0.036	0.008
-512.829	800.000	0.059	-0.179
-511.814	49.297	-0.074	0.070
-510.799	-200.000	0.002	0.155
-509.785	-53.981	0.108	-0.049
-508.770	-74.610	0.109	0.039
-507.756	20.714	0.263	0.213
-506.741	-36.909	0.331	0.177
-505.726	-200.000	0.047	0.250
-504.712	-122.434	-0.387	0.063
-503.697	781.964	-0.052	-0.144
-502.683	307.819	0.066	0.123
-501.668	-101.069	0.172	0.042
-500.653	-200.000	-0.030	-0.140
-499.639	66.724	0.224	0.227
-498.624	-27.356	0.141	0.082
-497.610	380.647	-0.049	-0.100
-496.595	-200.000	0.009	0.193
-495.581	-29.915	0.329	-0.187
-494.566	-200.000	-0.002	0.129
-493.551	116.334	0.049	0.061
-492.537	218.028	-0.094	-0.150
-491.522	141.261	0.123	-0.163
-490.508	-151.793	-0.216	0.016
-489.493	-86.511	-0.205	0.063
-488.478	-7.097	0.050	-0.034
-487.464	203.979	-0.264	0.409
-486.449	368.300	0.134	0.270
-485.435	800.000	-0.031	0.086
-484.420	-131.236	0.138	-0.018
-483.405	99.389	-0.083	-0.096
-482.391	118.622	-0.190	-0.235
-481.376	248.410	-0.095	0.161
-480.362	272.778	-0.070	0.123
-479.347	307.906	0.160	0.298
-478.332	-95.367	-0.104	-0.028
-477.318	-39.380	0.252	-0.132
-476.303	28.819	-0.155	-0.131
-475.289	-67.373	0.108	-0.042
-474.274	-68.048	-0.104	0.041
-473.259	434.232	-0.134	0.290
-472.245	177.347	-0.163	-0.237
-471.230	682.118	-0.126	-0.328
-470.216	-200.000	0.010	-0.310
-469.201	764.138	-0.024	0.065
-468.186	-200.000	-0.008	0.036
-467.172	563.683	0.067	-0.162
-466.157	316.804	-0.013	0.024
-465.143	-8.911	0.149	0.099
-464.128	465.555	-0.063	0.142
-463.113	313.743	-0.093	-0.175
-462.099	-98.406	-0.242	0.062
-461.084	133.635	0.336	-0.434
-460.070	676.606	0.074	-0.191
-459.055	800.000	-0.058	0.248
-458.040	-60.166	-0.170	-0.072
-457.026	13.657	0.237	0.184
-456.011	-23.098	0.246	0.148
-454.997	-29.142	-0.213	-0.122
-453.982	-200.000	-0.006	-0.087
-452.968	-9.789	0.160	0.106
-451.953	78.099	-0.110	0.117
-450.938	-200.000	0.054	-0.250
-449.924	800.000	0.014	0.062
-448.909	-128.425	-0.213	0.030
-447.895	203.755	0.091	0.140
-446.880	-64.759	0.087	0.035
-445.865	627.137	0.057	0.143
-444.851	800.000	-0.090	-0.252
-443.836	-114.250	-0.235	0.045
-442.822	173.004	-0.119	0.171
-441.807	39.731	0.096	0.086
-440.792	328.104	-0.126	-0.241
-439.778	4.017	-0.058	-0.042
-438.763	-17.740	-0.306	-0.192
-437.749	207.600	0.068	0.106
-436.734	191.555	-0.075	0.112
-435.719	800.000	-0.078	-0.334
-434.705	118.730	0.078	-0.096
-433.690	198.616	0.241	-0.368
-432.676	584.373	-0.102	-0.249
-431.661	-74.230	-0.255	-0.092
-430.646	375.032	-0.168	0.341
-429.632	-200.000	-0.011	-0.093
-428.617	112.604	-0.091	0.109
-427.603	578.727	0.082	0.199
-426.588	113.042	0.215	0.260
-425.573	76.415	-0.161	0.170
-424.559	-40.087	-0.173	-0.090
-423.544	-115.178	0.025	-0.005
-422.530	-200.000	-0.066	0.382
-421.515	-200.000	0.005	-0.089
-420.500	707.038	0.066	0.173
-419.486	406.993	0.076	0.160
-418.471	428.393	0.170	0.365
-417.457	-61.660	-0.247	0.103
-416.442	-140.985	0.201	-0.021
-415.428	-87.890	-0.209	-0.063
-414.413	-200.000	-0.014	-0.406
-413.398	269.346	0.156	0.272
-412.384	14.029	-0.037	0.029
-411.369	-2.075	-0.072	0.051
-410.355	434.933	-0.110	0.238
-409.340	800.000	0.135	0.406
-408.325	-200.000	-0.004	0.069
-407.311	-130.458	-0.343	0.046
-406.296	-200.000	0.001	-0.200
-405.282	6.990	-0.266	0.198
-404.267	-24.028	-0.282	-0.168
-403.252	-33.003	-0.038	-0.021
-402.238	-72.650	0.043	0.016
-401.223	518.656	-0.116	0.269
-400.209	36.313	-0.086	0.075
-399.194	-200.000	0.033	0.238
-398.179	-49.805	-0.256	0.121
-397.165	313.932	0.159	0.297
-396.150	-31.560	0.046	0.026
-395.136	-200.000	-0.029	0.236
-394.121	59.250	-0.250	-0.245
-393.106	-90.770	-0.297	0.085
-392.092	-59.812	-0.152	-0.065
-391.077	-200.000	0.021	0.156
-390.063	274.680	0.103	-0.181
-389.048	60.251	0.298	-0.293
-388.033	-84.429	-0.033	0.010
-387.019	617.473	0.078	-0.195
-386.004	-75.166	-0.139	-0.049
-384.990	-170.595	0.200	0.007
-383.975	-200.000	-0.018	0.083
-382.960	-200.000	0.019	-0.153
-381.946	248.334	-0.064	0.108
-380.931	1.262	0.109	0.078
-379.917	-200.000	-0.027	0.365
-378.902	-164.116	-0.288	-0.013
-377.888	671.636	0.050	0.130
-376.873	-11.156	-0.074	-0.049
-375.858	-17.651	0.443	0.277
-374.844	186.906	0.088	0.130
-373.829	-27.130	0.422	0.245
-372.815	-200.000	0.043	0.248
-371.800	206.162	-0.290	0.449
-370.785	-94.548	0.260	-0.071
-369.771	55.256	0.070	0.067
-368.756	-200.000	-0.039	-0.285
-367.742	275.596	0.037	-0.065
-366.727	-200.000	0.028	-0.333
-365.712	-85.680	0.410	-0.127
-364.698	422.601	-0.081	0.174
-363.683	-4.315	0.079	-0.054
-362.669	565.867	0.035	-0.085
-361.654	437.514	-0.066	0.144
-360.639	800.000	0.064	0.239
-359.625	66.717	0.175	-0.177
-358.610	-71.496	-0.417	-0.155
-357.596	42.396	-0.298	-0.269
-356.581	-67.288	-0.144	-0.056
-355.566	-58.175	0.265	-0.115
-354.552	111.080	0.128	-0.153
-353.537	-118.142	-0.203	0.036
-352.523	-113.572	-0.396	-0.077
-351.508	-11.807	0.202	-0.132
-350.493	-200.000	0.017	-0.238
-349.479	191.591	-0.139	-0.209
-348.464	-200.000	-0.060	-0.325
-347.450	-35.926	0.191	0.102
-346.435	-10.072	-0.156	-0.103
-345.420	-200.000	-0.033	0.399
-344.406	-89.298	0.305	-0.089
-343.391	-200.000	-0.009	0.211
-342.377	-165.062	0.314	0.014
-341.362	-61.366	0.120	0.050
-340.348	-104.818	0.205	-0.047
-339.333	96.046	-0.115	-0.131
-338.318	800.000	-0.033	-0.133
-337.304	-200.000	-0.015	0.173
-336.289	-113.875	-0.243	0.047
-335.275	-78.181	0.062	0.021
-334.260	800.000	0.041	-0.155
-333.245	-37.451	0.197	-0.105
-332.231	-138.647	0.403	-0.044
-331.216	-13.318	0.092	-0.059
-330.202	212.537	0.021	-0.033
-329.187	-61.324	0.190	0.080
-328.172	-200.000	-0.027	-0.175
-327.158	-104.827	0.357	-0.082
-326.143	-200.000	0.019	0.145
-325.129	-46.124	-0.058	-0.029
-324.114	800.000	0.055	-0.229
-323.099	710.589	-0.106	0.278
-322.085	228.881	0.065	-0.105
-321.070	-27.033	0.166	-0.096
-320.056	220.277	0.207	0.329
-319.041	-109.465	-0.250	0.052
-318.026	-112.377	0.178	0.035
-317.012	-200.000	0.001	-0.222
-315.997	216.426	-0.106	-0.167
-314.983	-113.496	0.311	0.060
-313.968	26.451	-0.224	0.186
-312.953	-200.000	0.005	0.351
-311.939	-154.178	0.225	0.015
-310.924	800.000	-0.072	-0.250
-309.910	-45.675	0.171	0.084
-308.895	455.590	-0.024	-0.053
-307.880	-200.000	0.002	-0.048
-306.866	725.707	-0.053	-0.141
-305.851	114.782	-0.110	0.133
-304.837	-125.835	0.293	-0.044
-303.822	-88.268	-0.066	-0.019
-302.807	386.543	0.107	-0.219
-301.793	-24.310	0.147	-0.087
-300.778	-200.000	-0.034	0.202
-299.764	101.759	-0.112	0.129
-298.749	50.662	-0.092	-0.087
-297.735	736.980	0.128	-0.340
-296.720	28.357	0.170	0.142
-295.705	740.311	0.071	0.188
-294.691	-34.811	0.330	-0.179
-293.676	454.209	0.108	0.237
-292.662	-2.636	-0.077	-0.053
-291.647	800.000	0.080	0.227
-290.632	-157.404	0.238	0.014
-289.618	142.931	-0.157	0.207
-288.603	-65.248	0.248	-0.099
-287.589	-200.000	0.015	0.108
-286.574	-77.172	-0.303	-0.105
-285.559	270.534	0.149	0.261
-284.545	-34.976	-0.181	-0.098
-283.530	-116.104	-0.291	0.054
-282.516	-101.771	-0.056	-0.013
-281.501	483.109	-0.070	0.157
-280.486	-200.000	-0.004	0.181
-279.472	-111.012	0.233	-0.047
-278.457	-183.547	-0.220	-0.004
-277.443	485.380	0.146	-0.330
-276.428	-30.858	0.236	-0.132
-275.413	283.064	0.099	-0.176
-274.399	121.265	0.011	-0.013
-273.384	265.888	0.026	-0.046
-272.370	800.000	-0.031	-0.094
-271.355	139.323	-0.140	0.182
-270.340	1.062	-0.069	0.049
-269.326	3.510	0.146	0.106
-268.311	800.000	-0.062	-0.172
-267.297	448.378	-0.027	-0.059
-266.282	539.781	0.059	-0.139
-265.267	-196.701	0.370	-0.002
-264.253	-53.508	-0.167	0.076
-263.238	-184.041	-0.256	0.004
-262.224	67.230	0.114	-0.115
-261.209	800.000	0.088	-0.279
-260.195	-42.378	-0.129	-0.065
-259.180	-122.704	-0.172	0.028
-258.165	-129.345	-0.249	0.034
-257.151	-97.119	-0.182	0.047
-256.136	-31.569	-0.315	-0.175
-255.122	-62.278	-0.218	0.090
-254.107	-200.000	-0.009	-0.191
-253.092	59.249	-0.150	-0.146
-252.078	30.229	-0.244	-0.207
-251.063	-15.050	0.186	-0.118
-250.049	35.606	-0.163	-0.141
-249.034	205.197	-0.199	-0.306
-248.019	-118.387	0.221	-0.039
-247.005	93.529	0.194	-0.218
-245.990	595.773	0.084	-0.205
-244.976	73.147	-0.059	-0.061
-243.961	-19.971	-0.266	-0.162
-242.946	109.364	-0.078	-0.092
-241.932	347.144	-0.058	0.113
-240.917	-75.104	0.280	-0.099
-239.903	800.000	-0.063	-0.236
-238.888	106.936	0.111	-0.130
-237.873	-200.000	-0.020	0.191
-236.859	-97.809	0.273	0.070
-235.844	337.822	0.063	-0.120
-234.830	507.821	-0.086	0.197
-233.815	-154.253	0.212	-0.014
-232.800	-103.905	0.287	-0.066
-231.786	-200.000	0.010	0.163
-230.771	-11.924	-0.107	-0.069
-229.757	43.616	0.154	0.140
-228.742	55.197	0.102	-0.097
-227.727	-99.023	0.192	0.048
-226.713	27.648	-0.190	0.158
-225.698	226.103	0.196	0.314
-224.684	238.142	0.140	0.229
-223.669	-200.000	-0.039	0.352
-222.655	-110.643	-0.431	0.088
-221.640	-94.421	0.095	0.026
-220.625	-200.000	-0.001	-0.042
-219.611	-91.014	-0.395	-0.112
-218.596	-62.139	0.357	-0.147
-217.582	800.000	-0.059	-0.231
-216.567	-200.000	-0.012	-0.211
-215.552	-87.443	0.275	0.082
-214.538	-104.098	0.287	0.066
-213.523	-48.419	-0.108	-0.051
-212.509	-200.000	-0.218	0.001
-211.494	-18.613	-0.210	0.129
-210.479	429.069	-0.044	-0.093
-209.465	-200.000	-0.010	-0.242
-208.450	109.883	-0.107	-0.127
-207.436	654.083	-0.069	0.175
-206.421	642.550	-0.077	-0.195
-205.406	-66.614	0.237	-0.093
-204.392	-200.000	-0.070	-0.356
-203.377	270.508	0.049	0.085
-202.363	-178.468	0.114	0.003
-201.348	127.968	0.054	0.068
-200.333	800.000	-0.028	0.088
-199.319	-200.000	-0.057	0.342
-198.304	-200.000	0.029	0.472
-197.290	-3.374	0.088	-0.061
-196.275	-48.664	0.145	-0.069
-195.260	38.874	0.107	0.095
-194.246	-106.684	-0.152	-0.033
-193.231	193.540	0.098	-0.146
-192.217	75.184	0.051	0.053
-191.202	-200.000	0.019	-0.128
-190.187	800.000	0.072	0.260
-189.173	-200.000	0.020	-0.189
-188.158	266.082	-0.030	-0.052
-187.144	64.807	0.175	0.174
-186.129	-88.387	0.083	-0.024
-185.114	-49.202	0.166	-0.078
-184.100	-106.920	0.055	-0.012
-183.085	-121.081	0.153	0.025
-182.071	-92.549	0.432	-0.120
-181.056	74.921	-0.067	-0.070
-180.042	-102.410	0.173	-0.041
-179.027	-200.000	0.020	0.130
-178.012	-7.903	-0.247	0.164
-176.998	-18.458	-0.223	-0.138
-175.983	-200.000	-0.034	0.262
-174.969	214.799	-0.248	-0.389
-173.954	148.661	0.343	-0.457
-172.939	-89.414	-0.389	0.113
-171.925	-125.327	0.367	-0.055
-170.910	63.582	0.127	0.126
-169.896	-82.537	-0.460	0.147
-168.881	800.000	0.032	-0.109
-167.866	102.104	0.117	0.135
-166.852	-84.830	-0.393	0.122
-165.837	180.761	-0.058	-0.085
-164.823	39.269	-0.067	0.059
-163.808	-113.304	-0.062	-0.012
-162.793	800.000	0.023	0.097
-161.779	-42.237	0.088	0.044
-160.764	-101.739	-0.078	-0.019
-159.750	-5.878	0.102	-0.069
-158.735	51.480	0.185	-0.173
-157.720	24.041	0.021	0.017
-156.706	723.387	0.093	-0.244
-155.691	800.000	-0.050	0.209
-154.677	-136.730	-0.400	-0.045
-153.662	72.666	0.119	0.122
-152.647	800.000	-0.047	-0.145
-151.633	800.000	-0.036	0.144
-150.618	292.913	0.166	0.298
-149.604	-91.896	0.350	0.098
-148.589	-200.000	0.014	-0.141
-147.574	-99.508	0.092	0.023
-146.560	195.661	0.207	0.311
-145.545	-63.806	0.283	0.114
-144.531	190.468	-0.026	-0.038
-143.516	-157.783	0.229	-0.013
-142.502	-200.000	-0.034	-0.171
-141.487	407.759	0.126	-0.264
-140.472	-200.000	0.005	-0.328
-139.458	305.531	-0.061	0.111
-138.443	-1.273	0.181	-0.126
-137.429	-200.000	0.037	-0.312
-136.414	800.000	-0.022	0.087
-135.399	-106.270	0.148	-0.033
-134.385	-104.197	0.267	-0.061
-133.370	-192.303	-0.153	0.001
-132.356	335.679	-0.050	0.096
-131.341	-200.000	0.025	-0.148
-130.326	-41.452	-0.321	0.163
-129.312	449.871	-0.068	-0.149
-128.297	800.000	0.071	-0.220
-127.283	86.034	-0.219	-0.238
-126.268	237.083	0.338	0.552
-125.253	249.489	-0.060	0.101
-124.239	-71.216	0.102	-0.038
-123.224	-34.375	0.259	-0.140
-122.210	68.307	0.227	0.229
