DTS Sentinel unit serial number:	SN413079Multiplexer serial number:	ORYXHardware model number:	OX4-SRSoftware version number:	ORYX F/W v4.00 Oryx Data Collector v3.7.2.0data status	okinstallation	princeton_trtdifferential loss correction	single-endedforward channel	channel 1reverse channel	N/Adate	2019/09/15time	12:50:35forward acquisition time	60.00reverse acquisition time	0.00gamma	496.2192k internal	0.2296k external	0.2296temperature offset calibration	0.9984default loss term (dB/km)	0.3790temperature slope calibration	1.0000multiplexer offset coefficient	1.0000multiplexer slope coefficient	1.0000fibre end	0.00T internal ref (°C)	36.02T ext. ref 1 (°C)	5.01T ext. ref 2 (°C)	33.93length (m)	temperature (°C)	Stokes	anti-Stokes-747.200	84.995	0.148	-0.166
-746.185	194.074	0.092	0.143
-745.171	480.961	0.075	-0.175
-744.156	-81.606	-0.296	-0.099
-743.142	-53.936	-0.161	-0.075
-742.127	-200.000	0.089	0.459
-741.112	-141.916	-0.335	-0.034
-740.098	-94.591	-0.243	0.068
-739.083	179.980	-0.022	0.032
-738.069	-200.000	-0.012	-0.082
-737.054	-74.422	0.207	-0.076
-736.039	-200.000	0.000	-0.176
-735.025	-122.263	0.308	0.051
-734.010	-7.963	-0.215	-0.148
-732.996	-27.097	0.180	-0.107
-731.981	-176.028	0.355	0.010
-730.966	193.424	0.114	-0.176
-729.952	-160.999	0.304	0.016
-728.937	84.589	-0.101	-0.113
-727.923	-200.000	-0.005	-0.148
-726.908	-200.000	-0.000	0.008
-725.894	326.702	0.195	-0.382
-724.879	800.000	0.041	-0.148
-723.864	-76.226	0.054	0.020
-722.850	800.000	0.074	0.237
-721.835	482.247	-0.031	-0.071
-720.821	72.209	-0.151	-0.161
-719.806	-97.336	0.249	-0.066
-718.791	-162.409	0.431	0.022
-717.777	-85.303	-0.152	-0.048
-716.762	-84.243	0.255	0.083
-715.748	294.536	0.085	-0.158
-714.733	-83.525	-0.334	-0.109
-713.718	-200.000	-0.025	-0.112
-712.704	-159.519	-0.408	0.023
-711.689	-5.274	0.114	-0.080
-710.675	-171.690	-0.235	-0.008
-709.660	19.014	0.046	0.037
-708.645	-133.257	-0.210	-0.027
-707.631	23.405	0.139	-0.117
-706.616	-86.495	0.043	0.013
-705.602	-190.659	-0.291	-0.003
-704.587	344.264	-0.023	0.047
-703.572	-46.728	0.319	0.159
-702.558	-94.611	-0.340	0.094
-701.543	74.549	0.098	0.105
-700.529	800.000	0.097	0.335
-699.514	-71.358	0.052	0.020
-698.499	-180.017	0.068	0.001
-697.485	800.000	-0.023	0.073
-696.470	-21.664	0.195	-0.121
-695.456	3.363	0.096	-0.071
-694.441	-23.002	-0.089	-0.055
-693.426	96.063	-0.252	0.293
-692.412	-62.687	-0.110	-0.047
-691.397	165.953	0.150	-0.216
-690.383	118.610	-0.086	0.108
-689.368	-171.118	-0.553	-0.019
-688.354	-92.958	-0.143	0.041
-687.339	-123.631	0.035	-0.006
-686.324	618.416	-0.176	0.450
-685.310	24.038	-0.043	0.036
-684.295	-0.151	-0.211	-0.153
-683.281	83.254	0.082	0.092
-682.266	800.000	0.075	-0.292
-681.251	105.403	-0.047	0.057
-680.237	378.694	-0.051	-0.106
-679.222	-52.222	-0.217	0.102
-678.208	-33.578	-0.058	-0.033
-677.193	615.848	-0.070	0.179
-676.178	-22.251	-0.191	-0.118
-675.164	-24.291	-0.323	0.196
-674.149	-200.000	-0.009	0.238
-673.135	129.432	-0.141	-0.183
-672.120	453.677	-0.134	0.302
-671.105	239.670	-0.167	-0.284
-670.091	-125.098	0.237	-0.037
-669.076	173.773	-0.072	-0.106
-668.062	-84.536	0.285	0.091
-667.047	-120.220	0.369	0.064
-666.032	-200.000	-0.021	0.137
-665.018	213.473	0.096	0.154
-664.003	-200.000	-0.019	0.143
-662.989	-47.888	-0.263	-0.130
-661.974	63.299	-0.220	-0.225
-660.959	12.283	-0.171	-0.134
-659.945	800.000	-0.092	-0.270
-658.930	83.990	-0.215	-0.239
-657.916	-200.000	-0.031	0.197
-656.901	-91.767	-0.284	-0.082
-655.886	-93.229	0.373	0.105
-654.872	800.000	0.028	-0.118
-653.857	184.911	-0.176	-0.266
-652.843	-69.503	-0.111	-0.043
-651.828	130.451	-0.121	-0.157
-650.814	182.077	0.095	0.142
-649.799	800.000	0.017	-0.057
-648.784	9.340	0.189	0.146
-647.770	62.445	-0.154	-0.156
-646.755	113.929	-0.216	-0.268
-645.741	-87.139	0.145	-0.045
-644.726	-79.228	0.074	-0.026
-643.711	-200.000	-0.009	-0.089
-642.697	-33.930	0.158	-0.089
-641.682	48.694	0.159	-0.152
-640.668	-176.346	-0.138	0.004
-639.653	-103.270	-0.016	0.004
-638.638	154.223	-0.244	0.341
-637.624	181.427	0.054	0.080
-636.609	-200.000	0.016	0.207
-635.595	-62.927	-0.274	0.115
-634.580	-98.022	0.067	0.017
-633.565	-115.589	0.333	0.064
-632.551	-200.000	-0.048	-0.336
-631.536	10.587	-0.225	-0.174
-630.522	19.819	0.270	0.221
-629.507	-75.817	-0.301	-0.109
-628.492	364.471	0.151	-0.309
-627.478	126.789	-0.185	-0.239
-626.463	33.159	0.230	-0.203
-625.449	-57.818	0.212	-0.094
-624.434	730.286	-0.097	-0.264
-623.419	-78.874	-0.296	-0.102
-622.405	-0.631	0.295	0.213
-621.390	-200.000	-0.028	0.295
-620.376	-21.728	-0.043	-0.027
-619.361	-151.075	0.051	-0.004
-618.346	137.790	0.166	0.221
-617.332	-56.991	-0.105	-0.047
-616.317	-28.548	-0.181	0.106
-615.303	73.527	-0.152	0.162
-614.288	248.426	-0.074	-0.127
-613.273	-182.538	0.326	0.006
-612.259	131.726	0.213	-0.278
-611.244	-200.000	0.015	0.093
-610.230	-91.687	0.085	-0.025
-609.215	54.902	-0.229	0.224
-608.201	-163.914	0.293	-0.014
-607.186	-52.161	-0.115	0.054
-606.171	800.000	0.062	-0.251
-605.157	-91.073	0.166	-0.049
-604.142	114.639	-0.101	-0.125
-603.128	-54.108	-0.252	-0.116
-602.113	-200.000	-0.004	0.229
-601.098	-200.000	0.014	-0.156
-600.084	140.429	-0.206	0.276
-599.069	70.545	0.105	0.110
-598.055	-40.234	0.397	0.210
-597.040	-117.988	0.120	-0.022
-596.025	-200.000	0.046	-0.459
-595.011	-200.000	0.001	0.139
-593.996	91.987	-0.051	-0.058
-592.982	73.069	-0.133	-0.141
-591.967	-8.635	0.231	0.157
-590.952	-200.000	-0.005	0.048
-589.938	96.813	0.179	-0.208
-588.923	-135.832	-0.224	-0.027
-587.909	109.051	-0.163	0.198
-586.894	5.894	0.099	0.074
-585.879	-56.165	-0.452	0.204
-584.865	-1.958	-0.320	-0.228
-583.850	215.521	-0.037	0.060
-582.836	64.505	-0.281	0.288
-581.821	194.158	0.138	-0.212
-580.806	182.455	0.170	-0.254
-579.792	100.743	0.135	-0.160
-578.777	-127.197	0.119	-0.018
-577.763	95.241	-0.128	-0.148
-576.748	-97.717	0.226	-0.059
-575.733	3.842	-0.117	0.087
-574.719	-19.952	0.133	-0.083
-573.704	-149.625	-0.131	-0.010
-572.690	-140.940	0.150	-0.016
-571.675	38.767	-0.109	0.099
-570.661	61.268	-0.075	-0.076
-569.646	-200.000	-0.006	-0.123
-568.631	-161.964	-0.206	-0.011
-567.617	108.616	0.351	-0.425
-566.602	-25.155	-0.181	-0.109
-565.588	357.740	-0.113	0.229
-564.573	-114.586	0.170	-0.033
-563.558	492.790	0.052	0.121
-562.544	-163.469	0.111	0.005
-561.529	-19.305	-0.149	-0.094
-560.515	193.299	0.143	0.219
-559.500	78.001	0.040	0.043
-558.485	800.000	-0.026	-0.082
-557.471	800.000	-0.086	-0.261
-556.456	800.000	0.055	0.156
-555.442	-200.000	0.053	-0.266
-554.427	263.082	-0.057	0.101
-553.412	-159.285	-0.383	0.022
-552.398	-115.820	0.489	-0.093
-551.383	-109.760	-0.015	-0.003
-550.369	506.736	-0.135	0.318
-549.354	116.040	0.222	-0.276
-548.339	-100.034	-0.130	0.033
-547.325	-200.000	-0.059	0.470
-546.310	800.000	-0.110	0.372
-545.296	-200.000	-0.034	0.181
-544.281	-135.097	-0.117	0.014
-543.266	132.569	-0.157	-0.205
-542.252	245.761	-0.032	0.055
-541.237	3.673	-0.039	0.029
-540.223	-150.042	0.150	0.012
-539.208	800.000	0.107	-0.315
-538.193	102.359	-0.115	-0.136
-537.179	-200.000	0.003	-0.014
-536.164	37.171	-0.168	0.151
-535.150	-200.000	-0.000	-0.091
-534.135	287.541	-0.063	0.115
-533.121	-200.000	0.238	0.000
-532.106	-200.000	0.043	-0.207
-531.091	-64.714	-0.174	-0.071
-530.077	246.849	0.045	-0.076
-529.062	329.772	-0.065	0.127
-528.048	693.614	-0.050	-0.132
-527.033	-126.117	-0.245	-0.037
-526.018	688.803	-0.126	-0.334
-525.004	-200.000	0.009	-0.150
-523.989	-119.558	0.083	0.015
-522.975	-68.513	-0.346	-0.136
-521.960	-142.692	0.278	-0.027
-520.945	210.691	-0.026	-0.041
-519.931	201.047	0.063	-0.099
-518.916	-5.639	0.102	0.070
-517.902	28.821	-0.221	-0.190
-516.887	-52.213	0.114	-0.054
-515.872	-144.112	0.240	-0.023
-514.858	-74.347	-0.463	0.169
-513.843	800.000	0.035	0.132
-512.829	-43.378	-0.367	-0.188
-511.814	800.000	-0.039	0.143
-510.799	18.160	-0.098	0.079
-509.785	-0.059	0.145	-0.105
-508.770	-22.814	-0.136	-0.083
-507.756	-102.470	-0.382	-0.093
-506.741	-95.238	-0.166	-0.045
-505.726	-36.423	-0.172	0.094
-504.712	93.957	-0.175	0.201
-503.697	-102.942	0.262	0.063
-502.683	152.489	0.066	0.092
-501.668	-108.381	0.203	0.044
-500.653	-27.032	0.021	0.012
-499.639	-90.784	-0.041	-0.012
-498.624	800.000	0.083	0.357
-497.610	800.000	-0.111	0.319
-496.595	-32.688	0.091	0.051
-495.581	-19.473	0.123	0.077
-494.566	-200.000	-0.015	-0.186
-493.551	24.458	0.036	0.030
-492.537	97.275	-0.197	0.229
-491.522	800.000	-0.038	-0.129
-490.508	800.000	0.092	0.352
-489.493	-9.919	0.163	0.110
-488.478	800.000	-0.041	0.135
-487.464	-115.441	-0.071	-0.014
-486.449	-200.000	-0.019	0.093
-485.435	166.417	0.088	0.127
-484.420	-54.403	0.094	0.043
-483.405	-200.000	-0.052	-0.294
-482.391	-42.254	0.309	-0.160
-481.376	132.660	-0.064	-0.083
-480.362	-69.326	0.246	-0.096
-479.347	800.000	0.070	0.232
-478.332	-122.527	-0.104	0.017
-477.318	-79.365	0.473	-0.162
-476.303	103.906	-0.077	-0.091
-475.289	23.584	-0.187	0.156
-474.274	-7.600	-0.105	0.072
-473.259	-36.220	-0.258	-0.141
-472.245	12.476	0.088	0.068
-471.230	-200.000	0.017	-0.175
-470.216	-77.307	-0.130	-0.046
-469.201	800.000	0.060	-0.242
-468.186	288.612	0.115	0.211
-467.172	-200.000	-0.010	-0.098
-466.157	800.000	0.053	-0.154
-465.143	-23.480	0.123	0.075
-464.128	46.905	-0.206	-0.194
-463.113	-200.000	-0.042	0.372
-462.099	800.000	0.122	-0.345
-461.084	800.000	-0.054	-0.181
-460.070	-200.000	-0.044	-0.300
-459.055	-78.749	0.253	0.087
-458.040	-29.620	0.209	0.121
-457.026	-89.237	0.188	-0.056
-456.011	195.313	0.131	0.202
-454.997	-200.000	0.006	0.245
-453.982	-89.779	-0.237	0.070
-452.968	-200.000	0.043	-0.429
-451.953	65.474	0.173	0.177
-450.938	-200.000	-0.032	-0.199
-449.924	-200.000	-0.019	0.191
-448.909	52.018	0.302	0.291
-447.895	85.700	0.109	0.121
-446.880	-200.000	0.016	-0.187
-445.865	800.000	0.073	0.294
-444.851	98.992	0.189	0.221
-443.836	-200.000	-0.032	0.327
-442.822	464.768	0.118	0.266
-441.807	669.586	0.058	0.153
-440.792	-134.637	-0.357	-0.044
-439.778	-200.000	-0.009	0.093
-438.763	-39.309	-0.120	-0.064
-437.749	258.525	0.073	0.126
-436.734	141.298	-0.162	0.216
-435.719	-149.763	0.426	-0.034
-434.705	160.968	-0.082	-0.116
-433.690	-60.845	-0.037	-0.016
-432.676	-200.000	-0.000	0.340
-431.661	18.529	-0.126	0.102
-430.646	800.000	0.063	-0.210
-429.632	-75.389	-0.293	-0.105
-428.617	800.000	0.095	0.380
-427.603	-200.000	0.002	-0.169
-426.588	35.402	0.233	0.207
-425.573	-46.860	-0.025	0.013
-424.559	-200.000	0.027	0.268
-423.544	-105.348	0.321	0.074
-422.530	-13.235	0.151	-0.099
-421.515	-31.534	-0.245	0.139
-420.500	800.000	0.046	0.196
-419.486	562.618	0.065	0.159
-418.471	-132.740	-0.197	0.025
-417.457	47.626	0.141	0.133
-416.442	800.000	0.094	0.291
-415.428	81.389	-0.286	-0.312
-414.413	-35.921	-0.294	0.161
-413.398	-72.245	0.332	0.124
-412.384	-74.409	0.182	-0.066
-411.369	-89.744	-0.340	-0.100
-410.355	800.000	-0.013	-0.043
-409.340	-21.881	0.120	0.073
-408.325	-200.000	0.031	0.154
-407.311	520.795	-0.023	0.055
-406.296	201.955	0.106	-0.164
-405.282	-23.559	-0.235	-0.142
-404.267	-41.648	0.019	0.010
-403.252	-116.448	0.162	0.030
-402.238	-93.575	-0.235	0.066
-401.223	-121.923	-0.475	0.079
-400.209	-70.972	-0.168	0.064
-399.194	-119.428	0.091	-0.016
-398.179	-139.265	0.145	0.016
-397.165	-200.000	0.019	0.167
-396.150	48.959	0.180	0.170
-395.136	-134.570	0.381	0.047
-394.121	-200.000	0.008	0.226
-393.106	271.326	0.057	0.101
-392.092	-200.000	0.003	-0.017
-391.077	112.481	0.165	0.201
-390.063	228.374	-0.050	0.083
-389.048	267.749	-0.107	-0.189
-388.033	132.560	-0.170	0.221
-387.019	800.000	0.072	-0.225
-386.004	227.440	0.063	-0.104
-384.990	-200.000	0.012	-0.103
-383.975	-100.805	0.125	-0.031
-382.960	-200.000	-0.023	0.226
-381.946	-200.000	0.037	-0.208
-380.931	-200.000	0.001	-0.075
-379.917	93.138	-0.194	0.221
-378.902	233.526	0.083	-0.138
-377.888	-68.419	-0.247	-0.097
-376.873	-200.000	-0.016	0.131
-375.858	-106.746	-0.430	-0.096
-374.844	-43.269	0.188	-0.096
-373.829	63.263	0.110	-0.111
-372.815	-200.000	0.012	-0.258
-371.800	-95.144	0.126	0.034
-370.785	-103.744	-0.352	-0.083
-369.771	26.706	0.027	-0.023
-368.756	69.773	-0.232	0.241
-367.742	85.673	-0.336	0.372
-366.727	-200.000	-0.014	-0.115
-365.712	130.854	-0.108	-0.140
-364.698	-78.968	-0.182	-0.062
-363.683	99.830	0.203	-0.237
-362.669	287.449	0.101	0.184
-361.654	50.395	-0.342	-0.325
-360.639	-200.000	-0.012	-0.192
-359.625	141.340	0.211	0.281
-358.610	800.000	0.067	0.196
-357.596	-40.911	-0.276	-0.144
-356.581	-27.361	0.199	0.117
-355.566	-156.330	0.165	0.010
-354.552	-74.290	-0.135	-0.049
-353.537	-200.000	0.020	-0.232
-352.523	800.000	0.047	-0.171
-351.508	-200.000	-0.007	0.287
-350.493	800.000	0.034	-0.101
-349.479	800.000	-0.038	0.107
-348.464	-143.202	0.011	-0.001
-347.450	-63.299	-0.043	0.018
-346.435	800.000	0.029	-0.109
-345.420	-102.326	0.276	0.067
-344.406	-70.735	-0.164	-0.062
-343.391	-200.000	-0.083	-0.376
-342.377	-200.000	-0.004	0.169
-341.362	258.227	0.042	0.072
-340.348	-200.000	-0.044	-0.225
-339.333	58.943	0.177	0.175
-338.318	13.372	-0.152	-0.118
-337.304	-200.000	0.046	-0.206
-336.289	161.917	0.265	-0.374
-335.275	-175.756	0.291	0.008
-334.260	264.415	0.097	-0.170
-333.245	130.171	-0.137	-0.176
-332.231	29.810	0.057	0.049
-331.216	100.228	-0.034	0.040
-330.202	-200.000	-0.001	0.303
-329.187	-68.758	0.336	0.131
-328.172	108.397	-0.058	-0.070
-327.158	800.000	0.051	0.161
-326.143	-200.000	-0.031	0.288
-325.129	-10.384	-0.314	0.209
-324.114	-72.742	0.158	-0.058
-323.099	-104.492	0.335	-0.078
-322.085	301.461	0.217	-0.404
-321.070	-0.780	0.059	-0.042
-320.056	-200.000	0.062	0.307
-319.041	721.890	0.130	-0.349
-318.026	-8.402	-0.281	0.190
-317.012	800.000	-0.087	0.363
-315.997	-47.940	0.122	-0.059
-314.983	-108.393	0.167	0.036
-313.968	305.331	-0.088	-0.163
-312.953	800.000	0.059	-0.169
-311.939	23.725	-0.090	-0.075
-310.924	-35.380	-0.174	0.095
-309.910	-78.508	-0.168	-0.058
-308.895	315.864	0.138	0.262
-307.880	-200.000	0.028	0.126
-306.866	-200.000	-0.012	-0.199
-305.851	17.161	0.232	0.185
-304.837	-130.793	0.044	0.006
-303.822	-111.660	-0.293	0.060
-302.807	-93.142	-0.176	-0.049
-301.793	-77.483	0.380	-0.133
-300.778	800.000	-0.016	-0.058
-299.764	-154.191	-0.213	0.014
-298.749	800.000	0.052	-0.183
-297.735	3.333	-0.213	0.156
-296.720	-200.000	0.029	-0.310
-295.705	-200.000	-0.037	0.360
-294.691	-124.829	-0.188	0.029
-293.676	-200.000	-0.048	-0.259
-292.662	55.716	-0.278	0.270
-291.647	371.788	-0.129	0.263
-290.632	-59.027	-0.188	-0.081
-289.618	-166.909	-0.279	-0.011
-288.603	-0.312	-0.095	-0.068
-287.589	164.234	-0.017	0.023
-286.574	235.875	0.187	-0.310
-285.559	379.233	0.098	-0.201
-284.545	-103.309	-0.253	0.060
-283.530	7.104	0.097	-0.073
-282.516	800.000	-0.081	-0.274
-281.501	39.980	0.021	0.019
-280.486	800.000	0.020	0.082
-279.472	800.000	-0.073	0.240
-278.457	581.434	-0.091	-0.223
-277.443	-15.722	-0.099	0.063
-276.428	-38.646	0.193	-0.102
-275.413	800.000	-0.082	-0.323
-274.399	-155.552	0.276	-0.018
-273.384	178.346	0.237	-0.347
-272.370	407.220	0.047	-0.100
-271.355	-65.816	0.195	0.078
-270.340	-129.134	-0.205	0.029
-269.326	-60.275	0.403	-0.172
-268.311	-39.349	-0.190	0.100
-267.297	-200.000	-0.021	-0.227
-266.282	58.845	0.104	-0.102
-265.267	-61.553	0.158	-0.066
-264.253	-200.000	0.018	0.143
-263.238	96.621	-0.203	-0.234
-262.224	800.000	0.038	0.132
-261.209	-45.515	0.185	0.092
-260.195	54.108	0.051	0.049
-259.180	699.177	0.065	-0.172
-258.165	-73.311	0.200	-0.074
-257.151	640.722	-0.109	0.277
-256.136	324.804	0.108	0.206
-255.122	506.328	-0.120	0.278
-254.107	-200.000	0.018	-0.086
-253.092	-153.550	0.089	-0.006
-252.078	-82.341	0.231	0.075
-251.063	272.943	0.124	-0.220
-250.049	800.000	0.042	0.151
-249.034	-200.000	-0.002	-0.131
-248.019	69.327	-0.140	-0.144
-247.005	1.842	0.124	-0.090
-245.990	-62.682	0.048	-0.020
-244.976	-47.144	0.139	0.068
-243.961	76.588	0.179	-0.190
-242.946	-82.473	0.229	-0.074
-241.932	-29.886	0.376	-0.215
-240.917	216.699	-0.046	-0.074
-239.903	542.318	-0.065	-0.155
-238.888	-34.358	0.100	-0.055
-237.873	99.865	-0.201	-0.233
-236.859	-200.000	-0.005	-0.052
-235.844	-9.407	0.037	0.025
-234.830	3.690	-0.182	-0.133
-233.815	-200.000	-0.089	-0.442
-232.800	-45.495	-0.199	0.099
-231.786	-129.008	-0.307	0.043
-230.771	-200.000	0.011	0.186
-229.757	3.883	0.111	0.081
-228.742	-75.830	0.250	-0.089
-227.727	800.000	-0.025	-0.104
-226.713	227.976	0.016	-0.025
-225.698	366.658	-0.091	0.184
-224.684	-200.000	-0.023	0.413
-223.669	-200.000	0.026	0.135
-222.655	-200.000	-0.023	0.389
-221.640	-101.350	0.113	-0.028
-220.625	-200.000	0.029	0.161
-219.611	160.476	-0.100	0.140
-218.596	-159.854	0.053	0.003
-217.582	800.000	-0.046	0.193
-216.567	-200.000	0.074	-0.329
-215.552	-27.942	-0.257	0.149
-214.538	293.546	0.145	-0.266
-213.523	-0.735	-0.222	-0.158
-212.509	68.616	-0.089	-0.092
-211.494	396.263	0.156	-0.326
-210.479	492.139	-0.006	-0.013
-209.465	-162.213	0.237	0.012
-208.450	-75.203	0.121	-0.043
-207.436	-21.216	0.188	-0.115
-206.421	-128.964	0.240	0.034
-205.406	-200.000	-0.033	0.333
-204.392	-200.000	-0.009	-0.102
-203.377	482.598	0.070	-0.158
-202.363	-200.000	0.032	-0.156
-201.348	527.479	-0.056	-0.132
-200.333	189.654	-0.133	0.200
-199.319	386.905	-0.050	0.102
-198.304	-200.000	-0.029	0.273
-197.290	23.962	0.174	-0.143
-196.275	-200.000	-0.026	-0.212
-195.260	-39.400	-0.253	-0.133
-194.246	-200.000	0.020	0.212
-193.231	800.000	0.057	0.248
-192.217	-130.675	-0.039	0.005
-191.202	-97.522	0.246	0.064
-190.187	800.000	-0.056	0.239
-189.173	-200.000	0.016	0.246
-188.158	112.403	-0.115	0.139
-187.144	67.837	-0.304	-0.311
-186.129	28.117	0.197	0.166
-185.114	-200.000	-0.008	-0.233
-184.100	38.388	-0.187	0.167
-183.085	92.683	-0.011	-0.012
-182.071	75.868	-0.053	0.056
-181.056	-63.994	-0.117	0.048
-180.042	-163.874	-0.357	-0.017
-179.027	1.955	-0.059	0.043
-178.012	-38.783	-0.076	0.040
-176.998	11.333	0.166	0.127
-175.983	-51.050	-0.116	-0.054
-174.969	188.855	0.123	-0.184
-173.954	-174.534	0.102	0.003
-172.939	56.709	-0.183	-0.178
-171.925	-143.501	0.040	0.004
-170.910	147.952	0.056	-0.075
-169.896	-68.302	0.107	-0.041
-168.881	-134.450	0.102	0.012
-167.866	77.389	0.068	-0.073
-166.852	-171.201	-0.255	0.009
-165.837	-83.653	-0.152	0.048
-164.823	-200.000	-0.042	0.242
-163.808	143.301	-0.147	0.195
-162.793	8.261	0.127	0.095
-161.779	-29.228	-0.137	-0.078
-160.764	-200.000	-0.031	0.143
-159.750	-104.292	-0.161	-0.037
-158.735	-59.328	-0.149	0.064
-157.720	-74.594	-0.039	-0.014
-156.706	28.144	0.191	0.161
-155.691	-2.549	-0.090	0.063
-154.677	-117.543	-0.105	0.019
-153.662	371.591	0.178	-0.360
-152.647	180.918	-0.094	-0.138
-151.633	81.885	0.150	0.162
-150.618	70.840	0.207	-0.214
-149.604	-52.073	-0.166	-0.077
-148.589	135.373	-0.092	-0.119
-147.574	-128.308	0.347	0.049
-146.560	-179.493	-0.156	0.003
-145.545	-159.395	-0.007	0.000
-144.531	72.652	0.144	-0.150
-143.516	284.184	0.199	-0.357
-142.502	-105.484	0.359	0.081
-141.487	-200.000	-0.009	0.319
-140.472	174.221	0.190	0.275
-139.458	-71.579	-0.232	0.087
-138.443	-200.000	-0.028	0.203
-137.429	229.531	0.057	0.092
-136.414	-43.075	0.292	0.148
-135.399	51.610	0.063	0.060
-134.385	158.559	-0.231	0.320
-133.370	800.000	0.131	0.374
-132.356	-200.000	-0.023	0.268
-131.341	49.664	0.091	0.085
-130.326	728.052	0.162	-0.430
-129.312	54.559	0.208	-0.200
-128.297	-142.335	0.122	0.012
-127.283	-160.074	-0.414	-0.022
-126.268	-91.597	-0.239	0.068
-125.253	-118.249	0.130	0.023
-124.239	58.140	0.163	0.159
-123.224	-200.000	-0.002	0.144
-122.210	4.089	-0.071	0.052
-121.195	350.483	-0.034	-0.067
