DTS Sentinel unit serial number:	SN413079Multiplexer serial number:	ORYXHardware model number:	OX4-SRSoftware version number:	ORYX F/W v4.00 Oryx Data Collector v3.7.2.0data status	okinstallation	princeton_trtdifferential loss correction	single-endedforward channel	channel 1reverse channel	N/Adate	2019/09/11time	09:36:11forward acquisition time	60.00reverse acquisition time	0.00gamma	496.2192k internal	0.2305k external	0.2305temperature offset calibration	0.9953default loss term (dB/km)	0.3790temperature slope calibration	1.0000multiplexer offset coefficient	1.0000multiplexer slope coefficient	1.0000fibre end	0.00T internal ref (°C)	34.80T ext. ref 1 (°C)	0.13T ext. ref 2 (°C)	31.05length (m)	temperature (°C)	Stokes	anti-Stokes-747.200	-200.000	0.010	0.080
-746.185	-200.000	-0.007	0.270
-745.171	-16.434	-0.267	0.172
-744.156	-200.000	0.036	0.231
-743.142	-200.000	-0.299	0.001
-742.127	450.867	0.120	0.270
-741.112	398.079	0.073	-0.156
-740.098	275.869	-0.155	0.279
-739.083	176.165	-0.085	0.126
-738.069	-121.018	-0.485	0.083
-737.054	790.020	-0.097	0.270
-736.039	800.000	-0.021	0.066
-735.025	800.000	0.080	0.352
-734.010	21.472	-0.288	-0.238
-732.996	800.000	-0.053	-0.229
-731.981	-200.000	-0.038	0.332
-730.966	109.564	-0.178	-0.217
-729.952	-200.000	0.026	0.230
-728.937	-135.840	0.235	-0.028
-727.923	-134.183	-0.114	0.014
-726.908	176.895	-0.020	-0.030
-725.894	-140.626	-0.291	-0.031
-724.879	-187.563	0.228	-0.003
-723.864	-39.383	-0.230	0.123
-722.850	483.994	-0.105	0.242
-721.835	-143.660	-0.168	-0.016
-720.821	407.053	-0.134	-0.288
-719.806	-200.000	-0.014	-0.487
-718.791	800.000	0.046	-0.177
-717.777	-200.000	0.009	-0.165
-716.762	-140.289	-0.195	-0.021
-715.748	16.965	0.308	-0.248
-714.733	-164.221	-0.327	0.015
-713.718	143.328	0.165	0.223
-712.704	-108.267	0.084	-0.019
-711.689	-200.000	0.034	0.195
-710.675	289.427	-0.128	0.236
-709.660	379.608	-0.108	-0.224
-708.645	-42.722	0.216	0.112
-707.631	257.273	0.031	-0.053
-706.616	-4.341	0.220	-0.154
-705.602	-200.000	-0.017	-0.082
-704.587	-200.000	-0.033	-0.395
-703.572	279.661	-0.030	-0.054
-702.558	-3.930	0.177	0.125
-701.543	118.732	0.200	-0.251
-700.529	11.744	0.252	-0.197
-699.514	111.409	-0.094	0.115
-698.499	-56.476	-0.162	-0.073
-697.485	21.488	0.191	-0.158
-696.470	-200.000	0.000	0.037
-695.456	42.390	0.136	-0.126
-694.441	-200.000	-0.014	0.240
-693.426	-200.000	0.010	-0.169
-692.412	-12.918	0.204	-0.135
-691.397	63.066	0.319	-0.324
-690.383	800.000	0.018	-0.066
-689.368	93.659	0.214	-0.247
-688.354	-200.000	0.005	0.195
-687.339	652.584	-0.026	0.068
-686.324	426.251	0.048	-0.105
-685.310	-200.000	0.024	-0.454
-684.295	-32.660	-0.137	0.078
-683.281	105.846	-0.159	-0.191
-682.266	-119.633	-0.207	0.036
-681.251	-200.000	-0.015	0.160
-680.237	169.679	0.117	-0.169
-679.222	175.690	0.189	-0.279
-678.208	-13.542	0.204	-0.134
-677.193	800.000	0.045	0.140
-676.178	107.002	-0.098	0.119
-675.164	169.065	0.069	-0.099
-674.149	43.047	0.016	-0.015
-673.135	-2.327	0.108	-0.077
-672.120	-21.194	0.129	0.080
-671.105	290.270	-0.091	0.167
-670.091	-35.777	0.049	-0.027
-669.076	750.117	0.178	0.489
-668.062	-107.197	0.230	-0.051
-667.047	600.970	0.077	0.195
-666.032	-200.000	-0.012	0.157
-665.018	-200.000	-0.003	-0.144
-664.003	800.000	0.111	-0.448
-662.989	140.619	0.143	-0.191
-661.974	-200.000	0.023	0.181
-660.959	568.257	0.056	-0.137
-659.945	27.906	-0.414	-0.354
-658.930	-145.976	-0.280	-0.025
-657.916	-82.910	0.039	-0.013
-656.901	-130.091	0.110	0.015
-655.886	-200.000	-0.058	0.332
-654.872	573.403	0.032	0.080
-653.857	-62.293	-0.095	-0.040
-652.843	640.966	-0.038	-0.097
-651.828	794.642	0.153	-0.427
-650.814	-200.000	0.002	0.110
-649.799	252.156	0.125	0.215
-648.784	108.310	-0.150	-0.182
-647.770	37.548	-0.170	-0.153
-646.755	151.545	0.073	0.100
-645.741	-104.368	-0.385	-0.090
-644.726	-200.000	-0.005	-0.150
-643.711	-51.951	-0.364	0.172
-642.697	-80.922	0.299	-0.100
-641.682	-73.906	0.132	0.049
-640.668	-200.000	0.023	-0.143
-639.653	-59.290	0.200	-0.087
-638.638	-200.000	0.013	0.151
-637.624	-19.197	0.290	-0.183
-636.609	-200.000	-0.019	0.196
-635.595	-200.000	-0.044	0.260
-634.580	437.959	-0.070	0.155
-633.565	400.517	-0.210	0.447
-632.551	77.319	-0.021	0.022
-631.536	278.374	0.182	0.329
-630.522	298.243	-0.051	-0.095
-629.507	405.240	0.120	0.256
-628.492	-34.756	-0.338	-0.187
-627.478	285.482	-0.131	0.240
-626.463	-38.660	-0.173	0.093
-625.449	-8.412	0.243	-0.166
-624.434	-200.000	-0.054	0.282
-623.419	140.372	0.133	0.178
-622.405	-200.000	-0.254	-0.000
-621.390	222.874	-0.073	-0.119
-620.376	-200.000	-0.020	-0.364
-619.361	-2.130	-0.278	-0.198
-618.346	-200.000	-0.048	-0.317
-617.332	-200.000	0.045	-0.207
-616.317	480.335	-0.134	0.307
-615.303	-200.000	0.023	-0.172
-614.288	-147.187	-0.080	-0.007
-613.273	-89.721	-0.275	-0.081
-612.259	2.090	-0.160	0.117
-611.244	800.000	-0.025	0.096
-610.230	-56.803	-0.330	-0.148
-609.215	-44.984	0.245	0.123
-608.201	409.056	0.159	-0.342
-607.186	-200.000	-0.331	-0.001
-606.171	-10.170	0.104	-0.070
-605.157	800.000	-0.047	-0.153
-604.142	133.938	-0.117	-0.153
-603.128	313.268	0.106	-0.201
-602.113	-76.970	0.183	0.065
-601.098	-13.217	-0.156	0.102
-600.084	-176.377	0.117	0.003
-599.069	-10.605	-0.071	0.048
-598.055	-200.000	0.007	-0.079
-597.040	-94.995	0.456	-0.125
-596.025	-200.000	-0.075	-0.363
-595.011	-200.000	-0.035	-0.262
-593.996	-200.000	0.009	0.138
-592.982	175.760	-0.061	0.090
-591.967	-15.639	-0.395	-0.255
-590.952	800.000	0.019	-0.075
-589.938	-200.000	0.006	-0.198
-588.923	-117.886	0.187	-0.034
-587.909	-200.000	-0.007	0.194
-586.894	-80.846	0.283	0.095
-585.879	-9.146	0.033	-0.022
-584.865	-143.958	0.192	-0.018
-583.850	131.774	-0.164	0.213
-582.836	-61.214	-0.145	0.062
-581.821	-13.920	0.114	-0.074
-580.806	-200.000	0.049	-0.240
-579.792	86.114	-0.135	0.150
-578.777	43.400	0.104	-0.096
-577.763	481.744	-0.010	-0.023
-576.748	-71.860	-0.072	-0.027
-575.733	-200.000	0.011	-0.274
-574.719	337.428	0.076	0.150
-573.704	-142.268	-0.127	-0.013
-572.690	800.000	-0.093	0.311
-571.675	-200.000	0.029	-0.474
-570.661	800.000	0.039	-0.150
-569.646	45.431	-0.087	-0.082
-568.631	444.998	-0.120	-0.267
-567.617	-200.000	0.011	-0.266
-566.602	800.000	-0.054	0.179
-565.588	-117.289	0.125	-0.023
-564.573	51.664	-0.118	0.113
-563.558	-11.042	-0.114	-0.076
-562.544	126.050	0.038	-0.048
-561.529	800.000	-0.043	-0.176
-560.515	106.141	0.173	0.207
-559.500	-200.000	0.025	-0.368
-558.485	-20.321	-0.180	0.112
-557.471	394.144	-0.133	0.281
-556.456	460.254	-0.074	-0.166
-555.442	-86.810	-0.287	0.089
-554.427	-200.000	0.001	0.239
-553.412	17.909	-0.107	0.086
-552.398	353.068	-0.153	0.307
-551.383	-81.439	-0.184	-0.061
-550.369	104.999	0.156	-0.185
-549.354	427.695	-0.127	0.277
-548.339	187.786	-0.050	-0.076
-547.325	175.026	-0.106	-0.156
-546.310	-200.000	0.010	-0.191
-545.296	-200.000	-0.004	-0.037
-544.281	87.285	0.243	0.271
-543.266	-110.352	-0.021	-0.004
-542.252	610.535	0.121	0.306
-541.237	35.651	0.305	-0.271
-540.223	237.441	-0.169	-0.282
-539.208	-22.723	-0.309	-0.189
-538.193	-16.316	0.084	-0.054
-537.179	58.837	0.263	0.261
-536.164	-1.235	-0.109	0.078
-535.150	-165.291	0.295	-0.013
-534.135	800.000	0.057	-0.171
-533.121	-14.663	0.185	0.120
-532.106	-129.250	-0.216	-0.030
-531.091	56.816	-0.074	-0.073
-530.077	252.463	0.093	-0.160
-529.062	800.000	-0.067	-0.214
-528.048	182.444	0.146	-0.217
-527.033	-200.000	0.012	-0.294
-526.018	-181.702	-0.231	0.004
-525.004	198.721	0.187	0.288
-523.989	251.643	-0.258	-0.443
-522.975	29.844	0.105	-0.090
-521.960	388.572	0.049	0.102
-520.945	-200.000	0.016	0.095
-519.931	-200.000	0.003	0.305
-518.916	165.323	0.303	0.431
-517.902	-19.497	0.069	0.043
-516.887	-60.371	-0.178	-0.077
-515.872	-200.000	0.024	0.393
-514.858	-81.499	0.276	0.092
-513.843	-141.569	0.104	0.011
-512.829	-159.353	0.386	0.022
-511.814	122.012	-0.162	-0.204
-510.799	-200.000	0.051	0.276
-509.785	-200.000	0.046	-0.405
-508.770	-120.466	0.173	0.030
-507.756	159.347	-0.039	-0.055
-506.741	-42.942	0.254	-0.130
-505.726	-36.790	0.338	-0.183
-504.712	394.722	0.026	-0.055
-503.697	800.000	0.080	-0.245
-502.683	53.819	-0.285	-0.276
-501.668	-200.000	0.008	-0.083
-500.653	255.885	-0.121	0.208
-499.639	76.541	0.078	0.084
-498.624	-200.000	-0.035	-0.219
-497.610	800.000	-0.080	0.291
-496.595	84.546	0.153	-0.169
-495.581	-96.779	0.359	0.095
-494.566	36.833	0.145	0.129
-493.551	-46.896	-0.036	0.018
-492.537	-169.432	-0.247	-0.009
-491.522	-200.000	0.011	-0.233
-490.508	-76.500	0.126	-0.045
-489.493	-200.000	0.049	-0.259
-488.478	-200.000	0.002	0.016
-487.464	-11.827	-0.149	-0.099
-486.449	119.666	-0.094	0.117
-485.435	-20.928	0.097	0.060
-484.420	800.000	-0.055	-0.177
-483.405	-84.749	-0.055	0.018
-482.391	109.900	0.073	0.088
-481.376	198.201	0.036	-0.055
-480.362	232.727	0.090	-0.149
-479.347	108.083	-0.087	-0.104
-478.332	148.182	0.075	0.101
-477.318	-200.000	-0.025	0.171
-476.303	-46.186	-0.130	0.065
-475.289	-200.000	0.003	-0.083
-474.274	-60.061	-0.066	0.028
-473.259	1.327	-0.116	-0.084
-472.245	49.128	-0.177	0.168
-471.230	-200.000	0.027	-0.322
-470.216	-200.000	0.012	0.134
-469.201	-128.383	-0.095	0.014
-468.186	-200.000	-0.006	0.210
-467.172	-142.576	0.359	-0.035
-466.157	-200.000	-0.044	-0.195
-465.143	18.389	0.197	-0.158
-464.128	-200.000	-0.021	0.292
-463.113	-200.000	0.001	-0.035
-462.099	37.172	0.056	-0.050
-461.084	-34.898	0.322	0.177
-460.070	800.000	0.027	-0.110
-459.055	-162.309	-0.177	-0.009
-458.040	-200.000	0.007	-0.086
-457.026	-110.952	0.137	-0.028
-456.011	-116.884	-0.358	0.066
-454.997	-92.310	0.708	-0.201
-453.982	-54.059	-0.094	0.043
-452.968	-200.000	0.011	0.257
-451.953	-124.760	0.175	-0.027
-450.938	53.273	-0.111	0.107
-449.924	-98.100	0.246	-0.064
-448.909	32.916	0.046	0.040
-447.895	132.751	-0.172	-0.223
-446.880	-59.215	-0.142	0.062
-445.865	-98.524	0.049	0.013
-444.851	-86.021	-0.021	-0.007
-443.836	-0.858	0.147	-0.104
-442.822	-163.999	-0.099	0.005
-441.807	111.843	-0.068	-0.082
-440.792	-91.282	-0.298	-0.086
-439.778	253.867	-0.076	0.131
-438.763	-16.623	-0.211	0.135
-437.749	-69.268	-0.116	-0.045
-436.734	-199.089	0.185	-0.001
-435.719	92.818	-0.165	-0.187
-434.705	-200.000	0.013	0.078
-433.690	100.916	0.042	0.049
-432.676	87.477	0.154	0.172
-431.661	-200.000	-0.011	-0.229
-430.646	275.710	0.159	-0.284
-429.632	-39.975	-0.092	0.048
-428.617	800.000	-0.066	0.270
-427.603	168.015	0.147	-0.210
-426.588	-85.523	-0.275	-0.086
-425.573	800.000	0.068	-0.263
-424.559	265.128	-0.074	0.130
-423.544	4.999	0.120	0.088
-422.530	-39.609	-0.135	0.071
-421.515	-38.545	-0.227	0.121
-420.500	-200.000	-0.018	-0.165
-419.486	-171.333	-0.129	-0.004
-418.471	-154.928	0.181	-0.012
-417.457	800.000	-0.019	-0.058
-416.442	-87.116	0.139	0.042
-415.428	430.485	-0.104	0.225
-414.413	800.000	0.136	0.428
-413.398	425.480	-0.064	0.137
-412.384	82.597	0.140	0.153
-411.369	154.526	0.247	-0.341
-410.355	122.814	-0.218	0.274
-409.340	230.159	0.073	-0.120
-408.325	-13.025	-0.125	-0.082
-407.311	364.662	-0.103	0.209
-406.296	-200.000	0.033	-0.199
-405.282	-200.000	-0.016	0.152
-404.267	-200.000	0.012	-0.095
-403.252	-110.749	-0.090	-0.019
-402.238	166.746	0.175	0.249
-401.223	-139.570	-0.181	0.019
-400.209	-4.203	-0.229	-0.159
-399.194	-166.175	-0.193	-0.008
-398.179	800.000	-0.095	0.344
-397.165	147.649	0.258	0.349
-396.150	-29.001	0.289	0.167
-395.136	800.000	-0.063	-0.194
-394.121	-200.000	-0.008	0.103
-393.106	800.000	-0.038	0.157
-392.092	140.770	-0.170	-0.225
-391.077	-200.000	-0.336	0.001
-390.063	190.447	-0.059	0.089
-389.048	235.262	-0.052	-0.086
-388.033	-28.539	-0.247	-0.143
-387.019	-200.000	-0.043	-0.369
-386.004	31.586	-0.070	0.061
-384.990	-200.000	0.016	-0.321
-383.975	-163.158	-0.333	0.016
-382.960	92.329	-0.177	-0.200
-381.946	88.190	0.253	-0.282
-380.931	-3.549	0.437	-0.305
-379.917	-16.437	-0.087	-0.056
-378.902	-90.408	0.182	-0.053
-377.888	-85.750	0.128	0.040
-376.873	52.736	0.114	0.109
-375.858	800.000	-0.070	-0.197
-374.844	-75.377	-0.272	0.097
-373.829	-200.000	-0.016	0.077
-372.815	-73.747	-0.163	0.059
-371.800	44.625	0.075	-0.069
-370.785	-200.000	-0.008	0.242
-369.771	-61.721	0.489	0.206
-368.756	-25.537	0.206	-0.122
-367.742	800.000	-0.087	-0.274
-366.727	673.482	0.138	0.358
-365.712	-200.000	0.018	-0.158
-364.698	800.000	-0.042	-0.164
-363.683	64.864	0.240	-0.243
-362.669	-65.388	-0.208	0.084
-361.654	-69.938	-0.558	-0.213
-360.639	-200.000	0.002	-0.119
-359.625	-106.180	-0.187	-0.042
-358.610	-200.000	-0.041	-0.312
-357.596	-200.000	-0.055	-0.408
-356.581	800.000	-0.016	-0.070
-355.566	53.268	-0.012	-0.012
-354.552	800.000	-0.126	0.391
-353.537	-99.228	0.126	-0.032
-352.523	229.355	0.126	-0.206
-351.508	209.446	0.064	0.100
-350.493	-200.000	0.010	0.125
-349.479	57.676	-0.168	0.165
-348.464	48.076	0.042	-0.039
-347.450	169.788	0.089	0.128
-346.435	-200.000	0.000	-0.018
-345.420	17.611	-0.064	0.051
-344.406	-99.847	-0.280	-0.070
-343.391	-101.574	-0.126	0.031
-342.377	21.194	0.214	-0.174
-341.362	-31.240	0.219	0.124
-340.348	403.831	0.105	0.221
-339.333	-83.099	0.079	0.025
-338.318	75.277	-0.204	-0.215
-337.304	-200.000	-0.007	-0.089
-336.289	-164.764	-0.285	0.013
-335.275	70.055	0.126	-0.131
-334.260	159.675	-0.187	0.261
-333.245	-200.000	0.015	0.217
-332.231	-83.357	0.394	0.127
-331.216	26.918	0.151	-0.127
-330.202	55.574	-0.537	0.521
-329.187	276.932	0.087	0.155
-328.172	-200.000	0.002	-0.148
-327.158	800.000	-0.031	0.119
-326.143	680.007	0.154	0.403
-325.129	-136.257	0.207	-0.024
-324.114	-29.708	0.146	0.083
-323.099	-26.867	0.109	-0.064
-322.085	-200.000	-0.025	-0.187
-321.070	176.366	-0.280	0.407
-320.056	-41.748	-0.083	0.043
-319.041	-200.000	-0.042	-0.309
-318.026	-152.185	0.363	-0.026
-317.012	-51.854	0.192	-0.089
-315.997	253.432	-0.169	0.289
-314.983	97.899	-0.352	-0.405
-313.968	47.994	-0.161	0.150
-312.953	800.000	-0.092	0.289
-311.939	800.000	0.089	-0.334
-310.924	-150.237	-0.125	0.010
-309.910	-129.938	0.384	0.053
-308.895	336.624	0.046	0.090
-307.880	268.791	-0.091	-0.160
-306.866	-184.955	-0.214	-0.003
-305.851	-200.000	0.017	-0.407
-304.837	427.766	-0.094	0.203
-303.822	-200.000	0.044	0.220
-302.807	800.000	-0.012	0.051
-301.793	-49.992	-0.256	0.121
-300.778	-9.515	-0.323	-0.215
-299.764	585.040	-0.077	-0.189
-298.749	-200.000	0.006	-0.194
-297.735	11.004	-0.062	-0.047
-296.720	-200.000	-0.011	-0.129
-295.705	800.000	0.088	-0.289
-294.691	-116.798	0.186	-0.034
-293.676	-65.394	0.334	0.134
-292.662	-200.000	0.020	0.197
-291.647	-40.319	-0.085	-0.044
-290.632	77.211	-0.265	0.281
-289.618	-28.415	0.137	-0.079
-288.603	171.541	-0.243	-0.348
-287.589	31.271	0.188	-0.162
-286.574	42.262	0.147	0.134
-285.559	117.663	0.138	0.170
-284.545	115.018	0.252	-0.308
-283.530	5.304	0.361	-0.266
-282.516	72.544	0.143	-0.149
-281.501	-71.012	0.269	-0.101
-280.486	-52.006	-0.291	0.135
-279.472	445.969	0.065	-0.143
-278.457	13.227	0.117	-0.090
-277.443	-167.291	-0.090	-0.004
-276.428	800.000	-0.059	0.167
-275.413	-21.815	-0.204	0.124
-274.399	44.618	0.383	0.352
-273.384	48.293	0.228	0.213
-272.370	-200.000	0.003	0.018
-271.355	-200.000	0.001	-0.103
-270.340	-200.000	0.026	-0.403
-269.326	26.984	-0.150	0.126
-268.311	-200.000	-0.049	-0.359
-267.297	362.199	0.105	0.211
-266.282	652.719	0.009	-0.024
-265.267	-130.424	0.319	-0.043
-264.253	-123.390	0.433	-0.069
-263.238	156.235	-0.122	0.168
-262.224	40.157	0.235	0.211
-261.209	357.717	-0.104	0.207
-260.195	-200.000	-0.027	-0.144
-259.180	-131.910	0.428	-0.056
-258.165	800.000	-0.142	-0.410
-257.151	3.586	-0.331	-0.241
-256.136	-38.716	-0.092	0.049
-255.122	-117.189	0.021	0.004
-254.107	-200.000	-0.006	0.049
-253.092	-47.642	0.014	0.007
-252.078	85.947	-0.049	0.053
-251.063	-200.000	0.017	0.135
-250.049	68.945	-0.097	-0.100
-249.034	800.000	-0.044	-0.138
-248.019	-200.000	0.026	0.307
-247.005	800.000	-0.072	0.252
-245.990	-70.253	-0.097	-0.037
-244.976	-68.006	-0.210	0.082
-243.961	-20.148	-0.127	0.078
-242.946	92.031	-0.347	0.390
-241.932	800.000	-0.077	-0.290
-240.917	800.000	-0.067	-0.199
-239.903	-98.498	0.475	-0.121
-238.888	800.000	-0.087	0.305
-237.873	-114.512	0.095	-0.018
-236.859	161.154	0.074	0.104
-235.844	-200.000	-0.005	0.493
-234.830	55.474	0.037	0.036
-233.815	-200.000	-0.010	-0.150
-232.800	85.750	-0.110	0.121
-231.786	377.148	-0.044	0.089
-230.771	24.529	-0.077	-0.063
-229.757	-200.000	-0.018	0.248
-228.742	-137.958	0.083	-0.009
-227.727	800.000	0.071	0.207
-226.713	41.380	-0.164	0.148
-225.698	-200.000	-0.032	0.179
-224.684	-80.046	-0.132	-0.044
-223.669	34.951	-0.274	-0.239
-222.655	625.410	0.136	0.341
-221.640	25.306	-0.193	0.160
-220.625	136.720	0.180	0.235
-219.611	-200.000	-0.025	-0.235
-218.596	96.090	0.110	0.125
-217.582	-104.415	0.239	-0.055
-216.567	-29.783	0.176	0.100
-215.552	800.000	-0.058	-0.182
-214.538	-134.191	0.061	0.008
-213.523	76.930	-0.216	0.229
-212.509	-137.606	0.247	0.028
-211.494	62.797	0.145	0.145
-210.479	-93.594	0.400	0.110
-209.465	-200.000	0.007	-0.168
-208.450	-36.404	-0.052	-0.028
-207.436	800.000	0.019	0.057
-206.421	-63.290	0.110	0.045
-205.406	93.181	-0.166	0.188
-204.392	-47.220	-0.173	0.084
-203.377	74.286	-0.175	0.184
-202.363	493.614	0.201	0.459
-201.348	-102.269	0.295	-0.070
-200.333	-186.888	0.229	-0.003
-199.319	-173.758	-0.232	0.007
-198.304	68.571	-0.237	0.242
-197.290	-200.000	0.015	-0.201
-196.275	36.463	0.174	0.153
-195.260	-91.363	-0.105	-0.030
-194.246	-200.000	-0.025	-0.266
-193.231	-200.000	-0.053	-0.333
-192.217	-128.365	0.240	0.034
-191.202	277.045	0.058	-0.104
-190.187	-200.000	-0.014	0.082
-189.173	382.159	-0.055	0.112
-188.158	177.493	-0.139	0.202
-187.144	-1.718	0.133	0.093
-186.129	800.000	0.187	0.517
-185.114	-114.960	0.240	-0.045
-184.100	26.223	-0.056	-0.047
-183.085	76.190	0.344	0.362
-182.071	-125.872	-0.241	0.036
-181.056	164.351	-0.168	-0.235
-180.042	367.607	0.080	-0.162
-179.027	49.436	0.110	0.103
-178.012	5.699	0.223	-0.164
-176.998	-200.000	0.014	0.145
-175.983	93.548	-0.007	-0.007
-174.969	-200.000	0.001	0.106
-173.954	-102.894	-0.273	0.065
-172.939	139.283	-0.098	0.128
-171.925	800.000	0.032	0.128
-170.910	-45.779	0.049	-0.024
-169.896	-90.132	0.126	0.037
-168.881	335.078	-0.122	0.235
-167.866	209.958	-0.107	-0.168
-166.852	-200.000	0.031	0.175
-165.837	-200.000	0.015	0.322
-164.823	82.877	0.075	0.081
-163.808	-68.499	0.619	0.239
-162.793	216.379	-0.027	-0.042
-161.779	-130.562	-0.132	-0.018
-160.764	-130.075	-0.406	-0.055
-159.750	-94.606	-0.253	-0.068
-158.735	800.000	-0.036	-0.114
-157.720	-200.000	-0.044	-0.343
-156.706	51.513	-0.028	-0.026
-155.691	-106.744	0.119	-0.026
-154.677	18.412	-0.203	0.161
-153.662	-162.311	0.133	-0.007
-152.647	-80.201	-0.162	0.054
-151.633	-200.000	0.088	-0.408
-150.618	-151.972	0.131	0.010
-149.604	428.779	-0.082	0.176
-148.589	800.000	0.042	0.154
-147.574	431.594	0.063	-0.136
-146.560	-113.815	0.142	-0.027
-145.545	-39.671	-0.300	0.156
-144.531	-200.000	0.029	0.320
-143.516	800.000	0.067	-0.185
-142.502	-200.000	0.003	0.313
-141.487	-180.785	-0.406	-0.008
-140.472	37.021	0.155	0.136
-139.458	-28.785	-0.132	0.076
-138.443	-116.217	0.253	0.047
-137.429	-73.382	0.072	-0.026
-136.414	-73.093	0.141	0.051
-135.399	22.522	0.230	-0.187
-134.385	-54.345	0.250	-0.113
-133.370	800.000	0.099	-0.283
-132.356	-7.364	0.156	-0.105
-131.341	95.862	0.058	0.066
-130.326	18.049	0.416	0.330
-129.312	33.314	0.182	0.157
-128.297	-107.905	-0.100	0.022
-127.283	45.753	-0.168	0.154
-126.268	-200.000	0.071	-0.388
-125.253	-44.047	0.072	0.036
-124.239	-186.641	-0.150	0.002
-123.224	-91.781	-0.277	-0.078
-122.210	90.702	0.187	0.208
