DTS Sentinel unit serial number:	SN413079Multiplexer serial number:	ORYXHardware model number:	OX4-SRSoftware version number:	ORYX F/W v4.00 Oryx Data Collector v3.7.2.0data status	okinstallation	princeton_trtdifferential loss correction	single-endedforward channel	channel 1reverse channel	N/Adate	2019/09/13time	20:06:35forward acquisition time	60.00reverse acquisition time	0.00gamma	496.2192k internal	0.2330k external	0.2330temperature offset calibration	1.0094default loss term (dB/km)	0.3790temperature slope calibration	1.0000multiplexer offset coefficient	1.0000multiplexer slope coefficient	1.0000fibre end	0.00T internal ref (°C)	29.62T ext. ref 1 (°C)	3.34T ext. ref 2 (°C)	23.86length (m)	temperature (°C)	Stokes	anti-Stokes-747.200	-79.481	0.069	-0.024
-746.185	287.328	-0.160	0.291
-745.171	-102.568	-0.246	-0.059
-744.156	-99.166	-0.299	0.076
-743.142	331.305	-0.243	0.473
-742.127	-97.773	0.248	-0.065
-741.112	70.429	0.065	-0.067
-740.098	-200.000	-0.002	-0.240
-739.083	-73.316	-0.194	-0.072
-738.069	-200.000	-0.058	0.369
-737.054	-61.295	0.197	0.083
-736.039	178.163	-0.211	-0.309
-735.025	-200.000	-0.019	-0.178
-734.010	69.736	0.169	0.175
-732.996	800.000	-0.066	-0.290
-731.981	800.000	-0.018	0.067
-730.966	79.164	-0.338	-0.364
-729.952	90.015	-0.129	-0.145
-728.937	-200.000	0.008	0.246
-727.923	-61.066	-0.224	0.095
-726.908	-117.437	-0.286	0.052
-725.894	-159.528	-0.314	0.018
-724.879	82.499	0.098	-0.107
-723.864	-26.633	-0.204	0.120
-722.850	130.452	-0.195	0.251
-721.835	-2.205	-0.262	-0.185
-720.821	800.000	0.004	0.017
-719.806	-99.077	0.216	-0.055
-718.791	518.724	-0.095	-0.224
-717.777	-165.277	-0.243	-0.011
-716.762	144.549	-0.075	-0.101
-715.748	-122.873	-0.192	0.031
-714.733	-19.408	-0.045	0.028
-713.718	180.619	-0.145	-0.214
-712.704	-83.132	-0.202	-0.065
-711.689	-5.784	-0.253	-0.174
-710.675	-77.559	0.081	-0.028
-709.660	-174.003	-0.213	0.006
-708.645	-148.679	-0.213	0.017
-707.631	289.845	0.158	-0.289
-706.616	800.000	0.031	0.112
-705.602	-200.000	-0.035	-0.221
-704.587	-134.336	0.343	-0.042
-703.572	393.092	-0.151	0.316
-702.558	17.150	0.050	0.040
-701.543	-4.028	0.193	-0.134
-700.529	-200.000	0.002	-0.159
-699.514	171.563	0.121	-0.174
-698.499	-18.665	-0.048	0.030
-697.485	349.230	-0.049	-0.097
-696.470	19.659	-0.048	0.039
-695.456	36.118	-0.147	-0.130
-694.441	-200.000	-0.004	-0.306
-693.426	-146.504	-0.244	-0.021
-692.412	800.000	-0.037	0.121
-691.397	-100.919	-0.062	0.015
-690.383	163.227	0.178	0.251
-689.368	-89.430	-0.090	-0.027
-688.354	109.109	0.069	0.083
-687.339	90.068	-0.190	-0.213
-686.324	-154.883	0.178	0.012
-685.310	800.000	-0.028	0.106
-684.295	414.996	-0.036	-0.077
-683.281	-149.234	0.293	0.023
-682.266	269.237	0.124	-0.219
-681.251	88.139	-0.141	0.157
-680.237	800.000	-0.033	-0.139
-679.222	54.458	-0.206	-0.199
-678.208	83.072	-0.066	-0.072
-677.193	452.884	-0.182	0.405
-676.178	-200.000	0.071	0.399
-675.164	412.881	0.109	0.233
-674.149	267.808	0.141	0.248
-673.135	-28.538	-0.088	-0.051
-672.120	459.105	-0.088	-0.197
-671.105	800.000	-0.099	-0.277
-670.091	-200.000	0.013	-0.392
-669.076	104.091	-0.129	-0.153
-668.062	-34.990	0.257	0.141
-667.047	-200.000	0.025	0.283
-666.032	800.000	-0.172	-0.506
-665.018	264.310	-0.117	0.205
-664.003	-107.683	-0.437	0.096
-662.989	-200.000	-0.038	-0.201
-661.974	28.680	0.243	0.207
-660.959	-124.803	-0.300	0.046
-659.945	-200.000	-0.066	-0.323
-658.930	-96.766	-0.181	0.048
-657.916	39.136	-0.338	-0.303
-656.901	62.483	-0.190	-0.191
-655.886	-200.000	0.036	-0.184
-654.872	2.373	-0.416	-0.302
-653.857	-48.632	0.417	-0.201
-652.843	-73.965	-0.120	0.044
-651.828	78.286	-0.088	-0.094
-650.814	-40.300	-0.115	-0.060
-649.799	-57.323	-0.148	0.065
-648.784	268.345	-0.065	0.114
-647.770	800.000	-0.098	-0.371
-646.755	239.027	0.102	-0.170
-645.741	800.000	-0.052	-0.155
-644.726	-200.000	-0.020	0.237
-643.711	800.000	0.054	0.151
-642.697	213.937	0.047	0.075
-641.682	-200.000	-0.011	0.246
-640.668	-200.000	0.043	-0.229
-639.653	-200.000	0.004	-0.035
-638.638	-36.893	-0.086	-0.046
-637.624	-200.000	-0.063	-0.572
-636.609	27.508	0.137	-0.116
-635.595	160.345	-0.151	-0.212
-634.580	366.180	-0.044	0.089
-633.565	-109.712	-0.301	0.063
-632.551	321.896	0.063	0.120
-631.536	-200.000	0.019	-0.515
-630.522	795.152	0.022	-0.062
-629.507	-10.691	-0.281	-0.187
-628.492	-38.308	0.282	-0.150
-627.478	-138.318	-0.093	0.010
-626.463	245.964	-0.173	0.293
-625.449	83.797	0.125	-0.136
-624.434	-189.693	-0.370	-0.004
-623.419	-200.000	0.016	-0.322
-622.405	-143.924	0.271	0.026
-621.390	-70.183	-0.256	-0.098
-620.376	76.713	0.206	0.219
-619.361	36.381	-0.229	0.203
-618.346	129.443	-0.100	0.128
-617.332	-10.929	-0.119	-0.079
-616.317	70.040	0.378	0.391
-615.303	-15.105	0.101	0.065
-614.288	12.582	-0.032	0.025
-613.273	-99.561	0.156	-0.039
-612.259	-200.000	0.003	-0.310
-611.244	15.631	-0.301	-0.237
-610.230	204.967	0.163	0.253
-609.215	173.137	-0.063	-0.091
-608.201	363.985	0.130	-0.263
-607.186	15.239	-0.015	-0.012
-606.171	343.083	-0.090	-0.176
-605.157	-64.039	0.178	0.073
-604.142	-167.649	-0.221	0.009
-603.128	-200.000	-0.034	0.189
-602.113	-200.000	-0.051	-0.393
-601.098	-38.986	-0.128	-0.067
-600.084	6.287	-0.237	-0.176
-599.069	-42.225	-0.183	0.093
-598.055	8.997	-0.264	0.200
-597.040	800.000	-0.163	-0.453
-596.025	800.000	-0.059	0.198
-595.011	800.000	-0.066	0.288
-593.996	-61.892	0.179	0.075
-592.982	800.000	-0.053	0.224
-591.967	-32.289	0.182	-0.102
-590.952	665.188	-0.062	0.160
-589.938	41.189	0.106	0.096
-588.923	-30.601	0.107	0.060
-587.909	265.724	-0.085	0.149
-586.894	-182.367	0.332	0.006
-585.879	-21.797	-0.289	0.176
-584.865	-98.951	0.170	-0.043
-583.850	-133.667	-0.271	-0.034
-582.836	-110.175	-0.280	-0.058
-581.821	88.142	-0.200	0.223
-580.806	85.039	-0.087	0.096
-579.792	-35.032	0.138	-0.075
-578.777	-69.849	0.269	0.103
-577.763	-200.000	0.050	-0.234
-576.748	-87.754	0.150	-0.045
-575.733	107.492	-0.097	0.116
-574.719	800.000	-0.047	-0.158
-573.704	33.840	0.176	0.153
-572.690	86.498	-0.165	-0.182
-571.675	-6.775	-0.243	0.166
-570.661	-71.708	-0.178	-0.066
-569.646	64.398	-0.104	-0.104
-568.631	635.726	-0.104	-0.263
-567.617	195.501	-0.119	-0.181
-566.602	-121.052	0.332	0.056
-565.588	635.411	0.076	-0.192
-564.573	800.000	-0.135	-0.433
-563.558	-2.412	-0.141	-0.099
-562.544	-200.000	-0.013	-0.258
-561.529	-133.620	0.456	0.057
-560.515	-200.000	-0.014	0.110
-559.500	-200.000	-0.030	0.160
-558.485	-113.046	0.227	0.045
-557.471	233.631	-0.179	0.294
-556.456	-90.693	0.238	0.069
-555.442	-42.035	-0.027	0.014
-554.427	22.724	-0.471	0.386
-553.412	-200.000	-0.008	-0.075
-552.398	-200.000	-0.044	0.486
-551.383	57.324	0.056	0.055
-550.369	-27.630	-0.363	0.211
-549.354	55.365	0.270	0.261
-548.339	800.000	-0.108	0.409
-547.325	-200.000	0.021	0.133
-546.310	-90.185	0.196	-0.057
-545.296	-1.381	-0.202	-0.142
-544.281	800.000	-0.003	0.010
-543.266	-200.000	0.011	-0.155
-542.252	181.557	-0.165	-0.242
-541.237	152.399	0.077	-0.105
-540.223	-83.547	-0.100	-0.032
-539.208	-8.627	0.384	0.257
-538.193	-200.000	0.014	-0.205
-537.179	375.250	0.071	0.144
-536.164	-14.503	-0.187	0.120
-535.150	-180.961	-0.381	-0.008
-534.135	70.344	0.249	0.257
-533.121	367.581	0.048	-0.097
-532.106	-32.880	-0.230	-0.128
-531.091	196.690	-0.093	0.141
-530.077	-72.107	-0.107	-0.040
-529.062	25.339	0.380	-0.316
-528.048	-200.000	0.004	-0.193
-527.033	-29.108	-0.442	-0.253
-526.018	800.000	0.039	-0.126
-525.004	49.803	-0.061	0.057
-523.989	-147.484	0.085	0.007
-522.975	51.225	-0.076	0.072
-521.960	-5.372	0.138	-0.095
-520.945	-22.055	-0.035	0.021
-519.931	-115.965	0.365	0.068
-518.916	488.444	0.049	0.111
-517.902	322.984	-0.236	-0.449
-516.887	123.173	-0.208	0.260
-515.872	800.000	-0.097	-0.363
-514.858	-56.438	-0.443	-0.196
-513.843	345.049	-0.103	0.202
-512.829	1.682	-0.170	0.122
-511.814	291.579	-0.178	0.324
-510.799	-200.000	-0.026	0.315
-509.785	55.998	0.132	0.128
-508.770	-37.212	0.136	-0.073
-507.756	289.039	0.090	0.163
-506.741	800.000	-0.165	0.497
-505.726	-200.000	0.043	0.230
-504.712	124.983	-0.175	-0.219
-503.697	164.515	-0.038	0.053
-502.683	-116.942	-0.163	0.030
-501.668	489.150	0.063	0.144
-500.653	-59.621	-0.058	0.025
-499.639	-110.692	-0.206	0.043
-498.624	800.000	-0.030	0.116
-497.610	-4.312	0.197	0.136
-496.595	75.508	0.169	-0.178
-495.581	130.293	0.134	0.171
-494.566	-200.000	0.003	-0.051
-493.551	-16.908	-0.166	0.105
-492.537	140.810	0.146	-0.192
-491.522	800.000	-0.074	0.258
-490.508	-2.910	-0.259	0.181
-489.493	-39.899	0.139	-0.072
-488.478	208.894	-0.141	-0.220
-487.464	149.307	-0.072	-0.097
-486.449	-6.021	-0.288	-0.197
-485.435	-200.000	0.313	-0.000
-484.420	-33.935	-0.226	0.124
-483.405	800.000	-0.035	0.110
-482.391	-42.579	-0.313	0.159
-481.376	-122.810	0.152	0.024
-480.362	-136.344	-0.088	-0.010
-479.347	-76.161	0.299	-0.105
-478.332	-196.543	-0.236	-0.002
-477.318	75.588	-0.074	0.078
-476.303	-158.656	0.162	-0.009
-475.289	-43.925	-0.117	-0.059
-474.274	-200.000	-0.064	0.324
-473.259	362.495	0.004	0.008
-472.245	106.938	-0.087	-0.103
-471.230	-51.159	0.035	0.017
-470.216	800.000	0.072	0.208
-469.201	130.402	0.241	0.308
-468.186	-200.000	0.046	-0.230
-467.172	-200.000	0.009	0.171
-466.157	35.507	-0.049	0.042
-465.143	-120.469	-0.054	0.009
-464.128	666.508	0.114	-0.294
-463.113	-21.468	0.103	-0.063
-462.099	535.304	-0.060	0.142
-461.084	107.688	-0.008	-0.010
-460.070	391.557	0.101	-0.209
-459.055	18.417	-0.173	0.138
-458.040	800.000	0.030	-0.092
-457.026	-200.000	0.001	-0.035
-456.011	-200.000	-0.088	-0.417
-454.997	83.954	-0.053	0.058
-453.982	-200.000	-0.000	0.024
-452.968	112.041	0.083	-0.100
-451.953	-53.733	-0.163	0.074
-450.938	-200.000	0.017	0.157
-449.924	800.000	0.095	0.282
-448.909	-200.000	0.084	0.549
-447.895	-108.436	0.138	0.030
-446.880	800.000	0.064	-0.253
-445.865	60.476	0.248	0.244
-444.851	-81.590	0.199	0.065
-443.836	702.073	-0.087	-0.229
-442.822	-148.961	0.299	-0.024
-441.807	-64.437	-0.153	-0.062
-440.792	-36.644	-0.067	0.036
-439.778	-200.000	-0.015	-0.307
-438.763	321.318	-0.160	0.302
-437.749	-141.119	-0.083	-0.008
-436.734	-200.000	-0.041	-0.350
-435.719	-64.640	0.130	0.052
-434.705	380.203	0.157	-0.321
-433.690	-24.794	-0.122	0.072
-432.676	-200.000	-0.023	0.370
-431.661	-78.795	0.188	-0.064
-430.646	163.001	-0.033	-0.046
-429.632	461.758	-0.052	-0.116
-428.617	188.109	-0.193	-0.287
-427.603	-8.186	-0.097	-0.065
-426.588	-148.795	0.365	0.029
-425.573	6.475	0.260	-0.192
-424.559	-89.555	-0.127	0.037
-423.544	-85.612	-0.140	-0.043
-422.530	-200.000	0.016	-0.255
-421.515	210.789	-0.063	-0.098
-420.500	90.276	-0.099	0.111
-419.486	-200.000	0.015	-0.107
-418.471	-12.954	-0.103	-0.067
-417.457	262.996	0.143	0.247
-416.442	85.137	-0.361	0.394
-415.428	-121.117	0.127	-0.021
-414.413	-112.365	0.151	0.030
-413.398	115.715	0.119	0.144
-412.384	-100.324	-0.469	0.116
-411.369	-91.033	0.174	-0.050
-410.355	-116.465	-0.132	-0.024
-409.340	-200.000	0.004	-0.293
-408.325	-51.611	-0.170	0.079
-407.311	577.121	0.097	0.235
-406.296	-200.000	-0.008	0.036
-405.282	44.141	-0.060	-0.055
-404.267	-144.751	-0.100	0.009
-403.252	674.650	-0.138	-0.355
-402.238	551.307	0.134	-0.319
-401.223	-30.038	0.282	-0.159
-400.209	-16.894	0.200	-0.125
-399.194	131.676	-0.137	-0.175
-398.179	800.000	-0.049	0.211
-397.165	-41.374	0.113	-0.058
-396.150	-58.891	-0.153	0.066
-395.136	-200.000	0.040	-0.324
-394.121	-106.712	0.233	-0.051
-393.106	116.822	-0.157	-0.192
-392.092	100.616	0.224	-0.258
-391.077	-116.062	0.198	-0.037
-390.063	-73.509	-0.216	0.078
-389.048	7.796	-0.351	0.261
-388.033	36.379	-0.108	-0.095
-387.019	33.995	-0.091	-0.079
-386.004	365.358	0.050	-0.100
-384.990	314.102	-0.098	-0.182
-383.975	-103.159	0.298	-0.070
-382.960	181.408	0.301	0.439
-381.946	155.899	-0.067	-0.092
-380.931	277.024	0.059	0.105
-379.917	-200.000	-0.053	-0.387
-378.902	95.212	-0.116	0.131
-377.888	-92.008	0.254	0.071
-376.873	-148.675	-0.169	-0.014
-375.858	117.990	0.134	-0.164
-374.844	442.123	0.127	-0.277
-373.829	-137.588	-0.233	-0.026
-372.815	-155.622	-0.162	-0.010
-371.800	-158.136	-0.397	-0.023
-370.785	-42.299	0.426	-0.216
-369.771	800.000	0.060	-0.219
-368.756	-62.311	-0.278	-0.115
-367.742	534.652	-0.101	0.237
-366.727	800.000	-0.083	0.330
-365.712	-100.351	0.074	0.018
-364.698	-103.165	-0.193	-0.045
-363.683	-88.810	0.175	0.052
-362.669	11.393	-0.100	0.076
-361.654	366.590	0.125	-0.250
-360.639	-200.000	0.063	-0.301
-359.625	-12.193	-0.073	0.048
-358.610	141.606	-0.184	0.242
-357.596	-57.263	0.197	-0.086
-356.581	-23.066	-0.130	-0.078
-355.566	800.000	0.057	-0.227
-354.552	11.044	0.190	0.144
-353.537	-4.092	-0.181	0.124
-352.523	642.126	0.108	0.272
-351.508	6.234	-0.154	-0.113
-350.493	34.886	0.148	0.129
-349.479	467.225	-0.049	-0.110
-348.464	-54.475	0.238	0.107
-347.450	-200.000	0.030	0.188
-346.435	800.000	0.124	-0.350
-345.420	-121.477	0.268	0.044
-344.406	547.428	-0.029	0.068
-343.391	-49.280	0.256	0.121
-342.377	-146.396	-0.220	-0.019
-341.362	-200.000	-0.010	0.187
-340.348	-200.000	0.005	0.183
-339.333	702.541	-0.048	0.126
-338.318	106.917	-0.171	-0.202
-337.304	800.000	0.089	-0.383
-336.289	79.476	0.237	0.252
-335.275	70.939	-0.235	0.242
-334.260	-200.000	-0.013	0.163
-333.245	278.661	-0.083	0.146
-332.231	448.728	0.066	-0.144
-331.216	-37.971	-0.151	0.079
-330.202	632.979	0.047	0.118
-329.187	378.456	0.077	0.155
-328.172	217.144	0.186	0.293
-327.158	-71.198	-0.042	0.016
-326.143	-174.670	-0.244	0.007
-325.129	168.319	-0.089	-0.126
-324.114	-200.000	0.031	0.196
-323.099	-96.764	-0.354	0.092
-322.085	24.061	0.139	-0.113
-321.070	205.915	0.119	-0.184
-320.056	397.363	-0.206	-0.427
-319.041	102.279	0.189	-0.218
-318.026	30.941	0.179	-0.152
-317.012	57.320	0.126	0.122
-315.997	78.101	0.081	0.085
-314.983	49.076	0.092	0.086
-313.968	7.802	-0.034	-0.025
-312.953	539.073	0.083	-0.195
-311.939	-104.560	0.238	0.054
-310.924	-5.173	-0.197	0.134
-309.910	-200.000	-0.025	0.170
-308.895	-34.759	0.056	0.030
-307.880	-116.254	0.335	0.061
-306.866	-78.238	0.225	0.076
-305.851	-127.889	0.144	-0.021
-304.837	30.835	-0.243	-0.206
-303.822	-9.331	0.235	-0.155
-302.807	183.836	0.079	0.116
-301.793	441.303	-0.115	-0.249
-300.778	-200.000	0.002	0.041
-299.764	-200.000	0.004	0.154
-298.749	-84.493	-0.175	-0.055
-297.735	-151.724	0.227	0.017
-296.720	107.274	-0.172	0.202
-295.705	-126.681	-0.167	-0.024
-294.691	122.176	0.038	-0.047
-293.676	-200.000	-0.045	0.208
-292.662	180.116	0.041	-0.059
-291.647	7.240	-0.246	0.182
-290.632	148.657	-0.153	-0.204
-289.618	-4.633	-0.207	0.142
-288.603	-200.000	0.017	-0.122
-287.589	-17.758	0.192	-0.119
-286.574	122.609	0.087	-0.108
-285.559	-200.000	0.011	-0.197
-284.545	-200.000	-0.018	0.110
-283.530	115.100	0.133	0.161
-282.516	-85.614	-0.034	0.010
-281.501	-69.943	-0.059	-0.022
-280.486	325.208	0.047	-0.090
-279.472	-53.112	0.273	-0.124
-278.457	-200.000	0.040	0.324
-277.443	-48.912	-0.040	-0.019
-276.428	-49.052	-0.139	-0.066
-275.413	-26.052	-0.141	-0.082
-274.399	127.633	0.014	0.017
-273.384	0.436	-0.151	-0.107
-272.370	-200.000	-0.085	0.465
-271.355	-200.000	-0.012	0.189
-270.340	180.529	0.061	-0.088
-269.326	146.556	0.244	0.324
-268.311	24.862	-0.298	-0.244
-267.297	36.023	0.173	0.150
-266.282	-200.000	0.005	-0.152
-265.267	-130.761	-0.079	-0.010
-264.253	-76.218	-0.194	-0.067
-263.238	176.989	-0.070	0.101
-262.224	-8.458	0.263	0.174
-261.209	800.000	0.048	-0.202
-260.195	356.255	0.223	-0.439
-259.180	143.597	0.032	-0.043
-258.165	124.978	0.128	0.159
-257.151	-200.000	-0.002	0.126
-256.136	-200.000	0.008	0.339
-255.122	98.328	-0.117	-0.134
-254.107	-5.570	-0.431	0.292
-253.092	-200.000	-0.028	0.130
-252.078	-75.541	0.101	-0.036
-251.063	138.729	0.161	-0.209
-250.049	224.565	-0.225	-0.360
-249.034	-116.165	0.270	0.050
-248.019	84.091	0.246	0.265
-247.005	-132.280	0.227	-0.029
-245.990	800.000	-0.087	-0.246
-244.976	-200.000	0.028	0.310
-243.961	-200.000	-0.002	-0.013
-242.946	39.093	0.066	-0.058
-241.932	215.018	-0.012	-0.018
-240.917	-200.000	0.014	0.106
-239.903	-186.119	0.272	0.004
-238.888	-0.066	-0.157	0.110
-237.873	-130.039	0.186	0.025
-236.859	800.000	0.114	-0.316
-235.844	800.000	-0.047	0.160
-234.830	126.121	0.151	0.189
-233.815	-61.220	0.194	0.081
-232.800	-200.000	-0.033	0.223
-231.786	193.986	0.107	0.159
-230.771	206.667	-0.173	0.266
-229.757	203.586	-0.219	0.335
-228.742	362.895	-0.100	-0.198
-227.727	86.856	0.101	0.110
-226.713	78.571	0.127	0.134
-225.698	433.591	-0.082	-0.176
-224.684	27.828	-0.053	-0.044
-223.669	-33.060	-0.078	0.043
-222.655	800.000	-0.051	0.189
-221.640	175.791	0.105	0.151
-220.625	-132.622	-0.289	-0.037
-219.611	188.617	-0.168	-0.249
-218.596	39.917	0.253	-0.224
-217.582	-200.000	0.030	0.198
-216.567	-170.673	0.225	-0.008
-215.552	220.841	-0.103	0.163
-214.538	-47.514	0.268	0.128
-213.523	112.452	0.112	0.133
-212.509	-7.716	-0.164	0.109
-211.494	44.762	0.308	-0.279
-210.479	-144.001	0.168	-0.016
-209.465	-66.919	0.086	0.033
-208.450	-149.987	-0.313	0.024
-207.436	168.894	0.151	0.213
-206.421	-200.000	-0.006	-0.108
-205.406	-200.000	0.110	-0.488
-204.392	-94.665	0.304	-0.081
-203.377	-200.000	0.036	0.299
-202.363	-77.029	-0.381	0.131
-201.348	-200.000	0.013	0.220
-200.333	-200.000	0.017	0.076
-199.319	-86.242	0.210	-0.064
-198.304	-63.677	-0.111	0.045
-197.290	334.562	-0.101	0.193
-196.275	-38.967	0.097	-0.050
-195.260	28.369	-0.192	-0.160
-194.246	-154.122	0.193	-0.013
-193.231	31.681	0.376	0.319
-192.217	-41.060	0.031	-0.016
-191.202	-0.562	0.317	0.221
-190.187	800.000	0.064	-0.201
-189.173	-132.896	-0.306	0.038
-188.158	-133.510	0.366	-0.045
-187.144	71.972	0.070	-0.071
-186.129	-200.000	-0.029	-0.486
-185.114	142.990	0.226	-0.296
-184.100	-95.628	0.096	0.025
-183.085	-95.332	0.140	-0.037
-182.071	64.727	-0.146	0.145
-181.056	-145.125	0.037	-0.003
-180.042	40.761	-0.015	0.013
-179.027	-152.884	-0.304	-0.021
-178.012	201.715	-0.088	-0.133
-176.998	-68.108	0.321	0.123
-175.983	-68.510	0.194	0.074
-174.969	0.774	-0.036	-0.025
-173.954	77.690	-0.062	-0.065
-172.939	61.834	0.142	0.139
-171.925	-47.844	-0.112	0.053
-170.910	-62.724	0.493	0.201
-169.896	189.754	-0.244	-0.360
-168.881	-200.000	0.046	-0.203
-167.866	-47.728	0.122	-0.058
-166.852	800.000	0.046	-0.138
-165.837	107.371	0.237	0.277
-164.823	631.992	0.124	-0.309
-163.808	-98.121	-0.192	0.049
-162.793	-200.000	-0.018	-0.178
-161.779	-200.000	-0.003	-0.340
-160.764	-200.000	0.008	-0.047
-159.750	-94.695	0.091	0.024
-158.735	297.579	0.103	0.187
-157.720	-169.463	-0.366	-0.013
-156.706	800.000	-0.051	-0.207
-155.691	24.613	0.355	-0.289
-154.677	-10.988	-0.199	-0.129
-153.662	-200.000	-0.020	-0.138
-152.647	-200.000	0.011	0.166
-151.633	-26.889	-0.026	-0.015
-150.618	-113.027	-0.184	-0.036
-149.604	-200.000	-0.001	0.142
-148.589	-140.381	0.154	-0.016
-147.574	-111.445	-0.160	-0.032
-146.560	-200.000	-0.021	-0.119
-145.545	-117.721	-0.250	0.044
-144.531	592.475	-0.041	0.101
-143.516	-97.191	0.139	0.036
-142.502	631.425	-0.040	0.100
-141.487	651.572	-0.117	-0.294
-140.472	70.400	-0.092	-0.094
-139.458	198.497	0.092	0.139
-138.443	-58.303	0.208	0.089
-137.429	-43.388	-0.146	0.072
-136.414	-200.000	0.058	0.270
-135.399	-3.079	-0.062	0.042
-134.385	92.108	0.298	-0.330
-133.370	143.193	0.048	-0.062
-132.356	800.000	0.031	-0.131
-131.341	78.025	0.113	-0.119
-130.326	67.355	-0.058	0.058
-129.312	-78.030	0.107	-0.036
-128.297	-200.000	0.006	0.153
-127.283	20.448	-0.283	0.225
-126.268	57.781	0.367	-0.353
-125.253	461.357	-0.085	-0.186
-124.239	-86.335	0.539	0.163
-123.224	-200.000	0.012	-0.223
-122.210	20.099	0.060	-0.047
-121.195	2.521	-0.091	0.065
