DTS Sentinel unit serial number:	SN413079Multiplexer serial number:	ORYXHardware model number:	OX4-SRSoftware version number:	ORYX F/W v4.00 Oryx Data Collector v3.7.2.0data status	okinstallation	princeton_trtdifferential loss correction	single-endedforward channel	channel 1reverse channel	N/Adate	2019/09/17time	01:30:35forward acquisition time	60.00reverse acquisition time	0.00gamma	496.2192k internal	0.2324k external	0.2324temperature offset calibration	0.9960default loss term (dB/km)	0.3790temperature slope calibration	1.0000multiplexer offset coefficient	1.0000multiplexer slope coefficient	1.0000fibre end	0.00T internal ref (°C)	29.53T ext. ref 1 (°C)	0.12T ext. ref 2 (°C)	24.41length (m)	temperature (°C)	Stokes	anti-Stokes-747.200	315.611	-0.013	0.025
-746.185	800.000	-0.148	0.476
-745.171	-95.278	0.057	-0.015
-744.156	128.675	0.176	-0.226
-743.142	412.028	-0.079	-0.168
-742.127	400.234	0.034	-0.071
-741.112	-200.000	0.103	0.536
-740.098	-97.943	-0.139	0.036
-739.083	-200.000	0.020	-0.142
-738.069	800.000	-0.050	0.163
-737.054	-46.288	-0.156	0.077
-736.039	-145.066	-0.146	0.013
-735.025	309.867	0.070	-0.131
-734.010	800.000	-0.024	0.084
-732.996	-121.959	0.048	-0.008
-731.981	-7.241	-0.165	-0.113
-730.966	-94.943	-0.099	0.027
-729.952	-200.000	0.021	-0.207
-728.937	-200.000	-0.027	0.183
-727.923	480.735	-0.031	-0.072
-726.908	137.081	-0.087	-0.114
-725.894	-49.932	-0.094	-0.045
-724.879	-200.000	-0.006	-0.088
-723.864	-98.802	0.253	-0.065
-722.850	-4.231	-0.198	0.138
-721.835	-161.224	-0.200	-0.011
-720.821	29.180	-0.360	-0.308
-719.806	-59.269	-0.119	0.052
-718.791	476.121	-0.120	-0.273
-717.777	-200.000	0.009	0.303
-716.762	-93.191	-0.244	0.068
-715.748	715.360	0.027	-0.072
-714.733	-157.019	0.055	0.003
-713.718	800.000	-0.075	-0.235
-712.704	-54.692	0.185	-0.084
-711.689	-136.041	0.202	0.024
-710.675	800.000	0.079	0.347
-709.660	-200.000	-0.053	0.371
-708.645	-12.172	-0.097	-0.064
-707.631	-200.000	0.008	0.066
-706.616	-129.294	0.237	0.033
-705.602	33.646	0.438	0.384
-704.587	-200.000	-0.002	-0.446
-703.572	-62.607	0.170	-0.071
-702.558	54.417	0.333	0.323
-701.543	135.899	0.209	0.274
-700.529	-200.000	0.037	-0.195
-699.514	54.405	-0.328	-0.319
-698.499	-149.600	-0.226	0.018
-697.485	800.000	0.068	-0.228
-696.470	354.540	-0.058	-0.117
-695.456	-111.515	0.318	0.065
-694.441	-200.000	-0.022	0.000
-693.426	139.425	0.108	-0.143
-692.412	-200.000	-0.010	-0.105
-691.397	103.749	0.039	0.046
-690.383	-200.000	-0.002	-0.062
-689.368	800.000	-0.122	-0.365
-688.354	-78.079	0.159	0.055
-687.339	63.360	-0.177	-0.179
-686.324	-63.851	-0.107	-0.044
-685.310	-145.105	-0.298	-0.027
-684.295	51.886	0.193	0.185
-683.281	800.000	0.030	0.110
-682.266	-84.252	-0.097	-0.031
-681.251	68.245	-0.324	0.334
-680.237	135.406	-0.184	-0.240
-679.222	-30.956	0.318	0.181
-678.208	-125.990	0.236	0.036
-677.193	-145.255	-0.151	-0.014
-676.178	66.439	0.191	-0.195
-675.164	-15.437	-0.346	-0.222
-674.149	800.000	-0.046	-0.170
-673.135	106.885	0.080	-0.095
-672.120	-55.430	0.217	-0.098
-671.105	-17.806	-0.048	-0.031
-670.091	800.000	0.016	0.052
-669.076	42.522	0.099	0.090
-668.062	340.548	0.040	-0.079
-667.047	372.730	-0.115	-0.236
-666.032	47.482	0.102	0.096
-665.018	800.000	-0.028	0.096
-664.003	-76.614	-0.098	0.034
-662.989	-128.800	0.091	0.013
-661.974	249.947	0.184	-0.314
-660.959	-200.000	-0.025	0.218
-659.945	-200.000	-0.014	0.327
-658.930	21.294	0.155	0.127
-657.916	-53.755	0.125	0.057
-656.901	211.599	0.104	-0.165
-655.886	-200.000	0.010	-0.325
-654.872	-132.017	0.215	-0.028
-653.857	-103.127	-0.348	-0.083
-652.843	-61.052	0.365	0.155
-651.828	48.393	0.138	-0.130
-650.814	43.794	0.134	-0.123
-649.799	144.944	-0.229	-0.308
-648.784	788.063	-0.073	-0.202
-647.770	551.656	-0.174	0.419
-646.755	800.000	-0.081	-0.235
-645.741	-7.805	0.183	0.124
-644.726	176.970	0.101	0.147
-643.711	-200.000	-0.003	0.062
-642.697	28.523	0.123	-0.105
-641.682	-65.487	-0.416	-0.168
-640.668	-116.515	-0.231	-0.043
-639.653	-200.000	0.000	-0.021
-638.638	-10.552	-0.057	0.038
-637.624	262.399	0.091	-0.158
-636.609	199.486	-0.165	-0.255
-635.595	-200.000	0.001	-0.047
-634.580	-200.000	0.074	-0.361
-633.565	-10.596	0.050	0.034
-632.551	800.000	0.061	0.172
-631.536	-112.361	-0.191	-0.038
-630.522	29.314	0.093	-0.079
-629.507	92.731	-0.099	-0.112
-628.492	67.203	0.058	-0.060
-627.478	800.000	-0.064	0.193
-626.463	-200.000	-0.036	-0.204
-625.449	-65.131	0.166	0.067
-624.434	-189.631	0.036	-0.000
-623.419	96.234	0.171	-0.197
-622.405	38.376	-0.169	0.152
-621.390	-48.263	-0.333	-0.161
-620.376	115.496	0.193	-0.237
-619.361	800.000	0.050	-0.179
-618.346	-200.000	-0.004	0.423
-617.332	737.559	0.055	0.149
-616.317	-156.800	0.184	-0.011
-615.303	274.135	-0.108	0.191
-614.288	148.076	-0.049	0.066
-613.273	-200.000	-0.009	0.086
-612.259	79.632	-0.050	0.054
-611.244	-200.000	0.042	-0.387
-610.230	-50.191	-0.340	0.161
-609.215	631.439	-0.031	0.079
-608.201	800.000	-0.067	0.220
-607.186	-52.637	0.250	0.116
-606.171	-77.029	0.105	-0.037
-605.157	154.792	0.200	-0.276
-604.142	199.235	0.075	0.115
-603.128	12.788	0.123	-0.095
-602.113	-63.948	0.326	-0.134
-601.098	139.484	-0.025	0.032
-600.084	19.320	-0.075	0.060
-599.069	-200.000	-0.014	0.303
-598.055	-34.940	-0.096	-0.053
-597.040	80.321	0.061	-0.066
-596.025	-107.708	-0.321	-0.070
-595.011	48.097	0.208	0.196
-593.996	46.546	-0.192	0.178
-592.982	709.225	-0.104	0.277
-591.967	-3.920	0.187	-0.130
-590.952	800.000	0.063	-0.273
-589.938	154.589	-0.226	-0.311
-588.923	-107.217	-0.309	-0.068
-587.909	-56.097	0.386	0.172
-586.894	-200.000	-0.009	-0.316
-585.879	-112.890	0.143	-0.028
-584.865	-40.529	0.097	-0.050
-583.850	-85.926	0.520	0.161
-582.836	-165.460	-0.274	0.012
-581.821	130.629	-0.283	0.364
-580.806	800.000	-0.028	-0.111
-579.792	-200.000	0.037	0.186
-578.777	84.911	-0.123	0.135
-577.763	800.000	-0.063	-0.224
-576.748	-200.000	0.057	-0.267
-575.733	-77.024	-0.151	0.053
-574.719	57.331	-0.109	-0.106
-573.704	80.545	-0.048	-0.052
-572.690	-200.000	-0.017	0.297
-571.675	-111.403	-0.075	0.015
-570.661	-108.695	0.335	0.072
-569.646	-45.082	-0.238	-0.119
-568.631	36.669	-0.102	0.090
-567.617	64.825	-0.088	-0.089
-566.602	407.096	0.058	0.123
-565.588	-73.783	-0.264	0.096
-564.573	-200.000	-0.008	-0.240
-563.558	-81.114	-0.275	-0.091
-562.544	10.988	-0.047	-0.036
-561.529	94.554	-0.077	-0.088
-560.515	-17.620	0.320	-0.202
-559.500	-133.403	0.401	0.051
-558.485	-43.466	-0.133	0.067
-557.471	-200.000	0.071	-0.507
-556.456	87.951	0.145	0.161
-555.442	-200.000	-0.002	0.247
-554.427	3.333	0.257	-0.187
-553.412	-111.759	-0.034	-0.007
-552.398	-50.273	-0.184	-0.087
-551.383	-36.411	0.283	0.153
-550.369	-61.427	0.157	-0.066
-549.354	-200.000	0.010	-0.274
-548.339	-200.000	-0.033	-0.309
-547.325	-3.205	-0.223	-0.156
-546.310	-61.571	-0.124	0.052
-545.296	364.775	-0.084	-0.170
-544.281	-181.457	0.138	-0.003
-543.266	-37.508	0.269	0.144
-542.252	-200.000	-0.028	-0.354
-541.237	43.573	0.221	0.202
-540.223	-14.601	-0.185	0.119
-539.208	27.456	-0.196	-0.165
-538.193	800.000	0.038	-0.139
-537.179	-200.000	-0.006	-0.128
-536.164	-1.966	-0.175	-0.123
-535.150	-152.882	0.228	-0.016
-534.135	436.308	-0.058	-0.126
-533.121	150.461	-0.082	0.111
-532.106	348.173	-0.045	-0.089
-531.091	-200.000	-0.034	-0.312
-530.077	-91.608	0.314	0.090
-529.062	-158.630	0.211	-0.012
-528.048	96.249	-0.121	0.139
-527.033	22.075	-0.393	-0.321
-526.018	-200.000	0.003	-0.123
-525.004	-12.080	-0.225	0.148
-523.989	-129.342	-0.039	0.005
-522.975	-88.587	-0.075	0.022
-521.960	379.785	-0.123	-0.253
-520.945	240.486	0.044	0.073
-519.931	-46.310	0.172	0.085
-518.916	45.136	-0.229	-0.211
-517.902	381.076	0.179	-0.368
-516.887	73.752	0.021	0.022
-515.872	145.861	-0.082	-0.110
-514.858	109.739	-0.155	-0.186
-513.843	-122.408	0.105	0.017
-512.829	-64.136	0.305	-0.124
-511.814	81.712	0.190	-0.206
-510.799	238.793	0.077	0.128
-509.785	-97.279	0.025	-0.007
-508.770	-0.114	0.193	0.137
-507.756	-200.000	-0.031	0.194
-506.741	-60.314	-0.125	-0.053
-505.726	-22.237	-0.278	0.169
-504.712	800.000	-0.084	0.260
-503.697	455.244	0.071	-0.157
-502.683	-141.311	0.133	0.014
-501.668	18.243	0.041	-0.032
-500.653	-200.000	0.003	-0.023
-499.639	-57.705	0.097	-0.042
-498.624	428.286	-0.090	0.194
-497.610	141.817	-0.188	-0.249
-496.595	106.192	0.185	-0.219
-495.581	-90.692	0.271	-0.078
-494.566	206.121	0.062	-0.096
-493.551	331.509	-0.045	-0.087
-492.537	-152.142	-0.535	0.039
-491.522	800.000	0.011	-0.035
-490.508	-148.521	0.427	-0.035
-489.493	-7.844	-0.101	-0.068
-488.478	-25.295	-0.219	-0.130
-487.464	55.934	-0.101	0.098
-486.449	-200.000	-0.061	0.417
-485.435	-52.678	0.055	0.025
-484.420	-88.504	0.016	-0.005
-483.405	-63.720	-0.355	-0.145
-482.391	-34.943	-0.169	-0.092
-481.376	92.691	0.117	-0.132
-480.362	-82.824	0.299	-0.097
-479.347	-200.000	-0.043	0.436
-478.332	342.142	-0.034	0.066
-477.318	36.235	0.333	-0.293
-476.303	-99.884	0.100	-0.025
-475.289	425.903	-0.141	-0.303
-474.274	-125.133	0.239	0.037
-473.259	-200.000	-0.255	-0.001
-472.245	573.798	0.067	-0.164
-471.230	-37.383	-0.011	-0.006
-470.216	180.269	-0.105	-0.154
-469.201	180.732	0.192	-0.281
-468.186	-5.944	-0.363	0.248
-467.172	-200.000	0.055	0.293
-466.157	800.000	0.033	-0.119
-465.143	-27.987	-0.331	-0.191
-464.128	-121.007	0.240	0.040
-463.113	-200.000	-0.027	0.243
-462.099	-111.053	0.098	-0.020
-461.084	-200.000	-0.012	-0.136
-460.070	246.121	0.095	-0.159
-459.055	-200.000	0.049	0.469
-458.040	101.538	-0.058	0.067
-457.026	177.538	-0.109	0.159
-456.011	-146.017	-0.207	-0.018
-454.997	33.547	0.305	-0.264
-453.982	-200.000	0.024	-0.190
-452.968	-177.823	-0.063	-0.002
-451.953	495.908	0.064	-0.148
-450.938	-78.269	0.265	0.091
-449.924	171.620	0.164	0.235
-448.909	-102.974	0.086	-0.020
-447.895	23.581	0.089	0.073
-446.880	-200.000	-0.006	0.064
-445.865	-132.766	-0.100	0.013
-444.851	-200.000	0.011	0.165
-443.836	800.000	0.080	-0.305
-442.822	302.761	-0.214	0.394
-441.807	-145.560	0.205	0.018
-440.792	9.983	-0.032	0.024
-439.778	-200.000	-0.081	0.371
-438.763	-14.394	-0.175	-0.113
-437.749	-177.162	0.055	0.001
-436.734	-200.000	-0.025	0.170
-435.719	-200.000	-0.005	-0.080
-434.705	-140.285	-0.210	-0.022
-433.690	609.453	0.143	0.356
-432.676	-37.694	0.076	-0.041
-431.661	770.105	-0.073	-0.198
-430.646	56.663	0.152	-0.147
-429.632	-115.288	-0.460	-0.087
-428.617	25.160	0.219	-0.182
-427.603	142.642	-0.077	0.102
-426.588	800.000	0.084	0.257
-425.573	800.000	-0.016	-0.052
-424.559	-200.000	0.020	-0.210
-423.544	800.000	-0.053	-0.218
-422.530	250.811	0.210	0.355
-421.515	89.046	0.112	0.125
-420.500	85.397	-0.202	-0.221
-419.486	157.475	0.044	-0.060
-418.471	163.482	-0.167	0.234
-417.457	-56.033	0.145	0.064
-416.442	238.291	-0.167	0.276
-415.428	-107.394	0.057	-0.012
-414.413	-116.561	-0.180	0.033
-413.398	-11.436	-0.225	-0.148
-412.384	-42.833	-0.403	0.204
-411.369	214.496	0.078	0.123
-410.355	-15.333	-0.262	-0.167
-409.340	250.139	0.201	0.340
-408.325	-70.962	0.058	0.022
-407.311	-200.000	0.010	0.168
-406.296	48.058	0.101	0.094
-405.282	171.086	0.201	-0.287
-404.267	-200.000	-0.029	0.323
-403.252	-7.933	-0.221	-0.149
-402.238	98.611	0.318	-0.366
-401.223	269.561	0.186	-0.324
-400.209	-107.579	-0.417	0.091
-399.194	464.673	-0.108	0.239
-398.179	10.186	0.121	-0.091
-397.165	343.775	0.126	-0.245
-396.150	225.207	-0.055	-0.088
-395.136	-5.475	-0.212	0.145
-394.121	349.716	0.108	0.212
-393.106	-189.447	-0.130	0.002
-392.092	162.537	-0.297	0.415
-391.077	-45.621	-0.096	0.047
-390.063	-0.388	-0.168	0.119
-389.048	-108.775	0.328	0.070
-388.033	800.000	0.036	0.103
-387.019	61.578	-0.119	0.118
-386.004	-167.670	0.290	-0.011
-384.990	15.269	0.038	0.030
-383.975	103.009	-0.046	0.053
-382.960	498.617	0.032	0.074
-381.946	-200.000	-0.042	-0.213
-380.931	235.727	-0.107	0.176
-379.917	-29.625	0.084	-0.048
-378.902	-41.146	-0.074	0.038
-377.888	-200.000	0.047	0.226
-376.873	15.624	0.186	-0.145
-375.858	761.998	-0.057	-0.154
-374.844	-200.000	-0.001	-0.025
-373.829	-152.291	0.455	-0.033
-372.815	-200.000	0.037	-0.279
-371.800	722.840	-0.116	-0.306
-370.785	-200.000	0.040	-0.202
-369.771	544.754	0.047	-0.112
-368.756	118.054	-0.073	0.090
-367.742	265.446	0.037	0.065
-366.727	774.261	-0.102	-0.277
-365.712	-77.691	0.129	-0.044
-364.698	-93.679	-0.306	0.084
-363.683	140.086	-0.169	-0.222
-362.669	47.185	0.092	0.085
-361.654	-200.000	-0.018	-0.110
-360.639	-200.000	-0.005	0.071
-359.625	220.830	0.075	0.120
-358.610	-163.689	-0.329	-0.015
-357.596	-22.396	-0.113	0.068
-356.581	800.000	-0.046	-0.146
-355.566	-200.000	-0.026	0.202
-354.552	44.142	0.187	-0.171
-353.537	-93.412	-0.124	-0.034
-352.523	-9.660	-0.333	0.221
-351.508	-129.439	0.250	0.034
-350.493	-137.588	0.240	-0.027
-349.479	-200.000	0.056	-0.342
-348.464	-160.973	-0.099	-0.005
-347.450	56.593	-0.177	-0.171
-346.435	-168.299	0.170	-0.007
-345.420	-47.589	0.336	-0.162
-344.406	-200.000	0.005	-0.125
-343.391	800.000	-0.037	-0.134
-342.377	41.809	-0.064	-0.058
-341.362	800.000	0.061	-0.198
-340.348	800.000	0.103	0.296
-339.333	-200.000	0.060	0.323
-338.318	-200.000	-0.009	0.246
-337.304	-172.593	-0.032	0.001
-336.289	12.303	-0.302	0.231
-335.275	-200.000	0.005	-0.191
-334.260	131.629	0.067	0.086
-333.245	223.351	0.169	0.271
-332.231	-200.000	0.036	0.280
-331.216	63.640	0.087	0.087
-330.202	-200.000	-0.000	-0.159
-329.187	-77.961	0.174	0.060
-328.172	97.300	-0.004	0.004
-327.158	246.516	0.028	-0.047
-326.143	-200.000	0.001	-0.369
-325.129	-200.000	-0.024	-0.206
-324.114	799.219	-0.094	0.258
-323.099	6.668	0.054	-0.040
-322.085	-77.936	0.230	-0.079
-321.070	188.340	0.107	0.159
-320.056	-80.020	-0.102	-0.034
-319.041	73.026	0.121	0.125
-318.026	570.747	0.056	-0.135
-317.012	800.000	-0.074	-0.287
-315.997	-109.370	0.492	-0.103
-314.983	-19.154	-0.115	-0.071
-313.968	-153.571	0.323	0.022
-312.953	-80.726	-0.061	0.020
-311.939	268.983	0.131	-0.227
-310.924	-198.876	0.305	-0.002
-309.910	800.000	0.097	0.303
-308.895	-139.216	-0.157	0.017
-307.880	232.275	0.081	0.131
-306.866	800.000	0.055	0.233
-305.851	800.000	-0.074	-0.222
-304.837	363.513	0.117	-0.234
-303.822	-15.194	0.073	0.047
-302.807	-22.220	-0.178	0.107
-301.793	253.638	0.202	-0.343
-300.778	-64.491	-0.280	0.113
-299.764	-89.337	0.065	0.019
-298.749	720.999	0.063	-0.166
-297.735	-42.007	0.096	0.049
-296.720	-86.603	0.245	0.074
-295.705	-168.287	-0.201	-0.008
-294.691	-200.000	-0.012	-0.126
-293.676	253.161	0.079	-0.134
-292.662	421.935	-0.244	0.519
-291.647	24.822	0.301	0.247
-290.632	89.251	-0.079	-0.087
-289.618	-200.000	0.036	-0.246
-288.603	103.246	0.101	-0.118
-287.589	800.000	0.039	0.164
-286.574	40.078	0.188	0.167
-285.559	800.000	-0.088	0.276
-284.545	122.314	-0.281	0.349
-283.530	-200.000	-0.012	-0.200
-282.516	-37.109	0.247	0.131
-281.501	-200.000	0.065	-0.307
-280.486	-150.568	-0.157	-0.012
-279.472	89.557	-0.237	-0.262
-278.457	-155.965	0.168	-0.011
-277.443	292.076	-0.141	0.254
-276.428	32.925	-0.064	-0.055
-275.413	37.367	0.156	0.137
-274.399	-88.776	0.220	-0.065
-273.384	-31.354	-0.114	-0.064
-272.370	-2.683	0.221	-0.153
-271.355	116.044	-0.239	0.290
-270.340	694.889	-0.021	0.055
-269.326	6.703	0.112	0.083
-268.311	-121.914	-0.202	-0.033
-267.297	-200.000	0.028	-0.304
-266.282	545.347	0.123	-0.290
-265.267	-25.669	-0.066	0.039
-264.253	-200.000	-0.037	0.174
-263.238	-200.000	-0.012	0.181
-262.224	-39.595	-0.171	-0.089
-261.209	-200.000	-0.000	0.104
-260.195	367.352	-0.106	-0.211
-259.180	800.000	0.048	-0.134
-258.165	43.944	0.192	0.174
-257.151	578.994	-0.157	-0.380
-256.136	-31.809	0.086	0.048
-255.122	800.000	-0.034	-0.146
-254.107	443.740	0.055	-0.119
-253.092	438.959	-0.117	0.254
-252.078	800.000	-0.029	0.105
-251.063	-33.953	-0.202	0.110
-250.049	-12.441	0.105	-0.068
-249.034	47.388	0.282	0.260
-248.019	133.415	0.093	0.119
-247.005	-200.000	0.002	0.115
-245.990	-144.260	-0.457	0.042
-244.976	800.000	-0.113	0.394
-243.961	-129.646	-0.057	0.008
-242.946	-94.823	0.422	0.113
-241.932	-200.000	-0.048	0.313
-240.917	-200.000	-0.035	0.193
-239.903	582.589	-0.044	0.107
-238.888	470.744	0.091	-0.203
-237.873	-42.051	0.080	-0.040
-236.859	-200.000	-0.035	-0.278
-235.844	800.000	0.029	-0.101
-234.830	334.814	0.210	-0.402
-233.815	-200.000	0.017	-0.224
-232.800	12.673	-0.131	0.100
-231.786	-53.072	0.183	0.083
-230.771	398.307	-0.037	0.077
-229.757	-128.161	0.032	-0.004
-228.742	400.427	-0.111	-0.231
-227.727	800.000	0.023	0.090
-226.713	63.587	0.155	-0.154
-225.698	-74.433	-0.263	0.094
-224.684	-200.000	-0.047	0.481
-223.669	45.973	0.065	-0.060
-222.655	-91.300	-0.152	0.043
-221.640	-29.261	-0.059	0.034
-220.625	129.505	0.086	-0.109
-219.611	-137.202	-0.173	0.019
-218.596	800.000	-0.060	-0.176
-217.582	-87.548	0.427	0.128
-216.567	135.093	0.069	-0.088
-215.552	-116.245	-0.415	0.076
-214.538	-122.904	-0.229	0.037
-213.523	-35.193	0.300	-0.162
-212.509	195.369	-0.040	-0.060
-211.494	-61.709	-0.200	0.083
-210.479	800.000	0.007	-0.027
-209.465	800.000	0.048	0.199
-208.450	-40.775	0.543	0.278
-207.436	37.995	0.013	-0.011
-206.421	-191.933	-0.142	0.001
-205.406	-17.427	0.369	0.229
-204.392	451.405	0.202	0.442
-203.377	800.000	0.060	0.251
-202.363	-200.000	-0.011	0.082
-201.348	266.982	0.057	-0.099
-200.333	-32.807	0.186	0.102
-199.319	-129.425	-0.215	-0.029
-198.304	373.992	0.119	0.239
-197.290	-50.885	-0.261	-0.121
-196.275	-79.672	0.329	0.110
-195.260	-200.000	-0.040	-0.268
-194.246	100.129	-0.078	-0.089
-193.231	-87.748	-0.061	-0.018
-192.217	320.663	-0.195	0.365
-191.202	-200.000	0.040	0.417
-190.187	107.130	0.093	-0.109
-189.173	-200.000	0.043	0.256
-188.158	28.073	0.133	-0.111
-187.144	36.774	0.186	-0.162
-186.129	36.268	0.259	-0.226
-185.114	12.446	-0.328	-0.250
-184.100	685.968	-0.034	-0.088
-183.085	206.393	-0.121	0.186
-182.071	752.276	0.056	0.149
-181.056	278.523	0.084	0.147
-180.042	-118.077	-0.046	0.008
-179.027	-200.000	0.065	0.357
-178.012	800.000	0.030	-0.090
-176.998	123.709	0.172	-0.213
-175.983	-200.000	-0.001	0.116
-174.969	179.034	0.059	0.085
-173.954	621.405	-0.141	0.351
-172.939	579.852	0.077	0.186
-171.925	533.236	-0.056	0.131
-170.910	-6.814	-0.300	0.202
-169.896	-82.558	-0.449	-0.144
-168.881	-23.905	-0.183	0.108
-167.866	-200.000	0.023	0.189
-166.852	-170.284	0.215	-0.007
-165.837	160.700	-0.104	0.143
-164.823	-200.000	-0.048	-0.264
-163.808	336.369	-0.045	0.086
-162.793	31.330	-0.115	-0.098
-161.779	24.330	-0.379	-0.309
-160.764	-137.238	0.217	0.024
-159.750	-43.718	0.125	0.062
-158.735	800.000	-0.041	-0.126
-157.720	83.122	-0.287	0.308
-156.706	-200.000	0.056	0.545
-155.691	-88.309	-0.216	0.064
-154.677	-79.408	0.137	0.046
-153.662	733.180	-0.101	-0.266
-152.647	198.932	-0.137	-0.206
-151.633	-39.199	-0.126	-0.065
-150.618	-200.000	0.024	-0.133
-149.604	269.200	-0.065	-0.113
-148.589	-122.813	0.088	-0.014
-147.574	-101.758	0.169	0.040
-146.560	-200.000	0.021	0.275
-145.545	444.676	0.118	-0.255
-144.531	305.237	-0.083	-0.152
-143.516	-200.000	0.028	0.122
-142.502	-200.000	0.053	0.326
-141.487	50.790	0.243	-0.227
-140.472	-200.000	-0.003	0.406
-139.458	138.722	0.221	0.286
-138.443	482.799	-0.047	0.106
-137.429	-39.685	0.067	0.035
-136.414	193.770	0.104	-0.155
-135.399	124.110	-0.138	-0.171
-134.385	-66.845	0.144	-0.056
-133.370	-200.000	0.009	0.119
-132.356	-159.890	-0.258	0.014
-131.341	-47.167	-0.172	-0.083
-130.326	-140.608	0.019	0.002
-129.312	209.953	-0.144	0.222
-128.297	596.190	-0.051	-0.125
-127.283	-200.000	-0.042	-0.423
-126.268	-51.159	-0.194	0.090
-125.253	144.407	0.192	-0.252
-124.239	-54.760	-0.223	0.099
-123.224	-61.959	0.095	-0.039
-122.210	-200.000	0.005	0.023
