DTS Sentinel unit serial number:	SN413079Multiplexer serial number:	ORYXHardware model number:	OX4-SRSoftware version number:	ORYX F/W v4.00 Oryx Data Collector v3.7.2.0data status	okinstallation	princeton_trtdifferential loss correction	single-endedforward channel	channel 1reverse channel	N/Adate	2019/09/15time	11:42:35forward acquisition time	60.00reverse acquisition time	0.00gamma	496.2192k internal	0.2308k external	0.2308temperature offset calibration	0.9984default loss term (dB/km)	0.3790temperature slope calibration	1.0000multiplexer offset coefficient	1.0000multiplexer slope coefficient	1.0000fibre end	0.00T internal ref (°C)	34.31T ext. ref 1 (°C)	5.03T ext. ref 2 (°C)	29.80length (m)	temperature (°C)	Stokes	anti-Stokes-747.200	-200.000	-0.016	-0.177
-746.185	-22.695	0.270	0.166
-745.171	22.051	0.184	-0.152
-744.156	-200.000	-0.022	0.270
-743.142	800.000	-0.107	-0.300
-742.127	-200.000	-0.002	-0.051
-741.112	38.218	-0.181	0.164
-740.098	-200.000	0.040	0.000
-739.083	-96.594	0.137	-0.037
-738.069	10.567	0.054	-0.042
-737.054	-71.005	0.209	0.080
-736.039	6.369	-0.153	-0.115
-735.025	-24.415	0.339	0.205
-734.010	800.000	0.113	0.386
-732.996	5.519	0.212	-0.159
-731.981	-41.748	0.108	0.056
-730.966	15.451	-0.136	0.108
-729.952	-200.000	0.025	-0.173
-728.937	-115.390	0.159	-0.030
-727.923	-99.647	-0.152	-0.039
-726.908	-200.000	0.007	-0.245
-725.894	-106.984	0.514	0.115
-724.879	330.960	-0.057	-0.112
-723.864	-160.704	0.228	-0.012
-722.850	-14.547	-0.099	-0.064
-721.835	319.475	-0.104	0.200
-720.821	-200.000	0.043	0.237
-719.806	-135.035	-0.226	0.028
-718.791	406.863	-0.098	-0.210
-717.777	-20.871	-0.074	0.046
-716.762	-16.682	0.176	0.113
-715.748	-37.793	0.269	0.146
-714.733	-114.607	0.139	-0.027
-713.718	-200.000	0.017	-0.207
-712.704	-17.664	-0.128	-0.082
-711.689	-23.862	-0.152	0.092
-710.675	800.000	0.173	-0.513
-709.660	-153.027	0.321	-0.023
-708.645	-22.074	0.210	-0.129
-707.631	-79.300	0.192	-0.066
-706.616	-94.660	0.173	-0.048
-705.602	517.512	0.052	-0.124
-704.587	-118.876	-0.395	0.070
-703.572	-137.774	0.282	0.032
-702.558	280.899	-0.130	0.236
-701.543	-13.962	-0.144	-0.094
-700.529	165.983	-0.279	0.401
-699.514	-177.307	0.158	-0.004
-698.499	38.588	-0.129	-0.116
-697.485	-78.815	-0.281	0.097
-696.470	283.901	-0.130	-0.236
-695.456	-200.000	-0.036	-0.393
-694.441	23.149	-0.269	0.224
-693.426	-200.000	0.010	-0.079
-692.412	800.000	-0.062	-0.244
-691.397	-81.161	-0.164	-0.055
-690.383	20.476	-0.148	-0.121
-689.368	249.859	-0.027	0.046
-688.354	800.000	0.041	0.166
-687.339	-200.000	0.007	0.206
-686.324	10.127	0.134	-0.103
-685.310	-121.226	0.202	0.034
-684.295	442.723	0.070	0.155
-683.281	-57.676	-0.217	0.096
-682.266	132.748	0.036	0.047
-681.251	24.772	0.149	-0.125
-680.237	-200.000	-0.025	0.163
-679.222	-119.446	-0.242	0.043
-678.208	-200.000	0.047	0.258
-677.193	94.483	-0.234	-0.270
-676.178	5.633	-0.215	0.161
-675.164	29.124	0.184	-0.158
-674.149	-45.054	0.115	-0.058
-673.135	-132.735	-0.288	0.037
-672.120	-170.338	-0.133	-0.005
-671.105	-200.000	0.034	-0.273
-670.091	44.918	-0.146	0.137
-669.076	436.810	0.037	0.082
-668.062	49.670	0.272	-0.260
-667.047	124.177	0.141	-0.180
-666.032	562.207	0.033	-0.081
-665.018	-200.000	0.004	-0.095
-664.003	-40.847	0.077	0.041
-662.989	-80.140	0.141	0.048
-661.974	800.000	0.096	0.295
-660.959	-200.000	0.015	-0.164
-659.945	58.887	0.266	-0.265
-658.930	41.179	-0.110	0.101
-657.916	-38.946	0.271	0.145
-656.901	12.840	-0.246	0.192
-655.886	25.280	0.079	0.067
-654.872	-166.289	-0.380	0.016
-653.857	-104.507	-0.262	0.061
-652.843	-200.000	0.048	-0.472
-651.828	-118.982	-0.102	-0.018
-650.814	66.217	0.194	0.199
-649.799	800.000	-0.100	0.430
-648.784	-200.000	-0.010	0.322
-647.770	-121.627	-0.189	0.032
-646.755	-6.001	0.138	-0.095
-645.741	-115.660	-0.175	-0.033
-644.726	6.598	0.162	-0.122
-643.711	158.047	-0.154	-0.216
-642.697	-200.000	-0.021	-0.403
-641.682	-108.518	-0.174	-0.038
-640.668	173.530	-0.160	-0.234
-639.653	-87.928	-0.071	0.022
-638.638	93.062	-0.181	-0.207
-637.624	235.015	-0.061	0.102
-636.609	800.000	-0.060	0.265
-635.595	-66.632	0.250	-0.100
-634.580	26.876	0.181	-0.154
-633.565	-170.223	-0.248	-0.009
-632.551	-106.485	0.186	0.042
-631.536	-200.000	0.023	0.171
-630.522	-85.153	-0.266	0.084
-629.507	-74.294	-0.296	-0.108
-628.492	51.283	0.050	-0.048
-627.478	-200.000	0.065	-0.297
-626.463	-13.029	-0.086	0.057
-625.449	373.143	0.076	0.157
-624.434	-147.453	-0.090	-0.008
-623.419	-78.616	0.026	0.009
-622.405	247.483	0.090	0.153
-621.390	440.449	0.079	-0.176
-620.376	387.885	0.034	-0.072
-619.361	-200.000	-0.024	-0.482
-618.346	-200.000	-0.075	-0.358
-617.332	-104.874	-0.440	0.102
-616.317	-84.407	0.227	0.073
-615.303	95.968	0.240	-0.277
-614.288	-73.956	-0.238	0.087
-613.273	-171.445	-0.484	-0.016
-612.259	-151.926	0.112	-0.008
-611.244	116.031	0.043	0.053
-610.230	800.000	0.007	-0.023
-609.215	-82.353	-0.204	0.067
-608.201	-30.463	0.110	0.063
-607.186	-120.922	0.452	-0.077
-606.171	-54.454	-0.284	-0.130
-605.157	109.808	0.150	-0.182
-604.142	462.660	0.025	0.057
-603.128	-200.000	-0.005	-0.203
-602.113	-50.565	-0.157	-0.075
-601.098	-11.805	0.107	0.071
-600.084	-39.389	-0.169	0.090
-599.069	377.445	-0.104	0.214
-598.055	800.000	0.100	0.310
-597.040	800.000	0.042	0.157
-596.025	83.140	0.103	0.113
-595.011	-186.246	-0.153	0.002
-593.996	-5.265	0.158	0.110
-592.982	-109.950	-0.277	-0.059
-591.967	-20.176	-0.156	0.097
-590.952	258.273	-0.193	0.336
-589.938	-49.196	0.042	0.020
-588.923	-39.706	-0.134	0.071
-587.909	-36.960	-0.119	-0.064
-586.894	344.287	-0.069	-0.136
-585.879	-72.553	-0.242	0.090
-584.865	-10.199	0.159	0.107
-583.850	-1.191	0.129	-0.092
-582.836	-63.811	0.182	0.075
-581.821	208.651	-0.088	0.139
-580.806	76.229	0.045	-0.048
-579.792	30.116	-0.305	0.263
-578.777	380.002	0.132	0.273
-577.763	116.520	0.208	0.258
-576.748	477.754	-0.141	-0.323
-575.733	749.828	-0.124	-0.338
-574.719	40.172	-0.149	-0.135
-573.704	800.000	0.064	-0.256
-572.690	-120.860	-0.307	-0.052
-571.675	800.000	0.041	-0.127
-570.661	327.512	0.227	-0.439
-569.646	-66.691	-0.183	0.073
-568.631	-200.000	0.013	0.174
-567.617	39.674	0.099	0.089
-566.602	-83.510	0.224	-0.073
-565.588	72.682	0.212	0.223
-564.573	-49.630	-0.124	0.060
-563.558	-3.643	-0.062	-0.043
-562.544	-200.000	0.087	-0.388
-561.529	-22.194	0.247	0.151
-560.515	13.834	-0.479	0.376
-559.500	-31.163	0.015	0.009
-558.485	-92.286	-0.280	0.080
-557.471	-86.960	-0.210	-0.065
-556.456	344.068	0.039	0.077
-555.442	3.601	0.271	0.199
-554.427	-117.344	0.049	0.009
-553.412	-144.620	-0.305	0.028
-552.398	-60.764	-0.075	0.032
-551.383	-130.174	0.147	0.020
-550.369	-65.622	-0.238	-0.096
-549.354	800.000	0.074	-0.216
-548.339	800.000	-0.185	-0.542
-547.325	-80.412	0.234	-0.079
-546.310	-75.264	0.110	-0.040
-545.296	179.784	-0.090	-0.133
-544.281	-119.835	0.117	-0.020
-543.266	-103.816	0.226	-0.053
-542.252	-200.000	-0.042	0.255
-541.237	800.000	0.034	-0.128
-540.223	86.822	0.199	0.222
-539.208	334.712	0.095	0.186
-538.193	426.613	-0.123	0.267
-537.179	-200.000	-0.022	-0.162
-536.164	-36.976	0.022	-0.012
-535.150	620.514	0.083	0.211
-534.135	751.223	0.065	-0.178
-533.121	-200.000	0.017	0.203
-532.106	-132.495	-0.429	0.056
-531.091	-172.204	-0.272	0.009
-530.077	163.081	0.256	-0.362
-529.062	-85.031	-0.257	-0.081
-528.048	-200.000	-0.001	0.158
-527.033	-37.315	0.318	0.171
-526.018	800.000	-0.067	-0.246
-525.004	-58.289	0.311	-0.136
-523.989	-57.278	-0.090	-0.040
-522.975	800.000	0.064	-0.217
-521.960	-181.063	0.391	0.008
-520.945	-48.617	0.231	-0.112
-519.931	41.603	-0.223	-0.203
-518.916	228.106	-0.081	0.132
-517.902	-117.222	0.222	0.041
-516.887	-186.794	-0.213	0.003
-515.872	-200.000	-0.000	0.066
-514.858	252.003	0.077	0.133
-513.843	556.601	-0.009	-0.022
-512.829	130.386	-0.135	0.174
-511.814	-164.070	-0.283	0.013
-510.799	-104.803	0.133	-0.031
-509.785	95.711	-0.097	-0.111
-508.770	221.185	0.058	0.094
-507.756	-92.427	0.442	-0.125
-506.741	124.614	-0.229	0.290
-505.726	-200.000	-0.031	0.168
-504.712	284.131	-0.234	-0.424
-503.697	672.120	0.100	-0.262
-502.683	81.187	-0.151	-0.164
-501.668	-50.374	-0.154	-0.073
-500.653	-66.115	0.106	-0.043
-499.639	-24.526	-0.146	-0.087
-498.624	286.621	-0.079	-0.144
-497.610	800.000	0.036	0.137
-496.595	151.356	0.073	0.100
-495.581	163.641	0.224	0.317
-494.566	800.000	0.090	-0.274
-493.551	290.034	0.204	0.373
-492.537	-200.000	0.050	-0.275
-491.522	-89.379	0.238	0.071
-490.508	-132.067	-0.224	0.029
-489.493	172.745	-0.107	0.155
-488.478	150.546	-0.069	-0.094
-487.464	-75.227	-0.399	0.144
-486.449	248.569	0.162	0.275
-485.435	-114.267	-0.286	-0.055
-484.420	-38.623	0.133	0.071
-483.405	800.000	-0.149	-0.542
-482.391	-105.523	-0.146	0.033
-481.376	385.423	0.057	-0.119
-480.362	39.556	0.059	0.053
-479.347	-10.624	0.135	-0.090
-478.332	-155.558	0.193	0.013
-477.318	731.373	0.053	-0.142
-476.303	334.077	-0.056	-0.108
-475.289	-122.822	-0.181	0.029
-474.274	-23.611	0.260	-0.157
-473.259	-35.337	0.238	0.130
-472.245	600.164	-0.063	-0.158
-471.230	-81.447	0.318	0.105
-470.216	172.784	0.119	0.172
-469.201	-51.053	0.207	0.098
-468.186	58.322	-0.231	0.228
-467.172	86.690	-0.096	0.107
-466.157	310.517	0.137	0.258
-465.143	-200.000	0.005	-0.147
-464.128	-170.628	-0.306	-0.011
-463.113	-8.819	-0.182	0.123
-462.099	-54.270	-0.149	-0.068
-461.084	-200.000	-0.006	-0.187
-460.070	266.813	-0.072	-0.127
-459.055	-200.000	-0.021	0.175
-458.040	-41.070	-0.068	-0.035
-457.026	-76.937	0.162	0.057
-456.011	-13.612	-0.226	0.147
-454.997	-32.001	0.265	-0.149
-453.982	-57.471	-0.133	0.059
-452.968	-119.216	0.172	0.030
-451.953	-200.000	0.015	-0.135
-450.938	-200.000	-0.027	-0.318
-449.924	219.061	0.078	-0.125
-448.909	3.897	0.314	0.231
-447.895	423.925	0.038	-0.083
-446.880	80.675	-0.234	-0.253
-445.865	-125.733	0.271	0.041
-444.851	-106.916	0.180	-0.040
-443.836	-200.000	-0.040	-0.455
-442.822	108.554	0.088	-0.105
-441.807	136.386	0.222	0.291
-440.792	-155.177	-0.339	-0.022
-439.778	800.000	0.010	-0.031
-438.763	81.951	-0.170	0.185
-437.749	-200.000	0.043	0.204
-436.734	4.269	0.128	-0.094
-435.719	-140.999	-0.476	0.049
-434.705	800.000	0.109	-0.320
-433.690	788.223	-0.093	-0.256
-432.676	761.197	0.038	-0.103
-431.661	478.774	-0.141	0.321
-430.646	623.540	-0.091	0.230
-429.632	-200.000	-0.011	0.147
-428.617	496.657	0.046	-0.107
-427.603	-154.245	-0.171	0.012
-426.588	-11.699	-0.093	0.061
-425.573	781.721	-0.092	0.253
-424.559	-200.000	-0.065	-0.441
-423.544	-70.317	0.124	-0.047
-422.530	8.254	0.086	-0.065
-421.515	-200.000	-0.027	-0.496
-420.500	-200.000	0.017	0.302
-419.486	20.391	-0.352	0.285
-418.471	-200.000	0.041	-0.517
-417.457	-49.708	-0.171	-0.081
-416.442	-59.190	0.041	0.018
-415.428	70.516	-0.143	0.148
-414.413	-120.830	0.109	-0.019
-413.398	-200.000	0.035	0.315
-412.384	-55.463	0.240	-0.108
-411.369	30.392	-0.455	0.390
-410.355	-200.000	0.043	0.260
-409.340	-32.007	-0.280	0.157
-408.325	6.990	-0.186	-0.139
-407.311	120.142	0.182	-0.227
-406.296	391.473	-0.118	-0.247
-405.282	-200.000	-0.023	-0.333
-404.267	-125.501	-0.347	-0.053
-403.252	281.537	-0.244	-0.439
-402.238	-22.498	0.158	0.096
-401.223	-30.283	0.205	-0.117
-400.209	-66.852	0.179	0.071
-399.194	81.827	0.195	0.212
-398.179	236.408	0.046	0.077
-397.165	-34.734	0.162	-0.089
-396.150	-82.397	-0.091	0.030
-395.136	-64.186	-0.052	0.021
-394.121	-200.000	-0.011	0.161
-393.106	-68.990	0.322	-0.124
-392.092	-144.579	-0.271	-0.025
-391.077	455.105	0.164	-0.364
-390.063	-200.000	-0.042	-0.351
-389.048	-150.981	0.265	0.020
-388.033	434.303	-0.170	-0.371
-387.019	800.000	-0.119	-0.376
-386.004	-200.000	-0.009	-0.425
-384.990	-148.778	0.084	0.007
-383.975	269.929	0.154	0.271
-382.960	108.007	0.138	-0.165
-381.946	-109.759	-0.150	-0.032
-380.931	153.629	-0.161	-0.221
-379.917	-61.070	-0.068	-0.029
-378.902	96.297	-0.080	-0.092
-377.888	276.010	0.132	-0.235
-376.873	197.203	0.103	0.158
-375.858	23.381	0.118	0.098
-374.844	102.140	0.095	0.111
-373.829	235.483	-0.072	0.120
-372.815	220.405	0.022	-0.035
-371.800	-46.144	-0.204	-0.101
-370.785	36.833	0.107	0.095
-369.771	36.171	0.242	0.214
-368.756	-71.966	0.445	0.166
-367.742	731.197	-0.033	-0.087
-366.727	-24.251	-0.234	-0.140
-365.712	-101.558	-0.027	-0.007
-364.698	-32.082	-0.287	0.161
-363.683	177.646	0.147	-0.214
-362.669	13.265	-0.140	-0.109
-361.654	-200.000	0.056	0.301
-360.639	-200.000	-0.001	-0.099
-359.625	-95.055	0.168	0.045
-358.610	-99.216	0.290	0.073
-357.596	800.000	-0.044	-0.170
-356.581	-100.318	0.319	-0.079
-355.566	-200.000	-0.010	-0.313
-354.552	-67.810	0.289	-0.113
-353.537	-167.705	0.203	0.008
-352.523	-10.250	0.149	-0.099
-351.508	0.613	0.107	-0.077
-350.493	-200.000	-0.027	-0.315
-349.479	-200.000	-0.016	-0.114
-348.464	93.576	0.479	0.543
-347.450	-60.711	-0.366	0.155
-346.435	-156.321	-0.306	0.019
-345.420	-68.132	0.302	0.118
-344.406	800.000	-0.072	0.212
-343.391	-128.571	-0.293	0.042
-342.377	433.510	-0.102	-0.222
-341.362	59.399	0.064	-0.063
-340.348	800.000	0.091	0.288
-339.333	129.274	0.245	-0.314
-338.318	-200.000	0.022	0.146
-337.304	77.721	0.131	-0.139
-336.289	150.403	-0.129	0.175
-335.275	-17.994	-0.026	0.016
-334.260	-143.436	-0.482	-0.046
-333.245	-117.442	0.215	-0.039
-332.231	-92.755	0.231	0.065
-331.216	145.124	0.061	-0.082
-330.202	-58.125	-0.180	0.079
-329.187	26.431	-0.170	-0.142
-328.172	304.608	-0.075	0.139
-327.158	-101.164	0.246	0.060
-326.143	617.782	0.062	0.155
-325.129	800.000	-0.023	0.083
-324.114	156.696	0.099	0.137
-323.099	-68.608	-0.131	0.051
-322.085	-200.000	-0.051	0.380
-321.070	-73.460	0.119	-0.044
-320.056	-50.467	-0.133	-0.063
-319.041	113.999	0.078	0.095
-318.026	443.193	0.010	-0.021
-317.012	800.000	-0.087	0.254
-315.997	169.863	-0.084	-0.120
-314.983	276.296	-0.101	-0.179
-313.968	800.000	-0.022	-0.071
-312.953	-9.864	-0.122	0.081
-311.939	-154.076	-0.161	-0.011
-310.924	-79.506	0.315	0.106
-309.910	800.000	-0.099	0.351
-308.895	-60.709	0.235	0.100
-307.880	263.844	-0.101	-0.176
-306.866	800.000	0.075	-0.296
-305.851	-123.270	0.056	0.009
-304.837	-200.000	-0.037	0.202
-303.822	-70.659	0.162	-0.061
-302.807	-200.000	0.047	0.392
-301.793	-33.776	0.003	-0.002
-300.778	74.251	0.151	0.159
-299.764	92.198	0.209	0.236
-298.749	-57.910	-0.147	0.064
-297.735	-126.299	0.163	0.024
-296.720	377.303	-0.129	-0.263
-295.705	232.389	-0.207	0.340
-294.691	397.450	0.106	-0.222
-293.676	-89.911	-0.074	0.022
-292.662	-16.106	0.319	0.203
-291.647	106.468	0.192	-0.228
-290.632	-107.063	-0.205	0.045
-289.618	800.000	-0.036	0.114
-288.603	800.000	-0.033	-0.141
-287.589	665.055	0.080	0.205
-286.574	295.413	0.089	-0.162
-285.559	800.000	0.038	-0.116
-284.545	20.563	0.076	-0.062
-283.530	-121.274	0.177	0.030
-282.516	-63.212	0.071	-0.029
-281.501	185.471	-0.336	0.498
-280.486	432.266	0.063	0.135
-279.472	322.761	0.027	-0.051
-278.457	-49.893	-0.137	-0.065
-277.443	-18.421	0.336	-0.209
-276.428	-82.913	0.248	-0.080
-275.413	36.860	-0.199	-0.176
-274.399	16.865	-0.236	-0.186
-273.384	0.908	0.369	-0.264
-272.370	60.985	-0.214	0.212
-271.355	127.888	-0.124	0.158
-270.340	-48.052	0.115	0.056
-269.326	-200.000	-0.059	0.394
-268.311	-32.388	0.305	-0.170
-267.297	88.955	0.072	-0.080
-266.282	-27.011	0.258	0.150
-265.267	-200.000	0.003	0.090
-264.253	-11.122	0.136	0.090
-263.238	-42.939	0.132	0.067
-262.224	-200.000	0.004	0.074
-261.209	-30.198	-0.116	0.066
-260.195	-9.869	-0.284	0.188
-259.180	-91.679	-0.300	-0.085
-258.165	-200.000	-0.032	-0.176
-257.151	-4.681	-0.184	-0.127
-256.136	-200.000	-0.320	0.000
-255.122	800.000	0.006	-0.023
-254.107	7.813	-0.049	0.036
-253.092	-200.000	0.019	-0.417
-252.078	-128.677	-0.168	0.024
-251.063	-200.000	0.015	-0.106
-250.049	-10.223	-0.079	-0.052
-249.034	72.457	-0.169	-0.176
-248.019	266.183	0.078	0.136
-247.005	435.002	0.212	0.460
-245.990	-129.557	0.128	-0.018
-244.976	139.502	-0.092	-0.121
-243.961	-21.007	0.374	0.228
-242.946	-11.762	-0.198	-0.129
-241.932	-178.050	-0.296	0.007
-240.917	-132.587	-0.302	-0.039
-239.903	-61.231	0.054	-0.023
-238.888	0.191	0.150	-0.107
-237.873	154.027	0.093	-0.128
-236.859	207.564	0.031	-0.048
-235.844	130.914	0.079	-0.101
-234.830	-200.000	-0.047	0.264
-233.815	800.000	0.134	0.387
-232.800	112.698	0.067	-0.081
-231.786	-79.078	0.395	-0.134
-230.771	-12.360	0.097	0.063
-229.757	115.266	0.144	-0.175
-228.742	684.090	-0.017	-0.045
-227.727	-51.428	-0.258	-0.120
-226.713	6.968	-0.154	-0.114
-225.698	800.000	-0.032	0.133
-224.684	-68.785	0.182	0.070
-223.669	-54.757	-0.180	0.081
-222.655	230.244	-0.047	-0.076
-221.640	-73.455	0.161	0.058
-220.625	-177.386	-0.014	0.000
-219.611	-151.064	-0.174	-0.013
-218.596	195.002	-0.025	0.037
-217.582	-6.459	0.182	-0.124
-216.567	-67.484	0.334	-0.131
-215.552	-43.296	0.149	0.075
-214.538	-103.275	-0.094	-0.022
-213.523	-200.000	0.030	0.311
-212.509	414.031	-0.087	-0.185
-211.494	-161.972	-0.281	0.014
-210.479	-0.251	-0.249	0.176
-209.465	364.839	-0.096	-0.192
-208.450	-200.000	-0.016	-0.262
-207.436	394.091	-0.036	0.075
-206.421	11.466	0.195	-0.149
-205.406	562.523	0.013	-0.032
-204.392	800.000	0.068	-0.189
-203.377	91.227	0.192	0.214
-202.363	-117.912	-0.192	0.034
-201.348	-38.726	0.182	0.095
-200.333	145.130	-0.118	0.157
-199.319	-200.000	0.013	0.226
-198.304	-53.535	0.031	-0.014
-197.290	-140.447	0.096	-0.010
-196.275	-200.000	-0.034	0.186
-195.260	526.677	-0.043	-0.102
-194.246	-200.000	0.002	0.140
-193.231	800.000	-0.061	0.215
-192.217	-79.259	0.122	0.041
-191.202	-200.000	-0.016	0.118
-190.187	-200.000	0.053	-0.267
-189.173	144.742	-0.026	-0.034
-188.158	-34.124	-0.192	-0.105
-187.144	-200.000	-0.019	0.114
-186.129	-117.358	-0.146	-0.026
-185.114	430.720	-0.093	-0.201
-184.100	-200.000	0.010	-0.159
-183.085	397.652	-0.128	-0.266
-182.071	15.019	0.175	-0.136
-181.056	-68.493	-0.112	-0.043
-180.042	91.123	0.155	0.173
-179.027	800.000	-0.131	0.415
-178.012	237.052	-0.080	0.132
-176.998	540.002	-0.087	0.207
-175.983	168.657	-0.098	-0.139
-174.969	-48.927	-0.109	0.052
-173.954	-113.006	0.186	0.037
-172.939	99.913	0.083	0.096
-171.925	-135.055	-0.099	0.012
-170.910	13.669	0.235	0.182
-169.896	-118.070	0.309	0.055
-168.881	-200.000	0.030	0.458
-167.866	25.751	0.210	0.174
-166.852	207.691	0.146	0.227
-165.837	1.850	0.156	0.112
-164.823	800.000	-0.067	0.241
-163.808	-111.780	-0.306	0.062
-162.793	-36.272	-0.139	0.074
-161.779	252.105	-0.045	0.076
-160.764	104.273	0.162	0.189
-159.750	-3.114	0.326	-0.226
-158.735	-200.000	0.022	0.140
-157.720	20.547	0.263	0.211
-156.706	404.651	-0.100	0.209
-155.691	145.432	-0.105	0.140
-154.677	-80.797	-0.038	-0.013
-153.662	-200.000	-0.034	-0.446
-152.647	-200.000	0.059	0.344
-151.633	67.473	0.251	-0.255
-150.618	73.006	0.082	-0.085
-149.604	800.000	0.076	0.232
-148.589	-114.496	0.276	-0.053
-147.574	-200.000	-0.050	-0.236
-146.560	5.420	-0.170	0.125
-145.545	247.098	0.182	-0.305
-144.531	-200.000	-0.002	0.082
-143.516	583.818	0.052	-0.127
-142.502	196.390	0.011	0.016
-141.487	475.976	0.141	0.316
-140.472	194.564	0.144	-0.217
-139.458	299.066	-0.243	-0.445
-138.443	179.009	-0.034	0.049
-137.429	-71.259	0.060	0.022
-136.414	-14.845	-0.200	-0.127
-135.399	800.000	-0.034	-0.106
-134.385	141.113	0.185	-0.243
-133.370	800.000	-0.119	0.343
-132.356	93.346	-0.088	0.099
-131.341	-53.688	-0.237	-0.108
-130.326	-117.567	-0.127	-0.023
-129.312	12.059	-0.308	0.235
-128.297	-17.374	-0.121	0.076
-127.283	0.025	-0.454	-0.321
-126.268	192.758	-0.287	0.431
-125.253	42.736	-0.144	0.130
-124.239	-200.000	-0.025	0.113
-123.224	800.000	-0.085	0.318
-122.210	172.741	0.116	0.166
-121.195	-110.551	-0.094	0.019
-120.180	108.533	0.075	-0.089
