DTS Sentinel unit serial number:	SN413079Multiplexer serial number:	ORYXHardware model number:	OX4-SRSoftware version number:	ORYX F/W v4.00 Oryx Data Collector v3.7.2.0data status	okinstallation	princeton_trtdifferential loss correction	single-endedforward channel	channel 1reverse channel	N/Adate	2019/09/12time	19:14:34forward acquisition time	15.00reverse acquisition time	0.00gamma	496.2192k internal	0.2320k external	0.2320temperature offset calibration	1.0128default loss term (dB/km)	0.3790temperature slope calibration	1.0000multiplexer offset coefficient	1.0000multiplexer slope coefficient	1.0000fibre end	0.00T internal ref (°C)	32.50T ext. ref 1 (°C)	3.22T ext. ref 2 (°C)	27.09length (m)	temperature (°C)	Stokes	anti-Stokes-747.200	-25.252	-0.281	0.168
-746.185	-39.398	-0.180	-0.095
-745.171	-24.324	0.439	-0.265
-744.156	-36.390	-0.444	-0.242
-743.142	529.416	-0.200	-0.478
-742.127	-152.635	0.603	0.044
-741.112	-147.997	0.557	-0.047
-740.098	170.311	-0.519	0.751
-739.083	800.000	-0.009	-0.028
-738.069	344.787	-0.462	-0.916
-737.054	134.777	0.682	-0.895
-736.039	-187.737	0.122	-0.002
-735.025	-79.259	0.158	0.054
-734.010	-70.908	-0.586	0.223
-732.996	66.400	-0.404	0.415
-731.981	-144.177	0.455	-0.043
-730.966	-18.465	0.092	-0.058
-729.952	7.514	-0.399	-0.302
-728.937	381.211	-0.297	-0.616
-727.923	5.161	0.630	0.469
-726.908	-200.000	0.021	0.452
-725.894	208.996	-0.167	-0.264
-724.879	-139.138	-0.159	-0.017
-723.864	101.360	-0.020	-0.024
-722.850	24.226	0.565	-0.471
-721.835	-114.812	1.099	-0.212
-720.821	-63.302	-0.937	-0.390
-719.806	-200.000	0.023	-0.379
-718.791	-61.293	-0.241	-0.102
-717.777	518.135	0.213	0.503
-716.762	114.297	0.182	0.224
-715.748	-52.675	0.092	-0.043
-714.733	-19.279	-0.320	-0.200
-713.718	65.001	-0.436	-0.444
-712.704	-119.586	0.475	0.083
-711.689	-200.000	-0.012	0.230
-710.675	381.402	0.108	-0.223
-709.660	-70.917	0.245	0.093
-708.645	-173.166	-0.279	-0.009
-707.631	-155.156	-1.622	-0.107
-706.616	-2.782	0.429	-0.303
-705.602	-95.043	0.514	0.140
-704.587	-200.000	0.026	-0.332
-703.572	800.000	0.070	0.284
-702.558	-30.206	0.323	0.185
-701.543	-47.632	-0.580	0.284
-700.529	59.912	-0.392	0.391
-699.514	-57.399	0.903	0.401
-698.499	-145.062	-0.412	-0.038
-697.485	101.774	-0.081	0.095
-696.470	-117.245	0.343	0.063
-695.456	-36.318	0.659	0.359
-694.441	-40.353	0.820	0.430
-693.426	-200.000	-0.064	0.480
-692.412	-35.277	-0.091	-0.050
-691.397	-179.574	-0.796	-0.018
-690.383	-200.000	-0.104	0.560
-689.368	115.430	0.628	0.774
-688.354	32.866	0.038	-0.033
-687.339	460.589	0.504	-1.133
-686.324	-9.590	-0.863	-0.580
-685.310	-123.056	0.220	-0.036
-684.295	-200.000	-0.221	-1.225
-683.281	325.142	-0.255	0.492
-682.266	260.793	0.481	-0.839
-681.251	149.341	0.624	0.852
-680.237	-26.205	0.396	0.235
-679.222	79.517	0.393	0.425
-678.208	39.999	0.863	-0.782
-677.193	-133.765	-0.332	-0.042
-676.178	434.873	-0.226	0.496
-675.164	47.302	-0.632	0.594
-674.149	166.303	0.530	-0.757
-673.135	-100.027	-0.240	0.060
-672.120	-75.448	0.445	-0.160
-671.105	141.847	0.353	-0.472
-670.091	-70.623	-0.356	-0.136
-669.076	-200.000	0.055	-0.419
-668.062	84.383	0.323	-0.356
-667.047	54.117	0.286	0.277
-666.032	138.560	-0.220	-0.291
-665.018	121.088	-0.297	0.372
-664.003	-41.732	-0.346	0.179
-662.989	-64.252	0.296	0.121
-661.974	103.516	-0.396	-0.469
-660.959	63.639	0.195	0.198
-659.945	284.031	-0.372	0.673
-658.930	344.528	0.278	0.549
-657.916	408.597	0.072	-0.154
-656.901	-43.861	-0.319	0.162
-655.886	-156.305	0.779	0.049
-654.872	-200.000	-0.105	0.600
-653.857	-168.190	-0.500	-0.020
-652.843	-63.871	1.152	-0.475
-651.828	8.473	-0.392	-0.297
-650.814	8.347	0.515	0.390
-649.799	-200.000	0.008	0.119
-648.784	-135.668	-0.600	-0.072
-647.770	800.000	0.316	-1.221
-646.755	233.745	0.392	0.650
-645.741	-113.499	0.815	0.161
-644.726	314.806	0.052	0.098
-643.711	30.931	-0.397	0.343
-642.697	156.674	0.106	0.147
-641.682	231.642	0.428	0.706
-640.668	76.475	-0.482	-0.514
-639.653	91.945	-0.315	-0.357
-638.638	-200.000	-0.033	-0.203
-637.624	-62.199	-0.800	0.336
-636.609	-16.753	0.352	-0.224
-635.595	-37.847	0.772	-0.413
-634.580	-200.000	0.003	-0.212
-633.565	-44.980	0.864	0.433
-632.551	-200.000	0.031	-0.453
-631.536	-95.261	0.414	-0.112
-630.522	800.000	-0.078	0.319
-629.507	-106.329	-0.280	-0.063
-628.492	-136.739	0.581	0.067
-627.478	115.276	0.449	-0.552
-626.463	-198.809	-0.627	0.003
-625.449	-99.844	0.117	-0.030
-624.434	109.688	0.350	-0.423
-623.419	-156.697	-1.094	-0.068
-622.405	-189.417	0.259	0.003
-621.390	-200.000	0.021	0.283
-620.376	-200.000	0.055	-0.415
-619.361	177.782	0.176	-0.259
-618.346	-197.721	-0.915	0.006
-617.332	-139.739	-0.492	0.053
-616.317	-159.342	0.617	-0.035
-615.303	117.918	0.323	0.401
-614.288	-80.885	0.892	-0.298
-613.273	249.164	-0.212	0.362
-612.259	800.000	-0.117	0.376
-611.244	-158.805	-0.291	0.017
-610.230	40.039	0.055	-0.050
-609.215	-109.469	0.888	0.189
-608.201	-200.000	-0.041	0.526
-607.186	-112.919	-1.386	0.276
-606.171	-200.000	0.012	0.442
-605.157	-147.260	0.475	0.041
-604.142	-34.765	0.231	0.127
-603.128	-200.000	0.017	-0.191
-602.113	-71.031	-0.634	-0.240
-601.098	-114.633	-0.440	-0.085
-600.084	258.849	0.170	-0.294
-599.069	-102.613	-0.544	0.131
-598.055	-112.761	0.364	0.073
-597.040	311.702	-0.362	-0.682
-596.025	800.000	-0.077	-0.271
-595.011	-142.197	-0.788	0.078
-593.996	9.588	-0.471	-0.359
-592.982	-141.945	-0.013	-0.001
-591.967	-200.000	0.112	-0.672
-590.952	-87.255	-0.631	-0.192
-589.938	593.472	-0.155	0.385
-588.923	-200.000	0.061	-0.673
-587.909	-36.210	0.540	-0.293
-586.894	-125.921	-0.330	-0.050
-585.879	-74.688	0.952	0.344
-584.865	482.335	0.213	-0.487
-583.850	-141.090	0.910	-0.093
-582.836	85.269	0.646	0.712
-581.821	-200.000	-0.016	0.691
-580.806	104.079	0.315	0.372
-579.792	716.872	-0.061	-0.161
-578.777	-110.113	0.104	-0.022
-577.763	794.772	0.253	-0.701
-576.748	-35.930	1.064	-0.578
-575.733	-110.996	0.213	-0.044
-574.719	-200.000	0.113	-0.613
-573.704	68.542	0.412	0.424
-572.690	233.266	0.506	0.836
-571.675	-200.000	0.095	-0.690
-570.661	-20.368	-0.560	0.346
-569.646	-39.687	-0.193	-0.102
-568.631	644.298	-0.212	-0.543
-567.617	-200.000	-0.085	-0.642
-566.602	26.614	-1.004	-0.844
-565.588	-18.562	-0.823	-0.516
-564.573	-200.000	-0.063	0.278
-563.558	30.154	-1.278	-1.095
-562.544	-200.000	-0.012	-0.357
-561.529	-64.194	1.212	-0.496
-560.515	-1.830	0.863	0.609
-559.500	-200.000	0.032	0.503
-558.485	350.069	-0.181	0.359
-557.471	-36.918	0.575	0.309
-556.456	16.621	-0.611	0.484
-555.442	251.367	0.192	-0.327
-554.427	88.221	-0.335	-0.373
-553.412	-200.000	0.038	-0.364
-552.398	-118.505	-0.626	-0.111
-551.383	-200.000	-0.054	-0.441
-550.369	482.682	-0.486	-1.108
-549.354	0.200	-0.332	0.237
-548.339	38.829	0.443	-0.397
-547.325	170.327	-0.187	0.268
-546.310	-200.000	-0.021	0.193
-545.296	643.198	-0.251	0.643
-544.281	-92.087	-0.653	0.185
-543.266	-132.006	-1.397	0.183
-542.252	-56.469	0.242	0.108
-541.237	294.316	-0.147	-0.270
-540.223	-123.760	0.451	-0.071
-539.208	275.337	-0.157	-0.279
-538.193	-200.000	-0.151	0.922
-537.179	234.882	0.086	0.142
-536.164	-102.487	0.734	0.176
-535.150	-168.514	0.286	0.011
-534.135	34.565	-0.298	-0.261
-533.121	-79.654	-0.676	-0.229
-532.106	-27.637	-0.350	-0.204
-531.091	60.142	0.308	0.306
-530.077	-200.000	-0.021	-0.576
-529.062	93.881	-1.147	1.303
-528.048	-87.734	-0.927	0.280
-527.033	-154.931	0.573	0.038
-526.018	-127.025	-0.583	-0.086
-525.004	492.313	-0.282	-0.648
-523.989	112.634	0.444	-0.539
-522.975	289.133	-0.049	-0.089
-521.960	202.488	0.044	0.068
-520.945	55.824	0.585	-0.569
-519.931	-200.000	0.021	0.296
-518.916	-111.636	-0.353	0.072
-517.902	153.584	0.470	-0.645
-516.887	-67.041	-0.613	0.242
-515.872	460.719	0.342	-0.763
-514.858	-200.000	0.034	-0.350
-513.843	-26.027	-0.336	0.198
-512.829	800.000	0.353	-1.280
-511.814	-200.000	0.011	-0.251
-510.799	246.559	0.195	-0.330
-509.785	800.000	0.230	0.773
-508.770	548.914	-0.210	0.505
-507.756	479.442	-0.237	0.538
-506.741	434.057	-0.227	0.493
-505.726	245.429	0.290	0.490
-504.712	-200.000	0.039	-0.396
-503.697	-200.000	-0.105	-0.567
-502.683	199.129	0.452	0.693
-501.668	-98.005	-0.527	-0.136
-500.653	167.243	0.541	0.769
-499.639	-19.928	0.589	0.364
-498.624	-94.038	0.569	-0.156
-497.610	-2.639	-0.359	0.252
-496.595	-120.722	-0.733	0.124
-495.581	77.163	-0.047	0.050
-494.566	187.749	-0.150	-0.224
-493.551	97.140	-0.145	-0.166
-492.537	-200.000	0.055	0.467
-491.522	-77.381	-0.643	0.224
-490.508	-118.932	0.649	-0.114
-489.493	800.000	0.128	-0.409
-488.478	-200.000	-0.020	0.766
-487.464	488.908	-0.194	0.443
-486.449	164.813	-0.228	-0.322
-485.435	41.413	0.600	-0.544
-484.420	-128.613	0.042	-0.006
-483.405	33.201	-0.162	-0.141
-482.391	121.354	0.171	-0.214
-481.376	422.789	0.208	0.447
-480.362	-189.574	0.619	0.007
-479.347	115.936	0.209	0.256
-478.332	680.433	0.339	-0.883
-477.318	-200.000	-0.008	-0.166
-476.303	-15.112	0.669	0.429
-475.289	96.633	-0.276	0.317
-474.274	48.173	-0.314	-0.294
-473.259	413.628	-0.215	0.459
-472.245	-34.413	0.847	0.464
-471.230	42.478	0.818	0.745
-470.216	-200.000	-0.097	-0.541
-469.201	-52.535	-0.410	-0.189
-468.186	-82.571	-0.850	-0.276
-467.172	41.500	0.336	-0.304
-466.157	-200.000	0.000	0.112
-465.143	-3.551	-1.019	-0.709
-464.128	252.358	0.247	0.421
-463.113	240.078	0.459	0.765
-462.099	-200.000	-0.005	0.164
-461.084	61.908	0.493	0.491
-460.070	-200.000	0.022	-0.643
-459.055	29.553	-0.271	-0.231
-458.040	-115.218	0.195	-0.037
-457.026	154.780	-0.266	0.365
-456.011	-5.944	-0.184	0.126
-454.997	72.632	-0.645	0.672
-453.982	221.402	-0.071	0.114
-452.968	-200.000	0.093	-0.937
-451.953	97.890	0.412	-0.474
-450.938	800.000	-0.271	-1.147
-449.924	365.234	0.294	0.592
-448.909	-102.916	0.217	0.051
-447.895	-38.971	1.496	-0.787
-446.880	117.522	-0.387	-0.476
-445.865	249.059	-0.249	-0.421
-444.851	44.235	-0.374	-0.343
-443.836	219.968	-0.342	-0.547
-442.822	126.499	0.678	0.857
-441.807	-200.000	0.033	-0.717
-440.792	212.665	0.419	-0.660
-439.778	-30.244	0.519	-0.294
-438.763	34.016	0.337	-0.294
-437.749	800.000	-0.149	-0.427
-436.734	-81.379	0.262	-0.086
-435.719	-200.000	0.129	0.630
-434.705	-61.029	0.358	-0.151
-433.690	-131.958	-0.811	0.106
-432.676	185.151	0.433	-0.642
-431.661	96.417	-0.214	-0.244
-430.646	734.627	0.051	0.136
-429.632	98.726	0.674	-0.777
-428.617	-70.214	-0.750	-0.285
-427.603	-51.840	0.672	0.313
-426.588	245.740	0.244	0.410
-425.573	800.000	-0.167	-0.494
-424.559	-145.564	0.239	0.021
-423.544	-106.910	0.364	-0.080
-422.530	241.158	-0.348	0.580
-421.515	58.899	-0.422	0.414
-420.500	59.468	0.287	0.282
-419.486	51.152	-0.437	0.414
-418.471	-9.646	-0.436	-0.290
-417.457	360.558	-0.332	0.664
-416.442	-200.000	-0.019	-0.096
-415.428	111.525	-0.266	0.320
-414.413	173.583	0.537	-0.773
-413.398	361.179	0.240	0.481
-412.384	27.767	0.280	-0.236
-411.369	-31.918	0.496	0.277
-410.355	-11.938	0.316	0.206
-409.340	-40.647	-1.366	0.707
-408.325	-94.811	0.203	-0.055
-407.311	498.537	0.480	1.104
-406.296	-58.156	0.772	0.336
-405.282	-88.591	0.393	-0.117
-404.267	-73.947	0.340	0.123
-403.252	-200.000	-0.001	-0.836
-402.238	30.771	0.497	0.425
-401.223	-3.433	0.641	0.445
-400.209	12.343	-0.428	-0.329
-399.194	800.000	-0.127	-0.352
-398.179	178.114	0.114	-0.165
-397.165	77.136	0.636	0.674
-396.150	-76.984	-0.366	-0.128
-395.136	-81.254	-0.843	0.277
-394.121	90.849	-0.447	0.500
-393.106	109.152	-0.368	0.439
-392.092	-200.000	-0.096	-0.470
-391.077	163.404	-0.201	-0.282
-390.063	-200.000	0.022	0.158
-389.048	55.269	0.464	0.447
-388.033	48.394	0.119	0.111
-387.019	800.000	-0.116	0.329
-386.004	-74.435	-0.304	-0.109
-384.990	-200.000	0.034	-0.507
-383.975	9.810	-0.421	0.318
-382.960	-61.843	0.549	0.229
-381.946	-130.625	-0.176	0.024
-380.931	31.100	0.471	-0.403
-379.917	-97.713	-0.728	0.188
-378.902	-89.900	0.645	0.188
-377.888	-200.000	-0.012	-0.264
-376.873	-96.349	-0.694	0.183
-375.858	292.605	-0.184	-0.334
-374.844	-16.481	0.666	-0.421
-373.829	-33.349	-0.190	0.105
-372.815	-56.970	-0.510	-0.224
-371.800	130.073	0.319	0.407
-370.785	800.000	-0.137	0.567
-369.771	95.645	0.467	-0.531
-368.756	111.783	0.100	-0.120
-367.742	526.628	-0.191	0.449
-366.727	-128.792	0.543	-0.076
-365.712	-111.090	-0.684	0.140
-364.698	234.526	0.118	-0.193
-363.683	66.662	0.268	-0.272
-362.669	700.680	0.256	-0.672
-361.654	329.069	0.087	0.166
-360.639	592.064	-0.387	0.951
-359.625	-80.177	-0.957	0.319
-358.610	608.092	-0.238	-0.592
-357.596	800.000	0.154	0.485
-356.581	-200.000	0.032	0.592
-355.566	265.716	0.465	-0.807
-354.552	-83.585	0.685	0.218
-353.537	117.133	-0.176	0.215
-352.523	339.891	-0.169	-0.327
-351.508	73.682	0.350	-0.365
-350.493	324.244	0.166	0.316
-349.479	-118.821	0.278	-0.049
-348.464	-200.000	0.039	0.301
-347.450	-200.000	0.003	-0.118
-346.435	-137.413	-0.794	-0.089
-345.420	-26.068	0.743	0.435
-344.406	800.000	0.062	0.246
-343.391	482.115	0.095	-0.216
-342.377	-29.824	-0.268	-0.152
-341.362	-72.386	0.187	0.069
-340.348	101.794	-0.577	-0.670
-339.333	70.148	0.404	0.415
-338.318	-6.862	0.154	-0.104
-337.304	198.629	-0.324	-0.493
-336.289	-81.222	1.257	0.413
-335.275	647.506	-0.209	0.531
-334.260	137.152	-0.298	0.387
-333.245	-200.000	-0.016	0.629
-332.231	-82.226	0.969	-0.314
-331.216	514.435	-0.213	-0.494
-330.202	21.898	-0.223	0.181
-329.187	53.744	0.172	0.164
-328.172	-112.538	0.428	-0.085
-327.158	-200.000	-0.063	0.468
-326.143	-96.117	-0.997	0.263
-325.129	737.500	-0.094	-0.251
-324.114	36.959	-0.184	-0.162
-323.099	-153.075	-0.437	-0.031
-322.085	-4.204	0.309	-0.213
-321.070	93.623	-0.383	-0.432
-320.056	-142.777	-0.446	-0.043
-319.041	-20.463	0.232	0.142
-318.026	-200.000	-0.077	-1.216
-317.012	-180.040	0.699	-0.015
-315.997	-121.030	-0.662	-0.110
-314.983	800.000	0.302	-0.830
-313.968	-200.000	0.063	-0.391
-312.953	-141.800	1.026	0.102
-311.939	-109.163	-1.068	0.226
-310.924	100.382	0.522	-0.603
-309.910	249.865	0.124	0.209
-308.895	290.257	-0.114	0.207
-307.880	-200.000	-0.006	-0.220
-306.866	-200.000	0.094	-0.444
-305.851	260.691	-0.437	0.752
-304.837	-127.989	-0.714	0.102
-303.822	800.000	0.210	0.680
-302.807	-200.000	-0.101	1.039
-301.793	100.421	-0.317	0.365
-300.778	-166.334	-0.810	-0.034
-299.764	46.875	0.666	-0.615
-298.749	-183.525	0.586	0.010
-297.735	-200.000	0.002	-0.177
-296.720	18.828	0.105	0.083
-295.705	127.925	0.458	-0.579
-294.691	53.292	-0.593	0.564
-293.676	-71.544	-0.865	0.321
-292.662	-116.862	0.658	-0.120
-291.647	-200.000	0.090	0.576
-290.632	22.479	-0.496	0.403
-289.618	322.390	-0.340	0.643
-288.603	81.672	0.844	-0.907
-287.589	-200.000	0.115	0.723
-286.574	800.000	0.215	0.716
-285.559	-97.206	-0.279	0.072
-284.545	-200.000	0.095	-0.590
-283.530	-200.000	0.066	0.414
-282.516	800.000	0.216	-0.674
-281.501	-165.713	-0.344	-0.015
-280.486	-200.000	-0.075	-0.422
-279.472	450.425	-0.134	0.294
-278.457	-33.132	0.432	0.238
-277.443	52.011	0.466	-0.441
-276.428	-44.901	-0.966	-0.478
-275.413	-91.540	0.071	-0.020
-274.399	-165.108	-0.194	-0.009
-273.384	800.000	0.183	0.792
-272.370	49.334	-0.251	0.234
-271.355	156.772	0.268	-0.367
-270.340	-200.000	-0.008	-0.133
-269.326	-48.785	-0.534	-0.254
-268.311	-126.852	-0.504	-0.074
-267.297	170.367	0.300	-0.426
-266.282	13.562	-0.092	-0.071
-265.267	203.417	-0.477	-0.732
-264.253	378.352	-0.356	-0.724
-263.238	78.409	0.296	-0.313
-262.224	-31.135	0.869	0.486
-261.209	78.676	-0.214	-0.227
-260.195	800.000	-0.107	0.415
-259.180	40.601	-0.399	0.357
-258.165	-23.755	0.448	0.266
-257.151	800.000	0.144	0.459
-256.136	-4.549	-0.558	-0.382
-255.122	211.692	0.182	0.284
-254.107	-72.637	0.079	0.029
-253.092	-200.000	-0.063	0.470
-252.078	400.078	-0.376	0.782
-251.063	-200.000	0.081	0.499
-250.049	-200.000	-0.038	-0.175
-249.034	128.481	-0.387	-0.489
-248.019	800.000	-0.349	-1.117
-247.005	-200.000	0.245	1.424
-245.990	-135.400	-0.764	-0.090
-244.976	95.413	-0.327	-0.370
-243.961	-200.000	0.030	-0.212
-242.946	-133.409	-0.815	0.102
-241.932	78.918	0.150	-0.159
-240.917	264.873	-0.485	0.837
-239.903	-200.000	-0.056	0.612
-238.888	258.919	0.212	-0.362
-237.873	136.250	0.351	0.454
-236.859	-24.020	0.789	0.467
-235.844	-49.510	0.756	0.357
-234.830	-200.000	0.021	-0.558
-233.815	165.445	0.542	-0.759
-232.800	-79.791	-1.017	-0.339
-231.786	-158.517	-0.440	0.025
-230.771	196.588	-0.268	-0.405
-229.757	-55.915	0.851	-0.376
-228.742	800.000	-0.102	-0.300
-227.727	-200.000	-0.029	0.709
-226.713	-200.000	-0.044	0.481
-225.698	-91.290	-0.571	0.162
-224.684	-200.000	0.087	-0.600
-223.669	164.479	-0.040	-0.056
-222.655	-94.061	0.287	-0.078
-221.640	-94.287	-0.263	0.071
-220.625	94.480	0.530	-0.597
-219.611	507.479	-0.095	0.218
-218.596	-200.000	-0.021	1.080
-217.582	-200.000	0.038	0.227
-216.567	-200.000	0.082	-0.571
-215.552	-41.442	0.668	0.341
-214.538	-89.298	-0.073	-0.021
-213.523	378.647	-0.219	0.445
-212.509	800.000	0.190	0.671
-211.494	800.000	0.136	0.574
-210.479	171.688	-0.219	-0.312
-209.465	800.000	0.101	-0.391
-208.450	-67.640	-0.508	0.197
-207.436	-50.734	-0.603	-0.281
-206.421	-104.697	0.445	0.101
-205.406	-43.120	-1.116	-0.560
-204.392	334.193	0.132	0.253
-203.377	-67.238	0.566	-0.221
-202.363	39.241	-0.440	-0.390
-201.348	37.686	0.808	0.710
-200.333	-200.000	0.627	0.003
-199.319	-67.269	0.392	-0.153
-198.304	-128.755	-0.168	-0.023
-197.290	-200.000	0.189	0.899
-196.275	86.915	0.364	-0.398
-195.260	-200.000	-0.069	-0.421
-194.246	733.326	0.234	-0.620
-193.231	-59.902	0.678	-0.287
-192.217	-119.861	-0.571	-0.097
-191.202	-143.562	0.961	0.091
-190.187	800.000	0.036	-0.113
-189.173	-88.614	0.533	0.157
-188.158	16.768	-0.718	0.562
-187.144	-200.000	-0.017	-0.273
-186.129	-63.582	0.095	0.038
-185.114	567.635	-0.063	0.151
-184.100	-39.887	-0.414	0.214
-183.085	-119.397	-0.258	-0.044
-182.071	-14.118	-0.359	0.229
-181.056	800.000	-0.134	0.370
-180.042	-36.780	-0.760	-0.404
-179.027	380.430	0.116	0.236
-178.012	35.014	-0.529	0.458
-176.998	800.000	0.109	-0.417
-175.983	800.000	0.201	-0.779
-174.969	800.000	-0.246	0.785
-173.954	-148.938	-0.567	-0.045
-172.939	88.391	-0.566	0.621
-171.925	-87.398	-0.109	0.033
-170.910	-27.158	-0.578	-0.333
-169.896	54.326	0.820	0.781
-168.881	-113.042	-0.282	0.055
-167.866	150.194	-0.440	0.590
-166.852	52.706	0.700	-0.661
-165.837	-200.000	0.086	0.420
-164.823	662.702	0.109	0.278
-163.808	8.817	-0.325	0.242
-162.793	-200.000	-0.013	0.135
-161.779	56.569	-0.509	-0.490
-160.764	-200.000	0.027	-0.499
-159.750	332.849	0.491	-0.937
-158.735	678.996	-0.161	0.413
-157.720	130.332	0.262	0.331
-156.706	401.491	0.457	0.947
-155.691	-94.656	0.353	0.095
-154.677	-128.845	-0.753	0.105
-153.662	-200.000	0.288	1.313
-152.647	122.072	0.022	-0.027
-151.633	-200.000	0.120	-0.854
-150.618	119.452	-0.643	-0.786
-149.604	800.000	0.175	0.505
-148.589	800.000	-0.118	0.391
-147.574	-200.000	0.021	-0.220
-146.560	-112.243	-0.356	-0.070
-145.545	-107.365	-0.211	-0.046
-144.531	-30.766	-0.293	0.164
-143.516	-8.222	0.759	-0.505
-142.502	-80.675	-0.547	-0.180
-141.487	35.821	-0.495	0.430
-140.472	-96.305	0.587	0.154
-139.458	-172.645	-0.429	-0.013
-138.443	269.186	0.164	0.284
-137.429	571.728	-0.369	-0.887
-136.414	9.140	0.499	0.372
-135.399	417.644	0.207	-0.437
-134.385	-57.258	-0.450	-0.195
-133.370	385.828	0.079	-0.161
-132.356	-37.252	0.330	-0.174
-131.341	-103.673	0.605	-0.140
-130.326	-131.727	-0.268	0.035
-129.312	-200.000	0.040	0.789
-128.297	800.000	0.052	0.185
-127.283	-132.357	-0.197	-0.025
-126.268	-200.000	0.073	0.353
-125.253	-200.000	0.015	0.513
-124.239	128.352	0.545	-0.685
-123.224	21.335	0.699	0.561
-122.210	269.369	0.217	-0.376
-121.195	268.555	0.202	-0.349
