DTS Sentinel unit serial number:	SN413079Multiplexer serial number:	ORYXHardware model number:	OX4-SRSoftware version number:	ORYX F/W v4.00 Oryx Data Collector v3.7.2.0data status	okinstallation	princeton_trtdifferential loss correction	single-endedforward channel	channel 1reverse channel	N/Adate	2019/09/13time	22:22:35forward acquisition time	60.00reverse acquisition time	0.00gamma	496.2192k internal	0.2332k external	0.2332temperature offset calibration	1.0091default loss term (dB/km)	0.3790temperature slope calibration	1.0000multiplexer offset coefficient	1.0000multiplexer slope coefficient	1.0000fibre end	0.00T internal ref (°C)	27.81T ext. ref 1 (°C)	3.23T ext. ref 2 (°C)	22.48length (m)	temperature (°C)	Stokes	anti-Stokes-747.200	-144.756	0.295	-0.027
-746.185	451.731	0.095	0.211
-745.171	640.418	-0.101	-0.258
-744.156	800.000	-0.071	0.246
-743.142	-165.803	-0.050	0.002
-742.127	243.783	-0.135	0.228
-741.112	800.000	-0.133	0.537
-740.098	433.314	0.133	0.291
-739.083	668.717	0.082	-0.214
-738.069	-7.316	-0.192	0.131
-737.054	78.807	-0.115	0.124
-736.039	-179.049	-0.327	-0.007
-735.025	352.847	0.134	0.268
-734.010	46.801	-0.166	-0.155
-732.996	800.000	-0.029	0.093
-731.981	191.448	0.048	-0.073
-730.966	-34.869	0.304	0.167
-729.952	-78.087	0.040	-0.014
-728.937	47.538	-0.186	-0.174
-727.923	800.000	-0.030	-0.096
-726.908	-200.000	-0.076	0.339
-725.894	123.760	0.275	-0.347
-724.879	-200.000	0.021	-0.119
-723.864	-131.211	0.054	-0.007
-722.850	-200.000	-0.036	0.177
-721.835	-124.182	-0.319	0.050
-720.821	79.456	-0.275	0.297
-719.806	209.003	-0.127	0.200
-718.791	800.000	-0.128	-0.381
-717.777	-17.451	-0.257	0.162
-716.762	-115.279	0.362	-0.069
-715.748	6.216	-0.134	-0.100
-714.733	518.991	-0.063	-0.147
-713.718	112.598	-0.066	-0.080
-712.704	-106.965	-0.199	0.044
-711.689	-200.000	0.015	0.229
-710.675	-4.912	-0.168	-0.116
-709.660	-30.768	-0.394	-0.224
-708.645	-200.000	0.032	0.219
-707.631	-200.000	-0.010	-0.136
-706.616	42.043	0.049	-0.044
-705.602	-91.520	0.097	-0.028
-704.587	559.541	-0.071	-0.173
-703.572	-200.000	0.002	0.055
-702.558	153.893	-0.180	0.247
-701.543	-50.202	-0.164	0.078
-700.529	576.116	0.048	0.118
-699.514	10.202	-0.194	0.148
-698.499	-105.043	-0.229	-0.053
-697.485	-200.000	-0.001	-0.184
-696.470	418.548	0.042	0.091
-695.456	721.924	-0.075	-0.201
-694.441	-99.504	-0.131	-0.033
-693.426	134.507	0.259	-0.337
-692.412	-39.612	-0.278	0.146
-691.397	492.233	-0.124	0.285
-690.383	-200.000	0.007	-0.160
-689.368	-113.946	-0.113	-0.022
-688.354	-70.504	0.040	0.015
-687.339	-94.020	0.224	0.062
-686.324	448.227	-0.026	-0.058
-685.310	-117.878	-0.313	-0.056
-684.295	413.741	-0.115	0.246
-683.281	-200.000	-0.053	-0.250
-682.266	502.451	0.026	0.059
-681.251	152.662	-0.190	-0.261
-680.237	-105.000	0.161	0.037
-679.222	-144.697	0.244	-0.023
-678.208	96.294	-0.068	-0.078
-677.193	94.936	-0.109	0.124
-676.178	-24.987	0.273	-0.162
-675.164	92.712	0.084	-0.095
-674.149	520.337	0.093	-0.218
-673.135	-5.523	-0.182	0.125
-672.120	-200.000	0.000	0.206
-671.105	-57.150	0.424	0.187
-670.091	-60.675	-0.145	-0.062
-669.076	800.000	-0.115	-0.338
-668.062	-7.430	-0.179	-0.121
-667.047	-200.000	-0.024	0.168
-666.032	-68.206	0.115	-0.045
-665.018	65.274	-0.116	0.118
-664.003	-174.478	-0.241	0.007
-662.989	102.074	0.385	-0.451
-661.974	-190.298	-0.410	-0.005
-660.959	32.147	0.213	-0.184
-659.945	-200.000	0.101	-0.000
-658.930	63.647	-0.164	-0.165
-657.916	-200.000	0.035	0.306
-656.901	-138.187	-0.319	-0.035
-655.886	-74.756	0.228	0.082
-654.872	545.197	0.114	0.272
-653.857	74.138	-0.124	-0.130
-652.843	265.862	0.173	0.302
-651.828	-161.650	0.187	-0.010
-650.814	-200.000	-0.001	-0.039
-649.799	11.843	-0.153	0.118
-648.784	384.461	-0.122	-0.251
-647.770	299.652	0.084	-0.156
-646.755	800.000	-0.051	0.147
-645.741	-46.548	-0.206	0.101
-644.726	253.071	-0.116	-0.199
-643.711	724.694	-0.056	0.150
-642.697	-108.415	-0.144	0.031
-641.682	768.873	-0.074	-0.203
-640.668	378.431	-0.215	-0.440
-639.653	67.125	0.142	0.145
-638.638	-200.000	-0.028	0.156
-637.624	-30.320	0.057	0.032
-636.609	-166.688	0.108	0.004
-635.595	-51.811	-0.278	-0.130
-634.580	-41.611	0.310	0.160
-633.565	-200.000	0.017	0.285
-632.551	-72.949	0.264	0.097
-631.536	-120.098	-0.132	-0.023
-630.522	53.902	0.188	0.181
-629.507	-26.353	-0.499	0.293
-628.492	-15.579	-0.180	-0.115
-627.478	95.510	-0.182	-0.207
-626.463	294.682	0.023	-0.042
-625.449	-151.504	-0.257	-0.019
-624.434	-200.000	0.012	-0.057
-623.419	153.617	-0.116	-0.159
-622.405	-5.200	0.332	0.229
-621.390	151.085	-0.065	-0.088
-620.376	800.000	-0.045	-0.139
-619.361	-76.382	-0.256	0.090
-618.346	800.000	-0.041	-0.114
-617.332	-105.450	0.254	0.058
-616.317	15.954	-0.057	0.045
-615.303	-94.247	0.319	-0.087
-614.288	-123.628	-0.088	-0.014
-613.273	800.000	-0.072	-0.234
-612.259	17.649	0.101	0.080
-611.244	800.000	-0.022	0.090
-610.230	-31.258	-0.132	-0.074
-609.215	800.000	0.049	0.201
-608.201	356.360	0.063	-0.125
-607.186	-145.410	-0.298	0.027
-606.171	525.042	-0.122	0.287
-605.157	226.272	-0.080	-0.130
-604.142	21.175	0.223	-0.181
-603.128	171.825	0.093	0.134
-602.113	-200.000	0.020	-0.237
-601.098	269.794	0.067	-0.119
-600.084	-7.178	0.254	-0.172
-599.069	800.000	0.022	0.079
-598.055	33.414	-0.239	0.208
-597.040	-103.711	-0.286	0.067
-596.025	-34.895	-0.247	-0.135
-595.011	-31.492	-0.293	0.165
-593.996	-149.107	-0.330	0.026
-592.982	-200.000	0.007	-0.282
-591.967	36.349	0.210	-0.185
-590.952	-76.819	-0.163	-0.057
-589.938	-82.100	0.328	-0.107
-588.923	-164.823	-0.068	-0.003
-587.909	-200.000	0.002	0.024
-586.894	-83.803	-0.173	0.055
-585.879	486.086	-0.009	0.020
-584.865	-200.000	-0.012	-0.328
-583.850	505.626	0.039	0.090
-582.836	-200.000	-0.085	-0.388
-581.821	177.978	-0.202	-0.295
-580.806	-95.863	-0.333	-0.089
-579.792	-143.318	-0.276	0.026
-578.777	118.718	0.002	-0.002
-577.763	228.941	0.055	-0.090
-576.748	107.759	-0.250	-0.297
-575.733	-200.000	0.007	-0.120
-574.719	-114.892	0.263	-0.050
-573.704	-16.116	-0.029	0.019
-572.690	758.482	-0.079	-0.213
-571.675	204.490	0.110	-0.171
-570.661	-45.227	-0.281	-0.140
-569.646	800.000	0.046	-0.185
-568.631	-31.017	0.213	-0.120
-567.617	165.464	0.129	0.182
-566.602	110.837	0.187	0.225
-565.588	-200.000	-0.001	0.153
-564.573	234.089	-0.119	0.196
-563.558	-200.000	-0.003	-0.128
-562.544	-77.941	0.153	0.053
-561.529	-200.000	0.060	-0.325
-560.515	-200.000	0.009	0.131
-559.500	-64.401	-0.158	0.064
-558.485	-6.731	-0.206	0.140
-557.471	-69.648	0.360	0.138
-556.456	250.854	-0.126	0.214
-555.442	-10.006	0.204	0.136
-554.427	-125.951	-0.077	-0.012
-553.412	-163.397	-0.210	0.010
-552.398	-200.000	0.000	-0.292
-551.383	25.560	-0.025	0.020
-550.369	-200.000	-0.004	-0.286
-549.354	-3.099	-0.130	0.091
-548.339	-200.000	0.010	-0.294
-547.325	-153.141	0.319	0.022
-546.310	-94.378	-0.044	0.012
-545.296	503.691	0.109	-0.251
-544.281	-69.618	-0.223	0.085
-543.266	207.049	-0.144	-0.224
-542.252	100.095	0.212	-0.245
-541.237	-57.266	-0.162	-0.071
-540.223	-90.877	-0.198	-0.057
-539.208	800.000	0.031	0.093
-538.193	5.942	0.168	-0.124
-537.179	800.000	0.014	0.046
-536.164	-198.723	-0.229	0.001
-535.150	-85.476	-0.147	-0.046
-534.135	-82.254	0.173	0.056
-533.121	800.000	0.035	-0.114
-532.106	298.354	-0.128	0.235
-531.091	62.158	-0.171	-0.171
-530.077	-131.221	-0.456	0.060
-529.062	-100.341	0.204	-0.050
-528.048	-163.099	0.119	-0.006
-527.033	-200.000	-0.023	-0.251
-526.018	-128.927	-0.112	-0.016
-525.004	800.000	0.024	-0.074
-523.989	-200.000	-0.016	0.078
-522.975	-135.123	-0.411	0.049
-521.960	-200.000	-0.023	-0.116
-520.945	178.484	-0.174	-0.254
-519.931	-130.265	-0.361	-0.049
-518.916	-47.124	0.213	0.104
-517.902	800.000	-0.029	-0.105
-516.887	228.744	-0.146	0.237
-515.872	-82.433	0.207	0.067
-514.858	-200.000	0.002	0.320
-513.843	72.319	0.150	0.156
-512.829	72.488	0.156	0.163
-511.814	186.797	0.158	0.234
-510.799	-200.000	-0.019	0.456
-509.785	365.349	-0.003	0.007
-508.770	482.914	0.154	-0.348
-507.756	-97.985	-0.339	-0.087
-506.741	166.073	0.258	0.364
-505.726	296.832	0.091	-0.167
-504.712	-109.931	0.281	0.059
-503.697	58.178	-0.090	0.088
-502.683	297.589	0.034	-0.062
-501.668	-54.991	0.296	-0.133
-500.653	-18.630	0.174	0.108
-499.639	-200.000	-0.029	0.258
-498.624	800.000	0.064	-0.191
-497.610	-28.711	0.165	0.095
-496.595	-109.914	-0.263	0.055
-495.581	800.000	0.143	0.418
-494.566	-200.000	0.003	0.099
-493.551	-107.996	0.340	0.073
-492.537	388.163	-0.201	0.415
-491.522	-114.681	0.275	0.052
-490.508	36.473	0.060	-0.053
-489.493	438.983	-0.008	0.017
-488.478	-200.000	0.019	0.256
-487.464	-55.567	-0.284	0.127
-486.449	800.000	-0.074	-0.207
-485.435	12.919	0.181	0.139
-484.420	5.381	-0.160	-0.117
-483.405	-82.685	0.124	0.040
-482.391	-200.000	0.009	0.056
-481.376	-18.033	0.258	0.161
-480.362	67.270	0.277	-0.281
-479.347	-200.000	0.056	-0.259
-478.332	500.826	0.034	0.078
-477.318	-35.775	0.332	0.179
-476.303	242.081	-0.161	0.267
-475.289	487.003	0.041	0.092
-474.274	-111.726	-0.273	-0.055
-473.259	-200.000	0.024	-0.297
-472.245	153.533	-0.156	0.212
-471.230	800.000	-0.039	0.165
-470.216	-66.086	-0.110	0.044
-469.201	-80.202	0.156	0.052
-468.186	-100.808	-0.180	-0.044
-467.172	-61.637	0.289	-0.121
-466.157	-200.000	0.011	0.062
-465.143	232.940	-0.262	-0.428
-464.128	12.136	0.197	-0.151
-463.113	96.700	0.083	-0.095
-462.099	-94.623	-0.067	0.018
-461.084	800.000	-0.086	-0.325
-460.070	-139.035	-0.242	-0.026
-459.055	-200.000	0.001	-0.293
-458.040	-62.459	0.263	0.109
-457.026	800.000	0.114	-0.342
-456.011	-0.286	-0.217	0.153
-454.997	-100.803	0.209	0.051
-453.982	800.000	0.061	-0.198
-452.968	-151.187	-0.216	-0.016
-451.953	237.502	-0.102	-0.168
-450.938	-69.455	0.058	0.022
-449.924	-200.000	0.100	0.000
-448.909	-200.000	-0.038	0.299
-447.895	800.000	0.008	0.026
-446.880	81.810	0.066	-0.071
-445.865	-200.000	-0.028	-0.194
-444.851	-141.275	0.174	0.018
-443.836	-124.068	-0.272	0.043
-442.822	7.486	-0.228	0.170
-441.807	-6.375	-0.206	-0.140
-440.792	108.642	0.125	0.149
-439.778	-45.898	0.128	0.063
-438.763	-189.989	0.048	0.001
-437.749	-117.761	-0.173	-0.031
-436.734	-200.000	0.030	-0.260
-435.719	-47.570	0.130	-0.063
-434.705	215.254	-0.086	-0.135
-433.690	270.282	0.064	-0.112
-432.676	32.548	-0.160	0.138
-431.661	383.099	-0.204	0.417
-430.646	800.000	-0.097	0.366
-429.632	-60.233	-0.232	-0.098
-428.617	672.628	0.007	0.019
-427.603	12.456	-0.316	0.242
-426.588	215.959	0.045	0.071
-425.573	131.577	0.043	-0.055
-424.559	-97.660	0.150	-0.039
-423.544	68.648	0.135	0.138
-422.530	-138.371	0.558	0.061
-421.515	-117.996	-0.222	0.040
-420.500	-200.000	-0.030	-0.291
-419.486	-200.000	-0.022	-0.121
-418.471	-200.000	-0.010	0.150
-417.457	59.057	0.140	0.137
-416.442	87.679	0.352	0.387
-415.428	-44.559	-0.165	-0.082
-414.413	16.572	0.140	0.110
-413.398	266.697	0.059	0.103
-412.384	-111.808	0.303	-0.061
-411.369	-6.685	-0.018	0.012
-410.355	466.003	0.063	0.140
-409.340	-64.840	-0.282	-0.113
-408.325	391.801	0.123	-0.253
-407.311	-200.000	-0.051	-0.338
-406.296	484.043	0.070	0.158
-405.282	-200.000	-0.024	-0.262
-404.267	-200.000	-0.021	-0.266
-403.252	-146.828	-0.286	-0.024
-402.238	484.147	-0.074	-0.167
-401.223	-41.259	-0.128	0.066
-400.209	691.509	0.018	0.046
-399.194	-200.000	0.003	-0.199
-398.179	419.996	-0.057	-0.121
-397.165	-200.000	-0.007	-0.185
-396.150	-133.729	0.240	-0.030
-395.136	-200.000	-0.010	-0.113
-394.121	-128.307	0.238	-0.034
-393.106	87.880	-0.102	-0.112
-392.092	-93.782	0.113	0.031
-391.077	-119.208	-0.280	-0.049
-390.063	2.564	-0.191	-0.137
-389.048	-133.124	0.169	-0.021
-388.033	-158.244	-0.045	0.003
-387.019	335.601	-0.113	-0.217
-386.004	-137.257	-0.269	0.030
-384.990	-45.614	-0.177	0.087
-383.975	44.720	0.069	-0.063
-382.960	-91.227	0.286	0.081
-381.946	-200.000	-0.053	0.337
-380.931	-2.070	-0.246	0.171
-379.917	85.904	-0.107	-0.117
-378.902	-32.063	0.140	-0.078
-377.888	-132.161	0.071	-0.009
-376.873	77.518	0.167	0.177
-375.858	-200.000	0.029	0.176
-374.844	169.812	-0.170	0.241
-373.829	288.444	0.071	-0.128
-372.815	150.141	0.199	0.267
-371.800	-198.746	0.258	0.001
-370.785	-135.350	-0.315	0.037
-369.771	800.000	-0.065	0.197
-368.756	566.094	-0.109	0.262
-367.742	45.450	-0.238	-0.218
-366.727	-189.870	0.234	-0.003
-365.712	104.421	-0.158	0.185
-364.698	-100.329	0.364	-0.090
-363.683	-200.000	0.031	0.240
-362.669	800.000	0.049	-0.140
-361.654	-162.955	0.224	0.011
-360.639	-66.038	-0.220	0.087
-359.625	-200.000	-0.007	-0.294
-358.610	-200.000	0.053	-0.234
-357.596	-79.920	0.271	-0.090
-356.581	-37.527	-0.238	-0.126
-355.566	-94.750	-0.052	0.014
-354.552	-65.548	-0.231	-0.092
-353.537	221.546	-0.088	-0.141
-352.523	-56.124	0.048	-0.021
-351.508	-10.482	0.224	0.147
-350.493	115.991	-0.061	0.074
-349.479	-33.020	-0.249	0.137
-348.464	-200.000	0.002	0.123
-347.450	110.050	-0.141	0.168
-346.435	54.661	-0.348	0.332
-345.420	70.845	0.303	0.311
-344.406	-45.253	-0.226	-0.111
-343.391	163.238	0.109	-0.152
-342.377	92.224	-0.179	-0.200
-341.362	40.273	0.137	-0.122
-340.348	-200.000	-0.006	0.316
-339.333	137.873	0.111	0.143
-338.318	800.000	0.084	-0.288
-337.304	383.576	0.071	0.144
-336.289	112.302	0.144	-0.172
-335.275	367.743	-0.142	-0.284
-334.260	-159.525	0.318	-0.017
-333.245	-200.000	-0.032	-0.294
-332.231	65.581	0.186	-0.186
-331.216	23.677	0.104	-0.085
-330.202	-135.198	0.206	-0.024
-329.187	143.127	-0.207	-0.273
-328.172	159.639	-0.042	0.058
-327.158	-89.017	-0.166	-0.049
-326.143	-54.115	0.208	0.094
-325.129	-40.031	0.137	-0.071
-324.114	-84.137	0.381	0.120
-323.099	252.038	0.159	-0.268
-322.085	-128.245	-0.182	0.026
-321.070	-109.756	-0.153	-0.032
-320.056	-55.316	0.234	0.104
-319.041	-115.237	-0.115	0.022
-318.026	-54.047	-0.173	-0.078
-317.012	800.000	0.084	0.340
-315.997	378.778	-0.118	0.239
-314.983	0.623	0.115	0.081
-313.968	4.679	-0.123	0.089
-312.953	-200.000	-0.005	-0.100
-311.939	800.000	-0.042	0.146
-310.924	-131.777	0.436	0.057
-309.910	-200.000	-0.017	-0.253
-308.895	-21.586	-0.114	0.069
-307.880	800.000	-0.047	-0.139
-306.866	800.000	-0.060	-0.170
-305.851	-200.000	-0.009	-0.074
-304.837	-90.391	-0.164	-0.047
-303.822	332.192	-0.057	-0.108
-302.807	-31.680	0.021	-0.012
-301.793	-87.392	0.324	-0.097
-300.778	-55.784	-0.352	0.155
-299.764	-124.615	-0.195	0.030
-298.749	-142.691	-0.201	-0.019
-297.735	-137.186	0.236	-0.027
-296.720	30.786	0.308	-0.261
-295.705	-83.290	-0.375	-0.119
-294.691	-72.700	0.046	-0.017
-293.676	-200.000	-0.011	0.308
-292.662	251.525	0.235	-0.395
-291.647	800.000	-0.049	-0.181
-290.632	94.622	-0.168	-0.189
-289.618	156.745	-0.220	0.300
-288.603	73.232	0.288	-0.298
-287.589	-115.641	0.254	0.047
-286.574	-200.000	-0.053	-0.333
-285.559	91.419	-0.209	-0.231
-284.545	666.372	0.081	0.206
-283.530	-8.889	-0.187	-0.124
-282.516	-98.620	-0.221	0.056
-281.501	42.570	-0.196	0.176
-280.486	-83.667	-0.147	0.046
-279.472	34.373	0.088	0.076
-278.457	-200.000	0.010	0.244
-277.443	-76.252	0.434	0.151
-276.428	666.202	-0.191	0.488
-275.413	565.710	0.119	0.284
-274.399	-68.070	-0.396	0.152
-273.384	-200.000	-0.022	0.179
-272.370	-200.000	-0.017	0.166
-271.355	-145.081	0.076	-0.007
-270.340	59.863	-0.121	-0.118
-269.326	-46.040	-0.411	0.200
-268.311	-200.000	-0.019	0.375
-267.297	-4.566	0.244	0.166
-266.282	-17.773	0.299	0.185
-265.267	-146.796	-0.205	-0.017
-264.253	149.979	-0.123	0.164
-263.238	50.698	-0.127	0.119
-262.224	-9.127	0.145	-0.096
-261.209	800.000	-0.027	0.115
-260.195	-118.215	-0.473	0.083
-259.180	-69.907	0.084	-0.032
-258.165	64.520	0.078	0.078
-257.151	-21.005	-0.321	0.194
-256.136	261.758	0.202	0.346
-255.122	-200.000	-0.005	0.244
-254.107	-200.000	0.030	-0.349
-253.092	575.872	-0.135	-0.325
-252.078	-126.305	-0.247	-0.036
-251.063	-170.721	0.322	-0.011
-250.049	-65.212	0.120	0.048
-249.034	-2.918	0.260	0.179
-248.019	-176.879	0.169	-0.004
-247.005	435.831	-0.141	0.303
-245.990	-59.434	-0.416	0.176
-244.976	-10.354	0.046	0.030
-243.961	422.700	0.062	-0.132
-242.946	20.550	-0.064	-0.051
-241.932	-200.000	0.054	0.252
-240.917	-114.590	0.188	-0.035
-239.903	-13.311	0.108	0.069
-238.888	525.122	-0.028	0.064
-237.873	-200.000	0.006	-0.046
-236.859	-71.796	0.372	0.137
-235.844	409.978	0.031	-0.065
-234.830	-144.358	0.252	0.023
-233.815	465.293	-0.073	-0.162
-232.800	201.357	0.078	0.119
-231.786	43.271	-0.084	0.075
-230.771	-125.705	0.100	-0.015
-229.757	159.079	-0.056	-0.077
-228.742	-136.087	0.213	-0.025
-227.727	-200.000	-0.007	-0.420
-226.713	292.705	-0.187	-0.337
-225.698	-154.611	-0.035	-0.002
-224.684	1.761	0.195	-0.139
-223.669	-82.759	0.432	-0.138
-222.655	-118.167	-0.331	0.058
-221.640	60.196	0.180	0.176
-220.625	19.060	0.209	0.165
-219.611	-149.814	-0.161	0.012
-218.596	28.996	-0.073	-0.061
-217.582	-200.000	-0.038	0.180
-216.567	-129.927	0.324	-0.044
-215.552	43.858	-0.201	-0.182
-214.538	-88.265	0.249	-0.073
-213.523	122.616	-0.182	0.224
-212.509	27.037	-0.175	0.144
-211.494	-4.530	0.330	0.225
-210.479	-31.921	-0.075	-0.041
-209.465	-1.199	0.047	0.033
-208.450	-63.809	-0.177	-0.072
-207.436	-94.530	-0.218	0.059
-206.421	246.228	0.192	0.318
-205.406	800.000	-0.053	0.158
-204.392	437.746	-0.201	-0.431
-203.377	656.509	-0.006	-0.014
-202.363	45.070	-0.148	0.134
-201.348	-139.984	-0.455	0.047
-200.333	-149.191	0.178	0.014
-199.319	800.000	0.162	0.443
-198.304	-74.341	-0.181	0.064
-197.290	-127.828	-0.080	0.011
-196.275	-200.000	-0.022	0.201
-195.260	-153.611	-0.102	0.007
-194.246	270.359	0.065	-0.112
-193.231	-200.000	-0.010	0.284
-192.217	7.646	-0.103	0.076
-191.202	662.848	0.041	-0.104
-190.187	455.488	0.120	-0.263
-189.173	-68.648	0.267	-0.102
-188.158	-83.588	-0.073	0.023
-187.144	46.281	0.203	-0.185
-186.129	54.856	0.199	-0.189
-185.114	-43.042	0.122	-0.061
-184.100	-200.000	-0.018	-0.122
-183.085	-46.649	-0.200	-0.096
-182.071	75.817	-0.179	-0.186
-181.056	630.811	0.033	0.083
-180.042	180.242	0.073	-0.105
-179.027	-200.000	-0.006	-0.047
-178.012	-200.000	-0.019	-0.177
-176.998	664.664	0.108	0.273
-175.983	-58.930	-0.256	-0.109
-174.969	-38.566	-0.069	0.036
-173.954	-200.000	0.007	0.091
-172.939	-46.287	0.074	0.036
-171.925	-158.291	0.056	-0.003
-170.910	201.711	-0.144	-0.218
-169.896	-74.112	0.293	-0.104
-168.881	29.941	0.162	0.136
-167.866	92.592	0.094	0.104
-166.852	-200.000	-0.004	-0.122
-165.837	252.024	0.117	0.196
-164.823	127.675	-0.139	-0.173
-163.808	435.690	0.029	-0.062
-162.793	33.956	0.119	0.102
-161.779	-152.126	0.196	0.014
-160.764	172.568	-0.076	-0.108
-159.750	-124.068	0.226	-0.035
-158.735	145.497	0.136	0.179
-157.720	-132.200	0.217	0.028
-156.706	-130.277	0.345	0.046
-155.691	-96.509	0.187	-0.049
-154.677	-22.104	0.263	-0.157
-153.662	-148.078	0.346	-0.028
-152.647	-100.703	0.071	-0.017
-151.633	24.860	0.426	0.347
-150.618	273.981	-0.092	0.160
-149.604	-84.847	0.147	-0.045
-148.589	-117.979	-0.345	0.061
-147.574	-115.322	-0.438	0.081
-146.560	111.266	-0.076	0.091
-145.545	800.000	0.063	0.181
-144.531	-200.000	-0.012	0.203
-143.516	-64.069	0.154	0.062
-142.502	-17.548	0.122	0.075
-141.487	-60.993	0.272	0.113
-140.472	800.000	-0.093	-0.316
-139.458	-74.622	0.238	-0.084
-138.443	1.772	0.175	0.124
-137.429	-200.000	0.002	0.266
-136.414	294.480	-0.045	0.081
-135.399	800.000	-0.046	-0.173
-134.385	110.113	-0.070	0.083
-133.370	23.190	0.378	0.305
-132.356	185.198	0.154	0.224
-131.341	-31.744	-0.222	-0.122
-130.326	74.272	0.081	0.084
-129.312	117.548	0.032	-0.039
-128.297	-43.354	-0.184	0.091
-127.283	-200.000	0.006	-0.126
-126.268	42.648	-0.306	-0.273
-125.253	89.151	0.161	0.176
-124.239	-200.000	-0.032	-0.308
-123.224	-52.890	0.132	0.060
-122.210	-147.209	0.370	0.031
