DTS Sentinel unit serial number:	SN413079Multiplexer serial number:	ORYXHardware model number:	OX4-SRSoftware version number:	ORYX F/W v4.00 Oryx Data Collector v3.7.2.0data status	okinstallation	princeton_trtdifferential loss correction	single-endedforward channel	channel 1reverse channel	N/Adate	2019/09/14time	02:30:35forward acquisition time	60.00reverse acquisition time	0.00gamma	496.2192k internal	0.2336k external	0.2336temperature offset calibration	1.0077default loss term (dB/km)	0.3790temperature slope calibration	1.0000multiplexer offset coefficient	1.0000multiplexer slope coefficient	1.0000fibre end	0.00T internal ref (°C)	26.53T ext. ref 1 (°C)	3.22T ext. ref 2 (°C)	21.45length (m)	temperature (°C)	Stokes	anti-Stokes-747.200	-200.000	-0.016	0.158
-746.185	531.131	-0.030	0.071
-745.171	104.203	0.317	0.375
-744.156	-143.534	-0.236	-0.023
-743.142	60.607	-0.067	0.066
-742.127	462.842	-0.058	0.131
-741.112	28.200	0.206	0.175
-740.098	-99.387	0.229	0.058
-739.083	800.000	0.143	0.473
-738.069	1.864	0.314	0.227
-737.054	4.222	-0.146	-0.107
-736.039	314.739	-0.133	0.251
-735.025	800.000	0.102	0.294
-734.010	-39.853	-0.156	-0.082
-732.996	-49.393	-0.196	-0.094
-731.981	800.000	0.120	0.336
-730.966	-200.000	-0.007	-0.067
-729.952	-200.000	0.032	0.396
-728.937	800.000	-0.086	0.352
-727.923	475.622	-0.177	0.402
-726.908	-113.202	-0.219	-0.043
-725.894	-97.410	-0.344	-0.090
-724.879	-200.000	-0.001	0.056
-723.864	-81.570	-0.672	-0.222
-722.850	-200.000	-0.032	-0.379
-721.835	148.933	-0.080	0.109
-720.821	112.173	0.261	-0.316
-719.806	-107.014	-0.145	0.032
-718.791	198.494	0.050	0.077
-717.777	-200.000	-0.005	-0.401
-716.762	-74.515	-0.113	-0.041
-715.748	-200.000	-0.004	0.165
-714.733	-200.000	-0.022	-0.106
-713.718	123.139	-0.133	0.167
-712.704	-200.000	-0.018	-0.150
-711.689	-116.268	-0.206	0.038
-710.675	434.084	0.179	0.390
-709.660	330.234	-0.064	0.124
-708.645	-75.569	0.201	0.072
-707.631	11.405	-0.044	-0.034
-706.616	-200.000	0.074	-0.371
-705.602	33.345	-0.247	0.215
-704.587	191.373	0.233	-0.352
-703.572	74.983	0.217	0.230
-702.558	-16.140	-0.077	-0.049
-701.543	-20.913	0.060	0.037
-700.529	800.000	-0.125	0.360
-699.514	147.802	0.187	0.253
-698.499	-200.000	0.044	0.236
-697.485	-34.082	0.188	0.104
-696.470	800.000	0.037	-0.127
-695.456	-74.447	0.217	0.079
-694.441	-73.910	-0.114	0.041
-693.426	800.000	-0.070	0.297
-692.412	118.695	-0.210	0.260
-691.397	-148.035	-0.275	0.023
-690.383	111.048	-0.107	-0.129
-689.368	171.527	-0.023	0.033
-688.354	-5.881	0.086	0.059
-687.339	-200.000	0.065	-0.455
-686.324	518.145	0.043	-0.102
-685.310	-198.061	0.129	0.001
-684.295	44.681	-0.248	-0.228
-683.281	800.000	-0.058	0.220
-682.266	-83.409	0.108	0.035
-681.251	-163.937	0.343	-0.016
-680.237	-84.485	0.223	-0.071
-679.222	-120.477	-0.341	-0.058
-678.208	-87.287	-0.165	0.050
-677.193	33.615	-0.107	0.093
-676.178	129.063	0.296	0.378
-675.164	-8.948	-0.166	-0.111
-674.149	-200.000	0.028	-0.246
-673.135	800.000	0.129	0.387
-672.120	5.284	-0.276	-0.204
-671.105	800.000	-0.077	-0.252
-670.091	-90.236	0.144	0.042
-669.076	125.642	-0.157	0.199
-668.062	-32.272	0.314	0.176
-667.047	17.856	-0.115	-0.092
-666.032	-43.591	-0.132	-0.067
-665.018	-134.746	0.363	0.044
-664.003	-90.565	-0.204	-0.059
-662.989	-124.257	0.356	0.056
-661.974	118.469	-0.203	-0.251
-660.959	-53.419	-0.041	0.019
-659.945	-82.402	0.344	0.112
-658.930	-55.704	-0.345	-0.155
-657.916	218.865	-0.102	0.163
-656.901	36.137	0.105	0.092
-655.886	455.375	-0.058	-0.129
-654.872	104.802	0.101	0.119
-653.857	38.418	-0.059	0.053
-652.843	118.217	-0.134	-0.165
-651.828	339.025	0.153	-0.298
-650.814	-108.671	-0.147	-0.032
-649.799	603.523	-0.057	-0.142
-648.784	-200.000	-0.014	-0.143
-647.770	166.604	0.022	-0.032
-646.755	-200.000	0.016	0.141
-645.741	703.387	0.034	0.091
-644.726	-63.892	0.098	0.040
-643.711	-34.259	-0.376	-0.206
-642.697	800.000	-0.017	0.054
-641.682	35.037	0.321	-0.281
-640.668	800.000	-0.055	-0.174
-639.653	800.000	0.054	-0.229
-638.638	-61.344	0.109	-0.046
-637.624	199.276	-0.030	0.046
-636.609	-200.000	0.039	0.190
-635.595	-9.435	0.079	-0.053
-634.580	279.858	-0.228	-0.408
-633.565	-132.497	-0.099	0.013
-632.551	-107.516	-0.249	-0.054
-631.536	-104.851	0.116	-0.027
-630.522	-88.063	-0.258	0.077
-629.507	-200.000	0.003	0.335
-628.492	510.473	0.034	0.080
-627.478	20.629	0.092	0.074
-626.463	65.668	0.236	-0.239
-625.449	151.143	-0.171	-0.233
-624.434	-200.000	-0.029	-0.287
-623.419	88.841	-0.148	-0.165
-622.405	-180.820	-0.284	-0.006
-621.390	254.307	0.048	-0.082
-620.376	-24.876	0.013	0.007
-619.361	-117.381	-0.229	0.042
-618.346	101.139	-0.097	-0.113
-617.332	800.000	0.145	0.457
-616.317	85.530	0.088	-0.097
-615.303	76.220	0.177	-0.187
-614.288	20.916	-0.222	-0.180
-613.273	-62.263	0.305	-0.127
-612.259	-31.325	0.247	-0.139
-611.244	98.891	-0.137	-0.158
-610.230	-200.000	-0.041	0.245
-609.215	-121.203	-0.109	-0.018
-608.201	-22.303	0.135	0.082
-607.186	-42.548	-0.063	0.032
-606.171	68.164	0.015	-0.015
-605.157	17.867	-0.526	0.419
-604.142	-200.000	0.018	-0.160
-603.128	653.090	0.072	-0.184
-602.113	-200.000	0.006	0.037
-601.098	-8.831	0.060	0.040
-600.084	379.800	-0.086	0.176
-599.069	-79.870	-0.207	-0.070
-598.055	800.000	0.084	-0.255
-597.040	-200.000	0.004	-0.263
-596.025	-129.350	0.071	-0.010
-595.011	-38.990	0.284	-0.150
-593.996	-69.151	0.304	0.117
-592.982	-45.931	-0.044	0.022
-591.967	211.903	0.090	-0.141
-590.952	-115.399	0.135	-0.025
-589.938	-187.744	0.247	-0.003
-588.923	800.000	-0.083	-0.248
-587.909	-25.711	0.136	-0.080
-586.894	-27.089	0.252	0.147
-585.879	45.102	0.155	-0.143
-584.865	-103.265	0.286	-0.067
-583.850	76.204	-0.172	0.181
-582.836	-150.708	-0.125	0.009
-581.821	-23.987	0.109	-0.065
-580.806	235.163	0.076	0.125
-579.792	-163.252	0.285	-0.014
-578.777	-200.000	0.013	0.062
-577.763	259.175	-0.109	0.188
-576.748	-163.671	-0.312	0.015
-575.733	-200.000	-0.025	0.253
-574.719	183.923	-0.134	0.197
-573.704	-95.672	0.086	0.023
-572.690	-62.168	-0.118	0.049
-571.675	-39.212	-0.307	0.161
-570.661	3.084	-0.166	0.120
-569.646	133.547	0.101	-0.130
-568.631	317.534	-0.027	0.050
-567.617	-24.107	0.136	-0.081
-566.602	-105.764	-0.175	0.039
-565.588	265.605	0.123	-0.214
-564.573	-48.953	0.203	-0.097
-563.558	131.978	0.167	0.215
-562.544	99.509	0.118	0.137
-561.529	106.326	-0.095	0.113
-560.515	-63.352	0.503	-0.206
-559.500	741.312	0.148	-0.395
-558.485	-200.000	-0.041	0.260
-557.471	3.669	-0.091	-0.066
-556.456	-59.274	0.122	-0.053
-555.442	189.911	-0.196	0.294
-554.427	-132.285	-0.235	-0.030
-553.412	292.785	-0.086	-0.157
-552.398	-151.812	0.051	-0.004
-551.383	-179.355	0.129	0.003
-550.369	274.247	-0.068	-0.120
-549.354	-200.000	-0.050	0.421
-548.339	-200.000	-0.043	0.452
-547.325	415.482	0.022	0.046
-546.310	353.905	-0.035	-0.070
-545.296	307.842	0.083	-0.155
-544.281	69.001	-0.116	0.119
-543.266	224.164	-0.060	-0.097
-542.252	230.409	0.284	0.462
-541.237	-128.214	-0.334	-0.047
-540.223	539.043	-0.055	-0.131
-539.208	-200.000	0.031	0.211
-538.193	36.455	0.094	-0.083
-537.179	-132.890	0.142	0.018
-536.164	-170.727	0.146	0.005
-535.150	533.700	-0.015	0.035
-534.135	-6.110	-0.142	0.097
-533.121	53.035	0.203	-0.194
-532.106	34.726	-0.138	-0.120
-531.091	-47.275	-0.369	-0.179
-530.077	-4.603	-0.392	-0.270
-529.062	227.824	0.123	0.200
-528.048	226.963	-0.184	0.298
-527.033	-66.738	0.252	0.099
-526.018	-144.252	-0.366	-0.034
-525.004	800.000	0.119	0.448
-523.989	267.028	-0.043	0.074
-522.975	-19.884	-0.315	-0.194
-521.960	392.884	-0.063	-0.130
-520.945	-28.044	0.224	0.129
-519.931	-81.078	-0.337	-0.111
-518.916	-79.876	0.138	0.046
-517.902	21.520	0.239	-0.193
-516.887	-9.707	-0.152	0.101
-515.872	363.836	0.085	0.170
-514.858	-91.343	-0.143	-0.041
-513.843	-134.518	0.168	0.020
-512.829	-83.647	0.078	0.025
-511.814	-200.000	0.006	-0.132
-510.799	205.796	-0.104	0.161
-509.785	-72.744	-0.479	0.176
-508.770	408.261	0.103	0.217
-507.756	800.000	-0.090	-0.367
-506.741	208.611	0.186	-0.290
-505.726	104.777	-0.073	-0.086
-504.712	-100.170	-0.215	-0.053
-503.697	-119.578	-0.123	-0.021
-502.683	-200.000	0.017	-0.306
-501.668	-167.062	-0.329	0.013
-500.653	-200.000	-0.013	-0.194
-499.639	-37.271	-0.039	0.021
-498.624	346.929	0.174	0.340
-497.610	31.837	0.196	0.168
-496.595	-115.483	-0.277	-0.052
-495.581	800.000	0.078	-0.272
-494.566	21.530	0.092	-0.074
-493.551	246.341	0.091	-0.153
-492.537	-126.322	-0.366	-0.054
-491.522	75.906	0.110	-0.115
-490.508	136.211	0.129	0.167
-489.493	-124.511	-0.221	0.034
-488.478	-129.256	0.263	-0.037
-487.464	-200.000	-0.066	-0.391
-486.449	-116.999	0.226	-0.041
-485.435	-200.000	-0.032	-0.188
-484.420	57.744	-0.079	-0.077
-483.405	191.252	-0.118	0.177
-482.391	800.000	0.056	-0.162
-481.376	72.691	-0.127	-0.132
-480.362	-200.000	-0.001	-0.175
-479.347	48.956	-0.067	-0.062
-478.332	168.859	-0.141	-0.200
-477.318	-14.087	0.256	-0.164
-476.303	379.655	-0.202	-0.412
-475.289	-88.955	-0.179	0.053
-474.274	800.000	-0.082	-0.338
-473.259	800.000	0.048	0.167
-472.245	-171.038	-0.351	-0.012
-471.230	-15.863	0.175	-0.111
-470.216	519.645	0.105	-0.245
-469.201	-80.987	0.315	0.104
-468.186	310.815	-0.091	-0.170
-467.172	134.664	0.147	-0.190
-466.157	-200.000	-0.029	0.465
-465.143	-200.000	0.035	-0.289
-464.128	76.335	-0.273	-0.287
-463.113	-125.032	-0.142	0.022
-462.099	490.641	0.102	-0.232
-461.084	-200.000	0.008	0.111
-460.070	-28.570	-0.362	-0.207
-459.055	-13.198	0.126	0.081
-458.040	116.361	0.063	0.076
-457.026	-46.069	-0.465	0.228
-456.011	-89.199	0.111	0.033
-454.997	-2.872	-0.082	-0.057
-453.982	-150.602	-0.212	0.016
-452.968	90.401	0.065	0.072
-451.953	-131.206	0.372	-0.049
-450.938	146.722	0.027	-0.036
-449.924	172.657	0.255	-0.364
-448.909	-56.466	-0.177	0.078
-447.895	-141.569	-0.101	0.010
-446.880	-71.290	0.199	-0.074
-445.865	-174.414	-0.171	-0.005
-444.851	-200.000	0.007	0.037
-443.836	-73.224	-0.161	0.058
-442.822	-60.252	-0.273	0.115
-441.807	-180.694	-0.357	-0.007
-440.792	249.607	-0.123	0.206
-439.778	-141.774	0.194	0.019
-438.763	39.160	0.314	-0.278
-437.749	-1.593	-0.117	-0.082
-436.734	-15.260	-0.281	-0.179
-435.719	387.422	0.208	0.426
-434.705	-5.554	0.269	0.183
-433.690	-6.230	-0.171	0.116
-432.676	-200.000	-0.032	-0.163
-431.661	15.067	-0.207	-0.161
-430.646	-77.766	-0.218	-0.075
-429.632	-200.000	-0.010	-0.316
-428.617	-200.000	0.021	-0.104
-427.603	460.991	0.084	0.187
-426.588	-94.470	0.253	0.068
-425.573	-57.785	-0.379	-0.164
-424.559	-125.586	-0.074	0.011
-423.544	119.923	-0.142	0.174
-422.530	-29.210	0.283	0.161
-421.515	-120.032	-0.221	0.038
-420.500	-200.000	-0.013	0.071
-419.486	-200.000	0.030	-0.243
-418.471	74.733	-0.169	0.177
-417.457	-160.333	0.162	0.009
-416.442	0.436	-0.023	0.016
-415.428	101.470	0.166	0.192
-414.413	51.107	-0.194	-0.183
-413.398	-132.629	0.110	0.014
-412.384	16.464	0.308	-0.241
-411.369	-10.593	-0.050	0.033
-410.355	-162.728	0.480	0.023
-409.340	-85.473	-0.161	-0.050
-408.325	-55.216	-0.099	0.044
-407.311	-39.581	0.132	0.068
-406.296	-66.752	0.057	0.023
-405.282	-135.007	0.213	-0.026
-404.267	-30.938	0.307	-0.172
-403.252	-200.000	0.027	-0.204
-402.238	63.865	-0.238	0.237
-401.223	-200.000	0.017	-0.114
-400.209	-122.482	-0.132	-0.021
-399.194	-14.380	-0.159	-0.101
-398.179	-11.868	0.075	-0.049
-397.165	10.323	0.097	-0.073
-396.150	-46.124	-0.307	-0.150
-395.136	-200.000	0.045	-0.198
-394.121	-200.000	0.224	-0.000
-393.106	800.000	0.108	0.367
-392.092	229.871	-0.220	-0.355
-391.077	-200.000	0.007	-0.324
-390.063	-200.000	0.006	0.116
-389.048	-200.000	0.054	-0.270
-388.033	-89.409	-0.015	-0.004
-387.019	502.227	0.102	0.233
-386.004	-29.382	0.164	-0.093
-384.990	10.969	-0.344	-0.260
-383.975	-126.476	0.258	0.038
-382.960	-158.632	0.126	0.007
-381.946	-39.785	0.113	0.058
-380.931	91.413	-0.271	-0.302
-379.917	-200.000	0.086	-0.595
-378.902	-66.863	-0.375	-0.147
-377.888	-126.975	-0.335	0.049
-376.873	295.592	0.105	0.190
-375.858	163.744	-0.136	-0.189
-374.844	-41.206	-0.251	-0.128
-373.829	-200.000	-0.008	-0.068
-372.815	0.066	0.462	0.326
-371.800	-35.453	-0.278	0.150
-370.785	-121.530	0.212	-0.035
-369.771	-107.521	-0.368	0.080
-368.756	-129.024	-0.224	0.031
-367.742	-11.005	0.116	0.076
-366.727	-69.757	-0.306	-0.116
-365.712	-200.000	0.020	-0.139
-364.698	-7.108	-0.349	0.234
-363.683	800.000	0.108	0.340
-362.669	337.137	0.079	0.151
-361.654	-96.590	-0.203	-0.053
-360.639	158.673	-0.110	-0.151
-359.625	-200.000	-0.011	-0.264
-358.610	8.799	0.364	-0.272
-357.596	-77.363	-0.300	-0.103
-356.581	112.255	0.086	-0.103
-355.566	-100.493	0.461	0.113
-354.552	-112.278	0.375	-0.074
-353.537	11.092	-0.049	-0.037
-352.523	111.901	0.152	0.181
-351.508	-74.666	-0.061	-0.022
-350.493	-200.000	0.017	-0.187
-349.479	-200.000	0.020	-0.139
-348.464	123.689	-0.082	0.102
-347.450	-200.000	-0.012	0.088
-346.435	-165.258	0.156	-0.007
-345.420	110.178	0.078	-0.092
-344.406	699.112	-0.046	0.120
-343.391	-74.504	-0.102	0.036
-342.377	1.213	-0.237	-0.168
-341.362	-200.000	0.004	0.239
-340.348	460.526	-0.082	-0.180
-339.333	22.916	0.107	0.087
-338.318	115.302	-0.189	0.228
-337.304	285.477	0.080	-0.143
-336.289	-27.983	0.188	-0.108
-335.275	13.447	0.253	0.194
-334.260	-115.050	0.292	0.055
-333.245	170.408	0.267	0.378
-332.231	-136.172	-0.277	0.032
-331.216	-58.374	0.281	0.121
-330.202	205.827	0.042	0.064
-329.187	-86.102	0.172	-0.053
-328.172	-123.589	0.191	-0.030
-327.158	121.742	0.149	0.183
-326.143	-194.149	0.364	-0.003
-325.129	349.932	-0.063	0.124
-324.114	-58.349	-0.164	0.070
-323.099	-103.124	0.297	-0.070
-322.085	-200.000	0.027	0.206
-321.070	-147.513	0.263	0.022
-320.056	294.475	-0.062	0.112
-319.041	-92.328	0.200	-0.056
-318.026	145.627	-0.184	0.243
-317.012	271.139	-0.055	0.096
-315.997	800.000	-0.065	-0.227
-314.983	-100.816	-0.305	0.074
-313.968	-16.774	0.017	0.011
-312.953	53.591	0.059	-0.056
-311.939	-94.466	0.162	0.044
-310.924	133.332	0.103	-0.132
-309.910	-12.596	-0.094	0.061
-308.895	0.999	-0.121	0.086
-307.880	-58.263	-0.164	0.071
-306.866	206.500	0.123	-0.189
-305.851	-3.207	-0.115	0.079
-304.837	-200.000	-0.050	-0.249
-303.822	96.849	-0.223	0.253
-302.807	-89.464	0.180	0.052
-301.793	-89.897	-0.139	-0.040
-300.778	-200.000	0.038	0.487
-299.764	-36.508	0.008	-0.004
-298.749	-200.000	-0.053	-0.341
-297.735	-125.523	0.147	0.022
-296.720	21.720	-0.142	0.114
-295.705	-44.627	0.109	0.054
-294.691	800.000	0.068	0.219
-293.676	-200.000	0.034	0.170
-292.662	-75.106	0.155	0.055
-291.647	-96.465	-0.181	0.047
-290.632	544.316	0.068	0.161
-289.618	642.112	0.069	-0.173
-288.603	-37.996	-0.326	0.171
-287.589	-173.393	0.219	0.007
-286.574	-200.000	0.015	0.077
-285.559	157.408	-0.195	0.267
-284.545	20.053	0.320	-0.254
-283.530	-200.000	-0.207	0.000
-282.516	-77.787	-0.219	-0.075
-281.501	-60.650	0.357	-0.149
-280.486	48.576	-0.092	-0.085
-279.472	25.241	0.026	0.021
-278.457	-46.245	0.299	-0.145
-277.443	-51.875	0.092	-0.042
-276.428	-89.344	-0.416	-0.121
-275.413	135.988	0.129	-0.166
-274.399	157.081	0.076	0.104
-273.384	270.380	0.075	0.130
-272.370	580.191	0.064	0.155
-271.355	15.270	-0.107	-0.082
-270.340	590.392	0.061	-0.147
-269.326	-48.005	-0.327	0.156
-268.311	-18.331	-0.201	0.124
-267.297	136.008	0.072	-0.092
-266.282	8.654	-0.118	0.088
-265.267	-7.812	0.271	0.180
-264.253	-200.000	-0.053	0.303
-263.238	-200.000	-0.047	0.231
-262.224	-65.779	-0.082	0.032
-261.209	-99.622	-0.316	0.078
-260.195	97.495	-0.028	-0.032
-259.180	-200.000	-0.025	0.151
-258.165	-200.000	-0.029	-0.139
-257.151	155.287	0.166	-0.225
-256.136	-163.934	0.177	0.008
-255.122	800.000	0.064	0.191
-254.107	257.985	-0.169	-0.287
-253.092	-182.998	-0.382	0.007
-252.078	-9.636	0.297	-0.195
-251.063	-200.000	-0.060	-0.418
-250.049	-200.000	-0.017	-0.134
-249.034	-200.000	0.029	0.225
-248.019	-199.669	0.182	-0.001
-247.005	-200.000	-0.001	-0.270
-245.990	298.426	-0.063	0.115
-244.976	-27.322	0.237	-0.136
-243.961	-200.000	0.004	0.184
-242.946	31.321	0.114	-0.097
-241.932	432.900	0.188	0.403
-240.917	294.411	0.176	0.317
-239.903	297.089	0.085	0.154
-238.888	-111.023	-0.398	0.081
-237.873	-67.802	0.248	-0.096
-236.859	-200.000	0.014	-0.190
-235.844	-200.000	-0.051	0.357
-234.830	-200.000	0.017	0.138
-233.815	-200.000	-0.057	0.280
-232.800	57.802	-0.200	-0.193
-231.786	-116.829	0.285	0.051
-230.771	-64.374	0.103	0.041
-229.757	103.505	-0.139	0.161
-228.742	-200.000	0.021	0.162
-227.727	172.430	-0.053	0.075
-226.713	-110.690	0.135	0.027
-225.698	59.592	-0.240	0.232
-224.684	-200.000	-0.022	0.279
-223.669	786.201	0.096	0.259
-222.655	159.454	0.109	0.149
-221.640	167.358	0.092	0.129
-220.625	86.512	0.138	-0.150
-219.611	800.000	-0.069	-0.261
-218.596	-200.000	-0.002	0.295
-217.582	169.597	-0.136	0.191
-216.567	102.267	0.250	0.287
-215.552	51.958	-0.106	0.100
-214.538	-31.961	0.089	0.049
-213.523	555.518	0.146	-0.345
-212.509	-49.136	0.060	-0.028
-211.494	800.000	-0.039	0.123
-210.479	800.000	-0.025	0.105
-209.465	14.422	-0.104	0.080
-208.450	361.481	0.291	0.573
-207.436	4.289	0.028	-0.020
-206.421	513.996	-0.047	-0.107
-205.406	14.290	0.191	0.147
-204.392	-200.000	-0.003	0.163
-203.377	-200.000	0.007	-0.171
-202.363	-48.537	0.246	0.116
-201.348	156.114	0.099	-0.134
-200.333	58.082	-0.067	-0.065
-199.319	-23.939	-0.132	-0.078
-198.304	618.627	-0.090	-0.222
-197.290	-200.000	-0.023	-0.139
-196.275	-109.728	-0.151	-0.031
-195.260	164.835	0.039	0.054
-194.246	68.773	-0.103	-0.104
-193.231	600.177	0.147	-0.360
-192.217	800.000	-0.041	0.126
-191.202	197.926	0.051	-0.076
-190.187	-200.000	0.040	-0.201
-189.173	-160.952	-0.109	0.006
-188.158	-128.278	0.386	0.054
-187.144	800.000	-0.064	-0.199
-186.129	800.000	-0.086	0.301
-185.114	-200.000	-0.004	0.074
-184.100	-15.968	0.208	0.130
-183.085	89.117	-0.029	-0.031
-182.071	272.744	-0.207	0.359
-181.056	-75.465	0.422	-0.147
-180.042	99.552	0.101	0.115
-179.027	75.701	-0.258	-0.268
-178.012	45.313	0.168	0.153
-176.998	-188.172	-0.318	0.004
-175.983	800.000	-0.104	-0.384
-174.969	112.247	0.043	0.051
-173.954	-200.000	-0.030	0.315
-172.939	22.141	0.215	-0.172
-171.925	94.828	0.135	0.151
-170.910	800.000	-0.076	0.304
-169.896	800.000	-0.093	0.322
-168.881	204.897	-0.190	0.290
-167.866	800.000	0.058	0.205
-166.852	-200.000	-0.029	0.661
-165.837	800.000	0.040	-0.166
-164.823	-12.500	-0.216	0.139
-163.808	131.744	-0.093	-0.117
-162.793	-162.426	0.131	0.006
-161.779	85.898	-0.097	-0.105
-160.764	115.129	0.110	0.132
-159.750	-45.143	0.198	-0.097
-158.735	4.423	0.192	-0.138
-157.720	-200.000	-0.020	-0.094
-156.706	14.586	-0.146	-0.112
-155.691	80.256	0.229	0.241
-154.677	800.000	0.053	-0.190
-153.662	-61.207	-0.175	-0.073
-152.647	-90.335	0.133	0.038
-151.633	47.463	-0.137	-0.125
-150.618	-200.000	0.004	-0.245
-149.604	-84.635	0.427	0.132
-148.589	-200.000	0.040	-0.400
-147.574	-59.605	0.223	-0.094
-146.560	-22.529	-0.253	0.150
-145.545	291.848	0.054	0.097
-144.531	-13.700	-0.304	0.193
-143.516	-200.000	0.035	0.161
-142.502	-200.000	0.052	0.393
-141.487	9.642	-0.018	-0.013
-140.472	-85.516	-0.229	0.070
-139.458	800.000	-0.053	0.147
-138.443	-75.403	-0.102	0.036
-137.429	-111.426	0.272	-0.054
-136.414	-161.593	-0.250	0.013
-135.399	-84.253	0.350	-0.109
-134.385	-15.014	0.409	0.257
-133.370	177.000	-0.054	0.077
-132.356	211.348	0.132	-0.203
-131.341	192.963	0.135	-0.200
-130.326	4.018	0.273	0.196
-129.312	19.471	0.246	0.194
-128.297	-8.951	-0.118	-0.078
-127.283	-200.000	-0.036	-0.173
-126.268	-22.572	-0.179	-0.106
-125.253	458.803	-0.130	0.283
-124.239	32.348	-0.084	0.071
-123.224	-200.000	0.017	0.283
-122.210	-84.417	-0.111	-0.034
-121.195	-200.000	0.058	0.314
-120.180	-9.080	-0.280	0.184
