DTS Sentinel unit serial number:	SN413079Multiplexer serial number:	ORYXHardware model number:	OX4-SRSoftware version number:	ORYX F/W v4.00 Oryx Data Collector v3.7.2.0data status	okinstallation	princeton_trtdifferential loss correction	single-endedforward channel	channel 1reverse channel	N/Adate	2019/09/18time	00:38:36forward acquisition time	60.00reverse acquisition time	0.00gamma	496.2192k internal	0.2341k external	0.2341temperature offset calibration	0.9979default loss term (dB/km)	0.3790temperature slope calibration	1.0000multiplexer offset coefficient	1.0000multiplexer slope coefficient	1.0000fibre end	0.00T internal ref (°C)	23.47T ext. ref 1 (°C)	0.17T ext. ref 2 (°C)	17.15length (m)	temperature (°C)	Stokes	anti-Stokes-747.200	115.291	-0.188	0.230
-746.185	-177.875	-0.412	-0.010
-745.171	-178.814	0.144	-0.003
-744.156	124.186	-0.139	0.175
-743.142	125.412	0.128	0.162
-742.127	-114.353	-0.283	-0.055
-741.112	299.595	-0.097	-0.179
-740.098	-196.815	-0.029	0.000
-739.083	264.209	-0.167	0.291
-738.069	760.255	-0.155	0.421
-737.054	-200.000	-0.002	0.101
-736.039	552.026	0.051	-0.123
-735.025	-200.000	0.022	-0.144
-734.010	-4.823	0.154	-0.106
-732.996	-45.191	-0.042	0.021
-731.981	146.068	0.193	0.260
-730.966	12.037	0.240	0.185
-729.952	-12.725	-0.093	0.061
-728.937	-85.846	-0.065	0.020
-727.923	116.821	0.260	0.319
-726.908	-52.458	-0.245	-0.114
-725.894	-112.492	0.071	0.014
-724.879	144.350	-0.323	0.432
-723.864	800.000	-0.051	-0.195
-722.850	-36.329	-0.362	-0.195
-721.835	-1.946	0.111	0.078
-720.821	-5.273	-0.070	0.048
-719.806	193.229	-0.033	-0.050
-718.791	108.459	0.243	-0.291
-717.777	-111.377	-0.114	0.023
-716.762	-200.000	0.018	-0.227
-715.748	16.325	-0.078	-0.062
-714.733	-72.440	-0.336	0.124
-713.718	-68.371	0.124	-0.048
-712.704	800.000	-0.064	-0.271
-711.689	607.262	-0.072	-0.181
-710.675	197.909	-0.130	-0.199
-709.660	76.878	-0.188	-0.200
-708.645	-86.485	0.237	0.073
-707.631	-110.156	-0.111	0.023
-706.616	740.989	0.163	-0.439
-705.602	47.152	0.045	-0.042
-704.587	-83.749	-0.174	0.055
-703.572	23.875	0.156	-0.129
-702.558	183.224	0.129	0.191
-701.543	800.000	0.065	0.200
-700.529	176.317	-0.016	0.023
-699.514	-35.784	-0.050	0.027
-698.499	-7.292	-0.220	0.149
-697.485	-161.879	0.288	0.015
-696.470	23.423	0.162	0.133
-695.456	800.000	-0.043	0.142
-694.441	764.563	-0.115	-0.311
-693.426	62.091	-0.250	0.250
-692.412	697.484	0.235	0.618
-691.397	-76.147	-0.208	-0.073
-690.383	-62.499	-0.313	-0.130
-689.368	-200.000	0.030	-0.141
-688.354	64.797	0.265	0.268
-687.339	160.301	0.050	0.070
-686.324	91.374	-0.133	-0.149
-685.310	-147.678	-0.155	-0.013
-684.295	4.195	-0.117	0.086
-683.281	-200.000	0.019	0.150
-682.266	-71.250	-0.113	0.042
-681.251	232.796	0.241	-0.395
-680.237	-126.003	0.359	0.054
-679.222	-200.000	0.086	-0.498
-678.208	-24.247	-0.295	-0.176
-677.193	732.877	0.188	-0.502
-676.178	-111.490	0.336	-0.068
-675.164	142.181	-0.128	0.170
-674.149	800.000	0.090	0.299
-673.135	49.598	-0.177	0.167
-672.120	800.000	0.064	0.191
-671.105	-109.689	0.260	0.055
-670.091	-58.302	0.074	-0.032
-669.076	16.129	-0.192	0.151
-668.062	-87.060	0.296	-0.090
-667.047	-70.830	-0.094	0.035
-666.032	326.957	0.042	-0.081
-665.018	-98.877	0.086	-0.022
-664.003	-86.306	-0.253	-0.078
-662.989	2.630	0.210	-0.152
-661.974	741.713	-0.101	0.271
-660.959	42.873	0.065	0.059
-659.945	-200.000	-0.019	-0.176
-658.930	-51.938	-0.156	0.073
-657.916	-200.000	0.044	0.337
-656.901	800.000	0.034	0.126
-655.886	-112.820	-0.287	-0.057
-654.872	-200.000	0.040	0.228
-653.857	-4.492	-0.332	0.229
-652.843	55.228	-0.193	-0.187
-651.828	26.891	-0.286	0.240
-650.814	-116.350	-0.048	0.009
-649.799	-128.411	-0.172	-0.024
-648.784	-26.410	-0.179	0.105
-647.770	-38.993	-0.144	0.076
-646.755	-135.705	-0.150	0.018
-645.741	-96.666	0.305	-0.080
-644.726	-200.000	0.005	-0.100
-643.711	405.945	-0.038	0.080
-642.697	390.579	0.111	-0.230
-641.682	-29.893	-0.194	0.110
-640.668	-3.442	0.221	-0.154
-639.653	-117.013	-0.387	0.071
-638.638	-200.000	0.024	0.183
-637.624	-5.224	0.146	0.100
-636.609	-59.483	-0.114	0.049
-635.595	399.579	0.128	-0.267
-634.580	-37.392	0.275	0.146
-633.565	-86.723	-0.227	-0.069
-632.551	302.168	-0.024	0.043
-631.536	-200.000	0.000	-0.347
-630.522	800.000	0.021	0.088
-629.507	-200.000	0.008	-0.281
-628.492	800.000	-0.038	0.157
-627.478	104.172	0.288	-0.338
-626.463	-22.703	0.230	0.139
-625.449	-113.187	0.206	-0.041
-624.434	13.026	0.123	0.095
-623.419	149.296	-0.100	-0.135
-622.405	165.594	-0.140	-0.197
-621.390	162.451	-0.113	-0.158
-620.376	-198.630	0.246	0.001
-619.361	-94.039	-0.244	0.067
-618.346	254.981	-0.206	0.353
-617.332	-109.215	0.203	-0.043
-616.317	800.000	-0.063	0.274
-615.303	231.078	0.082	0.135
-614.288	-85.834	0.136	0.042
-613.273	-200.000	-0.027	-0.314
-612.259	-48.344	0.210	0.101
-611.244	-19.450	0.148	-0.091
-610.230	-15.175	-0.254	0.162
-609.215	-99.261	-0.320	0.081
-608.201	800.000	0.051	0.222
-607.186	-200.000	-0.088	0.476
-606.171	308.476	0.056	-0.105
-605.157	800.000	-0.143	0.419
-604.142	-104.637	0.290	-0.067
-603.128	800.000	-0.037	0.144
-602.113	-149.866	-0.277	-0.022
-601.098	-200.000	-0.016	-0.235
-600.084	257.488	-0.253	0.433
-599.069	800.000	-0.065	0.264
-598.055	724.851	0.088	-0.234
-597.040	-84.191	-0.212	0.067
-596.025	-38.941	0.182	0.096
-595.011	89.426	0.053	-0.059
-593.996	-41.906	0.311	-0.159
-592.982	104.608	0.057	0.067
-591.967	61.536	0.252	-0.250
-590.952	800.000	-0.021	-0.076
-589.938	237.152	0.383	0.633
-588.923	-18.764	0.229	0.142
-587.909	-148.498	-0.149	-0.012
-586.894	139.764	0.248	-0.326
-585.879	-200.000	0.012	-0.235
-584.865	152.450	0.090	0.122
-583.850	79.846	-0.166	-0.177
-582.836	-47.315	-0.217	0.105
-581.821	181.500	-0.116	0.170
-580.806	9.590	-0.266	-0.201
-579.792	800.000	-0.063	-0.180
-578.777	249.236	-0.043	0.073
-577.763	-200.000	-0.045	-0.199
-576.748	-66.359	-0.321	-0.127
-575.733	243.215	-0.092	-0.154
-574.719	-200.000	0.022	-0.129
-573.704	-116.155	0.204	-0.038
-572.690	800.000	-0.031	0.089
-571.675	47.704	-0.113	0.105
-570.661	-121.906	-0.296	0.048
-569.646	-200.000	-0.018	-0.470
-568.631	44.140	-0.129	-0.118
-567.617	131.560	0.147	-0.189
-566.602	473.648	-0.032	0.073
-565.588	-42.897	0.136	0.069
-564.573	-26.735	0.134	0.078
-563.558	19.962	-0.089	-0.071
-562.544	110.338	0.063	0.075
-561.529	-76.847	0.085	-0.030
-560.515	-12.314	-0.189	0.123
-559.500	-110.625	0.096	0.020
-558.485	25.771	0.135	-0.112
-557.471	37.396	-0.117	0.103
-556.456	-200.000	-0.006	0.034
-555.442	-17.596	0.340	0.212
-554.427	-116.229	0.225	0.042
-553.412	126.278	-0.039	-0.049
-552.398	776.698	-0.096	-0.261
-551.383	-99.938	0.127	0.032
-550.369	-104.013	-0.309	-0.072
-549.354	800.000	0.063	0.259
-548.339	-70.765	0.371	-0.139
-547.325	99.960	-0.184	0.212
-546.310	-115.471	-0.032	0.006
-545.296	-11.415	-0.105	0.069
-544.281	-4.903	0.136	0.093
-543.266	33.088	-0.129	-0.111
-542.252	111.667	-0.096	0.116
-541.237	-161.597	0.139	-0.007
-540.223	504.488	-0.124	-0.285
-539.208	120.125	-0.032	-0.039
-538.193	-69.854	0.117	0.044
-537.179	123.444	0.093	-0.116
-536.164	4.802	-0.390	0.285
-535.150	-200.000	-0.007	0.381
-534.135	161.675	0.109	-0.151
-533.121	241.411	0.066	0.110
-532.106	44.564	0.151	-0.138
-531.091	-200.000	-0.070	-0.325
-530.077	-108.997	0.174	-0.037
-529.062	32.808	0.172	0.148
-528.048	-200.000	0.021	-0.136
-527.033	39.514	0.091	0.081
-526.018	68.859	0.318	-0.325
-525.004	374.210	0.035	-0.070
-523.989	297.343	0.226	0.413
-522.975	-140.991	-0.161	0.016
-521.960	183.836	-0.204	0.300
-520.945	175.945	0.147	-0.212
-519.931	-200.000	0.024	0.233
-518.916	150.863	0.149	-0.202
-517.902	-17.560	-0.034	0.021
-516.887	-8.462	-0.294	-0.196
-515.872	-59.570	0.353	-0.151
-514.858	397.508	0.055	-0.114
-513.843	-200.000	-0.002	0.088
-512.829	800.000	-0.039	0.154
-511.814	-200.000	0.012	-0.106
-510.799	800.000	0.070	0.256
-509.785	-153.464	0.250	0.017
-508.770	-101.924	-0.333	-0.080
-507.756	-200.000	0.036	0.337
-506.741	800.000	-0.066	0.202
-505.726	75.012	-0.045	0.047
-504.712	-35.251	-0.434	-0.234
-503.697	-33.966	0.095	-0.052
-502.683	-105.876	0.230	0.052
-501.668	800.000	0.060	0.254
-500.653	-79.355	0.275	-0.092
-499.639	28.326	0.180	0.151
-498.624	-69.355	0.191	-0.073
-497.610	32.647	0.182	0.156
-496.595	-61.229	-0.328	-0.137
-495.581	-200.000	-0.002	0.308
-494.566	19.836	-0.277	0.221
-493.551	-101.393	0.071	-0.017
-492.537	58.929	0.129	-0.126
-491.522	800.000	0.115	0.378
-490.508	-200.000	0.008	0.051
-489.493	58.187	-0.241	-0.235
-488.478	-65.076	0.073	-0.029
-487.464	800.000	0.043	-0.186
-486.449	18.994	0.454	0.361
-485.435	-140.487	-0.176	-0.018
-484.420	254.647	0.172	-0.292
-483.405	116.815	-0.281	0.343
-482.391	90.428	0.135	-0.149
-481.376	128.456	0.096	-0.121
-480.362	171.624	-0.217	0.310
-479.347	-101.343	0.196	-0.048
-478.332	-200.000	0.016	0.267
-477.318	-132.165	-0.440	0.057
-476.303	-18.912	0.111	0.069
-475.289	-64.208	-0.065	-0.026
-474.274	-82.374	0.125	-0.040
-473.259	625.270	-0.131	-0.327
-472.245	561.609	-0.046	-0.111
-471.230	43.144	-0.294	0.266
-470.216	-146.831	0.315	0.027
-469.201	-27.506	-0.248	-0.143
-468.186	-65.088	0.073	0.029
-467.172	800.000	0.072	0.207
-466.157	176.824	0.073	0.106
-465.143	-200.000	-0.025	-0.178
-464.128	-41.498	0.044	0.023
-463.113	-83.652	-0.411	0.130
-462.099	-107.987	-0.120	-0.026
-461.084	-51.360	0.226	-0.105
-460.070	-133.448	-0.378	0.047
-459.055	-200.000	0.016	-0.077
-458.040	-200.000	0.048	0.283
-457.026	-200.000	-0.029	0.170
-456.011	194.332	0.087	0.131
-454.997	-145.851	0.071	-0.006
-453.982	-200.000	0.026	0.147
-452.968	330.886	0.128	-0.245
-451.953	-104.071	-0.034	-0.008
-450.938	-138.725	-0.157	-0.017
-449.924	-40.819	0.102	-0.052
-448.909	-152.745	-0.213	-0.015
-447.895	67.044	0.203	-0.204
-446.880	145.946	0.149	0.198
-445.865	-200.000	-0.008	0.086
-444.851	-174.521	0.083	0.002
-443.836	800.000	-0.041	0.149
-442.822	-200.000	0.040	-0.245
-441.807	-77.686	-0.051	-0.017
-440.792	-132.979	0.295	-0.037
-439.778	-45.903	0.139	0.068
-438.763	-200.000	-0.044	0.264
-437.749	-84.132	0.380	-0.120
-436.734	-15.730	-0.239	-0.151
-435.719	-200.000	-0.080	-0.366
-434.705	-200.000	0.005	-0.178
-433.690	-200.000	-0.004	-0.067
-432.676	-200.000	-0.021	0.105
-431.661	202.395	0.276	0.422
-430.646	-145.432	0.101	0.009
-429.632	123.895	0.086	0.107
-428.617	647.800	0.114	0.289
-427.603	-200.000	-0.040	0.370
-426.588	485.910	0.031	-0.070
-425.573	758.732	-0.044	-0.117
-424.559	19.428	-0.239	-0.190
-423.544	800.000	-0.047	-0.162
-422.530	-116.018	0.253	-0.047
-421.515	-121.821	0.167	-0.027
-420.500	475.488	0.101	0.225
-419.486	-67.221	-0.295	-0.115
-418.471	-109.725	-0.276	0.058
-417.457	27.756	0.143	-0.119
-416.442	-34.939	-0.303	-0.164
-415.428	172.116	0.192	-0.273
-414.413	-54.995	-0.312	-0.139
-413.398	141.519	-0.165	-0.216
-412.384	-75.758	0.394	0.138
-411.369	174.337	-0.182	-0.260
-410.355	26.375	-0.133	0.110
-409.340	107.005	-0.039	0.046
-408.325	800.000	-0.051	0.182
-407.311	-139.127	-0.313	-0.033
-406.296	-41.742	-0.286	0.145
-405.282	-170.242	-0.058	-0.002
-404.267	-104.614	-0.215	-0.049
-403.252	122.916	0.180	0.223
-402.238	-56.757	0.148	0.065
-401.223	352.130	0.083	-0.162
-400.209	800.000	-0.038	0.121
-399.194	-129.660	-0.216	-0.029
-398.179	260.266	0.194	0.332
-397.165	-176.744	0.108	0.003
-396.150	-200.000	-0.021	0.124
-395.136	800.000	-0.108	0.442
-394.121	-125.981	-0.147	0.022
-393.106	206.520	-0.087	0.134
-392.092	32.797	-0.089	-0.076
-391.077	-72.385	-0.106	0.039
-390.063	800.000	-0.072	0.297
-389.048	296.356	0.257	-0.466
-388.033	355.453	-0.082	-0.162
-387.019	-178.009	-0.238	-0.006
-386.004	-111.240	-0.131	-0.026
-384.990	800.000	-0.030	-0.083
-383.975	800.000	0.075	0.246
-382.960	273.716	-0.089	-0.156
-381.946	-130.709	-0.316	-0.042
-380.931	-57.865	0.170	0.074
-379.917	-108.722	-0.278	-0.059
-378.902	800.000	0.088	-0.249
-377.888	-107.245	-0.200	0.044
-376.873	-30.431	0.161	0.090
-375.858	7.977	0.275	-0.204
-374.844	800.000	0.047	-0.161
-373.829	19.880	0.110	-0.087
-372.815	-100.480	0.205	0.050
-371.800	36.115	0.110	0.096
-370.785	-200.000	-0.046	0.206
-369.771	623.931	0.059	-0.146
-368.756	-157.219	-0.073	0.004
-367.742	-122.818	-0.198	-0.032
-366.727	466.984	0.101	0.223
-365.712	12.060	-0.174	-0.133
-364.698	126.971	-0.110	-0.138
-363.683	108.106	0.070	0.082
-362.669	-111.963	-0.346	-0.069
-361.654	-200.000	0.038	-0.378
-360.639	136.953	0.241	0.311
-359.625	11.609	0.269	0.204
-358.610	-69.033	-0.433	0.165
-357.596	-200.000	0.005	-0.071
-356.581	100.195	-0.152	-0.174
-355.566	51.169	-0.144	-0.135
-354.552	-200.000	-0.011	-0.434
-353.537	12.011	0.296	-0.224
-352.523	514.750	-0.095	-0.219
-351.508	26.987	0.218	0.180
-350.493	-72.221	0.361	0.132
-349.479	433.015	0.160	-0.343
-348.464	248.099	-0.265	0.442
-347.450	328.259	0.134	-0.255
-346.435	-131.934	-0.237	0.030
-345.420	13.130	0.088	-0.067
-344.406	-112.199	0.221	0.044
-343.391	-0.062	0.217	-0.152
-342.377	706.218	-0.115	-0.300
-341.362	-120.726	-0.265	-0.044
-340.348	131.138	-0.027	0.034
-339.333	-200.000	0.000	-0.050
-338.318	-156.935	0.156	-0.009
-337.304	162.800	0.093	0.128
-336.289	79.128	-0.073	0.077
-335.275	240.523	-0.131	-0.216
-334.260	83.872	0.070	-0.075
-333.245	-78.669	0.140	0.047
-332.231	435.123	-0.081	-0.174
-331.216	-48.557	-0.330	0.157
-330.202	146.438	-0.233	-0.309
-329.187	-200.000	-0.067	0.379
-328.172	-51.811	-0.082	-0.038
-327.158	97.735	-0.185	0.210
-326.143	800.000	-0.023	0.084
-325.129	-15.701	0.237	0.149
-324.114	772.296	-0.069	-0.184
-323.099	-200.000	-0.005	0.026
-322.085	-200.000	0.005	0.322
-321.070	-200.000	-0.006	-0.053
-320.056	-200.000	0.004	-0.175
-319.041	121.726	-0.124	0.152
-318.026	42.941	0.192	0.173
-317.012	-91.911	-0.129	0.036
-315.997	-26.413	0.163	0.094
-314.983	800.000	-0.046	-0.177
-313.968	82.509	-0.200	-0.214
-312.953	-158.764	0.053	-0.003
-311.939	-59.935	0.246	0.104
-310.924	577.918	0.204	0.491
-309.910	19.224	-0.135	-0.107
-308.895	266.272	-0.222	-0.383
-307.880	-147.295	-0.041	0.003
-306.866	105.423	-0.200	-0.233
-305.851	63.189	-0.043	-0.043
-304.837	241.461	0.115	-0.190
-303.822	800.000	-0.020	0.073
-302.807	191.658	-0.060	0.090
-301.793	-92.213	-0.126	0.035
-300.778	-49.513	0.311	0.146
-299.764	9.907	-0.104	-0.078
-298.749	60.358	-0.133	-0.130
-297.735	-74.422	-0.091	0.032
-296.720	-44.485	0.037	0.018
-295.705	-23.814	0.269	-0.159
-294.691	564.839	-0.038	-0.090
-293.676	-18.322	0.302	-0.186
-292.662	652.980	0.140	-0.354
-291.647	368.993	0.107	-0.214
-290.632	800.000	0.125	0.354
-289.618	-126.611	0.180	0.026
-288.603	-187.947	0.177	-0.002
-287.589	800.000	-0.081	-0.350
-286.574	-146.151	0.123	0.011
-285.559	-200.000	-0.017	-0.265
-284.545	-200.000	0.025	0.250
-283.530	610.249	0.025	0.061
-282.516	-18.076	0.258	-0.159
-281.501	-20.946	-0.303	-0.182
-280.486	-123.354	0.446	-0.070
-279.472	-124.638	-0.158	0.024
-278.457	-184.913	0.189	0.003
-277.443	800.000	0.060	0.259
-276.428	-64.271	0.091	0.036
-275.413	-77.889	-0.422	-0.143
-274.399	39.838	0.219	-0.193
-273.384	493.203	0.052	-0.117
-272.370	-200.000	0.002	-0.225
-271.355	305.496	0.054	-0.099
-270.340	121.820	0.092	-0.113
-269.326	-31.444	0.269	0.149
-268.311	74.386	0.092	-0.095
-267.297	-44.348	0.280	-0.138
-266.282	-39.083	0.095	-0.049
-265.267	-200.000	0.038	0.221
-264.253	-100.285	-0.290	-0.071
-263.238	-109.950	-0.177	0.037
-262.224	196.078	-0.095	-0.142
-261.209	-67.639	0.327	-0.126
-260.195	-200.000	-0.019	-0.115
-259.180	350.126	0.081	-0.157
-258.165	110.983	0.052	-0.062
-257.151	-28.341	-0.160	-0.091
-256.136	133.664	0.115	0.146
-255.122	85.744	-0.122	0.132
-254.107	-77.626	0.091	0.031
-253.092	-200.000	0.033	-0.169
-252.078	-106.753	-0.130	0.028
-251.063	-127.024	0.120	0.017
-250.049	-92.715	-0.056	-0.015
-249.034	-91.902	-0.030	-0.008
-248.019	75.180	0.151	-0.156
-247.005	-200.000	0.016	0.251
-245.990	-38.172	0.036	-0.019
-244.976	800.000	-0.093	-0.274
-243.961	-95.939	0.240	-0.063
-242.946	800.000	-0.051	-0.174
-241.932	379.433	-0.104	0.208
-240.917	217.656	0.141	0.221
-239.903	294.613	-0.181	0.325
-238.888	800.000	0.051	-0.145
-237.873	10.557	-0.229	-0.171
-236.859	-200.000	-0.036	0.221
-235.844	-140.788	-0.177	-0.018
-234.830	-102.954	-0.153	0.036
-233.815	-108.759	0.117	-0.025
-232.800	-29.566	0.255	0.143
-231.786	-44.272	-0.329	-0.162
-230.771	132.506	-0.192	0.243
-229.757	-200.000	-0.032	-0.171
-228.742	-30.110	0.126	-0.070
-227.727	-11.084	-0.085	-0.055
-226.713	800.000	-0.104	-0.386
-225.698	-75.856	-0.374	0.130
-224.684	-200.000	0.031	-0.185
-223.669	156.760	0.128	-0.174
-222.655	800.000	0.117	0.330
-221.640	145.942	-0.036	0.047
-220.625	-149.159	-0.303	0.024
-219.611	-41.340	0.204	-0.103
-218.596	-119.452	-0.143	-0.024
-217.582	-153.640	0.467	0.032
-216.567	-72.344	-0.094	0.034
-215.552	346.978	0.136	0.262
-214.538	-200.000	-0.006	-0.091
-213.523	-200.000	0.012	0.075
-212.509	-200.000	0.020	0.103
-211.494	146.314	-0.107	-0.141
-210.479	23.380	0.197	-0.159
-209.465	-68.519	-0.173	0.066
-208.450	456.606	0.085	-0.185
-207.436	-73.691	0.118	0.042
-206.421	-57.502	0.082	0.036
-205.406	800.000	0.072	0.196
-204.392	800.000	-0.037	0.137
-203.377	513.042	-0.146	0.333
-202.363	6.767	0.058	0.042
-201.348	134.631	-0.066	-0.085
-200.333	263.469	-0.150	0.255
-199.319	-128.090	0.235	-0.033
-198.304	-146.039	0.100	0.009
-197.290	800.000	-0.117	0.336
-196.275	-200.000	-0.028	0.196
-195.260	50.616	0.231	0.214
-194.246	-20.361	0.192	0.116
-193.231	-68.857	0.338	-0.128
-192.217	150.438	-0.095	0.127
-191.202	-36.861	0.198	-0.104
-190.187	294.358	-0.249	0.447
-189.173	-13.277	-0.330	-0.210
-188.158	10.750	-0.098	-0.074
-187.144	49.856	-0.118	0.109
-186.129	-30.267	0.319	0.178
-185.114	115.315	0.097	-0.116
-184.100	-47.835	-0.296	-0.141
-183.085	160.469	0.174	0.239
-182.071	800.000	0.120	0.404
-181.056	-200.000	-0.035	0.228
-180.042	452.189	-0.063	0.137
-179.027	-27.679	-0.269	0.153
-178.012	-12.551	-0.269	-0.172
-176.998	197.613	0.079	-0.119
-175.983	35.516	-0.036	0.031
-174.969	-200.000	-0.015	-0.194
-173.954	800.000	-0.085	-0.313
-172.939	-90.609	0.479	-0.136
-171.925	-200.000	-0.023	-0.110
-170.910	23.287	-0.039	-0.031
-169.896	-137.776	-0.218	-0.024
-168.881	-200.000	0.082	-0.442
-167.866	50.991	0.196	-0.182
-166.852	12.940	-0.412	0.313
-165.837	-60.633	-0.178	0.074
-164.823	34.770	-0.121	-0.104
-163.808	65.324	-0.127	-0.126
-162.793	-122.931	0.152	0.024
-161.779	-113.072	-0.216	-0.042
-160.764	7.024	-0.103	-0.075
-159.750	46.623	-0.208	0.189
-158.735	-92.995	0.464	0.127
-157.720	-200.000	0.028	-0.127
-156.706	-152.093	-0.136	-0.010
-155.691	113.482	-0.071	-0.084
-154.677	70.813	0.069	0.070
-153.662	-93.540	-0.346	-0.094
-152.647	-200.000	-0.046	-0.205
-151.633	-124.851	-0.240	0.036
-150.618	-200.000	-0.032	-0.183
-149.604	-200.000	0.031	-0.142
-148.589	-191.000	-0.041	0.000
-147.574	-116.853	-0.368	0.066
-146.560	305.081	0.038	0.069
-145.545	-9.544	0.077	-0.050
-144.531	51.990	0.044	-0.041
-143.516	230.205	0.062	-0.100
-142.502	102.310	-0.215	0.246
-141.487	-44.002	0.132	-0.065
-140.472	-8.234	-0.285	-0.188
-139.458	800.000	-0.074	0.240
-138.443	212.910	-0.177	-0.274
-137.429	381.392	-0.077	-0.155
-136.414	-2.391	-0.061	0.042
-135.399	15.394	-0.235	-0.180
-134.385	14.455	0.068	-0.052
-133.370	-143.441	0.243	0.023
-132.356	-200.000	0.035	-0.267
-131.341	-200.000	0.032	0.148
-130.326	29.406	-0.347	-0.289
-129.312	-122.904	0.032	-0.005
-128.297	494.167	-0.034	0.076
-127.283	-49.646	0.140	-0.065
-126.268	-70.621	0.317	0.117
-125.253	369.450	-0.084	-0.166
-124.239	152.865	0.277	0.371
-123.224	-200.000	-0.036	-0.269
-122.210	-200.000	-0.016	0.245
