DTS Sentinel unit serial number:	SN413079Multiplexer serial number:	ORYXHardware model number:	OX4-SRSoftware version number:	ORYX F/W v4.00 Oryx Data Collector v3.7.2.0data status	okinstallation	princeton_trtdifferential loss correction	single-endedforward channel	channel 1reverse channel	N/Adate	2019/09/12time	22:02:35forward acquisition time	60.00reverse acquisition time	0.00gamma	496.2192k internal	0.2326k external	0.2326temperature offset calibration	1.0153default loss term (dB/km)	0.3790temperature slope calibration	1.0000multiplexer offset coefficient	1.0000multiplexer slope coefficient	1.0000fibre end	0.00T internal ref (°C)	30.05T ext. ref 1 (°C)	3.74T ext. ref 2 (°C)	24.57length (m)	temperature (°C)	Stokes	anti-Stokes-747.200	800.000	0.045	0.188
-746.185	736.655	-0.171	0.463
-745.171	88.053	0.189	-0.211
-744.156	82.762	0.138	0.152
-743.142	-32.956	0.142	0.079
-742.127	7.570	0.316	0.239
-741.112	374.409	0.139	0.286
-740.098	-87.010	0.245	-0.075
-739.083	95.065	0.073	-0.084
-738.069	-200.000	-0.019	-0.299
-737.054	69.693	-0.115	0.119
-736.039	-143.791	0.092	-0.009
-735.025	242.853	0.116	0.195
-734.010	-88.884	-0.368	0.110
-732.996	185.204	0.158	-0.237
-731.981	44.009	-0.126	-0.116
-730.966	-64.315	-0.251	0.103
-729.952	79.525	0.167	0.180
-728.937	375.630	0.067	0.138
-727.923	511.210	0.097	0.227
-726.908	346.446	0.018	-0.036
-725.894	386.433	-0.129	-0.269
-724.879	70.218	0.258	-0.268
-723.864	-69.559	-0.257	0.099
-722.850	270.103	0.156	-0.277
-721.835	46.011	-0.307	0.286
-720.821	56.961	-0.130	0.128
-719.806	-139.150	-0.245	-0.027
-718.791	800.000	-0.047	-0.170
-717.777	9.048	0.186	0.141
-716.762	132.364	0.157	-0.203
-715.748	-63.150	-0.198	-0.082
-714.733	-69.616	0.258	0.100
-713.718	-119.619	0.190	0.033
-712.704	-200.000	0.010	-0.083
-711.689	-78.830	-0.174	0.060
-710.675	-61.454	-0.135	-0.057
-709.660	-81.635	-0.133	-0.044
-708.645	800.000	-0.105	-0.437
-707.631	800.000	0.027	-0.088
-706.616	-94.488	0.183	0.050
-705.602	277.305	-0.206	0.369
-704.587	-101.471	-0.194	-0.047
-703.572	-41.930	-0.244	0.126
-702.558	800.000	-0.003	-0.013
-701.543	14.650	-0.214	-0.168
-700.529	800.000	0.098	0.314
-699.514	30.089	0.188	-0.161
-698.499	785.518	0.125	0.345
-697.485	539.303	0.142	0.340
-696.470	250.105	-0.037	0.063
-695.456	-63.731	-0.194	0.080
-694.441	-200.000	-0.026	-0.305
-693.426	3.540	0.251	0.184
-692.412	-200.000	0.018	-0.216
-691.397	148.343	-0.141	-0.191
-690.383	-125.625	0.347	0.053
-689.368	87.048	-0.225	-0.250
-688.354	-35.040	0.149	-0.082
-687.339	-200.000	0.017	-0.240
-686.324	800.000	-0.058	0.211
-685.310	-40.672	0.008	0.004
-684.295	-90.394	0.236	-0.069
-683.281	194.883	-0.219	0.334
-682.266	-200.000	-0.016	0.226
-681.251	-165.458	0.131	0.006
-680.237	-27.424	-0.272	-0.159
-679.222	-200.000	-0.016	0.131
-678.208	532.541	-0.120	-0.285
-677.193	-200.000	0.016	0.488
-676.178	-177.355	0.023	-0.001
-675.164	-200.000	-0.011	0.141
-674.149	745.164	0.046	0.123
-673.135	220.051	0.041	0.067
-672.120	351.734	-0.086	0.172
-671.105	-192.035	-0.393	0.004
-670.091	-39.036	0.099	-0.052
-669.076	-127.066	-0.474	0.070
-668.062	-175.625	0.175	0.005
-667.047	-91.970	-0.163	0.046
-666.032	800.000	-0.078	-0.300
-665.018	-151.078	-0.052	-0.004
-664.003	170.090	-0.030	0.042
-662.989	339.566	-0.104	0.204
-661.974	-61.031	-0.334	-0.142
-660.959	-200.000	-0.035	0.200
-659.945	800.000	0.099	-0.430
-658.930	-110.556	-0.205	0.043
-657.916	204.170	0.044	-0.068
-656.901	800.000	-0.032	0.128
-655.886	112.210	-0.059	0.071
-654.872	309.659	-0.100	0.188
-653.857	-19.396	-0.226	0.141
-652.843	-15.512	0.143	0.092
-651.828	-137.989	0.069	-0.008
-650.814	7.731	0.119	-0.090
-649.799	800.000	-0.085	-0.305
-648.784	-167.784	-0.517	-0.021
-647.770	173.920	0.152	-0.220
-646.755	800.000	-0.071	0.218
-645.741	90.030	0.195	0.219
-644.726	7.044	-0.074	0.055
-643.711	-150.637	-0.273	0.021
-642.697	-116.386	0.149	-0.028
-641.682	-55.240	-0.146	-0.066
-640.668	-13.216	-0.193	0.126
-639.653	233.248	-0.095	-0.156
-638.638	-200.000	-0.030	-0.295
-637.624	384.410	0.096	-0.199
-636.609	-58.007	0.301	-0.132
-635.595	-200.000	0.003	0.330
-634.580	-182.563	-0.237	-0.004
-633.565	-88.859	0.231	0.069
-632.551	-29.679	-0.188	-0.108
-631.536	-200.000	-0.054	0.449
-630.522	800.000	-0.038	0.145
-629.507	141.645	-0.080	0.107
-628.492	-200.000	-0.012	-0.138
-627.478	6.610	0.333	-0.248
-626.463	-99.321	0.099	0.025
-625.449	237.001	-0.073	0.121
-624.434	-200.000	0.017	-0.193
-623.419	-200.000	0.019	-0.214
-622.405	-63.832	-0.078	-0.032
-621.390	-71.624	0.133	0.050
-620.376	124.231	-0.198	-0.250
-619.361	800.000	0.042	-0.134
-618.346	-200.000	0.014	-0.100
-617.332	-129.680	0.322	-0.044
-616.317	-119.989	-0.037	0.006
-615.303	242.795	0.180	0.302
-614.288	-30.971	0.146	0.083
-613.273	-31.939	-0.311	-0.175
-612.259	-58.331	-0.156	-0.068
-611.244	419.921	-0.074	-0.159
-610.230	-21.665	-0.374	0.228
-609.215	-88.848	-0.264	0.079
-608.201	-156.703	-0.124	0.008
-607.186	-200.000	0.002	0.156
-606.171	-7.355	0.142	0.097
-605.157	-121.883	0.259	0.043
-604.142	287.832	-0.135	-0.245
-603.128	800.000	-0.039	0.130
-602.113	399.158	-0.132	-0.277
-601.098	627.445	0.068	0.173
-600.084	800.000	0.075	-0.211
-599.069	-129.921	-0.268	-0.037
-598.055	442.229	-0.066	-0.146
-597.040	-30.406	-0.100	0.057
-596.025	-200.000	-0.002	-0.351
-595.011	219.695	-0.176	-0.282
-593.996	-200.000	0.084	-0.502
-592.982	-23.390	0.261	-0.157
-591.967	243.407	0.082	0.138
-590.952	-4.187	0.159	-0.111
-589.938	-69.210	-0.113	-0.044
-588.923	-116.876	0.107	0.020
-587.909	37.457	0.131	-0.116
-586.894	640.308	-0.086	0.220
-585.879	-170.942	-0.164	0.006
-584.865	-154.218	-0.230	-0.016
-583.850	-54.601	-0.096	0.044
-582.836	104.045	0.242	0.286
-581.821	100.821	0.197	-0.230
-580.806	800.000	0.016	0.048
-579.792	165.290	-0.038	-0.054
-578.777	-77.788	0.549	0.190
-577.763	328.430	-0.122	0.234
-576.748	-98.121	-0.189	-0.049
-575.733	-86.467	-0.185	0.057
-574.719	-200.000	-0.039	0.225
-573.704	-51.961	0.324	-0.151
-572.690	-15.883	-0.211	0.134
-571.675	35.625	-0.046	0.040
-570.661	35.453	-0.442	-0.389
-569.646	129.269	-0.028	-0.036
-568.631	87.268	-0.072	-0.079
-567.617	-142.035	0.154	0.015
-566.602	800.000	-0.023	-0.082
-565.588	-79.487	0.085	-0.029
-564.573	-141.240	0.080	-0.008
-563.558	13.877	-0.238	0.186
-562.544	275.063	0.082	0.145
-561.529	-31.527	0.154	-0.087
-560.515	-200.000	0.020	-0.224
-559.500	-82.738	-0.093	0.030
-558.485	800.000	-0.016	0.046
-557.471	-63.943	0.109	0.045
-556.456	512.611	0.063	0.148
-555.442	445.159	-0.061	-0.134
-554.427	637.607	0.127	0.324
-553.412	-200.000	0.022	-0.108
-552.398	-103.984	-0.187	-0.044
-551.383	-65.333	-0.254	0.102
-550.369	-200.000	-0.002	-0.142
-549.354	432.721	0.144	-0.313
-548.339	109.525	0.180	-0.216
-547.325	-18.512	0.053	0.033
-546.310	78.805	-0.135	0.144
-545.296	583.273	0.041	-0.100
-544.281	-165.848	-0.232	0.010
-543.266	40.951	-0.050	-0.045
-542.252	800.000	-0.054	-0.163
-541.237	-143.500	-0.288	-0.027
-540.223	800.000	-0.012	0.036
-539.208	-83.511	0.189	-0.061
-538.193	-144.083	-0.035	0.003
-537.179	-200.000	0.095	0.449
-536.164	148.193	-0.124	-0.168
-535.150	236.469	-0.050	0.083
-534.135	-57.510	-0.363	0.159
-533.121	66.625	0.270	0.275
-532.106	-195.787	-0.354	0.003
-531.091	-144.472	-0.249	-0.023
-530.077	297.062	0.140	-0.257
-529.062	-200.000	-0.039	0.266
-528.048	800.000	0.102	-0.324
-527.033	390.559	-0.114	-0.237
-526.018	-102.196	-0.173	-0.042
-525.004	302.131	0.118	-0.218
-523.989	-200.000	0.006	0.113
-522.975	800.000	-0.036	0.158
-521.960	38.209	0.233	0.208
-520.945	-200.000	-0.005	-0.050
-519.931	-151.103	0.302	-0.023
-518.916	92.387	0.162	0.182
-517.902	220.778	-0.127	-0.204
-516.887	-200.000	-0.006	-0.123
-515.872	107.945	-0.081	0.096
-514.858	-62.149	0.261	0.109
-513.843	-200.000	0.031	0.185
-512.829	96.545	-0.148	0.169
-511.814	75.833	-0.071	0.075
-510.799	-78.011	-0.148	-0.051
-509.785	-161.382	-0.101	0.005
-508.770	293.310	0.131	0.240
-507.756	-40.599	-0.175	0.091
-506.741	-200.000	0.016	0.282
-505.726	86.419	0.056	0.061
-504.712	-200.000	0.025	0.136
-503.697	-200.000	0.018	0.320
-502.683	-200.000	0.014	0.443
-501.668	51.638	0.202	-0.192
-500.653	-141.194	0.318	-0.032
-499.639	-79.743	-0.201	-0.068
-498.624	98.015	-0.177	-0.203
-497.610	194.460	0.032	0.048
-496.595	-26.601	-0.028	-0.016
-495.581	134.172	-0.045	0.058
-494.566	-26.466	-0.180	-0.105
-493.551	800.000	0.073	0.290
-492.537	-82.473	-0.130	-0.042
-491.522	341.153	0.090	0.176
-490.508	-200.000	0.020	0.290
-489.493	236.417	-0.166	-0.274
-488.478	-192.260	0.067	-0.001
-487.464	-132.739	0.096	-0.012
-486.449	306.823	0.130	0.242
-485.435	-200.000	-0.018	0.095
-484.420	-127.955	0.065	0.009
-483.405	-157.579	-0.147	0.009
-482.391	-110.595	-0.201	-0.041
-481.376	-94.209	0.282	0.077
-480.362	131.019	0.174	-0.223
-479.347	-86.026	0.118	0.037
-478.332	-200.000	-0.008	-0.221
-477.318	-200.000	0.002	-0.429
-476.303	155.171	0.317	0.436
-475.289	-38.817	-0.188	0.099
-474.274	-51.983	-0.134	-0.062
-473.259	53.630	0.215	-0.206
-472.245	-114.238	0.122	-0.023
-471.230	-6.663	0.196	-0.133
-470.216	800.000	-0.057	-0.172
-469.201	800.000	0.171	-0.503
-468.186	593.734	-0.107	-0.265
-467.172	-21.276	0.219	-0.133
-466.157	-29.129	0.156	-0.089
-465.143	119.116	0.099	-0.122
-464.128	24.519	-0.209	0.173
-463.113	337.339	-0.088	-0.170
-462.099	695.672	-0.025	-0.066
-461.084	-200.000	0.033	0.349
-460.070	-18.672	-0.196	0.122
-459.055	16.648	0.126	-0.100
-458.040	119.954	-0.116	0.143
-457.026	-111.382	0.215	-0.044
-456.011	-159.984	-0.432	0.024
-454.997	-84.592	0.252	-0.079
-453.982	-24.207	0.394	0.234
-452.968	548.391	-0.050	0.120
-451.953	523.373	0.098	0.230
-450.938	17.640	-0.305	-0.242
-449.924	800.000	-0.058	0.224
-448.909	800.000	-0.065	0.222
-447.895	-49.903	0.173	0.082
-446.880	-154.543	-0.110	0.007
-445.865	94.718	0.049	-0.056
-444.851	-200.000	0.030	-0.394
-443.836	-32.329	-0.300	-0.167
-442.822	730.256	-0.096	0.255
-441.807	23.622	0.090	0.074
-440.792	-200.000	0.008	0.100
-439.778	778.443	-0.065	0.176
-438.763	598.047	0.043	-0.107
-437.749	-51.004	-0.332	0.155
-436.734	-68.441	0.152	0.059
-435.719	104.187	0.266	-0.312
-434.705	0.377	0.191	-0.136
-433.690	672.119	0.128	-0.330
-432.676	-200.000	-0.004	-0.215
-431.661	14.800	-0.179	-0.140
-430.646	403.273	-0.145	-0.304
-429.632	73.871	0.353	-0.369
-428.617	800.000	-0.059	0.217
-427.603	-74.949	-0.233	0.083
-426.588	89.036	0.076	0.085
-425.573	-159.085	0.157	0.009
-424.559	228.740	-0.123	-0.200
-423.544	-15.093	-0.203	0.129
-422.530	-33.922	-0.311	0.170
-421.515	-82.791	-0.255	0.082
-420.500	800.000	0.038	-0.129
-419.486	-103.285	-0.285	0.067
-418.471	222.396	-0.057	-0.091
-417.457	-31.964	0.218	0.122
-416.442	11.784	-0.292	0.223
-415.428	-200.000	-0.014	0.071
-414.413	-200.000	0.007	0.229
-413.398	-200.000	-0.082	0.422
-412.384	21.056	-0.156	0.126
-411.369	-64.899	0.131	-0.053
-410.355	60.587	0.276	0.272
-409.340	439.691	0.021	-0.046
-408.325	-30.334	0.316	-0.178
-407.311	-61.392	0.355	-0.148
-406.296	-90.046	-0.244	-0.071
-405.282	287.377	0.093	-0.167
-404.267	-200.000	0.011	0.162
-403.252	88.767	0.054	-0.060
-402.238	-40.171	0.178	-0.092
-401.223	164.816	-0.065	0.091
-400.209	-168.124	-0.195	-0.008
-399.194	-200.000	0.020	0.141
-398.179	-82.414	-0.111	0.036
-397.165	-116.910	0.381	0.069
-396.150	800.000	-0.019	-0.054
-395.136	-200.000	0.423	0.002
-394.121	85.030	-0.210	0.229
-393.106	-15.625	-0.225	-0.143
-392.092	77.609	0.307	0.325
-391.077	36.201	-0.330	0.289
-390.063	172.085	0.119	-0.170
-389.048	-26.012	0.108	-0.063
-388.033	-149.979	-0.275	-0.021
-387.019	-161.975	0.549	0.028
-386.004	-54.474	0.126	-0.057
-384.990	-102.681	-0.247	-0.059
-383.975	-54.764	0.076	-0.034
-382.960	800.000	-0.030	-0.089
-381.946	286.570	-0.210	0.377
-380.931	-18.918	0.077	-0.047
-379.917	-200.000	-0.001	0.465
-378.902	-200.000	0.013	0.096
-377.888	-45.118	-0.239	-0.118
-376.873	542.567	0.072	-0.170
-375.858	-193.264	0.185	-0.002
-374.844	-69.289	0.273	0.104
-373.829	800.000	0.066	0.258
-372.815	800.000	-0.094	0.410
-371.800	-62.433	0.171	0.071
-370.785	124.147	0.116	-0.145
-369.771	-200.000	-0.004	0.190
-368.756	-131.703	0.179	-0.023
-367.742	200.876	-0.089	0.136
-366.727	-170.743	-0.231	-0.008
-365.712	-111.916	-0.121	-0.024
-364.698	47.280	0.218	0.201
-363.683	-200.000	0.006	-0.225
-362.669	50.081	-0.192	-0.180
-361.654	-63.175	0.474	-0.194
-360.639	108.393	-0.041	0.049
-359.625	54.545	-0.179	-0.171
-358.610	461.401	-0.080	0.177
-357.596	170.715	-0.135	0.192
-356.581	-180.538	0.229	0.005
-355.566	-170.028	0.192	-0.007
-354.552	-5.603	-0.329	-0.224
-353.537	-47.900	0.412	0.198
-352.523	788.331	0.007	0.019
-351.508	-52.285	0.289	-0.133
-350.493	-116.129	0.182	-0.034
-349.479	50.570	0.115	0.108
-348.464	751.360	-0.062	-0.167
-347.450	800.000	-0.072	-0.212
-346.435	800.000	0.121	-0.356
-345.420	-113.719	0.266	-0.051
-344.406	35.924	-0.308	-0.269
-343.391	123.039	-0.151	0.187
-342.377	57.727	-0.008	-0.008
-341.362	-22.065	-0.134	0.081
-340.348	-89.580	-0.153	0.045
-339.333	365.431	-0.044	-0.088
-338.318	189.445	0.109	0.163
-337.304	-200.000	0.000	0.106
-336.289	-193.623	0.128	-0.001
-335.275	-135.197	-0.124	-0.015
-334.260	-155.177	-0.209	-0.014
-333.245	800.000	-0.062	0.202
-332.231	800.000	-0.076	-0.318
-331.216	359.741	-0.138	0.274
-330.202	89.661	-0.125	-0.138
-329.187	76.701	-0.166	-0.175
-328.172	-98.394	0.369	-0.094
-327.158	135.539	-0.041	-0.053
-326.143	-118.403	-0.077	0.014
-325.129	-132.032	0.340	-0.044
-324.114	-83.893	0.311	0.098
-323.099	-142.404	-0.363	-0.035
-322.085	99.670	-0.269	0.309
-321.070	-200.000	-0.022	-0.389
-320.056	-35.472	0.196	-0.106
-319.041	-38.073	-0.354	0.187
-318.026	203.723	-0.136	0.209
-317.012	-22.489	0.210	0.126
-315.997	358.591	-0.135	0.267
-314.983	40.890	-0.113	0.101
-313.968	-95.347	-0.110	-0.029
-312.953	800.000	0.031	-0.120
-311.939	-162.907	0.278	-0.013
-310.924	800.000	0.063	-0.260
-309.910	202.275	0.085	0.130
-308.895	-40.293	0.470	-0.242
-307.880	-129.590	0.062	0.009
-306.866	-69.441	0.226	-0.086
-305.851	-106.059	0.170	0.038
-304.837	468.872	0.108	-0.241
-303.822	-41.613	-0.045	-0.023
-302.807	-106.852	0.148	-0.032
-301.793	-200.000	-0.056	-0.264
-300.778	-94.041	-0.308	0.084
-299.764	-200.000	-0.053	-0.553
-298.749	-30.577	0.128	0.072
-297.735	-104.630	-0.567	0.130
-296.720	76.991	-0.085	0.090
-295.705	800.000	-0.060	-0.179
-294.691	-200.000	-0.024	0.290
-293.676	63.219	0.146	-0.145
-292.662	30.143	0.058	0.049
-291.647	254.070	-0.135	-0.229
-290.632	-200.000	0.087	-0.456
-289.618	21.389	0.063	0.051
-288.603	-153.359	-0.086	0.006
-287.589	-200.000	-0.017	-0.151
-286.574	591.291	0.112	-0.274
-285.559	-131.646	0.266	-0.035
-284.545	-200.000	-0.002	0.238
-283.530	-130.250	0.102	0.014
-282.516	-80.622	0.251	-0.083
-281.501	-200.000	0.007	-0.129
-280.486	-200.000	0.015	-0.257
-279.472	664.766	0.042	-0.108
-278.457	-16.387	0.209	-0.131
-277.443	17.684	0.058	-0.046
-276.428	-172.248	-0.341	-0.011
-275.413	65.876	-0.068	0.068
-274.399	800.000	-0.053	0.165
-273.384	27.003	0.380	-0.315
-272.370	-5.323	0.125	0.085
-271.355	-119.363	-0.099	-0.017
-270.340	-77.577	0.095	-0.032
-269.326	800.000	0.086	-0.279
-268.311	-73.655	-0.212	-0.076
-267.297	-200.000	-0.019	0.212
-266.282	-189.773	-0.225	0.003
-265.267	-81.592	0.238	0.077
-264.253	-100.465	-0.167	0.041
-263.238	76.685	-0.148	0.156
-262.224	-38.449	0.252	-0.132
-261.209	-64.739	-0.245	-0.098
-260.195	800.000	0.109	-0.311
-259.180	23.242	0.121	0.098
-258.165	97.336	0.177	0.201
-257.151	-200.000	-0.010	0.128
-256.136	202.723	0.030	0.045
-255.122	18.054	0.196	0.154
-254.107	-17.222	0.043	-0.027
-253.092	88.593	0.150	0.165
-252.078	-125.986	0.218	-0.032
-251.063	-4.439	-0.139	-0.095
-250.049	-23.094	0.421	-0.251
-249.034	800.000	-0.074	-0.247
-248.019	42.975	-0.195	0.176
-247.005	-113.366	0.023	0.005
-245.990	-144.998	0.314	-0.028
-244.976	-56.427	0.026	-0.011
-243.961	800.000	-0.116	0.333
-242.946	-200.000	-0.023	0.135
-241.932	-158.663	0.109	-0.006
-240.917	-137.122	-0.222	0.025
-239.903	413.056	0.143	-0.301
-238.888	800.000	0.078	0.226
-237.873	114.041	-0.232	-0.279
-236.859	-200.000	0.007	0.163
-235.844	-50.153	-0.103	-0.048
-234.830	-102.807	-0.385	0.091
-233.815	-143.496	0.197	0.019
-232.800	-18.171	-0.234	-0.145
-231.786	-95.831	-0.131	0.034
-230.771	-71.102	0.272	-0.101
-229.757	-183.186	-0.374	-0.007
-228.742	-45.364	0.103	-0.051
-227.727	-116.991	-0.253	0.046
-226.713	-200.000	-0.024	0.151
-225.698	-111.989	-0.173	-0.035
-224.684	-200.000	0.087	-0.457
-223.669	48.158	0.114	-0.105
-222.655	-91.216	0.164	0.047
-221.640	-113.890	-0.490	0.094
-220.625	756.251	0.090	0.240
-219.611	-9.996	0.239	-0.157
-218.596	-128.964	-0.304	0.042
-217.582	506.382	0.079	0.182
-216.567	-45.407	0.137	0.067
-215.552	800.000	-0.157	0.474
-214.538	112.060	0.173	0.206
-213.523	-106.316	-0.623	0.138
-212.509	-42.567	-0.159	-0.080
-211.494	-51.544	-0.224	-0.103
-210.479	-77.768	0.147	0.050
-209.465	-200.000	0.006	0.232
-208.450	800.000	-0.017	-0.071
-207.436	-21.632	0.255	0.153
-206.421	-71.914	-0.508	0.187
-205.406	214.501	-0.108	-0.168
-204.392	-200.000	0.040	0.204
-203.377	40.625	-0.241	-0.215
-202.363	-20.288	-0.055	0.034
-201.348	-200.000	-0.024	0.132
-200.333	83.127	0.165	0.177
-199.319	-200.000	-0.007	-0.292
-198.304	-172.413	0.157	-0.005
-197.290	-21.845	0.429	0.257
-196.275	-200.000	0.018	0.310
-195.260	0.848	-0.200	0.141
-194.246	-157.427	-0.266	-0.016
-193.231	2.757	-0.283	0.202
-192.217	1.713	-0.316	-0.224
-191.202	103.968	0.260	-0.302
-190.187	-5.313	0.358	-0.243
-189.173	75.251	-0.185	-0.193
-188.158	174.683	-0.133	0.190
-187.144	-40.297	0.038	-0.019
-186.129	-200.000	0.006	0.104
-185.114	-101.409	-0.176	-0.042
-184.100	49.076	0.194	-0.180
-183.085	-200.000	-0.020	-0.253
-182.071	369.947	-0.097	0.194
-181.056	119.137	-0.247	-0.302
-180.042	-62.433	0.280	0.115
-179.027	116.459	0.035	-0.043
-178.012	136.409	-0.099	-0.127
-176.998	30.520	0.226	0.191
-175.983	320.665	0.049	0.092
-174.969	-200.000	0.057	0.483
-173.954	-19.273	0.139	0.085
-172.939	-200.000	-0.019	-0.165
-171.925	63.980	-0.064	-0.063
-170.910	-127.655	0.266	0.038
-169.896	246.008	0.144	-0.239
-168.881	-80.571	-0.177	-0.058
-167.866	-9.220	0.192	0.127
-166.852	71.976	-0.185	0.189
-165.837	800.000	0.051	0.215
-164.823	283.686	-0.124	-0.220
-163.808	99.783	0.179	0.204
-162.793	-53.937	0.113	0.051
-161.779	-79.612	0.147	-0.049
-160.764	-64.034	-0.039	-0.016
-159.750	155.890	0.131	0.177
-158.735	215.964	-0.072	0.113
-157.720	215.429	-0.084	0.132
-156.706	-200.000	0.064	0.277
-155.691	23.335	-0.212	0.172
-154.677	-126.715	0.249	-0.036
-153.662	-54.198	-0.246	-0.110
-152.647	-124.799	0.212	0.032
-151.633	169.705	0.114	-0.160
-150.618	42.471	0.119	0.106
-149.604	17.966	0.223	0.175
-148.589	-76.391	0.202	-0.070
-147.574	67.286	0.167	0.168
-146.560	-20.949	-0.091	0.055
-145.545	153.783	0.096	-0.129
-144.531	-102.046	0.200	0.048
-143.516	800.000	0.023	0.080
-142.502	-153.899	-0.175	0.012
-141.487	-200.000	0.004	0.105
-140.472	21.951	0.271	0.218
-139.458	-111.129	0.089	-0.018
-138.443	381.371	0.163	0.329
-137.429	-170.630	-0.468	0.016
-136.414	96.202	0.056	0.062
-135.399	-200.000	-0.011	0.054
-134.385	800.000	0.061	0.202
-133.370	-110.071	0.135	-0.028
-132.356	-128.751	-0.374	0.052
-131.341	800.000	0.049	-0.203
-130.326	800.000	-0.050	0.145
-129.312	18.363	0.158	-0.124
-128.297	53.925	0.193	-0.183
-127.283	288.481	-0.145	0.258
-126.268	109.412	0.263	0.310
-125.253	-200.000	0.004	-0.039
-124.239	5.350	-0.139	0.101
-123.224	397.670	-0.096	0.199
-122.210	96.380	0.313	0.353
-121.195	-200.000	0.025	0.141
