DTS Sentinel unit serial number:	SN413079Multiplexer serial number:	ORYXHardware model number:	OX4-SRSoftware version number:	ORYX F/W v4.00 Oryx Data Collector v3.7.2.0data status	okinstallation	princeton_trtdifferential loss correction	single-endedforward channel	channel 1reverse channel	N/Adate	2019/09/13time	08:50:35forward acquisition time	60.00reverse acquisition time	0.00gamma	496.2192k internal	0.2328k external	0.2328temperature offset calibration	1.0162default loss term (dB/km)	0.3790temperature slope calibration	1.0000multiplexer offset coefficient	1.0000multiplexer slope coefficient	1.0000fibre end	0.00T internal ref (°C)	28.08T ext. ref 1 (°C)	4.33T ext. ref 2 (°C)	25.05length (m)	temperature (°C)	Stokes	anti-Stokes-747.200	-83.646	0.342	-0.110
-746.185	800.000	0.037	0.108
-745.171	335.439	0.193	0.377
-744.156	-8.746	-0.289	0.196
-743.142	-83.787	0.119	0.038
-742.127	-200.000	-0.007	0.055
-741.112	800.000	-0.043	0.150
-740.098	-57.692	-0.091	-0.040
-739.083	616.408	0.045	-0.114
-738.069	800.000	0.028	0.096
-737.054	-57.722	-0.318	-0.140
-736.039	-170.114	0.294	0.011
-735.025	-34.427	-0.148	0.082
-734.010	42.486	-0.543	-0.498
-732.996	-160.362	0.094	0.005
-731.981	35.504	-0.207	-0.183
-730.966	-200.000	0.028	0.333
-729.952	-21.334	-0.226	-0.139
-728.937	25.306	-0.252	-0.211
-727.923	-200.000	-0.025	0.135
-726.908	547.425	-0.180	-0.433
-725.894	-200.000	-0.027	-0.136
-724.879	128.283	0.202	-0.258
-723.864	120.496	-0.094	0.118
-722.850	56.327	0.224	-0.220
-721.835	94.977	0.215	-0.246
-720.821	-156.156	-0.202	0.013
-719.806	27.063	-0.179	0.151
-718.791	800.000	0.055	-0.179
-717.777	-200.000	-0.087	-0.401
-716.762	-112.439	-0.107	-0.021
-715.748	-19.447	-0.247	0.154
-714.733	-200.000	0.020	0.119
-713.718	93.793	-0.230	-0.262
-712.704	-200.000	0.019	-0.131
-711.689	-200.000	-0.021	0.127
-710.675	-200.000	-0.014	-0.326
-709.660	-54.766	-0.213	0.097
-708.645	-24.518	0.270	0.162
-707.631	-200.000	-0.004	0.086
-706.616	339.331	0.174	-0.342
-705.602	-111.611	0.267	-0.055
-704.587	-30.595	-0.147	-0.084
-703.572	-84.687	-0.131	-0.042
-702.558	197.029	0.078	0.120
-701.543	-200.000	0.015	0.081
-700.529	-200.000	-0.026	-0.151
-699.514	800.000	-0.027	-0.113
-698.499	170.962	-0.047	0.068
-697.485	800.000	-0.024	0.070
-696.470	587.803	-0.192	-0.475
-695.456	12.422	0.176	-0.137
-694.441	68.742	-0.192	-0.198
-693.426	89.170	0.061	-0.068
-692.412	35.823	0.224	-0.198
-691.397	-129.298	0.074	-0.010
-690.383	373.267	-0.155	-0.316
-689.368	192.358	-0.017	-0.025
-688.354	800.000	-0.122	-0.528
-687.339	65.933	-0.014	0.014
-686.324	-146.133	-0.317	0.028
-685.310	-119.025	0.269	0.047
-684.295	-74.624	-0.463	0.168
-683.281	-88.988	0.082	0.024
-682.266	680.451	-0.011	-0.029
-681.251	-200.000	0.017	0.130
-680.237	403.179	0.146	0.309
-679.222	215.862	-0.082	0.131
-678.208	-104.476	0.166	-0.039
-677.193	-135.202	0.052	-0.006
-676.178	-118.762	-0.178	0.032
-675.164	-200.000	-0.007	0.237
-674.149	-170.385	0.167	-0.006
-673.135	-200.000	-0.008	-0.203
-672.120	-165.672	-0.302	0.013
-671.105	180.020	-0.197	0.290
-670.091	372.113	-0.098	-0.201
-669.076	-200.000	0.023	-0.145
-668.062	-154.263	-0.157	-0.011
-667.047	-9.482	0.182	0.122
-666.032	245.168	-0.211	-0.356
-665.018	-0.161	-0.137	0.098
-664.003	800.000	-0.054	-0.181
-662.989	209.248	0.118	-0.185
-661.974	-16.327	0.070	-0.045
-660.959	415.124	-0.056	-0.120
-659.945	-16.931	0.150	-0.095
-658.930	-148.208	-0.256	0.021
-657.916	339.453	0.111	-0.217
-656.901	-95.455	-0.629	0.170
-655.886	-20.866	0.181	-0.111
-654.872	-138.315	-0.348	0.039
-653.857	-1.948	-0.051	0.036
-652.843	-55.557	-0.250	0.113
-651.828	-80.308	-0.297	-0.100
-650.814	82.507	-0.191	-0.208
-649.799	-91.354	0.243	0.070
-648.784	158.036	-0.204	-0.284
-647.770	-93.552	-0.252	-0.070
-646.755	800.000	0.056	-0.242
-645.741	-88.749	-0.243	0.072
-644.726	6.328	-0.104	0.077
-643.711	542.246	-0.087	0.207
-642.697	-32.035	-0.386	-0.217
-641.682	-30.764	0.266	-0.151
-640.668	-200.000	-0.004	0.164
-639.653	-29.718	-0.129	-0.074
-638.638	-200.000	-0.007	-0.072
-637.624	30.275	0.249	-0.213
-636.609	800.000	-0.091	-0.278
-635.595	-31.147	0.087	-0.049
-634.580	-93.452	0.247	-0.069
-633.565	143.633	0.121	-0.161
-632.551	-77.409	-0.279	-0.097
-631.536	19.396	0.210	-0.169
-630.522	-200.000	0.044	-0.228
-629.507	148.008	-0.021	-0.028
-628.492	206.476	-0.077	0.120
-627.478	-200.000	-0.075	-0.359
-626.463	-200.000	0.034	-0.186
-625.449	-69.946	-0.342	-0.131
-624.434	-155.167	-0.326	0.021
-623.419	-36.337	-0.254	0.137
-622.405	-20.860	0.192	-0.118
-621.390	387.320	-0.028	-0.058
-620.376	329.071	0.086	0.166
-619.361	-54.567	0.115	0.052
-618.346	-20.813	-0.154	0.094
-617.332	61.740	-0.121	-0.121
-616.317	800.000	0.034	-0.107
-615.303	502.848	0.048	-0.112
-614.288	43.262	-0.108	0.099
-613.273	-200.000	-0.060	-0.362
-612.259	-11.420	0.096	-0.064
-611.244	432.589	0.039	0.085
-610.230	-59.976	0.452	-0.194
-609.215	-200.000	0.001	0.176
-608.201	140.364	0.266	0.352
-607.186	470.151	-0.086	0.193
-606.171	800.000	-0.084	-0.243
-605.157	576.182	0.209	0.512
-604.142	270.607	0.167	-0.294
-603.128	-70.972	0.029	-0.011
-602.113	-200.000	0.101	0.447
-601.098	131.898	-0.254	0.327
-600.084	175.163	-0.098	-0.143
-599.069	25.280	0.198	0.165
-598.055	-68.279	0.021	0.008
-597.040	-78.876	-0.094	0.032
-596.025	220.117	-0.075	0.120
-595.011	-184.623	-0.217	-0.004
-593.996	192.786	-0.050	-0.075
-592.982	97.796	0.114	0.132
-591.967	120.232	0.211	0.262
-590.952	-96.786	-0.200	0.053
-589.938	115.459	0.122	-0.149
-588.923	87.323	-0.225	-0.250
-587.909	-200.000	-0.008	-0.139
-586.894	17.165	-0.119	0.094
-585.879	-87.143	-0.335	-0.102
-584.865	-35.868	0.268	-0.145
-583.850	181.468	0.130	0.191
-582.836	395.600	0.036	-0.074
-581.821	-2.614	-0.335	0.235
-580.806	800.000	-0.067	0.205
-579.792	653.929	-0.076	-0.196
-578.777	88.204	-0.225	0.250
-577.763	75.327	-0.164	-0.173
-576.748	469.666	-0.113	0.254
-575.733	28.193	-0.413	0.349
-574.719	278.417	-0.162	0.289
-573.704	224.474	-0.148	0.239
-572.690	-88.377	-0.117	-0.035
-571.675	256.048	0.227	-0.389
-570.661	546.628	-0.100	-0.239
-569.646	264.484	0.115	-0.200
-568.631	-9.312	-0.177	-0.118
-567.617	-200.000	0.000	0.131
-566.602	499.326	-0.039	0.090
-565.588	-133.371	0.252	-0.032
-564.573	-45.169	0.235	0.117
-563.558	66.216	-0.259	-0.264
-562.544	108.149	-0.044	-0.053
-561.529	-200.000	0.019	-0.296
-560.515	-123.241	0.088	-0.014
-559.500	-200.000	-0.019	-0.191
-558.485	-200.000	0.023	-0.151
-557.471	499.495	-0.092	-0.212
-556.456	777.642	-0.036	-0.099
-555.442	266.192	-0.127	-0.222
-554.427	36.776	0.232	-0.205
-553.412	-200.000	0.076	-0.414
-552.398	-67.222	-0.247	0.097
-551.383	-147.964	-0.264	0.022
-550.369	-36.121	0.047	0.026
-549.354	-15.592	-0.069	-0.044
-548.339	800.000	0.078	0.257
-547.325	-200.000	0.026	-0.150
-546.310	800.000	-0.032	-0.127
-545.296	-50.789	-0.154	0.072
-544.281	291.804	0.115	-0.210
-543.266	-200.000	-0.003	-0.068
-542.252	-27.339	0.047	0.027
-541.237	800.000	-0.061	0.192
-540.223	165.902	0.163	0.230
-539.208	265.844	-0.083	0.144
-538.193	-90.195	0.353	0.103
-537.179	-137.879	-0.321	0.036
-536.164	157.169	-0.105	-0.145
-535.150	246.682	-0.079	-0.132
-534.135	-164.942	0.138	-0.006
-533.121	140.132	-0.032	0.042
-532.106	-200.000	0.054	-0.337
-531.091	113.249	-0.194	-0.235
-530.077	-200.000	0.000	-0.052
-529.062	348.087	-0.045	-0.088
-528.048	-31.795	0.297	0.167
-527.033	269.513	-0.144	0.252
-526.018	-134.057	-0.286	-0.035
-525.004	-50.202	0.070	-0.033
-523.989	256.170	-0.127	-0.218
-522.975	499.736	-0.024	-0.055
-521.960	800.000	0.030	-0.127
-520.945	-190.676	0.249	0.003
-519.931	128.887	-0.044	0.056
-518.916	-41.408	-0.109	-0.056
-517.902	-136.133	0.352	-0.041
-516.887	353.791	-0.056	0.111
-515.872	220.740	0.038	-0.060
-514.858	-200.000	-0.009	0.221
-513.843	800.000	0.037	0.147
-512.829	156.874	-0.100	-0.139
-511.814	-200.000	0.033	-0.322
-510.799	-84.740	-0.156	0.049
-509.785	-172.463	-0.144	-0.005
-508.770	-43.885	-0.273	0.137
-507.756	-1.459	-0.266	0.187
-506.741	-94.819	-0.191	0.052
-505.726	-200.000	0.035	0.270
-504.712	800.000	-0.102	0.371
-503.697	800.000	0.030	0.128
-502.683	-35.598	-0.133	0.072
-501.668	113.710	-0.106	-0.128
-500.653	-138.903	0.287	0.031
-499.639	32.596	0.079	-0.068
-498.624	-200.000	0.026	0.203
-497.610	-49.022	0.484	0.231
-496.595	358.160	-0.184	-0.366
-495.581	800.000	0.093	-0.283
-494.566	2.830	-0.190	-0.138
-493.551	132.872	0.178	0.229
-492.537	-134.395	0.238	-0.029
-491.522	-67.125	0.143	0.056
-490.508	-105.316	0.266	0.060
-489.493	-134.253	-0.250	-0.031
-488.478	273.898	-0.070	0.123
-487.464	-52.133	-0.172	-0.080
-486.449	800.000	-0.044	-0.176
-485.435	-96.103	-0.120	-0.032
-484.420	125.616	0.167	0.210
-483.405	260.718	0.194	0.335
-482.391	-109.470	-0.251	-0.053
-481.376	-178.690	0.082	-0.002
-480.362	-200.000	-0.021	-0.333
-479.347	-146.726	-0.255	0.022
-478.332	-77.803	-0.126	0.043
-477.318	800.000	0.130	0.364
-476.303	7.769	-0.121	-0.090
-475.289	-98.783	0.062	0.016
-474.274	361.380	0.119	0.237
-473.259	48.383	-0.166	-0.155
-472.245	94.442	0.046	0.052
-471.230	21.063	0.068	0.055
-470.216	-27.542	0.089	-0.052
-469.201	299.289	-0.178	0.326
-468.186	93.279	-0.120	0.135
-467.172	-106.191	0.119	0.027
-466.157	166.313	0.210	-0.297
-465.143	-87.267	0.263	0.079
-464.128	66.647	-0.062	0.062
-463.113	141.130	0.237	-0.312
-462.099	100.982	0.197	-0.228
-461.084	-200.000	0.022	-0.210
-460.070	26.850	0.285	-0.238
-459.055	519.723	-0.050	0.118
-458.040	-82.382	0.282	-0.091
-457.026	-3.400	0.266	-0.185
-456.011	-176.161	0.374	0.010
-454.997	35.151	-0.129	0.113
-453.982	800.000	-0.053	0.174
-452.968	64.695	0.044	-0.044
-451.953	-200.000	0.024	0.182
-450.938	-95.262	-0.198	-0.053
-449.924	-200.000	-0.040	0.190
-448.909	-134.757	-0.255	-0.031
-447.895	-72.823	0.303	-0.111
-446.880	-200.000	-0.022	-0.315
-445.865	34.203	-0.267	0.232
-444.851	-94.780	0.423	-0.114
-443.836	800.000	0.016	0.070
-442.822	103.284	-0.181	-0.212
-441.807	279.936	0.078	0.139
-440.792	19.535	0.129	-0.103
-439.778	225.161	-0.041	0.067
-438.763	-200.000	-0.038	-0.194
-437.749	-200.000	0.004	0.174
-436.734	-83.805	-0.211	-0.067
-435.719	279.790	-0.131	-0.232
-434.705	-4.853	-0.173	0.118
-433.690	-64.697	0.098	-0.040
-432.676	91.911	-0.230	0.258
-431.661	-142.055	-0.126	0.012
-430.646	-151.045	-0.387	0.029
-429.632	800.000	-0.113	-0.325
-428.617	-67.706	-0.283	0.110
-427.603	-168.912	0.258	0.010
-426.588	174.813	0.119	0.172
-425.573	-200.000	-0.066	0.599
-424.559	18.991	0.278	0.222
-423.544	-200.000	-0.073	-0.486
-422.530	800.000	0.046	0.171
-421.515	310.874	-0.181	0.337
-420.500	800.000	-0.041	-0.146
-419.486	-200.000	-0.022	0.105
-418.471	-183.911	0.419	0.007
-417.457	-113.176	0.212	-0.042
-416.442	-200.000	0.007	0.051
-415.428	-200.000	-0.002	-0.020
-414.413	-18.782	-0.040	0.025
-413.398	17.544	0.164	0.130
-412.384	72.938	-0.139	0.144
-411.369	69.708	-0.140	0.144
-410.355	85.345	0.102	0.112
-409.340	124.543	-0.226	-0.282
-408.325	578.776	-0.153	-0.373
-407.311	-34.983	-0.210	-0.114
-406.296	-142.417	-0.147	-0.014
-405.282	-200.000	-0.039	-0.212
-404.267	663.012	0.117	0.301
-403.252	-200.000	0.022	0.389
-402.238	-113.942	-0.191	0.037
-401.223	102.613	-0.038	0.044
-400.209	63.898	0.138	-0.138
-399.194	221.720	0.258	0.412
-398.179	800.000	0.065	0.229
-397.165	264.334	-0.163	0.282
-396.150	800.000	0.055	0.201
-395.136	-34.762	-0.136	-0.074
-394.121	104.739	-0.087	0.102
-393.106	800.000	-0.039	-0.163
-392.092	-133.083	-0.075	-0.009
-391.077	-174.500	0.114	0.003
-390.063	800.000	0.044	0.184
-389.048	-200.000	-0.014	-0.191
-388.033	42.924	-0.135	-0.122
-387.019	236.019	0.165	-0.271
-386.004	-114.364	-0.246	0.047
-384.990	-1.112	-0.173	0.121
-383.975	-141.269	0.202	-0.020
-382.960	800.000	-0.075	0.306
-381.946	-137.048	0.160	0.018
-380.931	-113.532	0.225	-0.044
-379.917	-119.049	-0.291	0.051
-378.902	-116.960	0.139	-0.025
-377.888	679.191	0.181	0.469
-376.873	800.000	0.018	0.062
-375.858	-200.000	0.005	-0.204
-374.844	-200.000	0.056	0.311
-373.829	-41.989	0.275	-0.140
-372.815	800.000	-0.171	0.513
-371.800	-130.572	-0.257	0.035
-370.785	-145.282	0.337	-0.030
-369.771	487.244	0.024	-0.055
-368.756	465.154	-0.212	-0.471
-367.742	200.022	-0.047	-0.072
-366.727	-132.851	-0.103	0.013
-365.712	-140.722	0.367	0.038
-364.698	-200.000	0.004	-0.190
-363.683	-60.640	0.334	0.141
-362.669	-200.000	-0.002	0.354
-361.654	254.367	0.048	-0.081
-360.639	-29.965	0.156	-0.088
-359.625	-49.956	0.255	-0.120
-358.610	152.821	0.096	-0.131
-357.596	398.858	0.063	0.130
-356.581	-195.071	-0.411	0.003
-355.566	800.000	0.056	0.158
-354.552	25.367	-0.217	0.179
-353.537	75.489	-0.098	0.103
-352.523	629.487	0.076	-0.190
-351.508	-200.000	-0.005	0.273
-350.493	800.000	-0.125	0.346
-349.479	123.347	0.146	0.181
-348.464	-65.618	0.121	-0.048
-347.450	-200.000	-0.039	-0.293
-346.435	-200.000	0.018	0.214
-345.420	448.354	-0.060	-0.131
-344.406	-164.498	-0.217	0.010
-343.391	592.861	-0.059	-0.145
-342.377	800.000	0.089	-0.325
-341.362	-200.000	0.010	-0.419
-340.348	800.000	0.023	-0.069
-339.333	800.000	0.066	-0.223
-338.318	100.957	0.214	0.246
-337.304	-200.000	-0.020	-0.182
-336.289	-200.000	-0.024	-0.295
-335.275	800.000	-0.064	0.210
-334.260	-200.000	0.054	-0.258
-333.245	88.078	0.066	0.072
-332.231	646.456	-0.091	-0.231
-331.216	-37.988	0.150	-0.079
-330.202	800.000	-0.034	0.129
-329.187	-108.293	0.165	0.035
-328.172	20.221	-0.447	0.358
-327.158	43.677	-0.047	0.043
-326.143	74.896	0.176	-0.184
-325.129	-21.620	-0.527	-0.318
-324.114	-60.714	0.167	0.070
-323.099	800.000	-0.075	0.237
-322.085	-184.003	0.251	-0.004
-321.070	-200.000	-0.025	-0.279
-320.056	-200.000	0.037	-0.171
-319.041	800.000	-0.047	-0.158
-318.026	-200.000	-0.017	0.127
-317.012	782.091	-0.028	-0.077
-315.997	748.309	-0.089	-0.237
-314.983	-11.501	0.189	0.123
-313.968	548.394	0.073	-0.173
-312.953	90.228	-0.311	0.345
-311.939	-150.082	-0.037	-0.003
-310.924	-200.000	-0.037	0.251
-309.910	-29.318	0.351	-0.199
-308.895	-91.648	-0.460	-0.130
-307.880	759.114	0.021	0.057
-306.866	-200.000	0.027	0.207
-305.851	30.362	0.232	-0.196
-304.837	800.000	-0.030	-0.107
-303.822	216.782	-0.263	-0.414
-302.807	797.974	0.101	-0.275
-301.793	-60.159	0.191	-0.081
-300.778	80.697	0.117	0.125
-299.764	-63.804	0.143	0.058
-298.749	-7.079	-0.172	-0.116
-297.735	-106.339	-0.207	-0.046
-296.720	164.796	-0.192	-0.268
-295.705	219.373	0.130	0.205
-294.691	800.000	-0.042	0.147
-293.676	-44.068	0.331	0.165
-292.662	-23.191	0.081	-0.048
-291.647	-70.075	0.272	-0.102
-290.632	-97.988	0.384	0.098
-289.618	800.000	0.050	-0.146
-288.603	-150.104	0.297	-0.023
-287.589	346.679	0.141	-0.276
-286.574	179.161	-0.270	0.390
-285.559	-95.418	0.476	0.127
-284.545	124.499	0.086	0.107
-283.530	48.588	0.067	-0.062
-282.516	-92.441	0.045	0.013
-281.501	-88.649	-0.106	0.031
-280.486	-156.740	0.099	-0.006
-279.472	425.937	0.155	-0.331
-278.457	-42.008	-0.249	-0.126
-277.443	-200.000	-0.009	0.098
-276.428	150.507	0.179	-0.241
-275.413	-0.890	0.158	-0.111
-274.399	769.473	-0.129	-0.347
-273.384	-127.126	-0.196	0.028
-272.370	-98.833	0.334	-0.084
-271.355	-159.028	0.067	-0.004
-270.340	-152.515	-0.300	0.021
-269.326	-41.276	-0.252	0.128
-268.311	-29.427	-0.276	0.156
-267.297	54.874	0.088	-0.084
-266.282	268.813	0.120	0.209
-265.267	319.231	0.021	-0.040
-264.253	-200.000	-0.066	0.410
-263.238	-200.000	0.038	0.183
-262.224	-0.473	0.289	-0.203
-261.209	36.705	0.283	0.247
-260.195	-13.109	-0.103	-0.066
-259.180	187.397	0.053	0.079
-258.165	-81.077	-0.214	0.070
-257.151	-200.000	-0.005	0.077
-256.136	-91.739	0.267	-0.075
-255.122	205.198	-0.086	-0.132
-254.107	17.209	0.035	-0.027
-253.092	267.320	0.059	0.102
-252.078	-22.246	0.125	0.075
-251.063	-12.645	-0.199	0.129
-250.049	-43.264	0.039	-0.020
-249.034	-200.000	-0.040	0.349
-248.019	-50.774	0.204	0.095
-247.005	717.134	0.058	0.153
-245.990	-84.339	0.190	0.059
-244.976	-200.000	0.014	0.335
-243.961	-200.000	0.052	-0.435
-242.946	1.933	-0.187	-0.133
-241.932	800.000	-0.121	-0.414
-240.917	-200.000	0.105	-0.472
-239.903	-200.000	-0.023	0.159
-238.888	-20.604	-0.192	-0.116
-237.873	-200.000	0.033	-0.258
-236.859	-18.112	0.227	-0.140
-235.844	174.026	-0.046	-0.066
-234.830	470.314	-0.113	0.251
-233.815	800.000	-0.049	-0.169
-232.800	-200.000	-0.013	-0.151
-231.786	25.751	-0.191	0.157
-230.771	-7.458	0.254	0.170
-229.757	112.064	-0.092	0.110
-228.742	45.416	0.102	-0.093
-227.727	-145.266	-0.084	0.007
-226.713	58.169	0.350	0.339
-225.698	17.549	0.309	-0.243
-224.684	-162.887	-0.191	0.009
-223.669	-74.084	-0.077	-0.028
-222.655	-94.639	0.218	0.059
-221.640	-119.752	-0.074	-0.013
-220.625	7.965	-0.225	-0.166
-219.611	38.279	-0.339	0.298
-218.596	-37.471	-0.108	-0.057
-217.582	339.278	0.029	-0.055
-216.567	-83.220	0.090	0.028
-215.552	132.281	-0.087	0.110
-214.538	-200.000	0.008	-0.136
-213.523	151.209	-0.259	0.348
-212.509	-80.978	-0.108	-0.035
-211.494	-157.274	0.080	0.005
-210.479	288.937	-0.051	0.091
-209.465	800.000	0.174	-0.599
-208.450	119.564	-0.009	0.011
-207.436	2.250	-0.445	0.317
-206.421	-200.000	0.027	-0.217
-205.406	210.471	-0.097	-0.150
-204.392	-75.474	0.211	-0.074
-203.377	-200.000	-0.016	-0.330
-202.363	-200.000	0.011	-0.217
-201.348	-200.000	-0.006	0.140
-200.333	-73.810	0.397	0.142
-199.319	800.000	-0.061	0.180
-198.304	5.756	0.142	0.103
-197.290	800.000	0.064	0.195
-196.275	-24.067	-0.234	0.138
-195.260	82.274	0.022	-0.024
-194.246	164.633	-0.146	0.203
-193.231	-9.829	0.225	-0.148
-192.217	-200.000	-0.002	0.151
-191.202	-93.405	0.227	0.062
-190.187	100.752	0.043	-0.049
-189.173	654.153	-0.073	-0.186
-188.158	-23.783	0.284	-0.167
-187.144	-200.000	0.034	-0.291
-186.129	18.687	0.073	0.058
-185.114	-118.723	-0.194	-0.034
-184.100	12.565	-0.539	0.410
-183.085	800.000	-0.052	-0.186
-182.071	172.580	-0.072	0.102
-181.056	97.749	0.048	0.055
-180.042	49.293	0.211	0.196
-179.027	-88.428	0.337	-0.099
-178.012	-57.629	0.253	0.109
-176.998	99.135	0.072	0.082
-175.983	-34.884	0.054	0.029
-174.969	-163.542	0.100	0.005
-173.954	-167.504	0.437	0.017
-172.939	3.091	0.100	0.072
-171.925	-200.000	-0.024	0.253
-170.910	210.059	-0.109	-0.168
-169.896	-200.000	0.009	-0.074
-168.881	-10.131	0.087	-0.057
-167.866	-55.902	-0.097	0.042
-166.852	-74.859	0.093	-0.033
-165.837	-58.563	-0.418	0.179
-164.823	-52.625	-0.183	0.083
-163.808	-61.653	-0.162	-0.067
-162.793	-87.102	-0.118	0.035
-161.779	-13.616	0.031	0.020
-160.764	351.444	0.050	0.098
-159.750	171.290	0.134	0.189
-158.735	-111.327	0.365	-0.073
-157.720	-93.610	-0.320	-0.087
-156.706	-79.789	-0.081	-0.027
-155.691	630.219	0.067	0.166
-154.677	-200.000	-0.002	0.320
-153.662	367.319	0.177	0.351
-152.647	130.458	-0.139	0.175
-151.633	-107.190	-0.290	-0.063
-150.618	163.393	-0.112	-0.155
-149.604	-12.105	0.113	0.073
-148.589	24.475	0.140	0.114
-147.574	-23.854	-0.142	-0.084
-146.560	-200.000	0.019	0.335
-145.545	182.545	0.299	0.434
-144.531	-69.882	-0.126	-0.047
-143.516	-166.749	0.216	-0.009
-142.502	-56.590	-0.298	-0.130
-141.487	-200.000	-0.077	-0.339
-140.472	268.186	-0.163	-0.282
-139.458	-200.000	0.020	0.155
-138.443	328.204	0.069	-0.131
-137.429	-31.305	-0.074	0.041
-136.414	-200.000	-0.010	0.069
-135.399	-200.000	-0.013	-0.069
-134.385	-7.638	-0.159	0.106
-133.370	-20.338	-0.150	-0.091
-132.356	-38.097	-0.360	-0.188
-131.341	291.010	0.136	0.243
-130.326	-111.698	0.155	-0.031
-129.312	-40.045	0.109	0.056
-128.297	619.376	0.073	-0.181
-127.283	-116.331	-0.329	0.060
-126.268	-88.351	0.144	-0.042
-125.253	-92.462	-0.552	-0.153
-124.239	411.450	-0.109	0.228
-123.224	78.336	-0.138	0.145
-122.210	361.847	-0.018	0.036
