DTS Sentinel unit serial number:	SN413079Multiplexer serial number:	ORYXHardware model number:	OX4-SRSoftware version number:	ORYX F/W v4.00 Oryx Data Collector v3.7.2.0data status	okinstallation	princeton_trtdifferential loss correction	single-endedforward channel	channel 1reverse channel	N/Adate	2019/09/15time	13:50:35forward acquisition time	60.00reverse acquisition time	0.00gamma	496.2192k internal	0.2293k external	0.2293temperature offset calibration	0.9972default loss term (dB/km)	0.3790temperature slope calibration	1.0000multiplexer offset coefficient	1.0000multiplexer slope coefficient	1.0000fibre end	0.00T internal ref (°C)	38.19T ext. ref 1 (°C)	4.93T ext. ref 2 (°C)	35.56length (m)	temperature (°C)	Stokes	anti-Stokes-747.200	14.816	-0.427	-0.342
-746.185	497.092	-0.074	0.175
-745.171	-40.059	0.380	0.203
-744.156	-200.000	0.064	0.318
-743.142	-24.423	0.295	-0.180
-742.127	-200.000	-0.016	-0.100
-741.112	800.000	0.059	0.261
-740.098	378.988	0.100	0.210
-739.083	-107.393	-0.305	-0.068
-738.069	-50.238	-0.113	-0.055
-737.054	35.102	-0.132	0.118
-736.039	800.000	-0.118	-0.369
-735.025	21.989	0.150	0.125
-734.010	610.282	0.033	0.083
-732.996	-185.234	-0.291	-0.005
-731.981	-131.442	0.093	0.013
-730.966	-88.469	-0.109	-0.033
-729.952	-125.310	-0.337	0.053
-728.937	-2.927	0.053	0.038
-727.923	150.329	-0.148	-0.206
-726.908	800.000	-0.030	-0.091
-725.894	-94.760	0.191	0.053
-724.879	800.000	0.044	-0.139
-723.864	-92.234	0.123	0.035
-722.850	-46.936	-0.242	0.121
-721.835	45.607	-0.229	-0.216
-720.821	-31.703	-0.229	-0.131
-719.806	-99.881	-0.160	-0.041
-718.791	154.177	-0.136	-0.190
-717.777	-32.583	-0.161	-0.092
-716.762	-160.081	-0.144	-0.008
-715.748	111.837	0.190	-0.234
-714.733	-200.000	-0.089	-0.432
-713.718	-135.659	-0.351	0.043
-712.704	800.000	0.090	-0.328
-711.689	-52.434	-0.102	-0.048
-710.675	-8.039	0.309	0.213
-709.660	-77.245	0.446	0.159
-708.645	-200.000	0.008	0.044
-707.631	-173.911	0.547	-0.017
-706.616	-50.450	0.409	0.197
-705.602	273.613	0.177	-0.320
-704.587	-67.110	0.166	0.067
-703.572	-125.466	-0.261	0.041
-702.558	742.679	-0.067	-0.184
-701.543	-107.433	0.321	-0.072
-700.529	-77.173	-0.108	-0.038
-699.514	-135.399	-0.069	0.008
-698.499	22.261	-0.224	-0.187
-697.485	378.233	-0.151	-0.315
-696.470	-200.000	0.000	-0.046
-695.456	-88.632	-0.198	0.060
-694.441	250.255	0.074	-0.128
-693.426	-200.000	0.003	-0.063
-692.412	599.250	-0.022	-0.055
-691.397	800.000	0.121	0.368
-690.383	800.000	0.015	0.058
-689.368	-159.845	0.230	0.013
-688.354	800.000	-0.111	0.431
-687.339	28.854	-0.020	0.017
-686.324	-188.378	0.279	-0.004
-685.310	-152.207	0.114	0.008
-684.295	-200.000	-0.020	0.115
-683.281	-131.433	-0.337	0.045
-682.266	54.795	0.084	-0.083
-681.251	-148.837	0.350	0.029
-680.237	-133.564	-0.241	0.031
-679.222	26.068	0.278	0.237
-678.208	-200.000	-0.044	0.224
-677.193	-88.871	0.046	-0.014
-676.178	69.505	0.328	0.345
-675.164	175.340	-0.103	-0.152
-674.149	185.468	0.145	0.219
-673.135	-3.828	0.174	0.123
-672.120	96.856	0.300	0.351
-671.105	800.000	-0.055	-0.210
-670.091	-76.424	0.229	0.082
-669.076	-200.000	-0.007	-0.285
-668.062	-200.000	-0.008	-0.036
-667.047	-200.000	-0.001	0.297
-666.032	-200.000	0.005	-0.061
-665.018	-200.000	-0.006	0.184
-664.003	798.545	-0.121	0.341
-662.989	150.080	0.070	-0.097
-661.974	70.102	0.588	0.619
-660.959	-200.000	0.011	0.155
-659.945	14.071	-0.237	-0.188
-658.930	-167.654	-0.256	0.010
-657.916	-129.169	-0.392	-0.056
-656.901	13.467	0.219	0.173
-655.886	176.858	-0.025	-0.037
-654.872	-84.945	0.194	-0.062
-653.857	344.204	0.105	-0.211
-652.843	-200.000	-0.087	0.502
-651.828	-46.340	0.078	0.039
-650.814	800.000	0.065	-0.238
-649.799	136.407	-0.277	-0.368
-648.784	-145.561	-0.107	-0.010
-647.770	-170.318	-0.240	0.009
-646.755	-200.000	0.008	-0.125
-645.741	451.224	0.081	-0.182
-644.726	800.000	0.042	0.145
-643.711	-200.000	-0.037	-0.389
-642.697	681.297	-0.080	0.211
-641.682	-200.000	0.010	0.114
-640.668	26.355	0.165	0.141
-639.653	800.000	-0.091	-0.329
-638.638	-68.004	0.132	-0.053
-637.624	-88.542	0.216	-0.065
-636.609	800.000	-0.107	0.435
-635.595	96.539	0.177	-0.207
-634.580	94.341	-0.208	-0.241
-633.565	-36.524	-0.233	0.128
-632.551	94.595	0.193	-0.223
-631.536	34.801	-0.204	-0.182
-630.522	10.502	-0.199	0.154
-629.507	-108.582	-0.168	-0.037
-628.492	-71.628	0.222	0.085
-627.478	-38.646	-0.166	0.089
-626.463	-23.790	-0.330	0.202
-625.449	800.000	0.019	0.086
-624.434	-200.000	0.060	-0.281
-623.419	-74.503	0.088	0.032
-622.405	-163.346	-0.125	0.006
-621.390	-135.089	-0.127	0.016
-620.376	-90.764	0.103	0.030
-619.361	151.558	-0.095	0.131
-618.346	277.953	-0.075	0.137
-617.332	-109.749	-0.323	0.069
-616.317	800.000	-0.010	0.039
-615.303	268.073	0.079	0.141
-614.288	162.332	0.075	-0.108
-613.273	-10.473	-0.279	-0.188
-612.259	800.000	-0.058	-0.168
-611.244	800.000	-0.081	-0.284
-610.230	-41.456	0.245	0.128
-609.215	-105.240	-0.208	-0.048
-608.201	65.028	-0.139	-0.143
-607.186	-165.247	-0.013	0.001
-606.171	-66.955	-0.182	0.073
-605.157	-200.000	0.010	-0.131
-604.142	-150.270	-0.165	-0.013
-603.128	-200.000	-0.045	-0.306
-602.113	800.000	0.035	0.132
-601.098	53.223	-0.254	0.248
-600.084	118.556	-0.156	0.196
-599.069	341.958	-0.053	0.106
-598.055	-26.059	-0.342	0.205
-597.040	176.554	0.069	-0.102
-596.025	-167.331	-0.239	0.010
-595.011	-45.629	-0.166	0.083
-593.996	85.708	0.131	-0.146
-592.982	-99.180	-0.156	0.040
-591.967	112.887	0.257	0.316
-590.952	-83.792	0.278	0.090
-589.938	182.776	-0.065	-0.098
-588.923	14.801	-0.155	-0.124
-587.909	84.758	0.159	-0.177
-586.894	290.960	-0.061	0.112
-585.879	-158.114	0.125	-0.007
-584.865	-200.000	0.016	0.119
-583.850	-77.331	-0.302	-0.107
-582.836	175.707	-0.026	-0.038
-581.821	800.000	-0.079	-0.250
-580.806	800.000	0.044	0.166
-579.792	394.547	0.051	-0.109
-578.777	-63.659	-0.093	-0.039
-577.763	-74.365	0.046	-0.017
-576.748	-200.000	0.006	0.104
-575.733	8.592	-0.133	0.102
-574.719	-200.000	0.035	-0.444
-573.704	-200.000	0.088	-0.513
-572.690	387.070	-0.125	0.262
-571.675	72.514	0.136	0.144
-570.661	-25.080	-0.168	-0.101
-569.646	-200.000	-0.013	0.115
-568.631	173.628	0.154	-0.226
-567.617	-200.000	0.012	-0.175
-566.602	595.007	0.026	-0.066
-565.588	360.406	-0.061	0.124
-564.573	-200.000	-0.044	-0.275
-563.558	-69.196	-0.188	0.073
-562.544	-30.780	0.062	-0.036
-561.529	800.000	0.095	-0.269
-560.515	73.364	-0.105	0.112
-559.500	-200.000	0.018	0.083
-558.485	-75.090	-0.092	-0.034
-557.471	344.199	0.113	-0.226
-556.456	-200.000	-0.043	0.235
-555.442	-49.862	0.106	0.051
-554.427	-83.307	-0.053	-0.017
-553.412	530.186	-0.121	-0.290
-552.398	153.279	0.125	-0.174
-551.383	187.058	0.057	0.086
-550.369	-26.001	0.031	0.019
-549.354	4.887	0.192	0.143
-548.339	-106.283	-0.157	0.036
-547.325	800.000	-0.047	0.178
-546.310	-117.280	-0.079	-0.015
-545.296	-175.928	-0.213	0.006
-544.281	-200.000	-0.316	-0.000
-543.266	-141.795	0.198	0.020
-542.252	-80.945	0.238	0.080
-541.237	321.752	-0.088	-0.170
-540.223	-173.649	-0.157	-0.005
-539.208	-200.000	0.025	-0.148
-538.193	800.000	0.064	0.233
-537.179	800.000	-0.022	-0.095
-536.164	-200.000	-0.010	-0.062
-535.150	9.592	0.162	0.125
-534.135	-200.000	0.019	0.139
-533.121	91.903	0.158	0.180
-532.106	-51.134	-0.153	-0.073
-531.091	9.673	-0.159	-0.122
-530.077	155.972	-0.014	-0.020
-529.062	430.210	-0.110	0.242
-528.048	-11.264	-0.117	0.078
-527.033	64.302	-0.098	-0.100
-526.018	375.825	-0.131	0.272
-525.004	800.000	-0.013	0.058
-523.989	-25.546	0.178	0.107
-522.975	331.518	-0.058	0.113
-521.960	107.363	0.154	-0.186
-520.945	19.787	-0.116	0.095
-519.931	-200.000	0.013	-0.184
-518.916	-25.009	0.481	0.290
-517.902	290.759	0.088	0.161
-516.887	-49.115	-0.299	0.145
-515.872	-200.000	0.023	0.122
-514.858	37.685	-0.127	0.114
-513.843	-200.000	-0.037	-0.193
-512.829	-2.135	0.140	-0.100
-511.814	-200.000	0.019	-0.216
-510.799	155.157	0.037	-0.052
-509.785	457.149	-0.128	-0.288
-508.770	95.037	0.191	-0.220
-507.756	602.947	0.114	0.288
-506.741	800.000	0.052	0.154
-505.726	79.637	0.088	0.096
-504.712	86.055	0.135	-0.150
-503.697	-146.127	-0.151	-0.014
-502.683	-142.694	0.517	0.051
-501.668	716.419	0.022	0.059
-500.653	146.392	-0.049	0.066
-499.639	121.845	0.146	-0.185
-498.624	-145.672	-0.081	-0.007
-497.610	-200.000	-0.018	0.421
-496.595	-200.000	-0.019	0.229
-495.581	-200.000	-0.022	-0.338
-494.566	-19.253	-0.371	-0.233
-493.551	193.284	0.108	0.166
-492.537	-42.423	-0.175	-0.090
-491.522	151.803	-0.157	0.216
-490.508	-200.000	-0.028	0.146
-489.493	107.468	0.364	0.439
-488.478	-55.484	-0.117	-0.053
-487.464	87.111	-0.070	0.079
-486.449	-200.000	0.004	-0.018
-485.435	64.079	-0.114	0.117
-484.420	189.967	-0.073	-0.111
-483.405	166.903	-0.339	-0.488
-482.391	-14.927	-0.093	-0.060
-481.376	245.934	0.152	-0.258
-480.362	-6.463	0.171	0.118
-479.347	-103.279	-0.108	-0.026
-478.332	198.583	0.151	-0.234
-477.318	682.401	-0.071	-0.188
-476.303	-57.490	0.154	0.068
-475.289	800.000	0.079	0.259
-474.274	108.670	0.200	-0.242
-473.259	-200.000	-0.033	0.316
-472.245	-200.000	0.004	-0.053
-471.230	39.300	-0.068	-0.062
-470.216	-73.894	0.090	-0.033
-469.201	72.698	0.330	0.349
-468.186	8.808	0.146	-0.111
-467.172	131.075	0.248	-0.322
-466.157	-200.000	-0.045	-0.246
-465.143	-124.219	-0.306	0.049
-464.128	-92.508	-0.274	0.078
-463.113	-126.873	0.055	-0.008
-462.099	-106.610	0.383	0.086
-461.084	-90.208	0.147	-0.043
-460.070	215.901	-0.061	0.098
-459.055	43.648	0.101	0.094
-458.040	-200.000	0.006	0.212
-457.026	110.165	-0.032	-0.038
-456.011	652.509	0.055	-0.142
-454.997	4.693	-0.238	-0.177
-453.982	-29.915	0.165	-0.095
-452.968	-20.384	0.122	-0.076
-451.953	-116.442	-0.085	0.016
-450.938	-200.000	0.013	0.222
-449.924	-199.555	0.137	0.001
-448.909	388.269	-0.072	0.151
-447.895	143.199	-0.192	0.259
-446.880	800.000	0.036	0.107
-445.865	88.250	-0.236	0.265
-444.851	-105.432	0.285	-0.065
-443.836	-170.851	-0.219	-0.008
-442.822	17.075	-0.219	0.175
-441.807	-179.273	0.080	-0.002
-440.792	-200.000	-0.006	0.117
-439.778	410.445	0.075	0.161
-438.763	766.019	0.123	0.337
-437.749	46.797	0.313	-0.294
-436.734	-200.000	0.011	-0.112
-435.719	-73.240	0.072	-0.027
-434.705	-9.190	0.312	0.211
-433.690	27.503	-0.054	0.046
-432.676	-200.000	0.048	-0.227
-431.661	-10.981	0.123	-0.082
-430.646	343.131	0.060	-0.118
-429.632	800.000	0.033	-0.127
-428.617	-113.850	0.437	0.086
-427.603	-32.347	-0.357	0.201
-426.588	271.008	0.061	0.109
-425.573	-36.049	0.384	-0.210
-424.559	-140.194	-0.126	-0.013
-423.544	-119.817	-0.336	0.058
-422.530	29.936	0.105	-0.091
-421.515	101.556	-0.063	-0.074
-420.500	93.136	0.068	0.078
-419.486	324.447	-0.036	0.069
-418.471	15.470	0.158	0.125
-417.457	-21.844	0.201	0.124
-416.442	203.140	0.063	-0.098
-415.428	-200.000	0.002	-0.293
-414.413	800.000	-0.089	-0.309
-413.398	116.065	-0.078	-0.096
-412.384	-68.902	0.232	0.091
-411.369	-105.968	-0.236	-0.054
-410.355	-87.973	0.330	-0.100
-409.340	259.816	-0.202	0.353
-408.325	-53.323	0.084	0.039
-407.311	-120.762	0.071	0.012
-406.296	-127.361	0.171	-0.025
-405.282	351.538	-0.162	0.323
-404.267	-79.722	0.230	-0.078
-403.252	372.316	0.094	-0.192
-402.238	800.000	-0.113	-0.321
-401.223	179.812	0.067	-0.099
-400.209	-135.971	0.289	0.034
-399.194	800.000	-0.049	0.169
-398.179	-200.000	0.010	0.098
-397.165	-33.299	-0.282	-0.158
-396.150	-132.016	-0.316	-0.042
-395.136	153.993	-0.043	0.059
-394.121	-133.020	-0.122	-0.016
-393.106	-24.765	0.057	-0.034
-392.092	185.158	0.098	0.147
-391.077	-200.000	-0.047	-0.215
-390.063	176.416	-0.087	-0.128
-389.048	-16.838	0.360	0.230
-388.033	800.000	-0.082	-0.264
-387.019	-93.135	0.104	0.029
-386.004	-200.000	0.002	-0.359
-384.990	-91.650	-0.237	0.068
-383.975	-86.693	-0.316	-0.098
-382.960	96.535	-0.217	-0.251
-381.946	-156.671	-0.238	-0.015
-380.931	-200.000	-0.048	0.296
-379.917	774.597	0.065	0.178
-378.902	-12.573	0.277	0.182
-377.888	51.198	-0.261	0.249
-376.873	-108.554	-0.301	0.065
-375.858	469.389	0.058	-0.130
-374.844	7.634	-0.227	-0.172
-373.829	-200.000	-0.014	0.099
-372.815	-200.000	-0.057	0.272
-371.800	5.521	-0.072	-0.053
-370.785	776.893	0.022	0.061
-369.771	262.671	0.090	-0.157
-368.756	-109.751	0.384	0.081
-367.742	72.986	0.120	0.127
-366.727	206.566	-0.035	0.055
-365.712	35.414	0.181	0.160
-364.698	-200.000	-0.038	-0.216
-363.683	0.044	0.170	0.122
-362.669	572.627	-0.102	0.250
-361.654	-200.000	-0.039	0.281
-360.639	-200.000	0.027	0.172
-359.625	800.000	-0.060	0.263
-358.610	704.777	0.142	-0.377
-357.596	248.493	0.164	-0.280
-356.581	416.555	0.151	-0.325
-355.566	800.000	-0.041	0.178
-354.552	23.266	0.180	-0.149
-353.537	-76.455	-0.060	0.021
-352.523	-90.978	0.196	0.057
-351.508	59.677	0.119	0.119
-350.493	-95.220	-0.255	-0.069
-349.479	-200.000	0.020	-0.292
-348.464	528.824	-0.090	0.213
-347.450	-47.500	0.095	-0.047
-346.435	-91.466	0.233	0.067
-345.420	-200.000	-0.080	-0.496
-344.406	128.283	0.189	0.243
-343.391	54.699	-0.070	0.068
-342.377	800.000	0.042	0.182
-341.362	136.937	-0.124	-0.164
-340.348	47.136	-0.234	0.220
-339.333	-37.271	0.313	-0.168
-338.318	800.000	0.081	-0.283
-337.304	305.480	0.056	-0.104
-336.289	577.016	-0.089	-0.218
-335.275	-157.383	0.259	0.016
-334.260	207.353	-0.131	0.206
-333.245	-108.429	-0.155	0.034
-332.231	664.785	-0.093	-0.241
-331.216	-200.000	0.003	-0.192
-330.202	157.249	0.094	0.130
-329.187	-22.606	0.380	-0.231
-328.172	800.000	0.044	-0.187
-327.158	-114.719	0.072	0.014
-326.143	-200.000	0.008	-0.061
-325.129	-183.758	0.296	-0.005
-324.114	-153.841	0.175	-0.012
-323.099	-84.451	0.132	0.042
-322.085	-93.941	0.171	0.047
-321.070	800.000	-0.065	-0.195
-320.056	-64.060	0.218	-0.090
-319.041	-144.615	-0.421	-0.039
-318.026	172.307	0.050	0.072
-317.012	800.000	-0.013	0.054
-315.997	-39.393	-0.187	0.099
-314.983	264.743	-0.128	0.225
-313.968	325.773	-0.099	0.191
-312.953	46.599	-0.090	-0.084
-311.939	337.622	0.119	0.233
-310.924	42.837	-0.026	0.024
-309.910	-200.000	-0.003	0.013
-308.895	-19.348	-0.200	0.125
-307.880	-18.825	-0.114	0.072
-306.866	-100.212	-0.201	0.050
-305.851	690.572	0.107	0.282
-304.837	93.317	0.271	0.308
-303.822	-98.108	-0.206	-0.053
-302.807	-44.895	0.273	0.137
-301.793	-200.000	-0.054	-0.261
-300.778	-172.057	0.092	-0.003
-299.764	655.091	-0.080	-0.207
-298.749	55.203	0.284	-0.276
-297.735	-106.303	0.157	-0.035
-296.720	63.513	0.141	-0.142
-295.705	216.550	0.159	-0.254
-294.691	-133.936	-0.214	-0.027
-293.676	-71.130	-0.175	-0.066
-292.662	566.572	0.034	-0.084
-291.647	-95.951	-0.269	0.072
-290.632	-99.556	-0.360	-0.091
-289.618	501.375	-0.113	0.261
-288.603	-138.569	-0.490	0.054
-287.589	-188.098	-0.206	0.003
-286.574	-104.973	0.448	0.103
-285.559	-35.538	0.151	0.082
-284.545	108.056	0.150	-0.180
-283.530	169.873	0.076	-0.109
-282.516	25.138	0.085	0.071
-281.501	81.869	0.337	-0.367
-280.486	81.925	0.140	-0.153
-279.472	800.000	-0.095	-0.396
-278.457	-200.000	-0.009	0.297
-277.443	-133.685	0.328	0.041
-276.428	-151.956	0.413	-0.030
-275.413	-200.000	0.032	0.160
-274.399	-5.169	0.108	-0.075
-273.384	-200.000	0.005	-0.137
-272.370	-124.734	0.137	0.021
-271.355	-134.609	0.171	0.021
-270.340	512.304	-0.113	0.264
-269.326	-200.000	0.029	-0.257
-268.311	302.082	-0.160	0.297
-267.297	-94.630	0.212	-0.058
-266.282	800.000	-0.062	0.182
-265.267	-37.258	-0.231	0.124
-264.253	54.893	-0.191	0.185
-263.238	-146.425	-0.123	0.011
-262.224	-144.387	0.412	0.038
-261.209	-200.000	-0.008	0.247
-260.195	-11.645	-0.139	0.092
-259.180	369.449	-0.120	0.244
-258.165	14.334	-0.135	0.106
-257.151	800.000	0.098	0.327
-256.136	-123.365	-0.353	0.057
-255.122	106.976	0.188	-0.224
-254.107	800.000	-0.084	0.307
-253.092	-56.744	0.372	-0.165
-252.078	157.834	-0.166	0.230
-251.063	-182.815	-0.269	0.005
-250.049	-61.777	0.328	-0.138
-249.034	-68.655	0.104	-0.040
-248.019	334.796	-0.047	0.091
-247.005	800.000	0.136	-0.405
-245.990	-200.000	-0.077	-0.345
-244.976	216.757	0.083	0.132
-243.961	337.102	0.078	0.152
-242.946	61.952	-0.097	0.097
-241.932	-200.000	0.036	-0.189
-240.917	-25.916	-0.162	-0.096
-239.903	800.000	-0.073	-0.222
-238.888	703.711	0.048	-0.126
-237.873	-103.313	-0.188	-0.045
-236.859	-74.718	-0.127	0.046
-235.844	-200.000	-0.008	0.171
-234.830	-200.000	0.014	-0.173
-233.815	-200.000	-0.066	0.365
-232.800	-200.000	-0.006	0.201
-231.786	-120.335	0.071	-0.012
-230.771	-200.000	-0.004	-0.141
-229.757	-114.357	-0.222	0.043
-228.742	88.155	-0.070	0.078
-227.727	307.766	-0.098	-0.182
-226.713	-200.000	0.053	-0.000
-225.698	800.000	0.068	0.215
-224.684	-0.808	0.071	-0.050
-223.669	-15.695	-0.165	-0.105
-222.655	-157.544	-0.267	-0.016
-221.640	-59.878	0.119	0.051
-220.625	153.435	-0.075	0.102
-219.611	191.579	0.077	-0.116
-218.596	360.122	0.074	-0.148
-217.582	-164.756	0.154	0.007
-216.567	6.511	-0.116	0.086
-215.552	-55.097	-0.099	-0.045
-214.538	-113.614	-0.180	0.035
-213.523	-73.422	-0.241	0.088
-212.509	-50.296	0.090	-0.042
-211.494	-128.755	0.248	0.035
-210.479	55.304	0.165	0.160
-209.465	800.000	0.056	0.242
-208.450	-200.000	0.004	0.155
-207.436	-89.352	-0.239	0.070
-206.421	-200.000	0.043	-0.198
-205.406	519.780	-0.008	0.019
-204.392	-106.496	-0.386	0.086
-203.377	-117.618	0.302	0.055
-202.363	-29.496	-0.299	0.171
-201.348	282.413	-0.123	-0.221
-200.333	39.481	0.019	0.017
-199.319	50.637	0.156	0.148
-198.304	-147.072	-0.073	-0.006
-197.290	-24.162	0.087	0.052
-196.275	-176.007	0.426	-0.011
-195.260	-200.000	-0.037	-0.280
-194.246	-139.008	-0.178	-0.019
-193.231	-81.416	0.238	0.078
-192.217	17.224	-0.098	0.077
-191.202	-113.949	-0.282	0.055
-190.187	178.205	0.190	0.278
-189.173	85.954	-0.175	-0.193
-188.158	173.588	0.109	0.158
-187.144	-200.000	0.051	0.228
-186.129	-57.677	-0.078	-0.034
-185.114	127.001	0.132	-0.168
-184.100	-138.760	-0.280	0.031
-183.085	79.545	0.121	-0.130
-182.071	133.429	0.304	-0.393
-181.056	800.000	-0.037	0.125
-180.042	-200.000	-0.035	-0.239
-179.027	-200.000	-0.090	0.000
-178.012	147.324	-0.125	-0.168
-176.998	-200.000	0.060	0.297
-175.983	-0.320	0.213	0.152
-174.969	-200.000	0.004	-0.237
-173.954	-82.100	0.301	-0.098
-172.939	69.762	0.209	0.216
-171.925	588.366	0.100	-0.247
-170.910	-200.000	-0.048	-0.297
-169.896	-35.466	-0.186	0.101
-168.881	800.000	-0.075	0.257
-167.866	-99.193	-0.279	-0.071
-166.852	77.550	-0.263	-0.280
-165.837	-200.000	-0.009	0.063
-164.823	-78.549	0.323	0.110
-163.808	-139.039	-0.402	-0.044
-162.793	-200.000	0.044	0.300
-161.779	291.076	0.172	0.313
-160.764	-200.000	-0.004	-0.147
-159.750	-200.000	-0.030	0.152
-158.735	800.000	0.105	0.291
-157.720	-147.781	0.213	0.018
-156.706	-200.000	-0.002	-0.072
-155.691	800.000	0.015	-0.045
-154.677	261.553	0.181	-0.313
-153.662	295.452	0.122	-0.224
-152.647	-197.708	-0.198	-0.001
-151.633	-200.000	0.006	-0.073
-150.618	63.248	0.259	-0.260
-149.604	779.418	0.015	0.040
-148.589	-200.000	0.000	0.104
-147.574	40.472	-0.216	0.194
-146.560	-10.135	0.260	-0.173
-145.545	-0.092	-0.042	-0.030
-144.531	308.982	-0.125	0.233
-143.516	-65.414	0.407	0.163
-142.502	-200.000	0.021	0.293
-141.487	-200.000	-0.097	-0.438
-140.472	-19.321	0.178	0.111
-139.458	5.505	-0.204	0.151
-138.443	-200.000	-0.339	0.001
-137.429	71.450	-0.148	-0.154
-136.414	-200.000	-0.019	0.155
-135.399	-95.307	-0.267	0.072
-134.385	-95.033	-0.333	0.090
-133.370	-200.000	-0.019	0.301
-132.356	35.781	-0.167	-0.147
-131.341	161.942	0.370	0.518
-130.326	97.234	0.226	0.260
-129.312	-86.074	0.118	0.036
-128.297	227.813	-0.207	-0.336
-127.283	-200.000	0.019	-0.119
-126.268	-55.189	0.398	0.179
-125.253	-21.425	0.113	0.069
-124.239	-200.000	0.000	-0.138
-123.224	800.000	0.129	0.378
-122.210	-33.886	-0.096	0.053
-121.195	403.014	-0.153	-0.321
