DTS Sentinel unit serial number:	SN413079Multiplexer serial number:	ORYXHardware model number:	OX4-SRSoftware version number:	ORYX F/W v4.00 Oryx Data Collector v3.7.2.0data status	okinstallation	princeton_trtdifferential loss correction	single-endedforward channel	channel 1reverse channel	N/Adate	2019/09/16time	15:46:36forward acquisition time	60.00reverse acquisition time	0.00gamma	496.2192k internal	0.2292k external	0.2292temperature offset calibration	0.9955default loss term (dB/km)	0.3790temperature slope calibration	1.0000multiplexer offset coefficient	1.0000multiplexer slope coefficient	1.0000fibre end	0.00T internal ref (°C)	41.14T ext. ref 1 (°C)	14.80T ext. ref 2 (°C)	36.33length (m)	temperature (°C)	Stokes	anti-Stokes-747.200	-60.508	-0.098	-0.043
-746.185	34.770	-0.233	0.209
-745.171	499.742	0.155	0.365
-744.156	69.038	0.180	0.190
-743.142	78.662	0.221	0.242
-742.127	-133.452	0.305	0.039
-741.112	800.000	-0.072	0.283
-740.098	120.967	0.278	0.354
-739.083	800.000	-0.068	0.295
-738.069	430.369	-0.118	0.261
-737.054	502.137	0.057	-0.135
-736.039	565.807	-0.078	-0.193
-735.025	220.909	0.138	0.227
-734.010	-87.885	-0.062	-0.019
-732.996	-200.000	-0.033	-0.351
-731.981	-200.000	0.001	-0.264
-730.966	19.684	0.142	0.117
-729.952	-57.730	-0.300	-0.134
-728.937	-200.000	0.067	-0.372
-727.923	-127.731	-0.184	0.027
-726.908	459.254	0.130	-0.295
-725.894	-200.000	0.014	-0.351
-724.879	-40.327	-0.178	0.094
-723.864	745.235	-0.060	0.164
-722.850	-19.314	-0.328	0.208
-721.835	-94.333	0.090	-0.025
-720.821	256.834	0.015	0.027
-719.806	27.171	0.122	-0.105
-718.791	85.890	-0.242	-0.272
-717.777	-200.000	0.035	-0.193
-716.762	226.593	-0.029	-0.049
-715.748	6.276	0.188	-0.143
-714.733	800.000	0.084	0.339
-713.718	100.192	0.109	-0.129
-712.704	-158.409	-0.208	0.012
-711.689	-86.869	0.145	-0.045
-710.675	140.725	0.287	-0.388
-709.660	68.161	0.231	-0.241
-708.645	-137.478	0.045	0.005
-707.631	151.565	0.236	0.329
-706.616	800.000	0.053	-0.159
-705.602	321.253	0.062	-0.121
-704.587	800.000	0.124	-0.463
-703.572	800.000	0.086	-0.340
-702.558	-60.765	0.360	-0.156
-701.543	-51.599	0.374	-0.179
-700.529	-50.995	-0.226	0.108
-699.514	129.822	-0.087	-0.114
-698.499	509.441	-0.093	-0.221
-697.485	-187.687	-0.092	0.001
-696.470	-200.000	-0.007	-0.122
-695.456	-113.889	0.189	0.038
-694.441	1.545	-0.031	-0.023
-693.426	493.738	0.202	-0.473
-692.412	138.382	-0.186	0.249
-691.397	26.875	0.256	-0.219
-690.383	-41.555	-0.345	0.181
-689.368	337.610	-0.237	-0.470
-688.354	85.050	-0.204	0.229
-687.339	-149.436	-0.197	-0.016
-686.324	-171.178	0.035	0.001
-685.310	22.983	-0.301	-0.252
-684.295	-81.842	-0.159	0.053
-683.281	158.864	-0.063	0.089
-682.266	-96.251	0.146	0.040
-681.251	-49.718	-0.380	0.185
-680.237	161.317	0.153	0.219
-679.222	-70.116	-0.309	0.120
-678.208	18.467	0.339	0.276
-677.193	265.405	-0.130	-0.232
-676.178	90.375	-0.204	-0.233
-675.164	-82.203	0.314	-0.104
-674.149	-124.262	0.254	-0.040
-673.135	-92.575	-0.231	0.066
-672.120	36.211	-0.142	-0.127
-671.105	-200.000	-0.002	0.067
-670.091	197.118	-0.070	-0.110
-669.076	16.722	-0.245	-0.198
-668.062	800.000	-0.020	-0.077
-667.047	-157.693	0.162	0.010
-666.032	235.392	0.076	0.129
-665.018	-77.762	-0.156	-0.055
-664.003	-200.000	-0.003	0.226
-662.989	-200.000	0.081	-0.408
-661.974	-200.000	0.070	0.337
-660.959	246.610	0.094	0.162
-659.945	314.916	0.118	-0.226
-658.930	-200.000	-0.282	-0.000
-657.916	-200.000	0.034	0.200
-656.901	-7.803	0.231	0.159
-655.886	104.980	0.109	0.131
-654.872	-158.643	0.204	-0.012
-653.857	-45.214	0.281	-0.143
-652.843	800.000	0.113	-0.348
-651.828	-103.473	-0.449	-0.108
-650.814	-200.000	-0.018	-0.279
-649.799	365.618	-0.146	-0.300
-648.784	-200.000	-0.012	0.086
-647.770	137.815	0.078	0.104
-646.755	-137.385	-0.145	-0.017
-645.741	5.673	0.052	0.040
-644.726	-200.000	0.002	0.200
-643.711	685.394	0.027	0.072
-642.697	-200.000	-0.035	-0.242
-641.682	9.485	-0.279	0.215
-640.668	-165.538	0.256	-0.011
-639.653	101.257	-0.341	0.404
-638.638	485.011	0.117	-0.273
-637.624	-158.036	-0.302	0.018
-636.609	274.398	-0.081	-0.147
-635.595	-57.794	-0.124	-0.055
-634.580	-36.100	0.066	-0.036
-633.565	129.585	-0.037	0.049
-632.551	-91.577	0.384	-0.112
-631.536	86.734	0.167	-0.188
-630.522	-94.744	0.084	0.023
-629.507	-196.735	-0.261	-0.002
-628.492	-126.999	-0.363	-0.054
-627.478	-200.000	0.003	0.082
-626.463	-200.000	-0.010	-0.048
-625.449	-168.437	-0.255	0.010
-624.434	-69.941	0.072	-0.028
-623.419	46.134	0.127	-0.120
-622.405	225.130	0.221	-0.365
-621.390	30.320	0.097	0.084
-620.376	255.646	0.100	-0.174
-619.361	-200.000	0.010	0.103
-618.346	263.391	0.124	0.219
-617.332	391.144	0.087	0.183
-616.317	53.987	-0.115	-0.113
-615.303	636.881	-0.119	0.308
-614.288	-16.516	0.404	0.261
-613.273	-200.000	0.063	0.422
-612.259	-122.516	0.353	0.058
-611.244	352.952	-0.040	0.080
-610.230	-103.970	0.080	0.019
-609.215	108.113	0.180	-0.219
-608.201	-91.264	0.297	-0.087
-607.186	-68.627	0.046	-0.018
-606.171	-14.420	0.098	-0.065
-605.157	-152.145	-0.231	-0.017
-604.142	-63.064	-0.137	0.058
-603.128	800.000	-0.087	0.290
-602.113	-200.000	-0.007	0.132
-601.098	448.222	-0.081	0.182
-600.084	195.422	-0.257	0.398
-599.069	-200.000	-0.058	0.264
-598.055	367.049	0.147	0.303
-597.040	505.469	-0.115	0.271
-596.025	80.371	-0.195	-0.214
-595.011	31.856	-0.087	-0.076
-593.996	92.202	0.208	-0.239
-592.982	63.734	-0.129	0.132
-591.967	-200.000	0.004	0.135
-590.952	-200.000	0.106	0.000
-589.938	335.047	-0.065	0.128
-588.923	-14.207	-0.321	-0.211
-587.909	-200.000	-0.023	0.120
-586.894	-200.000	-0.017	0.215
-585.879	19.649	-0.107	-0.087
-584.865	3.837	-0.153	-0.113
-583.850	-65.597	-0.202	0.082
-582.836	383.886	0.155	-0.325
-581.821	26.522	0.251	-0.214
-580.806	-94.446	-0.043	-0.012
-579.792	-136.315	0.272	-0.032
-578.777	800.000	-0.050	0.170
-577.763	-22.490	-0.092	0.057
-576.748	-19.730	0.179	-0.112
-575.733	435.404	0.164	-0.363
-574.719	47.682	0.113	0.107
-573.704	-71.766	-0.338	0.128
-572.690	-200.000	-0.059	0.289
-571.675	220.006	-0.072	0.117
-570.661	-22.832	0.063	-0.039
-569.646	-105.442	0.265	0.061
-568.631	267.845	-0.019	0.033
-567.617	-43.288	0.086	0.044
-566.602	-200.000	0.038	-0.179
-565.588	800.000	0.045	0.171
-564.573	2.367	0.158	0.116
-563.558	800.000	0.027	-0.110
-562.544	-0.424	0.161	0.116
-561.529	789.799	-0.048	-0.133
-560.515	-85.617	-0.253	-0.080
-559.500	-200.000	-0.001	0.129
-558.485	-168.784	-0.178	-0.007
-557.471	-44.572	0.164	0.083
-556.456	-94.469	0.208	-0.058
-555.442	800.000	-0.016	-0.055
-554.427	29.088	-0.230	0.198
-553.412	-200.000	-0.056	-0.383
-552.398	62.030	0.158	-0.160
-551.383	563.672	0.064	0.157
-550.369	92.507	0.141	0.162
-549.354	50.995	0.086	-0.083
-548.339	-112.591	0.273	-0.055
-547.325	-200.000	-0.011	-0.057
-546.310	-96.475	0.303	-0.081
-545.296	-5.614	-0.052	-0.036
-544.281	39.652	-0.018	-0.017
-543.266	15.416	-0.097	-0.077
-542.252	-140.445	0.243	-0.026
-541.237	42.526	-0.227	-0.210
-540.223	-83.449	-0.392	0.128
-539.208	-170.973	-0.204	-0.007
-538.193	155.505	0.054	-0.075
-537.179	-25.025	-0.527	0.317
-536.164	196.221	-0.110	0.170
-535.150	42.868	-0.273	-0.252
-534.135	-200.000	0.015	-0.118
-533.121	-148.086	0.267	-0.023
-532.106	-110.712	-0.215	0.045
-531.091	800.000	0.038	-0.149
-530.077	-200.000	0.071	-0.414
-529.062	-35.401	-0.278	0.154
-528.048	-200.000	-0.044	-0.262
-527.033	-16.980	-0.140	0.090
-526.018	800.000	0.014	-0.042
-525.004	220.226	-0.202	-0.328
-523.989	69.724	0.036	0.037
-522.975	-200.000	-0.016	-0.310
-521.960	-47.344	-0.209	-0.103
-520.945	-5.152	0.164	0.114
-519.931	18.858	-0.142	0.115
-518.916	-200.000	-0.015	0.456
-517.902	0.752	-0.146	-0.106
-516.887	158.420	-0.069	-0.097
-515.872	-103.068	0.198	0.048
-514.858	-60.831	0.416	0.179
-513.843	728.994	-0.151	0.410
-512.829	800.000	-0.064	0.241
-511.814	-28.434	0.203	-0.119
-510.799	-104.008	-0.203	-0.048
-509.785	-25.459	-0.221	0.133
-508.770	162.531	0.075	0.106
-507.756	76.372	0.157	-0.169
-506.741	-200.000	0.062	0.281
-505.726	-96.944	0.442	0.118
-504.712	-25.958	-0.239	0.143
-503.697	-164.374	0.319	-0.015
-502.683	-93.771	0.192	-0.054
-501.668	800.000	-0.070	-0.211
-500.653	-72.752	0.217	0.081
-499.639	-58.860	-0.193	0.084
-498.624	473.691	0.148	0.339
-497.610	103.993	0.036	0.042
-496.595	337.351	-0.040	-0.080
-495.581	-200.000	-0.017	-0.213
-494.566	-200.000	0.011	-0.116
-493.551	-175.720	0.114	-0.003
-492.537	800.000	-0.072	0.208
-491.522	-101.978	0.191	-0.047
-490.508	-168.341	0.364	-0.014
-489.493	-14.932	0.185	-0.121
-488.478	-174.171	-0.360	-0.011
-487.464	51.146	0.124	-0.119
-486.449	127.954	-0.057	0.073
-485.435	-58.768	-0.476	-0.209
-484.420	-100.144	-0.128	0.032
-483.405	-13.729	0.048	0.032
-482.391	-143.244	-0.182	-0.018
-481.376	-20.684	-0.148	-0.092
-480.362	457.695	0.134	0.302
-479.347	-93.700	-0.259	0.072
-478.332	-200.000	0.062	0.360
-477.318	347.371	0.223	-0.444
-476.303	-24.269	0.035	0.021
-475.289	88.157	-0.136	-0.153
-474.274	800.000	-0.019	0.076
-473.259	671.503	-0.102	-0.268
-472.245	-200.000	0.014	0.114
-471.230	62.469	-0.190	-0.192
-470.216	89.881	-0.038	-0.043
-469.201	427.377	0.136	-0.297
-468.186	-200.000	0.012	-0.292
-467.172	25.139	0.158	-0.133
-466.157	-118.526	0.645	-0.116
-465.143	-93.347	-0.414	-0.116
-464.128	123.771	-0.072	0.091
-463.113	-1.099	0.084	0.060
-462.099	800.000	-0.058	0.203
-461.084	800.000	0.081	-0.345
-460.070	-122.047	-0.103	0.017
-459.055	557.355	0.038	-0.093
-458.040	800.000	0.059	0.235
-457.026	-117.102	0.191	-0.035
-456.011	800.000	0.076	0.281
-454.997	540.415	0.086	0.207
-453.982	-132.647	0.097	0.013
-452.968	-200.000	-0.035	-0.174
-451.953	30.574	0.304	-0.263
-450.938	41.906	0.107	0.098
-449.924	-48.187	-0.280	-0.137
-448.909	-200.000	0.014	-0.253
-447.895	345.241	0.078	-0.155
-446.880	-200.000	-0.050	-0.242
-445.865	-194.483	0.392	0.003
-444.851	-9.223	-0.171	0.116
-443.836	-183.971	0.268	-0.005
-442.822	-100.246	0.174	-0.044
-441.807	96.634	-0.017	0.020
-440.792	-200.000	-0.011	0.387
-439.778	-72.673	-0.344	0.128
-438.763	32.111	-0.192	-0.167
-437.749	-49.197	-0.159	-0.077
-436.734	-78.691	-0.121	0.042
-435.719	-20.103	0.121	0.075
-434.705	-152.806	-0.135	0.010
-433.690	-34.222	-0.229	0.127
-432.676	158.345	-0.117	-0.164
-431.661	382.419	0.050	-0.103
-430.646	14.690	0.130	0.103
-429.632	-96.824	0.319	-0.085
-428.617	-123.444	0.225	0.036
-427.603	423.446	-0.107	0.232
-426.588	-119.852	0.046	0.008
-425.573	-58.387	0.152	-0.067
-424.559	-18.431	0.183	-0.116
-423.544	-83.621	-0.303	-0.098
-422.530	800.000	-0.038	-0.152
-421.515	-120.496	-0.225	-0.039
-420.500	47.463	-0.036	-0.034
-419.486	-160.062	-0.018	-0.001
-418.471	285.051	-0.141	0.257
-417.457	43.573	0.188	0.174
-416.442	800.000	0.091	-0.270
-415.428	-71.112	-0.153	-0.058
-414.413	800.000	0.093	0.336
-413.398	364.256	0.145	0.295
-412.384	-10.042	0.053	0.035
-411.369	104.651	0.213	0.253
-410.355	181.684	0.166	0.247
-409.340	-51.703	-0.116	-0.055
-408.325	-194.634	0.240	-0.002
-407.311	800.000	-0.079	-0.315
-406.296	405.286	-0.114	0.244
-405.282	-121.102	-0.152	0.026
-404.267	-91.124	-0.214	-0.062
-403.252	800.000	-0.066	-0.225
-402.238	-18.691	0.268	0.169
-401.223	-200.000	0.010	0.199
-400.209	-154.963	-0.234	-0.016
-399.194	49.086	-0.299	-0.284
-398.179	-200.000	0.019	0.146
-397.165	-89.423	0.201	-0.060
-396.150	163.924	-0.078	-0.111
-395.136	211.064	0.051	-0.082
-394.121	46.276	-0.125	-0.117
-393.106	-64.799	-0.225	-0.092
-392.092	-57.029	-0.088	0.039
-391.077	473.776	-0.208	0.474
-390.063	800.000	0.026	-0.074
-389.048	235.845	0.154	0.256
-388.033	360.466	0.172	-0.348
-387.019	800.000	0.117	-0.454
-386.004	-200.000	-0.005	-0.126
-384.990	-59.006	0.262	0.114
-383.975	15.372	0.243	-0.192
-382.960	-29.464	0.147	-0.085
-381.946	558.937	0.022	-0.053
-380.931	-5.330	0.174	0.120
-379.917	41.571	0.336	0.307
-378.902	800.000	0.039	0.161
-377.888	-118.352	-0.132	0.024
-376.873	-132.337	0.281	-0.037
-375.858	-200.000	-0.018	-0.157
-374.844	-98.492	-0.397	-0.102
-373.829	-136.768	-0.213	0.025
-372.815	410.231	0.150	-0.321
-371.800	-122.501	0.323	0.053
-370.785	-114.217	-0.114	0.022
-369.771	-132.150	-0.041	-0.005
-368.756	-62.869	-0.213	0.089
-367.742	-14.128	0.176	0.115
-366.727	-34.145	-0.448	-0.248
-365.712	6.100	0.134	-0.100
-364.698	-45.055	0.144	0.072
-363.683	800.000	0.071	-0.275
-362.669	-25.424	-0.150	-0.089
-361.654	-200.000	-0.058	-0.273
-360.639	-18.301	0.327	-0.206
-359.625	190.243	-0.117	0.178
-358.610	-112.449	-0.230	-0.046
-357.596	250.451	-0.134	-0.229
-356.581	-200.000	-0.007	-0.130
-355.566	31.057	-0.073	-0.064
-354.552	671.300	0.085	0.221
-353.537	-82.198	-0.118	0.039
-352.523	192.453	0.063	0.095
-351.508	-121.138	0.249	0.042
-350.493	70.447	-0.093	0.097
-349.479	800.000	-0.067	0.193
-348.464	-32.756	-0.707	-0.396
-347.450	-48.425	-0.042	-0.020
-346.435	36.461	-0.122	-0.109
-345.420	61.898	-0.327	0.328
-344.406	-86.729	-0.280	0.086
-343.391	-152.340	-0.237	0.017
-342.377	20.437	-0.182	0.148
-341.362	28.099	0.145	0.123
-340.348	400.841	0.054	-0.113
-339.333	598.964	0.177	-0.443
-338.318	59.692	-0.138	0.137
-337.304	-65.793	-0.117	0.047
-336.289	53.103	0.182	-0.176
-335.275	-173.290	-0.115	-0.004
-334.260	-114.515	0.310	0.060
-333.245	198.552	0.089	0.138
-332.231	-43.028	0.288	-0.147
-331.216	51.237	-0.077	0.073
-330.202	-173.858	-0.066	0.002
-329.187	24.785	-0.250	-0.209
-328.172	673.598	0.040	-0.104
-327.158	-50.113	-0.228	0.109
-326.143	-7.930	-0.051	-0.035
-325.129	-91.603	-0.231	-0.066
-324.114	-136.937	-0.132	-0.015
-323.099	284.186	-0.052	0.094
-322.085	28.027	0.268	0.227
-321.070	33.695	0.182	0.160
-320.056	27.374	-0.166	-0.141
-319.041	23.565	0.174	-0.144
-318.026	65.392	0.177	0.181
-317.012	26.693	0.233	-0.196
-315.997	31.073	-0.112	0.097
-314.983	9.323	0.157	-0.120
-313.968	32.372	-0.354	-0.308
-312.953	-123.989	-0.125	-0.020
-311.939	-27.935	0.131	-0.076
-310.924	241.922	0.165	0.278
-309.910	-200.000	0.190	0.001
-308.895	33.464	-0.105	0.091
-307.880	256.863	0.186	-0.322
-306.866	-150.466	0.064	0.005
-305.851	-92.578	-0.252	0.071
-304.837	141.008	0.098	-0.131
-303.822	-58.562	0.303	-0.132
-302.807	-105.110	-0.088	-0.020
-301.793	-53.075	-0.325	-0.150
-300.778	441.115	0.060	-0.131
-299.764	-78.281	0.114	-0.039
-298.749	94.261	-0.263	-0.301
-297.735	-65.902	0.159	0.064
-296.720	-200.000	-0.056	-0.278
-295.705	70.174	0.182	-0.189
-294.691	427.211	-0.093	-0.201
-293.676	278.877	0.022	0.040
-292.662	37.419	0.108	0.096
-291.647	332.484	-0.041	-0.080
-290.632	14.575	0.209	0.164
-289.618	58.288	0.196	-0.193
-288.603	396.923	-0.087	0.183
-287.589	-143.243	0.078	-0.008
-286.574	-114.691	0.087	0.017
-285.559	-156.532	-0.215	-0.013
-284.545	800.000	0.079	0.272
-283.530	-139.172	0.133	0.014
-282.516	11.926	0.205	0.158
-281.501	-200.000	0.006	-0.149
-280.486	800.000	0.049	-0.149
-279.472	550.174	0.049	0.118
-278.457	-200.000	0.095	0.423
-277.443	268.108	0.056	0.098
-276.428	-6.185	0.356	-0.244
-275.413	-200.000	-0.052	0.000
-274.399	-200.000	0.061	-0.370
-273.384	-200.000	-0.010	0.056
-272.370	800.000	-0.082	-0.290
-271.355	73.431	0.213	-0.224
-270.340	800.000	-0.053	-0.199
-269.326	-120.824	0.143	0.024
-268.311	800.000	-0.078	-0.237
-267.297	-90.046	0.274	0.080
-266.282	-200.000	0.078	0.410
-265.267	339.149	0.044	-0.087
-264.253	62.863	0.219	-0.220
-263.238	800.000	-0.062	0.181
-262.224	-100.620	-0.255	-0.063
-261.209	-200.000	0.004	-0.144
-260.195	13.644	0.207	-0.162
-259.180	800.000	-0.058	-0.223
-258.165	-108.641	0.106	0.023
-257.151	58.393	-0.412	-0.406
-256.136	390.393	0.053	0.111
-255.122	268.275	-0.154	0.271
-254.107	-8.566	-0.295	0.199
-253.092	-116.009	0.181	-0.034
-252.078	-25.271	0.255	0.152
-251.063	-200.000	-0.008	0.129
-250.049	-200.000	0.050	0.521
-249.034	2.827	-0.111	0.081
-248.019	379.784	0.028	-0.057
-247.005	-97.410	-0.131	-0.034
-245.990	-78.439	-0.109	0.038
-244.976	220.895	0.145	-0.233
-243.961	105.736	0.099	0.118
-242.946	-136.058	0.254	-0.030
-241.932	-26.389	0.075	0.044
-240.917	-29.906	0.140	0.080
-239.903	-102.810	-0.237	-0.057
-238.888	-197.917	-0.214	-0.001
-237.873	412.572	-0.030	-0.065
-236.859	197.242	0.124	0.190
-235.844	164.241	-0.134	0.190
-234.830	-164.724	-0.081	-0.004
-233.815	800.000	0.074	0.242
-232.800	-127.172	-0.233	-0.034
-231.786	63.389	0.136	-0.136
-230.771	496.596	0.160	-0.369
-229.757	422.107	0.015	0.033
-228.742	-115.419	0.149	0.028
-227.727	-131.132	-0.057	-0.008
-226.713	-64.104	0.157	0.064
-225.698	800.000	0.076	0.288
-224.684	-156.343	0.493	-0.031
-223.669	74.227	-0.392	-0.413
-222.655	-200.000	0.008	-0.244
-221.640	192.671	-0.066	-0.100
-220.625	145.774	-0.144	0.193
-219.611	126.388	-0.243	0.308
-218.596	-200.000	0.006	0.078
-217.582	14.659	0.015	-0.011
-216.567	800.000	0.060	0.208
-215.552	-87.288	-0.296	-0.090
-214.538	4.109	-0.221	-0.162
-213.523	237.335	-0.159	0.265
-212.509	-48.593	-0.327	0.158
-211.494	-2.730	-0.335	-0.235
-210.479	-200.000	0.063	0.291
-209.465	83.656	0.162	-0.177
-208.450	-200.000	-0.015	-0.136
-207.436	-6.387	0.292	0.200
-206.421	-200.000	0.010	0.356
-205.406	-122.107	-0.225	-0.037
-204.392	584.624	-0.030	-0.073
-203.377	414.793	0.098	0.209
-202.363	216.548	-0.115	0.184
-201.348	226.594	0.191	0.311
-200.333	266.715	-0.048	-0.084
-199.319	-200.000	-0.007	-0.132
-198.304	578.689	-0.250	0.613
-197.290	-200.000	-0.001	0.190
-196.275	189.260	0.297	-0.445
-195.260	119.092	0.104	0.129
-194.246	134.425	-0.091	0.118
-193.231	-170.170	-0.084	0.003
-192.217	-64.090	-0.256	-0.105
-191.202	5.551	-0.147	0.109
-190.187	-100.683	0.211	-0.052
-189.173	91.738	0.144	0.163
-188.158	117.339	-0.086	0.106
-187.144	394.571	0.100	-0.208
-186.129	-200.000	-0.031	0.298
-185.114	10.092	0.358	-0.272
-184.100	-119.942	-0.359	-0.062
-183.085	-125.415	-0.233	-0.036
-182.071	-200.000	0.000	0.078
-181.056	16.075	0.098	-0.077
-180.042	-51.657	0.082	0.038
-179.027	160.500	-0.038	0.053
-178.012	58.076	-0.317	-0.311
-176.998	-200.000	0.042	0.380
-175.983	-200.000	-0.009	0.217
-174.969	193.177	0.159	0.241
-173.954	-200.000	-0.079	-0.000
-172.939	55.557	0.106	0.103
-171.925	1.721	-0.133	0.096
-170.910	-200.000	0.018	-0.408
-169.896	127.215	-0.262	0.332
-168.881	-134.151	-0.294	-0.036
-167.866	800.000	-0.070	-0.239
-166.852	-128.493	0.099	0.014
-165.837	57.870	-0.111	0.109
-164.823	-30.322	-0.102	0.058
-163.808	-108.153	0.153	-0.033
-162.793	-200.000	-0.009	0.340
-161.779	44.053	-0.149	-0.137
-160.764	-64.604	0.478	0.194
-159.750	800.000	0.040	-0.131
-158.735	50.508	0.301	0.285
-157.720	455.626	0.075	-0.166
-156.706	-200.000	0.003	-0.334
-155.691	-2.769	0.125	0.087
-154.677	111.480	0.185	-0.223
-153.662	-200.000	0.039	-0.209
-152.647	89.256	-0.215	-0.240
-151.633	95.877	-0.205	0.234
-150.618	800.000	0.054	0.161
-149.604	-33.567	0.199	-0.110
-148.589	-156.879	0.177	0.011
-147.574	-197.120	-0.147	0.001
-146.560	-200.000	0.019	-0.116
-145.545	129.976	0.065	0.083
-144.531	17.421	-0.123	0.098
-143.516	-63.673	0.287	-0.118
-142.502	202.648	-0.172	-0.266
-141.487	122.620	0.163	0.204
-140.472	-200.000	-0.017	0.158
-139.458	-200.000	-0.062	0.282
-138.443	-200.000	-0.045	0.221
-137.429	-200.000	-0.035	0.251
-136.414	528.634	0.064	0.150
-135.399	-25.685	-0.365	-0.215
-134.385	-200.000	-0.029	0.133
-133.370	-180.240	0.082	-0.002
-132.356	800.000	-0.080	-0.283
-131.341	142.640	0.170	0.226
-130.326	-112.818	-0.329	0.065
-129.312	-200.000	-0.013	0.363
-128.297	101.380	-0.032	0.037
-127.283	-89.322	0.085	0.025
-126.268	800.000	-0.067	0.232
-125.253	-106.750	0.167	0.037
-124.239	-53.118	-0.298	0.137
-123.224	5.121	0.136	-0.100
-122.210	27.253	0.214	0.180
-121.195	-200.000	-0.051	0.246
-120.180	-81.843	-0.210	-0.069
