DTS Sentinel unit serial number:	SN413079Multiplexer serial number:	ORYXHardware model number:	OX4-SRSoftware version number:	ORYX F/W v4.00 Oryx Data Collector v3.7.2.0data status	okinstallation	princeton_trtdifferential loss correction	single-endedforward channel	channel 1reverse channel	N/Adate	2019/09/17time	16:26:35forward acquisition time	60.00reverse acquisition time	0.00gamma	496.2192k internal	0.2292k external	0.2292temperature offset calibration	0.9958default loss term (dB/km)	0.3790temperature slope calibration	1.0000multiplexer offset coefficient	1.0000multiplexer slope coefficient	1.0000fibre end	0.00T internal ref (°C)	41.39T ext. ref 1 (°C)	0.37T ext. ref 2 (°C)	38.51length (m)	temperature (°C)	Stokes	anti-Stokes-747.200	-29.721	0.178	0.104
-746.185	-24.898	-0.250	0.152
-745.171	162.465	0.103	-0.148
-744.156	19.408	0.202	0.166
-743.142	-200.000	0.057	0.281
-742.127	-0.049	-0.182	0.133
-741.112	48.184	-0.074	0.071
-740.098	-67.268	-0.213	0.086
-739.083	118.315	0.183	-0.232
-738.069	585.256	0.140	0.353
-737.054	-200.000	-0.007	-0.066
-736.039	482.440	0.078	-0.182
-735.025	-106.101	0.292	-0.067
-734.010	-92.571	0.072	-0.021
-732.996	800.000	-0.084	-0.252
-731.981	-81.544	-0.368	0.124
-730.966	153.896	-0.084	-0.118
-729.952	45.840	0.340	-0.322
-728.937	-50.911	0.105	-0.050
-727.923	-83.863	-0.360	-0.117
-726.908	-200.000	0.032	0.156
-725.894	-105.561	-0.355	-0.082
-724.879	-105.251	0.114	-0.027
-723.864	-200.000	-0.018	0.212
-722.850	146.152	-0.175	0.240
-721.835	-77.580	-0.182	-0.065
-720.821	-87.567	-0.353	0.109
-719.806	-200.000	-0.013	-0.074
-718.791	800.000	-0.091	-0.262
-717.777	0.522	0.208	0.152
-716.762	25.776	0.139	0.119
-715.748	-79.436	0.136	-0.047
-714.733	-200.000	-0.008	-0.080
-713.718	-8.151	-0.146	0.100
-712.704	-200.000	-0.013	-0.326
-711.689	571.133	0.036	-0.089
-710.675	-18.602	-0.145	0.093
-709.660	800.000	-0.059	0.216
-708.645	-112.024	0.114	0.024
-707.631	-109.334	0.145	0.031
-706.616	70.544	0.143	0.151
-705.602	-102.968	-0.249	0.060
-704.587	-200.000	0.009	0.065
-703.572	371.924	-0.149	-0.308
-702.558	-52.022	-0.135	0.064
-701.543	-200.000	-0.018	0.331
-700.529	8.446	-0.081	0.062
-699.514	-64.120	0.253	-0.106
-698.499	184.718	-0.120	0.182
-697.485	-19.263	-0.202	0.128
-696.470	-12.375	0.188	-0.125
-695.456	310.574	-0.193	-0.370
-694.441	-23.106	-0.091	-0.056
-693.426	41.824	0.164	-0.152
-692.412	-82.886	-0.251	-0.083
-691.397	117.945	-0.165	-0.207
-690.383	-56.449	-0.153	-0.070
-689.368	-118.783	0.121	0.022
-688.354	210.500	0.062	-0.099
-687.339	-124.599	-0.278	0.044
-686.324	-200.000	-0.003	0.050
-685.310	-75.911	-0.038	0.014
-684.295	350.466	-0.148	-0.299
-683.281	-70.655	0.163	0.063
-682.266	-200.000	0.002	0.260
-681.251	184.866	-0.161	-0.244
-680.237	43.395	0.135	-0.126
-679.222	34.644	-0.197	-0.176
-678.208	-94.882	0.120	-0.033
-677.193	800.000	0.049	-0.146
-676.178	-174.663	0.202	0.006
-675.164	800.000	-0.074	0.263
-674.149	634.055	0.057	-0.148
-673.135	-66.537	0.138	0.056
-672.120	-200.000	0.117	-0.000
-671.105	172.895	-0.107	-0.158
-670.091	37.115	-0.277	0.251
-669.076	221.761	-0.058	0.096
-668.062	565.912	0.121	0.300
-667.047	44.805	0.133	-0.125
-666.032	283.728	0.036	0.066
-665.018	-31.619	0.178	0.102
-664.003	-28.697	-0.271	0.159
-662.989	-188.686	0.074	0.001
-661.974	-200.000	0.007	-0.172
-660.959	-159.064	-0.429	-0.025
-659.945	-100.393	0.166	-0.042
-658.930	200.483	0.040	0.063
-657.916	-200.000	0.066	0.338
-656.901	17.227	-0.087	-0.071
-655.886	-155.819	0.359	0.023
-654.872	800.000	0.031	0.110
-653.857	-200.000	-0.023	-0.139
-652.843	-64.341	-0.110	-0.046
-651.828	529.465	-0.068	-0.164
-650.814	800.000	0.062	0.266
-649.799	-132.331	-0.150	-0.020
-648.784	256.325	0.133	-0.233
-647.770	523.796	0.171	-0.409
-646.755	-57.184	-0.207	0.093
-645.741	-200.000	-0.055	0.265
-644.726	-200.000	-0.009	-0.317
-643.711	264.217	-0.083	-0.148
-642.697	81.384	0.104	-0.115
-641.682	26.656	0.269	-0.230
-640.668	-200.000	-0.031	-0.200
-639.653	800.000	0.149	-0.479
-638.638	-73.458	-0.079	0.029
-637.624	179.556	-0.068	-0.102
-636.609	-200.000	-0.015	-0.422
-635.595	388.490	0.050	-0.105
-634.580	-200.000	-0.019	0.259
-633.565	-67.041	-0.531	-0.214
-632.551	-34.058	0.161	-0.090
-631.536	800.000	-0.132	-0.393
-630.522	-200.000	-0.073	0.503
-629.507	800.000	-0.069	0.242
-628.492	-116.664	-0.199	-0.037
-627.478	-115.060	-0.102	0.020
-626.463	357.237	-0.116	-0.236
-625.449	-64.999	0.139	-0.057
-624.434	433.531	-0.091	0.201
-623.419	21.741	-0.177	0.147
-622.405	-87.922	-0.197	0.060
-621.390	131.443	-0.206	-0.270
-620.376	-61.825	0.123	0.052
-619.361	-61.533	-0.207	0.088
-618.346	70.772	0.052	0.055
-617.332	-72.820	0.107	0.040
-616.317	60.549	0.329	-0.332
-615.303	-200.000	0.054	0.426
-614.288	-26.070	-0.263	0.158
-613.273	-145.708	0.195	-0.018
-612.259	391.277	0.123	0.260
-611.244	-14.881	0.167	-0.109
-610.230	51.760	0.126	-0.122
-609.215	-158.769	-0.093	-0.005
-608.201	12.913	-0.193	-0.152
-607.186	-200.000	0.000	0.083
-606.171	-66.596	0.233	-0.094
-605.157	55.404	-0.141	-0.139
-604.142	-200.000	0.065	0.338
-603.128	-145.663	-0.348	0.032
-602.113	-147.833	-0.349	-0.030
-601.098	-21.095	-0.015	0.009
-600.084	-9.902	0.152	0.103
-599.069	290.379	0.164	0.304
-598.055	-200.000	0.003	0.269
-597.040	-5.141	-0.193	-0.135
-596.025	360.648	0.106	-0.217
-595.011	-1.408	-0.301	0.216
-593.996	-200.000	-0.015	0.083
-592.982	-200.000	-0.075	0.535
-591.967	214.658	0.214	-0.345
-590.952	48.469	-0.073	-0.070
-589.938	-107.529	-0.224	0.050
-588.923	249.613	0.110	0.191
-587.909	33.152	-0.298	0.263
-586.894	-23.721	-0.314	-0.192
-585.879	33.123	0.052	0.045
-584.865	31.710	0.096	-0.084
-583.850	-200.000	-0.032	0.178
-582.836	800.000	-0.099	-0.312
-581.821	-200.000	0.032	0.330
-580.806	20.388	0.225	0.185
-579.792	-142.526	0.270	-0.027
-578.777	269.823	-0.085	0.152
-577.763	-200.000	0.054	0.343
-576.748	-200.000	0.026	-0.332
-575.733	-145.309	-0.454	0.042
-574.719	90.618	-0.060	-0.068
-573.704	800.000	0.089	-0.356
-572.690	800.000	0.068	-0.230
-571.675	-108.921	-0.044	0.010
-570.661	-19.148	0.118	0.074
-569.646	-95.304	0.014	0.004
-568.631	-170.742	-0.214	0.007
-567.617	-88.081	0.197	0.060
-566.602	-128.554	-0.338	-0.049
-565.588	291.068	-0.057	-0.105
-564.573	800.000	0.046	-0.151
-563.558	-19.498	0.282	-0.178
-562.544	-200.000	-0.034	-0.210
-561.529	570.107	0.128	0.317
-560.515	-200.000	0.017	0.215
-559.500	-54.393	-0.091	-0.042
-558.485	-122.710	-0.037	-0.006
-557.471	-93.177	0.245	0.069
-556.456	312.010	0.040	-0.077
-555.442	-104.899	0.270	-0.063
-554.427	344.897	0.062	-0.123
-553.412	-150.782	-0.155	-0.012
-552.398	143.686	-0.141	-0.191
-551.383	44.746	-0.206	0.192
-550.369	47.539	-0.324	-0.307
-549.354	800.000	0.111	-0.370
-548.339	168.596	-0.068	0.098
-547.325	-200.000	-0.049	0.272
-546.310	-92.170	-0.143	-0.041
-545.296	185.105	0.021	-0.032
-544.281	234.113	0.220	0.369
-543.266	-189.660	-0.155	0.002
-542.252	23.162	0.086	0.071
-541.237	-200.000	-0.006	0.243
-540.223	-200.000	0.044	-0.236
-539.208	-200.000	-0.038	-0.270
-538.193	-200.000	0.038	-0.186
-537.179	-147.015	0.118	0.010
-536.164	-200.000	0.046	-0.335
-535.150	158.391	0.080	0.113
-534.135	524.412	-0.119	0.285
-533.121	-200.000	-0.065	-0.535
-532.106	-139.776	0.360	0.039
-531.091	800.000	-0.027	0.100
-530.077	-80.628	-0.153	-0.052
-529.062	-189.223	0.170	-0.002
-528.048	-200.000	0.003	-0.363
-527.033	800.000	0.036	-0.113
-526.018	-4.566	0.238	-0.167
-525.004	-25.676	-0.085	-0.051
-523.989	184.049	-0.185	-0.278
-522.975	-189.307	-0.121	-0.001
-521.960	-127.210	-0.313	-0.046
-520.945	-200.000	0.019	-0.393
-519.931	-157.453	0.120	0.007
-518.916	-32.817	-0.291	-0.164
-517.902	440.451	-0.096	-0.212
-516.887	-25.596	-0.246	-0.147
-515.872	19.779	0.198	-0.162
-514.858	800.000	-0.109	-0.412
-513.843	-166.554	-0.247	0.010
-512.829	-4.736	0.204	-0.143
-511.814	-81.468	0.031	-0.010
-510.799	261.203	-0.056	0.099
-509.785	-68.905	-0.133	0.052
-508.770	-87.845	0.263	-0.080
-507.756	800.000	0.131	0.431
-506.741	-200.000	-0.008	-0.110
-505.726	-21.180	-0.132	0.082
-504.712	800.000	0.065	0.211
-503.697	132.767	0.256	0.336
-502.683	596.572	0.088	0.222
-501.668	72.681	0.090	0.095
-500.653	-59.071	-0.296	0.130
-499.639	-140.897	-0.066	-0.007
-498.624	226.402	-0.027	-0.045
-497.610	-121.745	-0.160	0.027
-496.595	388.297	-0.081	-0.169
-495.581	-200.000	0.014	0.139
-494.566	-102.783	0.211	0.051
-493.551	-200.000	-0.058	0.389
-492.537	260.609	0.120	0.210
-491.522	-126.403	0.221	0.033
-490.508	-101.311	-0.408	-0.101
-489.493	102.354	0.105	-0.124
-488.478	109.252	0.199	0.242
-487.464	403.620	-0.107	0.229
-486.449	36.048	-0.149	-0.133
-485.435	30.812	-0.389	-0.337
-484.420	379.584	0.039	0.080
-483.405	-3.013	0.142	-0.101
-482.391	119.984	0.068	0.085
-481.376	-42.981	0.241	-0.124
-480.362	-200.000	0.069	0.362
-479.347	250.948	0.234	0.404
-478.332	-75.239	-0.155	0.056
-477.318	-126.846	-0.336	-0.050
-476.303	104.050	-0.179	-0.213
-475.289	-172.871	0.441	-0.014
-474.274	-200.000	0.024	-0.214
-473.259	20.868	0.372	-0.305
-472.245	-67.977	-0.375	0.148
-471.230	456.418	0.152	0.341
-470.216	49.709	-0.138	0.132
-469.201	-43.044	0.342	0.176
-468.186	462.841	-0.025	0.057
-467.172	-101.171	0.307	0.076
-466.157	-22.098	-0.158	-0.097
-465.143	491.269	-0.110	-0.255
-464.128	-200.000	0.014	0.079
-463.113	55.201	-0.114	0.111
-462.099	8.727	-0.157	-0.120
-461.084	316.078	0.051	0.097
-460.070	73.570	-0.060	0.064
-459.055	-102.315	-0.251	0.061
-458.040	755.197	-0.063	-0.171
-457.026	800.000	0.059	0.169
-456.011	800.000	0.171	0.558
-454.997	-124.060	0.309	0.049
-453.982	-99.037	0.051	-0.013
-452.968	64.118	-0.298	0.304
-451.953	-85.904	0.224	-0.070
-450.938	8.791	-0.253	0.193
-449.924	-200.000	-0.102	0.504
-448.909	311.533	-0.094	-0.178
-447.895	135.653	-0.033	-0.044
-446.880	-133.323	0.172	-0.022
-445.865	-139.625	0.112	0.012
-444.851	-71.032	-0.187	-0.071
-443.836	50.583	-0.103	0.098
-442.822	-148.431	-0.057	-0.005
-441.807	181.020	-0.093	-0.138
-440.792	-106.760	0.256	-0.058
-439.778	-143.375	-0.061	-0.006
-438.763	62.879	-0.060	-0.061
-437.749	800.000	0.081	-0.250
-436.734	81.073	0.124	0.136
-435.719	-88.284	-0.224	0.068
-434.705	800.000	-0.023	-0.094
-433.690	-96.146	-0.190	0.051
-432.676	62.880	-0.271	-0.275
-431.661	131.873	-0.102	0.132
-430.646	56.116	0.055	-0.054
-429.632	-76.299	0.236	-0.084
-428.617	90.970	-0.062	0.070
-427.603	800.000	0.102	-0.306
-426.588	-135.809	-0.521	0.062
-425.573	-200.000	0.027	0.259
-424.559	25.921	-0.083	-0.070
-423.544	-71.458	-0.258	0.098
-422.530	-54.143	-0.260	-0.119
-421.515	302.572	0.077	0.144
-420.500	11.680	0.132	0.103
-419.486	-27.634	-0.197	0.116
-418.471	225.240	0.095	-0.155
-417.457	-23.072	0.210	0.128
-416.442	-154.019	-0.370	0.025
-415.428	800.000	0.042	0.173
-414.413	-200.000	-0.005	-0.125
-413.398	1.639	0.075	-0.055
-412.384	-144.442	-0.080	-0.008
-411.369	-35.786	-0.266	-0.146
-410.355	800.000	-0.024	0.070
-409.340	10.929	0.202	-0.156
-408.325	55.684	-0.092	-0.090
-407.311	-200.000	-0.012	0.105
-406.296	443.892	-0.108	-0.238
-405.282	87.362	0.108	-0.121
-404.267	170.026	-0.067	0.097
-403.252	2.473	0.226	-0.165
-402.238	-152.986	-0.230	-0.016
-401.223	176.790	0.187	0.274
-400.209	-200.000	0.054	0.000
-399.194	-65.154	0.150	-0.061
-398.179	66.338	0.366	0.376
-397.165	-121.150	-0.609	0.103
-396.150	51.154	0.120	0.115
-395.136	-200.000	-0.009	0.066
-394.121	-200.000	-0.053	0.309
-393.106	-183.709	-0.028	0.000
-392.092	-161.944	0.214	-0.011
-391.077	70.439	0.202	-0.211
-390.063	-27.884	0.253	-0.148
-389.048	-200.000	-0.097	-0.000
-388.033	-200.000	0.038	0.198
-387.019	533.161	-0.073	0.174
-386.004	-20.798	0.263	0.163
-384.990	-200.000	0.025	0.335
-383.975	711.307	0.078	-0.207
-382.960	487.225	0.063	-0.145
-381.946	800.000	-0.023	-0.085
-380.931	-129.986	0.192	-0.027
-379.917	265.406	0.135	-0.238
-378.902	-40.430	-0.054	0.028
-377.888	126.708	-0.096	-0.123
-376.873	-15.922	0.134	0.086
-375.858	209.203	0.139	-0.220
-374.844	61.685	-0.100	-0.100
-373.829	280.846	0.044	-0.079
-372.815	237.501	-0.073	-0.123
-371.800	260.049	0.180	0.313
-370.785	271.412	-0.127	0.227
-369.771	436.859	0.195	0.429
-368.756	-87.752	-0.211	-0.064
-367.742	800.000	-0.076	-0.254
-366.727	-3.701	0.299	0.210
-365.712	-200.000	0.009	0.166
-364.698	200.766	0.100	-0.156
-363.683	-36.161	0.216	0.118
-362.669	800.000	0.079	-0.310
-361.654	-155.394	-0.315	-0.021
-360.639	-15.535	0.073	0.047
-359.625	-200.000	-0.051	0.336
-358.610	25.923	-0.104	0.087
-357.596	-59.041	0.344	-0.150
-356.581	-200.000	0.024	0.195
-355.566	268.194	0.090	0.160
-354.552	-200.000	0.050	0.305
-353.537	-50.618	-0.237	0.113
-352.523	-111.873	0.168	-0.034
-351.508	-106.693	-0.223	0.050
-350.493	-174.146	-0.135	-0.004
-349.479	131.620	-0.202	-0.262
-348.464	-29.226	0.138	0.080
-347.450	483.251	0.018	0.042
-346.435	83.209	0.093	-0.102
-345.420	-11.079	-0.203	-0.135
-344.406	-44.163	0.096	-0.049
-343.391	-113.710	0.163	0.032
-342.377	-46.884	-0.134	-0.066
-341.362	311.828	-0.164	0.309
-340.348	-200.000	-0.004	-0.285
-339.333	21.923	0.215	-0.177
-338.318	-148.059	0.221	0.018
-337.304	-156.566	-0.160	0.010
-336.289	800.000	-0.105	-0.360
-335.275	-14.699	0.048	-0.031
-334.260	9.344	0.100	0.076
-333.245	113.860	0.191	0.234
-332.231	157.768	-0.050	-0.070
-331.216	-70.489	-0.089	-0.034
-330.202	637.510	0.052	0.133
-329.187	-166.402	0.399	-0.017
-328.172	-48.845	-0.163	-0.079
-327.158	800.000	0.015	-0.061
-326.143	-200.000	-0.015	-0.176
-325.129	-32.174	0.216	-0.122
-324.114	-65.860	-0.154	-0.062
-323.099	39.574	0.192	-0.173
-322.085	-4.291	-0.100	-0.070
-321.070	70.522	-0.104	0.108
-320.056	-146.303	-0.188	-0.017
-319.041	-200.000	-0.014	-0.280
-318.026	89.853	0.091	-0.103
-317.012	-200.000	-0.035	0.230
-315.997	689.822	0.097	0.256
-314.983	-97.253	0.272	0.071
-313.968	800.000	0.033	-0.124
-312.953	-27.774	-0.299	-0.175
-311.939	-69.009	0.092	0.036
-310.924	57.370	0.128	0.126
-309.910	-95.956	0.294	-0.079
-308.895	-200.000	0.003	0.145
-307.880	-200.000	-0.004	-0.050
-306.866	800.000	0.095	-0.304
-305.851	-23.573	-0.234	0.141
-304.837	226.707	-0.096	-0.156
-303.822	-200.000	0.046	0.221
-302.807	-27.594	0.188	0.110
-301.793	-11.594	-0.172	0.114
-300.778	-13.792	-0.150	-0.098
-299.764	-200.000	-0.063	0.419
-298.749	-51.582	-0.029	0.013
-297.735	-70.396	0.091	0.035
-296.720	-32.695	-0.151	-0.085
-295.705	-200.000	-0.014	-0.322
-294.691	-33.205	0.180	0.100
-293.676	117.776	0.195	-0.242
-292.662	800.000	0.067	0.244
-291.647	800.000	0.031	0.117
-290.632	-59.053	0.073	-0.032
-289.618	77.244	0.101	0.108
-288.603	-174.540	-0.441	0.013
-287.589	253.870	0.058	-0.099
-286.574	-200.000	-0.028	0.178
-285.559	-200.000	0.020	0.125
-284.545	-91.671	0.071	-0.020
-283.530	-93.566	-0.150	-0.042
-282.516	-129.077	0.090	-0.013
-281.501	-137.973	-0.280	0.031
-280.486	210.860	-0.204	-0.323
-279.472	9.126	0.260	-0.197
-278.457	-101.602	0.251	0.061
-277.443	232.146	0.063	-0.103
-276.428	-200.000	0.014	0.102
-275.413	-80.343	0.102	-0.034
-274.399	-125.047	0.333	0.051
-273.384	307.260	0.164	0.306
-272.370	150.517	-0.075	0.102
-271.355	-51.757	-0.187	0.088
-270.340	-188.275	0.075	0.001
-269.326	538.886	-0.060	-0.144
-268.311	800.000	0.024	0.078
-267.297	74.164	0.106	0.111
-266.282	-111.564	-0.410	0.084
-265.267	-131.532	-0.139	-0.018
-264.253	-30.758	0.253	-0.144
-263.238	-200.000	0.043	0.331
-262.224	360.733	0.060	-0.120
-261.209	-96.765	-0.306	-0.081
-260.195	-117.815	-0.378	-0.068
-259.180	-200.000	0.018	-0.284
-258.165	-200.000	0.048	0.365
-257.151	-48.423	0.149	0.072
-256.136	213.746	-0.319	-0.507
-255.122	14.344	0.069	-0.054
-254.107	-178.713	-0.501	-0.012
-253.092	-139.399	-0.004	-0.000
-252.078	151.439	-0.045	0.061
-251.063	136.848	-0.159	-0.209
-250.049	-200.000	-0.030	0.309
-249.034	-128.198	0.050	0.007
-248.019	253.261	0.077	0.132
-247.005	800.000	-0.055	-0.170
-245.990	4.730	-0.036	0.027
-244.976	-200.000	-0.028	-0.240
-243.961	139.901	-0.130	0.173
-242.946	-180.596	0.178	-0.004
-241.932	-200.000	0.287	0.001
-240.917	104.320	-0.202	-0.239
-239.903	106.024	-0.183	-0.217
-238.888	-59.815	0.105	0.045
-237.873	-16.437	0.115	0.073
-236.859	71.498	-0.224	0.233
-235.844	350.651	0.110	0.218
-234.830	566.562	-0.005	-0.013
-233.815	-200.000	-0.000	-0.138
-232.800	800.000	0.045	-0.184
-231.786	-111.352	0.053	-0.011
-230.771	-84.097	0.125	0.040
-229.757	716.038	0.091	0.242
-228.742	800.000	0.121	0.390
-227.727	-174.272	0.156	-0.005
-226.713	-38.493	0.247	-0.131
-225.698	-111.202	-0.178	0.037
-224.684	-200.000	-0.057	-0.262
-223.669	57.986	-0.175	-0.171
-222.655	52.443	-0.058	0.055
-221.640	-200.000	0.032	-0.212
-220.625	-25.636	-0.152	-0.090
-219.611	800.000	0.100	-0.304
-218.596	24.746	-0.013	-0.011
-217.582	-200.000	-0.090	-0.411
-216.567	-21.876	0.131	-0.080
-215.552	599.199	-0.091	0.227
-214.538	-200.000	-0.047	0.342
-213.523	-200.000	-0.008	-0.161
-212.509	-65.979	0.307	-0.123
-211.494	35.949	-0.049	0.044
-210.479	-153.674	-0.092	-0.006
-209.465	401.371	0.143	0.300
-208.450	242.278	-0.053	-0.089
-207.436	-200.000	-0.020	-0.237
-206.421	122.508	-0.165	0.207
-205.406	-95.607	0.152	0.041
-204.392	16.301	-0.128	-0.101
-203.377	-200.000	-0.049	0.268
-202.363	-200.000	-0.001	0.547
-201.348	800.000	-0.142	0.418
-200.333	-121.735	0.265	-0.044
-199.319	147.281	0.149	0.201
-198.304	-84.033	-0.071	-0.023
-197.290	28.883	-0.127	-0.108
-196.275	577.823	-0.094	-0.229
-195.260	-83.585	0.164	0.053
-194.246	114.245	0.166	-0.203
-193.231	147.302	-0.130	-0.176
-192.217	-103.278	-0.225	0.053
-191.202	-171.701	0.457	0.015
-190.187	-13.919	0.333	0.215
-189.173	-78.735	-0.305	0.104
-188.158	139.203	0.122	0.160
-187.144	-200.000	0.046	0.323
-186.129	-123.491	-0.061	-0.010
-185.114	-100.652	0.100	0.025
-184.100	-200.000	0.000	0.050
-183.085	-200.000	-0.005	0.128
-182.071	800.000	-0.008	0.029
-181.056	328.388	0.074	0.142
-180.042	211.306	0.040	-0.064
-179.027	208.434	0.133	0.208
-178.012	-29.377	-0.099	0.057
-176.998	88.484	0.042	0.047
-175.983	96.297	-0.240	-0.275
-174.969	-69.960	-0.361	-0.138
-173.954	-133.169	-0.282	0.036
-172.939	-68.676	0.114	0.044
-171.925	9.925	0.174	-0.132
-170.910	-200.000	-0.024	-0.107
-169.896	-53.881	0.250	-0.114
-168.881	-71.838	0.160	0.060
-167.866	-55.126	0.430	-0.194
-166.852	-140.669	0.198	0.021
-165.837	28.942	0.067	-0.057
-164.823	-90.189	0.287	0.084
-163.808	401.472	0.105	0.221
-162.793	-74.434	0.079	0.028
-161.779	304.940	0.075	-0.139
-160.764	10.922	0.255	-0.195
-159.750	-65.743	-0.180	-0.072
-158.735	170.495	0.023	0.033
-157.720	800.000	-0.052	-0.154
-156.706	-96.965	0.115	-0.030
-155.691	-166.177	-0.081	0.003
-154.677	-200.000	-0.004	-0.096
-153.662	-102.997	0.155	0.037
-152.647	233.933	0.204	-0.336
-151.633	153.227	0.077	0.105
-150.618	14.072	-0.108	0.084
-149.604	-49.195	-0.194	0.093
-148.589	800.000	-0.113	-0.323
-147.574	-46.362	0.342	0.168
-146.560	-52.640	-0.230	0.106
-145.545	381.758	-0.073	0.151
-144.531	6.484	-0.263	0.195
-143.516	-113.197	-0.356	-0.070
-142.502	-68.730	0.374	-0.145
-141.487	-200.000	0.045	0.340
-140.472	137.940	-0.173	0.227
-139.458	415.022	0.078	0.165
-138.443	800.000	-0.161	0.460
-137.429	232.857	0.198	-0.326
-136.414	-200.000	0.017	-0.155
-135.399	-92.196	-0.169	-0.048
-134.385	752.450	0.060	-0.161
-133.370	274.334	-0.126	-0.223
-132.356	22.458	0.176	0.144
-131.341	-35.323	-0.151	-0.082
-130.326	800.000	0.032	0.094
-129.312	33.892	0.155	0.135
-128.297	-125.306	0.352	0.054
-127.283	115.000	0.309	0.377
-126.268	-200.000	-0.041	0.368
-125.253	-92.119	0.299	0.084
-124.239	173.141	0.117	0.168
-123.224	27.916	0.173	0.146
-122.210	-2.925	0.040	-0.028
