DTS Sentinel unit serial number:	SN413079Multiplexer serial number:	ORYXHardware model number:	OX4-SRSoftware version number:	ORYX F/W v4.00 Oryx Data Collector v3.7.2.0data status	okinstallation	princeton_trtdifferential loss correction	single-endedforward channel	channel 1reverse channel	N/Adate	2019/09/16time	01:14:35forward acquisition time	60.00reverse acquisition time	0.00gamma	496.2192k internal	0.2334k external	0.2334temperature offset calibration	0.9978default loss term (dB/km)	0.3790temperature slope calibration	1.0000multiplexer offset coefficient	1.0000multiplexer slope coefficient	1.0000fibre end	0.00T internal ref (°C)	27.27T ext. ref 1 (°C)	9.83T ext. ref 2 (°C)	21.74length (m)	temperature (°C)	Stokes	anti-Stokes-747.200	-200.000	-0.052	0.280
-746.185	12.538	-0.184	0.142
-745.171	177.592	0.143	-0.209
-744.156	157.267	-0.123	0.171
-743.142	73.646	-0.247	-0.260
-742.127	-125.318	0.361	-0.055
-741.112	-42.963	0.097	0.049
-740.098	326.064	0.185	0.356
-739.083	139.520	0.076	0.100
-738.069	14.549	0.105	0.082
-737.054	264.124	0.065	0.114
-736.039	38.322	0.117	0.105
-735.025	800.000	-0.077	0.230
-734.010	257.838	-0.154	-0.266
-732.996	-200.000	-0.072	-0.358
-731.981	160.331	0.151	0.212
-730.966	418.635	-0.142	-0.306
-729.952	-85.769	0.089	-0.028
-728.937	274.711	-0.115	0.204
-727.923	35.004	-0.159	0.140
-726.908	-103.417	-0.173	-0.041
-725.894	692.578	-0.056	-0.147
-724.879	90.600	0.143	-0.160
-723.864	112.804	0.222	-0.270
-722.850	94.382	0.147	-0.167
-721.835	275.418	0.134	0.239
-720.821	-9.314	0.226	-0.151
-719.806	-72.884	0.095	-0.035
-718.791	21.071	-0.274	-0.223
-717.777	-200.000	-0.049	0.372
-716.762	743.758	0.109	-0.296
-715.748	94.579	-0.092	0.105
-714.733	-152.393	0.127	-0.009
-713.718	-0.716	-0.109	0.077
-712.704	-200.000	0.025	0.156
-711.689	78.621	0.068	-0.072
-710.675	-90.328	-0.395	0.115
-709.660	-52.015	0.251	0.117
-708.645	-128.813	0.315	-0.044
-707.631	-91.951	-0.265	0.075
-706.616	-21.877	0.361	-0.220
-705.602	-100.893	-0.227	-0.056
-704.587	22.519	-0.133	0.109
-703.572	-60.139	-0.251	-0.108
-702.558	30.914	-0.220	-0.189
-701.543	24.588	0.074	-0.062
-700.529	332.851	0.080	0.154
-699.514	800.000	0.033	-0.128
-698.499	269.764	-0.158	-0.279
-697.485	14.489	0.224	-0.175
-696.470	103.462	-0.145	-0.171
-695.456	380.091	-0.184	-0.378
-694.441	-14.853	0.373	-0.240
-693.426	740.365	0.064	-0.172
-692.412	139.866	-0.211	-0.279
-691.397	202.670	-0.103	-0.160
-690.383	57.357	0.419	0.410
-689.368	-87.963	-0.347	-0.105
-688.354	62.072	0.088	0.088
-687.339	-80.384	-0.106	0.035
-686.324	49.307	0.289	-0.272
-685.310	-33.661	-0.398	0.220
-684.295	245.310	0.043	-0.072
-683.281	-80.426	-0.373	-0.125
-682.266	-173.439	0.235	0.007
-681.251	583.072	-0.047	-0.116
-680.237	800.000	-0.085	-0.273
-679.222	138.785	-0.156	-0.205
-678.208	-200.000	0.011	0.153
-677.193	-147.246	-0.536	0.046
-676.178	-15.795	0.311	-0.198
-675.164	-200.000	-0.007	0.081
-674.149	-200.000	-0.020	-0.208
-673.135	-47.371	-0.054	0.026
-672.120	-37.199	0.123	-0.066
-671.105	-22.980	-0.027	0.016
-670.091	800.000	-0.045	-0.169
-669.076	89.835	0.157	-0.176
-668.062	184.311	-0.368	-0.546
-667.047	-128.684	-0.177	-0.025
-666.032	-127.190	-0.160	-0.023
-665.018	-16.923	0.274	0.174
-664.003	32.369	-0.202	0.175
-662.989	655.526	0.032	-0.082
-661.974	-182.558	-0.372	0.007
-660.959	449.923	0.038	-0.084
-659.945	-65.740	0.221	-0.089
-658.930	-200.000	-0.061	-0.287
-657.916	-14.322	0.129	0.083
-656.901	26.004	-0.207	-0.173
-655.886	-70.116	0.204	-0.078
-654.872	-154.346	0.081	-0.005
-653.857	533.501	-0.139	0.330
-652.843	363.456	-0.068	-0.137
-651.828	-200.000	0.060	-0.367
-650.814	68.379	0.217	-0.223
-649.799	21.020	-0.099	-0.080
-648.784	251.522	-0.122	-0.208
-647.770	-95.511	0.362	0.097
-646.755	16.565	-0.137	0.109
-645.741	-200.000	-0.010	-0.239
-644.726	-76.602	-0.244	-0.086
-643.711	-94.143	0.369	-0.101
-642.697	-200.000	-0.003	0.147
-641.682	70.499	0.076	0.079
-640.668	-200.000	-0.026	0.230
-639.653	289.204	-0.188	0.341
-638.638	-49.291	0.301	0.144
-637.624	-36.890	0.195	0.105
-636.609	60.978	-0.091	0.091
-635.595	241.341	-0.129	-0.216
-634.580	800.000	0.052	-0.171
-633.565	-156.049	-0.433	0.027
-632.551	-141.535	-0.168	-0.017
-631.536	493.528	0.143	-0.328
-630.522	-200.000	0.011	0.222
-629.507	-36.809	-0.262	-0.141
-628.492	800.000	0.079	0.329
-627.478	-81.306	0.178	-0.059
-626.463	-200.000	-0.040	0.277
-625.449	-200.000	0.052	-0.401
-624.434	362.629	0.197	-0.395
-623.419	-200.000	0.044	-0.222
-622.405	644.327	-0.041	0.106
-621.390	272.303	-0.112	0.198
-620.376	-82.322	-0.169	-0.055
-619.361	83.930	-0.078	0.085
-618.346	-115.746	0.054	0.010
-617.332	406.968	-0.081	-0.170
-616.317	-14.077	-0.366	-0.236
-615.303	203.256	0.124	0.191
-614.288	-17.732	-0.361	-0.227
-613.273	50.193	-0.303	-0.286
-612.259	5.605	-0.178	0.132
-611.244	800.000	0.044	0.190
-610.230	277.550	0.145	-0.258
-609.215	181.957	-0.040	-0.058
-608.201	-200.000	-0.009	-0.064
-607.186	-69.167	-0.063	0.024
-606.171	8.441	-0.050	0.037
-605.157	-200.000	-0.026	-0.129
-604.142	324.348	-0.099	0.188
-603.128	46.243	-0.174	0.162
-602.113	-97.963	0.145	-0.037
-601.098	-63.394	0.039	-0.016
-600.084	-34.699	-0.089	0.049
-599.069	12.389	0.369	0.284
-598.055	-117.899	0.187	0.033
-597.040	-2.446	-0.301	-0.211
-596.025	800.000	0.068	0.230
-595.011	27.167	0.061	-0.051
-593.996	291.003	0.060	-0.109
-592.982	6.457	-0.116	0.086
-591.967	-109.953	0.289	-0.060
-590.952	-200.000	-0.001	-0.258
-589.938	61.469	0.468	-0.465
-588.923	47.931	-0.222	0.207
-587.909	-26.346	0.178	-0.105
-586.894	-164.391	0.049	0.002
-585.879	-6.048	-0.280	-0.191
-584.865	-200.000	-0.012	-0.150
-583.850	-129.575	0.188	0.026
-582.836	-118.029	-0.158	-0.028
-581.821	380.188	0.061	0.124
-580.806	252.914	-0.144	0.245
-579.792	-200.000	-0.014	0.138
-578.777	-200.000	-0.000	0.039
-577.763	306.059	-0.108	0.200
-576.748	-31.292	0.170	0.096
-575.733	11.526	-0.285	0.218
-574.719	98.466	-0.218	0.251
-573.704	48.998	0.091	0.085
-572.690	52.648	-0.048	-0.046
-571.675	-38.089	-0.050	-0.026
-570.661	-200.000	-0.048	0.494
-569.646	-138.138	-0.281	-0.031
-568.631	-84.342	0.147	0.046
-567.617	-42.224	-0.119	0.061
-566.602	29.520	-0.162	0.137
-565.588	25.463	0.066	-0.055
-564.573	800.000	-0.066	-0.267
-563.558	800.000	0.037	0.140
-562.544	-151.912	-0.128	-0.009
-561.529	-200.000	-0.083	-0.421
-560.515	-4.625	-0.183	-0.126
-559.500	214.667	-0.111	0.176
-558.485	-200.000	-0.018	0.278
-557.471	-102.056	0.290	-0.070
-556.456	-146.754	-0.406	-0.035
-555.442	-115.962	0.433	-0.081
-554.427	80.901	-0.111	-0.120
-553.412	80.065	-0.088	-0.095
-552.398	18.410	0.118	-0.094
-551.383	411.659	0.185	0.391
-550.369	638.247	-0.074	0.188
-549.354	468.996	-0.030	-0.068
-548.339	92.073	0.254	-0.286
-547.325	-6.540	-0.234	-0.159
-546.310	800.000	-0.074	-0.297
-545.296	-200.000	0.007	0.185
-544.281	12.732	-0.128	0.098
-543.266	63.606	0.268	0.268
-542.252	-10.938	0.222	-0.146
-541.237	148.928	0.171	-0.230
-540.223	206.109	-0.183	0.284
-539.208	-117.148	-0.168	-0.031
-538.193	800.000	-0.024	-0.090
-537.179	-7.500	0.055	0.037
-536.164	86.219	0.076	0.083
-535.150	-53.809	-0.041	-0.019
-534.135	-66.423	-0.113	-0.045
-533.121	-48.368	0.225	-0.108
-532.106	-153.226	0.309	0.022
-531.091	219.537	-0.222	-0.355
-530.077	-51.324	-0.253	-0.118
-529.062	-40.427	0.276	-0.143
-528.048	260.806	-0.184	-0.318
-527.033	-49.108	-0.051	0.024
-526.018	-18.508	-0.097	-0.061
-525.004	-0.027	-0.248	0.176
-523.989	800.000	0.038	-0.165
-522.975	-160.049	-0.021	-0.001
-521.960	-200.000	0.021	0.144
-520.945	251.376	0.129	0.218
-519.931	-81.326	0.155	-0.051
-518.916	-200.000	0.038	0.429
-517.902	-200.000	0.064	0.342
-516.887	-141.303	-0.226	0.023
-515.872	-59.051	-0.374	-0.161
-514.858	281.336	0.101	-0.180
-513.843	490.793	-0.191	-0.436
-512.829	529.390	0.100	0.235
-511.814	-200.000	0.087	0.455
-510.799	206.455	0.191	-0.296
-509.785	94.557	0.071	0.080
-508.770	-147.579	-0.123	-0.010
-507.756	-70.111	0.318	-0.120
-506.741	800.000	0.031	-0.133
-505.726	-60.490	0.198	0.084
-504.712	313.784	-0.123	-0.230
-503.697	-139.145	0.174	0.019
-502.683	-90.415	0.212	-0.061
-501.668	-30.338	0.017	0.010
-500.653	12.776	-0.100	0.077
-499.639	-84.583	0.222	-0.070
-498.624	15.981	-0.088	0.069
-497.610	3.122	0.065	0.047
-496.595	-39.866	-0.221	-0.115
-495.581	-6.978	0.260	0.176
-494.566	223.496	0.026	-0.042
-493.551	-78.718	0.223	-0.076
-492.537	58.043	-0.150	-0.147
-491.522	43.341	-0.111	-0.101
-490.508	800.000	0.079	-0.255
-489.493	-12.463	-0.208	-0.135
-488.478	-144.988	-0.059	0.005
-487.464	800.000	-0.038	-0.154
-486.449	19.746	0.141	-0.113
-485.435	138.626	-0.100	0.130
-484.420	-116.342	-0.332	-0.061
-483.405	-62.239	0.138	-0.057
-482.391	262.571	-0.105	0.181
-481.376	6.581	-0.055	0.041
-480.362	-200.000	-0.041	-0.293
-479.347	17.479	-0.075	0.059
-478.332	-200.000	0.018	-0.135
-477.318	-200.000	0.040	0.191
-476.303	-106.721	-0.155	0.034
-475.289	-200.000	-0.026	-0.336
-474.274	-35.578	-0.155	0.084
-473.259	36.776	-0.192	-0.169
-472.245	10.511	0.266	-0.202
-471.230	90.752	-0.250	0.278
-470.216	34.366	-0.226	-0.196
-469.201	-30.052	0.140	-0.079
-468.186	0.399	-0.164	0.116
-467.172	-145.830	-0.218	0.019
-466.157	188.187	-0.161	-0.240
-465.143	-136.476	-0.174	0.020
-464.128	31.330	-0.228	0.195
-463.113	164.132	0.227	-0.318
-462.099	-162.726	-0.033	-0.002
-461.084	-18.906	-0.058	0.036
-460.070	-170.007	0.196	-0.007
-459.055	5.171	0.276	-0.202
-458.040	-77.228	-0.260	0.090
-457.026	726.517	0.038	0.101
-456.011	-127.087	0.303	-0.044
-454.997	500.250	0.035	-0.081
-453.982	-95.313	0.151	0.040
-452.968	-20.361	0.132	-0.081
-451.953	800.000	0.064	-0.187
-450.938	423.989	-0.055	0.117
-449.924	47.791	0.116	-0.108
-448.909	209.419	0.146	-0.228
-447.895	231.401	0.178	0.290
-446.880	-131.336	-0.247	0.032
-445.865	-200.000	0.013	-0.099
-444.851	-5.431	0.512	0.349
-443.836	-86.998	0.200	0.060
-442.822	-54.110	0.129	-0.058
-441.807	44.443	-0.276	0.252
-440.792	62.263	-0.166	-0.165
-439.778	-200.000	0.003	-0.057
-438.763	-5.735	0.130	-0.088
-437.749	359.240	0.107	0.212
-436.734	-97.389	-0.087	-0.023
-435.719	-200.000	0.005	0.114
-434.705	43.592	0.099	-0.090
-433.690	-105.050	0.061	-0.014
-432.676	59.021	0.102	-0.100
-431.661	-200.000	-0.007	-0.383
-430.646	29.751	0.447	-0.378
-429.632	101.295	0.087	-0.100
-428.617	-128.761	-0.041	0.006
-427.603	-53.875	-0.259	0.117
-426.588	28.719	-0.166	0.140
-425.573	784.705	-0.044	0.119
-424.559	24.562	-0.036	-0.030
-423.544	800.000	-0.039	0.153
-422.530	-44.085	-0.044	-0.022
-421.515	228.350	0.285	-0.461
-420.500	-47.273	-0.173	0.083
-419.486	-200.000	-0.026	-0.207
-418.471	757.992	0.042	-0.114
-417.457	-200.000	0.002	-0.222
-416.442	-36.395	0.131	0.070
-415.428	-200.000	0.010	0.311
-414.413	478.596	-0.152	0.341
-413.398	-6.543	-0.042	0.028
-412.384	-30.297	0.077	-0.043
-411.369	296.258	0.083	-0.152
-410.355	-200.000	0.116	-0.542
-409.340	226.058	-0.135	-0.218
-408.325	-97.238	-0.060	0.015
-407.311	-112.105	0.066	0.013
-406.296	198.860	0.118	-0.179
-405.282	800.000	0.072	-0.212
-404.267	49.440	0.091	-0.085
-403.252	-15.433	0.352	-0.223
-402.238	61.753	-0.152	-0.151
-401.223	-200.000	-0.012	0.065
-400.209	-200.000	0.000	-0.265
-399.194	-63.466	-0.093	-0.038
-398.179	-99.426	-0.125	-0.031
-397.165	-200.000	0.045	-0.239
-396.150	49.258	0.256	0.238
-395.136	-83.137	-0.298	0.095
-394.121	800.000	0.053	0.194
-393.106	729.320	0.155	0.411
-392.092	800.000	0.123	-0.379
-391.077	41.589	-0.074	0.067
-390.063	440.717	-0.218	0.473
-389.048	-52.306	-0.272	0.125
-388.033	98.336	0.319	-0.364
-387.019	-161.098	0.148	-0.008
-386.004	-184.731	-0.402	-0.006
-384.990	-29.580	-0.324	0.184
-383.975	-200.000	-0.040	0.399
-382.960	-200.000	0.047	-0.223
-381.946	-200.000	-0.007	0.198
-380.931	800.000	-0.068	0.285
-379.917	-200.000	-0.006	-0.093
-378.902	122.386	-0.303	-0.375
-377.888	800.000	0.045	0.134
-376.873	103.713	-0.136	-0.158
-375.858	-125.230	0.289	-0.044
-374.844	93.692	0.133	-0.149
-373.829	-200.000	-0.042	-0.233
-372.815	-50.058	-0.290	-0.136
-371.800	-200.000	0.048	-0.247
-370.785	25.073	0.075	0.062
-369.771	-24.261	0.092	0.054
-368.756	800.000	0.148	-0.412
-367.742	-149.196	0.524	0.042
-366.727	-200.000	-0.068	0.322
-365.712	-117.457	0.321	0.058
-364.698	7.095	-0.192	0.142
-363.683	50.356	0.206	-0.193
-362.669	13.903	-0.043	-0.033
-361.654	-27.682	0.131	-0.075
-360.639	1.651	0.086	0.062
-359.625	-200.000	-0.028	0.247
-358.610	800.000	-0.091	-0.254
-357.596	-200.000	-0.062	0.421
-356.581	27.676	0.141	-0.118
-355.566	-175.906	-0.242	0.006
-354.552	376.304	-0.106	0.213
-353.537	-105.119	0.286	0.065
-352.523	136.815	0.196	0.253
-351.508	5.442	0.250	-0.183
-350.493	-200.000	0.004	-0.083
-349.479	-115.765	-0.312	-0.058
-348.464	800.000	-0.084	0.355
-347.450	19.414	-0.095	0.075
-346.435	-16.209	0.292	0.183
-345.420	151.798	-0.244	-0.329
-344.406	151.639	-0.104	0.140
-343.391	77.707	0.102	-0.107
-342.377	-114.840	0.095	0.018
-341.362	102.920	-0.335	-0.388
-340.348	-91.383	0.400	0.113
-339.333	-190.880	0.072	0.001
-338.318	48.881	-0.042	0.039
-337.304	248.591	-0.205	0.343
-336.289	-73.885	0.189	-0.068
-335.275	-200.000	-0.036	-0.192
-334.260	-9.385	-0.117	-0.077
-333.245	-79.645	-0.044	0.015
-332.231	-200.000	0.030	-0.174
-331.216	1.016	-0.253	0.179
-330.202	-73.084	-0.030	-0.011
-329.187	-134.287	0.061	-0.007
-328.172	-33.452	0.196	-0.107
-327.158	20.366	0.057	0.045
-326.143	393.816	-0.032	-0.066
-325.129	-106.840	-0.135	0.030
-324.114	-48.282	0.226	0.108
-323.099	-100.065	-0.059	0.015
-322.085	800.000	0.025	-0.094
-321.070	25.695	-0.143	-0.117
-320.056	410.999	-0.056	-0.118
-319.041	22.659	0.032	0.026
-318.026	-124.893	0.128	-0.020
-317.012	-200.000	0.013	-0.078
-315.997	50.309	-0.137	0.128
-314.983	463.666	0.189	0.417
-313.968	-16.738	0.169	0.106
-312.953	800.000	0.065	0.275
-311.939	40.977	0.164	0.146
-310.924	-81.720	-0.085	0.027
-309.910	-127.308	0.312	-0.045
-308.895	40.943	-0.073	0.065
-307.880	-200.000	0.020	-0.398
-306.866	-107.815	-0.132	-0.028
-305.851	-200.000	0.063	-0.284
-304.837	59.922	0.244	0.238
-303.822	595.946	0.058	-0.142
-302.807	-35.105	-0.095	-0.051
-301.793	-200.000	0.014	0.134
-300.778	42.043	0.037	-0.034
-299.764	117.224	0.152	0.185
-298.749	552.551	0.055	0.130
-297.735	336.098	0.111	0.213
-296.720	-200.000	0.008	-0.418
-295.705	-74.990	-0.142	-0.050
-294.691	-200.000	0.010	-0.251
-293.676	33.777	-0.111	0.095
-292.662	84.507	0.155	-0.167
-291.647	94.178	0.063	0.070
-290.632	-200.000	-0.000	-0.165
-289.618	38.235	-0.122	-0.108
-288.603	-131.310	-0.092	-0.012
-287.589	99.106	0.152	-0.174
-286.574	34.178	0.202	0.174
-285.559	-129.782	-0.085	-0.012
-284.545	-200.000	-0.016	-0.080
-283.530	33.947	-0.149	-0.128
-282.516	-96.191	-0.437	0.115
-281.501	16.001	0.106	-0.083
-280.486	-20.271	-0.259	0.157
-279.472	800.000	-0.057	0.167
-278.457	-42.211	0.086	0.043
-277.443	201.246	-0.074	0.112
-276.428	800.000	-0.003	-0.009
-275.413	-200.000	-0.005	0.060
-274.399	-200.000	-0.037	0.162
-273.384	522.281	0.019	0.045
-272.370	800.000	-0.045	-0.155
-271.355	800.000	-0.044	-0.129
-270.340	-200.000	0.029	0.335
-269.326	-11.918	-0.232	0.150
-268.311	-200.000	-0.008	0.199
-267.297	800.000	-0.033	0.111
-266.282	301.497	-0.226	0.412
-265.267	-200.000	-0.013	0.134
-264.253	-32.717	0.113	0.062
-263.238	-34.844	-0.384	0.207
-262.224	-134.120	-0.228	0.028
-261.209	133.806	0.236	0.301
-260.195	191.426	0.134	-0.198
-259.180	83.270	0.203	0.218
-258.165	-136.631	-0.229	0.026
-257.151	-200.000	0.040	0.210
-256.136	800.000	-0.070	0.246
-255.122	800.000	0.105	0.427
-254.107	-101.117	0.100	-0.024
-253.092	267.977	-0.218	0.376
-252.078	-99.732	0.264	-0.065
-251.063	-92.354	-0.186	0.052
-250.049	2.833	0.056	0.040
-249.034	800.000	0.087	0.244
-248.019	-179.892	-0.049	0.001
-247.005	-98.502	-0.361	-0.091
-245.990	-26.818	0.117	-0.067
-244.976	-82.682	0.077	-0.025
-243.961	-65.730	0.017	0.007
-242.946	43.672	0.178	0.161
-241.932	-92.069	0.391	-0.109
-240.917	-65.860	-0.042	-0.017
-239.903	-146.399	0.229	0.020
-238.888	-200.000	0.017	-0.359
-237.873	-200.000	0.024	0.184
-236.859	76.427	-0.175	0.182
-235.844	-147.713	-0.162	-0.013
-234.830	420.566	0.143	-0.301
-233.815	199.351	-0.257	-0.388
-232.800	-43.368	-0.336	-0.167
-231.786	-134.029	-0.124	0.015
-230.771	91.888	-0.010	-0.011
-229.757	-53.620	-0.097	0.043
-228.742	50.006	-0.111	-0.103
-227.727	-200.000	0.011	0.049
-226.713	-168.127	-0.173	-0.007
-225.698	178.901	-0.250	-0.360
-224.684	336.975	0.090	0.172
-223.669	152.319	0.119	0.159
-222.655	404.226	0.061	0.126
-221.640	20.732	0.189	-0.151
-220.625	-103.676	0.243	-0.056
-219.611	800.000	0.083	0.315
-218.596	166.233	-0.153	-0.214
-217.582	-137.882	0.235	0.026
-216.567	-21.516	-0.239	0.144
-215.552	-134.654	0.099	-0.012
-214.538	-200.000	0.012	0.349
-213.523	27.233	0.223	0.185
-212.509	157.255	0.113	-0.153
-211.494	-60.115	-0.248	0.104
-210.479	-74.182	0.177	-0.063
-209.465	551.277	0.041	0.096
-208.450	-200.000	0.004	-0.162
-207.436	-4.641	-0.290	0.197
-206.421	-35.019	0.091	-0.049
-205.406	-104.285	-0.278	-0.063
-204.392	144.270	0.160	0.210
-203.377	39.321	0.217	0.191
-202.363	133.017	0.061	0.077
-201.348	5.947	-0.229	-0.167
-200.333	-36.984	0.084	0.045
-199.319	448.224	0.081	-0.175
-198.304	121.492	-0.145	-0.178
-197.290	73.126	-0.298	-0.307
-196.275	268.602	0.065	-0.112
-195.260	246.512	0.089	-0.148
-194.246	-15.265	0.286	-0.180
-193.231	-118.490	0.262	-0.046
-192.217	-79.109	-0.401	-0.134
-191.202	-108.921	0.181	-0.038
-190.187	-14.160	0.227	-0.144
-189.173	800.000	0.161	0.502
-188.158	-45.451	0.123	0.060
-187.144	184.232	-0.033	0.048
-186.129	-50.458	0.085	-0.039
-185.114	-200.000	-0.002	0.267
-184.100	86.949	-0.134	0.146
-183.085	800.000	-0.076	0.250
-182.071	-1.560	0.231	0.160
-181.056	-200.000	0.046	0.296
-180.042	-200.000	-0.005	0.182
-179.027	270.469	0.102	0.177
-178.012	-66.834	-0.156	-0.061
-176.998	-45.950	0.452	-0.219
-175.983	-106.745	-0.158	0.035
-174.969	161.546	-0.187	-0.257
-173.954	-85.230	-0.110	-0.034
-172.939	616.078	-0.072	0.178
-171.925	9.932	0.061	-0.046
-170.910	-35.255	0.041	0.022
-169.896	355.732	0.076	0.149
-168.881	-152.099	-0.243	0.017
-167.866	25.692	-0.163	0.134
-166.852	-46.154	-0.163	0.079
-165.837	247.580	-0.102	0.170
-164.823	-50.321	-0.407	0.189
-163.808	-200.000	-0.002	0.104
-162.793	-194.232	0.296	-0.002
-161.779	-200.000	0.051	-0.265
-160.764	776.077	-0.021	0.057
-159.750	32.716	0.160	0.136
-158.735	84.953	-0.084	0.090
-157.720	75.009	0.040	-0.041
-156.706	40.934	0.060	-0.053
-155.691	236.878	0.084	-0.136
-154.677	-90.671	0.215	0.061
-153.662	102.761	-0.052	-0.060
-152.647	-1.675	0.073	-0.050
-151.633	168.645	0.163	-0.228
-150.618	-29.430	-0.357	-0.201
-149.604	-150.536	0.066	0.005
-148.589	-129.797	-0.199	0.027
-147.574	-58.091	0.123	0.053
-146.560	-200.000	-0.002	0.107
-145.545	-93.296	0.096	0.026
-144.531	116.148	0.184	-0.221
-143.516	104.964	-0.039	0.045
-142.502	154.531	0.142	0.191
-141.487	68.557	0.073	-0.073
-140.472	-200.000	-0.026	-0.147
-139.458	-56.475	-0.057	-0.025
-138.443	758.475	0.191	0.507
-137.429	15.168	-0.117	-0.090
-136.414	-28.591	0.434	0.245
-135.399	-16.705	-0.123	0.076
-134.385	-63.739	0.365	-0.147
-133.370	167.733	-0.069	0.096
-132.356	83.512	0.169	-0.180
-131.341	-200.000	0.076	-0.000
-130.326	-138.045	-0.136	0.015
-129.312	800.000	-0.062	0.250
-128.297	-12.553	-0.105	-0.067
-127.283	255.764	0.075	0.126
-126.268	124.951	-0.051	0.063
-125.253	-0.624	0.089	-0.062
-124.239	-200.000	0.011	0.163
-123.224	-200.000	-0.036	0.333
-122.210	-200.000	-0.036	-0.322
-121.195	448.669	0.102	0.220
-120.180	-200.000	-0.004	-0.247
