DTS Sentinel unit serial number:	SN413079Multiplexer serial number:	ORYXHardware model number:	OX4-SRSoftware version number:	ORYX F/W v4.00 Oryx Data Collector v3.7.2.0data status	okinstallation	princeton_trtdifferential loss correction	single-endedforward channel	channel 1reverse channel	N/Adate	2019/09/18time	20:18:35forward acquisition time	60.00reverse acquisition time	0.00gamma	496.2192k internal	0.2332k external	0.2332temperature offset calibration	1.0032default loss term (dB/km)	0.3790temperature slope calibration	1.0000multiplexer offset coefficient	1.0000multiplexer slope coefficient	1.0000fibre end	0.00T internal ref (°C)	29.05T ext. ref 1 (°C)	1.00T ext. ref 2 (°C)	19.81length (m)	temperature (°C)	Stokes	anti-Stokes-747.200	-47.514	0.483	0.236
-746.185	-200.000	0.018	-0.160
-745.171	59.049	-0.202	-0.200
-744.156	-89.364	0.093	0.028
-743.142	71.900	0.167	0.174
-742.127	-200.000	0.007	0.152
-741.112	-200.000	-0.017	-0.159
-740.098	-18.852	0.207	0.130
-739.083	280.229	-0.124	0.223
-738.069	-93.201	-0.210	0.059
-737.054	-139.837	0.196	0.021
-736.039	-200.000	-0.022	-0.105
-735.025	253.714	0.162	0.279
-734.010	78.060	-0.192	-0.205
-732.996	457.229	-0.079	-0.177
-731.981	-146.054	0.119	0.011
-730.966	164.853	-0.132	-0.188
-729.952	140.556	-0.282	-0.374
-728.937	95.300	0.134	-0.154
-727.923	-2.491	0.234	0.165
-726.908	-200.000	-0.071	-0.379
-725.894	800.000	-0.075	-0.250
-724.879	439.268	-0.177	-0.388
-723.864	215.692	0.195	0.311
-722.850	-97.327	0.211	-0.055
-721.835	-200.000	-0.006	-0.090
-720.821	16.654	0.117	-0.093
-719.806	-60.383	-0.294	-0.126
-718.791	-52.176	-0.091	-0.043
-717.777	498.848	-0.135	-0.312
-716.762	-200.000	-0.018	0.150
-715.748	-200.000	-0.038	-0.212
-714.733	54.235	0.041	0.040
-713.718	-145.743	0.211	-0.019
-712.704	78.967	-0.175	-0.188
-711.689	89.105	0.181	-0.202
-710.675	-112.056	0.335	0.068
-709.660	800.000	-0.086	-0.314
-708.645	-200.000	-0.008	-0.101
-707.631	546.640	0.068	0.164
-706.616	-138.669	-0.236	-0.026
-705.602	-118.905	-0.414	-0.073
-704.587	224.358	-0.130	0.211
-703.572	-100.832	-0.359	0.089
-702.558	-21.054	0.127	0.078
-701.543	-30.674	-0.175	-0.100
-700.529	55.103	0.020	0.020
-699.514	-140.459	0.350	-0.037
-698.499	-20.302	0.103	0.064
-697.485	-86.473	0.248	-0.077
-696.470	-168.470	0.396	-0.015
-695.456	-102.697	-0.181	0.043
-694.441	245.284	0.111	-0.187
-693.426	-43.247	0.342	-0.174
-692.412	287.886	-0.193	-0.350
-691.397	-95.621	-0.200	0.054
-690.383	-200.000	0.029	-0.263
-689.368	-68.705	-0.261	0.101
-688.354	-95.034	0.066	0.018
-687.339	-200.000	0.074	-0.447
-686.324	137.629	0.067	0.088
-685.310	2.307	-0.092	0.067
-684.295	91.073	0.184	0.207
-683.281	-88.399	-0.248	-0.074
-682.266	22.950	-0.373	-0.307
-681.251	94.333	0.053	0.060
-680.237	-200.000	0.055	0.264
-679.222	193.148	0.186	-0.282
-678.208	-65.505	-0.136	0.055
-677.193	-132.388	0.149	0.019
-676.178	-154.705	0.233	-0.016
-675.164	-200.000	0.108	0.588
-674.149	800.000	-0.046	-0.165
-673.135	-121.739	-0.210	0.035
-672.120	-114.092	0.085	-0.017
-671.105	87.360	0.185	0.205
-670.091	-50.619	-0.389	0.184
-669.076	-52.334	-0.135	0.063
-668.062	331.456	0.094	0.182
-667.047	-84.398	-0.193	-0.061
-666.032	-113.699	-0.184	0.036
-665.018	-143.888	0.450	-0.043
-664.003	526.899	0.095	-0.224
-662.989	-200.000	0.010	-0.387
-661.974	-87.944	0.194	0.058
-660.959	-94.261	-0.265	-0.073
-659.945	219.044	0.150	0.240
-658.930	84.587	-0.039	-0.043
-657.916	-200.000	0.002	0.023
-656.901	-200.000	-0.033	-0.303
-655.886	-64.299	-0.193	-0.079
-654.872	-40.010	0.382	0.200
-653.857	-32.289	-0.404	-0.226
-652.843	161.153	-0.199	-0.279
-651.828	-51.675	0.193	-0.090
-650.814	-172.057	0.087	-0.003
-649.799	800.000	-0.085	-0.329
-648.784	111.139	-0.044	-0.053
-647.770	162.435	-0.187	0.263
-646.755	-73.711	0.104	0.038
-645.741	800.000	0.014	0.059
-644.726	-128.396	-0.058	0.008
-643.711	46.811	-0.247	0.230
-642.697	-200.000	-0.016	0.093
-641.682	257.653	0.043	-0.074
-640.668	52.541	-0.238	-0.228
-639.653	775.444	-0.140	-0.382
-638.638	-37.763	0.077	0.041
-637.624	-70.906	-0.487	0.184
-636.609	-110.029	-0.153	0.032
-635.595	71.308	0.208	0.216
-634.580	52.690	-0.317	-0.303
-633.565	46.182	0.311	0.289
-632.551	54.374	-0.048	-0.046
-631.536	800.000	0.161	0.458
-630.522	-16.686	0.239	0.152
-629.507	800.000	0.038	0.155
-628.492	-127.715	0.148	0.021
-627.478	-140.825	0.042	-0.004
-626.463	-159.484	-0.250	0.014
-625.449	61.966	-0.352	0.352
-624.434	37.002	0.214	0.190
-623.419	176.744	0.247	-0.360
-622.405	-80.840	-0.106	-0.035
-621.390	-19.324	0.302	0.188
-620.376	168.047	0.117	-0.166
-619.361	364.436	0.094	-0.189
-618.346	-22.117	-0.083	-0.050
-617.332	-78.006	0.143	-0.049
-616.317	120.708	-0.114	-0.142
-615.303	48.227	0.143	0.134
-614.288	216.437	-0.138	0.220
-613.273	50.660	-0.250	0.237
-612.259	9.417	0.314	-0.238
-611.244	117.142	0.077	0.095
-610.230	640.992	-0.104	-0.264
-609.215	-12.884	-0.322	-0.210
-608.201	-53.365	0.374	0.172
-607.186	-97.456	-0.398	-0.103
-606.171	-1.385	-0.012	-0.008
-605.157	-89.467	-0.250	0.073
-604.142	-38.760	-0.143	0.075
-603.128	-200.000	-0.010	0.121
-602.113	-200.000	0.024	-0.378
-601.098	-75.101	-0.137	-0.049
-600.084	800.000	0.087	-0.365
-599.069	418.259	-0.108	-0.231
-598.055	-15.999	-0.083	-0.053
-597.040	-92.865	-0.243	0.068
-596.025	272.892	-0.136	-0.240
-595.011	222.130	0.246	-0.396
-593.996	124.412	0.016	-0.021
-592.982	-80.345	0.211	-0.071
-591.967	-200.000	0.056	-0.276
-590.952	397.244	0.097	-0.203
-589.938	138.833	-0.186	-0.244
-588.923	290.234	0.056	-0.101
-587.909	800.000	0.087	-0.317
-586.894	800.000	-0.119	-0.383
-585.879	-10.286	0.315	0.209
-584.865	-200.000	-0.002	0.085
-583.850	239.995	0.215	0.358
-582.836	-157.017	-0.417	-0.025
-581.821	-79.948	-0.323	-0.108
-580.806	-112.813	-0.149	-0.030
-579.792	-200.000	0.043	-0.259
-578.777	253.249	-0.097	-0.166
-577.763	-110.762	0.081	0.017
-576.748	79.720	-0.159	0.171
-575.733	35.854	-0.084	-0.074
-574.719	-60.520	-0.173	0.073
-573.704	800.000	0.080	-0.346
-572.690	-72.962	0.052	-0.019
-571.675	128.631	0.071	0.091
-570.661	37.011	-0.140	-0.123
-569.646	210.270	-0.131	0.205
-568.631	149.491	0.061	-0.082
-567.617	-84.491	-0.212	0.067
-566.602	-70.187	0.115	-0.044
-565.588	132.141	0.071	0.091
-564.573	-200.000	0.001	0.111
-563.558	279.333	-0.064	0.115
-562.544	-200.000	0.004	-0.274
-561.529	-16.033	-0.250	0.159
-560.515	-147.241	-0.273	-0.023
-559.500	17.450	0.130	0.103
-558.485	246.592	-0.138	0.232
-557.471	-129.700	0.159	-0.022
-556.456	800.000	0.026	0.075
-555.442	11.061	0.157	0.120
-554.427	398.684	-0.123	0.258
-553.412	-109.651	0.282	0.059
-552.398	-200.000	-0.001	-0.185
-551.383	-162.555	-0.224	-0.011
-550.369	443.857	0.068	0.148
-549.354	-159.646	-0.180	-0.010
-548.339	177.544	-0.056	-0.081
-547.325	-200.000	0.006	-0.107
-546.310	-200.000	-0.024	0.363
-545.296	-50.255	0.135	0.064
-544.281	-17.624	0.224	0.141
-543.266	290.298	0.166	0.301
-542.252	-200.000	0.004	0.116
-541.237	83.004	-0.178	-0.193
-540.223	129.643	-0.150	-0.192
-539.208	800.000	0.040	0.175
-538.193	800.000	0.055	-0.174
-537.179	699.022	-0.113	-0.296
-536.164	-200.000	-0.192	-0.001
-535.150	51.545	0.241	0.228
-534.135	-135.981	-0.451	0.053
-533.121	171.121	-0.090	-0.129
-532.106	-130.849	0.126	0.017
-531.091	236.633	-0.047	0.077
-530.077	-200.000	-0.009	-0.184
-529.062	-1.391	-0.222	-0.156
-528.048	800.000	-0.042	0.165
-527.033	-200.000	-0.030	-0.295
-526.018	-140.413	0.228	-0.024
-525.004	-154.964	-0.306	-0.020
-523.989	35.169	0.150	0.131
-522.975	-200.000	0.015	0.147
-521.960	-32.812	-0.111	-0.062
-520.945	9.596	0.067	0.050
-519.931	371.273	-0.019	0.039
-518.916	-35.027	0.358	-0.194
-517.902	17.125	0.084	0.067
-516.887	136.387	-0.102	-0.133
-515.872	800.000	0.095	-0.327
-514.858	-102.735	-0.178	0.042
-513.843	493.071	-0.041	0.094
-512.829	-200.000	-0.027	0.118
-511.814	-126.695	0.150	-0.022
-510.799	13.794	-0.137	-0.107
-509.785	-64.032	0.044	-0.018
-508.770	800.000	-0.019	-0.069
-507.756	-37.060	-0.136	0.073
-506.741	800.000	0.057	-0.202
-505.726	154.839	0.087	-0.120
-504.712	252.317	0.193	0.328
-503.697	-13.227	-0.192	-0.124
-502.683	-101.377	0.128	-0.031
-501.668	77.762	-0.101	-0.108
-500.653	18.957	-0.198	-0.158
-499.639	-116.107	-0.108	-0.020
-498.624	-200.000	0.033	0.183
-497.610	-200.000	-0.007	0.118
-496.595	-156.832	-0.257	0.016
-495.581	-200.000	-0.012	-0.421
-494.566	256.924	-0.089	0.152
-493.551	46.859	-0.138	0.127
-492.537	-200.000	-0.007	0.088
-491.522	-5.847	-0.389	-0.265
-490.508	-200.000	-0.061	0.285
-489.493	91.411	-0.114	-0.127
-488.478	-175.733	0.339	-0.009
-487.464	263.481	-0.110	0.191
-486.449	638.346	0.036	-0.090
-485.435	-153.513	0.113	-0.008
-484.420	-37.162	0.082	0.044
-483.405	3.599	0.275	-0.200
-482.391	-52.132	0.154	0.071
-481.376	-200.000	0.064	0.295
-480.362	-101.380	0.380	-0.092
-479.347	-85.103	-0.119	-0.037
-478.332	83.395	0.315	0.341
-477.318	-200.000	-0.037	0.201
-476.303	-73.593	0.256	-0.093
-475.289	271.624	-0.127	-0.223
-474.274	-65.114	-0.071	0.029
-473.259	-79.751	-0.146	0.049
-472.245	-122.964	-0.153	-0.025
-471.230	40.978	0.129	-0.116
-470.216	75.820	0.147	0.154
-469.201	444.280	-0.078	0.171
-468.186	-200.000	-0.042	0.239
-467.172	-99.600	-0.335	0.084
-466.157	319.915	0.107	-0.202
-465.143	-200.000	-0.028	0.240
-464.128	89.716	-0.036	0.040
-463.113	-16.352	0.078	0.049
-462.099	229.372	0.099	0.161
-461.084	93.733	-0.280	-0.316
-460.070	-109.970	-0.200	0.042
-459.055	129.256	-0.151	-0.192
-458.040	-35.294	-0.144	-0.078
-457.026	-30.187	-0.109	0.062
-456.011	-86.051	0.463	0.142
-454.997	276.631	-0.107	-0.190
-453.982	-200.000	0.027	-0.280
-452.968	-73.164	0.260	-0.095
-451.953	9.951	-0.145	-0.109
-450.938	58.202	0.254	-0.248
-449.924	62.217	0.032	0.032
-448.909	12.663	-0.031	0.023
-447.895	-131.828	-0.120	0.016
-446.880	-200.000	0.009	0.058
-445.865	-47.147	-0.219	0.106
-444.851	800.000	0.108	0.403
-443.836	-200.000	0.065	0.318
-442.822	121.817	0.072	0.089
-441.807	279.246	-0.100	0.177
-440.792	65.358	0.176	-0.177
-439.778	116.860	0.334	0.408
-438.763	-30.849	-0.288	-0.162
-437.749	36.236	0.086	0.075
-436.734	-74.523	0.408	-0.146
-435.719	-44.795	-0.080	0.040
-434.705	800.000	0.046	0.194
-433.690	29.419	-0.099	-0.084
-432.676	51.739	-0.051	0.048
-431.661	-46.523	0.157	-0.077
-430.646	-200.000	-0.091	0.409
-429.632	-131.484	-0.101	-0.013
-428.617	-200.000	0.023	-0.207
-427.603	122.825	0.088	-0.109
-426.588	-120.486	0.360	0.061
-425.573	-132.882	0.094	-0.012
-424.559	341.363	0.124	0.240
-423.544	797.896	0.143	0.391
-422.530	-123.747	0.157	-0.025
-421.515	800.000	0.059	0.173
-420.500	-200.000	-0.029	0.434
-419.486	64.456	0.423	-0.423
-418.471	228.998	0.240	-0.390
-417.457	-67.266	-0.162	0.063
-416.442	323.488	0.129	0.244
-415.428	30.720	-0.162	0.138
-414.413	-50.695	-0.187	-0.087
-413.398	-200.000	0.021	0.191
-412.384	-134.549	0.326	-0.040
-411.369	-28.503	-0.170	0.097
-410.355	-115.132	0.060	0.011
-409.340	10.146	-0.204	0.154
-408.325	-76.077	0.146	-0.051
-407.311	116.776	-0.181	-0.221
-406.296	800.000	0.111	-0.353
-405.282	-0.742	0.273	0.192
-404.267	711.713	-0.124	-0.325
-403.252	-114.573	-0.101	0.019
-402.238	-78.332	0.201	-0.068
-401.223	-78.095	0.219	-0.075
-400.209	-200.000	0.041	-0.188
-399.194	43.677	0.087	-0.079
-398.179	54.350	-0.198	-0.189
-397.165	3.480	-0.055	0.040
-396.150	-158.970	0.188	-0.011
-395.136	238.073	-0.141	0.232
-394.121	-12.175	0.156	0.102
-393.106	-200.000	0.000	0.075
-392.092	800.000	-0.046	0.166
-391.077	75.177	0.279	0.291
-390.063	8.448	-0.044	-0.033
-389.048	-150.217	-0.184	0.014
-388.033	-200.000	0.002	-0.120
-387.019	69.335	-0.026	-0.027
-386.004	502.113	-0.061	0.140
-384.990	309.846	-0.107	-0.198
-383.975	-4.029	0.311	0.214
-382.960	431.131	-0.035	0.075
-381.946	16.962	-0.177	0.139
-380.931	-3.512	-0.241	-0.166
-379.917	549.299	-0.069	-0.165
-378.902	-23.463	0.275	0.164
-377.888	170.182	-0.252	-0.357
-376.873	-88.529	-0.261	-0.077
-375.858	471.747	-0.031	-0.070
-374.844	-200.000	-0.023	-0.166
-373.829	302.618	-0.114	-0.209
-372.815	314.535	-0.142	-0.265
-371.800	-35.080	-0.096	0.052
-370.785	800.000	0.155	0.560
-369.771	475.229	-0.067	-0.150
-368.756	-39.228	0.142	-0.074
-367.742	272.405	0.138	-0.241
-366.727	-151.924	-0.244	-0.018
-365.712	-147.023	0.060	-0.005
-364.698	14.519	0.105	-0.082
-363.683	-92.916	-0.061	-0.017
-362.669	-15.710	0.118	-0.075
-361.654	-48.158	-0.125	0.060
-360.639	-11.901	-0.106	0.069
-359.625	289.745	-0.045	0.081
-358.610	-67.154	0.095	0.037
-357.596	-15.154	0.315	0.200
-356.581	448.309	0.094	0.206
-355.566	800.000	-0.085	0.235
-354.552	-200.000	-0.020	-0.296
-353.537	800.000	-0.117	0.330
-352.523	90.480	0.093	-0.104
-351.508	-26.545	0.191	-0.111
-350.493	800.000	0.078	-0.237
-349.479	-200.000	0.457	-0.001
-348.464	-139.704	0.127	0.013
-347.450	-200.000	0.065	0.385
-346.435	-72.256	-0.257	0.094
-345.420	800.000	0.029	-0.094
-344.406	-133.419	-0.077	0.010
-343.391	168.753	0.190	-0.269
-342.377	-183.851	-0.070	0.001
-341.362	-34.965	0.084	0.045
-340.348	-110.764	0.374	0.076
-339.333	112.138	0.169	-0.202
-338.318	-81.120	0.228	-0.075
-337.304	47.179	0.247	0.227
-336.289	-200.000	0.038	-0.235
-335.275	-200.000	0.027	-0.558
-334.260	-200.000	-0.024	0.274
-333.245	800.000	-0.055	0.177
-332.231	-60.841	0.270	-0.113
-331.216	-71.175	0.273	-0.101
-330.202	141.888	0.139	0.182
-329.187	-70.721	-0.193	0.072
-328.172	76.864	-0.169	-0.178
-327.158	800.000	0.049	-0.192
-326.143	-80.923	0.240	-0.079
-325.129	372.169	-0.011	-0.023
-324.114	703.709	0.095	-0.248
-323.099	-200.000	-0.034	-0.408
-322.085	-14.438	0.230	0.147
-321.070	73.155	-0.083	0.086
-320.056	377.651	-0.041	-0.083
-319.041	-72.328	-0.234	-0.086
-318.026	-134.161	-0.201	0.025
-317.012	-28.377	0.082	-0.047
-315.997	407.941	0.076	-0.159
-314.983	-200.000	0.002	-0.360
-313.968	-77.590	-0.295	-0.101
-312.953	118.349	-0.247	0.302
-311.939	-11.602	-0.277	0.180
-310.924	259.779	0.162	0.277
-309.910	54.808	0.273	0.260
-308.895	-25.436	0.270	-0.158
-307.880	-193.107	-0.204	-0.002
-306.866	-200.000	-0.006	0.190
-305.851	-200.000	0.021	0.227
-304.837	190.049	-0.091	-0.134
-303.822	-183.527	-0.140	-0.002
-302.807	173.008	-0.323	0.460
-301.793	308.627	0.033	-0.061
-300.778	800.000	0.069	-0.225
-299.764	-200.000	0.313	0.001
-298.749	51.923	-0.138	0.130
-297.735	800.000	-0.067	0.287
-296.720	65.348	0.193	0.193
-295.705	-200.000	0.016	-0.183
-294.691	-74.214	0.146	0.052
-293.676	-68.217	-0.080	0.031
-292.662	-8.932	-0.203	0.135
-291.647	349.503	-0.086	0.168
-290.632	-136.133	-0.152	-0.018
-289.618	260.205	-0.147	-0.251
-288.603	-71.065	-0.235	0.087
-287.589	-47.188	-0.345	-0.166
-286.574	-85.586	-0.213	-0.065
-285.559	-51.669	-0.309	0.142
-284.545	-56.331	-0.428	0.188
-283.530	-143.268	0.019	0.002
-282.516	-200.000	0.107	0.618
-281.501	-200.000	-0.010	0.334
-280.486	-88.153	0.221	0.065
-279.472	99.751	0.132	-0.151
-278.457	-200.000	-0.054	-0.328
-277.443	37.327	0.284	-0.249
-276.428	-134.697	0.164	-0.020
-275.413	35.671	-0.318	0.276
-274.399	-146.458	0.396	-0.034
-273.384	-69.642	0.486	0.183
-272.370	-73.996	-0.266	0.095
-271.355	800.000	-0.004	0.015
-270.340	-138.365	-0.330	-0.036
-269.326	800.000	-0.081	0.293
-268.311	477.577	0.025	0.056
-267.297	-86.150	-0.318	0.097
-266.282	-200.000	-0.049	0.250
-265.267	-91.899	-0.152	-0.043
-264.253	43.331	-0.129	-0.116
-263.238	40.132	-0.043	-0.038
-262.224	338.663	0.097	-0.187
-261.209	800.000	-0.050	-0.179
-260.195	9.744	-0.164	-0.123
-259.180	34.951	0.142	0.122
-258.165	366.484	0.033	-0.065
-257.151	170.854	-0.320	-0.452
-256.136	-77.157	0.355	-0.122
-255.122	-200.000	-0.019	0.090
-254.107	-38.653	-0.231	-0.120
-253.092	-200.000	-0.008	0.101
-252.078	-34.602	0.141	-0.076
-251.063	-40.906	0.225	-0.115
-250.049	-200.000	0.073	-0.374
-249.034	800.000	0.043	-0.174
-248.019	-81.091	0.232	-0.076
-247.005	-40.619	0.040	0.020
-245.990	187.217	0.151	0.223
-244.976	144.084	0.157	-0.206
-243.961	552.929	0.148	0.350
-242.946	-102.236	-0.320	0.076
-241.932	46.168	0.335	-0.306
-240.917	78.400	-0.165	0.174
-239.903	-62.757	-0.118	-0.048
-238.888	-200.000	-0.045	-0.209
-237.873	-200.000	-0.055	-0.373
-236.859	29.232	0.181	0.152
-235.844	418.593	-0.076	0.161
-234.830	199.497	0.122	0.184
-233.815	73.781	0.131	-0.135
-232.800	-95.175	-0.278	-0.074
-231.786	96.363	-0.156	0.176
-230.771	-14.989	0.112	0.071
-229.757	-176.292	0.123	-0.003
-228.742	460.997	0.094	-0.207
-227.727	-200.000	0.049	0.318
-226.713	37.554	0.200	0.175
-225.698	-71.745	0.247	0.091
-224.684	-200.000	0.016	-0.278
-223.669	800.000	0.085	-0.288
-222.655	-43.622	-0.549	-0.273
-221.640	160.678	0.127	-0.175
-220.625	385.424	-0.196	-0.398
-219.611	-64.124	0.221	-0.089
-218.596	-200.000	-0.001	-0.204
-217.582	221.527	0.127	0.202
-216.567	800.000	0.105	-0.294
-215.552	529.664	0.219	-0.511
-214.538	-28.054	-0.279	0.159
-213.523	-76.118	0.100	-0.035
-212.509	163.310	0.282	-0.390
-211.494	-200.000	-0.074	0.486
-210.479	324.633	-0.130	0.244
-209.465	-200.000	-0.064	0.411
-208.450	171.680	-0.195	0.276
-207.436	-20.351	-0.224	-0.136
-206.421	129.010	-0.242	0.304
-205.406	46.193	0.167	-0.152
-204.392	-147.186	0.102	0.009
-203.377	-98.677	0.228	0.057
-202.363	480.566	-0.041	-0.091
-201.348	-174.861	0.325	0.009
-200.333	-200.000	0.011	-0.068
-199.319	-93.919	-0.303	0.082
-198.304	-94.551	0.412	-0.110
-197.290	-200.000	0.012	0.063
-196.275	6.327	-0.154	0.113
-195.260	800.000	-0.033	-0.132
-194.246	-200.000	-0.006	0.052
-193.231	-200.000	-0.007	-0.118
-192.217	178.292	0.036	0.052
-191.202	-133.690	0.157	0.019
-190.187	475.101	-0.056	-0.124
-189.173	-50.014	0.185	-0.086
-188.158	800.000	0.064	0.198
-187.144	-1.938	-0.195	0.135
-186.129	-200.000	-0.036	0.383
-185.114	110.926	-0.267	-0.316
-184.100	-51.407	-0.114	-0.052
-183.085	125.867	-0.051	0.063
-182.071	-151.253	0.105	0.008
-181.056	265.585	0.068	0.117
-180.042	39.747	-0.185	0.163
-179.027	800.000	0.010	0.033
-178.012	369.286	0.157	-0.312
-176.998	134.504	-0.192	0.245
-175.983	-22.517	0.184	0.110
-174.969	98.255	0.038	0.043
-173.954	800.000	0.098	0.327
-172.939	-134.512	0.444	0.053
-171.925	-200.000	-0.001	-0.077
-170.910	182.993	0.177	0.257
-169.896	-200.000	0.010	-0.122
-168.881	-200.000	-0.011	0.098
-167.866	-151.220	-0.123	0.009
-166.852	-92.907	-0.269	-0.074
-165.837	-75.200	-0.152	0.053
-164.823	470.617	0.041	0.091
-163.808	158.112	-0.144	0.197
-162.793	-90.677	-0.140	0.040
-161.779	-42.832	0.150	0.075
-160.764	0.698	-0.142	0.100
-159.750	135.714	-0.165	-0.211
-158.735	647.044	0.173	0.434
-157.720	-116.791	-0.069	0.012
-156.706	800.000	-0.058	0.208
-155.691	-200.000	-0.004	0.152
-154.677	800.000	-0.076	-0.230
-153.662	-200.000	-0.004	-0.204
-152.647	-9.092	-0.026	0.017
-151.633	157.428	0.339	-0.461
-150.618	-22.140	0.160	0.095
-149.604	-48.321	0.157	-0.074
-148.589	-82.262	0.133	0.043
-147.574	228.406	0.160	0.257
-146.560	-30.038	0.399	0.223
-145.545	-200.000	-0.006	-0.149
-144.531	44.528	0.325	-0.293
-143.516	141.948	0.117	0.153
-142.502	-200.000	-0.029	0.361
-141.487	-148.665	-0.199	-0.016
-140.472	251.871	0.042	0.071
-139.458	63.922	0.283	-0.279
-138.443	-77.686	-0.109	0.037
-137.429	9.929	0.231	0.172
-136.414	-200.000	-0.043	0.337
-135.399	-56.141	0.206	-0.090
-134.385	-13.000	-0.233	-0.149
-133.370	356.767	-0.189	0.370
-132.356	32.848	-0.270	-0.229
-131.341	226.278	0.143	0.228
-130.326	-116.377	0.153	-0.028
-129.312	800.000	-0.064	-0.228
-128.297	-127.325	0.248	-0.036
-127.283	200.176	-0.151	0.227
-126.268	-200.000	0.011	-0.230
-125.253	98.792	0.236	0.267
-124.239	-186.979	-0.245	-0.003
-123.224	35.184	0.291	0.251
-122.210	-200.000	0.023	0.224
-121.195	800.000	0.056	-0.201
