DTS Sentinel unit serial number:	SN413079Multiplexer serial number:	ORYXHardware model number:	OX4-SRSoftware version number:	ORYX F/W v4.00 Oryx Data Collector v3.7.2.0data status	okinstallation	princeton_trtdifferential loss correction	single-endedforward channel	channel 1reverse channel	N/Adate	2019/09/17time	07:14:35forward acquisition time	60.00reverse acquisition time	0.00gamma	496.2192k internal	0.2331k external	0.2331temperature offset calibration	0.9968default loss term (dB/km)	0.3790temperature slope calibration	1.0000multiplexer offset coefficient	1.0000multiplexer slope coefficient	1.0000fibre end	0.00T internal ref (°C)	27.31T ext. ref 1 (°C)	0.12T ext. ref 2 (°C)	21.28length (m)	temperature (°C)	Stokes	anti-Stokes-747.200	316.560	0.120	0.229
-746.185	179.262	-0.192	0.283
-745.171	-200.000	-0.038	-0.232
-744.156	22.892	-0.173	0.143
-743.142	691.017	-0.043	0.113
-742.127	-200.000	-0.011	0.201
-741.112	800.000	-0.030	0.088
-740.098	-75.547	0.103	0.037
-739.083	-59.341	0.195	0.084
-738.069	800.000	0.144	0.421
-737.054	-170.110	-0.214	0.008
-736.039	-75.189	-0.370	0.133
-735.025	800.000	0.068	0.288
-734.010	42.983	0.221	-0.203
-732.996	48.275	0.069	0.065
-731.981	-136.433	-0.096	-0.011
-730.966	190.143	-0.025	0.037
-729.952	205.274	-0.044	0.069
-728.937	71.942	0.249	-0.261
-727.923	38.694	-0.290	-0.260
-726.908	131.305	-0.053	-0.068
-725.894	-200.000	0.059	0.374
-724.879	34.276	0.049	0.043
-723.864	-73.659	-0.144	0.053
-722.850	224.689	0.030	-0.048
-721.835	455.175	-0.030	0.066
-720.821	-42.984	0.125	0.064
-719.806	121.791	0.121	-0.152
-718.791	-110.576	0.047	-0.010
-717.777	-200.000	-0.064	-0.422
-716.762	-107.550	0.065	-0.014
-715.748	42.746	0.199	-0.182
-714.733	141.712	-0.060	-0.079
-713.718	-113.377	-0.241	-0.048
-712.704	-153.855	-0.144	-0.010
-711.689	-150.978	-0.283	-0.021
-710.675	-65.889	0.040	0.016
-709.660	-133.943	0.296	-0.037
-708.645	14.747	0.036	0.028
-707.631	-67.578	0.185	-0.073
-706.616	65.070	0.153	-0.156
-705.602	0.018	0.143	-0.102
-704.587	3.975	-0.107	-0.078
-703.572	180.287	-0.133	0.196
-702.558	208.816	-0.079	-0.124
-701.543	-38.024	-0.056	0.030
-700.529	-74.510	0.382	0.138
-699.514	-78.240	-0.215	-0.074
-698.499	-64.008	0.236	0.097
-697.485	-24.353	-0.218	-0.130
-696.470	345.259	0.099	-0.195
-695.456	-23.962	0.018	-0.011
-694.441	-200.000	-0.037	-0.169
-693.426	175.057	0.058	-0.085
-692.412	-12.527	-0.214	0.140
-691.397	-35.890	-0.255	-0.139
-690.383	-200.000	0.054	-0.241
-689.368	800.000	-0.111	-0.400
-688.354	371.871	0.091	0.186
-687.339	800.000	-0.086	-0.266
-686.324	-22.830	0.160	-0.097
-685.310	-59.032	-0.065	0.028
-684.295	800.000	-0.057	0.172
-683.281	-123.585	-0.216	-0.034
-682.266	800.000	-0.137	-0.403
-681.251	800.000	0.023	0.079
-680.237	-200.000	0.022	0.146
-679.222	-4.293	-0.214	-0.149
-678.208	42.957	-0.098	0.089
-677.193	-131.045	0.083	0.011
-676.178	-100.208	-0.113	0.028
-675.164	800.000	0.017	-0.059
-674.149	-19.191	0.190	0.119
-673.135	-44.529	-0.302	-0.152
-672.120	248.371	-0.121	0.205
-671.105	164.320	-0.100	0.141
-670.091	-92.864	-0.053	0.015
-669.076	-104.761	-0.392	0.090
-668.062	229.997	0.123	0.201
-667.047	-74.779	-0.053	-0.019
-666.032	-146.309	0.360	0.032
-665.018	-73.354	-0.360	-0.132
-664.003	-59.226	0.145	0.063
-662.989	650.203	0.039	-0.099
-661.974	44.170	-0.295	-0.271
-660.959	-33.715	0.320	0.177
-659.945	-17.361	-0.097	0.062
-658.930	-200.000	0.027	-0.130
-657.916	-116.148	-0.061	0.011
-656.901	-56.078	0.090	-0.040
-655.886	61.037	-0.117	-0.116
-654.872	18.371	0.269	0.215
-653.857	-120.489	-0.282	-0.048
-652.843	-107.300	-0.379	-0.084
-651.828	-34.598	0.210	-0.115
-650.814	4.013	0.205	0.150
-649.799	800.000	-0.067	-0.194
-648.784	247.492	-0.206	-0.348
-647.770	215.526	-0.243	-0.386
-646.755	-102.582	0.278	0.067
-645.741	800.000	-0.118	-0.362
-644.726	42.513	-0.228	-0.208
-643.711	-200.000	-0.009	-0.356
-642.697	-200.000	-0.033	0.176
-641.682	-184.683	-0.115	0.002
-640.668	-28.480	0.106	0.061
-639.653	49.088	-0.263	-0.247
-638.638	309.127	-0.091	0.171
-637.624	107.032	0.256	-0.305
-636.609	800.000	-0.070	-0.200
-635.595	-150.856	0.140	0.011
-634.580	800.000	0.096	-0.344
-633.565	-52.842	-0.288	-0.133
-632.551	-57.976	-0.238	0.104
-631.536	-143.163	0.274	0.026
-630.522	800.000	-0.058	-0.220
-629.507	179.461	-0.229	-0.336
-628.492	88.840	-0.186	-0.207
-627.478	36.478	0.221	-0.196
-626.463	-91.853	0.204	-0.058
-625.449	-77.186	0.158	0.055
-624.434	452.113	-0.124	0.274
-623.419	-200.000	-0.009	-0.052
-622.405	-67.685	0.052	-0.020
-621.390	466.805	-0.052	-0.116
-620.376	-101.925	0.252	0.061
-619.361	140.305	0.334	-0.441
-618.346	-168.309	0.407	-0.016
-617.332	111.656	-0.131	-0.159
-616.317	800.000	0.098	0.362
-615.303	45.553	0.166	-0.154
-614.288	59.617	-0.143	0.141
-613.273	-54.786	-0.197	-0.089
-612.259	243.803	0.242	-0.406
-611.244	73.864	-0.156	-0.164
-610.230	295.317	-0.068	0.125
-609.215	323.841	-0.104	0.199
-608.201	-200.000	-0.077	-0.374
-607.186	-70.586	0.337	-0.127
-606.171	209.241	0.032	0.050
-605.157	717.413	-0.142	-0.378
-604.142	204.418	-0.176	-0.273
-603.128	-103.640	-0.048	-0.011
-602.113	161.124	0.105	0.147
-601.098	800.000	0.031	-0.088
-600.084	-94.167	0.179	0.049
-599.069	-73.381	0.106	0.039
-598.055	-167.810	0.102	0.004
-597.040	800.000	-0.008	0.033
-596.025	102.404	-0.131	-0.153
-595.011	-97.116	0.160	0.042
-593.996	146.829	0.065	-0.087
-592.982	23.083	0.105	-0.087
-591.967	800.000	0.064	0.182
-590.952	-200.000	0.088	0.407
-589.938	394.436	-0.123	0.256
-588.923	-123.667	0.247	0.039
-587.909	800.000	0.061	-0.185
-586.894	-46.557	-0.245	0.120
-585.879	16.013	-0.177	-0.140
-584.865	-105.551	0.195	0.044
-583.850	14.328	0.090	-0.070
-582.836	800.000	0.073	-0.202
-581.821	44.802	0.118	0.109
-580.806	-110.240	-0.227	-0.047
-579.792	-100.623	0.222	-0.055
-578.777	590.279	0.046	0.114
-577.763	-109.460	-0.164	0.035
-576.748	-96.779	0.205	0.054
-575.733	-200.000	0.009	-0.128
-574.719	-105.695	-0.468	-0.106
-573.704	-83.646	0.287	0.092
-572.690	-58.595	0.288	-0.125
-571.675	23.403	-0.184	-0.151
-570.661	800.000	-0.030	0.098
-569.646	152.811	0.088	0.120
-568.631	284.886	0.047	0.084
-567.617	-39.688	-0.190	0.099
-566.602	-79.417	0.120	0.041
-565.588	-200.000	-0.011	0.167
-564.573	-73.255	-0.236	-0.086
-563.558	-200.000	-0.013	0.073
-562.544	-200.000	-0.021	-0.190
-561.529	-133.339	-0.185	0.023
-560.515	-13.095	0.335	0.218
-559.500	119.355	0.055	0.069
-558.485	249.265	-0.064	0.109
-557.471	-39.802	-0.291	0.152
-556.456	-25.638	0.172	-0.101
-555.442	6.089	0.166	-0.123
-554.427	800.000	0.039	-0.148
-553.412	800.000	0.009	-0.028
-552.398	-200.000	-0.069	0.524
-551.383	-80.801	0.333	0.111
-550.369	-79.538	0.130	0.044
-549.354	40.054	-0.148	0.132
-548.339	-44.663	0.175	0.087
-547.325	-67.776	0.100	-0.039
-546.310	-45.486	-0.228	-0.113
-545.296	-69.831	-0.381	-0.145
-544.281	263.807	-0.099	0.172
-543.266	-71.763	-0.101	0.038
-542.252	50.906	0.127	-0.120
-541.237	-83.909	-0.253	0.080
-540.223	23.020	0.081	-0.066
-539.208	217.201	0.070	-0.112
-538.193	-14.715	-0.201	-0.129
-537.179	-36.571	0.098	0.052
-536.164	-118.886	0.362	0.063
-535.150	-162.896	-0.336	-0.016
-534.135	75.712	-0.197	-0.208
-533.121	474.786	-0.082	-0.185
-532.106	800.000	-0.090	-0.286
-531.091	-85.372	0.225	-0.070
-530.077	40.021	0.246	0.221
-529.062	-200.000	-0.051	0.254
-528.048	-200.000	-0.050	0.399
-527.033	-132.525	-0.366	-0.047
-526.018	-115.746	-0.188	0.035
-525.004	89.311	-0.196	-0.218
-523.989	-3.294	0.238	0.165
-522.975	360.162	-0.167	-0.333
-521.960	786.122	0.048	-0.132
-520.945	-119.126	0.040	0.007
-519.931	7.537	-0.106	-0.079
-518.916	201.373	0.119	0.183
-517.902	748.088	-0.063	0.170
-516.887	18.636	-0.166	-0.133
-515.872	-60.078	-0.062	0.026
-514.858	-117.801	-0.197	-0.035
-513.843	503.883	-0.126	0.290
-512.829	756.637	-0.049	0.133
-511.814	-185.020	-0.156	0.002
-510.799	-5.260	0.247	-0.169
-509.785	-200.000	0.010	0.234
-508.770	193.843	0.030	0.046
-507.756	54.240	-0.010	-0.009
-506.741	-137.748	-0.145	0.016
-505.726	-200.000	-0.003	0.235
-504.712	-20.135	-0.197	-0.121
-503.697	151.321	0.177	0.241
-502.683	-92.203	-0.117	0.033
-501.668	284.029	0.266	0.476
-500.653	146.558	0.071	-0.095
-499.639	-200.000	-0.005	0.038
-498.624	-99.280	-0.015	0.004
-497.610	800.000	-0.071	0.233
-496.595	-172.568	-0.180	0.006
-495.581	-75.500	-0.354	-0.125
-494.566	-48.500	0.248	0.119
-493.551	-65.687	-0.250	-0.100
-492.537	-148.841	0.294	-0.024
-491.522	-101.514	-0.233	-0.056
-490.508	330.768	0.045	0.087
-489.493	454.269	-0.117	0.258
-488.478	160.735	0.132	-0.184
-487.464	10.286	0.380	0.288
-486.449	736.992	-0.080	-0.214
-485.435	69.789	-0.206	-0.211
-484.420	-90.269	-0.211	-0.061
-483.405	-74.045	-0.214	0.077
-482.391	-200.000	0.009	0.132
-481.376	-50.585	0.160	-0.075
-480.362	22.499	-0.181	0.147
-479.347	-95.677	-0.385	0.103
-478.332	-68.589	-0.225	-0.087
-477.318	-77.082	-0.316	0.110
-476.303	-57.004	-0.254	0.112
-475.289	-200.000	0.004	0.191
-474.274	104.089	-0.189	-0.221
-473.259	357.979	0.110	0.219
-472.245	-74.333	0.103	0.037
-471.230	-60.218	-0.180	-0.077
-470.216	800.000	0.054	0.157
-469.201	-200.000	-0.054	-0.317
-468.186	273.640	0.118	-0.208
-467.172	-200.000	-0.031	0.213
-466.157	-193.834	0.181	0.002
-465.143	-200.000	0.003	-0.031
-464.128	-151.659	0.482	0.035
-463.113	-200.000	-0.000	0.302
-462.099	-200.000	0.017	-0.091
-461.084	85.968	-0.132	-0.144
-460.070	180.594	0.108	0.158
-459.055	-155.128	-0.156	0.010
-458.040	-67.148	-0.331	0.130
-457.026	61.865	0.505	0.500
-456.011	-108.499	-0.555	0.119
-454.997	-20.797	0.210	-0.128
-453.982	-193.298	0.191	0.002
-452.968	-200.000	-0.006	0.270
-451.953	-171.732	-0.308	-0.010
-450.938	231.419	-0.150	-0.245
-449.924	10.488	0.088	-0.067
-448.909	-200.000	-0.106	0.000
-447.895	-16.629	0.228	0.144
-446.880	-54.573	-0.173	0.078
-445.865	179.552	0.241	0.352
-444.851	-200.000	0.028	-0.643
-443.836	439.399	0.124	-0.270
-442.822	-200.000	0.054	0.262
-441.807	-91.414	0.246	-0.070
-440.792	800.000	0.018	0.070
-439.778	563.055	-0.037	0.089
-438.763	-75.852	0.132	0.046
-437.749	1.239	-0.053	0.038
-436.734	-68.319	-0.285	-0.110
-435.719	25.429	0.134	0.111
-434.705	-8.600	-0.212	0.142
-433.690	515.059	0.013	-0.031
-432.676	-200.000	-0.009	0.342
-431.661	123.486	0.167	0.208
-430.646	-102.608	-0.275	-0.065
-429.632	136.293	0.141	0.183
-428.617	-200.000	-0.012	0.075
-427.603	800.000	0.127	0.388
-426.588	800.000	0.045	-0.169
-425.573	463.911	-0.119	-0.264
-424.559	88.713	0.083	-0.092
-423.544	25.340	0.317	0.262
-422.530	-200.000	0.011	-0.113
-421.515	800.000	0.028	0.083
-420.500	31.213	0.343	0.293
-419.486	347.261	-0.045	0.088
-418.471	-19.088	-0.377	0.233
-417.457	51.346	0.104	0.098
-416.442	-200.000	0.005	-0.163
-415.428	800.000	0.004	-0.014
-414.413	800.000	-0.067	0.197
-413.398	-109.713	0.280	-0.059
-412.384	-111.034	0.040	0.008
-411.369	20.660	-0.091	-0.073
-410.355	100.387	0.172	0.199
-409.340	-80.601	-0.130	-0.043
-408.325	800.000	0.038	-0.127
-407.311	58.293	0.111	0.108
-406.296	-87.049	0.139	0.042
-405.282	-39.699	0.079	0.041
-404.267	-80.019	0.283	0.094
-403.252	139.754	0.074	0.097
-402.238	-178.940	0.209	-0.005
-401.223	-57.863	-0.166	0.072
-400.209	747.320	-0.125	-0.334
-399.194	-200.000	-0.037	0.365
-398.179	41.332	-0.213	0.192
-397.165	38.558	0.156	0.138
-396.150	-68.554	0.254	-0.098
-395.136	-45.158	-0.234	0.115
-394.121	-92.709	-0.332	-0.092
-393.106	-84.329	0.037	-0.012
-392.092	-200.000	-0.051	0.285
-391.077	-200.000	0.002	-0.197
-390.063	-2.816	0.317	-0.220
-389.048	-200.000	-0.048	-0.328
-388.033	192.903	-0.043	-0.064
-387.019	-51.323	-0.130	0.061
-386.004	-151.473	-0.205	-0.015
-384.990	-62.238	0.159	0.066
-383.975	-158.533	-0.079	0.005
-382.960	-200.000	0.000	0.189
-381.946	-200.000	0.008	0.063
-380.931	239.770	-0.022	-0.037
-379.917	264.093	-0.105	0.180
-378.902	577.933	-0.190	-0.461
-377.888	-200.000	0.004	-0.176
-376.873	-19.990	-0.216	0.132
-375.858	-200.000	-0.056	0.278
-374.844	62.004	-0.092	0.091
-373.829	30.641	0.020	-0.017
-372.815	-33.530	0.313	-0.171
-371.800	-200.000	-0.018	-0.181
-370.785	505.844	-0.144	-0.330
-369.771	-64.967	-0.311	-0.125
-368.756	-200.000	0.048	0.364
-367.742	-150.159	-0.167	-0.013
-366.727	-32.491	0.070	0.039
-365.712	306.779	0.202	0.373
-364.698	-5.344	-0.097	0.066
-363.683	21.363	0.117	-0.094
-362.669	800.000	0.060	-0.173
-361.654	-113.490	-0.179	-0.035
-360.639	-10.781	-0.254	-0.166
-359.625	224.515	-0.278	0.446
-358.610	-19.081	0.144	0.088
-357.596	-86.008	0.215	-0.066
-356.581	800.000	-0.055	-0.155
-355.566	-200.000	0.010	-0.165
-354.552	-200.000	0.046	-0.215
-353.537	-3.862	0.236	0.162
-352.523	599.165	-0.097	-0.239
-351.508	616.937	-0.108	-0.269
-350.493	-89.697	0.267	0.078
-349.479	740.717	-0.090	-0.240
-348.464	145.723	-0.140	-0.186
-347.450	800.000	0.042	-0.167
-346.435	65.862	0.432	-0.433
-345.420	100.252	-0.110	-0.126
-344.406	-24.620	-0.109	-0.064
-343.391	74.078	-0.035	0.036
-342.377	40.393	0.155	-0.138
-341.362	-78.849	-0.256	0.087
-340.348	-144.803	0.067	-0.006
-339.333	200.353	-0.033	-0.050
-338.318	13.747	0.148	-0.114
-337.304	67.289	-0.321	0.325
-336.289	-63.686	-0.199	0.081
-335.275	-200.000	0.043	-0.246
-334.260	100.855	-0.180	-0.207
-333.245	-200.000	-0.001	0.293
-332.231	81.258	-0.057	0.061
-331.216	610.418	0.070	0.174
-330.202	54.555	0.344	0.328
-329.187	370.262	0.089	0.179
-328.172	800.000	-0.007	0.019
-327.158	-147.717	0.398	-0.033
-326.143	-57.383	-0.095	-0.042
-325.129	109.390	-0.196	0.233
-324.114	-139.866	0.261	0.027
-323.099	53.217	0.268	0.254
-322.085	-161.816	0.471	-0.024
-321.070	-200.000	-0.073	-0.329
-320.056	800.000	0.072	-0.199
-319.041	-15.824	-0.127	0.080
-318.026	190.720	-0.098	-0.145
-317.012	-44.917	0.445	-0.219
-315.997	-115.891	0.134	0.025
-314.983	-200.000	0.024	0.213
-313.968	140.033	-0.116	-0.152
-312.953	52.757	-0.100	-0.095
-311.939	74.683	-0.176	-0.183
-310.924	283.586	0.060	-0.107
-309.910	266.378	-0.063	0.110
-308.895	-141.769	-0.192	0.019
-307.880	-16.579	0.222	0.139
-306.866	259.340	0.070	0.120
-305.851	-19.557	-0.098	0.060
-304.837	109.902	-0.062	-0.074
-303.822	128.055	-0.146	-0.183
-302.807	800.000	0.096	-0.305
-301.793	-200.000	-0.009	0.244
-300.778	800.000	0.068	0.201
-299.764	33.427	-0.289	0.248
-298.749	0.088	0.385	-0.271
-297.735	132.689	-0.220	-0.281
-296.720	800.000	-0.063	0.231
-295.705	125.783	0.187	0.234
-294.691	-200.000	-0.019	0.343
-293.676	65.132	0.115	0.115
-292.662	8.977	0.134	0.100
-291.647	-62.610	0.281	0.115
-290.632	-61.097	0.256	0.107
-289.618	-5.301	0.153	0.104
-288.603	-117.282	0.179	0.032
-287.589	-200.000	-0.035	-0.220
-286.574	190.140	0.173	-0.257
-285.559	-68.491	0.106	-0.041
-284.545	223.920	0.218	-0.348
-283.530	185.797	0.100	0.147
-282.516	166.313	0.124	0.173
-281.501	85.900	-0.203	0.220
-280.486	800.000	-0.083	-0.249
-279.472	-169.165	0.416	-0.015
-278.457	-178.201	0.214	-0.005
-277.443	13.446	0.211	-0.162
-276.428	251.077	0.120	-0.201
-275.413	800.000	-0.030	0.109
-274.399	68.260	-0.030	-0.030
-273.384	-135.064	0.237	0.028
-272.370	-200.000	-0.004	0.190
-271.355	800.000	0.058	0.218
-270.340	-94.175	0.238	0.064
-269.326	152.063	-0.070	0.094
-268.311	-86.158	-0.106	-0.032
-267.297	-63.448	0.144	0.059
-266.282	327.166	-0.147	-0.279
-265.267	695.267	-0.061	-0.157
-264.253	-80.028	0.230	-0.076
-263.238	800.000	0.062	-0.176
-262.224	800.000	-0.091	-0.264
-261.209	-29.679	0.166	0.094
-260.195	463.099	-0.023	-0.051
-259.180	-59.941	-0.169	0.071
-258.165	-14.744	-0.326	0.207
-257.151	101.996	-0.031	-0.035
-256.136	608.763	0.038	-0.093
-255.122	18.029	-0.068	0.053
-254.107	-60.664	-0.140	0.059
-253.092	712.459	-0.129	0.336
-252.078	-200.000	-0.032	-0.166
-251.063	800.000	0.053	0.161
-250.049	-200.000	0.002	0.148
-249.034	-28.843	0.077	0.044
-248.019	308.061	-0.057	-0.105
-247.005	214.244	0.148	0.231
-245.990	800.000	0.076	0.246
-244.976	5.959	-0.101	-0.074
-243.961	-89.872	0.198	0.057
-242.946	77.725	-0.269	-0.282
-241.932	203.989	-0.072	0.110
-240.917	65.663	0.008	-0.008
-239.903	305.460	-0.034	-0.062
-238.888	128.628	0.153	0.193
-237.873	-200.000	0.003	0.153
-236.859	74.156	-0.129	0.133
-235.844	-200.000	0.007	0.202
-234.830	204.051	0.101	0.154
-233.815	-67.361	0.257	0.100
-232.800	47.353	-0.100	-0.092
-231.786	2.060	0.084	-0.060
-230.771	11.378	-0.273	-0.207
-229.757	-123.300	-0.083	0.013
-228.742	266.456	-0.018	-0.031
-227.727	599.691	-0.142	0.348
-226.713	-94.144	-0.272	-0.073
-225.698	-200.000	0.017	-0.145
-224.684	-70.034	-0.030	-0.011
-223.669	-200.000	0.012	0.063
-222.655	-33.790	-0.173	-0.094
-221.640	-200.000	0.007	-0.083
-220.625	-200.000	0.031	0.139
-219.611	-95.019	-0.302	-0.081
-218.596	11.654	-0.308	0.233
-217.582	-200.000	-0.000	0.181
-216.567	-101.347	-0.095	0.023
-215.552	83.009	0.067	-0.072
-214.538	24.062	-0.087	-0.071
-213.523	-0.242	0.167	-0.117
-212.509	217.102	0.170	0.266
-211.494	40.352	-0.090	0.080
-210.479	5.189	-0.199	-0.144
-209.465	164.675	-0.046	-0.064
-208.450	800.000	0.040	-0.156
-207.436	198.109	0.065	-0.097
-206.421	-133.614	0.059	-0.007
-205.406	69.778	0.120	-0.122
-204.392	350.480	-0.029	0.057
-203.377	800.000	0.039	0.123
-202.363	-82.919	-0.076	-0.024
-201.348	-200.000	0.069	-0.360
-200.333	-139.033	0.071	-0.008
-199.319	200.506	-0.145	0.219
-198.304	-171.047	0.154	-0.005
-197.290	222.460	-0.158	-0.250
-196.275	214.748	0.101	0.158
-195.260	-156.299	-0.080	0.005
-194.246	-131.223	0.081	-0.011
-193.231	-89.442	-0.254	-0.074
-192.217	-109.874	-0.382	0.079
-191.202	94.045	-0.197	0.220
-190.187	-200.000	0.021	0.374
-189.173	80.178	-0.146	-0.155
-188.158	800.000	-0.097	-0.338
-187.144	-85.253	-0.141	-0.043
-186.129	381.127	0.130	-0.262
-185.114	610.209	0.043	0.106
-184.100	-107.735	0.442	0.095
-183.085	-50.688	-0.127	0.059
-182.071	-134.801	-0.128	0.015
-181.056	86.854	0.080	-0.087
-180.042	800.000	-0.072	0.249
-179.027	-159.608	-0.183	0.010
-178.012	-200.000	-0.054	-0.325
-176.998	76.490	0.181	0.188
-175.983	-3.339	-0.072	0.049
-174.969	-181.489	0.104	0.002
-173.954	41.115	-0.037	0.033
-172.939	800.000	-0.043	-0.130
-171.925	29.354	-0.259	-0.217
-170.910	800.000	0.077	-0.311
-169.896	-6.651	0.199	-0.133
-168.881	-65.263	0.257	0.102
-167.866	-136.828	-0.328	-0.037
-166.852	222.778	-0.159	-0.251
-165.837	-200.000	-0.045	0.223
-164.823	-124.480	0.201	0.031
-163.808	25.745	0.145	-0.119
-162.793	-91.882	0.271	0.076
-161.779	259.840	0.113	-0.192
-160.764	800.000	-0.019	-0.053
-159.750	254.026	-0.120	-0.201
-158.735	66.716	0.140	-0.140
-157.720	-189.137	0.268	0.003
-156.706	-200.000	0.014	0.140
-155.691	-200.000	-0.031	0.255
-154.677	-15.532	0.247	-0.155
-153.662	-58.450	-0.226	0.097
-152.647	-37.105	-0.238	0.125
-151.633	-125.113	0.095	0.014
-150.618	800.000	-0.029	-0.114
-149.604	-48.249	0.226	0.107
-148.589	275.630	-0.036	-0.063
-147.574	-200.000	0.013	0.278
-146.560	94.282	-0.041	-0.046
-145.545	-69.516	-0.042	-0.016
-144.531	800.000	0.164	-0.510
-143.516	-94.102	0.145	-0.039
-142.502	-6.616	-0.197	-0.132
-141.487	-95.206	-0.177	-0.047
-140.472	-155.326	0.162	-0.010
-139.458	427.911	-0.046	-0.097
-138.443	-200.000	-0.027	-0.227
-137.429	136.573	0.175	0.225
-136.414	-105.677	-0.178	0.040
-135.399	-85.142	0.144	-0.044
-134.385	89.906	0.167	-0.183
-133.370	800.000	0.110	-0.459
-132.356	5.283	-0.074	0.053
-131.341	443.419	0.058	0.126
-130.326	-64.509	-0.205	-0.082
-129.312	-189.555	-0.271	-0.003
-128.297	800.000	-0.150	0.423
-127.283	-200.000	-0.034	0.325
-126.268	-107.120	-0.177	-0.038
-125.253	-162.592	-0.518	-0.025
-124.239	-48.323	-0.176	-0.083
-123.224	-200.000	-0.021	-0.173
-122.210	60.470	0.115	0.112
-121.195	-9.688	-0.083	0.054
-120.180	-6.168	0.176	0.118
