DTS Sentinel unit serial number:	SN413079Multiplexer serial number:	ORYXHardware model number:	OX4-SRSoftware version number:	ORYX F/W v4.00 Oryx Data Collector v3.7.2.0data status	okinstallation	princeton_trtdifferential loss correction	single-endedforward channel	channel 1reverse channel	N/Adate	2019/09/12time	12:36:11forward acquisition time	60.00reverse acquisition time	0.00gamma	496.2192k internal	0.2291k external	0.2291temperature offset calibration	1.0048default loss term (dB/km)	0.3790temperature slope calibration	1.0000multiplexer offset coefficient	1.0000multiplexer slope coefficient	1.0000fibre end	0.00T internal ref (°C)	40.45T ext. ref 1 (°C)	2.03T ext. ref 2 (°C)	35.60length (m)	temperature (°C)	Stokes	anti-Stokes-747.200	25.912	-0.091	-0.078
-746.185	-200.000	-0.030	0.284
-745.171	148.436	-0.210	-0.290
-744.156	-200.000	0.003	-0.118
-743.142	11.186	-0.146	0.115
-742.127	743.709	-0.100	0.276
-741.112	-126.348	-0.143	-0.022
-740.098	-102.563	0.377	0.092
-739.083	-135.568	-0.174	-0.021
-738.069	-192.039	-0.180	-0.002
-737.054	-184.477	-0.276	0.005
-736.039	-136.539	-0.316	0.038
-735.025	-104.231	0.172	0.041
-734.010	-35.866	-0.406	0.225
-732.996	170.052	0.110	-0.161
-731.981	800.000	-0.097	0.304
-730.966	389.175	0.076	-0.161
-729.952	-39.645	-0.049	0.026
-728.937	800.000	-0.035	-0.131
-727.923	-132.882	-0.366	-0.048
-726.908	800.000	0.045	0.188
-725.894	800.000	-0.036	0.158
-724.879	47.828	-0.129	0.123
-723.864	8.697	-0.130	0.100
-722.850	800.000	0.071	0.207
-721.835	-200.000	0.000	-0.133
-720.821	-103.345	0.207	-0.050
-719.806	181.403	0.021	-0.031
-718.791	-32.800	0.365	-0.207
-717.777	-30.715	-0.331	-0.191
-716.762	344.095	-0.063	0.126
-715.748	162.488	-0.157	-0.225
-714.733	48.847	-0.161	-0.154
-713.718	602.722	0.033	0.084
-712.704	146.416	-0.258	-0.354
-711.689	-200.000	0.006	0.168
-710.675	306.573	0.178	-0.338
-709.660	-200.000	0.021	-0.278
-708.645	-200.000	-0.006	-0.128
-707.631	-200.000	0.033	-0.170
-706.616	133.367	-0.085	-0.112
-705.602	-105.856	-0.266	-0.061
-704.587	-42.842	0.228	-0.119
-703.572	-174.242	0.335	-0.010
-702.558	323.692	-0.115	-0.224
-701.543	-200.000	0.008	0.126
-700.529	-200.000	-0.245	-0.001
-699.514	-50.698	-0.152	0.073
-698.499	270.216	-0.054	-0.096
-697.485	-48.148	-0.143	-0.070
-696.470	27.796	-0.173	0.149
-695.456	183.177	0.096	-0.145
-694.441	-9.075	0.243	-0.166
-693.426	350.847	0.068	0.137
-692.412	-200.000	-0.023	-0.223
-691.397	-143.695	-0.256	-0.025
-690.383	-4.284	-0.386	-0.273
-689.368	-62.806	0.273	0.116
-688.354	222.000	-0.080	0.132
-687.339	-200.000	0.043	0.291
-686.324	-94.938	0.238	0.066
-685.310	-6.510	0.111	0.077
-684.295	-106.692	0.315	0.071
-683.281	380.511	-0.097	0.203
-682.266	9.068	-0.034	0.026
-681.251	-62.966	0.268	0.113
-680.237	250.693	0.117	-0.203
-679.222	-36.662	0.226	0.124
-678.208	7.871	0.168	0.129
-677.193	80.330	-0.152	0.167
-676.178	-76.270	-0.241	0.087
-675.164	-114.596	0.052	-0.010
-674.149	-10.134	-0.122	0.083
-673.135	161.087	-0.108	0.154
-672.120	-2.590	0.159	0.113
-671.105	416.062	-0.241	0.524
-670.091	-73.178	-0.185	-0.069
-669.076	397.771	-0.020	0.043
-668.062	615.917	0.078	-0.199
-667.047	-106.898	-0.081	0.018
-666.032	549.705	-0.073	0.178
-665.018	11.031	0.248	-0.193
-664.003	-22.561	-0.148	0.091
-662.989	800.000	0.041	0.164
-661.974	-200.000	0.020	-0.180
-660.959	387.168	0.194	-0.409
-659.945	38.081	-0.222	-0.201
-658.930	800.000	-0.018	0.068
-657.916	390.726	-0.039	-0.082
-656.901	-139.051	-0.225	0.025
-655.886	186.966	-0.117	0.178
-654.872	726.011	-0.064	-0.175
-653.857	161.535	0.098	0.140
-652.843	-129.760	-0.273	-0.038
-651.828	104.146	-0.150	-0.180
-650.814	-200.000	-0.016	-0.325
-649.799	-91.246	0.127	-0.037
-648.784	-200.000	0.006	0.085
-647.770	-48.614	-0.220	-0.108
-646.755	800.000	-0.025	0.096
-645.741	-134.144	-0.346	0.044
-644.726	297.999	0.030	-0.056
-643.711	248.306	-0.147	-0.254
-642.697	36.754	-0.080	-0.072
-641.682	800.000	-0.101	0.295
-640.668	123.180	0.066	-0.084
-639.653	800.000	-0.046	-0.151
-638.638	-113.373	-0.119	-0.024
-637.624	22.038	0.184	-0.153
-636.609	-107.932	-0.147	-0.033
-635.595	-200.000	-0.048	-0.358
-634.580	-23.673	-0.136	-0.083
-633.565	-160.392	-0.049	-0.003
-632.551	-31.980	-0.169	0.097
-631.536	206.222	-0.171	0.272
-630.522	470.466	-0.145	0.332
-629.507	17.514	-0.282	-0.229
-628.492	-200.000	0.002	-0.268
-627.478	-200.000	-0.003	-0.096
-626.463	800.000	-0.029	-0.128
-625.449	-200.000	0.043	-0.266
-624.434	-47.730	-0.309	0.153
-623.419	-177.738	0.217	-0.005
-622.405	-19.329	0.057	-0.036
-621.390	-68.720	-0.134	0.053
-620.376	564.316	0.128	-0.315
-619.361	-74.587	0.054	0.020
-618.346	120.686	-0.194	-0.246
-617.332	-42.664	-0.270	-0.140
-616.317	143.780	0.018	0.024
-615.303	-128.265	0.094	-0.014
-614.288	158.737	-0.214	-0.302
-613.273	-177.318	-0.041	-0.001
-612.259	-200.000	0.052	-0.238
-611.244	800.000	-0.037	-0.117
-610.230	-54.971	-0.359	-0.165
-609.215	48.609	-0.208	0.199
-608.201	-135.165	-0.395	0.048
-607.186	-21.117	-0.112	0.070
-606.171	-100.042	0.194	-0.049
-605.157	-0.475	-0.260	0.188
-604.142	-18.661	-0.084	-0.053
-603.128	1.218	0.061	0.044
-602.113	-64.866	-0.274	0.113
-601.098	-68.235	-0.133	0.053
-600.084	-16.351	0.056	-0.036
-599.069	525.300	-0.063	-0.150
-598.055	11.614	0.036	0.028
-597.040	626.880	0.041	-0.105
-596.025	90.403	0.132	-0.151
-595.011	-46.990	-0.098	0.049
-593.996	183.398	0.161	-0.243
-592.982	-200.000	-0.017	-0.125
-591.967	47.938	0.246	-0.234
-590.952	-34.587	0.446	0.248
-589.938	28.383	-0.039	0.033
-588.923	-86.256	-0.290	0.091
-587.909	28.903	-0.088	-0.076
-586.894	-102.685	0.213	-0.052
-585.879	84.748	0.133	-0.148
-584.865	311.372	0.102	0.195
-583.850	-200.000	-0.007	-0.044
-582.836	-60.938	0.150	-0.064
-581.821	-200.000	0.028	0.228
-580.806	269.159	0.041	-0.073
-579.792	-51.738	0.119	0.056
-578.777	800.000	0.064	0.187
-577.763	6.324	-0.322	-0.243
-576.748	106.514	-0.069	-0.083
-575.733	-42.449	0.212	-0.110
-574.719	-31.221	0.127	-0.073
-573.704	262.807	-0.137	0.242
-572.690	155.678	0.149	0.209
-571.675	-200.000	0.011	-0.050
-570.661	-18.140	0.078	-0.050
-569.646	-123.907	-0.157	-0.025
-568.631	-48.027	0.037	-0.018
-567.617	-72.685	0.248	-0.093
-566.602	497.471	-0.035	-0.082
-565.588	136.217	-0.049	0.066
-564.573	-184.029	-0.052	0.001
-563.558	89.173	0.292	-0.331
-562.544	25.136	0.278	-0.234
-561.529	120.416	-0.083	0.105
-560.515	800.000	0.078	0.244
-559.500	221.703	0.109	-0.178
-558.485	800.000	0.070	-0.241
-557.471	-200.000	-0.013	0.233
-556.456	195.220	0.144	0.223
-555.442	-99.697	0.126	-0.032
-554.427	266.889	-0.194	0.344
-553.412	-137.323	-0.239	0.028
-552.398	-109.259	-0.217	0.047
-551.383	-29.578	0.219	0.127
-550.369	0.981	-0.023	-0.017
-549.354	6.495	-0.138	-0.104
-548.339	-200.000	0.032	0.184
-547.325	408.585	-0.173	0.372
-546.310	-75.585	-0.302	-0.109
-545.296	-199.461	0.280	0.001
-544.281	24.252	-0.110	-0.093
-543.266	14.066	0.073	-0.058
-542.252	-48.264	0.143	0.070
-541.237	-152.702	-0.008	0.001
-540.223	-31.305	-0.088	-0.050
-539.208	-200.000	0.002	-0.206
-538.193	151.303	0.192	0.265
-537.179	-43.599	0.056	-0.029
-536.164	-21.222	0.099	0.061
-535.150	-59.648	0.129	-0.056
-534.135	-22.666	-0.254	-0.156
-533.121	112.383	-0.143	0.175
-532.106	-200.000	-0.013	-0.070
-531.091	-89.888	-0.110	-0.033
-530.077	-6.248	0.327	0.227
-529.062	287.428	-0.125	-0.230
-528.048	-106.058	0.449	-0.103
-527.033	650.431	0.028	-0.074
-526.018	-200.000	-0.017	-0.103
-525.004	-200.000	0.010	-0.144
-523.989	123.871	-0.246	0.314
-522.975	-129.986	-0.376	0.052
-521.960	800.000	0.072	-0.309
-520.945	21.084	0.055	0.045
-519.931	649.355	0.136	0.352
-518.916	53.441	-0.080	0.078
-517.902	179.641	-0.159	0.236
-516.887	501.685	-0.048	-0.111
-515.872	239.674	0.210	-0.356
-514.858	-60.786	-0.443	-0.190
-513.843	-12.985	-0.118	0.078
-512.829	800.000	0.090	-0.355
-511.814	-66.615	-0.125	-0.050
-510.799	-110.471	-0.092	0.019
-509.785	386.859	0.106	-0.222
-508.770	-140.157	-0.408	0.043
-507.756	305.853	0.023	-0.043
-506.741	500.091	0.077	-0.180
-505.726	-71.331	-0.181	-0.069
-504.712	-34.470	0.129	-0.072
-503.697	327.243	-0.181	-0.353
-502.683	74.805	0.170	0.181
-501.668	-200.000	-0.040	0.295
-500.653	-32.346	0.095	0.054
-499.639	166.926	0.238	-0.342
-498.624	-200.000	-0.045	0.290
-497.610	59.316	-0.366	0.365
-496.595	19.501	0.271	-0.221
-495.581	-200.000	0.016	-0.271
-494.566	78.826	-0.121	-0.132
-493.551	-114.317	-0.145	-0.028
-492.537	-168.575	0.411	0.016
-491.522	-168.005	-0.307	0.012
-490.508	207.045	-0.119	0.189
-489.493	662.412	-0.090	0.236
-488.478	-200.000	-0.046	0.238
-487.464	-152.944	-0.110	-0.008
-486.449	-173.275	0.278	-0.009
-485.435	-200.000	0.002	0.147
-484.420	115.297	-0.040	0.050
-483.405	-65.416	-0.221	0.090
-482.391	8.121	-0.109	-0.083
-481.376	265.254	-0.201	-0.355
-480.362	-98.301	0.188	-0.049
-479.347	-175.428	0.230	-0.006
-478.332	-23.531	0.117	0.071
-477.318	-45.391	0.373	-0.187
-476.303	-132.613	0.042	-0.005
-475.289	-200.000	-0.008	0.164
-474.274	-31.486	0.211	-0.120
-473.259	10.969	-0.332	-0.257
-472.245	-200.000	0.015	0.140
-471.230	800.000	-0.067	0.227
-470.216	-200.000	0.005	0.145
-469.201	52.867	-0.331	-0.320
-468.186	-135.960	0.175	-0.021
-467.172	-200.000	0.069	0.320
-466.157	-40.855	0.195	-0.102
-465.143	-122.007	-0.080	-0.013
-464.128	66.155	-0.146	-0.150
-463.113	-114.232	0.231	0.045
-462.099	528.389	0.060	-0.144
-461.084	46.830	-0.200	-0.189
-460.070	-76.878	0.223	0.079
-459.055	186.687	0.104	-0.157
-458.040	117.725	-0.118	0.147
-457.026	-200.000	-0.010	-0.147
-456.011	-99.105	-0.208	-0.053
-454.997	30.141	-0.080	0.069
-453.982	-200.000	-0.040	-0.239
-452.968	-55.628	0.154	-0.070
-451.953	329.674	0.136	0.264
-450.938	52.899	0.286	0.276
-449.924	800.000	0.020	0.064
-448.909	-28.478	-0.029	0.017
-447.895	-200.000	-0.021	0.118
-446.880	204.799	-0.123	-0.194
-445.865	-44.455	-0.376	0.191
-444.851	388.258	0.171	0.358
-443.836	776.678	0.175	0.484
-442.822	-37.800	-0.080	0.043
-441.807	37.110	-0.048	0.043
-440.792	382.033	0.112	0.232
-439.778	-200.000	-0.031	-0.171
-438.763	800.000	0.105	-0.386
-437.749	-200.000	-0.003	0.390
-436.734	-200.000	-0.013	0.091
-435.719	-200.000	-0.032	0.216
-434.705	-70.715	0.270	0.103
-433.690	411.181	-0.147	0.315
-432.676	-33.384	0.225	-0.126
-431.661	-200.000	0.003	0.250
-430.646	-200.000	-0.011	0.153
-429.632	23.580	-0.077	-0.064
-428.617	-200.000	-0.036	0.177
-427.603	170.201	0.103	-0.149
-426.588	115.174	0.259	-0.320
-425.573	-125.031	0.179	0.028
-424.559	-66.139	-0.157	-0.063
-423.544	440.173	0.093	-0.206
-422.530	800.000	0.124	-0.352
-421.515	96.176	0.137	0.159
-420.500	-9.955	-0.143	0.096
-419.486	-60.593	-0.164	0.071
-418.471	-43.644	0.112	0.057
-417.457	-200.000	0.024	0.213
-416.442	164.703	0.159	0.227
-415.428	-200.000	-0.004	0.334
-414.413	800.000	-0.014	-0.053
-413.398	-103.680	0.084	0.020
-412.384	-64.375	-0.142	0.058
-411.369	-200.000	-0.077	0.524
-410.355	42.192	0.208	0.191
-409.340	29.385	0.254	0.218
-408.325	-199.621	-0.257	-0.001
-407.311	1.897	-0.155	-0.113
-406.296	-15.816	-0.163	-0.105
-405.282	522.715	0.046	-0.108
-404.267	-114.947	0.116	0.022
-403.252	-109.974	-0.148	0.031
-402.238	114.149	-0.150	0.185
-401.223	-200.000	0.019	-0.595
-400.209	-200.000	-0.033	-0.232
-399.194	38.369	-0.070	-0.063
-398.179	-161.695	0.152	0.008
-397.165	-114.804	0.273	-0.053
-396.150	79.852	0.172	0.187
-395.136	-114.885	-0.202	-0.039
-394.121	130.999	0.061	-0.080
-393.106	-141.002	0.052	-0.005
-392.092	-173.752	0.118	-0.004
-391.077	-103.181	-0.328	-0.078
-390.063	-67.913	0.270	0.106
-389.048	-38.632	0.103	-0.055
-388.033	36.579	0.118	0.105
-387.019	352.496	0.076	-0.153
-386.004	372.422	-0.062	-0.128
-384.990	-200.000	-0.011	-0.129
-383.975	-200.000	0.022	-0.165
-382.960	-139.821	0.219	0.023
-381.946	335.366	-0.074	0.145
-380.931	-66.499	-0.124	0.050
-379.917	-200.000	0.027	0.505
-378.902	1.548	-0.129	0.094
-377.888	160.947	-0.064	-0.091
-376.873	-200.000	0.041	-0.317
-375.858	-200.000	-0.003	-0.225
-374.844	-24.510	0.125	0.075
-373.829	800.000	0.031	-0.096
-372.815	-95.891	0.057	0.015
-371.800	-200.000	-0.005	-0.083
-370.785	-160.344	-0.145	0.008
-369.771	-200.000	-0.028	-0.162
-368.756	-132.331	-0.219	-0.029
-367.742	-17.273	-0.023	-0.015
-366.727	44.048	0.127	0.118
-365.712	-86.551	0.300	0.093
-364.698	-110.689	0.265	-0.055
-363.683	-200.000	0.053	-0.264
-362.669	47.437	0.138	0.129
-361.654	4.534	-0.276	0.204
-360.639	800.000	0.095	0.272
-359.625	800.000	-0.122	0.383
-358.610	412.811	-0.083	0.177
-357.596	78.358	0.275	-0.296
-356.581	-200.000	0.045	-0.320
-355.566	37.848	0.179	-0.160
-354.552	-200.000	-0.023	0.316
-353.537	-200.000	-0.021	-0.182
-352.523	-124.941	0.201	-0.031
-351.508	-200.000	-0.004	-0.046
-350.493	625.716	-0.081	0.207
-349.479	2.975	0.134	0.098
-348.464	-200.000	0.076	0.349
-347.450	-200.000	0.021	0.149
-346.435	248.778	-0.067	0.115
-345.420	66.230	-0.064	0.066
-344.406	121.271	0.057	-0.072
-343.391	372.791	-0.059	0.122
-342.377	-200.000	-0.029	-0.137
-341.362	-105.939	-0.140	-0.032
-340.348	452.466	0.101	0.225
-339.333	20.241	-0.134	0.109
-338.318	-200.000	0.006	-0.197
-337.304	-161.216	-0.226	-0.012
-336.289	-10.987	-0.163	-0.108
-335.275	72.270	-0.144	0.151
-334.260	126.933	0.073	-0.094
-333.245	800.000	-0.108	0.374
-332.231	33.015	0.046	0.040
-331.216	96.121	-0.256	-0.294
-330.202	564.564	0.040	-0.098
-329.187	53.941	0.188	0.182
-328.172	-27.249	0.091	0.053
-327.158	800.000	0.037	-0.108
-326.143	28.577	0.226	0.193
-325.129	-91.237	0.194	0.056
-324.114	-152.325	-0.180	-0.013
-323.099	471.015	0.088	0.199
-322.085	40.147	-0.164	0.148
-321.070	0.362	-0.160	-0.115
-320.056	273.073	0.069	0.123
-319.041	307.944	0.123	-0.230
-318.026	-200.000	-0.000	-0.277
-317.012	267.041	-0.106	0.186
-315.997	-200.000	-0.006	0.149
-314.983	-199.456	-0.452	-0.002
-313.968	-200.000	-0.010	-0.233
-312.953	-16.942	0.231	-0.147
-311.939	37.612	0.246	0.220
-310.924	162.527	0.205	-0.289
-309.910	-200.000	-0.016	0.126
-308.895	-200.000	0.030	-0.236
-307.880	800.000	-0.043	-0.178
-306.866	-200.000	-0.012	-0.098
-305.851	558.706	-0.173	-0.420
-304.837	-74.059	0.034	0.012
-303.822	-200.000	0.052	0.365
-302.807	75.638	-0.111	0.118
-301.793	-117.090	0.157	-0.029
-300.778	115.174	0.174	0.213
-299.764	-200.000	0.002	-0.109
-298.749	-161.062	0.065	0.003
-297.735	-16.058	0.078	0.050
-296.720	71.220	0.329	0.344
-295.705	-200.000	0.048	0.289
-294.691	86.712	-0.173	-0.192
-293.676	-58.122	0.132	0.058
-292.662	34.870	0.197	-0.173
-291.647	800.000	-0.098	0.310
-290.632	800.000	-0.021	-0.074
-289.618	-110.780	-0.134	0.028
-288.603	113.272	-0.055	0.067
-287.589	-29.619	-0.229	-0.131
-286.574	-111.520	-0.340	0.070
-285.559	19.254	-0.353	-0.285
-284.545	-200.000	-0.001	-0.210
-283.530	64.990	0.061	0.062
-282.516	-119.223	-0.355	-0.062
-281.501	-200.000	-0.018	-0.174
-280.486	-200.000	-0.010	-0.082
-279.472	124.593	0.122	-0.154
-278.457	165.299	0.071	0.101
-277.443	-200.000	-0.002	-0.017
-276.428	519.799	-0.065	0.153
-275.413	800.000	0.030	-0.086
-274.399	551.987	-0.064	-0.153
-273.384	-162.072	0.434	0.022
-272.370	-200.000	-0.011	0.177
-271.355	-126.520	-0.267	0.040
-270.340	-69.446	-0.188	0.072
-269.326	393.760	0.083	-0.174
-268.311	-200.000	-0.094	0.635
-267.297	-124.389	-0.247	0.039
-266.282	800.000	0.029	0.117
-265.267	-118.555	-0.421	0.075
-264.253	589.577	0.114	0.284
-263.238	-29.280	-0.022	-0.013
-262.224	-144.502	-0.131	-0.012
-261.209	-149.271	0.237	0.019
-260.195	-200.000	0.020	-0.180
-259.180	800.000	0.026	-0.108
-258.165	-57.218	0.080	-0.035
-257.151	140.340	0.176	0.234
-256.136	120.034	0.067	0.084
-255.122	-200.000	0.022	-0.105
-254.107	18.789	-0.139	0.112
-253.092	-185.931	0.269	-0.004
-252.078	-200.000	0.008	0.223
-251.063	-42.592	-0.204	0.105
-250.049	-11.261	0.192	0.127
-249.034	-109.786	-0.082	-0.017
-248.019	485.961	0.101	-0.232
-247.005	-112.412	-0.288	0.058
-245.990	481.252	-0.058	-0.131
-244.976	-16.529	0.155	-0.098
-243.961	82.053	0.043	-0.047
-242.946	-140.101	-0.118	-0.012
-241.932	45.126	0.197	0.182
-240.917	-10.150	-0.135	-0.090
-239.903	800.000	0.084	-0.299
-238.888	17.289	0.294	-0.235
-237.873	-64.436	0.189	-0.077
-236.859	-200.000	-0.002	-0.045
-235.844	-40.894	0.184	-0.095
-234.830	566.097	-0.050	-0.122
-233.815	402.416	-0.161	0.341
-232.800	146.509	0.073	-0.098
-231.786	22.404	-0.099	-0.081
-230.771	-200.000	-0.000	-0.078
-229.757	264.247	-0.043	-0.075
-228.742	800.000	-0.109	-0.343
-227.727	500.662	-0.158	-0.365
-226.713	-200.000	0.004	0.017
-225.698	-200.000	0.015	0.488
-224.684	53.571	-0.160	0.154
-223.669	-102.517	0.255	-0.061
-222.655	-93.420	-0.164	-0.046
-221.640	-41.397	0.316	0.163
-220.625	-136.177	0.221	-0.026
-219.611	187.952	0.172	0.258
-218.596	266.731	0.036	0.063
-217.582	-200.000	0.002	-0.096
-216.567	-200.000	-0.005	0.159
-215.552	-10.069	-0.096	-0.064
-214.538	800.000	-0.079	0.258
-213.523	800.000	0.036	-0.142
-212.509	-200.000	-0.013	0.286
-211.494	-73.178	-0.287	0.106
-210.479	-78.742	0.102	-0.035
-209.465	-59.286	-0.095	-0.041
-208.450	-16.636	0.241	-0.153
-207.436	-101.093	0.213	-0.052
-206.421	-1.352	-0.350	-0.248
-205.406	-45.593	0.262	-0.130
-204.392	-200.000	-0.011	0.478
-203.377	800.000	-0.039	0.167
-202.363	-200.000	0.024	-0.205
-201.348	-200.000	0.011	-0.193
-200.333	-200.000	0.001	-0.062
-199.319	392.571	-0.145	-0.303
-198.304	-85.532	0.326	0.102
-197.290	42.667	-0.279	-0.255
-196.275	-114.570	-0.239	0.046
-195.260	1.644	0.154	0.111
-194.246	-20.244	0.107	-0.066
-193.231	-200.000	-0.025	0.133
-192.217	50.929	0.078	-0.074
-191.202	-200.000	-0.038	-0.238
-190.187	-99.718	-0.051	-0.013
-189.173	-128.667	-0.143	0.020
-188.158	800.000	0.041	0.119
-187.144	800.000	0.074	0.239
-186.129	275.436	0.098	0.173
-185.114	-200.000	0.174	0.001
-184.100	-200.000	0.004	-0.166
-183.085	183.026	0.235	-0.347
-182.071	-45.104	0.340	-0.170
-181.056	334.519	0.058	-0.112
-180.042	-1.751	0.081	-0.057
-179.027	-14.686	-0.082	-0.053
-178.012	363.328	0.119	0.239
-176.998	322.627	-0.125	-0.238
-175.983	-105.010	-0.207	-0.048
-174.969	-200.000	-0.071	0.388
-173.954	269.919	-0.153	0.269
-172.939	-42.535	0.137	-0.070
-171.925	112.018	-0.097	0.117
-170.910	-64.026	-0.015	-0.006
-169.896	-24.872	-0.061	-0.036
-168.881	-200.000	0.015	-0.068
-167.866	-191.960	-0.259	0.003
-166.852	800.000	-0.107	-0.298
-165.837	-33.401	0.151	-0.084
-164.823	-116.212	0.125	0.023
-163.808	-91.600	0.073	0.021
-162.793	124.432	0.045	-0.057
-161.779	-0.534	0.124	0.088
-160.764	20.583	-0.230	0.186
-159.750	800.000	0.011	0.046
-158.735	-155.434	0.371	-0.024
-157.720	-71.319	0.302	-0.113
-156.706	-69.247	0.080	-0.031
-155.691	-50.171	-0.206	-0.098
-154.677	-42.827	-0.020	-0.010
-153.662	-166.243	0.207	-0.009
-152.647	800.000	-0.090	0.332
-151.633	-200.000	0.000	0.089
-150.618	-89.405	-0.174	0.051
-149.604	415.779	0.128	-0.273
-148.589	-9.539	-0.130	0.086
-147.574	538.758	-0.090	-0.215
-146.560	434.779	-0.175	-0.380
-145.545	379.310	0.076	0.156
-144.531	-136.872	0.194	0.022
-143.516	208.898	0.153	-0.240
-142.502	800.000	-0.064	-0.240
-141.487	116.364	0.041	0.050
-140.472	-77.604	-0.114	0.040
-139.458	291.264	-0.128	0.232
-138.443	60.712	0.220	-0.219
-137.429	44.114	-0.061	-0.056
-136.414	-94.224	-0.106	-0.029
-135.399	-49.727	-0.085	-0.041
-134.385	-25.713	-0.187	0.110
-133.370	-72.325	0.137	0.051
-132.356	-200.000	-0.081	0.422
-131.341	626.027	-0.062	0.158
-130.326	-21.424	-0.315	-0.192
-129.312	-200.000	-0.040	-0.251
-128.297	800.000	-0.049	-0.151
-127.283	-44.045	0.192	-0.096
-126.268	-3.397	0.159	-0.110
-125.253	-15.596	0.313	0.200
-124.239	-32.091	-0.114	-0.063
-123.224	79.775	-0.179	0.192
