DTS Sentinel unit serial number:	SN413079Multiplexer serial number:	ORYXHardware model number:	OX4-SRSoftware version number:	ORYX F/W v4.00 Oryx Data Collector v3.7.2.0data status	okinstallation	princeton_trtdifferential loss correction	single-endedforward channel	channel 1reverse channel	N/Adate	2019/09/13time	09:14:35forward acquisition time	60.00reverse acquisition time	0.00gamma	496.2192k internal	0.2325k external	0.2325temperature offset calibration	1.0159default loss term (dB/km)	0.3790temperature slope calibration	1.0000multiplexer offset coefficient	1.0000multiplexer slope coefficient	1.0000fibre end	0.00T internal ref (°C)	28.94T ext. ref 1 (°C)	4.39T ext. ref 2 (°C)	26.32length (m)	temperature (°C)	Stokes	anti-Stokes-747.200	-8.208	-0.248	0.169
-746.185	126.176	0.149	0.191
-745.171	-100.410	0.130	-0.033
-744.156	-200.000	-0.040	0.232
-743.142	800.000	-0.034	-0.152
-742.127	-200.000	0.009	-0.139
-741.112	97.988	0.107	0.124
-740.098	197.080	-0.258	0.396
-739.083	-81.444	0.095	-0.032
-738.069	58.328	-0.168	0.166
-737.054	712.631	-0.043	0.116
-736.039	800.000	-0.074	-0.206
-735.025	47.222	-0.087	0.082
-734.010	17.556	0.055	-0.044
-732.996	381.704	-0.026	-0.054
-731.981	549.499	-0.066	0.160
-730.966	377.308	0.013	-0.027
-729.952	569.553	-0.054	0.132
-728.937	-17.516	-0.311	0.197
-727.923	75.951	-0.283	0.302
-726.908	112.401	0.236	-0.288
-725.894	-87.679	-0.124	-0.038
-724.879	-149.228	-0.325	-0.026
-723.864	-122.290	-0.064	-0.011
-722.850	-7.200	0.152	-0.104
-721.835	-32.949	0.141	0.079
-720.821	345.276	-0.092	-0.182
-719.806	-159.671	-0.035	0.002
-718.791	-112.551	-0.224	-0.045
-717.777	-84.543	0.507	-0.161
-716.762	800.000	0.051	0.224
-715.748	485.085	-0.090	-0.206
-714.733	145.066	0.073	0.098
-713.718	-200.000	-0.021	-0.232
-712.704	-200.000	-0.052	0.236
-711.689	114.449	0.045	-0.055
-710.675	-200.000	-0.020	-0.267
-709.660	11.647	0.098	-0.076
-708.645	-59.868	-0.245	0.106
-707.631	173.384	0.267	-0.387
-706.616	-67.282	0.161	0.064
-705.602	-46.447	-0.180	0.089
-704.587	45.027	0.204	-0.190
-703.572	-28.965	0.251	-0.145
-702.558	-14.617	0.033	-0.022
-701.543	-64.345	-0.122	-0.050
-700.529	-14.499	0.432	0.280
-699.514	489.190	-0.074	0.171
-698.499	-23.177	-0.253	-0.153
-697.485	-200.000	0.020	0.194
-696.470	-200.000	0.053	0.287
-695.456	210.646	-0.054	0.086
-694.441	-50.542	-0.287	0.136
-693.426	-123.017	-0.392	0.063
-692.412	461.519	-0.130	-0.293
-691.397	203.243	0.041	0.064
-690.383	263.480	-0.125	0.219
-689.368	-63.250	0.203	0.084
-688.354	-188.805	-0.198	-0.002
-687.339	-19.632	0.346	0.216
-686.324	8.051	-0.141	-0.106
-685.310	-200.000	-0.015	-0.280
-684.295	-200.000	0.005	-0.216
-683.281	-200.000	-0.013	-0.182
-682.266	800.000	-0.062	-0.226
-681.251	-200.000	0.055	0.276
-680.237	800.000	0.053	-0.152
-679.222	305.627	0.168	-0.315
-678.208	-200.000	-0.025	0.153
-677.193	-125.452	-0.131	-0.020
-676.178	-105.032	-0.282	0.065
-675.164	800.000	-0.050	0.139
-674.149	-93.358	-0.332	0.093
-673.135	54.957	0.086	0.083
-672.120	-70.722	-0.344	-0.131
-671.105	800.000	-0.045	0.129
-670.091	-18.207	0.234	-0.147
-669.076	-48.627	-0.095	0.046
-668.062	-200.000	-0.013	-0.063
-667.047	-200.000	-0.022	0.200
-666.032	94.377	-0.054	0.062
-665.018	-200.000	-0.006	0.125
-664.003	-55.354	0.258	-0.117
-662.989	478.714	0.034	-0.078
-661.974	-166.715	0.041	-0.002
-660.959	-89.708	0.321	-0.095
-659.945	-188.314	0.180	-0.002
-658.930	720.725	0.026	-0.071
-657.916	-114.547	0.381	0.073
-656.901	122.238	0.136	-0.171
-655.886	-75.317	-0.165	0.059
-654.872	-147.945	0.094	0.008
-653.857	559.156	-0.052	0.126
-652.843	-154.832	0.250	-0.017
-651.828	800.000	-0.059	0.164
-650.814	800.000	0.071	-0.224
-649.799	-77.778	0.315	-0.109
-648.784	-200.000	-0.038	-0.482
-647.770	-200.000	-0.016	-0.428
-646.755	-1.711	-0.229	0.162
-645.741	152.597	0.088	-0.120
-644.726	800.000	0.037	-0.105
-643.711	2.471	-0.109	-0.079
-642.697	-28.266	-0.184	0.107
-641.682	-200.000	0.005	0.073
-640.668	-137.788	-0.148	0.017
-639.653	-97.419	0.311	-0.081
-638.638	82.718	0.224	-0.244
-637.624	-3.100	-0.077	-0.054
-636.609	-133.607	-0.098	-0.012
-635.595	536.050	0.203	-0.484
-634.580	42.015	-0.273	-0.249
-633.565	-9.799	-0.099	-0.066
-632.551	46.792	0.184	-0.172
-631.536	-200.000	-0.005	0.308
-630.522	-132.778	0.494	-0.063
-629.507	-85.326	0.315	0.099
-628.492	86.068	0.241	0.267
-627.478	50.402	0.088	0.083
-626.463	-200.000	-0.252	0.000
-625.449	63.409	0.124	0.125
-624.434	153.456	0.149	-0.205
-623.419	134.686	0.014	0.018
-622.405	800.000	0.137	-0.429
-621.390	491.354	-0.112	-0.258
-620.376	132.557	-0.059	-0.077
-619.361	-200.000	-0.005	0.223
-618.346	-167.234	0.208	-0.008
-617.332	139.463	0.085	0.112
-616.317	-200.000	0.031	0.259
-615.303	-59.744	-0.258	-0.111
-614.288	-74.353	-0.056	-0.020
-613.273	-200.000	-0.023	0.227
-612.259	181.876	0.104	-0.153
-611.244	70.049	0.083	0.086
-610.230	2.412	0.019	0.014
-609.215	-43.025	-0.176	-0.089
-608.201	-65.094	-0.402	0.163
-607.186	149.057	0.188	0.255
-606.171	342.060	-0.171	-0.336
-605.157	29.053	0.346	-0.295
-604.142	-200.000	0.017	-0.123
-603.128	800.000	0.114	-0.339
-602.113	115.597	0.063	0.077
-601.098	-53.487	-0.130	0.059
-600.084	461.702	0.020	0.045
-599.069	800.000	0.050	0.204
-598.055	-200.000	0.016	-0.106
-597.040	151.055	-0.191	0.260
-596.025	-200.000	-0.016	0.138
-595.011	-151.566	0.099	0.007
-593.996	-119.183	-0.115	0.020
-592.982	-16.235	0.335	-0.213
-591.967	265.888	0.061	0.107
-590.952	-200.000	-0.033	0.164
-589.938	-96.479	-0.397	-0.105
-588.923	328.417	0.093	-0.180
-587.909	260.279	0.193	-0.334
-586.894	-41.115	0.345	-0.179
-585.879	476.258	-0.016	-0.035
-584.865	-27.241	-0.320	-0.187
-583.850	361.980	-0.106	-0.214
-582.836	-200.000	-0.023	0.550
-581.821	-76.904	-0.217	0.076
-580.806	-84.743	-0.190	0.060
-579.792	2.283	0.200	0.145
-578.777	-121.980	0.148	0.024
-577.763	-200.000	0.002	0.011
-576.748	125.965	-0.171	-0.217
-575.733	561.732	-0.078	0.189
-574.719	74.633	-0.055	0.058
-573.704	800.000	-0.059	-0.253
-572.690	87.085	-0.109	0.121
-571.675	-29.526	0.104	0.059
-570.661	176.810	0.125	0.182
-569.646	-200.000	0.016	0.101
-568.631	788.609	-0.017	-0.046
-567.617	135.980	-0.215	-0.280
-566.602	-200.000	-0.044	0.321
-565.588	366.936	-0.027	-0.055
-564.573	-38.796	0.127	-0.067
-563.558	-29.735	-0.337	-0.193
-562.544	-11.663	0.080	-0.053
-561.529	800.000	0.053	0.224
-560.515	-200.000	-0.048	0.274
-559.500	73.806	0.031	0.033
-558.485	-158.008	-0.346	-0.020
-557.471	267.249	-0.010	-0.018
-556.456	365.062	0.174	0.351
-555.442	-200.000	-0.002	0.068
-554.427	-200.000	-0.002	0.012
-553.412	-200.000	0.059	-0.321
-552.398	-154.058	-0.221	-0.015
-551.383	244.491	0.176	0.296
-550.369	29.060	-0.117	-0.100
-549.354	-96.687	0.169	0.045
-548.339	-200.000	-0.003	-0.149
-547.325	225.027	-0.102	0.165
-546.310	-200.000	-0.007	-0.263
-545.296	-148.353	0.376	0.031
-544.281	-19.481	-0.384	-0.238
-543.266	-105.415	-0.256	0.058
-542.252	226.890	0.086	-0.139
-541.237	43.230	0.233	0.213
-540.223	-35.305	0.167	0.091
-539.208	-98.635	-0.306	-0.078
-538.193	-85.071	0.422	0.132
-537.179	104.457	0.154	0.182
-536.164	82.158	-0.178	-0.193
-535.150	55.469	-0.130	-0.126
-534.135	26.655	0.172	-0.144
-533.121	-200.000	-0.033	-0.153
-532.106	384.639	-0.056	-0.116
-531.091	-200.000	-0.014	-0.253
-530.077	-132.596	0.078	0.010
-529.062	-117.446	0.198	-0.036
-528.048	24.464	-0.066	-0.055
-527.033	496.541	0.124	-0.285
-526.018	-200.000	-0.018	0.218
-525.004	81.579	-0.097	0.105
-523.989	-200.000	0.023	0.216
-522.975	800.000	-0.004	-0.015
-521.960	139.319	-0.173	0.228
-520.945	800.000	0.066	0.222
-519.931	800.000	0.058	0.203
-518.916	44.336	0.117	-0.108
-517.902	78.004	0.044	-0.047
-516.887	-12.656	-0.097	0.063
-515.872	-105.036	0.247	-0.056
-514.858	36.001	0.184	-0.162
-513.843	509.495	-0.074	-0.171
-512.829	449.964	-0.089	0.196
-511.814	398.371	-0.201	0.420
-510.799	-60.902	-0.257	0.109
-509.785	800.000	-0.045	-0.130
-508.770	800.000	-0.141	-0.407
-507.756	-63.836	0.259	0.106
-506.741	-25.401	0.308	-0.182
-505.726	-200.000	-0.001	-0.276
-504.712	-69.846	0.209	0.080
-503.697	-200.000	-0.034	0.181
-502.683	-57.551	0.318	-0.139
-501.668	-132.480	0.247	0.032
-500.653	88.185	-0.198	0.220
-499.639	250.219	-0.196	0.333
-498.624	-120.194	-0.302	-0.052
-497.610	32.656	0.173	0.149
-496.595	-104.655	-0.139	-0.032
-495.581	-160.727	-0.329	-0.017
-494.566	67.157	0.235	-0.239
-493.551	-2.153	0.276	-0.194
-492.537	-75.341	0.136	-0.049
-491.522	-200.000	0.014	0.223
-490.508	-200.000	0.008	0.059
-489.493	-102.738	-0.074	-0.018
-488.478	-60.591	0.262	-0.111
-487.464	800.000	0.066	0.241
-486.449	95.227	0.050	0.057
-485.435	99.217	0.082	-0.094
-484.420	473.632	-0.083	0.186
-483.405	-53.268	0.250	0.115
-482.391	-139.668	0.177	-0.019
-481.376	101.221	-0.175	-0.204
-480.362	497.215	-0.154	0.355
-479.347	162.031	-0.112	-0.157
-478.332	-15.922	-0.168	0.107
-477.318	800.000	0.101	-0.397
-476.303	150.505	0.048	0.065
-475.289	141.541	-0.074	0.098
-474.274	318.975	0.077	-0.147
-473.259	-200.000	0.041	-0.448
-472.245	130.945	0.151	0.194
-471.230	0.699	-0.018	0.013
-470.216	-118.371	-0.197	-0.035
-469.201	400.520	-0.098	0.205
-468.186	216.872	0.013	0.021
-467.172	332.162	0.082	-0.158
-466.157	57.583	0.220	0.214
-465.143	-122.044	-0.176	0.029
-464.128	-104.603	0.533	0.123
-463.113	800.000	0.018	-0.061
-462.099	-151.713	0.386	0.028
-461.084	102.040	0.148	-0.172
-460.070	-121.658	-0.158	-0.026
-459.055	218.372	0.111	0.176
-458.040	-200.000	0.020	0.159
-457.026	-63.472	-0.397	-0.163
-456.011	160.892	-0.015	0.021
-454.997	-35.846	0.411	0.222
-453.982	-137.749	0.449	-0.050
-452.968	-200.000	-0.007	-0.196
-451.953	72.020	-0.197	-0.205
-450.938	-121.953	-0.128	-0.021
-449.924	-96.090	-0.123	0.033
-448.909	-200.000	-0.044	0.297
-447.895	-123.312	0.246	-0.039
-446.880	117.864	0.127	0.156
-445.865	800.000	-0.038	0.115
-444.851	42.542	-0.184	-0.167
-443.836	37.564	0.271	-0.240
-442.822	181.848	-0.117	-0.172
-441.807	-100.633	-0.019	0.005
-440.792	619.226	0.107	0.269
-439.778	-78.276	-0.242	0.083
-438.763	-116.365	-0.210	-0.039
-437.749	800.000	0.028	0.094
-436.734	-32.409	0.205	0.114
-435.719	-107.186	-0.263	-0.058
-434.705	16.092	-0.135	0.106
-433.690	105.457	-0.094	0.111
-432.676	-200.000	-0.086	0.416
-431.661	27.870	-0.177	0.149
-430.646	-200.000	0.033	0.190
-429.632	-34.799	-0.425	0.231
-428.617	-25.090	0.273	0.161
-427.603	-118.568	0.339	-0.060
-426.588	-141.385	0.135	0.014
-425.573	-27.299	0.121	0.070
-424.559	6.854	-0.255	0.189
-423.544	6.059	0.197	0.145
-422.530	-183.673	-0.293	0.005
-421.515	168.502	-0.093	-0.132
-420.500	-104.623	-0.203	0.047
-419.486	-200.000	-0.029	0.280
-418.471	800.000	-0.068	0.207
-417.457	800.000	0.050	-0.172
-416.442	240.655	-0.220	-0.365
-415.428	147.571	-0.115	0.155
-414.413	180.884	0.202	-0.296
-413.398	290.492	-0.154	-0.279
-412.384	-27.434	0.084	-0.048
-411.369	3.182	-0.079	0.057
-410.355	-6.280	-0.256	-0.174
-409.340	314.595	-0.082	0.154
-408.325	-191.208	-0.209	-0.002
-407.311	-44.751	-0.086	-0.043
-406.296	48.783	0.178	0.166
-405.282	-200.000	-0.011	-0.198
-404.267	-200.000	0.020	0.318
-403.252	101.263	0.146	-0.169
-402.238	800.000	-0.063	0.258
-401.223	-200.000	-0.007	-0.170
-400.209	-39.815	0.141	-0.074
-399.194	-16.841	0.158	-0.099
-398.179	-50.461	-0.356	0.167
-397.165	221.261	-0.252	0.402
-396.150	-79.870	-0.278	0.093
-395.136	18.290	-0.326	0.259
-394.121	722.425	0.031	-0.083
-393.106	162.042	-0.207	0.289
-392.092	-130.191	0.334	0.045
-391.077	-200.000	0.009	0.455
-390.063	-86.755	0.092	0.028
-389.048	27.979	0.114	-0.096
-388.033	297.376	-0.083	-0.151
-387.019	-151.427	-0.365	-0.027
-386.004	800.000	0.021	0.077
-384.990	-200.000	0.034	-0.302
-383.975	87.297	0.071	0.078
-382.960	274.035	-0.181	-0.318
-381.946	161.300	-0.085	-0.119
-380.931	-200.000	-0.009	0.076
-379.917	7.423	0.051	-0.038
-378.902	71.700	0.297	-0.307
-377.888	673.652	-0.084	-0.216
-376.873	294.807	0.111	0.201
-375.858	493.470	-0.102	0.233
-374.844	153.996	0.134	0.183
-373.829	800.000	-0.076	-0.309
-372.815	-24.990	-0.152	-0.090
-371.800	-161.552	-0.272	0.014
-370.785	-200.000	0.001	-0.143
-369.771	-105.291	-0.130	-0.029
-368.756	206.392	-0.113	-0.174
-367.742	-200.000	-0.186	0.001
-366.727	10.636	-0.237	-0.180
-365.712	6.068	0.183	-0.135
-364.698	-105.069	-0.199	-0.045
-363.683	-200.000	0.001	0.111
-362.669	-39.401	-0.181	0.094
-361.654	-200.000	-0.048	-0.264
-360.639	14.232	-0.353	0.274
-359.625	169.522	-0.224	0.318
-358.610	168.489	0.118	0.168
-357.596	800.000	0.067	-0.187
-356.581	-60.445	-0.255	-0.108
-355.566	774.523	0.189	0.512
-354.552	19.393	0.104	0.083
-353.537	-200.000	-0.056	0.302
-352.523	-159.547	-0.051	0.003
-351.508	301.333	0.083	-0.152
-350.493	22.088	-0.266	-0.215
-349.479	370.956	-0.066	-0.132
-348.464	-42.572	-0.066	-0.034
-347.450	800.000	-0.014	-0.057
-346.435	-125.246	0.310	-0.047
-345.420	332.243	-0.033	-0.064
-344.406	88.485	-0.150	0.166
-343.391	-122.313	0.056	-0.009
-342.377	800.000	0.100	-0.336
-341.362	-37.441	0.108	0.057
-340.348	-109.108	-0.056	0.012
-339.333	-72.687	0.255	-0.093
-338.318	800.000	-0.149	-0.538
-337.304	15.980	-0.134	-0.104
-336.289	71.386	0.089	-0.092
-335.275	-52.935	-0.279	-0.128
-334.260	46.529	-0.112	0.103
-333.245	-200.000	0.033	-0.238
-332.231	-35.953	0.103	-0.055
-331.216	333.083	-0.129	-0.247
-330.202	-200.000	0.023	-0.258
-329.187	-45.178	0.131	-0.064
-328.172	432.888	-0.125	-0.268
-327.158	-42.786	0.150	-0.076
-326.143	800.000	0.030	0.127
-325.129	-3.188	-0.070	0.049
-324.114	-27.783	0.160	-0.092
-323.099	246.984	-0.075	0.126
-322.085	-71.750	0.398	-0.147
-321.070	-114.411	-0.310	-0.059
-320.056	10.257	0.143	-0.108
-319.041	800.000	0.139	-0.385
-318.026	429.352	-0.051	-0.110
-317.012	27.810	0.171	0.143
-315.997	56.988	0.232	0.224
-314.983	-167.751	-0.176	0.007
-313.968	-55.015	0.518	0.231
-312.953	800.000	-0.033	-0.128
-311.939	53.838	0.084	-0.080
-310.924	-148.133	0.432	0.035
-309.910	244.265	-0.041	0.069
-308.895	-1.376	-0.178	-0.125
-307.880	-200.000	-0.028	-0.169
-306.866	-200.000	0.007	-0.201
-305.851	61.466	-0.014	0.014
-304.837	800.000	-0.036	0.110
-303.822	68.473	0.021	-0.021
-302.807	-0.509	-0.168	0.119
-301.793	-33.198	-0.139	-0.076
-300.778	35.851	-0.063	-0.055
-299.764	141.107	-0.239	-0.313
-298.749	-86.656	0.282	-0.086
-297.735	-45.547	-0.133	0.065
-296.720	228.682	0.151	0.245
-295.705	-88.399	-0.263	-0.078
-294.691	-161.902	0.306	-0.015
-293.676	800.000	0.012	-0.042
-292.662	252.873	0.117	-0.198
-291.647	14.036	-0.323	-0.250
-290.632	23.722	-0.108	-0.088
-289.618	-67.956	0.091	0.035
-288.603	497.554	0.050	-0.114
-287.589	123.140	0.188	0.233
-286.574	346.652	0.081	0.159
-285.559	-96.642	-0.101	0.026
-284.545	800.000	-0.018	0.065
-283.530	40.294	-0.352	0.314
-282.516	800.000	0.042	-0.165
-281.501	38.931	0.058	-0.051
-280.486	-91.517	-0.206	0.058
-279.472	246.307	-0.165	0.276
-278.457	278.322	0.197	0.348
-277.443	800.000	0.134	0.558
-276.428	6.208	0.092	-0.068
-275.413	25.095	0.176	-0.145
-274.399	48.205	0.073	0.067
-273.384	361.107	-0.117	-0.232
-272.370	443.566	0.101	-0.218
-271.355	-15.605	0.174	0.110
-270.340	-64.393	-0.295	-0.119
-269.326	800.000	0.100	0.434
-268.311	-114.506	0.175	0.033
-267.297	58.305	0.024	-0.023
-266.282	-200.000	0.013	0.344
-265.267	800.000	-0.092	-0.348
-264.253	-78.874	-0.392	-0.132
-263.238	800.000	0.082	0.246
-262.224	800.000	-0.073	0.211
-261.209	-42.944	-0.024	0.012
-260.195	37.658	-0.052	0.046
-259.180	231.133	-0.065	0.106
-258.165	59.235	0.241	-0.235
-257.151	-90.204	-0.013	-0.004
-256.136	-166.541	-0.204	0.008
-255.122	-112.373	-0.104	0.021
-254.107	-200.000	0.013	-0.429
-253.092	-77.055	-0.186	0.064
-252.078	-200.000	0.006	0.038
-251.063	75.267	-0.029	-0.030
-250.049	1.298	-0.257	0.183
-249.034	277.767	0.242	0.427
-248.019	132.300	-0.023	-0.029
-247.005	-143.935	0.217	-0.020
-245.990	206.917	-0.050	-0.077
-244.976	106.322	0.110	0.129
-243.961	357.338	0.175	0.345
-242.946	-154.114	-0.117	-0.008
-241.932	540.970	-0.075	-0.177
-240.917	154.209	-0.049	0.066
-239.903	58.221	-0.199	0.193
-238.888	332.740	-0.026	0.050
-237.873	-200.000	0.090	-0.400
-236.859	800.000	0.025	0.072
-235.844	-200.000	-0.012	0.133
-234.830	335.780	0.180	0.345
-233.815	42.984	0.080	-0.073
-232.800	-102.063	0.080	0.019
-231.786	375.398	0.144	0.290
-230.771	-64.498	-0.044	-0.018
-229.757	80.637	0.158	0.169
-228.742	-54.922	0.276	0.123
-227.727	4.382	0.325	-0.236
-226.713	800.000	0.025	-0.090
-225.698	-200.000	-0.003	0.084
-224.684	465.218	-0.177	0.392
-223.669	-67.744	-0.319	0.123
-222.655	15.337	0.237	-0.183
-221.640	-200.000	0.096	0.438
-220.625	-88.520	-0.273	-0.080
-219.611	-158.090	0.219	0.013
-218.596	59.084	0.111	0.108
-217.582	-103.902	-0.259	0.060
-216.567	233.899	0.088	0.143
-215.552	-178.585	0.213	0.005
-214.538	-115.505	-0.172	-0.032
-213.523	-51.733	-0.245	-0.113
-212.509	800.000	-0.043	0.124
-211.494	3.045	-0.165	-0.118
-210.479	-31.413	0.203	0.113
-209.465	-140.134	-0.251	-0.026
-208.450	-8.273	-0.129	0.086
-207.436	-187.211	0.126	-0.002
-206.421	485.699	-0.109	-0.245
-205.406	-181.063	0.371	-0.007
-204.392	-24.249	-0.212	-0.125
-203.377	48.715	-0.173	0.160
-202.363	-102.637	0.455	0.107
-201.348	-113.256	-0.284	-0.055
-200.333	-200.000	0.061	0.368
-199.319	721.703	0.132	-0.346
-198.304	420.076	-0.078	0.164
-197.290	73.099	-0.194	0.200
-196.275	-40.129	0.147	0.076
-195.260	303.393	-0.049	0.090
-194.246	788.508	-0.060	-0.164
-193.231	-200.000	0.006	0.207
-192.217	800.000	0.131	-0.366
-191.202	145.954	0.117	-0.155
-190.187	174.719	-0.072	-0.103
-189.173	-136.789	0.026	0.003
-188.158	273.244	-0.082	0.143
-187.144	-138.552	0.373	0.040
-186.129	18.488	0.066	0.052
-185.114	-154.882	-0.350	0.023
-184.100	-14.846	-0.179	0.113
-183.085	192.938	-0.113	0.168
-182.071	800.000	-0.019	0.066
-181.056	46.205	0.453	-0.414
-180.042	17.081	0.033	0.026
-179.027	-58.926	-0.102	0.044
-178.012	-106.001	0.319	-0.071
-176.998	670.532	0.101	0.258
-175.983	238.707	-0.145	0.238
-174.969	12.261	0.236	-0.180
-173.954	-41.987	0.242	-0.122
-172.939	66.364	-0.245	-0.246
-171.925	343.460	-0.030	0.059
-170.910	-200.000	-0.040	0.247
-169.896	164.441	-0.126	0.176
-168.881	-31.388	-0.338	-0.187
-167.866	300.179	-0.070	0.128
-166.852	-37.195	0.171	0.090
-165.837	213.113	-0.149	-0.232
-164.823	-200.000	-0.037	-0.196
-163.808	-120.852	-0.140	0.023
-162.793	-159.733	0.195	-0.011
-161.779	-113.901	0.163	-0.031
-160.764	800.000	0.038	-0.149
-159.750	-127.726	-0.167	-0.024
-158.735	-124.269	-0.376	0.058
-157.720	-47.363	-0.361	0.173
-156.706	58.877	0.030	-0.029
-155.691	-109.448	0.294	-0.061
-154.677	90.606	0.071	-0.078
-153.662	-8.255	0.266	-0.176
-152.647	710.489	0.097	-0.252
-151.633	139.841	0.241	-0.314
-150.618	-200.000	0.015	-0.100
-149.604	741.099	0.093	0.246
-148.589	128.300	-0.183	-0.230
-147.574	-200.000	-0.048	0.395
-146.560	23.201	-0.112	0.091
-145.545	-200.000	-0.006	0.234
-144.531	25.828	0.051	0.042
-143.516	-57.885	0.365	-0.157
-142.502	-200.000	-0.061	-0.275
-141.487	469.418	-0.087	0.193
-140.472	183.816	0.237	0.345
-139.458	178.733	0.115	0.166
-138.443	-166.992	0.127	-0.005
-137.429	-71.063	0.065	0.024
-136.414	-106.529	0.179	-0.039
-135.399	17.021	-0.333	0.260
-134.385	800.000	0.066	0.185
-133.370	-200.000	0.039	-0.225
-132.356	645.707	0.022	0.055
-131.341	11.236	0.239	0.180
-130.326	-200.000	-0.019	-0.329
-129.312	-200.000	-0.021	0.180
-128.297	-39.345	0.335	0.173
-127.283	20.903	0.098	-0.079
-126.268	-32.347	-0.160	0.088
-125.253	800.000	0.156	0.496
-124.239	-108.579	0.360	-0.076
-123.224	800.000	-0.036	-0.141
-122.210	-104.733	-0.271	-0.062
-121.195	-107.374	0.259	-0.056
