DTS Sentinel unit serial number:	SN413079Multiplexer serial number:	ORYXHardware model number:	OX4-SRSoftware version number:	ORYX F/W v4.00 Oryx Data Collector v3.7.2.0data status	okinstallation	princeton_trtdifferential loss correction	single-endedforward channel	channel 1reverse channel	N/Adate	2019/09/15time	13:22:35forward acquisition time	60.00reverse acquisition time	0.00gamma	496.2192k internal	0.2294k external	0.2294temperature offset calibration	0.9977default loss term (dB/km)	0.3790temperature slope calibration	1.0000multiplexer offset coefficient	1.0000multiplexer slope coefficient	1.0000fibre end	0.00T internal ref (°C)	37.31T ext. ref 1 (°C)	4.93T ext. ref 2 (°C)	34.15length (m)	temperature (°C)	Stokes	anti-Stokes-747.200	-63.584	-0.170	-0.071
-746.185	-92.240	-0.115	0.033
-745.171	-68.435	-0.138	-0.055
-744.156	21.508	-0.259	0.215
-743.142	655.942	-0.040	0.105
-742.127	-123.787	-0.298	0.048
-741.112	-82.542	0.408	0.135
-740.098	-200.000	0.053	0.238
-739.083	-200.000	-0.019	0.204
-738.069	56.003	-0.203	-0.201
-737.054	800.000	0.072	0.277
-736.039	-200.000	0.004	-0.218
-735.025	411.286	0.047	0.103
-734.010	56.117	0.058	-0.057
-732.996	-200.000	-0.002	0.204
-731.981	115.951	-0.047	-0.059
-730.966	-77.067	0.253	-0.090
-729.952	28.235	-0.192	-0.166
-728.937	-92.603	0.077	0.022
-727.923	-11.882	-0.205	0.138
-726.908	-99.864	0.094	0.024
-725.894	33.308	0.083	0.074
-724.879	374.836	0.094	-0.197
-723.864	124.274	-0.071	-0.091
-722.850	-200.000	-0.095	-0.472
-721.835	187.319	0.077	0.117
-720.821	-32.845	0.169	0.096
-719.806	-83.723	0.331	-0.108
-718.791	-11.359	-0.097	-0.065
-717.777	-200.000	-0.022	-0.117
-716.762	-28.001	0.138	-0.082
-715.748	32.410	-0.149	0.132
-714.733	13.091	-0.084	-0.066
-713.718	3.063	-0.286	-0.213
-712.704	-200.000	-0.043	-0.261
-711.689	-79.660	0.254	0.088
-710.675	139.494	-0.100	-0.134
-709.660	446.401	0.152	-0.340
-708.645	-162.778	-0.219	-0.011
-707.631	-78.476	-0.219	-0.077
-706.616	-194.649	0.322	0.003
-705.602	-200.000	-0.038	-0.325
-704.587	-51.665	-0.098	0.047
-703.572	133.332	0.087	0.115
-702.558	16.402	-0.129	-0.104
-701.543	800.000	0.107	-0.308
-700.529	800.000	-0.049	0.163
-699.514	800.000	-0.016	-0.045
-698.499	-75.202	0.476	-0.174
-697.485	190.495	-0.209	-0.320
-696.470	-7.478	0.299	0.207
-695.456	192.006	0.130	0.201
-694.441	-181.471	0.517	0.010
-693.426	226.888	0.113	0.187
-692.412	176.477	0.058	0.086
-691.397	-12.603	0.206	0.137
-690.383	-200.000	-0.008	-0.243
-689.368	-200.000	-0.047	-0.269
-688.354	-81.729	0.169	0.056
-687.339	-88.087	0.252	-0.077
-686.324	-79.600	-0.188	0.065
-685.310	-29.326	-0.215	0.125
-684.295	-3.263	0.278	0.198
-683.281	661.665	-0.097	0.255
-682.266	91.974	-0.161	0.185
-681.251	-20.442	-0.081	-0.051
-680.237	-105.216	-0.148	-0.034
-679.222	216.700	-0.101	-0.164
-678.208	800.000	-0.049	-0.206
-677.193	151.790	-0.173	0.240
-676.178	-75.494	0.179	0.065
-675.164	-200.000	-0.019	-0.202
-674.149	-200.000	0.009	-0.053
-673.135	-129.415	-0.271	0.038
-672.120	-53.641	0.093	0.044
-671.105	-141.409	0.257	0.027
-670.091	-37.092	-0.035	-0.019
-669.076	-200.000	0.007	0.308
-668.062	81.146	-0.116	-0.128
-667.047	-137.713	0.373	0.043
-666.032	-89.608	0.232	0.070
-665.018	78.853	0.082	0.090
-664.003	33.214	0.231	-0.204
-662.989	-200.000	-0.034	-0.357
-661.974	-23.193	0.386	-0.237
-660.959	53.002	0.139	-0.136
-659.945	-114.024	-0.239	-0.047
-658.930	-88.051	-0.331	0.101
-657.916	-52.089	0.094	0.044
-656.901	-46.680	0.180	-0.090
-655.886	771.949	0.240	-0.667
-654.872	-43.966	-0.189	0.097
-653.857	283.341	-0.104	-0.190
-652.843	-200.000	0.008	-0.063
-651.828	-36.505	-0.163	0.089
-650.814	-77.867	-0.097	0.034
-649.799	46.743	-0.328	-0.310
-648.784	9.206	0.192	-0.148
-647.770	12.613	-0.232	-0.182
-646.755	-99.131	-0.071	0.018
-645.741	-65.407	-0.283	-0.116
-644.726	107.007	-0.081	-0.099
-643.711	144.219	0.204	-0.278
-642.697	800.000	-0.098	-0.292
-641.682	800.000	0.030	0.094
-640.668	-200.000	0.051	0.436
-639.653	-157.181	0.066	-0.004
-638.638	-85.459	0.208	-0.066
-637.624	-148.421	-0.207	-0.017
-636.609	130.249	-0.066	-0.086
-635.595	73.451	0.060	-0.064
-634.580	-92.667	0.204	-0.058
-633.565	-168.200	-0.092	-0.004
-632.551	-200.000	-0.062	0.330
-631.536	767.310	-0.035	-0.098
-630.522	800.000	-0.033	-0.102
-629.507	800.000	-0.025	0.102
-628.492	-70.651	0.203	-0.078
-627.478	-147.086	0.178	-0.016
-626.463	-17.597	-0.053	0.034
-625.449	-200.000	-0.050	0.288
-624.434	-166.873	-0.031	0.001
-623.419	51.796	-0.147	0.142
-622.405	211.483	0.140	-0.224
-621.390	-32.653	0.085	-0.048
-620.376	197.399	0.073	0.114
-619.361	-50.157	-0.279	-0.135
-618.346	-59.226	-0.226	-0.099
-617.332	-87.515	-0.177	0.055
-616.317	157.628	-0.208	-0.293
-615.303	-200.000	0.022	0.138
-614.288	800.000	0.068	0.220
-613.273	25.548	-0.111	-0.094
-612.259	59.810	-0.144	-0.144
-611.244	-48.450	0.231	-0.113
-610.230	455.761	-0.082	-0.185
-609.215	184.555	0.081	-0.122
-608.201	648.578	0.025	0.066
-607.186	-63.562	0.115	-0.048
-606.171	-200.000	0.008	0.356
-605.157	-45.755	0.222	0.112
-604.142	75.758	-0.134	0.144
-603.128	362.586	-0.013	0.026
-602.113	-200.000	0.027	-0.193
-601.098	110.684	-0.132	-0.162
-600.084	-38.059	-0.273	-0.147
-599.069	-148.356	0.159	-0.013
-598.055	-167.105	0.062	-0.003
-597.040	-200.000	-0.033	-0.303
-596.025	-200.000	0.023	-0.136
-595.011	-200.000	-0.004	0.081
-593.996	-119.024	0.022	0.004
-592.982	22.910	0.125	-0.104
-591.967	61.695	-0.236	-0.239
-590.952	-200.000	-0.022	0.397
-589.938	-168.815	-0.100	0.004
-588.923	273.794	0.111	-0.200
-587.909	193.389	-0.012	-0.018
-586.894	226.362	-0.060	0.099
-585.879	-136.492	-0.208	0.025
-584.865	-123.555	0.082	-0.013
-583.850	-200.000	-0.078	-0.459
-582.836	-114.779	-0.128	-0.025
-581.821	655.728	-0.080	0.208
-580.806	90.447	-0.242	-0.275
-579.792	-65.183	0.109	0.045
-578.777	-200.000	-0.033	0.196
-577.763	479.982	-0.166	0.384
-576.748	-200.000	-0.006	-0.085
-575.733	427.326	0.056	-0.123
-574.719	-12.364	0.047	-0.031
-573.704	-134.746	-0.119	0.015
-572.690	40.383	0.130	-0.119
-571.675	75.848	0.033	0.036
-570.661	350.136	-0.126	-0.253
-569.646	135.952	0.214	-0.284
-568.631	-96.624	-0.238	0.064
-567.617	-200.000	-0.028	0.178
-566.602	113.887	-0.157	-0.194
-565.588	20.731	-0.052	0.043
-564.573	224.110	0.058	0.095
-563.558	800.000	-0.083	0.307
-562.544	-166.781	-0.179	0.007
-561.529	121.581	0.197	0.249
-560.515	800.000	-0.082	0.335
-559.500	272.292	-0.120	-0.215
-558.485	40.732	-0.153	-0.140
-557.471	-57.396	-0.032	0.014
-556.456	-13.779	-0.187	0.123
-555.442	-106.958	-0.176	0.039
-554.427	800.000	-0.118	0.437
-553.412	13.107	-0.066	-0.052
-552.398	-79.146	-0.175	0.060
-551.383	-112.856	-0.091	0.018
-550.369	141.605	0.044	0.060
-549.354	96.072	0.091	-0.106
-548.339	16.651	-0.368	-0.296
-547.325	-62.320	-0.218	0.092
-546.310	-65.185	-0.287	-0.117
-545.296	-62.393	-0.148	0.063
-544.281	-200.000	-0.004	-0.188
-543.266	-19.667	0.333	-0.209
-542.252	141.946	0.029	0.039
-541.237	-75.523	-0.167	0.060
-540.223	-189.245	0.464	-0.006
-539.208	744.869	0.045	-0.124
-538.193	-109.168	-0.090	-0.019
-537.179	-200.000	0.011	0.091
-536.164	12.866	-0.054	0.042
-535.150	289.210	0.105	-0.194
-534.135	707.646	0.054	0.145
-533.121	-74.362	-0.194	-0.071
-532.106	800.000	0.025	-0.092
-531.091	800.000	-0.070	-0.269
-530.077	-11.920	0.117	0.078
-529.062	-200.000	-0.027	0.145
-528.048	227.772	0.079	-0.131
-527.033	-139.877	0.255	0.027
-526.018	-198.356	0.164	0.001
-525.004	-109.193	0.128	0.028
-523.989	800.000	-0.071	0.296
-522.975	155.781	-0.040	-0.056
-521.960	37.341	-0.116	0.104
-520.945	-200.000	0.043	0.269
-519.931	10.624	-0.189	0.146
-518.916	539.565	-0.044	0.106
-517.902	-120.058	-0.150	-0.026
-516.887	-38.615	-0.257	0.137
-515.872	80.385	-0.146	0.159
-514.858	-75.200	-0.194	-0.070
-513.843	-81.659	0.163	-0.054
-512.829	-86.747	-0.084	0.026
-511.814	-126.637	-0.410	-0.062
-510.799	-128.052	0.192	0.028
-509.785	405.086	0.124	0.265
-508.770	-200.000	-0.033	-0.232
-507.756	123.173	-0.216	-0.274
-506.741	-20.459	-0.240	-0.149
-505.726	-200.000	-0.041	-0.198
-504.712	648.234	-0.072	0.186
-503.697	-200.000	-0.006	-0.421
-502.683	165.140	0.106	-0.152
-501.668	800.000	0.032	-0.135
-500.653	-200.000	-0.016	-0.151
-499.639	-80.216	0.110	0.037
-498.624	-103.010	0.114	-0.027
-497.610	109.256	0.141	0.171
-496.595	101.030	-0.060	0.070
-495.581	-200.000	0.028	0.202
-494.566	-5.350	-0.055	0.038
-493.551	36.446	-0.212	0.189
-492.537	-52.749	-0.123	0.057
-491.522	11.921	0.277	-0.215
-490.508	800.000	0.111	0.372
-489.493	221.989	0.067	0.110
-488.478	800.000	-0.096	-0.352
-487.464	-200.000	0.015	0.082
-486.449	189.167	-0.145	0.220
-485.435	354.996	0.101	0.204
-484.420	2.193	0.476	-0.348
-483.405	-200.000	-0.015	0.089
-482.391	577.972	-0.065	0.161
-481.376	-200.000	-0.018	-0.184
-480.362	-133.999	-0.441	-0.055
-479.347	-200.000	0.031	-0.220
-478.332	-33.437	0.095	-0.053
-477.318	800.000	-0.049	0.176
-476.303	-35.399	-0.210	-0.115
-475.289	2.835	0.138	-0.101
-474.274	184.123	-0.171	-0.256
-473.259	-200.000	-0.026	0.182
-472.245	88.845	-0.269	0.302
-471.230	5.973	-0.165	0.123
-470.216	-56.991	0.105	0.047
-469.201	-90.164	-0.126	0.037
-468.186	-200.000	-0.120	-0.559
-467.172	-78.952	0.268	0.092
-466.157	158.153	-0.105	0.147
-465.143	-11.095	-0.109	0.073
-464.128	466.465	0.134	-0.303
-463.113	350.600	0.090	-0.180
-462.099	146.742	0.037	0.050
-461.084	-200.000	-0.029	-0.209
-460.070	-176.120	0.341	-0.009
-459.055	800.000	0.109	0.410
-458.040	439.702	0.146	0.322
-457.026	21.194	0.324	-0.266
-456.011	800.000	-0.005	0.020
-454.997	-103.014	-0.144	0.035
-453.982	489.170	0.104	0.241
-452.968	800.000	0.013	-0.049
-451.953	-104.402	-0.095	-0.022
-450.938	-91.949	0.126	-0.036
-449.924	277.947	-0.163	0.293
-448.909	-49.078	-0.262	-0.127
-447.895	-174.933	0.302	0.009
-446.880	17.505	-0.234	-0.188
-445.865	-49.144	-0.127	-0.061
-444.851	524.319	0.099	0.235
-443.836	-107.378	-0.434	0.096
-442.822	-121.142	-0.135	0.023
-441.807	198.927	-0.173	-0.267
-440.792	7.192	0.128	0.097
-439.778	-109.275	0.374	0.080
-438.763	-200.000	0.008	-0.161
-437.749	-200.000	0.026	-0.137
-436.734	-51.994	0.207	0.097
-435.719	-143.337	0.374	-0.036
-434.705	320.654	0.029	-0.055
-433.690	-151.587	0.152	0.011
-432.676	-200.000	-0.022	0.155
-431.661	-40.800	0.033	0.017
-430.646	-25.444	0.281	0.168
-429.632	-137.088	-0.052	-0.006
-428.617	800.000	0.018	0.053
-427.603	217.965	0.132	0.212
-426.588	800.000	0.098	0.344
-425.573	-200.000	-0.005	-0.219
-424.559	82.105	0.141	-0.154
-423.544	42.453	-0.082	0.076
-422.530	18.293	-0.221	0.178
-421.515	800.000	0.085	0.273
-420.500	-164.658	-0.297	0.014
-419.486	-77.238	-0.174	-0.061
-418.471	-52.854	0.360	0.167
-417.457	258.209	0.170	0.296
-416.442	800.000	-0.056	-0.158
-415.428	34.708	0.256	-0.226
-414.413	-33.609	-0.316	0.176
-413.398	33.865	0.068	0.060
-412.384	246.808	0.130	-0.221
-411.369	60.879	0.164	0.164
-410.355	692.402	-0.077	0.203
-409.340	800.000	0.026	0.101
-408.325	7.493	0.239	0.180
-407.311	94.960	-0.203	-0.233
-406.296	119.395	-0.057	-0.071
-405.282	800.000	0.044	0.163
-404.267	-100.191	-0.454	0.114
-403.252	800.000	-0.072	0.222
-402.238	-118.743	-0.269	0.048
-401.223	667.615	0.081	0.212
-400.209	70.922	0.278	0.290
-399.194	-110.300	0.101	-0.021
-398.179	-200.000	-0.041	0.242
-397.165	65.921	0.020	-0.020
-396.150	-200.000	-0.005	0.097
-395.136	410.419	0.130	-0.278
-394.121	285.290	0.268	-0.487
-393.106	-106.728	-0.247	0.055
-392.092	52.657	0.062	-0.059
-391.077	-200.000	0.032	-0.228
-390.063	-56.677	0.398	0.178
-389.048	-25.626	-0.078	-0.047
-388.033	-59.175	0.430	0.187
-387.019	-200.000	-0.026	-0.213
-386.004	-200.000	-0.003	0.039
-384.990	800.000	0.033	-0.129
-383.975	-155.146	0.163	-0.011
-382.960	-113.417	-0.334	0.066
-381.946	-92.387	-0.100	0.028
-380.931	-118.655	-0.104	0.019
-379.917	-200.000	0.000	0.213
-378.902	800.000	-0.092	0.341
-377.888	105.318	0.322	-0.384
-376.873	800.000	0.109	0.311
-375.858	73.218	0.049	-0.052
-374.844	-68.130	0.140	0.055
-373.829	800.000	0.070	-0.255
-372.815	-200.000	-0.060	0.304
-371.800	800.000	-0.102	0.414
-370.785	152.353	-0.047	-0.064
-369.771	-200.000	0.057	-0.445
-368.756	537.532	0.080	-0.191
-367.742	-200.000	-0.018	0.098
-366.727	800.000	0.020	-0.081
-365.712	573.685	-0.078	0.191
-364.698	103.441	-0.299	0.353
-363.683	-200.000	-0.017	0.131
-362.669	551.906	0.069	-0.166
-361.654	-200.000	-0.013	0.095
-360.639	267.930	0.140	0.246
-359.625	-200.000	-0.005	-0.212
-358.610	37.045	-0.034	-0.030
-357.596	-117.055	-0.210	-0.039
-356.581	315.308	0.065	-0.124
-355.566	100.517	-0.045	0.052
-354.552	52.222	-0.023	0.022
-353.537	125.788	-0.195	0.248
-352.523	162.875	0.271	0.383
-351.508	67.763	0.261	0.268
-350.493	26.877	0.126	0.107
-349.479	-131.786	0.379	0.050
-348.464	-11.251	-0.173	-0.115
-347.450	0.446	0.244	-0.175
-346.435	-200.000	-0.036	0.172
-345.420	-36.631	0.094	-0.051
-344.406	-145.199	-0.254	-0.023
-343.391	-72.211	-0.135	0.050
-342.377	8.244	-0.250	0.189
-341.362	-146.414	-0.094	0.008
-340.348	90.360	-0.029	-0.032
-339.333	800.000	0.068	-0.201
-338.318	-124.886	-0.144	-0.022
-337.304	156.186	-0.179	0.249
-336.289	494.350	0.052	0.120
-335.275	193.652	-0.303	-0.461
-334.260	800.000	0.163	-0.507
-333.245	-112.746	-0.187	0.037
-332.231	-200.000	0.031	0.192
-331.216	800.000	-0.076	0.263
-330.202	650.906	0.184	0.473
-329.187	377.724	-0.087	-0.180
-328.172	800.000	-0.058	-0.195
-327.158	800.000	-0.054	-0.177
-326.143	181.693	-0.078	-0.116
-325.129	142.126	-0.144	-0.192
-324.114	236.817	-0.112	0.187
-323.099	-200.000	-0.011	0.118
-322.085	656.066	-0.039	0.100
-321.070	-88.127	0.302	0.091
-320.056	-200.000	0.012	-0.062
-319.041	591.483	0.051	-0.128
-318.026	282.780	-0.022	0.040
-317.012	288.631	-0.110	0.201
-315.997	-200.000	-0.025	-0.317
-314.983	800.000	-0.087	0.304
-313.968	549.795	-0.042	-0.101
-312.953	159.743	-0.122	0.171
-311.939	800.000	0.032	0.108
-310.924	-20.111	0.368	0.228
-309.910	54.794	0.110	-0.106
-308.895	-105.773	0.075	0.017
-307.880	391.635	0.062	-0.129
-306.866	800.000	0.049	0.151
-305.851	94.656	0.183	0.209
-304.837	-91.249	0.377	0.109
-303.822	9.214	0.171	-0.130
-302.807	212.045	-0.074	-0.117
-301.793	110.001	-0.243	-0.294
-300.778	129.560	0.044	-0.057
-299.764	719.208	0.049	-0.130
-298.749	55.967	-0.108	0.105
-297.735	372.084	-0.099	-0.203
-296.720	-113.839	-0.186	0.036
-295.705	90.035	-0.131	0.147
-294.691	800.000	-0.028	-0.118
-293.676	19.649	0.117	0.094
-292.662	800.000	-0.081	-0.258
-291.647	-77.708	0.130	-0.045
-290.632	10.542	-0.099	-0.076
-289.618	-45.962	-0.616	0.305
-288.603	103.802	0.106	0.125
-287.589	55.393	0.186	-0.181
-286.574	-100.521	-0.065	0.016
-285.559	-112.875	0.179	0.036
-284.545	-106.349	0.118	-0.026
-283.530	137.263	0.030	-0.039
-282.516	-120.104	0.259	-0.045
-281.501	477.575	0.049	0.111
-280.486	131.437	0.128	-0.165
-279.472	-116.087	-0.076	-0.014
-278.457	149.874	-0.094	-0.128
-277.443	-6.413	0.287	-0.197
-276.428	323.582	-0.105	-0.200
-275.413	178.516	0.152	0.222
-274.399	-200.000	-0.044	-0.216
-273.384	175.378	0.078	0.114
-272.370	-200.000	0.037	-0.188
-271.355	-26.378	-0.170	0.100
-270.340	292.584	0.030	-0.055
-269.326	430.937	0.061	0.132
-268.311	-93.022	0.142	-0.040
-267.297	-17.935	0.274	0.172
-266.282	-73.587	0.074	-0.027
-265.267	-133.131	0.296	0.038
-264.253	31.956	-0.140	-0.121
-263.238	419.197	0.169	0.363
-262.224	224.686	-0.073	0.118
-261.209	-200.000	-0.004	-0.215
-260.195	-200.000	-0.005	-0.115
-259.180	-200.000	-0.018	0.231
-258.165	-200.000	-0.020	0.159
-257.151	13.103	0.232	0.180
-256.136	-39.219	0.168	0.088
-255.122	652.215	0.058	-0.148
-254.107	-200.000	-0.138	-0.000
-253.092	-96.347	-0.305	0.081
-252.078	118.819	0.122	0.151
-251.063	480.585	0.018	-0.042
-250.049	800.000	0.056	0.187
-249.034	172.412	0.151	0.217
-248.019	-200.000	-0.034	0.394
-247.005	-200.000	0.027	-0.403
-245.990	645.311	-0.046	0.118
-244.976	37.440	-0.210	0.186
-243.961	-111.026	0.239	0.049
-242.946	-152.428	0.232	0.017
-241.932	556.972	0.072	-0.175
-240.917	-200.000	0.024	-0.124
-239.903	-186.447	0.242	0.003
-238.888	16.113	-0.086	0.068
-237.873	-124.579	-0.182	0.028
-236.859	-100.810	0.177	0.044
-235.844	800.000	0.019	0.054
-234.830	7.495	0.198	0.148
-233.815	-126.384	-0.373	-0.056
-232.800	-200.000	0.009	-0.268
-231.786	-200.000	-0.045	-0.418
-230.771	-5.636	0.252	0.173
-229.757	-20.361	0.289	-0.178
-228.742	-125.549	0.405	0.062
-227.727	25.096	0.201	0.168
-226.713	58.397	0.128	0.125
-225.698	-136.968	0.240	-0.028
-224.684	-200.000	0.009	-0.086
-223.669	-200.000	0.012	0.122
-222.655	-200.000	-0.009	-0.095
-221.640	800.000	-0.077	-0.314
-220.625	659.990	-0.103	-0.266
-219.611	-200.000	-0.017	0.105
-218.596	-140.732	-0.250	0.026
-217.582	-11.602	0.216	0.143
-216.567	-41.561	-0.341	-0.176
-215.552	296.434	-0.060	0.111
-214.538	-200.000	0.037	-0.223
-213.523	-200.000	-0.017	-0.100
-212.509	225.965	-0.118	-0.192
-211.494	-53.498	-0.174	-0.080
-210.479	157.177	0.179	-0.248
-209.465	800.000	0.039	-0.126
-208.450	-200.000	-0.026	-0.212
-207.436	-200.000	0.012	0.094
-206.421	-200.000	0.009	0.156
-205.406	127.874	0.163	-0.208
-204.392	520.437	0.029	-0.069
-203.377	-48.547	0.116	0.056
-202.363	251.297	0.230	-0.392
-201.348	-110.210	-0.259	-0.054
-200.333	-100.323	0.343	0.085
-199.319	800.000	0.069	-0.243
-198.304	286.615	-0.022	0.040
-197.290	50.102	-0.238	-0.224
-196.275	59.482	0.078	-0.077
-195.260	161.560	-0.231	0.323
-194.246	83.618	-0.138	0.150
-193.231	-200.000	-0.001	0.417
-192.217	108.622	0.095	0.114
-191.202	-200.000	0.002	0.134
-190.187	-80.832	-0.304	0.101
-189.173	179.687	0.224	-0.328
-188.158	-183.462	-0.100	0.002
-187.144	58.791	0.163	0.160
-186.129	389.823	-0.082	0.170
-185.114	633.547	-0.069	-0.174
-184.100	118.321	0.286	-0.353
-183.085	-53.867	-0.214	-0.098
-182.071	1.586	-0.162	-0.116
-181.056	-86.078	-0.160	-0.049
-180.042	-200.000	-0.018	0.119
-179.027	-128.330	0.253	0.036
-178.012	-200.000	-0.039	-0.172
-176.998	-110.872	0.145	-0.030
-175.983	-103.295	0.123	-0.029
-174.969	800.000	-0.076	-0.231
-173.954	-175.931	0.063	-0.002
-172.939	-30.581	0.196	0.111
-171.925	-59.990	-0.377	-0.161
-170.910	800.000	-0.071	-0.288
-169.896	-146.138	0.259	0.023
-168.881	-154.221	0.155	-0.010
-167.866	617.091	-0.065	-0.162
-166.852	-200.000	-0.035	-0.242
-165.837	-200.000	-0.018	0.138
-164.823	-118.605	0.081	-0.014
-163.808	-13.878	0.245	0.158
-162.793	800.000	0.042	0.140
-161.779	-69.707	0.320	-0.122
-160.764	142.696	0.154	-0.205
-159.750	-61.081	-0.240	0.101
-158.735	-15.923	-0.177	0.113
-157.720	490.826	-0.047	0.109
-156.706	-200.000	0.022	-0.099
-155.691	-188.141	-0.090	0.001
-154.677	-200.000	0.006	0.152
-153.662	-200.000	0.016	0.120
-152.647	-0.191	-0.176	0.125
-151.633	-23.215	-0.234	-0.141
-150.618	312.398	0.051	-0.096
-149.604	-32.964	0.173	-0.096
-148.589	102.386	0.046	0.053
-147.574	-200.000	-0.020	-0.099
-146.560	-88.902	0.348	-0.103
-145.545	35.875	0.151	-0.132
-144.531	800.000	-0.116	0.324
-143.516	-200.000	0.001	-0.028
-142.502	-20.988	0.083	-0.051
-141.487	213.290	-0.043	0.067
-140.472	-100.675	0.383	0.094
-139.458	88.187	0.033	-0.037
-138.443	142.442	-0.044	0.059
-137.429	800.000	-0.065	0.265
-136.414	-152.447	0.512	0.037
-135.399	-92.011	-0.324	0.092
-134.385	45.869	0.279	0.257
-133.370	-58.550	0.211	0.092
-132.356	-91.651	0.189	0.054
-131.341	584.203	0.096	-0.236
-130.326	-196.507	0.318	0.002
-129.312	24.190	0.401	0.331
-128.297	185.733	0.063	0.094
-127.283	-169.097	-0.059	0.002
-126.268	15.013	0.201	-0.157
-125.253	-27.941	0.129	-0.075
-124.239	187.724	-0.088	0.132
-123.224	-200.000	-0.048	-0.231
-122.210	104.699	0.140	0.164
-121.195	250.048	0.250	-0.423
