DTS Sentinel unit serial number:	SN413079Multiplexer serial number:	ORYXHardware model number:	OX4-SRSoftware version number:	ORYX F/W v4.00 Oryx Data Collector v3.7.2.0data status	okinstallation	princeton_trtdifferential loss correction	single-endedforward channel	channel 1reverse channel	N/Adate	2019/09/16time	10:54:35forward acquisition time	60.00reverse acquisition time	0.00gamma	496.2192k internal	0.2300k external	0.2300temperature offset calibration	0.9965default loss term (dB/km)	0.3790temperature slope calibration	1.0000multiplexer offset coefficient	1.0000multiplexer slope coefficient	1.0000fibre end	0.00T internal ref (°C)	36.55T ext. ref 1 (°C)	12.72T ext. ref 2 (°C)	34.29length (m)	temperature (°C)	Stokes	anti-Stokes-747.200	-28.878	0.264	-0.155
-746.185	800.000	0.066	0.246
-745.171	342.774	0.039	-0.079
-744.156	-37.446	0.058	0.032
-743.142	41.449	0.267	-0.246
-742.127	-200.000	-0.005	-0.089
-741.112	-75.365	-0.349	-0.127
-740.098	247.180	-0.146	0.252
-739.083	-66.837	0.176	-0.071
-738.069	-44.331	-0.256	0.131
-737.054	148.367	0.124	0.170
-736.039	-200.000	0.024	0.389
-735.025	32.892	0.344	0.304
-734.010	13.944	-0.256	-0.203
-732.996	462.518	0.050	-0.114
-731.981	-54.413	0.185	0.085
-730.966	93.207	0.142	-0.164
-729.952	57.726	-0.146	-0.145
-728.937	107.329	-0.281	0.341
-727.923	-200.000	0.007	0.044
-726.908	800.000	0.046	0.129
-725.894	23.523	-0.092	-0.077
-724.879	4.499	-0.147	-0.110
-723.864	10.158	-0.156	-0.121
-722.850	-30.890	0.076	-0.044
-721.835	-200.000	-0.014	-0.212
-720.821	338.018	-0.135	0.267
-719.806	71.861	-0.072	-0.076
-718.791	-81.405	0.180	-0.060
-717.777	172.736	0.150	-0.220
-716.762	497.830	0.030	-0.070
-715.748	97.361	0.167	-0.195
-714.733	65.598	-0.191	-0.197
-713.718	115.466	0.084	0.105
-712.704	645.677	0.126	-0.328
-711.689	-1.127	-0.082	-0.059
-710.675	340.842	0.105	-0.210
-709.660	-49.193	-0.166	-0.081
-708.645	46.754	0.131	-0.124
-707.631	800.000	-0.034	-0.100
-706.616	-87.355	-0.188	0.058
-705.602	143.784	0.137	0.186
-704.587	211.107	-0.019	-0.030
-703.572	391.694	0.131	0.278
-702.558	800.000	0.012	-0.052
-701.543	177.783	-0.162	0.240
-700.529	-200.000	0.059	0.359
-699.514	59.804	-0.056	-0.056
-698.499	272.677	0.023	-0.042
-697.485	-94.982	-0.383	0.106
-696.470	45.172	0.144	-0.135
-695.456	-30.426	-0.169	0.098
-694.441	800.000	-0.043	-0.123
-693.426	511.457	-0.111	-0.263
-692.412	-61.136	0.020	-0.009
-691.397	800.000	0.044	-0.157
-690.383	-44.091	-0.359	-0.183
-689.368	185.705	-0.178	0.269
-688.354	232.390	-0.291	0.486
-687.339	3.616	-0.096	0.072
-686.324	-51.196	0.271	0.129
-685.310	-91.300	-0.239	0.069
-684.295	558.223	-0.083	0.204
-683.281	-96.613	0.065	0.017
-682.266	-22.979	0.197	0.121
-681.251	120.650	0.081	0.102
-680.237	-22.079	-0.129	-0.080
-679.222	-200.000	0.054	0.248
-678.208	-68.411	-0.220	0.087
-677.193	22.403	-0.166	-0.138
-676.178	800.000	-0.073	-0.319
-675.164	-124.206	-0.280	0.045
-674.149	104.479	0.082	-0.098
-673.135	-110.102	-0.124	-0.026
-672.120	-92.862	0.140	-0.040
-671.105	187.712	0.147	0.223
-670.091	590.965	0.124	0.311
-669.076	-148.383	-0.369	-0.031
-668.062	-64.615	0.055	-0.022
-667.047	-58.834	-0.063	0.028
-666.032	-24.864	0.275	-0.166
-665.018	800.000	0.053	-0.175
-664.003	38.513	0.163	0.148
-662.989	800.000	0.036	0.150
-661.974	-33.052	0.159	-0.090
-660.959	424.434	-0.117	-0.256
-659.945	122.702	-0.219	-0.278
-658.930	51.591	0.193	0.187
-657.916	219.713	0.070	-0.113
-656.901	-4.105	-0.323	0.228
-655.886	-121.671	0.273	-0.046
-654.872	800.000	-0.035	0.141
-653.857	-182.125	0.261	0.005
-652.843	-96.295	-0.072	0.019
-651.828	-200.000	0.274	0.001
-650.814	-45.348	0.317	-0.160
-649.799	-200.000	0.002	0.017
-648.784	-125.148	-0.165	-0.026
-647.770	-0.307	0.060	-0.043
-646.755	83.894	0.345	0.383
-645.741	12.624	-0.056	-0.044
-644.726	267.158	0.065	0.115
-643.711	-180.118	0.266	-0.006
-642.697	-72.526	0.385	-0.144
-641.682	-74.378	0.234	0.086
-640.668	229.824	-0.257	-0.426
-639.653	-171.048	-0.287	0.010
-638.638	-200.000	0.066	-0.316
-637.624	-165.403	0.326	0.014
-636.609	-191.119	0.219	0.002
-635.595	-96.545	0.303	-0.081
-634.580	-36.326	-0.083	0.046
-633.565	-12.019	0.244	0.163
-632.551	-13.301	-0.344	0.227
-631.536	800.000	-0.041	0.156
-630.522	25.504	0.143	0.121
-629.507	-58.101	-0.118	0.052
-628.492	61.070	-0.185	0.187
-627.478	79.094	-0.244	0.266
-626.463	-69.986	0.184	-0.071
-625.449	800.000	-0.107	0.304
-624.434	-200.000	-0.013	0.123
-623.419	44.785	-0.156	0.145
-622.405	-149.347	-0.119	-0.010
-621.390	142.448	0.128	-0.172
-620.376	-102.769	-0.328	-0.079
-619.361	800.000	-0.008	-0.027
-618.346	-38.298	0.274	0.147
-617.332	-2.983	0.197	-0.139
-616.317	36.280	0.063	-0.056
-615.303	-70.957	-0.441	0.168
-614.288	728.242	0.049	0.133
-613.273	0.742	0.162	0.118
-612.259	800.000	0.053	0.161
-611.244	-200.000	-0.001	-0.214
-610.230	-200.000	0.033	-0.414
-609.215	-200.000	0.037	-0.236
-608.201	-154.017	0.188	-0.013
-607.186	-200.000	0.015	0.135
-606.171	-137.817	-0.076	0.009
-605.157	-65.270	0.239	-0.098
-604.142	-48.385	0.212	0.103
-603.128	401.502	0.039	0.083
-602.113	-87.560	0.161	-0.049
-601.098	156.199	-0.152	-0.212
-600.084	-200.000	-0.028	0.310
-599.069	95.414	-0.167	0.193
-598.055	-74.044	-0.060	0.022
-597.040	-72.221	-0.330	0.124
-596.025	111.040	0.202	-0.246
-595.011	-111.009	0.276	0.058
-593.996	-76.632	0.065	-0.023
-592.982	-42.703	-0.171	0.088
-591.967	-200.000	0.012	0.058
-590.952	394.837	-0.240	-0.507
-589.938	163.760	0.032	0.046
-588.923	-85.247	-0.183	-0.058
-587.909	526.270	-0.163	0.388
-586.894	490.109	-0.089	0.206
-585.879	197.942	-0.167	-0.259
-584.865	43.483	0.240	-0.222
-583.850	258.871	0.045	-0.078
-582.836	153.160	-0.099	0.137
-581.821	-126.992	0.196	0.029
-580.806	59.814	0.117	-0.117
-579.792	-129.019	0.356	0.051
-578.777	564.384	0.101	-0.247
-577.763	-164.772	-0.246	-0.011
-576.748	-28.093	0.189	0.111
-575.733	214.302	-0.219	-0.351
-574.719	-200.000	-0.038	-0.210
-573.704	-127.201	0.162	-0.024
-572.690	-200.000	0.211	0.000
-571.675	-102.607	-0.089	-0.022
-570.661	800.000	-0.038	-0.138
-569.646	68.913	-0.040	0.041
-568.631	103.656	0.076	-0.091
-567.617	-200.000	-0.032	0.285
-566.602	-165.738	-0.338	0.015
-565.588	800.000	-0.007	0.020
-564.573	-173.728	-0.175	-0.005
-563.558	-39.412	-0.257	0.136
-562.544	9.446	-0.231	-0.177
-561.529	656.152	0.027	0.069
-560.515	18.713	0.232	-0.188
-559.500	800.000	-0.102	0.298
-558.485	114.112	0.185	-0.228
-557.471	-14.199	0.062	0.040
-556.456	288.951	-0.105	0.193
-555.442	-200.000	0.029	0.252
-554.427	180.418	0.159	0.236
-553.412	-13.515	-0.124	-0.081
-552.398	-107.820	-0.244	-0.054
-551.383	-32.651	-0.284	0.160
-550.369	6.890	-0.146	-0.110
-549.354	-122.554	0.132	-0.022
-548.339	-200.000	0.015	0.093
-547.325	1.410	-0.183	0.133
-546.310	-200.000	-0.053	-0.272
-545.296	13.018	-0.129	-0.101
-544.281	-200.000	0.183	0.000
-543.266	8.768	0.129	-0.099
-542.252	186.980	0.126	-0.189
-541.237	800.000	-0.028	0.113
-540.223	-28.862	-0.133	-0.077
-539.208	586.023	-0.200	-0.498
-538.193	-8.586	-0.183	0.124
-537.179	-27.827	-0.299	0.175
-536.164	-23.703	-0.197	-0.119
-535.150	-103.522	-0.135	-0.032
-534.135	61.935	-0.050	0.051
-533.121	-79.179	-0.149	0.051
-532.106	-172.356	0.256	-0.008
-531.091	55.191	-0.041	0.040
-530.077	-105.705	-0.266	-0.061
-529.062	-35.266	0.231	-0.127
-528.048	396.649	-0.139	-0.293
-527.033	525.305	0.028	0.066
-526.018	-200.000	0.002	-0.145
-525.004	-72.003	-0.079	0.030
-523.989	341.879	-0.091	0.181
-522.975	-66.464	-0.255	-0.103
-521.960	-200.000	-0.000	0.128
-520.945	28.926	-0.034	-0.029
-519.931	-52.865	0.457	-0.213
-518.916	-162.798	0.411	0.020
-517.902	800.000	0.125	-0.370
-516.887	800.000	-0.058	-0.179
-515.872	521.940	-0.059	0.140
-514.858	635.231	0.029	-0.075
-513.843	-200.000	0.041	0.195
-512.829	-200.000	0.005	-0.040
-511.814	800.000	-0.020	0.060
-510.799	-127.201	0.220	0.032
-509.785	-131.090	-0.176	0.024
-508.770	-35.359	-0.110	0.061
-507.756	16.920	-0.188	0.150
-506.741	800.000	-0.047	-0.151
-505.726	20.293	0.205	-0.167
-504.712	233.573	-0.098	0.163
-503.697	-185.613	0.170	-0.003
-502.683	64.958	0.104	-0.107
-501.668	-91.819	-0.177	0.051
-500.653	800.000	0.026	0.092
-499.639	270.745	0.163	-0.290
-498.624	-79.772	0.199	0.068
-497.610	-93.343	0.294	0.082
-496.595	50.770	0.112	0.107
-495.581	236.412	0.060	-0.101
-494.566	800.000	0.007	0.030
-493.551	3.440	-0.161	-0.118
-492.537	800.000	-0.124	-0.481
-491.522	188.387	0.064	0.096
-490.508	-74.191	0.107	-0.039
-489.493	90.421	0.096	-0.109
-488.478	-200.000	0.032	-0.152
-487.464	274.890	0.169	-0.302
-486.449	-9.536	-0.338	0.228
-485.435	-200.000	-0.013	0.085
-484.420	16.665	-0.087	-0.069
-483.405	376.540	-0.078	-0.160
-482.391	3.628	0.112	0.083
-481.376	-112.730	-0.141	0.028
-480.362	688.528	-0.062	-0.165
-479.347	395.488	-0.152	-0.320
-478.332	52.275	0.178	-0.171
-477.318	-187.039	-0.048	0.001
-476.303	342.022	0.086	-0.169
-475.289	127.419	-0.158	-0.203
-474.274	-90.186	-0.200	0.059
-473.259	118.713	-0.079	0.099
-472.245	113.696	-0.173	0.213
-471.230	-200.000	0.016	-0.192
-470.216	-200.000	-0.019	0.107
-469.201	760.285	0.033	-0.089
-468.186	-200.000	-0.051	0.422
-467.172	-77.025	0.133	0.047
-466.157	306.620	0.089	-0.167
-465.143	254.585	-0.039	-0.067
-464.128	533.502	0.147	0.352
-463.113	-51.418	0.276	0.130
-462.099	62.066	0.263	-0.265
-461.084	101.352	-0.301	-0.353
-460.070	-137.621	-0.307	0.035
-459.055	340.457	-0.057	-0.113
-458.040	-24.071	-0.117	-0.071
-457.026	-40.346	0.125	-0.065
-456.011	340.977	0.167	0.328
-454.997	116.942	-0.041	0.051
-453.982	282.267	0.079	-0.143
-452.968	743.085	-0.090	-0.244
-451.953	387.960	-0.099	0.207
-450.938	-37.107	0.245	0.132
-449.924	7.846	0.197	-0.149
-448.909	203.365	0.101	0.158
-447.895	-200.000	-0.073	0.396
-446.880	48.252	0.221	0.209
-445.865	800.000	-0.101	0.401
-444.851	16.940	-0.358	-0.285
-443.836	800.000	-0.206	-0.588
-442.822	-200.000	0.011	-0.245
-441.807	-200.000	-0.055	0.347
-440.792	148.690	0.069	0.094
-439.778	206.730	0.046	-0.072
-438.763	129.597	-0.138	0.178
-437.749	359.265	-0.062	0.126
-436.734	-115.991	-0.251	0.047
-435.719	-136.792	-0.039	0.005
-434.705	800.000	0.065	-0.268
-433.690	58.854	0.166	-0.165
-432.676	88.723	0.037	0.042
-431.661	-72.804	0.231	-0.086
-430.646	-39.317	-0.117	0.062
-429.632	140.943	-0.062	-0.082
-428.617	-158.516	-0.149	-0.009
-427.603	-117.981	0.271	-0.049
-426.588	-84.669	-0.291	-0.092
-425.573	59.164	-0.141	-0.140
-424.559	-67.672	-0.108	-0.042
-423.544	-4.488	-0.157	0.110
-422.530	88.018	0.110	-0.122
-421.515	-13.740	0.108	-0.070
-420.500	-84.255	-0.236	-0.075
-419.486	14.304	-0.164	-0.129
-418.471	-191.300	-0.152	0.002
-417.457	424.415	0.064	0.139
-416.442	-200.000	0.010	0.135
-415.428	-133.850	0.257	0.032
-414.413	76.344	-0.093	-0.099
-413.398	28.990	-0.467	0.399
-412.384	-92.174	-0.344	-0.098
-411.369	323.096	0.094	-0.180
-410.355	-125.037	-0.248	-0.038
-409.340	377.551	-0.135	0.278
-408.325	-200.000	0.063	0.299
-407.311	-54.912	-0.151	0.069
-406.296	115.499	0.195	0.240
-405.282	155.626	0.226	-0.314
-404.267	-110.384	0.115	-0.024
-403.252	598.867	-0.079	-0.197
-402.238	84.139	0.324	-0.357
-401.223	-36.163	0.274	-0.149
-400.209	109.246	-0.203	0.244
-399.194	-200.000	0.003	0.238
-398.179	-134.552	0.155	0.019
-397.165	-12.151	0.177	-0.117
-396.150	-200.000	-0.009	0.273
-395.136	800.000	-0.061	-0.183
-394.121	-2.505	0.194	-0.137
-393.106	37.313	-0.182	-0.162
-392.092	683.465	0.063	0.166
-391.077	-63.339	0.095	-0.039
-390.063	-88.615	0.061	0.018
-389.048	41.879	-0.141	0.128
-388.033	-48.939	-0.159	0.077
-387.019	-35.217	0.209	0.114
-386.004	79.538	0.234	-0.252
-384.990	-149.634	-0.271	0.021
-383.975	-143.995	0.332	0.031
-382.960	87.621	-0.286	-0.319
-381.946	-200.000	0.004	0.046
-380.931	-112.266	-0.106	0.021
-379.917	-1.193	-0.365	0.259
-378.902	612.076	-0.014	-0.034
-377.888	800.000	-0.088	0.383
-376.873	800.000	0.113	0.342
-375.858	178.192	-0.145	0.213
-374.844	-151.988	-0.256	-0.019
-373.829	83.426	0.033	0.036
-372.815	-61.252	0.207	0.088
-371.800	-96.830	0.121	-0.032
-370.785	-59.189	0.394	0.170
-369.771	-60.485	0.162	0.069
-368.756	800.000	-0.045	-0.193
-367.742	-142.272	-0.149	0.015
-366.727	-77.784	0.160	0.056
-365.712	-137.118	-0.140	-0.016
-364.698	-136.638	-0.137	-0.016
-363.683	-36.639	-0.030	-0.016
-362.669	94.346	-0.375	-0.428
-361.654	800.000	0.052	0.151
-360.639	-21.886	0.119	-0.073
-359.625	-83.696	0.238	0.076
-358.610	118.371	-0.039	-0.048
-357.596	-200.000	0.032	0.220
-356.581	-66.028	0.061	-0.024
-355.566	-200.000	-0.023	-0.157
-354.552	-38.304	0.064	-0.034
-353.537	-200.000	-0.051	-0.328
-352.523	37.660	-0.124	0.110
-351.508	-200.000	0.021	0.139
-350.493	-176.394	-0.106	-0.003
-349.479	428.934	-0.253	0.549
-348.464	800.000	-0.042	-0.153
-347.450	-30.280	0.038	0.022
-346.435	77.964	0.177	-0.190
-345.420	-153.126	-0.187	-0.013
-344.406	-200.000	0.020	-0.195
-343.391	121.663	0.239	0.299
-342.377	142.584	0.048	0.064
-341.362	-130.647	0.172	-0.023
-340.348	800.000	-0.082	0.316
-339.333	-111.254	-0.068	0.014
-338.318	-115.384	0.516	-0.098
-337.304	-200.000	-0.016	-0.286
-336.289	-155.357	0.355	-0.023
-335.275	161.116	-0.161	-0.225
-334.260	67.847	-0.221	-0.226
-333.245	14.771	-0.347	0.272
-332.231	-87.850	0.340	-0.103
-331.216	-62.139	0.304	-0.127
-330.202	-16.491	0.304	-0.193
-329.187	29.229	-0.272	-0.232
-328.172	283.982	-0.193	0.349
-327.158	456.278	0.063	-0.140
-326.143	-62.194	-0.243	0.102
-325.129	-95.147	0.099	-0.027
-324.114	334.633	0.071	0.137
-323.099	-200.000	-0.002	0.039
-322.085	41.072	0.234	-0.212
-321.070	8.933	-0.421	-0.319
-320.056	-119.278	-0.213	-0.037
-319.041	-120.139	0.412	0.071
-318.026	-200.000	0.008	-0.060
-317.012	-200.000	0.002	-0.098
-315.997	-132.041	0.091	-0.012
-314.983	36.444	0.242	0.214
-313.968	691.138	-0.016	-0.041
-312.953	-162.310	-0.037	0.002
-311.939	-72.480	0.125	-0.046
-310.924	-23.479	-0.099	-0.060
-309.910	-200.000	-0.005	-0.421
-308.895	17.265	-0.052	0.041
-307.880	587.044	0.090	0.223
-306.866	14.284	-0.061	0.047
-305.851	-65.643	-0.081	-0.032
-304.837	-109.463	0.240	-0.051
-303.822	64.632	0.153	0.154
-302.807	-200.000	0.006	-0.214
-301.793	800.000	-0.046	0.168
-300.778	-200.000	0.004	0.035
-299.764	-200.000	-0.001	0.244
-298.749	-200.000	-0.050	0.229
-297.735	153.930	-0.074	-0.102
-296.720	-140.383	0.138	-0.014
-295.705	141.428	-0.271	-0.360
-294.691	210.800	0.172	-0.271
-293.676	85.066	-0.116	0.127
-292.662	81.766	0.227	-0.246
-291.647	64.497	-0.134	0.135
-290.632	-200.000	0.026	0.121
-289.618	-2.876	0.030	-0.021
-288.603	687.792	-0.082	0.215
-287.589	114.720	0.139	0.170
-286.574	800.000	0.068	-0.279
-285.559	-194.894	-0.183	-0.001
-284.545	426.898	-0.034	-0.074
-283.530	777.938	-0.094	-0.256
-282.516	-200.000	-0.040	0.207
-281.501	-3.532	0.299	0.208
-280.486	-57.105	0.307	-0.135
-279.472	739.724	-0.057	0.153
-278.457	-200.000	0.036	0.298
-277.443	77.571	-0.200	-0.213
-276.428	-200.000	0.006	0.084
-275.413	-200.000	0.042	-0.238
-274.399	-46.719	-0.182	-0.089
-273.384	-200.000	0.002	0.035
-272.370	-200.000	-0.002	-0.381
-271.355	-95.281	0.255	-0.069
-270.340	-200.000	-0.010	-0.072
-269.326	-175.036	-0.178	0.005
-268.311	193.571	0.093	-0.140
-267.297	-125.907	-0.123	-0.018
-266.282	800.000	0.061	-0.228
-265.267	-58.382	-0.222	0.096
-264.253	-200.000	0.012	0.108
-263.238	178.932	0.115	-0.168
-262.224	-54.255	-0.141	0.064
-261.209	-163.103	-0.146	-0.007
-260.195	-125.411	-0.167	0.025
-259.180	-56.389	-0.391	0.174
-258.165	-20.724	0.127	-0.078
-257.151	126.444	-0.153	-0.194
-256.136	-200.000	0.093	0.000
-255.122	800.000	-0.064	-0.243
-254.107	-57.883	0.065	-0.029
-253.092	-29.154	0.103	-0.059
-252.078	484.486	0.104	-0.236
-251.063	56.490	-0.181	-0.176
-250.049	-58.132	0.073	-0.032
-249.034	-200.000	-0.033	0.293
-248.019	-50.872	-0.121	0.057
-247.005	-200.000	-0.027	0.161
-245.990	361.439	0.035	0.070
-244.976	-106.320	0.108	0.024
-243.961	-130.776	-0.078	-0.010
-242.946	192.802	0.077	0.116
-241.932	325.616	0.145	0.277
-240.917	-65.556	-0.319	-0.128
-239.903	-54.852	-0.183	-0.082
-238.888	-170.794	0.175	-0.006
-237.873	-47.039	0.175	0.085
-236.859	-164.504	0.201	-0.009
-235.844	136.834	0.037	-0.048
-234.830	352.979	0.045	-0.089
-233.815	216.149	-0.067	-0.106
-232.800	384.438	0.140	-0.287
-231.786	319.424	0.050	0.094
-230.771	-93.025	0.320	-0.089
-229.757	96.138	0.281	0.321
-228.742	-200.000	-0.013	-0.074
-227.727	-100.006	-0.144	0.036
-226.713	-62.216	-0.147	-0.061
-225.698	-200.000	-0.053	-0.254
-224.684	73.503	0.154	0.162
-223.669	-134.676	0.170	0.021
-222.655	435.854	0.140	-0.303
-221.640	450.023	0.072	0.159
-220.625	29.916	-0.183	0.156
-219.611	800.000	0.068	0.274
-218.596	-200.000	0.012	-0.197
-217.582	177.486	-0.102	0.149
-216.567	-86.423	0.101	-0.031
-215.552	-91.326	-0.204	0.058
-214.538	323.304	0.066	0.125
-213.523	-32.528	-0.404	-0.225
-212.509	-200.000	-0.041	-0.318
-211.494	102.080	-0.223	-0.260
-210.479	520.005	-0.065	-0.151
-209.465	97.247	0.031	-0.035
-208.450	-200.000	-0.069	-0.394
-207.436	-126.463	0.288	0.043
-206.421	-119.356	0.320	-0.056
-205.406	-83.069	-0.241	-0.078
-204.392	-16.834	0.178	0.112
-203.377	-200.000	-0.002	0.080
-202.363	-30.463	0.019	-0.011
-201.348	151.185	-0.105	0.142
-200.333	-129.601	0.179	-0.025
-199.319	-25.092	0.274	-0.162
-198.304	-143.594	-0.174	-0.017
-197.290	-200.000	0.007	0.152
-196.275	800.000	0.045	0.147
-195.260	-20.551	-0.163	-0.100
-194.246	658.821	-0.077	0.198
-193.231	-3.670	-0.050	0.034
-192.217	-200.000	0.007	0.270
-191.202	-200.000	-0.041	0.242
-190.187	140.067	0.122	0.160
-189.173	-88.132	-0.132	0.040
-188.158	191.403	-0.087	0.130
-187.144	-200.000	-0.008	-0.074
-186.129	800.000	0.039	0.150
-185.114	-115.442	0.218	-0.041
-184.100	627.883	-0.111	0.281
-183.085	-140.881	0.127	-0.013
-182.071	76.453	0.039	0.042
-181.056	-200.000	0.007	0.223
-180.042	-200.000	0.028	0.293
-179.027	800.000	-0.052	0.146
-178.012	342.015	0.049	-0.095
-176.998	-200.000	-0.016	0.301
-175.983	-200.000	0.027	0.121
-174.969	122.258	0.205	0.255
-173.954	-57.061	-0.321	-0.141
-172.939	800.000	-0.163	0.580
-171.925	800.000	-0.041	0.166
-170.910	36.536	-0.064	0.056
-169.896	-54.362	0.164	0.074
-168.881	-25.700	-0.213	-0.125
-167.866	24.806	-0.259	0.214
-166.852	800.000	-0.056	0.162
-165.837	-39.485	0.082	-0.043
-164.823	358.064	-0.032	0.064
-163.808	37.818	-0.057	0.051
-162.793	-200.000	0.011	0.324
-161.779	1.614	0.056	-0.040
-160.764	-6.819	0.326	0.221
-159.750	-200.000	0.005	-0.046
-158.735	-43.782	0.301	0.151
-157.720	-168.762	0.022	0.001
-156.706	-200.000	0.001	0.042
-155.691	208.987	-0.155	0.242
-154.677	28.551	0.144	0.121
-153.662	800.000	0.061	-0.237
-152.647	-200.000	0.029	-0.170
-151.633	-64.657	0.204	-0.082
-150.618	-64.976	0.436	-0.176
-149.604	134.393	0.035	0.045
-148.589	-54.231	0.212	-0.096
-147.574	243.258	0.116	0.193
-146.560	-87.274	0.185	-0.056
-145.545	800.000	-0.049	0.199
-144.531	-200.000	-0.001	-0.063
-143.516	31.726	0.076	0.065
-142.502	-171.767	0.389	0.013
-141.487	176.929	-0.076	0.110
-140.472	419.253	-0.129	0.274
-139.458	-30.752	0.256	-0.144
-138.443	6.299	0.305	-0.225
-137.429	726.611	-0.033	-0.087
-136.414	-61.122	0.058	0.024
-135.399	77.616	0.328	0.348
-134.385	-109.569	0.328	-0.069
-133.370	-101.438	0.373	-0.091
-132.356	71.722	-0.190	-0.197
-131.341	359.156	-0.059	0.118
-130.326	528.352	0.189	0.444
-129.312	175.075	0.290	-0.418
-128.297	-54.398	0.101	-0.046
-127.283	-200.000	0.011	0.055
-126.268	193.635	0.220	-0.331
-125.253	206.303	0.200	0.310
-124.239	-23.111	0.048	0.029
-123.224	-147.726	0.371	0.031
-122.210	800.000	0.064	0.208
-121.195	-200.000	-0.065	0.297
-120.180	-39.111	0.085	-0.045
