DTS Sentinel unit serial number:	SN413079Multiplexer serial number:	ORYXHardware model number:	OX4-SRSoftware version number:	ORYX F/W v4.00 Oryx Data Collector v3.7.2.0data status	okinstallation	princeton_trtdifferential loss correction	single-endedforward channel	channel 1reverse channel	N/Adate	2019/09/11time	01:40:11forward acquisition time	60.00reverse acquisition time	0.00gamma	496.2192k internal	0.2331k external	0.2331temperature offset calibration	0.9931default loss term (dB/km)	0.3790temperature slope calibration	1.0000multiplexer offset coefficient	1.0000multiplexer slope coefficient	1.0000fibre end	0.00T internal ref (°C)	29.14T ext. ref 1 (°C)	-0.31T ext. ref 2 (°C)	23.53length (m)	temperature (°C)	Stokes	anti-Stokes-747.200	195.394	0.123	0.188
-746.185	21.079	-0.105	0.086
-745.171	341.635	0.065	-0.129
-744.156	172.159	-0.044	0.063
-743.142	-200.000	-0.026	0.183
-742.127	289.560	-0.260	0.474
-741.112	-200.000	-0.021	0.215
-740.098	-28.672	-0.156	0.091
-739.083	-91.372	-0.136	0.039
-738.069	416.375	0.043	0.092
-737.054	-26.320	-0.148	-0.088
-736.039	-200.000	-0.033	-0.243
-735.025	-200.000	0.001	0.219
-734.010	-92.127	0.281	0.080
-732.996	-92.849	-0.108	-0.030
-731.981	116.564	-0.115	-0.142
-730.966	-112.072	0.104	-0.021
-729.952	-82.997	-0.086	0.028
-728.937	-48.651	-0.223	-0.108
-727.923	-44.571	-0.174	-0.087
-726.908	-200.000	0.011	-0.223
-725.894	87.961	-0.083	-0.092
-724.879	800.000	-0.154	0.450
-723.864	5.164	-0.144	0.107
-722.850	204.656	0.079	0.124
-721.835	-200.000	0.019	0.191
-720.821	42.461	-0.016	0.015
-719.806	-145.014	-0.246	0.023
-718.791	-43.791	0.120	0.061
-717.777	-200.000	0.020	0.098
-716.762	-42.496	-0.308	0.158
-715.748	488.670	-0.084	-0.194
-714.733	-200.000	-0.006	-0.081
-713.718	-136.112	0.020	0.002
-712.704	68.703	-0.145	-0.149
-711.689	139.887	-0.052	0.069
-710.675	-200.000	-0.027	0.342
-709.660	400.148	0.068	-0.144
-708.645	711.225	0.041	-0.109
-707.631	-200.000	0.039	-0.277
-706.616	-88.720	-0.156	0.047
-705.602	-33.018	-0.250	-0.140
-704.587	13.320	0.084	0.066
-703.572	10.067	0.297	0.227
-702.558	38.761	-0.177	-0.159
-701.543	379.611	-0.024	-0.050
-700.529	-200.000	0.051	0.285
-699.514	-200.000	-0.024	0.325
-698.499	-170.100	0.441	0.016
-697.485	-200.000	-0.004	-0.073
-696.470	715.009	-0.203	0.541
-695.456	224.769	0.110	0.179
-694.441	74.584	-0.212	0.224
-693.426	344.637	0.121	-0.238
-692.412	-113.230	-0.345	-0.068
-691.397	800.000	-0.019	0.064
-690.383	446.828	0.110	0.242
-689.368	249.566	0.102	-0.174
-688.354	38.580	-0.263	-0.236
-687.339	628.675	-0.038	-0.096
-686.324	-200.000	-0.049	-0.239
-685.310	275.472	-0.075	0.134
-684.295	-200.000	0.014	0.164
-683.281	-119.990	-0.099	-0.017
-682.266	-156.869	-0.257	0.016
-681.251	-69.177	-0.116	-0.045
-680.237	287.728	0.178	0.323
-679.222	800.000	-0.128	0.401
-678.208	-200.000	-0.072	-0.334
-677.193	-146.043	0.300	-0.027
-676.178	123.688	-0.327	-0.412
-675.164	0.481	-0.228	-0.163
-674.149	-153.122	-0.506	-0.036
-673.135	800.000	0.067	0.244
-672.120	800.000	0.065	0.217
-671.105	-200.000	0.040	0.342
-670.091	-63.510	0.107	0.044
-669.076	800.000	0.068	-0.242
-668.062	319.730	-0.081	0.155
-667.047	-124.572	0.344	0.054
-666.032	-32.343	-0.191	0.107
-665.018	-100.285	-0.376	0.094
-664.003	4.878	-0.224	-0.165
-662.989	20.501	0.223	0.181
-661.974	-55.809	0.223	0.100
-660.959	-154.329	-0.479	0.032
-659.945	75.069	0.357	-0.377
-658.930	0.408	0.218	-0.156
-657.916	-200.000	-0.019	0.284
-656.901	-200.000	0.010	-0.159
-655.886	422.071	-0.084	-0.181
-654.872	-164.784	0.204	0.009
-653.857	-200.000	0.042	-0.259
-652.843	800.000	-0.103	0.373
-651.828	800.000	0.043	-0.167
-650.814	-123.483	0.114	-0.018
-649.799	800.000	-0.038	0.141
-648.784	800.000	-0.096	-0.344
-647.770	-200.000	0.010	-0.094
-646.755	800.000	-0.030	-0.105
-645.741	-200.000	0.021	0.189
-644.726	59.012	-0.286	0.282
-643.711	-44.826	0.318	-0.159
-642.697	-132.635	-0.324	-0.042
-641.682	193.020	-0.166	-0.251
-640.668	800.000	0.112	-0.342
-639.653	-110.807	0.379	-0.078
-638.638	774.454	0.047	-0.130
-637.624	800.000	-0.059	-0.193
-636.609	188.793	-0.089	-0.133
-635.595	-61.434	0.007	0.003
-634.580	46.140	0.033	-0.031
-633.565	800.000	0.049	0.156
-632.551	58.161	0.083	-0.082
-631.536	-129.677	-0.338	0.047
-630.522	-200.000	0.003	-0.356
-629.507	-45.908	0.195	-0.096
-628.492	-155.518	-0.188	-0.012
-627.478	800.000	0.029	-0.101
-626.463	-200.000	0.006	-0.186
-625.449	-148.636	0.427	0.035
-624.434	-200.000	0.007	0.089
-623.419	745.459	-0.097	0.262
-622.405	800.000	-0.028	0.121
-621.390	0.114	-0.077	-0.055
-620.376	-101.131	-0.216	0.053
-619.361	78.613	0.202	-0.217
-618.346	123.162	0.154	-0.193
-617.332	349.419	-0.135	-0.267
-616.317	800.000	-0.078	-0.292
-615.303	116.878	-0.204	-0.250
-614.288	245.729	-0.111	-0.187
-613.273	25.651	-0.368	-0.307
-612.259	18.956	0.077	-0.062
-611.244	-69.983	-0.114	-0.043
-610.230	-135.645	-0.220	0.026
-609.215	435.117	0.052	0.112
-608.201	-100.235	0.135	0.034
-607.186	-200.000	-0.017	-0.125
-606.171	-200.000	-0.009	-0.304
-605.157	630.331	-0.061	-0.155
-604.142	-200.000	-0.029	0.171
-603.128	329.396	0.190	0.366
-602.113	-172.464	0.215	0.007
-601.098	-52.087	-0.216	-0.101
-600.084	122.887	0.129	-0.161
-599.069	107.954	0.163	-0.194
-598.055	61.837	0.107	0.107
-597.040	-200.000	0.010	0.302
-596.025	743.282	-0.126	-0.338
-595.011	-111.044	0.409	-0.084
-593.996	-9.868	0.038	0.026
-592.982	-6.908	-0.287	-0.195
-591.967	-7.998	0.135	-0.091
-590.952	-194.396	0.222	-0.002
-589.938	800.000	-0.050	-0.147
-588.923	-200.000	0.066	-0.323
-587.909	-192.243	-0.389	0.004
-586.894	800.000	-0.051	0.169
-585.879	800.000	0.067	-0.202
-584.865	209.070	-0.188	-0.294
-583.850	104.909	0.194	0.229
-582.836	-11.795	-0.228	0.149
-581.821	-113.255	-0.173	0.034
-580.806	-200.000	0.019	-0.101
-579.792	-143.122	-0.217	-0.021
-578.777	-200.000	0.009	-0.133
-577.763	-134.674	-0.018	0.002
-576.748	140.269	-0.123	0.162
-575.733	65.407	0.061	-0.062
-574.719	-78.960	-0.205	0.070
-573.704	-147.555	0.306	0.026
-572.690	19.649	0.060	0.048
-571.675	-8.219	-0.158	0.106
-570.661	56.163	-0.127	-0.124
-569.646	170.690	-0.156	0.223
-568.631	-102.627	0.167	-0.040
-567.617	-134.152	0.206	-0.025
-566.602	26.455	-0.221	-0.184
-565.588	13.401	-0.112	0.087
-564.573	198.581	0.201	0.308
-563.558	-47.843	-0.111	0.054
-562.544	-200.000	0.035	-0.196
-561.529	-73.502	-0.168	-0.061
-560.515	-37.091	0.054	-0.029
-559.500	800.000	0.108	0.354
-558.485	-34.790	0.173	0.094
-557.471	-54.574	-0.104	0.047
-556.456	800.000	0.026	-0.085
-555.442	175.992	-0.131	0.190
-554.427	-39.993	0.219	0.114
-553.412	-104.678	-0.218	0.050
-552.398	-25.611	-0.129	0.076
-551.383	-200.000	-0.045	-0.284
-550.369	12.517	0.160	-0.123
-549.354	711.045	-0.133	0.352
-548.339	-105.422	-0.256	-0.058
-547.325	-200.000	-0.027	-0.178
-546.310	59.973	-0.257	-0.253
-545.296	-71.761	-0.305	-0.114
-544.281	-86.152	0.138	-0.042
-543.266	-124.543	0.097	-0.015
-542.252	-200.000	-0.019	0.207
-541.237	37.020	0.092	-0.081
-540.223	-200.000	-0.051	-0.255
-539.208	-27.242	-0.224	0.130
-538.193	-200.000	-0.030	0.188
-537.179	-108.007	0.214	0.046
-536.164	-97.848	0.086	-0.022
-535.150	-200.000	0.018	0.210
-534.135	189.420	-0.204	-0.305
-533.121	-200.000	0.010	0.155
-532.106	660.778	-0.025	-0.064
-531.091	-74.230	-0.295	-0.106
-530.077	446.843	0.073	0.161
-529.062	-18.084	-0.109	0.068
-528.048	-51.764	-0.142	-0.066
-527.033	-11.731	0.294	-0.193
-526.018	-38.669	0.015	-0.008
-525.004	-77.767	0.081	-0.028
-523.989	173.261	0.233	0.335
-522.975	-200.000	-0.027	-0.262
-521.960	-74.177	-0.138	0.050
-520.945	-108.611	0.266	0.057
-519.931	17.226	-0.294	0.233
-518.916	4.135	-0.185	-0.135
-517.902	-50.625	0.224	-0.105
-516.887	-64.719	0.280	-0.113
-515.872	466.594	0.026	0.057
-514.858	663.166	-0.065	0.166
-513.843	-72.558	0.282	0.104
-512.829	248.579	-0.121	-0.204
-511.814	173.250	-0.068	-0.097
-510.799	468.636	-0.103	-0.231
-509.785	-25.744	-0.211	-0.124
-508.770	47.432	0.038	0.036
-507.756	-45.319	0.168	-0.083
-506.741	142.582	0.164	-0.217
-505.726	203.428	0.114	0.175
-504.712	-200.000	-0.011	0.129
-503.697	-69.745	0.174	0.066
-502.683	-34.027	-0.143	0.078
-501.668	537.537	-0.194	0.460
-500.653	-200.000	-0.031	0.236
-499.639	537.785	0.091	0.215
-498.624	1.323	-0.116	0.083
-497.610	-200.000	-0.059	0.311
-496.595	-63.491	-0.171	0.070
-495.581	313.369	-0.103	-0.193
-494.566	318.630	-0.116	0.219
-493.551	439.451	-0.046	0.100
-492.537	-122.191	-0.241	-0.039
-491.522	-110.938	0.154	-0.032
-490.508	-113.178	-0.540	0.106
-489.493	-76.622	0.504	-0.176
-488.478	-91.578	-0.269	0.076
-487.464	-22.777	-0.330	0.199
-486.449	136.352	-0.178	0.232
-485.435	14.633	-0.192	0.150
-484.420	-58.471	0.304	-0.132
-483.405	265.062	-0.138	-0.240
-482.391	408.006	0.209	0.441
-481.376	58.684	0.149	0.146
-480.362	-50.764	-0.182	0.085
-479.347	175.379	0.259	0.374
-478.332	24.643	-0.116	0.095
-477.318	-133.368	0.097	0.012
-476.303	174.862	-0.144	-0.207
-475.289	481.851	0.075	0.170
-474.274	132.956	0.119	0.153
-473.259	-111.671	-0.388	0.078
-472.245	313.119	-0.197	0.369
-471.230	44.011	0.215	0.196
-470.216	76.469	-0.033	0.035
-469.201	-2.941	0.220	-0.153
-468.186	800.000	0.054	0.182
-467.172	-102.381	-0.441	-0.105
-466.157	103.724	-0.192	-0.225
-465.143	70.859	-0.037	-0.038
-464.128	319.469	0.126	-0.239
-463.113	-123.175	-0.292	-0.047
-462.099	38.715	0.179	0.159
-461.084	239.099	0.060	0.099
-460.070	95.879	-0.293	-0.332
-459.055	-122.819	-0.431	-0.069
-458.040	413.303	-0.122	-0.258
-457.026	180.352	0.093	0.136
-456.011	-200.000	-0.003	-0.169
-454.997	-200.000	-0.020	-0.110
-453.982	129.724	0.102	-0.130
-452.968	107.312	-0.112	-0.132
-451.953	-67.828	0.050	0.020
-450.938	800.000	-0.101	0.286
-449.924	56.596	-0.119	-0.115
-448.909	-89.903	-0.318	-0.092
-447.895	-60.582	-0.120	-0.051
-446.880	800.000	0.047	0.197
-445.865	264.791	-0.056	-0.097
-444.851	299.752	-0.132	-0.242
-443.836	-111.609	-0.298	-0.060
-442.822	110.079	-0.299	0.357
-441.807	-111.838	0.321	0.065
-440.792	600.439	-0.073	-0.181
-439.778	800.000	0.040	-0.165
-438.763	-139.470	-0.314	-0.033
-437.749	354.535	0.160	-0.316
-436.734	-164.523	-0.295	0.013
-435.719	483.132	-0.042	0.096
-434.705	-195.116	0.355	-0.003
-433.690	-41.891	0.197	0.101
-432.676	-200.000	-0.026	-0.299
-431.661	-200.000	-0.000	-0.093
-430.646	284.727	-0.130	0.232
-429.632	314.685	0.129	0.241
-428.617	-84.846	-0.132	-0.041
-427.603	31.975	-0.106	-0.091
-426.588	-200.000	0.018	-0.277
-425.573	-68.487	-0.105	-0.040
-424.559	368.643	0.023	0.046
-423.544	800.000	0.134	-0.519
-422.530	-185.787	0.119	0.002
-421.515	367.202	-0.156	-0.313
-420.500	196.010	0.134	0.202
-419.486	56.962	-0.102	-0.099
-418.471	-200.000	0.039	0.297
-417.457	-200.000	-0.076	0.538
-416.442	241.844	0.147	0.244
-415.428	-98.528	0.241	0.061
-414.413	-97.189	0.339	-0.088
-413.398	800.000	-0.097	-0.295
-412.384	-97.942	0.171	0.044
-411.369	800.000	0.079	-0.338
-410.355	-30.525	-0.193	0.108
-409.340	10.354	-0.159	-0.120
-408.325	167.059	0.119	-0.168
-407.311	56.966	0.279	-0.270
-406.296	279.758	-0.112	0.198
-405.282	800.000	-0.124	0.463
-404.267	162.649	0.186	0.259
-403.252	77.377	0.041	0.044
-402.238	-91.648	-0.258	-0.073
-401.223	800.000	-0.064	0.226
-400.209	-20.365	0.131	0.080
-399.194	48.221	0.257	0.239
-398.179	-67.857	0.178	-0.069
-397.165	800.000	0.031	-0.114
-396.150	-71.469	-0.267	-0.099
-395.136	-86.619	0.133	0.040
-394.121	-200.000	0.015	-0.068
-393.106	140.729	-0.171	-0.224
-392.092	-15.234	0.245	-0.156
-391.077	800.000	-0.102	0.390
-390.063	417.145	-0.112	0.238
-389.048	-3.063	-0.109	0.076
-388.033	77.912	0.180	0.190
-387.019	786.168	0.091	-0.248
-386.004	-200.000	-0.052	-0.230
-384.990	-82.650	-0.176	-0.057
-383.975	237.160	-0.131	-0.216
-382.960	-174.062	-0.046	-0.001
-381.946	335.293	-0.018	-0.035
-380.931	275.931	0.093	-0.163
-379.917	-200.000	0.041	-0.220
-378.902	74.354	-0.064	0.066
-377.888	464.217	0.126	-0.279
-376.873	-25.256	0.164	-0.096
-375.858	-49.952	0.256	-0.120
-374.844	-82.158	0.267	0.086
-373.829	-18.657	0.269	0.167
-372.815	-200.000	0.072	0.550
-371.800	-83.935	0.217	0.069
-370.785	-200.000	-0.020	-0.219
-369.771	-116.617	-0.074	0.013
-368.756	-200.000	0.020	0.366
-367.742	-5.191	0.022	-0.015
-366.727	-79.109	0.165	0.055
-365.712	-105.655	-0.133	0.030
-364.698	553.273	0.044	0.104
-363.683	-9.230	-0.189	0.125
-362.669	26.793	0.231	0.192
-361.654	-154.848	0.399	-0.026
-360.639	-127.055	-0.184	-0.027
-359.625	-200.000	0.005	-0.071
-358.610	78.485	0.095	-0.100
-357.596	800.000	0.045	-0.132
-356.581	34.730	-0.193	-0.168
-355.566	-46.250	0.290	-0.141
-354.552	-10.879	0.061	0.040
-353.537	-102.312	0.160	-0.038
-352.523	-10.027	0.092	0.061
-351.508	163.297	-0.176	0.245
-350.493	4.968	0.165	-0.120
-349.479	113.630	0.120	-0.144
-348.464	21.655	-0.066	0.053
-347.450	-200.000	0.009	-0.316
-346.435	390.147	-0.121	-0.248
-345.420	359.101	-0.080	-0.159
-344.406	-200.000	-0.061	-0.582
-343.391	-25.198	-0.312	0.183
-342.377	-200.000	0.024	-0.206
-341.362	128.913	0.123	-0.155
-340.348	-123.042	-0.198	0.032
-339.333	183.072	-0.085	0.125
-338.318	800.000	0.031	-0.091
-337.304	134.744	-0.016	0.020
-336.289	-158.139	0.092	0.005
-335.275	290.042	-0.075	0.136
-334.260	-200.000	0.007	0.279
-333.245	-102.021	-0.344	0.082
-332.231	-200.000	-0.006	0.125
-331.216	-16.641	0.253	-0.159
-330.202	263.281	0.077	-0.133
-329.187	-159.866	-0.538	0.029
-328.172	78.148	0.346	-0.365
-327.158	-200.000	0.030	-0.181
-326.143	24.352	-0.361	0.295
-325.129	507.661	0.050	0.115
-324.114	-141.983	-0.072	0.007
-323.099	-42.032	0.375	0.190
-322.085	28.308	0.170	0.142
-321.070	336.997	-0.186	-0.358
-320.056	-97.284	-0.114	0.030
-319.041	-21.416	0.284	-0.172
-318.026	-88.838	0.355	0.104
-317.012	-93.692	-0.145	-0.039
-315.997	-158.477	0.197	0.011
-314.983	800.000	0.071	0.257
-313.968	-37.297	-0.352	0.186
-312.953	80.299	0.124	-0.132
-311.939	-200.000	0.006	0.068
-310.924	663.447	0.094	-0.240
-309.910	-128.554	0.273	0.038
-308.895	-200.000	0.035	0.264
-307.880	436.593	0.163	0.350
-306.866	-200.000	0.008	0.271
-305.851	-120.119	-0.145	-0.025
-304.837	-97.779	-0.075	-0.019
-303.822	248.499	0.216	-0.362
-302.807	-200.000	-0.055	-0.241
-301.793	-144.514	0.355	-0.032
-300.778	482.118	-0.109	0.245
-299.764	42.464	0.323	0.290
-298.749	-143.665	-0.111	-0.010
-297.735	800.000	-0.086	0.321
-296.720	-45.919	0.190	0.093
-295.705	-86.208	-0.313	0.096
-294.691	8.344	-0.118	0.087
-293.676	93.337	-0.137	-0.153
-292.662	88.108	0.085	-0.093
-291.647	42.584	0.157	-0.142
-290.632	-200.000	-0.008	-0.130
-289.618	-82.855	-0.243	0.078
-288.603	61.064	0.158	0.155
-287.589	174.744	-0.088	0.126
-286.574	-58.430	-0.259	-0.111
-285.559	-166.658	-0.390	0.016
-284.545	496.356	0.091	-0.207
-283.530	48.972	0.062	0.058
-282.516	-22.232	-0.123	-0.074
-281.501	800.000	-0.070	-0.192
-280.486	-24.903	-0.274	-0.161
-279.472	-200.000	-0.001	0.145
-278.457	-140.477	0.072	-0.007
-277.443	-118.586	0.014	0.002
-276.428	84.014	0.173	-0.187
-275.413	584.561	-0.121	-0.293
-274.399	-8.109	-0.243	-0.162
-273.384	146.138	0.137	0.181
-272.370	-20.541	-0.316	0.192
-271.355	-200.000	-0.010	-0.231
-270.340	61.932	0.275	0.271
-269.326	647.038	-0.089	0.225
-268.311	136.339	-0.072	0.093
-267.297	800.000	-0.045	0.135
-266.282	-200.000	0.009	0.140
-265.267	800.000	0.080	0.313
-264.253	-200.000	0.044	0.259
-263.238	255.661	-0.177	0.300
-262.224	800.000	-0.046	-0.147
-261.209	-132.802	0.377	-0.047
-260.195	24.272	-0.284	0.232
-259.180	693.243	0.132	-0.342
-258.165	159.803	-0.221	0.304
-257.151	70.277	-0.068	0.069
-256.136	90.482	0.084	-0.092
-255.122	-200.000	0.036	0.238
-254.107	-103.653	-0.334	-0.077
-253.092	-38.557	0.341	-0.178
-252.078	-42.257	0.158	0.080
-251.063	515.973	0.110	0.254
-250.049	204.950	-0.103	-0.157
-249.034	-200.000	0.007	0.183
-248.019	-200.000	-0.035	0.229
-247.005	-12.765	-0.322	-0.207
-245.990	-116.674	-0.178	0.032
-244.976	-75.984	0.116	-0.041
-243.961	55.498	0.282	0.269
-242.946	-186.260	0.124	0.002
-241.932	-135.855	0.181	0.021
-240.917	-200.000	0.018	0.086
-239.903	58.642	-0.169	-0.163
-238.888	-66.808	0.122	0.048
-237.873	-117.596	-0.082	0.015
-236.859	-127.829	0.115	0.016
-235.844	49.875	-0.114	0.106
-234.830	117.523	-0.128	0.155
-233.815	800.000	0.057	-0.230
-232.800	33.314	0.123	-0.105
-231.786	800.000	0.113	-0.334
-230.771	56.635	0.075	-0.072
-229.757	800.000	0.013	-0.045
-228.742	-45.510	0.033	-0.016
-227.727	414.667	-0.110	0.231
-226.713	-124.579	0.077	-0.012
-225.698	-85.972	0.332	-0.101
-224.684	800.000	-0.062	0.221
-223.669	-34.877	0.164	0.089
-222.655	-156.611	0.432	-0.026
-221.640	-122.941	0.243	-0.039
-220.625	26.801	0.143	0.118
-219.611	-41.041	0.405	0.207
-218.596	800.000	0.077	-0.331
-217.582	-61.271	-0.278	0.115
-216.567	800.000	0.074	-0.273
-215.552	-200.000	0.001	0.023
-214.538	-200.000	0.031	0.211
-213.523	-184.761	-0.208	-0.003
-212.509	2.033	-0.113	-0.080
-211.494	393.485	-0.067	0.138
-210.479	97.099	0.188	0.213
-209.465	244.173	0.036	0.060
-208.450	-6.436	-0.375	-0.252
-207.436	386.887	-0.138	-0.281
-206.421	595.085	0.116	0.282
-205.406	-93.995	0.414	0.112
-204.392	-112.860	0.061	0.012
-203.377	170.392	0.071	0.100
-202.363	-102.601	0.120	0.028
-201.348	-158.470	0.154	-0.009
-200.333	-73.039	0.244	0.088
-199.319	157.106	0.132	-0.180
-198.304	-200.000	0.067	0.302
-197.290	395.808	0.135	0.277
-196.275	-32.699	0.174	0.095
-195.260	-200.000	-0.019	-0.316
-194.246	46.225	0.138	-0.126
-193.231	-200.000	0.076	0.362
-192.217	778.481	-0.073	0.198
-191.202	-200.000	0.006	0.362
-190.187	-85.512	-0.198	-0.061
-189.173	50.768	0.072	0.067
-188.158	36.027	-0.215	0.186
-187.144	-96.813	0.368	-0.095
-186.129	-200.000	-0.013	0.095
-185.114	-200.000	-0.013	-0.116
-184.100	86.616	-0.009	-0.010
-183.085	146.291	-0.131	0.174
-182.071	782.769	0.089	-0.239
-181.056	-89.238	-0.165	-0.048
-180.042	800.000	0.067	-0.213
-179.027	138.163	-0.141	-0.182
-178.012	-200.000	-0.014	-0.065
-176.998	800.000	-0.051	0.196
-175.983	-154.852	-0.233	-0.015
-174.969	-99.223	-0.072	0.018
-173.954	800.000	0.141	0.387
-172.939	151.831	-0.054	-0.073
-171.925	-34.040	0.389	0.211
-170.910	-200.000	-0.019	-0.233
-169.896	-200.000	0.026	0.166
-168.881	-182.893	0.143	-0.003
-167.866	591.798	-0.061	-0.149
-166.852	-54.923	-0.123	-0.054
-165.837	103.909	-0.071	-0.082
-164.823	-8.401	-0.004	-0.003
-163.808	-200.000	-0.010	0.129
-162.793	143.482	0.037	-0.049
-161.779	-128.185	0.156	-0.022
-160.764	-65.922	-0.285	0.112
-159.750	540.612	0.073	-0.172
-158.735	45.382	0.279	-0.253
-157.720	18.691	-0.084	-0.066
-156.706	49.276	0.088	-0.081
-155.691	23.855	0.090	-0.073
-154.677	434.328	-0.060	-0.128
-153.662	625.284	0.069	0.172
-152.647	-77.886	0.191	-0.065
-151.633	-81.441	0.198	0.064
-150.618	800.000	-0.018	0.061
-149.604	705.749	-0.066	0.172
-148.589	83.115	-0.220	-0.235
-147.574	575.294	0.058	0.138
-146.560	239.464	0.025	-0.041
-145.545	-88.788	-0.136	-0.040
-144.531	-200.000	0.059	-0.280
-143.516	579.540	-0.126	-0.302
-142.502	125.699	-0.039	-0.049
-141.487	103.498	-0.261	0.301
-140.472	800.000	-0.107	0.305
-139.458	-23.361	-0.230	-0.136
-138.443	64.536	0.108	0.107
-137.429	435.775	0.089	-0.191
-136.414	800.000	-0.083	0.249
-135.399	-9.243	0.304	-0.200
-134.385	183.284	0.170	0.246
-133.370	51.879	0.184	-0.172
-132.356	533.554	-0.051	0.120
-131.341	-39.100	-0.361	0.186
-130.326	407.893	-0.108	0.224
-129.312	179.291	0.089	-0.128
-128.297	-121.683	-0.091	-0.015
-127.283	87.951	-0.124	-0.135
-126.268	-101.799	-0.329	-0.078
-125.253	-200.000	0.029	0.297
-124.239	-31.369	0.273	0.151
-123.224	55.468	0.133	-0.127
-122.210	-90.404	0.257	0.073
-121.195	127.750	0.121	-0.151
