DTS Sentinel unit serial number:	SN413079Multiplexer serial number:	ORYXHardware model number:	OX4-SRSoftware version number:	ORYX F/W v4.00 Oryx Data Collector v3.7.2.0data status	okinstallation	princeton_trtdifferential loss correction	single-endedforward channel	channel 1reverse channel	N/Adate	2019/09/15time	08:46:36forward acquisition time	60.00reverse acquisition time	0.00gamma	496.2192k internal	0.2317k external	0.2317temperature offset calibration	0.9982default loss term (dB/km)	0.3790temperature slope calibration	1.0000multiplexer offset coefficient	1.0000multiplexer slope coefficient	1.0000fibre end	0.00T internal ref (°C)	32.23T ext. ref 1 (°C)	4.98T ext. ref 2 (°C)	29.53length (m)	temperature (°C)	Stokes	anti-Stokes-747.200	-78.402	-0.067	0.023
-746.185	-6.197	-0.137	0.095
-745.171	62.901	0.030	-0.030
-744.156	800.000	0.110	-0.310
-743.142	0.718	-0.124	0.090
-742.127	-200.000	0.008	0.208
-741.112	209.082	-0.091	0.145
-740.098	-183.019	-0.083	0.001
-739.083	77.788	0.165	0.178
-738.069	-200.000	0.067	0.313
-737.054	-30.291	0.159	-0.092
-736.039	-200.000	0.004	-0.364
-735.025	-126.564	0.140	-0.021
-734.010	-32.212	-0.276	-0.156
-732.996	150.813	-0.219	-0.301
-731.981	-108.959	-0.441	-0.095
-730.966	-200.000	0.046	0.316
-729.952	-200.000	-0.008	-0.149
-728.937	-44.402	0.221	-0.112
-727.923	76.933	0.181	0.195
-726.908	251.356	0.105	-0.181
-725.894	8.567	-0.148	0.113
-724.879	464.596	-0.124	0.280
-723.864	52.916	-0.283	0.274
-722.850	-200.000	0.002	0.032
-721.835	-110.754	-0.233	0.049
-720.821	-200.000	-0.035	-0.159
-719.806	-144.947	-0.418	-0.039
-718.791	704.421	0.089	0.237
-717.777	36.352	-0.230	-0.205
-716.762	274.793	0.144	-0.258
-715.748	-183.808	-0.199	-0.003
-714.733	640.731	-0.055	0.141
-713.718	800.000	-0.060	-0.222
-712.704	-57.146	-0.175	0.078
-711.689	157.893	0.176	-0.247
-710.675	-144.761	0.383	-0.036
-709.660	800.000	-0.034	-0.117
-708.645	-200.000	0.029	-0.308
-707.631	-28.285	0.059	-0.034
-706.616	-117.239	0.020	0.004
-705.602	19.318	0.244	-0.198
-704.587	198.972	-0.101	0.157
-703.572	-200.000	0.044	0.453
-702.558	-200.000	0.023	-0.151
-701.543	-50.017	0.029	0.014
-700.529	-200.000	0.006	-0.260
-699.514	16.953	-0.225	-0.180
-698.499	-31.776	-0.429	-0.243
-697.485	-200.000	-0.015	0.185
-696.470	800.000	-0.024	-0.102
-695.456	-33.168	0.484	-0.271
-694.441	-14.720	-0.245	-0.159
-693.426	275.973	-0.020	-0.037
-692.412	800.000	0.083	0.244
-691.397	-98.355	-0.191	-0.050
-690.383	559.170	0.070	-0.171
-689.368	151.585	-0.318	-0.437
-688.354	-200.000	0.061	0.388
-687.339	-21.836	0.085	0.052
-686.324	72.310	-0.131	0.138
-685.310	-84.329	-0.204	0.065
-684.295	-200.000	0.006	-0.103
-683.281	-5.017	-0.256	-0.178
-682.266	-103.471	0.169	0.040
-681.251	63.390	0.112	0.114
-680.237	78.692	-0.062	0.067
-679.222	236.393	-0.090	0.150
-678.208	109.943	0.305	-0.370
-677.193	24.645	-0.395	0.330
-676.178	211.218	-0.199	0.316
-675.164	563.505	0.045	0.110
-674.149	-200.000	0.055	0.494
-673.135	26.866	-0.181	-0.153
-672.120	-200.000	0.007	0.095
-671.105	-99.797	0.076	-0.019
-670.091	76.387	0.250	0.267
-669.076	317.420	0.110	-0.211
-668.062	-68.901	0.249	0.097
-667.047	-200.000	-0.029	0.203
-666.032	288.120	0.044	-0.081
-665.018	-200.000	0.002	-0.254
-664.003	-165.754	0.132	-0.006
-662.989	800.000	-0.082	0.255
-661.974	-61.049	-0.411	0.175
-660.959	-66.913	0.087	-0.035
-659.945	-174.022	0.220	-0.007
-658.930	79.564	-0.173	0.187
-657.916	-112.992	0.065	-0.013
-656.901	-200.000	-0.028	0.328
-655.886	-104.729	0.203	0.047
-654.872	443.532	0.041	-0.090
-653.857	-161.357	0.305	0.016
-652.843	24.142	-0.364	-0.303
-651.828	26.224	0.087	-0.073
-650.814	45.615	-0.202	-0.188
-649.799	296.507	-0.019	-0.035
-648.784	732.879	0.052	0.141
-647.770	66.047	0.083	0.085
-646.755	-200.000	-0.015	0.196
-645.741	-109.257	0.428	0.092
-644.726	-25.278	0.257	-0.154
-643.711	800.000	0.060	0.209
-642.697	4.228	-0.112	0.083
-641.682	-36.909	-0.111	-0.060
-640.668	100.218	0.098	-0.114
-639.653	451.114	-0.151	-0.336
-638.638	218.696	0.094	-0.152
-637.624	-89.236	-0.479	-0.143
-636.609	13.789	-0.058	-0.046
-635.595	-200.000	0.006	0.148
-634.580	-200.000	0.034	-0.249
-633.565	-83.325	-0.327	0.106
-632.551	-50.379	0.188	-0.089
-631.536	41.518	-0.150	0.137
-630.522	112.921	-0.064	0.078
-629.507	800.000	-0.070	-0.282
-628.492	-86.814	0.358	-0.110
-627.478	-200.000	0.007	-0.246
-626.463	13.396	0.114	0.089
-625.449	-200.000	0.054	0.252
-624.434	-33.220	-0.159	0.089
-623.419	-200.000	0.017	-0.317
-622.405	-118.021	-0.213	0.038
-621.390	-112.039	0.040	-0.008
-620.376	466.162	0.066	-0.148
-619.361	800.000	0.057	-0.230
-618.346	-130.447	0.077	-0.011
-617.332	78.476	-0.229	-0.247
-616.317	-200.000	0.030	0.137
-615.303	-31.525	0.128	0.073
-614.288	-200.000	0.005	-0.164
-613.273	-89.349	-0.400	0.119
-612.259	129.598	-0.098	0.127
-611.244	-141.360	0.141	-0.014
-610.230	-180.162	-0.280	0.006
-609.215	-122.962	-0.145	0.023
-608.201	-98.726	-0.267	-0.069
-607.186	-7.321	-0.268	-0.183
-606.171	134.395	0.092	-0.120
-605.157	-110.196	-0.153	-0.032
-604.142	800.000	0.056	0.171
-603.128	-82.578	-0.325	-0.106
-602.113	800.000	-0.072	-0.216
-601.098	11.824	-0.339	-0.262
-600.084	-49.753	-0.568	0.272
-599.069	-155.180	0.379	-0.025
-598.055	43.741	0.191	-0.176
-597.040	-61.514	-0.179	0.076
-596.025	627.735	0.053	0.136
-595.011	9.346	0.197	0.150
-593.996	-52.716	-0.212	-0.098
-592.982	-170.794	-0.173	0.006
-591.967	-14.885	-0.262	-0.169
-590.952	154.922	0.150	-0.208
-589.938	257.448	0.111	0.192
-588.923	72.761	-0.059	-0.062
-587.909	129.491	-0.116	-0.149
-586.894	-193.298	0.071	0.001
-585.879	489.987	0.105	0.242
-584.865	43.410	-0.159	-0.146
-583.850	23.410	-0.061	0.050
-582.836	-200.000	0.013	0.081
-581.821	-114.945	-0.126	0.024
-580.806	464.511	0.086	0.193
-579.792	-200.000	0.021	0.264
-578.777	-56.313	0.348	0.156
-577.763	-200.000	0.031	-0.332
-576.748	221.794	-0.117	0.188
-575.733	-18.849	-0.191	0.120
-574.719	31.665	0.192	0.166
-573.704	-43.227	-0.354	0.180
-572.690	-72.634	-0.032	0.012
-571.675	217.816	-0.034	-0.054
-570.661	-52.386	-0.338	-0.157
-569.646	800.000	0.031	0.129
-568.631	-52.037	-0.123	0.057
-567.617	-46.493	-0.189	-0.093
-566.602	-23.506	-0.104	-0.063
-565.588	-134.662	-0.217	0.027
-564.573	-115.777	0.176	0.033
-563.558	-169.869	0.346	0.012
-562.544	-200.000	-0.001	0.093
-561.529	14.808	-0.118	-0.093
-560.515	125.489	-0.111	-0.140
-559.500	197.381	-0.144	0.221
-558.485	6.649	-0.147	0.110
-557.471	-200.000	0.007	-0.116
-556.456	-18.804	0.079	-0.049
-555.442	295.456	0.080	0.148
-554.427	69.880	-0.090	-0.093
-553.412	-90.732	0.417	0.121
-552.398	-26.588	-0.399	0.235
-551.383	-7.499	0.211	0.143
-550.369	781.795	-0.121	-0.334
-549.354	135.904	-0.236	0.309
-548.339	68.986	-0.186	0.192
-547.325	23.652	-0.229	-0.189
-546.310	216.479	-0.024	-0.039
-545.296	418.545	-0.073	0.156
-544.281	55.977	0.175	0.170
-543.266	-200.000	-0.010	0.100
-542.252	-46.026	-0.205	0.102
-541.237	-47.208	-0.295	-0.144
-540.223	-172.234	-0.208	0.007
-539.208	54.624	0.184	0.178
-538.193	32.479	0.301	0.261
-537.179	103.199	0.109	-0.129
-536.164	-54.097	-0.371	0.170
-535.150	42.827	0.233	-0.213
-534.135	22.970	-0.079	-0.065
-533.121	130.841	-0.018	0.023
-532.106	-104.780	-0.156	0.036
-531.091	-99.957	-0.087	0.022
-530.077	314.408	-0.079	-0.148
-529.062	-10.783	-0.053	0.035
-528.048	135.896	0.162	-0.211
-527.033	-141.225	0.289	-0.030
-526.018	800.000	0.111	0.376
-525.004	552.803	0.111	-0.267
-523.989	14.984	0.156	0.123
-522.975	439.606	-0.091	-0.199
-521.960	557.475	0.071	0.173
-520.945	-78.412	-0.182	-0.062
-519.931	800.000	-0.097	-0.274
-518.916	36.579	0.274	0.242
-517.902	-140.550	-0.127	0.013
-516.887	-200.000	0.033	0.160
-515.872	-50.381	-0.249	0.118
-514.858	287.431	-0.081	-0.147
-513.843	304.486	-0.157	-0.292
-512.829	-148.706	-0.215	-0.018
-511.814	-2.273	0.172	-0.121
-510.799	-107.063	-0.145	-0.032
-509.785	800.000	0.073	0.275
-508.770	153.399	-0.066	-0.090
-507.756	27.282	0.078	0.066
-506.741	-97.000	0.405	0.106
-505.726	280.106	0.163	0.292
-504.712	331.921	-0.104	-0.202
-503.697	-112.396	0.242	0.049
-502.683	3.740	-0.145	0.106
-501.668	159.841	-0.237	-0.331
-500.653	89.473	-0.240	0.269
-499.639	566.847	0.131	0.320
-498.624	-200.000	-0.006	-0.132
-497.610	-49.136	0.179	-0.086
-496.595	215.198	-0.122	-0.194
-495.581	-144.448	0.190	0.018
-494.566	-200.000	0.034	0.208
-493.551	-200.000	-0.011	0.102
-492.537	-100.358	-0.280	0.070
-491.522	77.270	0.077	0.082
-490.508	360.533	0.092	0.184
-489.493	98.496	-0.103	-0.119
-488.478	12.608	-0.166	0.128
-487.464	-116.792	0.339	0.062
-486.449	379.469	0.149	-0.307
-485.435	-101.471	-0.520	-0.127
-484.420	135.662	0.086	0.112
-483.405	-200.000	0.038	-0.247
-482.391	216.050	0.073	0.117
-481.376	69.624	-0.093	0.096
-480.362	-200.000	0.003	-0.047
-479.347	140.818	-0.197	-0.261
-478.332	-200.000	0.015	0.122
-477.318	-80.720	0.105	0.035
-476.303	-9.439	0.354	0.237
-475.289	-88.755	-0.338	-0.100
-474.274	56.754	-0.215	0.210
-473.259	160.764	-0.003	0.004
-472.245	-166.248	0.067	0.003
-471.230	-200.000	-0.011	0.245
-470.216	-200.000	-0.029	0.169
-469.201	131.564	0.149	0.191
-468.186	99.278	-0.054	-0.062
-467.172	-95.847	0.196	0.052
-466.157	59.627	0.149	0.147
-465.143	262.068	-0.158	-0.274
-464.128	12.012	-0.281	-0.217
-463.113	-200.000	0.017	-0.346
-462.099	-112.337	0.179	0.036
-461.084	55.018	0.069	-0.067
-460.070	78.231	-0.130	0.139
-459.055	-148.726	0.298	0.024
-458.040	195.477	0.062	-0.095
-457.026	-200.000	0.022	-0.096
-456.011	-143.327	-0.152	-0.015
-454.997	-106.926	0.380	-0.084
-453.982	-69.403	0.174	-0.067
-452.968	-200.000	0.040	0.337
-451.953	-34.610	0.140	0.076
-450.938	8.536	-0.024	0.018
-449.924	-174.857	0.395	-0.011
-448.909	144.808	0.147	-0.196
-447.895	-200.000	0.037	-0.375
-446.880	-197.978	0.453	0.003
-445.865	134.637	-0.164	0.213
-444.851	4.343	0.103	-0.075
-443.836	277.912	-0.157	0.279
-442.822	-12.041	-0.124	0.081
-441.807	282.049	-0.148	-0.265
-440.792	206.090	0.147	-0.230
-439.778	124.966	-0.073	-0.091
-438.763	-200.000	-0.010	-0.239
-437.749	-200.000	-0.042	-0.377
-436.734	-90.628	-0.298	0.086
-435.719	397.696	-0.124	-0.259
-434.705	69.455	0.045	0.047
-433.690	-8.640	0.152	0.102
-432.676	-200.000	-0.021	-0.304
-431.661	800.000	0.071	-0.301
-430.646	783.022	0.084	0.231
-429.632	-200.000	-0.038	-0.229
-428.617	438.690	0.077	-0.168
-427.603	70.380	0.114	0.118
-426.588	208.742	-0.093	0.145
-425.573	800.000	-0.162	-0.614
-424.559	-159.415	0.109	-0.006
-423.544	154.898	-0.085	0.117
-422.530	-128.947	0.114	0.016
-421.515	-94.753	0.178	-0.048
-420.500	23.305	0.273	-0.224
-419.486	800.000	-0.020	-0.073
-418.471	757.429	0.099	0.267
-417.457	89.224	0.142	0.158
-416.442	-95.398	-0.377	-0.101
-415.428	132.104	-0.215	-0.277
-414.413	-111.401	-0.153	-0.031
-413.398	800.000	0.050	-0.174
-412.384	-52.645	0.190	0.087
-411.369	597.429	-0.142	-0.352
-410.355	-69.242	-0.239	0.092
-409.340	-104.277	0.117	0.027
-408.325	74.486	-0.045	0.047
-407.311	-75.226	-0.420	-0.150
-406.296	-111.419	-0.092	-0.019
-405.282	-163.367	0.408	0.019
-404.267	58.045	0.192	0.188
-403.252	103.579	0.007	-0.008
-402.238	-171.153	0.131	-0.004
-401.223	386.761	0.167	0.345
-400.209	-16.304	0.166	-0.106
-399.194	-25.432	0.360	-0.213
-398.179	-9.107	0.230	0.154
-397.165	-95.024	-0.210	0.057
-396.150	-41.913	0.064	0.033
-395.136	663.726	-0.087	0.224
-394.121	357.672	0.029	-0.058
-393.106	14.456	0.080	-0.062
-392.092	-34.318	-0.200	-0.109
-391.077	64.886	0.199	0.201
-390.063	127.690	0.022	0.028
-389.048	322.475	-0.037	-0.070
-388.033	329.034	-0.031	-0.060
-387.019	237.212	0.043	-0.072
-386.004	-78.272	0.388	-0.133
-384.990	88.766	-0.166	0.184
-383.975	135.456	0.248	-0.321
-382.960	-53.750	-0.265	0.121
-381.946	49.789	0.118	0.111
-380.931	319.242	0.164	0.310
-379.917	-9.834	-0.174	-0.116
-378.902	353.923	-0.086	-0.171
-377.888	-29.384	0.052	-0.030
-376.873	-200.000	-0.018	-0.366
-375.858	-85.607	0.219	0.068
-374.844	55.931	0.196	-0.190
-373.829	104.824	0.159	0.187
-372.815	-49.220	0.250	0.119
-371.800	-129.828	-0.177	-0.024
-370.785	-200.000	-0.015	0.253
-369.771	-163.907	0.469	0.022
-368.756	-200.000	-0.001	0.088
-367.742	-132.336	-0.194	-0.025
-366.727	800.000	0.045	0.165
-365.712	-200.000	-0.005	-0.205
-364.698	120.264	0.146	-0.180
-363.683	-11.119	-0.179	0.118
-362.669	435.216	0.014	0.031
-361.654	-41.378	-0.243	-0.125
-360.639	-97.596	-0.290	0.075
-359.625	31.788	-0.433	-0.372
-358.610	-82.485	-0.184	-0.060
-357.596	-154.944	0.120	0.008
-356.581	-62.723	0.250	-0.103
-355.566	-200.000	-0.015	-0.082
-354.552	-200.000	0.065	-0.592
-353.537	34.136	0.036	-0.031
-352.523	135.360	0.040	0.052
-351.508	-35.871	-0.084	-0.045
-350.493	-200.000	-0.001	0.299
-349.479	-92.980	-0.395	0.110
-348.464	-56.431	0.295	-0.130
-347.450	23.667	0.219	0.179
-346.435	-105.112	0.244	0.056
-345.420	-200.000	-0.036	-0.370
-344.406	-49.206	0.007	0.003
-343.391	-136.289	-0.122	-0.014
-342.377	-106.154	0.166	-0.037
-341.362	270.946	0.183	-0.320
-340.348	800.000	-0.095	0.270
-339.333	-36.542	-0.122	0.066
-338.318	-200.000	-0.033	0.489
-337.304	142.454	0.185	0.245
-336.289	-200.000	-0.009	-0.223
-335.275	-28.597	-0.146	0.084
-334.260	-200.000	0.055	0.415
-333.245	800.000	-0.028	0.080
-332.231	-200.000	-0.008	-0.120
-331.216	-149.606	-0.104	0.008
-330.202	135.667	0.264	0.343
-329.187	-200.000	-0.018	-0.107
-328.172	6.897	-0.371	-0.275
-327.158	495.868	0.127	0.290
-326.143	-200.000	0.032	-0.216
-325.129	-5.099	-0.228	0.156
-324.114	-200.000	-0.014	-0.258
-323.099	-60.749	-0.242	-0.102
-322.085	-132.002	-0.298	0.039
-321.070	-129.854	-0.094	-0.013
-320.056	-200.000	0.039	-0.312
-319.041	296.298	0.081	-0.148
-318.026	21.203	-0.048	0.039
-317.012	-192.260	0.239	0.002
-315.997	-96.529	0.147	-0.039
-314.983	49.250	0.125	0.117
-313.968	173.588	-0.104	0.149
-312.953	800.000	-0.126	0.419
-311.939	33.252	-0.235	0.203
-310.924	-200.000	0.017	-0.176
-309.910	518.728	-0.103	0.239
-308.895	217.923	-0.101	0.160
-307.880	-200.000	-0.064	-0.286
-306.866	-147.460	0.142	0.012
-305.851	-200.000	0.019	0.153
-304.837	359.987	0.110	-0.220
-303.822	105.623	0.177	-0.209
-302.807	-200.000	0.038	0.179
-301.793	800.000	0.124	0.350
-300.778	125.090	0.231	0.290
-299.764	490.528	0.049	0.111
-298.749	800.000	0.109	-0.346
-297.735	233.098	-0.108	-0.177
-296.720	-200.000	-0.000	0.187
-295.705	-200.000	0.010	0.129
-294.691	75.356	-0.109	0.114
-293.676	-85.391	0.300	-0.093
-292.662	151.204	-0.223	0.302
-291.647	-51.879	0.196	0.091
-290.632	-149.199	-0.450	0.036
-289.618	-200.000	0.021	-0.339
-288.603	-55.149	0.328	-0.147
-287.589	72.358	0.244	0.253
-286.574	800.000	0.036	0.155
-285.559	-39.062	0.063	-0.033
-284.545	-200.000	-0.008	-0.043
-283.530	-95.959	-0.126	-0.033
-282.516	13.226	0.222	-0.171
-281.501	188.989	-0.100	-0.148
-280.486	-185.605	-0.097	-0.001
-279.472	-84.939	0.121	-0.038
-278.457	-104.860	0.180	0.041
-277.443	339.953	-0.123	-0.238
-276.428	39.926	0.082	0.073
-275.413	-127.973	0.136	-0.019
-274.399	282.219	0.131	-0.233
-273.384	426.141	-0.166	0.355
-272.370	-200.000	-0.012	0.192
-271.355	-129.923	-0.107	0.015
-270.340	-70.452	0.063	-0.024
-269.326	683.216	0.116	0.301
-268.311	285.967	-0.066	-0.119
-267.297	-142.655	-0.287	0.028
-266.282	-184.354	0.175	0.003
-265.267	-200.000	0.026	-0.317
-264.253	125.299	0.099	0.124
-263.238	800.000	0.071	-0.273
-262.224	2.373	0.280	-0.201
-261.209	-200.000	0.022	-0.248
-260.195	318.157	-0.133	-0.250
-259.180	800.000	-0.072	-0.207
-258.165	351.854	-0.025	0.050
-257.151	-79.840	-0.263	-0.088
-256.136	24.416	-0.178	0.146
-255.122	97.546	0.142	-0.162
-254.107	340.913	0.143	0.277
-253.092	44.251	-0.378	-0.344
-252.078	800.000	0.029	-0.111
-251.063	-149.240	0.064	0.005
-250.049	-200.000	0.046	-0.305
-249.034	-200.000	-0.055	0.243
-248.019	81.802	-0.196	-0.211
-247.005	-127.101	0.246	0.036
-245.990	399.010	0.074	-0.154
-244.976	800.000	-0.023	-0.069
-243.961	-200.000	-0.000	0.097
-242.946	-115.989	0.139	0.026
-241.932	-35.651	0.129	-0.069
-240.917	-122.860	0.230	-0.037
-239.903	-33.237	0.351	0.193
-238.888	300.630	-0.041	-0.075
-237.873	-200.000	-0.003	0.022
-236.859	369.511	0.184	0.370
-235.844	82.919	-0.106	0.114
-234.830	-94.556	0.092	0.025
-233.815	76.285	-0.169	-0.177
-232.800	-100.792	-0.137	-0.033
-231.786	40.178	-0.220	0.196
-230.771	168.278	-0.073	0.103
-229.757	-65.471	0.415	0.165
-228.742	-200.000	0.032	0.424
-227.727	-133.109	0.090	0.011
-226.713	34.788	0.199	-0.173
-225.698	800.000	0.034	-0.107
-224.684	-200.000	-0.059	-0.285
-223.669	221.465	0.019	-0.031
-222.655	193.278	0.094	-0.141
-221.640	65.268	0.182	-0.182
-220.625	402.580	-0.069	-0.144
-219.611	-200.000	-0.015	-0.080
-218.596	-200.000	-0.054	0.426
-217.582	35.351	-0.203	-0.177
-216.567	800.000	-0.008	0.026
-215.552	147.321	0.032	0.043
-214.538	-84.541	0.112	-0.035
-213.523	226.336	-0.279	-0.449
-212.509	-59.430	0.307	0.131
-211.494	-200.000	-0.015	0.139
-210.479	-86.962	-0.413	-0.125
-209.465	-200.000	-0.005	0.211
-208.450	622.597	0.028	0.070
-207.436	77.342	0.085	0.089
-206.421	-6.186	-0.088	-0.060
-205.406	-152.300	0.108	-0.008
-204.392	55.764	-0.139	0.133
-203.377	24.392	-0.120	-0.098
-202.363	-121.288	-0.090	0.015
-201.348	333.849	0.089	-0.171
-200.333	44.246	0.230	0.209
-199.319	49.248	0.120	-0.112
-198.304	-5.766	-0.055	-0.037
-197.290	-31.978	-0.182	0.101
-196.275	-84.826	0.143	0.044
-195.260	-121.594	-0.296	-0.049
-194.246	31.882	0.233	0.199
-193.231	-200.000	0.005	0.093
-192.217	-81.387	-0.150	-0.049
-191.202	262.821	-0.102	0.175
-190.187	4.901	-0.265	-0.193
-189.173	22.992	0.058	-0.047
-188.158	-148.974	0.091	-0.007
-187.144	0.376	-0.300	0.212
-186.129	161.762	0.108	-0.150
-185.114	-158.403	0.256	0.015
-184.100	27.044	-0.175	-0.146
-183.085	669.599	0.046	0.119
-182.071	59.848	0.122	0.120
-181.056	-153.838	-0.158	0.011
-180.042	46.523	0.286	-0.263
-179.027	481.224	0.082	0.183
-178.012	-22.946	-0.224	0.133
-176.998	4.956	0.301	-0.219
-175.983	58.940	-0.206	0.201
-174.969	800.000	0.088	0.261
-173.954	49.808	0.170	-0.159
-172.939	512.633	0.255	0.588
-171.925	33.743	0.166	-0.143
-170.910	87.377	0.169	0.185
-169.896	-200.000	-0.003	0.084
-168.881	-0.271	-0.124	0.087
-167.866	800.000	0.053	0.217
-166.852	225.761	0.058	0.093
-165.837	-200.000	0.005	0.123
-164.823	800.000	0.023	-0.067
-163.808	17.856	0.311	0.245
-162.793	172.914	0.130	-0.186
-161.779	-24.473	-0.062	0.036
-160.764	800.000	-0.037	-0.112
-159.750	94.332	-0.036	-0.041
-158.735	6.750	-0.193	0.142
-157.720	171.312	-0.166	0.236
-156.706	-85.843	-0.049	0.015
-155.691	34.774	-0.219	0.189
-154.677	215.263	0.018	-0.029
-153.662	-200.000	-0.069	-0.411
-152.647	-200.000	0.009	0.175
-151.633	-200.000	0.009	0.345
-150.618	119.766	0.093	0.114
-149.604	-73.626	0.074	-0.027
-148.589	-29.938	-0.239	-0.134
-147.574	-200.000	0.060	-0.566
-146.560	69.280	-0.196	-0.199
-145.545	-15.221	-0.128	-0.081
-144.531	-0.195	-0.122	0.086
-143.516	698.005	0.129	0.335
-142.502	-39.141	-0.133	0.069
-141.487	-87.928	-0.143	-0.042
-140.472	470.835	-0.092	-0.205
-139.458	225.104	0.102	0.163
-138.443	-200.000	-0.033	0.246
-137.429	-79.413	0.173	0.058
-136.414	412.978	-0.042	-0.089
-135.399	-69.230	0.135	-0.051
-134.385	-200.000	0.041	0.204
-133.370	-105.751	0.104	0.023
-132.356	-77.028	0.257	-0.089
-131.341	-200.000	-0.004	0.021
-130.326	-151.685	0.228	-0.017
-129.312	800.000	0.013	-0.044
-128.297	800.000	0.042	-0.140
-127.283	-156.045	0.285	0.018
-126.268	-200.000	0.017	-0.141
-125.253	396.945	-0.132	0.273
-124.239	-200.000	0.060	0.292
-123.224	800.000	-0.039	0.109
-122.210	-200.000	0.076	-0.399
-121.195	-200.000	0.056	0.309
-120.180	-72.395	0.098	0.036
