DTS Sentinel unit serial number:	SN413079Multiplexer serial number:	ORYXHardware model number:	OX4-SRSoftware version number:	ORYX F/W v4.00 Oryx Data Collector v3.7.2.0data status	okinstallation	princeton_trtdifferential loss correction	single-endedforward channel	channel 1reverse channel	N/Adate	2019/09/12time	09:12:11forward acquisition time	60.00reverse acquisition time	0.00gamma	496.2192k internal	0.2306k external	0.2306temperature offset calibration	1.0043default loss term (dB/km)	0.3790temperature slope calibration	1.0000multiplexer offset coefficient	1.0000multiplexer slope coefficient	1.0000fibre end	0.00T internal ref (°C)	34.69T ext. ref 1 (°C)	1.80T ext. ref 2 (°C)	32.99length (m)	temperature (°C)	Stokes	anti-Stokes-747.200	-200.000	0.011	0.248
-746.185	-200.000	-0.023	0.143
-745.171	270.663	0.167	0.299
-744.156	800.000	0.128	0.362
-743.142	-200.000	0.102	0.545
-742.127	33.098	-0.098	-0.087
-741.112	403.603	0.058	-0.124
-740.098	800.000	-0.130	0.368
-739.083	-105.013	-0.125	0.029
-738.069	-60.551	0.041	0.018
-737.054	-54.882	-0.100	-0.046
-736.039	-134.975	-0.283	-0.035
-735.025	-86.763	0.149	-0.046
-734.010	19.301	-0.117	0.096
-732.996	-200.000	0.002	-0.009
-731.981	-200.000	-0.052	-0.267
-730.966	-122.394	0.237	-0.039
-729.952	592.807	-0.104	0.261
-728.937	590.798	-0.161	-0.404
-727.923	800.000	-0.095	0.374
-726.908	21.353	0.210	0.173
-725.894	-141.549	-0.148	0.015
-724.879	-91.241	0.196	0.057
-723.864	288.400	-0.044	0.081
-722.850	66.142	0.190	-0.196
-721.835	-200.000	0.033	-0.399
-720.821	-200.000	0.006	-0.478
-719.806	-85.845	-0.395	-0.124
-718.791	131.632	0.250	-0.327
-717.777	-74.688	-0.240	-0.088
-716.762	-147.677	-0.250	-0.021
-715.748	42.656	0.137	0.127
-714.733	-200.000	-0.007	0.214
-713.718	64.722	-0.307	-0.315
-712.704	-200.000	0.015	-0.088
-711.689	-93.194	-0.172	-0.048
-710.675	-93.882	0.212	0.059
-709.660	-123.678	0.235	-0.038
-708.645	242.601	-0.096	0.163
-707.631	3.337	-0.089	-0.066
-706.616	215.278	-0.029	0.047
-705.602	-139.968	-0.087	0.009
-704.587	-200.000	0.032	0.148
-703.572	-46.726	-0.129	-0.064
-702.558	-200.000	0.005	-0.162
-701.543	800.000	-0.099	-0.282
-700.529	266.991	0.172	0.306
-699.514	63.102	0.119	-0.121
-698.499	157.253	0.146	-0.206
-697.485	140.264	-0.060	0.080
-696.470	8.714	-0.186	-0.143
-695.456	134.952	-0.062	0.082
-694.441	-25.119	0.289	-0.174
-693.426	800.000	0.091	-0.286
-692.412	-63.086	0.236	-0.099
-691.397	12.179	0.353	0.276
-690.383	78.632	-0.147	0.159
-689.368	-200.000	0.013	0.255
-688.354	128.326	0.262	-0.339
-687.339	800.000	0.109	-0.319
-686.324	228.527	0.040	0.066
-685.310	-89.467	0.211	0.063
-684.295	-70.618	0.328	-0.126
-683.281	-200.000	-0.010	-0.642
-682.266	505.421	0.209	-0.491
-681.251	-200.000	-0.032	0.161
-680.237	-200.000	-0.037	0.222
-679.222	-200.000	-0.039	-0.179
-678.208	445.193	-0.092	-0.206
-677.193	-42.628	0.074	0.038
-676.178	-121.201	-0.126	-0.021
-675.164	676.459	-0.100	-0.265
-674.149	80.172	-0.025	-0.027
-673.135	-200.000	-0.051	0.270
-672.120	-200.000	0.012	0.195
-671.105	64.744	-0.196	0.201
-670.091	-42.854	0.350	0.180
-669.076	-74.002	-0.206	-0.076
-668.062	800.000	-0.100	-0.287
-667.047	261.373	-0.072	-0.126
-666.032	-115.213	0.349	0.067
-665.018	-200.000	-0.042	-0.212
-664.003	153.929	0.124	-0.173
-662.989	-200.000	0.012	0.079
-661.974	-82.205	0.126	-0.042
-660.959	-200.000	0.052	-0.380
-659.945	284.712	0.122	-0.222
-658.930	374.896	0.129	0.267
-657.916	177.454	0.276	-0.408
-656.901	185.276	0.106	-0.160
-655.886	383.776	0.070	-0.146
-654.872	27.788	0.377	-0.322
-653.857	-145.812	-0.498	-0.045
-652.843	-148.134	0.334	0.028
-651.828	-23.627	-0.218	-0.132
-650.814	-200.000	0.001	0.021
-649.799	-200.000	0.009	-0.048
-648.784	63.566	0.281	-0.286
-647.770	-200.000	-0.063	-0.311
-646.755	-200.000	0.011	0.050
-645.741	619.395	-0.052	0.132
-644.726	-58.213	0.354	0.156
-643.711	-131.017	0.228	-0.031
-642.697	-36.584	0.348	-0.190
-641.682	-117.451	0.359	-0.066
-640.668	87.850	0.147	0.165
-639.653	800.000	-0.046	-0.139
-638.638	-200.000	-0.024	0.301
-637.624	306.134	-0.032	0.061
-636.609	359.924	0.085	0.172
-635.595	-99.074	-0.155	-0.040
-634.580	-55.993	-0.256	-0.116
-633.565	270.472	-0.110	-0.196
-632.551	-112.255	0.522	0.106
-631.536	222.051	0.043	-0.070
-630.522	-58.063	-0.220	-0.097
-629.507	-70.566	0.189	0.072
-628.492	129.122	-0.124	0.160
-627.478	-46.323	-0.079	-0.039
-626.463	-5.935	0.156	0.108
-625.449	337.362	-0.174	-0.343
-624.434	67.021	0.219	-0.226
-623.419	-200.000	0.032	0.143
-622.405	-57.979	-0.180	0.080
-621.390	-162.759	0.100	-0.005
-620.376	-108.546	-0.225	-0.049
-619.361	328.135	-0.016	0.031
-618.346	-200.000	0.017	-0.183
-617.332	-200.000	-0.017	-0.276
-616.317	162.525	-0.009	-0.013
-615.303	-6.759	0.183	-0.126
-614.288	-49.448	0.279	0.135
-613.273	14.033	-0.256	-0.201
-612.259	-97.093	-0.321	-0.085
-611.244	123.313	-0.032	0.040
-610.230	-14.278	0.309	0.202
-609.215	-56.459	0.389	0.175
-608.201	8.525	-0.275	0.209
-607.186	-48.686	0.191	-0.093
-606.171	304.097	-0.130	-0.244
-605.157	33.276	0.160	-0.140
-604.142	158.212	-0.027	-0.037
-603.128	-200.000	-0.007	-0.330
-602.113	-23.817	-0.176	-0.106
-601.098	40.629	0.204	-0.186
-600.084	-95.495	0.347	-0.094
-599.069	-141.249	0.064	-0.007
-598.055	-52.714	-0.296	-0.138
-597.040	-98.581	-0.047	-0.012
-596.025	439.192	0.032	-0.071
-595.011	390.057	-0.172	-0.362
-593.996	31.518	-0.095	0.083
-592.982	571.637	0.138	0.339
-591.967	-40.988	-0.285	-0.149
-590.952	800.000	-0.066	-0.285
-589.938	346.011	-0.169	-0.336
-588.923	11.582	0.097	-0.075
-587.909	106.344	-0.072	0.086
-586.894	-200.000	-0.003	-0.481
-585.879	-26.027	0.089	-0.053
-584.865	-97.186	0.148	-0.039
-583.850	545.532	0.178	-0.431
-582.836	-200.000	0.019	0.308
-581.821	-108.297	-0.059	-0.013
-580.806	-119.023	-0.106	-0.019
-579.792	-113.983	-0.198	-0.039
-578.777	37.954	-0.268	-0.241
-577.763	-88.238	-0.177	-0.054
-576.748	250.651	-0.032	0.054
-575.733	265.108	0.140	0.246
-574.719	800.000	0.118	-0.502
-573.704	131.540	-0.078	-0.101
-572.690	113.968	-0.064	0.078
-571.675	58.419	-0.153	0.152
-570.661	76.827	-0.283	0.304
-569.646	-15.719	0.284	-0.183
-568.631	-141.344	-0.266	-0.027
-567.617	-200.000	-0.004	0.059
-566.602	-61.236	0.113	-0.048
-565.588	-200.000	-0.060	-0.361
-564.573	800.000	-0.036	-0.142
-563.558	800.000	0.044	-0.161
-562.544	392.779	0.205	0.430
-561.529	800.000	-0.059	-0.173
-560.515	-58.597	0.472	-0.207
-559.500	-200.000	-0.010	-0.200
-558.485	20.919	-0.245	-0.200
-557.471	-200.000	0.019	-0.242
-556.456	-26.190	-0.382	-0.226
-555.442	-127.747	-0.083	-0.012
-554.427	-69.094	-0.155	-0.060
-553.412	-147.367	0.256	0.022
-552.398	-109.051	-0.182	0.039
-551.383	0.286	-0.206	0.149
-550.369	6.683	-0.110	0.082
-549.354	-137.497	-0.076	0.009
-548.339	41.162	-0.035	-0.032
-547.325	46.018	0.306	-0.286
-546.310	-200.000	0.031	-0.196
-545.296	-77.097	0.119	-0.042
-544.281	-37.261	0.148	-0.080
-543.266	-144.400	0.226	-0.021
-542.252	800.000	-0.047	0.176
-541.237	65.888	0.235	0.241
-540.223	-79.826	-0.160	-0.054
-539.208	-51.188	0.143	0.068
-538.193	-2.572	0.251	0.177
-537.179	102.237	-0.117	-0.138
-536.164	730.545	-0.092	-0.248
-535.150	-200.000	0.011	-0.450
-534.135	-200.000	-0.027	-0.210
-533.121	-121.615	0.120	0.020
-532.106	-200.000	0.015	0.075
-531.091	507.297	-0.093	-0.217
-530.077	-5.540	-0.101	0.070
-529.062	-172.156	-0.148	-0.005
-528.048	73.586	-0.168	-0.178
-527.033	184.013	0.166	-0.248
-526.018	364.078	-0.176	0.356
-525.004	481.084	-0.158	-0.362
-523.989	65.824	0.184	-0.188
-522.975	293.726	-0.210	0.386
-521.960	356.118	0.053	0.107
-520.945	-114.474	0.191	-0.037
-519.931	128.104	-0.112	-0.144
-518.916	800.000	0.062	-0.220
-517.902	196.856	0.159	-0.244
-516.887	99.154	0.113	0.132
-515.872	-169.432	0.075	0.003
-514.858	75.423	-0.111	-0.118
-513.843	-200.000	-0.024	0.146
-512.829	-47.327	0.052	0.025
-511.814	196.637	0.131	0.201
-510.799	65.219	-0.210	0.214
-509.785	-41.944	-0.319	-0.165
-508.770	-122.539	-0.145	-0.024
-507.756	-138.093	0.199	-0.022
-506.741	-61.200	0.056	-0.024
-505.726	-200.000	0.039	0.303
-504.712	21.109	-0.200	-0.163
-503.697	137.247	-0.161	-0.212
-502.683	-34.631	0.024	-0.013
-501.668	-172.640	0.077	0.002
-500.653	79.524	0.139	0.150
-499.639	183.579	0.125	0.186
-498.624	-75.393	0.230	-0.083
-497.610	-200.000	0.011	-0.073
-496.595	210.170	-0.145	0.229
-495.581	-116.566	-0.282	0.052
-494.566	-66.734	0.319	-0.127
-493.551	-54.981	-0.109	-0.049
-492.537	-114.980	0.146	-0.028
-491.522	356.056	0.074	-0.149
-490.508	-103.960	0.105	0.025
-489.493	-200.000	-0.008	0.228
-488.478	-110.583	-0.315	0.066
-487.464	-200.000	0.011	0.076
-486.449	800.000	-0.026	-0.088
-485.435	87.414	0.059	-0.066
-484.420	-70.039	0.110	0.042
-483.405	298.791	-0.088	0.163
-482.391	-49.032	0.329	0.159
-481.376	-128.470	-0.281	-0.040
-480.362	-58.509	0.179	-0.078
-479.347	0.154	-0.103	-0.074
-478.332	-119.888	0.387	0.067
-477.318	-200.000	-0.256	-0.001
-476.303	-117.231	0.176	0.032
-475.289	-27.675	0.081	-0.047
-474.274	-47.562	0.170	0.083
-473.259	54.130	-0.055	-0.054
-472.245	-68.670	-0.139	-0.054
-471.230	210.641	-0.125	0.198
-470.216	30.096	-0.216	-0.186
-469.201	800.000	0.125	0.378
-468.186	368.077	-0.015	-0.031
-467.172	123.137	-0.277	0.349
-466.157	-200.000	0.005	0.455
-465.143	283.506	0.086	-0.155
-464.128	800.000	-0.042	0.162
-463.113	15.845	0.170	-0.135
-462.099	-177.824	-0.248	-0.006
-461.084	90.241	-0.278	0.312
-460.070	74.916	-0.122	-0.129
-459.055	-9.975	0.259	0.173
-458.040	800.000	-0.042	0.143
-457.026	-152.475	0.151	0.011
-456.011	800.000	0.029	0.114
-454.997	800.000	0.093	-0.283
-453.982	770.258	0.062	0.170
-452.968	-200.000	0.023	0.277
-451.953	561.419	0.050	0.121
-450.938	21.209	-0.256	-0.209
-449.924	-61.749	-0.025	0.010
-448.909	-8.188	-0.205	-0.139
-447.895	2.351	-0.340	-0.248
-446.880	800.000	0.066	0.250
-445.865	62.647	0.137	-0.138
-444.851	14.663	-0.351	-0.276
-443.836	20.426	-0.222	-0.181
-442.822	14.796	0.098	0.077
-441.807	187.192	-0.020	0.030
-440.792	38.121	-0.273	0.244
-439.778	-77.677	-0.313	0.109
-438.763	-56.799	-0.368	0.164
-437.749	16.849	0.151	0.120
-436.734	-200.000	-0.051	0.306
-435.719	370.112	-0.076	-0.154
-434.705	112.034	0.179	0.218
-433.690	-200.000	0.058	0.309
-432.676	-65.215	0.035	-0.014
-431.661	-200.000	-0.047	0.237
-430.646	-29.422	-0.187	0.108
-429.632	800.000	-0.013	0.046
-428.617	800.000	-0.089	-0.328
-427.603	94.135	0.141	-0.160
-426.588	-61.495	-0.241	0.102
-425.573	-120.973	0.032	0.005
-424.559	159.441	0.130	0.181
-423.544	49.904	-0.048	-0.046
-422.530	800.000	0.016	-0.048
-421.515	-118.340	-0.245	0.044
-420.500	-89.670	0.213	0.063
-419.486	62.765	-0.124	-0.125
-418.471	-200.000	0.031	0.211
-417.457	150.534	0.085	-0.116
-416.442	172.466	-0.176	-0.255
-415.428	800.000	-0.076	-0.326
-414.413	-200.000	-0.003	0.047
-413.398	-149.890	-0.029	-0.002
-412.384	-200.000	-0.019	-0.112
-411.369	-141.017	0.321	0.033
-410.355	4.487	0.078	0.057
-409.340	-157.658	0.128	-0.008
-408.325	-74.749	0.308	-0.111
-407.311	138.509	-0.197	0.259
-406.296	363.197	-0.086	-0.174
-405.282	110.036	0.214	0.258
-404.267	39.974	0.165	-0.149
-403.252	489.719	-0.072	0.166
-402.238	749.819	-0.126	0.342
-401.223	531.317	0.107	0.253
-400.209	440.052	0.116	-0.254
-399.194	-75.687	0.106	0.038
-398.179	-65.007	-0.111	0.045
-397.165	14.655	-0.143	-0.112
-396.150	-29.238	-0.203	-0.117
-395.136	209.731	0.229	0.361
-394.121	-28.204	-0.042	0.024
-393.106	51.893	-0.279	-0.267
-392.092	187.755	-0.036	-0.054
-391.077	-34.555	0.260	-0.143
-390.063	415.489	-0.048	0.103
-389.048	-158.254	-0.250	-0.015
-388.033	-130.417	0.249	-0.034
-387.019	442.745	0.137	0.301
-386.004	800.000	-0.034	0.147
-384.990	36.250	-0.113	-0.100
-383.975	-200.000	-0.007	-0.105
-382.960	-69.275	0.026	-0.010
-381.946	429.186	0.091	-0.197
-380.931	-176.407	-0.277	0.007
-379.917	40.946	-0.067	-0.061
-378.902	-90.915	-0.429	-0.124
-377.888	-106.332	-0.352	-0.079
-376.873	458.402	-0.113	0.252
-375.858	215.235	-0.127	0.202
-374.844	443.364	-0.153	-0.337
-373.829	61.982	0.062	0.062
-372.815	-44.423	0.090	-0.045
-371.800	-66.964	0.210	0.083
-370.785	1.750	0.148	0.107
-369.771	181.034	0.031	-0.046
-368.756	325.065	0.108	0.206
-367.742	-120.497	0.098	-0.017
-366.727	-165.231	-0.200	-0.009
-365.712	40.537	-0.041	-0.037
-364.698	-29.649	-0.167	0.096
-363.683	-34.334	-0.214	0.118
-362.669	570.519	0.061	-0.148
-361.654	-90.792	-0.138	0.040
-360.639	800.000	-0.096	-0.370
-359.625	-111.795	0.211	-0.043
-358.610	-136.186	0.084	-0.010
-357.596	-87.125	0.181	0.055
-356.581	-144.637	-0.285	-0.026
-355.566	-200.000	-0.015	-0.219
-354.552	-200.000	0.003	-0.048
-353.537	800.000	-0.089	0.263
-352.523	162.053	0.064	0.089
-351.508	213.469	0.067	0.106
-350.493	800.000	0.061	-0.241
-349.479	106.051	0.120	-0.142
-348.464	-117.538	-0.132	0.024
-347.450	-9.778	0.163	0.109
-346.435	800.000	-0.088	0.297
-345.420	-139.379	0.414	0.044
-344.406	-105.410	-0.227	-0.052
-343.391	27.995	0.322	0.272
-342.377	-96.093	-0.125	-0.033
-341.362	45.891	0.192	0.178
-340.348	6.823	0.114	0.085
-339.333	-179.545	0.112	0.002
-338.318	-200.000	0.019	0.175
-337.304	304.683	-0.130	-0.241
-336.289	112.210	-0.103	-0.125
-335.275	355.600	0.081	-0.161
-334.260	-200.000	0.020	0.142
-333.245	106.920	-0.304	0.361
-332.231	256.551	0.149	0.257
-331.216	-95.690	0.193	0.052
-330.202	523.512	0.085	-0.200
-329.187	126.493	0.141	-0.179
-328.172	-64.382	0.160	0.065
-327.158	-106.054	-0.206	-0.046
-326.143	-125.414	-0.302	-0.046
-325.129	-200.000	-0.002	0.027
-324.114	143.799	0.095	-0.126
-323.099	46.423	0.180	0.167
-322.085	-29.042	0.140	0.080
-321.070	-127.066	-0.275	-0.040
-320.056	-200.000	0.018	0.157
-319.041	-75.343	-0.087	-0.031
-318.026	-99.066	-0.195	-0.049
-317.012	-83.059	-0.431	0.139
-315.997	-200.000	0.006	0.190
-314.983	182.519	-0.150	0.221
-313.968	-200.000	-0.042	0.191
-312.953	53.266	0.162	0.155
-311.939	252.253	0.029	-0.050
-310.924	-115.178	0.062	0.012
-309.910	40.509	0.307	0.277
-308.895	-180.211	0.272	-0.006
-307.880	394.695	0.089	0.185
-306.866	517.207	-0.031	-0.073
-305.851	-101.716	0.255	-0.062
-304.837	-200.000	-0.012	-0.206
-303.822	302.821	-0.193	-0.358
-302.807	-100.590	-0.193	-0.048
-301.793	-23.326	-0.116	0.070
-300.778	-11.801	0.217	-0.142
-299.764	-0.127	-0.098	0.070
-298.749	796.151	-0.113	0.310
-297.735	-87.676	-0.294	0.089
-296.720	-168.226	0.209	-0.008
-295.705	265.542	-0.116	0.202
-294.691	-25.062	-0.521	0.309
-293.676	-200.000	-0.031	0.173
-292.662	800.000	0.035	-0.099
-291.647	-48.309	-0.071	0.034
-290.632	-109.807	-0.249	0.052
-289.618	81.776	-0.102	0.110
-288.603	-109.274	0.101	-0.021
-287.589	-58.907	-0.215	-0.093
-286.574	-200.000	0.016	0.144
-285.559	23.750	-0.087	0.072
-284.545	717.481	-0.139	-0.369
-283.530	274.549	0.058	0.103
-282.516	-63.861	-0.349	0.143
-281.501	393.816	-0.167	-0.348
-280.486	-39.462	0.045	0.024
-279.472	182.238	-0.173	-0.255
-278.457	37.197	0.154	-0.136
-277.443	316.777	-0.189	-0.358
-276.428	84.334	0.178	-0.195
-275.413	-54.926	-0.202	-0.091
-274.399	750.655	0.109	0.294
-273.384	581.126	-0.141	-0.346
-272.370	-121.847	-0.070	-0.012
-271.355	613.918	-0.113	0.283
-270.340	-66.935	0.376	0.148
-269.326	209.788	-0.084	-0.131
-268.311	46.584	-0.170	0.158
-267.297	-200.000	0.022	-0.278
-266.282	800.000	0.071	0.221
-265.267	32.254	-0.039	-0.033
-264.253	-74.389	-0.374	-0.135
-263.238	660.422	-0.136	0.349
-262.224	-83.398	0.210	-0.067
-261.209	40.328	0.102	0.092
-260.195	-200.000	0.011	-0.070
-259.180	115.691	-0.122	-0.149
-258.165	77.024	-0.267	0.283
-257.151	645.328	-0.058	0.149
-256.136	14.854	-0.234	-0.182
-255.122	800.000	0.050	-0.140
-254.107	561.018	-0.082	-0.197
-253.092	56.144	0.139	0.135
-252.078	800.000	-0.089	-0.341
-251.063	-170.132	-0.312	-0.011
-250.049	800.000	0.068	0.263
-249.034	-200.000	0.010	0.060
-248.019	-200.000	-0.043	-0.198
-247.005	119.800	0.193	0.239
-245.990	-200.000	0.011	0.181
-244.976	72.282	0.057	0.059
-243.961	26.697	0.226	-0.189
-242.946	-144.715	0.430	-0.039
-241.932	-100.405	0.234	0.058
-240.917	-173.678	-0.322	0.010
-239.903	-62.321	0.147	-0.061
-238.888	-69.516	-0.125	0.048
-237.873	330.738	0.210	-0.404
-236.859	-200.000	0.051	-0.284
-235.844	79.450	-0.211	0.226
-234.830	-12.788	-0.266	-0.173
-233.815	-116.228	0.305	0.056
-232.800	-101.182	0.228	0.056
-231.786	800.000	0.127	0.407
-230.771	-106.845	-0.204	-0.045
-229.757	-160.699	0.223	0.012
-228.742	19.302	0.111	0.089
-227.727	-161.308	0.323	0.017
-226.713	-58.568	-0.201	-0.087
-225.698	294.001	-0.113	0.206
-224.684	-153.322	0.204	-0.014
-223.669	800.000	-0.062	-0.255
-222.655	-200.000	0.004	-0.130
-221.640	-200.000	-0.006	0.118
-220.625	800.000	0.042	0.139
-219.611	-200.000	0.065	-0.290
-218.596	-45.603	0.304	0.150
-217.582	-57.924	-0.239	0.104
-216.567	-115.634	0.364	-0.068
-215.552	713.917	-0.022	0.059
-214.538	156.054	0.074	-0.102
-213.523	-109.350	0.393	-0.083
-212.509	-120.350	0.194	0.033
-211.494	141.148	-0.192	0.253
-210.479	315.519	0.130	-0.244
-209.465	-56.509	-0.142	0.063
-208.450	-43.344	0.325	0.164
-207.436	-168.796	0.081	-0.003
-206.421	3.030	0.109	0.079
-205.406	276.245	-0.196	-0.347
-204.392	149.930	0.112	0.152
-203.377	775.923	0.046	0.126
-202.363	-159.987	0.140	-0.008
-201.348	-200.000	-0.016	0.250
-200.333	-95.036	0.275	0.074
-199.319	309.087	-0.049	-0.092
-198.304	102.859	-0.070	0.081
-197.290	59.310	-0.029	0.028
-196.275	-84.537	0.125	-0.039
-195.260	100.750	-0.094	0.109
-194.246	599.920	0.015	-0.038
-193.231	21.428	0.168	-0.136
-192.217	-132.836	0.054	-0.007
-191.202	401.703	-0.085	0.177
-190.187	648.138	0.076	0.192
-189.173	-27.900	-0.245	-0.141
-188.158	289.345	0.016	0.030
-187.144	800.000	0.040	0.136
-186.129	-200.000	0.019	-0.198
-185.114	276.871	-0.094	-0.166
-184.100	18.695	0.164	0.131
-183.085	245.191	-0.026	-0.044
-182.071	-3.220	-0.177	0.123
-181.056	98.810	0.123	-0.141
-180.042	-78.919	0.123	-0.042
-179.027	138.699	0.102	0.133
-178.012	-200.000	-0.013	0.156
-176.998	341.057	0.118	0.230
-175.983	162.235	-0.155	0.216
-174.969	-162.521	0.307	-0.015
-173.954	-200.000	0.056	0.284
-172.939	800.000	0.111	0.376
-171.925	0.708	-0.300	-0.213
-170.910	-6.065	0.227	0.154
-169.896	411.755	0.111	0.234
-168.881	421.805	-0.069	-0.146
-167.866	-200.000	-0.026	-0.164
-166.852	-79.253	-0.158	0.053
-165.837	86.238	0.278	0.305
-164.823	-144.371	0.329	0.030
-163.808	450.143	-0.123	0.269
-162.793	-85.285	-0.288	0.090
-161.779	-180.479	0.120	0.002
-160.764	105.141	0.443	-0.520
-159.750	-83.708	-0.364	-0.116
-158.735	-200.000	0.002	0.106
-157.720	-156.937	0.067	0.004
-156.706	-77.374	0.203	-0.070
-155.691	209.097	0.092	-0.143
-154.677	499.218	-0.092	0.211
-153.662	27.750	-0.195	-0.163
-152.647	200.337	0.138	0.211
-151.633	68.662	0.253	0.258
-150.618	-200.000	0.040	-0.251
-149.604	721.063	-0.029	-0.077
-148.589	69.341	-0.197	0.202
-147.574	-152.704	0.244	-0.017
-146.560	-200.000	0.005	-0.202
-145.545	-200.000	0.002	-0.261
-144.531	-87.740	-0.263	-0.079
-143.516	-122.929	0.120	-0.019
-142.502	-97.653	-0.219	0.057
-141.487	157.601	0.155	-0.213
-140.472	76.375	-0.229	0.241
-139.458	-139.766	0.098	0.010
-138.443	106.903	0.097	0.114
-137.429	69.111	-0.057	0.058
-136.414	-28.151	0.165	0.095
-135.399	137.115	-0.141	-0.183
-134.385	295.615	-0.026	-0.048
-133.370	-84.478	-0.235	-0.074
-132.356	-182.590	-0.167	-0.003
-131.341	-167.082	-0.057	-0.002
-130.326	-105.844	0.297	0.067
-129.312	19.033	-0.250	-0.199
-128.297	-200.000	0.001	-0.231
-127.283	72.375	-0.158	0.163
-126.268	-200.000	-0.003	-0.034
-125.253	-200.000	-0.034	-0.169
-124.239	444.818	0.143	-0.311
-123.224	-110.836	0.354	-0.072
-122.210	-200.000	-0.040	-0.172
