DTS Sentinel unit serial number:	SN413079Multiplexer serial number:	ORYXHardware model number:	OX4-SRSoftware version number:	ORYX F/W v4.00 Oryx Data Collector v3.7.2.0data status	okinstallation	princeton_trtdifferential loss correction	single-endedforward channel	channel 1reverse channel	N/Adate	2019/09/19time	07:30:35forward acquisition time	60.00reverse acquisition time	0.00gamma	496.2192k internal	0.2342k external	0.2342temperature offset calibration	1.0015default loss term (dB/km)	0.3790temperature slope calibration	1.0000multiplexer offset coefficient	1.0000multiplexer slope coefficient	1.0000fibre end	0.00T internal ref (°C)	19.25T ext. ref 1 (°C)	0.55T ext. ref 2 (°C)	13.97length (m)	temperature (°C)	Stokes	anti-Stokes-747.200	-133.703	-0.158	0.020
-746.185	-200.000	-0.106	0.000
-745.171	363.922	0.052	0.104
-744.156	-71.380	-0.080	0.030
-743.142	79.970	-0.255	0.275
-742.127	234.997	-0.314	0.519
-741.112	94.281	0.168	-0.191
-740.098	399.013	-0.195	0.409
-739.083	553.794	-0.026	0.063
-738.069	223.010	-0.055	0.089
-737.054	-173.401	-0.185	-0.006
-736.039	3.904	-0.210	-0.154
-735.025	-67.319	0.153	0.060
-734.010	-21.208	-0.282	0.173
-732.996	-46.576	-0.204	-0.100
-731.981	800.000	0.023	-0.093
-730.966	25.921	-0.098	-0.082
-729.952	17.577	-0.130	0.103
-728.937	-200.000	0.003	-0.223
-727.923	-200.000	0.004	-0.305
-726.908	523.653	-0.152	-0.358
-725.894	-200.000	0.044	-0.322
-724.879	101.789	0.097	-0.113
-723.864	-78.978	0.242	-0.082
-722.850	731.290	-0.060	-0.161
-721.835	189.543	0.077	-0.116
-720.821	65.619	0.079	-0.080
-719.806	68.237	0.043	0.044
-718.791	-200.000	0.012	0.168
-717.777	-82.736	-0.158	-0.051
-716.762	-200.000	-0.007	0.127
-715.748	-14.280	0.263	0.169
-714.733	-51.841	-0.255	-0.119
-713.718	800.000	0.028	-0.085
-712.704	-85.985	-0.144	-0.045
-711.689	196.627	0.078	0.119
-710.675	721.787	0.152	0.405
-709.660	105.365	-0.271	-0.320
-708.645	31.981	-0.145	-0.125
-707.631	800.000	0.092	0.296
-706.616	259.135	0.125	-0.216
-705.602	-24.235	-0.131	-0.078
-704.587	-37.662	-0.152	0.081
-703.572	-21.709	0.179	0.109
-702.558	-115.433	0.117	0.022
-701.543	-34.861	-0.186	-0.101
-700.529	-200.000	-0.047	0.378
-699.514	-171.680	-0.154	0.005
-698.499	-18.653	-0.297	0.185
-697.485	-200.000	-0.032	-0.216
-696.470	-200.000	-0.025	-0.463
-695.456	800.000	0.064	-0.232
-694.441	23.388	-0.063	-0.052
-693.426	-200.000	-0.032	-0.218
-692.412	-87.035	-0.108	-0.033
-691.397	93.222	0.149	0.169
-690.383	546.226	0.234	-0.560
-689.368	19.331	0.361	-0.290
-688.354	-103.284	0.212	-0.050
-687.339	46.516	0.269	0.250
-686.324	-41.535	0.126	0.065
-685.310	-200.000	0.007	0.164
-684.295	426.044	-0.049	0.105
-683.281	140.525	-0.179	0.237
-682.266	292.179	-0.084	-0.153
-681.251	75.788	0.310	0.327
-680.237	-115.754	0.206	0.039
-679.222	-27.009	-0.073	-0.042
-678.208	-200.000	0.015	0.105
-677.193	-132.738	0.155	0.020
-676.178	800.000	-0.051	-0.162
-675.164	98.300	0.187	0.215
-674.149	-200.000	0.011	-0.107
-673.135	-13.556	-0.018	0.012
-672.120	-10.662	0.153	-0.101
-671.105	-11.685	-0.227	-0.149
-670.091	-200.000	-0.003	-0.145
-669.076	-21.156	-0.194	-0.118
-668.062	173.973	0.165	-0.239
-667.047	18.206	0.137	-0.109
-666.032	46.732	0.173	0.160
-665.018	800.000	0.121	-0.345
-664.003	-147.797	-0.194	0.016
-662.989	-32.247	-0.062	0.035
-661.974	312.257	0.074	0.139
-660.959	-1.903	-0.235	-0.165
-659.945	4.156	0.121	-0.089
-658.930	173.812	0.190	0.274
-657.916	-75.698	-0.205	0.073
-656.901	477.326	0.060	-0.136
-655.886	800.000	0.031	0.134
-654.872	459.054	-0.081	0.179
-653.857	399.773	-0.076	0.160
-652.843	-141.087	-0.165	-0.017
-651.828	45.761	0.327	0.302
-650.814	-200.000	0.040	-0.210
-649.799	133.292	-0.172	-0.222
-648.784	-1.688	-0.032	-0.022
-647.770	38.796	-0.266	-0.237
-646.755	-38.206	-0.236	-0.125
-645.741	-60.369	0.369	-0.156
-644.726	-20.311	-0.301	-0.185
-643.711	-117.329	-0.049	-0.009
-642.697	-16.426	-0.052	-0.033
-641.682	15.981	-0.212	-0.166
-640.668	-125.407	0.143	0.022
-639.653	-60.330	-0.100	0.043
-638.638	106.919	-0.018	-0.022
-637.624	134.799	0.167	0.216
-636.609	-200.000	-0.026	-0.315
-635.595	-200.000	0.058	-0.425
-634.580	-200.000	0.041	0.227
-633.565	211.325	0.164	-0.257
-632.551	800.000	-0.178	-0.490
-631.536	-200.000	-0.033	-0.287
-630.522	-13.421	0.059	-0.038
-629.507	-139.706	0.089	-0.009
-628.492	66.637	0.049	-0.050
-627.478	220.902	0.114	0.183
-626.463	321.553	0.069	-0.131
-625.449	-200.000	0.005	0.191
-624.434	322.433	-0.166	0.314
-623.419	-91.149	-0.285	-0.081
-622.405	-29.950	-0.182	0.103
-621.390	800.000	0.014	0.049
-620.376	800.000	-0.131	0.407
-619.361	-1.236	-0.345	0.243
-618.346	263.704	-0.029	0.050
-617.332	235.795	-0.011	0.018
-616.317	-85.999	0.100	-0.031
-615.303	-78.285	-0.184	-0.063
-614.288	16.034	0.077	0.061
-613.273	-96.836	0.138	-0.036
-612.259	209.920	-0.107	0.168
-611.244	-105.335	0.202	-0.046
-610.230	-200.000	-0.011	0.090
-609.215	257.914	-0.223	0.383
-608.201	-107.329	-0.192	-0.042
-607.186	-33.912	-0.263	-0.144
-606.171	670.132	-0.027	-0.070
-605.157	3.582	0.115	-0.083
-604.142	-111.912	0.338	-0.068
-603.128	-200.000	0.002	-0.068
-602.113	-173.708	-0.149	-0.004
-601.098	-116.862	-0.409	-0.075
-600.084	-200.000	-0.053	-0.281
-599.069	-61.002	-0.174	0.073
-598.055	69.882	-0.099	0.102
-597.040	-200.000	0.028	0.163
-596.025	-69.300	-0.235	-0.090
-595.011	-123.975	0.134	-0.021
-593.996	-30.437	-0.162	0.091
-592.982	-168.127	-0.204	0.008
-591.967	236.570	-0.076	0.125
-590.952	140.624	-0.217	-0.286
-589.938	-30.326	-0.260	0.147
-588.923	-200.000	0.010	0.118
-587.909	250.102	-0.044	0.074
-586.894	-200.000	-0.023	-0.406
-585.879	-42.217	0.310	-0.158
-584.865	-110.679	-0.143	-0.029
-583.850	-200.000	0.021	-0.284
-582.836	800.000	-0.053	0.157
-581.821	-200.000	-0.030	0.303
-580.806	-200.000	0.076	0.398
-579.792	-93.538	-0.142	0.039
-578.777	800.000	0.080	0.263
-577.763	-157.536	-0.197	0.012
-576.748	-200.000	-0.026	0.163
-575.733	129.144	-0.170	-0.215
-574.719	112.759	-0.134	-0.162
-573.704	800.000	0.077	-0.254
-572.690	-1.204	-0.145	0.102
-571.675	279.310	-0.231	0.410
-570.661	-7.821	0.256	0.172
-569.646	-77.565	0.206	0.071
-568.631	-103.929	0.164	0.038
-567.617	-200.000	0.004	0.095
-566.602	-200.000	0.026	0.181
-565.588	166.989	-0.131	-0.186
-564.573	460.673	0.203	-0.449
-563.558	25.738	0.063	0.052
-562.544	-90.107	-0.291	-0.084
-561.529	152.685	-0.093	-0.126
-560.515	-22.079	0.017	0.010
-559.500	800.000	-0.019	0.056
-558.485	-175.965	0.195	-0.005
-557.471	-193.924	0.380	0.003
-556.456	800.000	-0.086	0.313
-555.442	-78.136	0.299	0.102
-554.427	-131.795	-0.211	-0.027
-553.412	7.871	0.039	-0.029
-552.398	123.601	0.119	-0.148
-551.383	131.045	-0.110	-0.140
-550.369	-200.000	-0.001	-0.039
-549.354	345.156	0.170	0.332
-548.339	2.018	-0.151	-0.108
-547.325	-45.394	-0.174	0.086
-546.310	800.000	0.061	0.191
-545.296	-200.000	-0.020	-0.373
-544.281	-143.602	0.310	0.029
-543.266	-97.221	0.142	0.037
-542.252	800.000	-0.127	0.444
-541.237	800.000	-0.039	0.115
-540.223	800.000	-0.036	-0.127
-539.208	-131.102	0.245	0.032
-538.193	-156.944	-0.060	-0.004
-537.179	-10.564	0.247	-0.162
-536.164	-101.191	-0.218	-0.053
-535.150	800.000	0.021	0.079
-534.135	68.244	-0.066	0.067
-533.121	-75.331	-0.142	-0.050
-532.106	800.000	0.070	0.295
-531.091	-23.689	0.188	0.112
-530.077	340.081	-0.080	0.155
-529.062	165.474	-0.104	-0.146
-528.048	-152.111	-0.055	-0.004
-527.033	-200.000	-0.013	-0.082
-526.018	-200.000	0.009	-0.230
-525.004	32.633	-0.302	0.260
-523.989	187.561	0.279	0.414
-522.975	-200.000	-0.024	0.425
-521.960	178.818	0.112	-0.162
-520.945	800.000	0.023	-0.093
-519.931	-200.000	0.004	0.261
-518.916	-9.560	-0.124	0.082
-517.902	-54.774	-0.251	-0.113
-516.887	218.980	0.224	-0.356
-515.872	-54.535	0.213	0.096
-514.858	110.173	0.229	0.273
-513.843	-28.910	0.096	0.055
-512.829	178.083	0.204	-0.296
-511.814	132.871	-0.131	0.168
-510.799	800.000	-0.100	-0.304
-509.785	101.157	-0.164	-0.189
-508.770	-52.237	-0.189	-0.087
-507.756	-166.892	-0.254	-0.010
-506.741	84.312	-0.152	0.165
-505.726	-200.000	0.009	0.266
-504.712	-200.000	-0.031	0.440
-503.697	634.307	-0.096	0.241
-502.683	-87.833	-0.182	-0.054
-501.668	-28.101	-0.163	0.093
-500.653	18.390	0.041	-0.032
-499.639	-10.575	-0.053	-0.035
-498.624	-200.000	0.035	-0.235
-497.610	329.022	-0.066	0.126
-496.595	54.665	-0.263	0.252
-495.581	-119.282	0.268	0.046
-494.566	-33.341	0.090	0.050
-493.551	71.973	-0.221	0.229
-492.537	-200.000	0.039	-0.403
-491.522	162.007	0.035	0.048
-490.508	-200.000	-0.090	0.000
-489.493	72.422	-0.239	-0.247
-488.478	-128.100	0.445	-0.063
-487.464	112.159	-0.170	0.204
-486.449	-20.509	-0.245	-0.149
-485.435	800.000	0.103	-0.374
-484.420	-17.115	-0.133	0.083
-483.405	-200.000	-0.005	0.371
-482.391	328.461	0.171	-0.325
-481.376	320.070	0.125	0.234
-480.362	800.000	-0.084	0.304
-479.347	-27.337	0.248	-0.143
-478.332	-146.213	0.192	-0.017
-477.318	-200.000	-0.031	0.201
-476.303	-107.453	-0.047	0.010
-475.289	-97.110	-0.471	-0.122
-474.274	34.985	0.038	0.033
-473.259	800.000	0.129	0.354
-472.245	195.610	-0.071	-0.107
-471.230	-54.177	0.221	-0.100
-470.216	-58.865	0.377	-0.161
-469.201	63.738	0.026	-0.026
-468.186	63.076	0.183	-0.182
-467.172	676.238	-0.032	-0.081
-466.157	39.094	-0.068	-0.060
-465.143	87.422	0.167	0.183
-464.128	123.311	-0.114	-0.141
-463.113	-142.481	0.284	0.028
-462.099	-9.386	-0.143	-0.095
-461.084	134.576	-0.007	0.009
-460.070	-200.000	0.348	-0.001
-459.055	-8.444	0.053	-0.035
-458.040	-200.000	0.008	-0.184
-457.026	160.387	0.202	0.278
-456.011	800.000	-0.086	-0.298
-454.997	477.879	0.189	0.423
-453.982	757.911	0.066	-0.178
-452.968	29.255	-0.199	-0.168
-451.953	-23.036	-0.217	0.129
-450.938	23.361	-0.046	0.037
-449.924	-84.688	0.243	-0.076
-448.909	83.927	-0.208	0.225
-447.895	531.492	-0.206	0.482
-446.880	56.296	-0.180	0.174
-445.865	-200.000	-0.017	-0.120
-444.851	800.000	0.028	-0.087
-443.836	415.003	0.010	0.021
-442.822	800.000	-0.070	0.247
-441.807	-164.159	0.426	0.019
-440.792	-200.000	0.008	-0.041
-439.778	-200.000	0.003	-0.041
-438.763	79.609	0.360	-0.382
-437.749	300.074	-0.072	0.131
-436.734	81.179	0.163	0.174
-435.719	621.889	0.126	-0.314
-434.705	-77.160	0.410	0.141
-433.690	499.365	-0.067	0.152
-432.676	293.715	0.059	-0.106
-431.661	-83.891	-0.344	0.108
-430.646	786.410	0.025	-0.069
-429.632	5.212	0.476	0.347
-428.617	22.191	-0.066	0.053
-427.603	-44.839	0.182	-0.090
-426.588	-200.000	-0.031	-0.281
-425.573	-23.618	0.402	0.238
-424.559	-200.000	-0.001	-0.325
-423.544	-48.516	0.353	-0.168
-422.530	-200.000	0.004	0.093
-421.515	-79.977	-0.335	0.111
-420.500	-103.420	0.179	-0.042
-419.486	255.340	0.033	0.057
-418.471	63.410	0.351	-0.348
-417.457	27.424	-0.316	-0.263
-416.442	-200.000	-0.179	-0.000
-415.428	-102.364	0.061	-0.014
-414.413	130.804	0.299	-0.379
-413.398	482.063	0.192	-0.432
-412.384	-200.000	-0.014	-0.231
-411.369	3.442	0.198	-0.143
-410.355	373.509	0.048	-0.096
-409.340	134.618	-0.312	0.400
-408.325	358.967	-0.071	0.141
-407.311	72.919	0.131	-0.135
-406.296	47.944	0.273	0.252
-405.282	553.925	-0.125	0.297
-404.267	800.000	-0.073	-0.309
-403.252	-200.000	-0.059	0.324
-402.238	-200.000	0.042	-0.265
-401.223	800.000	0.087	-0.265
-400.209	-4.360	-0.180	-0.123
-399.194	50.908	-0.256	0.240
-398.179	-200.000	0.055	-0.390
-397.165	88.599	-0.144	0.158
-396.150	93.588	-0.214	0.240
-395.136	257.118	-0.045	0.076
-394.121	-50.351	-0.011	-0.005
-393.106	59.446	-0.245	-0.239
-392.092	6.173	-0.154	0.113
-391.077	6.600	-0.190	-0.140
-390.063	-153.010	-0.391	0.027
-389.048	21.543	-0.108	0.087
-388.033	-98.453	-0.246	0.062
-387.019	538.312	0.040	0.093
-386.004	154.518	0.163	-0.221
-384.990	-200.000	0.002	-0.008
-383.975	73.892	0.251	0.260
-382.960	800.000	0.041	0.166
-381.946	126.461	-0.093	-0.116
-380.931	800.000	-0.085	0.292
-379.917	800.000	0.059	-0.180
-378.902	29.222	0.304	-0.255
-377.888	-10.225	-0.137	0.090
-376.873	-56.565	-0.285	-0.125
-375.858	-200.000	0.012	0.063
-374.844	330.487	-0.081	0.154
-373.829	-200.000	-0.009	0.117
-372.815	128.237	0.211	0.265
-371.800	-200.000	-0.030	-0.226
-370.785	-167.322	0.070	-0.003
-369.771	800.000	0.048	0.184
-368.756	51.331	0.244	-0.229
-367.742	-50.196	0.135	-0.063
-366.727	727.873	0.127	0.335
-365.712	-13.175	0.386	0.247
-364.698	-9.577	0.203	0.134
-363.683	32.207	-0.152	-0.130
-362.669	-74.751	0.231	-0.082
-361.654	62.282	-0.041	0.041
-360.639	-200.000	0.032	-0.269
-359.625	235.609	-0.062	0.100
-358.610	-29.355	0.356	-0.201
-357.596	265.938	-0.034	0.059
-356.581	158.130	0.099	-0.135
-355.566	-200.000	-0.008	0.371
-354.552	-200.000	-0.022	-0.331
-353.537	-154.995	-0.192	-0.012
-352.523	-198.417	-0.387	-0.002
-351.508	131.514	0.174	-0.221
-350.493	-59.321	0.051	-0.021
-349.479	-67.349	0.252	0.098
-348.464	224.143	-0.082	-0.131
-347.450	15.887	-0.033	0.026
-346.435	124.853	-0.081	-0.100
-345.420	-136.210	0.205	0.024
-344.406	-200.000	-0.060	0.421
-343.391	-44.158	0.247	0.122
-342.377	169.876	0.128	-0.181
-341.362	-138.830	-0.419	0.045
-340.348	-4.296	-0.210	-0.143
-339.333	274.749	0.128	-0.224
-338.318	-51.045	-0.209	-0.097
-337.304	-65.237	0.085	0.034
-336.289	-86.173	0.199	0.061
-335.275	-152.822	-0.299	-0.021
-334.260	-80.682	0.238	0.078
-333.245	-78.949	0.228	0.076
-332.231	-200.000	0.001	-0.424
-331.216	800.000	-0.041	0.122
-330.202	55.690	0.339	0.323
-329.187	-7.693	-0.173	0.115
-328.172	-73.952	0.144	0.052
-327.158	510.958	-0.113	0.258
-326.143	-151.486	-0.052	-0.004
-325.129	-69.174	0.249	0.094
-324.114	-16.975	0.273	0.170
-323.099	-93.755	-0.269	-0.073
-322.085	-177.977	-0.153	0.004
-321.070	-200.000	0.030	-0.267
-320.056	411.362	-0.143	-0.299
-319.041	-109.124	-0.222	-0.047
-318.026	327.347	-0.014	-0.026
-317.012	290.962	-0.065	-0.116
-315.997	-31.677	0.140	0.077
-314.983	-19.626	0.044	0.027
-313.968	37.059	-0.114	-0.099
-312.953	-200.000	-0.014	-0.106
-311.939	52.822	-0.082	-0.077
-310.924	-200.000	0.005	-0.127
-309.910	800.000	0.056	-0.194
-308.895	-34.820	0.205	-0.110
-307.880	57.231	-0.139	0.134
-306.866	-33.670	-0.033	0.018
-305.851	-127.411	-0.282	0.040
-304.837	800.000	0.118	-0.326
-303.822	-101.860	-0.206	-0.049
-302.807	-180.874	-0.185	-0.004
-301.793	716.001	0.143	0.374
-300.778	171.603	-0.255	0.361
-299.764	-59.244	-0.154	0.065
-298.749	-194.568	0.262	-0.002
-297.735	-200.000	0.043	-0.310
-296.720	275.508	0.283	-0.494
-295.705	-43.932	-0.096	0.048
-294.691	298.764	0.232	0.421
-293.676	229.349	0.032	-0.051
-292.662	-37.019	-0.223	-0.118
-291.647	-174.439	0.127	0.004
-290.632	-96.542	-0.076	-0.020
-289.618	-84.763	-0.251	-0.078
-288.603	85.405	0.087	-0.094
-287.589	-200.000	-0.004	0.051
-286.574	34.913	0.133	-0.115
-285.559	5.580	-0.032	-0.023
-284.545	800.000	-0.074	-0.205
-283.530	631.582	0.076	0.190
-282.516	82.600	0.078	-0.084
-281.501	124.540	-0.061	0.075
-280.486	-59.884	0.409	0.172
-279.472	114.838	-0.114	-0.137
-278.457	-60.649	0.155	-0.065
-277.443	-89.570	-0.145	0.042
-276.428	370.043	0.086	-0.172
-275.413	-119.188	-0.046	-0.008
-274.399	-200.000	0.016	0.080
-273.384	212.893	0.099	-0.153
-272.370	-200.000	-0.106	0.000
-271.355	-47.927	0.211	-0.100
-270.340	480.631	-0.076	0.170
-269.326	-200.000	0.022	-0.115
-268.311	564.328	0.047	0.112
-267.297	-111.357	0.272	0.054
-266.282	-68.476	-0.248	-0.095
-265.267	119.916	0.142	0.173
-264.253	800.000	-0.045	-0.128
-263.238	-0.447	0.238	-0.166
-262.224	-200.000	-0.007	0.178
-261.209	181.324	-0.207	0.300
-260.195	-200.000	0.062	0.288
-259.180	103.892	0.100	-0.116
-258.165	745.036	-0.069	-0.182
-257.151	-200.000	0.011	0.634
-256.136	343.014	-0.082	0.157
-255.122	288.706	-0.154	-0.273
-254.107	-157.696	0.187	-0.011
-253.092	3.130	-0.067	0.048
-252.078	-97.545	-0.063	-0.016
-251.063	496.649	-0.190	0.430
-250.049	113.662	0.170	-0.202
-249.034	-200.000	-0.058	-0.334
-248.019	-90.153	-0.313	0.089
-247.005	571.710	0.060	-0.143
-245.990	800.000	-0.092	-0.322
-244.976	288.997	0.170	-0.303
-243.961	-28.217	-0.061	0.035
-242.946	54.948	-0.380	0.360
-241.932	66.383	-0.119	-0.119
-240.917	-200.000	-0.031	0.215
-239.903	107.870	0.261	0.306
-238.888	-200.000	-0.059	-0.270
-237.873	-200.000	-0.014	-0.304
-236.859	190.822	0.256	-0.378
-235.844	-77.740	0.167	0.057
-234.830	800.000	0.042	0.125
-233.815	108.479	0.096	-0.112
-232.800	507.111	0.129	0.294
-231.786	541.634	0.140	0.328
-230.771	231.880	0.235	0.378
-229.757	-200.000	-0.025	-0.164
-228.742	-161.244	0.117	0.006
-227.727	216.777	-0.213	-0.332
-226.713	800.000	0.053	-0.154
-225.698	54.607	0.178	0.169
-224.684	800.000	0.036	0.139
-223.669	-146.382	0.309	-0.027
-222.655	-37.806	-0.068	-0.036
-221.640	-129.925	0.352	0.047
-220.625	-200.000	-0.015	-0.118
-219.611	206.099	0.049	0.074
-218.596	28.984	0.106	0.088
-217.582	-200.000	0.000	-0.071
-216.567	800.000	0.117	-0.360
-215.552	24.593	-0.256	-0.208
-214.538	109.854	0.074	-0.088
-213.523	173.574	-0.050	-0.070
-212.509	120.427	0.182	-0.222
-211.494	-8.120	0.145	0.096
-210.479	112.373	0.359	0.426
-209.465	-200.000	-0.009	-0.249
-208.450	-59.732	-0.300	-0.126
-207.436	494.737	0.095	-0.214
-206.421	157.857	-0.255	0.347
-205.406	-77.405	-0.034	-0.012
-204.392	62.730	-0.227	-0.222
-203.377	-14.048	0.125	-0.079
-202.363	-111.066	0.269	-0.054
-201.348	-24.896	-0.177	-0.103
-200.333	-0.939	0.239	0.166
-199.319	701.893	0.059	-0.152
-198.304	261.416	-0.124	0.210
-197.290	33.591	-0.216	-0.184
-196.275	-200.000	0.004	0.048
-195.260	-95.857	0.030	0.008
-194.246	-57.987	0.152	0.065
-193.231	-200.000	-0.025	0.214
-192.217	-38.713	-0.152	0.079
-191.202	-30.211	0.280	0.156
-190.187	-88.363	-0.041	0.012
-189.173	800.000	0.009	0.025
-188.158	589.053	0.049	0.119
-187.144	800.000	-0.060	0.177
-186.129	-33.296	0.109	-0.059
-185.114	-10.363	0.225	0.146
-184.100	-200.000	0.044	0.280
-183.085	800.000	-0.034	0.114
-182.071	344.522	0.072	-0.137
-181.056	60.182	-0.184	-0.179
-180.042	-161.980	-0.190	0.009
-179.027	116.429	0.263	-0.316
-178.012	-115.838	-0.269	0.049
-176.998	-30.992	-0.243	0.134
-175.983	357.942	-0.158	-0.308
-174.969	312.012	0.154	-0.282
-173.954	-200.000	0.013	0.161
-172.939	-45.459	-0.256	0.124
-171.925	518.918	0.069	-0.157
-170.910	106.871	-0.176	0.204
-169.896	364.042	-0.087	0.172
-168.881	-17.928	-0.048	0.030
-167.866	142.245	-0.154	0.200
-166.852	-9.548	0.274	0.179
-165.837	425.599	-0.074	0.155
-164.823	-86.305	-0.093	-0.028
-163.808	-83.584	0.299	0.094
-162.793	7.652	-0.118	0.086
-161.779	-200.000	0.000	-0.044
-160.764	99.680	-0.150	0.170
-159.750	772.854	-0.036	-0.095
-158.735	-200.000	0.008	0.041
-157.720	-128.402	0.120	-0.017
-156.706	-147.659	-0.111	-0.009
-155.691	-38.565	-0.234	0.121
-154.677	-200.000	-0.001	-0.353
-153.662	-87.098	-0.152	-0.045
-152.647	800.000	0.064	-0.203
-151.633	-6.785	-0.189	-0.126
-150.618	-200.000	-0.015	-0.153
-149.604	-124.437	-0.218	0.033
-148.589	-54.656	-0.175	-0.078
-147.574	800.000	0.058	0.206
-146.560	758.425	-0.018	-0.047
-145.545	338.506	-0.196	0.374
-144.531	-200.000	-0.007	-0.193
-143.516	49.720	0.143	-0.132
-142.502	-200.000	-0.029	-0.154
-141.487	-112.863	-0.197	-0.038
-140.472	-149.402	-0.102	0.008
-139.458	268.191	-0.106	0.182
-138.443	-200.000	-0.005	-0.035
-137.429	184.911	-0.102	0.148
-136.414	-200.000	0.032	-0.170
-135.399	7.180	-0.192	-0.140
-134.385	800.000	-0.070	-0.230
-133.370	9.492	-0.450	0.333
-132.356	800.000	0.223	-0.688
-131.341	-7.361	0.248	0.164
-130.326	218.769	0.138	0.216
-129.312	-152.948	0.171	-0.012
-128.297	800.000	0.062	0.194
-127.283	-200.000	0.033	-0.250
-126.268	198.479	-0.086	-0.129
-125.253	638.560	0.065	0.162
-124.239	-69.035	0.357	-0.135
-123.224	-186.016	-0.219	0.003
-122.210	-64.790	0.172	0.068
-121.195	391.575	0.040	0.082
