DTS Sentinel unit serial number:	SN413079Multiplexer serial number:	ORYXHardware model number:	OX4-SRSoftware version number:	ORYX F/W v4.00 Oryx Data Collector v3.7.2.0data status	okinstallation	princeton_trtdifferential loss correction	single-endedforward channel	channel 1reverse channel	N/Adate	2019/09/12time	23:30:35forward acquisition time	60.00reverse acquisition time	0.00gamma	496.2192k internal	0.2328k external	0.2328temperature offset calibration	1.0147default loss term (dB/km)	0.3790temperature slope calibration	1.0000multiplexer offset coefficient	1.0000multiplexer slope coefficient	1.0000fibre end	0.00T internal ref (°C)	29.00T ext. ref 1 (°C)	3.77T ext. ref 2 (°C)	23.61length (m)	temperature (°C)	Stokes	anti-Stokes-747.200	42.771	0.088	-0.081
-746.185	114.663	0.168	0.206
-745.171	-117.221	0.292	0.054
-744.156	29.460	-0.127	0.108
-743.142	-87.239	-0.105	-0.032
-742.127	330.079	-0.091	0.176
-741.112	398.736	0.118	-0.249
-740.098	-176.659	-0.210	-0.005
-739.083	-106.663	0.433	-0.097
-738.069	-117.008	0.140	0.026
-737.054	-184.356	-0.132	0.002
-736.039	-126.961	-0.480	-0.071
-735.025	800.000	0.059	0.167
-734.010	130.161	-0.301	-0.389
-732.996	-84.698	-0.411	-0.130
-731.981	-46.772	-0.049	-0.024
-730.966	-200.000	0.006	0.147
-729.952	-70.046	0.063	0.024
-728.937	199.012	-0.078	0.121
-727.923	286.782	-0.136	-0.247
-726.908	-200.000	0.030	-0.195
-725.894	31.898	0.154	0.134
-724.879	-92.846	-0.368	-0.104
-723.864	-200.000	-0.048	-0.234
-722.850	-130.742	0.334	-0.045
-721.835	122.060	0.145	-0.183
-720.821	171.839	-0.048	0.070
-719.806	54.254	0.166	0.160
-718.791	-110.109	0.248	0.052
-717.777	307.244	0.196	-0.367
-716.762	-65.607	-0.103	0.042
-715.748	-119.022	0.166	0.029
-714.733	247.092	-0.270	-0.458
-713.718	165.823	0.148	-0.210
-712.704	138.942	-0.127	0.168
-711.689	-4.678	-0.297	-0.207
-710.675	191.960	-0.089	-0.135
-709.660	748.257	0.173	-0.469
-708.645	80.193	-0.272	-0.295
-707.631	-117.201	-0.357	0.065
-706.616	-200.000	-0.041	-0.504
-705.602	-200.000	0.303	0.000
-704.587	-85.743	-0.368	-0.115
-703.572	-152.443	0.184	0.013
-702.558	-200.000	-0.034	-0.155
-701.543	-30.628	0.239	0.136
-700.529	-169.899	0.117	-0.004
-699.514	-87.932	0.294	0.089
-698.499	-131.728	-0.263	0.035
-697.485	-140.859	0.296	0.031
-696.470	-111.162	-0.164	-0.034
-695.456	-116.661	0.165	0.030
-694.441	56.544	0.253	0.247
-693.426	180.913	-0.112	-0.165
-692.412	800.000	0.029	-0.090
-691.397	626.826	-0.072	-0.182
-690.383	228.429	0.177	-0.290
-689.368	-68.992	0.077	0.030
-688.354	-45.402	0.031	0.016
-687.339	-149.681	-0.241	0.019
-686.324	-131.261	-0.250	0.033
-685.310	-200.000	-0.031	-0.151
-684.295	-152.093	-0.273	-0.020
-683.281	530.223	0.089	-0.211
-682.266	-47.234	0.318	-0.156
-681.251	-15.921	0.180	0.115
-680.237	158.106	-0.108	0.151
-679.222	800.000	-0.040	0.158
-678.208	-52.134	0.209	0.097
-677.193	-114.492	0.053	-0.010
-676.178	-122.048	-0.140	0.023
-675.164	-200.000	0.016	0.075
-674.149	166.003	-0.023	-0.032
-673.135	-158.830	0.175	0.010
-672.120	-129.803	-0.071	0.010
-671.105	800.000	-0.099	-0.414
-670.091	-120.430	-0.227	-0.039
-669.076	-200.000	-0.098	-0.661
-668.062	800.000	0.039	-0.134
-667.047	-66.772	0.296	-0.118
-666.032	-33.852	0.456	-0.252
-665.018	112.598	0.203	-0.247
-664.003	-142.297	0.068	0.007
-662.989	81.195	0.256	-0.278
-661.974	-200.000	-0.017	0.271
-660.959	176.759	0.101	0.147
-659.945	-109.515	0.261	-0.055
-658.930	800.000	-0.112	-0.421
-657.916	58.025	-0.345	-0.340
-656.901	-200.000	-0.024	0.315
-655.886	-73.584	0.217	-0.079
-654.872	800.000	-0.035	-0.116
-653.857	147.152	-0.171	-0.230
-652.843	-9.364	0.521	0.349
-651.828	-5.492	0.190	-0.131
-650.814	306.940	-0.072	-0.135
-649.799	501.060	0.065	0.150
-648.784	800.000	0.020	-0.084
-647.770	207.527	-0.219	0.343
-646.755	-146.196	-0.075	0.007
-645.741	194.582	-0.051	-0.078
-644.726	41.490	-0.140	0.127
-643.711	-58.042	0.273	0.120
-642.697	-91.787	-0.028	-0.008
-641.682	-24.470	0.403	-0.241
-640.668	324.204	0.078	0.149
-639.653	-200.000	0.051	-0.233
-638.638	152.933	-0.223	0.306
-637.624	28.139	0.107	0.090
-636.609	-115.487	-0.369	-0.070
-635.595	133.174	-0.173	-0.224
-634.580	2.928	-0.296	-0.216
-633.565	800.000	0.024	0.084
-632.551	676.680	0.030	0.078
-631.536	-200.000	-0.025	-0.148
-630.522	-175.743	0.157	0.004
-629.507	551.810	0.055	-0.132
-628.492	63.966	-0.100	-0.101
-627.478	-200.000	-0.004	0.077
-626.463	102.694	-0.119	0.139
-625.449	-96.884	-0.347	0.091
-624.434	-199.784	-0.103	-0.001
-623.419	-148.088	-0.367	0.031
-622.405	35.614	-0.308	0.271
-621.390	-14.879	-0.143	0.092
-620.376	473.015	-0.074	0.167
-619.361	27.208	0.145	0.122
-618.346	-200.000	0.013	0.114
-617.332	-200.000	-0.006	-0.033
-616.317	-200.000	0.050	0.308
-615.303	49.495	-0.199	0.187
-614.288	-200.000	0.007	-0.177
-613.273	-72.033	-0.249	-0.093
-612.259	-85.077	-0.187	0.059
-611.244	-43.345	0.151	-0.076
-610.230	-129.307	-0.281	-0.039
-609.215	244.822	0.237	-0.399
-608.201	800.000	-0.044	0.173
-607.186	92.905	0.032	0.037
-606.171	47.549	0.219	0.205
-605.157	-131.168	-0.384	0.051
-604.142	81.927	0.089	-0.097
-603.128	800.000	-0.094	0.270
-602.113	267.743	-0.199	0.350
-601.098	800.000	0.126	0.367
-600.084	800.000	0.014	0.047
-599.069	-200.000	0.027	0.322
-598.055	800.000	-0.121	0.380
-597.040	-175.137	0.351	0.010
-596.025	-200.000	0.000	-0.183
-595.011	-105.887	-0.157	-0.035
-593.996	-37.452	-0.114	0.061
-592.982	-189.763	-0.252	-0.003
-591.967	-200.000	0.011	0.135
-590.952	-47.522	-0.038	0.018
-589.938	67.671	0.181	-0.185
-588.923	-42.529	-0.416	-0.212
-587.909	-46.306	0.252	-0.124
-586.894	-82.824	0.293	0.095
-585.879	-67.861	-0.069	0.027
-584.865	-134.650	-0.238	0.029
-583.850	733.803	0.084	0.225
-582.836	-77.466	0.267	0.093
-581.821	-200.000	-0.035	0.354
-580.806	659.741	-0.110	0.285
-579.792	48.067	0.265	0.248
-578.777	696.523	-0.130	0.342
-577.763	800.000	0.042	-0.152
-576.748	-111.400	0.215	0.044
-575.733	-155.171	0.162	0.011
-574.719	96.713	0.091	0.104
-573.704	371.386	-0.048	-0.097
-572.690	-127.944	-0.162	-0.023
-571.675	-131.653	-0.468	0.062
-570.661	800.000	0.095	-0.286
-569.646	-200.000	0.004	0.324
-568.631	-78.043	-0.275	0.095
-567.617	288.944	0.158	0.287
-566.602	301.614	-0.113	0.208
-565.588	407.355	0.148	-0.313
-564.573	475.340	-0.165	-0.373
-563.558	122.121	0.125	-0.156
-562.544	-19.137	-0.056	-0.035
-561.529	-122.849	-0.401	0.065
-560.515	-89.855	0.204	-0.060
-559.500	467.197	0.164	-0.368
-558.485	-176.386	0.346	0.009
-557.471	227.153	-0.148	-0.241
-556.456	800.000	0.170	-0.482
-555.442	-154.336	-0.131	0.009
-554.427	800.000	0.047	0.155
-553.412	-200.000	-0.001	0.338
-552.398	-200.000	0.029	-0.426
-551.383	-200.000	-0.035	-0.249
-550.369	179.252	0.118	-0.173
-549.354	36.424	0.176	-0.155
-548.339	-49.567	0.201	0.096
-547.325	45.249	0.095	0.087
-546.310	-110.343	-0.224	-0.047
-545.296	140.658	0.090	0.119
-544.281	-31.275	0.199	0.112
-543.266	230.981	-0.120	-0.197
-542.252	-200.000	-0.333	-0.001
-541.237	266.791	0.057	0.100
-540.223	-125.282	0.153	0.023
-539.208	58.355	0.073	0.072
-538.193	-97.946	-0.285	0.074
-537.179	615.592	-0.134	-0.337
-536.164	30.849	0.322	-0.276
-535.150	329.955	-0.074	0.142
-534.135	217.813	-0.093	0.148
-533.121	107.328	0.073	0.086
-532.106	-58.893	-0.175	-0.076
-531.091	-58.253	0.017	-0.008
-530.077	227.254	0.163	-0.264
-529.062	-200.000	-0.010	-0.300
-528.048	135.360	0.089	-0.116
-527.033	51.834	-0.031	-0.029
-526.018	-76.647	-0.076	-0.026
-525.004	522.730	-0.083	-0.195
-523.989	51.011	0.183	0.173
-522.975	-171.758	0.147	0.005
-521.960	-60.090	-0.143	-0.061
-520.945	-16.946	0.196	-0.124
-519.931	-25.753	-0.208	0.123
-518.916	800.000	-0.021	0.073
-517.902	3.840	-0.157	-0.115
-516.887	139.041	-0.094	0.123
-515.872	26.363	-0.211	0.176
-514.858	73.134	-0.283	0.295
-513.843	-105.546	-0.251	-0.057
-512.829	113.990	-0.095	-0.116
-511.814	25.204	-0.118	0.098
-510.799	-55.053	-0.019	0.009
-509.785	797.671	-0.108	0.296
-508.770	-6.169	0.346	-0.236
-507.756	15.588	0.169	0.133
-506.741	407.023	-0.135	0.284
-505.726	609.868	0.046	0.115
-504.712	-200.000	-0.028	0.199
-503.697	125.863	-0.080	0.101
-502.683	-200.000	0.014	-0.135
-501.668	-200.000	0.084	0.375
-500.653	356.754	-0.110	0.219
-499.639	189.837	0.261	-0.390
-498.624	-50.286	-0.128	-0.060
-497.610	-156.160	0.445	-0.028
-496.595	-100.119	-0.587	-0.146
-495.581	800.000	-0.052	-0.146
-494.566	-200.000	0.006	-0.288
-493.551	-200.000	0.012	-0.105
-492.537	-129.710	-0.266	0.037
-491.522	-83.832	0.185	-0.059
-490.508	-75.403	0.298	0.106
-489.493	-81.869	-0.044	-0.014
-488.478	-142.905	-0.142	-0.014
-487.464	-150.090	-0.466	-0.036
-486.449	-148.241	-0.340	-0.028
-485.435	318.694	0.079	-0.148
-484.420	800.000	-0.031	-0.126
-483.405	-152.540	-0.101	0.007
-482.391	31.379	-0.145	0.124
-481.376	38.226	0.118	-0.105
-480.362	800.000	0.084	0.281
-479.347	65.798	0.094	0.095
-478.332	800.000	0.018	-0.068
-477.318	13.293	0.247	-0.190
-476.303	-200.000	-0.016	-0.176
-475.289	-200.000	0.009	0.052
-474.274	-121.137	0.130	0.022
-473.259	378.502	-0.027	0.056
-472.245	36.941	-0.166	-0.146
-471.230	-75.286	0.098	-0.035
-470.216	40.037	0.150	0.135
-469.201	28.061	-0.187	-0.158
-468.186	-200.000	0.004	0.161
-467.172	200.446	-0.043	-0.066
-466.157	-110.977	-0.414	-0.085
-465.143	-33.266	-0.358	-0.197
-464.128	332.971	0.058	0.111
-463.113	-125.403	0.079	0.012
-462.099	800.000	0.036	0.154
-461.084	40.596	0.230	-0.207
-460.070	-129.931	-0.111	-0.015
-459.055	-127.240	0.340	0.050
-458.040	-41.489	0.046	0.023
-457.026	-200.000	0.091	-0.498
-456.011	-200.000	-0.016	0.077
-454.997	-145.084	-0.148	0.013
-453.982	-124.686	0.162	-0.025
-452.968	193.982	-0.164	-0.248
-451.953	232.853	-0.194	0.318
-450.938	86.177	0.143	-0.157
-449.924	396.738	-0.114	-0.237
-448.909	34.319	-0.201	-0.175
-447.895	43.461	0.087	-0.079
-446.880	-37.257	0.106	0.056
-445.865	1.223	-0.206	0.147
-444.851	-200.000	0.012	0.470
-443.836	-200.000	0.019	0.087
-442.822	800.000	0.105	0.297
-441.807	19.914	0.031	0.025
-440.792	-200.000	-0.049	-0.275
-439.778	-150.779	0.203	0.015
-438.763	-1.764	-0.237	0.166
-437.749	53.790	-0.150	0.144
-436.734	-194.970	-0.537	0.004
-435.719	37.845	-0.097	-0.086
-434.705	-39.817	0.175	0.091
-433.690	-49.998	0.384	-0.181
-432.676	-120.771	0.367	0.062
-431.661	-72.975	0.097	-0.036
-430.646	156.598	-0.043	-0.059
-429.632	-29.675	0.297	0.169
-428.617	-152.275	0.276	0.020
-427.603	-94.351	-0.249	0.068
-426.588	-200.000	-0.024	0.216
-425.573	-200.000	-0.029	-0.327
-424.559	263.828	-0.116	-0.201
-423.544	114.899	0.196	0.238
-422.530	800.000	0.111	-0.350
-421.515	403.482	0.114	0.239
-420.500	-128.248	-0.182	0.026
-419.486	126.611	0.054	-0.068
-418.471	97.074	-0.041	0.046
-417.457	-83.785	-0.084	0.027
-416.442	-137.360	0.263	0.030
-415.428	800.000	0.049	0.144
-414.413	11.935	-0.349	-0.267
-413.398	105.951	0.185	-0.217
-412.384	316.614	-0.152	-0.285
-411.369	-200.000	-0.085	-0.395
-410.355	800.000	-0.013	0.055
-409.340	209.533	-0.085	0.133
-408.325	84.766	0.231	-0.251
-407.311	-200.000	-0.042	-0.425
-406.296	-24.155	0.143	-0.085
-405.282	78.417	0.209	-0.222
-404.267	350.419	0.175	-0.344
-403.252	138.385	0.176	0.229
-402.238	-200.000	0.046	0.343
-401.223	-54.569	-0.164	-0.074
-400.209	-63.908	-0.184	-0.075
-399.194	22.402	0.195	0.158
-398.179	360.907	-0.062	0.123
-397.165	13.733	0.155	0.120
-396.150	-139.617	0.162	-0.017
-395.136	800.000	-0.043	-0.161
-394.121	-72.946	-0.256	-0.094
-393.106	-200.000	-0.034	-0.404
-392.092	-1.326	0.152	-0.107
-391.077	-178.631	-0.270	-0.006
-390.063	21.884	0.316	0.256
-389.048	-78.977	0.295	0.100
-388.033	-200.000	-0.006	-0.032
-387.019	-56.702	0.055	0.024
-386.004	800.000	-0.073	0.240
-384.990	3.714	0.205	-0.149
-383.975	-55.252	0.159	0.071
-382.960	314.064	-0.024	-0.045
-381.946	-120.695	-0.070	0.012
-380.931	-149.084	0.323	0.026
-379.917	-200.000	-0.001	-0.341
-378.902	-162.322	-0.007	0.000
-377.888	-95.096	0.116	-0.031
-376.873	771.935	-0.085	0.230
-375.858	28.841	-0.214	0.180
-374.844	126.045	-0.047	0.059
-373.829	-112.724	-0.214	0.042
-372.815	48.191	-0.151	0.140
-371.800	-137.735	-0.119	0.013
-370.785	53.311	0.256	-0.244
-369.771	518.963	0.130	0.302
-368.756	-200.000	-0.003	0.141
-367.742	800.000	0.065	0.262
-366.727	85.112	0.239	0.261
-365.712	-121.858	0.305	-0.050
-364.698	-162.330	0.257	-0.013
-363.683	665.694	0.092	-0.237
-362.669	471.677	-0.112	-0.249
-361.654	173.563	0.029	-0.042
-360.639	800.000	0.146	-0.492
-359.625	-59.251	-0.202	0.086
-358.610	-117.086	0.272	0.049
-357.596	35.787	-0.066	-0.058
-356.581	-135.952	-0.176	-0.021
-355.566	-67.375	0.354	-0.138
-354.552	-9.102	0.230	-0.153
-353.537	-139.751	0.215	-0.023
-352.523	-196.272	-0.227	0.002
-351.508	115.173	-0.019	0.023
-350.493	-57.652	-0.232	0.101
-349.479	684.207	-0.063	-0.163
-348.464	386.943	0.081	-0.166
-347.450	199.657	0.111	0.169
-346.435	279.268	0.147	-0.259
-345.420	-151.860	0.422	-0.031
-344.406	131.649	0.035	0.044
-343.391	-86.131	0.216	0.066
-342.377	-70.184	0.092	-0.035
-341.362	37.912	0.113	0.100
-340.348	-21.492	-0.283	0.171
-339.333	800.000	0.095	-0.319
-338.318	-200.000	0.062	0.314
-337.304	185.349	-0.118	0.173
-336.289	-78.305	0.355	-0.121
-335.275	112.508	-0.221	0.265
-334.260	800.000	-0.074	-0.278
-333.245	800.000	0.028	0.076
-332.231	-70.800	0.230	-0.086
-331.216	-200.000	0.003	0.175
-330.202	221.250	-0.196	0.312
-329.187	800.000	0.049	0.177
-328.172	800.000	0.089	-0.281
-327.158	125.338	0.154	-0.192
-326.143	-54.167	0.279	-0.126
-325.129	800.000	0.080	-0.229
-324.114	-174.993	-0.185	0.005
-323.099	-60.908	0.505	0.211
-322.085	53.363	-0.034	0.032
-321.070	188.575	0.179	0.265
-320.056	-89.844	0.102	-0.029
-319.041	-200.000	-0.004	0.206
-318.026	664.117	0.091	0.233
-317.012	40.173	-0.109	-0.097
-315.997	-178.790	-0.404	0.009
-314.983	27.386	0.163	0.135
-313.968	534.299	-0.084	0.196
-312.953	111.978	0.104	-0.124
-311.939	-176.990	-0.188	-0.005
-310.924	-200.000	0.008	-0.124
-309.910	-86.264	0.228	-0.070
-308.895	728.935	-0.021	-0.054
-307.880	-41.720	-0.212	-0.108
-306.866	-200.000	0.022	-0.283
-305.851	-51.328	0.274	-0.127
-304.837	7.353	-0.135	0.100
-303.822	31.813	-0.092	0.078
-302.807	-17.475	-0.195	-0.122
-301.793	-77.090	0.159	-0.055
-300.778	800.000	-0.051	0.140
-299.764	800.000	-0.049	-0.142
-298.749	-108.059	0.147	-0.032
-297.735	90.805	-0.193	0.214
-296.720	-200.000	0.030	0.209
-295.705	-200.000	0.009	-0.322
-294.691	800.000	-0.075	0.239
-293.676	108.957	0.111	0.131
-292.662	-200.000	-0.010	-0.103
-291.647	9.344	0.111	0.083
-290.632	-200.000	0.016	0.298
-289.618	-87.325	-0.406	0.122
-288.603	282.850	-0.030	0.054
-287.589	12.682	-0.106	0.081
-286.574	800.000	0.108	0.352
-285.559	388.675	0.098	-0.201
-284.545	-200.000	-0.000	0.180
-283.530	-95.660	-0.196	0.052
-282.516	-200.000	-0.014	-0.321
-281.501	676.871	-0.117	0.301
-280.486	28.196	-0.275	-0.230
-279.472	129.882	0.160	-0.203
-278.457	639.559	-0.143	0.360
-277.443	-35.978	0.210	0.112
-276.428	34.997	0.090	-0.078
-275.413	-200.000	-0.006	0.149
-274.399	-200.000	0.150	0.000
-273.384	258.391	-0.104	0.177
-272.370	62.809	0.117	0.115
-271.355	670.882	0.040	-0.102
-270.340	-103.328	-0.343	0.080
-269.326	226.268	0.055	-0.088
-268.311	800.000	0.070	-0.246
-267.297	-1.751	0.065	0.045
-266.282	194.623	-0.142	0.214
-265.267	-34.992	-0.144	-0.078
-264.253	156.368	-0.140	0.191
-263.238	32.567	0.371	0.317
-262.224	126.331	0.353	0.442
-261.209	33.637	0.197	-0.169
-260.195	123.671	0.191	0.236
-259.180	34.160	-0.238	-0.205
-258.165	342.646	-0.089	-0.172
-257.151	27.550	0.106	0.088
-256.136	-124.221	0.117	-0.018
-255.122	-29.419	0.053	-0.030
-254.107	-49.339	-0.168	0.079
-253.092	27.385	-0.182	-0.151
-252.078	146.377	-0.080	-0.107
-251.063	-68.634	0.051	0.020
-250.049	117.958	0.125	-0.152
-249.034	26.778	-0.275	-0.228
-248.019	-47.455	-0.291	0.140
-247.005	-182.376	-0.134	0.002
-245.990	159.866	0.006	0.009
-244.976	-7.843	-0.260	0.174
-243.961	-70.662	-0.206	-0.077
-242.946	90.716	0.275	-0.305
-241.932	54.136	-0.170	-0.161
-240.917	-71.884	-0.252	-0.093
-239.903	-200.000	-0.033	0.351
-238.888	-26.314	0.027	0.016
-237.873	-94.808	0.132	0.035
-236.859	800.000	-0.078	0.330
-235.844	184.256	0.120	0.175
-234.830	486.205	0.068	-0.153
-233.815	-200.000	-0.006	-0.053
-232.800	222.537	0.072	-0.115
-231.786	800.000	0.089	-0.334
-230.771	-88.368	0.204	0.060
-229.757	75.816	-0.076	0.080
-228.742	1.566	-0.093	0.066
-227.727	-93.388	-0.325	0.089
-226.713	800.000	0.043	-0.177
-225.698	800.000	0.146	0.424
-224.684	800.000	0.076	-0.257
-223.669	30.856	-0.129	0.109
-222.655	104.424	-0.055	0.063
-221.640	800.000	0.059	-0.176
-220.625	-200.000	-0.190	-0.001
-219.611	166.791	0.106	0.148
-218.596	-200.000	0.008	-0.040
-217.582	206.235	0.144	-0.222
-216.567	-200.000	0.078	0.354
-215.552	28.302	0.154	0.128
-214.538	-12.823	0.196	-0.126
-213.523	52.972	0.110	-0.104
-212.509	453.257	0.083	-0.180
-211.494	-67.576	-0.264	0.102
-210.479	379.407	0.114	-0.230
-209.465	108.478	-0.120	-0.141
-208.450	-200.000	-0.053	-0.333
-207.436	62.382	-0.165	0.162
-206.421	86.062	0.206	-0.224
-205.406	-165.980	-0.438	-0.018
-204.392	55.715	-0.082	-0.078
-203.377	-24.834	0.217	-0.127
-202.363	-102.529	0.161	0.038
-201.348	67.810	0.013	0.014
-200.333	-143.433	0.242	0.023
-199.319	-147.468	0.332	0.028
-198.304	103.292	0.152	0.176
-197.290	594.109	-0.125	-0.306
-196.275	-72.308	0.346	-0.127
-195.260	-200.000	-0.031	0.297
-194.246	546.191	-0.104	0.245
-193.231	305.493	0.057	-0.105
-192.217	-117.043	0.212	0.038
-191.202	-60.511	0.122	0.051
-190.187	21.433	-0.124	-0.100
-189.173	475.994	0.122	0.272
-188.158	800.000	0.041	0.127
-187.144	576.525	-0.062	-0.149
-186.129	-17.724	-0.077	-0.048
-185.114	-180.891	-0.070	-0.001
-184.100	149.476	-0.196	-0.262
-183.085	217.731	-0.114	0.179
-182.071	-200.000	-0.013	0.160
-181.056	-106.204	0.278	0.062
-180.042	800.000	0.026	-0.086
-179.027	-107.506	-0.415	-0.090
-178.012	-105.624	0.222	-0.050
-176.998	79.003	0.106	-0.112
-175.983	-200.000	0.048	0.253
-174.969	-63.691	0.160	0.065
-173.954	13.204	0.043	0.033
-172.939	800.000	-0.145	-0.523
-171.925	-91.164	-0.258	0.073
-170.910	-47.355	-0.287	-0.137
-169.896	80.299	-0.339	0.359
-168.881	32.790	-0.190	-0.162
-167.866	100.796	0.231	-0.264
-166.852	-38.594	-0.155	-0.081
-165.837	800.000	0.066	0.250
-164.823	800.000	0.085	-0.251
-163.808	-157.676	0.087	-0.005
-162.793	-67.368	-0.110	0.043
-161.779	215.660	-0.138	-0.216
-160.764	220.292	0.036	-0.057
-159.750	-71.311	-0.176	-0.065
-158.735	413.166	0.041	0.086
-157.720	-136.942	-0.101	-0.011
-156.706	301.727	-0.155	-0.282
-155.691	261.908	-0.019	-0.033
-154.677	-46.208	-0.052	0.025
-153.662	-2.338	0.182	-0.126
-152.647	727.640	-0.050	-0.132
-151.633	-122.571	0.488	-0.078
-150.618	-86.318	-0.415	0.126
-149.604	146.647	0.296	-0.392
-148.589	-114.448	-0.126	0.024
-147.574	146.801	0.118	0.156
-146.560	-163.921	0.183	0.008
-145.545	48.677	-0.066	-0.061
-144.531	-90.701	-0.090	-0.025
-143.516	313.884	0.095	0.176
-142.502	79.878	0.169	-0.179
-141.487	442.831	-0.058	0.125
-140.472	800.000	0.143	-0.444
-139.458	800.000	0.032	-0.089
-138.443	-200.000	0.005	0.051
-137.429	-200.000	-0.079	0.448
-136.414	-200.000	0.019	0.205
-135.399	336.250	0.272	-0.519
-134.385	-200.000	0.043	0.223
-133.370	88.724	0.190	-0.208
-132.356	-43.880	0.126	0.062
-131.341	-174.107	0.302	-0.009
-130.326	12.435	0.111	-0.084
-129.312	-87.894	-0.417	0.123
-128.297	264.676	-0.125	0.215
-127.283	-51.722	-0.021	-0.010
-126.268	97.395	0.294	-0.333
-125.253	-114.855	-0.013	0.002
-124.239	800.000	0.092	0.370
-123.224	-109.128	-0.196	0.041
-122.210	-131.338	0.633	0.082
-121.195	178.530	-0.142	-0.204
