DTS Sentinel unit serial number:	SN413079Multiplexer serial number:	ORYXHardware model number:	OX4-SRSoftware version number:	ORYX F/W v4.00 Oryx Data Collector v3.7.2.0data status	okinstallation	princeton_trtdifferential loss correction	single-endedforward channel	channel 1reverse channel	N/Adate	2019/09/13time	01:18:35forward acquisition time	60.00reverse acquisition time	0.00gamma	496.2192k internal	0.2330k external	0.2330temperature offset calibration	1.0144default loss term (dB/km)	0.3790temperature slope calibration	1.0000multiplexer offset coefficient	1.0000multiplexer slope coefficient	1.0000fibre end	0.00T internal ref (°C)	27.89T ext. ref 1 (°C)	3.70T ext. ref 2 (°C)	22.47length (m)	temperature (°C)	Stokes	anti-Stokes-747.200	-200.000	-0.011	-0.226
-746.185	102.897	0.172	0.203
-745.171	-200.000	0.107	0.485
-744.156	-58.460	-0.191	0.084
-743.142	101.341	-0.042	0.049
-742.127	-200.000	-0.237	0.000
-741.112	774.155	0.065	0.177
-740.098	800.000	-0.085	-0.290
-739.083	-84.624	-0.423	0.134
-738.069	-39.989	-0.270	0.142
-737.054	-200.000	-0.050	-0.293
-736.039	-126.230	-0.176	-0.027
-735.025	-94.804	0.243	0.066
-734.010	-200.000	0.001	0.140
-732.996	88.015	-0.101	-0.113
-731.981	250.339	-0.012	-0.020
-730.966	132.319	0.073	0.095
-729.952	77.876	-0.101	-0.108
-728.937	-58.077	-0.387	0.170
-727.923	-116.431	0.214	-0.040
-726.908	122.306	-0.033	-0.041
-725.894	42.879	0.108	0.099
-724.879	15.757	-0.241	-0.191
-723.864	-200.000	0.057	-0.256
-722.850	-43.506	-0.197	0.100
-721.835	-79.611	0.272	0.092
-720.821	-119.880	-0.469	-0.081
-719.806	14.727	0.253	0.199
-718.791	473.800	-0.128	-0.289
-717.777	-81.230	-0.241	-0.080
-716.762	800.000	-0.082	-0.347
-715.748	220.391	0.112	0.180
-714.733	250.342	-0.060	-0.102
-713.718	-112.757	0.310	-0.062
-712.704	0.535	0.117	0.084
-711.689	-17.699	-0.216	-0.136
-710.675	-116.684	0.046	-0.009
-709.660	800.000	0.038	-0.107
-708.645	-200.000	-0.030	0.175
-707.631	-200.000	-0.025	0.224
-706.616	-101.961	0.347	-0.084
-705.602	800.000	-0.036	-0.120
-704.587	-200.000	0.060	0.278
-703.572	166.952	0.122	-0.174
-702.558	-99.213	0.042	-0.011
-701.543	-200.000	0.014	0.195
-700.529	-21.418	0.170	0.104
-699.514	-200.000	0.003	-0.246
-698.499	16.840	-0.114	0.091
-697.485	100.239	-0.069	-0.081
-696.470	-23.626	0.041	0.025
-695.456	-200.000	0.048	0.294
-694.441	8.143	0.021	0.015
-693.426	-37.455	0.084	-0.045
-692.412	261.500	-0.090	0.157
-691.397	-200.000	0.021	0.171
-690.383	-200.000	-0.002	0.027
-689.368	182.080	0.203	0.300
-688.354	177.137	-0.055	-0.080
-687.339	-200.000	-0.001	-0.148
-686.324	20.737	-0.195	-0.158
-685.310	27.719	0.057	0.048
-684.295	144.868	0.132	-0.177
-683.281	591.271	0.018	0.045
-682.266	-200.000	-0.022	0.106
-681.251	-124.084	0.058	0.009
-680.237	-200.000	-0.009	-0.213
-679.222	-163.974	-0.093	0.004
-678.208	164.473	-0.078	0.110
-677.193	413.186	0.124	-0.264
-676.178	8.558	0.225	-0.170
-675.164	-200.000	0.010	-0.086
-674.149	279.511	0.046	0.082
-673.135	-200.000	0.001	-0.238
-672.120	412.879	-0.046	-0.097
-671.105	-200.000	-0.038	-0.239
-670.091	-200.000	0.021	-0.134
-669.076	-200.000	0.023	0.157
-668.062	-60.740	-0.085	0.036
-667.047	-52.573	0.016	0.008
-666.032	-200.000	-0.033	-0.174
-665.018	800.000	0.178	-0.511
-664.003	295.615	-0.090	-0.166
-662.989	-42.266	0.200	-0.102
-661.974	-63.387	-0.049	0.020
-660.959	626.618	-0.059	0.150
-659.945	-200.000	0.093	-0.471
-658.930	-24.554	0.126	0.075
-657.916	70.518	0.083	0.086
-656.901	-173.841	0.236	0.007
-655.886	303.835	-0.144	-0.268
-654.872	109.887	0.072	-0.087
-653.857	800.000	-0.099	-0.328
-652.843	-200.000	0.005	-0.144
-651.828	788.334	-0.020	0.055
-650.814	280.603	0.192	0.345
-649.799	745.539	0.075	0.202
-648.784	-143.204	0.469	0.045
-647.770	-75.072	0.151	-0.054
-646.755	-74.730	0.172	0.062
-645.741	-200.000	-0.035	0.252
-644.726	147.625	0.228	-0.308
-643.711	306.148	0.067	0.124
-642.697	800.000	-0.042	0.119
-641.682	374.569	0.159	-0.325
-640.668	92.160	-0.405	-0.457
-639.653	585.253	0.156	-0.385
-638.638	170.277	-0.196	0.281
-637.624	-180.684	0.154	0.003
-636.609	2.683	-0.164	-0.119
-635.595	323.552	-0.074	-0.141
-634.580	-200.000	0.009	-0.087
-633.565	-95.229	0.198	0.053
-632.551	-200.000	0.016	0.121
-631.536	-75.635	0.221	0.079
-630.522	-95.905	-0.334	0.089
-629.507	-200.000	-0.017	-0.117
-628.492	-12.305	-0.072	-0.047
-627.478	-67.267	0.380	-0.150
-626.463	39.622	0.044	0.040
-625.449	163.969	-0.060	0.085
-624.434	-13.609	-0.117	0.076
-623.419	-200.000	0.052	-0.473
-622.405	-164.567	-0.157	0.007
-621.390	221.316	0.049	-0.079
-620.376	167.322	-0.043	0.061
-619.361	275.942	-0.084	-0.150
-618.346	-200.000	-0.023	-0.162
-617.332	307.256	0.107	-0.199
-616.317	800.000	-0.076	-0.219
-615.303	252.513	-0.089	-0.151
-614.288	318.928	0.035	0.066
-613.273	800.000	-0.082	0.336
-612.259	-152.224	0.134	0.010
-611.244	-11.812	0.232	0.152
-610.230	-200.000	0.052	-0.356
-609.215	-3.948	0.229	0.159
-608.201	68.296	-0.134	-0.137
-607.186	41.035	-0.105	-0.095
-606.171	-48.865	-0.231	0.111
-605.157	346.421	0.050	0.098
-604.142	-132.930	-0.125	-0.016
-603.128	800.000	-0.119	0.376
-602.113	18.471	-0.186	0.149
-601.098	-72.726	0.225	0.083
-600.084	-200.000	-0.007	0.164
-599.069	110.643	0.023	0.027
-598.055	659.271	-0.048	-0.124
-597.040	-43.633	-0.200	0.101
-596.025	-200.000	-0.058	0.371
-595.011	-80.451	0.218	0.073
-593.996	-200.000	0.002	-0.056
-592.982	38.607	-0.230	-0.205
-591.967	57.946	0.079	-0.077
-590.952	160.273	0.180	-0.251
-589.938	-200.000	0.011	-0.063
-588.923	-200.000	-0.125	0.649
-587.909	-107.963	0.122	0.027
-586.894	-134.203	-0.281	-0.035
-585.879	20.956	0.306	0.248
-584.865	-109.758	-0.203	0.043
-583.850	51.250	-0.193	-0.183
-582.836	396.145	-0.074	0.154
-581.821	800.000	-0.106	-0.377
-580.806	-48.290	0.458	-0.221
-579.792	800.000	0.057	-0.247
-578.777	-173.556	-0.048	-0.001
-577.763	-200.000	0.075	0.342
-576.748	-200.000	0.021	0.094
-575.733	-23.586	-0.150	0.090
-574.719	81.118	0.092	-0.099
-573.704	800.000	0.064	-0.276
-572.690	-161.647	-0.143	0.007
-571.675	-2.445	0.123	0.086
-570.661	71.228	0.076	0.079
-569.646	-148.560	-0.383	-0.031
-568.631	-200.000	0.001	0.005
-567.617	122.900	0.132	-0.165
-566.602	800.000	0.064	-0.219
-565.588	399.418	-0.141	-0.295
-564.573	-49.750	-0.147	-0.070
-563.558	234.115	0.075	0.123
-562.544	64.526	-0.287	0.289
-561.529	-200.000	0.152	0.000
-560.515	-29.942	0.150	-0.085
-559.500	-8.920	-0.235	0.158
-558.485	1.573	0.104	0.075
-557.471	410.426	-0.075	-0.158
-556.456	-68.712	-0.148	0.057
-555.442	56.468	-0.103	-0.100
-554.427	-118.168	-0.526	-0.094
-553.412	-82.623	-0.022	-0.007
-552.398	43.633	-0.138	-0.126
-551.383	218.716	-0.080	-0.128
-550.369	-89.086	-0.030	0.009
-549.354	278.801	-0.143	-0.255
-548.339	527.665	-0.121	0.286
-547.325	-39.616	-0.185	-0.097
-546.310	-127.153	-0.145	-0.021
-545.296	-200.000	0.059	-0.406
-544.281	235.109	0.204	-0.337
-543.266	-38.275	-0.125	0.066
-542.252	800.000	-0.067	-0.205
-541.237	-200.000	-0.032	0.470
-540.223	-137.820	-0.102	-0.011
-539.208	149.299	0.173	-0.234
-538.193	106.726	0.117	-0.139
-537.179	-200.000	0.069	-0.437
-536.164	368.275	0.130	-0.262
-535.150	499.764	-0.055	0.126
-534.135	47.319	0.010	-0.009
-533.121	800.000	-0.054	0.177
-532.106	-18.648	-0.244	0.152
-531.091	-58.939	-0.289	0.125
-530.077	9.120	0.229	0.173
-529.062	-28.440	-0.110	-0.063
-528.048	-10.546	0.223	-0.148
-527.033	-93.805	0.057	-0.016
-526.018	-73.549	-0.078	0.028
-525.004	-25.022	-0.059	0.035
-523.989	-200.000	-0.013	-0.258
-522.975	-137.101	0.179	-0.020
-521.960	-108.359	0.099	0.021
-520.945	-115.933	-0.148	-0.028
-519.931	-144.765	0.352	-0.032
-518.916	-200.000	-0.064	0.439
-517.902	12.942	0.387	-0.299
-516.887	-81.472	-0.252	-0.083
-515.872	74.094	-0.355	-0.371
-514.858	-200.000	-0.005	-0.101
-513.843	236.621	0.050	0.083
-512.829	417.556	0.090	0.191
-511.814	-6.865	-0.153	0.104
-510.799	-161.777	0.124	0.006
-509.785	-44.143	-0.335	0.168
-508.770	-25.098	0.186	-0.110
-507.756	-200.000	0.010	-0.157
-506.741	800.000	0.074	-0.277
-505.726	-54.906	0.183	0.082
-504.712	-200.000	0.021	0.301
-503.697	-161.557	-0.131	0.007
-502.683	282.605	-0.067	-0.120
-501.668	-200.000	0.025	0.227
-500.653	217.416	-0.059	0.094
-499.639	201.367	0.035	-0.053
-498.624	800.000	0.057	0.163
-497.610	259.585	0.125	-0.215
-496.595	-67.710	-0.025	-0.010
-495.581	-200.000	0.011	-0.054
-494.566	-36.245	-0.187	0.100
-493.551	-21.501	-0.060	0.037
-492.537	22.807	0.202	-0.165
-491.522	8.087	-0.246	-0.184
-490.508	-200.000	0.009	-0.214
-489.493	-8.108	0.226	-0.152
-488.478	649.188	0.074	0.188
-487.464	-3.943	-0.200	0.138
-486.449	-63.091	0.056	-0.023
-485.435	152.099	-0.132	0.180
-484.420	82.241	-0.104	0.113
-483.405	172.693	0.241	-0.346
-482.391	55.203	-0.074	0.071
-481.376	139.915	-0.170	0.224
-480.362	-38.117	0.440	-0.233
-479.347	-138.251	0.111	0.012
-478.332	99.414	-0.247	-0.284
-477.318	369.963	0.072	0.146
-476.303	21.661	-0.183	0.148
-475.289	-74.831	-0.340	0.121
-474.274	82.230	0.234	0.253
-473.259	28.906	-0.177	0.149
-472.245	173.310	-0.145	0.208
-471.230	-2.738	0.198	0.138
-470.216	800.000	-0.118	-0.404
-469.201	800.000	0.021	0.080
-468.186	-78.067	0.322	0.110
-467.172	16.667	-0.165	-0.130
-466.157	-200.000	-0.029	0.218
-465.143	145.575	0.070	0.093
-464.128	-70.703	0.054	-0.020
-463.113	-51.896	-0.192	-0.089
-462.099	-157.169	-0.221	0.013
-461.084	-200.000	-0.037	0.165
-460.070	800.000	-0.055	-0.206
-459.055	800.000	-0.061	0.221
-458.040	-96.879	0.228	-0.060
-457.026	-160.788	0.143	-0.008
-456.011	246.822	-0.092	-0.155
-454.997	-86.440	-0.166	-0.051
-453.982	800.000	-0.064	-0.188
-452.968	-200.000	0.053	0.000
-451.953	800.000	0.069	0.291
-450.938	62.318	0.149	-0.148
-449.924	-72.973	-0.134	0.049
-448.909	53.318	0.202	0.192
-447.895	444.310	0.105	-0.229
-446.880	8.802	-0.216	0.162
-445.865	16.542	0.098	-0.077
-444.851	246.141	-0.040	0.068
-443.836	475.183	0.060	0.134
-442.822	800.000	-0.074	0.301
-441.807	-200.000	0.009	0.120
-440.792	-39.717	0.290	-0.151
-439.778	-0.317	0.062	0.044
-438.763	283.945	-0.076	0.136
-437.749	334.045	-0.126	0.242
-436.734	-94.645	-0.046	0.013
-435.719	-200.000	-0.010	-0.187
-434.705	-72.569	-0.018	-0.007
-433.690	-150.650	0.411	0.031
-432.676	35.099	-0.067	0.059
-431.661	3.307	0.112	0.081
-430.646	-119.923	-0.131	-0.022
-429.632	-41.170	-0.136	0.070
-428.617	-103.090	-0.140	-0.033
-427.603	-200.000	0.030	0.131
-426.588	-200.000	-0.002	-0.040
-425.573	-191.087	-0.133	0.001
-424.559	46.621	0.023	0.021
-423.544	380.345	-0.173	-0.352
-422.530	-85.040	-0.192	0.060
-421.515	-92.282	0.156	0.044
-420.500	-130.140	0.129	-0.017
-419.486	-79.809	-0.314	0.105
-418.471	160.659	-0.089	0.124
-417.457	-114.141	-0.048	-0.009
-416.442	800.000	0.075	-0.288
-415.428	-132.499	-0.300	-0.038
-414.413	326.232	-0.090	-0.171
-413.398	67.243	0.107	0.108
-412.384	-200.000	-0.001	0.132
-411.369	595.627	0.063	0.154
-410.355	179.020	-0.110	0.160
-409.340	19.668	-0.085	-0.068
-408.325	-60.541	-0.172	0.073
-407.311	47.719	0.147	0.137
-406.296	800.000	0.042	-0.124
-405.282	-200.000	-0.014	-0.183
-404.267	-200.000	-0.008	0.036
-403.252	-161.488	0.369	0.019
-402.238	-200.000	-0.043	0.243
-401.223	84.605	0.140	-0.152
-400.209	170.290	-0.110	0.156
-399.194	-172.138	0.062	0.002
-398.179	-80.783	0.132	-0.044
-397.165	-59.073	-0.200	0.086
-396.150	220.481	0.042	0.066
-395.136	204.734	0.159	0.245
-394.121	209.145	0.091	-0.141
-393.106	-141.431	0.175	-0.018
-392.092	-69.631	0.090	-0.034
-391.077	800.000	0.009	0.026
-390.063	-98.668	-0.211	-0.054
-389.048	800.000	0.015	-0.049
-388.033	100.037	0.069	0.079
-387.019	-146.289	-0.173	0.015
-386.004	370.045	0.065	0.130
-384.990	-200.000	-0.077	-0.453
-383.975	351.965	0.141	-0.277
-382.960	-200.000	-0.008	-0.120
-381.946	-54.156	0.159	0.072
-380.931	-200.000	-0.077	-0.501
-379.917	-18.784	-0.066	-0.041
-378.902	769.677	0.075	-0.203
-377.888	97.620	0.188	-0.215
-376.873	-8.544	-0.049	0.032
-375.858	-68.075	-0.179	-0.069
-374.844	134.218	0.339	-0.436
-373.829	-35.315	-0.129	0.069
-372.815	285.591	-0.128	0.228
-371.800	737.163	-0.099	0.264
-370.785	26.790	-0.111	0.092
-369.771	76.100	0.134	0.141
-368.756	48.698	0.249	0.232
-367.742	-108.903	-0.022	0.005
-366.727	-52.903	0.180	-0.082
-365.712	74.760	-0.192	-0.201
-364.698	-173.587	0.146	0.004
-363.683	377.152	-0.254	0.514
-362.669	94.628	-0.244	0.275
-361.654	-200.000	0.073	0.364
-360.639	96.083	-0.178	0.202
-359.625	445.880	0.065	-0.141
-358.610	-140.169	0.282	-0.029
-357.596	183.806	-0.111	-0.163
-356.581	-118.214	-0.248	-0.044
-355.566	-135.047	-0.337	0.040
-354.552	82.856	-0.248	-0.267
-353.537	458.833	0.200	0.441
-352.523	-200.000	-0.001	-0.069
-351.508	-62.608	0.202	0.083
-350.493	800.000	0.022	-0.080
-349.479	179.600	-0.119	-0.173
-348.464	-200.000	-0.018	0.191
-347.450	78.119	0.251	-0.266
-346.435	-26.466	0.276	-0.161
-345.420	-145.147	0.052	-0.005
-344.406	-35.358	-0.128	-0.069
-343.391	52.086	0.276	-0.261
-342.377	409.221	-0.100	0.210
-341.362	176.842	-0.092	0.133
-340.348	-86.952	0.336	-0.101
-339.333	800.000	-0.037	0.122
-338.318	-20.877	-0.114	0.069
-337.304	-200.000	-0.025	0.195
-336.289	172.722	0.202	-0.288
-335.275	-98.077	0.363	-0.093
-334.260	800.000	0.048	0.200
-333.245	-178.264	0.075	-0.002
-332.231	-172.465	0.280	0.009
-331.216	-184.929	-0.249	0.004
-330.202	49.012	-0.190	0.176
-329.187	110.827	0.059	-0.070
-328.172	75.662	0.090	-0.094
-327.158	-83.228	0.211	0.067
-326.143	-200.000	-0.018	0.172
-325.129	-75.082	0.405	0.143
-324.114	287.699	0.074	0.132
-323.099	170.963	-0.186	-0.264
-322.085	-200.000	0.045	-0.270
-321.070	-200.000	-0.020	-0.375
-320.056	44.123	0.297	-0.269
-319.041	432.842	-0.108	0.232
-318.026	-200.000	0.033	0.353
-317.012	-200.000	0.043	-0.291
-315.997	-58.852	-0.246	0.105
-314.983	11.309	0.127	0.097
-313.968	-144.571	-0.090	-0.008
-312.953	84.518	-0.078	-0.085
-311.939	-161.394	0.336	-0.017
-310.924	113.993	0.278	0.335
-309.910	40.955	0.289	0.258
-308.895	230.288	0.081	0.132
-307.880	401.630	-0.083	-0.172
-306.866	99.083	-0.191	-0.219
-305.851	-83.644	-0.160	0.051
-304.837	195.521	-0.040	-0.061
-303.822	-200.000	-0.054	-0.377
-302.807	-89.704	-0.326	0.094
-301.793	29.393	-0.093	-0.078
-300.778	-200.000	0.021	-0.095
-299.764	75.212	-0.099	0.103
-298.749	178.160	-0.208	0.300
-297.735	55.072	0.149	0.142
-296.720	61.056	-0.157	-0.154
-295.705	-6.668	-0.163	0.110
-294.691	65.027	0.104	-0.104
-293.676	283.276	0.103	-0.183
-292.662	-23.554	-0.123	0.073
-291.647	154.579	-0.306	0.416
-290.632	-150.638	0.222	-0.017
-289.618	50.654	0.119	0.111
-288.603	-59.863	0.250	-0.106
-287.589	-80.201	-0.143	0.047
-286.574	-200.000	-0.038	0.218
-285.559	54.733	0.149	0.142
-284.545	362.843	-0.049	-0.097
-283.530	230.769	0.093	-0.150
-282.516	246.062	0.148	0.246
-281.501	70.049	0.063	0.065
-280.486	-107.154	-0.412	-0.090
-279.472	196.397	0.118	-0.178
-278.457	-73.098	0.218	-0.079
-277.443	626.500	0.094	-0.235
-276.428	-12.189	0.183	-0.118
-275.413	-200.000	0.017	0.111
-274.399	502.271	-0.113	0.258
-273.384	666.119	-0.055	-0.140
-272.370	112.923	0.140	0.167
-271.355	53.666	-0.125	0.118
-270.340	-109.617	0.090	-0.019
-269.326	50.925	-0.136	0.127
-268.311	800.000	0.059	-0.203
-267.297	800.000	0.072	0.198
-266.282	-52.119	-0.187	-0.086
-265.267	7.592	-0.297	-0.220
-264.253	-200.000	0.008	-0.050
-263.238	65.740	0.099	0.099
-262.224	301.989	0.058	-0.106
-261.209	800.000	0.018	0.053
-260.195	-131.455	0.366	-0.048
-259.180	-101.239	-0.088	-0.021
-258.165	-77.778	0.171	-0.058
-257.151	-6.796	-0.137	0.092
-256.136	-178.627	0.008	0.000
-255.122	398.900	0.138	0.285
-254.107	-27.759	0.309	0.177
-253.092	-200.000	-0.009	-0.139
-252.078	40.193	0.159	0.141
-251.063	-125.781	-0.302	0.045
-250.049	-17.010	-0.406	0.253
-249.034	-200.000	0.052	0.323
-248.019	-200.000	0.013	0.150
-247.005	-98.488	0.290	0.073
-245.990	344.272	0.051	-0.099
-244.976	-26.514	0.182	0.106
-243.961	-87.958	0.076	0.023
-242.946	98.256	0.144	-0.164
-241.932	166.484	-0.049	-0.069
-240.917	-180.638	-0.222	0.004
-239.903	-200.000	0.034	-0.201
-238.888	-138.759	0.157	0.017
-237.873	653.283	0.186	-0.470
-236.859	548.845	0.122	-0.289
-235.844	108.968	-0.170	0.201
-234.830	162.450	-0.152	0.211
-233.815	-64.310	-0.051	0.021
-232.800	-10.163	-0.068	-0.044
-231.786	-5.096	0.287	-0.195
-230.771	-23.327	0.100	-0.059
-229.757	-200.000	-0.002	-0.013
-228.742	-88.297	-0.084	0.025
-227.727	52.357	-0.232	-0.219
-226.713	608.263	0.065	-0.159
-225.698	1.257	-0.162	-0.115
-224.684	302.021	0.066	-0.121
-223.669	17.790	0.043	-0.034
-222.655	99.712	-0.129	0.148
-221.640	-89.831	-0.342	-0.099
-220.625	-200.000	-0.008	0.275
-219.611	-24.257	-0.108	0.064
-218.596	-83.322	-0.230	-0.073
-217.582	-200.000	-0.012	-0.068
-216.567	101.336	0.192	-0.221
-215.552	-150.691	-0.214	0.016
-214.538	225.976	0.122	0.196
-213.523	800.000	-0.054	-0.184
-212.509	-200.000	0.020	0.096
-211.494	178.884	-0.121	-0.174
-210.479	225.409	-0.064	0.102
-209.465	-193.400	0.420	0.004
-208.450	490.327	0.093	-0.209
-207.436	800.000	-0.032	0.130
-206.421	246.419	0.043	0.071
-205.406	32.637	0.123	-0.105
-204.392	182.894	-0.044	0.064
-203.377	127.342	-0.170	0.213
-202.363	89.251	-0.025	0.028
-201.348	142.717	-0.135	-0.176
-200.333	800.000	0.067	0.189
-199.319	-53.735	-0.236	0.106
-198.304	196.434	0.073	0.109
-197.290	-74.290	-0.168	-0.060
-196.275	-129.025	-0.133	-0.018
-195.260	-151.148	0.165	0.012
-194.246	104.547	-0.069	0.080
-193.231	-54.377	0.326	0.146
-192.217	-148.107	-0.066	0.005
-191.202	79.945	-0.052	0.055
-190.187	800.000	0.040	-0.143
-189.173	-83.406	0.369	0.117
-188.158	-33.023	0.290	0.158
-187.144	37.798	-0.230	0.201
-186.129	800.000	0.066	0.235
-185.114	800.000	-0.047	-0.162
-184.100	456.006	0.141	0.308
-183.085	-200.000	0.061	0.294
-182.071	-97.115	-0.176	-0.045
-181.056	93.347	-0.194	0.217
-180.042	800.000	-0.046	0.145
-179.027	-200.000	0.035	0.384
-178.012	23.414	-0.189	-0.153
-176.998	800.000	-0.031	0.097
-175.983	41.645	0.238	0.212
-174.969	-200.000	0.032	-0.333
-173.954	-200.000	0.047	0.214
-172.939	-31.655	-0.162	-0.089
-171.925	-123.429	-0.113	-0.018
-170.910	73.556	0.235	0.243
-169.896	204.530	0.118	-0.180
-168.881	280.331	0.070	-0.123
-167.866	-134.430	-0.178	-0.021
-166.852	-68.921	-0.246	-0.094
-165.837	-62.642	0.127	-0.052
-164.823	-1.850	0.335	-0.232
-163.808	226.375	-0.058	0.092
-162.793	-55.022	-0.152	-0.067
-161.779	-200.000	-0.009	-0.106
-160.764	-0.143	-0.288	0.202
-159.750	-200.000	-0.051	-0.243
-158.735	-127.850	-0.109	-0.015
-157.720	-170.401	0.210	-0.007
-156.706	-200.000	0.011	-0.133
-155.691	-61.799	0.409	0.168
-154.677	406.899	-0.139	-0.290
-153.662	-97.028	-0.326	-0.084
-152.647	29.793	-0.154	-0.129
-151.633	0.530	0.179	0.126
-150.618	80.216	0.196	0.208
-149.604	93.093	-0.178	-0.198
-148.589	-200.000	0.033	0.189
-147.574	-200.000	0.062	0.548
-146.560	-43.000	-0.362	-0.181
-145.545	-200.000	0.082	-0.387
-144.531	64.668	0.209	-0.207
-143.516	109.740	0.176	-0.207
-142.502	600.737	-0.116	0.284
-141.487	448.635	0.058	0.126
-140.472	151.436	0.251	0.337
-139.458	-200.000	0.020	-0.225
-138.443	800.000	-0.036	-0.109
-137.429	153.188	0.242	0.325
-136.414	800.000	0.080	0.264
-135.399	-200.000	-0.044	0.350
-134.385	-100.602	-0.100	0.024
-133.370	-200.000	0.010	0.188
-132.356	-80.280	-0.369	-0.121
-131.341	-200.000	-0.039	0.318
-130.326	405.705	-0.037	-0.077
-129.312	-181.961	0.360	0.007
-128.297	374.423	-0.103	0.207
-127.283	21.031	0.219	-0.175
-126.268	-200.000	-0.008	-0.199
-125.253	-85.849	0.152	0.046
-124.239	-86.608	-0.182	-0.055
-123.224	-165.685	0.194	-0.008
-122.210	-200.000	-0.041	0.256
-121.195	-200.000	0.001	-0.114
-120.180	130.958	-0.035	-0.044
