DTS Sentinel unit serial number:	SN413079Multiplexer serial number:	ORYXHardware model number:	OX4-SRSoftware version number:	ORYX F/W v4.00 Oryx Data Collector v3.7.2.0data status	okinstallation	princeton_trtdifferential loss correction	single-endedforward channel	channel 1reverse channel	N/Adate	2019/09/14time	22:34:35forward acquisition time	60.00reverse acquisition time	0.00gamma	496.2192k internal	0.2319k external	0.2319temperature offset calibration	1.0005default loss term (dB/km)	0.3790temperature slope calibration	1.0000multiplexer offset coefficient	1.0000multiplexer slope coefficient	1.0000fibre end	0.00T internal ref (°C)	32.55T ext. ref 1 (°C)	4.68T ext. ref 2 (°C)	27.53length (m)	temperature (°C)	Stokes	anti-Stokes-747.200	-19.492	0.409	0.256
-746.185	-200.000	-0.031	0.140
-745.171	61.722	0.208	0.209
-744.156	102.076	0.162	-0.191
-743.142	-76.324	-0.451	-0.161
-742.127	-93.901	-0.097	0.027
-741.112	-200.000	0.013	-0.113
-740.098	-200.000	0.019	0.334
-739.083	-200.000	0.016	-0.127
-738.069	472.631	0.034	-0.077
-737.054	45.275	0.146	-0.136
-736.039	-200.000	-0.007	0.363
-735.025	37.338	0.343	0.307
-734.010	-44.784	-0.050	-0.025
-732.996	-200.000	0.026	-0.278
-731.981	-4.299	-0.131	0.092
-730.966	-200.000	-0.027	-0.175
-729.952	207.219	0.037	0.058
-728.937	-200.000	0.074	-0.364
-727.923	-154.923	0.198	-0.013
-726.908	-173.020	-0.237	-0.007
-725.894	-64.763	-0.220	-0.090
-724.879	165.394	-0.224	-0.320
-723.864	-104.780	-0.193	-0.045
-722.850	-42.257	-0.186	-0.096
-721.835	90.409	0.026	-0.029
-720.821	403.621	-0.103	-0.218
-719.806	447.283	-0.031	0.068
-718.791	-67.182	0.205	-0.082
-717.777	-89.904	-0.196	0.058
-716.762	294.063	0.085	-0.157
-715.748	6.111	-0.103	-0.077
-714.733	-200.000	0.045	-0.328
-713.718	108.025	-0.187	-0.226
-712.704	800.000	-0.071	0.200
-711.689	381.501	0.024	0.049
-710.675	-200.000	0.056	0.279
-709.660	-200.000	0.025	-0.193
-708.645	752.996	-0.049	-0.134
-707.631	225.395	-0.044	-0.073
-706.616	143.810	-0.120	0.162
-705.602	639.598	-0.018	0.046
-704.587	194.863	0.052	0.080
-703.572	-200.000	0.053	-0.235
-702.558	-200.000	-0.006	0.140
-701.543	274.872	0.070	-0.125
-700.529	281.578	-0.107	-0.194
-699.514	-200.000	0.064	0.341
-698.499	800.000	-0.042	0.149
-697.485	-178.970	-0.319	-0.007
-696.470	-38.365	0.339	-0.181
-695.456	285.096	-0.050	0.090
-694.441	-200.000	0.022	-0.204
-693.426	-54.398	-0.115	0.053
-692.412	-200.000	0.039	-0.342
-691.397	-131.228	-0.280	0.038
-690.383	34.751	0.110	0.097
-689.368	-200.000	-0.318	-0.000
-688.354	-200.000	0.021	-0.235
-687.339	-74.640	-0.258	0.094
-686.324	439.511	-0.022	-0.048
-685.310	-200.000	-0.021	-0.271
-684.295	262.372	0.061	-0.108
-683.281	-178.186	-0.425	0.010
-682.266	-42.606	-0.318	0.164
-681.251	76.543	-0.117	-0.125
-680.237	477.254	-0.176	-0.402
-679.222	100.926	0.088	-0.103
-678.208	368.237	-0.139	-0.284
-677.193	-143.412	0.069	0.007
-676.178	381.778	0.082	0.170
-675.164	-55.059	0.362	-0.165
-674.149	-84.090	-0.221	-0.071
-673.135	181.971	0.137	-0.203
-672.120	800.000	0.035	-0.146
-671.105	250.157	0.115	-0.197
-670.091	576.558	-0.031	-0.077
-669.076	-13.293	-0.177	-0.116
-668.062	800.000	-0.053	-0.225
-667.047	22.824	0.104	-0.086
-666.032	171.362	0.108	0.156
-665.018	-145.949	-0.212	-0.019
-664.003	154.624	0.121	0.168
-662.989	-200.000	-0.004	0.032
-661.974	-41.162	0.265	-0.138
-660.959	-76.085	-0.338	-0.120
-659.945	59.292	0.110	-0.109
-658.930	-80.895	-0.090	-0.030
-657.916	-50.850	-0.085	0.040
-656.901	34.370	-0.079	-0.069
-655.886	190.662	-0.107	-0.161
-654.872	-114.165	-0.276	-0.054
-653.857	-200.000	0.064	-0.351
-652.843	6.543	0.136	0.102
-651.828	564.422	-0.047	-0.116
-650.814	255.052	-0.023	0.040
-649.799	-101.656	-0.358	-0.088
-648.784	-82.710	-0.115	0.037
-647.770	-105.595	-0.230	-0.053
-646.755	93.357	-0.092	-0.105
-645.741	155.807	0.073	-0.101
-644.726	-200.000	0.001	-0.301
-643.711	105.372	0.144	0.171
-642.697	82.572	0.101	0.110
-641.682	-200.000	-0.005	0.275
-640.668	-19.530	0.127	-0.079
-639.653	38.556	0.155	0.139
-638.638	-102.802	-0.227	0.054
-637.624	-200.000	0.011	0.134
-636.609	-200.000	0.015	0.146
-635.595	800.000	0.085	-0.345
-634.580	60.307	0.093	-0.093
-633.565	102.777	0.105	0.124
-632.551	-63.309	-0.260	-0.108
-631.536	-40.425	-0.224	0.117
-630.522	19.917	0.261	-0.212
-629.507	61.666	0.066	0.066
-628.492	78.667	0.336	0.362
-627.478	-200.000	0.007	0.070
-626.463	800.000	-0.024	0.076
-625.449	-99.459	0.199	0.050
-624.434	165.900	0.054	0.078
-623.419	-121.805	-0.251	-0.042
-622.405	148.666	-0.033	-0.045
-621.390	273.218	-0.019	0.034
-620.376	-140.231	-0.432	0.046
-619.361	-200.000	-0.004	-0.075
-618.346	-26.866	-0.138	0.081
-617.332	-40.635	0.180	0.094
-616.317	-200.000	-0.006	0.300
-615.303	-200.000	-0.001	0.126
-614.288	-92.606	-0.216	0.061
-613.273	-200.000	-0.034	0.289
-612.259	-200.000	0.008	0.327
-611.244	-3.762	-0.122	0.085
-610.230	800.000	0.081	0.296
-609.215	14.532	0.179	0.141
-608.201	83.976	0.110	0.120
-607.186	69.396	0.125	0.130
-606.171	-200.000	-0.009	0.142
-605.157	-96.980	-0.083	-0.022
-604.142	148.066	-0.113	0.154
-603.128	800.000	-0.074	-0.209
-602.113	-28.563	-0.091	0.053
-601.098	22.340	-0.053	-0.044
-600.084	-6.508	-0.394	0.270
-599.069	-28.585	0.167	-0.097
-598.055	285.443	0.114	0.207
-597.040	800.000	-0.039	-0.127
-596.025	482.644	0.026	-0.059
-595.011	-200.000	-0.015	0.219
-593.996	-93.075	-0.130	0.036
-592.982	-66.960	0.199	0.079
-591.967	-82.053	-0.199	-0.065
-590.952	399.347	0.066	-0.140
-589.938	149.737	0.148	0.201
-588.923	28.171	0.156	0.132
-587.909	796.479	-0.137	0.380
-586.894	-176.903	0.379	-0.010
-585.879	189.924	-0.082	0.124
-584.865	48.975	-0.262	-0.247
-583.850	-200.000	0.030	-0.174
-582.836	-200.000	0.034	-0.192
-581.821	-87.660	0.087	-0.026
-580.806	13.772	-0.122	-0.095
-579.792	800.000	-0.083	0.284
-578.777	-115.069	-0.372	-0.071
-577.763	-94.682	0.404	0.110
-576.748	-115.722	-0.196	0.037
-575.733	-49.973	0.204	-0.097
-574.719	-200.000	-0.016	-0.329
-573.704	-152.202	-0.071	0.005
-572.690	-200.000	-0.059	0.396
-571.675	86.328	-0.189	0.209
-570.661	152.433	-0.167	-0.229
-569.646	800.000	-0.107	-0.446
-568.631	-108.969	0.231	0.050
-567.617	-104.626	0.275	0.064
-566.602	61.552	-0.014	-0.014
-565.588	81.814	-0.205	0.223
-564.573	-93.878	-0.136	0.038
-563.558	91.132	-0.144	-0.162
-562.544	-66.394	-0.136	-0.054
-561.529	-60.559	-0.324	-0.138
-560.515	-200.000	-0.019	-0.113
-559.500	-44.425	-0.470	-0.236
-558.485	-200.000	0.000	0.138
-557.471	-145.615	0.150	0.014
-556.456	0.194	0.218	-0.156
-555.442	-162.180	-0.180	-0.009
-554.427	-200.000	-0.005	-0.212
-553.412	59.592	0.243	0.241
-552.398	225.610	-0.167	0.272
-551.383	-95.112	0.250	0.068
-550.369	677.238	0.039	0.102
-549.354	800.000	-0.012	0.046
-548.339	-46.267	-0.096	-0.047
-547.325	118.567	0.174	-0.216
-546.310	192.897	0.123	-0.187
-545.296	-52.410	-0.169	0.078
-544.281	-145.464	-0.519	-0.047
-543.266	117.672	-0.207	-0.256
-542.252	170.229	0.322	-0.462
-541.237	-107.943	-0.260	-0.057
-540.223	800.000	-0.061	0.174
-539.208	-107.071	0.275	0.061
-538.193	-106.218	-0.084	-0.019
-537.179	-74.609	-0.023	-0.008
-536.164	800.000	-0.053	0.217
-535.150	-49.665	0.212	0.101
-534.135	-102.086	-0.065	0.016
-533.121	-181.062	0.111	0.002
-532.106	-129.154	-0.167	-0.023
-531.091	590.605	0.007	0.018
-530.077	-47.764	-0.020	0.010
-529.062	166.070	0.069	-0.098
-528.048	21.201	0.114	0.093
-527.033	137.647	-0.334	-0.439
-526.018	32.912	0.298	-0.259
-525.004	369.157	0.060	0.121
-523.989	514.997	0.123	0.289
-522.975	-6.743	-0.083	-0.056
-521.960	-200.000	0.005	0.025
-520.945	46.407	-0.112	0.104
-519.931	-41.009	-0.203	-0.105
-518.916	-116.116	-0.481	-0.090
-517.902	-200.000	-0.046	-0.289
-516.887	-116.823	0.213	0.039
-515.872	-83.618	-0.178	0.057
-514.858	-200.000	0.018	-0.111
-513.843	-147.204	0.150	0.013
-512.829	-46.752	-0.094	0.046
-511.814	99.401	-0.127	-0.147
-510.799	32.782	-0.196	-0.170
-509.785	-94.777	0.204	0.055
-508.770	274.002	-0.158	0.280
-507.756	40.518	-0.450	-0.406
-506.741	63.474	0.132	0.133
-505.726	-72.159	0.266	0.099
-504.712	800.000	-0.135	0.407
-503.697	800.000	-0.067	-0.228
-502.683	564.390	-0.045	-0.109
-501.668	105.182	0.272	-0.321
-500.653	-114.192	0.251	0.049
-499.639	631.055	0.084	0.214
-498.624	800.000	0.051	-0.194
-497.610	-71.505	-0.121	0.045
-496.595	279.910	0.041	-0.074
-495.581	105.008	0.039	-0.046
-494.566	-121.124	0.075	-0.013
-493.551	89.009	0.042	-0.047
-492.537	800.000	0.053	0.184
-491.522	519.122	0.074	0.173
-490.508	-21.117	-0.294	-0.180
-489.493	58.949	-0.069	-0.068
-488.478	-48.667	0.088	-0.042
-487.464	-200.000	0.007	-0.131
-486.449	7.405	-0.168	0.126
-485.435	556.122	-0.088	-0.211
-484.420	-3.781	-0.261	0.182
-483.405	-200.000	-0.041	0.196
-482.391	488.926	-0.025	-0.058
-481.376	4.321	-0.121	-0.089
-480.362	-36.162	-0.352	-0.190
-479.347	-200.000	0.017	-0.410
-478.332	-81.674	0.065	-0.022
-477.318	800.000	0.048	0.181
-476.303	128.665	0.103	-0.131
-475.289	-44.683	0.115	-0.057
-474.274	770.532	0.027	-0.074
-473.259	97.346	-0.076	0.087
-472.245	225.928	0.145	0.235
-471.230	88.603	0.194	0.216
-470.216	-101.463	0.428	-0.104
-469.201	-0.854	-0.242	-0.171
-468.186	-108.357	0.171	-0.037
-467.172	-96.069	0.288	0.077
-466.157	77.469	-0.064	-0.068
-465.143	-124.251	-0.267	-0.042
-464.128	62.756	-0.246	0.246
-463.113	-24.918	-0.235	-0.139
-462.099	-143.743	-0.199	-0.019
-461.084	69.985	-0.096	-0.100
-460.070	-83.591	0.272	-0.087
-459.055	-200.000	-0.077	0.371
-458.040	-135.288	0.275	0.033
-457.026	676.636	0.093	0.243
-456.011	-67.091	-0.121	-0.048
-454.997	-73.948	0.121	0.044
-453.982	-200.000	-0.062	-0.275
-452.968	-72.350	0.047	0.018
-451.953	-12.157	0.061	0.040
-450.938	131.370	0.134	-0.172
-449.924	-97.006	0.299	0.078
-448.909	-78.447	0.231	0.079
-447.895	550.755	-0.099	0.238
-446.880	-200.000	0.054	-0.251
-445.865	48.754	0.222	-0.208
-444.851	369.567	0.203	0.410
-443.836	466.460	-0.135	-0.303
-442.822	58.960	0.184	0.181
-441.807	-10.254	-0.339	0.225
-440.792	147.417	0.188	-0.253
-439.778	-74.005	-0.205	-0.074
-438.763	-52.920	0.253	0.116
-437.749	-147.200	-0.169	-0.014
-436.734	77.901	-0.118	-0.125
-435.719	-114.560	0.259	0.050
-434.705	82.821	0.048	-0.052
-433.690	800.000	-0.014	0.040
-432.676	156.451	-0.091	-0.126
-431.661	235.055	-0.078	-0.129
-430.646	-200.000	0.033	0.158
-429.632	-58.403	0.220	-0.096
-428.617	-200.000	-0.040	0.347
-427.603	-142.736	0.451	0.044
-426.588	800.000	0.041	-0.154
-425.573	800.000	-0.028	-0.080
-424.559	-59.327	-0.296	0.127
-423.544	-106.306	0.413	-0.092
-422.530	30.253	0.051	-0.043
-421.515	-24.736	0.118	-0.070
-420.500	-86.794	-0.292	-0.089
-419.486	160.070	-0.208	-0.290
-418.471	-36.007	-0.154	-0.083
-417.457	65.478	0.176	-0.178
-416.442	-33.730	0.107	0.059
-415.428	-40.875	-0.148	0.076
-414.413	800.000	0.035	-0.142
-413.398	536.087	-0.104	-0.246
-412.384	-49.383	-0.336	-0.160
-411.369	157.329	-0.082	0.113
-410.355	-146.652	-0.175	-0.015
-409.340	413.662	0.008	0.017
-408.325	-200.000	-0.045	-0.402
-407.311	-200.000	-0.043	-0.211
-406.296	-200.000	0.043	0.397
-405.282	800.000	-0.076	0.212
-404.267	0.278	0.126	0.090
-403.252	-200.000	-0.040	-0.285
-402.238	62.807	0.119	-0.119
-401.223	51.790	0.248	0.235
-400.209	238.988	0.062	0.103
-399.194	-121.332	0.389	-0.065
-398.179	118.861	0.118	0.146
-397.165	-200.000	-0.026	-0.248
-396.150	-80.948	-0.011	0.004
-395.136	-200.000	0.000	0.324
-394.121	281.858	0.085	0.151
-393.106	122.505	0.081	-0.102
-392.092	516.127	0.127	0.296
-391.077	91.810	-0.138	-0.155
-390.063	170.776	-0.069	-0.099
-389.048	-124.895	0.117	0.018
-388.033	141.565	-0.190	-0.251
-387.019	140.964	0.287	-0.379
-386.004	81.545	-0.126	0.136
-384.990	380.499	0.048	-0.098
-383.975	-101.488	-0.252	0.061
-382.960	-40.393	-0.353	0.183
-381.946	-99.204	0.061	0.015
-380.931	800.000	0.006	0.026
-379.917	-23.219	0.135	-0.081
-378.902	800.000	-0.082	-0.258
-377.888	465.755	-0.121	-0.271
-376.873	-200.000	0.015	-0.412
-375.858	84.346	0.056	0.061
-374.844	-11.367	-0.022	0.014
-373.829	94.541	0.070	0.080
-372.815	-111.282	-0.039	-0.008
-371.800	-107.704	0.169	0.037
-370.785	373.674	0.051	-0.104
-369.771	-169.029	-0.163	-0.006
-368.756	800.000	0.040	-0.145
-367.742	-23.098	-0.160	0.096
-366.727	-200.000	0.026	0.428
-365.712	-27.553	-0.475	0.275
-364.698	-170.347	0.089	0.003
-363.683	-200.000	0.011	-0.099
-362.669	19.934	0.185	-0.148
-361.654	74.915	0.143	-0.150
-360.639	186.764	0.077	0.114
-359.625	-81.453	0.116	-0.038
-358.610	-200.000	-0.016	0.118
-357.596	-110.214	-0.268	-0.056
-356.581	-20.460	0.182	-0.111
-355.566	-59.473	0.327	0.140
-354.552	-190.485	-0.343	-0.004
-353.537	-22.397	0.242	-0.146
-352.523	162.505	0.129	0.180
-351.508	-200.000	-0.015	0.081
-350.493	79.919	-0.198	0.212
-349.479	-122.834	0.285	-0.046
-348.464	-62.373	0.052	-0.022
-347.450	-54.708	0.348	0.157
-346.435	47.826	0.172	-0.160
-345.420	294.703	-0.041	-0.074
-344.406	-52.123	-0.184	0.085
-343.391	-42.037	0.176	0.090
-342.377	-144.990	0.270	0.024
-341.362	-7.387	0.040	0.027
-340.348	-124.317	-0.143	0.022
-339.333	383.399	-0.064	-0.131
-338.318	-200.000	-0.001	-0.148
-337.304	254.333	0.136	-0.231
-336.289	-187.843	0.148	-0.002
-335.275	-79.126	-0.270	-0.091
-334.260	-101.030	0.154	-0.038
-333.245	-71.029	-0.170	-0.064
-332.231	-200.000	-0.042	-0.266
-331.216	-200.000	0.036	0.438
-330.202	-200.000	-0.033	0.385
-329.187	-110.572	-0.125	0.026
-328.172	1.082	0.332	0.237
-327.158	-200.000	-0.040	0.184
-326.143	93.784	0.097	0.110
-325.129	619.720	-0.097	0.242
-324.114	-57.381	0.132	0.058
-323.099	32.834	0.225	0.193
-322.085	-131.696	-0.032	0.004
-321.070	-131.175	0.247	-0.033
-320.056	216.825	-0.279	0.441
-319.041	-24.250	0.163	0.097
-318.026	214.642	0.263	-0.414
-317.012	34.783	0.013	-0.011
-315.997	-17.940	-0.040	-0.025
-314.983	-200.000	0.074	0.393
-313.968	122.125	0.057	0.071
-312.953	-100.319	0.088	-0.022
-311.939	-200.000	0.004	0.077
-310.924	-76.739	-0.229	-0.080
-309.910	-195.416	-0.039	-0.000
-308.895	503.933	0.143	-0.330
-307.880	-99.832	-0.126	-0.031
-306.866	-37.376	-0.252	-0.134
-305.851	-140.615	0.237	-0.024
-304.837	414.127	-0.162	-0.343
-303.822	15.526	0.253	-0.198
-302.807	-200.000	-0.001	0.156
-301.793	-56.249	0.405	0.179
-300.778	-45.019	-0.153	0.076
-299.764	-200.000	0.004	-0.396
-298.749	-200.000	0.019	0.125
-297.735	-53.796	-0.263	-0.119
-296.720	-14.209	0.218	0.140
-295.705	-200.000	0.011	0.251
-294.691	-200.000	0.018	0.151
-293.676	-141.238	-0.289	0.029
-292.662	32.901	-0.162	-0.139
-291.647	-96.616	0.450	-0.118
-290.632	-182.116	0.136	0.003
-289.618	-16.309	-0.220	-0.139
-288.603	800.000	0.054	0.158
-287.589	-60.983	0.129	-0.054
-286.574	127.039	-0.208	0.263
-285.559	-55.893	-0.179	-0.079
-284.545	800.000	-0.088	0.276
-283.530	800.000	-0.029	-0.123
-282.516	800.000	0.046	-0.168
-281.501	-10.839	0.147	-0.097
-280.486	277.659	0.119	-0.211
-279.472	-200.000	0.010	0.186
-278.457	-170.353	-0.022	0.001
-277.443	-104.333	0.252	-0.058
-276.428	-46.382	0.180	-0.088
-275.413	342.886	-0.075	-0.145
-274.399	-200.000	0.019	-0.297
-273.384	-200.000	0.007	-0.388
-272.370	162.190	0.058	0.080
-271.355	800.000	0.052	0.162
-270.340	-40.520	-0.177	-0.091
-269.326	-21.195	-0.366	-0.222
-268.311	-73.390	-0.126	0.046
-267.297	69.874	-0.069	0.071
-266.282	142.287	-0.072	-0.095
-265.267	800.000	-0.029	-0.119
-264.253	-200.000	0.011	0.259
-263.238	120.947	0.133	0.165
-262.224	8.454	-0.321	-0.240
-261.209	367.755	-0.065	0.129
-260.195	-173.342	0.340	0.010
-259.180	-168.861	-0.238	-0.009
-258.165	800.000	-0.056	0.175
-257.151	-4.192	-0.289	-0.198
-256.136	62.246	-0.109	-0.108
-255.122	-118.580	0.111	0.019
-254.107	-3.912	-0.065	0.045
-253.092	98.319	0.242	0.277
-252.078	-25.094	-0.143	0.084
-251.063	-200.000	-0.017	-0.096
-250.049	283.784	-0.072	0.128
-249.034	10.887	-0.037	0.028
-248.019	492.555	0.084	0.191
-247.005	248.987	0.166	0.280
-245.990	-95.901	0.140	0.037
-244.976	105.122	-0.131	0.153
-243.961	-59.885	-0.417	0.177
-242.946	-200.000	0.058	-0.259
-241.932	-12.604	0.085	0.055
-240.917	800.000	0.120	0.388
-239.903	-200.000	-0.039	-0.224
-238.888	-63.647	-0.135	-0.055
-237.873	-116.850	0.224	0.041
-236.859	-146.844	-0.075	0.006
-235.844	-200.000	-0.001	0.053
-234.830	53.343	0.284	0.270
-233.815	320.861	0.196	0.370
-232.800	624.083	0.117	-0.293
-231.786	217.603	0.199	0.315
-230.771	-200.000	-0.056	0.337
-229.757	-91.246	-0.106	0.030
-228.742	-28.150	-0.235	-0.135
-227.727	-200.000	0.020	-0.218
-226.713	411.337	-0.050	-0.106
-225.698	47.052	0.077	-0.071
-224.684	-78.368	0.210	0.071
-223.669	-17.633	-0.066	-0.041
-222.655	-106.597	0.360	0.079
-221.640	143.084	0.069	0.090
-220.625	110.729	-0.087	0.104
-219.611	794.845	-0.133	-0.362
-218.596	-84.448	-0.312	0.098
-217.582	800.000	-0.034	0.103
-216.567	-7.436	0.291	-0.195
-215.552	751.723	-0.098	-0.263
-214.538	-40.683	-0.060	-0.031
-213.523	195.146	-0.200	0.301
-212.509	216.393	-0.112	0.176
-211.494	100.633	0.137	-0.157
-210.479	295.846	0.106	-0.192
-209.465	-74.464	-0.155	-0.055
-208.450	36.017	0.170	-0.149
-207.436	-64.752	0.150	-0.060
-206.421	-4.698	-0.131	0.089
-205.406	490.067	-0.066	-0.150
-204.392	-168.178	-0.185	-0.007
-203.377	31.162	-0.238	-0.202
-202.363	800.000	0.127	-0.436
-201.348	57.048	-0.232	-0.224
-200.333	-13.636	0.182	0.117
-199.319	96.739	0.229	0.259
-198.304	60.730	0.193	0.189
-197.290	112.047	0.088	0.106
-196.275	-60.318	-0.051	-0.022
-195.260	800.000	0.036	0.142
-194.246	88.932	0.166	-0.183
-193.231	-200.000	-0.005	0.229
-192.217	-200.000	-0.002	-0.012
-191.202	-44.267	0.233	0.115
-190.187	350.481	0.063	0.123
-189.173	488.280	0.104	0.234
-188.158	134.681	-0.253	-0.325
-187.144	33.607	-0.308	-0.265
-186.129	-200.000	0.030	-0.329
-185.114	-116.355	0.321	-0.059
-184.100	-115.384	-0.192	-0.036
-183.085	-96.006	0.171	-0.045
-182.071	-162.100	-0.134	-0.007
-181.056	390.677	0.122	-0.251
-180.042	-200.000	0.004	0.141
-179.027	234.746	0.120	0.195
-178.012	-138.014	-0.307	-0.034
-176.998	800.000	0.198	-0.570
-175.983	800.000	0.016	-0.053
-174.969	-146.805	-0.247	0.021
-173.954	-17.576	-0.173	0.108
-172.939	296.869	0.135	-0.245
-171.925	-81.967	0.165	-0.053
-170.910	-51.624	0.076	-0.035
-169.896	-200.000	-0.014	0.167
-168.881	-129.678	-0.134	-0.018
-167.866	314.162	0.052	-0.096
-166.852	-20.657	-0.127	-0.077
-165.837	-0.776	-0.046	0.032
-164.823	-71.293	-0.204	0.076
-163.808	-137.051	0.062	-0.007
-162.793	72.222	-0.145	0.149
-161.779	-89.271	-0.108	-0.031
-160.764	-200.000	0.009	0.114
-159.750	-163.296	-0.493	0.023
-158.735	-56.600	0.184	-0.080
-157.720	-85.039	0.026	-0.008
-156.706	322.456	0.066	0.124
-155.691	355.887	0.159	0.312
-154.677	27.991	0.152	-0.127
-153.662	-171.515	0.244	-0.008
-152.647	800.000	0.078	-0.295
-151.633	153.490	-0.152	0.205
-150.618	430.716	-0.126	0.269
-149.604	800.000	-0.121	0.347
-148.589	-99.237	-0.160	0.040
-147.574	-200.000	-0.022	0.153
-146.560	20.879	0.013	0.010
-145.545	-142.859	-0.218	0.021
-144.531	-200.000	-0.035	0.306
-143.516	-36.842	0.139	-0.074
-142.502	-134.633	-0.366	0.044
-141.487	75.396	0.118	-0.123
-140.472	-128.845	-0.333	-0.046
-139.458	-200.000	0.044	0.203
-138.443	44.370	-0.254	-0.230
-137.429	-200.000	0.026	-0.241
-136.414	-137.728	0.251	-0.028
-135.399	-200.000	-0.028	0.242
-134.385	221.597	-0.094	0.149
-133.370	-104.904	0.239	-0.054
-132.356	800.000	-0.045	0.147
-131.341	88.975	0.073	0.080
-130.326	-81.839	-0.310	-0.100
-129.312	154.133	-0.050	0.068
-128.297	-114.816	-0.301	-0.057
-127.283	-108.984	0.382	0.080
-126.268	50.123	-0.348	-0.324
-125.253	800.000	0.059	0.181
-124.239	0.842	0.275	0.194
-123.224	260.804	-0.047	-0.081
-122.210	-178.419	0.046	0.001
