DTS Sentinel unit serial number:	SN413079Multiplexer serial number:	ORYXHardware model number:	OX4-SRSoftware version number:	ORYX F/W v4.00 Oryx Data Collector v3.7.2.0data status	okinstallation	princeton_trtdifferential loss correction	single-endedforward channel	channel 1reverse channel	N/Adate	2019/09/19time	02:10:35forward acquisition time	60.00reverse acquisition time	0.00gamma	496.2192k internal	0.2344k external	0.2344temperature offset calibration	1.0014default loss term (dB/km)	0.3790temperature slope calibration	1.0000multiplexer offset coefficient	1.0000multiplexer slope coefficient	1.0000fibre end	0.00T internal ref (°C)	21.19T ext. ref 1 (°C)	0.68T ext. ref 2 (°C)	14.79length (m)	temperature (°C)	Stokes	anti-Stokes-747.200	-103.059	-0.101	-0.024
-746.185	202.281	0.109	0.168
-745.171	-77.090	0.492	0.172
-744.156	-79.138	-0.229	-0.078
-743.142	-200.000	-0.005	-0.022
-742.127	243.887	-0.082	-0.138
-741.112	-111.114	-0.302	0.062
-740.098	-102.031	0.230	-0.056
-739.083	-92.526	-0.146	0.041
-738.069	-113.157	-0.178	-0.035
-737.054	-111.585	0.302	-0.061
-736.039	302.088	-0.183	-0.339
-735.025	-88.276	0.165	0.049
-734.010	33.532	-0.413	-0.359
-732.996	800.000	-0.096	-0.274
-731.981	732.430	-0.117	0.314
-730.966	-81.731	-0.215	0.071
-729.952	141.070	-0.217	-0.288
-728.937	-200.000	-0.036	-0.289
-727.923	-38.759	-0.363	-0.191
-726.908	-14.464	-0.088	0.057
-725.894	-19.526	0.527	-0.327
-724.879	44.515	-0.177	-0.163
-723.864	800.000	0.044	-0.170
-722.850	-114.708	-0.124	-0.024
-721.835	17.312	-0.177	0.141
-720.821	352.151	-0.047	0.093
-719.806	778.628	-0.028	0.075
-718.791	47.429	-0.207	-0.193
-717.777	-12.661	-0.056	-0.036
-716.762	42.743	0.141	-0.129
-715.748	-45.888	-0.274	-0.135
-714.733	-200.000	-0.009	-0.085
-713.718	751.073	-0.035	0.093
-712.704	-139.413	-0.175	-0.019
-711.689	159.197	-0.085	0.118
-710.675	-162.003	-0.121	0.006
-709.660	129.862	-0.105	-0.134
-708.645	-200.000	0.051	-0.365
-707.631	-200.000	0.010	0.407
-706.616	168.659	0.046	-0.066
-705.602	-69.337	-0.281	0.108
-704.587	50.541	0.095	-0.090
-703.572	58.783	-0.185	0.182
-702.558	-200.000	-0.053	-0.369
-701.543	50.327	0.288	-0.272
-700.529	158.989	0.045	0.063
-699.514	-200.000	-0.052	-0.273
-698.499	-200.000	-0.044	0.204
-697.485	117.688	-0.075	0.092
-696.470	-200.000	0.051	-0.413
-695.456	-166.293	-0.200	0.008
-694.441	-172.751	-0.456	-0.014
-693.426	120.537	0.148	-0.183
-692.412	102.446	-0.104	-0.122
-691.397	326.116	0.088	0.168
-690.383	25.915	-0.109	0.091
-689.368	136.464	0.047	0.061
-688.354	800.000	-0.036	-0.142
-687.339	-146.927	-0.207	0.018
-686.324	7.821	0.210	0.157
-685.310	-137.392	0.340	-0.038
-684.295	1.547	-0.006	0.004
-683.281	354.137	-0.018	0.036
-682.266	-1.252	0.224	0.158
-681.251	127.771	0.080	0.102
-680.237	547.216	-0.020	0.047
-679.222	-200.000	0.000	-0.210
-678.208	64.359	0.325	0.327
-677.193	-90.169	0.156	0.045
-676.178	22.634	-0.182	-0.148
-675.164	-200.000	-0.002	-0.055
-674.149	232.720	0.202	0.331
-673.135	58.022	-0.146	-0.143
-672.120	58.769	0.291	-0.286
-671.105	-98.906	0.213	-0.054
-670.091	800.000	-0.061	-0.215
-669.076	-44.072	0.141	0.070
-668.062	52.152	-0.425	0.404
-667.047	581.404	0.118	-0.289
-666.032	-22.650	0.191	0.115
-665.018	157.119	-0.032	0.044
-664.003	-109.002	-0.290	-0.062
-662.989	-200.000	-0.044	-0.289
-661.974	-50.317	-0.161	-0.076
-660.959	-147.117	-0.162	0.014
-659.945	-200.000	-0.005	-0.056
-658.930	-157.861	-0.214	-0.013
-657.916	63.700	0.077	0.078
-656.901	-200.000	0.013	0.147
-655.886	120.421	0.070	0.086
-654.872	-138.971	0.314	0.034
-653.857	286.379	0.074	0.134
-652.843	-194.055	0.106	0.001
-651.828	204.919	-0.292	-0.452
-650.814	-84.644	-0.059	0.019
-649.799	373.621	0.119	0.241
-648.784	-200.000	0.014	-0.067
-647.770	259.985	0.034	0.059
-646.755	-200.000	-0.014	-0.377
-645.741	-17.932	-0.133	-0.083
-644.726	297.991	-0.160	-0.293
-643.711	800.000	-0.062	-0.187
-642.697	-200.000	0.000	0.328
-641.682	800.000	0.080	-0.278
-640.668	6.673	0.209	0.155
-639.653	-136.455	0.314	-0.036
-638.638	424.072	0.100	0.215
-637.624	152.858	-0.143	-0.195
-636.609	800.000	0.110	-0.426
-635.595	-96.577	-0.211	0.056
-634.580	451.079	0.049	0.109
-633.565	526.408	-0.047	0.110
-632.551	69.555	-0.019	0.020
-631.536	54.985	-0.087	0.083
-630.522	-34.302	0.239	-0.131
-629.507	72.730	-0.093	-0.097
-628.492	-61.358	0.132	-0.055
-627.478	-102.176	-0.100	0.024
-626.463	-31.160	-0.200	0.112
-625.449	-115.483	-0.134	0.025
-624.434	-200.000	-0.078	-0.424
-623.419	4.265	-0.072	-0.053
-622.405	-97.245	0.228	0.059
-621.390	37.485	0.116	0.102
-620.376	-23.928	0.278	0.166
-619.361	317.737	0.072	-0.136
-618.346	-59.141	0.189	0.081
-617.332	-200.000	0.001	0.155
-616.317	149.471	-0.184	0.248
-615.303	246.890	0.096	0.162
-614.288	10.350	0.233	-0.177
-613.273	174.257	-0.116	0.166
-612.259	356.055	-0.069	0.136
-611.244	230.911	-0.069	0.112
-610.230	-63.740	0.195	0.080
-609.215	-195.694	0.309	0.002
-608.201	-77.520	0.221	0.076
-607.186	-41.831	0.013	0.007
-606.171	-69.646	-0.012	0.004
-605.157	800.000	0.122	-0.385
-604.142	18.062	-0.219	0.174
-603.128	-79.066	-0.423	0.143
-602.113	419.993	-0.151	0.322
-601.098	603.140	-0.035	0.087
-600.084	-86.448	-0.241	0.074
-599.069	30.083	0.357	-0.303
-598.055	800.000	-0.037	-0.103
-597.040	-111.817	0.336	-0.068
-596.025	762.881	-0.077	-0.208
-595.011	-164.095	0.071	-0.003
-593.996	419.602	0.063	-0.134
-592.982	-107.980	0.357	0.077
-591.967	-13.100	-0.016	-0.010
-590.952	721.170	-0.114	0.301
-589.938	-63.616	0.335	-0.137
-588.923	238.493	-0.184	-0.305
-587.909	44.139	0.185	-0.169
-586.894	-145.640	-0.320	0.028
-585.879	-200.000	-0.081	0.401
-584.865	-100.079	0.323	0.080
-583.850	9.737	0.212	0.160
-582.836	360.936	0.081	0.162
-581.821	-42.755	0.225	0.114
-580.806	-124.900	-0.130	0.020
-579.792	70.717	-0.277	0.285
-578.777	234.825	-0.097	0.160
-577.763	335.461	-0.076	-0.146
-576.748	59.548	0.046	-0.045
-575.733	800.000	0.030	0.111
-574.719	-187.591	-0.315	-0.004
-573.704	27.546	0.243	-0.203
-572.690	-96.653	-0.175	0.046
-571.675	220.894	0.128	0.205
-570.661	-200.000	0.027	0.237
-569.646	-14.237	-0.241	-0.155
-568.631	-200.000	0.059	-0.280
-567.617	240.050	0.080	0.132
-566.602	800.000	0.060	0.188
-565.588	-200.000	-0.007	-0.304
-564.573	-200.000	0.246	0.000
-563.558	800.000	0.021	-0.078
-562.544	-178.052	0.101	-0.002
-561.529	-71.935	0.118	0.044
-560.515	430.708	-0.191	-0.412
-559.500	612.776	-0.088	-0.219
-558.485	128.756	0.203	-0.257
-557.471	-44.794	-0.120	-0.060
-556.456	-200.000	0.031	-0.215
-555.442	-87.194	-0.104	0.031
-554.427	800.000	-0.055	-0.184
-553.412	-130.343	-0.156	0.021
-552.398	-108.615	-0.286	0.061
-551.383	-85.583	-0.194	-0.060
-550.369	-60.415	-0.245	-0.103
-549.354	501.027	-0.102	0.235
-548.339	-200.000	0.027	0.134
-547.325	-105.726	0.293	0.066
-546.310	144.321	-0.185	0.245
-545.296	225.266	-0.178	0.286
-544.281	458.254	-0.132	0.292
-543.266	460.768	-0.150	-0.332
-542.252	396.005	0.084	0.173
-541.237	-55.522	0.219	0.098
-540.223	-23.992	0.209	-0.124
-539.208	-200.000	-0.074	0.369
-538.193	-39.910	0.223	0.116
-537.179	-68.828	-0.220	0.084
-536.164	-63.302	0.317	-0.130
-535.150	-200.000	0.067	-0.325
-534.135	412.180	-0.080	-0.168
-533.121	264.192	0.050	-0.086
-532.106	-76.923	-0.212	0.074
-531.091	-200.000	0.002	-0.335
-530.077	-134.166	0.273	0.033
-529.062	-71.967	-0.130	-0.048
-528.048	-200.000	0.016	0.338
-527.033	126.112	-0.136	-0.171
-526.018	82.192	0.144	-0.155
-525.004	185.431	-0.249	-0.367
-523.989	20.014	-0.092	-0.074
-522.975	-97.095	0.035	0.009
-521.960	-200.000	0.038	0.239
-520.945	800.000	0.079	0.227
-519.931	406.732	-0.045	0.095
-518.916	-111.495	0.177	-0.036
-517.902	800.000	-0.041	0.130
-516.887	800.000	0.036	-0.146
-515.872	2.106	-0.227	0.162
-514.858	-137.504	0.456	-0.051
-513.843	-67.188	-0.130	0.051
-512.829	174.093	0.185	0.264
-511.814	-200.000	0.014	0.107
-510.799	488.407	0.061	0.138
-509.785	-92.204	0.264	0.074
-508.770	-200.000	0.012	0.199
-507.756	-134.558	-0.227	0.027
-506.741	-200.000	-0.003	0.208
-505.726	-77.112	-0.205	0.071
-504.712	18.892	-0.348	0.276
-503.697	800.000	0.034	0.138
-502.683	-171.293	0.298	0.010
-501.668	-200.000	0.018	0.249
-500.653	369.487	0.125	0.251
-499.639	129.162	0.124	-0.156
-498.624	-200.000	0.031	-0.547
-497.610	800.000	0.052	-0.153
-496.595	375.135	-0.194	-0.392
-495.581	800.000	-0.067	-0.220
-494.566	-52.688	-0.054	-0.025
-493.551	208.674	-0.069	0.107
-492.537	-95.318	-0.282	0.075
-491.522	-86.944	0.239	-0.072
-490.508	-158.890	0.215	0.012
-489.493	723.942	0.048	-0.127
-488.478	287.582	-0.043	0.077
-487.464	-59.007	0.152	0.065
-486.449	330.359	-0.122	-0.233
-485.435	-141.337	-0.214	0.022
-484.420	-200.000	0.028	-0.218
-483.405	219.932	-0.158	-0.250
-482.391	800.000	0.036	0.154
-481.376	96.211	0.045	0.051
-480.362	-150.977	-0.104	-0.008
-479.347	-6.522	0.126	-0.085
-478.332	-200.000	-0.015	-0.276
-477.318	-133.768	-0.310	-0.038
-476.303	800.000	0.042	-0.139
-475.289	800.000	0.076	-0.273
-474.274	51.268	-0.228	-0.215
-473.259	-32.680	0.138	0.076
-472.245	-34.875	0.386	-0.209
-471.230	-200.000	0.026	-0.211
-470.216	93.464	0.158	0.177
-469.201	-113.701	0.279	-0.054
-468.186	751.449	-0.041	0.108
-467.172	-148.101	-0.167	-0.014
-466.157	172.917	-0.114	0.163
-465.143	-200.000	-0.035	-0.174
-464.128	639.268	-0.100	-0.251
-463.113	127.852	-0.117	-0.148
-462.099	198.940	-0.139	-0.210
-461.084	114.262	-0.150	0.181
-460.070	-17.308	-0.114	0.071
-459.055	-140.203	0.332	0.034
-458.040	-200.000	0.038	-0.324
-457.026	-54.172	-0.269	-0.121
-456.011	46.430	-0.114	-0.105
-454.997	-23.482	-0.284	-0.169
-453.982	119.406	-0.245	0.299
-452.968	-137.337	0.186	-0.021
-451.953	-200.000	0.040	0.272
-450.938	-161.242	0.580	-0.030
-449.924	25.583	-0.056	-0.046
-448.909	-99.316	0.203	0.051
-447.895	-200.000	-0.012	0.260
-446.880	800.000	0.031	-0.118
-445.865	-146.989	0.282	-0.024
-444.851	63.068	-0.094	-0.094
-443.836	35.360	-0.200	0.174
-442.822	-170.031	-0.017	0.001
-441.807	-75.174	-0.116	-0.041
-440.792	-69.667	-0.278	-0.105
-439.778	-4.441	-0.151	0.103
-438.763	-200.000	0.073	0.359
-437.749	86.067	0.232	-0.253
-436.734	2.488	-0.213	-0.152
-435.719	800.000	0.014	-0.054
-434.705	-200.000	0.032	-0.178
-433.690	-11.503	0.138	-0.090
-432.676	-200.000	0.018	-0.276
-431.661	-92.026	0.546	-0.153
-430.646	13.116	-0.187	0.143
-429.632	-28.904	0.204	-0.116
-428.617	-125.956	-0.232	0.035
-427.603	480.573	-0.161	-0.362
-426.588	-200.000	-0.008	0.119
-425.573	-88.531	-0.381	0.112
-424.559	405.612	-0.074	-0.154
-423.544	-98.105	-0.120	0.031
-422.530	-53.811	0.082	0.037
-421.515	298.001	-0.076	-0.138
-420.500	485.500	-0.134	-0.302
-419.486	-200.000	-0.025	0.251
-418.471	-200.000	0.042	-0.568
-417.457	-43.127	-0.199	-0.100
-416.442	-200.000	-0.019	0.121
-415.428	-81.422	0.312	-0.102
-414.413	-59.314	0.178	0.076
-413.398	78.889	-0.340	0.360
-412.384	-92.740	-0.278	-0.077
-411.369	-115.075	0.229	0.043
-410.355	-181.331	-0.183	0.004
-409.340	-26.327	-0.050	0.029
-408.325	420.912	0.206	0.436
-407.311	-200.000	0.011	-0.110
-406.296	-200.000	-0.001	-0.023
-405.282	-200.000	-0.007	-0.074
-404.267	-200.000	-0.004	-0.277
-403.252	638.567	0.105	-0.265
-402.238	22.310	0.094	0.076
-401.223	-200.000	0.033	0.158
-400.209	-200.000	-0.001	-0.487
-399.194	52.697	-0.148	-0.140
-398.179	202.390	-0.203	-0.310
-397.165	53.309	-0.042	-0.040
-396.150	-27.857	0.076	0.043
-395.136	-88.491	-0.144	0.042
-394.121	163.296	-0.090	0.125
-393.106	-52.939	-0.270	-0.123
-392.092	267.603	-0.026	0.045
-391.077	-6.456	0.162	-0.109
-390.063	800.000	0.081	0.272
-389.048	217.011	-0.111	-0.175
-388.033	-21.931	0.036	-0.022
-387.019	146.045	0.081	0.108
-386.004	-145.068	0.213	0.019
-384.990	117.613	0.126	-0.153
-383.975	29.365	0.335	-0.281
-382.960	-172.543	0.228	0.007
-381.946	-45.979	0.438	-0.213
-380.931	625.141	-0.092	0.230
-379.917	800.000	-0.025	-0.081
-378.902	318.847	-0.095	-0.178
-377.888	131.800	0.133	0.169
-376.873	188.084	-0.166	-0.245
-375.858	627.297	0.111	-0.278
-374.844	-200.000	0.004	0.030
-373.829	16.126	0.109	0.085
-372.815	396.332	-0.152	-0.314
-371.800	215.316	-0.136	-0.213
-370.785	-181.958	0.231	-0.004
-369.771	-170.611	0.100	0.003
-368.756	141.725	-0.246	-0.321
-367.742	-200.000	-0.012	-0.155
-366.727	40.757	0.145	-0.129
-365.712	-200.000	0.011	0.051
-364.698	72.678	0.063	0.065
-363.683	-96.991	-0.165	-0.043
-362.669	-72.978	0.070	0.026
-361.654	-35.291	-0.314	-0.169
-360.639	260.709	0.044	-0.076
-359.625	800.000	0.036	-0.153
-358.610	-88.749	0.220	0.065
-357.596	120.068	-0.067	0.081
-356.581	-146.346	-0.122	-0.011
-355.566	800.000	0.083	-0.236
-354.552	-119.477	0.209	0.036
-353.537	-114.943	0.414	0.078
-352.523	77.426	-0.151	0.158
-351.508	20.605	-0.112	-0.089
-350.493	-6.144	-0.118	0.079
-349.479	29.970	-0.110	0.093
-348.464	-180.571	0.228	-0.005
-347.450	-44.576	-0.218	0.107
-346.435	78.353	-0.079	-0.083
-345.420	186.743	-0.062	0.090
-344.406	-200.000	-0.024	0.316
-343.391	-58.720	0.166	0.071
-342.377	-200.000	-0.023	0.227
-341.362	-1.408	-0.226	-0.157
-340.348	-165.166	-0.031	-0.001
-339.333	-134.425	0.090	-0.011
-338.318	132.441	-0.027	0.034
-337.304	-200.000	-0.083	0.389
-336.289	-200.000	-0.065	-0.356
-335.275	-128.217	-0.362	-0.051
-334.260	-21.190	0.137	-0.083
-333.245	800.000	-0.120	-0.365
-332.231	34.269	0.180	-0.155
-331.216	800.000	0.026	-0.077
-330.202	61.978	-0.139	-0.137
-329.187	-81.464	0.321	-0.104
-328.172	342.637	0.213	0.410
-327.158	-200.000	0.010	0.100
-326.143	800.000	0.021	0.082
-325.129	248.488	-0.090	0.150
-324.114	-58.537	0.334	0.143
-323.099	-48.474	0.210	-0.100
-322.085	-98.295	-0.059	-0.015
-321.070	-10.675	-0.209	0.136
-320.056	255.020	0.075	0.127
-319.041	721.006	-0.170	-0.445
-318.026	-65.408	0.075	0.030
-317.012	439.338	0.044	0.094
-315.997	120.479	0.119	0.145
-314.983	44.707	-0.114	0.103
-313.968	-29.454	0.360	-0.203
-312.953	-131.958	0.238	0.031
-311.939	-196.970	0.073	-0.000
-310.924	-53.277	0.279	0.126
-309.910	-200.000	-0.021	0.123
-308.895	-16.852	-0.200	0.125
-307.880	58.962	0.108	0.105
-306.866	-200.000	-0.057	0.299
-305.851	92.386	-0.172	0.191
-304.837	374.981	0.125	0.250
-303.822	-200.000	0.012	0.091
-302.807	-20.400	0.202	-0.122
-301.793	131.822	0.056	0.071
-300.778	800.000	0.015	0.044
-299.764	-200.000	-0.002	0.319
-298.749	-12.530	-0.198	-0.127
-297.735	7.038	0.167	-0.122
-296.720	-29.642	0.310	0.174
-295.705	-200.000	-0.078	0.356
-294.691	413.598	0.110	0.229
-293.676	-89.169	-0.199	-0.058
-292.662	275.094	-0.219	0.381
-291.647	18.273	-0.319	0.251
-290.632	-135.965	0.216	-0.025
-289.618	-134.969	-0.219	0.026
-288.603	119.179	-0.250	0.304
-287.589	-75.636	-0.304	-0.106
-286.574	-79.864	0.143	-0.047
-285.559	-200.000	-0.003	0.393
-284.545	29.965	-0.044	0.037
-283.530	-38.916	0.089	0.046
-282.516	452.616	-0.107	0.232
-281.501	378.352	-0.235	0.473
-280.486	-27.599	-0.229	0.130
-279.472	501.165	-0.039	0.088
-278.457	173.079	0.133	-0.188
-277.443	7.170	0.020	0.015
-276.428	633.799	-0.142	-0.355
-275.413	-105.121	-0.246	0.055
-274.399	-107.936	-0.251	0.054
-273.384	204.163	-0.053	-0.081
-272.370	231.239	-0.128	0.206
-271.355	328.674	-0.065	0.122
-270.340	82.910	0.400	0.427
-269.326	-200.000	-0.045	-0.212
-268.311	-122.826	-0.217	-0.034
-267.297	-3.900	-0.292	0.199
-266.282	341.012	-0.040	0.077
-265.267	-105.096	0.218	-0.049
-264.253	-122.555	-0.397	-0.063
-263.238	-158.929	0.303	0.017
-262.224	464.238	0.091	-0.200
-261.209	800.000	-0.049	-0.206
-260.195	-53.995	-0.074	0.033
-259.180	-200.000	0.006	-0.077
-258.165	657.643	0.068	0.172
-257.151	31.474	0.475	-0.401
-256.136	-76.690	-0.183	0.063
-255.122	46.705	-0.186	-0.169
-254.107	-12.022	-0.334	0.215
-253.092	190.695	-0.051	0.075
-252.078	-148.176	-0.066	-0.005
-251.063	-61.475	-0.187	0.077
-250.049	-77.668	0.085	-0.029
-249.034	506.443	-0.080	0.181
-248.019	22.464	0.051	0.041
-247.005	-97.090	0.291	-0.075
-245.990	5.859	0.124	0.090
-244.976	463.427	-0.147	-0.322
-243.961	-27.639	0.091	-0.052
-242.946	-94.968	0.158	0.042
-241.932	196.237	-0.011	0.016
-240.917	-61.816	-0.106	-0.044
-239.903	-67.527	0.075	-0.029
-238.888	-200.000	0.000	-0.072
-237.873	-88.770	-0.240	0.070
-236.859	498.173	-0.173	0.392
-235.844	-54.217	0.183	0.082
-234.830	56.422	0.118	0.112
-233.815	-13.207	-0.141	-0.090
-232.800	284.587	0.181	0.320
-231.786	-65.928	-0.126	0.050
-230.771	787.941	-0.007	-0.020
-229.757	-13.379	0.114	0.073
-228.742	-147.668	-0.063	-0.005
-227.727	-90.195	0.065	0.019
-226.713	215.427	-0.060	-0.094
-225.698	-105.007	0.102	-0.023
-224.684	800.000	0.020	0.057
-223.669	124.877	0.088	0.109
-222.655	800.000	0.141	0.430
-221.640	-142.997	-0.050	0.005
-220.625	22.840	-0.147	0.118
-219.611	800.000	0.027	0.080
-218.596	120.953	-0.056	-0.068
-217.582	-200.000	0.007	-0.190
-216.567	9.750	0.063	0.047
-215.552	-78.580	0.076	-0.026
-214.538	-45.590	0.027	-0.013
-213.523	717.684	-0.127	-0.331
-212.509	-121.902	-0.303	-0.049
-211.494	-191.355	-0.402	0.004
-210.479	-200.000	0.026	0.326
-209.465	800.000	0.014	0.056
-208.450	56.594	0.117	0.112
-207.436	50.968	0.140	-0.130
-206.421	-74.695	-0.097	0.034
-205.406	-107.011	0.191	-0.041
-204.392	-141.138	-0.154	-0.015
-203.377	318.465	-0.130	-0.240
-202.363	-200.000	0.014	0.270
-201.348	-200.000	-0.006	0.408
-200.333	35.955	0.126	-0.109
-199.319	-109.319	0.232	0.048
-198.304	-54.974	0.113	-0.050
-197.290	-50.748	-0.192	0.089
-196.275	-68.925	-0.167	-0.063
-195.260	109.571	-0.074	0.087
-194.246	23.827	-0.254	0.205
-193.231	43.656	0.200	0.179
-192.217	-200.000	0.051	-0.283
-191.202	-132.342	-0.196	0.025
-190.187	-6.039	0.452	-0.303
-189.173	-42.335	0.083	0.042
-188.158	254.004	0.053	0.089
-187.144	-200.000	-0.010	0.258
-186.129	121.548	0.018	-0.022
-185.114	105.082	-0.214	0.247
-184.100	97.651	-0.110	-0.124
-183.085	166.759	0.058	-0.081
-182.071	420.283	-0.075	0.157
-181.056	-200.000	-0.001	0.040
-180.042	-17.983	0.162	0.099
-179.027	170.448	-0.089	0.124
-178.012	459.955	-0.047	-0.103
-176.998	-200.000	-0.003	-0.133
-175.983	-200.000	-0.033	0.419
-174.969	257.994	0.026	-0.045
-173.954	503.045	-0.097	-0.219
-172.939	43.545	0.161	0.144
-171.925	-200.000	0.027	-0.122
-170.910	-200.000	0.021	-0.347
-169.896	-21.662	-0.213	0.127
-168.881	-139.586	0.296	0.031
-167.866	-200.000	0.022	-0.332
-166.852	21.013	0.194	-0.154
-165.837	174.408	-0.283	-0.400
-164.823	228.728	0.079	-0.126
-163.808	-106.473	0.247	-0.054
-162.793	-28.459	-0.203	-0.114
-161.779	2.967	-0.156	-0.111
-160.764	77.530	0.223	0.232
-159.750	410.661	-0.106	0.219
-158.735	151.697	0.141	0.188
-157.720	12.580	0.288	0.217
-156.706	358.187	0.082	0.161
-155.691	716.775	0.070	-0.182
-154.677	-200.000	-0.057	-0.318
-153.662	-41.534	-0.374	-0.188
-152.647	46.608	0.090	0.082
-151.633	38.508	-0.065	-0.057
-150.618	213.603	0.095	0.147
-149.604	15.800	-0.195	-0.150
-148.589	168.737	-0.145	0.202
-147.574	-200.000	0.009	-0.106
-146.560	94.345	-0.202	0.224
-145.545	-71.138	-0.158	0.058
-144.531	-56.788	-0.162	-0.070
-143.516	53.202	0.181	0.170
-142.502	-200.000	-0.022	0.204
-141.487	800.000	-0.078	0.321
-140.472	-200.000	0.050	0.280
-139.458	800.000	0.043	-0.172
-138.443	-184.089	0.447	-0.007
-137.429	-65.408	-0.135	-0.053
-136.414	167.326	-0.051	-0.071
-135.399	-136.674	0.425	0.048
-134.385	-200.000	-0.035	0.191
-133.370	-31.992	0.116	0.063
-132.356	285.756	-0.050	0.089
-131.341	-67.333	0.027	-0.010
-130.326	39.789	-0.159	-0.139
-129.312	800.000	0.123	0.362
-128.297	-200.000	-0.017	0.242
-127.283	375.439	0.072	-0.143
-126.268	-39.404	-0.048	0.025
-125.253	-15.673	-0.216	0.134
-124.239	658.957	0.170	0.428
-123.224	100.591	0.249	0.282
-122.210	-131.249	-0.253	-0.033
-121.195	800.000	-0.032	-0.118
