DTS Sentinel unit serial number:	SN413079Multiplexer serial number:	ORYXHardware model number:	OX4-SRSoftware version number:	ORYX F/W v4.00 Oryx Data Collector v3.7.2.0data status	okinstallation	princeton_trtdifferential loss correction	single-endedforward channel	channel 1reverse channel	N/Adate	2019/09/14time	18:42:35forward acquisition time	60.00reverse acquisition time	0.00gamma	496.2192k internal	0.2305k external	0.2305temperature offset calibration	1.0034default loss term (dB/km)	0.3790temperature slope calibration	1.0000multiplexer offset coefficient	1.0000multiplexer slope coefficient	1.0000fibre end	0.00T internal ref (°C)	36.20T ext. ref 1 (°C)	4.93T ext. ref 2 (°C)	29.93length (m)	temperature (°C)	Stokes	anti-Stokes-747.200	800.000	0.030	-0.117
-746.185	-10.718	0.076	-0.051
-745.171	-200.000	0.039	0.396
-744.156	-200.000	0.052	0.370
-743.142	11.175	0.309	0.241
-742.127	114.093	-0.159	0.197
-741.112	-145.499	-0.192	-0.018
-740.098	-200.000	-0.009	-0.076
-739.083	-200.000	-0.001	-0.069
-738.069	800.000	-0.137	0.562
-737.054	-200.000	0.059	0.457
-736.039	499.931	0.101	-0.237
-735.025	-55.018	0.235	0.108
-734.010	-136.037	-0.190	0.023
-732.996	-173.611	-0.086	0.003
-731.981	-200.000	0.005	0.092
-730.966	-16.281	-0.105	-0.068
-729.952	56.874	-0.148	-0.146
-728.937	51.308	0.086	-0.084
-727.923	-29.919	-0.026	-0.015
-726.908	-79.686	-0.340	-0.117
-725.894	-200.000	0.011	-0.054
-724.879	71.331	-0.080	-0.084
-723.864	-200.000	0.013	-0.073
-722.850	-110.261	-0.403	-0.085
-721.835	-54.604	0.166	-0.077
-720.821	56.759	-0.035	-0.035
-719.806	124.672	0.095	-0.122
-718.791	72.520	0.060	0.063
-717.777	-200.000	-0.000	-0.116
-716.762	212.377	-0.161	0.258
-715.748	633.439	0.125	0.321
-714.733	-92.802	-0.549	-0.156
-713.718	275.472	-0.116	-0.209
-712.704	-112.045	-0.228	-0.047
-711.689	-200.000	0.044	-0.293
-710.675	800.000	0.026	-0.092
-709.660	-82.055	0.191	0.064
-708.645	-32.187	-0.195	-0.111
-707.631	-200.000	-0.041	-0.260
-706.616	-200.000	0.018	-0.177
-705.602	-200.000	0.010	-0.184
-704.587	53.973	0.244	-0.239
-703.572	-28.073	-0.320	-0.188
-702.558	-200.000	0.055	-0.264
-701.543	34.699	-0.288	-0.256
-700.529	800.000	0.087	-0.244
-699.514	-200.000	0.038	-0.240
-698.499	248.724	-0.138	-0.237
-697.485	800.000	0.153	-0.510
-696.470	-99.180	-0.241	0.062
-695.456	162.583	-0.133	0.190
-694.441	116.463	-0.067	-0.083
-693.426	8.939	-0.136	0.104
-692.412	135.944	0.070	0.093
-691.397	-48.099	0.275	-0.135
-690.383	-25.738	-0.311	-0.187
-689.368	-200.000	-0.031	-0.237
-688.354	62.638	0.078	-0.079
-687.339	-76.718	0.168	0.060
-686.324	37.970	-0.312	0.282
-685.310	-112.237	0.306	-0.062
-684.295	-160.567	0.239	-0.013
-683.281	-200.000	-0.012	-0.338
-682.266	-111.573	-0.189	-0.039
-681.251	-153.701	-0.097	0.007
-680.237	36.946	0.106	0.095
-679.222	-200.000	-0.001	-0.017
-678.208	800.000	-0.060	-0.220
-677.193	-35.483	-0.122	0.067
-676.178	800.000	-0.051	-0.170
-675.164	-96.984	-0.316	-0.084
-674.149	-39.400	-0.298	0.158
-673.135	224.354	0.093	-0.153
-672.120	-28.448	0.106	-0.062
-671.105	8.299	0.197	0.150
-670.091	800.000	0.034	0.097
-669.076	-48.385	0.230	-0.113
-668.062	-127.339	0.064	-0.009
-667.047	197.602	-0.217	-0.336
-666.032	-183.791	-0.350	0.006
-665.018	319.344	0.134	-0.258
-664.003	219.404	-0.169	-0.274
-662.989	32.265	0.063	0.055
-661.974	171.717	-0.213	0.310
-660.959	9.532	0.270	-0.208
-659.945	337.477	-0.091	-0.180
-658.930	-123.291	0.258	-0.042
-657.916	7.900	0.201	-0.153
-656.901	-92.023	0.299	0.086
-655.886	-200.000	0.029	-0.248
-654.872	-63.784	0.230	-0.096
-653.857	200.011	0.093	-0.145
-652.843	147.263	-0.075	-0.102
-651.828	-84.653	0.183	-0.059
-650.814	-153.304	-0.188	0.013
-649.799	184.486	-0.048	-0.073
-648.784	-180.670	0.102	-0.002
-647.770	-117.749	-0.193	0.035
-646.755	390.399	0.150	-0.316
-645.741	800.000	0.028	-0.096
-644.726	-184.720	0.171	0.003
-643.711	-16.160	0.072	-0.046
-642.697	-155.119	-0.256	-0.017
-641.682	-5.513	-0.157	-0.109
-640.668	-200.000	-0.023	-0.233
-639.653	-200.000	0.048	0.286
-638.638	-200.000	0.018	0.184
-637.624	-46.836	0.115	-0.057
-636.609	-64.259	-0.238	0.098
-635.595	800.000	-0.077	-0.232
-634.580	-34.695	0.080	0.045
-633.565	800.000	-0.078	0.252
-632.551	-48.537	0.032	-0.015
-631.536	233.832	-0.038	0.063
-630.522	263.535	0.122	-0.214
-629.507	800.000	0.111	-0.385
-628.492	-75.858	-0.366	-0.131
-627.478	-92.712	-0.252	-0.072
-626.463	-74.418	-0.128	-0.047
-625.449	-200.000	0.028	-0.219
-624.434	800.000	0.065	0.226
-623.419	42.743	-0.215	0.199
-622.405	-7.537	0.275	0.188
-621.390	-64.756	-0.348	0.143
-620.376	-61.071	-0.107	-0.046
-619.361	206.658	0.207	-0.326
-618.346	30.836	-0.138	0.120
-617.332	-43.665	-0.091	-0.047
-616.317	-12.013	-0.058	-0.038
-615.303	65.484	0.251	0.257
-614.288	23.708	-0.401	0.334
-613.273	800.000	0.031	0.092
-612.259	255.420	-0.235	0.407
-611.244	-116.756	0.416	-0.077
-610.230	91.281	0.219	-0.248
-609.215	-55.673	-0.336	-0.152
-608.201	217.578	0.174	0.281
-607.186	-81.683	-0.260	0.087
-606.171	108.073	-0.048	-0.058
-605.157	18.139	-0.139	-0.112
-604.142	385.645	-0.080	0.166
-603.128	-26.571	-0.278	0.165
-602.113	-54.718	0.191	-0.087
-601.098	-64.446	-0.321	0.132
-600.084	-200.000	0.003	0.068
-599.069	-160.049	0.233	-0.013
-598.055	85.269	-0.192	-0.213
-597.040	52.542	-0.169	-0.164
-596.025	-77.898	-0.151	-0.053
-595.011	275.107	0.090	0.161
-593.996	34.084	-0.121	0.107
-592.982	-38.075	0.182	0.098
-591.967	250.069	-0.151	-0.260
-590.952	-200.000	-0.054	-0.381
-589.938	79.693	-0.109	0.119
-588.923	-157.535	-0.330	0.020
-587.909	-92.532	0.080	-0.023
-586.894	-44.577	-0.193	0.098
-585.879	-200.000	-0.010	-0.185
-584.865	-200.000	0.063	-0.540
-583.850	283.034	-0.086	-0.157
-582.836	-200.000	-0.034	0.219
-581.821	44.372	0.072	-0.067
-580.806	-200.000	-0.017	0.567
-579.792	319.878	-0.063	-0.120
-578.777	-200.000	-0.037	-0.211
-577.763	510.030	-0.102	0.239
-576.748	-103.481	0.152	0.036
-575.733	140.082	-0.102	-0.136
-574.719	16.785	-0.103	0.083
-573.704	-36.623	-0.161	0.087
-572.690	800.000	-0.043	0.135
-571.675	-167.511	-0.148	-0.006
-570.661	-72.540	-0.124	0.046
-569.646	132.759	0.078	-0.102
-568.631	800.000	-0.023	0.067
-567.617	-1.405	-0.068	-0.049
-566.602	39.406	0.083	-0.075
-565.588	-157.274	0.374	-0.023
-564.573	-20.395	-0.096	-0.060
-563.558	-178.593	-0.135	-0.003
-562.544	-85.365	-0.152	0.048
-561.529	392.443	-0.056	0.119
-560.515	800.000	-0.075	-0.329
-559.500	800.000	0.088	0.303
-558.485	-105.436	-0.161	0.037
-557.471	69.265	0.184	0.192
-556.456	-89.969	-0.354	-0.104
-555.442	-200.000	0.014	-0.205
-554.427	166.540	-0.148	-0.212
-553.412	800.000	0.026	0.095
-552.398	-200.000	0.014	0.120
-551.383	-200.000	0.022	-0.319
-550.369	-19.601	0.222	-0.139
-549.354	-200.000	-0.064	-0.533
-548.339	800.000	-0.061	0.254
-547.325	-69.513	-0.276	-0.107
-546.310	-200.000	-0.016	0.128
-545.296	135.534	-0.143	0.187
-544.281	711.797	0.067	-0.180
-543.266	-115.843	0.076	-0.014
-542.252	-200.000	0.057	0.546
-541.237	83.162	0.114	0.125
-540.223	800.000	-0.042	0.173
-539.208	-132.988	-0.256	-0.033
-538.193	156.913	0.094	-0.131
-537.179	584.513	-0.184	-0.456
-536.164	800.000	-0.104	0.388
-535.150	-200.000	-0.242	0.001
-534.135	137.079	-0.107	-0.141
-533.121	-97.696	0.233	-0.061
-532.106	34.834	0.032	-0.028
-531.091	-1.637	0.191	0.136
-530.077	-3.960	0.268	-0.187
-529.062	-200.000	-0.008	0.086
-528.048	7.137	0.271	0.204
-527.033	1.131	-0.105	0.076
-526.018	313.442	-0.031	-0.058
-525.004	800.000	0.090	-0.271
-523.989	-99.740	0.185	-0.047
-522.975	-88.386	0.324	0.098
-521.960	61.547	-0.064	-0.064
-520.945	38.334	0.199	-0.179
-519.931	254.823	0.260	-0.449
-518.916	-168.742	-0.225	0.009
-517.902	-95.183	0.252	0.069
-516.887	84.497	-0.092	0.102
-515.872	21.553	0.071	-0.058
-514.858	-130.726	-0.253	-0.034
-513.843	146.444	-0.175	0.237
-512.829	661.090	-0.057	-0.148
-511.814	62.577	0.229	0.230
-510.799	-141.389	0.357	0.036
-509.785	-90.185	-0.281	-0.082
-508.770	206.614	0.125	-0.196
-507.756	139.333	-0.092	0.122
-506.741	4.192	-0.405	0.299
-505.726	108.156	-0.188	0.227
-504.712	-102.056	-0.289	0.070
-503.697	-200.000	-0.009	-0.071
-502.683	0.868	-0.261	0.189
-501.668	337.217	0.100	-0.195
-500.653	-200.000	0.035	0.254
-499.639	-96.727	-0.163	-0.043
-498.624	-96.621	0.107	-0.028
-497.610	122.201	-0.128	0.161
-496.595	-51.937	0.120	-0.056
-495.581	144.459	0.140	-0.188
-494.566	-110.887	-0.072	-0.015
-493.551	36.768	-0.185	-0.165
-492.537	-24.036	0.068	-0.041
-491.522	95.916	0.165	-0.190
-490.508	285.614	-0.283	0.515
-489.493	-75.566	-0.190	0.068
-488.478	56.421	0.190	0.187
-487.464	-89.277	-0.380	0.113
-486.449	-98.990	-0.145	-0.037
-485.435	-107.356	0.216	-0.048
-484.420	800.000	0.070	-0.227
-483.405	84.299	-0.066	0.072
-482.391	-14.245	-0.289	0.188
-481.376	145.559	-0.086	0.116
-480.362	142.290	0.207	0.277
-479.347	800.000	-0.027	0.080
-478.332	293.846	-0.200	-0.368
-477.318	-2.761	0.149	0.105
-476.303	-104.857	0.169	0.039
-475.289	800.000	0.093	0.311
-474.274	-200.000	-0.027	0.346
-473.259	-200.000	-0.025	-0.268
-472.245	309.615	0.091	0.172
-471.230	-17.100	-0.285	0.181
-470.216	-200.000	-0.022	0.243
-469.201	-31.201	0.229	0.130
-468.186	-200.000	-0.026	-0.270
-467.172	118.176	-0.159	0.198
-466.157	166.009	0.088	0.126
-465.143	-140.646	-0.163	-0.017
-464.128	14.235	0.086	0.068
-463.113	-62.464	-0.251	-0.105
-462.099	-114.171	-0.159	0.031
-461.084	-116.845	0.132	-0.024
-460.070	-48.353	-0.168	0.081
-459.055	800.000	-0.083	-0.270
-458.040	-27.087	-0.255	0.150
-457.026	-138.393	0.064	0.007
-456.011	-17.408	-0.146	0.093
-454.997	-200.000	0.015	-0.322
-453.982	61.897	0.105	0.105
-452.968	800.000	0.073	0.254
-451.953	255.141	-0.118	-0.204
-450.938	276.273	0.067	0.119
-449.924	420.377	0.059	0.128
-448.909	321.166	0.048	-0.092
-447.895	-200.000	-0.129	-0.000
-446.880	10.632	-0.148	-0.114
-445.865	800.000	0.086	0.269
-444.851	-114.432	-0.287	-0.056
-443.836	-116.424	-0.252	-0.047
-442.822	56.614	0.173	0.169
-441.807	800.000	-0.031	-0.117
-440.792	800.000	0.028	-0.081
-439.778	736.613	0.015	-0.041
-438.763	-200.000	-0.020	-0.287
-437.749	800.000	-0.065	0.216
-436.734	-135.299	0.230	-0.028
-435.719	800.000	-0.048	-0.135
-434.705	-76.179	0.223	0.079
-433.690	-18.808	0.281	-0.176
-432.676	270.654	0.075	-0.132
-431.661	-137.358	0.062	0.007
-430.646	800.000	-0.053	-0.156
-429.632	800.000	-0.019	-0.078
-428.617	0.641	0.238	0.171
-427.603	10.265	-0.079	-0.060
-426.588	-126.654	-0.115	0.017
-425.573	-200.000	-0.019	-0.218
-424.559	-87.520	0.175	-0.053
-423.544	-25.831	-0.147	-0.087
-422.530	436.071	0.047	-0.103
-421.515	197.540	0.176	0.270
-420.500	671.433	0.063	-0.164
-419.486	-200.000	-0.113	-0.571
-418.471	-7.689	0.128	0.087
-417.457	41.330	-0.020	0.018
-416.442	-200.000	0.003	-0.125
-415.428	-200.000	0.011	0.220
-414.413	-52.413	-0.100	0.047
-413.398	155.987	0.098	-0.135
-412.384	-103.208	-0.098	-0.023
-411.369	434.451	-0.099	-0.216
-410.355	-200.000	0.033	-0.266
-409.340	352.992	-0.114	0.228
-408.325	-147.038	-0.055	0.005
-407.311	158.541	-0.150	0.210
-406.296	180.484	-0.137	0.202
-405.282	-153.258	0.337	-0.024
-404.267	-57.525	-0.257	0.113
-403.252	-200.000	0.021	-0.231
-402.238	-60.366	-0.159	0.068
-401.223	-15.830	0.295	0.189
-400.209	-171.141	0.440	0.015
-399.194	207.519	-0.117	0.184
-398.179	800.000	0.059	-0.177
-397.165	-82.585	-0.199	-0.065
-396.150	248.772	-0.185	0.315
-395.136	733.140	-0.079	0.211
-394.121	-200.000	-0.025	-0.125
-393.106	-195.231	0.162	-0.001
-392.092	-200.000	0.023	-0.570
-391.077	59.815	0.258	-0.256
-390.063	-126.756	0.451	-0.067
-389.048	-99.749	0.360	0.091
-388.033	800.000	-0.075	-0.249
-387.019	75.541	-0.220	0.233
-386.004	-74.447	0.197	-0.071
-384.990	-164.220	-0.330	0.015
-383.975	800.000	-0.038	0.141
-382.960	-132.618	-0.258	0.033
-381.946	-77.710	-0.238	-0.083
-380.931	313.687	0.136	0.257
-379.917	12.217	0.233	0.180
-378.902	691.837	-0.091	0.239
-377.888	800.000	-0.045	0.194
-376.873	1.694	-0.180	-0.130
-375.858	800.000	-0.035	-0.103
-374.844	-200.000	-0.001	0.153
-373.829	800.000	-0.050	0.145
-372.815	69.218	-0.190	0.196
-371.800	-1.769	-0.258	0.182
-370.785	12.929	-0.119	0.093
-369.771	-127.158	0.177	-0.026
-368.756	-49.560	-0.108	0.052
-367.742	-189.066	-0.066	-0.001
-366.727	800.000	-0.051	-0.152
-365.712	148.749	-0.065	-0.089
-364.698	-200.000	0.045	0.277
-363.683	-200.000	0.010	-0.156
-362.669	-108.964	0.177	0.038
-361.654	371.543	0.034	0.070
-360.639	-12.996	0.137	-0.090
-359.625	-200.000	-0.065	0.328
-358.610	714.532	0.034	-0.092
-357.596	152.323	0.038	0.051
-356.581	216.019	-0.161	0.256
-355.566	-28.459	-0.117	-0.068
-354.552	-153.969	-0.111	-0.008
-353.537	-200.000	0.025	-0.154
-352.523	-86.309	0.325	-0.100
-351.508	-125.139	-0.362	0.056
-350.493	-15.679	0.191	-0.122
-349.479	-22.053	-0.178	-0.108
-348.464	171.285	0.149	0.215
-347.450	68.472	-0.032	0.033
-346.435	-5.426	0.103	0.071
-345.420	-200.000	-0.028	-0.147
-344.406	-63.781	-0.215	0.088
-343.391	578.406	0.126	0.309
-342.377	81.715	-0.356	0.386
-341.362	147.514	0.097	0.131
-340.348	320.773	-0.061	0.116
-339.333	800.000	0.097	0.308
-338.318	-75.154	0.182	-0.065
-337.304	-148.787	-0.023	0.002
-336.289	-68.115	-0.210	-0.082
-335.275	-57.586	0.141	-0.062
-334.260	196.676	0.053	-0.082
-333.245	-15.912	-0.297	-0.190
-332.231	11.874	0.183	-0.141
-331.216	234.493	-0.170	-0.281
-330.202	-95.713	0.429	-0.115
-329.187	-113.727	-0.213	0.042
-328.172	20.694	0.126	0.102
-327.158	293.041	0.094	-0.172
-326.143	-200.000	0.078	0.447
-325.129	-200.000	0.050	0.237
-324.114	704.626	-0.116	0.307
-323.099	-101.676	-0.126	0.031
-322.085	9.022	0.035	0.027
-321.070	431.660	0.120	0.260
-320.056	-95.556	0.156	0.042
-319.041	226.101	0.021	0.035
-318.026	-59.423	-0.175	-0.075
-317.012	-187.618	-0.276	0.004
-315.997	-73.603	0.229	0.083
-314.983	573.182	-0.083	-0.202
-313.968	-21.609	0.337	-0.206
-312.953	-9.945	-0.163	0.108
-311.939	250.886	0.151	0.257
-310.924	-94.642	-0.168	0.046
-309.910	-200.000	0.035	-0.275
-308.895	-200.000	0.016	0.157
-307.880	800.000	0.022	-0.070
-306.866	66.924	0.078	-0.080
-305.851	142.646	0.250	0.332
-304.837	-200.000	0.023	0.126
-303.822	79.808	-0.138	0.149
-302.807	-158.867	0.270	0.015
-301.793	-63.770	-0.176	-0.072
-300.778	163.542	-0.069	0.098
-299.764	-128.229	-0.161	-0.023
-298.749	-70.530	0.131	0.050
-297.735	-84.857	0.141	0.044
-296.720	-33.490	-0.176	-0.097
-295.705	-129.767	-0.294	-0.040
-294.691	17.955	0.070	-0.056
-293.676	-36.464	-0.281	-0.151
-292.662	-200.000	0.012	-0.199
-291.647	-200.000	-0.281	-0.000
-290.632	-183.001	0.205	0.004
-289.618	529.793	0.052	-0.124
-288.603	-200.000	0.015	-0.067
-287.589	120.804	-0.092	-0.114
-286.574	-200.000	-0.000	-0.051
-285.559	-200.000	0.050	-0.253
-284.545	800.000	0.088	-0.245
-283.530	800.000	-0.032	-0.104
-282.516	800.000	-0.024	-0.098
-281.501	-60.627	-0.328	-0.139
-280.486	120.329	0.156	-0.194
-279.472	-70.291	0.315	-0.119
-278.457	342.378	0.085	-0.165
-277.443	371.063	0.080	-0.162
-276.428	133.105	0.202	0.261
-275.413	27.819	-0.085	-0.071
-274.399	800.000	-0.085	0.256
-273.384	-157.102	-0.248	0.015
-272.370	179.476	0.143	0.209
-271.355	-51.632	-0.152	-0.071
-270.340	98.165	-0.041	0.048
-269.326	291.487	0.172	-0.312
-268.311	221.509	-0.129	-0.207
-267.297	22.858	-0.149	0.122
-266.282	515.619	-0.047	0.109
-265.267	712.480	0.029	0.077
-264.253	133.015	0.203	-0.262
-263.238	42.988	-0.195	-0.177
-262.224	-64.606	0.240	0.097
-261.209	800.000	0.014	-0.055
-260.195	800.000	0.075	-0.286
-259.180	-119.830	0.203	-0.035
-258.165	-200.000	-0.031	0.170
-257.151	800.000	-0.076	0.280
-256.136	3.284	-0.390	0.284
-255.122	-119.002	0.282	-0.049
-254.107	-200.000	-0.041	-0.199
-253.092	11.650	0.144	0.110
-252.078	4.852	-0.298	-0.219
-251.063	800.000	-0.031	-0.098
-250.049	-67.398	-0.146	0.057
-249.034	-200.000	-0.055	0.278
-248.019	-200.000	-0.022	0.100
-247.005	-122.829	-0.290	0.047
-245.990	-22.528	0.166	-0.100
-244.976	-35.641	0.407	0.220
-243.961	-104.648	0.158	0.036
-242.946	-51.585	-0.236	0.110
-241.932	800.000	-0.032	0.089
-240.917	214.334	-0.201	0.318
-239.903	-110.729	0.402	-0.083
-238.888	-129.769	-0.170	-0.023
-237.873	-153.506	-0.295	-0.020
-236.859	-200.000	0.086	-0.417
-235.844	-97.296	0.177	0.046
-234.830	435.339	0.076	-0.164
-233.815	119.498	0.294	0.363
-232.800	-200.000	0.012	-0.146
-231.786	790.251	-0.116	-0.319
-230.771	-112.145	-0.218	0.044
-229.757	-116.131	0.073	0.014
-228.742	-111.692	0.381	-0.077
-227.727	-83.686	0.191	-0.061
-226.713	-200.000	-0.010	-0.460
-225.698	-130.872	0.252	0.034
-224.684	272.922	0.138	-0.243
-223.669	65.217	-0.053	0.053
-222.655	-9.984	0.178	-0.118
-221.640	-69.213	-0.209	0.080
-220.625	-50.912	0.390	0.183
-219.611	270.266	0.085	-0.149
-218.596	241.216	0.103	-0.171
-217.582	25.553	0.456	0.379
-216.567	690.710	0.014	0.036
-215.552	186.452	0.063	0.094
-214.538	740.978	-0.067	-0.179
-213.523	-111.668	0.102	-0.021
-212.509	800.000	-0.089	0.301
-211.494	271.617	0.153	-0.269
-210.479	-125.108	0.235	-0.036
-209.465	140.693	-0.154	-0.203
-208.450	-10.056	0.160	-0.106
-207.436	-56.050	0.235	-0.104
-206.421	-200.000	-0.025	0.170
-205.406	-200.000	-0.022	-0.426
-204.392	592.239	-0.083	0.203
-203.377	275.524	0.135	0.238
-202.363	-151.522	0.144	0.011
-201.348	128.491	-0.249	-0.316
-200.333	-41.172	0.140	-0.072
-199.319	366.776	-0.160	0.321
-198.304	-21.333	0.155	0.094
-197.290	-200.000	-0.029	0.140
-196.275	135.902	0.226	0.294
-195.260	-200.000	0.029	0.278
-194.246	-112.884	0.154	-0.030
-193.231	338.196	0.130	0.252
-192.217	-168.656	0.211	0.008
-191.202	-200.000	-0.055	-0.381
-190.187	-200.000	-0.028	0.135
-189.173	65.477	0.209	0.211
-188.158	441.865	0.088	-0.192
-187.144	-78.600	0.398	-0.135
-186.129	0.892	0.375	-0.267
-185.114	800.000	0.033	0.121
-184.100	-200.000	0.002	-0.008
-183.085	-30.225	0.116	-0.065
-182.071	481.941	-0.178	-0.403
-181.056	-128.209	0.187	-0.027
-180.042	-70.230	-0.334	0.126
-179.027	27.205	-0.356	-0.298
-178.012	-127.414	0.474	-0.069
-176.998	187.708	0.132	0.196
-175.983	-47.674	0.102	-0.049
-174.969	-38.246	-0.479	0.253
-173.954	242.908	-0.101	0.169
-172.939	-200.000	0.007	-0.134
-171.925	-200.000	0.044	-0.409
-170.910	82.032	0.195	-0.210
-169.896	-3.694	0.051	0.035
-168.881	-91.182	0.192	-0.055
-167.866	-200.000	0.053	-0.292
-166.852	-97.977	0.136	-0.035
-165.837	246.379	0.125	-0.210
-164.823	742.472	0.101	0.270
-163.808	-129.706	0.285	-0.039
-162.793	800.000	0.100	0.298
-161.779	800.000	0.053	0.201
-160.764	-200.000	0.013	0.163
-159.750	81.944	0.142	-0.153
-158.735	-33.000	0.264	0.146
-157.720	142.267	-0.065	0.085
-156.706	-38.566	0.087	0.046
-155.691	-136.495	0.271	0.031
-154.677	-45.964	0.154	-0.076
-153.662	-200.000	-0.031	-0.436
-152.647	-80.807	-0.074	-0.025
-151.633	800.000	-0.089	-0.267
-150.618	-192.188	-0.338	0.003
-149.604	-116.567	0.333	-0.061
-148.589	-61.198	0.402	-0.169
-147.574	3.424	0.104	-0.075
-146.560	377.559	-0.046	-0.093
-145.545	79.567	0.375	-0.401
-144.531	-92.326	0.095	-0.027
-143.516	-103.913	0.452	-0.105
-142.502	702.591	-0.118	0.310
-141.487	356.062	-0.223	0.441
-140.472	-105.459	0.229	0.052
-139.458	-200.000	0.005	-0.232
-138.443	-110.093	0.251	0.052
-137.429	583.315	-0.039	-0.095
-136.414	473.673	-0.024	-0.054
-135.399	-200.000	-0.015	0.066
-134.385	-143.652	-0.298	0.028
-133.370	-88.139	0.157	0.047
-132.356	280.737	-0.051	0.090
-131.341	210.494	0.124	-0.193
-130.326	24.329	-0.141	-0.116
-129.312	679.996	0.099	-0.255
-128.297	-133.360	0.175	0.022
-127.283	44.565	-0.055	0.051
-126.268	-40.236	0.096	0.049
-125.253	-129.886	-0.272	0.037
-124.239	114.708	0.075	-0.091
-123.224	800.000	-0.115	0.470
-122.210	9.127	0.048	-0.036
