DTS Sentinel unit serial number:	SN413079Multiplexer serial number:	ORYXHardware model number:	OX4-SRSoftware version number:	ORYX F/W v4.00 Oryx Data Collector v3.7.2.0data status	okinstallation	princeton_trtdifferential loss correction	single-endedforward channel	channel 1reverse channel	N/Adate	2019/09/13time	19:22:35forward acquisition time	60.00reverse acquisition time	0.00gamma	496.2192k internal	0.2326k external	0.2326temperature offset calibration	1.0113default loss term (dB/km)	0.3790temperature slope calibration	1.0000multiplexer offset coefficient	1.0000multiplexer slope coefficient	1.0000fibre end	0.00T internal ref (°C)	31.02T ext. ref 1 (°C)	3.76T ext. ref 2 (°C)	24.48length (m)	temperature (°C)	Stokes	anti-Stokes-747.200	-7.819	0.400	0.273
-746.185	211.654	0.125	0.198
-745.171	97.922	-0.153	0.177
-744.156	54.774	-0.236	0.230
-743.142	416.596	0.100	0.215
-742.127	775.819	0.085	-0.233
-741.112	780.592	0.085	-0.235
-740.098	437.285	-0.116	0.254
-739.083	14.048	0.235	-0.185
-738.069	102.180	0.123	0.145
-737.054	339.906	-0.194	-0.382
-736.039	67.007	-0.160	0.164
-735.025	800.000	0.029	0.110
-734.010	-101.057	-0.199	-0.049
-732.996	-200.000	-0.026	-0.491
-731.981	-200.000	0.004	-0.086
-730.966	133.072	-0.098	0.128
-729.952	262.653	0.090	0.157
-728.937	691.237	-0.088	-0.232
-727.923	-44.394	0.387	-0.195
-726.908	114.996	-0.164	-0.202
-725.894	-150.626	-0.108	-0.008
-724.879	-194.370	0.172	0.001
-723.864	17.925	-0.049	0.039
-722.850	-200.000	-0.011	-0.453
-721.835	-111.598	0.240	-0.049
-720.821	201.277	0.114	-0.177
-719.806	133.865	-0.352	-0.459
-718.791	450.134	0.117	0.261
-717.777	170.169	-0.050	-0.072
-716.762	681.018	-0.105	0.276
-715.748	-9.571	-0.267	-0.179
-714.733	-130.620	-0.211	0.029
-713.718	-131.590	-0.068	-0.009
-712.704	147.136	-0.198	-0.268
-711.689	23.127	-0.101	-0.083
-710.675	289.301	-0.093	-0.170
-709.660	182.341	0.190	0.281
-708.645	138.029	-0.054	-0.072
-707.631	-113.664	0.097	-0.019
-706.616	-150.898	-0.239	-0.018
-705.602	56.351	-0.017	-0.017
-704.587	162.546	-0.066	-0.094
-703.572	-68.425	0.315	-0.123
-702.558	50.281	-0.172	-0.164
-701.543	-200.000	-0.009	-0.199
-700.529	-9.342	0.361	0.242
-699.514	800.000	0.063	0.263
-698.499	393.861	-0.089	0.188
-697.485	3.930	-0.160	0.118
-696.470	-86.939	0.074	-0.023
-695.456	-20.809	0.032	-0.020
-694.441	482.181	-0.066	-0.152
-693.426	-90.462	-0.141	0.041
-692.412	7.559	0.093	-0.070
-691.397	-200.000	-0.041	-0.197
-690.383	254.327	0.060	-0.104
-689.368	-91.206	-0.349	-0.101
-688.354	800.000	-0.088	-0.309
-687.339	169.395	0.041	-0.058
-686.324	193.750	-0.312	-0.476
-685.310	248.523	-0.064	-0.110
-684.295	-5.995	0.216	-0.148
-683.281	20.921	0.174	-0.142
-682.266	300.455	-0.030	-0.056
-681.251	-36.418	0.217	-0.117
-680.237	-87.506	0.236	-0.072
-679.222	-200.000	0.011	-0.049
-678.208	-2.083	-0.154	-0.109
-677.193	-200.000	-0.051	-0.333
-676.178	-200.000	0.000	0.123
-675.164	-129.479	0.160	-0.022
-674.149	28.642	0.064	-0.055
-673.135	-200.000	-0.033	-0.226
-672.120	-103.006	0.241	0.057
-671.105	-88.423	0.044	0.013
-670.091	-76.178	-0.180	0.064
-669.076	-57.470	-0.372	-0.164
-668.062	-124.696	-0.280	0.044
-667.047	-148.736	0.167	-0.014
-666.032	4.894	-0.362	0.268
-665.018	-66.284	0.094	0.038
-664.003	503.362	0.068	-0.159
-662.989	213.040	-0.176	0.280
-661.974	-134.291	-0.228	-0.028
-660.959	-80.042	0.271	-0.091
-659.945	-194.654	0.386	-0.003
-658.930	-155.380	-0.203	-0.013
-657.916	322.980	-0.201	-0.385
-656.901	37.520	-0.125	-0.112
-655.886	84.417	-0.109	0.120
-654.872	-200.000	0.003	-0.273
-653.857	24.521	-0.230	-0.191
-652.843	-115.835	0.373	0.070
-651.828	655.359	-0.153	-0.394
-650.814	-30.843	0.181	0.103
-649.799	183.488	0.243	-0.361
-648.784	-200.000	0.012	0.067
-647.770	-82.403	-0.133	-0.043
-646.755	-88.258	0.102	-0.031
-645.741	-18.048	-0.166	-0.105
-644.726	-80.328	-0.235	-0.079
-643.711	-11.395	-0.131	-0.086
-642.697	-75.294	-0.132	0.047
-641.682	-87.871	-0.101	-0.031
-640.668	294.328	0.146	0.268
-639.653	-77.939	-0.120	-0.041
-638.638	-200.000	-0.020	-0.090
-637.624	6.113	-0.276	0.206
-636.609	-161.127	0.201	-0.011
-635.595	-63.500	-0.133	-0.055
-634.580	42.124	0.350	0.319
-633.565	800.000	-0.058	-0.215
-632.551	-152.322	-0.156	0.011
-631.536	78.846	-0.067	-0.072
-630.522	472.931	0.051	-0.116
-629.507	-200.000	0.180	0.000
-628.492	9.147	-0.291	-0.221
-627.478	-68.226	0.034	-0.013
-626.463	260.973	-0.181	-0.315
-625.449	105.711	-0.042	-0.050
-624.434	63.686	-0.118	-0.119
-623.419	183.017	-0.200	-0.297
-622.405	91.883	0.102	0.116
-621.390	-200.000	0.021	-0.105
-620.376	253.728	-0.024	0.041
-619.361	-106.987	0.173	0.038
-618.346	23.766	0.126	0.105
-617.332	2.025	0.162	0.118
-616.317	-134.207	-0.055	-0.007
-615.303	800.000	-0.066	-0.188
-614.288	128.631	0.047	0.059
-613.273	28.164	-0.283	0.240
-612.259	-69.468	-0.132	0.051
-611.244	-200.000	0.016	0.283
-610.230	-200.000	0.028	-0.234
-609.215	-200.000	-0.007	0.148
-608.201	-200.000	-0.014	0.140
-607.186	-200.000	0.008	0.133
-606.171	618.304	-0.098	-0.247
-605.157	-124.854	-0.210	-0.032
-604.142	17.817	0.053	0.042
-603.128	24.314	0.221	-0.183
-602.113	-200.000	0.361	-0.002
-601.098	-69.873	0.080	0.031
-600.084	-96.999	0.124	-0.033
-599.069	33.254	0.117	0.102
-598.055	-83.108	0.135	0.043
-597.040	-200.000	-0.008	0.154
-596.025	152.833	0.112	0.153
-595.011	-200.000	-0.011	-0.612
-593.996	140.886	-0.254	-0.337
-592.982	7.920	-0.069	-0.052
-591.967	399.468	0.135	-0.284
-590.952	177.113	-0.063	0.092
-589.938	800.000	0.074	-0.291
-588.923	-200.000	-0.053	-0.284
-587.909	16.857	-0.078	-0.062
-586.894	-40.223	0.205	-0.107
-585.879	89.175	-0.127	-0.141
-584.865	-157.645	0.108	-0.006
-583.850	-68.798	-0.205	0.079
-582.836	-92.016	-0.275	-0.078
-581.821	-75.985	0.223	0.079
-580.806	-72.911	0.385	0.142
-579.792	-200.000	-0.037	-0.366
-578.777	20.041	-0.179	-0.145
-577.763	-200.000	0.022	0.274
-576.748	292.680	-0.038	0.070
-575.733	268.048	0.089	-0.156
-574.719	209.713	0.161	-0.253
-573.704	800.000	0.016	0.066
-572.690	515.701	-0.150	-0.351
-571.675	-157.160	0.176	-0.011
-570.661	91.870	-0.083	-0.094
-569.646	246.579	-0.079	-0.134
-568.631	116.531	0.084	-0.103
-567.617	-200.000	0.017	0.083
-566.602	63.130	-0.108	-0.109
-565.588	800.000	-0.042	-0.125
-564.573	-77.318	0.099	-0.035
-563.558	-200.000	0.034	-0.188
-562.544	243.758	0.074	0.124
-561.529	218.736	0.081	0.130
-560.515	-85.780	-0.336	0.104
-559.500	247.175	-0.155	-0.263
-558.485	101.249	0.212	-0.247
-557.471	-200.000	-0.033	-0.237
-556.456	-200.000	-0.076	0.348
-555.442	800.000	-0.056	0.206
-554.427	800.000	0.069	0.275
-553.412	-200.000	0.017	0.231
-552.398	-200.000	-0.027	0.141
-551.383	118.765	0.091	0.113
-550.369	145.401	-0.131	-0.176
-549.354	-66.194	0.310	0.124
-548.339	-108.323	0.127	0.028
-547.325	-75.998	0.101	0.036
-546.310	98.816	-0.086	-0.099
-545.296	-200.000	0.004	-0.027
-544.281	-57.897	0.033	0.015
-543.266	-200.000	-0.010	0.211
-542.252	-200.000	-0.012	0.068
-541.237	-10.962	0.060	0.039
-540.223	-151.642	-0.331	-0.024
-539.208	210.341	0.117	0.184
-538.193	-145.257	0.210	0.019
-537.179	436.070	-0.067	-0.146
-536.164	77.894	0.073	-0.078
-535.150	671.334	-0.033	0.084
-534.135	-87.010	0.291	0.089
-533.121	-169.458	0.012	-0.000
-532.106	-32.677	0.342	-0.190
-531.091	-20.466	-0.294	0.181
-530.077	800.000	-0.139	0.505
-529.062	-85.215	0.417	-0.130
-528.048	148.000	0.142	-0.191
-527.033	14.287	-0.159	-0.124
-526.018	-45.078	0.243	0.121
-525.004	-85.958	0.318	-0.098
-523.989	44.966	0.139	-0.128
-522.975	-55.164	-0.054	0.024
-521.960	800.000	-0.064	-0.263
-520.945	-200.000	0.001	0.033
-519.931	-59.933	0.085	-0.036
-518.916	47.010	-0.077	0.072
-517.902	16.790	-0.186	0.147
-516.887	6.417	0.073	0.054
-515.872	463.171	-0.097	-0.216
-514.858	-77.155	-0.250	-0.087
-513.843	-117.016	-0.205	0.037
-512.829	-15.321	0.101	-0.064
-511.814	-31.934	-0.059	0.033
-510.799	96.364	-0.161	-0.184
-509.785	-110.686	-0.223	0.046
-508.770	-21.966	0.219	0.133
-507.756	-166.150	-0.197	0.008
-506.741	-200.000	-0.008	0.046
-505.726	448.913	-0.108	-0.238
-504.712	172.729	-0.134	-0.192
-503.697	-60.016	-0.115	-0.049
-502.683	132.551	0.125	-0.161
-501.668	-73.248	-0.023	-0.008
-500.653	-71.692	0.078	-0.029
-499.639	-4.626	0.114	0.079
-498.624	277.862	-0.164	0.292
-497.610	-200.000	-0.008	0.177
-496.595	-20.535	-0.227	0.139
-495.581	-0.734	-0.408	0.289
-494.566	24.686	0.069	-0.057
-493.551	-105.883	-0.227	0.051
-492.537	-200.000	0.070	-0.493
-491.522	800.000	0.058	-0.196
-490.508	-100.498	-0.067	-0.017
-489.493	-164.432	0.028	-0.001
-488.478	164.318	-0.149	0.209
-487.464	-200.000	-0.011	-0.064
-486.449	-200.000	-0.025	0.137
-485.435	-30.949	-0.148	0.084
-484.420	540.380	0.069	-0.165
-483.405	-109.897	-0.307	0.064
-482.391	384.839	-0.046	0.095
-481.376	-35.965	-0.184	-0.100
-480.362	-18.405	-0.277	-0.173
-479.347	-98.147	-0.019	-0.005
-478.332	-71.135	-0.328	0.123
-477.318	-71.171	-0.318	0.119
-476.303	146.734	-0.128	-0.172
-475.289	-45.579	-0.036	-0.018
-474.274	-152.959	-0.099	0.007
-473.259	-30.448	-0.531	-0.301
-472.245	-181.467	-0.251	-0.005
-471.230	-44.006	-0.036	0.018
-470.216	-10.697	0.112	-0.074
-469.201	-181.396	-0.351	0.007
-468.186	55.325	0.228	-0.220
-467.172	-51.647	0.301	-0.140
-466.157	32.450	-0.122	0.105
-465.143	-54.771	-0.129	-0.058
-464.128	82.492	-0.113	0.123
-463.113	-128.284	-0.421	0.060
-462.099	-69.038	0.315	-0.121
-461.084	-200.000	0.008	0.284
-460.070	-79.239	-0.320	-0.108
-459.055	129.043	-0.195	0.248
-458.040	-12.044	0.120	0.078
-457.026	63.071	-0.207	-0.207
-456.011	-116.465	-0.190	0.035
-454.997	-125.963	0.036	-0.005
-453.982	72.821	0.181	0.189
-452.968	-200.000	0.006	-0.042
-451.953	-75.981	0.086	-0.030
-450.938	189.700	-0.099	-0.148
-449.924	-162.567	-0.311	-0.015
-448.909	-200.000	-0.024	-0.241
-447.895	800.000	-0.007	-0.028
-446.880	-117.039	-0.215	-0.039
-445.865	-200.000	0.021	-0.121
-444.851	263.383	-0.077	0.134
-443.836	-134.902	-0.029	0.004
-442.822	311.251	-0.077	-0.144
-441.807	-27.956	0.090	0.052
-440.792	309.739	0.079	-0.147
-439.778	134.719	0.112	-0.145
-438.763	-200.000	0.088	-0.455
-437.749	-95.013	-0.257	0.069
-436.734	-135.859	-0.163	0.019
-435.719	16.600	0.063	-0.049
-434.705	-59.043	-0.156	0.067
-433.690	213.686	0.150	0.237
-432.676	-137.307	-0.310	-0.035
-431.661	166.831	-0.106	-0.149
-430.646	800.000	0.077	-0.283
-429.632	261.885	0.116	-0.201
-428.617	-200.000	0.022	-0.152
-427.603	800.000	-0.052	-0.193
-426.588	67.801	-0.309	0.314
-425.573	-200.000	-0.020	0.106
-424.559	52.097	-0.128	0.121
-423.544	110.335	0.147	0.176
-422.530	300.808	-0.071	0.131
-421.515	71.778	0.345	0.357
-420.500	-200.000	0.016	0.125
-419.486	800.000	0.036	-0.147
-418.471	-33.566	0.203	0.112
-417.457	526.710	-0.056	-0.131
-416.442	177.757	-0.074	0.108
-415.428	335.176	0.051	-0.098
-414.413	800.000	0.021	0.089
-413.398	325.015	0.062	0.117
-412.384	-119.641	-0.143	-0.025
-411.369	-39.170	-0.180	0.094
-410.355	-100.825	0.173	0.042
-409.340	184.471	-0.131	-0.194
-408.325	-53.077	-0.285	-0.130
-407.311	177.315	0.138	0.200
-406.296	-112.596	-0.552	-0.109
-405.282	8.347	0.202	-0.151
-404.267	157.153	0.077	0.106
-403.252	155.988	-0.172	-0.236
-402.238	-200.000	0.028	-0.314
-401.223	-163.794	-0.229	-0.011
-400.209	-83.550	0.324	-0.103
-399.194	289.275	-0.081	0.147
-398.179	-200.000	0.001	-0.022
-397.165	283.587	0.133	0.238
-396.150	55.450	0.142	-0.137
-395.136	16.391	-0.247	0.194
-394.121	-200.000	-0.012	-0.503
-393.106	361.840	0.131	-0.261
-392.092	-150.238	0.153	0.012
-391.077	-200.000	0.043	0.204
-390.063	-87.439	-0.059	-0.018
-389.048	4.159	-0.267	-0.195
-388.033	-59.334	0.156	0.067
-387.019	39.750	-0.159	0.142
-386.004	22.010	0.090	-0.073
-384.990	-19.832	0.192	0.118
-383.975	-47.624	-0.091	0.044
-382.960	215.343	-0.082	-0.129
-381.946	-57.178	0.218	-0.096
-380.931	290.655	-0.135	0.243
-379.917	-43.478	0.061	0.030
-378.902	800.000	0.030	-0.098
-377.888	-125.143	0.187	0.029
-376.873	-16.005	0.103	0.065
-375.858	-20.238	0.129	0.079
-374.844	-200.000	0.023	0.182
-373.829	-110.805	0.359	0.074
-372.815	-200.000	-0.019	-0.270
-371.800	-69.935	0.314	-0.119
-370.785	-39.738	0.047	0.024
-369.771	91.837	-0.141	0.157
-368.756	-184.573	0.332	0.005
-367.742	-40.443	-0.328	-0.169
-366.727	800.000	0.066	0.277
-365.712	10.163	0.037	0.028
-364.698	800.000	-0.031	0.108
-363.683	-200.000	0.052	0.418
-362.669	800.000	-0.081	0.321
-361.654	323.307	0.126	0.240
-360.639	155.273	0.210	-0.287
-359.625	532.794	0.090	-0.211
-358.610	72.257	-0.197	0.204
-357.596	11.005	0.138	-0.105
-356.581	-148.137	-0.119	-0.010
-355.566	328.074	0.125	-0.238
-354.552	-178.055	-0.265	-0.006
-353.537	78.960	0.111	-0.118
-352.523	160.032	-0.040	-0.055
-351.508	-176.500	0.205	0.005
-350.493	-155.758	-0.114	0.007
-349.479	432.686	0.105	0.226
-348.464	10.548	-0.278	-0.210
-347.450	248.846	-0.181	0.305
-346.435	-139.603	0.095	0.010
-345.420	100.461	-0.270	0.311
-344.406	-200.000	-0.057	0.362
-343.391	160.010	0.086	0.118
-342.377	-59.400	-0.350	-0.149
-341.362	60.112	0.157	0.154
-340.348	-64.810	0.087	0.035
-339.333	-73.486	-0.140	0.051
-338.318	-79.233	-0.055	-0.019
-337.304	-33.628	0.150	-0.082
-336.289	176.008	-0.176	-0.254
-335.275	85.022	-0.246	-0.268
-334.260	6.912	-0.262	-0.194
-333.245	-200.000	0.013	0.060
-332.231	188.033	0.077	0.114
-331.216	272.110	0.070	0.123
-330.202	94.059	0.188	0.212
-329.187	-15.483	-0.403	-0.255
-328.172	-37.326	0.178	-0.094
-327.158	-200.000	-0.033	0.261
-326.143	272.803	0.239	-0.418
-325.129	-126.211	0.047	-0.007
-324.114	106.436	0.128	0.151
-323.099	-43.348	0.122	0.061
-322.085	-135.048	-0.285	-0.034
-321.070	-103.079	0.095	0.022
-320.056	-200.000	0.172	0.000
-319.041	-144.166	-0.143	-0.013
-318.026	-200.000	0.016	-0.153
-317.012	682.692	0.075	0.193
-315.997	-31.916	0.234	0.130
-314.983	75.744	-0.189	0.198
-313.968	-157.901	0.167	-0.010
-312.953	263.293	0.060	0.103
-311.939	-89.529	-0.149	0.043
-310.924	-115.928	0.149	-0.028
-309.910	-159.647	0.319	-0.018
-308.895	86.489	0.050	-0.055
-307.880	628.600	0.149	0.375
-306.866	139.611	-0.086	0.112
-305.851	602.179	0.074	-0.183
-304.837	-38.567	-0.114	0.060
-303.822	-128.249	0.060	0.008
-302.807	85.628	-0.186	0.203
-301.793	-72.022	0.051	0.019
-300.778	-66.185	-0.179	0.071
-299.764	-12.785	-0.133	0.086
-298.749	-200.000	0.037	-0.325
-297.735	-183.647	-0.314	0.005
-296.720	451.648	-0.124	0.272
-295.705	-200.000	-0.020	0.097
-294.691	800.000	-0.055	0.229
-293.676	9.394	-0.089	-0.067
-292.662	391.539	0.180	-0.370
-291.647	59.871	0.135	-0.132
-290.632	-49.142	0.269	-0.127
-289.618	800.000	0.082	0.233
-288.603	125.710	0.225	0.282
-287.589	-103.863	-0.146	0.034
-286.574	-200.000	0.009	0.135
-285.559	-200.000	-0.030	-0.204
-284.545	-75.288	0.253	0.089
-283.530	171.853	-0.133	0.189
-282.516	800.000	0.044	0.162
-281.501	-200.000	0.216	0.000
-280.486	-105.395	0.019	0.004
-279.472	-200.000	-0.035	0.197
-278.457	245.534	0.176	-0.293
-277.443	214.580	-0.205	-0.322
-276.428	27.493	0.033	0.028
-275.413	8.803	0.322	-0.241
-274.399	-115.184	0.041	0.008
-273.384	-23.853	-0.165	0.098
-272.370	-28.288	-0.111	-0.063
-271.355	-107.637	0.130	-0.028
-270.340	-117.468	0.112	0.020
-269.326	711.339	-0.086	-0.225
-268.311	-200.000	0.553	0.000
-267.297	292.368	-0.101	0.183
-266.282	-200.000	0.022	0.109
-265.267	800.000	-0.088	0.289
-264.253	189.290	0.123	-0.182
-263.238	31.635	-0.072	-0.062
-262.224	800.000	-0.087	-0.289
-261.209	162.642	0.276	0.383
-260.195	-16.479	0.116	-0.073
-259.180	-200.000	-0.024	-0.134
-258.165	-138.100	0.111	0.012
-257.151	-138.283	-0.188	0.021
-256.136	-27.295	-0.179	-0.103
-255.122	777.855	0.094	-0.253
-254.107	-200.000	0.005	0.267
-253.092	178.713	0.079	-0.114
-252.078	-108.861	0.153	-0.032
-251.063	73.548	-0.117	-0.122
-250.049	-200.000	-0.018	0.507
-249.034	-45.787	0.195	-0.095
-248.019	-121.521	0.408	0.067
-247.005	-177.830	0.206	-0.005
-245.990	307.047	0.122	-0.225
-244.976	-16.158	-0.230	0.145
-243.961	-47.493	-0.201	0.097
-242.946	161.849	0.157	0.217
-241.932	121.484	-0.137	-0.169
-240.917	-10.990	0.269	0.176
-239.903	-123.345	-0.088	-0.014
-238.888	73.675	0.112	0.116
-237.873	303.592	-0.150	-0.276
-236.859	-119.473	0.263	0.045
-235.844	481.973	0.142	0.318
-234.830	38.627	-0.339	-0.299
-233.815	-200.000	-0.055	0.258
-232.800	488.314	-0.092	0.208
-231.786	128.567	0.212	0.267
-230.771	18.338	0.180	-0.142
-229.757	-200.000	-0.002	-0.028
-228.742	272.488	0.145	-0.253
-227.727	-39.222	0.030	0.016
-226.713	-10.603	-0.155	-0.101
-225.698	-122.148	-0.254	-0.041
-224.684	-200.000	0.044	0.270
-223.669	800.000	0.158	0.446
-222.655	-200.000	0.009	-0.257
-221.640	800.000	-0.051	0.210
-220.625	63.384	0.175	-0.174
-219.611	-69.482	-0.182	-0.069
-218.596	6.457	-0.318	0.233
-217.582	-20.699	0.226	0.137
-216.567	9.077	0.129	-0.097
-215.552	298.177	0.098	0.178
-214.538	307.902	0.056	-0.103
-213.523	18.311	0.082	-0.064
-212.509	-43.131	0.048	0.024
-211.494	-121.945	0.414	-0.067
-210.479	-200.000	-0.019	0.203
-209.465	-200.000	0.012	-0.141
-208.450	-8.316	0.267	0.178
-207.436	115.777	-0.074	-0.090
-206.421	-71.706	0.198	-0.073
-205.406	-26.622	0.239	-0.138
-204.392	-200.000	-0.054	0.258
-203.377	598.021	0.195	0.476
-202.363	-106.225	-0.108	-0.024
-201.348	-200.000	-0.003	0.042
-200.333	557.230	0.013	0.031
-199.319	25.244	-0.163	-0.134
-198.304	51.985	0.136	-0.127
-197.290	-200.000	-0.003	-0.233
-196.275	-14.837	-0.180	0.114
-195.260	208.953	-0.141	-0.217
-194.246	800.000	0.080	0.333
-193.231	7.387	-0.137	-0.101
-192.217	2.903	-0.315	0.226
-191.202	128.051	-0.028	-0.035
-190.187	-200.000	-0.032	0.346
-189.173	-136.834	0.237	0.027
-188.158	-38.937	-0.077	-0.040
-187.144	195.586	0.092	-0.139
-186.129	100.431	0.072	0.082
-185.114	138.377	0.250	0.324
-184.100	11.201	0.071	-0.053
-183.085	-101.037	-0.137	-0.033
-182.071	-200.000	-0.004	-0.042
-181.056	189.085	0.150	0.222
-180.042	-67.870	-0.151	-0.058
-179.027	800.000	0.066	0.192
-178.012	-9.164	0.211	0.139
-176.998	-80.391	0.124	0.041
-175.983	-93.646	-0.042	0.011
-174.969	1.859	-0.156	0.111
-173.954	153.825	-0.085	-0.115
-172.939	-124.327	0.485	0.075
-171.925	6.263	0.302	-0.221
-170.910	428.404	0.036	-0.077
-169.896	-113.700	0.420	-0.081
-168.881	-200.000	0.003	0.164
-167.866	800.000	-0.107	0.300
-166.852	-29.266	-0.105	0.059
-165.837	-113.106	-0.219	-0.043
-164.823	4.275	0.304	-0.219
-163.808	-23.112	0.169	-0.100
-162.793	82.282	0.178	-0.191
-161.779	91.238	-0.233	0.257
-160.764	-8.905	0.196	-0.129
-159.750	-108.407	-0.275	-0.058
-158.735	23.614	0.171	0.139
-157.720	444.417	-0.093	-0.201
-156.706	-105.946	0.051	-0.011
-155.691	-29.222	0.156	-0.088
-154.677	-200.000	-0.040	0.229
-153.662	98.681	-0.191	0.217
-152.647	-118.558	0.119	-0.021
-151.633	353.264	-0.063	-0.124
-150.618	-200.000	-0.015	-0.146
-149.604	800.000	0.054	0.211
-148.589	-157.907	-0.113	0.007
-147.574	-200.000	-0.016	-0.149
-146.560	773.209	-0.091	-0.244
-145.545	48.958	0.074	0.069
-144.531	-123.696	0.172	0.027
-143.516	-200.000	-0.013	0.057
-142.502	-200.000	0.007	-0.224
-141.487	800.000	0.165	-0.607
-140.472	-152.195	0.201	-0.014
-139.458	755.487	0.030	0.081
-138.443	-200.000	0.009	-0.242
-137.429	101.679	0.162	0.186
-136.414	373.039	-0.138	0.277
-135.399	-200.000	-0.030	0.148
-134.385	800.000	0.040	-0.127
-133.370	-95.096	0.087	0.023
-132.356	-200.000	-0.034	0.273
-131.341	-70.662	-0.077	0.029
-130.326	100.460	-0.124	0.141
-129.312	279.545	0.171	0.301
-128.297	-50.036	-0.190	0.089
-127.283	800.000	0.088	-0.271
-126.268	474.757	-0.030	0.067
-125.253	37.307	-0.156	0.136
-124.239	-127.786	0.233	0.033
-123.224	131.337	-0.314	0.398
-122.210	-110.162	0.127	-0.026
-121.195	-134.131	0.090	0.011
