DTS Sentinel unit serial number:	SN413079Multiplexer serial number:	ORYXHardware model number:	OX4-SRSoftware version number:	ORYX F/W v4.00 Oryx Data Collector v3.7.2.0data status	okinstallation	princeton_trtdifferential loss correction	single-endedforward channel	channel 1reverse channel	N/Adate	2019/09/14time	05:54:35forward acquisition time	60.00reverse acquisition time	0.00gamma	496.2192k internal	0.2334k external	0.2334temperature offset calibration	1.0078default loss term (dB/km)	0.3790temperature slope calibration	1.0000multiplexer offset coefficient	1.0000multiplexer slope coefficient	1.0000fibre end	0.00T internal ref (°C)	26.87T ext. ref 1 (°C)	3.41T ext. ref 2 (°C)	21.19length (m)	temperature (°C)	Stokes	anti-Stokes-747.200	221.764	-0.157	-0.254
-746.185	-78.517	-0.168	0.058
-745.171	113.265	-0.118	0.143
-744.156	800.000	-0.107	0.299
-743.142	52.185	-0.029	-0.028
-742.127	-183.019	-0.395	-0.007
-741.112	264.763	0.144	0.252
-740.098	120.742	-0.070	0.087
-739.083	-200.000	-0.052	-0.337
-738.069	166.831	-0.174	0.247
-737.054	-172.056	-0.206	0.007
-736.039	-160.274	-0.407	-0.022
-735.025	-53.966	0.029	0.013
-734.010	544.802	-0.054	-0.129
-732.996	-107.676	0.038	0.008
-731.981	25.851	0.191	0.160
-730.966	800.000	0.057	0.213
-729.952	110.740	-0.194	0.234
-728.937	-38.842	-0.330	-0.174
-727.923	169.470	0.143	0.205
-726.908	800.000	-0.122	0.465
-725.894	-120.206	0.114	0.019
-724.879	800.000	-0.037	0.109
-723.864	-18.639	0.212	-0.133
-722.850	-92.642	-0.561	0.158
-721.835	-16.688	0.142	-0.090
-720.821	-7.337	0.182	0.124
-719.806	121.560	-0.184	-0.230
-718.791	-200.000	0.045	0.278
-717.777	189.932	0.085	0.128
-716.762	249.502	0.090	0.153
-715.748	16.338	0.081	-0.064
-714.733	100.134	-0.114	-0.132
-713.718	-200.000	0.017	-0.406
-712.704	-100.123	0.092	-0.023
-711.689	104.407	-0.101	0.119
-710.675	-173.624	0.177	-0.005
-709.660	800.000	-0.032	0.142
-708.645	-139.381	0.167	0.018
-707.631	-83.285	0.126	0.041
-706.616	-200.000	0.067	-0.464
-705.602	6.307	0.226	-0.169
-704.587	430.931	0.148	-0.321
-703.572	-87.676	0.135	-0.041
-702.558	-200.000	-0.037	0.187
-701.543	-147.218	-0.129	0.011
-700.529	-200.000	-0.006	0.069
-699.514	-200.000	0.006	-0.218
-698.499	-55.974	0.099	-0.044
-697.485	800.000	-0.022	-0.079
-696.470	-200.000	-0.057	-0.337
-695.456	19.373	-0.066	-0.054
-694.441	30.952	0.249	-0.214
-693.426	-200.000	0.014	-0.225
-692.412	800.000	-0.054	0.217
-691.397	23.486	-0.202	0.166
-690.383	-155.466	0.165	0.011
-689.368	-109.162	0.203	-0.043
-688.354	800.000	0.071	-0.269
-687.339	800.000	-0.133	0.377
-686.324	120.000	0.317	0.394
-685.310	438.530	0.072	0.157
-684.295	-106.061	-0.229	-0.052
-683.281	537.610	0.082	-0.194
-682.266	111.903	0.087	-0.106
-681.251	-40.410	-0.152	-0.079
-680.237	-112.161	0.309	-0.062
-679.222	180.161	-0.063	-0.092
-678.208	35.341	0.413	0.363
-677.193	294.730	-0.095	-0.173
-676.178	16.982	-0.081	0.064
-675.164	-161.295	-0.339	-0.018
-674.149	-85.329	-0.334	0.104
-673.135	-130.441	0.051	0.007
-672.120	-12.506	0.096	0.063
-671.105	800.000	0.052	0.160
-670.091	-32.597	0.120	-0.067
-669.076	259.935	0.106	-0.184
-668.062	-200.000	0.006	0.170
-667.047	-200.000	0.017	-0.286
-666.032	434.357	0.080	0.174
-665.018	187.485	0.084	-0.126
-664.003	-107.534	0.240	0.053
-662.989	308.232	-0.021	0.040
-661.974	-42.965	-0.218	-0.111
-660.959	-200.000	-0.013	0.112
-659.945	-183.448	0.334	0.006
-658.930	3.953	-0.188	0.138
-657.916	-16.722	-0.047	0.030
-656.901	-104.204	0.119	-0.028
-655.886	-103.303	0.312	0.074
-654.872	-52.718	0.460	-0.213
-653.857	518.335	0.022	0.052
-652.843	-17.045	0.083	-0.052
-651.828	32.871	0.379	-0.329
-650.814	46.258	-0.266	0.247
-649.799	-138.328	0.125	-0.014
-648.784	-40.848	0.220	-0.114
-647.770	-123.427	0.280	0.045
-646.755	-31.208	-0.121	-0.068
-645.741	-200.000	0.101	-0.458
-644.726	-200.000	-0.007	0.043
-643.711	-200.000	-0.033	0.383
-642.697	187.858	-0.031	0.046
-641.682	-53.196	0.212	0.097
-640.668	509.030	-0.070	-0.162
-639.653	59.299	0.135	-0.133
-638.638	-200.000	0.072	-0.380
-637.624	132.451	0.048	-0.061
-636.609	-93.305	-0.356	-0.099
-635.595	-200.000	-0.022	0.099
-634.580	-200.000	0.020	-0.197
-633.565	-146.223	-0.274	0.024
-632.551	31.439	-0.068	-0.058
-631.536	-77.844	-0.049	0.017
-630.522	-75.287	-0.371	-0.132
-629.507	800.000	0.074	-0.222
-628.492	-74.988	0.278	0.100
-627.478	-61.136	-0.202	-0.085
-626.463	-83.532	-0.177	-0.057
-625.449	-200.000	-0.012	0.138
-624.434	-170.955	-0.201	0.007
-623.419	-200.000	-0.016	-0.209
-622.405	284.837	0.095	0.171
-621.390	-26.635	-0.088	-0.052
-620.376	800.000	-0.050	-0.217
-619.361	-200.000	-0.045	0.247
-618.346	800.000	0.086	0.249
-617.332	-60.789	-0.197	-0.084
-616.317	-108.777	-0.196	-0.042
-615.303	313.190	0.115	0.216
-614.288	255.089	-0.055	0.094
-613.273	41.914	0.081	-0.074
-612.259	-80.480	0.253	0.084
-611.244	-140.652	0.274	-0.028
-610.230	27.576	-0.114	-0.096
-609.215	468.775	-0.083	0.185
-608.201	207.808	0.098	0.153
-607.186	168.123	0.077	-0.110
-606.171	-76.978	0.087	-0.030
-605.157	666.153	0.023	0.059
-604.142	-101.498	-0.064	-0.016
-603.128	-94.900	0.249	-0.067
-602.113	132.557	-0.127	-0.164
-601.098	157.290	0.172	-0.238
-600.084	-200.000	-0.003	0.178
-599.069	234.984	-0.219	-0.361
-598.055	-4.562	0.199	-0.137
-597.040	115.681	-0.075	-0.091
-596.025	92.580	0.230	-0.259
-595.011	82.061	0.158	-0.171
-593.996	233.701	0.159	-0.261
-592.982	241.479	-0.226	-0.377
-591.967	628.406	-0.035	-0.087
-590.952	-200.000	0.039	0.179
-589.938	16.486	-0.146	-0.115
-588.923	-78.799	-0.136	0.046
-587.909	-13.579	-0.312	-0.202
-586.894	-117.891	-0.404	-0.072
-585.879	-200.000	-0.257	-0.001
-584.865	193.873	-0.055	-0.084
-583.850	-103.275	-0.058	0.014
-582.836	800.000	-0.029	0.121
-581.821	-50.163	0.201	-0.095
-580.806	800.000	0.020	-0.073
-579.792	-200.000	0.050	-0.425
-578.777	-119.631	-0.050	-0.009
-577.763	-200.000	-0.073	-0.340
-576.748	408.758	0.137	-0.289
-575.733	128.153	0.095	0.121
-574.719	237.531	0.183	0.302
-573.704	535.319	-0.147	-0.347
-572.690	128.273	-0.078	-0.099
-571.675	627.131	-0.035	0.088
-570.661	137.134	0.167	0.217
-569.646	-8.332	0.126	-0.085
-568.631	-30.652	-0.396	-0.224
-567.617	800.000	0.130	0.390
-566.602	751.349	-0.066	0.178
-565.588	39.171	0.284	0.253
-564.573	-200.000	-0.037	0.225
-563.558	-80.785	0.141	-0.047
-562.544	-41.225	0.210	0.108
-561.529	-28.901	-0.131	-0.075
-560.515	12.570	0.178	0.137
-559.500	-61.043	0.331	0.139
-558.485	-18.336	-0.235	-0.147
-557.471	48.161	-0.139	-0.130
-556.456	-200.000	0.006	-0.259
-555.442	163.650	0.083	0.117
-554.427	-200.000	0.012	0.267
-553.412	-200.000	-0.041	0.517
-552.398	-21.332	0.243	-0.148
-551.383	-200.000	-0.026	0.238
-550.369	101.329	-0.089	0.103
-549.354	54.823	0.202	0.194
-548.339	70.148	-0.058	-0.060
-547.325	-97.287	-0.381	-0.099
-546.310	-118.541	-0.265	0.047
-545.296	-114.993	0.168	-0.032
-544.281	800.000	-0.063	0.206
-543.266	-200.000	-0.005	0.050
-542.252	77.779	-0.076	0.081
-541.237	86.116	0.198	-0.217
-540.223	62.956	0.291	-0.291
-539.208	106.120	-0.227	0.268
-538.193	-94.633	-0.097	-0.026
-537.179	776.924	-0.097	-0.264
-536.164	-200.000	-0.016	-0.085
-535.150	-9.164	-0.141	-0.094
-534.135	66.102	-0.089	0.090
-533.121	56.008	0.140	0.136
-532.106	-59.377	0.205	0.088
-531.091	8.731	0.189	0.142
-530.077	53.451	0.220	0.210
-529.062	-162.614	-0.544	-0.027
-528.048	-200.000	0.058	0.281
-527.033	-168.681	0.068	0.003
-526.018	18.712	0.217	-0.173
-525.004	-200.000	-0.088	-0.000
-523.989	16.983	0.246	0.194
-522.975	53.332	-0.098	-0.094
-521.960	-200.000	-0.004	-0.169
-520.945	800.000	0.115	-0.338
-519.931	-62.199	-0.453	-0.188
-518.916	-25.677	0.084	-0.049
-517.902	-200.000	0.022	-0.127
-516.887	-200.000	0.014	0.349
-515.872	-11.731	-0.279	-0.182
-514.858	800.000	-0.008	0.033
-513.843	69.813	-0.160	0.164
-512.829	-129.112	0.286	0.040
-511.814	-200.000	0.007	-0.495
-510.799	426.796	-0.047	0.102
-509.785	88.510	0.095	-0.105
-508.770	65.516	-0.069	0.070
-507.756	-53.840	0.128	0.058
-506.741	521.077	0.067	0.155
-505.726	96.251	-0.032	-0.036
-504.712	706.013	-0.088	0.231
-503.697	90.776	0.302	-0.336
-502.683	-140.103	-0.520	0.054
-501.668	-200.000	0.008	0.313
-500.653	-200.000	0.008	-0.138
-499.639	-140.052	-0.085	-0.009
-498.624	-101.640	-0.072	0.017
-497.610	92.399	0.170	-0.191
-496.595	-126.651	-0.133	0.020
-495.581	16.434	0.113	0.089
-494.566	-200.000	-0.072	-0.340
-493.551	-43.758	-0.269	-0.135
-492.537	800.000	-0.069	0.276
-491.522	800.000	0.038	0.151
-490.508	-9.171	0.189	-0.126
-489.493	-56.125	0.358	-0.159
-488.478	-200.000	-0.038	-0.256
-487.464	-38.820	-0.245	0.129
-486.449	-200.000	-0.026	0.149
-485.435	-109.930	-0.092	-0.019
-484.420	32.907	0.203	-0.175
-483.405	250.713	-0.139	0.234
-482.391	460.579	-0.108	0.239
-481.376	-200.000	-0.054	-0.285
-480.362	-149.385	0.205	0.016
-479.347	391.287	0.161	0.332
-478.332	395.447	-0.084	0.174
-477.318	-38.879	0.332	0.174
-476.303	710.860	-0.079	-0.207
-475.289	-100.066	0.174	-0.043
-474.274	-200.000	-0.010	-0.202
-473.259	-62.178	0.261	-0.108
-472.245	67.584	-0.039	-0.040
-471.230	-50.901	-0.276	0.129
-470.216	721.294	0.033	0.086
-469.201	-45.652	-0.145	0.071
-468.186	-62.231	0.308	0.128
-467.172	291.665	0.153	-0.277
-466.157	3.071	0.293	0.212
-465.143	-9.066	-0.344	-0.229
-464.128	-90.273	0.078	0.023
-463.113	126.014	-0.067	-0.084
-462.099	180.350	0.065	0.094
-461.084	161.316	-0.357	-0.496
-460.070	-13.904	0.184	0.118
-459.055	-200.000	0.002	-0.044
-458.040	221.989	-0.293	0.469
-457.026	-10.071	-0.287	0.190
-456.011	800.000	0.016	0.052
-454.997	101.784	-0.114	-0.132
-453.982	18.136	-0.234	-0.185
-452.968	-51.367	-0.238	-0.111
-451.953	-121.145	-0.302	0.050
-450.938	-87.291	0.314	0.095
-449.924	-159.974	0.159	0.009
-448.909	-200.000	0.017	-0.127
-447.895	44.503	0.084	-0.077
-446.880	-99.366	0.244	0.061
-445.865	-13.199	0.285	0.184
-444.851	-106.215	0.119	0.026
-443.836	-54.407	-0.027	0.012
-442.822	-98.154	-0.195	0.050
-441.807	-31.908	-0.191	0.106
-440.792	-83.315	0.103	0.033
-439.778	346.910	0.128	-0.250
-438.763	26.232	0.155	-0.128
-437.749	-9.583	-0.349	0.231
-436.734	209.656	0.071	-0.111
-435.719	800.000	0.070	-0.291
-434.705	-200.000	0.020	0.281
-433.690	-200.000	0.013	0.098
-432.676	-132.138	0.263	-0.034
-431.661	800.000	0.038	0.117
-430.646	-150.346	-0.250	0.019
-429.632	-38.262	-0.020	0.011
-428.617	-200.000	0.030	-0.290
-427.603	-66.428	-0.469	-0.185
-426.588	-200.000	0.041	0.331
-425.573	-111.472	-0.216	-0.044
-424.559	-200.000	0.055	0.252
-423.544	-120.129	0.389	-0.066
-422.530	-72.529	-0.194	-0.071
-421.515	15.730	-0.170	0.133
-420.500	56.621	-0.195	-0.189
-419.486	-21.902	-0.159	-0.096
-418.471	-15.673	-0.060	-0.038
-417.457	-84.856	0.159	0.049
-416.442	46.248	0.077	-0.071
-415.428	-11.297	-0.105	0.069
-414.413	-200.000	-0.020	-0.183
-413.398	642.495	0.122	-0.309
-412.384	60.439	-0.281	0.276
-411.369	71.994	-0.077	0.080
-410.355	800.000	0.066	-0.188
-409.340	-4.371	-0.418	-0.286
-408.325	143.475	0.140	0.185
-407.311	88.206	0.173	-0.190
-406.296	7.907	-0.115	0.085
-405.282	-95.431	-0.247	0.066
-404.267	-200.000	0.058	0.394
-403.252	-72.407	0.369	-0.135
-402.238	620.671	0.033	0.081
-401.223	-125.929	0.083	-0.012
-400.209	800.000	-0.010	-0.031
-399.194	0.548	0.073	0.052
-398.179	-182.520	-0.392	0.007
-397.165	-189.903	-0.036	-0.000
-396.150	-51.614	0.266	0.123
-395.136	-200.000	-0.024	-0.203
-394.121	-99.946	-0.309	0.077
-393.106	131.461	0.069	-0.088
-392.092	-157.820	0.161	-0.009
-391.077	-189.640	0.251	0.003
-390.063	-36.089	0.168	0.090
-389.048	-144.987	0.107	0.010
-388.033	-65.697	-0.265	0.105
-387.019	139.143	0.132	-0.172
-386.004	12.108	-0.256	-0.195
-384.990	-56.055	-0.305	-0.135
-383.975	-200.000	-0.012	0.083
-382.960	-83.940	-0.333	0.105
-381.946	50.458	0.058	0.054
-380.931	63.133	0.114	-0.113
-379.917	-142.058	-0.092	0.009
-378.902	-125.228	0.419	0.064
-377.888	-180.500	0.081	0.002
-376.873	-75.856	-0.049	0.017
-375.858	-96.208	0.295	0.078
-374.844	-200.000	0.016	0.125
-373.829	216.612	-0.093	0.146
-372.815	38.502	0.094	0.083
-371.800	459.121	0.029	-0.065
-370.785	177.866	-0.105	0.152
-369.771	800.000	0.012	-0.044
-368.756	-54.255	-0.242	0.109
-367.742	38.669	0.223	-0.197
-366.727	-77.683	-0.066	-0.023
-365.712	-200.000	-0.044	0.252
-364.698	-200.000	0.003	-0.203
-363.683	372.518	-0.108	-0.218
-362.669	3.950	-0.047	-0.034
-361.654	-135.560	-0.208	0.024
-360.639	-200.000	0.001	-0.204
-359.625	-32.335	-0.234	-0.129
-358.610	-12.151	0.187	0.121
-357.596	7.303	0.148	-0.109
-356.581	-200.000	0.071	-0.460
-355.566	317.230	-0.051	0.096
-354.552	-17.101	0.362	-0.226
-353.537	-200.000	0.064	-0.324
-352.523	-64.489	-0.117	-0.047
-351.508	-106.012	0.189	0.042
-350.493	-134.720	0.166	0.020
-349.479	-158.909	-0.060	-0.003
-348.464	-63.708	-0.436	0.177
-347.450	36.444	-0.065	-0.056
-346.435	-174.952	0.143	-0.004
-345.420	-200.000	-0.056	-0.273
-344.406	-121.231	0.289	-0.048
-343.391	-200.000	-0.056	-0.291
-342.377	-85.452	0.193	-0.060
-341.362	171.373	0.101	0.143
-340.348	-55.541	0.385	-0.171
-339.333	-167.058	-0.213	-0.009
-338.318	-153.296	0.231	0.016
-337.304	-117.479	-0.100	0.018
-336.289	-95.798	-0.120	0.032
-335.275	147.389	-0.187	0.249
-334.260	-118.084	0.193	-0.034
-333.245	-178.352	0.309	0.007
-332.231	-25.011	0.546	-0.320
-331.216	-46.766	-0.298	-0.144
-330.202	120.584	-0.112	0.138
-329.187	76.800	0.166	-0.174
-328.172	-86.014	-0.238	0.073
-327.158	67.697	0.236	0.239
-326.143	-200.000	0.005	-0.041
-325.129	69.139	0.227	-0.231
-324.114	168.259	0.167	-0.234
-323.099	39.653	-0.217	0.192
-322.085	62.095	0.195	-0.193
-321.070	-65.647	0.104	0.041
-320.056	-86.202	0.059	-0.018
-319.041	-36.440	0.161	-0.086
-318.026	124.927	0.132	0.164
-317.012	800.000	0.039	-0.163
-315.997	228.968	0.119	0.192
-314.983	156.543	-0.223	0.305
-313.968	-200.000	0.082	-0.531
-312.953	-168.595	-0.261	0.010
-311.939	-122.101	0.078	0.013
-310.924	-103.586	-0.063	-0.015
-309.910	206.895	-0.150	-0.231
-308.895	-42.940	-0.102	0.051
-307.880	37.257	-0.139	0.122
-306.866	-80.730	0.204	0.067
-305.851	800.000	-0.028	-0.104
-304.837	284.350	-0.041	0.073
-303.822	569.260	0.115	0.277
-302.807	20.631	0.199	0.159
-301.793	-4.882	-0.306	0.208
-300.778	556.842	0.127	0.301
-299.764	438.832	0.073	-0.158
-298.749	-200.000	-0.058	-0.332
-297.735	-35.258	0.405	0.218
-296.720	-200.000	0.055	-0.317
-295.705	476.274	0.083	0.185
-294.691	-69.089	0.137	0.052
-293.676	-42.768	-0.151	0.076
-292.662	79.531	-0.187	-0.198
-291.647	34.393	-0.301	0.259
-290.632	800.000	-0.132	-0.397
-289.618	-37.238	-0.226	0.119
-288.603	-116.554	0.160	-0.029
-287.589	-41.940	0.218	-0.110
-286.574	-64.618	-0.126	-0.051
-285.559	-200.000	-0.012	-0.073
-284.545	-200.000	-0.014	-0.134
-283.530	-35.772	0.231	0.124
-282.516	153.553	0.280	0.379
-281.501	53.996	-0.067	0.064
-280.486	800.000	-0.041	0.120
-279.472	265.719	-0.206	0.354
-278.457	-70.296	-0.107	0.040
-277.443	-200.000	0.020	0.106
-276.428	-101.496	0.226	0.054
-275.413	-200.000	-0.008	-0.244
-274.399	800.000	-0.087	0.315
-273.384	32.669	0.081	-0.069
-272.370	-81.122	0.272	-0.089
-271.355	379.810	-0.079	-0.159
-270.340	-200.000	-0.057	0.260
-269.326	-200.000	0.037	0.237
-268.311	-113.191	-0.150	-0.029
-267.297	518.816	0.084	0.193
-266.282	-200.000	0.004	0.087
-265.267	64.513	0.152	0.151
-264.253	19.145	0.197	-0.156
-263.238	-200.000	0.022	0.296
-262.224	579.565	0.103	0.249
-261.209	613.034	0.058	-0.142
-260.195	-200.000	0.434	0.002
-259.180	18.110	-0.033	-0.026
-258.165	-91.837	0.150	-0.042
-257.151	-200.000	0.005	-0.081
-256.136	41.048	-0.099	-0.088
-255.122	-200.000	-0.004	-0.174
-254.107	105.870	0.145	-0.170
-253.092	87.969	-0.144	-0.157
-252.078	-104.361	-0.106	-0.024
-251.063	16.567	-0.040	-0.031
-250.049	-200.000	-0.015	0.348
-249.034	62.903	0.198	0.196
-248.019	101.529	-0.097	-0.112
-247.005	-200.000	0.007	-0.052
-245.990	-60.719	0.227	0.095
-244.976	92.700	-0.145	0.161
-243.961	4.108	-0.145	0.105
-242.946	135.198	-0.093	0.119
-241.932	800.000	0.037	0.133
-240.917	242.328	0.155	-0.255
-239.903	-200.000	0.019	-0.161
-238.888	-112.482	0.273	-0.054
-237.873	181.794	0.071	-0.103
-236.859	109.350	0.153	0.180
-235.844	-106.746	0.027	0.006
-234.830	-200.000	-0.047	0.236
-233.815	-49.130	-0.328	0.155
-232.800	114.809	-0.224	-0.269
-231.786	-12.372	-0.125	0.080
-230.771	-200.000	0.038	0.214
-229.757	800.000	0.077	-0.254
-228.742	655.868	-0.106	-0.269
-227.727	-200.000	0.001	-0.228
-226.713	-81.764	-0.238	0.077
-225.698	-200.000	-0.082	0.357
-224.684	-84.909	0.082	-0.025
-223.669	99.583	-0.182	0.207
-222.655	-200.000	0.030	0.137
-221.640	270.580	-0.049	0.086
-220.625	800.000	-0.029	-0.089
-219.611	59.841	-0.202	0.196
-218.596	115.750	-0.182	-0.219
-217.582	328.639	-0.085	0.161
-216.567	214.964	0.091	0.142
-215.552	800.000	-0.107	0.346
-214.538	-94.379	-0.354	0.095
-213.523	-78.547	0.309	0.104
-212.509	-200.000	0.014	-0.366
-211.494	-59.617	-0.098	-0.041
-210.479	800.000	-0.042	0.115
-209.465	-189.189	-0.138	-0.002
-208.450	90.617	-0.367	0.404
-207.436	-115.730	0.149	-0.027
-206.421	-94.529	-0.147	-0.039
-205.406	318.735	-0.224	0.418
-204.392	-185.723	0.184	0.003
-203.377	-200.000	0.015	0.068
-202.363	-45.175	0.235	-0.115
-201.348	-98.802	0.197	0.049
-200.333	-63.425	-0.177	-0.072
-199.319	17.644	0.215	-0.169
-198.304	-19.396	-0.167	-0.102
-197.290	-57.616	-0.241	0.104
-196.275	38.742	-0.057	0.050
-195.260	329.923	-0.039	-0.075
-194.246	39.480	-0.348	0.306
-193.231	19.647	0.137	-0.109
-192.217	-108.630	-0.237	-0.050
-191.202	24.405	-0.119	-0.097
-190.187	87.622	0.100	-0.109
-189.173	-2.547	0.045	0.031
-188.158	-146.807	-0.174	0.015
-187.144	800.000	0.066	0.182
-186.129	800.000	0.012	0.043
-185.114	58.595	0.141	-0.136
-184.100	4.492	0.111	0.080
-183.085	16.520	0.261	0.203
-182.071	256.837	-0.060	0.101
-181.056	800.000	0.055	-0.203
-180.042	-199.797	0.140	-0.001
-179.027	407.615	-0.035	-0.073
-178.012	-116.950	-0.086	0.015
-176.998	-9.435	0.270	-0.177
-175.983	800.000	0.038	0.130
-174.969	800.000	-0.021	-0.070
-173.954	-112.564	-0.423	0.083
-172.939	30.793	-0.119	-0.100
-171.925	204.464	-0.053	0.081
-170.910	65.528	-0.230	0.228
-169.896	-145.982	0.226	0.020
-168.881	471.082	-0.102	-0.225
-167.866	-200.000	-0.016	0.200
-166.852	-20.261	-0.170	0.103
-165.837	-35.423	0.369	0.197
-164.823	-28.712	-0.187	0.106
-163.808	707.547	0.072	0.187
-162.793	-200.000	0.009	-0.248
-161.779	-200.000	-0.013	-0.087
-160.764	121.230	0.307	0.375
-159.750	269.738	0.073	0.126
-158.735	651.887	0.032	0.081
-157.720	284.975	0.043	-0.076
-156.706	349.933	-0.154	-0.298
-155.691	800.000	0.032	0.113
-154.677	-200.000	0.031	0.279
-153.662	-17.197	-0.096	0.059
-152.647	-138.340	0.091	-0.010
-151.633	87.197	0.163	0.177
-150.618	-4.426	0.233	-0.158
-149.604	-97.906	-0.135	0.034
-148.589	58.244	-0.313	-0.301
-147.574	89.353	-0.171	0.187
-146.560	-22.941	0.074	-0.044
-145.545	455.022	-0.165	0.360
-144.531	412.981	-0.122	0.255
-143.516	-200.000	0.016	0.183
-142.502	800.000	0.041	0.150
-141.487	800.000	0.030	0.086
-140.472	75.259	0.099	0.102
-139.458	-0.492	-0.174	-0.121
-138.443	230.813	-0.096	-0.154
-137.429	800.000	0.095	0.340
-136.414	164.758	-0.144	0.200
-135.399	-113.266	-0.073	-0.014
-134.385	800.000	-0.095	0.372
-133.370	-119.784	0.115	0.019
-132.356	-145.394	-0.295	-0.026
-131.341	800.000	0.034	0.143
-130.326	-131.348	-0.291	-0.038
-129.312	-109.276	0.249	-0.052
-128.297	-98.646	0.109	0.027
-127.283	774.337	0.054	0.145
-126.268	266.392	0.086	0.148
-125.253	-200.000	0.002	-0.055
-124.239	31.617	0.236	0.199
-123.224	-18.402	-0.060	-0.037
-122.210	78.886	-0.080	0.084
-121.195	221.987	-0.096	-0.152
-120.180	-72.266	-0.242	-0.088
