DTS Sentinel unit serial number:	SN413079Multiplexer serial number:	ORYXHardware model number:	OX4-SRSoftware version number:	ORYX F/W v4.00 Oryx Data Collector v3.7.2.0data status	okinstallation	princeton_trtdifferential loss correction	single-endedforward channel	channel 1reverse channel	N/Adate	2019/09/13time	16:06:35forward acquisition time	60.00reverse acquisition time	0.00gamma	496.2192k internal	0.2305k external	0.2305temperature offset calibration	1.0161default loss term (dB/km)	0.3790temperature slope calibration	1.0000multiplexer offset coefficient	1.0000multiplexer slope coefficient	1.0000fibre end	0.00T internal ref (°C)	34.69T ext. ref 1 (°C)	4.84T ext. ref 2 (°C)	31.55length (m)	temperature (°C)	Stokes	anti-Stokes-747.200	-9.937	0.209	-0.142
-746.185	-125.030	-0.302	0.047
-745.171	-50.609	-0.423	0.203
-744.156	-134.248	-0.161	0.020
-743.142	-75.519	-0.156	0.056
-742.127	-82.755	-0.223	-0.073
-741.112	-6.624	0.252	0.175
-740.098	-110.079	0.285	0.061
-739.083	-60.154	0.157	0.068
-738.069	66.646	0.234	0.242
-737.054	237.070	0.047	-0.080
-736.039	273.878	-0.104	-0.187
-735.025	-74.925	0.045	0.016
-734.010	-200.000	-0.020	-0.140
-732.996	61.592	-0.156	-0.158
-731.981	311.015	-0.067	0.127
-730.966	148.196	-0.150	-0.206
-729.952	181.589	0.142	-0.213
-728.937	15.677	0.113	-0.090
-727.923	130.559	0.140	0.183
-726.908	-200.000	-0.034	-0.297
-725.894	34.497	-0.280	-0.248
-724.879	-127.135	-0.220	-0.033
-723.864	-73.932	-0.530	-0.196
-722.850	800.000	-0.017	-0.063
-721.835	-200.000	0.021	-0.217
-720.821	44.509	-0.250	0.234
-719.806	-116.150	0.111	0.021
-718.791	662.937	0.126	-0.329
-717.777	209.677	-0.152	-0.241
-716.762	-44.801	0.094	0.048
-715.748	-200.000	-0.008	-0.176
-714.733	-66.834	-0.152	0.061
-713.718	33.932	0.320	-0.283
-712.704	800.000	-0.008	-0.021
-711.689	-102.267	-0.080	-0.020
-710.675	0.493	-0.080	-0.058
-709.660	800.000	0.098	0.328
-708.645	-64.674	-0.354	0.146
-707.631	169.151	0.128	0.186
-706.616	800.000	0.048	0.147
-705.602	-185.559	0.158	-0.002
-704.587	224.270	0.137	-0.225
-703.572	-76.680	0.289	0.103
-702.558	250.633	-0.124	-0.214
-701.543	43.433	-0.160	0.148
-700.529	28.782	0.167	0.144
-699.514	-64.427	-0.251	-0.104
-698.499	-47.044	0.101	-0.050
-697.485	-65.269	-0.203	0.083
-696.470	-66.590	-0.380	0.153
-695.456	-67.971	-0.025	0.010
-694.441	-127.482	-0.139	0.021
-693.426	-200.000	-0.055	-0.245
-692.412	800.000	0.036	0.141
-691.397	800.000	0.029	0.085
-690.383	800.000	-0.018	-0.061
-689.368	-173.014	0.273	0.009
-688.354	-64.340	0.090	-0.037
-687.339	-200.000	0.028	-0.194
-686.324	515.081	0.123	-0.291
-685.310	100.555	-0.206	-0.242
-684.295	-76.255	-0.306	-0.109
-683.281	-200.000	0.013	0.223
-682.266	-94.088	-0.115	-0.032
-681.251	-53.129	-0.362	0.169
-680.237	40.296	0.116	0.106
-679.222	768.715	-0.075	0.209
-678.208	-4.478	-0.116	0.082
-677.193	-200.000	-0.021	0.388
-676.178	101.366	-0.070	0.083
-675.164	672.483	0.025	-0.066
-674.149	-29.060	0.066	-0.039
-673.135	-44.198	0.087	0.044
-672.120	-34.791	-0.474	0.263
-671.105	-98.592	0.083	-0.021
-670.091	-150.256	0.429	0.034
-669.076	-200.000	-0.007	-0.181
-668.062	169.102	-0.053	0.077
-667.047	528.104	0.011	0.026
-666.032	152.766	-0.097	-0.135
-665.018	-57.134	0.058	-0.026
-664.003	800.000	0.064	-0.274
-662.989	160.771	-0.176	0.250
-661.974	105.378	0.131	0.156
-660.959	-200.000	0.002	0.176
-659.945	-26.915	-0.265	-0.157
-658.930	-107.915	-0.170	-0.037
-657.916	3.819	-0.165	0.123
-656.901	74.863	-0.086	0.091
-655.886	-112.858	-0.104	0.021
-654.872	-91.548	0.441	-0.127
-653.857	65.330	-0.224	-0.230
-652.843	440.867	-0.132	0.293
-651.828	-146.194	-0.213	0.019
-650.814	-47.936	-0.195	-0.096
-649.799	407.067	-0.122	-0.260
-648.784	800.000	-0.047	-0.180
-647.770	85.301	-0.134	0.150
-646.755	-200.000	-0.005	0.130
-645.741	-134.839	-0.102	-0.013
-644.726	800.000	0.069	0.201
-643.711	383.141	-0.148	-0.309
-642.697	-200.000	-0.069	-0.340
-641.682	7.992	0.034	0.026
-640.668	391.339	-0.042	0.089
-639.653	-146.392	-0.172	-0.015
-638.638	-156.696	0.288	-0.018
-637.624	52.813	-0.186	0.180
-636.609	-66.342	0.115	0.046
-635.595	21.464	-0.250	-0.206
-634.580	35.645	-0.211	0.188
-633.565	800.000	-0.064	0.228
-632.551	-200.000	0.001	0.251
-631.536	-142.670	0.192	-0.019
-630.522	738.660	0.010	0.027
-629.507	-89.904	0.113	0.033
-628.492	-127.340	-0.280	0.041
-627.478	800.000	-0.058	-0.192
-626.463	134.730	0.179	-0.235
-625.449	-125.067	0.139	-0.022
-624.434	-12.433	-0.276	0.183
-623.419	23.206	-0.157	0.131
-622.405	-110.588	0.118	0.025
-621.390	-44.646	-0.339	0.171
-620.376	-91.890	-0.442	-0.127
-619.361	92.271	0.111	-0.127
-618.346	346.441	-0.080	0.160
-617.332	-6.859	-0.020	0.014
-616.317	-79.397	0.140	0.048
-615.303	143.139	0.161	0.217
-614.288	800.000	-0.034	-0.134
-613.273	27.697	-0.018	-0.016
-612.259	800.000	-0.057	0.214
-611.244	672.098	-0.128	0.335
-610.230	258.062	0.150	-0.262
-609.215	-148.333	0.156	-0.013
-608.201	177.505	0.060	0.089
-607.186	-200.000	-0.018	0.173
-606.171	-22.213	-0.320	0.196
-605.157	800.000	-0.066	0.236
-604.142	800.000	-0.052	-0.157
-603.128	800.000	0.159	-0.463
-602.113	772.076	-0.082	0.225
-601.098	-63.705	0.112	-0.047
-600.084	194.253	0.135	-0.208
-599.069	-200.000	-0.049	-0.266
-598.055	-30.574	0.092	0.053
-597.040	-172.134	-0.293	-0.010
-596.025	-66.842	-0.114	-0.046
-595.011	318.627	-0.042	-0.081
-593.996	-15.324	-0.118	0.076
-592.982	-91.749	-0.205	0.059
-591.967	80.906	0.089	0.098
-590.952	4.168	0.252	0.187
-589.938	-11.597	0.190	0.126
-588.923	602.579	-0.089	-0.224
-587.909	-200.000	0.074	-0.537
-586.894	-85.093	0.105	0.033
-585.879	294.792	0.045	0.083
-584.865	101.037	-0.118	-0.139
-583.850	-200.000	0.048	0.214
-582.836	-24.093	-0.211	-0.127
-581.821	-200.000	0.039	-0.534
-580.806	-63.468	-0.188	0.078
-579.792	67.691	0.107	-0.111
-578.777	378.983	-0.141	0.292
-577.763	16.409	-0.154	0.123
-576.748	20.382	0.117	0.095
-575.733	-200.000	-0.057	-0.284
-574.719	29.679	-0.097	-0.083
-573.704	-82.169	-0.350	0.115
-572.690	-178.032	0.126	-0.003
-571.675	-88.071	-0.108	0.033
-570.661	-33.020	0.248	-0.139
-569.646	107.316	0.027	0.033
-568.631	23.010	-0.345	-0.286
-567.617	-32.064	-0.301	0.170
-566.602	222.128	0.252	0.410
-565.588	-85.508	-0.400	0.126
-564.573	52.682	-0.143	-0.138
-563.558	800.000	-0.040	-0.173
-562.544	800.000	0.032	0.122
-561.529	15.345	0.295	0.234
-560.515	-72.758	0.228	-0.085
-559.500	233.011	-0.099	0.164
-558.485	316.043	-0.214	0.409
-557.471	-84.145	0.113	-0.036
-556.456	557.276	0.083	-0.202
-555.442	94.928	-0.102	-0.117
-554.427	787.138	0.031	0.086
-553.412	-200.000	-0.022	0.144
-552.398	-40.597	0.062	0.032
-551.383	-74.469	-0.318	-0.116
-550.369	-37.816	-0.274	0.147
-549.354	800.000	-0.053	-0.181
-548.339	-200.000	-0.223	-0.000
-547.325	-200.000	0.002	-0.263
-546.310	267.591	-0.110	-0.194
-545.296	-76.260	-0.112	0.040
-544.281	102.178	0.271	-0.320
-543.266	18.630	-0.207	-0.167
-542.252	-163.120	-0.169	-0.008
-541.237	245.981	0.159	-0.271
-540.223	-52.247	-0.071	-0.033
-539.208	-61.110	-0.159	-0.068
-538.193	34.329	-0.113	0.100
-537.179	-73.641	0.112	0.041
-536.164	20.602	0.052	-0.042
-535.150	-41.410	0.216	-0.112
-534.135	-58.752	0.011	0.005
-533.121	184.414	0.172	0.256
-532.106	-173.138	-0.516	0.016
-531.091	-3.001	0.313	-0.221
-530.077	-145.972	-0.488	0.044
-529.062	101.887	-0.035	-0.041
-528.048	-66.011	0.170	0.068
-527.033	47.180	-0.149	-0.140
-526.018	394.526	0.121	0.255
-525.004	-200.000	0.043	-0.211
-523.989	115.613	0.150	-0.185
-522.975	75.476	0.213	0.227
-521.960	337.490	-0.163	0.320
-520.945	82.551	0.262	0.286
-519.931	68.747	-0.138	-0.142
-518.916	-127.702	0.487	0.071
-517.902	196.518	0.098	0.150
-516.887	84.993	0.059	-0.065
-515.872	-151.945	-0.365	-0.027
-514.858	69.652	-0.232	0.241
-513.843	-120.585	-0.196	-0.033
-512.829	305.334	0.043	-0.081
-511.814	-0.482	0.154	-0.110
-510.799	151.004	-0.128	0.176
-509.785	800.000	0.062	0.173
-508.770	40.570	-0.253	0.230
-507.756	-200.000	0.081	-0.595
-506.741	-182.937	-0.168	-0.003
-505.726	-130.365	-0.025	0.003
-504.712	12.264	0.116	0.090
-503.697	331.677	-0.157	0.305
-502.683	800.000	-0.092	-0.320
-501.668	107.196	0.073	-0.088
-500.653	40.760	-0.142	-0.129
-499.639	-200.000	-0.024	-0.212
-498.624	74.440	0.253	0.268
-497.610	-123.226	0.394	0.063
-496.595	57.110	-0.267	0.263
-495.581	-96.810	-0.299	0.079
-494.566	181.231	0.106	0.157
-493.551	-18.583	0.082	0.051
-492.537	800.000	0.034	0.107
-491.522	-163.646	-0.230	0.011
-490.508	166.859	-0.173	-0.247
-489.493	-200.000	0.033	-0.227
-488.478	-109.750	-0.421	-0.089
-487.464	-200.000	-0.013	0.065
-486.449	800.000	-0.041	-0.168
-485.435	5.718	0.148	-0.111
-484.420	-200.000	-0.027	-0.409
-483.405	-126.880	0.233	-0.035
-482.391	-113.671	0.235	-0.046
-481.376	514.001	-0.104	-0.244
-480.362	800.000	0.045	-0.170
-479.347	103.521	0.080	-0.094
-478.332	-101.331	-0.215	-0.053
-477.318	-80.119	0.234	-0.079
-476.303	-200.000	0.022	-0.356
-475.289	-200.000	0.004	0.401
-474.274	-200.000	0.023	-0.239
-473.259	-200.000	-0.044	-0.202
-472.245	-200.000	0.015	0.149
-471.230	87.669	-0.115	0.128
-470.216	-119.357	-0.082	0.014
-469.201	-53.578	-0.229	0.105
-468.186	59.793	0.144	-0.143
-467.172	-27.690	-0.060	-0.035
-466.157	137.718	-0.145	0.191
-465.143	-200.000	-0.024	-0.150
-464.128	800.000	-0.046	0.173
-463.113	-73.852	-0.076	-0.028
-462.099	-151.038	-0.264	0.020
-461.084	-200.000	-0.010	0.332
-460.070	184.153	-0.158	-0.235
-459.055	263.605	-0.043	-0.074
-458.040	-109.606	-0.344	-0.073
-457.026	324.279	0.031	-0.060
-456.011	800.000	0.049	0.143
-454.997	480.433	-0.088	-0.201
-453.982	-100.599	0.107	0.027
-452.968	800.000	0.062	0.192
-451.953	137.095	0.086	-0.113
-450.938	144.949	0.197	0.265
-449.924	800.000	0.056	0.169
-448.909	33.641	0.171	0.150
-447.895	800.000	0.093	0.271
-446.880	-115.960	-0.112	-0.021
-445.865	800.000	0.025	-0.097
-444.851	-114.469	-0.021	-0.004
-443.836	268.534	0.057	-0.100
-442.822	-72.923	-0.051	0.019
-441.807	457.729	-0.100	0.223
-440.792	-8.064	-0.293	-0.198
-439.778	-2.058	-0.131	0.093
-438.763	37.142	-0.237	-0.211
-437.749	48.475	-0.166	0.156
-436.734	-16.364	0.141	-0.090
-435.719	800.000	0.083	-0.239
-434.705	257.104	0.117	0.202
-433.690	-5.040	-0.227	-0.157
-432.676	-68.978	-0.267	-0.104
-431.661	428.184	0.181	-0.393
-430.646	39.273	0.164	-0.148
-429.632	-47.664	0.105	0.051
-428.617	664.940	0.071	0.185
-427.603	135.944	0.225	-0.294
-426.588	92.946	0.231	-0.263
-425.573	8.183	0.154	0.116
-424.559	-109.264	-0.156	0.033
-423.544	-200.000	-0.026	-0.284
-422.530	-122.201	0.375	-0.062
-421.515	-33.994	0.238	0.132
-420.500	-45.426	-0.157	-0.078
-419.486	-6.036	0.194	-0.133
-418.471	-56.297	-0.157	0.070
-417.457	-149.382	0.270	-0.022
-416.442	-21.671	0.200	-0.123
-415.428	660.727	-0.071	-0.183
-414.413	217.097	0.044	-0.070
-413.398	24.552	-0.266	0.221
-412.384	56.734	-0.228	0.223
-411.369	-200.000	0.016	0.244
-410.355	-82.323	-0.171	0.056
-409.340	235.239	0.043	-0.071
-408.325	411.578	0.091	0.194
-407.311	-131.313	0.062	0.008
-406.296	-200.000	0.003	0.191
-405.282	-125.136	0.510	0.078
-404.267	73.603	0.063	-0.066
-403.252	72.969	0.175	-0.184
-402.238	439.934	-0.069	0.150
-401.223	-168.151	-0.215	-0.008
-400.209	-139.861	-0.169	-0.018
-399.194	-200.000	0.027	-0.122
-398.179	-70.726	0.319	0.121
-397.165	74.358	-0.190	0.200
-396.150	216.913	-0.071	-0.114
-395.136	800.000	0.095	0.318
-394.121	119.002	-0.051	-0.063
-393.106	36.284	0.274	-0.243
-392.092	-89.622	0.427	0.126
-391.077	552.075	0.079	0.191
-390.063	239.673	-0.116	-0.194
-389.048	255.288	0.044	0.076
-388.033	734.234	0.090	0.241
-387.019	-81.617	0.308	-0.102
-386.004	-34.994	0.041	0.022
-384.990	-19.366	-0.106	0.066
-383.975	24.038	0.227	0.188
-382.960	-200.000	0.025	0.167
-381.946	240.376	-0.231	0.386
-380.931	-75.543	0.229	-0.082
-379.917	-75.111	-0.129	-0.046
-378.902	21.524	-0.181	-0.147
-377.888	-84.846	0.197	-0.062
-376.873	-28.921	-0.142	0.082
-375.858	-101.643	0.226	0.055
-374.844	-141.171	0.298	0.031
-373.829	85.136	-0.130	-0.143
-372.815	-40.486	-0.209	-0.109
-371.800	244.765	0.065	-0.109
-370.785	80.846	-0.089	-0.096
-369.771	24.526	0.217	0.180
-368.756	247.366	-0.094	0.160
-367.742	465.105	-0.062	-0.138
-366.727	-132.749	-0.215	0.028
-365.712	-37.021	0.122	0.065
-364.698	800.000	0.086	0.280
-363.683	118.712	0.093	0.115
-362.669	99.331	0.143	-0.166
-361.654	-54.716	-0.107	-0.049
-360.639	-113.479	-0.189	-0.037
-359.625	539.157	-0.070	0.168
-358.610	-173.256	-0.182	-0.006
-357.596	-49.350	-0.028	0.014
-356.581	-26.849	0.281	-0.165
-355.566	-84.609	-0.033	0.010
-354.552	18.233	-0.137	-0.109
-353.537	200.881	0.087	-0.134
-352.523	307.296	0.079	-0.148
-351.508	-81.115	-0.119	0.039
-350.493	800.000	-0.026	0.100
-349.479	-81.651	0.265	-0.087
-348.464	-67.499	-0.186	-0.073
-347.450	468.171	0.075	-0.168
-346.435	410.931	-0.075	0.160
-345.420	-200.000	0.021	0.128
-344.406	126.378	0.309	0.392
-343.391	-7.145	0.088	0.060
-342.377	800.000	0.037	0.160
-341.362	800.000	-0.026	-0.072
-340.348	221.668	0.185	0.298
-339.333	-23.057	0.358	-0.216
-338.318	-73.085	-0.058	0.021
-337.304	800.000	-0.042	0.132
-336.289	49.240	-0.180	0.169
-335.275	49.093	0.133	-0.125
-334.260	178.420	0.247	0.361
-333.245	207.840	0.056	0.087
-332.231	-133.692	-0.126	-0.016
-331.216	11.340	0.181	-0.139
-330.202	-200.000	0.024	0.126
-329.187	-102.504	-0.332	0.080
-328.172	800.000	0.090	-0.302
-327.158	-7.889	0.117	0.079
-326.143	-61.952	-0.265	-0.111
-325.129	18.380	0.218	-0.174
-324.114	800.000	0.014	-0.051
-323.099	-111.187	-0.519	-0.106
-322.085	800.000	-0.064	0.225
-321.070	-200.000	-0.044	-0.231
-320.056	-197.072	-0.010	0.000
-319.041	229.209	0.055	0.089
-318.026	-161.244	-0.293	0.015
-317.012	-106.415	0.024	0.005
-315.997	-86.504	0.302	0.093
-314.983	-200.000	0.030	-0.352
-313.968	23.659	0.260	-0.215
-312.953	-200.000	0.024	0.250
-311.939	119.625	0.167	-0.207
-310.924	2.196	0.213	0.154
-309.910	-200.000	-0.014	-0.095
-308.895	-190.521	-0.252	-0.003
-307.880	-200.000	-0.022	0.120
-306.866	441.525	-0.086	-0.188
-305.851	-26.344	-0.178	-0.104
-304.837	71.953	0.286	0.298
-303.822	-200.000	-0.005	0.292
-302.807	-20.698	-0.203	-0.125
-301.793	563.244	0.050	0.120
-300.778	264.409	-0.139	-0.241
-299.764	800.000	-0.073	-0.308
-298.749	304.309	0.150	-0.279
-297.735	-96.525	-0.397	-0.105
-296.720	124.498	0.044	0.056
-295.705	-114.443	-0.142	-0.027
-294.691	127.654	0.180	0.229
-293.676	452.303	-0.090	-0.199
-292.662	53.178	0.091	-0.087
-291.647	800.000	0.087	0.323
-290.632	447.260	-0.086	-0.190
-289.618	-17.840	-0.246	0.154
-288.603	-110.953	0.169	-0.035
-287.589	142.057	-0.036	-0.048
-286.574	-63.547	0.059	-0.024
-285.559	16.672	0.170	-0.134
-284.545	-200.000	0.010	0.424
-283.530	-135.835	0.170	-0.020
-282.516	-70.586	-0.101	0.038
-281.501	-200.000	0.005	0.091
-280.486	-51.896	0.116	0.054
-279.472	319.362	0.094	-0.179
-278.457	192.265	-0.088	-0.133
-277.443	286.302	0.101	-0.182
-276.428	-172.633	0.158	-0.005
-275.413	-36.150	0.157	0.085
-274.399	-186.149	0.505	0.007
-273.384	800.000	-0.077	-0.270
-272.370	-200.000	-0.007	-0.070
-271.355	81.585	0.072	-0.077
-270.340	-50.860	-0.067	0.031
-269.326	-59.731	0.217	-0.093
-268.311	-67.729	-0.039	0.015
-267.297	-100.174	-0.125	0.031
-266.282	-70.158	-0.230	0.087
-265.267	-48.117	0.146	-0.071
-264.253	82.626	-0.173	0.188
-263.238	-22.105	-0.348	-0.211
-262.224	518.329	0.098	-0.229
-261.209	238.178	0.193	-0.321
-260.195	560.019	0.126	-0.303
-259.180	-136.927	0.401	0.046
-258.165	800.000	-0.007	0.026
-257.151	179.085	-0.258	-0.377
-256.136	-77.483	-0.142	0.049
-255.122	236.190	0.115	0.190
-254.107	134.863	0.108	-0.140
-253.092	111.680	0.120	-0.145
-252.078	-34.125	0.092	-0.051
-251.063	800.000	-0.016	0.065
-250.049	442.301	-0.087	-0.191
-249.034	-200.000	0.007	-0.232
-248.019	95.350	0.147	0.167
-247.005	-79.617	-0.395	-0.133
-245.990	-200.000	-0.039	-0.294
-244.976	28.897	-0.209	0.177
-243.961	-71.636	0.095	0.035
-242.946	8.977	0.278	-0.210
-241.932	297.731	0.071	0.131
-240.917	-159.865	0.197	0.011
-239.903	-108.160	-0.228	-0.049
-238.888	800.000	-0.044	-0.184
-237.873	51.104	0.118	0.112
-236.859	99.550	0.179	0.206
-235.844	65.013	0.277	0.279
-234.830	28.938	0.135	-0.114
-233.815	162.116	-0.085	-0.119
-232.800	-19.285	0.168	0.104
-231.786	325.481	0.274	-0.523
-230.771	-55.336	-0.074	0.033
-229.757	800.000	0.072	0.230
-228.742	-59.164	0.216	-0.093
-227.727	-40.329	-0.346	0.180
-226.713	189.969	0.182	0.273
-225.698	50.474	-0.182	0.172
-224.684	-200.000	0.017	0.511
-223.669	800.000	0.059	0.181
-222.655	-75.738	0.281	-0.099
-221.640	113.773	-0.124	0.150
-220.625	28.955	0.064	-0.054
-219.611	800.000	-0.020	0.055
-218.596	-62.812	-0.086	-0.036
-217.582	440.565	-0.013	-0.027
-216.567	-14.853	0.166	-0.106
-215.552	-92.345	0.121	0.034
-214.538	-200.000	0.047	0.218
-213.523	386.651	0.065	0.135
-212.509	-95.546	0.166	0.044
-211.494	476.141	0.075	0.168
-210.479	75.794	-0.265	0.279
-209.465	800.000	-0.030	-0.095
-208.450	-66.176	0.132	-0.052
-207.436	16.680	-0.071	-0.056
-206.421	-160.715	-0.144	-0.008
-205.406	-51.775	-0.139	0.065
-204.392	-123.999	-0.389	0.061
-203.377	105.163	0.312	0.367
-202.363	800.000	-0.063	-0.194
-201.348	205.841	0.037	-0.057
-200.333	-71.460	-0.067	0.025
-199.319	-142.285	-0.153	-0.015
-198.304	-24.154	0.197	0.117
-197.290	-77.385	0.452	-0.156
-196.275	-200.000	0.022	-0.618
-195.260	1.234	0.138	0.098
-194.246	800.000	0.075	0.212
-193.231	-19.154	-0.110	-0.068
-192.217	-51.918	-0.279	0.129
-191.202	-23.402	0.071	0.042
-190.187	-200.000	-0.012	0.401
-189.173	-110.798	-0.183	0.038
-188.158	161.934	0.049	0.068
-187.144	20.772	0.109	0.088
-186.129	41.960	0.232	-0.210
-185.114	571.145	-0.067	-0.163
-184.100	-33.918	0.308	0.169
-183.085	-200.000	-0.006	0.031
-182.071	232.087	-0.073	0.119
-181.056	-94.546	0.131	-0.035
-180.042	-99.067	-0.107	-0.027
-179.027	215.247	-0.056	-0.089
-178.012	800.000	-0.029	-0.091
-176.998	275.230	-0.112	0.197
-175.983	-6.913	0.177	-0.119
-174.969	800.000	0.061	-0.176
-173.954	44.961	-0.087	-0.080
-172.939	-200.000	-0.004	0.097
-171.925	-190.383	-0.334	-0.004
-170.910	42.884	-0.118	0.107
-169.896	120.872	-0.308	0.381
-168.881	78.001	0.195	0.207
-167.866	-200.000	0.047	0.247
-166.852	111.966	0.339	-0.408
-165.837	800.000	-0.149	0.412
-164.823	11.187	-0.280	0.213
-163.808	-45.070	0.136	0.067
-162.793	-27.507	0.142	-0.082
-161.779	-86.006	0.275	0.085
-160.764	800.000	0.067	-0.199
-159.750	-11.586	-0.105	-0.069
-158.735	-200.000	0.019	0.109
-157.720	116.153	0.020	-0.024
-156.706	748.853	-0.041	-0.111
-155.691	-200.000	-0.086	0.402
-154.677	409.633	0.083	0.176
-153.662	679.717	0.012	-0.031
-152.647	-200.000	-0.020	-0.403
-151.633	-200.000	-0.030	-0.173
-150.618	-116.518	0.267	-0.049
-149.604	216.504	0.052	-0.083
-148.589	-88.036	0.124	-0.037
-147.574	31.369	0.164	0.140
-146.560	-64.952	-0.219	0.088
-145.545	196.048	-0.120	-0.181
-144.531	60.888	0.138	-0.136
-143.516	64.285	-0.174	-0.175
-142.502	49.903	0.292	-0.273
-141.487	-71.071	0.434	0.162
-140.472	316.418	-0.179	-0.337
-139.458	-56.464	-0.378	-0.167
-138.443	-133.605	0.314	0.039
-137.429	-124.480	0.377	-0.058
-136.414	-156.818	0.310	0.019
-135.399	185.002	0.136	-0.201
-134.385	-142.237	0.212	-0.021
-133.370	40.641	0.214	0.192
-132.356	-137.561	-0.283	0.032
-131.341	-137.467	0.196	0.022
-130.326	312.727	0.078	0.145
-129.312	-13.572	-0.175	-0.112
-128.297	448.251	0.134	-0.293
-127.283	-200.000	0.011	-0.261
-126.268	-97.332	0.304	0.079
-125.253	-115.566	-0.294	0.055
-124.239	19.417	0.215	0.172
-123.224	800.000	-0.073	-0.222
-122.210	455.212	0.072	-0.158
-121.195	54.889	0.190	0.183
-120.180	-61.542	0.165	-0.069
