DTS Sentinel unit serial number:	SN413079Multiplexer serial number:	ORYXHardware model number:	OX4-SRSoftware version number:	ORYX F/W v4.00 Oryx Data Collector v3.7.2.0data status	okinstallation	princeton_trtdifferential loss correction	single-endedforward channel	channel 1reverse channel	N/Adate	2019/09/13time	14:50:35forward acquisition time	60.00reverse acquisition time	0.00gamma	496.2192k internal	0.2299k external	0.2299temperature offset calibration	1.0160default loss term (dB/km)	0.3790temperature slope calibration	1.0000multiplexer offset coefficient	1.0000multiplexer slope coefficient	1.0000fibre end	0.00T internal ref (°C)	35.56T ext. ref 1 (°C)	4.68T ext. ref 2 (°C)	32.15length (m)	temperature (°C)	Stokes	anti-Stokes-747.200	-143.188	0.006	-0.001
-746.185	265.246	-0.108	0.192
-745.171	522.124	0.083	0.199
-744.156	-200.000	0.016	0.074
-743.142	-134.290	-0.217	0.027
-742.127	201.740	-0.077	-0.121
-741.112	61.535	-0.116	0.117
-740.098	230.866	0.209	0.350
-739.083	-200.000	-0.023	-0.192
-738.069	-200.000	-0.027	-0.298
-737.054	25.361	-0.158	0.134
-736.039	-76.622	0.149	0.053
-735.025	178.461	0.275	0.410
-734.010	43.860	0.344	-0.321
-732.996	-101.335	-0.348	0.087
-731.981	273.840	0.108	-0.196
-730.966	32.925	0.200	0.177
-729.952	114.637	-0.096	-0.119
-728.937	205.276	-0.146	-0.231
-727.923	262.503	-0.120	0.212
-726.908	-171.086	0.433	-0.015
-725.894	31.379	-0.048	-0.042
-724.879	800.000	0.036	-0.148
-723.864	541.716	0.065	0.158
-722.850	-122.377	-0.280	-0.047
-721.835	126.846	0.064	0.083
-720.821	124.168	-0.220	-0.282
-719.806	-64.104	-0.365	0.152
-718.791	-53.529	0.128	0.060
-717.777	38.762	0.146	0.133
-716.762	659.365	-0.108	-0.284
-715.748	-118.450	0.103	0.019
-714.733	55.187	0.109	-0.107
-713.718	-62.090	0.463	0.197
-712.704	800.000	0.062	0.208
-711.689	-177.686	-0.364	-0.009
-710.675	26.228	0.285	0.242
-709.660	572.081	0.098	0.243
-708.645	52.505	0.097	-0.095
-707.631	-46.920	-0.116	0.058
-706.616	251.520	0.015	-0.026
-705.602	107.428	-0.182	-0.221
-704.587	-157.866	0.077	0.005
-703.572	-32.842	-0.158	0.089
-702.558	-185.020	0.187	0.003
-701.543	-2.767	0.188	0.134
-700.529	7.513	0.324	0.247
-699.514	-134.576	-0.285	-0.035
-698.499	-181.445	-0.225	0.004
-697.485	-104.043	0.312	-0.074
-696.470	-109.113	0.129	-0.028
-695.456	-67.224	0.113	-0.045
-694.441	-18.274	0.391	0.249
-693.426	135.490	-0.167	0.221
-692.412	91.439	-0.111	-0.126
-691.397	119.884	-0.169	-0.213
-690.383	-123.688	-0.221	-0.036
-689.368	42.251	-0.095	-0.088
-688.354	32.855	0.158	-0.139
-687.339	800.000	-0.065	0.268
-686.324	-200.000	0.010	-0.316
-685.310	-106.747	-0.285	0.064
-684.295	-7.024	-0.345	0.239
-683.281	140.371	-0.182	-0.244
-682.266	-200.000	0.023	0.112
-681.251	144.728	0.055	0.075
-680.237	-200.000	0.061	-0.366
-679.222	800.000	-0.035	0.151
-678.208	-145.035	0.097	-0.009
-677.193	112.286	-0.030	0.037
-676.178	-181.606	-0.152	0.003
-675.164	-49.831	-0.144	-0.070
-674.149	-200.000	-0.056	-0.447
-673.135	293.963	0.091	0.168
-672.120	-200.000	-0.006	-0.097
-671.105	-200.000	-0.022	0.223
-670.091	41.610	0.351	0.323
-669.076	83.774	0.110	0.122
-668.062	-200.000	-0.062	-0.335
-667.047	-166.904	-0.314	-0.013
-666.032	-139.647	-0.585	-0.063
-665.018	742.929	0.058	0.158
-664.003	2.663	0.120	-0.088
-662.989	24.210	-0.131	-0.110
-661.974	-200.000	-0.003	0.067
-660.959	-200.000	-0.043	0.203
-659.945	495.540	0.093	0.218
-658.930	378.273	-0.129	-0.269
-657.916	-200.000	0.032	0.150
-656.901	373.531	-0.039	0.081
-655.886	-139.695	-0.300	-0.032
-654.872	800.000	-0.076	-0.221
-653.857	-200.000	0.003	-0.392
-652.843	-86.204	-0.128	0.040
-651.828	-12.241	0.118	-0.079
-650.814	-200.000	0.005	0.050
-649.799	-60.510	-0.314	-0.135
-648.784	-175.822	-0.292	-0.008
-647.770	-171.178	0.187	0.006
-646.755	-102.093	-0.104	-0.025
-645.741	-122.641	0.412	0.068
-644.726	-109.972	-0.348	0.074
-643.711	-200.000	0.026	-0.157
-642.697	800.000	0.083	-0.316
-641.682	154.222	-0.129	-0.180
-640.668	-89.666	-0.065	-0.020
-639.653	-126.117	-0.227	-0.035
-638.638	269.499	0.105	0.187
-637.624	-69.612	0.131	0.051
-636.609	220.391	0.142	-0.232
-635.595	-79.328	-0.189	0.065
-634.580	-145.509	0.129	-0.012
-633.565	-200.000	0.016	0.283
-632.551	-200.000	-0.057	0.444
-631.536	-200.000	0.043	-0.320
-630.522	2.688	-0.115	0.085
-629.507	-23.156	0.088	0.054
-628.492	288.381	0.217	0.400
-627.478	-61.133	0.139	-0.060
-626.463	800.000	0.040	0.168
-625.449	-174.610	-0.209	-0.006
-624.434	-56.560	0.287	0.129
-623.419	-200.000	0.040	-0.193
-622.405	457.771	-0.061	0.137
-621.390	286.328	0.090	-0.165
-620.376	-181.890	0.157	-0.003
-619.361	-173.309	-0.263	-0.008
-618.346	-22.112	-0.279	0.172
-617.332	-171.183	0.053	0.002
-616.317	102.656	-0.090	0.107
-615.303	205.408	-0.161	-0.254
-614.288	179.376	-0.072	-0.107
-613.273	146.456	-0.101	-0.138
-612.259	418.489	-0.128	-0.278
-611.244	-91.280	-0.085	0.025
-610.230	-200.000	0.034	-0.208
-609.215	198.563	-0.122	-0.190
-608.201	800.000	0.063	-0.270
-607.186	-200.000	0.033	-0.238
-606.171	15.358	0.121	0.096
-605.157	-200.000	-0.044	-0.244
-604.142	737.798	-0.136	-0.369
-603.128	54.206	-0.163	-0.159
-602.113	221.796	-0.149	-0.243
-601.098	247.705	0.036	-0.061
-600.084	800.000	0.030	-0.120
-599.069	9.751	-0.388	-0.298
-598.055	150.703	0.069	0.095
-597.040	2.294	0.079	0.058
-596.025	-200.000	-0.046	0.464
-595.011	-163.512	0.241	0.012
-593.996	241.810	-0.151	-0.257
-592.982	65.392	0.100	0.102
-591.967	90.685	0.061	-0.069
-590.952	-49.790	-0.157	0.075
-589.938	-64.438	-0.131	0.054
-588.923	800.000	-0.115	0.370
-587.909	294.427	-0.121	-0.224
-586.894	-149.499	-0.256	-0.021
-585.879	-98.624	-0.247	-0.064
-584.865	157.360	0.047	-0.066
-583.850	-116.419	-0.094	-0.018
-582.836	173.496	-0.176	0.257
-581.821	76.592	-0.160	-0.172
-580.806	-200.000	-0.016	0.121
-579.792	-102.224	-0.235	0.057
-578.777	-200.000	-0.022	0.218
-577.763	-56.264	0.368	-0.166
-576.748	153.171	-0.049	-0.068
-575.733	413.010	-0.061	0.132
-574.719	-200.000	-0.022	0.151
-573.704	-200.000	0.009	-0.162
-572.690	-69.859	-0.146	0.056
-571.675	84.760	-0.227	-0.252
-570.661	-134.425	-0.431	-0.054
-569.646	800.000	-0.037	0.110
-568.631	655.292	-0.102	-0.265
-567.617	39.455	0.155	-0.141
-566.602	-78.817	0.385	-0.133
-565.588	-4.773	-0.053	0.037
-564.573	-15.481	-0.095	0.061
-563.558	-200.000	0.014	-0.138
-562.544	-135.164	-0.350	0.043
-561.529	42.588	0.046	0.043
-560.515	-200.000	-0.040	0.341
-559.500	-129.377	-0.129	-0.018
-558.485	-200.000	-0.051	0.275
-557.471	-30.415	0.119	0.069
-556.456	-200.000	-0.048	-0.220
-555.442	-47.418	0.090	-0.044
-554.427	-200.000	0.013	-0.474
-553.412	800.000	0.036	0.119
-552.398	-138.296	0.334	-0.037
-551.383	475.981	0.052	-0.119
-550.369	-74.540	-0.042	-0.015
-549.354	-200.000	-0.026	0.274
-548.339	137.544	0.092	0.121
-547.325	-117.922	0.060	-0.011
-546.310	-200.000	-0.001	-0.126
-545.296	-58.350	-0.079	-0.035
-544.281	-20.246	-0.192	-0.119
-543.266	87.522	-0.222	0.248
-542.252	-200.000	0.013	-0.249
-541.237	-200.000	-0.002	0.477
-540.223	-156.473	-0.189	0.012
-539.208	-200.000	0.036	0.260
-538.193	166.345	-0.071	0.102
-537.179	-163.489	-0.072	-0.003
-536.164	20.865	-0.066	0.054
-535.150	32.180	0.204	0.178
-534.135	-104.056	0.293	0.069
-533.121	5.509	0.105	-0.078
-532.106	-93.817	-0.174	0.048
-531.091	-84.970	-0.344	0.109
-530.077	121.885	0.069	-0.087
-529.062	93.202	0.163	0.187
-528.048	-200.000	0.068	0.342
-527.033	-113.167	0.249	0.050
-526.018	-93.328	-0.113	0.032
-525.004	-60.053	-0.218	-0.094
-523.989	34.025	0.188	0.166
-522.975	-200.000	0.055	-0.429
-521.960	-81.649	0.132	-0.044
-520.945	91.459	0.080	0.091
-519.931	355.263	-0.027	0.055
-518.916	-50.487	0.134	-0.064
-517.902	30.097	-0.073	0.063
-516.887	-48.429	-0.270	0.132
-515.872	-100.636	0.186	0.046
-514.858	-41.726	-0.208	-0.108
-513.843	-147.602	0.299	0.025
-512.829	488.057	-0.117	-0.271
-511.814	-200.000	-0.061	0.278
-510.799	-59.358	-0.352	0.153
-509.785	-158.270	0.181	-0.011
-508.770	-98.279	0.292	0.076
-507.756	-30.287	0.140	0.080
-506.741	-200.000	0.007	0.237
-505.726	-32.314	0.324	0.183
-504.712	800.000	-0.034	-0.128
-503.697	-200.000	-0.058	0.292
-502.683	-91.090	-0.071	-0.021
-501.668	218.789	0.112	-0.181
-500.653	64.894	0.244	-0.249
-499.639	131.239	0.087	-0.113
-498.624	-59.821	-0.260	0.112
-497.610	96.036	-0.091	-0.106
-496.595	8.208	-0.235	0.179
-495.581	-78.959	0.239	0.082
-494.566	109.021	0.078	0.094
-493.551	88.892	-0.169	-0.190
-492.537	800.000	0.069	0.243
-491.522	87.078	-0.159	-0.178
-490.508	209.364	0.158	0.250
-489.493	356.755	0.132	0.265
-488.478	-138.032	-0.166	-0.019
-487.464	-43.432	0.262	0.134
-486.449	44.673	0.266	0.247
-485.435	277.833	0.098	-0.177
-484.420	310.057	-0.159	-0.301
-483.405	7.101	0.136	-0.102
-482.391	228.561	0.117	0.192
-481.376	428.137	-0.060	0.131
-480.362	-200.000	-0.022	0.257
-479.347	-135.390	0.141	0.017
-478.332	237.952	-0.030	0.051
-477.318	-25.815	-0.027	-0.016
-476.303	-9.246	0.123	-0.083
-475.289	-126.342	-0.223	-0.034
-474.274	800.000	0.171	-0.529
-473.259	-100.142	-0.210	0.053
-472.245	-54.334	-0.053	0.024
-471.230	753.169	-0.044	0.121
-470.216	93.357	0.054	-0.062
-469.201	487.214	-0.082	0.189
-468.186	800.000	-0.011	-0.040
-467.172	-200.000	0.065	-0.380
-466.157	-200.000	-0.004	0.237
-465.143	213.940	-0.151	-0.241
-464.128	-108.888	0.157	-0.034
-463.113	92.866	-0.075	0.086
-462.099	170.642	0.102	0.147
-461.084	75.591	-0.127	-0.135
-460.070	-200.000	-0.007	0.246
-459.055	-29.090	-0.022	0.013
-458.040	-21.762	-0.250	-0.154
-457.026	-39.357	0.207	0.109
-456.011	-97.467	0.391	-0.102
-454.997	-102.420	0.025	0.006
-453.982	362.966	0.050	-0.100
-452.968	-24.761	-0.028	0.017
-451.953	608.727	0.081	0.204
-450.938	25.568	0.128	-0.108
-449.924	-200.000	0.012	0.168
-448.909	-108.894	0.365	0.079
-447.895	-200.000	-0.000	-0.068
-446.880	71.382	0.218	0.228
-445.865	-200.000	-0.031	-0.200
-444.851	-110.744	-0.165	-0.034
-443.836	-100.860	-0.227	0.056
-442.822	-200.000	-0.011	-0.110
-441.807	800.000	0.072	-0.296
-440.792	800.000	0.114	-0.354
-439.778	784.531	-0.113	0.311
-438.763	0.442	-0.240	0.173
-437.749	198.937	0.108	-0.167
-436.734	-200.000	0.033	-0.159
-435.719	184.570	0.206	0.308
-434.705	81.881	-0.162	-0.177
-433.690	-124.053	0.059	0.009
-432.676	-132.035	-0.343	-0.045
-431.661	130.107	-0.179	-0.231
-430.646	-52.020	-0.157	-0.073
-429.632	-200.000	0.035	-0.165
-428.617	387.289	0.039	-0.081
-427.603	143.223	0.103	0.138
-426.588	-200.000	0.063	-0.374
-425.573	-122.231	0.232	-0.038
-424.559	-62.127	0.332	0.139
-423.544	660.879	-0.005	0.012
-422.530	-200.000	-0.032	0.315
-421.515	16.825	0.204	0.163
-420.500	-49.165	0.155	0.075
-419.486	-200.000	-0.017	-0.107
-418.471	-200.000	-0.009	0.158
-417.457	800.000	-0.081	0.244
-416.442	-200.000	-0.006	-0.167
-415.428	-141.920	-0.203	-0.020
-414.413	-197.355	0.112	-0.001
-413.398	-200.000	-0.055	-0.259
-412.384	-200.000	0.043	-0.227
-411.369	-59.306	0.200	-0.087
-410.355	-57.005	-0.187	0.083
-409.340	462.247	0.038	-0.086
-408.325	800.000	0.028	0.119
-407.311	-200.000	0.003	-0.321
-406.296	-150.295	-0.090	0.007
-405.282	-200.000	-0.053	-0.310
-404.267	-100.495	-0.192	-0.048
-403.252	-182.013	-0.067	0.001
-402.238	-29.721	-0.186	0.107
-401.223	-200.000	0.047	-0.232
-400.209	165.227	0.115	0.163
-399.194	192.311	0.138	0.210
-398.179	287.035	0.073	-0.133
-397.165	-102.331	0.222	0.054
-396.150	256.545	-0.139	0.241
-395.136	-55.368	0.120	0.054
-394.121	-34.593	-0.203	-0.112
-393.106	298.206	-0.197	-0.364
-392.092	-101.093	-0.090	-0.022
-391.077	-200.000	-0.009	-0.069
-390.063	-19.696	-0.125	0.078
-389.048	689.285	-0.053	-0.141
-388.033	-7.215	0.118	0.081
-387.019	-5.255	-0.152	-0.105
-386.004	800.000	-0.043	-0.142
-384.990	-61.130	-0.523	0.222
-383.975	800.000	-0.035	-0.109
-382.960	51.718	0.019	-0.018
-381.946	-78.042	0.282	0.098
-380.931	51.313	0.094	0.089
-379.917	-48.500	-0.267	0.129
-378.902	-25.957	0.154	0.091
-377.888	-200.000	0.019	0.097
-376.873	800.000	-0.013	-0.050
-375.858	-124.214	-0.232	0.037
-374.844	-200.000	0.017	0.096
-373.829	3.897	0.116	0.085
-372.815	-68.146	0.199	0.078
-371.800	-116.109	-0.129	0.024
-370.785	-70.955	-0.165	0.063
-369.771	-17.350	-0.074	-0.047
-368.756	193.460	-0.131	0.199
-367.742	37.316	0.051	0.045
-366.727	9.328	-0.231	0.176
-365.712	-76.346	0.271	0.096
-364.698	-200.000	0.020	-0.235
-363.683	136.566	0.189	-0.248
-362.669	-92.621	-0.157	0.044
-361.654	72.540	-0.139	-0.146
-360.639	-102.826	0.170	0.041
-359.625	800.000	-0.107	-0.306
-358.610	800.000	0.038	0.112
-357.596	-33.226	0.171	0.095
-356.581	0.640	-0.205	0.148
-355.566	-200.000	0.012	-0.067
-354.552	-200.000	0.002	-0.185
-353.537	-22.618	-0.045	-0.027
-352.523	54.886	-0.282	0.273
-351.508	28.558	0.199	-0.169
-350.493	270.708	0.108	0.190
-349.479	-57.356	-0.324	0.143
-348.464	609.371	-0.018	0.044
-347.450	252.340	0.042	0.072
-346.435	-110.711	0.067	0.014
-345.420	-200.000	-0.026	-0.173
-344.406	-200.000	0.026	0.328
-343.391	-200.000	0.057	0.317
-342.377	368.191	-0.108	-0.219
-341.362	7.564	0.033	0.025
-340.348	131.501	-0.010	-0.013
-339.333	410.349	-0.181	0.386
-338.318	493.680	0.109	0.251
-337.304	-141.709	-0.216	-0.022
-336.289	-41.747	-0.229	-0.118
-335.275	322.489	0.143	0.273
-334.260	-98.613	0.290	0.074
-333.245	800.000	0.100	0.408
-332.231	-13.458	-0.170	0.111
-331.216	-55.981	0.289	0.129
-330.202	164.793	0.168	-0.238
-329.187	-63.281	0.131	0.054
-328.172	-107.318	-0.211	-0.047
-327.158	-200.000	-0.008	0.124
-326.143	92.006	-0.272	0.307
-325.129	-18.757	0.194	-0.121
-324.114	-56.732	0.134	0.059
-323.099	365.244	-0.111	0.225
-322.085	-148.142	0.584	0.048
-321.070	235.788	0.110	-0.182
-320.056	-166.674	0.102	0.004
-319.041	-113.688	-0.263	0.052
-318.026	-42.743	0.346	0.176
-317.012	800.000	0.025	0.071
-315.997	361.075	-0.057	0.115
-314.983	-103.753	0.061	0.014
-313.968	-19.148	-0.450	-0.280
-312.953	-200.000	0.001	-0.178
-311.939	-37.594	-0.445	0.238
-310.924	-200.000	-0.030	-0.214
-309.910	594.455	0.092	-0.228
-308.895	-145.413	0.192	-0.017
-307.880	800.000	-0.081	0.227
-306.866	220.465	-0.025	0.041
-305.851	27.313	0.267	-0.225
-304.837	-68.285	-0.284	0.111
-303.822	-200.000	0.012	0.165
-302.807	122.412	-0.099	0.125
-301.793	800.000	0.085	-0.288
-300.778	2.392	-0.298	-0.216
-299.764	-200.000	0.060	-0.284
-298.749	-123.185	0.163	-0.026
-297.735	-145.014	0.324	0.030
-296.720	262.575	0.047	-0.082
-295.705	-200.000	-0.002	-0.447
-294.691	738.546	-0.060	0.163
-293.676	-37.735	0.495	-0.264
-292.662	614.118	0.038	0.096
-291.647	800.000	0.057	-0.223
-290.632	111.042	0.159	0.192
-289.618	293.514	-0.087	-0.159
-288.603	-75.706	-0.051	0.018
-287.589	-24.826	0.145	-0.086
-286.574	-200.000	0.149	-0.000
-285.559	-27.319	0.268	-0.156
-284.545	362.256	0.042	0.084
-283.530	279.445	-0.050	-0.089
-282.516	-200.000	-0.016	-0.154
-281.501	598.341	-0.162	-0.402
-280.486	-73.229	0.234	-0.086
-279.472	-200.000	0.023	0.196
-278.457	800.000	0.043	0.164
-277.443	800.000	-0.067	-0.271
-276.428	-29.109	0.029	0.017
-275.413	322.386	0.104	0.198
-274.399	-142.766	-0.255	-0.025
-273.384	800.000	-0.029	0.096
-272.370	254.018	-0.169	0.289
-271.355	-156.434	-0.234	0.015
-270.340	29.009	-0.168	0.143
-269.326	-79.962	-0.213	-0.072
-268.311	-134.601	-0.220	0.027
-267.297	-200.000	0.022	-0.118
-266.282	-200.000	-0.097	0.000
-265.267	236.579	-0.219	0.362
-264.253	7.335	0.112	0.083
-263.238	2.121	0.153	0.110
-262.224	-200.000	-0.049	-0.277
-261.209	324.531	0.091	-0.173
-260.195	170.824	0.041	-0.059
-259.180	389.186	-0.020	-0.042
-258.165	118.332	-0.148	0.183
-257.151	-178.128	-0.354	-0.008
-256.136	-200.000	-0.014	-0.537
-255.122	-107.831	-0.290	-0.063
-254.107	800.000	-0.112	0.369
-253.092	-25.334	-0.230	-0.136
-252.078	-117.521	0.447	0.081
-251.063	353.725	0.073	-0.145
-250.049	89.529	-0.136	0.152
-249.034	-69.029	0.156	0.060
-248.019	-57.504	0.227	0.100
-247.005	800.000	0.107	0.382
-245.990	80.773	-0.173	-0.187
-244.976	211.643	-0.073	-0.115
-243.961	-14.002	-0.175	0.113
-242.946	-88.576	-0.172	0.051
-241.932	-40.823	-0.149	-0.077
-240.917	-112.201	0.132	0.027
-239.903	336.275	-0.102	0.198
-238.888	19.830	0.130	-0.105
-237.873	-40.804	-0.144	0.075
-236.859	800.000	0.053	-0.221
-235.844	-54.882	0.438	0.197
-234.830	800.000	0.066	-0.232
-233.815	-85.307	0.159	0.050
-232.800	800.000	0.102	0.388
-231.786	800.000	-0.062	0.211
-230.771	800.000	-0.011	-0.046
-229.757	-30.671	-0.264	-0.149
-228.742	-69.380	-0.332	-0.127
-227.727	75.477	0.412	-0.434
-226.713	-49.215	-0.168	0.080
-225.698	-200.000	0.010	0.331
-224.684	-0.521	-0.212	-0.151
-223.669	-200.000	0.024	-0.408
-222.655	-133.547	-0.164	-0.021
-221.640	-15.978	0.232	-0.147
-220.625	-77.534	0.114	-0.039
-219.611	42.040	0.205	-0.186
-218.596	411.398	0.197	-0.419
-217.582	-52.212	0.320	-0.148
-216.567	32.265	-0.041	0.035
-215.552	226.175	-0.088	0.143
-214.538	298.998	0.046	0.085
-213.523	-52.716	-0.027	0.012
-212.509	800.000	-0.064	0.240
-211.494	-200.000	-0.014	-0.169
-210.479	85.344	0.200	-0.219
-209.465	-131.737	0.332	0.044
-208.450	-6.979	-0.156	-0.106
-207.436	302.929	0.063	-0.116
-206.421	-63.146	0.101	-0.042
-205.406	43.639	-0.160	-0.146
-204.392	375.767	-0.138	0.281
-203.377	472.902	0.140	0.314
-202.363	-200.000	0.002	-0.051
-201.348	44.586	0.215	0.197
-200.333	140.956	0.058	-0.077
-199.319	154.390	-0.157	0.216
-198.304	-17.238	-0.124	-0.078
-197.290	-82.325	-0.353	0.115
-196.275	58.148	0.330	-0.323
-195.260	-99.644	-0.253	0.063
-194.246	-93.986	0.216	0.059
-193.231	-25.648	0.266	0.157
-192.217	-112.069	0.044	-0.009
-191.202	25.287	-0.076	0.063
-190.187	-200.000	0.016	0.279
-189.173	-200.000	0.010	-0.254
-188.158	-200.000	0.010	0.083
-187.144	-124.444	-0.261	-0.041
-186.129	-159.388	-0.140	-0.008
-185.114	4.237	0.194	-0.142
-184.100	-70.395	-0.443	-0.168
-183.085	-42.826	0.091	0.046
-182.071	191.810	0.027	0.040
-181.056	-3.309	0.168	-0.116
-180.042	800.000	-0.017	0.049
-179.027	-98.319	-0.315	-0.081
-178.012	241.346	0.181	0.302
-176.998	-182.698	0.174	0.003
-175.983	800.000	-0.138	0.444
-174.969	-92.891	0.310	0.086
-173.954	52.209	-0.186	-0.177
-172.939	258.276	0.096	-0.164
-171.925	-112.431	0.439	0.088
-170.910	-12.411	0.243	0.158
-169.896	-90.336	0.379	0.110
-168.881	613.479	-0.070	-0.176
-167.866	-12.595	0.095	0.062
-166.852	240.566	-0.163	-0.271
-165.837	-172.512	0.218	-0.007
-164.823	-181.321	0.258	0.005
-163.808	-200.000	0.040	0.202
-162.793	-14.021	-0.033	0.022
-161.779	316.639	0.058	0.109
-160.764	800.000	-0.075	-0.223
-159.750	-79.997	0.254	-0.085
-158.735	104.911	0.111	0.131
-157.720	237.810	0.176	-0.292
-156.706	42.281	-0.035	0.032
-155.691	370.023	-0.127	0.256
-154.677	3.987	0.291	-0.212
-153.662	65.748	-0.076	0.077
-152.647	-105.195	-0.164	0.037
-151.633	-175.178	0.202	-0.006
-150.618	453.204	0.063	0.138
-149.604	-54.989	0.218	-0.098
-148.589	580.884	0.100	0.244
-147.574	-107.296	-0.186	0.041
-146.560	446.911	-0.059	-0.130
-145.545	-124.429	0.236	-0.037
-144.531	-200.000	-0.021	0.095
-143.516	-200.000	0.068	0.495
-142.502	189.004	0.061	0.091
-141.487	-51.162	-0.107	-0.050
-140.472	-200.000	-0.001	-0.176
-139.458	41.669	0.072	0.065
-138.443	-192.167	0.315	0.003
-137.429	800.000	-0.025	0.086
-136.414	-144.836	-0.295	-0.027
-135.399	42.620	0.112	-0.102
-134.385	-79.473	0.097	-0.033
-133.370	53.228	-0.243	0.232
-132.356	20.181	0.161	-0.130
-131.341	-66.719	0.124	0.049
-130.326	190.589	-0.109	0.163
-129.312	-105.978	-0.027	0.006
-128.297	-200.000	-0.064	-0.410
-127.283	-128.206	0.317	-0.045
-126.268	244.495	0.215	-0.360
-125.253	-200.000	0.000	-0.143
-124.239	-200.000	-0.006	0.034
-123.224	800.000	-0.134	0.378
-122.210	-17.915	-0.116	-0.072
-121.195	800.000	0.124	-0.447
