DTS Sentinel unit serial number:	SN413079Multiplexer serial number:	ORYXHardware model number:	OX4-SRSoftware version number:	ORYX F/W v4.00 Oryx Data Collector v3.7.2.0data status	okinstallation	princeton_trtdifferential loss correction	single-endedforward channel	channel 1reverse channel	N/Adate	2019/09/19time	06:34:35forward acquisition time	60.00reverse acquisition time	0.00gamma	496.2192k internal	0.2343k external	0.2343temperature offset calibration	1.0018default loss term (dB/km)	0.3790temperature slope calibration	1.0000multiplexer offset coefficient	1.0000multiplexer slope coefficient	1.0000fibre end	0.00T internal ref (°C)	19.02T ext. ref 1 (°C)	0.56T ext. ref 2 (°C)	12.81length (m)	temperature (°C)	Stokes	anti-Stokes-747.200	-130.790	0.265	-0.036
-746.185	-200.000	-0.054	0.268
-745.171	-200.000	0.043	0.379
-744.156	-6.347	-0.137	0.093
-743.142	-26.943	0.383	0.224
-742.127	132.587	0.168	0.216
-741.112	-200.000	0.109	0.489
-740.098	-172.207	-0.198	-0.006
-739.083	-97.077	0.206	-0.054
-738.069	-70.075	-0.191	0.073
-737.054	-116.268	0.115	-0.021
-736.039	-43.799	-0.317	-0.160
-735.025	-48.254	0.182	0.088
-734.010	800.000	0.083	-0.237
-732.996	-10.511	0.094	-0.063
-731.981	290.978	-0.048	0.087
-730.966	-200.000	-0.018	-0.161
-729.952	-122.332	-0.346	0.056
-728.937	800.000	-0.027	0.094
-727.923	800.000	-0.078	-0.233
-726.908	264.230	0.171	-0.298
-725.894	-200.000	0.044	-0.356
-724.879	282.804	0.145	-0.260
-723.864	257.132	0.108	-0.185
-722.850	-42.150	0.054	-0.027
-721.835	-200.000	-0.014	0.163
-720.821	-13.366	-0.045	0.029
-719.806	616.878	0.168	-0.422
-718.791	-33.219	0.135	-0.075
-717.777	8.228	0.115	0.086
-716.762	-200.000	-0.031	-0.330
-715.748	-57.378	0.178	0.078
-714.733	800.000	0.040	-0.141
-713.718	-81.763	0.261	-0.086
-712.704	-40.702	-0.104	0.054
-711.689	23.277	-0.074	0.060
-710.675	37.591	0.188	-0.167
-709.660	-131.625	0.277	0.036
-708.645	-163.721	-0.176	-0.008
-707.631	-200.000	-0.017	-0.178
-706.616	11.149	0.152	0.116
-705.602	-200.000	0.082	-0.569
-704.587	267.689	-0.124	-0.217
-703.572	623.876	0.151	0.380
-702.558	19.406	0.113	0.091
-701.543	-200.000	-0.010	-0.116
-700.529	-200.000	0.010	0.225
-699.514	-50.302	0.150	-0.071
-698.499	-31.521	0.394	-0.221
-697.485	-200.000	-0.026	-0.221
-696.470	-168.572	0.335	-0.013
-695.456	64.079	-0.090	-0.091
-694.441	-200.000	-0.029	0.225
-693.426	398.169	0.103	0.216
-692.412	32.588	0.044	-0.038
-691.397	241.064	0.084	-0.140
-690.383	126.119	-0.157	-0.199
-689.368	83.150	0.123	-0.134
-688.354	-45.617	0.289	-0.143
-687.339	-44.241	-0.212	0.106
-686.324	-148.821	0.183	-0.015
-685.310	1.483	0.155	-0.111
-684.295	497.726	0.043	0.100
-683.281	391.788	0.018	-0.037
-682.266	795.816	-0.026	0.071
-681.251	800.000	-0.108	0.311
-680.237	53.979	0.233	-0.224
-679.222	-69.226	-0.197	0.076
-678.208	262.521	0.088	0.153
-677.193	116.570	0.148	-0.181
-676.178	186.995	-0.220	-0.327
-675.164	-62.141	0.224	-0.093
-674.149	-15.750	0.135	-0.086
-673.135	250.375	0.058	0.099
-672.120	219.361	-0.074	-0.118
-671.105	800.000	-0.068	-0.208
-670.091	-63.907	0.255	-0.104
-669.076	73.244	-0.015	0.016
-668.062	74.793	-0.062	-0.065
-667.047	-197.692	0.240	-0.001
-666.032	57.734	0.160	-0.156
-665.018	155.754	0.058	-0.079
-664.003	623.868	0.018	0.046
-662.989	-200.000	0.007	0.061
-661.974	-30.747	0.094	0.053
-660.959	-39.065	-0.256	-0.134
-659.945	-171.182	-0.204	0.007
-658.930	41.195	0.125	-0.113
-657.916	103.722	0.116	0.135
-656.901	-170.716	-0.277	0.010
-655.886	-67.722	0.387	-0.151
-654.872	800.000	0.083	0.250
-653.857	147.340	0.131	-0.176
-652.843	112.386	-0.200	-0.242
-651.828	412.628	0.102	0.216
-650.814	-136.021	0.202	-0.024
-649.799	-114.456	0.269	-0.052
-648.784	-116.839	-0.116	-0.021
-647.770	10.970	0.081	0.062
-646.755	-200.000	-0.018	0.094
-645.741	660.644	0.073	-0.189
-644.726	-4.637	0.069	-0.048
-643.711	23.326	-0.005	0.004
-642.697	253.520	-0.070	-0.119
-641.682	144.173	0.107	0.142
-640.668	-200.000	-0.056	0.267
-639.653	41.944	0.041	0.037
-638.638	-200.000	0.002	0.093
-637.624	54.432	0.160	-0.154
-636.609	-161.008	-0.216	0.011
-635.595	-200.000	0.127	-0.578
-634.580	-200.000	-0.014	0.164
-633.565	-200.000	0.018	-0.265
-632.551	-116.696	-0.213	0.039
-631.536	-125.773	-0.174	-0.026
-630.522	717.368	-0.033	0.086
-629.507	800.000	0.059	0.209
-628.492	151.691	0.057	0.078
-627.478	-136.667	0.238	-0.027
-626.463	12.638	0.139	0.107
-625.449	70.882	-0.070	-0.072
-624.434	-114.788	0.176	0.033
-623.419	800.000	0.064	0.226
-622.405	-0.715	-0.449	-0.317
-621.390	-31.669	-0.091	0.051
-620.376	135.982	0.078	0.101
-619.361	224.981	-0.211	-0.339
-618.346	-30.865	-0.080	-0.045
-617.332	800.000	-0.033	0.136
-616.317	-85.208	-0.249	-0.077
-615.303	-168.970	-0.220	0.008
-614.288	-49.961	0.163	0.077
-613.273	437.963	-0.161	-0.349
-612.259	800.000	-0.023	-0.071
-611.244	-76.708	0.249	-0.087
-610.230	-99.037	-0.358	-0.090
-609.215	39.316	0.135	-0.120
-608.201	-101.293	-0.147	0.036
-607.186	40.642	0.109	-0.098
-606.171	553.588	0.081	0.195
-605.157	143.797	-0.259	0.344
-604.142	-3.471	-0.273	0.190
-603.128	-200.000	-0.001	-0.087
-602.113	800.000	0.061	-0.246
-601.098	2.978	0.340	0.246
-600.084	-44.305	-0.300	0.150
-599.069	60.646	0.149	-0.147
-598.055	-57.402	0.265	0.116
-597.040	30.014	-0.176	-0.149
-596.025	40.687	0.165	0.149
-595.011	-200.000	-0.025	0.478
-593.996	-30.973	0.117	0.066
-592.982	-200.000	-0.068	0.303
-591.967	-200.000	0.035	-0.165
-590.952	-181.378	0.130	0.003
-589.938	-28.944	-0.187	0.107
-588.923	13.292	-0.039	0.030
-587.909	-119.245	-0.327	0.057
-586.894	-200.000	-0.117	0.523
-585.879	-57.227	0.106	0.046
-584.865	800.000	-0.056	-0.210
-583.850	-84.335	-0.183	0.057
-582.836	376.145	-0.081	-0.164
-581.821	83.096	0.191	-0.207
-580.806	-130.184	0.174	0.024
-579.792	444.312	0.095	-0.207
-578.777	144.476	0.194	0.258
-577.763	112.735	0.218	0.263
-576.748	-91.033	0.164	0.047
-575.733	348.609	0.183	0.360
-574.719	-7.912	0.152	0.102
-573.704	800.000	0.100	0.362
-572.690	-164.241	-0.169	0.008
-571.675	-65.535	0.108	-0.043
-570.661	319.911	-0.064	0.120
-569.646	472.483	0.136	0.305
-568.631	17.370	-0.025	-0.019
-567.617	687.271	0.078	-0.202
-566.602	218.632	0.184	-0.292
-565.588	-53.737	-0.275	-0.125
-564.573	45.048	-0.050	0.046
-563.558	-127.655	0.158	-0.023
-562.544	-104.985	-0.121	-0.028
-561.529	-42.698	0.332	0.168
-560.515	58.690	0.134	0.130
-559.500	-55.442	-0.051	-0.023
-558.485	93.045	0.066	0.074
-557.471	216.443	0.203	0.321
-556.456	-52.885	0.449	-0.206
-555.442	-127.196	-0.131	0.019
-554.427	-188.275	0.022	-0.000
-553.412	-17.135	-0.252	-0.158
-552.398	269.383	-0.023	0.040
-551.383	800.000	0.135	-0.413
-550.369	-63.416	0.209	0.085
-549.354	-200.000	0.016	-0.122
-548.339	324.623	0.179	0.340
-547.325	-50.860	-0.007	0.003
-546.310	145.238	0.120	0.160
-545.296	285.853	-0.069	-0.124
-544.281	570.675	0.065	0.158
-543.266	-6.235	0.297	0.201
-542.252	170.312	0.158	0.225
-541.237	-200.000	-0.084	-0.557
-540.223	-200.000	-0.006	-0.275
-539.208	62.947	-0.089	0.089
-538.193	641.406	0.074	0.188
-537.179	-70.491	-0.279	0.105
-536.164	-101.210	-0.302	-0.073
-535.150	71.871	-0.192	0.199
-534.135	-200.000	-0.124	0.738
-533.121	181.313	-0.105	0.154
-532.106	84.225	0.157	-0.171
-531.091	800.000	-0.100	-0.342
-530.077	-2.497	0.169	-0.118
-529.062	-22.871	-0.162	0.097
-528.048	-23.468	-0.058	0.034
-527.033	44.643	-0.078	-0.071
-526.018	147.725	0.067	-0.089
-525.004	-11.517	0.091	-0.059
-523.989	445.836	-0.190	0.414
-522.975	-144.102	-0.295	-0.027
-521.960	-200.000	-0.000	-0.314
-520.945	313.565	-0.143	-0.267
-519.931	-138.414	0.331	-0.036
-518.916	-78.766	0.197	0.067
-517.902	29.473	0.231	-0.195
-516.887	3.257	0.295	-0.213
-515.872	800.000	-0.074	-0.239
-514.858	514.404	-0.142	0.328
-513.843	29.311	-0.084	-0.071
-512.829	-67.542	0.285	0.111
-511.814	29.684	0.096	0.081
-510.799	-20.621	0.095	-0.058
-509.785	-183.092	-0.187	0.003
-508.770	-13.549	-0.209	-0.134
-507.756	-10.258	0.137	-0.090
-506.741	-89.868	-0.144	0.042
-505.726	47.213	-0.368	0.340
-504.712	-160.893	-0.174	0.009
-503.697	800.000	-0.055	-0.206
-502.683	-200.000	0.012	-0.083
-501.668	-63.096	-0.140	0.057
-500.653	-53.279	-0.178	0.081
-499.639	800.000	-0.106	-0.335
-498.624	-85.304	0.194	-0.060
-497.610	-200.000	-0.006	0.422
-496.595	44.256	-0.293	0.266
-495.581	-6.275	-0.244	-0.165
-494.566	134.458	-0.168	-0.216
-493.551	45.465	-0.117	0.107
-492.537	-27.266	-0.251	0.145
-491.522	-82.986	-0.239	-0.076
-490.508	-160.325	-0.258	-0.014
-489.493	-124.799	0.234	0.036
-488.478	-200.000	-0.031	-0.205
-487.464	800.000	-0.064	-0.241
-486.449	-50.361	0.160	0.075
-485.435	800.000	-0.189	0.661
-484.420	43.781	0.270	-0.245
-483.405	-13.989	0.250	0.160
-482.391	-200.000	-0.002	0.290
-481.376	-100.726	0.110	-0.027
-480.362	706.934	-0.040	0.105
-479.347	-200.000	0.043	-0.206
-478.332	786.159	-0.108	-0.293
-477.318	511.915	-0.207	0.478
-476.303	-90.332	0.121	-0.035
-475.289	20.349	0.111	-0.088
-474.274	3.817	-0.295	0.213
-473.259	-53.531	0.081	0.037
-472.245	800.000	0.038	0.105
-471.230	27.391	0.360	-0.300
-470.216	-166.267	0.313	0.013
-469.201	76.386	-0.369	-0.388
-468.186	-114.272	0.250	0.048
-467.172	-200.000	-0.010	-0.165
-466.157	-67.772	-0.335	-0.130
-465.143	-25.588	0.212	-0.124
-464.128	-66.127	0.265	-0.105
-463.113	-19.491	-0.146	0.090
-462.099	121.221	-0.234	0.289
-461.084	800.000	-0.042	0.158
-460.070	-200.000	0.010	-0.138
-459.055	622.732	0.021	-0.053
-458.040	140.776	-0.023	0.031
-457.026	800.000	0.027	-0.098
-456.011	-102.434	-0.274	-0.065
-454.997	-87.904	0.160	-0.048
-453.982	-78.306	-0.290	-0.099
-452.968	179.198	0.088	0.128
-451.953	227.413	0.091	0.146
-450.938	-157.534	0.277	-0.016
-449.924	-57.522	-0.108	-0.047
-448.909	-166.648	-0.127	0.005
-447.895	274.063	-0.069	-0.122
-446.880	-102.778	-0.267	-0.063
-445.865	-153.690	0.209	-0.014
-444.851	61.282	-0.121	0.119
-443.836	50.865	-0.139	0.130
-442.822	31.462	0.175	0.149
-441.807	-200.000	-0.001	-0.157
-440.792	164.875	0.072	0.101
-439.778	-133.309	-0.261	-0.032
-438.763	-8.609	-0.103	-0.068
-437.749	77.340	0.282	-0.297
-436.734	-128.801	-0.504	-0.070
-435.719	-200.000	-0.019	-0.109
-434.705	-199.462	0.149	0.001
-433.690	-109.394	-0.124	0.026
-432.676	-200.000	0.021	0.143
-431.661	408.324	-0.094	-0.197
-430.646	-92.261	0.203	-0.057
-429.632	-200.000	0.006	0.059
-428.617	-99.255	0.288	0.072
-427.603	800.000	-0.022	-0.063
-426.588	-111.245	0.265	0.053
-425.573	281.181	0.025	0.044
-424.559	800.000	0.035	0.116
-423.544	-46.714	-0.376	-0.182
-422.530	-139.733	-0.175	0.018
-421.515	-102.682	0.293	-0.069
-420.500	603.861	-0.092	0.226
-419.486	-37.175	0.266	0.141
-418.471	-81.710	0.229	-0.074
-417.457	-87.952	0.230	0.068
-416.442	330.537	-0.058	0.110
-415.428	10.165	-0.092	0.069
-414.413	-73.798	-0.191	0.069
-413.398	-200.000	-0.045	0.226
-412.384	195.384	0.139	0.209
-411.369	49.297	0.108	0.100
-410.355	99.432	-0.033	0.037
-409.340	-36.199	-0.029	-0.016
-408.325	-154.528	-0.286	0.019
-407.311	-56.050	-0.230	-0.101
-406.296	266.690	-0.089	0.153
-405.282	-200.000	-0.002	0.083
-404.267	800.000	0.033	-0.125
-403.252	54.033	0.112	-0.106
-402.238	24.751	-0.446	0.365
-401.223	800.000	-0.156	0.487
-400.209	89.755	-0.334	0.368
-399.194	-200.000	-0.007	0.130
-398.179	-96.492	-0.371	-0.097
-397.165	-34.074	-0.225	0.122
-396.150	30.493	-0.070	0.059
-395.136	-16.556	0.100	0.062
-394.121	-168.090	0.383	0.015
-393.106	-200.000	0.014	-0.306
-392.092	-127.187	-0.189	0.027
-391.077	-5.138	-0.048	0.033
-390.063	-200.000	-0.015	-0.086
-389.048	669.564	0.207	0.529
-388.033	139.417	-0.022	-0.029
-387.019	28.755	-0.112	0.094
-386.004	-138.690	-0.022	-0.002
-384.990	29.483	0.080	0.067
-383.975	-200.000	-0.000	0.008
-382.960	-70.520	0.050	-0.019
-381.946	-128.367	0.402	0.056
-380.931	-178.059	0.119	-0.003
-379.917	-200.000	0.036	0.340
-378.902	800.000	0.054	0.172
-377.888	405.685	0.062	0.130
-376.873	-35.803	0.243	0.130
-375.858	800.000	-0.135	0.371
-374.844	-101.420	0.295	0.071
-373.829	800.000	0.039	-0.111
-372.815	68.131	0.078	-0.079
-371.800	-200.000	0.026	-0.297
-370.785	421.793	-0.153	0.325
-369.771	-138.105	0.260	0.029
-368.756	800.000	0.041	0.168
-367.742	-9.741	0.313	-0.206
-366.727	137.721	0.144	0.186
-365.712	74.974	0.081	-0.085
-364.698	417.879	-0.068	-0.144
-363.683	-122.412	0.138	-0.022
-362.669	-59.551	0.051	0.021
-361.654	104.053	-0.187	-0.217
-360.639	-140.463	0.039	0.004
-359.625	21.379	-0.387	-0.310
-358.610	-0.541	0.165	0.116
-357.596	68.156	0.074	0.074
-356.581	431.105	0.133	-0.284
-355.566	24.975	-0.159	0.130
-354.552	4.960	-0.152	0.111
-353.537	-188.070	-0.221	-0.003
-352.523	-200.000	0.050	0.221
-351.508	-200.000	0.013	-0.070
-350.493	-200.000	0.047	-0.222
-349.479	177.030	0.081	-0.116
-348.464	406.009	0.030	0.063
-347.450	294.920	-0.073	0.132
-346.435	703.497	-0.046	0.120
-345.420	-72.747	-0.274	0.099
-344.406	-76.482	0.336	0.116
-343.391	-104.364	-0.175	0.040
-342.377	21.602	-0.153	-0.123
-341.362	-200.000	-0.017	-0.101
-340.348	523.339	-0.106	0.245
-339.333	-200.000	0.006	0.058
-338.318	14.571	-0.345	0.266
-337.304	-82.527	-0.411	-0.132
-336.289	-122.690	0.110	0.018
-335.275	800.000	0.143	0.521
-334.260	-200.000	0.009	0.181
-333.245	-113.614	-0.403	0.078
-332.231	-90.618	-0.073	0.021
-331.216	-93.254	0.245	-0.067
-330.202	45.420	-0.183	-0.166
-329.187	659.963	0.086	-0.219
-328.172	-158.384	0.208	0.012
-327.158	-200.000	-0.481	0.001
-326.143	44.026	0.028	-0.026
-325.129	276.144	0.214	0.374
-324.114	138.749	0.137	0.177
-323.099	36.078	0.196	0.170
-322.085	192.808	-0.203	0.302
-321.070	41.951	-0.125	-0.112
-320.056	93.899	0.226	-0.252
-319.041	-42.278	0.050	0.025
-318.026	-15.301	0.296	0.186
-317.012	-102.866	0.210	-0.049
-315.997	-62.340	-0.215	0.088
-314.983	283.721	0.100	-0.177
-313.968	314.420	0.197	-0.366
-312.953	-200.000	0.006	-0.386
-311.939	717.005	0.057	-0.148
-310.924	800.000	-0.037	0.110
-309.910	263.132	0.123	-0.210
-308.895	800.000	-0.051	0.145
-307.880	-200.000	-0.039	0.208
-306.866	50.394	-0.183	-0.171
-305.851	-114.544	0.307	0.058
-304.837	-59.234	-0.317	0.134
-303.822	36.201	-0.088	-0.076
-302.807	160.061	-0.072	-0.099
-301.793	-200.000	0.004	0.119
-300.778	-89.143	-0.252	0.073
-299.764	353.256	-0.114	-0.222
-298.749	57.790	0.072	0.069
-297.735	-20.155	-0.262	0.159
-296.720	-62.712	-0.137	0.056
-295.705	800.000	0.033	-0.139
-294.691	76.490	0.127	-0.132
-293.676	50.165	-0.324	-0.301
-292.662	49.716	-0.058	0.054
-291.647	-71.602	-0.240	-0.088
-290.632	800.000	-0.069	-0.195
-289.618	-57.713	0.028	0.012
-288.603	144.655	0.250	0.329
-287.589	-67.386	-0.242	0.094
-286.574	51.032	-0.350	-0.326
-285.559	520.085	0.121	-0.279
-284.545	-169.161	0.183	-0.007
-283.530	800.000	-0.078	0.219
-282.516	-55.018	0.261	0.115
-281.501	70.381	0.131	-0.133
-280.486	-126.455	0.331	0.048
-279.472	-133.713	0.341	-0.042
-278.457	-1.446	-0.143	-0.099
-277.443	169.476	0.208	0.292
-276.428	11.835	0.169	0.128
-275.413	-200.000	-0.044	-0.201
-274.399	-200.000	-0.037	-0.262
-273.384	365.533	-0.109	-0.216
-272.370	-50.228	-0.151	-0.070
-271.355	-11.497	-0.249	-0.161
-270.340	-56.836	0.212	0.092
-269.326	-200.000	0.001	-0.191
-268.311	-51.970	0.109	-0.050
-267.297	800.000	0.093	0.363
-266.282	800.000	-0.028	-0.109
-265.267	99.867	-0.032	0.036
-264.253	224.890	-0.110	0.175
-263.238	359.241	0.180	-0.354
-262.224	705.827	0.063	-0.163
-261.209	-9.945	0.065	0.043
-260.195	-34.578	-0.418	-0.225
-259.180	122.684	-0.089	-0.109
-258.165	66.012	0.243	-0.242
-257.151	1.142	0.132	-0.093
-256.136	391.573	-0.161	0.328
-255.122	-8.396	0.043	-0.028
-254.107	265.748	0.082	0.140
-253.092	695.278	0.180	0.465
-252.078	278.311	0.111	-0.194
-251.063	-200.000	-0.056	-0.263
-250.049	-167.112	-0.297	-0.012
-249.034	-200.000	0.041	-0.262
-248.019	97.828	-0.134	0.151
-247.005	-200.000	-0.072	-0.312
-245.990	57.543	-0.021	-0.021
-244.976	-200.000	0.011	0.055
-243.961	-149.468	-0.176	0.014
-242.946	-200.000	-0.015	0.430
-241.932	242.717	0.042	-0.068
-240.917	-82.162	-0.210	-0.067
-239.903	40.547	-0.107	0.095
-238.888	443.180	0.073	-0.158
-237.873	800.000	-0.091	-0.267
-236.859	-200.000	0.005	-0.352
-235.844	28.725	0.188	0.157
-234.830	-148.756	-0.103	0.008
-233.815	800.000	-0.059	-0.215
-232.800	-200.000	0.016	-0.242
-231.786	59.599	-0.217	-0.210
-230.771	752.988	-0.075	0.198
-229.757	293.714	0.118	-0.212
-228.742	-138.688	-0.223	-0.024
-227.727	193.082	-0.095	-0.140
-226.713	-177.768	-0.120	0.003
-225.698	-200.000	0.013	-0.212
-224.684	-143.991	-0.319	0.029
-223.669	428.006	0.086	-0.181
-222.655	-111.250	0.095	-0.019
-221.640	34.794	0.195	0.167
-220.625	-31.725	0.121	0.066
-219.611	3.407	0.185	0.132
-218.596	-60.359	0.328	0.137
-217.582	-31.638	-0.117	0.064
-216.567	89.981	0.238	-0.260
-215.552	45.627	-0.229	0.207
-214.538	-58.723	0.373	-0.158
-213.523	-18.868	-0.078	0.048
-212.509	-167.242	0.127	-0.005
-211.494	800.000	0.021	0.078
-210.479	-200.000	-0.005	-0.101
-209.465	-171.192	0.086	0.003
-208.450	-122.402	-0.196	-0.031
-207.436	143.231	-0.262	-0.342
-206.421	-78.075	0.259	-0.088
-205.406	-200.000	-0.018	-0.119
-204.392	800.000	-0.114	-0.393
-203.377	63.520	-0.127	-0.125
-202.363	-131.423	0.181	-0.023
-201.348	94.618	0.148	-0.164
-200.333	-53.324	0.216	0.097
-199.319	33.549	0.160	-0.136
-198.304	491.036	0.060	-0.134
-197.290	143.854	0.060	0.079
-196.275	488.033	-0.148	0.331
-195.260	300.545	0.129	-0.233
-194.246	57.435	0.223	0.213
-193.231	67.043	-0.189	-0.189
-192.217	800.000	-0.044	-0.170
-191.202	-137.374	0.301	-0.033
-190.187	-111.087	-0.039	0.008
-189.173	38.858	0.084	-0.073
-188.158	234.749	-0.069	0.111
-187.144	215.132	-0.096	0.149
-186.129	-85.884	0.317	0.096
-185.114	-200.000	-0.033	-0.282
-184.100	-200.000	0.064	0.406
-183.085	-200.000	-0.017	-0.115
-182.071	-98.117	0.201	-0.051
-181.056	-191.385	0.287	0.003
-180.042	152.196	0.139	-0.185
-179.027	320.956	0.146	0.272
-178.012	-23.635	0.028	-0.017
-176.998	401.037	0.022	-0.045
-175.983	-200.000	0.042	0.384
-174.969	116.083	0.091	-0.109
-173.954	537.352	0.071	-0.166
-172.939	254.615	-0.139	0.233
-171.925	-103.492	-0.226	-0.052
-170.910	800.000	-0.035	0.141
-169.896	20.859	-0.134	-0.106
-168.881	-143.440	-0.136	-0.013
-167.866	376.459	-0.206	-0.411
-166.852	22.518	0.171	0.137
-165.837	101.364	-0.246	-0.281
-164.823	-26.073	0.196	0.113
-163.808	-115.039	0.235	-0.044
-162.793	394.523	0.079	-0.162
-161.779	80.979	0.123	-0.129
-160.764	-200.000	0.019	-0.318
-159.750	-74.072	-0.142	0.050
-158.735	-76.488	-0.364	0.125
-157.720	-96.192	0.396	0.103
-156.706	48.797	0.229	-0.210
-155.691	670.696	0.040	-0.101
-154.677	-165.293	-0.130	-0.006
-153.662	-200.000	0.018	-0.185
-152.647	-200.000	-0.023	-0.415
-151.633	-200.000	0.042	-0.359
-150.618	-200.000	-0.024	-0.114
-149.604	-64.585	-0.169	-0.067
-148.589	23.340	-0.214	-0.172
-147.574	-200.000	0.011	0.210
-146.560	-197.636	0.152	0.001
-145.545	-93.719	-0.171	-0.046
-144.531	-47.238	-0.164	-0.078
-143.516	-200.000	0.037	0.232
-142.502	40.962	0.182	0.160
-141.487	800.000	-0.072	-0.249
-140.472	-200.000	0.005	0.100
-139.458	46.065	0.332	0.300
-138.443	-200.000	-0.014	-0.203
-137.429	-120.737	0.056	-0.009
-136.414	57.110	0.033	-0.032
-135.399	387.221	0.095	0.192
-134.385	800.000	-0.100	0.293
-133.370	-72.934	-0.379	0.136
-132.356	463.338	0.158	0.345
-131.341	22.241	0.433	0.346
-130.326	-58.797	0.146	-0.062
-129.312	-30.822	-0.190	0.105
-128.297	800.000	0.129	0.370
-127.283	19.409	-0.189	0.148
-126.268	13.820	0.036	-0.027
-125.253	35.748	0.302	0.259
-124.239	57.941	-0.140	-0.134
-123.224	162.767	0.193	0.265
-122.210	-143.471	-0.111	-0.010
-121.195	4.030	-0.262	0.187
-120.180	-58.312	0.367	-0.156
