DTS Sentinel unit serial number:	SN413079Multiplexer serial number:	ORYXHardware model number:	OX4-SRSoftware version number:	ORYX F/W v4.00 Oryx Data Collector v3.7.2.0data status	okinstallation	princeton_trtdifferential loss correction	single-endedforward channel	channel 1reverse channel	N/Adate	2019/09/15time	06:42:35forward acquisition time	60.00reverse acquisition time	0.00gamma	496.2192k internal	0.2325k external	0.2325temperature offset calibration	0.9996default loss term (dB/km)	0.3790temperature slope calibration	1.0000multiplexer offset coefficient	1.0000multiplexer slope coefficient	1.0000fibre end	0.00T internal ref (°C)	30.50T ext. ref 1 (°C)	4.80T ext. ref 2 (°C)	25.45length (m)	temperature (°C)	Stokes	anti-Stokes-747.200	-39.516	-0.443	-0.234
-746.185	-118.542	0.259	-0.046
-745.171	148.034	0.085	-0.116
-744.156	-161.638	-0.102	0.005
-743.142	54.357	0.100	0.097
-742.127	224.833	-0.040	0.066
-741.112	58.705	-0.281	0.278
-740.098	-114.162	0.128	0.025
-739.083	-78.345	0.128	-0.044
-738.069	35.932	0.051	0.045
-737.054	-106.926	0.228	-0.051
-736.039	-67.739	-0.337	-0.133
-735.025	-53.556	-0.121	-0.056
-734.010	-200.000	0.036	-0.161
-732.996	636.721	-0.127	0.325
-731.981	38.527	-0.138	0.124
-730.966	173.499	0.220	-0.320
-729.952	-88.570	0.312	-0.094
-728.937	54.569	-0.100	-0.098
-727.923	437.068	-0.066	-0.145
-726.908	125.255	-0.123	-0.156
-725.894	279.055	0.026	0.046
-724.879	-28.108	0.151	-0.088
-723.864	-8.874	-0.091	0.061
-722.850	41.785	0.288	-0.263
-721.835	800.000	-0.028	-0.106
-720.821	800.000	0.042	-0.155
-719.806	-186.169	0.368	0.005
-718.791	96.306	0.024	0.028
-717.777	-200.000	-0.000	0.049
-716.762	110.320	-0.119	-0.144
-715.748	13.650	-0.241	-0.189
-714.733	-104.860	-0.308	-0.071
-713.718	-200.000	0.027	0.340
-712.704	-156.485	-0.085	0.005
-711.689	-97.540	-0.245	-0.064
-710.675	-200.000	-0.044	-0.262
-709.660	-25.278	0.111	-0.066
-708.645	243.894	-0.247	-0.418
-707.631	-200.000	-0.028	-0.243
-706.616	800.000	-0.114	-0.331
-705.602	434.131	0.131	-0.286
-704.587	-200.000	0.100	-0.491
-703.572	141.262	0.213	-0.284
-702.558	-139.901	-0.174	0.019
-701.543	-143.872	0.299	0.028
-700.529	-118.896	0.257	-0.045
-699.514	85.228	-0.203	-0.224
-698.499	-28.925	-0.187	0.108
-697.485	332.382	-0.087	0.169
-696.470	94.035	-0.288	-0.329
-695.456	-80.504	0.311	0.105
-694.441	82.845	-0.069	-0.076
-693.426	-138.031	0.398	-0.045
-692.412	-3.189	0.456	-0.320
-691.397	-88.337	-0.340	0.102
-690.383	271.482	0.016	0.029
-689.368	-44.230	-0.229	-0.116
-688.354	-22.946	-0.227	-0.138
-687.339	-89.260	-0.213	0.063
-686.324	-131.428	0.338	-0.045
-685.310	-200.000	-0.045	0.225
-684.295	-52.233	0.394	-0.184
-683.281	-41.699	0.404	0.209
-682.266	-20.675	0.115	-0.071
-681.251	131.982	0.196	0.254
-680.237	-200.000	0.364	0.002
-679.222	-79.069	0.151	-0.052
-678.208	-167.552	0.340	0.014
-677.193	-200.000	-0.011	0.059
-676.178	-147.221	-0.154	0.013
-675.164	-200.000	0.058	-0.285
-674.149	465.539	-0.127	-0.286
-673.135	800.000	-0.054	-0.167
-672.120	-2.591	-0.228	0.161
-671.105	111.287	0.078	-0.095
-670.091	237.366	-0.048	0.080
-669.076	-17.899	-0.249	-0.157
-668.062	231.138	-0.182	-0.300
-667.047	379.120	-0.165	-0.340
-666.032	363.855	0.078	0.158
-665.018	-114.709	-0.230	0.044
-664.003	-122.524	-0.308	-0.050
-662.989	204.974	-0.274	-0.427
-661.974	-200.000	-0.019	0.239
-660.959	-4.872	-0.117	0.081
-659.945	409.383	-0.136	-0.290
-658.930	223.731	-0.189	0.307
-657.916	-110.048	-0.135	0.028
-656.901	263.635	0.105	-0.183
-655.886	-102.487	-0.134	0.032
-654.872	-98.503	-0.137	-0.035
-653.857	188.937	0.110	0.165
-652.843	-41.336	0.342	0.177
-651.828	1.795	0.328	-0.238
-650.814	-48.755	-0.080	-0.039
-649.799	-99.187	0.339	-0.086
-648.784	-47.293	-0.176	-0.086
-647.770	-200.000	-0.018	-0.292
-646.755	-143.424	-0.209	0.020
-645.741	-84.179	0.291	-0.093
-644.726	800.000	0.107	0.331
-643.711	147.335	-0.131	-0.177
-642.697	-133.662	-0.109	-0.014
-641.682	25.278	-0.175	-0.146
-640.668	-99.126	-0.196	0.050
-639.653	-91.369	-0.040	0.011
-638.638	17.526	0.149	0.119
-637.624	-200.000	-0.020	-0.175
-636.609	-34.700	-0.377	0.207
-635.595	25.055	-0.266	0.222
-634.580	-62.974	0.122	-0.051
-633.565	409.031	-0.028	-0.060
-632.551	-24.971	-0.243	-0.145
-631.536	-200.000	-0.009	-0.295
-630.522	-2.025	0.161	-0.113
-629.507	8.360	0.287	-0.216
-628.492	-36.321	-0.155	0.084
-627.478	-69.254	0.335	-0.129
-626.463	800.000	0.077	0.243
-625.449	-97.096	-0.085	-0.022
-624.434	-72.549	-0.123	-0.046
-623.419	169.116	0.133	-0.190
-622.405	-200.000	0.013	-0.190
-621.390	29.751	0.164	0.140
-620.376	-75.922	-0.131	0.047
-619.361	-78.785	-0.444	-0.152
-618.346	-200.000	-0.002	0.085
-617.332	164.674	-0.103	-0.145
-616.317	69.443	0.113	-0.117
-615.303	73.229	0.027	-0.028
-614.288	-78.800	-0.108	-0.037
-613.273	5.136	-0.171	-0.127
-612.259	-176.761	0.154	-0.004
-611.244	-7.425	0.290	-0.197
-610.230	-20.969	0.116	-0.071
-609.215	-200.000	0.087	0.445
-608.201	-29.676	-0.121	0.069
-607.186	245.448	-0.126	0.213
-606.171	190.119	-0.137	-0.206
-605.157	800.000	-0.055	-0.175
-604.142	112.590	0.087	-0.106
-603.128	-26.452	0.281	0.166
-602.113	-133.485	-0.157	0.020
-601.098	-68.563	-0.231	0.090
-600.084	43.889	-0.072	-0.066
-599.069	-12.272	0.146	0.096
-598.055	-15.025	-0.164	0.105
-597.040	800.000	0.034	0.107
-596.025	800.000	-0.065	0.214
-595.011	78.976	-0.139	-0.149
-593.996	-138.282	0.077	0.009
-592.982	-159.074	-0.361	0.020
-591.967	-200.000	0.038	0.334
-590.952	-200.000	-0.042	0.283
-589.938	105.588	-0.086	-0.102
-588.923	-200.000	0.020	-0.129
-587.909	-53.177	-0.090	0.041
-586.894	31.181	-0.045	0.038
-585.879	30.486	0.104	-0.090
-584.865	2.580	0.242	0.176
-583.850	-141.737	-0.273	-0.028
-582.836	-118.408	0.145	0.026
-581.821	33.238	-0.198	0.172
-580.806	149.893	0.194	-0.263
-579.792	800.000	0.138	-0.402
-578.777	19.094	0.239	-0.192
-577.763	800.000	-0.071	-0.233
-576.748	354.902	0.090	0.179
-575.733	-40.842	-0.119	-0.062
-574.719	301.286	-0.207	-0.382
-573.704	267.407	-0.142	0.249
-572.690	-48.493	0.118	-0.057
-571.675	-114.179	0.123	-0.024
-570.661	6.080	-0.232	-0.172
-569.646	-148.485	-0.184	-0.015
-568.631	529.458	0.083	-0.196
-567.617	71.346	0.292	-0.304
-566.602	137.169	-0.111	0.145
-565.588	-14.858	-0.224	0.144
-564.573	79.819	-0.109	-0.117
-563.558	32.745	0.254	-0.220
-562.544	-71.148	0.104	0.039
-561.529	482.117	0.092	-0.210
-560.515	239.303	-0.145	-0.242
-559.500	-180.369	-0.388	-0.008
-558.485	800.000	0.047	-0.189
-557.471	11.479	0.179	0.138
-556.456	-16.497	0.451	-0.286
-555.442	11.089	-0.342	0.262
-554.427	-144.682	0.127	-0.012
-553.412	82.690	-0.094	-0.102
-552.398	-121.606	0.206	0.034
-551.383	-2.284	0.238	-0.167
-550.369	165.456	0.205	0.290
-549.354	256.104	-0.126	-0.216
-548.339	15.558	0.240	0.189
-547.325	-17.303	0.150	0.094
-546.310	-122.727	-0.245	0.040
-545.296	-36.358	-0.146	-0.079
-544.281	-200.000	0.005	0.121
-543.266	-32.496	0.248	-0.139
-542.252	174.624	-0.160	0.232
-541.237	74.254	0.345	-0.363
-540.223	433.377	0.167	0.363
-539.208	-200.000	-0.062	-0.293
-538.193	277.867	-0.046	-0.081
-537.179	487.891	-0.100	-0.228
-536.164	-200.000	-0.011	-0.298
-535.150	332.107	0.066	0.128
-534.135	-159.416	0.117	0.007
-533.121	-200.000	-0.021	-0.168
-532.106	214.548	-0.144	-0.228
-531.091	-11.707	0.116	-0.076
-530.077	-153.021	-0.213	0.015
-529.062	254.039	0.154	0.263
-528.048	271.959	0.089	-0.158
-527.033	-24.289	-0.286	-0.171
-526.018	-3.442	0.299	0.208
-525.004	653.144	-0.047	-0.120
-523.989	-58.864	0.072	0.031
-522.975	-133.604	0.143	-0.018
-521.960	-1.831	-0.383	0.270
-520.945	-107.361	-0.103	0.023
-519.931	-200.000	-0.001	0.008
-518.916	-67.227	0.098	0.038
-517.902	45.845	0.111	-0.102
-516.887	-41.704	0.209	-0.107
-515.872	208.417	-0.035	0.055
-514.858	142.975	-0.057	-0.076
-513.843	43.323	-0.019	0.017
-512.829	-59.343	0.094	0.040
-511.814	-31.039	-0.142	0.080
-510.799	-100.684	-0.501	-0.124
-509.785	800.000	0.017	-0.061
-508.770	-140.722	-0.261	-0.027
-507.756	64.161	-0.074	0.074
-506.741	-118.091	-0.419	0.075
-505.726	-200.000	-0.013	0.239
-504.712	-104.546	-0.203	-0.047
-503.697	152.761	0.027	-0.037
-502.683	-46.038	0.183	0.090
-501.668	-200.000	0.001	-0.014
-500.653	169.428	0.120	0.172
-499.639	58.920	-0.145	-0.142
-498.624	39.841	-0.141	0.126
-497.610	418.457	-0.126	0.269
-496.595	0.864	0.291	0.208
-495.581	-101.253	-0.252	-0.061
-494.566	695.621	0.041	-0.107
-493.551	530.542	0.069	-0.163
-492.537	-146.039	-0.451	-0.040
-491.522	65.007	0.096	0.097
-490.508	64.989	0.122	0.123
-489.493	-159.170	0.330	-0.019
-488.478	70.327	0.104	-0.107
-487.464	-160.708	-0.302	-0.016
-486.449	47.038	0.137	-0.128
-485.435	-130.679	-0.284	-0.038
-484.420	28.196	0.113	0.095
-483.405	41.770	0.254	0.230
-482.391	-200.000	0.028	0.316
-481.376	-72.501	-0.079	-0.029
-480.362	-92.661	0.243	-0.068
-479.347	-168.447	-0.233	-0.009
-478.332	-77.982	0.107	-0.037
-477.318	-5.714	-0.056	0.039
-476.303	1.517	0.100	-0.072
-475.289	278.326	0.186	0.331
-474.274	-88.124	0.318	0.095
-473.259	435.523	0.104	-0.225
-472.245	576.714	-0.180	-0.440
-471.230	164.758	0.163	-0.230
-470.216	-35.512	-0.088	0.048
-469.201	-80.051	-0.104	-0.035
-468.186	194.136	-0.085	-0.129
-467.172	-166.744	-0.094	-0.004
-466.157	-138.864	-0.195	-0.021
-465.143	589.376	0.139	-0.343
-464.128	-200.000	0.037	-0.213
-463.113	644.813	-0.048	0.122
-462.099	321.754	0.067	0.127
-461.084	800.000	-0.052	0.181
-460.070	-145.104	0.199	0.018
-459.055	449.419	-0.099	0.217
-458.040	30.314	-0.174	-0.148
-457.026	-146.346	0.423	0.037
-456.011	175.936	-0.124	-0.179
-454.997	-200.000	0.020	-0.110
-453.982	31.758	0.085	0.073
-452.968	149.562	0.024	0.032
-451.953	533.776	0.093	0.220
-450.938	-169.212	0.137	-0.005
-449.924	800.000	0.071	-0.252
-448.909	-178.497	-0.539	0.012
-447.895	-153.471	0.310	-0.021
-446.880	-160.231	-0.157	0.008
-445.865	11.601	0.212	0.163
-444.851	800.000	0.122	-0.436
-443.836	-71.781	0.195	0.072
-442.822	-133.162	-0.187	0.024
-441.807	-18.853	-0.420	-0.260
-440.792	-98.837	0.573	0.145
-439.778	-85.673	-0.166	0.051
-438.763	800.000	-0.028	0.095
-437.749	239.782	-0.064	0.107
-436.734	29.083	-0.100	-0.085
-435.719	52.879	0.027	-0.026
-434.705	800.000	-0.027	0.100
-433.690	800.000	-0.182	-0.541
-432.676	-198.459	0.312	0.002
-431.661	509.933	-0.066	-0.152
-430.646	-91.541	0.181	0.051
-429.632	-142.137	-0.160	-0.016
-428.617	84.778	0.036	-0.039
-427.603	-107.837	0.044	0.010
-426.588	183.966	0.094	-0.138
-425.573	-95.101	0.076	0.020
-424.559	57.892	-0.299	-0.292
-423.544	13.647	-0.073	0.057
-422.530	-200.000	-0.013	0.104
-421.515	-200.000	-0.005	0.053
-420.500	-91.268	0.078	-0.022
-419.486	252.055	-0.047	0.079
-418.471	-200.000	-0.022	0.168
-417.457	800.000	0.048	-0.171
-416.442	272.401	-0.195	-0.343
-415.428	-103.011	-0.258	0.061
-414.413	-81.973	-0.045	0.015
-413.398	69.961	0.363	-0.373
-412.384	106.639	-0.101	0.120
-411.369	-124.750	0.163	0.025
-410.355	50.931	0.132	0.125
-409.340	-200.000	0.163	-0.001
-408.325	207.738	-0.118	-0.183
-407.311	-138.733	-0.100	-0.011
-406.296	15.327	0.049	-0.038
-405.282	-200.000	-0.015	-0.264
-404.267	-34.246	0.242	-0.132
-403.252	-71.135	-0.112	-0.042
-402.238	800.000	-0.065	-0.216
-401.223	36.124	0.337	0.295
-400.209	100.605	-0.105	0.122
-399.194	71.750	-0.122	0.126
-398.179	-44.272	-0.219	0.109
-397.165	-3.944	-0.159	0.110
-396.150	-144.807	0.158	0.014
-395.136	251.804	-0.090	0.152
-394.121	-200.000	0.007	-0.053
-393.106	144.506	0.173	-0.230
-392.092	-200.000	0.032	0.176
-391.077	-31.699	0.060	-0.033
-390.063	-200.000	-0.010	-0.224
-389.048	461.821	0.081	0.180
-388.033	114.690	0.282	0.342
-387.019	-200.000	0.023	-0.141
-386.004	-39.190	-0.251	0.131
-384.990	-5.696	0.253	0.172
-383.975	170.293	0.051	0.072
-382.960	257.135	-0.139	0.237
-381.946	201.109	0.153	-0.234
-380.931	800.000	-0.023	-0.069
-379.917	518.203	0.070	0.164
-378.902	-119.349	0.133	-0.023
-377.888	81.320	0.153	0.164
-376.873	-62.484	-0.261	0.108
-375.858	-1.897	-0.252	-0.176
-374.844	639.722	0.053	-0.135
-373.829	39.740	-0.162	0.145
-372.815	80.714	0.151	0.162
-371.800	13.934	0.075	-0.058
-370.785	122.718	0.099	-0.123
-369.771	-5.535	0.191	0.130
-368.756	-200.000	-0.047	0.416
-367.742	-112.305	-0.217	-0.043
-366.727	29.399	0.192	-0.162
-365.712	-200.000	-0.044	0.350
-364.698	195.336	0.106	0.160
-363.683	623.648	0.108	-0.271
-362.669	-137.415	0.506	0.057
-361.654	-98.574	0.376	-0.096
-360.639	75.079	-0.220	0.231
-359.625	-200.000	-0.032	0.279
-358.610	-200.000	-0.018	-0.089
-357.596	-133.820	-0.107	-0.013
-356.581	-168.183	0.248	0.010
-355.566	12.411	0.150	0.115
-354.552	800.000	0.144	0.437
-353.537	560.424	0.098	-0.235
-352.523	-68.987	-0.201	0.077
-351.508	-88.953	0.364	0.107
-350.493	-107.582	0.086	-0.019
-349.479	-200.000	0.019	0.120
-348.464	208.515	0.065	-0.101
-347.450	228.601	0.121	-0.196
-346.435	327.258	0.041	-0.079
-345.420	800.000	0.014	-0.048
-344.406	800.000	-0.091	0.264
-343.391	763.976	0.135	-0.365
-342.377	-90.183	-0.146	0.042
-341.362	448.257	0.047	0.102
-340.348	299.869	0.149	0.272
-339.333	800.000	-0.061	-0.202
-338.318	73.679	0.261	0.272
-337.304	-49.087	-0.394	0.187
-336.289	800.000	-0.045	0.149
-335.275	133.710	-0.056	0.072
-334.260	800.000	-0.032	-0.128
-333.245	6.063	0.083	-0.061
-332.231	189.114	0.179	0.267
-331.216	800.000	-0.042	0.150
-330.202	-186.940	-0.296	0.004
-329.187	-200.000	0.048	-0.289
-328.172	-87.315	0.142	-0.043
-327.158	800.000	-0.068	0.221
-326.143	-84.409	-0.449	-0.141
-325.129	466.101	-0.107	0.238
-324.114	-0.865	0.151	-0.106
-323.099	215.074	-0.115	0.180
-322.085	-145.771	0.412	-0.036
-321.070	-200.000	-0.015	0.147
-320.056	170.741	0.093	-0.132
-319.041	246.668	-0.096	0.161
-318.026	-105.756	0.119	0.027
-317.012	95.426	-0.285	-0.322
-315.997	253.842	-0.073	-0.124
-314.983	-128.888	-0.271	-0.038
-313.968	182.563	0.131	-0.192
-312.953	-29.559	0.116	-0.066
-311.939	-200.000	0.003	-0.032
-310.924	-160.928	-0.176	-0.009
-309.910	-84.901	0.119	0.037
-308.895	251.221	0.147	0.247
-307.880	-200.000	-0.028	0.143
-306.866	-62.591	0.179	0.074
-305.851	412.382	0.117	-0.246
-304.837	158.888	-0.250	-0.345
-303.822	-118.218	0.253	-0.045
-302.807	7.715	0.061	0.045
-301.793	244.184	-0.106	0.176
-300.778	-113.949	-0.091	0.018
-299.764	-200.000	0.056	-0.627
-298.749	333.329	0.057	-0.110
-297.735	-120.715	0.461	0.077
-296.720	363.133	0.108	-0.216
-295.705	19.602	0.170	0.135
-294.691	-89.856	0.132	0.038
-293.676	382.264	0.049	0.100
-292.662	381.740	0.065	0.133
-291.647	-200.000	-0.000	0.041
-290.632	98.128	0.086	0.098
-289.618	-75.826	0.203	-0.071
-288.603	800.000	-0.017	0.062
-287.589	-200.000	-0.035	-0.192
-286.574	800.000	0.046	0.177
-285.559	-11.951	0.170	0.111
-284.545	119.578	-0.044	-0.054
-283.530	-86.814	-0.257	-0.078
-282.516	-34.549	0.263	0.143
-281.501	226.610	0.132	-0.212
-280.486	800.000	-0.115	-0.332
-279.472	133.001	-0.106	0.136
-278.457	-58.230	-0.032	-0.014
-277.443	-194.844	0.086	0.001
-276.428	-75.609	-0.296	-0.104
-275.413	160.931	0.033	-0.045
-274.399	-46.662	-0.025	-0.012
-273.384	212.869	-0.118	-0.185
-272.370	-32.874	-0.074	-0.041
-271.355	30.970	-0.200	0.170
-270.340	428.945	-0.109	0.233
-269.326	-200.000	-0.032	0.164
-268.311	-57.621	-0.254	0.110
-267.297	-76.920	-0.468	-0.162
-266.282	344.261	-0.116	0.225
-265.267	-145.485	-0.047	0.004
-264.253	-200.000	0.016	-0.127
-263.238	-99.854	0.081	0.020
-262.224	38.769	0.097	-0.086
-261.209	203.816	-0.138	-0.212
-260.195	-41.086	-0.066	0.034
-259.180	-37.547	0.170	-0.090
-258.165	100.450	-0.199	-0.229
-257.151	41.608	0.303	-0.272
-256.136	265.833	0.237	-0.409
-255.122	-90.683	-0.349	0.100
-254.107	800.000	-0.113	0.334
-253.092	392.556	-0.152	0.313
-252.078	49.973	-0.174	-0.163
-251.063	-151.995	-0.322	0.023
-250.049	-175.315	-0.377	-0.010
-249.034	36.293	0.011	0.010
-248.019	-200.000	0.008	-0.102
-247.005	27.584	-0.099	-0.082
-245.990	-73.617	-0.267	0.096
-244.976	15.306	-0.095	0.074
-243.961	-74.419	-0.075	0.027
-242.946	132.648	0.070	0.089
-241.932	137.346	0.056	0.072
-240.917	-60.589	-0.204	0.086
-239.903	-65.214	-0.167	-0.066
-238.888	19.129	0.128	-0.102
-237.873	-28.209	0.072	0.041
-236.859	-200.000	0.040	0.334
-235.844	313.096	0.176	-0.327
-234.830	-72.842	-0.286	-0.104
-233.815	-200.000	-0.066	-0.522
-232.800	36.730	0.166	-0.145
-231.786	-200.000	0.006	-0.115
-230.771	-82.529	-0.125	0.040
-229.757	-82.059	0.227	-0.073
-228.742	-68.261	-0.107	0.041
-227.727	355.880	0.260	0.512
-226.713	800.000	-0.065	0.203
-225.698	-68.155	-0.206	0.079
-224.684	-38.156	0.131	0.068
-223.669	-160.974	-0.326	0.017
-222.655	-62.105	0.194	0.080
-221.640	-200.000	0.053	-0.296
-220.625	-142.729	-0.118	0.011
-219.611	-200.000	-0.043	-0.425
-218.596	69.239	0.218	-0.221
-217.582	358.714	-0.123	0.243
-216.567	175.265	0.203	0.291
-215.552	-47.114	-0.306	-0.148
-214.538	800.000	0.127	0.444
-213.523	-200.000	0.022	0.178
-212.509	-200.000	0.043	-0.202
-211.494	101.845	0.083	0.096
-210.479	-115.063	-0.312	-0.059
-209.465	-200.000	-0.020	0.278
-208.450	384.336	0.069	0.140
-207.436	-200.000	-0.007	0.293
-206.421	403.276	-0.086	0.179
-205.406	-18.849	0.258	-0.159
-204.392	-200.000	-0.030	-0.168
-203.377	28.319	-0.249	0.208
-202.363	-200.000	0.003	0.037
-201.348	132.698	0.096	-0.122
-200.333	112.253	0.042	0.050
-199.319	-61.579	-0.406	-0.168
-198.304	-110.657	-0.081	0.017
-197.290	114.999	0.064	-0.077
-196.275	109.832	-0.272	0.322
-195.260	-113.814	-0.325	-0.062
-194.246	13.777	0.065	-0.050
-193.231	-43.022	0.078	0.039
-192.217	495.089	-0.076	-0.172
-191.202	-18.398	0.132	-0.081
-190.187	800.000	0.027	0.078
-189.173	-58.483	0.212	0.091
-188.158	8.276	0.092	0.068
-187.144	-132.580	0.192	-0.024
-186.129	32.062	-0.143	-0.122
-185.114	-44.844	0.294	0.145
-184.100	-13.560	0.141	0.090
-183.085	614.172	-0.105	0.259
-182.071	-200.000	0.011	0.096
-181.056	-71.964	-0.209	0.077
-180.042	-77.657	0.039	-0.013
-179.027	72.059	0.191	-0.196
-178.012	-36.630	-0.226	-0.120
-176.998	-200.000	0.034	0.240
-175.983	-178.202	0.131	0.003
-174.969	-200.000	0.000	0.184
-173.954	-0.120	0.334	-0.234
-172.939	-180.205	-0.057	-0.001
-171.925	-68.012	0.101	0.039
-170.910	130.886	0.134	0.170
-169.896	413.399	-0.076	-0.160
-168.881	-75.161	-0.285	-0.101
-167.866	-25.459	0.220	0.128
-166.852	-162.234	-0.024	-0.001
-165.837	800.000	0.087	0.270
-164.823	-79.850	0.123	-0.041
-163.808	693.622	-0.063	0.162
-162.793	25.520	0.385	0.316
-161.779	-200.000	-0.018	0.236
-160.764	25.547	0.164	0.134
-159.750	183.593	-0.058	0.085
-158.735	100.982	-0.230	0.264
-157.720	123.962	-0.160	0.198
-156.706	41.828	-0.144	0.129
-155.691	-25.144	-0.234	-0.136
-154.677	164.658	0.176	0.245
-153.662	37.587	0.125	0.110
-152.647	66.697	0.187	0.188
-151.633	800.000	-0.033	-0.116
-150.618	21.386	0.231	0.185
-149.604	-200.000	0.033	-0.165
-148.589	42.133	-0.124	0.111
-147.574	-200.000	0.046	0.214
-146.560	298.708	-0.142	-0.257
-145.545	-156.274	-0.301	-0.019
-144.531	-72.476	0.305	0.111
-143.516	-106.522	-0.268	0.059
-142.502	16.031	0.142	-0.110
-141.487	315.132	0.072	0.133
-140.472	-67.713	0.088	0.034
-139.458	-188.725	0.068	-0.001
-138.443	800.000	0.084	-0.316
-137.429	-200.000	-0.033	0.439
-136.414	800.000	-0.040	0.159
-135.399	-200.000	-0.008	0.060
-134.385	-200.000	0.035	0.205
-133.370	800.000	-0.131	-0.538
-132.356	-90.333	-0.269	-0.077
-131.341	279.740	-0.065	0.114
-130.326	-46.550	-0.163	0.079
-129.312	-28.689	-0.090	-0.051
-128.297	-102.998	0.269	-0.063
-127.283	-96.894	-0.251	-0.065
-126.268	296.247	0.083	-0.150
-125.253	51.734	-0.217	0.204
-124.239	800.000	0.036	0.107
-123.224	-106.589	0.082	-0.018
-122.210	800.000	0.036	0.152
-121.195	-66.223	0.113	0.044
-120.180	29.663	0.122	-0.102
