DTS Sentinel unit serial number:	SN413079Multiplexer serial number:	ORYXHardware model number:	OX4-SRSoftware version number:	ORYX F/W v4.00 Oryx Data Collector v3.7.2.0data status	okinstallation	princeton_trtdifferential loss correction	single-endedforward channel	channel 1reverse channel	N/Adate	2019/09/15time	20:10:35forward acquisition time	60.00reverse acquisition time	0.00gamma	496.2192k internal	0.2318k external	0.2318temperature offset calibration	0.9957default loss term (dB/km)	0.3790temperature slope calibration	1.0000multiplexer offset coefficient	1.0000multiplexer slope coefficient	1.0000fibre end	0.00T internal ref (°C)	34.86T ext. ref 1 (°C)	7.64T ext. ref 2 (°C)	25.76length (m)	temperature (°C)	Stokes	anti-Stokes-747.200	-200.000	-0.031	0.219
-746.185	68.652	-0.268	0.278
-745.171	-28.920	0.176	-0.102
-744.156	-111.325	-0.256	0.053
-743.142	77.450	-0.116	0.125
-742.127	16.650	0.290	0.232
-741.112	-13.547	-0.172	-0.113
-740.098	-200.000	0.005	0.232
-739.083	800.000	0.055	0.221
-738.069	387.335	-0.095	0.199
-737.054	-104.439	0.161	-0.038
-736.039	-88.012	-0.137	-0.042
-735.025	92.718	0.154	0.176
-734.010	37.267	-0.166	-0.148
-732.996	-200.000	-0.043	-0.336
-731.981	39.826	0.119	0.108
-730.966	193.996	0.089	-0.136
-729.952	30.286	0.132	0.114
-728.937	139.373	-0.178	-0.236
-727.923	-200.000	0.002	-0.131
-726.908	49.618	-0.168	0.160
-725.894	428.807	-0.065	0.143
-724.879	800.000	0.025	-0.071
-723.864	-6.114	0.113	-0.078
-722.850	-78.004	0.105	-0.037
-721.835	-89.224	-0.235	-0.070
-720.821	303.553	0.168	-0.314
-719.806	3.894	-0.132	0.098
-718.791	-36.000	-0.389	-0.213
-717.777	-200.000	0.002	-0.012
-716.762	-200.000	0.001	-0.327
-715.748	85.813	-0.170	-0.190
-714.733	189.741	-0.166	0.251
-713.718	94.473	-0.019	-0.021
-712.704	800.000	0.023	-0.083
-711.689	38.108	0.118	-0.106
-710.675	-106.078	-0.291	-0.066
-709.660	354.527	0.053	0.106
-708.645	-32.098	0.199	-0.113
-707.631	169.535	0.252	-0.364
-706.616	-200.000	-0.024	-0.179
-705.602	-39.928	-0.269	-0.142
-704.587	-112.401	0.047	0.010
-703.572	-200.000	0.005	0.470
-702.558	59.268	-0.027	-0.027
-701.543	-200.000	0.044	0.210
-700.529	347.111	0.081	-0.162
-699.514	187.410	0.105	0.159
-698.499	-122.184	-0.222	0.037
-697.485	-37.977	0.184	0.099
-696.470	154.873	-0.171	0.237
-695.456	555.841	0.032	-0.078
-694.441	-135.482	0.106	0.013
-693.426	-123.568	-0.088	0.014
-692.412	76.793	0.234	-0.251
-691.397	-110.110	0.354	0.075
-690.383	-13.178	-0.413	-0.271
-689.368	205.271	0.177	-0.278
-688.354	98.255	-0.130	-0.151
-687.339	34.955	-0.390	-0.345
-686.324	-200.000	-0.016	-0.219
-685.310	-27.512	-0.484	0.284
-684.295	103.107	0.224	-0.265
-683.281	165.159	0.019	-0.027
-682.266	-3.366	-0.168	0.118
-681.251	-30.630	-0.207	0.118
-680.237	-85.934	0.208	-0.065
-679.222	-200.000	0.014	0.194
-678.208	-133.555	-0.128	-0.016
-677.193	800.000	0.118	0.405
-676.178	-23.183	0.056	-0.034
-675.164	182.514	-0.150	-0.223
-674.149	558.445	-0.023	0.057
-673.135	70.790	0.031	0.032
-672.120	72.746	-0.111	-0.117
-671.105	405.798	0.048	0.103
-670.091	-34.617	-0.204	0.112
-669.076	-1.410	-0.117	-0.083
-668.062	-200.000	-0.007	0.138
-667.047	-200.000	-0.017	0.146
-666.032	-162.307	0.225	0.011
-665.018	-5.930	0.150	-0.103
-664.003	-116.274	-0.094	0.018
-662.989	30.362	0.114	0.098
-661.974	-53.455	-0.298	0.138
-660.959	-24.727	-0.273	0.164
-659.945	-13.681	-0.250	-0.163
-658.930	94.361	-0.250	0.287
-657.916	131.736	-0.148	-0.192
-656.901	112.245	0.111	0.136
-655.886	54.606	0.169	0.164
-654.872	346.935	0.123	-0.244
-653.857	73.453	-0.061	-0.065
-652.843	406.567	0.119	0.254
-651.828	23.616	0.026	-0.021
-650.814	252.203	-0.168	0.288
-649.799	-103.669	0.216	0.051
-648.784	-141.418	0.073	-0.007
-647.770	-57.019	0.236	-0.105
-646.755	-104.365	-0.324	-0.076
-645.741	110.511	-0.246	-0.299
-644.726	800.000	-0.028	0.083
-643.711	296.981	0.027	0.050
-642.697	-30.684	0.338	0.193
-641.682	198.141	-0.287	-0.443
-640.668	-13.023	0.215	0.141
-639.653	800.000	0.058	0.194
-638.638	356.055	0.105	0.210
-637.624	800.000	0.046	-0.140
-636.609	-91.593	0.225	-0.065
-635.595	518.586	-0.122	-0.288
-634.580	-56.632	-0.093	-0.041
-633.565	-28.336	-0.231	0.134
-632.551	-200.000	0.002	-0.248
-631.536	64.220	-0.066	0.067
-630.522	-83.325	0.042	0.013
-629.507	-57.234	-0.352	-0.156
-628.492	-200.000	0.602	0.003
-627.478	220.876	0.164	0.265
-626.463	511.555	-0.080	-0.188
-625.449	800.000	-0.063	-0.260
-624.434	-3.387	-0.208	0.146
-623.419	186.888	-0.158	-0.238
-622.405	-17.878	0.105	0.066
-621.390	-101.090	0.079	-0.020
-620.376	-200.000	-0.062	-0.373
-619.361	268.921	0.264	0.466
-618.346	582.229	-0.082	0.202
-617.332	72.942	-0.129	0.136
-616.317	67.826	-0.237	-0.244
-615.303	-24.544	-0.070	-0.042
-614.288	0.541	0.083	0.060
-613.273	-28.843	-0.281	0.163
-612.259	800.000	-0.069	-0.201
-611.244	-104.897	0.623	-0.144
-610.230	-183.016	-0.210	-0.004
-609.215	45.479	0.053	0.049
-608.201	19.915	0.226	0.183
-607.186	-140.720	0.241	0.025
-606.171	78.363	0.253	0.272
-605.157	683.361	-0.083	0.218
-604.142	-23.809	0.320	0.193
-603.128	-81.974	0.196	0.064
-602.113	241.718	-0.136	0.229
-601.098	518.515	-0.103	0.242
-600.084	575.887	0.047	-0.115
-599.069	-200.000	-0.034	0.151
-598.055	-98.414	-0.272	0.070
-597.040	278.754	-0.026	0.047
-596.025	116.944	-0.099	0.123
-595.011	-44.983	0.238	-0.119
-593.996	210.038	-0.188	0.296
-592.982	283.167	0.042	0.076
-591.967	-70.676	-0.463	0.176
-590.952	800.000	0.057	-0.211
-589.938	6.075	-0.297	-0.221
-588.923	-200.000	0.060	-0.323
-587.909	19.058	0.171	0.138
-586.894	-200.000	-0.010	0.154
-585.879	229.856	-0.095	-0.156
-584.865	-140.983	-0.110	0.011
-583.850	-32.503	-0.302	-0.169
-582.836	-105.857	-0.304	0.069
-581.821	122.028	-0.121	0.152
-580.806	-200.000	-0.003	0.067
-579.792	-57.516	0.059	-0.026
-578.777	188.013	0.260	-0.390
-577.763	-177.186	-0.324	0.008
-576.748	-10.557	-0.186	-0.124
-575.733	65.523	0.144	0.146
-574.719	510.635	-0.068	0.159
-573.704	205.005	-0.185	0.289
-572.690	-139.058	0.275	-0.030
-571.675	66.806	0.033	-0.034
-570.661	-200.000	0.066	0.482
-569.646	95.913	0.013	-0.015
-568.631	800.000	-0.060	-0.192
-567.617	-174.233	0.216	-0.006
-566.602	-77.112	-0.121	-0.042
-565.588	-16.969	0.132	0.084
-564.573	-30.817	0.364	0.207
-563.558	-5.363	0.087	-0.060
-562.544	-200.000	0.034	-0.197
-561.529	-200.000	-0.020	-0.166
-560.515	2.197	0.368	-0.267
-559.500	-200.000	-0.027	-0.143
-558.485	71.114	-0.213	-0.222
-557.471	758.681	-0.081	-0.220
-556.456	-112.851	-0.092	-0.018
-555.442	-99.678	0.063	-0.016
-554.427	-88.082	-0.112	0.034
-553.412	-200.000	0.029	-0.379
-552.398	12.455	-0.151	-0.117
-551.383	-200.000	-0.005	0.194
-550.369	299.907	0.118	0.218
-549.354	800.000	-0.085	-0.246
-548.339	-139.016	0.211	-0.023
-547.325	-47.231	0.112	0.055
-546.310	-91.099	0.194	-0.056
-545.296	-31.357	0.131	-0.074
-544.281	-65.555	-0.198	-0.080
-543.266	327.322	0.152	-0.293
-542.252	394.093	-0.113	0.236
-541.237	-68.386	-0.046	0.018
-540.223	-105.587	0.419	-0.095
-539.208	800.000	0.032	0.130
-538.193	181.251	0.265	0.392
-537.179	18.937	0.289	0.232
-536.164	-163.562	-0.285	0.014
-535.150	418.369	0.066	0.142
-534.135	-77.469	0.202	-0.070
-533.121	-0.038	0.168	0.120
-532.106	-200.000	-0.019	-0.104
-531.091	499.822	-0.050	-0.115
-530.077	16.995	-0.157	-0.125
-529.062	-200.000	0.215	0.001
-528.048	229.228	0.139	-0.228
-527.033	40.006	-0.081	-0.073
-526.018	-69.495	0.187	0.072
-525.004	-200.000	0.048	-0.341
-523.989	-67.909	-0.186	0.073
-522.975	180.784	0.203	-0.299
-521.960	191.361	0.047	-0.071
-520.945	284.158	-0.051	-0.092
-519.931	773.265	-0.053	0.145
-518.916	-91.234	0.094	-0.027
-517.902	101.016	-0.231	0.270
-516.887	-200.000	0.057	0.349
-515.872	-132.374	0.218	-0.028
-514.858	-111.021	0.227	-0.047
-513.843	18.723	0.269	0.216
-512.829	-30.666	0.072	-0.041
-511.814	-200.000	0.010	-0.138
-510.799	196.241	-0.188	0.288
-509.785	422.481	0.077	-0.165
-508.770	800.000	-0.062	-0.259
-507.756	243.740	-0.186	-0.312
-506.741	-19.178	0.231	0.144
-505.726	-200.000	0.047	-0.264
-504.712	252.706	-0.164	-0.280
-503.697	-159.845	-0.170	-0.009
-502.683	-200.000	-0.035	-0.271
-501.668	-157.392	-0.140	0.008
-500.653	-200.000	-0.053	-0.306
-499.639	19.405	-0.146	0.117
-498.624	135.351	0.100	-0.130
-497.610	-200.000	0.076	-0.412
-496.595	-25.498	-0.106	-0.063
-495.581	-59.051	0.161	0.070
-494.566	-63.038	0.054	0.023
-493.551	640.355	-0.060	0.154
-492.537	800.000	0.017	-0.053
-491.522	20.906	-0.133	0.108
-490.508	361.683	-0.056	-0.113
-489.493	105.582	0.094	-0.111
-488.478	-200.000	0.031	0.196
-487.464	-33.624	-0.357	0.197
-486.449	800.000	-0.117	-0.376
-485.435	449.091	0.076	0.167
-484.420	164.099	0.212	0.300
-483.405	-18.292	-0.055	0.035
-482.391	-119.990	0.221	-0.038
-481.376	-38.514	-0.173	-0.091
-480.362	-32.374	0.171	-0.095
-479.347	-49.669	0.484	-0.230
-478.332	94.798	-0.111	0.127
-477.318	-35.174	-0.321	-0.175
-476.303	162.014	0.034	0.048
-475.289	663.569	-0.131	-0.338
-474.274	800.000	0.092	-0.372
-473.259	-4.381	0.253	-0.175
-472.245	-61.202	-0.012	-0.005
-471.230	9.597	0.138	0.105
-470.216	126.103	-0.113	-0.143
-469.201	-107.370	0.082	0.018
-468.186	-110.444	0.056	-0.012
-467.172	407.370	-0.153	-0.323
-466.157	-200.000	0.035	-0.211
-465.143	479.648	0.036	0.082
-464.128	54.299	0.212	0.205
-463.113	-200.000	-0.040	0.304
-462.099	507.398	0.063	-0.145
-461.084	139.253	-0.038	0.050
-460.070	-73.268	0.223	-0.082
-459.055	-142.374	0.365	-0.036
-458.040	137.008	-0.141	0.184
-457.026	40.296	0.194	0.175
-456.011	89.980	0.141	-0.157
-454.997	571.941	-0.113	0.275
-453.982	-79.738	-0.266	-0.090
-452.968	-27.598	-0.465	0.270
-451.953	-2.686	0.086	-0.060
-450.938	-109.075	0.069	0.015
-449.924	-200.000	0.040	-0.219
-448.909	-84.921	0.205	-0.064
-447.895	41.084	0.187	-0.169
-446.880	800.000	0.051	-0.203
-445.865	-76.032	0.105	-0.037
-444.851	56.939	0.250	0.244
-443.836	125.624	-0.252	-0.318
-442.822	-200.000	0.029	0.174
-441.807	529.717	-0.092	-0.217
-440.792	108.197	0.195	-0.233
-439.778	146.954	-0.174	-0.235
-438.763	-59.256	0.128	0.055
-437.749	-141.182	-0.126	0.013
-436.734	95.763	-0.105	-0.120
-435.719	335.801	0.101	0.196
-434.705	800.000	0.088	-0.311
-433.690	282.496	-0.071	0.128
-432.676	114.963	0.053	0.065
-431.661	651.614	-0.190	0.487
-430.646	-145.119	0.219	-0.020
-429.632	471.818	-0.051	0.115
-428.617	310.142	0.079	0.148
-427.603	-200.000	-0.007	0.180
-426.588	-129.383	-0.162	-0.023
-425.573	84.535	0.191	-0.209
-424.559	128.188	-0.279	-0.355
-423.544	800.000	0.072	-0.303
-422.530	303.827	0.146	-0.270
-421.515	107.575	0.069	-0.082
-420.500	3.085	-0.084	-0.061
-419.486	800.000	-0.054	0.149
-418.471	446.931	0.169	0.373
-417.457	134.903	-0.143	0.186
-416.442	173.473	0.132	0.190
-415.428	-27.985	-0.050	0.029
-414.413	-200.000	-0.035	0.164
-413.398	-83.972	-0.375	-0.119
-412.384	-75.680	0.206	0.073
-411.369	-130.718	0.073	-0.010
-410.355	113.462	-0.105	-0.128
-409.340	-41.162	-0.071	-0.037
-408.325	574.529	-0.166	0.406
-407.311	500.997	-0.141	0.325
-406.296	-200.000	-0.056	-0.351
-405.282	-200.000	0.006	-0.165
-404.267	-200.000	-0.029	0.218
-403.252	-0.389	-0.190	-0.135
-402.238	-107.328	0.239	-0.052
-401.223	-200.000	0.018	-0.119
-400.209	-200.000	0.051	-0.379
-399.194	-200.000	0.008	0.037
-398.179	13.840	-0.055	-0.043
-397.165	-35.110	0.131	-0.071
-396.150	-145.224	-0.155	0.014
-395.136	284.635	-0.051	0.092
-394.121	2.405	-0.082	0.059
-393.106	-46.791	0.165	-0.081
-392.092	35.422	0.167	0.146
-391.077	-153.360	-0.352	0.024
-390.063	-88.225	0.141	-0.042
-389.048	-200.000	0.072	0.000
-388.033	-61.755	0.070	-0.029
-387.019	27.247	-0.211	0.177
-386.004	-55.161	0.380	0.171
-384.990	332.738	0.093	0.178
-383.975	529.863	0.022	-0.051
-382.960	-32.209	-0.175	-0.098
-381.946	712.451	0.046	-0.121
-380.931	80.967	-0.152	-0.163
-379.917	-200.000	-0.069	0.338
-378.902	-91.488	-0.096	0.027
-377.888	-107.698	0.522	-0.114
-376.873	-37.386	-0.078	0.041
-375.858	-34.560	0.187	-0.102
-374.844	-200.000	0.016	-0.176
-373.829	13.830	0.122	-0.095
-372.815	-58.431	0.163	0.071
-371.800	-67.713	-0.178	-0.070
-370.785	-14.013	-0.159	-0.103
-369.771	-42.402	0.212	-0.108
-368.756	-75.246	0.163	-0.058
-367.742	-75.217	-0.405	0.144
-366.727	-200.000	-0.041	-0.368
-365.712	800.000	-0.135	-0.473
-364.698	-110.971	0.161	0.033
-363.683	384.959	-0.062	-0.128
-362.669	-200.000	0.021	-0.127
-361.654	-63.363	-0.197	-0.081
-360.639	-165.590	0.101	0.004
-359.625	168.391	-0.058	0.083
-358.610	183.690	-0.110	-0.162
-357.596	141.543	-0.047	-0.062
-356.581	54.661	-0.241	-0.232
-355.566	611.694	-0.099	-0.247
-354.552	309.097	-0.082	0.153
-353.537	-200.000	-0.294	-0.001
-352.523	-194.538	-0.101	-0.001
-351.508	800.000	0.070	0.244
-350.493	33.499	-0.251	-0.217
-349.479	-200.000	0.003	-0.117
-348.464	-47.914	-0.180	0.087
-347.450	52.702	-0.090	-0.086
-346.435	800.000	-0.079	0.236
-345.420	6.324	0.102	-0.076
-344.406	130.736	-0.020	0.026
-343.391	-38.911	-0.293	0.154
-342.377	-200.000	-0.057	0.292
-341.362	-0.254	-0.256	0.181
-340.348	-97.733	0.206	0.053
-339.333	93.313	0.063	-0.071
-338.318	-128.199	0.520	0.074
-337.304	-85.439	0.159	-0.049
-336.289	-77.860	-0.261	0.090
-335.275	427.815	-0.064	0.137
-334.260	96.810	-0.052	0.060
-333.245	-200.000	-0.006	-0.119
-332.231	800.000	-0.115	-0.348
-331.216	414.232	0.087	0.185
-330.202	368.114	0.092	-0.185
-329.187	-106.127	-0.288	-0.064
-328.172	-200.000	0.039	0.505
-327.158	630.980	0.097	0.244
-326.143	-40.343	0.211	-0.109
-325.129	800.000	-0.043	-0.130
-324.114	10.348	0.177	0.134
-323.099	4.740	0.156	0.114
-322.085	48.512	0.086	-0.080
-321.070	4.484	0.163	-0.119
-320.056	-1.471	-0.212	0.149
-319.041	-2.591	0.186	-0.130
-318.026	-20.725	-0.149	-0.091
-317.012	166.267	0.022	-0.030
-315.997	267.404	-0.151	0.262
-314.983	47.128	-0.160	0.149
-313.968	-200.000	0.041	0.449
-312.953	-43.078	-0.479	0.242
-311.939	-200.000	0.034	0.246
-310.924	-40.350	0.189	-0.098
-309.910	-65.485	-0.219	-0.087
-308.895	800.000	-0.043	-0.156
-307.880	-160.909	0.137	-0.007
-306.866	-99.632	-0.187	0.047
-305.851	800.000	-0.131	0.529
-304.837	139.053	-0.062	0.081
-303.822	-143.016	0.318	-0.031
-302.807	-128.704	0.143	-0.020
-301.793	79.094	-0.140	0.149
-300.778	-51.967	0.210	0.097
-299.764	734.962	-0.042	0.112
-298.749	-83.293	-0.075	-0.024
-297.735	-21.078	-0.107	-0.065
-296.720	800.000	0.152	0.538
-295.705	233.872	-0.212	0.347
-294.691	-135.410	-0.348	0.041
-293.676	-142.955	0.091	-0.009
-292.662	309.069	-0.172	-0.321
-291.647	370.116	0.133	0.268
-290.632	-74.338	0.305	-0.110
-289.618	278.324	-0.022	-0.038
-288.603	-200.000	0.037	-0.176
-287.589	-176.197	-0.133	-0.003
-286.574	-155.522	0.208	-0.013
-285.559	202.682	0.129	0.198
-284.545	-200.000	0.025	-0.322
-283.530	-39.482	-0.273	0.142
-282.516	-200.000	-0.058	-0.271
-281.501	-200.000	0.005	0.360
-280.486	800.000	-0.101	0.362
-279.472	16.982	0.144	-0.114
-278.457	-200.000	-0.008	0.075
-277.443	800.000	0.074	-0.245
-276.428	187.019	-0.261	-0.387
-275.413	-39.086	0.092	0.048
-274.399	-200.000	0.059	0.414
-273.384	800.000	0.013	-0.040
-272.370	-159.452	0.046	0.003
-271.355	-200.000	-0.033	-0.203
-270.340	-199.867	-0.442	-0.002
-269.326	315.634	-0.127	-0.238
-268.311	19.495	0.138	0.110
-267.297	180.919	-0.121	-0.176
-266.282	-200.000	-0.003	0.113
-265.267	76.433	0.153	0.161
-264.253	80.676	-0.132	-0.142
-263.238	-43.315	0.391	0.196
-262.224	-24.997	0.192	-0.113
-261.209	-49.445	0.077	-0.036
-260.195	87.533	0.193	-0.212
-259.180	-118.422	0.134	-0.024
-258.165	9.826	0.018	0.013
-257.151	-105.998	-0.221	-0.049
-256.136	-9.579	-0.134	0.089
-255.122	26.258	-0.076	0.063
-254.107	-200.000	0.003	-0.315
-253.092	126.630	-0.041	-0.052
-252.078	192.736	-0.232	0.347
-251.063	-151.057	0.349	-0.026
-250.049	123.893	-0.330	-0.411
-249.034	137.616	-0.148	0.193
-248.019	-104.973	0.276	-0.063
-247.005	-54.481	0.211	0.095
-245.990	-151.027	-0.256	0.019
-244.976	-46.450	-0.086	0.042
-243.961	-7.975	-0.090	-0.060
-242.946	632.722	0.066	0.167
-241.932	266.476	0.129	-0.223
-240.917	-57.502	-0.477	-0.208
-239.903	800.000	0.018	0.050
-238.888	68.175	0.167	-0.170
-237.873	344.955	0.162	0.317
-236.859	-59.440	0.131	-0.056
-235.844	122.588	-0.106	0.132
-234.830	-200.000	0.012	-0.191
-233.815	-105.274	-0.419	0.095
-232.800	-200.000	0.071	-0.330
-231.786	649.793	-0.048	0.123
-230.771	-46.359	-0.077	-0.038
-229.757	100.449	0.047	0.054
-228.742	2.779	0.259	0.186
-227.727	173.098	0.136	0.194
-226.713	284.522	0.072	0.128
-225.698	-191.182	-0.347	-0.004
-224.684	-114.072	0.198	0.038
-223.669	-117.753	0.465	0.083
-222.655	-138.923	0.301	0.032
-221.640	277.102	0.094	0.166
-220.625	-200.000	-0.005	-0.025
-219.611	106.097	-0.158	0.185
-218.596	800.000	-0.058	-0.199
-217.582	-200.000	-0.003	-0.231
-216.567	-200.000	-0.002	0.235
-215.552	800.000	0.030	-0.102
-214.538	-77.189	-0.225	-0.078
-213.523	412.177	0.100	-0.210
-212.509	708.039	-0.102	0.268
-211.494	-24.238	0.199	-0.118
-210.479	-166.571	-0.071	0.003
-209.465	-74.053	-0.107	-0.038
-208.450	-48.732	0.211	-0.100
-207.436	231.143	-0.136	0.221
-206.421	30.939	-0.201	-0.170
-205.406	-200.000	-0.014	0.153
-204.392	37.118	-0.267	-0.234
-203.377	-17.369	-0.129	-0.080
-202.363	-200.000	-0.036	0.231
-201.348	65.606	-0.225	0.226
-200.333	-200.000	0.016	0.241
-199.319	589.886	-0.138	0.337
-198.304	393.424	0.124	0.257
-197.290	-81.601	0.132	0.043
-196.275	800.000	-0.147	-0.507
-195.260	108.334	0.059	0.069
-194.246	-182.935	-0.256	0.005
-193.231	792.980	0.128	0.349
-192.217	-111.669	0.256	0.051
-191.202	-57.275	-0.280	-0.122
-190.187	-78.047	0.137	0.047
-189.173	5.004	-0.183	0.134
-188.158	-74.683	0.090	0.032
-187.144	112.185	-0.073	0.088
-186.129	86.883	0.101	0.110
-185.114	-130.271	0.210	0.028
-184.100	-200.000	-0.016	-0.107
-183.085	-129.289	-0.168	-0.023
-182.071	341.334	0.054	0.105
-181.056	800.000	-0.050	0.140
-180.042	636.193	0.063	-0.159
-179.027	25.527	0.063	-0.052
-178.012	42.976	-0.076	-0.068
-176.998	-200.000	0.002	0.026
-175.983	-200.000	-0.007	0.059
-174.969	267.886	-0.087	-0.151
-173.954	-200.000	0.005	0.117
-172.939	-200.000	0.015	0.267
-171.925	-175.911	-0.098	-0.003
-170.910	-16.374	0.299	0.188
-169.896	25.572	-0.179	-0.147
-168.881	180.116	0.028	0.041
-167.866	21.062	0.187	0.150
-166.852	-200.000	0.004	0.201
-165.837	-18.912	0.089	0.055
-164.823	-39.392	-0.070	-0.037
-163.808	54.359	-0.241	0.229
-162.793	-56.516	-0.356	0.156
-161.779	-0.158	0.475	0.335
-160.764	163.941	0.057	0.080
-159.750	60.270	-0.164	-0.160
-158.735	-200.000	0.021	-0.434
-157.720	404.805	-0.090	-0.188
-156.706	-109.072	0.022	-0.005
-155.691	-125.851	-0.141	0.021
-154.677	800.000	0.080	-0.259
-153.662	-70.821	-0.198	0.074
-152.647	25.087	-0.129	0.106
-151.633	340.050	0.048	0.092
-150.618	-200.000	-0.027	0.178
-149.604	-87.611	0.318	0.095
-148.589	-84.200	-0.183	-0.057
-147.574	56.832	-0.091	-0.087
-146.560	-118.622	-0.122	-0.021
-145.545	-200.000	0.019	-0.283
-144.531	97.600	-0.070	0.080
-143.516	222.856	-0.037	0.059
-142.502	-135.085	0.427	0.051
-141.487	496.353	0.083	-0.189
-140.472	173.869	-0.105	-0.150
-139.458	-2.743	0.244	-0.169
-138.443	-61.774	0.299	0.124
-137.429	-200.000	-0.057	0.292
-136.414	800.000	0.152	0.497
-135.399	-135.189	-0.383	-0.045
-134.385	72.872	-0.085	0.088
-133.370	121.194	-0.121	-0.149
-132.356	-146.471	0.045	0.004
-131.341	-36.095	0.309	0.165
-130.326	57.566	0.096	0.093
-129.312	128.943	-0.100	0.126
-128.297	393.115	0.131	-0.269
-127.283	-200.000	0.002	0.019
-126.268	-11.684	0.218	-0.141
-125.253	800.000	-0.071	-0.239
-124.239	-200.000	-0.020	0.248
-123.224	800.000	0.041	0.160
-122.210	146.501	0.073	-0.097
-121.195	-52.676	-0.207	-0.094
-120.180	800.000	0.081	-0.307
