DTS Sentinel unit serial number:	SN413079Multiplexer serial number:	ORYXHardware model number:	OX4-SRSoftware version number:	ORYX F/W v4.00 Oryx Data Collector v3.7.2.0data status	okinstallation	princeton_trtdifferential loss correction	single-endedforward channel	channel 1reverse channel	N/Adate	2019/09/18time	19:06:35forward acquisition time	60.00reverse acquisition time	0.00gamma	496.2192k internal	0.2313k external	0.2313temperature offset calibration	1.0022default loss term (dB/km)	0.3790temperature slope calibration	1.0000multiplexer offset coefficient	1.0000multiplexer slope coefficient	1.0000fibre end	0.00T internal ref (°C)	35.37T ext. ref 1 (°C)	0.93T ext. ref 2 (°C)	24.53length (m)	temperature (°C)	Stokes	anti-Stokes-747.200	-48.735	-0.252	-0.123
-746.185	108.870	-0.112	-0.136
-745.171	-200.000	-0.045	0.273
-744.156	-23.498	0.386	0.235
-743.142	-193.089	0.350	0.003
-742.127	254.757	-0.070	0.121
-741.112	-200.000	-0.003	0.248
-740.098	-95.873	-0.225	-0.061
-739.083	-120.062	-0.312	-0.054
-738.069	-200.000	0.007	0.290
-737.054	-102.874	0.302	0.073
-736.039	-200.000	-0.008	-0.214
-735.025	800.000	-0.070	-0.200
-734.010	-200.000	-0.030	-0.256
-732.996	126.439	0.124	-0.160
-731.981	-200.000	0.012	0.104
-730.966	230.325	0.170	-0.281
-729.952	68.493	-0.092	-0.096
-728.937	-200.000	0.024	0.119
-727.923	-200.000	-0.012	-0.128
-726.908	203.501	0.068	0.107
-725.894	432.811	-0.147	-0.324
-724.879	440.146	0.118	-0.262
-723.864	99.933	-0.050	0.059
-722.850	800.000	-0.057	-0.226
-721.835	800.000	-0.104	-0.449
-720.821	-100.341	0.231	-0.058
-719.806	800.000	-0.094	-0.286
-718.791	800.000	0.067	-0.225
-717.777	800.000	-0.045	0.137
-716.762	19.652	-0.391	-0.319
-715.748	-18.920	-0.047	0.029
-714.733	-200.000	-0.032	0.167
-713.718	800.000	0.086	-0.311
-712.704	-200.000	-0.045	-0.377
-711.689	578.022	0.070	-0.174
-710.675	-55.602	0.262	-0.119
-709.660	-47.321	-0.116	0.057
-708.645	0.689	0.057	0.041
-707.631	-200.000	0.087	-0.434
-706.616	-71.457	0.378	-0.143
-705.602	800.000	-0.137	0.424
-704.587	800.000	-0.115	-0.334
-703.572	-14.343	-0.176	0.114
-702.558	-118.560	0.110	0.020
-701.543	-114.631	0.160	-0.031
-700.529	-200.000	0.014	0.162
-699.514	-128.128	-0.147	0.021
-698.499	639.041	-0.035	-0.090
-697.485	192.315	0.105	-0.160
-696.470	800.000	-0.038	0.166
-695.456	128.051	0.244	0.314
-694.441	800.000	-0.066	-0.235
-693.426	386.987	0.163	-0.341
-692.412	-176.260	-0.091	0.002
-691.397	-61.526	0.191	-0.081
-690.383	261.771	-0.209	-0.366
-689.368	-200.000	0.000	-0.160
-688.354	-123.006	-0.336	-0.055
-687.339	206.071	0.224	-0.353
-686.324	-147.078	-0.186	-0.016
-685.310	23.619	0.083	-0.069
-684.295	100.321	-0.137	0.161
-683.281	27.928	-0.118	-0.100
-682.266	-93.991	-0.479	-0.133
-681.251	-57.033	0.198	0.089
-680.237	-90.323	-0.293	0.086
-679.222	-49.567	-0.086	-0.041
-678.208	25.671	-0.141	-0.119
-677.193	-39.427	-0.022	-0.011
-676.178	-90.146	0.134	0.040
-675.164	-200.000	0.015	0.450
-674.149	-155.445	0.315	-0.021
-673.135	195.229	0.180	-0.277
-672.120	-38.153	0.351	-0.188
-671.105	351.439	0.100	-0.199
-670.091	-170.569	0.120	0.004
-669.076	-97.809	-0.212	-0.056
-668.062	-15.366	0.204	-0.132
-667.047	-31.399	-0.174	-0.099
-666.032	-104.008	-0.212	-0.050
-665.018	-200.000	-0.002	-0.217
-664.003	-34.167	-0.084	0.047
-662.989	-103.394	-0.375	0.089
-661.974	-157.614	-0.272	-0.016
-660.959	50.825	-0.057	0.055
-659.945	-115.459	-0.198	-0.038
-658.930	-200.000	0.005	0.065
-657.916	-31.694	-0.185	0.105
-656.901	19.510	-0.103	-0.084
-655.886	-200.000	-0.068	0.356
-654.872	147.245	-0.065	-0.088
-653.857	30.713	0.202	-0.175
-652.843	-50.767	-0.100	-0.048
-651.828	14.509	0.027	0.021
-650.814	-58.394	-0.048	-0.021
-649.799	-76.662	0.153	-0.054
-648.784	-114.952	-0.024	0.005
-647.770	62.588	0.105	0.106
-646.755	-200.000	0.045	-0.497
-645.741	800.000	-0.094	-0.367
-644.726	7.378	-0.120	-0.091
-643.711	800.000	0.083	0.294
-642.697	-100.414	0.220	-0.055
-641.682	15.939	0.102	0.081
-640.668	-17.329	0.026	-0.016
-639.653	134.467	-0.144	0.188
-638.638	113.178	-0.307	0.376
-637.624	59.013	-0.190	0.189
-636.609	-200.000	0.021	0.509
-635.595	-77.985	-0.326	0.113
-634.580	131.332	0.223	0.289
-633.565	21.488	0.069	-0.056
-632.551	-48.793	-0.351	-0.170
-631.536	800.000	-0.086	-0.268
-630.522	392.746	-0.044	0.092
-629.507	93.357	0.187	-0.213
-628.492	-126.186	0.189	0.029
-627.478	800.000	-0.108	0.341
-626.463	800.000	0.016	-0.057
-625.449	-37.279	0.311	-0.168
-624.434	-50.714	-0.101	0.048
-623.419	98.598	0.126	0.146
-622.405	-22.811	-0.093	-0.057
-621.390	800.000	-0.058	0.243
-620.376	-72.206	-0.169	-0.063
-619.361	-200.000	0.029	0.179
-618.346	800.000	-0.136	-0.398
-617.332	7.275	-0.208	-0.157
-616.317	22.651	-0.029	0.024
-615.303	-148.942	-0.407	0.033
-614.288	-68.724	-0.217	0.085
-613.273	-148.545	-0.070	-0.006
-612.259	800.000	-0.081	-0.325
-611.244	1.178	-0.198	-0.143
-610.230	2.883	-0.104	-0.076
-609.215	-200.000	0.015	0.154
-608.201	270.414	0.178	-0.315
-607.186	-32.458	0.110	0.062
-606.171	541.486	0.095	0.228
-605.157	-200.000	-0.061	-0.585
-604.142	-81.783	-0.120	-0.040
-603.128	-25.547	0.079	-0.047
-602.113	749.007	-0.075	-0.204
-601.098	-50.194	-0.268	-0.128
-600.084	94.636	-0.182	-0.208
-599.069	204.164	0.083	0.129
-598.055	459.723	0.160	-0.359
-597.040	800.000	0.055	0.172
-596.025	313.453	-0.041	-0.077
-595.011	125.010	-0.199	0.253
-593.996	-128.795	0.051	0.007
-592.982	-200.000	-0.053	-0.283
-591.967	-54.302	0.278	0.127
-590.952	-1.799	-0.281	0.199
-589.938	-121.343	-0.233	0.039
-588.923	-176.279	-0.325	-0.009
-587.909	271.593	-0.191	0.340
-586.894	226.041	-0.067	0.109
-585.879	-22.801	0.192	0.117
-584.865	114.232	0.042	0.052
-583.850	-200.000	0.005	0.149
-582.836	-200.000	-0.027	0.185
-581.821	255.491	0.093	-0.161
-580.806	-130.829	-0.084	-0.011
-579.792	-21.929	-0.251	-0.154
-578.777	157.499	-0.063	-0.088
-577.763	800.000	-0.054	-0.184
-576.748	314.574	-0.053	-0.101
-575.733	575.825	-0.090	0.222
-574.719	48.271	0.044	0.042
-573.704	172.085	0.139	0.201
-572.690	75.200	0.141	0.149
-571.675	-200.000	-0.009	-0.061
-570.661	-70.823	-0.430	-0.163
-569.646	316.580	0.144	-0.274
-568.631	-59.352	-0.090	0.039
-567.617	-200.000	0.004	-0.048
-566.602	347.354	0.045	-0.090
-565.588	-14.728	-0.305	0.197
-564.573	147.467	0.126	0.171
-563.558	637.653	-0.122	0.312
-562.544	-30.671	-0.194	0.110
-561.529	53.754	-0.115	-0.111
-560.515	-200.000	0.007	-0.234
-559.500	-110.934	-0.399	-0.083
-558.485	364.724	0.134	-0.271
-557.471	602.702	0.061	-0.152
-556.456	-119.437	-0.116	0.020
-555.442	-200.000	0.039	0.377
-554.427	-156.724	0.166	-0.010
-553.412	50.201	-0.526	-0.500
-552.398	-73.297	-0.117	-0.043
-551.383	213.294	0.058	0.093
-550.369	24.513	-0.437	0.364
-549.354	-41.890	-0.400	-0.206
-548.339	-47.633	-0.238	0.116
-547.325	-86.950	0.185	-0.057
-546.310	488.058	0.157	-0.362
-545.296	-175.215	0.153	0.004
-544.281	-200.000	0.049	0.338
-543.266	-200.000	-0.022	-0.220
-542.252	201.582	-0.140	-0.217
-541.237	551.034	-0.057	-0.139
-540.223	-46.788	0.106	-0.052
-539.208	-200.000	-0.057	0.301
-538.193	5.155	0.033	0.025
-537.179	-149.808	-0.165	0.013
-536.164	-62.219	0.376	-0.158
-535.150	103.324	-0.224	0.265
-534.135	-94.994	-0.104	0.028
-533.121	-10.263	0.172	0.114
-532.106	-200.000	0.013	-0.188
-531.091	-117.298	0.298	0.054
-530.077	-69.418	0.186	0.072
-529.062	91.988	-0.113	0.128
-528.048	-30.937	-0.277	-0.157
-527.033	-31.671	0.326	0.184
-526.018	-200.000	-0.030	-0.208
-525.004	-200.000	0.011	0.120
-523.989	36.406	-0.084	0.075
-522.975	230.268	0.034	0.055
-521.960	78.430	-0.176	0.189
-520.945	306.487	-0.107	0.200
-519.931	-135.308	-0.150	0.018
-518.916	-77.290	-0.286	-0.100
-517.902	-58.884	0.091	0.039
-516.887	-135.596	0.457	0.055
-515.872	558.435	0.156	-0.378
-514.858	-81.296	0.133	-0.044
-513.843	-80.988	0.031	-0.010
-512.829	29.541	0.237	0.202
-511.814	43.587	-0.195	0.180
-510.799	103.890	0.174	-0.206
-509.785	566.337	0.070	0.171
-508.770	800.000	0.107	-0.432
-507.756	-200.000	-0.048	-0.211
-506.741	-141.595	0.294	0.030
-505.726	-90.389	0.234	-0.068
-504.712	-200.000	-0.071	-0.355
-503.697	-200.000	-0.070	-0.309
-502.683	-132.774	-0.097	0.012
-501.668	-49.982	0.144	0.069
-500.653	800.000	0.035	-0.138
-499.639	-165.694	0.033	-0.001
-498.624	679.551	0.139	0.363
-497.610	116.550	0.186	-0.230
-496.595	83.042	0.095	0.104
-495.581	20.804	-0.296	0.241
-494.566	239.051	0.087	-0.145
-493.551	617.926	-0.108	0.273
-492.537	744.654	0.154	-0.416
-491.522	4.832	-0.187	-0.138
-490.508	453.625	0.084	-0.187
-489.493	-70.336	-0.180	-0.069
-488.478	-72.351	-0.193	0.072
-487.464	520.903	-0.137	0.324
-486.449	-19.483	0.111	-0.069
-485.435	-200.000	0.007	0.176
-484.420	-200.000	-0.026	0.330
-483.405	-64.638	-0.129	0.052
-482.391	-19.666	-0.272	-0.169
-481.376	-200.000	0.018	-0.155
-480.362	-21.522	-0.076	0.046
-479.347	-97.085	-0.251	-0.066
-478.332	-68.898	0.203	0.079
-477.318	800.000	-0.038	-0.121
-476.303	-92.053	-0.107	-0.030
-475.289	-42.799	-0.426	0.217
-474.274	-47.752	0.169	0.082
-473.259	10.985	-0.212	0.163
-472.245	-42.653	-0.181	0.092
-471.230	62.422	-0.394	0.394
-470.216	800.000	-0.045	-0.173
-469.201	334.370	-0.170	0.331
-468.186	-41.387	-0.151	-0.078
-467.172	-200.000	-0.003	-0.159
-466.157	183.899	0.080	0.118
-465.143	33.969	0.191	0.167
-464.128	800.000	0.029	0.083
-463.113	17.326	0.064	-0.051
-462.099	800.000	-0.038	0.142
-461.084	800.000	-0.059	-0.187
-460.070	6.867	0.406	0.303
-459.055	168.490	0.159	-0.227
-458.040	258.670	-0.030	-0.052
-457.026	-158.875	0.221	0.013
-456.011	2.597	0.264	0.192
-454.997	-154.406	0.114	-0.008
-453.982	26.028	0.103	-0.086
-452.968	-56.134	0.352	-0.157
-451.953	355.778	-0.093	-0.186
-450.938	4.397	0.164	-0.121
-449.924	292.337	-0.095	-0.173
-448.909	20.979	-0.114	0.093
-447.895	-113.142	0.204	0.040
-446.880	-107.177	-0.021	0.005
-445.865	-23.011	-0.300	-0.182
-444.851	690.698	-0.132	-0.347
-443.836	108.771	0.108	-0.129
-442.822	-4.603	-0.046	0.032
-441.807	265.833	-0.100	0.175
-440.792	-48.438	-0.073	-0.035
-439.778	132.315	0.051	0.066
-438.763	-59.203	-0.060	0.026
-437.749	800.000	-0.056	-0.171
-436.734	-200.000	-0.026	-0.237
-435.719	3.763	-0.245	-0.179
-434.705	674.936	0.037	0.097
-433.690	22.090	-0.139	0.114
-432.676	-20.654	-0.150	0.092
-431.661	-200.000	-0.011	0.430
-430.646	-165.028	-0.197	0.009
-429.632	-200.000	-0.016	0.147
-428.617	44.912	0.159	0.146
-427.603	-200.000	0.018	-0.195
-426.588	-131.254	0.496	0.066
-425.573	-39.738	0.056	-0.029
-424.559	-60.249	0.191	0.082
-423.544	16.570	0.091	-0.072
-422.530	74.400	-0.085	-0.089
-421.515	-59.896	-0.144	0.062
-420.500	61.204	0.075	-0.075
-419.486	-83.738	0.119	0.038
-418.471	-34.552	0.271	0.148
-417.457	-158.784	-0.361	-0.021
-416.442	24.641	-0.387	-0.321
-415.428	-16.063	0.182	0.116
-414.413	44.205	0.076	-0.070
-413.398	-160.557	-0.234	-0.013
-412.384	607.748	0.125	-0.312
-411.369	361.015	0.139	-0.279
-410.355	800.000	-0.074	-0.239
-409.340	86.010	-0.104	0.115
-408.325	-56.777	-0.378	0.167
-407.311	-36.767	-0.228	0.123
-406.296	199.097	-0.108	0.165
-405.282	581.359	0.064	-0.158
-404.267	-200.000	-0.012	0.201
-403.252	-200.000	0.056	0.555
-402.238	136.999	-0.225	0.295
-401.223	283.219	-0.086	0.154
-400.209	161.355	0.054	0.076
-399.194	65.844	0.325	-0.330
-398.179	-35.727	-0.135	-0.073
-397.165	16.754	-0.103	0.081
-396.150	43.650	0.195	0.178
-395.136	-3.634	0.157	-0.109
-394.121	236.193	-0.235	-0.389
-393.106	332.262	-0.096	0.185
-392.092	-200.000	0.034	0.169
-391.077	800.000	-0.040	-0.132
-390.063	-200.000	-0.006	-0.173
-389.048	66.136	0.084	0.085
-388.033	47.532	0.291	0.271
-387.019	800.000	0.020	0.060
-386.004	610.423	0.098	0.246
-384.990	18.587	0.277	0.221
-383.975	341.798	-0.052	-0.101
-382.960	13.934	-0.171	-0.133
-381.946	-121.255	-0.171	-0.029
-380.931	-63.320	0.379	0.156
-379.917	-120.848	0.127	0.021
-378.902	223.803	0.080	0.129
-377.888	54.903	0.094	0.091
-376.873	-76.869	-0.239	0.084
-375.858	800.000	0.038	-0.105
-374.844	-70.163	-0.260	0.099
-373.829	105.034	0.186	0.220
-372.815	233.565	0.085	0.140
-371.800	-11.272	-0.261	0.172
-370.785	-83.240	-0.066	0.021
-369.771	163.218	0.077	0.109
-368.756	-59.578	-0.139	0.059
-367.742	-99.438	0.191	-0.048
-366.727	527.657	-0.066	0.156
-365.712	-120.992	-0.195	-0.033
-364.698	-200.000	0.010	0.101
-363.683	107.087	0.111	0.132
-362.669	456.576	-0.058	0.128
-361.654	-53.768	-0.057	0.026
-360.639	325.073	0.080	-0.153
-359.625	73.336	-0.059	-0.062
-358.610	20.306	0.414	0.334
-357.596	-200.000	0.008	-0.397
-356.581	4.051	-0.213	0.156
-355.566	-1.971	-0.118	0.083
-354.552	-123.969	0.085	0.013
-353.537	-160.778	-0.086	-0.005
-352.523	511.513	-0.020	0.046
-351.508	-155.878	0.155	0.010
-350.493	136.474	-0.233	-0.304
-349.479	325.192	-0.097	0.184
-348.464	-0.420	0.185	0.131
-347.450	492.863	-0.053	-0.121
-346.435	-200.000	0.058	-0.342
-345.420	-8.134	-0.163	-0.110
-344.406	800.000	-0.026	-0.102
-343.391	62.262	0.318	-0.317
-342.377	99.517	-0.266	-0.308
-341.362	228.658	0.056	-0.091
-340.348	-123.408	-0.110	-0.017
-339.333	-8.674	0.107	0.072
-338.318	-200.000	0.001	0.018
-337.304	800.000	-0.120	0.382
-336.289	212.814	-0.168	-0.265
-335.275	800.000	0.112	-0.361
-334.260	-107.403	0.188	0.041
-333.245	-139.961	-0.081	-0.009
-332.231	187.303	-0.033	-0.049
-331.216	-12.569	0.249	0.162
-330.202	-200.000	0.004	-0.146
-329.187	-123.266	0.502	0.080
-328.172	183.988	-0.131	-0.193
-327.158	-114.478	0.141	-0.027
-326.143	-28.333	0.365	-0.210
-325.129	179.934	0.138	0.202
-324.114	72.113	0.044	-0.046
-323.099	800.000	-0.068	0.287
-322.085	800.000	0.055	0.167
-321.070	54.101	-0.289	-0.277
-320.056	511.822	0.025	0.058
-319.041	7.270	0.194	-0.144
-318.026	-43.022	-0.140	0.071
-317.012	-200.000	-0.047	-0.326
-315.997	-200.000	0.041	0.343
-314.983	800.000	-0.068	0.244
-313.968	50.167	-0.266	0.250
-312.953	-200.000	-0.020	-0.184
-311.939	-2.802	-0.140	-0.098
-310.924	-200.000	-0.175	0.001
-309.910	-13.424	0.164	0.106
-308.895	-81.040	-0.223	0.073
-307.880	398.579	-0.095	-0.197
-306.866	205.212	0.064	0.099
-305.851	-156.167	-0.369	-0.023
-304.837	72.780	0.244	0.254
-303.822	-200.000	0.028	0.209
-302.807	793.350	0.092	0.253
-301.793	597.341	0.032	0.078
-300.778	696.184	-0.088	0.230
-299.764	-104.820	-0.284	-0.065
-298.749	-88.700	-0.395	-0.117
-297.735	643.364	0.110	-0.278
-296.720	-106.987	0.146	0.032
-295.705	-49.159	-0.362	0.173
-294.691	-44.293	0.484	0.242
-293.676	43.001	-0.030	0.027
-292.662	-200.000	0.001	-0.083
-291.647	295.870	0.070	0.128
-290.632	219.844	-0.098	0.157
-289.618	179.458	0.095	-0.139
-288.603	-11.414	-0.266	0.174
-287.589	743.297	-0.114	0.306
-286.574	-173.267	0.345	-0.010
-285.559	-200.000	-0.003	-0.076
-284.545	282.496	0.172	-0.307
-283.530	-64.758	-0.293	-0.118
-282.516	-80.020	0.462	0.154
-281.501	-58.830	0.319	0.137
-280.486	153.611	0.089	-0.121
-279.472	-200.000	-0.021	-0.187
-278.457	-163.840	0.232	-0.011
-277.443	-23.701	0.126	0.075
-276.428	99.487	-0.231	-0.266
-275.413	-96.408	-0.208	-0.055
-274.399	161.973	-0.119	0.167
-273.384	-115.146	0.316	-0.060
-272.370	800.000	0.027	0.111
-271.355	244.312	0.112	-0.187
-270.340	-62.592	0.273	-0.113
-269.326	56.595	-0.144	0.139
-268.311	69.580	-0.041	-0.042
-267.297	-110.133	0.387	0.080
-266.282	-118.000	-0.201	-0.036
-265.267	114.325	0.048	-0.058
-264.253	-7.528	-0.197	-0.132
-263.238	-123.688	0.193	-0.030
-262.224	57.005	-0.243	-0.236
-261.209	18.146	0.091	-0.072
-260.195	-200.000	0.008	0.069
-259.180	-22.267	0.217	-0.131
-258.165	90.829	-0.073	-0.082
-257.151	-200.000	0.041	-0.410
-256.136	-166.642	0.199	0.008
-255.122	-142.302	-0.339	0.033
-254.107	146.789	0.274	0.366
-253.092	-130.650	-0.424	0.057
-252.078	139.825	0.250	-0.327
-251.063	-103.697	0.281	0.066
-250.049	72.037	0.147	0.152
-249.034	-200.000	0.020	0.089
-248.019	-88.336	0.287	0.085
-247.005	-200.000	-0.002	0.155
-245.990	-38.807	0.207	0.109
-244.976	349.810	0.125	-0.246
-243.961	308.135	-0.066	-0.123
-242.946	20.412	0.205	-0.164
-241.932	393.373	-0.032	0.066
-240.917	-200.000	-0.070	-0.331
-239.903	800.000	-0.175	-0.537
-238.888	669.825	-0.031	0.080
-237.873	-22.330	0.432	0.260
-236.859	800.000	-0.065	0.222
-235.844	-73.914	-0.080	-0.029
-234.830	-131.088	0.363	-0.048
-233.815	-96.855	0.107	0.028
-232.800	183.734	-0.107	0.157
-231.786	754.324	-0.130	-0.348
-230.771	800.000	0.046	-0.194
-229.757	-119.418	-0.151	-0.026
-228.742	-136.663	0.163	-0.019
-227.727	800.000	-0.066	0.246
-226.713	-200.000	-0.020	0.132
-225.698	1.838	0.066	-0.047
-224.684	-67.708	0.370	0.144
-223.669	325.810	-0.232	-0.440
-222.655	600.851	-0.005	-0.012
-221.640	311.754	-0.092	-0.172
-220.625	453.137	-0.108	0.238
-219.611	-155.099	-0.111	-0.007
-218.596	-84.994	0.348	0.108
-217.582	-58.235	0.449	0.194
-216.567	17.761	0.181	-0.143
-215.552	-100.745	-0.274	0.067
-214.538	296.829	-0.182	0.331
-213.523	253.043	0.040	0.068
-212.509	-130.810	-0.064	0.009
-211.494	-200.000	-0.039	0.280
-210.479	-200.000	0.007	0.160
-209.465	-17.089	0.336	-0.211
-208.450	-200.000	0.015	-0.321
-207.436	109.193	0.040	-0.048
-206.421	-200.000	-0.041	0.283
-205.406	-32.711	0.238	-0.131
-204.392	-89.623	0.201	-0.059
-203.377	-114.867	-0.194	0.037
-202.363	165.533	0.252	-0.353
-201.348	66.570	0.244	0.247
-200.333	32.985	0.092	0.079
-199.319	-168.323	0.387	-0.015
-198.304	-173.537	-0.043	0.001
-197.290	-14.832	-0.189	-0.121
-196.275	157.853	0.182	-0.251
-195.260	34.069	0.180	-0.155
-194.246	359.773	-0.079	-0.156
-193.231	-43.338	-0.183	-0.092
-192.217	-74.835	0.114	0.041
-191.202	-56.183	0.249	0.110
-190.187	-146.642	-0.358	-0.031
-189.173	-44.721	-0.083	-0.041
-188.158	-31.399	0.084	0.047
-187.144	-56.146	0.271	0.120
-186.129	-8.086	0.329	0.220
-185.114	-107.031	-0.377	0.083
-184.100	176.122	0.070	0.101
-183.085	-200.000	0.000	0.215
-182.071	-141.738	-0.252	-0.025
-181.056	-129.738	0.392	-0.054
-180.042	-41.165	0.298	-0.152
-179.027	-80.067	0.095	-0.032
-178.012	-135.179	0.307	0.037
-176.998	128.386	-0.062	-0.078
-175.983	-174.332	0.236	0.007
-174.969	576.594	0.097	0.234
-173.954	-70.312	-0.250	0.094
-172.939	530.928	0.114	-0.267
-171.925	140.157	0.146	-0.191
-170.910	319.594	-0.059	0.110
-169.896	-47.339	-0.133	-0.064
-168.881	31.956	0.055	0.047
-167.866	-59.801	-0.503	-0.214
-166.852	-142.866	0.192	-0.019
-165.837	800.000	0.064	-0.199
-164.823	435.160	0.046	-0.098
-163.808	7.910	-0.387	-0.288
-162.793	291.285	0.038	-0.068
-161.779	260.465	-0.141	0.241
-160.764	197.964	0.077	0.116
-159.750	-200.000	-0.005	0.047
-158.735	-200.000	-0.032	-0.270
-157.720	-51.991	0.095	-0.044
-156.706	-142.418	0.179	-0.017
-155.691	-200.000	0.014	0.338
-154.677	19.538	-0.178	0.142
-153.662	-67.285	0.053	0.021
-152.647	605.975	-0.120	-0.297
-151.633	788.036	0.102	0.278
-150.618	12.622	0.308	0.236
-149.604	-19.677	0.188	-0.115
-148.589	-87.091	0.151	-0.046
-147.574	13.066	-0.156	-0.120
-146.560	-76.097	0.157	0.055
-145.545	-15.842	0.284	-0.179
-144.531	721.342	-0.044	-0.117
-143.516	-97.328	0.085	-0.022
-142.502	15.910	0.175	-0.136
-141.487	7.592	-0.277	-0.205
-140.472	471.582	0.006	0.012
-139.458	-200.000	-0.064	-0.379
-138.443	-95.846	0.234	0.062
-137.429	-200.000	0.009	0.070
-136.414	409.838	0.074	-0.155
-135.399	-51.940	-0.229	-0.106
-134.385	555.399	-0.026	-0.062
-133.370	-200.000	-0.018	0.171
-132.356	-59.122	-0.207	-0.088
-131.341	800.000	0.084	-0.329
-130.326	-200.000	0.010	0.301
-129.312	38.418	-0.153	0.135
-128.297	26.140	-0.300	-0.248
-127.283	-97.620	-0.193	0.050
-126.268	-130.993	0.152	-0.020
-125.253	800.000	-0.065	-0.187
-124.239	-193.708	-0.341	0.003
-123.224	-85.434	0.295	0.091
-122.210	-200.000	0.049	-0.224
-121.195	-163.661	0.059	0.003
