DTS Sentinel unit serial number:	SN413079Multiplexer serial number:	ORYXHardware model number:	OX4-SRSoftware version number:	ORYX F/W v4.00 Oryx Data Collector v3.7.2.0data status	okinstallation	princeton_trtdifferential loss correction	single-endedforward channel	channel 1reverse channel	N/Adate	2019/09/16time	20:46:35forward acquisition time	60.00reverse acquisition time	0.00gamma	496.2192k internal	0.2324k external	0.2324temperature offset calibration	0.9950default loss term (dB/km)	0.3790temperature slope calibration	1.0000multiplexer offset coefficient	1.0000multiplexer slope coefficient	1.0000fibre end	0.00T internal ref (°C)	32.31T ext. ref 1 (°C)	0.07T ext. ref 2 (°C)	25.97length (m)	temperature (°C)	Stokes	anti-Stokes-747.200	-29.826	-0.490	0.282
-746.185	53.009	0.211	-0.204
-745.171	18.879	0.072	0.058
-744.156	301.469	-0.208	0.387
-743.142	-200.000	0.073	0.335
-742.127	-83.911	-0.282	-0.091
-741.112	-153.957	0.078	0.005
-740.098	146.463	-0.274	0.372
-739.083	89.915	0.239	0.270
-738.069	-96.665	-0.322	0.086
-737.054	-200.000	-0.013	0.178
-736.039	-22.192	-0.151	-0.092
-735.025	-200.000	-0.027	0.174
-734.010	-55.733	0.043	0.019
-732.996	-53.305	-0.242	-0.112
-731.981	-91.748	-0.344	-0.099
-730.966	-24.106	-0.135	0.082
-729.952	255.027	0.187	-0.324
-728.937	-200.000	0.012	-0.059
-727.923	-179.239	-0.108	-0.002
-726.908	103.590	0.084	0.100
-725.894	-150.366	-0.168	0.013
-724.879	800.000	0.060	-0.182
-723.864	56.754	-0.069	-0.068
-722.850	292.738	-0.082	-0.151
-721.835	-200.000	0.013	0.189
-720.821	-200.000	0.028	0.208
-719.806	155.034	-0.213	-0.296
-718.791	446.339	-0.034	-0.075
-717.777	-8.794	-0.128	0.087
-716.762	55.701	-0.255	-0.249
-715.748	-72.515	-0.213	0.079
-714.733	800.000	-0.094	-0.286
-713.718	-200.000	-0.002	0.032
-712.704	-105.518	-0.204	-0.047
-711.689	583.100	-0.109	-0.270
-710.675	47.262	0.287	-0.269
-709.660	-33.578	-0.101	0.056
-708.645	80.224	-0.388	0.421
-707.631	-200.000	0.005	-0.038
-706.616	93.225	-0.283	-0.323
-705.602	-81.147	0.119	-0.040
-704.587	-112.976	0.042	-0.008
-703.572	-6.143	-0.219	-0.151
-702.558	-157.189	0.098	0.006
-701.543	-118.421	-0.261	-0.047
-700.529	-152.668	0.275	-0.020
-699.514	36.752	0.131	0.117
-698.499	-45.765	0.314	0.156
-697.485	-200.000	0.029	0.165
-696.470	-34.056	-0.244	0.135
-695.456	-59.804	-0.037	0.016
-694.441	394.108	-0.122	-0.255
-693.426	-66.406	-0.079	0.032
-692.412	119.264	-0.126	-0.157
-691.397	112.853	-0.085	0.104
-690.383	-28.315	0.060	0.035
-689.368	800.000	-0.057	-0.233
-688.354	24.777	0.334	-0.279
-687.339	-115.280	0.065	0.012
-686.324	-51.446	-0.044	-0.021
-685.310	69.344	-0.249	0.259
-684.295	-44.394	-0.342	-0.173
-683.281	800.000	-0.064	-0.230
-682.266	34.553	0.067	-0.059
-681.251	-10.191	0.112	0.075
-680.237	160.371	-0.128	0.179
-679.222	493.541	0.081	-0.187
-678.208	-77.065	0.190	0.067
-677.193	800.000	-0.050	0.193
-676.178	436.917	-0.028	-0.062
-675.164	-177.334	-0.259	-0.006
-674.149	-200.000	-0.034	0.196
-673.135	-200.000	0.029	0.231
-672.120	644.018	-0.025	0.065
-671.105	800.000	-0.098	-0.314
-670.091	33.783	0.208	-0.182
-669.076	-24.363	0.135	-0.081
-668.062	800.000	0.079	-0.324
-667.047	3.586	-0.126	-0.093
-666.032	-200.000	-0.013	0.162
-665.018	27.928	0.112	-0.095
-664.003	82.772	0.086	0.094
-662.989	-122.886	-0.037	0.006
-661.974	22.547	-0.028	-0.023
-660.959	-32.695	-0.226	-0.127
-659.945	577.984	0.082	-0.202
-658.930	208.344	0.133	0.209
-657.916	303.377	0.058	0.107
-656.901	-200.000	-0.004	0.368
-655.886	-0.026	0.057	-0.041
-654.872	-200.000	0.020	0.097
-653.857	800.000	0.057	-0.247
-652.843	-15.363	-0.258	-0.166
-651.828	-8.854	-0.220	-0.148
-650.814	146.718	0.222	0.301
-649.799	-105.389	-0.194	0.044
-648.784	800.000	0.115	-0.444
-647.770	24.312	-0.079	-0.066
-646.755	-19.969	0.413	-0.256
-645.741	-58.300	-0.202	0.088
-644.726	-75.681	0.018	-0.006
-643.711	-110.465	0.455	0.095
-642.697	47.698	-0.037	-0.035
-641.682	-200.000	-0.042	-0.354
-640.668	-148.913	-0.340	0.028
-639.653	276.359	0.049	-0.087
-638.638	17.362	-0.232	-0.185
-637.624	-84.873	-0.074	0.024
-636.609	-157.584	0.219	0.013
-635.595	-89.018	0.399	-0.119
-634.580	-62.320	0.082	-0.034
-633.565	-200.000	-0.006	0.170
-632.551	-7.953	-0.218	-0.148
-631.536	544.533	0.155	-0.372
-630.522	800.000	-0.031	0.130
-629.507	62.291	0.234	-0.235
-628.492	-200.000	-0.063	-0.333
-627.478	135.429	0.276	0.361
-626.463	-23.865	-0.075	-0.045
-625.449	583.853	0.094	-0.232
-624.434	-79.990	-0.167	0.056
-623.419	-200.000	-0.024	-0.184
-622.405	307.436	0.103	0.193
-621.390	113.470	-0.179	0.219
-620.376	38.275	-0.130	-0.116
-619.361	224.397	-0.147	0.238
-618.346	-200.000	0.001	0.176
-617.332	299.153	-0.251	-0.464
-616.317	193.689	0.071	-0.109
-615.303	-18.342	0.274	-0.172
-614.288	160.572	-0.251	-0.352
-613.273	108.671	-0.040	0.048
-612.259	-66.222	0.140	-0.056
-611.244	-8.535	-0.089	-0.060
-610.230	800.000	0.044	0.136
-609.215	-200.000	-0.029	0.159
-608.201	800.000	-0.065	-0.275
-607.186	-61.340	-0.224	0.095
-606.171	-52.496	-0.216	-0.100
-605.157	263.182	0.118	0.206
-604.142	-136.919	-0.276	-0.032
-603.128	527.777	0.041	0.096
-602.113	70.126	-0.012	0.013
-601.098	417.114	-0.165	-0.353
-600.084	398.302	-0.092	-0.193
-599.069	77.969	0.019	-0.020
-598.055	-200.000	0.006	0.131
-597.040	22.158	-0.285	0.234
-596.025	93.055	-0.327	-0.371
-595.011	93.484	-0.077	-0.088
-593.996	-200.000	-0.006	-0.114
-592.982	-2.438	-0.090	0.063
-591.967	-73.621	-0.122	-0.044
-590.952	-114.348	0.456	-0.088
-589.938	101.938	0.070	0.082
-588.923	-86.940	-0.322	0.099
-587.909	-69.968	0.197	-0.075
-586.894	133.974	-0.011	-0.015
-585.879	612.462	0.076	0.191
-584.865	-2.794	0.263	0.184
-583.850	251.422	-0.063	-0.107
-582.836	-200.000	-0.007	-0.425
-581.821	128.983	-0.149	0.190
-580.806	-107.572	-0.259	-0.057
-579.792	-16.721	-0.087	0.055
-578.777	522.414	0.081	-0.190
-577.763	52.513	-0.201	-0.192
-576.748	28.881	0.320	-0.272
-575.733	-200.000	-0.009	-0.130
-574.719	-200.000	0.041	0.225
-573.704	514.837	0.096	0.224
-572.690	342.861	0.178	-0.350
-571.675	-200.000	0.058	-0.269
-570.661	-91.327	0.095	-0.027
-569.646	-200.000	0.031	-0.285
-568.631	-162.408	0.496	0.025
-567.617	-4.578	-0.015	0.010
-566.602	-66.093	0.218	0.087
-565.588	-122.359	0.144	-0.024
-564.573	176.626	0.029	0.042
-563.558	800.000	-0.058	-0.180
-562.544	41.508	0.149	0.135
-561.529	55.531	0.059	0.057
-560.515	47.710	-0.260	-0.243
-559.500	-33.570	0.274	-0.152
-558.485	34.099	-0.176	-0.154
-557.471	424.349	0.059	-0.127
-556.456	-155.729	-0.331	-0.021
-555.442	-200.000	0.078	0.428
-554.427	531.962	-0.055	0.130
-553.412	-8.775	0.274	-0.184
-552.398	800.000	0.056	-0.160
-551.383	-200.000	0.031	0.173
-550.369	-116.761	0.187	-0.034
-549.354	-29.864	-0.051	-0.029
-548.339	-88.512	-0.208	0.062
-547.325	58.805	0.230	-0.226
-546.310	-200.000	-0.118	-0.534
-545.296	-18.203	-0.144	0.090
-544.281	-157.806	0.302	-0.018
-543.266	25.696	-0.135	-0.112
-542.252	0.249	-0.145	0.104
-541.237	-135.326	-0.307	-0.037
-540.223	91.159	-0.065	0.073
-539.208	-200.000	0.022	0.169
-538.193	-38.650	0.229	-0.121
-537.179	-99.292	0.072	0.018
-536.164	-102.650	0.218	0.052
-535.150	-106.447	0.403	0.090
-534.135	-145.366	-0.424	-0.038
-533.121	-23.465	-0.132	0.079
-532.106	-200.000	0.001	-0.008
-531.091	112.115	-0.155	0.188
-530.077	800.000	-0.091	0.283
-529.062	-105.745	0.234	-0.053
-528.048	74.536	0.196	0.206
-527.033	80.450	0.302	0.325
-526.018	-60.469	0.162	0.069
-525.004	-39.915	-0.050	-0.026
-523.989	-111.605	0.212	0.043
-522.975	405.701	-0.081	0.171
-521.960	-200.000	-0.003	-0.261
-520.945	-200.000	-0.060	-0.455
-519.931	800.000	0.046	0.196
-518.916	175.033	0.106	-0.153
-517.902	800.000	0.014	-0.046
-516.887	800.000	-0.068	0.221
-515.872	-106.750	0.171	0.038
-514.858	99.447	0.253	0.293
-513.843	301.369	-0.110	0.204
-512.829	64.838	-0.169	0.171
-511.814	609.578	-0.072	-0.179
-510.799	-40.717	0.200	-0.104
-509.785	677.472	0.101	-0.263
-508.770	-200.000	0.006	0.091
-507.756	-200.000	0.002	0.167
-506.741	-200.000	0.043	-0.266
-505.726	-33.588	0.257	0.142
-504.712	-192.461	-0.132	-0.001
-503.697	15.700	-0.074	-0.058
-502.683	-106.752	0.209	0.046
-501.668	-3.130	-0.437	0.305
-500.653	250.242	-0.126	0.214
-499.639	436.229	-0.138	0.300
-498.624	-87.897	0.250	-0.075
-497.610	-55.970	-0.046	-0.020
-496.595	800.000	0.068	-0.299
-495.581	-37.524	-0.189	-0.101
-494.566	800.000	0.038	-0.121
-493.551	800.000	-0.024	-0.074
-492.537	78.731	0.121	0.129
-491.522	639.585	0.046	0.117
-490.508	10.731	-0.170	-0.129
-489.493	-91.126	-0.138	-0.039
-488.478	26.261	0.433	-0.361
-487.464	-168.118	-0.099	-0.004
-486.449	-172.131	-0.224	0.007
-485.435	298.378	-0.053	-0.098
-484.420	-42.191	0.158	0.081
-483.405	800.000	0.090	0.326
-482.391	-93.937	0.081	-0.022
-481.376	-200.000	0.068	0.381
-480.362	-162.570	-0.162	0.008
-479.347	38.086	0.096	-0.086
-478.332	-49.694	-0.323	0.154
-477.318	17.506	0.208	-0.165
-476.303	-133.178	-0.153	-0.019
-475.289	209.529	-0.095	-0.148
-474.274	7.720	0.154	0.115
-473.259	-129.852	0.189	0.026
-472.245	108.732	0.093	-0.111
-471.230	-111.203	0.178	0.036
-470.216	-97.572	0.238	-0.062
-469.201	245.402	-0.122	0.205
-468.186	286.851	-0.013	0.024
-467.172	-119.893	-0.209	-0.036
-466.157	-86.503	0.075	0.023
-465.143	188.589	-0.148	-0.221
-464.128	-200.000	0.000	0.021
-463.113	-116.746	-0.073	-0.013
-462.099	-40.981	-0.236	-0.122
-461.084	-78.852	0.299	0.102
-460.070	800.000	0.043	-0.152
-459.055	-112.283	-0.276	0.055
-458.040	-94.657	-0.287	0.078
-457.026	-89.781	-0.131	-0.038
-456.011	-119.886	-0.140	0.024
-454.997	93.456	-0.083	0.093
-453.982	737.285	-0.125	-0.333
-452.968	-43.627	-0.052	0.026
-451.953	-153.974	-0.197	-0.013
-450.938	-200.000	-0.008	0.073
-449.924	708.903	-0.107	-0.283
-448.909	-104.598	0.300	-0.069
-447.895	9.277	-0.145	-0.109
-446.880	-70.746	-0.093	-0.035
-445.865	-200.000	-0.010	-0.196
-444.851	138.052	-0.116	0.152
-443.836	-40.251	-0.169	0.088
-442.822	592.176	-0.095	-0.234
-441.807	341.531	-0.112	-0.219
-440.792	-49.347	0.132	0.063
-439.778	88.647	-0.039	-0.043
-438.763	66.446	-0.094	-0.096
-437.749	-200.000	-0.023	-0.136
-436.734	800.000	0.052	-0.215
-435.719	64.332	0.266	-0.267
-434.705	-79.290	0.255	0.086
-433.690	-200.000	0.054	0.302
-432.676	-127.245	0.163	-0.024
-431.661	-200.000	-0.161	0.000
-430.646	-104.621	0.204	0.047
-429.632	157.212	-0.250	-0.345
-428.617	-6.859	-0.189	-0.128
-427.603	-200.000	-0.028	0.274
-426.588	-200.000	0.055	-0.307
-425.573	800.000	-0.075	-0.266
-424.559	143.766	0.036	-0.047
-423.544	-166.880	0.328	-0.013
-422.530	-200.000	-0.040	0.314
-421.515	800.000	-0.021	0.071
-420.500	-200.000	-0.049	0.244
-419.486	-146.303	-0.195	0.017
-418.471	-200.000	0.088	0.476
-417.457	201.280	-0.054	-0.082
-416.442	-200.000	-0.004	0.123
-415.428	47.056	-0.219	-0.203
-414.413	800.000	0.020	0.083
-413.398	32.096	0.105	0.090
-412.384	-200.000	-0.015	-0.404
-411.369	603.255	0.175	0.433
-410.355	-52.415	-0.375	0.173
-409.340	-58.738	-0.130	0.056
-408.325	-116.629	-0.109	0.020
-407.311	800.000	-0.015	0.046
-406.296	115.600	-0.244	0.297
-405.282	-188.957	-0.280	0.003
-404.267	-3.050	-0.189	0.131
-403.252	800.000	0.070	0.256
-402.238	-200.000	-0.051	0.372
-401.223	301.428	-0.129	-0.238
-400.209	-161.941	-0.184	0.009
-399.194	10.651	-0.084	-0.064
-398.179	715.259	-0.162	-0.428
-397.165	14.661	-0.164	-0.128
-396.150	-9.473	0.170	0.113
-395.136	-82.747	-0.122	0.039
-394.121	-104.057	-0.125	-0.029
-393.106	800.000	0.095	-0.343
-392.092	-200.000	-0.008	0.277
-391.077	293.884	-0.157	0.285
-390.063	354.715	-0.106	0.210
-389.048	-15.641	0.160	0.101
-388.033	-94.070	0.087	0.024
-387.019	-4.140	0.156	0.108
-386.004	-112.235	0.206	0.041
-384.990	-47.217	0.068	-0.033
-383.975	-122.637	0.271	-0.044
-382.960	28.359	-0.156	0.131
-381.946	-46.944	0.121	-0.059
-380.931	-200.000	-0.005	0.131
-379.917	-84.866	0.137	0.043
-378.902	24.494	-0.108	0.089
-377.888	-35.705	-0.295	0.159
-376.873	-74.820	0.091	0.032
-375.858	-125.991	0.123	0.018
-374.844	-66.942	-0.245	0.096
-373.829	800.000	-0.027	0.113
-372.815	-84.991	0.311	0.097
-371.800	-69.287	-0.122	0.047
-370.785	-62.886	-0.246	0.101
-369.771	-121.606	0.069	0.011
-368.756	-200.000	-0.031	-0.139
-367.742	246.776	-0.229	0.384
-366.727	-200.000	0.004	-0.154
-365.712	149.327	0.179	-0.241
-364.698	229.714	-0.069	0.113
-363.683	-127.865	-0.038	-0.005
-362.669	41.138	-0.104	0.093
-361.654	29.459	0.236	-0.199
-360.639	72.969	0.080	-0.083
-359.625	-79.758	-0.115	0.039
-358.610	800.000	0.056	0.213
-357.596	50.682	0.185	-0.174
-356.581	35.661	0.224	0.196
-355.566	-17.402	-0.199	0.124
-354.552	-62.813	-0.426	0.175
-353.537	83.928	-0.188	0.204
-352.523	-200.000	0.027	0.216
-351.508	115.221	-0.158	-0.192
-350.493	-43.299	0.413	0.208
-349.479	142.546	0.136	0.179
-348.464	-116.472	0.156	-0.029
-347.450	-104.577	-0.105	0.024
-346.435	-56.561	-0.209	0.092
-345.420	41.158	-0.096	0.086
-344.406	102.615	0.047	-0.054
-343.391	-4.004	0.132	-0.091
-342.377	-121.310	0.272	0.045
-341.362	-200.000	-0.032	-0.247
-340.348	99.966	-0.055	-0.063
-339.333	248.527	-0.031	0.052
-338.318	-120.850	-0.208	-0.035
-337.304	-58.427	0.291	-0.126
-336.289	-106.291	-0.255	0.057
-335.275	27.742	-0.078	-0.066
-334.260	-156.296	0.328	0.020
-333.245	-143.990	-0.236	0.022
-332.231	-147.266	0.360	0.030
-331.216	-200.000	-0.016	0.271
-330.202	-123.599	0.300	0.047
-329.187	-200.000	-0.035	-0.370
-328.172	-200.000	0.030	0.183
-327.158	-113.027	-0.024	0.005
-326.143	-200.000	0.017	-0.295
-325.129	36.974	-0.060	-0.053
-324.114	800.000	0.073	-0.277
-323.099	-200.000	0.027	0.391
-322.085	669.120	0.103	0.265
-321.070	-11.765	-0.267	0.174
-320.056	47.355	-0.091	0.084
-319.041	800.000	0.057	-0.181
-318.026	-200.000	0.017	0.178
-317.012	800.000	0.044	-0.126
-315.997	353.402	0.105	0.207
-314.983	-89.950	0.116	0.034
-313.968	298.427	-0.088	0.161
-312.953	410.701	0.073	0.153
-311.939	-200.000	-0.002	-0.287
-310.924	-200.000	0.116	-0.000
-309.910	186.707	-0.162	0.239
-308.895	800.000	0.078	0.247
-307.880	132.239	-0.050	0.064
-306.866	-30.648	-0.123	-0.069
-305.851	247.367	0.054	0.090
-304.837	204.434	-0.133	0.204
-303.822	437.781	0.059	0.128
-302.807	473.791	0.033	-0.074
-301.793	800.000	-0.026	0.089
-300.778	11.159	0.108	0.082
-299.764	112.566	0.113	0.136
-298.749	68.444	-0.159	0.162
-297.735	100.674	-0.050	0.057
-296.720	-105.037	0.263	0.060
-295.705	308.764	0.054	-0.100
-294.691	15.829	-0.154	-0.120
-293.676	-133.023	0.118	0.015
-292.662	-200.000	-0.020	-0.145
-291.647	170.565	-0.182	0.259
-290.632	477.964	0.200	0.449
-289.618	-48.184	-0.132	-0.063
-288.603	124.664	0.061	0.076
-287.589	117.908	0.119	0.145
-286.574	-5.273	-0.052	0.035
-285.559	-0.120	0.278	0.196
-284.545	45.140	-0.346	0.316
-283.530	-12.238	-0.236	-0.153
-282.516	357.981	-0.263	-0.520
-281.501	-86.226	0.150	-0.046
-280.486	-122.138	-0.332	-0.054
-279.472	-117.543	-0.181	-0.032
-278.457	-200.000	0.017	-0.134
-277.443	-90.484	0.090	0.026
-276.428	142.821	0.190	-0.251
-275.413	1.054	0.110	0.078
-274.399	-100.046	0.217	0.054
-273.384	-133.676	0.191	-0.024
-272.370	-200.000	0.019	-0.122
-271.355	26.492	0.177	-0.147
-270.340	-185.273	-0.244	0.004
-269.326	-7.489	-0.136	-0.091
-268.311	137.708	-0.045	-0.059
-267.297	-143.104	-0.206	0.020
-266.282	-42.055	-0.300	-0.152
-265.267	-104.556	-0.080	0.018
-264.253	85.262	-0.281	-0.305
-263.238	-55.045	0.092	-0.041
-262.224	399.560	0.055	-0.113
-261.209	20.039	-0.138	0.110
-260.195	-145.810	0.277	0.024
-259.180	573.459	0.073	-0.176
-258.165	-200.000	0.005	-0.239
-257.151	69.513	0.172	-0.175
-256.136	-155.730	-0.186	0.012
-255.122	176.115	-0.132	-0.190
-254.107	-24.121	0.151	-0.090
-253.092	157.708	0.261	-0.358
-252.078	114.247	-0.100	-0.121
-251.063	-73.236	0.338	0.123
-250.049	-71.961	0.018	-0.007
-249.034	145.891	0.260	0.345
-248.019	90.289	0.072	0.080
-247.005	-143.976	-0.229	-0.021
-245.990	-131.167	-0.378	-0.050
-244.976	-108.885	0.127	-0.027
-243.961	-20.212	0.308	-0.188
-242.946	13.022	-0.107	0.082
-241.932	-149.328	0.116	-0.009
-240.917	175.760	0.127	0.183
-239.903	-95.157	-0.208	0.055
-238.888	19.842	-0.107	-0.085
-237.873	-100.592	0.466	0.114
-236.859	424.818	-0.079	0.169
-235.844	-8.754	-0.199	-0.132
-234.830	-108.870	0.213	-0.045
-233.815	-143.901	-0.126	-0.012
-232.800	-17.200	0.271	-0.169
-231.786	-200.000	-0.003	-0.235
-230.771	21.315	0.294	0.237
-229.757	-200.000	0.014	0.221
-228.742	-99.667	-0.263	0.065
-227.727	-142.285	0.213	0.021
-226.713	223.249	-0.151	0.241
-225.698	-200.000	-0.061	0.392
-224.684	265.840	0.083	0.142
-223.669	401.622	-0.110	0.228
-222.655	-81.524	-0.059	0.019
-221.640	218.539	-0.091	-0.144
-220.625	-200.000	0.013	-0.188
-219.611	-139.597	0.168	0.018
-218.596	598.370	-0.142	0.349
-217.582	-163.582	0.298	-0.014
-216.567	-22.659	-0.145	0.087
-215.552	-200.000	0.002	0.058
-214.538	1.846	-0.055	0.039
-213.523	-200.000	0.029	0.191
-212.509	-11.312	-0.045	-0.029
-211.494	-101.070	0.304	0.074
-210.479	210.545	-0.131	0.204
-209.465	-71.329	-0.170	-0.063
-208.450	-122.546	-0.112	-0.018
-207.436	-77.923	-0.080	-0.027
-206.421	-10.290	-0.065	0.042
-205.406	-115.423	-0.119	-0.022
-204.392	-106.851	0.206	-0.045
-203.377	800.000	0.030	-0.090
-202.363	-20.355	0.260	-0.158
-201.348	-200.000	0.044	-0.274
-200.333	97.885	-0.270	-0.307
-199.319	79.696	0.186	0.197
-198.304	-65.987	-0.263	-0.104
-197.290	68.825	0.023	0.023
-196.275	-113.204	0.157	-0.031
-195.260	800.000	0.034	0.123
-194.246	-100.987	-0.256	0.062
-193.231	26.594	-0.103	0.085
-192.217	239.490	0.223	0.367
-191.202	35.359	-0.066	0.057
-190.187	-200.000	0.114	0.499
-189.173	-12.174	0.126	-0.082
-188.158	108.897	0.053	0.062
-187.144	800.000	0.056	0.207
-186.129	-0.940	0.156	0.109
-185.114	473.142	0.077	-0.171
-184.100	800.000	0.017	-0.062
-183.085	-114.640	-0.294	-0.056
-182.071	186.753	-0.275	0.404
-181.056	-91.655	0.401	-0.113
-180.042	258.175	-0.082	0.140
-179.027	-157.466	-0.308	-0.018
-178.012	-200.000	-0.040	0.194
-176.998	-81.562	0.070	0.023
-175.983	61.333	-0.198	0.194
-174.969	272.049	0.055	-0.096
-173.954	-128.560	0.026	0.004
-172.939	93.699	0.045	-0.050
-171.925	146.592	-0.147	-0.196
-170.910	43.628	0.354	-0.320
-169.896	-200.000	-0.014	0.067
-168.881	800.000	-0.062	-0.260
-167.866	-11.298	0.178	-0.116
-166.852	-52.831	-0.323	0.147
-165.837	64.363	0.324	-0.322
-164.823	800.000	0.085	-0.294
-163.808	350.227	-0.072	-0.140
-162.793	19.081	0.266	-0.210
-161.779	-132.919	0.160	-0.020
-160.764	284.873	-0.112	0.199
-159.750	311.328	-0.075	0.138
-158.735	517.911	0.129	0.297
-157.720	-161.843	0.376	0.019
-156.706	-200.000	0.018	0.250
-155.691	-147.632	0.143	0.012
-154.677	-69.584	-0.052	-0.020
-153.662	715.001	-0.088	-0.229
-152.647	569.665	-0.083	-0.198
-151.633	281.144	-0.153	-0.271
-150.618	-77.194	0.076	-0.026
-149.604	201.088	0.107	-0.162
-148.589	-100.694	0.072	0.018
-147.574	-200.000	0.016	-0.126
-146.560	-66.746	0.099	0.039
-145.545	-200.000	0.049	-0.287
-144.531	486.062	0.151	-0.339
-143.516	-31.107	-0.614	0.341
-142.502	-200.000	0.033	0.176
-141.487	-89.692	-0.180	0.052
-140.472	257.043	0.186	0.314
-139.458	100.026	0.139	0.159
-138.443	-200.000	-0.029	0.265
-137.429	-200.000	-0.007	0.212
-136.414	424.866	0.130	0.276
-135.399	693.012	0.082	0.213
-134.385	22.652	-0.197	0.159
-133.370	523.635	-0.019	0.044
-132.356	800.000	0.025	0.094
-131.341	-59.637	0.095	0.040
-130.326	42.965	0.198	-0.178
-129.312	-17.889	-0.101	0.063
-128.297	-160.910	-0.429	-0.022
-127.283	-63.462	0.215	0.087
-126.268	763.427	-0.143	0.383
-125.253	195.846	0.103	0.155
-124.239	318.272	-0.113	0.210
-123.224	-5.415	-0.069	-0.047
-122.210	392.470	0.110	-0.226
-121.195	800.000	0.017	-0.067
