DTS Sentinel unit serial number:	SN413079Multiplexer serial number:	ORYXHardware model number:	OX4-SRSoftware version number:	ORYX F/W v4.00 Oryx Data Collector v3.7.2.0data status	okinstallation	princeton_trtdifferential loss correction	single-endedforward channel	channel 1reverse channel	N/Adate	2019/09/18time	11:30:35forward acquisition time	60.00reverse acquisition time	0.00gamma	496.2192k internal	0.2326k external	0.2326temperature offset calibration	0.9976default loss term (dB/km)	0.3790temperature slope calibration	1.0000multiplexer offset coefficient	1.0000multiplexer slope coefficient	1.0000fibre end	0.00T internal ref (°C)	30.45T ext. ref 1 (°C)	0.44T ext. ref 2 (°C)	28.10length (m)	temperature (°C)	Stokes	anti-Stokes-747.200	-51.311	-0.124	-0.058
-746.185	7.210	0.019	0.014
-745.171	-111.230	-0.250	-0.052
-744.156	-200.000	-0.052	0.473
-743.142	-86.865	0.109	0.034
-742.127	-63.074	-0.295	0.123
-741.112	450.473	-0.095	0.212
-740.098	408.947	0.056	0.119
-739.083	433.715	0.066	0.144
-738.069	-200.000	-0.017	0.334
-737.054	-74.650	-0.195	-0.071
-736.039	-138.934	-0.297	0.033
-735.025	-174.049	0.235	0.007
-734.010	-28.906	-0.356	-0.206
-732.996	-168.009	-0.234	-0.009
-731.981	-200.000	-0.007	0.073
-730.966	120.417	-0.082	-0.102
-729.952	-29.121	0.046	-0.027
-728.937	-81.777	-0.193	0.064
-727.923	50.070	-0.114	-0.108
-726.908	152.256	0.126	-0.173
-725.894	-104.827	-0.290	0.067
-724.879	-157.457	-0.184	-0.011
-723.864	200.272	0.161	0.249
-722.850	93.844	-0.221	0.252
-721.835	-84.647	0.099	-0.031
-720.821	-200.000	0.000	-0.274
-719.806	74.505	-0.196	-0.208
-718.791	460.412	-0.125	-0.280
-717.777	-82.519	-0.156	-0.051
-716.762	234.535	0.212	0.352
-715.748	800.000	0.103	-0.321
-714.733	800.000	-0.036	-0.107
-713.718	67.636	-0.242	0.249
-712.704	111.964	-0.094	-0.114
-711.689	-73.670	0.244	-0.090
-710.675	-147.455	0.205	0.018
-709.660	35.019	0.306	-0.270
-708.645	-189.088	-0.162	-0.002
-707.631	714.942	-0.038	0.101
-706.616	-12.837	0.288	0.189
-705.602	-11.415	0.215	0.143
-704.587	800.000	0.095	-0.340
-703.572	-116.116	-0.218	0.041
-702.558	800.000	0.119	-0.415
-701.543	192.374	-0.103	-0.156
-700.529	32.549	-0.147	-0.128
-699.514	50.544	-0.167	-0.159
-698.499	-168.017	-0.480	-0.019
-697.485	-53.545	-0.236	-0.109
-696.470	25.848	-0.080	-0.067
-695.456	-137.566	0.251	-0.029
-694.441	-48.927	0.080	-0.038
-693.426	800.000	0.196	0.598
-692.412	239.478	-0.114	-0.191
-691.397	-37.328	-0.257	-0.138
-690.383	-92.553	-0.164	0.046
-689.368	-24.633	-0.165	0.099
-688.354	-44.923	-0.145	0.073
-687.339	-56.237	-0.338	0.151
-686.324	-104.040	0.093	0.022
-685.310	-200.000	-0.107	-0.517
-684.295	-200.000	-0.033	-0.474
-683.281	-64.143	-0.263	0.108
-682.266	742.885	0.065	-0.175
-681.251	602.764	-0.212	0.532
-680.237	-27.803	0.268	-0.156
-679.222	-137.145	0.102	0.012
-678.208	244.015	0.130	-0.220
-677.193	-97.739	0.032	0.008
-676.178	800.000	0.079	0.266
-675.164	125.324	0.269	0.341
-674.149	800.000	-0.050	-0.175
-673.135	-97.239	0.447	-0.117
-672.120	665.556	-0.080	0.208
-671.105	-74.711	-0.172	-0.062
-670.091	-200.000	-0.050	-0.260
-669.076	24.101	-0.187	0.155
-668.062	-200.000	-0.115	0.627
-667.047	27.047	0.097	0.082
-666.032	-37.952	-0.107	-0.057
-665.018	-155.750	-0.104	0.007
-664.003	800.000	0.076	0.326
-662.989	110.842	-0.275	-0.333
-661.974	-200.000	-0.015	-0.189
-660.959	-133.078	-0.286	-0.036
-659.945	26.397	0.213	0.179
-658.930	-200.000	0.001	0.095
-657.916	95.060	-0.216	-0.247
-656.901	-106.090	-0.099	-0.022
-655.886	-7.890	0.051	0.035
-654.872	-142.573	0.535	0.053
-653.857	-93.171	0.267	-0.075
-652.843	800.000	-0.018	-0.055
-651.828	-200.000	0.010	-0.126
-650.814	161.797	-0.170	-0.239
-649.799	43.275	-0.094	0.086
-648.784	-200.000	-0.006	0.056
-647.770	493.650	-0.034	0.079
-646.755	-200.000	0.007	-0.080
-645.741	245.196	0.153	-0.259
-644.726	800.000	-0.019	-0.065
-643.711	490.260	-0.186	0.428
-642.697	-129.587	-0.190	0.026
-641.682	177.853	0.268	-0.393
-640.668	-200.000	-0.017	0.181
-639.653	-7.803	0.342	0.232
-638.638	-200.000	0.061	0.398
-637.624	-144.227	-0.365	-0.034
-636.609	-12.887	-0.158	-0.103
-635.595	800.000	0.028	0.087
-634.580	-141.252	0.122	0.012
-633.565	-182.535	-0.176	0.003
-632.551	-151.916	0.281	-0.021
-631.536	6.310	0.194	0.145
-630.522	-200.000	0.006	0.064
-629.507	-93.085	0.092	-0.026
-628.492	-109.481	0.134	0.028
-627.478	1.705	0.082	-0.059
-626.463	-23.533	0.423	-0.255
-625.449	109.861	-0.191	-0.230
-624.434	129.792	0.261	-0.335
-623.419	728.545	-0.060	-0.161
-622.405	-143.613	-0.216	-0.021
-621.390	90.177	-0.081	0.091
-620.376	-49.127	0.414	0.199
-619.361	730.253	0.044	0.118
-618.346	651.979	0.157	-0.405
-617.332	800.000	-0.048	-0.177
-616.317	71.427	0.029	0.030
-615.303	11.786	0.157	0.121
-614.288	-87.293	0.143	0.044
-613.273	168.135	-0.300	0.428
-612.259	33.471	0.193	0.168
-611.244	427.281	-0.145	-0.314
-610.230	11.867	-0.236	-0.182
-609.215	155.586	-0.036	-0.050
-608.201	97.938	-0.141	0.163
-607.186	539.038	-0.101	-0.242
-606.171	-200.000	0.014	-0.100
-605.157	-200.000	-0.010	0.116
-604.142	675.515	-0.107	-0.278
-603.128	-27.360	0.017	0.010
-602.113	-9.880	-0.160	-0.107
-601.098	265.365	0.125	0.218
-600.084	-34.815	-0.231	0.127
-599.069	-200.000	-0.016	0.228
-598.055	-16.038	-0.283	-0.181
-597.040	206.907	0.134	-0.209
-596.025	-58.944	-0.114	-0.049
-595.011	-24.648	-0.101	-0.060
-593.996	-200.000	0.025	-0.268
-592.982	-185.247	-0.116	-0.002
-591.967	23.678	0.211	-0.174
-590.952	-148.537	-0.176	0.014
-589.938	447.113	0.023	0.052
-588.923	-140.973	0.134	0.014
-587.909	54.988	0.130	0.126
-586.894	191.274	-0.202	-0.305
-585.879	275.226	-0.160	-0.284
-584.865	-200.000	-0.052	-0.333
-583.850	40.370	0.133	-0.120
-582.836	800.000	0.042	0.128
-581.821	180.014	-0.082	-0.120
-580.806	-200.000	-0.004	0.028
-579.792	-200.000	0.004	-0.078
-578.777	-135.905	-0.556	-0.066
-577.763	-27.302	0.246	-0.143
-576.748	-79.706	0.150	0.051
-575.733	84.804	-0.111	-0.121
-574.719	376.693	-0.088	0.179
-573.704	430.492	0.055	0.119
-572.690	-200.000	0.187	-0.000
-571.675	155.799	-0.184	-0.254
-570.661	-9.064	-0.112	0.075
-569.646	800.000	0.069	0.271
-568.631	800.000	-0.074	0.298
-567.617	800.000	-0.056	-0.211
-566.602	646.345	0.067	0.170
-565.588	205.070	-0.083	-0.128
-564.573	-92.694	0.262	0.073
-563.558	-93.514	-0.292	0.081
-562.544	800.000	0.104	0.403
-561.529	551.410	0.092	0.221
-560.515	-140.214	0.091	-0.010
-559.500	800.000	0.067	-0.193
-558.485	-200.000	-0.035	0.184
-557.471	-191.864	-0.259	-0.003
-556.456	-102.307	-0.367	0.088
-555.442	79.819	-0.262	0.282
-554.427	-152.112	-0.151	-0.011
-553.412	16.065	-0.406	-0.320
-552.398	-41.251	0.202	-0.104
-551.383	234.333	-0.226	0.372
-550.369	102.958	0.178	0.209
-549.354	126.211	-0.149	-0.188
-548.339	-200.000	0.042	-0.474
-547.325	171.521	0.205	0.295
-546.310	9.151	-0.070	0.053
-545.296	-78.377	-0.302	0.104
-544.281	-103.770	-0.190	0.045
-543.266	-28.276	0.166	0.096
-542.252	117.372	-0.104	0.128
-541.237	75.344	0.323	-0.341
-540.223	-114.330	-0.288	-0.055
-539.208	800.000	0.108	-0.339
-538.193	-77.409	-0.030	-0.011
-537.179	800.000	0.138	0.390
-536.164	144.898	-0.069	-0.093
-535.150	-200.000	-0.009	0.168
-534.135	105.599	-0.144	-0.171
-533.121	163.860	-0.083	-0.117
-532.106	13.352	-0.297	0.230
-531.091	800.000	-0.047	-0.129
-530.077	-11.963	0.284	0.186
-529.062	-110.512	0.100	-0.021
-528.048	800.000	0.021	0.082
-527.033	-39.275	0.267	-0.140
-526.018	243.327	0.057	-0.096
-525.004	-121.185	0.142	0.024
-523.989	610.857	0.109	0.273
-522.975	-200.000	-0.043	0.214
-521.960	60.068	-0.123	-0.122
-520.945	-5.837	0.195	-0.134
-519.931	81.171	-0.290	-0.314
-518.916	598.509	-0.110	-0.272
-517.902	-36.429	0.236	0.127
-516.887	22.533	0.097	-0.079
-515.872	-116.194	0.132	0.024
-514.858	10.531	-0.193	-0.147
-513.843	-200.000	-0.020	-0.088
-512.829	-188.741	-0.146	-0.002
-511.814	-74.834	0.141	-0.051
-510.799	53.325	-0.160	0.154
-509.785	800.000	-0.029	0.098
-508.770	141.128	-0.096	-0.127
-507.756	299.805	0.135	-0.248
-506.741	-86.985	0.374	0.114
-505.726	284.937	0.089	0.160
-504.712	401.508	-0.073	0.153
-503.697	123.076	-0.029	0.036
-502.683	676.116	0.089	-0.230
-501.668	-200.000	-0.067	-0.293
-500.653	115.164	0.191	-0.233
-499.639	94.086	-0.074	-0.084
-498.624	33.423	0.082	0.071
-497.610	-104.511	-0.111	-0.026
-496.595	-200.000	-0.004	-0.078
-495.581	247.232	0.046	-0.077
-494.566	123.067	-0.009	0.012
-493.551	-200.000	-0.076	0.357
-492.537	-81.615	-0.105	-0.034
-491.522	-30.016	-0.188	0.107
-490.508	52.112	0.113	-0.108
-489.493	265.249	-0.101	-0.175
-488.478	295.564	-0.160	-0.293
-487.464	25.147	0.059	0.049
-486.449	-132.027	-0.427	-0.056
-485.435	800.000	0.039	0.145
-484.420	53.312	0.241	0.231
-483.405	-200.000	0.033	-0.361
-482.391	800.000	0.077	-0.231
-481.376	-66.530	-0.091	0.036
-480.362	-107.727	-0.303	-0.066
-479.347	-77.576	0.236	0.082
-478.332	-200.000	0.022	0.102
-477.318	72.051	0.149	-0.154
-476.303	158.509	0.108	0.150
-475.289	9.851	-0.089	0.067
-474.274	65.460	-0.097	0.098
-473.259	49.298	-0.338	-0.317
-472.245	251.060	-0.054	0.092
-471.230	51.462	0.341	-0.324
-470.216	-34.306	-0.149	-0.082
-469.201	-35.010	0.159	0.086
-468.186	32.206	-0.048	0.042
-467.172	397.537	-0.090	0.187
-466.157	-125.446	-0.297	0.045
-465.143	-91.522	-0.456	0.130
-464.128	137.547	0.197	-0.257
-463.113	800.000	0.056	-0.207
-462.099	-137.947	0.342	-0.038
-461.084	800.000	0.094	-0.296
-460.070	-106.111	-0.019	-0.004
-459.055	100.852	-0.211	0.245
-458.040	286.806	0.069	0.124
-457.026	58.328	0.123	-0.120
-456.011	-84.099	-0.097	0.031
-454.997	315.833	0.100	0.188
-453.982	-118.274	-0.189	0.034
-452.968	72.630	0.215	0.224
-451.953	-200.000	-0.036	-0.240
-450.938	301.718	0.236	-0.435
-449.924	151.326	0.135	0.183
-448.909	-120.032	-0.104	-0.018
-447.895	-92.078	-0.257	-0.072
-446.880	-183.630	0.389	0.007
-445.865	-61.831	-0.614	-0.256
-444.851	-200.000	-0.028	-0.129
-443.836	-169.417	-0.069	-0.003
-442.822	-179.253	-0.323	-0.007
-441.807	304.227	-0.111	0.206
-440.792	-2.875	-0.121	0.084
-439.778	154.189	0.089	-0.121
-438.763	800.000	-0.079	-0.298
-437.749	614.436	0.069	0.171
-436.734	39.828	0.106	0.095
-435.719	-105.440	-0.285	-0.065
-434.705	-69.449	0.239	-0.091
-433.690	-73.944	-0.104	0.038
-432.676	800.000	-0.028	0.097
-431.661	228.887	0.064	0.104
-430.646	-200.000	-0.045	-0.242
-429.632	12.830	-0.197	-0.152
-428.617	-171.953	-0.471	0.015
-427.603	-200.000	0.026	-0.132
-426.588	73.660	0.146	-0.152
-425.573	-44.420	-0.253	0.126
-424.559	800.000	-0.088	0.377
-423.544	318.445	0.090	0.169
-422.530	-96.843	-0.285	-0.074
-421.515	-67.489	0.169	0.066
-420.500	-150.160	-0.018	-0.001
-419.486	-200.000	-0.015	0.128
-418.471	-154.291	-0.236	0.016
-417.457	-44.721	-0.243	0.121
-416.442	166.655	0.124	-0.176
-415.428	-200.000	0.005	-0.108
-414.413	585.443	-0.092	0.226
-413.398	800.000	0.126	-0.436
-412.384	800.000	0.143	0.454
-411.369	80.105	0.118	-0.127
-410.355	116.219	0.234	-0.285
-409.340	-166.450	-0.256	0.011
-408.325	800.000	-0.024	-0.097
-407.311	800.000	-0.065	-0.237
-406.296	-37.962	0.271	0.143
-405.282	37.025	0.365	0.321
-404.267	-188.916	-0.330	0.004
-403.252	411.141	-0.109	-0.231
-402.238	-91.124	0.156	-0.045
-401.223	112.357	-0.183	0.220
-400.209	-44.658	0.097	-0.048
-399.194	-200.000	-0.009	-0.238
-398.179	800.000	-0.016	-0.056
-397.165	800.000	-0.110	0.305
-396.150	-115.701	0.319	-0.059
-395.136	557.040	0.072	0.173
-394.121	105.452	0.121	0.142
-393.106	-99.122	-0.129	0.033
-392.092	-200.000	0.033	0.167
-391.077	-102.758	0.262	0.062
-390.063	-147.421	0.236	0.020
-389.048	-200.000	0.023	-0.162
-388.033	-109.889	0.206	0.043
-387.019	-190.396	-0.138	-0.001
-386.004	313.950	-0.053	-0.099
-384.990	800.000	-0.019	-0.078
-383.975	-144.293	0.199	-0.018
-382.960	-200.000	0.001	-0.497
-381.946	-34.392	0.138	-0.075
-380.931	-34.426	0.246	-0.134
-379.917	66.395	0.225	-0.228
-378.902	-142.868	-0.235	-0.023
-377.888	149.614	0.123	0.166
-376.873	-145.747	0.196	-0.017
-375.858	446.899	0.017	-0.036
-374.844	-110.836	-0.313	-0.064
-373.829	-139.417	-0.220	0.023
-372.815	464.222	0.044	0.099
-371.800	101.707	0.122	-0.142
-370.785	-97.976	0.245	0.063
-369.771	34.419	-0.055	-0.047
-368.756	-52.644	0.110	0.050
-367.742	17.134	-0.232	0.183
-366.727	56.421	-0.094	0.091
-365.712	96.936	-0.157	-0.179
-364.698	118.731	0.254	-0.312
-363.683	-155.485	0.130	-0.008
-362.669	265.482	0.060	0.105
-361.654	-200.000	-0.038	0.191
-360.639	-170.651	-0.082	0.003
-359.625	-200.000	-0.019	-0.243
-358.610	-84.916	-0.269	0.084
-357.596	-200.000	-0.009	0.285
-356.581	800.000	0.109	-0.400
-355.566	-200.000	0.049	0.230
-354.552	611.315	0.147	0.366
-353.537	-45.494	-0.279	0.137
-352.523	-40.433	-0.372	0.192
-351.508	-70.116	-0.577	-0.218
-350.493	768.785	0.275	0.744
-349.479	-148.481	0.378	-0.031
-348.464	9.186	-0.212	-0.159
-347.450	-10.034	0.181	-0.119
-346.435	-83.558	0.153	-0.049
-345.420	24.382	-0.237	-0.195
-344.406	153.368	0.175	-0.238
-343.391	19.859	-0.240	-0.192
-342.377	-63.449	-0.234	0.096
-341.362	150.808	-0.058	0.078
-340.348	52.336	-0.110	-0.105
-339.333	-109.672	0.033	0.007
-338.318	-34.722	-0.349	0.190
-337.304	4.384	0.369	0.268
-336.289	19.909	-0.165	0.132
-335.275	-24.672	0.139	-0.082
-334.260	417.667	-0.042	0.090
-333.245	48.413	0.318	-0.296
-332.231	483.097	-0.110	-0.249
-331.216	8.843	-0.276	0.207
-330.202	-200.000	0.017	0.269
-329.187	-92.074	-0.067	0.019
-328.172	36.548	0.104	-0.091
-327.158	-138.020	0.135	-0.015
-326.143	-184.803	0.113	-0.002
-325.129	-166.572	0.037	-0.002
-324.114	713.664	0.152	-0.400
-323.099	800.000	-0.135	0.447
-322.085	-113.782	-0.374	0.072
-321.070	111.359	0.216	-0.258
-320.056	-107.652	-0.123	0.027
-319.041	55.916	0.280	-0.269
-318.026	-140.399	-0.340	-0.035
-317.012	497.816	-0.089	0.203
-315.997	6.558	0.051	0.038
-314.983	-100.676	-0.099	-0.024
-313.968	-200.000	0.029	0.135
-312.953	-200.000	0.118	0.512
-311.939	-132.074	-0.365	0.047
-310.924	190.588	0.251	0.375
-309.910	-66.196	0.176	0.069
-308.895	-45.389	0.388	0.191
-307.880	800.000	0.052	-0.211
-306.866	-127.082	0.245	0.036
-305.851	186.994	-0.144	0.213
-304.837	342.440	-0.098	-0.191
-303.822	0.987	0.114	0.081
-302.807	455.809	0.041	0.091
-301.793	196.616	-0.142	-0.214
-300.778	-29.077	-0.217	-0.123
-299.764	136.843	0.235	0.304
-298.749	-133.445	-0.168	0.021
-297.735	221.355	-0.054	-0.086
-296.720	138.731	0.179	0.233
-295.705	460.964	-0.072	0.159
-294.691	161.944	0.038	0.053
-293.676	-200.000	-0.021	-0.140
-292.662	240.813	-0.143	-0.237
-291.647	-200.000	0.038	0.235
-290.632	377.290	0.062	0.126
-289.618	51.425	0.174	0.164
-288.603	736.335	0.050	-0.133
-287.589	-82.452	-0.075	0.024
-286.574	-27.998	-0.109	-0.062
-285.559	-102.609	0.187	-0.044
-284.545	248.053	0.110	-0.184
-283.530	743.703	-0.014	0.037
-282.516	-5.980	0.191	-0.130
-281.501	221.160	-0.063	0.100
-280.486	800.000	-0.082	-0.266
-279.472	-184.946	-0.096	-0.001
-278.457	91.047	-0.079	-0.088
-277.443	12.835	-0.110	0.084
-276.428	-43.796	0.323	0.161
-275.413	4.407	-0.090	-0.065
-274.399	-200.000	-0.000	0.147
-273.384	-36.729	-0.067	-0.036
-272.370	-85.266	-0.190	-0.059
-271.355	13.702	0.086	0.066
-270.340	-200.000	-0.021	-0.144
-269.326	-147.358	0.313	0.026
-268.311	246.262	-0.052	0.087
-267.297	-200.000	0.021	0.173
-266.282	-200.000	-0.007	0.108
-265.267	262.717	-0.031	-0.054
-264.253	800.000	-0.065	-0.246
-263.238	-19.400	0.233	0.143
-262.224	800.000	-0.050	0.151
-261.209	-200.000	0.020	-0.255
-260.195	99.308	0.063	-0.072
-259.180	-85.068	-0.216	0.067
-258.165	746.096	-0.070	-0.186
-257.151	-67.376	-0.094	-0.037
-256.136	-200.000	-0.015	0.134
-255.122	-200.000	-0.024	0.114
-254.107	-200.000	-0.020	-0.097
-253.092	96.372	0.107	0.121
-252.078	94.573	-0.143	0.161
-251.063	5.389	0.171	-0.125
-250.049	-119.793	-0.149	-0.025
-249.034	-135.374	0.155	-0.018
-248.019	32.241	0.155	-0.133
-247.005	288.445	0.074	0.132
-245.990	-114.362	0.262	-0.050
-244.976	192.932	-0.067	-0.100
-243.961	-97.512	0.236	-0.061
-242.946	-183.983	0.287	-0.005
-241.932	-200.000	-0.018	0.336
-240.917	-200.000	0.009	0.090
-239.903	6.505	-0.165	-0.121
-238.888	-118.472	0.265	-0.047
-237.873	-200.000	-0.007	-0.249
-236.859	-50.219	0.263	0.123
-235.844	-38.143	0.071	0.037
-234.830	-122.802	0.040	0.006
-233.815	-130.454	-0.218	0.029
-232.800	1.050	-0.054	-0.038
-231.786	-200.000	0.011	0.316
-230.771	-200.000	0.021	0.181
-229.757	-200.000	0.005	-0.307
-228.742	-124.867	-0.134	-0.021
-227.727	143.086	0.055	0.072
-226.713	123.750	0.185	-0.229
-225.698	210.421	0.262	0.406
-224.684	368.140	-0.111	0.223
-223.669	800.000	-0.035	0.136
-222.655	96.506	0.124	0.140
-221.640	7.229	-0.317	0.234
-220.625	-200.000	-0.018	-0.445
-219.611	-34.055	-0.252	-0.137
-218.596	-183.462	-0.217	-0.004
-217.582	48.319	0.180	-0.167
-216.567	-89.125	0.219	0.064
-215.552	-200.000	0.049	0.247
-214.538	122.166	0.122	0.151
-213.523	64.174	0.168	0.167
-212.509	-144.023	-0.408	-0.038
-211.494	479.605	0.072	-0.161
-210.479	419.286	-0.127	-0.268
-209.465	-95.462	-0.281	-0.075
-208.450	-3.781	0.168	0.115
-207.436	418.834	0.056	-0.119
-206.421	199.842	0.364	-0.552
-205.406	-58.731	-0.362	0.155
-204.392	-137.360	0.520	-0.058
-203.377	800.000	0.030	-0.092
-202.363	-164.714	0.226	0.010
-201.348	-200.000	-0.007	-0.061
-200.333	-121.389	-0.180	0.030
-199.319	-63.372	-0.383	0.156
-198.304	800.000	0.056	-0.173
-197.290	-56.131	-0.302	-0.133
-196.275	220.045	-0.135	0.214
-195.260	23.069	-0.051	-0.042
-194.246	-14.794	-0.308	0.195
-193.231	-68.034	0.276	-0.106
-192.217	-40.896	-0.240	0.123
-191.202	800.000	0.074	-0.229
-190.187	660.014	0.094	-0.240
-189.173	-165.360	-0.157	0.007
-188.158	574.320	-0.095	0.229
-187.144	25.653	-0.120	-0.098
-186.129	446.986	0.073	-0.158
-185.114	-4.771	0.075	0.051
-184.100	-163.329	0.129	0.006
-183.085	-12.266	0.128	-0.082
-182.071	141.699	0.330	0.432
-181.056	-129.436	0.246	0.034
-180.042	477.020	-0.054	0.119
-179.027	202.651	0.145	0.220
-178.012	-200.000	-0.017	0.212
-176.998	184.602	0.156	-0.227
-175.983	508.536	0.122	0.279
-174.969	155.503	0.063	0.085
-173.954	27.108	-0.096	0.080
-172.939	-128.001	-0.101	0.014
-171.925	-48.953	0.254	0.120
-170.910	-158.510	0.130	0.007
-169.896	-200.000	-0.020	0.320
-168.881	-119.290	-0.223	0.038
-167.866	243.874	0.085	0.140
-166.852	-49.342	-0.460	-0.216
-165.837	-167.754	0.320	-0.012
-164.823	800.000	0.040	0.129
-163.808	542.743	-0.079	0.186
-162.793	-125.851	0.271	0.040
-161.779	-6.665	0.168	0.113
-160.764	-103.539	-0.059	-0.014
-159.750	129.832	0.105	0.132
-158.735	-69.681	0.298	-0.112
-157.720	-200.000	0.053	-0.275
-156.706	34.243	-0.149	-0.128
-155.691	800.000	0.045	0.142
-154.677	-96.229	0.296	0.078
-153.662	-169.306	0.127	-0.005
-152.647	-83.728	-0.035	-0.011
-151.633	657.940	0.061	0.154
-150.618	-129.546	0.177	0.024
-149.604	54.243	-0.047	0.045
-148.589	-200.000	-0.002	0.079
-147.574	178.015	-0.098	-0.141
-146.560	179.944	-0.193	0.279
-145.545	630.491	-0.084	0.209
-144.531	45.467	0.128	-0.117
-143.516	-156.937	-0.249	-0.015
-142.502	36.482	0.276	0.240
-141.487	-124.067	-0.056	-0.009
-140.472	-99.366	-0.216	0.054
-139.458	-64.333	0.271	-0.109
-138.443	-172.364	0.165	0.005
-137.429	-200.000	-0.245	0.000
-136.414	-82.110	0.082	0.026
-135.399	-167.888	-0.134	0.005
-134.385	-200.000	-0.015	-0.229
-133.370	-200.000	0.056	0.263
-132.356	-200.000	0.092	-0.410
-131.341	-69.825	-0.090	0.034
-130.326	122.933	-0.111	-0.137
-129.312	54.664	0.144	-0.136
-128.297	122.121	-0.214	0.263
-127.283	-200.000	0.024	-0.168
-126.268	-110.119	0.153	0.031
-125.253	134.982	0.124	-0.158
-124.239	-136.947	0.087	-0.010
-123.224	162.488	0.132	0.182
-122.210	-107.816	-0.207	-0.044
