DTS Sentinel unit serial number:	SN413079Multiplexer serial number:	ORYXHardware model number:	OX4-SRSoftware version number:	ORYX F/W v4.00 Oryx Data Collector v3.7.2.0data status	okinstallation	princeton_trtdifferential loss correction	single-endedforward channel	channel 1reverse channel	N/Adate	2019/09/11time	14:32:11forward acquisition time	60.00reverse acquisition time	0.00gamma	496.2192k internal	0.2293k external	0.2293temperature offset calibration	0.9986default loss term (dB/km)	0.3790temperature slope calibration	1.0000multiplexer offset coefficient	1.0000multiplexer slope coefficient	1.0000fibre end	0.00T internal ref (°C)	42.20T ext. ref 1 (°C)	0.90T ext. ref 2 (°C)	37.73length (m)	temperature (°C)	Stokes	anti-Stokes-747.200	157.731	-0.038	-0.054
-746.185	-103.528	0.127	-0.031
-745.171	320.541	-0.101	-0.197
-744.156	-51.175	-0.189	0.090
-743.142	96.202	-0.150	0.176
-742.127	587.879	0.056	0.140
-741.112	-19.666	0.055	0.035
-740.098	-157.616	0.143	0.009
-739.083	347.350	0.233	-0.470
-738.069	-93.254	0.265	0.075
-737.054	-64.195	-0.157	-0.066
-736.039	-90.229	-0.290	0.086
-735.025	800.000	-0.120	0.432
-734.010	0.461	-0.214	-0.157
-732.996	186.622	-0.079	-0.121
-731.981	-162.644	-0.168	0.008
-730.966	800.000	-0.105	-0.410
-729.952	800.000	0.061	0.204
-728.937	-143.351	-0.416	-0.041
-727.923	107.970	-0.060	0.073
-726.908	-31.269	-0.225	0.130
-725.894	-200.000	-0.030	0.182
-724.879	800.000	-0.107	-0.361
-723.864	-118.906	-0.141	-0.025
-722.850	24.925	0.223	-0.189
-721.835	-200.000	0.021	0.115
-720.821	-90.442	0.291	-0.086
-719.806	122.567	0.106	0.136
-718.791	-200.000	-0.016	-0.228
-717.777	-64.107	-0.162	0.068
-716.762	107.657	0.071	0.086
-715.748	800.000	-0.075	-0.284
-714.733	-0.134	0.053	0.038
-713.718	-200.000	-0.095	-0.458
-712.704	15.549	0.154	0.123
-711.689	-200.000	-0.003	-0.174
-710.675	-155.705	0.192	0.013
-709.660	-200.000	0.017	0.282
-708.645	22.895	0.168	0.141
-707.631	-20.069	-0.300	-0.189
-706.616	-83.003	-0.295	-0.097
-705.602	-200.000	-0.025	-0.656
-704.587	223.008	0.164	-0.270
-703.572	800.000	0.066	-0.256
-702.558	-61.617	0.358	-0.153
-701.543	239.650	0.031	0.053
-700.529	-200.000	-0.014	0.421
-699.514	181.993	-0.067	0.100
-698.499	-54.284	0.163	-0.075
-697.485	185.966	-0.203	-0.309
-696.470	-97.679	0.273	-0.072
-695.456	800.000	-0.096	-0.339
-694.441	800.000	-0.093	-0.280
-693.426	-9.876	0.242	0.164
-692.412	66.389	-0.231	0.240
-691.397	-2.637	-0.146	-0.105
-690.383	37.071	0.294	-0.266
-689.368	-97.303	-0.315	0.084
-688.354	800.000	0.046	0.155
-687.339	-53.657	-0.250	-0.117
-686.324	-75.335	-0.189	0.069
-685.310	800.000	0.054	0.213
-684.295	-15.193	0.214	0.140
-683.281	-88.980	-0.015	-0.005
-682.266	-200.000	-0.046	0.263
-681.251	222.429	0.282	0.463
-680.237	-200.000	0.004	0.148
-679.222	-132.838	0.029	0.004
-678.208	150.121	-0.159	-0.221
-677.193	-200.000	-0.030	0.273
-676.178	134.602	-0.148	0.196
-675.164	9.428	-0.309	-0.239
-674.149	-200.000	-0.023	0.289
-673.135	-23.514	0.122	-0.075
-672.120	-95.774	0.164	-0.045
-671.105	-200.000	0.046	0.255
-670.091	-130.388	-0.449	0.062
-669.076	-200.000	-0.020	0.375
-668.062	-200.000	0.027	-0.184
-667.047	-98.155	-0.366	0.096
-666.032	-200.000	0.007	0.033
-665.018	22.580	0.093	0.078
-664.003	424.482	0.105	-0.230
-662.989	-119.273	0.219	0.039
-661.974	-200.000	-0.006	0.089
-660.959	800.000	0.107	-0.354
-659.945	340.088	-0.079	0.158
-658.930	-7.436	0.078	-0.054
-657.916	419.991	-0.055	0.121
-656.901	-191.566	0.237	-0.002
-655.886	800.000	-0.098	0.310
-654.872	-120.684	-0.330	-0.057
-653.857	-1.832	-0.205	0.147
-652.843	567.716	0.048	-0.118
-651.828	-137.919	0.068	-0.008
-650.814	-75.501	-0.273	0.099
-649.799	-200.000	-0.035	0.342
-648.784	800.000	-0.111	-0.313
-647.770	204.159	0.107	-0.169
-646.755	-53.926	0.044	-0.020
-645.741	-91.120	0.519	-0.152
-644.726	412.422	-0.105	0.227
-643.711	42.050	0.047	-0.044
-642.697	187.787	0.047	0.071
-641.682	-47.313	-0.244	0.121
-640.668	-200.000	0.031	0.454
-639.653	300.130	0.028	0.053
-638.638	-79.905	-0.229	-0.078
-637.624	27.284	-0.083	-0.071
-636.609	-200.000	-0.021	-0.134
-635.595	-98.447	-0.149	0.039
-634.580	-129.039	-0.064	-0.009
-633.565	165.149	-0.309	-0.444
-632.551	-200.000	0.002	0.036
-631.536	173.979	-0.068	-0.101
-630.522	52.195	0.363	-0.353
-629.507	20.489	-0.286	0.236
-628.492	-72.528	-0.181	0.068
-627.478	-48.453	-0.166	0.082
-626.463	-200.000	-0.010	-0.284
-625.449	-77.766	-0.233	-0.082
-624.434	800.000	0.041	-0.140
-623.419	125.234	-0.066	0.084
-622.405	-200.000	0.004	-0.220
-621.390	-61.643	0.120	0.051
-620.376	-146.154	0.125	0.011
-619.361	-200.000	0.007	-0.199
-618.346	-129.324	-0.112	-0.016
-617.332	-122.520	0.531	-0.088
-616.317	90.422	0.021	0.024
-615.303	-56.788	0.474	-0.213
-614.288	-169.503	0.322	0.012
-613.273	-200.000	0.003	0.120
-612.259	682.287	-0.057	-0.150
-611.244	-142.554	-0.146	-0.015
-610.230	-18.913	-0.183	0.116
-609.215	141.448	0.143	0.192
-608.201	211.675	-0.033	0.053
-607.186	-138.340	-0.143	-0.016
-606.171	313.122	0.128	-0.244
-605.157	479.140	-0.037	-0.086
-604.142	102.725	-0.054	-0.065
-603.128	-77.424	-0.120	0.042
-602.113	-124.388	-0.288	-0.046
-601.098	523.817	-0.059	-0.141
-600.084	333.125	-0.108	0.212
-599.069	357.397	0.126	0.256
-598.055	-115.129	-0.088	0.017
-597.040	-34.082	-0.204	-0.114
-596.025	-106.546	0.218	-0.049
-595.011	104.338	0.162	-0.194
-593.996	-200.000	0.012	-0.150
-592.982	-17.538	0.042	0.027
-591.967	-200.000	-0.025	0.175
-590.952	36.589	-0.249	-0.224
-589.938	-107.228	0.211	0.047
-588.923	-10.599	-0.150	-0.101
-587.909	-137.782	-0.532	0.061
-586.894	-195.541	-0.196	0.001
-585.879	9.955	0.224	0.173
-584.865	3.655	0.163	0.121
-583.850	52.924	-0.072	-0.070
-582.836	-91.169	-0.126	0.037
-581.821	-31.427	0.115	0.066
-580.806	62.198	-0.297	-0.301
-579.792	107.931	-0.227	-0.275
-578.777	-18.365	-0.422	-0.268
-577.763	-176.407	0.514	-0.014
-576.748	314.457	0.032	-0.062
-575.733	800.000	-0.061	0.207
-574.719	-74.904	0.323	0.118
-573.704	800.000	0.021	0.089
-572.690	-144.715	-0.278	-0.026
-571.675	74.710	0.219	-0.235
-570.661	273.182	0.118	-0.212
-569.646	-121.138	-0.215	0.037
-568.631	-73.297	0.156	0.058
-567.617	-63.296	-0.107	-0.045
-566.602	-14.230	0.176	0.115
-565.588	-200.000	-0.029	0.387
-564.573	800.000	0.065	0.220
-563.558	-91.666	0.215	-0.062
-562.544	-200.000	-0.024	0.219
-561.529	494.112	0.144	0.337
-560.515	259.002	-0.040	0.070
-559.500	-78.932	-0.208	0.072
-558.485	320.678	-0.031	0.059
-557.471	585.520	0.126	-0.314
-556.456	-200.000	0.010	0.068
-555.442	-116.053	-0.089	0.017
-554.427	252.437	0.057	0.098
-553.412	515.809	0.147	-0.348
-552.398	-54.165	0.243	-0.112
-551.383	-132.472	-0.243	0.032
-550.369	102.575	0.253	0.300
-549.354	-116.557	0.351	0.066
-548.339	-200.000	-0.014	-0.180
-547.325	-182.309	0.026	-0.000
-546.310	-200.000	-0.005	0.174
-545.296	168.181	-0.122	0.177
-544.281	0.261	-0.127	0.092
-543.266	146.740	-0.159	0.217
-542.252	-171.703	-0.097	0.003
-541.237	-103.177	-0.199	-0.048
-540.223	71.380	-0.066	-0.070
-539.208	-200.000	-0.033	-0.178
-538.193	800.000	0.059	0.208
-537.179	800.000	0.071	-0.264
-536.164	-91.248	0.293	-0.085
-535.150	-200.000	-0.009	-0.113
-534.135	-0.480	-0.237	-0.171
-533.121	191.344	-0.178	0.272
-532.106	-36.713	-0.148	-0.081
-531.091	-131.476	-0.184	-0.025
-530.077	-120.204	0.020	0.003
-529.062	25.646	-0.149	0.126
-528.048	-175.621	-0.319	0.009
-527.033	-200.000	0.023	-0.203
-526.018	-120.792	0.089	0.015
-525.004	-161.805	0.221	0.011
-523.989	-47.974	-0.124	0.061
-522.975	80.449	-0.129	0.141
-521.960	-135.295	-0.283	0.034
-520.945	28.661	0.303	0.261
-519.931	-74.026	-0.215	0.079
-518.916	800.000	-0.130	-0.454
-517.902	89.833	0.062	-0.070
-516.887	-136.995	0.410	-0.048
-515.872	-115.713	0.294	-0.056
-514.858	212.466	0.119	-0.191
-513.843	-200.000	0.008	-0.281
-512.829	197.646	-0.157	0.243
-511.814	800.000	-0.129	-0.390
-510.799	358.771	0.121	-0.244
-509.785	-31.006	-0.207	-0.119
-508.770	143.578	0.137	-0.185
-507.756	172.007	-0.215	0.313
-506.741	-200.000	-0.036	-0.162
-505.726	262.614	-0.096	-0.170
-504.712	599.243	-0.080	-0.201
-503.697	300.410	-0.020	-0.037
-502.683	-81.231	-0.050	-0.017
-501.668	800.000	0.037	-0.156
-500.653	-85.726	0.139	-0.044
-499.639	-38.249	-0.224	-0.120
-498.624	-1.849	-0.219	-0.156
-497.610	-145.215	-0.094	-0.009
-496.595	76.282	-0.182	-0.195
-495.581	116.488	-0.057	0.071
-494.566	-94.647	-0.363	0.100
-493.551	-200.000	-0.035	0.174
-492.537	-89.055	0.232	-0.070
-491.522	113.033	-0.140	0.171
-490.508	-117.365	-0.236	0.043
-489.493	-112.313	-0.181	0.037
-488.478	295.516	-0.158	-0.294
-487.464	-200.000	0.020	0.234
-486.449	-49.285	-0.416	0.201
-485.435	28.028	0.315	-0.269
-484.420	-200.000	0.003	0.056
-483.405	473.397	-0.066	-0.151
-482.391	35.819	0.253	-0.225
-481.376	2.793	0.064	-0.047
-480.362	311.875	0.088	-0.166
-479.347	-200.000	-0.025	-0.174
-478.332	-200.000	0.017	0.257
-477.318	28.302	0.223	0.191
-476.303	159.863	-0.082	0.116
-475.289	-6.421	-0.088	0.061
-474.274	482.358	0.018	0.040
-473.259	800.000	0.107	-0.320
-472.245	70.314	0.054	-0.056
-471.230	387.395	-0.232	0.486
-470.216	15.409	0.175	0.139
-469.201	23.337	0.099	-0.082
-468.186	-200.000	-0.042	-0.364
-467.172	-200.000	-0.007	-0.223
-466.157	-200.000	0.037	0.253
-465.143	-200.000	0.013	-0.073
-464.128	-165.046	0.364	-0.016
-463.113	25.250	0.206	0.173
-462.099	-200.000	0.028	-0.172
-461.084	-28.345	0.141	0.082
-460.070	15.722	-0.058	0.046
-459.055	-200.000	-0.044	0.263
-458.040	76.107	-0.034	0.036
-457.026	-93.697	-0.364	0.102
-456.011	-51.321	-0.058	-0.028
-454.997	143.558	0.049	0.066
-453.982	72.985	-0.193	0.204
-452.968	-48.513	-0.171	0.083
-451.953	-74.191	0.218	-0.080
-450.938	547.048	-0.050	-0.121
-449.924	-200.000	0.028	0.521
-448.909	-23.167	-0.114	-0.069
-447.895	-200.000	-0.018	0.265
-446.880	-83.346	-0.082	-0.027
-445.865	-200.000	-0.022	-0.217
-444.851	-24.179	-0.130	-0.079
-443.836	-200.000	0.054	-0.357
-442.822	-45.468	0.212	-0.106
-441.807	-61.666	-0.093	-0.039
-440.792	57.057	0.018	-0.018
-439.778	403.642	0.145	-0.308
-438.763	-93.667	0.381	-0.106
-437.749	331.556	0.145	-0.284
-436.734	800.000	-0.081	-0.300
-435.719	78.352	0.084	0.091
-434.705	-200.000	0.014	0.436
-433.690	-103.026	-0.380	0.091
-432.676	146.902	0.147	0.200
-431.661	345.314	-0.254	-0.505
-430.646	800.000	0.117	-0.405
-429.632	-200.000	-0.020	0.118
-428.617	-148.538	0.190	0.016
-427.603	-26.571	0.153	-0.090
-426.588	85.446	0.140	-0.155
-425.573	169.621	-0.291	0.420
-424.559	34.958	0.170	-0.150
-423.544	-44.301	-0.209	-0.106
-422.530	-34.678	-0.105	0.058
-421.515	-81.438	-0.261	0.087
-420.500	-28.542	-0.186	0.109
-419.486	-159.598	-0.425	-0.024
-418.471	-105.886	0.207	0.047
-417.457	-6.043	0.225	0.155
-416.442	28.977	-0.124	0.106
-415.428	800.000	-0.089	0.278
-414.413	-24.169	0.116	0.070
-413.398	209.075	-0.140	0.221
-412.384	-95.281	0.199	0.054
-411.369	105.121	0.238	0.283
-410.355	21.305	-0.234	-0.192
-409.340	102.322	0.222	0.262
-408.325	464.541	0.140	0.316
-407.311	800.000	0.061	0.178
-406.296	-145.533	0.113	0.010
-405.282	67.674	0.104	0.107
-404.267	-200.000	-0.019	0.232
-403.252	659.599	-0.048	-0.125
-402.238	-200.000	0.049	-0.235
-401.223	800.000	0.021	-0.092
-400.209	46.088	-0.057	-0.053
-399.194	-51.242	-0.139	0.066
-398.179	333.890	0.114	0.222
-397.165	1.307	0.031	0.023
-396.150	800.000	-0.034	-0.132
-395.136	-200.000	0.072	0.376
-394.121	738.337	-0.119	-0.321
-393.106	-30.568	0.034	-0.019
-392.092	19.335	-0.186	-0.151
-391.077	800.000	-0.116	-0.345
-390.063	127.885	0.405	0.520
-389.048	-148.482	-0.256	-0.021
-388.033	-35.098	0.146	0.080
-387.019	-169.067	-0.159	-0.006
-386.004	-72.299	-0.383	-0.143
-384.990	3.118	-0.087	0.064
-383.975	-200.000	0.029	0.251
-382.960	-200.000	-0.026	-0.136
-381.946	-200.000	0.039	0.189
-380.931	442.177	0.109	-0.240
-379.917	796.403	-0.126	0.351
-378.902	800.000	-0.040	0.147
-377.888	-96.161	0.222	0.060
-376.873	-11.919	0.112	0.074
-375.858	126.656	0.092	-0.118
-374.844	9.042	0.171	0.130
-373.829	-200.000	0.200	0.001
-372.815	786.715	0.043	0.120
-371.800	-56.763	0.439	0.196
-370.785	800.000	0.198	0.557
-369.771	308.355	0.133	-0.251
-368.756	458.915	0.045	0.101
-367.742	232.895	-0.133	0.221
-366.727	-200.000	0.015	-0.214
-365.712	465.057	-0.052	-0.118
-364.698	97.129	0.033	0.039
-363.683	31.482	0.098	-0.085
-362.669	-200.000	0.075	0.356
-361.654	-58.801	-0.280	-0.122
-360.639	800.000	0.042	-0.167
-359.625	800.000	0.057	0.166
-358.610	-200.000	-0.061	0.299
-357.596	-98.992	-0.211	0.054
-356.581	73.571	-0.130	-0.138
-355.566	800.000	-0.093	-0.375
-354.552	-143.221	-0.170	0.016
-353.537	-34.633	-0.062	-0.034
-352.523	-200.000	-0.059	-0.393
-351.508	800.000	0.169	-0.732
-350.493	154.319	-0.075	-0.103
-349.479	261.281	-0.088	0.154
-348.464	-52.050	-0.065	0.030
-347.450	108.690	-0.281	0.338
-346.435	370.904	0.094	-0.191
-345.420	9.424	-0.238	0.181
-344.406	33.959	0.162	0.142
-343.391	237.293	-0.124	0.208
-342.377	-7.383	-0.233	0.159
-341.362	248.679	-0.021	0.037
-340.348	508.149	-0.090	-0.211
-339.333	85.535	0.211	0.233
-338.318	-167.324	0.085	-0.003
-337.304	204.833	0.078	0.122
-336.289	-164.714	0.166	0.008
-335.275	800.000	0.075	0.220
-334.260	-130.044	0.149	-0.021
-333.245	-200.000	0.008	-0.068
-332.231	3.195	-0.143	-0.105
-331.216	-72.439	0.137	0.051
-330.202	53.242	0.243	0.234
-329.187	-42.371	0.026	0.013
-328.172	-28.985	0.050	-0.029
-327.158	313.860	0.102	0.194
-326.143	-65.414	-0.193	0.078
-325.129	-200.000	0.046	0.271
-324.114	-200.000	0.011	-0.072
-323.099	-90.607	-0.171	-0.050
-322.085	-9.340	0.184	0.124
-321.070	74.890	-0.116	-0.123
-320.056	80.553	-0.165	-0.179
-319.041	-200.000	0.006	-0.088
-318.026	800.000	0.058	0.171
-317.012	-72.741	0.111	-0.041
-315.997	-200.000	0.014	-0.171
-314.983	702.669	0.080	0.211
-313.968	-40.710	0.128	0.067
-312.953	800.000	-0.051	-0.180
-311.939	134.031	-0.295	-0.385
-310.924	-173.112	-0.537	0.017
-309.910	431.638	-0.084	-0.182
-308.895	-106.709	-0.292	0.065
-307.880	-143.112	-0.157	0.015
-306.866	126.156	0.069	-0.088
-305.851	-200.000	0.011	0.139
-304.837	-200.000	-0.048	-0.471
-303.822	-8.244	-0.303	-0.205
-302.807	-98.449	-0.424	-0.109
-301.793	167.144	0.045	-0.065
-300.778	3.063	-0.176	-0.128
-299.764	-73.072	-0.177	0.065
-298.749	60.747	-0.208	0.207
-297.735	150.065	-0.164	0.224
-296.720	-102.926	0.287	0.068
-295.705	800.000	0.038	0.151
-294.691	52.044	-0.148	-0.142
-293.676	-91.202	0.149	-0.043
-292.662	-119.526	0.141	0.025
-291.647	800.000	-0.020	-0.090
-290.632	800.000	0.058	0.236
-289.618	-39.339	0.378	0.199
-288.603	-200.000	-0.023	-0.114
-287.589	-161.511	-0.301	0.016
-286.574	91.329	-0.002	0.002
-285.559	150.389	-0.177	0.242
-284.545	-74.534	0.191	0.069
-283.530	108.680	0.102	0.122
-282.516	800.000	-0.126	-0.444
-281.501	4.456	0.331	-0.244
-280.486	26.231	0.247	0.207
-279.472	312.981	0.026	-0.050
-278.457	-70.450	-0.142	0.054
-277.443	800.000	-0.050	-0.180
-276.428	159.447	-0.186	0.261
-275.413	37.794	0.186	0.166
-274.399	-170.994	0.147	0.005
-273.384	36.176	0.137	0.121
-272.370	204.954	-0.140	0.218
-271.355	42.579	-0.064	-0.059
-270.340	153.709	0.129	0.178
-269.326	-125.595	0.216	0.033
-268.311	-117.689	0.299	0.054
-267.297	4.865	-0.085	-0.063
-266.282	-0.696	0.208	0.148
-265.267	-80.259	0.402	-0.135
-264.253	193.867	0.064	-0.097
-263.238	404.660	-0.112	-0.236
-262.224	48.580	0.108	-0.101
-261.209	-14.064	0.276	-0.179
-260.195	131.538	-0.144	-0.186
-259.180	3.761	0.316	0.232
-258.165	33.988	0.129	-0.112
-257.151	34.674	-0.098	0.086
-256.136	78.953	0.221	-0.238
-255.122	-118.281	0.108	-0.019
-254.107	-112.748	-0.286	-0.057
-253.092	-200.000	-0.004	0.244
-252.078	-146.537	0.489	0.043
-251.063	-200.000	-0.132	0.000
-250.049	130.096	0.242	0.312
-249.034	-94.706	-0.405	0.110
-248.019	201.989	0.240	-0.371
-247.005	-51.033	-0.161	0.076
-245.990	800.000	0.071	0.238
-244.976	800.000	0.037	-0.130
-243.961	-200.000	-0.000	-0.049
-242.946	262.342	0.082	-0.142
-241.932	73.267	-0.191	0.200
-240.917	27.312	0.213	0.179
-239.903	97.430	-0.211	0.244
-238.888	-37.169	0.121	-0.065
-237.873	-103.338	0.131	0.031
-236.859	-31.912	0.095	-0.053
-235.844	0.491	0.151	-0.109
-234.830	19.532	0.233	-0.188
-233.815	-79.657	0.329	-0.111
-232.800	-77.879	-0.172	0.060
-231.786	355.898	-0.119	0.237
-230.771	2.927	0.311	0.227
-229.757	401.773	-0.232	0.488
-228.742	800.000	-0.041	0.158
-227.727	-79.620	-0.272	0.092
-226.713	41.771	-0.272	0.247
-225.698	-9.340	0.109	0.073
-224.684	45.031	-0.225	0.208
-223.669	103.849	0.128	-0.151
-222.655	335.303	-0.145	0.282
-221.640	-111.820	-0.351	-0.071
-220.625	-200.000	0.053	0.233
-219.611	2.592	-0.255	0.185
-218.596	-50.301	-0.384	-0.182
-217.582	-62.515	-0.132	-0.055
-216.567	3.321	-0.061	-0.045
-215.552	116.075	0.067	-0.082
-214.538	151.531	0.134	-0.184
-213.523	44.719	-0.228	-0.210
-212.509	-200.000	-0.032	0.155
-211.494	146.030	0.159	0.214
-210.479	274.126	-0.124	-0.219
-209.465	-200.000	0.035	-0.167
-208.450	-42.392	0.289	0.148
-207.436	632.862	0.061	-0.155
-206.421	-200.000	0.162	-0.000
-205.406	-200.000	-0.016	0.135
-204.392	-88.820	0.080	-0.024
-203.377	-119.456	0.031	-0.005
-202.363	103.575	0.171	0.202
-201.348	-200.000	-0.061	-0.273
-200.333	-128.682	0.624	0.088
-199.319	-176.485	-0.133	-0.003
-198.304	-137.509	0.252	-0.029
-197.290	-17.530	0.345	0.217
-196.275	-96.538	0.152	-0.040
-195.260	-77.804	0.116	0.040
-194.246	800.000	0.062	0.204
-193.231	800.000	0.060	0.202
-192.217	44.439	0.169	-0.156
-191.202	229.348	0.084	-0.138
-190.187	800.000	0.035	-0.155
-189.173	162.834	0.066	-0.092
-188.158	800.000	-0.106	-0.459
-187.144	60.971	-0.047	-0.046
-186.129	-200.000	0.039	-0.296
-185.114	152.532	-0.058	-0.079
-184.100	228.768	-0.147	0.239
-183.085	74.336	-0.100	-0.105
-182.071	-32.026	0.180	0.101
-181.056	-95.306	0.276	-0.074
-180.042	-55.928	-0.072	-0.032
-179.027	-200.000	0.050	-0.320
-178.012	18.281	-0.159	0.127
-176.998	-78.000	0.161	-0.055
-175.983	-150.325	-0.195	-0.015
-174.969	-103.361	-0.341	-0.081
-173.954	322.946	-0.044	0.083
-172.939	54.612	-0.107	0.103
-171.925	-70.259	-0.216	-0.082
-170.910	-200.000	-0.022	-0.212
-169.896	26.650	0.194	-0.163
-168.881	209.479	-0.174	0.272
-167.866	5.935	0.143	-0.106
-166.852	-200.000	-0.014	0.128
-165.837	-113.846	0.125	0.024
-164.823	-116.729	0.273	-0.050
-163.808	-178.811	-0.103	0.002
-162.793	197.493	-0.123	-0.187
-161.779	-126.248	-0.062	-0.009
-160.764	-41.947	0.170	-0.087
-159.750	-26.290	0.152	0.090
-158.735	10.668	0.410	-0.313
-157.720	-200.000	0.009	-0.271
-156.706	-68.567	0.212	-0.082
-155.691	95.646	-0.325	0.370
-154.677	313.512	0.012	-0.022
-153.662	53.245	-0.085	-0.082
-152.647	36.539	0.205	0.181
-151.633	-200.000	-0.017	-0.125
-150.618	-55.841	0.261	0.117
-149.604	82.371	0.028	0.031
-148.589	-9.818	-0.546	0.363
-147.574	72.495	0.171	-0.178
-146.560	-74.006	0.193	-0.070
-145.545	-200.000	0.024	0.177
-144.531	800.000	0.030	-0.099
-143.516	-200.000	-0.043	-0.334
-142.502	-100.328	0.228	-0.056
-141.487	56.349	0.266	-0.258
-140.472	-200.000	-0.023	0.324
-139.458	-200.000	0.007	0.059
-138.443	204.718	-0.076	0.117
-137.429	-93.775	0.088	0.024
-136.414	-121.707	-0.330	0.055
-135.399	56.950	-0.188	-0.183
-134.385	-115.379	-0.089	-0.017
-133.370	380.538	-0.092	-0.188
-132.356	164.683	0.036	0.051
-131.341	-200.000	0.028	0.212
-130.326	-39.119	0.270	0.142
-129.312	-70.332	0.086	-0.033
-128.297	-101.128	-0.197	0.048
-127.283	611.678	0.047	-0.119
-126.268	-44.465	-0.157	0.079
-125.253	144.761	0.081	-0.108
-124.239	21.533	0.201	-0.163
-123.224	277.568	-0.120	0.214
-122.210	-39.400	0.198	-0.104
-121.195	-83.440	0.214	-0.068
-120.180	-172.927	0.452	-0.014
