DTS Sentinel unit serial number:	SN413079Multiplexer serial number:	ORYXHardware model number:	OX4-SRSoftware version number:	ORYX F/W v4.00 Oryx Data Collector v3.7.2.0data status	okinstallation	princeton_trtdifferential loss correction	single-endedforward channel	channel 1reverse channel	N/Adate	2019/09/16time	07:58:35forward acquisition time	60.00reverse acquisition time	0.00gamma	496.2192k internal	0.2327k external	0.2327temperature offset calibration	0.9978default loss term (dB/km)	0.3790temperature slope calibration	1.0000multiplexer offset coefficient	1.0000multiplexer slope coefficient	1.0000fibre end	0.00T internal ref (°C)	28.41T ext. ref 1 (°C)	11.75T ext. ref 2 (°C)	24.72length (m)	temperature (°C)	Stokes	anti-Stokes-747.200	-200.000	0.072	0.520
-746.185	-99.937	-0.304	0.077
-745.171	-200.000	-0.005	0.242
-744.156	-57.845	-0.046	0.020
-743.142	119.726	-0.052	-0.064
-742.127	-117.365	-0.084	-0.015
-741.112	-200.000	0.015	0.170
-740.098	-20.962	-0.165	-0.102
-739.083	-132.907	-0.215	-0.028
-738.069	-200.000	-0.070	0.426
-737.054	-123.940	-0.411	-0.065
-736.039	-33.594	-0.280	0.156
-735.025	-1.565	0.297	0.211
-734.010	0.498	-0.343	-0.247
-732.996	277.478	-0.226	-0.406
-731.981	-100.944	-0.248	-0.061
-730.966	102.728	-0.018	0.022
-729.952	-9.381	-0.235	-0.158
-728.937	215.010	0.095	0.151
-727.923	46.591	-0.119	0.111
-726.908	-200.000	0.040	-0.581
-725.894	-21.766	-0.160	-0.098
-724.879	-27.786	0.111	-0.065
-723.864	-200.000	0.002	-0.187
-722.850	162.991	-0.127	0.179
-721.835	-91.647	0.034	-0.010
-720.821	45.542	-0.027	-0.025
-719.806	480.494	0.024	0.055
-718.791	322.211	-0.142	0.272
-717.777	-200.000	0.018	-0.326
-716.762	133.181	-0.122	-0.159
-715.748	150.824	-0.079	0.108
-714.733	-119.997	0.131	0.023
-713.718	-124.155	-0.128	-0.020
-712.704	150.595	-0.247	-0.338
-711.689	-20.100	0.040	0.025
-710.675	641.861	-0.110	-0.283
-709.660	-159.955	-0.219	-0.012
-708.645	-136.681	0.246	0.029
-707.631	-169.723	0.417	-0.015
-706.616	-20.227	-0.196	-0.122
-705.602	800.000	-0.045	-0.154
-704.587	800.000	0.048	0.171
-703.572	-200.000	-0.001	-0.011
-702.558	-130.416	-0.208	-0.028
-701.543	148.645	0.289	0.393
-700.529	311.481	-0.063	-0.118
-699.514	800.000	-0.020	-0.063
-698.499	-48.492	0.221	-0.107
-697.485	-93.509	-0.182	0.051
-696.470	8.774	-0.272	-0.206
-695.456	361.990	-0.063	-0.127
-694.441	-200.000	-0.034	-0.173
-693.426	508.117	-0.014	0.032
-692.412	-127.233	-0.307	-0.045
-691.397	-52.769	0.366	-0.170
-690.383	20.620	0.064	0.052
-689.368	312.158	-0.159	0.300
-688.354	-64.593	0.243	0.099
-687.339	-45.276	-0.391	0.195
-686.324	121.888	-0.110	-0.138
-685.310	-89.672	-0.317	0.093
-684.295	-128.992	-0.051	0.007
-683.281	-114.219	-0.050	-0.010
-682.266	170.676	-0.233	-0.335
-681.251	795.246	0.060	-0.165
-680.237	54.557	-0.154	0.149
-679.222	-200.000	0.024	-0.165
-678.208	165.561	0.063	-0.089
-677.193	141.798	0.282	-0.375
-676.178	-200.000	-0.023	0.259
-675.164	-121.477	-0.215	0.036
-674.149	188.089	-0.161	-0.241
-673.135	-40.426	-0.120	0.062
-672.120	20.174	-0.184	-0.149
-671.105	241.886	0.095	0.159
-670.091	-156.335	0.227	0.014
-669.076	800.000	0.028	-0.095
-668.062	240.416	0.024	-0.041
-667.047	-159.696	-0.144	0.008
-666.032	-120.806	-0.299	-0.051
-665.018	-59.258	0.288	-0.125
-664.003	503.805	0.079	-0.183
-662.989	800.000	0.097	-0.271
-661.974	800.000	-0.049	-0.138
-660.959	153.118	0.248	-0.341
-659.945	800.000	-0.040	-0.126
-658.930	-162.028	0.288	-0.015
-657.916	25.044	0.178	-0.148
-656.901	101.555	-0.198	-0.231
-655.886	747.292	-0.064	-0.172
-654.872	19.452	-0.073	0.059
-653.857	155.931	0.111	-0.154
-652.843	-132.523	0.229	0.030
-651.828	-117.328	-0.157	-0.029
-650.814	140.853	-0.121	0.160
-649.799	16.412	0.130	-0.103
-648.784	-90.385	0.285	-0.083
-647.770	121.433	-0.080	-0.100
-646.755	-70.025	-0.124	0.047
-645.741	336.745	0.094	0.183
-644.726	77.885	-0.028	0.030
-643.711	295.887	0.152	0.280
-642.697	548.311	0.008	0.019
-641.682	129.661	0.083	-0.107
-640.668	-200.000	0.001	-0.022
-639.653	800.000	0.138	0.470
-638.638	-126.784	0.163	0.024
-637.624	-200.000	0.010	0.248
-636.609	50.338	-0.124	0.118
-635.595	231.027	0.181	-0.298
-634.580	-200.000	0.006	0.094
-633.565	800.000	-0.081	-0.244
-632.551	-82.657	0.118	-0.038
-631.536	-200.000	-0.025	-0.358
-630.522	-127.038	-0.202	-0.030
-629.507	173.335	0.119	0.173
-628.492	140.319	0.206	-0.273
-627.478	-97.430	-0.299	-0.078
-626.463	-28.168	-0.416	-0.241
-625.449	179.172	0.209	-0.307
-624.434	184.415	0.122	0.181
-623.419	311.001	0.091	0.171
-622.405	-92.203	0.308	-0.087
-621.390	201.788	-0.013	0.021
-620.376	-189.592	0.053	-0.001
-619.361	-68.753	-0.145	-0.056
-618.346	800.000	0.081	-0.250
-617.332	-86.918	-0.180	0.055
-616.317	-200.000	0.022	-0.150
-615.303	-2.220	0.094	-0.066
-614.288	-197.223	-0.214	-0.001
-613.273	-149.883	0.105	-0.008
-612.259	258.371	0.128	0.221
-611.244	-200.000	-0.018	0.263
-610.230	-200.000	-0.020	-0.204
-609.215	741.610	-0.126	0.339
-608.201	-90.343	0.147	0.043
-607.186	88.832	0.227	-0.253
-606.171	450.219	0.070	0.155
-605.157	-103.648	-0.297	-0.070
-604.142	529.222	0.080	0.189
-603.128	-200.000	-0.027	-0.176
-602.113	-34.416	0.111	0.061
-601.098	-200.000	-0.105	-0.466
-600.084	-28.885	-0.384	-0.221
-599.069	15.419	-0.159	0.125
-598.055	-50.171	-0.175	-0.083
-597.040	232.015	0.077	0.126
-596.025	3.714	0.152	-0.111
-595.011	51.574	-0.130	-0.124
-593.996	-200.000	-0.015	0.138
-592.982	-72.634	0.543	0.201
-591.967	45.131	-0.079	0.073
-590.952	518.301	-0.092	-0.216
-589.938	94.060	0.102	-0.116
-588.923	-58.681	0.093	-0.040
-587.909	-67.857	0.269	-0.105
-586.894	-200.000	-0.035	-0.158
-585.879	58.145	0.309	-0.304
-584.865	83.472	-0.156	0.170
-583.850	-75.600	-0.128	0.046
-582.836	-106.150	-0.150	-0.034
-581.821	800.000	0.179	0.508
-580.806	-200.000	0.019	-0.208
-579.792	60.643	0.082	-0.082
-578.777	-7.521	0.180	-0.122
-577.763	122.615	0.218	-0.273
-576.748	54.237	0.112	-0.108
-575.733	-14.763	0.187	0.120
-574.719	398.807	0.132	-0.276
-573.704	-16.878	0.068	-0.043
-572.690	16.561	-0.225	-0.178
-571.675	62.845	0.194	0.194
-570.661	-52.437	0.106	-0.049
-569.646	-53.818	0.090	0.041
-568.631	800.000	0.030	-0.105
-567.617	11.319	0.303	-0.232
-566.602	-130.118	-0.233	-0.032
-565.588	710.764	-0.149	-0.394
-564.573	423.410	-0.074	0.158
-563.558	-2.353	-0.243	-0.171
-562.544	800.000	-0.154	0.479
-561.529	-177.260	-0.228	-0.006
-560.515	191.968	-0.126	0.190
-559.500	-35.283	0.207	-0.113
-558.485	-200.000	0.020	-0.090
-557.471	-151.338	-0.356	0.027
-556.456	800.000	0.087	0.295
-555.442	-200.000	-0.014	-0.207
-554.427	-22.251	-0.210	-0.127
-553.412	-155.763	-0.107	-0.007
-552.398	577.525	-0.103	0.251
-551.383	72.217	0.112	-0.117
-550.369	-158.541	0.181	0.010
-549.354	-200.000	0.005	0.122
-548.339	-67.197	0.293	-0.115
-547.325	-200.000	-0.017	0.168
-546.310	-161.265	-0.190	-0.010
-545.296	53.158	0.397	0.380
-544.281	571.408	-0.029	0.070
-543.266	-200.000	-0.009	0.185
-542.252	-200.000	0.002	0.070
-541.237	130.857	0.157	-0.201
-540.223	800.000	-0.063	-0.238
-539.208	284.184	-0.053	0.095
-538.193	-95.172	0.322	0.087
-537.179	800.000	-0.036	0.127
-536.164	510.823	0.111	0.258
-535.150	374.526	0.058	0.118
-534.135	437.767	0.034	0.073
-533.121	48.293	-0.251	-0.234
-532.106	401.351	-0.066	-0.139
-531.091	274.422	0.103	-0.182
-530.077	-145.435	-0.265	-0.024
-529.062	800.000	0.156	0.507
-528.048	72.418	0.129	0.135
-527.033	-56.221	-0.141	-0.063
-526.018	91.167	-0.147	-0.165
-525.004	-200.000	-0.021	-0.193
-523.989	58.624	-0.142	0.139
-522.975	574.892	-0.076	-0.185
-521.960	161.048	-0.129	0.180
-520.945	20.985	-0.138	0.112
-519.931	-69.438	-0.186	-0.071
-518.916	800.000	0.039	0.167
-517.902	639.214	0.093	-0.235
-516.887	48.853	0.170	0.160
-515.872	-17.736	0.091	-0.057
-514.858	196.963	0.238	-0.362
-513.843	231.094	0.146	-0.239
-512.829	-200.000	-0.041	0.212
-511.814	-200.000	-0.019	-0.114
-510.799	174.162	-0.024	0.035
-509.785	-44.960	-0.157	0.078
-508.770	-200.000	-0.001	-0.081
-507.756	-144.473	0.167	0.015
-506.741	158.842	-0.083	0.115
-505.726	-42.769	0.495	0.251
-504.712	378.191	0.105	0.214
-503.697	-200.000	0.018	0.172
-502.683	68.160	0.151	-0.154
-501.668	350.499	0.125	0.246
-500.653	54.403	0.189	0.181
-499.639	-2.173	-0.193	0.135
-498.624	477.358	0.107	-0.242
-497.610	-3.136	0.116	0.081
-496.595	-15.117	0.209	0.134
-495.581	-168.253	0.136	0.005
-494.566	-71.195	0.261	-0.098
-493.551	800.000	-0.010	-0.031
-492.537	248.021	-0.026	-0.044
-491.522	-48.459	0.119	0.057
-490.508	-200.000	0.017	0.375
-489.493	44.540	0.089	0.081
-488.478	-131.467	0.333	-0.044
-487.464	149.349	0.264	-0.357
-486.449	-200.000	-0.047	-0.322
-485.435	-99.770	-0.292	-0.073
-484.420	-25.372	-0.112	-0.066
-483.405	266.107	0.126	-0.220
-482.391	74.203	0.079	0.083
-481.376	-67.964	-0.211	-0.082
-480.362	17.048	0.100	0.079
-479.347	-89.162	0.188	-0.055
-478.332	300.105	0.205	0.377
-477.318	-93.491	-0.158	0.044
-476.303	363.991	-0.068	-0.136
-475.289	-21.112	-0.137	0.084
-474.274	-200.000	-0.015	-0.179
-473.259	800.000	-0.062	0.259
-472.245	-127.811	0.145	0.021
-471.230	-200.000	0.020	-0.236
-470.216	49.840	0.322	0.303
-469.201	154.404	-0.109	0.149
-468.186	-130.394	0.124	-0.017
-467.172	253.263	-0.046	0.079
-466.157	640.118	-0.110	-0.279
-465.143	-200.000	-0.013	-0.280
-464.128	800.000	-0.065	0.229
-463.113	750.815	-0.087	-0.234
-462.099	114.934	-0.087	-0.106
-461.084	682.359	0.094	-0.245
-460.070	-200.000	0.016	0.135
-459.055	-123.400	0.167	-0.027
-458.040	60.451	-0.393	-0.388
-457.026	296.555	-0.203	-0.370
-456.011	-30.446	0.128	0.072
-454.997	-200.000	-0.072	-0.408
-453.982	-130.675	0.187	0.025
-452.968	163.539	-0.110	0.154
-451.953	251.191	-0.028	0.047
-450.938	-43.294	-0.125	-0.063
-449.924	-11.235	-0.133	0.087
-448.909	-9.743	0.133	-0.088
-447.895	-81.035	0.055	0.018
-446.880	-99.876	-0.108	0.027
-445.865	-9.227	0.368	0.245
-444.851	-200.000	0.022	-0.139
-443.836	-89.881	-0.108	-0.031
-442.822	-9.170	0.250	-0.167
-441.807	516.083	-0.112	0.260
-440.792	93.311	-0.109	0.123
-439.778	547.306	-0.112	0.267
-438.763	18.429	-0.105	-0.084
-437.749	247.414	-0.072	-0.121
-436.734	710.882	-0.092	-0.243
-435.719	94.163	-0.043	-0.048
-434.705	-176.805	-0.244	-0.006
-433.690	-52.579	0.171	-0.079
-432.676	125.577	-0.223	0.280
-431.661	41.859	0.110	-0.100
-430.646	800.000	-0.036	-0.147
-429.632	800.000	-0.037	0.147
-428.617	-99.182	0.324	-0.082
-427.603	182.577	-0.087	-0.127
-426.588	83.797	-0.189	0.206
-425.573	-200.000	0.015	-0.110
-424.559	245.810	-0.075	-0.125
-423.544	-200.000	0.063	-0.290
-422.530	219.139	-0.155	-0.247
-421.515	611.848	0.220	-0.548
-420.500	-15.532	-0.299	0.190
-419.486	-200.000	-0.023	0.350
-418.471	-31.178	0.211	-0.118
-417.457	559.225	0.124	0.297
-416.442	35.521	-0.109	-0.095
-415.428	-200.000	0.048	-0.312
-414.413	-102.053	0.089	-0.021
-413.398	-42.675	0.097	0.049
-412.384	-91.395	0.129	-0.037
-411.369	-200.000	-0.022	-0.168
-410.355	-84.138	-0.211	0.067
-409.340	420.362	0.100	-0.213
-408.325	-68.623	0.151	-0.058
-407.311	-149.599	-0.315	0.025
-406.296	-8.641	0.173	-0.115
-405.282	71.373	0.200	-0.207
-404.267	-104.101	0.099	-0.023
-403.252	-200.000	-0.018	0.201
-402.238	-6.562	-0.297	-0.201
-401.223	341.254	0.109	-0.212
-400.209	185.486	-0.282	0.416
-399.194	-58.019	-0.142	0.062
-398.179	800.000	0.034	-0.109
-397.165	42.788	0.413	-0.374
-396.150	-200.000	0.008	0.309
-395.136	-200.000	-0.030	0.230
-394.121	-11.242	0.236	0.154
-393.106	238.647	-0.176	-0.292
-392.092	25.454	0.367	0.303
-391.077	28.663	-0.085	0.072
-390.063	442.763	0.069	-0.150
-389.048	-80.887	-0.309	-0.102
-388.033	349.243	-0.110	-0.216
-387.019	-200.000	0.008	-0.065
-386.004	206.138	-0.176	-0.272
-384.990	800.000	0.015	-0.061
-383.975	-121.705	-0.161	-0.027
-382.960	800.000	-0.040	-0.121
-381.946	-3.648	0.243	0.168
-380.931	-63.963	-0.175	0.071
-379.917	203.285	0.139	0.214
-378.902	-69.029	0.020	0.008
-377.888	210.806	0.035	0.055
-376.873	-200.000	-0.026	-0.185
-375.858	800.000	0.096	-0.369
-374.844	-200.000	-0.067	0.316
-373.829	-126.649	0.061	-0.009
-372.815	-200.000	0.008	-0.389
-371.800	-79.988	0.529	0.176
-370.785	-125.486	0.101	0.015
-369.771	-82.021	0.347	0.113
-368.756	-200.000	0.013	-0.160
-367.742	200.952	-0.140	0.214
-366.727	-29.629	-0.183	0.104
-365.712	-200.000	0.003	-0.317
-364.698	144.379	0.066	-0.088
-363.683	-70.720	-0.199	0.075
-362.669	800.000	-0.031	0.096
-361.654	-138.728	-0.194	-0.021
-360.639	-61.912	0.215	-0.089
-359.625	800.000	-0.114	-0.394
-358.610	-15.020	0.277	0.176
-357.596	239.732	0.053	0.088
-356.581	-12.660	-0.064	-0.042
-355.566	-7.292	-0.174	0.117
-354.552	-62.207	-0.078	0.032
-353.537	219.512	0.125	0.199
-352.523	153.254	0.118	0.160
-351.508	-200.000	-0.003	0.170
-350.493	-95.722	-0.385	0.102
-349.479	800.000	-0.036	-0.134
-348.464	309.099	-0.093	0.172
-347.450	-41.298	0.051	0.026
-346.435	800.000	0.053	0.209
-345.420	-68.418	0.064	0.025
-344.406	439.147	-0.051	-0.112
-343.391	112.618	-0.125	0.150
-342.377	-121.067	-0.074	-0.012
-341.362	-200.000	-0.019	-0.204
-340.348	-15.080	0.219	-0.139
-339.333	-200.000	-0.015	0.078
-338.318	-10.558	0.247	0.162
-337.304	639.487	0.144	-0.365
-336.289	14.046	0.070	0.054
-335.275	43.211	-0.139	-0.126
-334.260	21.107	0.056	-0.045
-333.245	97.736	-0.044	-0.050
-332.231	-16.596	-0.102	-0.064
-331.216	-131.601	-0.585	0.076
-330.202	338.739	0.103	-0.199
-329.187	800.000	-0.030	0.117
-328.172	-133.175	0.207	-0.026
-327.158	-89.332	-0.060	0.018
-326.143	-116.375	0.425	-0.078
-325.129	-200.000	0.001	-0.094
-324.114	-18.977	-0.235	0.145
-323.099	-99.826	-0.150	-0.037
-322.085	30.866	0.076	-0.065
-321.070	-121.731	-0.260	-0.043
-320.056	28.753	-0.173	0.145
-319.041	-110.387	-0.103	-0.021
-318.026	318.827	0.117	0.220
-317.012	-4.897	-0.057	0.039
-315.997	19.234	0.195	-0.155
-314.983	188.511	0.169	-0.251
-313.968	-111.343	-0.187	0.038
-312.953	-48.815	-0.233	-0.111
-311.939	-68.777	-0.227	0.087
-310.924	297.889	-0.019	0.035
-309.910	722.979	-0.095	-0.249
-308.895	80.078	0.283	0.302
-307.880	259.439	-0.112	0.192
-306.866	110.085	0.163	-0.194
-305.851	-200.000	-0.039	-0.243
-304.837	191.781	-0.164	0.245
-303.822	800.000	-0.070	0.212
-302.807	250.125	-0.066	0.111
-301.793	309.148	-0.035	0.064
-300.778	55.543	0.205	-0.197
-299.764	-136.501	-0.167	-0.019
-298.749	-96.929	-0.202	0.052
-297.735	27.893	-0.372	-0.311
-296.720	-91.563	0.235	-0.066
-295.705	34.081	0.117	-0.101
-294.691	-200.000	0.016	-0.078
-293.676	-53.979	0.188	0.085
-292.662	-146.772	-0.343	0.029
-291.647	23.460	0.110	0.090
-290.632	179.195	0.064	-0.093
-289.618	-119.730	0.355	-0.061
-288.603	-86.966	0.498	0.150
-287.589	800.000	0.080	0.319
-286.574	-75.241	0.396	-0.140
-285.559	-80.673	-0.128	0.042
-284.545	190.641	-0.115	-0.171
-283.530	800.000	-0.054	-0.149
-282.516	-11.946	-0.200	0.130
-281.501	-200.000	0.062	0.302
-280.486	82.347	0.038	-0.040
-279.472	-200.000	-0.044	0.194
-278.457	-200.000	-0.007	0.084
-277.443	-39.526	-0.492	0.255
-276.428	-200.000	0.003	-0.064
-275.413	267.237	0.029	-0.050
-274.399	6.275	0.105	0.077
-273.384	4.185	-0.118	0.085
-272.370	432.764	-0.116	-0.250
-271.355	271.535	-0.073	0.128
-270.340	-57.773	0.248	0.108
-269.326	-200.000	0.045	0.237
-268.311	373.797	0.029	0.059
-267.297	800.000	-0.034	-0.116
-266.282	800.000	-0.023	0.082
-265.267	195.717	0.089	-0.134
-264.253	3.451	-0.301	0.217
-263.238	-8.796	0.409	-0.272
-262.224	144.152	-0.112	0.148
-261.209	15.334	-0.110	-0.086
-260.195	-113.707	0.455	-0.088
-259.180	-144.075	-0.215	-0.020
-258.165	800.000	-0.038	0.110
-257.151	-200.000	0.003	0.020
-256.136	284.276	0.093	-0.165
-255.122	-200.000	0.034	0.150
-254.107	-18.220	-0.176	-0.109
-253.092	176.318	-0.184	0.265
-252.078	-24.443	0.330	0.195
-251.063	-172.372	-0.585	-0.018
-250.049	-63.259	0.267	-0.109
-249.034	70.932	-0.192	-0.197
-248.019	83.232	-0.166	-0.179
-247.005	212.121	-0.119	0.186
-245.990	800.000	-0.038	-0.112
-244.976	70.586	0.261	-0.267
-243.961	10.278	-0.070	-0.053
-242.946	-56.275	-0.328	0.144
-241.932	91.910	-0.134	0.149
-240.917	-138.958	-0.370	-0.040
-239.903	-71.287	-0.087	0.032
-238.888	90.250	-0.199	-0.220
-237.873	-200.000	0.056	0.399
-236.859	-15.539	0.031	-0.019
-235.844	41.717	-0.174	0.156
-234.830	-200.000	0.003	-0.149
-233.815	-103.370	-0.368	0.086
-232.800	-89.739	-0.132	-0.038
-231.786	55.819	-0.172	0.165
-230.771	258.687	0.053	0.090
-229.757	-200.000	0.018	0.193
-228.742	-200.000	-0.024	0.132
-227.727	-71.262	0.604	0.224
-226.713	75.573	0.171	-0.179
-225.698	-25.164	-0.023	-0.013
-224.684	41.091	0.133	0.119
-223.669	216.245	0.074	-0.116
-222.655	-127.474	-0.206	-0.030
-221.640	-152.944	0.472	-0.033
-220.625	131.389	-0.168	0.213
-219.611	-10.573	-0.070	0.046
-218.596	-62.511	0.098	-0.040
-217.582	154.708	0.060	-0.081
-216.567	185.530	0.218	-0.320
-215.552	-99.074	-0.091	-0.023
-214.538	-200.000	0.018	-0.122
-213.523	800.000	-0.106	0.304
-212.509	800.000	0.029	-0.088
-211.494	800.000	0.069	0.294
-210.479	17.980	-0.150	-0.118
-209.465	-51.957	-0.461	-0.212
-208.450	172.515	-0.115	0.164
-207.436	-200.000	-0.005	0.067
-206.421	-133.427	-0.342	-0.042
-205.406	-86.518	-0.356	0.108
-204.392	-128.640	-0.233	-0.033
-203.377	285.051	0.139	0.248
-202.363	117.062	0.134	0.162
-201.348	-51.532	-0.385	0.177
-200.333	36.412	0.126	-0.110
-199.319	-200.000	0.008	-0.133
-198.304	19.028	-0.333	0.264
-197.290	124.908	-0.149	0.185
-196.275	115.043	-0.092	0.111
-195.260	484.715	0.153	0.345
-194.246	-10.679	0.036	-0.023
-193.231	-51.188	0.204	-0.094
-192.217	800.000	0.027	0.105
-191.202	-136.893	-0.253	0.029
-190.187	-5.824	-0.181	-0.123
-189.173	-35.006	0.328	0.176
-188.158	132.730	0.149	-0.189
-187.144	-47.478	0.396	-0.190
-186.129	287.587	-0.141	0.252
-185.114	-112.038	0.234	-0.046
-184.100	-158.280	0.068	-0.004
-183.085	-49.430	0.225	0.106
-182.071	286.371	0.052	0.092
-181.056	10.219	-0.206	0.154
-180.042	135.755	0.179	0.230
-179.027	744.207	0.047	-0.125
-178.012	800.000	0.047	0.186
-176.998	319.350	-0.040	-0.074
-175.983	383.540	-0.212	-0.431
-174.969	-145.119	-0.224	0.020
-173.954	-200.000	-0.013	0.208
-172.939	-200.000	-0.044	-0.236
-171.925	29.074	0.119	0.100
-170.910	220.224	-0.128	-0.202
-169.896	153.441	-0.139	0.187
-168.881	-200.000	-0.017	0.074
-167.866	-85.672	-0.233	-0.071
-166.852	-12.962	0.093	0.060
-165.837	-92.306	-0.099	-0.027
-164.823	420.571	0.069	0.145
-163.808	-200.000	-0.046	-0.282
-162.793	53.456	0.188	0.177
-161.779	10.973	-0.318	0.239
-160.764	150.135	-0.145	0.194
-159.750	-116.497	-0.092	0.017
-158.735	493.341	0.122	0.275
-157.720	0.521	-0.038	-0.027
-156.706	324.391	-0.141	-0.266
-155.691	-96.148	-0.178	0.047
-154.677	-168.385	0.084	0.003
-153.662	-187.820	0.129	-0.002
-152.647	172.157	0.078	-0.111
-151.633	333.421	-0.198	0.378
-150.618	1.692	0.065	0.046
-149.604	126.874	0.042	-0.052
-148.589	-22.667	0.296	0.176
-147.574	-9.531	-0.076	-0.050
-146.560	800.000	0.061	0.174
-145.545	380.953	0.202	0.407
-144.531	-176.920	-0.195	-0.005
-143.516	-184.992	0.199	0.003
-142.502	430.581	-0.098	0.210
-141.487	144.429	0.199	0.261
-140.472	95.619	0.219	0.245
-139.458	464.946	0.141	0.310
-138.443	-113.073	-0.201	0.039
-137.429	-85.388	-0.210	-0.065
-136.414	-134.594	-0.162	0.020
-135.399	-53.888	0.098	-0.044
-134.385	318.579	0.179	0.334
-133.370	73.527	0.125	-0.129
-132.356	-55.771	0.168	-0.074
-131.341	800.000	-0.107	-0.367
-130.326	-200.000	-0.008	-0.046
-129.312	298.978	0.078	-0.140
-128.297	-46.828	0.130	-0.063
-127.283	-200.000	0.016	-0.206
-126.268	-64.105	-0.035	-0.014
-125.253	-200.000	0.029	0.208
-124.239	147.140	-0.128	0.170
-123.224	128.140	-0.134	0.168
-122.210	497.051	-0.089	-0.201
-121.195	-2.850	-0.330	0.227
