DTS Sentinel unit serial number:	SN413079Multiplexer serial number:	ORYXHardware model number:	OX4-SRSoftware version number:	ORYX F/W v4.00 Oryx Data Collector v3.7.2.0data status	okinstallation	princeton_trtdifferential loss correction	single-endedforward channel	channel 1reverse channel	N/Adate	2019/09/11time	15:08:11forward acquisition time	60.00reverse acquisition time	0.00gamma	496.2192k internal	0.2291k external	0.2291temperature offset calibration	0.9990default loss term (dB/km)	0.3790temperature slope calibration	1.0000multiplexer offset coefficient	1.0000multiplexer slope coefficient	1.0000fibre end	0.00T internal ref (°C)	42.94T ext. ref 1 (°C)	0.94T ext. ref 2 (°C)	37.27length (m)	temperature (°C)	Stokes	anti-Stokes-747.200	800.000	0.005	-0.022
-746.185	260.911	-0.161	0.285
-745.171	-200.000	-0.003	0.052
-744.156	68.420	-0.282	0.296
-743.142	-200.000	0.011	-0.196
-742.127	39.092	0.277	0.253
-741.112	-79.143	0.200	0.070
-740.098	371.361	0.063	0.130
-739.083	34.966	-0.063	0.056
-738.069	800.000	-0.088	0.332
-737.054	605.006	0.074	0.188
-736.039	70.532	-0.148	-0.157
-735.025	800.000	-0.040	-0.143
-734.010	-63.463	-0.421	0.177
-732.996	-88.291	0.231	-0.071
-731.981	650.971	-0.135	-0.354
-730.966	-140.691	-0.111	-0.012
-729.952	-147.511	-0.210	-0.018
-728.937	-173.240	0.271	0.008
-727.923	-200.000	0.004	-0.083
-726.908	-84.103	-0.271	-0.088
-725.894	-99.756	-0.100	-0.026
-724.879	800.000	-0.069	0.205
-723.864	-200.000	0.057	-0.268
-722.850	72.584	-0.173	-0.185
-721.835	800.000	0.132	-0.374
-720.821	800.000	-0.091	-0.403
-719.806	-32.160	0.108	-0.062
-718.791	60.925	-0.153	-0.156
-717.777	800.000	-0.074	-0.210
-716.762	-76.985	-0.383	-0.137
-715.748	800.000	0.063	-0.219
-714.733	-119.840	0.440	0.077
-713.718	329.518	0.081	-0.160
-712.704	754.815	-0.032	-0.088
-711.689	224.063	-0.009	0.015
-710.675	-24.977	-0.140	0.085
-709.660	-131.616	-0.036	0.005
-708.645	-28.365	-0.193	0.114
-707.631	93.226	0.071	-0.082
-706.616	-48.072	-0.186	0.092
-705.602	-145.867	-0.210	-0.019
-704.587	95.201	0.041	-0.048
-703.572	42.382	-0.184	-0.171
-702.558	104.361	-0.086	0.104
-701.543	-119.364	-0.338	-0.060
-700.529	51.549	-0.207	-0.201
-699.514	411.273	-0.196	0.425
-698.499	-105.272	-0.113	-0.026
-697.485	-200.000	-0.007	0.211
-696.470	218.660	-0.077	-0.125
-695.456	-70.216	0.312	0.121
-694.441	122.175	0.171	0.218
-693.426	291.602	-0.079	-0.147
-692.412	-18.575	-0.226	-0.144
-691.397	-100.887	-0.284	-0.071
-690.383	800.000	-0.018	-0.056
-689.368	-32.601	-0.222	-0.127
-688.354	247.017	-0.266	-0.458
-687.339	-90.470	-0.153	-0.045
-686.324	-200.000	0.050	-0.305
-685.310	-120.795	0.140	-0.024
-684.295	-92.453	-0.238	0.068
-683.281	-83.391	0.072	-0.024
-682.266	-122.581	-0.382	-0.063
-681.251	-62.351	0.263	0.112
-680.237	-55.143	0.186	0.085
-679.222	-200.000	0.010	0.127
-678.208	-57.432	0.388	-0.174
-677.193	137.597	-0.056	0.075
-676.178	800.000	-0.056	0.236
-675.164	-147.891	0.320	0.027
-674.149	52.939	0.105	0.102
-673.135	-34.910	0.133	0.074
-672.120	-200.000	-0.081	-0.421
-671.105	800.000	0.011	-0.036
-670.091	-146.995	-0.288	-0.025
-669.076	-200.000	0.020	-0.196
-668.062	-200.000	-0.061	0.312
-667.047	-200.000	-0.023	0.215
-666.032	-6.346	-0.240	0.167
-665.018	-185.117	-0.240	0.004
-664.003	-128.586	-0.073	-0.011
-662.989	-200.000	0.022	-0.351
-661.974	293.006	-0.297	-0.554
-660.959	800.000	0.070	-0.232
-659.945	67.898	-0.324	-0.338
-658.930	-132.485	-0.183	0.024
-657.916	-35.458	0.050	0.028
-656.901	-123.917	0.154	0.025
-655.886	-48.451	-0.277	-0.136
-654.872	800.000	0.037	-0.114
-653.857	-159.038	-0.283	0.016
-652.843	265.695	-0.087	-0.154
-651.828	47.344	0.094	0.089
-650.814	-76.359	0.143	0.051
-649.799	-88.708	-0.149	-0.045
-648.784	-200.000	-0.014	-0.069
-647.770	-200.000	-0.021	-0.146
-646.755	-36.532	0.118	0.065
-645.741	246.663	-0.053	-0.091
-644.726	-84.207	0.177	0.057
-643.711	163.073	-0.195	0.279
-642.697	-28.528	-0.329	-0.193
-641.682	-200.000	0.036	-0.173
-640.668	-45.662	-0.160	-0.081
-639.653	-36.799	0.226	0.124
-638.638	72.121	-0.075	0.079
-637.624	-88.451	-0.167	0.051
-636.609	-200.000	-0.024	0.111
-635.595	-119.079	-0.113	-0.020
-634.580	-50.367	0.176	0.085
-633.565	-65.537	-0.203	0.083
-632.551	-118.408	-0.118	-0.021
-631.536	-103.955	-0.238	0.057
-630.522	-143.246	0.176	0.017
-629.507	-29.927	-0.174	0.101
-628.492	174.718	0.083	-0.122
-627.478	-164.960	-0.179	0.008
-626.463	-47.900	0.142	-0.070
-625.449	-200.000	0.004	0.073
-624.434	31.489	-0.099	-0.087
-623.419	174.252	-0.115	-0.170
-622.405	12.458	0.126	0.099
-621.390	-44.035	0.072	0.037
-620.376	60.052	-0.126	0.127
-619.361	-14.570	-0.144	-0.094
-618.346	-71.246	0.217	-0.083
-617.332	-200.000	-0.016	-0.240
-616.317	-200.000	0.010	-0.161
-615.303	-200.000	-0.037	0.224
-614.288	800.000	-0.046	-0.147
-613.273	23.245	-0.073	0.061
-612.259	800.000	0.073	-0.293
-611.244	-200.000	-0.012	-0.221
-610.230	-73.851	-0.156	0.058
-609.215	-58.812	0.241	0.106
-608.201	24.323	-0.149	-0.125
-607.186	313.317	-0.011	0.022
-606.171	-200.000	-0.034	-0.171
-605.157	-122.671	0.175	-0.029
-604.142	-117.463	0.113	-0.021
-603.128	-35.591	0.226	-0.125
-602.113	-53.336	0.209	0.098
-601.098	-106.265	0.079	0.018
-600.084	-54.356	0.170	0.079
-599.069	-24.056	-0.348	-0.212
-598.055	-6.466	0.258	0.179
-597.040	157.676	0.069	0.097
-596.025	100.439	-0.150	-0.177
-595.011	-149.090	-0.305	-0.025
-593.996	602.366	-0.069	0.175
-592.982	518.272	-0.115	-0.273
-591.967	-54.545	-0.230	-0.106
-590.952	-200.000	0.012	-0.099
-589.938	-58.287	-0.206	-0.091
-588.923	220.375	0.279	-0.455
-587.909	106.687	-0.119	-0.144
-586.894	693.195	-0.038	-0.102
-585.879	800.000	0.094	0.336
-584.865	567.484	-0.142	0.350
-583.850	-102.060	0.155	0.038
-582.836	8.766	-0.127	0.097
-581.821	-35.283	0.024	-0.013
-580.806	-49.076	0.040	-0.020
-579.792	113.345	-0.099	0.122
-578.777	-200.000	0.052	0.259
-577.763	73.830	-0.115	-0.122
-576.748	800.000	-0.036	-0.142
-575.733	237.955	-0.114	0.192
-574.719	112.438	0.165	-0.203
-573.704	800.000	0.025	-0.071
-572.690	471.338	0.068	-0.155
-571.675	220.236	0.126	-0.205
-570.661	-69.510	-0.074	0.029
-569.646	-46.716	-0.228	0.113
-568.631	-70.273	0.175	-0.068
-567.617	-25.838	0.283	-0.169
-566.602	28.324	-0.281	-0.241
-565.588	-19.578	-0.034	0.021
-564.573	-200.000	0.022	-0.177
-563.558	362.563	-0.096	-0.196
-562.544	88.500	0.146	-0.165
-561.529	-97.397	0.114	0.030
-560.515	36.986	0.186	-0.167
-559.500	-55.425	0.108	-0.049
-558.485	-200.000	0.025	0.156
-557.471	17.828	-0.296	-0.240
-556.456	35.124	-0.107	-0.095
-555.442	-57.246	-0.221	-0.099
-554.427	-200.000	0.029	0.174
-553.412	-200.000	0.034	-0.164
-552.398	-200.000	-0.018	-0.107
-551.383	75.130	-0.058	0.062
-550.369	-168.623	-0.138	0.005
-549.354	1.606	-0.100	-0.073
-548.339	-84.910	0.229	0.073
-547.325	800.000	0.049	0.174
-546.310	-113.772	0.077	0.015
-545.296	17.459	-0.202	-0.163
-544.281	-140.365	-0.203	0.022
-543.266	-200.000	0.032	-0.200
-542.252	800.000	0.061	0.180
-541.237	-92.290	0.172	-0.049
-540.223	218.390	-0.147	0.238
-539.208	-122.772	0.198	-0.033
-538.193	424.297	0.021	-0.045
-537.179	31.693	-0.248	-0.217
-536.164	-41.832	-0.279	-0.145
-535.150	-98.409	0.128	-0.033
-534.135	481.242	0.062	-0.143
-533.121	-200.000	0.006	-0.154
-532.106	-73.132	0.288	-0.107
-531.091	-200.000	-0.011	-0.144
-530.077	800.000	-0.057	0.233
-529.062	-131.515	-0.352	0.047
-528.048	277.144	-0.081	0.145
-527.033	-200.000	-0.014	-0.100
-526.018	-200.000	-0.000	0.081
-525.004	800.000	0.085	0.342
-523.989	250.519	0.191	0.329
-522.975	800.000	-0.076	0.334
-521.960	-200.000	-0.017	0.123
-520.945	227.269	0.139	-0.230
-519.931	800.000	0.173	0.545
-518.916	35.137	-0.107	0.095
-517.902	52.983	0.197	0.191
-516.887	-60.689	-0.077	0.033
-515.872	-144.999	0.298	0.028
-514.858	-162.564	0.163	0.008
-513.843	-200.000	-0.018	-0.108
-512.829	-94.362	0.024	-0.007
-511.814	800.000	-0.049	0.143
-510.799	372.291	-0.131	-0.269
-509.785	130.678	0.145	-0.189
-508.770	-194.538	0.446	-0.004
-507.756	-163.522	0.309	-0.015
-506.741	740.024	-0.123	0.335
-505.726	-200.000	-0.028	0.261
-504.712	221.759	-0.121	0.197
-503.697	-63.382	-0.054	-0.023
-502.683	-111.425	0.106	-0.022
-501.668	-200.000	0.001	-0.067
-500.653	-200.000	0.018	-0.364
-499.639	-200.000	-0.006	0.029
-498.624	763.456	0.072	-0.198
-497.610	761.578	-0.113	-0.310
-496.595	-51.160	0.317	-0.151
-495.581	275.007	-0.178	-0.320
-494.566	-20.947	-0.160	-0.099
-493.551	800.000	0.073	0.267
-492.537	-96.751	-0.193	0.051
-491.522	5.988	-0.279	0.209
-490.508	-153.968	0.199	0.014
-489.493	181.364	0.072	0.107
-488.478	229.968	-0.137	0.226
-487.464	434.851	-0.093	0.205
-486.449	3.347	-0.121	-0.089
-485.435	14.567	-0.228	-0.180
-484.420	162.262	0.011	-0.016
-483.405	-200.000	0.022	0.119
-482.391	-41.324	-0.056	0.029
-481.376	73.587	-0.242	-0.257
-480.362	-7.147	0.120	-0.082
-479.347	-200.000	-0.019	0.100
-478.332	3.345	0.077	0.057
-477.318	800.000	-0.075	-0.286
-476.303	-112.747	-0.120	-0.024
-475.289	64.448	0.162	-0.165
-474.274	-22.154	-0.156	0.096
-473.259	-200.000	-0.013	0.298
-472.245	8.522	0.230	0.175
-471.230	54.017	-0.056	0.054
-470.216	485.396	0.189	0.436
-469.201	-106.249	0.266	-0.060
-468.186	-107.818	-0.091	0.020
-467.172	-3.912	0.125	0.088
-466.157	-42.778	-0.168	0.087
-465.143	46.324	0.304	-0.285
-464.128	222.615	0.167	-0.272
-463.113	-91.403	0.305	-0.088
-462.099	-20.124	-0.049	0.031
-461.084	-200.000	0.028	-0.174
-460.070	-200.000	-0.024	-0.107
-459.055	338.268	0.098	-0.193
-458.040	-200.000	0.068	-0.514
-457.026	-111.218	0.128	0.026
-456.011	-192.227	0.290	0.003
-454.997	217.526	0.029	-0.047
-453.982	593.368	0.025	-0.062
-452.968	0.442	0.125	0.090
-451.953	-104.849	-0.116	0.027
-450.938	-21.572	0.025	-0.016
-449.924	-66.275	0.048	0.019
-448.909	-20.425	0.134	-0.083
-447.895	220.217	0.148	0.240
-446.880	-48.451	0.246	-0.120
-445.865	281.213	-0.138	-0.251
-444.851	172.627	-0.028	0.041
-443.836	255.009	-0.103	0.179
-442.822	498.437	-0.167	-0.389
-441.807	-3.803	0.548	-0.385
-440.792	-200.000	-0.040	0.324
-439.778	236.176	-0.054	-0.091
-438.763	-42.075	0.183	0.095
-437.749	-200.000	-0.014	-0.182
-436.734	-200.000	-0.018	-0.128
-435.719	-200.000	-0.010	0.047
-434.705	141.598	-0.060	0.081
-433.690	782.602	0.034	0.094
-432.676	84.709	0.157	-0.174
-431.661	-7.582	-0.266	0.182
-430.646	-200.000	-0.050	-0.226
-429.632	342.189	0.031	0.062
-428.617	-200.000	-0.024	-0.152
-427.603	-136.193	-0.303	0.036
-426.588	800.000	0.056	0.175
-425.573	131.460	-0.109	-0.141
-424.559	-144.162	-0.184	0.017
-423.544	116.538	-0.238	0.295
-422.530	-200.000	-0.024	0.270
-421.515	800.000	0.066	0.192
-420.500	354.024	-0.082	0.164
-419.486	181.072	-0.115	-0.170
-418.471	-183.128	-0.200	-0.004
-417.457	-86.469	0.424	-0.132
-416.442	-200.000	-0.000	-0.160
-415.428	800.000	0.037	-0.152
-414.413	-19.658	0.209	0.131
-413.398	11.447	0.185	-0.143
-412.384	-59.891	0.194	-0.084
-411.369	-38.186	-0.177	-0.095
-410.355	-4.712	0.237	-0.165
-409.340	-200.000	0.022	-0.329
-408.325	800.000	0.018	-0.050
-407.311	-42.140	-0.336	0.173
-406.296	-74.852	0.120	0.043
-405.282	-106.611	0.232	-0.052
-404.267	210.678	0.188	0.298
-403.252	-13.646	0.019	0.013
-402.238	-43.382	0.150	0.077
-401.223	254.287	-0.050	0.086
-400.209	-200.000	0.003	0.084
-399.194	173.348	-0.256	0.372
-398.179	-73.667	0.081	0.030
-397.165	94.167	0.087	-0.100
-396.150	245.065	0.230	-0.390
-395.136	26.392	0.302	-0.255
-394.121	94.910	0.071	0.082
-393.106	441.444	0.116	-0.256
-392.092	-83.152	-0.471	0.153
-391.077	380.477	-0.124	-0.258
-390.063	-200.000	-0.016	-0.116
-389.048	34.644	0.083	-0.074
-388.033	248.780	-0.035	0.059
-387.019	63.079	0.061	0.062
-386.004	800.000	-0.021	-0.079
-384.990	244.503	0.070	0.118
-383.975	-200.000	-0.002	0.068
-382.960	-117.661	-0.241	0.044
-381.946	-200.000	0.023	-0.389
-380.931	-12.205	0.181	-0.120
-379.917	-3.419	-0.192	0.135
-378.902	283.308	0.035	0.064
-377.888	-200.000	0.013	-0.206
-376.873	-193.420	0.132	0.001
-375.858	-131.037	0.152	-0.020
-374.844	21.581	0.087	0.072
-373.829	-21.865	-0.109	0.067
-372.815	-26.511	-0.224	0.133
-371.800	-24.536	-0.200	0.120
-370.785	664.778	0.006	0.014
-369.771	3.623	0.024	0.018
-368.756	56.508	0.130	0.127
-367.742	800.000	0.056	-0.218
-366.727	-66.838	-0.304	0.121
-365.712	489.924	-0.013	-0.031
-364.698	-72.862	-0.479	0.178
-363.683	682.041	-0.120	0.316
-362.669	-19.618	-0.123	-0.077
-361.654	265.215	-0.167	0.294
-360.639	88.027	0.064	-0.071
-359.625	-66.311	0.384	-0.154
-358.610	-68.727	-0.178	0.070
-357.596	-145.987	-0.075	-0.007
-356.581	-21.147	-0.353	0.217
-355.566	-200.000	-0.051	0.286
-354.552	800.000	0.067	0.262
-353.537	11.960	-0.018	-0.014
-352.523	800.000	0.095	-0.304
-351.508	-70.102	0.096	-0.037
-350.493	800.000	-0.061	-0.198
-349.479	67.023	0.200	0.205
-348.464	-55.734	-0.082	-0.037
-347.450	659.904	0.029	0.074
-346.435	-108.928	0.074	-0.016
-345.420	-200.000	-0.039	-0.393
-344.406	-51.925	0.244	0.114
-343.391	800.000	-0.055	0.223
-342.377	581.605	0.073	0.181
-341.362	-91.541	-0.314	0.090
-340.348	800.000	-0.030	-0.086
-339.333	165.775	0.128	-0.182
-338.318	-200.000	-0.005	0.076
-337.304	-0.705	-0.074	-0.053
-336.289	-49.761	0.070	-0.033
-335.275	800.000	-0.058	0.179
-334.260	-200.000	0.006	-0.067
-333.245	-200.000	-0.014	-0.314
-332.231	-34.686	0.196	0.108
-331.216	800.000	0.091	0.288
-330.202	-22.189	0.292	-0.178
-329.187	191.375	0.328	0.498
-328.172	-143.049	-0.016	-0.002
-327.158	247.614	0.207	-0.352
-326.143	-138.515	0.329	-0.036
-325.129	-38.535	0.087	-0.046
-324.114	308.539	0.055	-0.103
-323.099	-200.000	-0.055	-0.336
-322.085	-17.598	0.198	-0.125
-321.070	800.000	-0.029	0.099
-320.056	-97.746	0.143	0.037
-319.041	-11.380	0.095	-0.063
-318.026	-135.494	0.214	0.026
-317.012	-21.680	0.278	-0.171
-315.997	-43.599	0.098	0.050
-314.983	679.249	-0.050	0.131
-313.968	-149.350	0.022	0.002
-312.953	57.067	-0.159	-0.156
-311.939	7.074	0.066	-0.049
-310.924	-200.000	0.011	-0.203
-309.910	367.540	0.092	0.187
-308.895	800.000	0.029	0.097
-307.880	525.843	0.123	0.291
-306.866	4.630	-0.099	0.073
-305.851	36.826	0.101	-0.090
-304.837	391.348	-0.047	-0.099
-303.822	198.711	-0.102	0.158
-302.807	-91.948	0.300	0.086
-301.793	245.322	-0.093	0.158
-300.778	164.884	-0.034	-0.048
-299.764	176.267	-0.093	0.135
-298.749	394.207	0.180	0.377
-297.735	-200.000	-0.001	-0.023
-296.720	137.231	-0.070	-0.092
-295.705	107.126	0.100	-0.119
-294.691	-200.000	-0.002	0.043
-293.676	496.036	-0.100	-0.231
-292.662	-173.403	0.380	0.012
-291.647	-21.632	0.252	0.155
-290.632	800.000	-0.078	0.228
-289.618	63.237	-0.254	0.256
-288.603	167.822	-0.096	0.138
-287.589	-189.724	0.113	0.001
-286.574	158.893	-0.153	0.214
-285.559	294.606	0.175	-0.322
-284.545	-200.000	0.007	0.139
-283.530	-192.416	-0.186	0.002
-282.516	-91.899	-0.043	-0.012
-281.501	-149.607	0.124	-0.010
-280.486	600.940	-0.100	-0.249
-279.472	92.560	0.044	0.050
-278.457	-69.316	-0.272	-0.105
-277.443	88.967	-0.168	0.188
-276.428	16.168	0.257	-0.204
-275.413	57.146	0.140	0.137
-274.399	312.472	-0.042	0.079
-273.384	28.265	-0.208	0.176
-272.370	64.742	0.208	-0.211
-271.355	800.000	-0.073	-0.214
-270.340	-127.277	-0.365	-0.054
-269.326	155.405	0.122	0.169
-268.311	-200.000	-0.010	-0.112
-267.297	-51.728	0.182	0.085
-266.282	28.586	-0.281	-0.239
-265.267	192.803	-0.029	0.044
-264.253	-99.855	-0.175	0.044
-263.238	403.179	0.070	-0.149
-262.224	119.297	-0.114	-0.141
-261.209	-55.355	-0.280	-0.126
-260.195	602.444	-0.087	-0.216
-259.180	390.752	-0.048	-0.101
-258.165	-200.000	0.031	-0.137
-257.151	-9.840	-0.120	0.080
-256.136	-200.000	-0.012	0.143
-255.122	-56.575	-0.222	0.099
-254.107	-28.328	0.444	-0.258
-253.092	-191.281	-0.127	0.001
-252.078	451.372	-0.072	-0.159
-251.063	-125.695	-0.041	0.006
-250.049	-200.000	0.026	0.251
-249.034	-148.087	0.333	0.028
-248.019	-200.000	0.012	0.220
-247.005	441.598	0.045	0.100
-245.990	564.454	0.117	0.284
-244.976	86.705	-0.049	0.055
-243.961	96.967	-0.147	-0.169
-242.946	-4.337	0.027	-0.019
-241.932	492.400	-0.072	0.165
-240.917	555.177	-0.047	0.113
-239.903	-56.980	0.119	0.053
-238.888	-200.000	0.018	0.091
-237.873	-200.000	0.116	-0.523
-236.859	-52.797	-0.228	-0.105
-235.844	0.835	-0.285	-0.205
-234.830	157.304	-0.081	-0.112
-233.815	-117.244	-0.198	-0.036
-232.800	-3.034	0.129	-0.091
-231.786	-1.947	0.153	0.108
-230.771	560.870	-0.071	0.173
-229.757	723.192	0.071	0.190
-228.742	-23.265	0.079	0.048
-227.727	-97.278	-0.300	-0.079
-226.713	800.000	0.032	0.137
-225.698	-200.000	-0.013	0.119
-224.684	62.674	0.146	-0.146
-223.669	-26.839	0.345	0.202
-222.655	6.651	-0.196	0.146
-221.640	-79.587	0.131	-0.044
-220.625	18.916	0.081	0.065
-219.611	65.681	-0.250	0.254
-218.596	-89.217	-0.278	0.082
-217.582	42.761	0.329	0.301
-216.567	41.274	-0.148	0.134
-215.552	-78.657	-0.029	-0.010
-214.538	93.647	0.073	-0.083
-213.523	-20.583	-0.011	-0.007
-212.509	-200.000	0.003	-0.224
-211.494	131.576	-0.342	-0.441
-210.479	-25.381	0.307	0.182
-209.465	-200.000	0.029	0.290
-208.450	369.293	-0.041	0.083
-207.436	49.300	-0.311	0.293
-206.421	550.644	0.040	0.096
-205.406	-21.085	-0.038	-0.023
-204.392	-51.954	-0.149	0.070
-203.377	-200.000	-0.005	-0.331
-202.363	-200.000	0.002	-0.173
-201.348	800.000	0.016	-0.054
-200.333	800.000	-0.061	-0.188
-199.319	-200.000	-0.009	-0.122
-198.304	800.000	-0.065	0.272
-197.290	553.551	0.046	0.111
-196.275	-200.000	-0.038	0.236
-195.260	-55.496	-0.276	0.124
-194.246	154.819	0.098	0.135
-193.231	-79.303	-0.227	0.077
-192.217	-200.000	-0.024	0.137
-191.202	-88.552	0.234	-0.070
-190.187	99.754	0.064	0.074
-189.173	37.806	0.106	0.094
-188.158	178.420	-0.048	-0.071
-187.144	-200.000	0.040	0.376
-186.129	-200.000	-0.010	0.170
-185.114	-67.140	-0.145	0.057
-184.100	-154.333	-0.126	-0.008
-183.085	40.283	0.029	0.026
-182.071	-96.426	-0.397	0.105
-181.056	-200.000	-0.020	0.112
-180.042	125.955	0.156	-0.197
-179.027	-101.563	-0.290	-0.071
-178.012	392.525	-0.121	0.252
-176.998	484.217	-0.106	0.241
-175.983	-189.398	-0.053	-0.001
-174.969	-163.460	0.350	-0.017
-173.954	-7.827	0.217	0.147
-172.939	33.904	0.168	-0.146
-171.925	-141.227	-0.150	-0.015
-170.910	-58.894	0.107	-0.046
-169.896	503.658	-0.118	0.272
-168.881	-102.068	-0.257	-0.062
-167.866	-1.163	0.086	-0.061
-166.852	-200.000	-0.017	0.356
-165.837	-200.000	0.043	-0.258
-164.823	-126.849	-0.277	-0.041
-163.808	671.155	0.095	-0.245
-162.793	-200.000	-0.039	-0.347
-161.779	-78.485	0.208	-0.071
-160.764	22.001	-0.353	-0.288
-159.750	800.000	0.110	0.440
-158.735	130.399	0.285	0.366
-157.720	38.126	0.274	-0.244
-156.706	-28.394	0.105	-0.061
-155.691	-86.734	-0.133	-0.041
-154.677	118.976	-0.073	0.090
-153.662	-200.000	-0.049	0.330
-152.647	800.000	-0.074	0.220
-151.633	-106.078	-0.499	-0.112
-150.618	-200.000	0.048	-0.233
-149.604	-200.000	-0.037	0.178
-148.589	481.743	-0.074	-0.167
-147.574	71.705	0.198	0.205
-146.560	39.867	-0.170	0.153
-145.545	229.718	-0.063	0.103
-144.531	-96.066	0.207	0.055
-143.516	265.521	-0.026	-0.046
-142.502	-26.108	-0.154	0.090
-141.487	-86.930	0.010	0.003
-140.472	-115.625	-0.075	0.014
-139.458	800.000	-0.073	0.247
-138.443	42.179	-0.060	0.054
-137.429	104.004	-0.165	-0.194
-136.414	-34.292	0.296	-0.162
-135.399	85.934	0.234	0.257
-134.385	548.017	-0.066	-0.158
-133.370	-92.229	0.208	0.059
-132.356	-4.212	0.113	0.079
-131.341	730.280	-0.031	-0.084
-130.326	97.796	0.184	-0.211
-129.312	446.020	0.090	-0.197
-128.297	-23.463	0.246	0.148
-127.283	-72.447	0.285	-0.105
-126.268	227.529	0.100	0.163
-125.253	800.000	-0.060	0.260
-124.239	124.852	-0.177	0.223
-123.224	5.665	-0.148	0.109
-122.210	138.841	-0.194	-0.254
-121.195	567.876	0.017	-0.040
