DTS Sentinel unit serial number:	SN413079Multiplexer serial number:	ORYXHardware model number:	OX4-SRSoftware version number:	ORYX F/W v4.00 Oryx Data Collector v3.7.2.0data status	okinstallation	princeton_trtdifferential loss correction	single-endedforward channel	channel 1reverse channel	N/Adate	2019/09/15time	18:58:35forward acquisition time	60.00reverse acquisition time	0.00gamma	496.2192k internal	0.2291k external	0.2291temperature offset calibration	0.9945default loss term (dB/km)	0.3790temperature slope calibration	1.0000multiplexer offset coefficient	1.0000multiplexer slope coefficient	1.0000fibre end	0.00T internal ref (°C)	42.31T ext. ref 1 (°C)	7.01T ext. ref 2 (°C)	32.10length (m)	temperature (°C)	Stokes	anti-Stokes-747.200	-106.916	0.249	0.056
-746.185	353.830	-0.124	0.251
-745.171	127.630	0.113	0.147
-744.156	65.717	-0.180	0.187
-743.142	-54.499	0.340	0.158
-742.127	-200.000	0.005	0.293
-741.112	528.918	0.122	-0.294
-740.098	60.756	0.203	-0.206
-739.083	153.056	0.119	0.167
-738.069	-44.879	-0.215	0.110
-737.054	-54.478	0.120	0.056
-736.039	-63.817	0.071	-0.030
-735.025	800.000	0.040	0.149
-734.010	800.000	-0.121	0.357
-732.996	514.027	-0.081	-0.193
-731.981	-11.765	-0.082	-0.055
-730.966	-93.299	-0.213	0.060
-729.952	-16.146	-0.345	-0.224
-728.937	25.303	-0.074	-0.063
-727.923	-134.818	-0.392	0.049
-726.908	332.344	0.159	-0.315
-725.894	-136.318	-0.324	-0.039
-724.879	800.000	0.039	0.157
-723.864	77.319	0.166	0.181
-722.850	800.000	0.016	-0.047
-721.835	-101.416	-0.355	-0.088
-720.821	-126.045	0.278	0.043
-719.806	-77.829	-0.268	-0.095
-718.791	-160.725	-0.356	0.019
-717.777	-9.315	-0.310	-0.212
-716.762	2.230	0.048	0.036
-715.748	-64.794	-0.259	0.107
-714.733	94.326	-0.071	-0.083
-713.718	57.549	-0.178	-0.178
-712.704	116.593	0.137	-0.172
-711.689	7.934	0.237	-0.182
-710.675	-70.100	0.087	-0.034
-709.660	-110.904	-0.362	-0.076
-708.645	48.527	0.278	-0.266
-707.631	9.722	-0.226	-0.175
-706.616	-63.658	0.054	-0.023
-705.602	203.892	-0.105	0.166
-704.587	-53.958	-0.038	0.018
-703.572	-152.638	0.271	0.020
-702.558	251.362	0.058	0.101
-701.543	-169.576	0.368	0.014
-700.529	800.000	-0.056	-0.210
-699.514	-177.533	-0.036	0.001
-698.499	394.325	-0.068	0.144
-697.485	-177.570	0.286	-0.007
-696.470	116.749	-0.039	0.049
-695.456	-85.426	0.276	-0.088
-694.441	-121.499	-0.279	-0.047
-693.426	-46.456	-0.187	-0.094
-692.412	-200.000	0.026	-0.136
-691.397	800.000	-0.069	0.257
-690.383	-200.000	-0.011	0.278
-689.368	-200.000	-0.004	0.104
-688.354	800.000	-0.075	-0.224
-687.339	272.976	0.156	0.281
-686.324	406.389	-0.065	-0.141
-685.310	148.319	0.097	-0.134
-684.295	-75.252	-0.261	0.095
-683.281	-32.944	-0.256	-0.145
-682.266	150.087	-0.258	-0.357
-681.251	-200.000	0.043	0.223
-680.237	48.544	-0.275	-0.263
-679.222	-200.000	-0.031	-0.181
-678.208	-110.087	0.134	-0.029
-677.193	-13.867	0.134	0.088
-676.178	-200.000	-0.084	0.543
-675.164	800.000	-0.045	-0.150
-674.149	-88.201	-0.140	0.043
-673.135	115.512	0.210	0.262
-672.120	328.341	0.091	-0.178
-671.105	-113.084	-0.307	0.062
-670.091	-145.023	0.176	-0.016
-669.076	-40.488	-0.189	0.100
-668.062	-200.000	0.012	-0.204
-667.047	-141.997	-0.168	-0.017
-666.032	-166.635	0.343	0.015
-665.018	-4.540	0.139	-0.098
-664.003	-200.000	0.011	0.110
-662.989	-125.296	0.245	0.038
-661.974	7.241	0.175	-0.133
-660.959	-40.980	0.222	-0.117
-659.945	46.896	0.158	0.150
-658.930	-89.445	0.132	0.040
-657.916	-89.052	0.349	-0.105
-656.901	-58.337	0.562	-0.249
-655.886	-132.884	0.163	0.021
-654.872	-200.000	0.020	-0.099
-653.857	-59.861	-0.122	-0.053
-652.843	207.613	0.080	-0.127
-651.828	676.784	0.077	0.203
-650.814	-70.239	-0.189	-0.073
-649.799	-30.399	-0.240	0.139
-648.784	-200.000	-0.034	0.226
-647.770	-69.064	-0.207	0.081
-646.755	338.642	0.029	0.059
-645.741	-34.851	0.148	-0.082
-644.726	-200.000	0.018	0.104
-643.711	-4.530	0.313	-0.221
-642.697	-200.000	0.053	0.266
-641.682	-84.677	-0.144	-0.046
-640.668	-200.000	-0.002	-0.247
-639.653	314.335	-0.102	0.196
-638.638	361.093	0.151	-0.308
-637.624	438.785	-0.052	0.116
-636.609	49.275	0.243	-0.233
-635.595	-200.000	0.035	-0.179
-634.580	392.894	0.051	0.108
-633.565	142.721	-0.139	-0.189
-632.551	-83.891	-0.334	-0.108
-631.536	16.814	-0.125	0.101
-630.522	14.750	-0.286	-0.228
-629.507	-55.242	-0.086	-0.039
-628.492	40.458	0.187	-0.172
-627.478	-200.000	-0.116	-0.000
-626.463	-200.000	-0.014	-0.184
-625.449	48.553	0.230	-0.220
-624.434	-30.419	0.144	-0.083
-623.419	166.013	-0.125	0.180
-622.405	563.256	0.064	-0.158
-621.390	-24.655	0.123	-0.074
-620.376	323.257	0.109	0.212
-619.361	-200.000	0.046	-0.348
-618.346	-80.327	-0.121	0.041
-617.332	59.927	-0.060	-0.060
-616.317	256.717	-0.141	0.247
-615.303	73.523	-0.097	-0.103
-614.288	-108.137	0.197	-0.044
-613.273	-109.306	-0.283	0.061
-612.259	800.000	0.095	-0.276
-611.244	-176.530	0.181	0.005
-610.230	-79.465	-0.176	-0.061
-609.215	-118.468	-0.417	0.075
-608.201	800.000	-0.058	-0.236
-607.186	-9.875	-0.206	0.140
-606.171	-155.330	-0.139	0.009
-605.157	-188.360	-0.186	-0.002
-604.142	196.605	0.138	-0.213
-603.128	552.031	0.075	0.183
-602.113	800.000	0.052	-0.174
-601.098	800.000	-0.065	-0.275
-600.084	120.317	-0.110	-0.139
-599.069	46.660	-0.176	0.166
-598.055	800.000	0.032	-0.101
-597.040	-124.928	-0.595	0.093
-596.025	-8.336	-0.378	0.259
-595.011	-200.000	0.033	0.221
-593.996	70.748	0.024	-0.025
-592.982	-200.000	-0.045	0.363
-591.967	21.299	-0.060	0.049
-590.952	-200.000	-0.012	-0.173
-589.938	84.127	-0.222	0.247
-588.923	-200.000	-0.005	-0.287
-587.909	800.000	-0.060	0.228
-586.894	-52.781	-0.119	-0.056
-585.879	131.833	0.138	0.181
-584.865	-200.000	-0.021	-0.129
-583.850	-12.189	0.131	-0.087
-582.836	-22.149	-0.234	-0.145
-581.821	154.472	-0.068	0.095
-580.806	-113.137	-0.227	-0.046
-579.792	77.665	-0.079	-0.085
-578.777	-200.000	0.029	-0.258
-577.763	-101.423	-0.309	-0.077
-576.748	340.914	-0.100	-0.199
-575.733	-200.000	0.089	-0.403
-574.719	119.090	0.015	0.019
-573.704	-182.060	0.334	0.006
-572.690	800.000	-0.070	-0.199
-571.675	273.663	-0.018	0.032
-570.661	494.878	0.093	0.217
-569.646	80.395	0.050	0.054
-568.631	1.561	0.180	-0.132
-567.617	-122.477	0.303	0.050
-566.602	156.245	0.133	0.187
-565.588	800.000	0.127	-0.395
-564.573	-104.778	0.326	0.076
-563.558	83.822	0.244	0.270
-562.544	-60.267	-0.089	-0.039
-561.529	182.557	0.008	0.011
-560.515	-60.542	-0.046	-0.020
-559.500	-200.000	0.024	0.178
-558.485	-200.000	0.013	0.178
-557.471	-200.000	0.221	0.001
-556.456	48.966	-0.064	0.061
-555.442	364.942	0.094	0.192
-554.427	737.335	-0.132	0.361
-553.412	-60.612	-0.005	-0.002
-552.398	8.592	0.136	-0.104
-551.383	-66.110	0.229	-0.093
-550.369	319.686	0.085	-0.163
-549.354	-104.803	-0.426	-0.100
-548.339	800.000	0.054	0.182
-547.325	-200.000	-0.010	-0.154
-546.310	-147.314	-0.188	-0.016
-545.296	-89.860	-0.143	-0.042
-544.281	-177.059	0.234	-0.006
-543.266	-200.000	0.005	0.086
-542.252	-143.764	0.315	0.030
-541.237	-200.000	-0.045	0.217
-540.223	-105.083	-0.169	-0.039
-539.208	360.744	-0.085	0.174
-538.193	-200.000	0.039	0.287
-537.179	-200.000	0.011	-0.118
-536.164	-200.000	-0.018	0.285
-535.150	292.230	-0.104	0.193
-534.135	-89.110	0.057	-0.017
-533.121	87.854	0.211	0.238
-532.106	144.009	-0.184	-0.250
-531.091	103.041	-0.021	0.025
-530.077	-47.556	-0.071	0.035
-529.062	-149.145	-0.205	0.017
-528.048	19.446	-0.068	0.056
-527.033	-200.000	-0.022	-0.169
-526.018	69.650	0.166	-0.174
-525.004	405.199	0.114	0.245
-523.989	74.081	0.051	-0.054
-522.975	800.000	0.101	0.333
-521.960	800.000	0.038	-0.127
-520.945	95.423	0.149	-0.172
-519.931	-53.242	-0.127	-0.059
-518.916	800.000	-0.114	-0.437
-517.902	-101.426	-0.265	0.066
-516.887	-200.000	0.009	-0.160
-515.872	800.000	-0.003	0.010
-514.858	-131.369	-0.248	0.033
-513.843	209.134	-0.160	0.254
-512.829	-200.000	-0.042	-0.339
-511.814	-2.310	0.122	0.087
-510.799	-200.000	0.018	-0.194
-509.785	527.555	0.102	0.244
-508.770	-200.000	-0.041	-0.298
-507.756	349.128	0.055	-0.110
-506.741	-200.000	-0.052	-0.234
-505.726	195.796	-0.109	-0.167
-504.712	-200.000	0.012	0.151
-503.697	68.017	-0.143	0.148
-502.683	-200.000	-0.012	0.086
-501.668	105.116	0.080	-0.095
-500.653	84.703	0.122	0.135
-499.639	-200.000	0.000	-0.268
-498.624	-179.790	0.245	0.005
-497.610	-67.734	0.292	-0.116
-496.595	-175.283	0.112	0.003
-495.581	-24.014	-0.148	0.090
-494.566	191.864	0.046	-0.070
-493.551	199.058	0.139	0.217
-492.537	-200.000	-0.055	0.261
-491.522	376.603	-0.083	0.171
-490.508	114.378	0.139	0.172
-489.493	-29.211	0.145	-0.084
-488.478	239.738	0.195	-0.330
-487.464	126.759	-0.212	0.273
-486.449	120.327	-0.045	0.057
-485.435	-26.828	-0.313	0.185
-484.420	-60.234	-0.178	-0.077
-483.405	800.000	0.042	-0.178
-482.391	306.381	-0.097	-0.183
-481.376	70.129	0.159	-0.166
-480.362	16.595	-0.056	0.045
-479.347	-92.890	0.059	0.017
-478.332	-86.274	0.159	0.049
-477.318	282.299	-0.085	0.155
-476.303	-2.948	-0.046	0.033
-475.289	38.641	0.275	-0.248
-474.274	-200.000	0.017	-0.188
-473.259	345.535	0.097	0.194
-472.245	47.234	0.266	0.251
-471.230	800.000	-0.062	-0.225
-470.216	62.838	-0.049	0.050
-469.201	680.333	0.040	0.106
-468.186	-71.027	0.716	-0.273
-467.172	484.002	0.027	0.063
-466.157	86.175	0.125	-0.140
-465.143	5.307	0.201	0.150
-464.128	800.000	-0.072	-0.211
-463.113	40.939	-0.371	0.340
-462.099	23.080	0.393	-0.326
-461.084	392.069	-0.105	-0.222
-460.070	-200.000	-0.006	0.205
-459.055	42.125	-0.093	-0.086
-458.040	-122.701	0.026	-0.004
-457.026	-71.906	-0.217	-0.082
-456.011	-200.000	-0.045	-0.363
-454.997	-106.703	-0.174	0.039
-453.982	506.050	-0.051	-0.119
-452.968	95.539	0.062	0.071
-451.953	501.332	0.086	-0.202
-450.938	-120.805	-0.368	-0.063
-449.924	-145.090	0.216	0.020
-448.909	93.681	0.200	-0.229
-447.895	271.304	-0.148	0.263
-446.880	800.000	0.087	0.250
-445.865	-146.464	-0.242	-0.021
-444.851	129.554	0.099	-0.128
-443.836	127.685	-0.035	0.044
-442.822	124.605	0.116	-0.148
-441.807	-200.000	-0.012	0.060
-440.792	-74.897	-0.294	-0.107
-439.778	124.117	0.124	0.157
-438.763	-141.368	-0.363	0.037
-437.749	514.680	0.060	-0.141
-436.734	358.709	0.041	0.083
-435.719	-62.671	-0.124	-0.052
-434.705	668.009	0.017	-0.044
-433.690	-23.988	0.031	0.019
-432.676	-99.419	-0.230	-0.059
-431.661	549.808	-0.093	0.226
-430.646	707.561	-0.064	0.171
-429.632	-89.086	-0.105	-0.031
-428.617	97.557	-0.132	0.154
-427.603	127.878	0.212	0.273
-426.588	-200.000	-0.094	0.441
-425.573	-137.992	-0.185	0.021
-424.559	16.887	-0.081	0.065
-423.544	595.711	0.020	-0.050
-422.530	100.505	-0.056	-0.066
-421.515	40.614	-0.071	-0.065
-420.500	800.000	0.098	-0.313
-419.486	-200.000	-0.032	0.262
-418.471	-63.582	0.228	-0.095
-417.457	134.816	-0.234	-0.307
-416.442	-67.098	0.121	-0.048
-415.428	60.553	0.079	0.079
-414.413	209.187	0.146	0.231
-413.398	602.520	0.129	-0.325
-412.384	417.462	-0.130	0.281
-411.369	508.516	-0.069	-0.162
-410.355	203.813	-0.267	0.418
-409.340	800.000	0.069	-0.218
-408.325	-17.791	0.219	-0.139
-407.311	-154.152	0.033	0.002
-406.296	-200.000	0.029	0.289
-405.282	800.000	0.017	-0.057
-404.267	15.488	-0.126	-0.100
-403.252	-200.000	0.008	-0.296
-402.238	-141.724	-0.102	0.010
-401.223	-200.000	0.049	0.264
-400.209	221.364	-0.071	-0.114
-399.194	-184.777	0.230	-0.004
-398.179	-142.221	0.111	0.011
-397.165	-42.490	0.186	-0.096
-396.150	-133.951	-0.193	-0.024
-395.136	-200.000	-0.010	0.050
-394.121	-115.628	0.389	0.074
-393.106	-172.299	0.290	0.009
-392.092	42.810	-0.280	-0.258
-391.077	79.227	0.189	0.205
-390.063	-200.000	0.043	0.206
-389.048	-46.819	0.177	0.087
-388.033	-197.913	-0.122	0.001
-387.019	279.848	-0.074	-0.134
-386.004	239.848	0.258	-0.434
-384.990	-129.245	-0.247	-0.035
-383.975	-5.102	-0.136	-0.095
-382.960	-200.000	-0.024	0.150
-381.946	-60.900	-0.139	-0.059
-380.931	-99.163	0.030	-0.008
-379.917	184.103	0.059	-0.088
-378.902	107.452	0.104	-0.125
-377.888	-60.101	0.175	-0.075
-376.873	-47.504	-0.068	-0.034
-375.858	800.000	-0.079	-0.347
-374.844	50.525	0.146	-0.139
-373.829	-200.000	-0.021	0.176
-372.815	800.000	-0.122	0.397
-371.800	62.222	0.116	0.117
-370.785	159.575	-0.086	-0.120
-369.771	-31.007	-0.242	-0.138
-368.756	355.297	-0.138	0.277
-367.742	415.546	0.114	-0.246
-366.727	-200.000	0.031	0.340
-365.712	-200.000	0.003	0.218
-364.698	233.657	-0.018	-0.030
-363.683	-62.843	0.267	0.111
-362.669	20.439	0.073	-0.059
-361.654	-200.000	0.042	-0.219
-360.639	-89.808	-0.450	0.133
-359.625	306.797	-0.017	-0.032
-358.610	-200.000	0.281	0.001
-357.596	368.162	0.085	-0.173
-356.581	87.139	-0.104	-0.116
-355.566	800.000	-0.122	-0.370
-354.552	800.000	0.040	0.130
-353.537	-200.000	0.028	0.182
-352.523	-104.514	0.224	-0.052
-351.508	-130.440	0.142	-0.019
-350.493	323.723	-0.043	0.083
-349.479	-62.693	-0.249	-0.104
-348.464	162.869	0.060	0.085
-347.450	14.185	-0.115	0.091
-346.435	800.000	-0.034	0.128
-345.420	-200.000	0.089	0.467
-344.406	800.000	-0.035	0.102
-343.391	-91.334	-0.340	-0.098
-342.377	-111.939	-0.218	0.044
-341.362	-200.000	0.002	-0.246
-340.348	-82.977	-0.133	0.043
-339.333	22.923	-0.196	-0.162
-338.318	-200.000	-0.022	-0.101
-337.304	-200.000	-0.042	0.316
-336.289	139.936	0.192	0.255
-335.275	360.132	0.079	-0.159
-334.260	-200.000	-0.041	0.390
-333.245	-86.605	0.450	0.139
-332.231	25.983	-0.215	0.180
-331.216	104.611	-0.182	0.217
-330.202	73.323	-0.075	-0.079
-329.187	53.846	0.225	0.218
-328.172	-200.000	0.045	-0.211
-327.158	-40.465	-0.197	-0.103
-326.143	-174.015	0.036	0.001
-325.129	-34.159	-0.155	0.086
-324.114	-14.043	-0.206	-0.134
-323.099	-42.983	0.138	-0.070
-322.085	11.592	0.131	-0.101
-321.070	-200.000	-0.004	-0.091
-320.056	111.408	0.087	0.106
-319.041	172.964	0.107	0.155
-318.026	-150.053	-0.083	-0.007
-317.012	-163.283	0.133	-0.006
-315.997	21.535	-0.222	0.182
-314.983	-107.658	0.271	0.060
-313.968	-152.544	-0.268	-0.019
-312.953	2.812	-0.239	0.174
-311.939	-132.544	0.120	0.015
-310.924	-109.142	0.217	-0.046
-309.910	-200.000	0.026	-0.178
-308.895	372.752	0.158	-0.324
-307.880	-121.144	0.235	0.040
-306.866	-90.226	-0.248	-0.073
-305.851	-52.509	-0.396	-0.184
-304.837	-200.000	-0.019	-0.393
-303.822	795.543	-0.161	0.448
-302.807	-200.000	-0.004	0.141
-301.793	211.763	0.106	0.168
-300.778	-133.618	0.165	-0.021
-299.764	800.000	0.093	-0.333
-298.749	323.506	-0.092	0.177
-297.735	800.000	-0.046	0.156
-296.720	-200.000	0.003	0.123
-295.705	91.152	-0.202	0.228
-294.691	-88.736	0.044	0.013
-293.676	-103.819	0.280	0.066
-292.662	-10.270	-0.065	-0.044
-291.647	-165.154	-0.283	-0.013
-290.632	-93.687	0.264	0.073
-289.618	380.729	-0.121	0.250
-288.603	800.000	0.089	0.380
-287.589	-200.000	0.018	0.309
-286.574	-18.716	0.162	0.101
-285.559	-53.817	-0.292	-0.134
-284.545	-70.199	-0.280	0.107
-283.530	362.243	-0.180	0.363
-282.516	138.156	0.247	0.326
-281.501	27.910	0.092	0.078
-280.486	47.189	0.062	-0.058
-279.472	101.753	-0.140	-0.164
-278.457	-70.742	0.041	0.016
-277.443	-151.141	-0.418	0.032
-276.428	-50.989	-0.041	0.019
-275.413	500.488	0.051	-0.118
-274.399	518.300	0.078	-0.184
-273.384	800.000	-0.024	-0.107
-272.370	-200.000	0.011	-0.139
-271.355	-106.685	-0.116	-0.026
-270.340	-50.970	0.083	-0.039
-269.326	-159.647	0.147	0.008
-268.311	-105.399	0.309	-0.071
-267.297	-200.000	-0.001	0.120
-266.282	-72.052	0.340	-0.127
-265.267	55.708	0.105	-0.102
-264.253	-135.844	0.179	-0.021
-263.238	-200.000	-0.017	-0.216
-262.224	148.145	-0.202	0.274
-261.209	215.246	0.063	0.101
-260.195	-200.000	-0.010	0.226
-259.180	465.049	0.108	0.242
-258.165	-200.000	-0.062	0.332
-257.151	-15.630	0.080	0.051
-256.136	526.451	-0.041	-0.098
-255.122	-90.581	-0.150	-0.044
-254.107	-121.996	-0.135	-0.022
-253.092	44.744	0.087	-0.080
-252.078	11.283	-0.220	0.169
-251.063	-40.032	-0.249	0.130
-250.049	800.000	-0.017	-0.067
-249.034	-199.107	-0.195	0.001
-248.019	76.467	-0.209	-0.222
-247.005	-18.464	0.065	-0.041
-245.990	-114.575	0.117	-0.022
-244.976	465.639	0.166	-0.374
-243.961	1.095	0.177	-0.127
-242.946	-104.366	-0.139	-0.032
-241.932	-85.407	-0.250	0.078
-240.917	-19.171	-0.412	0.257
-239.903	800.000	-0.116	0.333
-238.888	-149.111	-0.144	-0.012
-237.873	39.402	-0.276	-0.248
-236.859	-115.583	-0.337	-0.064
-235.844	-4.764	0.156	-0.108
-234.830	-200.000	-0.033	-0.219
-233.815	-200.000	0.047	-0.308
-232.800	520.640	-0.029	0.069
-231.786	1.519	0.052	0.037
-230.771	309.675	0.082	0.154
-229.757	-200.000	0.037	0.278
-228.742	-200.000	-0.024	0.238
-227.727	62.778	-0.022	-0.022
-226.713	-119.665	-0.169	-0.029
-225.698	-49.567	-0.042	0.020
-224.684	-71.796	-0.074	0.028
-223.669	-108.181	0.155	-0.034
-222.655	-200.000	0.019	0.106
-221.640	-140.587	-0.070	0.007
-220.625	-26.438	-0.089	-0.052
-219.611	800.000	-0.057	0.185
-218.596	-200.000	-0.010	0.055
-217.582	-200.000	0.042	0.256
-216.567	-103.259	0.090	-0.021
-215.552	120.620	-0.057	0.071
-214.538	90.899	0.193	0.217
-213.523	-200.000	0.002	0.138
-212.509	558.783	-0.113	0.275
-211.494	-200.000	0.022	-0.244
-210.479	38.752	0.042	-0.037
-209.465	8.883	0.131	-0.099
-208.450	609.611	-0.138	0.346
-207.436	-200.000	0.075	0.380
-206.421	146.854	-0.189	0.254
-205.406	260.681	0.046	0.081
-204.392	68.592	-0.034	0.035
-203.377	800.000	0.083	0.257
-202.363	114.132	-0.256	-0.312
-201.348	-114.684	0.312	-0.060
-200.333	-200.000	-0.010	-0.212
-199.319	-200.000	-0.010	-0.327
-198.304	800.000	0.009	-0.025
-197.290	456.906	-0.014	-0.031
-196.275	-200.000	0.014	-0.293
-195.260	354.846	0.143	-0.285
-194.246	-200.000	-0.033	-0.289
-193.231	-200.000	-0.000	-0.180
-192.217	-33.958	0.063	0.035
-191.202	800.000	-0.090	-0.326
-190.187	-172.084	0.129	0.004
-189.173	-200.000	0.022	-0.154
-188.158	-200.000	-0.008	-0.275
-187.144	-178.542	0.270	-0.006
-186.129	-61.073	0.203	-0.086
-185.114	-152.617	0.515	0.037
-184.100	-126.074	0.292	0.044
-183.085	52.989	0.278	-0.266
-182.071	38.492	0.108	-0.096
-181.056	-99.189	0.061	0.015
-180.042	66.680	0.012	-0.012
-179.027	335.835	0.081	-0.157
-178.012	2.280	-0.253	0.183
-176.998	241.936	0.065	-0.109
-175.983	-200.000	0.020	0.123
-174.969	800.000	0.169	-0.507
-173.954	181.532	-0.075	-0.110
-172.939	800.000	0.054	-0.196
-171.925	39.453	0.272	0.244
-170.910	800.000	-0.043	0.124
-169.896	0.640	0.147	0.106
-168.881	-132.469	0.198	-0.026
-167.866	67.119	0.070	0.072
-166.852	-200.000	0.009	0.324
-165.837	187.738	-0.082	-0.122
-164.823	404.605	0.020	0.043
-163.808	280.981	-0.075	0.134
-162.793	718.412	-0.056	-0.149
-161.779	55.819	0.133	-0.129
-160.764	88.758	0.255	0.284
-159.750	-121.135	0.261	-0.044
-158.735	540.738	0.038	-0.091
-157.720	-45.715	0.075	0.037
-156.706	281.500	-0.079	0.141
-155.691	-0.306	0.099	-0.070
-154.677	19.369	0.176	-0.142
-153.662	45.931	0.073	0.067
-152.647	-122.680	0.208	0.034
-151.633	-9.464	0.188	-0.126
-150.618	-82.875	-0.151	-0.049
-149.604	-84.840	-0.152	0.048
-148.589	668.878	-0.024	0.062
-147.574	800.000	0.071	0.281
-146.560	-200.000	-0.004	-0.297
-145.545	-115.594	0.426	0.080
-144.531	-200.000	0.078	0.352
-143.516	123.751	-0.054	-0.067
-142.502	-115.332	0.154	0.029
-141.487	281.741	0.060	0.107
-140.472	643.835	0.102	-0.259
-139.458	80.972	-0.241	0.260
-138.443	-108.366	0.226	0.049
-137.429	800.000	0.101	0.352
-136.414	-37.179	-0.413	-0.221
-135.399	-25.998	0.178	0.105
-134.385	108.696	0.228	-0.272
-133.370	267.105	-0.118	0.206
-132.356	123.315	0.030	-0.038
-131.341	-200.000	0.020	-0.113
-130.326	-200.000	0.019	0.207
-129.312	-200.000	0.042	0.338
-128.297	-200.000	-0.024	0.147
-127.283	-60.599	0.226	0.096
-126.268	66.780	-0.082	-0.083
-125.253	-200.000	0.070	0.340
-124.239	576.563	0.065	0.159
-123.224	800.000	0.027	0.103
-122.210	-35.441	-0.160	-0.087
-121.195	-48.802	-0.126	-0.060
