DTS Sentinel unit serial number:	SN413079Multiplexer serial number:	ORYXHardware model number:	OX4-SRSoftware version number:	ORYX F/W v4.00 Oryx Data Collector v3.7.2.0data status	okinstallation	princeton_trtdifferential loss correction	single-endedforward channel	channel 1reverse channel	N/Adate	2019/09/16time	02:38:35forward acquisition time	60.00reverse acquisition time	0.00gamma	496.2192k internal	0.2330k external	0.2330temperature offset calibration	0.9984default loss term (dB/km)	0.3790temperature slope calibration	1.0000multiplexer offset coefficient	1.0000multiplexer slope coefficient	1.0000fibre end	0.00T internal ref (°C)	27.69T ext. ref 1 (°C)	10.31T ext. ref 2 (°C)	22.48length (m)	temperature (°C)	Stokes	anti-Stokes-747.200	-19.566	-0.199	0.124
-746.185	545.090	-0.093	0.225
-745.171	44.893	0.159	0.147
-744.156	189.138	-0.106	0.160
-743.142	-97.101	-0.182	-0.048
-742.127	-172.684	-0.210	-0.007
-741.112	-127.657	0.303	0.044
-740.098	66.989	-0.363	0.373
-739.083	-20.612	-0.349	-0.216
-738.069	23.502	-0.085	-0.070
-737.054	-22.555	0.282	-0.172
-736.039	-200.000	-0.014	-0.263
-735.025	-200.000	-0.064	0.302
-734.010	67.693	-0.218	-0.224
-732.996	800.000	-0.149	-0.468
-731.981	8.278	-0.182	0.138
-730.966	566.387	-0.106	0.260
-729.952	44.745	-0.217	0.201
-728.937	-38.395	-0.144	-0.077
-727.923	608.618	-0.125	-0.313
-726.908	-200.000	0.030	0.208
-725.894	569.764	-0.072	0.177
-724.879	96.964	0.071	0.082
-723.864	-200.000	0.031	0.178
-722.850	12.106	0.244	0.189
-721.835	-117.652	-0.131	0.024
-720.821	-200.000	-0.032	0.185
-719.806	67.452	-0.280	0.287
-718.791	14.395	-0.145	-0.114
-717.777	800.000	-0.049	-0.184
-716.762	-200.000	-0.083	0.408
-715.748	-158.803	-0.389	0.022
-714.733	-179.655	0.231	-0.005
-713.718	-65.815	0.348	0.140
-712.704	-10.944	-0.157	-0.104
-711.689	-38.534	-0.152	-0.081
-710.675	-127.589	-0.300	0.044
-709.660	-169.448	-0.237	-0.009
-708.645	800.000	-0.037	-0.115
-707.631	26.002	-0.350	-0.294
-706.616	-200.000	-0.032	-0.143
-705.602	-175.844	0.135	0.004
-704.587	-117.386	-0.378	0.069
-703.572	-200.000	0.013	0.079
-702.558	800.000	0.057	0.219
-701.543	-149.607	-0.096	0.008
-700.529	-191.439	0.132	0.001
-699.514	800.000	0.043	-0.154
-698.499	101.013	-0.121	0.141
-697.485	-77.839	-0.274	-0.095
-696.470	-131.390	0.150	-0.020
-695.456	117.363	-0.212	0.262
-694.441	-200.000	-0.033	0.362
-693.426	476.194	-0.041	-0.094
-692.412	-118.830	-0.267	-0.047
-691.397	194.549	0.099	-0.151
-690.383	-200.000	0.046	0.337
-689.368	-48.336	0.138	0.067
-688.354	-200.000	0.004	-0.170
-687.339	-125.263	-0.116	-0.018
-686.324	515.429	-0.136	-0.320
-685.310	311.015	0.211	0.397
-684.295	52.907	0.122	-0.117
-683.281	194.347	-0.127	0.193
-682.266	441.416	0.120	-0.264
-681.251	-200.000	0.004	0.151
-680.237	-69.179	-0.040	-0.016
-679.222	-51.963	0.104	-0.049
-678.208	-93.792	0.295	0.082
-677.193	259.591	0.058	0.101
-676.178	138.473	-0.154	-0.203
-675.164	-84.890	0.030	0.009
-674.149	-137.320	-0.272	-0.031
-673.135	536.900	-0.067	-0.159
-672.120	-200.000	0.019	-0.246
-671.105	267.114	0.101	-0.177
-670.091	-169.786	0.287	0.010
-669.076	-113.494	0.062	0.012
-668.062	31.996	0.209	0.181
-667.047	-169.758	-0.195	-0.007
-666.032	800.000	0.035	0.132
-665.018	10.272	0.177	0.135
-664.003	-59.666	-0.070	-0.030
-662.989	184.248	-0.085	-0.126
-661.974	800.000	0.130	-0.430
-660.959	-21.477	0.151	-0.092
-659.945	-129.770	-0.212	-0.029
-658.930	-63.134	-0.241	0.100
-657.916	-200.000	-0.009	-0.039
-656.901	139.028	-0.308	-0.406
-655.886	172.969	0.123	-0.178
-654.872	417.149	-0.085	-0.182
-653.857	-21.195	0.137	0.084
-652.843	26.277	-0.279	-0.234
-651.828	192.699	0.097	-0.146
-650.814	129.741	0.140	0.180
-649.799	195.321	-0.089	-0.136
-648.784	800.000	0.032	0.105
-647.770	800.000	-0.107	-0.316
-646.755	-83.008	-0.260	0.084
-645.741	30.965	0.087	-0.075
-644.726	-200.000	-0.033	-0.447
-643.711	707.689	0.125	-0.331
-642.697	53.562	-0.131	-0.126
-641.682	5.986	-0.305	-0.226
-640.668	216.788	0.109	-0.174
-639.653	301.483	-0.148	-0.273
-638.638	50.326	-0.318	-0.301
-637.624	-100.810	-0.250	-0.062
-636.609	-144.647	-0.267	0.025
-635.595	-200.000	-0.026	-0.158
-634.580	307.272	-0.076	-0.142
-633.565	-35.283	0.044	-0.024
-632.551	800.000	-0.082	-0.240
-631.536	298.248	0.132	-0.243
-630.522	-174.146	-0.286	0.008
-629.507	137.258	0.164	0.215
-628.492	-139.754	0.218	0.023
-627.478	-141.866	0.234	0.023
-626.463	181.635	-0.084	0.124
-625.449	172.980	0.063	-0.091
-624.434	270.941	-0.232	-0.409
-623.419	212.736	0.063	-0.099
-622.405	229.873	-0.123	-0.201
-621.390	-200.000	0.003	-0.093
-620.376	144.065	-0.157	-0.210
-619.361	-169.565	0.069	0.003
-618.346	-70.398	0.158	-0.060
-617.332	-45.770	-0.176	0.087
-616.317	-144.466	0.111	0.010
-615.303	800.000	0.080	0.240
-614.288	-38.244	0.146	0.078
-613.273	-66.396	-0.167	0.066
-612.259	-29.432	0.029	-0.017
-611.244	800.000	0.035	0.119
-610.230	-200.000	-0.019	-0.222
-609.215	800.000	-0.017	0.064
-608.201	-200.000	-0.004	0.330
-607.186	454.392	-0.059	0.130
-606.171	239.285	0.109	-0.182
-605.157	-73.437	0.139	0.051
-604.142	-72.031	-0.294	-0.109
-603.128	-76.436	-0.291	0.102
-602.113	-88.648	-0.322	0.096
-601.098	-200.000	-0.052	-0.423
-600.084	-96.288	-0.147	0.039
-599.069	70.618	0.049	0.051
-598.055	7.244	0.212	0.158
-597.040	376.184	0.131	-0.268
-596.025	77.477	0.115	0.122
-595.011	-87.520	-0.144	0.044
-593.996	-167.078	0.214	-0.009
-592.982	-200.000	-0.091	-0.424
-591.967	155.571	-0.167	0.231
-590.952	-124.465	-0.184	-0.029
-589.938	58.581	0.104	-0.102
-588.923	-8.528	-0.190	0.128
-587.909	68.240	-0.069	-0.071
-586.894	800.000	0.077	0.237
-585.879	800.000	-0.161	-0.466
-584.865	408.956	-0.130	0.276
-583.850	-72.642	0.425	0.157
-582.836	123.363	-0.046	-0.057
-581.821	-200.000	0.051	-0.255
-580.806	-90.039	-0.401	0.117
-579.792	158.007	0.130	0.180
-578.777	5.037	0.165	0.121
-577.763	-2.398	0.350	0.245
-576.748	666.256	0.074	-0.192
-575.733	-15.817	-0.292	0.186
-574.719	242.269	0.037	0.063
-573.704	-60.848	-0.027	0.012
-572.690	-139.964	0.162	-0.017
-571.675	-18.152	0.024	0.015
-570.661	238.469	-0.124	0.206
-569.646	385.623	-0.070	-0.144
-568.631	-23.879	-0.200	0.120
-567.617	10.035	0.181	0.138
-566.602	-26.517	-0.342	-0.200
-565.588	359.020	0.038	0.077
-564.573	-149.506	-0.276	0.022
-563.558	263.413	-0.346	0.602
-562.544	77.455	0.163	0.173
-561.529	-200.000	0.011	0.086
-560.515	-200.000	-0.006	-0.257
-559.500	12.683	0.162	-0.125
-558.485	800.000	0.057	-0.194
-557.471	-197.163	0.217	0.001
-556.456	499.532	0.070	0.161
-555.442	109.405	0.094	-0.113
-554.427	800.000	0.062	0.214
-553.412	-100.525	0.184	-0.046
-552.398	800.000	-0.025	0.098
-551.383	800.000	-0.045	0.135
-550.369	-61.153	0.406	-0.171
-549.354	-200.000	0.001	0.158
-548.339	-200.000	-0.042	0.198
-547.325	800.000	-0.134	-0.500
-546.310	-48.636	0.545	-0.262
-545.296	-200.000	0.046	0.231
-544.281	-96.713	-0.162	-0.043
-543.266	800.000	0.112	-0.334
-542.252	-200.000	-0.004	-0.085
-541.237	-165.650	0.355	0.015
-540.223	305.159	0.096	-0.178
-539.208	-46.078	-0.101	-0.050
-538.193	266.366	-0.238	0.415
-537.179	58.791	0.203	0.200
-536.164	-119.455	0.371	0.064
-535.150	800.000	-0.086	0.272
-534.135	-23.213	-0.234	-0.141
-533.121	-200.000	0.007	0.381
-532.106	800.000	0.120	0.419
-531.091	-73.096	0.143	0.052
-530.077	-200.000	-0.028	-0.311
-529.062	260.649	0.115	-0.199
-528.048	317.207	-0.164	-0.310
-527.033	800.000	-0.055	0.156
-526.018	113.138	-0.086	0.104
-525.004	194.689	-0.138	0.208
-523.989	800.000	-0.032	0.095
-522.975	-16.545	-0.272	-0.172
-521.960	25.226	0.152	0.126
-520.945	92.218	-0.204	0.230
-519.931	800.000	0.073	0.285
-518.916	228.479	0.120	-0.195
-517.902	-200.000	0.024	0.158
-516.887	-116.497	0.232	0.043
-515.872	242.982	0.079	-0.133
-514.858	195.838	-0.135	-0.205
-513.843	-8.557	0.279	-0.187
-512.829	-200.000	-0.049	0.416
-511.814	-200.000	0.000	-0.092
-510.799	-146.977	0.401	0.034
-509.785	25.415	0.241	0.199
-508.770	574.204	-0.056	-0.136
-507.756	493.484	0.133	0.305
-506.741	-78.248	0.246	-0.084
-505.726	68.401	-0.082	-0.083
-504.712	-200.000	-0.010	0.231
-503.697	-110.952	0.135	0.028
-502.683	79.581	0.325	-0.348
-501.668	-130.293	0.228	0.031
-500.653	800.000	0.039	-0.117
-499.639	-17.880	-0.174	0.109
-498.624	-109.099	-0.206	0.044
-497.610	-150.539	0.298	-0.023
-496.595	800.000	0.074	0.229
-495.581	223.192	-0.094	0.151
-494.566	1.230	0.225	0.161
-493.551	392.626	-0.096	-0.200
-492.537	-200.000	-0.017	-0.106
-491.522	800.000	0.059	-0.186
-490.508	17.465	-0.176	0.140
-489.493	73.597	-0.119	-0.124
-488.478	155.697	0.215	0.295
-487.464	-200.000	-0.050	-0.459
-486.449	-170.507	0.104	0.004
-485.435	-200.000	-0.037	-0.244
-484.420	-192.183	-0.104	-0.001
-483.405	256.637	0.092	-0.157
-482.391	65.924	-0.131	0.132
-481.376	91.516	0.124	-0.139
-480.362	763.311	0.054	0.146
-479.347	305.313	-0.069	-0.127
-478.332	-65.857	-0.295	-0.117
-477.318	-65.073	-0.516	0.208
-476.303	88.683	0.092	0.102
-475.289	-10.371	0.076	0.050
-474.274	35.851	0.432	0.379
-473.259	-114.702	0.094	-0.018
-472.245	-200.000	-0.003	-0.107
-471.230	-150.621	0.082	-0.006
-470.216	431.367	0.181	0.391
-469.201	800.000	-0.026	0.086
-468.186	800.000	0.030	0.122
-467.172	-167.832	-0.239	-0.009
-466.157	-114.777	-0.071	0.013
-465.143	-91.201	0.264	-0.075
-464.128	431.059	0.091	-0.196
-463.113	-200.000	-0.072	-0.341
-462.099	-88.410	-0.065	-0.019
-461.084	303.720	0.023	0.043
-460.070	-104.913	-0.082	-0.019
-459.055	-102.138	-0.107	0.026
-458.040	63.586	0.055	-0.055
-457.026	263.127	0.052	0.090
-456.011	800.000	-0.046	-0.158
-454.997	22.267	0.037	0.030
-453.982	800.000	0.048	-0.133
-452.968	451.948	0.081	-0.179
-451.953	-63.199	0.306	-0.126
-450.938	47.206	-0.281	0.260
-449.924	-97.514	-0.201	0.052
-448.909	-58.277	-0.101	-0.044
-447.895	-200.000	0.023	0.125
-446.880	-54.275	0.204	-0.092
-445.865	-19.747	-0.092	-0.056
-444.851	800.000	0.087	-0.306
-443.836	-123.806	0.329	0.052
-442.822	172.405	-0.060	-0.086
-441.807	-76.992	-0.486	-0.169
-440.792	35.965	0.344	-0.301
-439.778	-95.140	0.401	0.108
-438.763	-64.357	0.215	-0.087
-437.749	388.648	0.122	-0.252
-436.734	-200.000	0.007	-0.256
-435.719	-78.794	-0.142	-0.048
-434.705	-140.711	-0.259	-0.027
-433.690	-78.945	0.125	0.042
-432.676	-125.914	-0.064	-0.010
-431.661	71.707	-0.042	-0.044
-430.646	-160.767	0.121	-0.006
-429.632	40.199	-0.203	0.182
-428.617	707.010	0.088	0.230
-427.603	800.000	0.091	-0.312
-426.588	12.309	-0.120	-0.092
-425.573	111.627	-0.083	0.100
-424.559	800.000	0.013	0.050
-423.544	-68.387	-0.160	-0.062
-422.530	251.811	-0.101	-0.171
-421.515	-0.172	-0.219	-0.155
-420.500	-87.984	-0.218	0.065
-419.486	-52.208	0.116	0.054
-418.471	191.229	-0.102	0.152
-417.457	412.598	0.084	0.178
-416.442	800.000	-0.052	-0.227
-415.428	-19.396	-0.153	0.094
-414.413	-25.647	-0.192	0.112
-413.398	-200.000	-0.025	0.123
-412.384	2.638	-0.159	0.115
-411.369	-97.777	0.217	0.056
-410.355	7.576	0.166	0.124
-409.340	-53.092	0.414	-0.189
-408.325	88.724	-0.242	-0.268
-407.311	121.709	-0.094	-0.116
-406.296	-200.000	0.039	0.189
-405.282	77.804	-0.159	-0.168
-404.267	-87.286	-0.193	0.058
-403.252	-141.782	0.125	-0.012
-402.238	3.485	-0.280	0.203
-401.223	-82.152	0.320	-0.104
-400.209	-200.000	0.012	-0.105
-399.194	-150.489	-0.086	0.007
-398.179	186.932	0.077	0.113
-397.165	4.806	-0.264	0.193
-396.150	800.000	-0.046	-0.178
-395.136	-114.450	-0.181	-0.035
-394.121	800.000	0.063	0.263
-393.106	-9.930	-0.387	-0.255
-392.092	-5.158	-0.374	0.255
-391.077	-197.031	-0.154	-0.001
-390.063	-113.203	0.313	-0.061
-389.048	297.980	0.060	-0.110
-388.033	-19.777	-0.248	-0.152
-387.019	-67.541	0.270	-0.105
-386.004	-80.903	-0.311	0.102
-384.990	-162.841	-0.226	-0.011
-383.975	-43.953	-0.310	-0.154
-382.960	-29.066	0.122	-0.070
-381.946	-88.844	-0.172	0.051
-380.931	3.191	-0.187	0.135
-379.917	-200.000	-0.012	0.236
-378.902	-57.108	0.246	-0.108
-377.888	800.000	0.074	0.253
-376.873	-200.000	0.000	-0.400
-375.858	-49.757	-0.081	0.038
-374.844	-47.258	0.438	0.212
-373.829	-200.000	0.040	0.388
-372.815	800.000	0.132	0.412
-371.800	-200.000	0.041	-0.206
-370.785	-19.884	-0.137	-0.084
-369.771	-200.000	0.007	-0.061
-368.756	-34.890	-0.243	-0.132
-367.742	-86.271	-0.414	0.126
-366.727	-108.147	-0.159	-0.034
-365.712	409.499	-0.018	0.038
-364.698	-83.526	0.202	0.064
-363.683	347.444	-0.146	0.285
-362.669	513.291	0.112	-0.258
-361.654	-69.756	-0.170	-0.064
-360.639	-154.144	0.240	0.016
-359.625	800.000	-0.050	-0.180
-358.610	92.353	-0.149	0.167
-357.596	-112.911	-0.212	-0.042
-356.581	-100.010	-0.206	0.051
-355.566	-89.909	0.192	0.056
-354.552	51.237	-0.117	-0.110
-353.537	-73.254	-0.470	-0.171
-352.523	-200.000	-0.100	-0.536
-351.508	247.694	-0.090	-0.152
-350.493	-193.727	-0.130	0.001
-349.479	-200.000	-0.024	-0.199
-348.464	-102.153	0.105	0.025
-347.450	0.788	-0.151	-0.107
-346.435	-68.106	0.256	0.099
-345.420	800.000	-0.033	0.139
-344.406	139.591	0.175	0.228
-343.391	-200.000	0.035	0.335
-342.377	-200.000	-0.021	0.148
-341.362	-200.000	-0.020	-0.320
-340.348	-49.370	-0.083	0.039
-339.333	33.563	0.047	0.041
-338.318	616.241	0.076	-0.189
-337.304	47.988	-0.154	0.143
-336.289	-80.333	0.375	-0.124
-335.275	98.359	0.203	0.232
-334.260	-84.378	-0.322	-0.101
-333.245	-97.132	0.215	-0.056
-332.231	800.000	0.066	0.188
-331.216	-98.079	-0.289	-0.074
-330.202	31.026	0.220	-0.187
-329.187	-74.696	0.515	0.183
-328.172	-82.591	-0.190	-0.061
-327.158	800.000	-0.052	-0.145
-326.143	-22.111	-0.061	0.036
-325.129	137.569	-0.113	-0.146
-324.114	-200.000	-0.017	-0.268
-323.099	251.213	0.121	-0.203
-322.085	-119.640	0.071	0.012
-321.070	402.801	0.113	0.235
-320.056	-89.740	-0.142	-0.041
-319.041	10.306	0.036	-0.027
-318.026	-78.663	-0.351	0.119
-317.012	-200.000	0.004	0.068
-315.997	251.377	-0.156	0.262
-314.983	47.068	0.130	0.120
-313.968	-141.706	-0.192	0.019
-312.953	234.626	0.287	-0.469
-311.939	-76.310	-0.184	-0.064
-310.924	800.000	-0.063	0.259
-309.910	800.000	0.106	0.351
-308.895	-200.000	-0.033	0.184
-307.880	-197.516	0.396	0.002
-306.866	-200.000	0.073	-0.427
-305.851	-19.199	0.423	0.260
-304.837	-115.645	0.082	-0.015
-303.822	-35.790	0.059	-0.031
-302.807	737.254	0.120	-0.319
-301.793	463.994	-0.045	-0.099
-300.778	5.326	-0.147	-0.107
-299.764	314.680	0.198	-0.368
-298.749	-138.617	0.222	0.024
-297.735	355.339	0.040	0.078
-296.720	0.958	-0.270	0.191
-295.705	-168.468	0.112	-0.004
-294.691	-81.409	-0.124	-0.040
-293.676	-133.453	0.102	0.013
-292.662	796.754	0.066	-0.179
-291.647	-130.717	-0.180	0.024
-290.632	-200.000	-0.049	-0.216
-289.618	-38.119	-0.365	-0.191
-288.603	-13.488	-0.198	-0.127
-287.589	-34.153	-0.144	-0.078
-286.574	-128.783	-0.065	-0.009
-285.559	-200.000	-0.018	0.091
-284.545	197.059	-0.015	-0.022
-283.530	-110.428	-0.307	0.063
-282.516	66.359	-0.138	0.139
-281.501	-200.000	-0.068	-0.362
-280.486	-200.000	-0.012	0.090
-279.472	800.000	-0.066	0.198
-278.457	800.000	0.088	-0.358
-277.443	0.781	-0.173	-0.122
-276.428	-85.937	0.393	-0.120
-275.413	-200.000	-0.020	0.096
-274.399	14.446	0.168	-0.129
-273.384	28.820	0.115	0.096
-272.370	-40.398	0.239	0.123
-271.355	-200.000	0.011	-0.278
-270.340	-80.119	0.259	0.086
-269.326	356.724	-0.160	0.315
-268.311	179.775	0.094	0.137
-267.297	-109.534	0.288	-0.060
-266.282	284.397	-0.023	-0.041
-265.267	16.669	0.086	-0.068
-264.253	-70.868	0.343	-0.128
-263.238	589.150	-0.077	0.188
-262.224	-149.144	0.428	-0.034
-261.209	699.345	-0.155	-0.403
-260.195	-66.540	0.254	0.100
-259.180	-9.972	0.211	0.138
-258.165	78.026	0.063	0.067
-257.151	-108.199	-0.254	-0.054
-256.136	800.000	-0.090	0.341
-255.122	79.772	0.128	0.136
-254.107	209.733	0.135	0.209
-253.092	490.410	0.076	0.173
-252.078	800.000	0.014	-0.042
-251.063	-18.784	-0.058	0.036
-250.049	800.000	0.050	0.143
-249.034	-105.259	-0.434	0.098
-248.019	189.084	0.125	-0.184
-247.005	-200.000	-0.025	0.128
-245.990	-200.000	0.041	0.208
-244.976	201.530	0.146	0.222
-243.961	69.657	0.102	-0.104
-242.946	62.249	-0.104	-0.103
-241.932	269.868	0.149	-0.258
-240.917	69.581	0.101	0.103
-239.903	290.862	0.057	-0.102
-238.888	95.532	0.224	-0.252
-237.873	43.522	0.177	0.160
-236.859	46.001	-0.263	-0.241
-235.844	-200.000	0.016	0.407
-234.830	-25.920	0.253	0.147
-233.815	-32.378	-0.519	-0.285
-232.800	-21.285	0.268	0.161
-231.786	-112.413	0.288	0.057
-230.771	-200.000	0.031	-0.437
-229.757	248.888	-0.213	0.355
-228.742	-48.259	-0.132	-0.063
-227.727	800.000	0.054	0.187
-226.713	39.933	0.396	0.350
-225.698	304.553	-0.130	0.238
-224.684	20.805	-0.258	0.206
-223.669	-61.210	0.088	-0.036
-222.655	-10.220	0.095	-0.062
-221.640	53.516	0.265	-0.251
-220.625	263.574	-0.137	-0.235
-219.611	-200.000	0.040	0.424
-218.596	800.000	0.018	-0.057
-217.582	-57.544	0.218	-0.094
-216.567	11.866	-0.291	0.220
-215.552	-84.262	0.140	-0.044
-214.538	372.366	-0.149	0.299
-213.523	800.000	-0.032	0.124
-212.509	-80.128	-0.188	-0.062
-211.494	0.731	0.293	-0.207
-210.479	696.515	-0.074	-0.193
-209.465	-81.712	-0.293	-0.095
-208.450	-64.847	0.150	-0.060
-207.436	-94.856	0.192	-0.051
-206.421	-86.821	-0.264	0.079
-205.406	-200.000	0.011	0.128
-204.392	38.186	0.046	-0.041
-203.377	-53.627	-0.093	0.042
-202.363	332.103	-0.106	-0.201
-201.348	70.671	0.088	0.090
-200.333	90.123	-0.208	-0.229
-199.319	242.555	-0.149	0.246
-198.304	538.472	-0.126	0.294
-197.290	800.000	-0.092	0.307
-196.275	-200.000	0.088	0.396
-195.260	10.863	0.161	-0.121
-194.246	-20.124	-0.216	-0.131
-193.231	62.849	-0.145	0.143
-192.217	20.115	0.107	-0.085
-191.202	-59.105	-0.302	-0.128
-190.187	800.000	-0.038	0.125
-189.173	-48.136	0.279	-0.133
-188.158	-14.944	0.529	-0.334
-187.144	-94.936	0.226	0.060
-186.129	-30.716	0.312	0.174
-185.114	-138.458	0.160	-0.017
-184.100	-194.790	-0.052	-0.000
-183.085	800.000	-0.044	-0.137
-182.071	61.977	0.021	0.020
-181.056	-44.746	-0.128	0.063
-180.042	-200.000	0.028	0.234
-179.027	4.227	0.270	0.194
-178.012	366.357	-0.209	0.414
-176.998	800.000	0.048	-0.166
-175.983	800.000	-0.052	0.163
-174.969	-200.000	0.013	0.142
-173.954	800.000	0.072	-0.241
-172.939	-200.000	-0.049	-0.275
-171.925	332.984	0.228	-0.435
-170.910	-91.437	-0.182	0.051
-169.896	-200.000	-0.015	0.219
-168.881	-8.657	-0.129	0.085
-167.866	144.368	-0.093	0.123
-166.852	258.221	0.106	0.180
-165.837	83.402	0.196	0.210
-164.823	800.000	-0.149	0.417
-163.808	-200.000	0.085	-0.392
-162.793	753.830	0.147	0.391
-161.779	618.968	-0.066	0.164
-160.764	46.155	0.213	0.194
-159.750	-111.668	-0.300	0.060
-158.735	-135.691	-0.108	0.013
-157.720	800.000	-0.191	0.524
-156.706	800.000	0.067	0.203
-155.691	-200.000	-0.007	-0.232
-154.677	-56.553	-0.368	-0.161
-153.662	678.561	0.061	-0.157
-152.647	-43.004	-0.136	0.068
-151.633	-200.000	0.013	-0.160
-150.618	-179.615	0.291	-0.006
-149.604	195.644	0.183	-0.274
-148.589	732.692	-0.111	0.293
-147.574	800.000	0.014	-0.060
-146.560	-200.000	-0.067	-0.291
-145.545	338.329	-0.081	0.155
-144.531	340.996	0.220	-0.423
-143.516	55.218	0.086	0.082
-142.502	-50.746	0.044	-0.020
-141.487	800.000	0.042	0.153
-140.472	-200.000	-0.032	0.253
-139.458	24.206	-0.229	0.186
-138.443	577.730	0.011	0.026
-137.429	800.000	-0.052	0.192
-136.414	-200.000	0.085	-0.387
-135.399	-85.315	-0.462	-0.142
-134.385	800.000	-0.034	-0.107
-133.370	43.827	-0.209	-0.188
-132.356	-200.000	0.015	-0.202
-131.341	83.235	-0.234	-0.251
-130.326	-200.000	-0.036	0.578
-129.312	115.205	-0.118	0.141
-128.297	431.716	-0.013	-0.028
-127.283	160.294	0.022	0.030
-126.268	275.447	-0.120	-0.210
-125.253	-28.690	-0.232	0.131
-124.239	800.000	-0.070	-0.287
-123.224	800.000	-0.051	-0.140
-122.210	-200.000	0.027	-0.150
-121.195	-11.829	0.092	-0.059
