DTS Sentinel unit serial number:	SN413079Multiplexer serial number:	ORYXHardware model number:	OX4-SRSoftware version number:	ORYX F/W v4.00 Oryx Data Collector v3.7.2.0data status	okinstallation	princeton_trtdifferential loss correction	single-endedforward channel	channel 1reverse channel	N/Adate	2019/09/16time	03:58:35forward acquisition time	60.00reverse acquisition time	0.00gamma	496.2192k internal	0.2331k external	0.2331temperature offset calibration	0.9981default loss term (dB/km)	0.3790temperature slope calibration	1.0000multiplexer offset coefficient	1.0000multiplexer slope coefficient	1.0000fibre end	0.00T internal ref (°C)	27.50T ext. ref 1 (°C)	10.70T ext. ref 2 (°C)	21.51length (m)	temperature (°C)	Stokes	anti-Stokes-747.200	177.855	0.106	-0.155
-746.185	-51.001	0.179	0.084
-745.171	166.392	-0.017	-0.025
-744.156	-10.989	-0.194	0.129
-743.142	-61.525	-0.058	-0.024
-742.127	-11.907	-0.299	0.197
-741.112	53.434	0.231	0.223
-740.098	23.919	-0.061	0.050
-739.083	36.178	0.395	0.350
-738.069	-163.656	0.112	0.005
-737.054	673.042	0.028	-0.072
-736.039	-2.924	-0.090	0.063
-735.025	-178.503	0.407	-0.009
-734.010	-31.465	-0.362	-0.205
-732.996	120.688	-0.232	-0.290
-731.981	-200.000	-0.018	-0.434
-730.966	-200.000	0.001	0.110
-729.952	10.207	-0.125	0.095
-728.937	-135.850	-0.053	0.006
-727.923	80.857	-0.113	0.122
-726.908	-23.291	-0.333	-0.202
-725.894	-161.982	0.255	-0.013
-724.879	-31.878	0.220	-0.124
-723.864	300.197	-0.104	-0.193
-722.850	-132.893	-0.089	-0.011
-721.835	-85.299	0.185	0.058
-720.821	-89.025	0.093	0.028
-719.806	-139.133	-0.147	-0.016
-718.791	-42.981	0.152	-0.078
-717.777	-97.305	-0.300	0.079
-716.762	-85.321	-0.372	0.117
-715.748	796.116	-0.068	-0.187
-714.733	533.861	0.153	0.364
-713.718	800.000	-0.025	0.106
-712.704	-106.664	0.214	0.048
-711.689	47.769	-0.042	0.040
-710.675	-200.000	0.046	-0.251
-709.660	800.000	-0.014	0.043
-708.645	800.000	0.025	0.097
-707.631	142.954	0.088	0.117
-706.616	-159.655	-0.114	-0.006
-705.602	33.406	0.098	-0.086
-704.587	-200.000	0.016	0.083
-703.572	-200.000	-0.002	0.166
-702.558	-200.000	-0.019	0.163
-701.543	-137.384	-0.095	0.011
-700.529	800.000	0.058	-0.236
-699.514	-200.000	0.018	0.161
-698.499	-126.272	-0.073	0.011
-697.485	134.497	-0.180	-0.235
-696.470	-143.195	-0.189	0.018
-695.456	57.044	0.086	0.085
-694.441	227.301	0.162	-0.265
-693.426	-200.000	0.005	-0.092
-692.412	-38.621	-0.418	0.222
-691.397	-65.408	-0.185	-0.075
-690.383	-200.000	-0.052	-0.351
-689.368	165.717	0.314	0.446
-688.354	97.963	0.129	0.149
-687.339	-138.256	0.192	0.021
-686.324	-21.376	-0.161	-0.099
-685.310	-14.289	-0.307	-0.198
-684.295	-129.432	-0.018	-0.003
-683.281	-183.427	-0.284	-0.005
-682.266	-200.000	-0.008	0.104
-681.251	-200.000	0.011	-0.080
-680.237	-169.429	-0.231	0.008
-679.222	-200.000	-0.001	0.064
-678.208	-200.000	0.034	-0.225
-677.193	11.842	-0.098	-0.076
-676.178	-200.000	0.020	-0.197
-675.164	-32.388	-0.037	0.021
-674.149	-149.072	0.403	0.033
-673.135	800.000	0.025	-0.082
-672.120	-200.000	0.001	-0.155
-671.105	18.668	-0.202	0.162
-670.091	209.323	-0.113	-0.178
-669.076	8.900	-0.140	0.106
-668.062	800.000	0.031	-0.098
-667.047	800.000	0.044	-0.141
-666.032	11.236	-0.162	0.124
-665.018	-200.000	-0.030	-0.474
-664.003	125.381	-0.171	-0.216
-662.989	11.648	-0.281	0.216
-661.974	702.587	0.030	-0.079
-660.959	309.769	-0.108	-0.202
-659.945	227.617	-0.066	0.107
-658.930	-63.742	-0.280	-0.115
-657.916	44.932	-0.142	-0.131
-656.901	-103.536	-0.483	0.114
-655.886	800.000	0.022	-0.080
-654.872	-45.777	-0.273	-0.135
-653.857	265.095	0.085	-0.149
-652.843	-200.000	-0.012	-0.059
-651.828	282.640	-0.078	0.141
-650.814	215.970	-0.077	0.123
-649.799	89.871	0.120	-0.134
-648.784	-127.050	-0.141	0.021
-647.770	-56.746	0.333	-0.147
-646.755	37.123	-0.180	-0.160
-645.741	-31.960	0.203	0.114
-644.726	126.362	0.064	0.081
-643.711	60.298	0.234	-0.232
-642.697	-9.603	0.234	0.156
-641.682	-184.583	0.185	0.003
-640.668	678.550	0.084	0.219
-639.653	-114.852	-0.282	-0.054
-638.638	-17.537	-0.286	0.180
-637.624	-76.055	0.168	-0.059
-636.609	77.318	0.033	-0.035
-635.595	255.690	0.128	0.219
-634.580	-88.973	0.434	0.129
-633.565	52.719	0.048	0.046
-632.551	800.000	0.012	-0.035
-631.536	276.518	0.110	-0.196
-630.522	-200.000	0.034	0.155
-629.507	-11.821	-0.072	0.047
-628.492	-61.554	0.230	-0.097
-627.478	-25.398	-0.024	0.014
-626.463	19.326	0.155	-0.125
-625.449	800.000	0.061	-0.260
-624.434	458.549	-0.182	0.404
-623.419	800.000	-0.124	-0.436
-622.405	-62.603	0.297	0.123
-621.390	-34.562	0.074	0.041
-620.376	-136.364	-0.260	-0.030
-619.361	-200.000	-0.044	0.209
-618.346	-127.363	-0.169	-0.025
-617.332	-10.701	-0.280	-0.185
-616.317	-107.730	0.250	0.055
-615.303	800.000	0.046	-0.145
-614.288	274.835	0.075	0.134
-613.273	-200.000	0.000	0.141
-612.259	800.000	0.036	0.131
-611.244	48.814	0.179	-0.168
-610.230	-49.052	-0.155	-0.074
-609.215	-127.159	-0.173	0.025
-608.201	-15.466	0.209	-0.134
-607.186	201.247	-0.032	-0.049
-606.171	-93.210	0.192	0.053
-605.157	-0.693	-0.196	0.139
-604.142	-112.808	-0.368	-0.073
-603.128	-47.584	-0.292	-0.142
-602.113	297.290	0.092	-0.170
-601.098	77.204	0.121	-0.128
-600.084	-109.646	-0.216	-0.045
-599.069	-200.000	0.043	0.294
-598.055	32.480	-0.095	-0.082
-597.040	75.113	-0.008	-0.008
-596.025	361.212	-0.123	0.247
-595.011	11.529	0.301	-0.231
-593.996	-142.148	-0.233	0.023
-592.982	-200.000	-0.001	-0.183
-591.967	-141.268	0.014	-0.001
-590.952	128.980	-0.129	0.165
-589.938	-39.517	0.048	0.025
-588.923	-182.496	-0.106	0.002
-587.909	148.523	0.180	-0.243
-586.894	800.000	0.001	0.005
-585.879	-34.598	-0.101	-0.055
-584.865	800.000	-0.079	0.279
-583.850	24.965	-0.182	-0.151
-582.836	800.000	0.061	-0.223
-581.821	-200.000	-0.024	-0.184
-580.806	-200.000	-0.015	-0.264
-579.792	800.000	-0.028	-0.115
-578.777	-117.283	0.291	0.053
-577.763	359.040	0.161	0.321
-576.748	14.786	-0.249	0.195
-575.733	-79.615	-0.160	0.054
-574.719	-18.089	0.042	0.026
-573.704	-115.718	0.096	-0.018
-572.690	136.571	0.106	0.138
-571.675	-97.938	0.239	0.062
-570.661	800.000	-0.110	-0.348
-569.646	-15.254	0.166	-0.106
-568.631	44.561	0.084	-0.077
-567.617	97.806	0.137	0.158
-566.602	231.656	0.210	0.344
-565.588	86.517	0.116	0.128
-564.573	-200.000	-0.058	0.424
-563.558	-200.000	0.010	-0.213
-562.544	-194.475	0.276	-0.002
-561.529	800.000	-0.021	0.059
-560.515	-0.345	-0.160	0.114
-559.500	86.327	-0.119	-0.131
-558.485	800.000	-0.077	0.222
-557.471	800.000	0.061	-0.230
-556.456	-57.065	-0.179	0.079
-555.442	-150.835	-0.532	0.040
-554.427	640.351	-0.052	-0.132
-553.412	-180.892	-0.120	-0.002
-552.398	-93.656	-0.259	0.071
-551.383	-200.000	-0.021	0.195
-550.369	-154.251	0.099	0.007
-549.354	-115.132	0.518	-0.098
-548.339	-32.008	-0.158	0.088
-547.325	-200.000	0.004	0.039
-546.310	504.389	-0.180	-0.416
-545.296	-171.787	0.180	0.006
-544.281	800.000	-0.027	-0.119
-543.266	-32.145	0.027	-0.015
-542.252	-200.000	0.026	-0.243
-541.237	145.158	0.039	-0.052
-540.223	-109.034	-0.114	0.024
-539.208	-129.938	0.018	0.002
-538.193	-51.873	-0.172	-0.080
-537.179	-107.668	0.374	0.082
-536.164	274.524	0.161	-0.284
-535.150	-1.246	0.178	-0.126
-534.135	-200.000	0.010	-0.304
-533.121	-149.092	0.229	0.018
-532.106	94.446	-0.242	-0.274
-531.091	87.498	0.133	-0.147
-530.077	-200.000	0.011	-0.141
-529.062	204.339	0.142	0.219
-528.048	175.761	0.147	0.212
-527.033	-146.572	-0.174	0.015
-526.018	-113.366	-0.227	-0.044
-525.004	-183.064	0.489	-0.009
-523.989	800.000	0.066	0.239
-522.975	800.000	-0.126	-0.416
-521.960	57.276	0.051	-0.050
-520.945	525.960	-0.089	0.210
-519.931	800.000	-0.016	0.068
-518.916	-200.000	0.022	0.281
-517.902	800.000	-0.062	0.221
-516.887	70.773	0.127	0.131
-515.872	-38.447	0.263	-0.139
-514.858	497.057	0.054	-0.124
-513.843	800.000	-0.077	0.230
-512.829	-114.770	0.225	0.043
-511.814	78.294	0.298	-0.317
-510.799	800.000	-0.091	0.272
-509.785	-45.037	-0.065	-0.032
-508.770	266.470	0.126	0.219
-507.756	-166.291	0.243	-0.010
-506.741	-200.000	0.012	-0.180
-505.726	-124.980	-0.056	0.009
-504.712	800.000	0.090	0.294
-503.697	137.679	-0.107	-0.139
-502.683	308.407	-0.045	0.083
-501.668	-110.540	-0.240	0.050
-500.653	-37.851	0.080	0.043
-499.639	-124.274	-0.160	0.025
-498.624	-174.528	-0.373	0.011
-497.610	-88.024	0.255	-0.076
-496.595	56.107	0.153	-0.148
-495.581	78.846	0.146	0.155
-494.566	-123.833	0.280	-0.044
-493.551	-200.000	-0.047	0.000
-492.537	511.986	0.146	-0.338
-491.522	-59.245	0.078	0.034
-490.508	-26.590	-0.154	-0.090
-489.493	-177.796	0.117	-0.003
-488.478	-200.000	0.002	0.128
-487.464	209.542	0.100	-0.156
-486.449	-200.000	-0.013	0.252
-485.435	-20.613	-0.281	0.172
-484.420	-132.186	0.409	-0.053
-483.405	800.000	0.113	0.347
-482.391	444.261	0.142	-0.309
-481.376	18.203	-0.067	-0.053
-480.362	-153.655	-0.299	-0.021
-479.347	-46.159	0.319	0.156
-478.332	800.000	-0.126	0.438
-477.318	98.102	-0.171	-0.196
-476.303	-62.495	-0.160	-0.066
-475.289	-200.000	0.057	0.301
-474.274	50.501	-0.099	-0.093
-473.259	-105.425	0.235	-0.053
-472.245	110.436	-0.117	-0.140
-471.230	-200.000	0.032	0.174
-470.216	-148.062	0.393	0.032
-469.201	-22.398	-0.149	0.090
-468.186	-67.967	0.167	-0.065
-467.172	-20.920	-0.065	0.040
-466.157	-124.964	-0.221	0.034
-465.143	551.839	0.104	0.249
-464.128	-22.751	0.090	-0.054
-463.113	-143.587	0.303	0.029
-462.099	86.965	0.300	-0.329
-461.084	-72.327	-0.240	0.088
-460.070	-200.000	0.012	0.221
-459.055	363.570	-0.127	0.253
-458.040	-97.960	0.270	-0.069
-457.026	-87.028	-0.449	-0.136
-456.011	65.696	0.232	-0.234
-454.997	-94.596	0.198	-0.054
-453.982	-200.000	-0.017	-0.178
-452.968	-10.373	0.073	-0.048
-451.953	-129.428	0.115	0.016
-450.938	-200.000	-0.008	-0.066
-449.924	-157.541	-0.185	-0.011
-448.909	505.434	0.071	-0.163
-447.895	469.157	-0.139	0.311
-446.880	-101.704	0.053	-0.013
-445.865	-200.000	0.031	0.141
-444.851	254.572	-0.092	0.157
-443.836	800.000	-0.060	0.203
-442.822	81.922	-0.069	-0.074
-441.807	413.551	0.043	-0.092
-440.792	134.751	-0.086	-0.111
-439.778	-45.207	0.200	-0.099
-438.763	-200.000	-0.046	0.200
-437.749	239.162	0.092	-0.153
-436.734	93.443	0.334	-0.376
-435.719	-61.555	0.229	-0.096
-434.705	-200.000	-0.011	-0.174
-433.690	162.791	-0.082	0.114
-432.676	-134.396	-0.506	-0.062
-431.661	-68.672	-0.055	0.021
-430.646	800.000	0.044	-0.173
-429.632	124.951	0.240	-0.301
-428.617	-25.205	-0.165	0.097
-427.603	-22.528	-0.338	-0.203
-426.588	163.155	0.271	0.379
-425.573	-80.953	-0.053	0.017
-424.559	800.000	0.031	0.122
-423.544	-4.268	0.147	-0.101
-422.530	514.963	0.148	0.344
-421.515	-120.022	-0.453	-0.077
-420.500	-57.570	0.231	-0.101
-419.486	339.333	0.054	-0.105
-418.471	11.095	0.113	0.086
-417.457	94.952	-0.358	-0.404
-416.442	283.045	0.240	-0.429
-415.428	442.124	0.055	0.120
-414.413	417.313	0.274	0.581
-413.398	-169.518	-0.162	0.006
-412.384	27.463	-0.149	0.124
-411.369	32.485	-0.063	0.054
-410.355	98.649	0.083	-0.096
-409.340	101.852	0.173	-0.201
-408.325	426.942	0.048	-0.103
-407.311	635.057	0.115	0.289
-406.296	128.094	0.060	-0.075
-405.282	-200.000	-0.258	0.000
-404.267	393.984	-0.089	-0.184
-403.252	-104.360	-0.332	0.076
-402.238	380.800	-0.104	0.213
-401.223	184.106	-0.120	-0.176
-400.209	81.372	-0.043	0.046
-399.194	79.525	0.120	0.128
-398.179	-142.013	0.498	0.049
-397.165	-200.000	-0.003	-0.050
-396.150	64.509	-0.336	0.336
-395.136	-62.374	-0.195	0.081
-394.121	-95.502	-0.204	-0.054
-393.106	196.889	-0.280	-0.423
-392.092	254.504	0.032	-0.055
-391.077	800.000	0.059	-0.183
-390.063	-119.611	0.173	-0.030
-389.048	115.295	-0.105	0.128
-388.033	-200.000	-0.066	-0.434
-387.019	-123.488	-0.260	0.041
-386.004	65.743	0.194	0.195
-384.990	-22.199	-0.073	0.044
-383.975	-166.647	-0.123	0.005
-382.960	800.000	-0.123	-0.508
-381.946	658.431	-0.143	0.365
-380.931	231.430	-0.078	-0.126
-379.917	-153.184	0.384	-0.027
-378.902	104.938	0.019	0.022
-377.888	129.461	0.122	0.154
-376.873	-91.751	0.057	-0.016
-375.858	-72.522	-0.158	-0.058
-374.844	-200.000	0.002	0.260
-373.829	-200.000	-0.024	0.310
-372.815	44.752	-0.079	0.072
-371.800	-126.140	-0.136	-0.020
-370.785	-7.195	-0.072	0.048
-369.771	800.000	-0.097	-0.359
-368.756	-200.000	-0.040	-0.176
-367.742	135.801	-0.177	0.228
-366.727	3.348	-0.350	0.253
-365.712	-26.953	0.085	-0.049
-364.698	112.866	-0.126	-0.152
-363.683	411.780	-0.121	-0.255
-362.669	-130.729	0.246	0.033
-361.654	254.107	-0.066	-0.111
-360.639	-84.951	-0.330	0.103
-359.625	-36.494	-0.120	0.064
-358.610	97.354	0.209	0.238
-357.596	-24.968	0.380	0.223
-356.581	-20.806	0.171	0.104
-355.566	60.161	-0.191	0.188
-354.552	190.729	0.037	0.055
-353.537	14.205	-0.044	0.034
-352.523	-81.952	-0.176	-0.057
-351.508	380.384	-0.115	-0.233
-350.493	-64.369	-0.281	0.113
-349.479	-197.120	0.067	-0.000
-348.464	-23.013	0.094	0.056
-347.450	-51.547	-0.104	-0.048
-346.435	358.956	0.046	-0.091
-345.420	81.145	-0.102	0.109
-344.406	74.178	0.048	0.050
-343.391	-200.000	0.016	-0.188
-342.377	248.921	0.134	-0.224
-341.362	72.472	0.159	0.165
-340.348	-184.559	0.086	-0.001
-339.333	142.765	0.198	-0.261
-338.318	4.746	0.330	-0.240
-337.304	178.162	-0.187	0.270
-336.289	100.330	-0.211	-0.242
-335.275	-200.000	-0.002	0.276
-334.260	800.000	0.009	0.029
-333.245	800.000	-0.035	-0.127
-332.231	145.087	0.086	0.114
-331.216	2.012	-0.269	-0.192
-330.202	160.496	0.278	-0.384
-329.187	14.235	0.244	0.188
-328.172	-74.592	0.268	0.096
-327.158	-200.000	0.006	-0.191
-326.143	171.197	-0.137	-0.195
-325.129	-84.399	-0.310	-0.097
-324.114	-25.459	0.172	0.101
-323.099	-122.614	0.283	-0.045
-322.085	322.947	-0.160	-0.301
-321.070	84.731	-0.164	-0.178
-320.056	106.165	-0.251	-0.294
-319.041	-200.000	-0.006	0.037
-318.026	-2.095	-0.018	0.013
-317.012	40.134	-0.100	-0.089
-315.997	441.692	0.087	0.188
-314.983	-102.145	-0.390	-0.093
-313.968	441.721	-0.123	-0.266
-312.953	-127.273	0.412	0.060
-311.939	-88.175	-0.265	0.078
-310.924	9.802	-0.106	0.080
-309.910	195.549	-0.137	-0.206
-308.895	-85.249	-0.174	-0.054
-307.880	-19.299	-0.272	-0.167
-306.866	-200.000	-0.009	0.332
-305.851	-4.652	0.244	0.166
-304.837	-200.000	0.026	-0.545
-303.822	131.021	-0.076	-0.097
-302.807	61.645	-0.141	0.139
-301.793	-138.087	-0.146	-0.016
-300.778	151.288	-0.091	-0.122
-299.764	-90.630	0.175	-0.050
-298.749	-5.945	-0.153	0.103
-297.735	59.881	0.178	0.173
-296.720	-77.449	-0.198	-0.068
-295.705	-121.271	0.092	-0.015
-294.691	17.258	0.236	-0.185
-293.676	800.000	-0.010	0.042
-292.662	-200.000	0.004	-0.154
-291.647	127.014	0.019	0.023
-290.632	-102.998	-0.350	-0.082
-289.618	-200.000	0.014	-0.339
-288.603	46.478	-0.391	0.359
-287.589	404.500	0.126	0.263
-286.574	-109.572	-0.149	0.031
-285.559	284.597	-0.069	0.123
-284.545	53.693	-0.223	0.212
-283.530	8.800	-0.241	0.180
-282.516	-61.987	0.173	0.071
-281.501	-114.468	-0.169	0.032
-280.486	86.659	-0.169	-0.184
-279.472	-22.256	-0.047	0.028
-278.457	-140.699	-0.099	-0.010
-277.443	101.601	-0.094	-0.108
-276.428	407.570	0.089	0.186
-275.413	561.142	0.085	-0.203
-274.399	-200.000	0.047	0.215
-273.384	116.288	-0.053	0.064
-272.370	35.122	-0.200	-0.173
-271.355	-70.344	-0.161	0.060
-270.340	-200.000	0.056	0.416
-269.326	466.931	-0.045	0.100
-268.311	-198.464	0.260	-0.001
-267.297	-154.471	-0.080	0.005
-266.282	-102.602	-0.164	0.039
-265.267	-97.447	-0.212	-0.054
-264.253	313.818	0.097	-0.181
-263.238	-132.845	0.068	0.009
-262.224	19.923	0.225	0.179
-261.209	15.152	-0.213	0.165
-260.195	207.164	-0.278	0.428
-259.180	381.351	-0.182	0.370
-258.165	-16.633	0.276	0.172
-257.151	727.538	-0.088	-0.232
-256.136	148.908	0.260	0.347
-255.122	218.498	0.062	0.098
-254.107	90.944	-0.054	-0.060
-253.092	133.659	-0.129	0.164
-252.078	-167.044	0.258	0.010
-251.063	-72.544	-0.406	0.148
-250.049	-73.358	-0.137	0.050
-249.034	216.359	-0.080	-0.126
-248.019	-57.377	0.324	-0.140
-247.005	213.994	-0.153	0.239
-245.990	800.000	0.072	0.203
-244.976	-159.703	-0.039	-0.002
-243.961	730.137	-0.072	-0.190
-242.946	-127.228	0.135	-0.019
-241.932	-91.554	-0.119	-0.034
-240.917	-119.357	0.151	0.026
-239.903	323.008	0.132	-0.248
-238.888	-13.542	-0.156	-0.100
-237.873	-88.882	-0.145	-0.042
-236.859	56.179	-0.249	0.239
-235.844	610.298	0.133	-0.329
-234.830	733.413	-0.111	-0.293
-233.815	-200.000	-0.007	-0.411
-232.800	-93.858	-0.333	0.090
-231.786	295.636	-0.091	-0.165
-230.771	-29.681	0.280	0.158
-229.757	113.303	0.166	-0.199
-228.742	-144.051	-0.216	0.020
-227.727	-140.929	0.118	-0.012
-226.713	169.624	-0.186	-0.261
-225.698	331.625	-0.053	-0.101
-224.684	-111.173	-0.192	0.039
-223.669	163.646	0.142	0.197
-222.655	34.476	0.213	0.184
-221.640	89.739	0.067	0.073
-220.625	-10.381	-0.370	0.242
-219.611	319.672	0.084	-0.157
-218.596	191.512	0.175	0.259
-217.582	-97.939	-0.216	-0.055
-216.567	150.985	0.067	0.090
-215.552	-150.426	-0.164	-0.012
-214.538	-103.693	-0.181	-0.042
-213.523	-8.008	-0.083	-0.055
-212.509	95.099	0.167	-0.187
-211.494	74.905	-0.169	0.175
-210.479	-158.079	0.193	-0.011
-209.465	144.219	0.055	-0.072
-208.450	-133.076	0.199	0.025
-207.436	800.000	0.069	-0.247
-206.421	800.000	0.035	-0.108
-205.406	-98.614	-0.141	0.035
-204.392	-50.651	-0.200	0.093
-203.377	-127.846	-0.090	0.013
-202.363	51.293	0.119	0.112
-201.348	73.677	0.157	0.162
-200.333	-74.694	0.136	-0.048
-199.319	105.809	0.031	-0.036
-198.304	-200.000	-0.033	-0.294
-197.290	-21.410	0.108	-0.065
-196.275	16.978	0.070	-0.055
-195.260	-130.482	0.057	0.008
-194.246	614.453	0.097	0.238
-193.231	-25.987	-0.277	-0.160
-192.217	30.702	0.196	-0.165
-191.202	206.817	-0.151	0.232
-190.187	449.272	0.070	0.151
-189.173	-200.000	0.017	0.249
-188.158	-192.730	0.044	0.000
-187.144	187.137	0.160	-0.235
-186.129	-91.429	-0.167	0.047
-185.114	176.640	0.155	0.222
-184.100	-200.000	0.012	-0.076
-183.085	438.647	-0.047	-0.101
-182.071	-200.000	-0.058	-0.257
-181.056	-132.139	-0.280	0.036
-180.042	-101.698	-0.340	0.081
-179.027	-169.915	-0.210	-0.007
-178.012	387.403	0.038	-0.077
-176.998	-44.890	0.309	0.151
-175.983	-22.381	0.405	0.241
-174.969	-12.588	-0.160	-0.103
-173.954	800.000	-0.023	0.090
-172.939	654.151	-0.093	0.234
-171.925	600.874	-0.057	0.138
-170.910	-89.892	-0.153	-0.044
-169.896	-160.214	0.257	-0.014
-168.881	71.951	-0.127	0.130
-167.866	792.459	0.073	-0.197
-166.852	55.779	0.313	0.299
-165.837	-108.673	0.285	0.060
-164.823	-200.000	-0.012	0.059
-163.808	174.692	-0.099	0.141
-162.793	77.647	0.159	-0.166
-161.779	800.000	-0.048	0.187
-160.764	42.691	0.171	-0.153
-159.750	-3.654	0.078	-0.053
-158.735	711.739	0.062	0.163
-157.720	-174.527	0.202	-0.006
-156.706	-32.459	0.244	-0.134
-155.691	10.281	0.117	0.088
-154.677	-200.000	-0.057	-0.250
-153.662	85.109	0.172	0.185
-152.647	-127.944	0.164	0.023
-151.633	-55.103	-0.086	0.038
-150.618	136.753	-0.095	0.122
-149.604	-92.030	-0.212	0.059
-148.589	800.000	0.030	0.094
-147.574	800.000	-0.157	0.479
-146.560	-200.000	-0.020	0.131
-145.545	82.890	0.187	-0.199
-144.531	-131.901	-0.236	-0.030
-143.516	-111.514	0.028	-0.006
-142.502	-24.790	-0.210	0.123
-141.487	-81.172	-0.417	-0.135
-140.472	-40.621	-0.082	-0.042
-139.458	-177.551	0.227	0.005
-138.443	-142.475	0.137	-0.013
-137.429	58.379	0.107	0.103
-136.414	800.000	0.090	-0.273
-135.399	-200.000	-0.049	-0.240
-134.385	47.392	0.146	0.133
-133.370	43.959	0.274	0.247
-132.356	-200.000	-0.052	-0.235
-131.341	41.027	0.147	0.131
-130.326	800.000	0.086	-0.242
-129.312	146.308	0.054	-0.072
-128.297	49.839	0.112	0.104
-127.283	-200.000	0.008	-0.310
-126.268	-153.840	-0.066	-0.004
-125.253	-51.926	0.184	0.084
-124.239	800.000	-0.116	0.380
-123.224	-188.171	-0.031	0.000
-122.210	-200.000	-0.017	0.098
-121.195	380.506	0.113	-0.229
