DTS Sentinel unit serial number:	SN413079Multiplexer serial number:	ORYXHardware model number:	OX4-SRSoftware version number:	ORYX F/W v4.00 Oryx Data Collector v3.7.2.0data status	okinstallation	princeton_trtdifferential loss correction	single-endedforward channel	channel 1reverse channel	N/Adate	2019/09/13time	19:42:35forward acquisition time	60.00reverse acquisition time	0.00gamma	496.2192k internal	0.2328k external	0.2328temperature offset calibration	1.0087default loss term (dB/km)	0.3790temperature slope calibration	1.0000multiplexer offset coefficient	1.0000multiplexer slope coefficient	1.0000fibre end	0.00T internal ref (°C)	30.31T ext. ref 1 (°C)	3.36T ext. ref 2 (°C)	24.22length (m)	temperature (°C)	Stokes	anti-Stokes-747.200	800.000	-0.052	-0.220
-746.185	192.264	0.048	0.073
-745.171	333.204	-0.136	0.265
-744.156	-200.000	0.059	0.358
-743.142	-200.000	-0.026	0.253
-742.127	-200.000	-0.015	0.623
-741.112	-200.000	0.009	0.163
-740.098	-152.318	-0.109	0.008
-739.083	-13.134	0.149	-0.097
-738.069	4.489	-0.262	0.193
-737.054	-23.309	0.178	-0.108
-736.039	62.571	0.185	-0.186
-735.025	-200.000	0.011	0.157
-734.010	-200.000	0.015	-0.069
-732.996	0.650	0.186	0.134
-731.981	177.251	0.106	0.155
-730.966	-7.030	-0.241	-0.165
-729.952	-200.000	-0.039	-0.202
-728.937	75.851	-0.161	-0.172
-727.923	552.862	-0.089	-0.215
-726.908	-200.000	0.041	-0.313
-725.894	-6.132	-0.212	-0.146
-724.879	-63.700	-0.055	0.023
-723.864	-200.000	-0.003	0.263
-722.850	-200.000	0.007	0.071
-721.835	-96.709	0.354	-0.094
-720.821	-6.121	0.018	0.012
-719.806	69.314	-0.071	-0.074
-718.791	-200.000	-0.249	0.001
-717.777	-20.022	0.128	-0.079
-716.762	90.189	0.123	0.138
-715.748	800.000	-0.063	0.238
-714.733	-200.000	-0.022	-0.146
-713.718	321.089	0.117	-0.223
-712.704	62.337	0.157	-0.157
-711.689	41.026	0.091	-0.082
-710.675	76.119	0.155	0.165
-709.660	363.405	0.187	-0.378
-708.645	-200.000	0.042	-0.292
-707.631	-102.459	0.486	0.117
-706.616	-88.742	-0.276	0.082
-705.602	800.000	-0.012	0.054
-704.587	-200.000	0.020	-0.109
-703.572	374.892	0.096	0.198
-702.558	-170.441	-0.029	0.001
-701.543	790.725	-0.038	-0.104
-700.529	121.225	-0.185	0.232
-699.514	-200.000	-0.050	0.350
-698.499	800.000	0.007	-0.022
-697.485	-121.143	0.224	0.038
-696.470	-27.301	-0.210	-0.123
-695.456	104.186	0.051	-0.060
-694.441	11.681	0.202	0.156
-693.426	-200.000	-0.016	-0.287
-692.412	800.000	0.082	0.258
-691.397	162.175	0.227	0.319
-690.383	281.719	-0.121	-0.218
-689.368	-156.291	0.174	-0.011
-688.354	-69.916	-0.060	-0.023
-687.339	-153.073	-0.180	-0.013
-686.324	6.281	0.200	0.149
-685.310	-200.000	0.039	-0.176
-684.295	-200.000	0.002	0.030
-683.281	407.385	-0.047	0.099
-682.266	-139.264	-0.294	0.032
-681.251	47.406	-0.159	-0.149
-680.237	71.432	0.331	0.346
-679.222	-99.960	-0.057	0.014
-678.208	-200.000	0.007	-0.076
-677.193	800.000	-0.070	0.241
-676.178	-44.793	0.179	-0.090
-675.164	-72.165	-0.377	0.141
-674.149	-173.678	-0.222	0.007
-673.135	560.501	0.074	-0.179
-672.120	-23.227	-0.115	-0.070
-671.105	642.754	0.111	0.284
-670.091	516.698	-0.171	0.402
-669.076	-200.000	0.025	-0.269
-668.062	21.946	-0.084	0.069
-667.047	-200.000	0.021	-0.240
-666.032	-95.386	0.352	0.095
-665.018	-200.000	0.014	-0.219
-664.003	492.789	-0.023	-0.052
-662.989	14.481	-0.146	-0.114
-661.974	-200.000	-0.018	0.273
-660.959	-117.605	0.132	-0.024
-659.945	-200.000	0.001	-0.110
-658.930	-113.663	-0.315	0.062
-657.916	257.580	-0.140	-0.243
-656.901	-117.539	0.190	0.034
-655.886	-177.216	-0.363	0.009
-654.872	-156.359	0.049	-0.003
-653.857	40.595	0.256	-0.231
-652.843	800.000	0.072	0.200
-651.828	76.809	-0.165	0.176
-650.814	-70.195	-0.217	-0.083
-649.799	352.799	-0.045	-0.089
-648.784	-137.702	0.476	-0.054
-647.770	42.018	0.209	-0.190
-646.755	-200.000	0.026	0.274
-645.741	-200.000	0.012	-0.088
-644.726	92.642	-0.136	-0.154
-643.711	98.157	-0.133	0.153
-642.697	-200.000	-0.016	-0.092
-641.682	-40.230	-0.310	-0.162
-640.668	-72.805	0.356	-0.132
-639.653	-200.000	0.023	-0.351
-638.638	-200.000	0.006	-0.076
-637.624	800.000	-0.045	-0.154
-636.609	-94.395	-0.142	0.039
-635.595	800.000	0.022	0.064
-634.580	-183.561	-0.299	-0.005
-633.565	448.582	0.106	-0.235
-632.551	-200.000	-0.013	0.122
-631.536	29.161	0.397	-0.338
-630.522	-57.252	-0.322	-0.142
-629.507	-28.067	-0.138	-0.080
-628.492	44.869	0.209	0.193
-627.478	800.000	0.032	-0.126
-626.463	-200.000	-0.001	-0.169
-625.449	-1.788	-0.074	-0.052
-624.434	443.349	-0.161	0.354
-623.419	-200.000	-0.014	0.127
-622.405	-113.312	-0.300	-0.059
-621.390	-105.549	-0.073	0.017
-620.376	171.591	0.093	0.135
-619.361	-200.000	-0.026	-0.471
-618.346	-41.941	-0.249	-0.128
-617.332	155.502	-0.092	0.128
-616.317	-50.625	0.151	0.071
-615.303	-200.000	0.051	0.229
-614.288	-86.550	0.221	-0.068
-613.273	22.000	0.246	0.201
-612.259	-112.767	-0.204	0.041
-611.244	7.366	-0.243	0.182
-610.230	-200.000	0.116	-0.592
-609.215	673.791	0.067	0.175
-608.201	-114.247	-0.048	-0.009
-607.186	-106.753	0.342	-0.076
-606.171	-73.419	0.199	-0.073
-605.157	137.502	-0.190	-0.249
-604.142	59.126	0.040	-0.039
-603.128	-20.967	-0.371	0.228
-602.113	-200.000	-0.003	-0.065
-601.098	-200.000	-0.036	-0.233
-600.084	-106.555	-0.349	0.078
-599.069	-125.153	-0.207	-0.032
-598.055	72.729	0.043	-0.045
-597.040	198.168	-0.208	0.319
-596.025	800.000	-0.077	-0.216
-595.011	14.760	-0.046	-0.036
-593.996	-200.000	0.051	0.279
-592.982	-20.349	-0.167	-0.103
-591.967	-200.000	0.007	0.169
-590.952	800.000	-0.031	-0.131
-589.938	800.000	0.048	-0.172
-588.923	94.797	0.171	0.195
-587.909	55.671	-0.164	-0.159
-586.894	712.667	0.053	0.140
-585.879	-132.841	-0.065	-0.008
-584.865	-41.414	-0.211	-0.109
-583.850	-45.996	0.154	0.076
-582.836	3.101	-0.140	0.102
-581.821	-200.000	-0.024	0.132
-580.806	508.936	0.146	-0.339
-579.792	-200.000	-0.032	0.260
-578.777	117.876	0.070	0.086
-577.763	423.978	0.057	-0.123
-576.748	77.770	0.129	-0.138
-575.733	37.580	0.169	0.150
-574.719	49.987	0.187	-0.177
-573.704	-170.769	-0.229	0.008
-572.690	643.123	0.033	-0.083
-571.675	800.000	-0.089	0.283
-570.661	800.000	0.083	0.273
-569.646	338.755	0.115	0.225
-568.631	-101.311	-0.292	0.071
-567.617	69.401	-0.053	0.055
-566.602	34.629	0.445	0.389
-565.588	-200.000	-0.023	-0.224
-564.573	177.471	-0.086	0.125
-563.558	-6.870	0.112	-0.076
-562.544	-44.087	-0.246	0.124
-561.529	800.000	0.044	-0.137
-560.515	3.570	-0.070	-0.051
-559.500	-200.000	0.020	-0.412
-558.485	-85.131	-0.244	0.076
-557.471	-53.523	-0.181	-0.083
-556.456	800.000	-0.186	-0.512
-555.442	800.000	-0.032	-0.093
-554.427	-11.863	-0.082	-0.054
-553.412	93.430	-0.113	-0.128
-552.398	-200.000	-0.055	-0.356
-551.383	-200.000	0.003	-0.180
-550.369	-93.764	0.247	0.068
-549.354	116.240	-0.321	0.393
-548.339	69.207	-0.141	0.145
-547.325	112.146	-0.117	0.142
-546.310	-13.245	-0.121	-0.079
-545.296	-200.000	-0.048	0.276
-544.281	-151.424	-0.268	-0.020
-543.266	41.270	-0.021	0.019
-542.252	799.989	-0.093	0.258
-541.237	16.663	-0.079	-0.063
-540.223	16.229	-0.196	-0.154
-539.208	-200.000	-0.049	0.215
-538.193	8.960	-0.207	0.156
-537.179	-88.923	0.303	-0.090
-536.164	234.633	0.167	-0.275
-535.150	-200.000	-0.041	0.194
-534.135	329.340	-0.212	0.408
-533.121	647.553	0.109	-0.280
-532.106	800.000	0.057	-0.243
-531.091	400.985	0.107	-0.224
-530.077	-200.000	-0.043	0.248
-529.062	-144.739	0.274	-0.025
-528.048	800.000	0.075	0.224
-527.033	-130.722	-0.262	-0.035
-526.018	-200.000	-0.338	-0.002
-525.004	-65.592	0.195	0.078
-523.989	-200.000	0.035	0.184
-522.975	-164.407	0.295	-0.013
-521.960	457.600	0.087	-0.193
-520.945	330.443	0.167	-0.322
-519.931	152.325	-0.150	0.204
-518.916	18.539	0.286	-0.228
-517.902	9.396	0.336	-0.254
-516.887	348.853	-0.067	-0.133
-515.872	106.773	0.087	-0.103
-514.858	98.576	-0.252	-0.290
-513.843	-126.443	0.344	0.051
-512.829	-200.000	0.044	-0.227
-511.814	-200.000	0.015	-0.114
-510.799	-200.000	-0.034	0.272
-509.785	75.890	0.101	0.106
-508.770	-200.000	0.001	0.138
-507.756	-82.026	-0.138	0.045
-506.741	-74.003	0.301	-0.109
-505.726	41.095	-0.233	0.210
-504.712	-46.732	0.283	0.138
-503.697	-18.285	-0.195	-0.122
-502.683	118.829	0.109	0.135
-501.668	-76.252	-0.258	-0.091
-500.653	-21.566	0.459	-0.280
-499.639	-200.000	0.035	-0.164
-498.624	-90.943	0.227	0.065
-497.610	327.529	-0.244	0.467
-496.595	12.774	0.396	-0.306
-495.581	-112.546	0.232	-0.046
-494.566	-19.938	-0.215	-0.132
-493.551	-52.461	-0.143	0.066
-492.537	-3.351	-0.218	-0.151
-491.522	47.870	-0.137	0.128
-490.508	-126.865	0.067	0.010
-489.493	-163.923	0.268	0.012
-488.478	-200.000	0.025	0.112
-487.464	-52.303	-0.126	0.058
-486.449	206.195	0.109	-0.170
-485.435	-127.038	0.097	0.014
-484.420	-200.000	0.020	0.148
-483.405	800.000	0.117	0.487
-482.391	117.405	-0.263	-0.322
-481.376	-87.235	-0.133	-0.040
-480.362	100.505	0.107	-0.124
-479.347	-200.000	-0.023	0.149
-478.332	65.789	-0.059	-0.059
-477.318	552.700	0.063	-0.151
-476.303	32.995	-0.113	-0.098
-475.289	-200.000	0.054	-0.293
-474.274	284.953	0.036	-0.064
-473.259	800.000	0.054	0.154
-472.245	-64.366	0.212	0.086
-471.230	57.143	-0.252	-0.245
-470.216	22.930	-0.125	0.102
-469.201	-105.810	0.088	-0.020
-468.186	-109.908	-0.115	0.024
-467.172	306.562	-0.129	-0.240
-466.157	-41.167	0.285	-0.147
-465.143	-200.000	0.027	-0.138
-464.128	-59.728	-0.179	-0.076
-463.113	782.978	0.162	0.441
-462.099	-200.000	-0.014	0.119
-461.084	-2.478	-0.426	0.297
-460.070	257.610	-0.145	0.249
-459.055	800.000	-0.046	0.160
-458.040	-200.000	0.012	-0.090
-457.026	73.862	-0.212	0.222
-456.011	-166.510	-0.128	-0.005
-454.997	83.420	-0.024	0.026
-453.982	-106.677	-0.172	0.038
-452.968	-14.048	0.111	-0.071
-451.953	19.210	0.043	0.034
-450.938	-200.000	0.008	-0.041
-449.924	-200.000	-0.043	0.290
-448.909	-146.854	-0.066	0.006
-447.895	-109.207	-0.171	0.036
-446.880	58.033	0.200	0.195
-445.865	-66.822	0.239	-0.094
-444.851	263.692	-0.094	-0.163
-443.836	61.929	-0.172	-0.171
-442.822	-125.631	-0.103	-0.016
-441.807	-190.685	0.227	0.002
-440.792	-83.772	-0.517	-0.164
-439.778	-89.962	0.154	0.045
-438.763	249.612	-0.048	0.081
-437.749	-96.149	0.267	0.071
-436.734	94.465	-0.037	0.042
-435.719	-90.167	-0.438	0.127
-434.705	-200.000	-0.041	0.281
-433.690	628.473	0.048	0.122
-432.676	155.258	-0.088	-0.121
-431.661	-117.521	0.243	-0.044
-430.646	800.000	0.034	-0.109
-429.632	62.917	0.164	0.164
-428.617	-69.907	0.140	-0.053
-427.603	-78.846	-0.297	0.101
-426.588	-200.000	-0.022	-0.114
-425.573	116.742	0.186	-0.227
-424.559	6.757	0.131	-0.097
-423.544	1.434	0.238	0.170
-422.530	800.000	0.085	-0.307
-421.515	800.000	0.054	0.217
-420.500	-171.175	0.182	-0.006
-419.486	-99.083	-0.234	-0.059
-418.471	-31.695	-0.282	-0.157
-417.457	345.115	-0.033	-0.065
-416.442	-157.308	-0.198	-0.012
-415.428	800.000	0.068	-0.281
-414.413	-45.251	0.234	-0.116
-413.398	-125.857	0.318	-0.048
-412.384	-131.477	0.283	-0.037
-411.369	-37.952	-0.276	-0.146
-410.355	-70.758	-0.225	0.084
-409.340	800.000	0.064	-0.229
-408.325	-200.000	0.006	-0.082
-407.311	-104.754	-0.376	0.086
-406.296	77.555	-0.018	0.019
-405.282	6.161	0.132	-0.097
-404.267	68.438	-0.062	0.063
-403.252	-57.942	-0.271	0.118
-402.238	-75.901	0.051	-0.018
-401.223	107.009	-0.134	0.159
-400.209	312.554	0.028	0.053
-399.194	-200.000	-0.009	0.110
-398.179	205.061	0.058	-0.090
-397.165	95.515	-0.034	0.039
-396.150	-73.987	0.225	0.081
-395.136	230.123	-0.026	0.042
-394.121	-88.585	0.167	-0.049
-393.106	800.000	0.058	0.218
-392.092	142.126	0.025	0.033
-391.077	102.936	0.124	0.144
-390.063	787.559	-0.060	-0.164
-389.048	373.592	0.133	0.269
-388.033	40.883	0.099	-0.089
-387.019	537.617	-0.204	-0.481
-386.004	42.939	0.068	-0.061
-384.990	-9.062	0.135	-0.090
-383.975	756.097	-0.031	0.084
-382.960	-84.949	0.132	0.041
-381.946	183.980	0.100	-0.147
-380.931	91.467	0.162	0.181
-379.917	27.637	-0.123	0.103
-378.902	136.576	0.141	0.183
-377.888	800.000	-0.034	0.140
-376.873	-63.337	0.094	-0.038
-375.858	357.355	0.080	0.159
-374.844	-200.000	-0.052	-0.329
-373.829	800.000	-0.082	-0.250
-372.815	-102.299	-0.005	0.001
-371.800	-84.574	-0.057	0.018
-370.785	76.517	0.210	-0.221
-369.771	-29.831	0.044	0.025
-368.756	328.864	0.092	-0.176
-367.742	-58.583	0.192	-0.083
-366.727	-79.580	0.035	0.012
-365.712	-116.711	0.196	0.036
-364.698	172.782	0.116	-0.166
-363.683	42.108	0.223	0.201
-362.669	119.007	-0.086	0.106
-361.654	-60.366	-0.130	0.055
-360.639	-60.836	-0.111	0.047
-359.625	-200.000	0.024	0.375
-358.610	-71.655	-0.207	-0.077
-357.596	-54.376	0.257	-0.116
-356.581	-87.092	-0.179	0.054
-355.566	-161.146	-0.338	-0.018
-354.552	-88.393	-0.199	-0.059
-353.537	-103.446	0.252	0.059
-352.523	120.708	-0.221	-0.273
-351.508	800.000	-0.049	-0.146
-350.493	444.034	0.165	-0.359
-349.479	-137.342	0.245	-0.028
-348.464	-85.054	0.176	-0.055
-347.450	142.297	-0.172	0.226
-346.435	86.306	-0.061	-0.067
-345.420	-43.983	0.106	-0.053
-344.406	-122.317	0.047	-0.008
-343.391	-200.000	0.032	0.215
-342.377	-51.690	0.219	-0.101
-341.362	-65.476	0.050	0.020
-340.348	-59.802	-0.215	-0.091
-339.333	-52.435	0.189	-0.087
-338.318	178.884	0.229	-0.332
-337.304	50.939	0.188	0.177
-336.289	190.383	0.064	0.095
-335.275	-180.607	0.364	0.007
-334.260	-0.701	0.245	0.172
-333.245	138.876	0.129	-0.168
-332.231	-200.000	0.007	0.035
-331.216	-81.293	-0.164	-0.054
-330.202	185.335	0.113	-0.166
-329.187	85.485	0.224	-0.244
-328.172	563.948	0.107	-0.258
-327.158	82.917	-0.215	-0.232
-326.143	261.152	0.106	0.182
-325.129	-200.000	0.093	-0.500
-324.114	397.193	-0.017	0.035
-323.099	-39.168	0.177	0.092
-322.085	800.000	0.061	0.171
-321.070	-149.914	-0.175	-0.014
-320.056	259.516	-0.118	-0.201
-319.041	-200.000	-0.015	-0.355
-318.026	-1.292	-0.185	-0.130
-317.012	800.000	0.076	-0.299
-315.997	123.160	-0.209	0.259
-314.983	23.947	0.098	0.080
-313.968	-12.564	-0.300	-0.194
-312.953	-200.000	-0.037	0.190
-311.939	-161.141	0.153	0.008
-310.924	-51.724	0.041	-0.019
-309.910	6.972	0.081	0.060
-308.895	313.012	0.133	0.248
-307.880	-84.159	-0.448	0.141
-306.866	88.924	-0.272	-0.299
-305.851	528.786	-0.033	0.078
-304.837	23.442	0.035	0.029
-303.822	-143.873	0.155	-0.015
-302.807	-50.593	0.162	0.075
-301.793	-104.625	-0.147	-0.034
-300.778	-4.890	0.079	-0.054
-299.764	-84.904	0.066	0.020
-298.749	-200.000	-0.005	0.039
-297.735	-200.000	0.013	0.343
-296.720	-200.000	-0.041	-0.186
-295.705	225.037	-0.023	0.037
-294.691	261.638	0.221	0.379
-293.676	-95.834	-0.286	-0.076
-292.662	-200.000	0.031	0.188
-291.647	-200.000	-0.050	-0.272
-290.632	-40.871	0.244	-0.125
-289.618	72.194	0.262	-0.270
-288.603	-200.000	-0.005	-0.307
-287.589	-200.000	-0.013	0.075
-286.574	123.616	0.236	0.293
-285.559	800.000	-0.052	0.218
-284.545	162.647	-0.071	-0.099
-283.530	-36.854	-0.170	0.090
-282.516	-94.143	0.064	-0.017
-281.501	-140.318	-0.315	-0.033
-280.486	-200.000	0.005	0.053
-279.472	-55.744	-0.130	-0.058
-278.457	18.631	-0.209	0.166
-277.443	-24.871	-0.223	-0.131
-276.428	181.776	0.053	-0.077
-275.413	-78.436	-0.190	-0.064
-274.399	0.967	0.143	0.101
-273.384	-97.387	0.441	-0.114
-272.370	-39.706	0.043	-0.022
-271.355	-6.121	0.126	-0.085
-270.340	19.194	0.187	0.148
-269.326	-119.280	0.347	-0.060
-268.311	800.000	-0.074	-0.267
-267.297	-200.000	-0.015	0.108
-266.282	-98.716	-0.157	-0.040
-265.267	800.000	-0.043	0.180
-264.253	305.656	0.112	-0.206
-263.238	-200.000	-0.037	-0.447
-262.224	-27.555	-0.153	-0.088
-261.209	800.000	-0.058	0.229
-260.195	-105.738	-0.410	-0.092
-259.180	-200.000	-0.005	0.129
-258.165	-200.000	-0.015	-0.132
-257.151	461.533	0.097	0.215
-256.136	-200.000	0.009	0.110
-255.122	105.766	0.304	0.356
-254.107	-13.450	0.108	0.069
-253.092	84.164	0.181	0.196
-252.078	112.593	-0.116	0.139
-251.063	206.599	-0.094	-0.145
-250.049	-7.232	0.124	0.083
-249.034	800.000	-0.100	0.277
-248.019	63.265	0.257	0.254
-247.005	388.932	0.075	0.153
-245.990	590.172	0.093	0.226
-244.976	-97.679	-0.028	-0.007
-243.961	141.799	-0.225	-0.294
-242.946	70.752	-0.230	-0.235
-241.932	800.000	-0.051	0.149
-240.917	128.993	0.074	0.093
-239.903	-31.117	-0.156	-0.087
-238.888	-200.000	0.037	0.237
-237.873	279.947	0.175	0.309
-236.859	-126.074	-0.371	-0.055
-235.844	-200.000	0.007	-0.034
-234.830	-95.246	-0.337	0.090
-233.815	-129.387	-0.076	-0.010
-232.800	-76.774	0.100	0.035
-231.786	492.213	0.021	-0.048
-230.771	-20.132	0.072	-0.044
-229.757	-156.689	0.221	0.013
-228.742	-200.000	0.070	-0.510
-227.727	-200.000	0.016	0.153
-226.713	-147.823	0.158	-0.013
-225.698	67.629	-0.395	0.398
-224.684	-153.688	-0.356	-0.024
-223.669	17.583	0.144	0.113
-222.655	570.184	-0.091	0.218
-221.640	103.334	-0.187	0.217
-220.625	-51.532	-0.264	0.122
-219.611	-200.000	0.011	-0.333
-218.596	-122.806	0.264	0.042
-217.582	42.686	-0.172	0.154
-216.567	-200.000	0.008	0.211
-215.552	-200.000	-0.032	-0.161
-214.538	-200.000	-0.024	-0.228
-213.523	49.538	-0.044	-0.041
-212.509	-13.343	-0.218	-0.140
-211.494	548.369	0.066	0.155
-210.479	-193.153	0.301	-0.003
-209.465	-20.594	-0.174	0.106
-208.450	-40.408	-0.087	0.045
-207.436	800.000	0.079	-0.341
-206.421	-28.504	-0.387	-0.220
-205.406	800.000	-0.081	-0.271
-204.392	-200.000	-0.022	0.124
-203.377	-200.000	-0.032	-0.206
-202.363	-33.573	0.041	0.023
-201.348	250.654	-0.091	0.152
-200.333	-175.381	0.144	0.004
-199.319	19.978	0.255	-0.203
-198.304	-79.375	0.422	0.141
-197.290	-128.254	-0.024	0.003
-196.275	-200.000	-0.013	0.437
-195.260	-200.000	0.002	0.226
-194.246	15.025	0.096	0.074
-193.231	-7.256	0.219	-0.147
-192.217	144.334	0.149	0.196
-191.202	-28.854	-0.264	-0.150
-190.187	192.346	-0.265	0.394
-189.173	-143.904	0.233	-0.022
-188.158	1.251	-0.275	-0.194
-187.144	-59.859	-0.066	-0.028
-186.129	-200.000	0.066	0.348
-185.114	179.737	0.186	0.269
-184.100	-137.492	-0.377	-0.042
-183.085	-194.464	0.114	-0.001
-182.071	-76.874	-0.082	-0.028
-181.056	800.000	0.041	-0.117
-180.042	-200.000	0.156	-0.001
-179.027	-128.548	0.122	-0.017
-178.012	-200.000	0.032	-0.460
-176.998	124.524	-0.062	0.077
-175.983	-200.000	0.001	0.074
-174.969	-71.476	0.156	0.058
-173.954	457.916	-0.048	0.105
-172.939	121.431	-0.042	-0.051
-171.925	20.157	0.161	-0.128
-170.910	-66.446	0.124	-0.048
-169.896	800.000	-0.044	0.158
-168.881	725.147	-0.064	0.168
-167.866	-200.000	0.028	-0.327
-166.852	800.000	0.048	-0.136
-165.837	-200.000	0.066	0.393
-164.823	800.000	-0.078	-0.293
-163.808	365.811	-0.079	0.157
-162.793	33.607	-0.103	0.088
-161.779	5.324	-0.012	0.009
-160.764	-200.000	-0.006	0.367
-159.750	-85.498	-0.222	0.068
-158.735	-89.347	0.303	-0.088
-157.720	0.076	0.245	0.172
-156.706	291.142	0.150	0.269
-155.691	-200.000	-0.003	0.379
-154.677	-200.000	0.013	0.205
-153.662	800.000	-0.043	0.169
-152.647	254.637	-0.145	0.244
-151.633	-200.000	-0.007	0.310
-150.618	-179.622	0.214	0.005
-149.604	-68.794	-0.169	-0.064
-148.589	-135.963	0.272	0.031
-147.574	29.037	0.098	-0.082
-146.560	-41.908	-0.236	-0.119
-145.545	176.926	0.134	-0.192
-144.531	427.345	-0.105	0.222
-143.516	-115.956	0.530	-0.097
-142.502	58.339	0.200	-0.193
-141.487	-136.493	-0.354	0.040
-140.472	57.163	-0.107	0.103
-139.458	465.677	0.156	-0.343
-138.443	-200.000	-0.004	-0.025
-137.429	54.471	0.202	-0.192
-136.414	69.299	0.010	0.010
-135.399	-69.506	-0.196	0.074
-134.385	-15.659	0.138	0.087
-133.370	342.197	0.161	0.310
-132.356	9.602	-0.300	-0.224
-131.341	-200.000	0.001	0.225
-130.326	800.000	-0.083	-0.242
-129.312	416.429	0.040	0.083
-128.297	640.033	0.040	-0.099
-127.283	155.023	0.219	0.296
-126.268	-109.227	-0.056	-0.012
-125.253	-39.329	-0.235	-0.121
-124.239	-200.000	0.029	0.435
-123.224	156.666	0.196	0.266
-122.210	-197.362	0.242	-0.001
-121.195	42.840	-0.013	-0.011
