DTS Sentinel unit serial number:	SN413079Multiplexer serial number:	ORYXHardware model number:	OX4-SRSoftware version number:	ORYX F/W v4.00 Oryx Data Collector v3.7.2.0data status	okinstallation	princeton_trtdifferential loss correction	single-endedforward channel	channel 1reverse channel	N/Adate	2019/09/17time	12:54:35forward acquisition time	60.00reverse acquisition time	0.00gamma	496.2192k internal	0.2314k external	0.2314temperature offset calibration	0.9965default loss term (dB/km)	0.3790temperature slope calibration	1.0000multiplexer offset coefficient	1.0000multiplexer slope coefficient	1.0000fibre end	0.00T internal ref (°C)	33.05T ext. ref 1 (°C)	0.42T ext. ref 2 (°C)	31.32length (m)	temperature (°C)	Stokes	anti-Stokes-747.200	-108.320	-0.082	0.018
-746.185	141.984	0.155	-0.209
-745.171	9.472	-0.160	-0.123
-744.156	-146.094	-0.245	-0.022
-743.142	-89.989	0.209	0.062
-742.127	-30.083	-0.041	-0.024
-741.112	-31.348	-0.194	-0.110
-740.098	-200.000	-0.029	0.393
-739.083	-200.000	-0.045	0.378
-738.069	800.000	0.048	-0.176
-737.054	-99.984	0.070	-0.018
-736.039	-200.000	-0.299	-0.000
-735.025	547.874	-0.113	0.275
-734.010	-19.907	-0.414	-0.259
-732.996	-200.000	0.037	0.216
-731.981	-200.000	0.026	0.337
-730.966	137.963	-0.170	0.226
-729.952	-200.000	0.012	0.094
-728.937	-68.406	-0.092	-0.036
-727.923	800.000	-0.079	0.245
-726.908	-58.614	-0.164	0.072
-725.894	188.948	-0.086	-0.130
-724.879	-163.468	0.045	0.002
-723.864	-62.616	-0.181	0.076
-722.850	159.040	0.135	0.190
-721.835	800.000	-0.044	-0.175
-720.821	800.000	-0.023	-0.103
-719.806	-28.003	-0.285	-0.167
-718.791	-98.216	-0.212	-0.055
-717.777	-21.626	-0.119	-0.073
-716.762	-100.107	0.234	0.059
-715.748	79.211	0.194	-0.211
-714.733	112.171	-0.192	-0.235
-713.718	124.956	-0.066	-0.084
-712.704	-19.135	-0.131	-0.082
-711.689	379.490	0.166	-0.344
-710.675	274.546	-0.084	-0.150
-709.660	-184.124	0.438	-0.007
-708.645	270.362	-0.116	-0.207
-707.631	800.000	-0.022	-0.081
-706.616	75.723	-0.211	0.226
-705.602	787.715	0.085	0.236
-704.587	-51.016	0.205	0.098
-703.572	171.304	-0.133	-0.193
-702.558	-200.000	0.057	-0.347
-701.543	26.575	0.030	-0.025
-700.529	-172.952	0.022	-0.001
-699.514	164.331	-0.180	0.257
-698.499	-125.834	-0.279	-0.043
-697.485	-93.913	0.148	-0.041
-696.470	76.223	-0.246	0.263
-695.456	-144.169	-0.379	-0.036
-694.441	40.138	-0.147	-0.134
-693.426	-31.488	-0.110	0.063
-692.412	55.373	-0.075	-0.073
-691.397	-200.000	0.016	-0.423
-690.383	149.066	0.056	0.077
-689.368	-46.792	-0.194	0.096
-688.354	-119.386	0.210	0.037
-687.339	-130.798	0.281	0.038
-686.324	800.000	0.045	0.131
-685.310	26.648	0.310	-0.262
-684.295	-26.263	0.195	0.116
-683.281	169.896	-0.174	-0.251
-682.266	-79.004	-0.239	-0.082
-681.251	353.232	-0.075	-0.151
-680.237	800.000	-0.077	-0.314
-679.222	-200.000	-0.016	-0.217
-678.208	-147.766	-0.315	0.027
-677.193	78.525	-0.173	-0.187
-676.178	-94.592	0.292	-0.080
-675.164	-35.918	0.231	0.126
-674.149	-72.946	-0.065	0.024
-673.135	-7.152	0.096	0.066
-672.120	-200.000	-0.013	-0.355
-671.105	800.000	0.136	-0.400
-670.091	86.268	0.098	-0.109
-669.076	-200.000	0.022	-0.305
-668.062	10.841	0.144	0.111
-667.047	-114.359	-0.144	0.028
-666.032	231.017	0.239	0.396
-665.018	-119.411	0.022	-0.004
-664.003	246.368	-0.090	-0.154
-662.989	-66.200	0.440	0.177
-661.974	800.000	0.058	0.213
-660.959	-109.801	0.189	0.040
-659.945	-180.655	0.090	-0.002
-658.930	161.277	-0.118	-0.167
-657.916	524.137	0.063	-0.149
-656.901	229.233	0.113	0.186
-655.886	-183.721	-0.048	-0.001
-654.872	321.614	0.212	0.408
-653.857	696.787	-0.077	-0.205
-652.843	555.245	-0.129	-0.314
-651.828	-111.765	-0.275	-0.056
-650.814	-147.869	0.230	-0.019
-649.799	-190.298	-0.260	0.003
-648.784	382.590	0.085	0.176
-647.770	-0.902	-0.173	-0.124
-646.755	355.435	0.071	0.142
-645.741	362.030	0.062	-0.127
-644.726	-20.639	-0.295	-0.183
-643.711	75.309	0.127	-0.135
-642.697	174.746	0.120	-0.176
-641.682	180.238	-0.092	-0.136
-640.668	800.000	-0.102	-0.342
-639.653	176.204	0.036	-0.053
-638.638	-38.895	-0.202	0.108
-637.624	-147.335	-0.084	0.007
-636.609	-200.000	0.010	-0.326
-635.595	800.000	-0.009	0.027
-634.580	206.719	0.048	-0.076
-633.565	118.640	-0.123	-0.153
-632.551	296.203	-0.071	-0.131
-631.536	-14.366	0.054	0.035
-630.522	413.614	-0.074	-0.159
-629.507	800.000	0.080	0.324
-628.492	341.591	0.084	0.166
-627.478	-112.626	-0.153	0.031
-626.463	5.728	0.198	-0.147
-625.449	86.770	0.253	-0.281
-624.434	175.113	0.061	0.089
-623.419	51.371	-0.244	-0.234
-622.405	-52.435	0.069	0.032
-621.390	15.172	0.127	-0.101
-620.376	800.000	0.081	0.228
-619.361	-118.133	0.174	-0.031
-618.346	376.534	0.082	-0.170
-617.332	-200.000	0.019	0.144
-616.317	794.055	-0.102	-0.283
-615.303	-159.742	-0.386	0.021
-614.288	122.353	0.105	0.132
-613.273	113.833	-0.113	-0.138
-612.259	-169.953	0.137	0.005
-611.244	-15.236	-0.224	-0.145
-610.230	-67.890	-0.483	-0.190
-609.215	11.082	-0.149	-0.115
-608.201	115.227	0.141	0.174
-607.186	265.690	-0.033	0.059
-606.171	250.419	0.118	-0.202
-605.157	-16.203	0.200	-0.128
-604.142	640.177	0.022	-0.057
-603.128	384.170	-0.074	-0.154
-602.113	146.753	0.044	0.060
-601.098	-200.000	-0.015	-0.221
-600.084	-177.365	0.058	-0.001
-599.069	-107.811	-0.157	0.035
-598.055	-23.460	-0.025	-0.015
-597.040	582.385	-0.016	-0.040
-596.025	-88.446	-0.339	-0.102
-595.011	57.198	0.218	0.214
-593.996	-92.004	-0.198	-0.056
-592.982	422.317	-0.032	0.069
-591.967	-9.247	-0.175	0.118
-590.952	-200.000	0.000	0.042
-589.938	44.725	0.113	-0.105
-588.923	-200.000	-0.037	0.289
-587.909	146.207	-0.160	0.217
-586.894	-142.023	-0.049	0.005
-585.879	800.000	0.040	0.166
-584.865	240.745	-0.058	-0.098
-583.850	-200.000	-0.015	0.489
-582.836	-7.510	0.154	0.105
-581.821	-107.165	-0.114	-0.025
-580.806	800.000	-0.059	-0.179
-579.792	800.000	0.073	-0.289
-578.777	800.000	-0.079	-0.232
-577.763	800.000	0.109	-0.316
-576.748	-24.601	0.269	-0.161
-575.733	-20.659	-0.080	0.050
-574.719	-16.306	0.301	-0.193
-573.704	-143.771	0.250	0.024
-572.690	800.000	0.081	-0.274
-571.675	-200.000	-0.036	-0.252
-570.661	-122.192	0.479	0.079
-569.646	-42.854	0.232	-0.119
-568.631	-123.052	0.294	-0.048
-567.617	-20.671	-0.122	-0.076
-566.602	-63.725	-0.131	0.054
-565.588	-200.000	0.002	0.200
-564.573	184.546	-0.133	0.199
-563.558	778.451	0.040	-0.109
-562.544	83.640	0.094	-0.103
-561.529	324.936	-0.055	0.105
-560.515	-22.105	0.091	0.056
-559.500	-200.000	-0.031	-0.340
-558.485	-74.006	-0.307	0.112
-557.471	-35.968	0.195	0.106
-556.456	123.637	0.049	0.062
-555.442	65.164	-0.282	0.287
-554.427	27.333	0.049	0.042
-553.412	-200.000	-0.006	-0.126
-552.398	-70.385	-0.256	0.098
-551.383	-61.655	0.417	-0.176
-550.369	-133.337	-0.174	-0.022
-549.354	29.966	-0.241	0.207
-548.339	-108.188	0.138	0.030
-547.325	3.539	0.367	-0.269
-546.310	-200.000	-0.037	0.522
-545.296	-200.000	-0.003	-0.013
-544.281	196.297	0.212	0.325
-543.266	477.421	0.012	0.026
-542.252	178.142	-0.103	0.151
-541.237	160.733	0.055	-0.077
-540.223	-27.244	-0.213	0.125
-539.208	-68.881	-0.219	-0.085
-538.193	376.493	0.137	-0.282
-537.179	511.674	0.057	0.133
-536.164	-33.980	-0.054	0.030
-535.150	98.769	-0.156	-0.181
-534.135	406.955	0.043	0.091
-533.121	310.209	0.070	-0.133
-532.106	167.135	0.053	0.075
-531.091	-200.000	0.013	0.062
-530.077	800.000	0.066	-0.186
-529.062	8.148	0.137	-0.103
-528.048	87.031	-0.038	-0.042
-527.033	5.661	0.269	0.200
-526.018	-121.659	-0.205	0.034
-525.004	800.000	-0.027	0.099
-523.989	142.360	-0.053	-0.071
-522.975	-37.669	-0.236	-0.127
-521.960	-117.818	0.166	-0.030
-520.945	461.820	0.061	-0.136
-519.931	800.000	0.070	-0.281
-518.916	366.903	-0.191	0.387
-517.902	-17.986	-0.189	-0.119
-516.887	28.089	-0.071	0.060
-515.872	-157.196	-0.294	-0.018
-514.858	-200.000	0.033	-0.208
-513.843	-200.000	0.023	-0.230
-512.829	600.913	-0.010	0.024
-511.814	-33.486	0.152	0.084
-510.799	25.480	-0.116	0.097
-509.785	-88.058	-0.334	-0.101
-508.770	-39.164	0.109	-0.058
-507.756	-27.916	-0.222	-0.129
-506.741	-132.851	0.174	0.022
-505.726	30.995	-0.021	0.018
-504.712	487.263	0.055	-0.126
-503.697	-78.534	0.157	-0.054
-502.683	-97.342	0.234	-0.061
-501.668	427.939	-0.078	-0.169
-500.653	-71.648	0.255	0.096
-499.639	-69.382	0.147	-0.057
-498.624	-80.936	0.236	-0.079
-497.610	82.549	-0.175	0.190
-496.595	-86.912	0.263	-0.081
-495.581	-43.060	-0.368	-0.187
-494.566	800.000	0.069	-0.229
-493.551	312.793	0.273	0.514
-492.537	-200.000	-0.004	-0.118
-491.522	-200.000	-0.001	-0.181
-490.508	197.981	0.085	-0.131
-489.493	-200.000	-0.012	-0.139
-488.478	293.662	-0.217	-0.397
-487.464	218.504	-0.124	-0.198
-486.449	199.868	0.041	-0.063
-485.435	-129.059	-0.296	-0.042
-484.420	-5.061	0.083	-0.057
-483.405	-170.588	-0.181	-0.006
-482.391	-200.000	0.112	0.000
-481.376	-200.000	0.050	0.269
-480.362	-200.000	0.008	0.281
-479.347	-47.749	-0.521	0.254
-478.332	124.545	0.115	0.145
-477.318	100.855	-0.088	0.102
-476.303	-200.000	0.009	0.461
-475.289	800.000	0.031	0.130
-474.274	257.091	0.159	-0.275
-473.259	-60.983	0.161	0.068
-472.245	-200.000	-0.014	0.328
-471.230	61.867	-0.167	0.167
-470.216	-200.000	0.051	0.289
-469.201	154.520	-0.180	0.247
-468.186	-130.716	0.025	0.003
-467.172	-200.000	0.015	0.072
-466.157	-74.927	-0.228	-0.082
-465.143	-38.954	0.236	0.125
-464.128	22.628	0.074	-0.061
-463.113	-200.000	-0.070	-0.414
-462.099	-105.930	-0.264	-0.060
-461.084	800.000	-0.065	-0.223
-460.070	376.715	0.170	-0.348
-459.055	154.407	0.162	0.224
-458.040	-41.124	-0.164	-0.085
-457.026	125.504	0.077	-0.097
-456.011	574.515	0.074	-0.180
-454.997	81.749	-0.051	-0.056
-453.982	-200.000	-0.083	0.450
-452.968	395.560	-0.036	-0.076
-451.953	530.890	-0.115	-0.273
-450.938	19.375	-0.178	0.144
-449.924	-11.106	0.304	0.201
-448.909	230.600	-0.054	-0.088
-447.895	644.090	-0.052	-0.132
-446.880	43.088	-0.143	-0.131
-445.865	185.660	-0.149	-0.222
-444.851	146.332	0.122	0.164
-443.836	30.594	-0.224	-0.192
-442.822	-200.000	-0.021	-0.723
-441.807	-121.563	-0.052	0.009
-440.792	-16.684	0.203	0.129
-439.778	-23.101	0.163	0.098
-438.763	-20.520	-0.320	-0.197
-437.749	13.021	-0.189	-0.147
-436.734	742.801	-0.117	0.316
-435.719	562.332	-0.049	-0.119
-434.705	-54.897	0.222	0.100
-433.690	-113.536	-0.222	0.043
-432.676	318.035	0.061	-0.116
-431.661	212.941	-0.158	-0.250
-430.646	-46.976	-0.261	-0.127
-429.632	-73.117	0.276	0.101
-428.617	-176.001	-0.316	-0.008
-427.603	289.261	0.059	0.107
-426.588	-141.551	0.207	-0.021
-425.573	19.355	-0.198	0.160
-424.559	-113.852	0.238	0.046
-423.544	63.925	0.204	0.205
-422.530	-27.009	0.150	-0.088
-421.515	134.376	-0.105	-0.136
-420.500	-135.858	0.071	-0.008
-419.486	10.982	-0.301	-0.230
-418.471	70.397	0.256	-0.265
-417.457	-53.612	0.300	0.137
-416.442	355.089	-0.013	-0.026
-415.428	162.769	0.121	-0.170
-414.413	340.958	0.049	-0.096
-413.398	553.034	0.122	-0.294
-412.384	-3.285	-0.167	-0.117
-411.369	767.785	0.049	0.134
-410.355	-116.968	-0.181	-0.033
-409.340	-200.000	0.030	-0.136
-408.325	534.214	0.162	0.383
-407.311	-200.000	-0.024	-0.229
-406.296	97.765	-0.161	0.185
-405.282	-200.000	-0.055	0.261
-404.267	-75.144	0.170	0.061
-403.252	800.000	0.103	-0.305
-402.238	-146.122	0.180	-0.016
-401.223	-29.970	0.121	0.069
-400.209	-39.323	0.336	0.177
-399.194	-200.000	-0.016	0.148
-398.179	-0.885	0.314	0.222
-397.165	51.045	0.328	0.311
-396.150	6.093	-0.101	0.075
-395.136	-20.831	0.236	-0.144
-394.121	46.200	0.255	-0.236
-393.106	-200.000	0.011	0.463
-392.092	241.393	-0.113	0.189
-391.077	-200.000	-0.016	0.377
-390.063	-21.935	-0.192	-0.117
-389.048	-200.000	0.041	-0.256
-388.033	-119.481	0.196	0.034
-387.019	408.768	0.139	0.294
-386.004	-90.800	0.037	-0.011
-384.990	-200.000	-0.079	-0.428
-383.975	-95.774	-0.455	0.122
-382.960	-77.972	0.134	0.046
-381.946	-200.000	-0.066	-0.385
-380.931	800.000	-0.053	0.223
-379.917	23.603	0.219	-0.180
-378.902	-200.000	0.010	0.106
-377.888	-100.072	0.096	-0.024
-376.873	17.181	-0.106	0.084
-375.858	-102.476	0.308	0.074
-374.844	-200.000	0.006	0.037
-373.829	227.097	-0.162	-0.263
-372.815	21.618	0.176	0.143
-371.800	248.980	-0.064	0.108
-370.785	260.745	-0.136	0.234
-369.771	753.348	0.074	-0.200
-368.756	800.000	0.092	-0.390
-367.742	215.019	-0.214	0.339
-366.727	-31.225	-0.053	0.030
-365.712	-76.034	0.233	-0.082
-364.698	23.298	-0.146	0.120
-363.683	411.313	-0.145	0.308
-362.669	141.084	-0.054	0.072
-361.654	180.532	0.172	-0.253
-360.639	-55.182	-0.232	0.104
-359.625	776.318	-0.112	0.305
-358.610	1.351	-0.238	0.171
-357.596	72.281	0.190	0.198
-356.581	219.025	0.028	0.045
-355.566	-200.000	-0.010	-0.111
-354.552	-9.044	-0.171	-0.114
-353.537	213.101	0.025	0.039
-352.523	800.000	-0.034	0.112
-351.508	-200.000	-0.015	0.141
-350.493	-7.652	0.043	0.029
-349.479	-200.000	0.043	0.362
-348.464	-100.498	0.384	0.095
-347.450	-123.947	0.121	-0.019
-346.435	184.880	-0.016	0.024
-345.420	539.240	-0.011	0.025
-344.406	-200.000	-0.023	-0.398
-343.391	800.000	-0.087	-0.264
-342.377	-6.782	-0.133	0.090
-341.362	-42.371	-0.592	-0.302
-340.348	-34.035	0.272	0.149
-339.333	-91.675	-0.135	0.038
-338.318	-116.710	-0.201	0.037
-337.304	800.000	0.028	0.094
-336.289	-200.000	0.020	0.332
-335.275	67.839	-0.186	0.190
-334.260	-200.000	0.004	-0.021
-333.245	-91.349	-0.294	0.084
-332.231	92.285	-0.169	0.190
-331.216	-28.904	-0.238	0.137
-330.202	-39.461	-0.233	-0.122
-329.187	243.582	-0.135	0.226
-328.172	87.545	0.060	0.066
-327.158	-138.884	-0.083	-0.009
-326.143	-200.000	0.021	0.105
-325.129	401.351	0.036	0.075
-324.114	438.637	0.079	-0.172
-323.099	511.375	-0.144	-0.335
-322.085	-103.103	-0.113	0.027
-321.070	-200.000	0.013	0.412
-320.056	385.843	-0.210	-0.431
-319.041	63.642	0.098	-0.098
-318.026	67.376	0.088	-0.090
-317.012	428.077	-0.097	-0.209
-315.997	-120.879	-0.243	0.041
-314.983	800.000	0.098	-0.269
-313.968	-200.000	-0.001	0.057
-312.953	67.300	-0.065	-0.066
-311.939	153.176	-0.232	0.317
-310.924	9.041	0.099	-0.074
-309.910	800.000	0.053	0.171
-308.895	800.000	0.016	-0.062
-307.880	-18.809	0.105	0.065
-306.866	-80.095	-0.198	0.066
-305.851	202.017	-0.019	-0.029
-304.837	800.000	-0.113	0.354
-303.822	-65.472	0.155	0.062
-302.807	183.942	-0.185	0.273
-301.793	479.708	-0.061	-0.137
-300.778	800.000	-0.061	0.245
-299.764	-200.000	-0.019	-0.124
-298.749	-162.363	-0.040	0.002
-297.735	-87.275	-0.099	-0.030
-296.720	-106.610	0.029	0.006
-295.705	-110.530	-0.106	-0.022
-294.691	-168.571	0.147	-0.006
-293.676	800.000	0.084	0.244
-292.662	793.511	0.035	-0.096
-291.647	-27.319	0.151	-0.087
-290.632	-200.000	0.025	-0.194
-289.618	-167.017	0.439	0.018
-288.603	-132.751	0.317	0.040
-287.589	800.000	-0.107	-0.323
-286.574	85.724	0.145	-0.159
-285.559	-95.601	-0.228	0.061
-284.545	-108.323	-0.198	-0.043
-283.530	-200.000	-0.010	-0.172
-282.516	413.271	-0.056	-0.118
-281.501	-116.402	-0.283	-0.052
-280.486	800.000	-0.118	0.414
-279.472	-97.350	0.286	0.074
-278.457	311.170	0.182	-0.339
-277.443	-83.642	0.205	-0.065
-276.428	-34.789	-0.270	0.147
-275.413	65.263	0.076	-0.076
-274.399	-200.000	0.021	0.195
-273.384	800.000	-0.132	0.387
-272.370	105.247	-0.236	0.277
-271.355	625.239	0.094	0.236
-270.340	-31.344	0.125	0.070
-269.326	212.829	0.116	-0.182
-268.311	-150.776	0.253	-0.019
-267.297	169.499	-0.213	0.303
-266.282	72.517	-0.065	-0.067
-265.267	800.000	-0.073	0.271
-264.253	100.678	-0.065	-0.075
-263.238	81.473	-0.072	0.077
-262.224	800.000	-0.011	0.034
-261.209	62.271	-0.187	-0.186
-260.195	-179.926	0.164	0.003
-259.180	-200.000	0.001	-0.209
-258.165	212.487	0.223	0.349
-257.151	-38.341	-0.072	0.038
-256.136	320.104	0.092	0.174
-255.122	228.093	-0.010	0.016
-254.107	-93.926	0.305	-0.083
-253.092	14.112	-0.134	-0.104
-252.078	-4.643	0.440	-0.302
-251.063	-200.000	-0.044	0.216
-250.049	577.882	-0.058	-0.141
-249.034	-41.389	-0.263	-0.135
-248.019	199.788	0.146	-0.223
-247.005	-200.000	0.021	-0.269
-245.990	-63.597	-0.167	-0.068
-244.976	21.983	0.176	0.143
-243.961	-200.000	-0.307	0.001
-242.946	800.000	-0.038	0.160
-241.932	-37.969	0.376	-0.198
-240.917	-170.868	0.060	-0.002
-239.903	-200.000	0.073	0.342
-238.888	303.149	-0.115	-0.213
-237.873	204.655	-0.060	-0.092
-236.859	-200.000	-0.003	-0.032
-235.844	800.000	-0.058	0.253
-234.830	60.115	0.107	-0.105
-233.815	1.405	0.290	0.208
-232.800	-113.229	0.208	-0.041
-231.786	-200.000	-0.020	-0.463
-230.771	-30.666	-0.175	-0.099
-229.757	130.320	-0.112	0.143
-228.742	-200.000	-0.018	0.136
-227.727	-112.941	0.200	0.039
-226.713	103.843	-0.096	0.112
-225.698	19.529	-0.156	-0.125
-224.684	-200.000	0.005	-0.297
-223.669	70.816	0.227	0.233
-222.655	375.691	0.187	0.379
-221.640	614.100	0.105	0.262
-220.625	194.628	0.118	0.177
-219.611	800.000	0.098	-0.273
-218.596	-46.171	0.140	-0.069
-217.582	-11.329	-0.213	-0.139
-216.567	465.106	-0.116	0.257
-215.552	424.184	-0.085	0.182
-214.538	-200.000	0.061	0.371
-213.523	800.000	0.039	-0.155
-212.509	-28.498	-0.137	-0.079
-211.494	156.747	0.198	-0.272
-210.479	282.610	0.102	-0.182
-209.465	622.328	-0.021	0.054
-208.450	445.214	0.129	-0.280
-207.436	8.372	0.178	-0.133
-206.421	51.781	-0.237	0.224
-205.406	-112.255	0.506	0.101
-204.392	-58.794	-0.184	-0.079
-203.377	584.129	-0.044	-0.108
-202.363	328.841	-0.139	-0.264
-201.348	258.738	-0.070	-0.120
-200.333	800.000	-0.036	0.102
-199.319	149.290	0.355	0.477
-198.304	38.639	-0.059	0.052
-197.290	-106.077	0.379	0.085
-196.275	248.648	-0.189	0.318
-195.260	395.249	-0.192	0.398
-194.246	800.000	0.099	-0.278
-193.231	-100.489	0.112	-0.028
-192.217	-200.000	-0.021	0.244
-191.202	234.474	0.106	-0.173
-190.187	-67.129	0.165	0.065
-189.173	-64.094	0.068	-0.028
-188.158	-200.000	0.025	-0.109
-187.144	-160.675	0.325	0.017
-186.129	0.174	-0.274	0.194
-185.114	-200.000	0.002	-0.256
-184.100	-105.235	0.146	0.033
-183.085	-200.000	0.017	-0.081
-182.071	38.704	0.121	-0.107
-181.056	292.823	-0.037	0.067
-180.042	291.983	-0.166	0.300
-179.027	-118.878	-0.306	-0.053
-178.012	-200.000	0.053	-0.247
-176.998	800.000	0.053	-0.211
-175.983	-113.808	-0.127	0.025
-174.969	383.432	-0.121	0.248
-173.954	-8.234	-0.100	0.067
-172.939	-200.000	-0.009	0.077
-171.925	-200.000	0.030	-0.144
-170.910	366.252	0.026	0.053
-169.896	-3.383	-0.224	0.155
-168.881	-51.576	-0.100	0.046
-167.866	585.468	0.077	-0.187
-166.852	-144.297	0.176	-0.016
-165.837	-44.171	0.103	0.051
-164.823	239.020	-0.178	0.293
-163.808	20.762	-0.249	0.199
-162.793	-150.226	0.226	0.017
-161.779	-200.000	-0.045	0.313
-160.764	-73.645	0.400	0.144
-159.750	-184.880	0.196	-0.003
-158.735	154.723	-0.174	-0.237
-157.720	212.677	-0.107	0.168
-156.706	-80.325	-0.124	-0.041
-155.691	448.222	0.070	-0.153
-154.677	-127.106	-0.116	0.017
-153.662	86.247	0.332	-0.363
-152.647	116.820	-0.072	-0.087
-151.633	-200.000	0.003	0.169
-150.618	-200.000	0.014	-0.149
-149.604	260.089	-0.317	-0.543
-148.589	409.445	-0.072	-0.150
-147.574	-137.503	0.192	-0.021
-146.560	234.974	-0.198	-0.323
-145.545	181.820	0.093	-0.136
-144.531	51.476	0.290	-0.273
-143.516	555.076	-0.083	-0.197
-142.502	18.069	-0.116	-0.092
-141.487	425.541	-0.059	0.127
-140.472	416.336	0.070	0.147
-139.458	-142.334	0.119	0.012
-138.443	-83.573	0.178	-0.056
-137.429	-117.549	0.098	-0.017
-136.414	-95.029	0.228	0.061
-135.399	-70.402	0.304	0.114
-134.385	-101.148	0.051	-0.012
-133.370	79.790	-0.132	-0.140
-132.356	-200.000	-0.003	-0.079
-131.341	-104.489	0.087	-0.020
-130.326	159.405	-0.127	0.175
-129.312	-200.000	-0.021	-0.146
-128.297	-48.926	0.210	-0.099
-127.283	-75.189	-0.136	-0.048
-126.268	-88.227	0.332	-0.098
-125.253	-18.386	0.119	-0.074
-124.239	-200.000	0.039	0.339
-123.224	149.527	0.260	0.349
-122.210	-38.661	-0.225	-0.118
