DTS Sentinel unit serial number:	SN413079Multiplexer serial number:	ORYXHardware model number:	OX4-SRSoftware version number:	ORYX F/W v4.00 Oryx Data Collector v3.7.2.0data status	okinstallation	princeton_trtdifferential loss correction	single-endedforward channel	channel 1reverse channel	N/Adate	2019/09/13time	04:14:35forward acquisition time	60.00reverse acquisition time	0.00gamma	496.2192k internal	0.2334k external	0.2334temperature offset calibration	1.0161default loss term (dB/km)	0.3790temperature slope calibration	1.0000multiplexer offset coefficient	1.0000multiplexer slope coefficient	1.0000fibre end	0.00T internal ref (°C)	26.87T ext. ref 1 (°C)	4.05T ext. ref 2 (°C)	21.30length (m)	temperature (°C)	Stokes	anti-Stokes-747.200	800.000	0.028	0.082
-746.185	-96.147	-0.072	-0.019
-745.171	800.000	0.053	0.177
-744.156	800.000	0.060	-0.227
-743.142	-160.561	0.202	-0.011
-742.127	-200.000	0.015	0.168
-741.112	263.855	-0.087	0.152
-740.098	-50.139	0.053	0.025
-739.083	123.391	0.107	-0.135
-738.069	354.455	-0.205	0.409
-737.054	800.000	0.127	0.421
-736.039	146.754	-0.160	0.216
-735.025	190.946	-0.114	0.173
-734.010	-147.874	-0.153	-0.013
-732.996	-20.893	-0.076	-0.047
-731.981	221.120	-0.075	-0.121
-730.966	-61.958	-0.486	0.204
-729.952	166.619	0.081	-0.115
-728.937	331.161	-0.081	-0.157
-727.923	-200.000	0.008	-0.063
-726.908	800.000	0.012	0.049
-725.894	70.331	0.228	-0.237
-724.879	278.489	0.155	-0.277
-723.864	46.039	-0.249	0.232
-722.850	-62.501	0.157	-0.066
-721.835	-52.494	-0.178	-0.083
-720.821	-200.000	-0.004	-0.157
-719.806	-25.783	-0.440	-0.260
-718.791	658.317	0.074	-0.191
-717.777	119.535	0.170	-0.211
-716.762	649.505	-0.019	-0.048
-715.748	-158.591	0.290	-0.017
-714.733	-118.119	-0.298	-0.053
-713.718	13.471	0.118	-0.092
-712.704	-11.389	0.086	-0.057
-711.689	96.765	-0.185	0.212
-710.675	-94.524	-0.169	-0.046
-709.660	-17.413	-0.192	-0.121
-708.645	-53.141	-0.248	-0.114
-707.631	108.973	0.256	-0.307
-706.616	800.000	-0.048	0.198
-705.602	-33.460	0.361	0.200
-704.587	160.340	-0.173	-0.242
-703.572	42.095	0.157	0.143
-702.558	156.293	0.094	-0.130
-701.543	-172.036	-0.168	0.005
-700.529	316.869	0.092	-0.174
-699.514	-182.336	-0.214	0.004
-698.499	-78.710	0.086	0.030
-697.485	5.346	0.196	0.145
-696.470	76.164	-0.161	0.171
-695.456	557.369	-0.074	0.179
-694.441	-200.000	-0.028	-0.149
-693.426	115.463	-0.066	-0.081
-692.412	-11.997	-0.132	-0.087
-691.397	-69.599	-0.151	0.058
-690.383	16.882	0.135	-0.107
-689.368	-50.116	0.118	-0.056
-688.354	-83.064	-0.120	-0.039
-687.339	-200.000	-0.020	-0.213
-686.324	317.421	-0.114	0.217
-685.310	7.924	-0.186	0.140
-684.295	-13.763	0.199	-0.129
-683.281	-157.395	-0.067	-0.004
-682.266	4.807	0.470	-0.347
-681.251	-58.433	-0.163	-0.071
-680.237	79.162	0.108	-0.116
-679.222	-49.819	-0.179	0.085
-678.208	177.213	-0.075	-0.109
-677.193	-59.423	0.138	-0.060
-676.178	-8.435	-0.331	0.223
-675.164	-200.000	0.003	-0.166
-674.149	643.702	-0.055	0.140
-673.135	707.185	-0.107	0.282
-672.120	-86.639	-0.118	0.036
-671.105	635.689	-0.050	-0.126
-670.091	800.000	-0.156	0.522
-669.076	-89.099	0.322	-0.095
-668.062	35.370	-0.158	0.139
-667.047	-163.689	0.211	-0.010
-666.032	-31.598	0.134	-0.076
-665.018	37.300	-0.178	-0.158
-664.003	-22.309	0.123	0.075
-662.989	-50.658	0.175	0.083
-661.974	1.469	0.094	0.067
-660.959	-40.154	-0.380	0.198
-659.945	534.373	0.149	-0.353
-658.930	142.956	-0.125	-0.166
-657.916	800.000	-0.048	-0.158
-656.901	-200.000	-0.014	-0.076
-655.886	-178.820	-0.084	-0.002
-654.872	-35.346	0.197	-0.107
-653.857	-48.207	0.010	-0.005
-652.843	-126.822	-0.181	0.027
-651.828	189.555	0.226	-0.340
-650.814	3.366	0.113	-0.083
-649.799	-58.854	0.109	-0.047
-648.784	-120.919	-0.364	0.061
-647.770	-1.653	-0.186	-0.131
-646.755	-8.434	0.203	0.136
-645.741	53.469	0.254	-0.244
-644.726	178.211	-0.012	0.018
-643.711	-104.543	-0.132	0.030
-642.697	-88.764	-0.064	-0.019
-641.682	-184.518	-0.265	0.004
-640.668	-54.003	-0.227	-0.104
-639.653	-30.110	-0.175	0.099
-638.638	-87.551	0.276	0.084
-637.624	-200.000	0.042	-0.351
-636.609	390.048	-0.051	0.106
-635.595	-157.521	-0.368	-0.022
-634.580	351.764	0.068	0.135
-633.565	467.818	-0.170	0.382
-632.551	-200.000	0.004	0.022
-631.536	-141.019	0.176	-0.018
-630.522	-200.000	-0.015	-0.207
-629.507	251.278	-0.153	0.261
-628.492	-200.000	0.007	-0.304
-627.478	-75.635	-0.200	0.071
-626.463	419.589	0.105	-0.225
-625.449	22.824	-0.286	0.234
-624.434	420.586	-0.055	-0.118
-623.419	-1.012	-0.078	-0.055
-622.405	360.401	0.064	-0.128
-621.390	-90.285	0.045	-0.013
-620.376	-67.774	0.017	0.007
-619.361	-84.630	0.181	-0.057
-618.346	-98.259	-0.161	0.041
-617.332	-78.072	-0.310	-0.107
-616.317	-70.741	0.127	-0.048
-615.303	22.565	-0.055	0.045
-614.288	51.854	-0.092	-0.087
-613.273	-85.946	-0.111	0.034
-612.259	-147.742	0.295	0.025
-611.244	-121.334	-0.212	-0.035
-610.230	-200.000	-0.023	-0.170
-609.215	-57.277	-0.448	0.197
-608.201	-122.958	0.411	0.066
-607.186	324.451	-0.123	-0.234
-606.171	-157.224	-0.187	-0.011
-605.157	96.096	0.236	-0.270
-604.142	-115.411	0.361	-0.068
-603.128	800.000	0.054	-0.227
-602.113	3.751	-0.407	-0.297
-601.098	800.000	-0.057	0.191
-600.084	800.000	0.043	-0.141
-599.069	100.641	-0.425	-0.493
-598.055	-200.000	-0.036	-0.258
-597.040	800.000	0.023	0.089
-596.025	-70.231	-0.257	0.098
-595.011	13.192	-0.201	0.155
-593.996	560.017	-0.026	-0.063
-592.982	-11.357	0.130	-0.086
-591.967	-200.000	0.042	0.208
-590.952	-45.148	0.177	0.088
-589.938	800.000	-0.058	0.218
-588.923	-120.886	-0.373	0.063
-587.909	12.622	-0.193	0.149
-586.894	-99.454	-0.427	-0.107
-585.879	-184.408	0.435	0.007
-584.865	188.821	-0.054	0.081
-583.850	-34.090	-0.122	0.067
-582.836	-176.996	0.473	0.012
-581.821	-30.263	-0.239	0.135
-580.806	21.325	-0.307	-0.249
-579.792	800.000	-0.086	0.314
-578.777	-167.247	0.103	-0.004
-577.763	-152.758	0.215	0.015
-576.748	65.617	-0.160	0.162
-575.733	17.639	0.181	0.144
-574.719	76.997	0.267	-0.283
-573.704	25.799	-0.242	-0.201
-572.690	172.147	0.253	-0.363
-571.675	138.712	0.057	0.075
-570.661	141.813	-0.129	-0.170
-569.646	-19.730	0.218	0.135
-568.631	-200.000	0.034	-0.162
-567.617	-163.121	0.132	0.006
-566.602	-114.424	0.159	-0.031
-565.588	-72.394	-0.271	-0.100
-564.573	670.861	-0.075	-0.194
-563.558	800.000	-0.164	0.653
-562.544	498.111	-0.114	-0.262
-561.529	-148.639	0.101	-0.008
-560.515	-69.623	-0.100	-0.038
-559.500	59.113	0.216	0.212
-558.485	800.000	-0.039	-0.154
-557.471	-200.000	0.023	-0.121
-556.456	800.000	0.045	0.126
-555.442	49.980	0.305	-0.287
-554.427	-200.000	0.045	-0.413
-553.412	79.367	-0.191	0.204
-552.398	-200.000	-0.047	-0.236
-551.383	-200.000	-0.032	-0.160
-550.369	-200.000	0.031	0.157
-549.354	-6.664	0.352	-0.239
-548.339	-155.021	0.118	-0.008
-547.325	157.421	0.192	0.265
-546.310	71.236	-0.099	-0.103
-545.296	-97.873	0.143	0.037
-544.281	-91.067	-0.159	-0.046
-543.266	-200.000	0.001	0.063
-542.252	27.161	0.051	0.043
-541.237	800.000	0.030	0.094
-540.223	12.969	-0.161	-0.124
-539.208	-166.830	-0.210	-0.009
-538.193	-41.688	-0.265	-0.136
-537.179	-95.343	-0.050	0.013
-536.164	-200.000	0.029	-0.393
-535.150	-93.934	0.165	-0.045
-534.135	416.295	0.132	0.281
-533.121	-55.323	-0.453	-0.203
-532.106	-101.923	0.134	-0.032
-531.091	-48.139	0.093	0.045
-530.077	-173.746	0.155	-0.005
-529.062	79.304	-0.102	0.108
-528.048	-119.326	-0.118	0.020
-527.033	-160.947	0.312	-0.016
-526.018	800.000	-0.056	-0.191
-525.004	-159.364	-0.280	-0.016
-523.989	-120.912	-0.234	-0.039
-522.975	-200.000	0.050	-0.267
-521.960	-54.743	0.399	-0.180
-520.945	640.041	0.049	-0.124
-519.931	110.879	-0.076	0.091
-518.916	-16.937	-0.210	0.132
-517.902	-200.000	-0.060	0.335
-516.887	78.150	0.056	0.060
-515.872	-155.235	-0.089	-0.006
-514.858	-200.000	-0.009	-0.055
-513.843	504.109	0.076	0.175
-512.829	133.132	0.090	-0.115
-511.814	60.583	0.178	0.176
-510.799	-200.000	-0.021	-0.220
-509.785	23.290	0.153	0.125
-508.770	-200.000	0.018	0.225
-507.756	136.286	-0.244	-0.316
-506.741	-200.000	0.001	0.168
-505.726	-129.309	-0.160	0.022
-504.712	509.013	0.111	0.256
-503.697	-96.359	-0.167	-0.044
-502.683	-86.375	-0.277	-0.085
-501.668	-11.695	0.298	-0.195
-500.653	-59.241	0.164	0.070
-499.639	95.328	0.357	-0.405
-498.624	-81.889	-0.245	-0.080
-497.610	40.593	-0.156	-0.139
-496.595	83.496	-0.168	-0.182
-495.581	800.000	0.030	0.085
-494.566	-86.756	0.206	-0.063
-493.551	270.180	-0.177	-0.310
-492.537	800.000	-0.021	-0.057
-491.522	800.000	0.050	-0.186
-490.508	-133.441	-0.311	-0.039
-489.493	-104.262	-0.266	0.061
-488.478	49.146	0.279	0.261
-487.464	-1.705	0.254	0.178
-486.449	70.821	0.119	-0.122
-485.435	479.956	0.099	0.224
-484.420	83.645	0.075	-0.082
-483.405	426.693	0.062	0.133
-482.391	800.000	0.044	-0.141
-481.376	206.463	-0.061	0.095
-480.362	-12.796	-0.249	-0.161
-479.347	-123.909	0.252	-0.039
-478.332	48.095	0.092	0.085
-477.318	623.383	0.083	-0.209
-476.303	136.413	-0.310	0.402
-475.289	-99.190	-0.328	-0.082
-474.274	138.350	0.089	0.117
-473.259	516.239	0.063	-0.146
-472.245	-21.789	-0.206	-0.125
-471.230	6.011	0.272	0.200
-470.216	78.095	0.334	0.354
-469.201	800.000	-0.070	-0.281
-468.186	-16.661	0.165	-0.104
-467.172	800.000	0.101	0.375
-466.157	-46.714	-0.166	0.081
-465.143	-115.493	-0.101	0.019
-464.128	-200.000	-0.019	0.089
-463.113	74.090	-0.021	-0.022
-462.099	-53.000	-0.334	-0.153
-461.084	101.659	-0.125	0.145
-460.070	-5.956	-0.263	0.178
-459.055	-18.518	0.032	0.020
-458.040	155.152	-0.091	-0.125
-457.026	-149.515	0.215	-0.017
-456.011	286.131	0.074	-0.134
-454.997	639.383	0.144	-0.365
-453.982	800.000	0.144	0.408
-452.968	151.705	0.052	0.070
-451.953	800.000	0.145	-0.507
-450.938	-200.000	-0.042	-0.332
-449.924	-200.000	0.032	0.267
-448.909	-200.000	0.102	0.507
-447.895	26.759	0.291	-0.242
-446.880	-200.000	0.011	0.220
-445.865	-13.769	-0.342	0.220
-444.851	-119.397	0.561	0.097
-443.836	-67.895	-0.269	-0.105
-442.822	-83.996	0.224	-0.071
-441.807	714.132	-0.027	-0.071
-440.792	-200.000	-0.096	-0.456
-439.778	163.284	0.089	0.124
-438.763	-200.000	-0.054	0.740
-437.749	-200.000	-0.023	-0.135
-436.734	-179.080	0.380	0.008
-435.719	120.051	-0.062	-0.076
-434.705	97.096	0.111	-0.126
-433.690	248.168	0.183	-0.307
-432.676	-200.000	-0.051	-0.342
-431.661	267.881	-0.066	-0.115
-430.646	-200.000	-0.016	-0.079
-429.632	112.948	-0.073	-0.088
-428.617	439.676	-0.158	-0.342
-427.603	-200.000	0.002	-0.101
-426.588	49.590	-0.016	-0.015
-425.573	101.504	-0.082	0.095
-424.559	120.260	-0.028	0.034
-423.544	718.654	0.041	-0.108
-422.530	800.000	-0.052	-0.142
-421.515	800.000	-0.066	0.194
-420.500	-75.890	-0.137	0.048
-419.486	-125.945	0.206	0.031
-418.471	-175.160	0.168	0.005
-417.457	800.000	0.105	-0.333
-416.442	-118.679	0.081	-0.014
-415.428	-200.000	0.044	0.300
-414.413	-111.525	0.420	0.085
-413.398	186.363	-0.087	0.128
-412.384	800.000	0.021	-0.079
-411.369	800.000	-0.031	-0.111
-410.355	-122.007	0.325	-0.053
-409.340	-200.000	0.002	0.162
-408.325	-83.576	-0.217	0.069
-407.311	-200.000	-0.023	-0.224
-406.296	183.881	-0.157	-0.231
-405.282	-8.409	-0.314	-0.209
-404.267	-153.148	-0.231	0.016
-403.252	197.402	-0.191	0.290
-402.238	-119.256	0.337	0.058
-401.223	-27.545	0.303	-0.175
-400.209	-162.630	0.103	-0.005
-399.194	702.899	-0.064	-0.168
-398.179	-47.979	-0.131	-0.063
-397.165	-40.295	-0.303	-0.156
-396.150	-200.000	0.001	0.018
-395.136	-136.375	0.315	0.036
-394.121	-105.469	0.219	0.049
-393.106	-200.000	0.061	0.272
-392.092	86.084	0.201	0.220
-391.077	505.083	-0.109	0.250
-390.063	-140.437	0.174	-0.018
-389.048	-112.967	-0.272	0.053
-388.033	62.298	-0.124	0.122
-387.019	58.911	-0.179	-0.175
-386.004	-200.000	-0.011	-0.063
-384.990	33.060	-0.244	0.210
-383.975	-200.000	-0.033	-0.254
-382.960	-35.925	-0.203	0.109
-381.946	-200.000	-0.025	0.130
-380.931	-200.000	0.032	0.253
-379.917	576.070	0.109	0.265
-378.902	-82.511	0.053	0.017
-377.888	-200.000	0.053	0.408
-376.873	-200.000	0.050	0.296
-375.858	149.201	0.046	0.061
-374.844	-10.922	0.170	0.111
-373.829	-35.851	0.225	0.121
-372.815	304.860	0.169	-0.311
-371.800	-200.000	-0.016	-0.074
-370.785	118.250	0.198	-0.242
-369.771	-77.481	-0.140	0.048
-368.756	591.953	-0.059	-0.145
-367.742	-23.466	-0.099	0.059
-366.727	-20.578	-0.349	-0.213
-365.712	283.723	0.067	-0.119
-364.698	-117.752	-0.108	0.019
-363.683	-42.723	0.300	-0.151
-362.669	-145.030	0.236	-0.021
-361.654	-184.042	0.251	-0.004
-360.639	-130.577	0.314	0.042
-359.625	2.518	-0.075	0.054
-358.610	49.507	-0.162	0.151
-357.596	-89.050	-0.061	0.018
-356.581	-200.000	-0.020	0.447
-355.566	-114.617	0.231	0.044
-354.552	-186.266	0.205	0.003
-353.537	-200.000	-0.088	-0.448
-352.523	149.415	-0.209	0.280
-351.508	43.331	-0.059	0.053
-350.493	174.632	-0.037	0.054
-349.479	31.516	-0.199	0.169
-348.464	200.316	0.067	-0.102
-347.450	-6.083	-0.334	0.226
-346.435	413.562	-0.062	0.130
-345.420	13.886	-0.281	0.216
-344.406	-132.131	0.152	-0.019
-343.391	41.631	-0.066	0.059
-342.377	-18.574	-0.177	0.109
-341.362	-200.000	0.018	-0.135
-340.348	-67.637	0.125	-0.048
-339.333	8.573	-0.152	0.113
-338.318	-124.879	0.186	-0.028
-337.304	-200.000	0.034	-0.179
-336.289	47.741	-0.133	-0.123
-335.275	418.310	-0.029	0.061
-334.260	-162.118	0.308	-0.015
-333.245	-108.519	0.448	0.095
-332.231	-70.250	-0.203	0.076
-331.216	303.362	0.123	0.226
-330.202	281.256	-0.076	0.135
-329.187	-150.923	0.181	0.014
-328.172	-200.000	-0.034	-0.211
-327.158	64.939	-0.084	0.084
-326.143	-123.780	0.229	-0.036
-325.129	-16.350	0.125	0.078
-324.114	-42.136	0.084	-0.042
-323.099	472.777	-0.114	-0.253
-322.085	79.051	-0.112	-0.118
-321.070	-16.293	-0.246	0.154
-320.056	-200.000	-0.050	-0.217
-319.041	-142.436	-0.496	-0.048
-318.026	348.920	0.126	-0.245
-317.012	-81.000	-0.313	0.103
-315.997	-120.582	0.259	0.043
-314.983	-139.973	-0.064	0.007
-313.968	2.156	-0.138	0.099
-312.953	-2.932	-0.179	0.124
-311.939	-12.709	0.182	-0.117
-310.924	-200.000	0.031	0.223
-309.910	-200.000	-0.019	0.185
-308.895	-150.226	-0.320	-0.024
-307.880	162.225	0.111	0.153
-306.866	85.113	-0.069	0.075
-305.851	52.587	0.110	-0.104
-304.837	-136.097	-0.210	-0.024
-303.822	-173.738	-0.253	-0.007
-302.807	125.991	0.097	-0.121
-301.793	108.730	-0.073	-0.086
-300.778	435.620	-0.054	-0.116
-299.764	-200.000	0.050	-0.288
-298.749	-200.000	-0.029	0.184
-297.735	192.470	0.132	0.197
-296.720	-56.245	0.205	-0.090
-295.705	-200.000	0.019	0.118
-294.691	63.370	0.157	-0.156
-293.676	173.973	0.133	0.190
-292.662	-29.813	0.471	0.265
-291.647	800.000	-0.042	0.179
-290.632	470.266	0.062	-0.138
-289.618	280.676	0.020	-0.036
-288.603	-53.856	0.087	-0.039
-287.589	318.196	-0.040	0.075
-286.574	125.563	-0.157	0.196
-285.559	175.864	-0.095	0.136
-284.545	-200.000	-0.016	-0.326
-283.530	-32.372	-0.192	0.106
-282.516	-13.345	-0.069	0.044
-281.501	-123.208	0.446	-0.071
-280.486	-92.576	-0.303	-0.084
-279.472	-34.957	-0.076	-0.041
-278.457	166.985	0.037	0.051
-277.443	-200.000	-0.047	0.206
-276.428	49.904	0.212	0.197
-275.413	-182.276	-0.200	0.004
-274.399	41.761	0.194	-0.174
-273.384	-80.534	-0.049	-0.016
-272.370	-200.000	-0.049	-0.288
-271.355	28.930	-0.211	-0.177
-270.340	-109.691	-0.359	-0.074
-269.326	-200.000	-0.077	0.381
-268.311	536.070	0.045	-0.106
-267.297	252.210	0.182	0.307
-266.282	262.326	0.130	0.222
-265.267	12.804	-0.066	-0.050
-264.253	203.734	0.055	0.084
-263.238	-124.523	0.102	0.016
-262.224	138.976	0.110	0.143
-261.209	-103.929	-0.299	-0.069
-260.195	-54.591	0.228	0.102
-259.180	-7.458	-0.195	-0.130
-258.165	-200.000	0.029	-0.258
-257.151	-46.618	0.015	0.007
-256.136	-105.112	0.383	-0.086
-255.122	800.000	-0.134	-0.450
-254.107	-149.602	0.294	0.023
-253.092	-28.068	-0.068	0.039
-252.078	-93.858	0.222	-0.060
-251.063	-106.843	-0.235	0.051
-250.049	-45.448	-0.130	0.063
-249.034	-110.756	-0.236	0.048
-248.019	44.552	-0.139	0.126
-247.005	-193.687	-0.074	-0.001
-245.990	800.000	-0.080	-0.226
-244.976	-200.000	-0.070	0.310
-243.961	-200.000	-0.066	-0.353
-242.946	800.000	0.103	0.321
-241.932	-200.000	-0.015	0.309
-240.917	156.491	0.216	-0.294
-239.903	-76.947	-0.099	-0.034
-238.888	32.335	0.036	-0.030
-237.873	-200.000	-0.058	-0.415
-236.859	656.083	0.068	-0.171
-235.844	-200.000	-0.049	0.212
-234.830	328.552	-0.099	-0.188
-233.815	-174.854	-0.129	0.004
-232.800	150.663	-0.014	0.018
-231.786	162.397	0.219	0.302
-230.771	-166.595	-0.322	0.013
-229.757	-128.871	0.036	-0.005
-228.742	-69.554	0.313	-0.118
-227.727	23.544	-0.080	-0.065
-226.713	96.842	0.121	-0.137
-225.698	-16.853	0.037	-0.023
-224.684	-65.689	0.200	0.079
-223.669	-200.000	-0.023	0.221
-222.655	800.000	-0.034	-0.108
-221.640	800.000	-0.068	0.261
-220.625	-200.000	0.001	-0.016
-219.611	-53.572	0.082	-0.037
-218.596	-20.299	-0.129	-0.078
-217.582	-34.044	0.222	0.120
-216.567	800.000	-0.065	-0.216
-215.552	-200.000	0.010	0.165
-214.538	700.235	-0.013	0.033
-213.523	223.532	0.154	0.244
-212.509	-182.625	-0.249	-0.004
-211.494	-73.776	-0.077	0.027
-210.479	88.702	0.289	-0.317
-209.465	-200.000	0.007	-0.063
-208.450	553.160	-0.021	-0.049
-207.436	327.461	0.065	-0.123
-206.421	-123.963	0.266	0.041
-205.406	36.236	-0.122	0.106
-204.392	46.205	0.077	-0.070
-203.377	-111.863	-0.235	-0.047
-202.363	-25.082	0.180	0.105
-201.348	-133.894	0.216	0.026
-200.333	450.492	-0.009	0.020
-199.319	-45.016	0.225	-0.110
-198.304	-131.636	0.421	-0.054
-197.290	800.000	-0.082	0.240
-196.275	-121.137	-0.168	-0.028
-195.260	-200.000	0.034	0.243
-194.246	477.640	-0.055	-0.123
-193.231	93.797	-0.020	0.022
-192.217	84.302	-0.201	-0.216
-191.202	-200.000	-0.064	0.294
-190.187	-18.047	0.402	-0.247
-189.173	-200.000	0.011	0.088
-188.158	-200.000	0.008	0.084
-187.144	-66.007	0.299	0.117
-186.129	231.857	0.046	-0.073
-185.114	10.075	-0.187	-0.139
-184.100	800.000	0.136	0.380
-183.085	800.000	-0.053	0.197
-182.071	83.248	0.169	-0.180
-181.056	162.003	0.124	-0.171
-180.042	-98.788	0.231	0.058
-179.027	-24.212	0.108	0.064
-178.012	28.605	0.306	0.254
-176.998	112.286	-0.272	0.324
-175.983	800.000	-0.111	0.342
-174.969	87.820	0.040	-0.043
-173.954	-110.677	0.123	-0.025
-172.939	166.230	0.162	0.226
-171.925	-88.885	0.313	0.091
-170.910	8.692	-0.081	-0.060
-169.896	-200.000	-0.004	-0.030
-168.881	-16.875	-0.167	0.104
-167.866	-150.512	-0.475	0.036
-166.852	800.000	0.087	0.358
-165.837	-200.000	-0.018	-0.180
-164.823	800.000	0.074	0.216
-163.808	-168.176	-0.215	-0.008
-162.793	-70.229	-0.179	0.067
-161.779	-200.000	0.005	0.084
-160.764	-110.861	-0.120	0.024
-159.750	-131.394	-0.289	0.038
-158.735	-46.134	0.069	-0.034
-157.720	3.379	-0.137	-0.098
-156.706	-200.000	-0.020	0.336
-155.691	-26.397	0.181	0.104
-154.677	-200.000	0.025	-0.107
-153.662	286.198	-0.091	-0.161
-152.647	-14.023	0.260	-0.165
-151.633	103.671	0.151	-0.175
-150.618	-200.000	0.076	0.479
-149.604	-48.669	0.186	-0.088
-148.589	-200.000	0.017	0.078
-147.574	-59.778	-0.174	-0.073
-146.560	36.157	0.282	-0.244
-145.545	800.000	0.031	0.089
-144.531	-54.678	-0.144	-0.064
-143.516	-75.403	0.014	-0.005
-142.502	144.049	0.166	-0.218
-141.487	-200.000	-0.011	-0.060
-140.472	-200.000	-0.047	-0.383
-139.458	-125.154	0.119	0.018
-138.443	180.842	-0.180	-0.260
-137.429	154.745	-0.160	-0.216
-136.414	-37.343	0.130	-0.068
-135.399	-55.625	-0.259	-0.114
-134.385	12.753	-0.099	0.075
-133.370	-72.192	0.275	-0.100
-132.356	-200.000	-0.010	-0.049
-131.341	75.582	-0.196	0.203
-130.326	171.261	-0.110	-0.155
-129.312	164.409	0.051	0.071
-128.297	93.891	0.156	-0.173
-127.283	-200.000	0.033	0.160
-126.268	272.948	-0.132	-0.229
-125.253	166.053	0.168	-0.233
-124.239	198.143	0.073	0.109
-123.224	235.649	0.096	0.155
-122.210	800.000	0.064	0.223
