DTS Sentinel unit serial number:	SN413079Multiplexer serial number:	ORYXHardware model number:	OX4-SRSoftware version number:	ORYX F/W v4.00 Oryx Data Collector v3.7.2.0data status	okinstallation	princeton_trtdifferential loss correction	single-endedforward channel	channel 1reverse channel	N/Adate	2019/09/11time	05:00:11forward acquisition time	60.00reverse acquisition time	0.00gamma	496.2192k internal	0.2331k external	0.2331temperature offset calibration	0.9926default loss term (dB/km)	0.3790temperature slope calibration	1.0000multiplexer offset coefficient	1.0000multiplexer slope coefficient	1.0000fibre end	0.00T internal ref (°C)	29.50T ext. ref 1 (°C)	-0.26T ext. ref 2 (°C)	23.30length (m)	temperature (°C)	Stokes	anti-Stokes-747.200	238.075	-0.023	0.038
-746.185	-11.447	-0.309	-0.204
-745.171	-200.000	-0.013	-0.141
-744.156	-200.000	0.000	0.396
-743.142	-74.201	0.268	0.098
-742.127	800.000	0.121	0.405
-741.112	-73.207	-0.196	-0.072
-740.098	-200.000	-0.007	0.384
-739.083	111.508	-0.241	-0.292
-738.069	-125.921	0.161	0.024
-737.054	-76.894	-0.271	-0.095
-736.039	-120.487	-0.274	-0.047
-735.025	-200.000	0.003	-0.031
-734.010	132.679	-0.244	-0.316
-732.996	-136.315	-0.239	-0.028
-731.981	-28.895	0.245	0.142
-730.966	-73.187	0.127	0.047
-729.952	800.000	0.059	0.193
-728.937	49.149	-0.101	-0.096
-727.923	800.000	-0.097	0.284
-726.908	-68.183	-0.343	0.134
-725.894	-109.662	-0.278	0.059
-724.879	356.754	0.140	-0.281
-723.864	800.000	0.016	-0.067
-722.850	-110.935	0.138	0.028
-721.835	239.941	0.078	-0.131
-720.821	-37.813	-0.184	-0.099
-719.806	-185.419	-0.163	-0.003
-718.791	-200.000	0.031	-0.400
-717.777	-200.000	0.052	-0.248
-716.762	156.505	0.114	-0.158
-715.748	-200.000	-0.003	0.075
-714.733	-171.490	-0.147	0.005
-713.718	-22.438	-0.088	-0.054
-712.704	-200.000	0.062	0.327
-711.689	-77.080	0.082	0.029
-710.675	-19.458	0.123	-0.077
-709.660	800.000	-0.093	0.263
-708.645	66.505	0.085	0.087
-707.631	-200.000	0.007	-0.275
-706.616	-102.955	0.173	-0.041
-705.602	84.011	-0.064	0.070
-704.587	26.089	-0.142	-0.119
-703.572	-108.742	0.042	-0.009
-702.558	57.526	-0.262	-0.257
-701.543	111.839	0.063	-0.077
-700.529	-54.141	0.114	-0.052
-699.514	225.904	0.202	-0.329
-698.499	43.310	-0.093	-0.085
-697.485	11.599	0.130	0.100
-696.470	-200.000	0.002	0.146
-695.456	-57.563	-0.238	0.105
-694.441	582.944	0.164	-0.405
-693.426	-37.366	0.125	0.067
-692.412	-81.762	0.139	-0.046
-691.397	-151.004	0.360	-0.027
-690.383	-23.295	0.133	-0.080
-689.368	70.275	-0.259	0.268
-688.354	-200.000	0.005	-0.062
-687.339	800.000	-0.038	-0.124
-686.324	-91.472	-0.361	-0.103
-685.310	507.485	-0.194	0.451
-684.295	-21.352	-0.027	-0.016
-683.281	258.031	-0.103	0.177
-682.266	149.175	-0.172	0.234
-681.251	-200.000	-0.065	-0.347
-680.237	-200.000	0.020	0.337
-679.222	800.000	-0.029	0.115
-678.208	-180.459	-0.057	-0.001
-677.193	-200.000	-0.008	-0.168
-676.178	-115.333	0.248	-0.047
-675.164	36.937	0.351	0.311
-674.149	457.488	0.187	0.418
-673.135	-133.637	0.245	0.031
-672.120	-170.519	-0.140	-0.005
-671.105	103.461	-0.065	0.077
-670.091	28.845	0.105	0.089
-669.076	-200.000	-0.006	0.179
-668.062	10.018	-0.131	0.100
-667.047	234.112	0.123	0.203
-666.032	567.210	-0.081	0.197
-665.018	-96.627	-0.376	0.099
-664.003	-48.943	-0.416	0.200
-662.989	-200.000	-0.055	-0.252
-661.974	-200.000	-0.066	0.323
-660.959	800.000	0.090	0.344
-659.945	65.414	-0.105	-0.107
-658.930	-8.343	-0.152	-0.102
-657.916	95.338	0.158	-0.181
-656.901	-97.011	-0.285	0.075
-655.886	-200.000	0.040	0.250
-654.872	-84.784	0.167	0.053
-653.857	-200.000	-0.005	0.050
-652.843	-85.278	0.293	0.092
-651.828	-18.633	-0.315	0.197
-650.814	79.858	-0.300	0.323
-649.799	-102.086	0.305	0.074
-648.784	-81.492	-0.247	-0.081
-647.770	-120.454	-0.071	-0.012
-646.755	160.241	0.166	0.232
-645.741	-160.101	0.332	0.018
-644.726	68.739	-0.118	-0.121
-643.711	-200.000	-0.028	-0.497
-642.697	-51.133	-0.238	0.112
-641.682	175.959	0.078	-0.114
-640.668	115.696	-0.035	-0.043
-639.653	188.258	0.104	-0.156
-638.638	-174.302	-0.230	-0.007
-637.624	-70.015	0.280	-0.107
-636.609	157.164	-0.109	0.151
-635.595	95.114	0.055	-0.063
-634.580	-200.000	-0.018	-0.106
-633.565	-80.307	0.351	0.118
-632.551	800.000	-0.076	-0.252
-631.536	-200.000	-0.043	0.331
-630.522	-136.452	-0.218	0.025
-629.507	-81.214	0.230	0.076
-628.492	20.068	-0.064	-0.051
-627.478	-71.438	-0.275	0.103
-626.463	-18.581	0.113	-0.070
-625.449	-36.233	0.041	-0.022
-624.434	-12.614	0.072	-0.047
-623.419	-34.854	-0.129	0.070
-622.405	800.000	-0.050	-0.163
-621.390	90.251	0.065	0.073
-620.376	800.000	-0.087	0.268
-619.361	-88.265	-0.189	0.057
-618.346	400.399	-0.096	0.202
-617.332	-200.000	-0.035	0.216
-616.317	154.658	-0.162	0.223
-615.303	240.692	-0.150	-0.250
-614.288	75.863	-0.213	-0.225
-613.273	371.156	0.028	-0.057
-612.259	-88.652	-0.149	0.044
-611.244	800.000	0.024	-0.104
-610.230	-160.000	0.117	0.006
-609.215	-62.357	0.161	-0.067
-608.201	-135.761	0.088	0.010
-607.186	158.697	-0.039	0.054
-606.171	-148.849	-0.145	0.012
-605.157	800.000	0.037	0.106
-604.142	94.920	0.063	0.072
-603.128	192.626	-0.118	-0.179
-602.113	508.593	-0.162	-0.376
-601.098	257.263	-0.178	0.307
-600.084	800.000	-0.048	0.207
-599.069	-103.316	0.102	-0.024
-598.055	-200.000	-0.041	-0.196
-597.040	-70.554	0.313	-0.119
-596.025	-200.000	0.030	-0.160
-595.011	230.305	0.151	0.248
-593.996	-200.000	0.023	-0.211
-592.982	173.145	-0.138	-0.199
-591.967	-93.823	-0.129	0.035
-590.952	48.530	-0.046	-0.043
-589.938	-200.000	0.047	-0.222
-588.923	179.281	-0.147	-0.215
-587.909	-118.189	0.237	0.042
-586.894	-54.397	0.210	0.095
-585.879	-200.000	-0.000	-0.115
-584.865	224.343	-0.119	0.192
-583.850	53.386	-0.111	0.107
-582.836	800.000	0.027	-0.102
-581.821	143.636	-0.146	-0.195
-580.806	-136.192	0.131	-0.015
-579.792	317.371	-0.071	-0.134
-578.777	-72.965	0.161	0.059
-577.763	-63.941	0.206	-0.084
-576.748	38.915	-0.113	0.101
-575.733	-177.629	-0.085	-0.002
-574.719	800.000	0.064	-0.218
-573.704	45.824	0.141	0.130
-572.690	800.000	0.045	-0.175
-571.675	595.238	-0.035	-0.086
-570.661	-200.000	0.030	-0.142
-569.646	-138.050	0.263	0.029
-568.631	-200.000	0.008	-0.333
-567.617	342.384	-0.090	0.176
-566.602	7.436	-0.065	-0.048
-565.588	-200.000	0.029	0.455
-564.573	-28.622	-0.281	-0.162
-563.558	257.202	-0.105	0.180
-562.544	77.314	0.134	-0.142
-561.529	70.404	0.064	0.066
-560.515	-200.000	-0.028	-0.251
-559.500	-200.000	0.008	-0.045
-558.485	-189.207	-0.088	0.001
-557.471	70.756	-0.061	0.063
-556.456	-200.000	-0.003	-0.061
-555.442	-200.000	0.002	0.195
-554.427	-128.595	0.079	-0.011
-553.412	-64.654	0.092	0.037
-552.398	-163.554	0.097	0.005
-551.383	27.265	-0.195	0.164
-550.369	-177.521	0.091	0.002
-549.354	-86.941	0.307	-0.093
-548.339	-30.187	0.279	-0.158
-547.325	-200.000	0.026	-0.442
-546.310	-55.131	0.213	0.096
-545.296	595.194	-0.112	-0.278
-544.281	-109.969	-0.172	-0.036
-543.266	67.410	-0.157	0.160
-542.252	-200.000	-0.066	0.439
-541.237	155.679	-0.038	-0.053
-540.223	-128.446	0.327	-0.046
-539.208	12.790	-0.095	-0.073
-538.193	-200.000	-0.003	0.165
-537.179	-200.000	-0.029	0.214
-536.164	69.844	0.083	0.086
-535.150	-161.123	0.156	-0.008
-534.135	-39.341	0.211	0.111
-533.121	800.000	0.064	0.278
-532.106	-3.860	-0.187	-0.130
-531.091	-24.592	0.236	0.140
-530.077	-20.669	0.220	-0.135
-529.062	-200.000	-0.015	-0.145
-528.048	-97.020	0.310	0.081
-527.033	145.962	0.120	0.161
-526.018	800.000	0.081	-0.250
-525.004	17.815	0.210	-0.167
-523.989	-85.823	-0.449	0.139
-522.975	107.649	-0.156	-0.185
-521.960	-87.929	-0.189	0.057
-520.945	-10.780	0.331	-0.218
-519.931	181.043	0.305	-0.448
-518.916	145.319	-0.142	-0.190
-517.902	800.000	0.099	-0.307
-516.887	213.980	-0.255	0.402
-515.872	-10.601	0.207	0.137
-514.858	-200.000	0.068	-0.357
-513.843	800.000	0.042	-0.171
-512.829	-60.289	0.119	0.050
-511.814	-174.640	-0.152	-0.004
-510.799	-200.000	-0.022	0.100
-509.785	-99.007	-0.293	-0.074
-508.770	25.081	0.207	0.171
-507.756	-99.027	-0.224	-0.057
-506.741	15.757	-0.157	-0.123
-505.726	131.310	0.148	-0.190
-504.712	134.987	0.272	0.352
-503.697	585.309	-0.045	-0.111
-502.683	-63.655	0.200	-0.082
-501.668	-200.000	0.015	-0.241
-500.653	-77.910	0.156	0.054
-499.639	-49.066	-0.366	-0.174
-498.624	-62.883	0.148	0.061
-497.610	-200.000	-0.002	0.198
-496.595	-134.980	0.132	0.016
-495.581	264.783	-0.095	0.165
-494.566	-43.005	0.098	0.049
-493.551	-200.000	-0.027	-0.146
-492.537	-200.000	-0.010	-0.150
-491.522	-200.000	-0.020	-0.092
-490.508	297.276	0.154	0.281
-489.493	-200.000	0.035	0.264
-488.478	-140.958	-0.338	-0.035
-487.464	-81.566	-0.138	-0.045
-486.449	800.000	0.045	-0.185
-485.435	-132.777	-0.201	0.026
-484.420	800.000	-0.043	-0.135
-483.405	-115.163	0.376	-0.071
-482.391	-64.236	0.054	-0.022
-481.376	-101.712	-0.415	-0.100
-480.362	-71.085	-0.141	0.053
-479.347	32.922	-0.297	-0.256
-478.332	-200.000	-0.043	0.240
-477.318	168.615	-0.173	0.245
-476.303	-24.837	-0.152	-0.090
-475.289	237.646	0.091	-0.151
-474.274	800.000	0.078	0.214
-473.259	83.130	-0.251	0.272
-472.245	-8.431	-0.077	0.052
-471.230	218.924	0.157	0.250
-470.216	-6.984	-0.196	-0.132
-469.201	308.693	-0.046	-0.086
-468.186	-82.575	-0.246	0.080
-467.172	800.000	-0.012	0.043
-466.157	-200.000	-0.029	-0.261
-465.143	-200.000	-0.066	-0.389
-464.128	-23.590	-0.493	0.294
-463.113	-200.000	-0.014	0.474
-462.099	-199.819	0.151	0.001
-461.084	707.302	0.079	0.208
-460.070	415.874	0.083	-0.175
-459.055	-40.849	-0.151	-0.078
-458.040	-200.000	0.022	-0.170
-457.026	-160.115	-0.036	0.002
-456.011	90.159	-0.256	-0.284
-454.997	-200.000	0.296	0.001
-453.982	-112.809	0.223	0.044
-452.968	-51.937	0.366	0.169
-451.953	800.000	-0.113	-0.346
-450.938	800.000	-0.194	0.641
-449.924	264.476	0.246	0.426
-448.909	68.470	-0.154	0.157
-447.895	623.274	0.046	0.115
-446.880	800.000	-0.106	-0.332
-445.865	357.547	-0.040	-0.079
-444.851	450.495	0.088	-0.193
-443.836	-115.135	-0.204	-0.038
-442.822	-106.186	0.220	-0.049
-441.807	387.915	0.081	0.167
-440.792	-104.463	-0.332	0.076
-439.778	276.697	0.106	-0.188
-438.763	5.815	-0.324	-0.238
-437.749	-26.844	-0.109	0.063
-436.734	26.893	0.029	-0.024
-435.719	57.869	0.110	-0.107
-434.705	48.001	-0.300	0.279
-433.690	75.161	-0.167	0.175
-432.676	-134.730	0.181	0.022
-431.661	-113.421	0.143	-0.028
-430.646	5.067	-0.416	0.305
-429.632	-35.428	-0.112	-0.061
-428.617	-200.000	-0.007	-0.227
-427.603	57.244	-0.109	-0.106
-426.588	-19.152	0.191	0.118
-425.573	-19.982	-0.074	0.045
-424.559	534.817	-0.082	-0.194
-423.544	-124.858	-0.148	-0.023
-422.530	699.345	-0.079	-0.207
-421.515	-98.232	0.075	0.019
-420.500	-41.480	-0.109	-0.056
-419.486	49.531	0.324	-0.303
-418.471	42.939	-0.349	0.316
-417.457	76.649	-0.182	0.192
-416.442	-102.930	-0.143	0.034
-415.428	-119.335	0.027	0.005
-414.413	-200.000	-0.035	-0.268
-413.398	1.748	0.278	0.199
-412.384	102.211	-0.114	0.133
-411.369	282.222	0.131	-0.234
-410.355	120.879	-0.149	-0.184
-409.340	195.328	-0.192	0.289
-408.325	-9.554	-0.275	-0.182
-407.311	61.879	-0.084	0.083
-406.296	125.346	0.226	0.284
-405.282	-87.477	-0.230	-0.069
-404.267	145.724	0.102	0.135
-403.252	-200.000	-0.010	0.230
-402.238	-74.881	0.157	0.056
-401.223	106.782	-0.052	-0.062
-400.209	800.000	0.107	0.299
-399.194	-111.542	-0.395	-0.080
-398.179	190.744	0.306	-0.457
-397.165	800.000	0.029	-0.113
-396.150	28.251	-0.078	-0.065
-395.136	13.950	0.150	0.116
-394.121	273.471	-0.081	0.142
-393.106	-15.631	0.152	0.096
-392.092	168.451	-0.121	0.171
-391.077	43.946	0.161	-0.146
-390.063	82.624	-0.085	0.091
-389.048	123.596	-0.196	-0.244
-388.033	-169.747	-0.365	-0.013
-387.019	43.206	0.092	-0.083
-386.004	-83.657	-0.183	-0.058
-384.990	198.145	-0.100	0.152
-383.975	800.000	0.037	-0.147
-382.960	800.000	0.039	-0.169
-381.946	19.092	-0.258	-0.206
-380.931	-130.947	0.266	0.035
-379.917	212.344	-0.111	0.173
-378.902	124.270	-0.075	0.094
-377.888	-143.028	0.049	0.005
-376.873	-81.449	-0.188	0.061
-375.858	362.354	-0.030	0.059
-374.844	241.427	-0.195	-0.323
-373.829	154.740	-0.231	0.314
-372.815	-46.374	0.350	-0.171
-371.800	-200.000	-0.024	-0.181
-370.785	-49.398	0.193	-0.091
-369.771	-15.368	-0.223	0.141
-368.756	-200.000	-0.025	0.273
-367.742	-76.574	-0.039	0.014
-366.727	-22.365	0.029	-0.018
-365.712	-126.112	0.209	-0.031
-364.698	137.650	0.152	0.198
-363.683	-41.588	0.351	0.179
-362.669	-200.000	0.021	0.184
-361.654	153.510	0.148	-0.201
-360.639	191.429	0.123	-0.183
-359.625	324.256	0.057	-0.108
-358.610	-200.000	0.016	0.229
-357.596	722.419	-0.111	0.293
-356.581	-200.000	0.026	0.485
-355.566	-200.000	0.038	-0.334
-354.552	-200.000	0.067	-0.342
-353.537	234.308	-0.138	-0.225
-352.523	257.388	-0.185	-0.316
-351.508	61.347	0.243	0.239
-350.493	-200.000	-0.010	-0.103
-349.479	-63.379	-0.360	0.147
-348.464	-51.679	-0.202	0.094
-347.450	800.000	0.093	0.285
-346.435	315.437	0.220	0.410
-345.420	800.000	-0.096	-0.293
-344.406	-156.484	-0.217	0.013
-343.391	-134.254	0.267	0.032
-342.377	205.307	0.055	0.084
-341.362	-117.995	0.095	-0.017
-340.348	-56.537	0.236	0.104
-339.333	117.865	0.096	0.117
-338.318	320.456	0.038	0.072
-337.304	-200.000	-0.005	0.107
-336.289	111.247	0.096	-0.114
-335.275	-200.000	0.090	0.478
-334.260	-34.199	0.120	-0.065
-333.245	-64.562	0.236	0.095
-332.231	225.171	0.112	-0.180
-331.216	-69.462	0.186	-0.071
-330.202	-136.743	-0.060	-0.007
-329.187	-71.368	0.168	0.062
-328.172	800.000	-0.023	0.068
-327.158	-133.566	-0.464	0.058
-326.143	-103.601	0.258	0.060
-325.129	127.809	0.216	-0.272
-324.114	-62.152	0.148	-0.061
-323.099	467.528	-0.143	-0.318
-322.085	416.397	-0.085	0.179
-321.070	-173.450	0.228	-0.007
-320.056	-63.410	-0.128	0.052
-319.041	-163.155	-0.274	0.013
-318.026	-120.003	0.460	-0.078
-317.012	3.704	-0.061	0.044
-315.997	9.988	0.257	-0.193
-314.983	-174.236	0.170	0.005
-313.968	-200.000	-0.008	0.053
-312.953	-200.000	-0.018	0.258
-311.939	31.289	-0.082	0.069
-310.924	415.597	0.209	0.441
-309.910	800.000	-0.103	0.289
-308.895	-156.518	0.152	-0.009
-307.880	-193.151	-0.340	0.003
-306.866	-5.723	-0.210	-0.142
-305.851	-101.748	-0.249	-0.060
-304.837	18.479	0.148	0.117
-303.822	800.000	0.024	-0.097
-302.807	66.747	0.123	0.124
-301.793	-102.835	0.426	-0.100
-300.778	-200.000	0.045	0.233
-299.764	725.607	-0.086	0.226
-298.749	32.817	0.259	0.222
-297.735	-18.635	-0.195	0.120
-296.720	-144.951	0.148	-0.013
-295.705	-63.768	-0.031	-0.013
-294.691	-44.592	0.222	-0.110
-293.676	50.229	0.220	-0.206
-292.662	-38.388	0.158	0.083
-291.647	72.801	0.014	-0.014
-290.632	-200.000	-0.062	0.337
-289.618	-200.000	-0.012	0.308
-288.603	-92.550	0.216	0.060
-287.589	38.139	0.106	-0.093
-286.574	-92.275	0.109	-0.030
-285.559	737.516	-0.087	0.230
-284.545	292.857	-0.148	0.266
-283.530	-200.000	-0.035	-0.231
-282.516	-50.724	-0.189	0.088
-281.501	-108.314	-0.305	0.065
-280.486	34.225	0.303	-0.261
-279.472	46.040	-0.272	-0.249
-278.457	-72.822	-0.189	-0.069
-277.443	-200.000	0.004	0.177
-276.428	-200.000	-0.017	-0.106
-275.413	-78.958	-0.038	0.013
-274.399	-97.190	0.048	0.012
-273.384	800.000	-0.082	0.244
-272.370	611.877	0.170	-0.420
-271.355	387.967	0.082	-0.168
-270.340	-95.487	0.142	-0.038
-269.326	-113.813	-0.215	0.041
-268.311	291.153	-0.088	0.158
-267.297	-200.000	0.011	-0.165
-266.282	-118.511	0.116	-0.020
-265.267	-200.000	0.027	-0.179
-264.253	176.698	-0.073	-0.105
-263.238	418.976	0.162	0.343
-262.224	-200.000	-0.007	-0.186
-261.209	108.544	0.135	0.159
-260.195	-141.376	-0.227	-0.023
-259.180	-14.300	0.052	-0.033
-258.165	-33.763	-0.068	0.037
-257.151	65.701	-0.028	0.028
-256.136	-200.000	-0.006	-0.091
-255.122	-200.000	-0.030	-0.376
-254.107	598.590	-0.129	0.315
-253.092	-11.720	0.054	-0.035
-252.078	59.330	0.035	0.034
-251.063	-161.392	0.168	-0.009
-250.049	524.295	-0.074	-0.172
-249.034	-200.000	0.015	-0.114
-248.019	16.259	-0.083	-0.064
-247.005	103.951	-0.135	0.157
-245.990	-86.139	0.450	-0.137
-244.976	-47.849	-0.043	0.021
-243.961	-121.083	-0.132	0.022
-242.946	243.643	-0.024	-0.040
-241.932	-200.000	-0.007	0.113
-240.917	92.825	-0.050	-0.056
-239.903	-200.000	0.002	0.175
-238.888	-200.000	0.008	-0.121
-237.873	-58.060	-0.068	0.029
-236.859	178.238	0.176	-0.254
-235.844	800.000	0.067	0.289
-234.830	585.903	0.141	-0.342
-233.815	218.140	0.045	-0.071
-232.800	800.000	0.015	0.058
-231.786	-200.000	-0.027	-0.208
-230.771	-29.398	-0.131	-0.074
-229.757	-114.621	-0.204	0.039
-228.742	95.437	0.275	0.309
-227.727	780.192	0.093	0.251
-226.713	72.181	-0.060	-0.061
-225.698	64.623	0.198	-0.197
-224.684	-200.000	-0.058	0.275
-223.669	793.613	0.061	0.165
-222.655	-200.000	0.005	0.099
-221.640	247.036	-0.183	-0.304
-220.625	-66.420	-0.168	0.066
-219.611	100.276	-0.214	0.245
-218.596	800.000	-0.073	-0.248
-217.582	204.700	-0.137	0.210
-216.567	58.501	-0.273	0.264
-215.552	-145.803	0.100	0.009
-214.538	143.035	-0.146	-0.192
-213.523	188.478	0.176	0.260
-212.509	-200.000	-0.033	-0.399
-211.494	-42.362	-0.265	-0.133
-210.479	-43.618	0.271	0.134
-209.465	-11.246	0.202	0.131
-208.450	-200.000	-0.045	-0.197
-207.436	220.901	0.121	-0.191
-206.421	-73.859	-0.166	-0.059
-205.406	173.483	-0.060	0.085
-204.392	-149.486	0.143	0.011
-203.377	800.000	0.083	0.280
-202.363	800.000	-0.155	0.424
-201.348	800.000	0.019	-0.056
-200.333	122.334	0.200	-0.246
-199.319	-32.907	-0.076	0.042
-198.304	-27.972	-0.029	0.016
-197.290	-18.909	0.383	-0.235
-196.275	77.864	0.275	0.288
-195.260	57.353	-0.148	-0.143
-194.246	11.385	-0.152	0.115
-193.231	-31.184	0.134	-0.074
-192.217	108.212	0.122	0.143
-191.202	-128.432	-0.154	-0.022
-190.187	-79.662	-0.103	0.034
-189.173	-200.000	0.062	0.439
-188.158	718.649	-0.046	0.120
-187.144	-200.000	0.010	-0.334
-186.129	175.213	-0.071	-0.101
-185.114	72.746	-0.207	-0.213
-184.100	-92.136	-0.441	-0.123
-183.085	86.218	-0.334	0.362
-182.071	-31.519	-0.219	0.121
-181.056	62.633	0.098	0.096
-180.042	-93.538	0.191	-0.052
-179.027	234.611	-0.209	0.339
-178.012	-6.883	-0.208	-0.139
-176.998	1.444	-0.508	-0.359
-175.983	123.731	0.242	-0.299
-174.969	755.551	-0.026	0.069
-173.954	800.000	-0.026	-0.090
-172.939	390.643	-0.054	-0.110
-171.925	-200.000	-0.037	-0.245
-170.910	32.379	0.224	-0.190
-169.896	-200.000	-0.017	-0.081
-168.881	-162.413	0.383	0.019
-167.866	-156.393	0.435	0.027
-166.852	96.266	-0.217	-0.244
-165.837	-187.593	0.294	-0.004
-164.823	224.754	-0.065	-0.103
-163.808	102.145	0.096	0.110
-162.793	243.506	0.046	0.076
-161.779	-90.265	-0.213	-0.061
-160.764	-32.464	-0.108	0.059
-159.750	113.061	0.161	0.192
-158.735	-200.000	-0.023	-0.105
-157.720	-74.966	0.258	0.091
-156.706	-200.000	-0.020	-0.272
-155.691	-142.108	0.237	-0.023
-154.677	220.136	0.093	0.147
-153.662	644.749	0.100	0.251
-152.647	257.912	0.135	-0.228
-151.633	395.266	-0.029	-0.059
-150.618	-173.743	0.167	0.005
-149.604	60.480	0.049	0.048
-148.589	-142.909	0.247	0.024
-147.574	-191.020	0.419	-0.004
-146.560	800.000	0.047	-0.189
-145.545	-80.670	-0.230	-0.075
-144.531	-5.241	0.321	-0.217
-143.516	-200.000	0.046	0.319
-142.502	-109.467	-0.044	-0.009
-141.487	-90.496	-0.279	0.079
-140.472	-200.000	0.009	0.310
-139.458	212.192	0.031	0.048
-138.443	154.414	0.166	-0.223
-137.429	-40.128	0.192	-0.098
-136.414	800.000	-0.132	0.499
-135.399	23.431	-0.172	-0.139
-134.385	-109.658	0.160	-0.033
-133.370	-40.911	0.328	0.167
-132.356	-31.520	-0.143	0.079
-131.341	-24.502	-0.235	0.137
-130.326	247.539	0.092	-0.153
-129.312	-80.617	0.162	0.053
-128.297	8.480	0.081	-0.060
-127.283	800.000	-0.061	0.263
-126.268	-162.379	-0.033	0.002
-125.253	-88.838	0.231	0.067
-124.239	142.815	-0.177	0.231
-123.224	408.103	0.096	-0.200
-122.210	800.000	-0.082	0.329
