DTS Sentinel unit serial number:	SN413079Multiplexer serial number:	ORYXHardware model number:	OX4-SRSoftware version number:	ORYX F/W v4.00 Oryx Data Collector v3.7.2.0data status	okinstallation	princeton_trtdifferential loss correction	single-endedforward channel	channel 1reverse channel	N/Adate	2019/09/13time	20:54:35forward acquisition time	60.00reverse acquisition time	0.00gamma	496.2192k internal	0.2331k external	0.2331temperature offset calibration	1.0089default loss term (dB/km)	0.3790temperature slope calibration	1.0000multiplexer offset coefficient	1.0000multiplexer slope coefficient	1.0000fibre end	0.00T internal ref (°C)	28.69T ext. ref 1 (°C)	3.22T ext. ref 2 (°C)	23.37length (m)	temperature (°C)	Stokes	anti-Stokes-747.200	351.466	0.035	0.069
-746.185	10.539	0.188	0.144
-745.171	-115.599	0.024	0.004
-744.156	-141.531	0.416	0.042
-743.142	-120.730	-0.263	-0.045
-742.127	118.602	0.196	0.243
-741.112	68.420	-0.186	-0.192
-740.098	42.209	0.158	0.144
-739.083	166.940	-0.092	-0.132
-738.069	800.000	-0.054	0.184
-737.054	-0.221	-0.033	0.023
-736.039	-40.498	-0.198	0.103
-735.025	-117.410	0.135	-0.025
-734.010	70.476	-0.153	-0.159
-732.996	27.873	0.022	0.018
-731.981	29.449	0.222	0.190
-730.966	204.695	0.079	0.123
-729.952	29.300	0.055	0.047
-728.937	157.099	-0.151	-0.210
-727.923	369.413	0.046	-0.094
-726.908	-25.592	0.090	-0.053
-725.894	-96.353	-0.252	0.067
-724.879	44.415	0.257	0.237
-723.864	-33.443	0.139	0.077
-722.850	-68.630	-0.152	0.059
-721.835	78.222	-0.220	-0.236
-720.821	-109.454	0.094	-0.020
-719.806	322.306	-0.087	-0.167
-718.791	212.952	-0.144	0.229
-717.777	800.000	-0.043	0.185
-716.762	-139.826	-0.088	0.009
-715.748	21.074	0.293	-0.239
-714.733	-30.877	-0.436	-0.248
-713.718	-106.005	-0.187	-0.042
-712.704	-12.099	-0.085	-0.056
-711.689	65.535	-0.097	0.099
-710.675	190.363	0.095	-0.144
-709.660	-48.971	0.341	-0.164
-708.645	800.000	0.033	-0.094
-707.631	800.000	0.055	-0.164
-706.616	609.263	-0.063	-0.157
-705.602	-152.822	0.284	0.020
-704.587	44.415	0.261	-0.241
-703.572	10.327	0.212	0.162
-702.558	-15.468	-0.226	-0.145
-701.543	238.963	-0.130	0.217
-700.529	-2.621	-0.162	-0.114
-699.514	-73.211	0.171	0.063
-698.499	-41.140	0.350	-0.181
-697.485	109.019	0.133	0.160
-696.470	-111.419	-0.475	0.097
-695.456	-69.588	0.176	0.068
-694.441	-117.390	-0.213	-0.039
-693.426	-62.321	0.353	0.148
-692.412	-168.102	0.155	-0.006
-691.397	654.842	-0.147	-0.378
-690.383	-200.000	-0.052	-0.283
-689.368	32.018	-0.160	-0.138
-688.354	125.752	0.092	-0.117
-687.339	-74.247	0.471	0.171
-686.324	540.874	0.137	-0.326
-685.310	-200.000	-0.008	0.072
-684.295	46.912	-0.120	-0.112
-683.281	-200.000	-0.037	-0.310
-682.266	6.747	-0.369	-0.276
-681.251	800.000	0.072	-0.233
-680.237	-73.560	-0.293	-0.107
-679.222	-55.387	-0.167	0.075
-678.208	0.466	-0.144	-0.103
-677.193	-10.288	-0.203	0.135
-676.178	94.784	-0.312	-0.356
-675.164	-81.892	-0.422	-0.139
-674.149	74.045	0.054	-0.057
-673.135	-80.369	-0.198	0.067
-672.120	48.711	-0.390	-0.367
-671.105	52.245	0.377	-0.361
-670.091	-85.821	-0.166	-0.052
-669.076	-136.870	-0.335	0.039
-668.062	83.901	0.176	0.192
-667.047	29.114	0.259	0.221
-666.032	-131.813	0.117	0.015
-665.018	484.915	0.120	-0.273
-664.003	-52.939	-0.171	0.079
-662.989	-53.690	-0.102	0.047
-661.974	90.943	-0.065	-0.073
-660.959	-83.420	-0.220	-0.071
-659.945	-200.000	-0.028	0.461
-658.930	159.528	-0.143	-0.199
-657.916	217.265	0.141	0.225
-656.901	33.358	-0.090	-0.079
-655.886	-90.124	0.061	-0.018
-654.872	288.910	0.080	0.146
-653.857	60.599	0.172	-0.171
-652.843	-200.000	0.004	0.128
-651.828	-99.624	-0.323	0.081
-650.814	67.150	-0.117	0.119
-649.799	316.610	0.088	-0.167
-648.784	408.062	0.027	-0.058
-647.770	-200.000	0.025	0.186
-646.755	-200.000	-0.380	-0.001
-645.741	-82.322	0.371	-0.121
-644.726	468.477	-0.141	0.318
-643.711	-143.881	0.190	0.018
-642.697	-146.399	-0.285	-0.025
-641.682	-200.000	0.006	0.044
-640.668	-10.923	-0.241	0.160
-639.653	-177.392	-0.224	0.006
-638.638	-170.233	-0.088	-0.003
-637.624	-132.014	0.288	-0.038
-636.609	-23.257	0.342	-0.206
-635.595	160.169	-0.065	0.091
-634.580	106.154	-0.181	0.215
-633.565	96.503	0.196	-0.225
-632.551	24.342	-0.039	-0.032
-631.536	198.830	0.134	0.206
-630.522	499.875	0.069	0.159
-629.507	800.000	-0.046	-0.151
-628.492	-22.115	-0.206	-0.125
-627.478	800.000	-0.096	0.313
-626.463	-104.836	-0.285	0.066
-625.449	800.000	-0.098	-0.308
-624.434	33.154	-0.198	0.172
-623.419	55.910	0.112	-0.109
-622.405	-200.000	-0.035	0.269
-621.390	800.000	0.038	0.157
-620.376	248.402	-0.244	0.413
-619.361	7.022	0.524	-0.391
-618.346	-85.497	0.357	-0.111
-617.332	-200.000	-0.030	0.196
-616.317	-126.197	0.154	0.023
-615.303	-96.501	0.469	-0.124
-614.288	76.045	0.119	-0.126
-613.273	800.000	-0.209	-0.669
-612.259	295.963	0.069	-0.126
-611.244	-28.262	0.199	-0.115
-610.230	-17.664	-0.023	-0.014
-609.215	-200.000	-0.012	-0.427
-608.201	25.405	0.304	0.253
-607.186	-200.000	-0.022	0.173
-606.171	115.705	-0.200	0.244
-605.157	800.000	0.062	0.244
-604.142	32.574	0.166	-0.143
-603.128	113.277	-0.224	-0.272
-602.113	-6.138	0.149	0.102
-601.098	218.780	0.145	-0.232
-600.084	39.687	-0.171	-0.153
-599.069	-200.000	-0.015	-0.096
-598.055	108.396	0.121	0.145
-597.040	-111.546	0.260	-0.053
-596.025	-200.000	0.046	-0.565
-595.011	698.865	0.086	-0.227
-593.996	103.218	-0.112	0.131
-592.982	229.848	0.112	-0.183
-591.967	-108.668	-0.168	0.036
-590.952	-10.527	-0.201	0.133
-589.938	25.594	0.285	0.237
-588.923	-107.347	0.051	0.011
-587.909	-191.214	0.058	0.001
-586.894	-3.423	-0.153	0.106
-585.879	-71.980	-0.224	-0.083
-584.865	653.505	0.088	-0.226
-583.850	214.498	-0.272	-0.431
-582.836	-19.680	-0.509	-0.315
-581.821	800.000	-0.062	-0.247
-580.806	-57.107	-0.256	-0.113
-579.792	-74.015	-0.062	0.022
-578.777	263.803	0.210	-0.366
-577.763	-167.788	-0.117	0.005
-576.748	42.208	-0.240	0.218
-575.733	-39.093	-0.249	0.131
-574.719	203.071	0.167	-0.257
-573.704	650.117	0.066	0.170
-572.690	-200.000	0.021	0.277
-571.675	421.241	-0.136	-0.292
-570.661	58.682	0.111	-0.109
-569.646	156.369	0.096	-0.132
-568.631	58.578	-0.122	0.120
-567.617	-21.535	-0.010	-0.006
-566.602	158.387	-0.066	0.091
-565.588	-200.000	-0.018	0.312
-564.573	-8.624	-0.121	-0.081
-563.558	227.996	0.087	-0.142
-562.544	-200.000	0.007	-0.331
-561.529	87.136	0.136	-0.150
-560.515	-94.890	-0.129	-0.035
-559.500	-129.402	0.167	-0.023
-558.485	74.002	0.073	0.076
-557.471	643.709	0.150	-0.382
-556.456	423.518	-0.214	-0.461
-555.442	-98.359	0.405	0.104
-554.427	386.687	0.057	0.117
-553.412	-200.000	0.045	-0.281
-552.398	82.811	-0.116	-0.126
-551.383	75.373	0.101	0.106
-550.369	305.200	-0.050	-0.092
-549.354	757.997	-0.084	0.228
-548.339	-137.015	-0.422	0.048
-547.325	-38.108	0.192	-0.102
-546.310	800.000	-0.052	-0.169
-545.296	257.997	0.156	0.268
-544.281	800.000	-0.014	0.040
-543.266	286.916	0.053	-0.095
-542.252	595.324	0.049	-0.122
-541.237	800.000	0.084	-0.276
-540.223	-110.766	-0.406	-0.084
-539.208	-200.000	-0.011	0.189
-538.193	-83.122	-0.185	0.059
-537.179	800.000	0.069	-0.291
-536.164	-4.125	-0.192	-0.133
-535.150	5.481	0.210	0.155
-534.135	274.600	0.123	0.218
-533.121	-45.771	0.190	0.094
-532.106	800.000	-0.077	0.313
-531.091	-151.621	-0.228	-0.017
-530.077	745.127	-0.043	-0.115
-529.062	-39.476	-0.062	-0.033
-528.048	-51.443	0.123	-0.057
-527.033	11.504	-0.236	-0.181
-526.018	420.085	0.109	0.232
-525.004	800.000	0.051	0.183
-523.989	-39.507	0.318	-0.166
-522.975	800.000	0.045	-0.130
-521.960	356.160	0.088	0.174
-520.945	216.567	-0.106	-0.168
-519.931	-117.248	-0.111	0.020
-518.916	-61.620	-0.198	-0.083
-517.902	-67.785	-0.043	0.017
-516.887	322.426	-0.092	0.175
-515.872	-200.000	-0.041	0.284
-514.858	215.294	-0.105	0.166
-513.843	1.477	-0.156	-0.112
-512.829	45.041	0.231	0.212
-511.814	-141.149	-0.283	0.029
-510.799	800.000	0.028	0.119
-509.785	333.543	0.134	0.259
-508.770	-200.000	0.038	-0.183
-507.756	-9.535	-0.087	0.058
-506.741	671.060	0.083	0.215
-505.726	-200.000	-0.039	-0.189
-504.712	-112.836	0.317	0.063
-503.697	-27.626	-0.324	-0.188
-502.683	75.889	-0.031	-0.033
-501.668	103.480	-0.384	0.449
-500.653	-200.000	-0.022	0.192
-499.639	-123.880	-0.364	0.057
-498.624	59.810	0.060	-0.059
-497.610	-126.683	0.330	-0.049
-496.595	145.825	-0.100	-0.134
-495.581	8.041	0.518	-0.387
-494.566	-124.427	-0.233	0.036
-493.551	800.000	0.136	-0.392
-492.537	223.635	0.158	-0.253
-491.522	143.540	-0.175	-0.232
-490.508	-36.064	-0.140	-0.075
-489.493	210.825	0.065	0.102
-488.478	-200.000	0.000	0.265
-487.464	800.000	0.056	0.157
-486.449	-148.136	-0.085	-0.007
-485.435	-93.850	-0.089	0.024
-484.420	800.000	0.096	0.308
-483.405	-60.955	0.202	-0.085
-482.391	39.917	-0.270	-0.241
-481.376	-68.909	-0.222	0.085
-480.362	68.814	0.233	0.239
-479.347	-200.000	-0.047	-0.270
-478.332	-87.759	0.268	0.080
-477.318	506.144	0.031	0.071
-476.303	456.772	-0.111	-0.245
-475.289	-200.000	-0.000	-0.310
-474.274	109.655	0.141	0.168
-473.259	402.909	-0.116	0.244
-472.245	123.334	-0.072	0.089
-471.230	-21.491	-0.144	-0.087
-470.216	800.000	0.081	0.238
-469.201	133.026	0.077	0.099
-468.186	-41.108	-0.076	-0.039
-467.172	800.000	0.101	-0.383
-466.157	221.570	-0.127	-0.204
-465.143	244.153	0.089	-0.149
-464.128	72.003	0.168	-0.174
-463.113	-24.525	-0.136	-0.081
-462.099	0.064	-0.167	-0.118
-461.084	-144.157	0.062	0.006
-460.070	-56.765	-0.085	0.037
-459.055	-83.392	-0.153	-0.049
-458.040	-200.000	-0.048	-0.318
-457.026	74.608	0.173	-0.181
-456.011	-27.906	-0.093	0.053
-454.997	-200.000	-0.045	-0.422
-453.982	-37.661	-0.297	0.158
-452.968	-200.000	-0.043	0.198
-451.953	-25.671	0.089	0.052
-450.938	-37.181	-0.110	0.058
-449.924	800.000	0.104	-0.302
-448.909	277.684	0.141	-0.249
-447.895	300.987	0.117	0.215
-446.880	-1.864	-0.121	0.085
-445.865	800.000	-0.106	-0.337
-444.851	800.000	-0.049	0.147
-443.836	-72.373	0.248	-0.091
-442.822	88.658	0.113	0.125
-441.807	-116.238	0.194	-0.036
-440.792	88.431	0.130	-0.143
-439.778	-87.824	0.197	-0.059
-438.763	606.966	0.104	0.258
-437.749	-145.597	-0.255	-0.023
-436.734	37.524	-0.178	0.157
-435.719	-123.072	-0.183	-0.029
-434.705	-200.000	0.044	-0.452
-433.690	45.608	0.297	0.273
-432.676	-200.000	0.019	0.126
-431.661	173.949	0.187	-0.268
-430.646	244.660	0.140	0.233
-429.632	123.199	0.082	0.102
-428.617	-200.000	0.043	-0.201
-427.603	-82.934	-0.135	0.043
-426.588	-200.000	0.035	0.179
-425.573	800.000	-0.101	0.309
-424.559	800.000	-0.093	0.353
-423.544	9.837	0.262	0.198
-422.530	75.775	-0.222	-0.233
-421.515	311.597	0.109	0.203
-420.500	55.336	0.085	0.082
-419.486	-200.000	0.011	0.110
-418.471	-135.751	0.408	-0.048
-417.457	-70.627	0.299	0.112
-416.442	800.000	0.083	0.324
-415.428	551.892	0.012	0.030
-414.413	-105.838	0.197	0.044
-413.398	-44.681	0.160	-0.079
-412.384	-3.246	0.185	-0.128
-411.369	800.000	-0.103	-0.309
-410.355	-71.495	-0.216	-0.080
-409.340	-200.000	0.064	-0.377
-408.325	73.867	0.237	-0.247
-407.311	-65.141	0.184	0.074
-406.296	67.373	-0.257	-0.261
-405.282	-38.198	-0.133	-0.070
-404.267	-129.759	-0.304	0.042
-403.252	800.000	-0.036	-0.124
-402.238	-23.546	0.202	0.120
-401.223	-200.000	-0.020	-0.156
-400.209	159.162	-0.019	0.026
-399.194	-195.742	-0.269	-0.002
-398.179	800.000	-0.036	0.138
-397.165	278.919	-0.202	-0.358
-396.150	800.000	0.056	0.157
-395.136	-82.218	0.181	0.059
-394.121	316.472	-0.171	0.320
-393.106	112.371	0.213	-0.256
-392.092	-200.000	0.027	0.176
-391.077	-122.548	-0.254	-0.041
-390.063	-200.000	-0.018	-0.352
-389.048	121.043	0.136	0.168
-388.033	-125.409	-0.158	-0.024
-387.019	800.000	-0.064	0.206
-386.004	-200.000	0.043	0.322
-384.990	285.803	-0.141	-0.252
-383.975	-200.000	0.010	-0.107
-382.960	800.000	0.064	-0.258
-381.946	-200.000	-0.043	0.198
-380.931	-20.275	-0.165	-0.101
-379.917	-10.740	0.184	0.121
-378.902	-43.634	-0.083	-0.041
-377.888	1.658	0.234	-0.167
-376.873	800.000	-0.040	0.133
-375.858	-130.622	0.115	0.015
-374.844	-200.000	-0.031	-0.238
-373.829	-200.000	-0.008	-0.183
-372.815	-138.213	0.165	0.018
-371.800	-53.862	-0.112	-0.050
-370.785	-40.580	-0.145	-0.074
-369.771	-200.000	0.011	0.240
-368.756	800.000	-0.145	-0.435
-367.742	-200.000	0.039	-0.283
-366.727	-200.000	0.011	0.118
-365.712	14.202	-0.162	0.125
-364.698	-111.642	0.118	0.024
-363.683	-105.693	-0.194	-0.044
-362.669	-26.449	0.189	0.110
-361.654	-113.853	0.348	0.067
-360.639	189.255	0.062	0.092
-359.625	-200.000	-0.000	0.135
-358.610	645.415	-0.042	0.105
-357.596	-158.962	0.254	0.014
-356.581	-96.085	-0.188	-0.050
-355.566	800.000	-0.013	0.046
-354.552	-200.000	0.012	-0.198
-353.537	-13.848	0.163	-0.104
-352.523	-21.563	-0.110	0.067
-351.508	-161.016	-0.277	0.014
-350.493	-25.459	-0.314	0.184
-349.479	-37.454	-0.349	0.184
-348.464	-182.716	0.231	-0.004
-347.450	537.088	-0.087	0.206
-346.435	221.236	0.114	-0.182
-345.420	800.000	-0.080	0.230
-344.406	800.000	0.038	0.137
-343.391	-77.915	0.117	0.040
-342.377	-200.000	-0.047	0.270
-341.362	32.105	0.055	-0.047
-340.348	689.707	0.109	0.283
-339.333	37.036	-0.122	0.107
-338.318	-95.755	-0.313	0.083
-337.304	-113.865	0.154	0.030
-336.289	-77.140	-0.206	-0.071
-335.275	-120.279	0.124	0.021
-334.260	-34.316	-0.249	0.135
-333.245	479.853	0.040	-0.090
-332.231	-83.844	-0.101	0.032
-331.216	636.912	-0.043	-0.108
-330.202	-87.795	-0.171	-0.051
-329.187	29.524	-0.227	-0.191
-328.172	-38.228	0.280	0.147
-327.158	800.000	0.080	0.231
-326.143	47.556	-0.154	-0.142
-325.129	302.022	-0.042	0.077
-324.114	-140.599	-0.328	-0.034
-323.099	-200.000	-0.007	0.388
-322.085	-200.000	-0.009	-0.090
-321.070	367.931	0.029	-0.058
-320.056	-36.743	-0.182	-0.097
-319.041	386.213	0.076	0.156
-318.026	-76.046	-0.028	-0.010
-317.012	-200.000	0.038	-0.181
-315.997	-91.956	0.256	-0.072
-314.983	-200.000	0.004	-0.063
-313.968	101.676	-0.044	0.051
-312.953	-200.000	0.046	-0.288
-311.939	-34.697	0.268	0.145
-310.924	50.754	-0.154	0.144
-309.910	251.183	-0.189	0.317
-308.895	-37.386	0.154	0.081
-307.880	-200.000	0.012	0.377
-306.866	76.229	-0.095	-0.099
-305.851	-41.933	0.061	0.031
-304.837	800.000	-0.035	0.138
-303.822	414.010	0.013	-0.027
-302.807	-200.000	0.023	0.190
-301.793	-25.654	0.100	0.058
-300.778	-3.836	-0.304	0.209
-299.764	21.752	0.210	-0.169
-298.749	-116.138	0.197	0.036
-297.735	44.782	-0.200	0.182
-296.720	-200.000	-0.021	0.125
-295.705	-200.000	-0.024	0.205
-294.691	800.000	-0.049	0.198
-293.676	-200.000	-0.031	-0.161
-292.662	-94.287	-0.303	0.082
-291.647	70.346	0.148	0.151
-290.632	101.703	0.187	0.216
-289.618	-180.936	-0.119	0.002
-288.603	-200.000	-0.006	0.234
-287.589	-55.994	-0.108	0.048
-286.574	277.883	0.065	0.114
-285.559	800.000	-0.027	-0.080
-284.545	-23.785	0.101	-0.060
-283.530	-61.763	-0.127	0.052
-282.516	100.531	-0.218	0.250
-281.501	10.387	0.058	0.044
-280.486	-0.792	0.079	0.055
-279.472	-111.889	-0.170	0.034
-278.457	-44.702	-0.204	0.101
-277.443	800.000	0.070	-0.221
-276.428	-83.204	0.129	0.041
-275.413	106.946	-0.032	-0.038
-274.399	781.565	-0.146	-0.395
-273.384	223.009	-0.044	0.071
-272.370	177.860	0.158	0.227
-271.355	173.554	-0.029	0.042
-270.340	-28.374	-0.163	0.093
-269.326	-200.000	-0.021	0.160
-268.311	65.719	-0.050	-0.050
-267.297	-37.802	-0.158	-0.083
-266.282	-200.000	-0.029	-0.129
-265.267	121.404	-0.281	0.345
-264.253	18.578	-0.126	-0.099
-263.238	45.746	-0.132	-0.121
-262.224	-200.000	0.061	0.266
-261.209	217.304	0.216	0.339
-260.195	-122.918	-0.353	0.056
-259.180	-64.663	0.287	-0.115
-258.165	660.071	0.136	-0.347
-257.151	-94.059	0.072	-0.019
-256.136	539.293	0.129	0.303
-255.122	-21.741	0.140	0.084
-254.107	545.134	-0.076	-0.180
-253.092	-78.868	0.190	0.064
-252.078	98.106	0.241	0.274
-251.063	163.375	0.218	-0.303
-250.049	-200.000	0.000	0.050
-249.034	-200.000	0.038	-0.216
-248.019	574.700	-0.101	0.242
-247.005	133.358	-0.087	-0.111
-245.990	22.565	0.065	-0.053
-244.976	-34.159	-0.201	-0.109
-243.961	101.838	0.174	-0.200
-242.946	-16.070	0.091	0.057
-241.932	-141.441	0.328	-0.033
-240.917	-26.625	0.309	-0.179
-239.903	-200.000	-0.064	0.289
-238.888	-34.839	-0.064	-0.034
-237.873	144.391	-0.095	-0.125
-236.859	117.420	0.207	0.251
-235.844	-16.648	0.272	0.170
-234.830	-19.877	0.324	0.197
-233.815	800.000	0.084	0.292
-232.800	5.687	-0.119	-0.087
-231.786	-67.083	-0.330	-0.128
-230.771	-25.672	0.137	-0.080
-229.757	-90.525	0.186	-0.053
-228.742	47.564	-0.033	-0.030
-227.727	800.000	-0.049	-0.208
-226.713	-120.996	0.366	-0.061
-225.698	-169.682	0.282	-0.010
-224.684	52.861	0.048	-0.045
-223.669	-15.180	0.119	-0.075
-222.655	-200.000	-0.041	-0.361
-221.640	191.978	0.025	-0.037
-220.625	-68.616	0.159	-0.061
-219.611	372.820	0.115	-0.231
-218.596	46.827	-0.091	-0.084
-217.582	-57.660	-0.237	-0.103
-216.567	-66.156	-0.130	0.051
-215.552	314.050	-0.134	0.249
-214.538	-75.314	-0.282	-0.099
-213.523	-200.000	0.051	0.408
-212.509	-79.461	0.249	-0.083
-211.494	-62.973	0.078	-0.032
-210.479	-93.964	0.055	0.015
-209.465	215.577	0.105	-0.165
-208.450	-57.208	0.262	0.114
-207.436	512.616	-0.064	0.146
-206.421	796.684	0.061	0.165
-205.406	800.000	-0.041	-0.122
-204.392	-53.507	-0.356	0.161
-203.377	41.269	0.100	0.089
-202.363	-56.290	0.052	0.023
-201.348	76.429	0.120	0.126
-200.333	103.137	0.187	0.216
-199.319	350.451	0.088	-0.172
-198.304	-108.116	0.164	-0.035
-197.290	-80.346	0.236	0.078
-196.275	117.063	0.111	0.134
-195.260	-4.904	0.151	-0.102
-194.246	-71.411	-0.130	0.048
-193.231	133.050	-0.191	-0.243
-192.217	790.369	-0.070	-0.190
-191.202	50.049	-0.188	0.175
-190.187	302.360	-0.054	0.099
-189.173	437.023	0.031	-0.066
-188.158	-50.273	0.193	0.090
-187.144	-146.195	-0.331	0.029
-186.129	324.895	0.039	-0.073
-185.114	-32.824	-0.211	-0.115
-184.100	-94.222	-0.296	-0.080
-183.085	344.956	-0.023	-0.044
-182.071	227.101	-0.099	-0.159
-181.056	232.499	-0.199	0.321
-180.042	800.000	-0.055	0.161
-179.027	9.171	-0.091	0.068
-178.012	-69.100	-0.157	-0.060
-176.998	800.000	-0.106	-0.291
-175.983	356.858	-0.164	0.322
-174.969	192.545	0.013	-0.020
-173.954	-17.478	0.121	0.075
-172.939	-101.651	0.372	-0.089
-171.925	-200.000	0.007	0.117
-170.910	-8.433	0.130	0.086
-169.896	-200.000	0.011	0.066
-168.881	-173.060	0.068	-0.002
-167.866	360.505	-0.041	-0.080
-166.852	380.301	-0.162	0.326
-165.837	480.838	0.096	0.214
-164.823	234.837	-0.155	0.251
-163.808	-162.316	-0.394	-0.019
-162.793	198.020	0.143	0.216
-161.779	139.405	-0.154	-0.199
-160.764	151.360	-0.153	0.206
-159.750	-27.217	0.469	-0.269
-158.735	-74.963	0.088	0.031
-157.720	-200.000	-0.016	-0.127
-156.706	20.241	0.273	0.217
-155.691	-200.000	-0.034	-0.202
-154.677	23.862	-0.046	0.037
-153.662	27.133	-0.069	-0.057
-152.647	-200.000	-0.015	-0.393
-151.633	-47.367	0.071	-0.034
-150.618	26.151	0.168	0.138
-149.604	470.132	-0.048	0.106
-148.589	787.709	-0.108	-0.292
-147.574	-98.856	-0.223	0.056
-146.560	-79.693	0.125	0.041
-145.545	-160.369	-0.096	0.005
-144.531	-200.000	0.011	0.313
-143.516	-136.568	-0.245	0.028
-142.502	73.019	-0.189	0.194
-141.487	-200.000	-0.014	-0.186
-140.472	739.176	-0.031	0.083
-139.458	21.385	-0.163	-0.130
-138.443	-200.000	0.462	0.001
-137.429	171.432	0.113	-0.159
-136.414	-105.383	-0.353	0.079
-135.399	-74.784	-0.176	0.062
-134.385	79.692	-0.090	-0.095
-133.370	800.000	0.085	0.295
-132.356	800.000	-0.033	-0.112
-131.341	208.467	0.140	-0.215
-130.326	25.784	-0.077	-0.063
-129.312	-5.815	0.141	0.095
-128.297	-200.000	-0.072	0.398
-127.283	253.416	-0.056	0.094
-126.268	-200.000	-0.033	0.193
-125.253	-180.300	-0.217	0.004
-124.239	800.000	-0.102	0.376
-123.224	291.853	-0.177	0.316
-122.210	-113.776	0.172	0.033
-121.195	58.072	0.076	0.073
-120.180	-55.190	0.138	0.061
