DTS Sentinel unit serial number:	SN413079Multiplexer serial number:	ORYXHardware model number:	OX4-SRSoftware version number:	ORYX F/W v4.00 Oryx Data Collector v3.7.2.0data status	okinstallation	princeton_trtdifferential loss correction	single-endedforward channel	channel 1reverse channel	N/Adate	2019/09/15time	01:50:35forward acquisition time	60.00reverse acquisition time	0.00gamma	496.2192k internal	0.2321k external	0.2321temperature offset calibration	0.9980default loss term (dB/km)	0.3790temperature slope calibration	1.0000multiplexer offset coefficient	1.0000multiplexer slope coefficient	1.0000fibre end	0.00T internal ref (°C)	31.77T ext. ref 1 (°C)	4.51T ext. ref 2 (°C)	26.70length (m)	temperature (°C)	Stokes	anti-Stokes-747.200	800.000	-0.089	0.296
-746.185	800.000	-0.036	0.128
-745.171	-2.456	-0.049	0.035
-744.156	-48.135	0.188	-0.092
-743.142	-200.000	0.004	0.508
-742.127	-73.760	-0.195	-0.072
-741.112	-200.000	0.028	0.131
-740.098	-30.146	-0.153	-0.088
-739.083	-147.061	-0.169	0.015
-738.069	-177.997	0.238	0.006
-737.054	-200.000	0.050	-0.237
-736.039	158.882	-0.211	-0.297
-735.025	-85.450	-0.253	-0.080
-734.010	308.890	-0.101	0.191
-732.996	-200.000	-0.008	-0.183
-731.981	-154.498	0.278	-0.019
-730.966	-200.000	-0.002	0.330
-729.952	-79.081	-0.192	0.066
-728.937	145.997	-0.328	-0.444
-727.923	-90.701	-0.338	0.099
-726.908	800.000	0.142	-0.408
-725.894	-33.423	-0.146	-0.081
-724.879	209.439	-0.160	0.254
-723.864	-49.028	0.238	0.115
-722.850	-130.461	-0.136	0.019
-721.835	800.000	0.023	0.071
-720.821	-189.864	-0.211	0.002
-719.806	-40.832	0.265	-0.139
-718.791	800.000	0.044	-0.168
-717.777	-200.000	0.026	0.482
-716.762	-29.044	-0.033	0.019
-715.748	145.828	0.088	0.119
-714.733	-62.838	-0.364	-0.152
-713.718	-87.413	0.237	0.072
-712.704	-200.000	0.029	0.149
-711.689	202.801	-0.040	-0.062
-710.675	34.189	0.075	0.066
-709.660	-200.000	-0.022	0.104
-708.645	800.000	-0.021	-0.063
-707.631	43.726	0.055	-0.051
-706.616	-132.763	0.190	0.025
-705.602	205.729	-0.135	-0.212
-704.587	-8.367	0.176	0.120
-703.572	557.851	-0.041	-0.099
-702.558	-200.000	0.013	0.225
-701.543	484.059	-0.108	0.247
-700.529	-122.641	-0.168	0.028
-699.514	-176.951	0.260	-0.007
-698.499	-71.198	-0.400	0.152
-697.485	-200.000	-0.006	-0.166
-696.470	-200.000	-0.011	-0.104
-695.456	314.718	-0.113	0.215
-694.441	-134.061	0.078	0.010
-693.426	800.000	0.075	0.246
-692.412	-103.543	0.113	-0.027
-691.397	-82.301	-0.503	-0.165
-690.383	6.564	-0.288	-0.216
-689.368	-89.111	-0.208	0.062
-688.354	-8.812	-0.296	0.200
-687.339	139.336	-0.226	-0.300
-686.324	55.275	0.138	-0.135
-685.310	-200.000	0.019	-0.373
-684.295	-200.000	-0.006	-0.149
-683.281	-164.801	-0.352	-0.016
-682.266	236.825	-0.225	0.376
-681.251	-146.095	0.133	-0.012
-680.237	333.356	0.036	0.070
-679.222	-105.871	-0.168	0.038
-678.208	122.500	0.202	0.254
-677.193	203.926	0.005	-0.008
-676.178	81.544	-0.094	0.102
-675.164	-52.520	-0.354	0.165
-674.149	404.528	0.105	-0.223
-673.135	-200.000	-0.015	-0.182
-672.120	62.067	-0.074	-0.074
-671.105	800.000	-0.037	-0.153
-670.091	40.169	0.032	0.029
-669.076	139.728	-0.154	0.204
-668.062	-200.000	-0.037	-0.353
-667.047	-200.000	0.025	0.342
-666.032	-69.253	-0.350	-0.135
-665.018	-200.000	0.035	0.229
-664.003	510.910	0.068	0.159
-662.989	103.195	0.198	0.234
-661.974	467.326	-0.045	-0.103
-660.959	756.786	0.096	-0.261
-659.945	800.000	-0.091	-0.268
-658.930	800.000	-0.100	-0.282
-657.916	-7.278	0.138	-0.094
-656.901	71.256	0.101	-0.106
-655.886	800.000	-0.061	-0.192
-654.872	60.553	-0.164	-0.164
-653.857	-200.000	0.019	-0.141
-652.843	800.000	0.021	-0.065
-651.828	800.000	-0.058	-0.190
-650.814	800.000	0.045	-0.158
-649.799	-114.125	-0.258	-0.050
-648.784	75.266	0.157	0.167
-647.770	387.318	0.051	0.105
-646.755	-192.970	0.221	0.002
-645.741	44.211	0.225	0.208
-644.726	347.183	-0.107	-0.213
-643.711	61.897	0.023	0.023
-642.697	211.861	0.029	-0.046
-641.682	-200.000	-0.014	-0.217
-640.668	800.000	-0.016	0.070
-639.653	-5.671	-0.314	-0.217
-638.638	-200.000	0.012	0.065
-637.624	800.000	-0.022	0.064
-636.609	-200.000	-0.004	-0.100
-635.595	35.205	0.086	-0.076
-634.580	-33.563	0.400	-0.223
-633.565	-88.241	-0.050	0.015
-632.551	-88.637	-0.134	-0.040
-631.536	-200.000	0.161	-0.000
-630.522	65.670	0.174	-0.177
-629.507	-64.817	-0.038	-0.016
-628.492	800.000	-0.062	-0.187
-627.478	22.533	-0.073	0.060
-626.463	-163.535	-0.182	0.009
-625.449	124.544	0.177	-0.224
-624.434	800.000	0.034	0.113
-623.419	-75.052	-0.334	-0.120
-622.405	-200.000	0.066	0.323
-621.390	128.671	0.184	0.235
-620.376	81.752	0.108	0.118
-619.361	5.807	-0.130	-0.097
-618.346	597.969	0.028	-0.070
-617.332	-159.867	-0.229	0.013
-616.317	-200.000	-0.094	0.000
-615.303	91.737	-0.079	-0.089
-614.288	800.000	-0.078	0.245
-613.273	-200.000	-0.078	-0.432
-612.259	95.848	0.230	-0.264
-611.244	4.078	-0.152	-0.112
-610.230	-108.163	0.154	0.033
-609.215	-152.572	-0.130	-0.009
-608.201	-200.000	-0.039	-0.187
-607.186	-200.000	0.007	-0.277
-606.171	-129.505	-0.120	0.017
-605.157	332.799	0.173	0.335
-604.142	209.239	0.137	-0.215
-603.128	195.525	0.121	-0.185
-602.113	202.803	-0.104	0.161
-601.098	800.000	0.059	0.174
-600.084	47.961	-0.089	-0.084
-599.069	-200.000	0.058	-0.309
-598.055	-134.796	0.139	-0.017
-597.040	-78.098	0.240	0.083
-596.025	-180.418	-0.238	0.005
-595.011	-200.000	0.003	0.179
-593.996	264.583	-0.098	-0.172
-592.982	800.000	-0.047	-0.141
-591.967	66.717	-0.222	0.226
-590.952	108.296	0.081	-0.097
-589.938	154.932	0.261	-0.360
-588.923	-136.541	-0.181	0.021
-587.909	173.384	0.100	-0.145
-586.894	690.565	0.106	0.280
-585.879	52.794	0.208	0.199
-584.865	49.116	0.194	0.183
-583.850	-33.576	0.226	0.125
-582.836	-71.808	-0.354	-0.133
-581.821	-200.000	-0.006	-0.194
-580.806	-15.445	0.107	-0.069
-579.792	342.587	0.092	0.181
-578.777	-47.453	-0.023	-0.011
-577.763	19.467	-0.157	-0.127
-576.748	800.000	-0.163	-0.523
-575.733	2.788	0.153	-0.112
-574.719	-129.234	-0.283	-0.040
-573.704	211.104	0.046	0.073
-572.690	-92.792	-0.119	0.033
-571.675	2.088	-0.199	0.144
-570.661	-76.150	0.445	-0.158
-569.646	-111.178	-0.402	0.083
-568.631	349.004	0.132	-0.261
-567.617	800.000	-0.028	-0.111
-566.602	48.123	-0.298	0.280
-565.588	10.152	-0.348	0.266
-564.573	-132.844	0.110	0.014
-563.558	439.579	-0.119	-0.260
-562.544	-52.738	-0.290	0.134
-561.529	800.000	0.119	0.354
-560.515	800.000	-0.046	-0.129
-559.500	299.665	-0.122	-0.225
-558.485	233.257	-0.170	-0.281
-557.471	-140.130	-0.485	0.051
-556.456	-200.000	-0.184	-0.000
-555.442	106.133	-0.119	-0.141
-554.427	-38.743	-0.239	0.126
-553.412	-66.754	0.313	-0.124
-552.398	106.502	-0.130	-0.155
-551.383	-45.888	-0.309	0.153
-550.369	159.435	-0.119	0.167
-549.354	-200.000	0.074	-0.353
-548.339	-86.860	0.153	-0.047
-547.325	51.715	0.089	0.085
-546.310	-200.000	0.051	0.351
-545.296	110.841	0.286	0.345
-544.281	85.881	-0.186	0.205
-543.266	-200.000	0.041	-0.439
-542.252	-100.486	-0.292	0.073
-541.237	-81.213	-0.243	-0.080
-540.223	-142.356	0.250	0.025
-539.208	5.718	0.162	-0.120
-538.193	-52.609	-0.317	0.147
-537.179	-114.849	-0.258	-0.049
-536.164	-63.196	0.135	0.056
-535.150	201.785	0.055	-0.084
-534.135	-105.926	-0.192	0.043
-533.121	-141.979	0.548	-0.055
-532.106	-22.680	0.107	-0.065
-531.091	-131.511	0.347	-0.046
-530.077	-153.677	0.200	-0.014
-529.062	-200.000	0.002	-0.020
-528.048	-200.000	-0.029	0.382
-527.033	193.320	0.186	0.281
-526.018	800.000	0.097	0.378
-525.004	284.440	-0.024	0.043
-523.989	99.320	-0.126	0.146
-522.975	-80.431	-0.245	-0.082
-521.960	92.377	-0.099	-0.112
-520.945	-42.034	-0.339	0.174
-519.931	-163.902	0.215	-0.010
-518.916	-122.631	-0.417	0.068
-517.902	800.000	-0.075	-0.275
-516.887	246.018	0.138	-0.232
-515.872	106.012	-0.067	-0.079
-514.858	234.664	-0.145	0.240
-513.843	-8.788	0.188	0.126
-512.829	11.435	0.113	-0.087
-511.814	-76.625	-0.050	0.018
-510.799	-1.994	0.099	0.070
-509.785	-124.472	-0.074	0.011
-508.770	523.221	0.023	-0.053
-507.756	-111.678	0.176	-0.036
-506.741	-155.492	-0.245	-0.016
-505.726	800.000	0.169	0.521
-504.712	124.678	0.105	-0.132
-503.697	-22.983	-0.182	-0.110
-502.683	-40.443	-0.151	-0.079
-501.668	624.259	0.056	-0.142
-500.653	-50.687	0.093	-0.044
-499.639	598.899	0.041	0.101
-498.624	-56.764	0.359	-0.159
-497.610	-63.716	0.353	0.145
-496.595	390.704	-0.118	-0.245
-495.581	-137.209	-0.369	-0.042
-494.566	60.839	-0.032	0.032
-493.551	800.000	-0.073	-0.212
-492.537	-20.556	0.186	0.114
-491.522	12.899	-0.094	-0.073
-490.508	40.250	-0.214	0.192
-489.493	-84.144	0.180	-0.057
-488.478	258.304	-0.128	-0.220
-487.464	32.983	-0.171	-0.149
-486.449	800.000	0.084	-0.247
-485.435	-92.883	-0.271	0.076
-484.420	-106.653	-0.315	0.070
-483.405	21.716	-0.184	0.150
-482.391	36.093	0.238	0.209
-481.376	-200.000	0.003	0.216
-480.362	9.309	0.177	0.134
-479.347	-57.538	-0.047	-0.021
-478.332	-79.711	0.141	0.047
-477.318	-96.762	-0.080	-0.021
-476.303	-115.306	0.158	-0.030
-475.289	-73.287	-0.147	-0.054
-474.274	629.201	0.074	0.187
-473.259	36.188	-0.136	0.120
-472.245	230.665	0.151	0.248
-471.230	62.606	0.173	0.173
-470.216	800.000	-0.117	-0.326
-469.201	-176.105	0.281	-0.007
-468.186	502.293	0.134	-0.309
-467.172	800.000	0.046	-0.146
-466.157	-200.000	-0.025	0.209
-465.143	200.941	-0.074	-0.113
-464.128	-127.616	0.248	-0.036
-463.113	-64.943	-0.077	0.031
-462.099	-91.591	-0.316	-0.090
-461.084	-12.234	-0.195	-0.128
-460.070	-61.030	-0.252	-0.106
-459.055	-200.000	-0.009	-0.208
-458.040	-33.082	0.186	-0.103
-457.026	-62.819	0.179	-0.074
-456.011	42.203	0.062	-0.056
-454.997	268.256	-0.122	0.214
-453.982	-200.000	-0.042	0.281
-452.968	228.801	0.142	0.231
-451.953	-200.000	-0.018	-0.125
-450.938	-69.271	0.410	-0.158
-449.924	-129.366	0.329	-0.046
-448.909	-98.375	-0.189	0.048
-447.895	19.763	-0.034	0.027
-446.880	192.783	0.142	-0.214
-445.865	171.236	0.067	-0.097
-444.851	32.783	-0.114	0.099
-443.836	-34.497	-0.135	-0.074
-442.822	-159.445	0.306	-0.017
-441.807	-53.045	0.120	0.055
-440.792	-33.748	-0.139	0.077
-439.778	-200.000	0.005	-0.023
-438.763	130.043	-0.244	0.312
-437.749	-27.403	-0.192	-0.111
-436.734	-98.290	-0.208	-0.053
-435.719	-200.000	0.012	-0.079
-434.705	13.360	-0.157	-0.121
-433.690	800.000	-0.030	-0.115
-432.676	-200.000	0.071	0.361
-431.661	-133.157	-0.150	-0.019
-430.646	78.061	0.217	-0.231
-429.632	-103.907	-0.339	-0.079
-428.617	-128.457	-0.265	-0.038
-427.603	-200.000	-0.012	-0.308
-426.588	72.985	-0.105	-0.110
-425.573	1.070	0.171	0.122
-424.559	-24.798	0.203	-0.121
-423.544	800.000	-0.012	-0.043
-422.530	-131.949	-0.154	-0.020
-421.515	-97.516	-0.123	-0.032
-420.500	148.550	0.111	-0.150
-419.486	-72.985	-0.135	-0.049
-418.471	78.324	-0.099	0.106
-417.457	800.000	0.025	0.100
-416.442	800.000	0.023	0.078
-415.428	242.425	-0.104	0.174
-414.413	375.471	-0.105	-0.213
-413.398	-21.580	0.268	0.163
-412.384	-7.909	-0.219	0.148
-411.369	-159.844	0.481	0.026
-410.355	-200.000	0.033	0.417
-409.340	-62.900	0.346	-0.143
-408.325	-45.423	0.236	-0.117
-407.311	-24.723	-0.157	0.093
-406.296	-200.000	-0.003	-0.252
-405.282	-200.000	0.017	0.102
-404.267	161.727	-0.181	0.253
-403.252	-200.000	-0.010	-0.093
-402.238	-200.000	0.041	-0.205
-401.223	336.239	0.082	-0.158
-400.209	-7.569	0.215	0.145
-399.194	-160.636	0.429	0.023
-398.179	-139.527	-0.062	-0.007
-397.165	-200.000	-0.042	0.367
-396.150	340.537	0.090	-0.176
-395.136	-37.581	-0.151	-0.080
-394.121	-3.482	-0.201	0.140
-393.106	130.210	-0.057	0.072
-392.092	-200.000	-0.012	-0.310
-391.077	218.212	-0.142	0.225
-390.063	800.000	0.066	0.218
-389.048	-95.576	-0.122	0.032
-388.033	94.605	-0.157	-0.178
-387.019	-55.251	-0.308	0.138
-386.004	191.340	-0.082	0.124
-384.990	129.540	0.122	-0.155
-383.975	97.628	0.056	-0.064
-382.960	220.456	-0.134	0.214
-381.946	-33.359	0.480	-0.265
-380.931	297.826	0.011	0.020
-379.917	80.305	-0.217	0.233
-378.902	-44.479	-0.202	0.101
-377.888	20.783	0.077	0.062
-376.873	800.000	0.089	0.386
-375.858	-200.000	-0.039	0.308
-374.844	800.000	0.050	0.209
-373.829	-154.028	-0.182	0.012
-372.815	-135.296	0.228	-0.027
-371.800	-42.803	-0.214	0.108
-370.785	613.556	0.082	0.205
-369.771	272.917	-0.082	0.144
-368.756	111.245	-0.210	0.252
-367.742	-158.792	0.247	-0.014
-366.727	-9.904	-0.226	-0.150
-365.712	386.202	-0.059	-0.121
-364.698	207.842	-0.043	0.066
-363.683	-72.243	-0.068	-0.025
-362.669	104.671	-0.168	0.198
-361.654	-88.526	0.330	0.098
-360.639	-104.360	0.286	0.066
-359.625	-155.923	0.449	0.028
-358.610	-200.000	-0.095	-0.435
-357.596	34.805	-0.028	0.024
-356.581	-103.439	-0.351	-0.082
-355.566	-104.615	0.064	0.015
-354.552	37.168	0.220	-0.194
-353.537	174.618	-0.103	0.149
-352.523	430.515	0.070	-0.150
-351.508	-112.392	0.124	-0.025
-350.493	148.245	-0.085	0.114
-349.479	-200.000	0.012	0.086
-348.464	44.174	-0.136	-0.124
-347.450	-130.931	0.338	0.045
-346.435	395.546	0.046	0.096
-345.420	-149.216	0.102	-0.008
-344.406	800.000	0.061	0.185
-343.391	-38.648	-0.410	-0.216
-342.377	-96.817	-0.156	0.041
-341.362	-97.104	-0.191	0.050
-340.348	350.154	-0.083	0.163
-339.333	-50.371	-0.289	0.136
-338.318	21.410	-0.144	0.117
-337.304	800.000	-0.024	-0.098
-336.289	85.641	0.055	0.060
-335.275	800.000	-0.051	-0.216
-334.260	285.027	-0.086	-0.154
-333.245	-140.588	0.118	0.012
-332.231	-200.000	-0.025	0.124
-331.216	-150.278	0.238	-0.018
-330.202	251.007	0.157	0.266
-329.187	64.020	0.046	-0.046
-328.172	-200.000	0.008	0.292
-327.158	-200.000	-0.037	-0.163
-326.143	-200.000	-0.001	0.409
-325.129	-8.726	0.142	0.095
-324.114	-97.792	0.249	0.064
-323.099	121.217	-0.120	-0.149
-322.085	-113.480	0.211	0.041
-321.070	97.067	0.117	-0.133
-320.056	9.052	0.189	0.142
-319.041	-200.000	0.026	0.130
-318.026	63.158	-0.133	0.133
-317.012	-11.705	-0.342	-0.224
-315.997	244.263	0.134	-0.224
-314.983	-30.925	0.099	0.055
-313.968	71.716	0.169	-0.175
-312.953	-200.000	0.073	-0.376
-311.939	-96.504	0.249	0.065
-310.924	-107.989	0.143	-0.031
-309.910	-52.268	0.056	-0.026
-308.895	-45.448	-0.098	0.048
-307.880	-46.998	0.171	0.083
-306.866	-70.503	0.210	0.079
-305.851	-200.000	-0.046	0.447
-304.837	-89.994	-0.204	-0.059
-303.822	623.185	0.071	0.178
-302.807	-108.703	0.202	-0.043
-301.793	-160.933	-0.036	-0.002
-300.778	-200.000	-0.004	-0.090
-299.764	62.832	-0.184	-0.183
-298.749	-200.000	0.035	-0.195
-297.735	-200.000	-0.001	-0.178
-296.720	98.015	0.261	0.298
-295.705	205.479	0.131	-0.202
-294.691	170.469	0.216	0.307
-293.676	85.238	-0.284	-0.309
-292.662	-200.000	-0.025	-0.127
-291.647	264.123	0.180	-0.311
-290.632	763.315	0.016	-0.044
-289.618	57.287	-0.378	-0.367
-288.603	-200.000	-0.060	0.000
-287.589	-74.292	0.367	-0.132
-286.574	117.665	0.115	0.141
-285.559	117.989	-0.115	-0.140
-284.545	404.734	-0.070	0.147
-283.530	725.362	-0.100	-0.265
-282.516	-200.000	0.078	0.360
-281.501	-200.000	0.004	-0.393
-280.486	-14.268	0.173	-0.110
-279.472	-200.000	0.069	0.313
-278.457	44.752	-0.304	0.278
-277.443	800.000	-0.060	-0.228
-276.428	183.711	-0.247	-0.362
-275.413	-113.990	-0.105	0.020
-274.399	-90.664	-0.222	0.064
-273.384	159.766	0.176	0.243
-272.370	-200.000	0.004	0.208
-271.355	195.414	-0.055	0.083
-270.340	-200.000	-0.041	0.351
-269.326	272.561	0.020	0.036
-268.311	716.541	0.120	-0.316
-267.297	-200.000	0.003	0.184
-266.282	-164.734	0.273	0.012
-265.267	-13.951	0.183	-0.117
-264.253	-2.631	-0.061	0.043
-263.238	-200.000	-0.045	0.359
-262.224	-31.220	-0.126	0.071
-261.209	-200.000	-0.036	0.218
-260.195	-24.026	0.169	0.100
-259.180	800.000	-0.062	0.222
-258.165	230.379	-0.131	-0.212
-257.151	800.000	0.061	0.170
-256.136	-92.329	0.151	0.042
-255.122	292.905	-0.092	-0.166
-254.107	-200.000	0.000	-0.098
-253.092	205.360	0.294	0.453
-252.078	280.160	0.118	0.209
-251.063	-13.069	-0.235	0.152
-250.049	-36.404	-0.256	-0.136
-249.034	218.603	-0.207	-0.327
-248.019	-45.105	0.065	-0.032
-247.005	227.824	0.136	-0.219
-245.990	-70.130	0.117	0.044
-244.976	243.006	-0.124	0.206
-243.961	248.397	0.206	0.346
-242.946	800.000	0.083	0.227
-241.932	-200.000	-0.005	0.182
-240.917	-123.058	-0.080	0.013
-239.903	-200.000	0.002	-0.374
-238.888	159.227	0.333	-0.458
-237.873	-114.914	0.081	-0.015
-236.859	-36.723	-0.273	-0.146
-235.844	306.074	0.023	0.042
-234.830	392.742	-0.035	-0.072
-233.815	800.000	-0.096	-0.294
-232.800	5.659	-0.342	0.250
-231.786	340.102	-0.119	-0.229
-230.771	-56.577	0.281	0.124
-229.757	-93.211	0.160	0.044
-228.742	-114.051	0.305	-0.058
-227.727	-49.982	0.136	0.064
-226.713	-80.474	0.124	-0.041
-225.698	253.196	-0.087	-0.147
-224.684	17.955	-0.148	0.117
-223.669	-200.000	0.112	-0.551
-222.655	-8.187	-0.410	-0.274
-221.640	-53.646	0.512	-0.232
-220.625	311.032	-0.181	0.336
-219.611	-130.201	-0.410	-0.055
-218.596	800.000	-0.077	0.320
-217.582	4.104	0.062	0.045
-216.567	106.908	0.213	-0.250
-215.552	-28.716	0.142	-0.081
-214.538	71.986	-0.209	0.215
-213.523	234.292	-0.257	0.420
-212.509	-200.000	0.024	-0.217
-211.494	-200.000	-0.065	0.294
-210.479	-131.636	0.257	-0.033
-209.465	-48.063	0.252	0.121
-208.450	217.041	0.076	0.121
-207.436	88.958	0.065	0.072
-206.421	-59.523	-0.087	0.037
-205.406	800.000	-0.079	0.273
-204.392	-123.225	-0.212	0.034
-203.377	-132.027	0.300	0.039
-202.363	-138.290	-0.230	-0.025
-201.348	76.055	-0.284	0.298
-200.333	-69.716	-0.126	-0.048
-199.319	-200.000	0.017	0.142
-198.304	407.450	-0.028	-0.059
-197.290	22.213	-0.019	0.015
-196.275	307.718	-0.062	0.114
-195.260	-156.626	-0.163	0.010
-194.246	67.008	0.068	-0.068
-193.231	-51.221	0.189	0.088
-192.217	-114.983	0.081	-0.015
-191.202	17.229	0.295	-0.231
-190.187	-180.466	-0.047	-0.001
-189.173	-35.941	0.451	0.241
-188.158	146.110	0.063	0.083
-187.144	-172.754	-0.092	0.003
-186.129	1.564	-0.228	0.162
-185.114	-131.639	-0.057	0.007
-184.100	-31.825	0.135	0.075
-183.085	-21.921	0.101	-0.060
-182.071	-178.724	-0.253	0.006
-181.056	23.916	-0.150	-0.122
-180.042	-200.000	-0.028	0.216
-179.027	351.534	0.079	-0.155
-178.012	336.328	0.094	-0.181
-176.998	-200.000	-0.017	-0.185
-175.983	800.000	-0.028	0.081
-174.969	-173.330	0.268	0.008
-173.954	-114.847	0.259	-0.049
-172.939	-92.214	-0.279	-0.078
-171.925	-200.000	0.021	-0.307
-170.910	-200.000	-0.022	0.178
-169.896	607.246	-0.146	0.360
-168.881	68.021	-0.152	-0.154
-167.866	-19.169	-0.134	0.083
-166.852	189.992	0.188	0.279
-165.837	42.418	0.159	-0.143
-164.823	86.823	0.223	0.243
-163.808	-110.495	0.186	-0.038
-162.793	-200.000	0.054	-0.365
-161.779	-42.895	-0.300	-0.150
-160.764	-200.000	0.002	0.164
-159.750	678.133	-0.052	0.134
-158.735	109.283	0.212	-0.251
-157.720	800.000	-0.064	-0.183
-156.706	539.805	0.040	-0.095
-155.691	219.449	0.162	-0.255
-154.677	162.066	-0.238	-0.330
-153.662	30.184	0.366	-0.309
-152.647	-200.000	0.006	-0.075
-151.633	99.397	-0.218	-0.249
-150.618	157.455	-0.088	0.120
-149.604	26.310	0.169	-0.139
-148.589	628.963	-0.055	-0.137
-147.574	-116.094	-0.216	0.040
-146.560	-95.693	0.249	-0.066
-145.545	-200.000	-0.017	0.216
-144.531	-43.054	-0.036	-0.018
-143.516	283.217	-0.057	0.101
-142.502	201.897	-0.269	-0.410
-141.487	267.655	-0.064	-0.110
-140.472	195.636	0.205	0.307
-139.458	46.260	0.020	-0.018
-138.443	-200.000	-0.037	0.270
-137.429	-114.029	-0.118	-0.023
-136.414	413.083	-0.156	-0.326
-135.399	-74.368	0.463	0.165
-134.385	60.897	0.198	-0.194
-133.370	800.000	0.046	-0.132
-132.356	74.074	-0.060	-0.063
-131.341	-200.000	-0.026	-0.121
-130.326	-113.974	0.297	0.057
-129.312	800.000	-0.068	-0.239
-128.297	-21.423	-0.138	-0.083
-127.283	-5.650	-0.405	-0.274
-126.268	-106.410	-0.042	-0.009
-125.253	-89.895	0.472	0.136
-124.239	-8.928	-0.156	-0.103
-123.224	-151.514	-0.119	0.009
-122.210	16.409	0.165	-0.128
