DTS Sentinel unit serial number:	SN413079Multiplexer serial number:	ORYXHardware model number:	OX4-SRSoftware version number:	ORYX F/W v4.00 Oryx Data Collector v3.7.2.0data status	okinstallation	princeton_trtdifferential loss correction	single-endedforward channel	channel 1reverse channel	N/Adate	2019/09/16time	08:42:35forward acquisition time	60.00reverse acquisition time	0.00gamma	496.2192k internal	0.2324k external	0.2324temperature offset calibration	0.9975default loss term (dB/km)	0.3790temperature slope calibration	1.0000multiplexer offset coefficient	1.0000multiplexer slope coefficient	1.0000fibre end	0.00T internal ref (°C)	29.69T ext. ref 1 (°C)	11.95T ext. ref 2 (°C)	26.58length (m)	temperature (°C)	Stokes	anti-Stokes-747.200	-200.000	0.004	0.428
-746.185	-142.280	-0.196	0.020
-745.171	13.511	0.249	-0.195
-744.156	100.246	-0.328	0.384
-743.142	18.601	0.131	-0.106
-742.127	-21.780	-0.119	-0.073
-741.112	-72.088	0.173	-0.065
-740.098	-8.632	0.104	0.070
-739.083	83.736	-0.181	0.200
-738.069	-200.000	0.042	0.256
-737.054	-51.049	0.195	0.092
-736.039	-200.000	-0.207	-0.001
-735.025	-82.915	0.204	-0.066
-734.010	-0.596	0.126	0.091
-732.996	196.345	-0.152	-0.233
-731.981	278.151	-0.106	0.190
-730.966	-200.000	-0.017	0.136
-729.952	765.323	-0.099	-0.271
-728.937	39.857	0.144	-0.130
-727.923	-36.690	-0.219	-0.119
-726.908	195.206	0.068	0.105
-725.894	-200.000	0.028	0.148
-724.879	45.858	-0.074	0.069
-723.864	-116.314	-0.263	-0.049
-722.850	-200.000	0.042	0.246
-721.835	422.763	-0.002	-0.004
-720.821	244.673	-0.255	0.431
-719.806	-45.804	-0.026	0.013
-718.791	-69.458	-0.548	-0.212
-717.777	-200.000	0.020	0.136
-716.762	-150.749	-0.316	-0.024
-715.748	247.347	0.165	0.282
-714.733	-78.319	-0.086	-0.030
-713.718	153.880	-0.033	0.046
-712.704	55.900	0.110	-0.108
-711.689	70.112	-0.179	-0.186
-710.675	-95.522	0.127	-0.034
-709.660	33.008	-0.193	-0.169
-708.645	81.421	0.110	-0.120
-707.631	-34.264	0.243	0.135
-706.616	-104.711	0.106	-0.025
-705.602	41.440	0.073	-0.067
-704.587	-200.000	0.005	0.119
-703.572	-200.000	-0.110	-0.000
-702.558	800.000	0.081	-0.350
-701.543	166.160	-0.135	-0.192
-700.529	-140.488	0.019	0.002
-699.514	33.633	-0.031	-0.027
-698.499	-171.408	-0.007	0.000
-697.485	91.478	-0.091	-0.103
-696.470	-79.734	-0.120	0.041
-695.456	217.088	-0.192	-0.308
-694.441	-51.736	-0.300	0.141
-693.426	-53.070	0.165	0.076
-692.412	291.014	-0.110	0.201
-691.397	-200.000	-0.008	-0.329
-690.383	-12.480	0.200	0.131
-689.368	46.638	0.085	0.079
-688.354	5.212	0.073	0.054
-687.339	83.711	-0.163	-0.179
-686.324	-101.867	-0.324	-0.079
-685.310	-15.699	-0.289	0.186
-684.295	-112.597	0.276	-0.055
-683.281	-80.953	-0.112	-0.037
-682.266	162.983	-0.302	-0.427
-681.251	-2.120	0.063	0.045
-680.237	-74.414	0.591	-0.215
-679.222	382.682	-0.110	-0.229
-678.208	303.701	-0.118	-0.219
-677.193	246.518	-0.132	0.225
-676.178	-47.848	-0.133	-0.065
-675.164	800.000	0.055	-0.177
-674.149	-6.386	-0.226	-0.155
-673.135	-200.000	-0.052	0.251
-672.120	-119.803	-0.267	-0.046
-671.105	332.651	-0.023	0.044
-670.091	79.360	-0.216	0.233
-669.076	800.000	-0.113	-0.397
-668.062	-140.791	-0.250	0.026
-667.047	105.715	-0.103	0.123
-666.032	-137.056	-0.416	-0.048
-665.018	335.394	-0.107	0.209
-664.003	77.909	-0.156	-0.167
-662.989	387.752	-0.100	-0.207
-661.974	548.457	-0.144	-0.347
-660.959	800.000	-0.083	-0.240
-659.945	246.523	-0.170	0.289
-658.930	-38.582	-0.054	-0.029
-657.916	-200.000	-0.012	0.339
-656.901	-79.583	-0.203	0.069
-655.886	118.437	0.017	-0.021
-654.872	-79.747	0.186	-0.063
-653.857	61.448	-0.165	-0.165
-652.843	-118.454	0.252	-0.045
-651.828	508.253	0.070	-0.163
-650.814	114.313	-0.111	0.136
-649.799	-200.000	-0.010	0.250
-648.784	-200.000	-0.082	-0.376
-647.770	46.212	-0.071	-0.066
-646.755	71.176	0.194	0.202
-645.741	-17.343	0.373	0.236
-644.726	-200.000	-0.014	-0.065
-643.711	-200.000	-0.075	0.423
-642.697	-49.392	0.241	-0.116
-641.682	800.000	-0.045	-0.130
-640.668	-200.000	0.015	-0.134
-639.653	-100.674	-0.030	0.008
-638.638	-200.000	-0.010	0.207
-637.624	206.057	0.113	0.177
-636.609	-62.951	-0.270	0.112
-635.595	-5.023	-0.120	0.083
-634.580	-105.101	0.222	-0.051
-633.565	-101.799	-0.308	0.075
-632.551	-200.000	0.019	0.189
-631.536	6.185	0.220	-0.164
-630.522	-200.000	-0.024	-0.132
-629.507	54.520	-0.176	0.171
-628.492	-50.877	0.113	-0.054
-627.478	800.000	-0.124	-0.443
-626.463	188.822	0.080	-0.121
-625.449	-44.500	0.097	0.049
-624.434	800.000	-0.137	-0.419
-623.419	-126.752	0.275	-0.041
-622.405	244.854	-0.081	-0.138
-621.390	263.850	-0.131	0.228
-620.376	227.314	0.136	0.223
-619.361	800.000	-0.061	-0.226
-618.346	362.321	0.025	0.051
-617.332	307.998	-0.120	-0.224
-616.317	356.959	-0.212	-0.424
-615.303	59.172	-0.258	-0.255
-614.288	-200.000	0.039	-0.254
-613.273	523.763	0.039	-0.093
-612.259	44.349	0.063	0.058
-611.244	-140.453	-0.390	0.041
-610.230	800.000	0.130	-0.448
-609.215	-84.962	-0.202	-0.064
-608.201	-89.153	0.093	-0.028
-607.186	800.000	-0.006	-0.025
-606.171	0.793	0.185	0.133
-605.157	-200.000	-0.007	-0.121
-604.142	62.013	-0.236	0.236
-603.128	800.000	-0.100	-0.279
-602.113	-3.195	-0.263	0.184
-601.098	800.000	0.048	-0.139
-600.084	147.654	0.159	0.215
-599.069	215.298	0.074	0.118
-598.055	24.163	0.098	0.081
-597.040	407.990	-0.047	-0.101
-596.025	40.928	-0.215	0.195
-595.011	-57.181	-0.201	-0.089
-593.996	-200.000	0.016	0.087
-592.982	-200.000	-0.047	0.319
-591.967	-161.485	-0.158	-0.008
-590.952	-128.347	0.264	-0.038
-589.938	-87.276	0.141	0.043
-588.923	70.106	-0.163	-0.169
-587.909	-132.766	-0.147	-0.019
-586.894	563.908	0.049	0.119
-585.879	-46.913	-0.145	-0.071
-584.865	96.045	0.096	-0.110
-583.850	800.000	-0.029	0.110
-582.836	-119.555	0.368	-0.064
-581.821	-10.209	-0.111	-0.074
-580.806	800.000	-0.039	-0.131
-579.792	64.187	-0.253	-0.255
-578.777	-74.651	0.295	0.107
-577.763	14.488	0.137	-0.107
-576.748	-58.386	0.190	-0.083
-575.733	-42.115	-0.344	-0.176
-574.719	800.000	0.066	-0.195
-573.704	-27.334	-0.195	0.114
-572.690	-200.000	-0.019	0.359
-571.675	6.227	0.182	-0.136
-570.661	-129.072	0.318	0.045
-569.646	800.000	-0.123	0.413
-568.631	-200.000	0.070	0.554
-567.617	42.243	-0.267	0.243
-566.602	-137.660	-0.244	-0.028
-565.588	-4.207	-0.083	-0.058
-564.573	-84.924	0.140	0.044
-563.558	-26.707	0.153	0.090
-562.544	-86.350	-0.201	-0.062
-561.529	-58.629	0.205	-0.089
-560.515	800.000	-0.019	-0.077
-559.500	128.551	0.086	-0.109
-558.485	-200.000	-0.047	-0.244
-557.471	383.902	0.076	-0.157
-556.456	307.067	0.133	0.248
-555.442	800.000	0.053	-0.161
-554.427	-200.000	-0.013	0.117
-553.412	69.345	0.129	0.133
-552.398	-33.541	-0.324	-0.180
-551.383	800.000	0.032	-0.126
-550.369	-200.000	-0.036	0.419
-549.354	-143.207	-0.257	0.025
-548.339	481.795	0.205	0.465
-547.325	-171.136	0.267	-0.009
-546.310	27.751	0.135	0.114
-545.296	337.912	-0.117	-0.228
-544.281	135.447	0.076	0.099
-543.266	-118.316	0.299	-0.053
-542.252	-200.000	0.052	-0.315
-541.237	109.609	0.081	-0.098
-540.223	538.449	-0.119	-0.284
-539.208	-119.502	-0.283	0.049
-538.193	-142.127	-0.174	0.017
-537.179	-200.000	0.012	-0.228
-536.164	91.284	0.206	-0.232
-535.150	-200.000	0.000	0.050
-534.135	-11.762	0.135	0.089
-533.121	303.361	0.112	0.207
-532.106	8.999	0.137	0.103
-531.091	-32.908	-0.160	-0.089
-530.077	76.866	0.067	-0.072
-529.062	-74.144	-0.237	-0.086
-528.048	-200.000	-0.024	-0.139
-527.033	210.521	0.114	-0.178
-526.018	-121.580	-0.187	-0.031
-525.004	800.000	-0.057	0.195
-523.989	-200.000	0.021	-0.384
-522.975	443.685	0.088	-0.193
-521.960	-144.290	-0.138	0.013
-520.945	95.262	0.164	0.187
-519.931	-26.922	0.233	-0.136
-518.916	-200.000	-0.094	-0.556
-517.902	-200.000	-0.029	0.288
-516.887	-200.000	-0.008	0.387
-515.872	16.655	0.075	0.059
-514.858	-47.027	-0.253	0.124
-513.843	212.601	-0.247	0.389
-512.829	-76.690	0.255	0.089
-511.814	9.925	0.201	-0.152
-510.799	-200.000	-0.020	-0.336
-509.785	548.074	-0.133	-0.319
-508.770	-45.520	-0.146	-0.072
-507.756	-84.330	0.264	-0.083
-506.741	-200.000	-0.007	0.088
-505.726	800.000	-0.053	-0.154
-504.712	555.576	0.155	-0.374
-503.697	-200.000	-0.256	0.000
-502.683	-21.723	0.071	-0.043
-501.668	-4.510	-0.093	0.064
-500.653	-54.431	0.315	0.143
-499.639	720.331	0.142	0.377
-498.624	-194.697	-0.168	-0.001
-497.610	-200.000	-0.009	-0.277
-496.595	709.004	-0.110	-0.290
-495.581	65.393	0.113	0.115
-494.566	548.504	-0.106	-0.254
-493.551	800.000	0.074	0.301
-492.537	377.890	-0.130	-0.266
-491.522	1.405	0.084	-0.060
-490.508	296.564	-0.134	-0.245
-489.493	-34.594	-0.176	-0.096
-488.478	-200.000	-0.038	-0.289
-487.464	245.103	-0.131	-0.221
-486.449	49.029	0.227	0.213
-485.435	-75.467	0.245	0.087
-484.420	-200.000	-0.031	0.248
-483.405	285.110	0.066	-0.118
-482.391	110.846	-0.193	0.232
-481.376	515.852	-0.077	0.181
-480.362	-110.414	0.073	-0.015
-479.347	251.301	0.087	-0.148
-478.332	92.912	-0.166	-0.188
-477.318	24.353	-0.312	0.257
-476.303	225.739	-0.301	0.488
-475.289	-34.374	-0.350	0.191
-474.274	-80.181	0.224	0.075
-473.259	800.000	-0.099	0.371
-472.245	38.959	0.126	-0.112
-471.230	81.273	-0.324	0.349
-470.216	-200.000	-0.073	-0.322
-469.201	-55.532	0.141	-0.063
-468.186	-140.357	-0.168	-0.017
-467.172	-53.841	0.095	-0.043
-466.157	-50.033	-0.368	0.174
-465.143	166.200	-0.241	-0.341
-464.128	95.849	0.267	-0.304
-463.113	26.190	-0.223	0.186
-462.099	-117.145	0.107	0.019
-461.084	-200.000	0.003	-0.147
-460.070	-107.020	-0.451	-0.100
-459.055	306.128	-0.048	0.090
-458.040	7.628	0.185	-0.138
-457.026	-33.448	-0.101	-0.056
-456.011	44.769	-0.143	0.131
-454.997	-28.889	0.381	-0.219
-453.982	-200.000	-0.010	-0.237
-452.968	800.000	0.050	-0.175
-451.953	96.138	0.019	0.022
-450.938	-200.000	-0.044	0.228
-449.924	800.000	0.096	0.328
-448.909	-116.961	-0.125	-0.023
-447.895	745.299	0.043	0.116
-446.880	800.000	0.048	-0.150
-445.865	-200.000	-0.024	0.174
-444.851	-111.774	0.202	0.041
-443.836	1.893	0.299	0.215
-442.822	275.933	-0.126	0.223
-441.807	-40.425	-0.164	0.085
-440.792	-8.778	0.088	0.059
-439.778	-200.000	0.054	-0.255
-438.763	67.585	0.115	-0.117
-437.749	800.000	-0.130	0.426
-436.734	132.373	0.125	-0.161
-435.719	436.528	-0.117	-0.254
-434.705	-78.005	-0.253	0.087
-433.690	-200.000	0.040	0.337
-432.676	6.689	0.269	-0.200
-431.661	-200.000	-0.015	-0.310
-430.646	-21.595	-0.245	-0.149
-429.632	357.703	-0.136	0.270
-428.617	-68.508	0.123	0.048
-427.603	-200.000	0.095	0.540
-426.588	-85.125	0.200	0.062
-425.573	37.801	0.170	0.151
-424.559	800.000	0.070	0.287
-423.544	231.244	-0.081	0.132
-422.530	-200.000	-0.044	0.223
-421.515	-200.000	0.009	-0.158
-420.500	-200.000	0.004	-0.100
-419.486	-200.000	0.031	-0.148
-418.471	-200.000	-0.011	-0.256
-417.457	22.657	0.304	0.248
-416.442	-113.984	-0.332	-0.064
-415.428	-30.259	-0.130	-0.074
-414.413	-68.915	0.450	-0.173
-413.398	-200.000	0.034	0.282
-412.384	-108.122	0.071	-0.015
-411.369	-143.844	0.303	-0.028
-410.355	-114.669	-0.238	-0.045
-409.340	-154.597	0.302	0.020
-408.325	-54.684	-0.154	0.069
-407.311	785.967	-0.051	0.140
-406.296	137.830	-0.032	0.042
-405.282	-200.000	-0.009	-0.306
-404.267	-103.093	0.313	-0.074
-403.252	252.651	0.042	0.072
-402.238	-95.402	0.309	-0.083
-401.223	-200.000	0.019	0.097
-400.209	800.000	0.054	0.227
-399.194	-98.010	-0.327	-0.084
-398.179	-87.946	-0.179	-0.054
-397.165	253.116	0.179	-0.304
-396.150	-70.871	0.187	-0.070
-395.136	-7.674	0.050	-0.033
-394.121	15.800	0.099	0.077
-393.106	-200.000	0.046	-0.214
-392.092	13.221	0.295	0.227
-391.077	382.125	-0.111	-0.228
-390.063	-200.000	0.035	0.185
-389.048	-78.517	0.107	0.037
-388.033	-11.652	0.101	0.066
-387.019	108.768	0.178	0.211
-386.004	-89.161	0.137	0.040
-384.990	-0.517	-0.227	-0.160
-383.975	269.323	0.062	-0.108
-382.960	-200.000	0.046	0.444
-381.946	28.556	0.027	0.022
-380.931	-200.000	-0.021	-0.123
-379.917	-195.322	-0.188	-0.001
-378.902	27.892	0.148	0.124
-377.888	-200.000	0.000	-0.089
-376.873	640.443	-0.227	0.575
-375.858	65.867	0.263	-0.265
-374.844	800.000	0.049	-0.196
-373.829	219.116	-0.039	-0.062
-372.815	192.122	-0.065	-0.097
-371.800	-101.402	0.345	-0.084
-370.785	800.000	-0.025	-0.096
-369.771	46.030	-0.393	-0.362
-368.756	-65.747	-0.236	-0.094
-367.742	-200.000	-0.015	-0.066
-366.727	626.758	0.022	0.055
-365.712	-14.097	0.174	-0.112
-364.698	-121.656	-0.067	0.011
-363.683	495.540	-0.073	0.166
-362.669	-200.000	-0.052	0.332
-361.654	-48.101	-0.340	0.164
-360.639	-153.469	0.256	0.018
-359.625	-200.000	-0.053	0.297
-358.610	45.324	-0.152	-0.140
-357.596	9.544	-0.173	-0.131
-356.581	-83.392	-0.136	-0.043
-355.566	280.876	-0.045	-0.080
-354.552	111.446	-0.058	-0.069
-353.537	800.000	0.036	-0.140
-352.523	342.494	0.085	0.165
-351.508	194.617	-0.033	-0.050
-350.493	268.568	-0.217	-0.377
-349.479	-109.547	0.024	-0.005
-348.464	22.890	0.078	0.063
-347.450	-119.624	-0.381	0.066
-346.435	800.000	-0.117	-0.331
-345.420	62.433	0.090	-0.089
-344.406	221.724	-0.095	-0.151
-343.391	98.407	0.262	-0.300
-342.377	-200.000	-0.048	0.254
-341.362	-50.410	-0.327	0.153
-340.348	-191.384	-0.281	0.003
-339.333	451.341	0.028	-0.061
-338.318	9.548	0.165	-0.124
-337.304	65.641	-0.179	0.180
-336.289	-200.000	-0.015	-0.088
-335.275	6.761	-0.250	-0.185
-334.260	-58.834	0.329	0.142
-333.245	-118.465	0.099	-0.017
-332.231	-88.755	0.206	0.061
-331.216	131.786	-0.218	-0.279
-330.202	800.000	-0.087	0.362
-329.187	164.764	0.062	0.087
-328.172	-101.823	-0.082	0.020
-327.158	42.046	-0.117	-0.105
-326.143	-108.000	0.179	0.039
-325.129	24.083	0.170	0.139
-324.114	-3.781	0.247	0.170
-323.099	-20.810	-0.170	0.103
-322.085	62.191	0.175	0.173
-321.070	-13.958	0.113	0.072
-320.056	-92.825	0.106	0.030
-319.041	-76.209	-0.465	-0.163
-318.026	-120.893	0.172	-0.029
-317.012	800.000	0.071	0.243
-315.997	268.087	-0.083	-0.145
-314.983	-200.000	-0.014	-0.159
-313.968	26.809	-0.218	-0.181
-312.953	800.000	0.071	0.274
-311.939	38.107	-0.138	0.122
-310.924	800.000	0.045	0.136
-309.910	43.786	-0.029	-0.026
-308.895	-36.481	-0.183	-0.098
-307.880	-48.078	0.204	-0.098
-306.866	-22.500	-0.049	0.029
-305.851	179.942	0.087	-0.127
-304.837	99.609	0.107	0.122
-303.822	-159.476	-0.290	-0.016
-302.807	360.565	-0.110	-0.219
-301.793	1.497	-0.140	-0.100
-300.778	100.064	-0.072	-0.083
-299.764	677.617	-0.064	-0.166
-298.749	-200.000	-0.011	-0.091
-297.735	-58.027	-0.044	-0.019
-296.720	144.528	-0.112	-0.148
-295.705	156.348	-0.139	-0.190
-294.691	793.879	0.101	0.276
-293.676	-200.000	-0.026	0.171
-292.662	-200.000	-0.033	-0.155
-291.647	-84.188	-0.459	-0.144
-290.632	-200.000	0.064	0.336
-289.618	800.000	0.050	-0.145
-288.603	234.068	-0.233	0.380
-287.589	32.286	-0.408	0.349
-286.574	-36.066	0.345	0.185
-285.559	83.599	0.271	0.293
-284.545	-65.739	-0.143	0.057
-283.530	297.992	0.074	-0.134
-282.516	154.277	0.165	-0.225
-281.501	-85.715	-0.226	-0.069
-280.486	1.837	0.343	-0.245
-279.472	39.531	0.218	0.194
-278.457	481.222	-0.048	-0.107
-277.443	-145.981	-0.495	-0.043
-276.428	-41.824	0.274	-0.140
-275.413	-70.166	-0.299	0.113
-274.399	291.625	0.154	0.278
-273.384	-166.015	0.449	0.019
-272.370	-91.187	-0.375	0.107
-271.355	111.288	0.164	-0.196
-270.340	-137.717	0.257	0.029
-269.326	-104.897	0.100	0.023
-268.311	9.792	-0.123	-0.093
-267.297	-200.000	-0.011	-0.064
-266.282	-61.727	-0.214	-0.089
-265.267	61.545	0.157	-0.155
-264.253	-73.928	-0.216	0.078
-263.238	575.511	-0.026	0.064
-262.224	-38.511	0.330	0.173
-261.209	-68.372	0.163	0.063
-260.195	-172.660	0.175	0.005
-259.180	-119.195	0.077	0.013
-258.165	94.380	0.248	-0.279
-257.151	154.899	-0.025	0.034
-256.136	-200.000	0.038	0.185
-255.122	-17.725	0.066	0.041
-254.107	450.306	0.052	0.113
-253.092	-200.000	-0.056	0.295
-252.078	216.035	0.039	0.061
-251.063	-3.515	-0.263	0.181
-250.049	-118.455	0.378	0.066
-249.034	70.113	0.255	0.260
-248.019	44.645	-0.326	0.297
-247.005	-157.216	-0.092	0.006
-245.990	68.505	0.135	0.137
-244.976	-200.000	-0.002	0.085
-243.961	-57.514	-0.189	-0.082
-242.946	-200.000	0.035	-0.236
-241.932	-89.862	0.151	-0.044
-240.917	-148.907	0.178	-0.014
-239.903	104.737	-0.139	-0.162
-238.888	57.495	0.135	-0.131
-237.873	195.836	-0.092	-0.138
-236.859	-69.337	0.229	0.087
-235.844	67.345	0.146	-0.148
-234.830	98.433	-0.171	-0.195
-233.815	-200.000	0.047	0.431
-232.800	800.000	-0.062	-0.252
-231.786	-37.624	0.437	0.230
-230.771	-143.447	-0.229	0.022
-229.757	-55.042	-0.104	-0.046
-228.742	472.762	0.063	-0.140
-227.727	217.108	-0.162	-0.255
-226.713	386.305	0.051	-0.104
-225.698	24.101	-0.059	-0.048
-224.684	19.480	0.008	0.006
-223.669	103.756	0.267	0.310
-222.655	-108.829	-0.298	-0.063
-221.640	-164.879	-0.032	0.001
-220.625	800.000	-0.028	0.097
-219.611	-112.756	0.189	0.037
-218.596	85.214	0.192	0.208
-217.582	79.520	-0.101	0.107
-216.567	491.777	0.085	-0.194
-215.552	-200.000	-0.012	0.214
-214.538	800.000	-0.123	0.406
-213.523	749.883	-0.037	-0.097
-212.509	-73.891	0.275	0.099
-211.494	-47.475	-0.259	0.124
-210.479	-39.545	0.196	0.102
-209.465	-200.000	0.000	-0.115
-208.450	-200.000	-0.059	0.322
-207.436	-44.193	0.280	0.139
-206.421	-35.623	0.225	-0.121
-205.406	245.184	-0.127	-0.210
-204.392	-154.895	0.380	0.025
-203.377	102.711	-0.299	-0.346
-202.363	193.925	-0.049	0.074
-201.348	-19.458	-0.090	-0.055
-200.333	-39.469	-0.233	0.121
-199.319	493.410	-0.119	0.271
-198.304	107.855	0.147	-0.173
-197.290	-91.887	0.217	-0.061
-196.275	-200.000	-0.025	-0.163
-195.260	-33.361	-0.230	0.125
-194.246	-105.221	0.089	0.020
-193.231	33.694	-0.045	-0.039
-192.217	27.998	-0.201	0.167
-191.202	-200.000	-0.004	-0.215
-190.187	60.372	0.313	-0.306
-189.173	-77.177	-0.240	-0.083
-188.158	-200.000	0.035	0.235
-187.144	-200.000	0.013	0.287
-186.129	-131.943	0.128	0.016
-185.114	56.232	0.089	-0.086
-184.100	-77.666	-0.245	-0.084
-183.085	-20.533	-0.206	-0.125
-182.071	-63.593	0.231	-0.093
-181.056	133.969	-0.191	-0.244
-180.042	3.761	0.169	0.122
-179.027	-8.856	0.161	0.107
-178.012	106.195	-0.131	0.153
-176.998	80.712	-0.093	0.099
-175.983	-103.600	-0.218	0.051
-174.969	-54.845	0.105	-0.047
-173.954	800.000	0.056	0.173
-172.939	-200.000	0.029	-0.187
-171.925	12.662	0.147	0.112
-170.910	69.880	-0.046	0.046
-169.896	-74.175	-0.257	-0.092
-168.881	800.000	0.049	-0.144
-167.866	-63.721	0.278	0.112
-166.852	800.000	-0.123	-0.452
-165.837	-200.000	-0.009	0.124
-164.823	-102.294	0.307	0.073
-163.808	-186.633	-0.360	-0.005
-162.793	-68.314	0.186	0.071
-161.779	259.157	0.043	-0.073
-160.764	-35.654	0.165	-0.088
-159.750	-179.606	0.063	0.001
-158.735	-3.946	0.167	-0.114
-157.720	-66.677	0.343	0.134
-156.706	260.239	-0.147	0.250
-155.691	-97.808	0.157	-0.040
-154.677	41.613	-0.164	-0.146
-153.662	800.000	-0.053	-0.148
-152.647	73.285	0.030	-0.031
-151.633	-200.000	-0.019	0.090
-150.618	800.000	-0.042	0.124
-149.604	-60.146	-0.047	0.020
-148.589	88.810	0.238	-0.261
-147.574	-69.071	-0.065	-0.025
-146.560	106.801	0.055	0.064
-145.545	-200.000	-0.022	-0.434
-144.531	-200.000	-0.034	0.157
-143.516	156.268	-0.029	0.040
-142.502	-59.001	-0.215	-0.092
-141.487	-96.220	0.166	-0.043
-140.472	-129.419	-0.097	0.013
-139.458	68.167	-0.052	0.053
-138.443	47.879	0.091	-0.084
-137.429	-91.941	-0.360	-0.101
-136.414	260.967	0.078	0.133
-135.399	-200.000	-0.034	-0.313
-134.385	652.440	-0.036	0.090
-133.370	-78.588	0.387	0.131
-132.356	-62.838	-0.301	0.123
-131.341	-30.650	-0.379	0.212
-130.326	-29.179	0.221	0.125
-129.312	-71.773	0.134	-0.049
-128.297	81.202	-0.087	0.092
-127.283	-88.239	0.149	0.044
-126.268	11.947	0.135	0.102
-125.253	270.374	0.211	0.366
-124.239	-62.644	-0.061	0.025
-123.224	38.296	-0.028	-0.024
-122.210	760.536	0.034	-0.092
-121.195	227.485	0.134	-0.215
