DTS Sentinel unit serial number:	SN413079Multiplexer serial number:	ORYXHardware model number:	OX4-SRSoftware version number:	ORYX F/W v4.00 Oryx Data Collector v3.7.2.0data status	okinstallation	princeton_trtdifferential loss correction	single-endedforward channel	channel 1reverse channel	N/Adate	2019/09/14time	15:58:35forward acquisition time	60.00reverse acquisition time	0.00gamma	496.2192k internal	0.2294k external	0.2294temperature offset calibration	1.0071default loss term (dB/km)	0.3790temperature slope calibration	1.0000multiplexer offset coefficient	1.0000multiplexer slope coefficient	1.0000fibre end	0.00T internal ref (°C)	38.58T ext. ref 1 (°C)	5.11T ext. ref 2 (°C)	32.94length (m)	temperature (°C)	Stokes	anti-Stokes-747.200	-90.168	0.183	0.055
-746.185	123.000	0.169	0.217
-745.171	-7.619	-0.275	-0.190
-744.156	-200.000	0.371	-0.001
-743.142	256.394	0.241	-0.424
-742.127	-81.460	0.228	0.077
-741.112	-200.000	0.019	-0.098
-740.098	-57.527	0.056	0.025
-739.083	318.616	-0.102	-0.197
-738.069	-123.373	0.152	0.025
-737.054	-169.323	0.049	0.002
-736.039	-140.198	-0.103	0.011
-735.025	59.002	0.209	-0.211
-734.010	800.000	-0.020	-0.087
-732.996	-68.605	0.238	-0.094
-731.981	-200.000	-0.002	-0.318
-730.966	-37.222	-0.250	-0.137
-729.952	-200.000	0.019	0.289
-728.937	-87.326	-0.405	-0.126
-727.923	800.000	-0.029	-0.113
-726.908	-59.270	-0.090	-0.040
-725.894	691.843	-0.087	0.232
-724.879	-72.078	-0.182	0.069
-723.864	-41.551	-0.320	0.168
-722.850	-7.016	0.131	0.091
-721.835	763.541	-0.097	0.270
-720.821	-200.000	0.021	0.164
-719.806	-200.000	0.029	-0.305
-718.791	89.546	-0.271	0.309
-717.777	800.000	-0.026	-0.074
-716.762	248.941	0.194	-0.336
-715.748	-119.408	0.194	-0.034
-714.733	-8.637	-0.032	0.022
-713.718	-9.803	0.311	-0.211
-712.704	-200.000	-0.024	0.174
-711.689	800.000	0.059	-0.233
-710.675	-69.591	-0.116	-0.045
-709.660	654.176	-0.097	-0.253
-708.645	57.815	-0.218	-0.218
-707.631	1.425	-0.102	0.075
-706.616	-170.181	-0.553	-0.020
-705.602	-200.000	0.030	-0.251
-704.587	84.347	-0.123	-0.137
-703.572	-63.734	-0.173	0.072
-702.558	20.473	0.055	-0.045
-701.543	19.125	-0.331	0.271
-700.529	-79.077	0.306	0.106
-699.514	-200.000	-0.002	0.208
-698.499	506.981	-0.134	-0.317
-697.485	-137.281	0.118	0.014
-696.470	-120.779	0.262	-0.045
-695.456	-116.697	0.093	-0.017
-694.441	-134.051	0.166	0.021
-693.426	-15.959	0.272	-0.176
-692.412	-86.899	0.211	-0.066
-691.397	-32.973	-0.118	0.067
-690.383	674.281	-0.023	-0.062
-689.368	-43.559	-0.108	-0.056
-688.354	-11.181	-0.139	-0.093
-687.339	-75.816	0.290	-0.105
-686.324	46.721	-0.160	-0.151
-685.310	358.703	0.132	-0.269
-684.295	-16.840	0.087	-0.056
-683.281	101.978	-0.210	-0.250
-682.266	-60.379	-0.137	-0.059
-681.251	-138.771	-0.097	-0.011
-680.237	360.593	-0.117	-0.239
-679.222	-126.029	-0.582	-0.089
-678.208	521.037	-0.024	0.056
-677.193	-97.351	-0.230	-0.061
-676.178	12.224	0.027	-0.021
-675.164	-32.666	-0.310	-0.176
-674.149	196.158	-0.034	0.053
-673.135	-71.878	0.335	0.127
-672.120	381.893	0.086	0.180
-671.105	-200.000	0.003	0.031
-670.091	118.457	-0.131	0.165
-669.076	800.000	0.142	-0.606
-668.062	800.000	0.055	-0.220
-667.047	-100.613	-0.427	-0.108
-666.032	527.826	0.170	-0.410
-665.018	110.147	-0.297	-0.363
-664.003	-200.000	-0.033	-0.311
-662.989	644.252	0.030	-0.078
-661.974	33.949	0.081	-0.072
-660.959	341.742	-0.012	-0.023
-659.945	-169.144	-0.426	0.016
-658.930	-65.773	-0.314	0.128
-657.916	529.694	0.159	0.382
-656.901	320.434	-0.079	-0.154
-655.886	16.500	0.328	0.264
-654.872	30.714	-0.135	-0.117
-653.857	-64.663	0.126	0.052
-652.843	69.656	-0.139	0.146
-651.828	2.462	-0.114	0.084
-650.814	-175.395	-0.369	0.010
-649.799	-129.045	-0.232	-0.033
-648.784	117.445	0.033	-0.041
-647.770	237.391	-0.271	0.457
-646.755	800.000	0.051	-0.212
-645.741	-73.557	-0.152	0.057
-644.726	336.021	-0.086	0.171
-643.711	52.180	-0.064	0.062
-642.697	397.074	-0.100	0.212
-641.682	-105.759	-0.274	-0.063
-640.668	36.521	0.206	-0.185
-639.653	-76.517	-0.234	0.084
-638.638	422.199	-0.229	0.500
-637.624	-76.262	-0.369	0.132
-636.609	-13.026	-0.146	0.096
-635.595	175.010	0.187	-0.276
-634.580	426.192	0.118	-0.258
-633.565	336.891	-0.103	-0.205
-632.551	-200.000	-0.043	0.209
-631.536	-192.081	-0.250	-0.002
-630.522	-200.000	-0.048	-0.223
-629.507	-40.718	-0.419	0.221
-628.492	5.586	0.124	-0.093
-627.478	173.406	0.113	-0.166
-626.463	-79.375	0.273	-0.094
-625.449	800.000	-0.082	-0.248
-624.434	-157.574	-0.316	-0.019
-623.419	223.799	0.108	-0.178
-622.405	376.044	-0.094	-0.196
-621.390	13.280	-0.141	-0.112
-620.376	-192.108	-0.116	-0.001
-619.361	-60.768	0.172	0.074
-618.346	71.676	-0.163	-0.173
-617.332	-200.000	-0.073	-0.469
-616.317	32.225	-0.299	0.263
-615.303	424.479	0.152	-0.333
-614.288	64.484	-0.130	-0.133
-613.273	-121.319	-0.293	0.050
-612.259	495.161	-0.042	-0.097
-611.244	733.987	-0.028	-0.077
-610.230	-151.172	-0.414	-0.032
-609.215	697.287	-0.076	0.204
-608.201	-200.000	-0.033	-0.147
-607.186	353.341	0.062	-0.125
-606.171	-123.002	-0.313	0.051
-605.157	28.405	0.050	0.043
-604.142	71.533	-0.251	0.265
-603.128	-200.000	-0.006	0.219
-602.113	624.335	0.069	0.177
-601.098	-50.280	-0.339	0.163
-600.084	-200.000	-0.004	-0.027
-599.069	-142.370	0.195	0.020
-598.055	476.619	-0.102	-0.234
-597.040	-157.250	-0.052	0.003
-596.025	-200.000	-0.085	-0.423
-595.011	-27.994	0.265	-0.156
-593.996	-200.000	-0.018	0.195
-592.982	327.197	-0.152	0.297
-591.967	-0.973	0.234	-0.168
-590.952	205.582	0.123	-0.195
-589.938	-133.805	-0.363	-0.046
-588.923	-166.100	-0.290	-0.013
-587.909	25.226	0.287	0.242
-586.894	106.565	0.089	0.108
-585.879	-103.656	0.117	-0.028
-584.865	437.314	-0.190	-0.421
-583.850	-144.393	-0.111	0.010
-582.836	800.000	-0.012	0.046
-581.821	101.311	-0.063	0.075
-580.806	-93.129	-0.391	0.111
-579.792	-65.565	0.066	0.027
-578.777	653.546	0.115	-0.301
-577.763	-200.000	0.000	0.056
-576.748	-134.535	-0.267	0.033
-575.733	193.393	0.086	-0.132
-574.719	-168.082	-0.133	0.005
-573.704	800.000	0.103	0.290
-572.690	-48.240	-0.245	0.120
-571.675	95.783	-0.238	0.276
-570.661	106.900	-0.214	0.258
-569.646	-200.000	-0.015	0.177
-568.631	-133.649	0.196	-0.025
-567.617	800.000	0.171	-0.602
-566.602	-200.000	0.011	0.131
-565.588	-88.448	-0.184	-0.056
-564.573	83.000	-0.082	0.090
-563.558	-5.495	0.303	0.211
-562.544	-200.000	-0.022	-0.118
-561.529	455.779	-0.081	-0.182
-560.515	160.643	-0.073	0.104
-559.500	800.000	-0.086	-0.248
-558.485	-88.735	0.126	-0.038
-557.471	-56.140	-0.415	0.188
-556.456	800.000	0.047	-0.190
-555.442	-149.476	-0.258	-0.021
-554.427	-87.636	0.133	-0.041
-553.412	800.000	-0.053	-0.155
-552.398	-84.029	0.153	-0.049
-551.383	367.758	0.073	0.150
-550.369	-19.477	-0.208	0.131
-549.354	60.100	-0.199	-0.200
-548.339	-200.000	-0.024	0.239
-547.325	800.000	-0.073	0.217
-546.310	92.762	-0.173	0.198
-545.296	-200.000	0.041	-0.226
-544.281	-140.126	-0.101	-0.011
-543.266	-200.000	0.014	0.068
-542.252	-177.913	0.388	-0.009
-541.237	39.194	-0.161	0.146
-540.223	42.285	0.164	-0.151
-539.208	-200.000	0.004	-0.459
-538.193	-200.000	0.020	-0.568
-537.179	-20.691	0.170	-0.106
-536.164	73.866	0.167	0.178
-535.150	-31.216	-0.013	-0.008
-534.135	239.748	-0.093	-0.157
-533.121	475.098	0.093	0.212
-532.106	-7.643	-0.109	-0.075
-531.091	-101.477	0.277	0.068
-530.077	-16.203	-0.109	0.070
-529.062	373.007	0.102	-0.209
-528.048	19.278	-0.125	0.102
-527.033	6.454	-0.117	-0.088
-526.018	99.487	-0.082	0.096
-525.004	487.933	-0.120	-0.278
-523.989	-110.123	0.279	0.059
-522.975	84.517	0.277	0.308
-521.960	-146.677	0.376	-0.033
-520.945	-200.000	0.074	-0.370
-519.931	-122.390	-0.220	-0.036
-518.916	317.923	-0.014	-0.026
-517.902	112.393	0.203	-0.249
-516.887	84.178	-0.054	0.059
-515.872	-200.000	0.001	-0.004
-514.858	479.557	-0.169	-0.388
-513.843	-38.641	0.296	-0.159
-512.829	60.291	0.182	0.183
-511.814	-99.304	-0.183	-0.047
-510.799	32.559	-0.117	-0.103
-509.785	800.000	-0.044	0.133
-508.770	221.441	-0.092	-0.149
-507.756	378.928	-0.133	-0.277
-506.741	-148.791	-0.260	-0.021
-505.726	-34.999	-0.020	-0.011
-504.712	7.750	-0.239	0.182
-503.697	-45.569	0.051	0.026
-502.683	45.741	0.089	0.083
-501.668	-200.000	0.010	0.314
-500.653	-139.909	0.224	-0.024
-499.639	304.960	0.059	0.111
-498.624	-128.451	0.180	-0.026
-497.610	73.551	0.107	-0.113
-496.595	-200.000	0.006	-0.199
-495.581	151.294	0.134	0.185
-494.566	472.664	-0.036	0.082
-493.551	-72.665	-0.114	0.043
-492.537	-39.583	0.135	-0.072
-491.522	-50.607	0.259	0.124
-490.508	-200.000	0.027	-0.179
-489.493	-102.829	0.210	0.051
-488.478	-74.829	-0.106	0.039
-487.464	94.179	-0.218	0.250
-486.449	800.000	-0.044	0.142
-485.435	-200.000	-0.023	0.134
-484.420	800.000	-0.056	-0.177
-483.405	-200.000	-0.014	0.180
-482.391	-200.000	0.015	-0.146
-481.376	287.510	0.069	-0.127
-480.362	470.866	-0.126	-0.287
-479.347	-86.136	0.146	-0.046
-478.332	-48.532	-0.123	0.060
-477.318	-4.578	0.141	-0.099
-476.303	431.598	-0.139	0.304
-475.289	39.395	-0.078	0.071
-474.274	10.897	0.285	-0.220
-473.259	149.144	-0.162	-0.222
-472.245	-151.034	-0.061	0.005
-471.230	-200.000	0.021	0.194
-470.216	-200.000	0.021	0.454
-469.201	-200.000	0.049	0.252
-468.186	800.000	0.037	-0.158
-467.172	-125.486	0.244	0.037
-466.157	-200.000	-0.009	-0.323
-465.143	165.211	-0.242	-0.345
-464.128	-66.939	-0.109	-0.043
-463.113	800.000	-0.106	-0.332
-462.099	800.000	0.055	0.185
-461.084	347.007	-0.104	0.207
-460.070	-200.000	0.016	-0.211
-459.055	46.525	0.205	-0.193
-458.040	-168.807	-0.131	-0.005
-457.026	-79.775	0.221	0.075
-456.011	679.461	0.062	0.162
-454.997	-34.737	-0.096	0.053
-453.982	465.723	0.216	0.490
-452.968	-79.943	0.266	0.090
-451.953	-76.700	-0.206	-0.073
-450.938	-200.000	0.061	-0.336
-449.924	633.219	0.055	0.141
-448.909	75.671	0.181	-0.193
-447.895	-148.845	0.119	0.010
-446.880	161.634	-0.114	-0.161
-445.865	800.000	-0.044	-0.174
-444.851	-0.610	-0.043	-0.031
-443.836	-89.114	-0.228	-0.068
-442.822	-51.443	-0.259	-0.122
-441.807	800.000	0.069	-0.221
-440.792	-200.000	-0.007	-0.190
-439.778	-64.641	-0.073	-0.030
-438.763	-200.000	0.011	0.261
-437.749	222.422	0.028	-0.046
-436.734	247.277	-0.128	-0.218
-435.719	5.771	0.099	-0.074
-434.705	-68.337	0.231	-0.090
-433.690	379.241	0.083	0.173
-432.676	-98.097	-0.078	0.020
-431.661	-200.000	-0.004	0.106
-430.646	122.479	0.157	0.199
-429.632	-200.000	0.009	-0.264
-428.617	38.690	0.219	-0.197
-427.603	-41.797	0.124	0.064
-426.588	800.000	-0.051	-0.174
-425.573	-200.000	0.041	-0.211
-424.559	3.590	-0.118	0.087
-423.544	143.546	0.226	-0.303
-422.530	-56.012	0.182	0.082
-421.515	-100.364	0.109	0.027
-420.500	-116.157	0.363	-0.068
-419.486	-97.299	-0.253	-0.067
-418.471	-63.434	-0.247	0.102
-417.457	324.402	0.071	0.137
-416.442	-47.222	-0.311	-0.153
-415.428	-200.000	0.007	-0.203
-414.413	800.000	-0.041	-0.123
-413.398	404.555	-0.176	-0.375
-412.384	-45.916	0.301	-0.150
-411.369	-45.331	-0.241	-0.121
-410.355	-72.718	0.238	0.089
-409.340	97.250	0.115	0.134
-408.325	77.908	-0.222	-0.239
-407.311	177.911	-0.076	0.112
-406.296	93.981	-0.017	-0.019
-405.282	-200.000	-0.003	0.087
-404.267	800.000	0.012	0.038
-403.252	204.196	-0.055	0.086
-402.238	800.000	-0.071	0.307
-401.223	251.917	0.136	0.234
-400.209	800.000	0.066	-0.264
-399.194	-28.823	0.234	-0.136
-398.179	-35.168	0.165	-0.091
-397.165	800.000	-0.138	0.424
-396.150	-152.989	0.364	0.026
-395.136	-1.148	0.118	0.084
-394.121	-81.967	-0.171	0.056
-393.106	-115.813	-0.229	0.043
-392.092	-76.657	0.072	0.025
-391.077	800.000	-0.072	0.254
-390.063	-144.692	0.202	-0.019
-389.048	-17.064	0.214	-0.136
-388.033	-77.390	-0.332	-0.116
-387.019	170.052	-0.199	-0.287
-386.004	-200.000	0.029	0.201
-384.990	37.769	0.359	-0.321
-383.975	318.727	-0.070	0.134
-382.960	89.989	-0.136	0.153
-381.946	-200.000	0.062	0.401
-380.931	-57.517	-0.239	0.106
-379.917	170.038	-0.098	-0.141
-378.902	800.000	0.094	0.392
-377.888	-176.149	0.272	-0.007
-376.873	-117.073	-0.336	0.062
-375.858	-61.541	0.158	0.067
-374.844	-183.224	-0.273	-0.005
-373.829	89.437	0.148	0.167
-372.815	-111.137	0.315	0.065
-371.800	-16.082	-0.113	-0.073
-370.785	-33.190	-0.065	-0.036
-369.771	-35.171	-0.215	0.118
-368.756	140.688	-0.256	0.341
-367.742	31.379	-0.024	-0.021
-366.727	99.840	-0.054	0.063
-365.712	-89.905	-0.198	-0.058
-364.698	-200.000	0.004	-0.278
-363.683	241.054	0.281	-0.473
-362.669	-4.364	0.229	-0.160
-361.654	78.839	-0.218	0.235
-360.639	-126.668	0.217	-0.032
-359.625	25.601	0.116	-0.097
-358.610	-200.000	-0.027	-0.227
-357.596	-43.076	0.366	-0.187
-356.581	-200.000	-0.010	-0.061
-355.566	800.000	0.075	0.247
-354.552	-200.000	0.006	-0.150
-353.537	-200.000	-0.062	0.328
-352.523	6.262	-0.282	0.211
-351.508	-104.754	0.150	-0.035
-350.493	-6.546	0.180	-0.124
-349.479	-200.000	-0.002	0.223
-348.464	-158.807	0.218	-0.013
-347.450	-200.000	-0.005	0.026
-346.435	318.098	-0.058	0.110
-345.420	-26.454	0.082	0.049
-344.406	-30.232	-0.085	-0.049
-343.391	-77.655	-0.414	0.144
-342.377	306.183	-0.051	0.096
-341.362	198.883	-0.066	-0.102
-340.348	-5.861	-0.040	0.027
-339.333	59.132	0.163	-0.161
-338.318	-200.000	0.017	0.253
-337.304	48.744	-0.086	-0.081
-336.289	-85.820	0.217	0.068
-335.275	-100.299	0.172	0.043
-334.260	-79.403	0.124	0.042
-333.245	-73.932	0.176	0.064
-332.231	138.055	0.115	-0.152
-331.216	555.666	-0.057	0.137
-330.202	-52.552	0.261	0.121
-329.187	-63.531	-0.246	-0.102
-328.172	-14.635	-0.077	0.049
-327.158	83.369	0.277	-0.303
-326.143	-200.000	0.009	0.257
-325.129	0.832	-0.387	-0.279
-324.114	331.462	-0.102	-0.198
-323.099	-79.734	-0.231	-0.078
-322.085	105.768	-0.343	0.408
-321.070	193.468	0.146	0.222
-320.056	438.253	-0.016	-0.036
-319.041	-134.899	0.107	0.013
-318.026	14.635	-0.079	-0.062
-317.012	-52.315	0.429	0.200
-315.997	126.457	0.115	0.147
-314.983	-200.000	0.023	0.148
-313.968	-62.325	-0.066	0.028
-312.953	-123.261	0.201	-0.032
-311.939	-56.642	-0.145	0.064
-310.924	-200.000	-0.034	-0.188
-309.910	-200.000	0.010	-0.099
-308.895	-76.743	0.392	0.138
-307.880	-45.802	0.088	-0.044
-306.866	-200.000	-0.032	0.160
-305.851	-194.697	-0.214	0.002
-304.837	-38.723	-0.105	0.056
-303.822	-200.000	-0.007	-0.130
-302.807	-18.796	0.104	0.065
-301.793	300.564	-0.080	0.149
-300.778	-83.733	0.259	-0.083
-299.764	36.814	-0.264	-0.234
-298.749	-82.167	0.227	-0.074
-297.735	-133.137	-0.187	0.024
-296.720	-19.024	-0.480	0.300
-295.705	119.788	0.088	0.109
-294.691	800.000	-0.045	0.153
-293.676	-167.446	0.175	0.007
-292.662	-33.267	0.118	0.065
-291.647	-17.606	-0.044	-0.028
-290.632	220.573	0.108	0.174
-289.618	-38.137	0.160	-0.085
-288.603	-156.671	-0.231	-0.014
-287.589	-200.000	-0.036	0.205
-286.574	-200.000	0.019	-0.130
-285.559	78.702	0.182	0.196
-284.545	-62.903	-0.118	-0.049
-283.530	100.479	0.084	0.098
-282.516	22.366	0.197	-0.162
-281.501	36.636	0.182	-0.161
-280.486	159.591	-0.138	-0.193
-279.472	-200.000	-0.008	-0.080
-278.457	16.101	0.171	-0.135
-277.443	-104.188	0.164	-0.038
-276.428	-79.079	0.207	0.071
-275.413	-200.000	0.014	0.161
-274.399	-35.806	0.128	-0.069
-273.384	-200.000	0.005	0.356
-272.370	15.785	0.184	0.145
-271.355	-40.936	-0.299	-0.155
-270.340	-160.821	0.069	-0.004
-269.326	283.243	-0.112	-0.201
-268.311	800.000	-0.025	-0.091
-267.297	-177.024	0.155	0.004
-266.282	-44.309	-0.076	0.038
-265.267	-124.742	0.313	-0.049
-264.253	-75.049	-0.162	0.058
-263.238	-113.391	0.087	-0.017
-262.224	800.000	0.116	0.404
-261.209	-19.373	0.200	-0.124
-260.195	290.446	0.047	0.086
-259.180	-200.000	0.004	0.103
-258.165	-28.685	0.388	0.224
-257.151	319.548	-0.232	0.442
-256.136	-102.158	0.116	0.028
-255.122	128.855	0.067	0.086
-254.107	419.831	-0.152	-0.327
-253.092	-93.693	-0.203	-0.056
-252.078	274.426	0.060	-0.106
-251.063	800.000	-0.178	-0.514
-250.049	255.826	0.023	0.040
-249.034	-83.935	-0.151	0.048
-248.019	-200.000	0.051	-0.272
-247.005	-151.298	0.283	-0.021
-245.990	705.512	0.082	0.218
-244.976	690.193	0.098	-0.258
-243.961	800.000	-0.024	0.095
-242.946	-200.000	0.007	-0.073
-241.932	-97.753	-0.090	-0.023
-240.917	-73.942	0.155	-0.056
-239.903	-7.522	0.071	-0.048
-238.888	-200.000	-0.019	-0.096
-237.873	249.022	0.136	-0.232
-236.859	-145.546	-0.265	0.024
-235.844	-40.642	0.241	0.125
-234.830	131.649	0.110	0.142
-233.815	244.180	-0.086	0.145
-232.800	800.000	0.078	0.289
-231.786	-200.000	0.064	-0.372
-230.771	228.618	-0.062	0.102
-229.757	93.478	-0.124	0.141
-228.742	-200.000	-0.046	-0.232
-227.727	261.935	-0.133	-0.232
-226.713	705.235	0.041	-0.110
-225.698	-200.000	0.000	0.273
-224.684	781.944	0.124	0.340
-223.669	16.078	-0.273	-0.215
-222.655	323.891	-0.187	0.357
-221.640	81.066	0.285	0.309
-220.625	38.425	0.163	0.146
-219.611	800.000	-0.041	-0.126
-218.596	500.175	-0.074	0.170
-217.582	61.574	0.106	0.106
-216.567	3.251	-0.018	-0.013
-215.552	-114.253	-0.274	0.053
-214.538	-139.669	0.270	-0.029
-213.523	16.744	-0.206	-0.163
-212.509	800.000	0.031	-0.131
-211.494	800.000	0.008	-0.027
-210.479	627.101	0.111	-0.280
-209.465	-59.754	0.052	-0.022
-208.450	-165.399	0.181	0.008
-207.436	40.573	-0.134	-0.121
-206.421	-200.000	0.001	0.123
-205.406	49.559	0.392	0.369
-204.392	181.178	0.132	0.194
-203.377	338.956	0.043	0.083
-202.363	800.000	0.048	0.178
-201.348	-200.000	-0.012	0.168
-200.333	-174.948	0.411	-0.012
-199.319	156.036	0.031	-0.043
-198.304	-200.000	0.109	-0.553
-197.290	83.363	0.035	-0.039
-196.275	82.741	0.030	0.033
-195.260	-126.960	-0.435	-0.064
-194.246	459.378	-0.052	-0.116
-193.231	-142.076	-0.202	-0.020
-192.217	62.571	0.142	0.142
-191.202	281.198	-0.077	0.138
-190.187	66.434	-0.165	0.168
-189.173	-49.907	-0.127	-0.060
-188.158	142.728	0.180	0.240
-187.144	800.000	0.060	0.183
-186.129	341.112	0.202	0.395
-185.114	-150.599	0.149	-0.011
-184.100	-200.000	0.000	0.092
-183.085	226.511	-0.178	-0.290
-182.071	104.972	-0.092	0.109
-181.056	153.482	-0.111	-0.152
-180.042	364.868	-0.127	-0.255
-179.027	192.828	0.077	0.116
-178.012	-115.830	0.089	-0.017
-176.998	29.295	0.173	0.147
-175.983	67.152	0.214	0.218
-174.969	69.795	-0.319	0.329
-173.954	-200.000	-0.003	0.042
-172.939	-133.885	0.230	-0.029
-171.925	18.559	0.129	-0.103
-170.910	53.100	-0.071	0.068
-169.896	132.916	-0.158	-0.204
-168.881	338.040	-0.083	0.161
-167.866	57.480	0.030	-0.029
-166.852	-200.000	-0.025	0.231
-165.837	-200.000	0.012	0.109
-164.823	19.996	-0.167	-0.135
-163.808	800.000	0.057	0.215
-162.793	-11.924	-0.285	0.187
-161.779	19.086	0.273	-0.219
-160.764	-80.273	0.193	0.065
-159.750	53.950	0.202	-0.194
-158.735	63.045	-0.091	-0.091
-157.720	-200.000	-0.011	0.054
-156.706	-200.000	0.053	-0.580
-155.691	-57.615	0.270	0.118
-154.677	345.818	0.051	0.100
-153.662	37.002	0.102	0.090
-152.647	800.000	0.025	0.105
-151.633	800.000	-0.025	0.087
-150.618	-200.000	0.003	0.388
-149.604	-50.816	0.215	0.101
-148.589	-57.093	0.246	-0.108
-147.574	97.750	-0.120	0.138
-146.560	-0.004	-0.141	-0.100
-145.545	-92.477	-0.140	-0.039
-144.531	-200.000	0.018	0.147
-143.516	575.661	-0.097	-0.236
-142.502	-200.000	0.044	0.523
-141.487	201.466	0.093	0.143
-140.472	-99.444	0.368	0.092
-139.458	103.445	0.117	-0.137
-138.443	81.455	0.160	-0.172
-137.429	243.142	0.217	-0.363
-136.414	-125.212	-0.471	-0.072
-135.399	-20.851	-0.321	0.196
-134.385	38.258	0.158	0.141
-133.370	298.608	-0.149	-0.274
-132.356	-3.072	-0.057	-0.040
-131.341	-200.000	0.001	-0.037
-130.326	69.435	0.095	0.097
-129.312	800.000	0.071	-0.212
-128.297	-89.984	-0.416	-0.121
-127.283	-78.170	0.188	-0.065
-126.268	-154.940	-0.193	-0.013
-125.253	-72.591	0.527	0.194
-124.239	-200.000	-0.015	0.141
-123.224	155.834	0.139	0.191
-122.210	189.980	-0.158	-0.237
-121.195	361.847	0.177	0.355
