DTS Sentinel unit serial number:	SN413079Multiplexer serial number:	ORYXHardware model number:	OX4-SRSoftware version number:	ORYX F/W v4.00 Oryx Data Collector v3.7.2.0data status	okinstallation	princeton_trtdifferential loss correction	single-endedforward channel	channel 1reverse channel	N/Adate	2019/09/16time	21:50:35forward acquisition time	60.00reverse acquisition time	0.00gamma	496.2192k internal	0.2325k external	0.2325temperature offset calibration	0.9956default loss term (dB/km)	0.3790temperature slope calibration	1.0000multiplexer offset coefficient	1.0000multiplexer slope coefficient	1.0000fibre end	0.00T internal ref (°C)	31.27T ext. ref 1 (°C)	0.06T ext. ref 2 (°C)	25.57length (m)	temperature (°C)	Stokes	anti-Stokes-747.200	396.831	-0.186	-0.391
-746.185	190.402	-0.103	-0.156
-745.171	-200.000	-0.062	-0.286
-744.156	439.431	0.066	0.146
-743.142	-84.180	-0.178	0.057
-742.127	784.474	-0.062	0.170
-741.112	-200.000	-0.041	0.299
-740.098	145.269	0.117	0.159
-739.083	637.501	0.045	-0.116
-738.069	-80.374	0.179	-0.060
-737.054	800.000	0.041	-0.170
-736.039	-149.007	0.356	-0.029
-735.025	-47.040	0.272	0.134
-734.010	-178.988	-0.179	-0.004
-732.996	84.022	-0.237	-0.261
-731.981	800.000	-0.022	-0.093
-730.966	-51.114	-0.079	-0.037
-729.952	276.880	-0.234	-0.419
-728.937	-166.325	0.094	0.004
-727.923	-62.874	0.102	0.042
-726.908	-105.620	-0.403	0.092
-725.894	-200.000	-0.004	-0.358
-724.879	-200.000	0.006	0.057
-723.864	-76.484	-0.337	-0.119
-722.850	-200.000	0.024	-0.152
-721.835	-173.496	-0.364	-0.011
-720.821	289.568	0.084	0.154
-719.806	800.000	-0.067	0.212
-718.791	-200.000	-0.088	0.529
-717.777	-182.802	-0.127	0.002
-716.762	-106.094	0.154	0.035
-715.748	234.827	0.040	0.066
-714.733	-30.223	-0.130	0.074
-713.718	-29.588	-0.190	0.109
-712.704	-105.884	-0.182	0.041
-711.689	16.319	0.269	-0.214
-710.675	-99.301	0.117	0.030
-709.660	-0.102	-0.050	-0.036
-708.645	800.000	0.003	-0.010
-707.631	189.908	0.050	0.075
-706.616	-200.000	0.044	0.212
-705.602	87.454	0.062	-0.069
-704.587	-136.626	-0.090	0.011
-703.572	-133.604	0.165	-0.021
-702.558	-113.805	-0.147	0.029
-701.543	-200.000	0.021	0.165
-700.529	32.544	0.257	-0.224
-699.514	513.690	-0.085	-0.200
-698.499	800.000	-0.040	0.126
-697.485	-54.212	-0.221	0.101
-696.470	-200.000	0.026	-0.199
-695.456	-112.166	-0.130	0.026
-694.441	24.528	-0.227	0.189
-693.426	-42.729	-0.222	-0.113
-692.412	-134.766	0.339	-0.041
-691.397	-200.000	-0.057	0.327
-690.383	-76.478	-0.068	-0.024
-689.368	-44.297	0.223	0.112
-688.354	721.691	-0.025	-0.067
-687.339	-65.598	-0.249	0.101
-686.324	800.000	-0.099	-0.377
-685.310	-43.579	0.211	-0.107
-684.295	358.688	0.108	-0.218
-683.281	1.619	0.064	-0.046
-682.266	-111.326	0.383	-0.079
-681.251	95.245	-0.075	0.086
-680.237	507.402	-0.130	0.303
-679.222	213.528	0.120	0.191
-678.208	-61.240	-0.093	-0.039
-677.193	-144.054	0.268	-0.025
-676.178	241.529	0.108	-0.181
-675.164	188.821	-0.196	0.295
-674.149	-122.514	-0.110	0.018
-673.135	-114.848	-0.154	-0.030
-672.120	-4.767	0.069	0.048
-671.105	-51.175	0.201	-0.095
-670.091	-28.242	-0.373	-0.217
-669.076	-74.687	-0.124	0.045
-668.062	531.665	0.001	-0.002
-667.047	-200.000	-0.011	0.147
-666.032	68.000	-0.294	-0.302
-665.018	39.197	-0.114	0.103
-664.003	577.523	0.118	-0.289
-662.989	-143.788	0.130	0.012
-661.974	133.139	0.139	0.181
-660.959	-105.577	0.110	0.025
-659.945	-145.691	-0.563	0.051
-658.930	23.170	-0.008	-0.006
-657.916	-75.137	0.127	-0.046
-656.901	17.147	0.112	0.089
-655.886	-200.000	0.038	-0.200
-654.872	-200.000	-0.064	0.414
-653.857	38.008	0.131	-0.117
-652.843	12.224	-0.268	-0.207
-651.828	98.409	0.217	0.252
-650.814	429.383	-0.094	-0.205
-649.799	800.000	-0.073	0.209
-648.784	274.381	-0.100	0.178
-647.770	-21.181	0.186	-0.114
-646.755	12.130	0.210	-0.162
-645.741	-85.155	-0.523	-0.164
-644.726	-155.980	-0.162	0.010
-643.711	-36.620	0.048	0.026
-642.697	800.000	0.075	0.210
-641.682	-200.000	0.112	-0.524
-640.668	-198.776	-0.412	-0.002
-639.653	-200.000	0.044	0.208
-638.638	37.664	0.111	-0.099
-637.624	128.864	0.210	0.269
-636.609	-86.099	0.202	0.063
-635.595	-105.097	0.366	-0.084
-634.580	112.773	-0.309	-0.375
-633.565	-141.009	0.160	0.016
-632.551	-26.990	0.167	-0.098
-631.536	-200.000	-0.085	0.391
-630.522	320.230	0.140	-0.266
-629.507	800.000	-0.023	0.065
-628.492	-43.204	0.119	0.060
-627.478	-84.303	-0.351	0.112
-626.463	800.000	0.043	-0.122
-625.449	-200.000	0.029	-0.166
-624.434	-200.000	0.029	-0.206
-623.419	114.692	-0.106	-0.130
-622.405	-151.125	-0.493	-0.037
-621.390	14.863	-0.407	0.320
-620.376	800.000	0.103	-0.377
-619.361	-111.846	-0.078	-0.016
-618.346	134.559	-0.065	-0.084
-617.332	-90.857	-0.340	-0.098
-616.317	119.008	-0.093	-0.116
-615.303	-63.071	-0.289	0.120
-614.288	221.583	0.110	-0.177
-613.273	45.030	0.073	0.067
-612.259	142.403	-0.121	0.161
-611.244	800.000	-0.058	0.216
-610.230	789.011	0.061	-0.169
-609.215	-73.185	0.285	-0.105
-608.201	90.172	-0.114	0.128
-607.186	800.000	0.058	0.231
-606.171	-96.959	-0.117	-0.031
-605.157	275.024	0.154	0.274
-604.142	800.000	0.114	-0.329
-603.128	177.577	-0.259	-0.378
-602.113	800.000	-0.010	0.035
-601.098	579.137	0.012	-0.030
-600.084	324.676	0.111	0.213
-599.069	301.284	-0.058	-0.108
-598.055	163.985	-0.272	0.384
-597.040	252.755	-0.146	-0.249
-596.025	800.000	-0.090	-0.264
-595.011	31.251	0.049	0.042
-593.996	47.762	0.167	0.157
-592.982	-153.675	0.435	-0.030
-591.967	-23.144	0.247	-0.149
-590.952	67.641	-0.138	-0.141
-589.938	-200.000	-0.009	-0.046
-588.923	-45.271	0.037	0.019
-587.909	-12.489	-0.120	-0.079
-586.894	54.753	0.067	0.065
-585.879	800.000	-0.059	-0.179
-584.865	-108.804	0.142	-0.030
-583.850	800.000	-0.054	-0.193
-582.836	-123.354	-0.160	-0.026
-581.821	71.819	0.294	-0.306
-580.806	-200.000	0.043	-0.356
-579.792	19.933	0.169	-0.137
-578.777	-88.113	0.161	0.048
-577.763	-110.602	-0.274	-0.057
-576.748	-103.457	-0.369	0.087
-575.733	-200.000	-0.051	0.393
-574.719	-200.000	0.054	0.467
-573.704	-200.000	0.034	0.165
-572.690	-57.528	-0.520	0.229
-571.675	-78.092	-0.174	0.060
-570.661	20.573	-0.482	-0.391
-569.646	-81.689	0.173	0.057
-568.631	231.074	-0.067	-0.110
-567.617	-100.534	-0.297	-0.074
-566.602	179.120	-0.039	-0.056
-565.588	619.464	0.066	-0.166
-564.573	-200.000	0.017	-0.093
-563.558	-68.326	-0.300	-0.117
-562.544	-95.481	-0.186	-0.050
-561.529	313.169	0.071	-0.135
-560.515	234.746	0.083	-0.137
-559.500	-65.476	-0.226	0.091
-558.485	800.000	0.084	0.286
-557.471	-200.000	-0.015	0.138
-556.456	-164.903	-0.216	-0.010
-555.442	-14.212	0.081	-0.052
-554.427	800.000	0.084	-0.280
-553.412	-96.275	-0.152	-0.040
-552.398	-150.161	0.088	0.007
-551.383	-200.000	0.067	0.491
-550.369	-62.417	0.037	0.016
-549.354	-139.215	0.393	0.042
-548.339	254.660	-0.048	-0.082
-547.325	68.952	-0.139	-0.143
-546.310	-200.000	0.066	-0.427
-545.296	249.643	0.078	-0.133
-544.281	-151.880	0.231	-0.017
-543.266	-37.306	-0.094	-0.050
-542.252	60.871	0.028	-0.028
-541.237	5.715	0.357	-0.264
-540.223	151.777	0.085	0.116
-539.208	357.783	-0.159	0.317
-538.193	800.000	0.042	-0.126
-537.179	-180.978	0.350	0.007
-536.164	-54.579	-0.312	-0.141
-535.150	-75.572	0.276	0.098
-534.135	721.909	0.052	-0.139
-533.121	-6.618	0.130	-0.089
-532.106	-150.508	0.124	-0.010
-531.091	-200.000	-0.022	-0.181
-530.077	-200.000	-0.007	-0.042
-529.062	-91.974	0.353	-0.100
-528.048	-85.002	-0.194	0.061
-527.033	126.433	-0.139	-0.176
-526.018	-27.606	-0.195	-0.113
-525.004	-117.758	-0.203	-0.036
-523.989	167.049	0.169	0.241
-522.975	-46.152	0.181	0.089
-521.960	28.829	-0.206	0.175
-520.945	57.512	-0.157	0.153
-519.931	-200.000	-0.012	0.212
-518.916	-28.107	0.036	-0.021
-517.902	14.850	0.264	-0.207
-516.887	-66.094	0.281	-0.112
-515.872	-83.682	-0.046	0.015
-514.858	432.622	-0.147	-0.318
-513.843	113.586	-0.097	0.118
-512.829	52.549	0.197	-0.188
-511.814	56.229	-0.292	0.283
-510.799	800.000	-0.043	-0.155
-509.785	700.999	0.106	0.280
-508.770	91.896	-0.302	-0.340
-507.756	-44.045	-0.238	-0.120
-506.741	-200.000	-0.039	0.212
-505.726	800.000	-0.038	-0.131
-504.712	19.584	0.090	0.072
-503.697	347.449	-0.070	-0.137
-502.683	-99.067	0.402	0.102
-501.668	-200.000	0.000	-0.207
-500.653	-200.000	-0.076	-0.349
-499.639	-200.000	0.037	-0.326
-498.624	-102.009	-0.155	0.037
-497.610	146.343	-0.132	-0.177
-496.595	-200.000	-0.008	-0.380
-495.581	-108.503	0.267	-0.057
-494.566	387.670	-0.229	0.474
-493.551	401.633	-0.158	0.332
-492.537	30.837	-0.200	-0.171
-491.522	-51.485	-0.249	-0.116
-490.508	-54.042	0.187	-0.085
-489.493	-37.599	0.046	0.024
-488.478	85.084	0.261	0.286
-487.464	-200.000	0.035	-0.180
-486.449	-57.075	0.063	0.028
-485.435	451.237	0.037	0.082
-484.420	-200.000	-0.003	-0.117
-483.405	-200.000	0.012	0.081
-482.391	800.000	0.087	-0.249
-481.376	800.000	-0.151	-0.537
-480.362	-46.649	-0.227	-0.111
-479.347	337.372	-0.036	0.069
-478.332	196.736	-0.024	0.037
-477.318	-167.991	0.216	0.008
-476.303	-200.000	-0.039	-0.240
-475.289	286.452	-0.101	-0.182
-474.274	483.519	-0.017	0.039
-473.259	777.316	0.032	0.086
-472.245	-21.331	0.151	-0.092
-471.230	-154.486	-0.220	-0.015
-470.216	-155.099	-0.067	-0.004
-469.201	297.501	-0.037	0.067
-468.186	-57.764	0.290	0.127
-467.172	11.383	0.090	-0.069
-466.157	525.688	-0.166	0.390
-465.143	287.617	0.159	0.286
-464.128	-8.958	-0.116	-0.077
-463.113	-57.308	0.231	0.101
-462.099	-22.413	-0.144	0.087
-461.084	-200.000	0.019	0.108
-460.070	-131.212	-0.090	0.012
-459.055	169.963	-0.135	-0.192
-458.040	38.538	-0.241	-0.215
-457.026	30.866	0.161	0.138
-456.011	-200.000	0.057	0.302
-454.997	-97.144	0.171	0.045
-453.982	-87.265	-0.309	-0.094
-452.968	-200.000	-0.007	0.052
-451.953	75.418	0.119	0.125
-450.938	-172.345	-0.244	-0.008
-449.924	194.642	0.164	-0.249
-448.909	800.000	-0.053	-0.228
-447.895	-200.000	0.063	-0.352
-446.880	485.499	-0.047	0.108
-445.865	45.824	0.141	-0.130
-444.851	81.064	0.214	0.230
-443.836	-79.652	0.337	-0.113
-442.822	-144.477	-0.229	0.021
-441.807	35.838	-0.052	-0.046
-440.792	16.101	-0.238	-0.187
-439.778	-26.463	0.185	-0.108
-438.763	-87.650	0.352	0.106
-437.749	-166.683	-0.279	0.012
-436.734	-64.475	0.242	0.098
-435.719	233.808	0.143	0.234
-434.705	-16.837	-0.356	-0.224
-433.690	251.326	0.107	0.181
-432.676	-176.458	0.471	0.012
-431.661	23.361	-0.081	0.066
-430.646	-200.000	0.010	0.290
-429.632	-122.242	0.112	-0.018
-428.617	-135.996	-0.211	-0.025
-427.603	22.353	-0.129	-0.105
-426.588	-200.000	-0.009	-0.052
-425.573	717.639	0.134	-0.354
-424.559	338.246	-0.067	-0.131
-423.544	-175.725	0.263	0.007
-422.530	163.949	0.156	-0.219
-421.515	800.000	-0.126	-0.359
-420.500	-167.615	0.389	0.015
-419.486	-16.712	-0.060	-0.038
-418.471	-133.284	-0.096	-0.012
-417.457	295.810	0.102	-0.186
-416.442	800.000	-0.070	0.229
-415.428	-97.347	0.240	-0.062
-414.413	-125.488	-0.122	0.019
-413.398	-200.000	-0.001	-0.006
-412.384	-83.557	-0.291	-0.093
-411.369	10.053	-0.155	-0.117
-410.355	130.860	-0.209	0.267
-409.340	726.157	-0.035	-0.092
-408.325	383.728	-0.104	0.213
-407.311	-200.000	-0.020	0.243
-406.296	-128.349	-0.382	0.054
-405.282	-182.526	-0.134	-0.002
-404.267	-200.000	-0.002	0.200
-403.252	-54.076	-0.217	-0.098
-402.238	-200.000	0.008	-0.194
-401.223	800.000	0.048	0.191
-400.209	-145.819	0.075	0.007
-399.194	151.228	-0.063	0.085
-398.179	118.514	-0.090	0.111
-397.165	179.998	-0.194	-0.283
-396.150	6.312	-0.047	-0.035
-395.136	-55.463	-0.363	-0.162
-394.121	-36.164	-0.503	-0.270
-393.106	-28.053	-0.186	-0.107
-392.092	-107.778	-0.241	-0.052
-391.077	-200.000	0.014	0.338
-390.063	10.812	-0.092	0.070
-389.048	-200.000	0.019	0.178
-388.033	-200.000	-0.018	-0.445
-387.019	-7.687	-0.130	-0.087
-386.004	-66.631	0.171	0.067
-384.990	800.000	-0.038	0.144
-383.975	-149.278	-0.082	0.006
-382.960	-9.422	0.273	0.181
-381.946	800.000	0.021	0.085
-380.931	81.292	0.224	0.241
-379.917	74.419	-0.122	0.127
-378.902	-112.713	-0.345	-0.068
-377.888	209.775	-0.066	0.103
-376.873	-131.202	0.114	0.015
-375.858	800.000	0.086	-0.278
-374.844	44.634	-0.097	0.089
-373.829	466.077	-0.281	0.626
-372.815	-135.481	0.143	0.017
-371.800	476.366	0.114	-0.256
-370.785	-173.224	-0.144	0.004
-369.771	-117.401	0.107	0.019
-368.756	-47.138	-0.287	0.139
-367.742	-200.000	0.057	-0.320
-366.727	137.995	-0.056	-0.073
-365.712	-200.000	-0.004	0.134
-364.698	-12.030	-0.209	-0.136
-363.683	-75.514	0.235	0.083
-362.669	19.245	0.137	-0.110
-361.654	-157.827	0.202	-0.012
-360.639	-200.000	-0.021	-0.165
-359.625	-149.734	0.165	0.013
-358.610	-19.808	-0.127	0.078
-357.596	-79.796	-0.122	0.041
-356.581	-18.214	-0.356	-0.221
-355.566	-168.493	-0.265	0.010
-354.552	60.307	-0.115	0.113
-353.537	800.000	0.027	-0.104
-352.523	-200.000	-0.016	-0.296
-351.508	28.904	0.086	-0.072
-350.493	200.477	0.118	0.181
-349.479	232.274	0.143	-0.233
-348.464	800.000	-0.098	-0.272
-347.450	800.000	-0.119	-0.452
-346.435	84.293	-0.096	0.105
-345.420	-200.000	-0.004	-0.117
-344.406	-13.579	-0.200	-0.129
-343.391	170.722	0.054	0.077
-342.377	-116.442	-0.123	-0.022
-341.362	149.423	0.022	0.029
-340.348	-200.000	-0.002	0.054
-339.333	203.520	-0.135	0.207
-338.318	117.650	-0.178	0.218
-337.304	-56.817	-0.241	0.106
-336.289	-39.855	-0.213	0.111
-335.275	-174.137	0.245	0.007
-334.260	-98.198	0.317	0.081
-333.245	-57.222	0.198	-0.087
-332.231	-7.430	0.122	-0.082
-331.216	-200.000	-0.078	0.395
-330.202	102.531	0.191	0.222
-329.187	37.177	0.268	-0.236
-328.172	-76.402	-0.226	-0.079
-327.158	-6.049	0.239	-0.162
-326.143	-3.099	0.040	-0.027
-325.129	-98.587	-0.147	0.037
-324.114	-200.000	-0.009	-0.069
-323.099	-200.000	0.011	0.273
-322.085	-2.296	-0.304	-0.212
-321.070	173.024	-0.121	0.172
-320.056	282.579	0.173	0.307
-319.041	-200.000	0.031	0.306
-318.026	-194.845	-0.126	0.001
-317.012	264.071	0.197	-0.341
-315.997	42.912	0.119	0.108
-314.983	-98.025	0.410	0.105
-313.968	71.076	0.100	0.103
-312.953	-200.000	0.006	0.069
-311.939	-83.804	0.093	-0.029
-310.924	115.793	0.085	-0.103
-309.910	41.128	-0.044	0.040
-308.895	35.696	0.095	-0.083
-307.880	-147.893	0.220	-0.018
-306.866	-151.821	-0.174	-0.013
-305.851	-39.741	-0.121	-0.063
-304.837	-200.000	-0.004	-0.116
-303.822	-200.000	0.051	-0.368
-302.807	800.000	0.037	0.148
-301.793	800.000	-0.083	0.272
-300.778	-43.305	-0.138	-0.069
-299.764	89.349	0.215	0.237
-298.749	22.434	0.157	0.127
-297.735	-12.308	-0.184	0.120
-296.720	-135.574	-0.182	-0.021
-295.705	-12.848	-0.216	0.139
-294.691	-200.000	-0.017	-0.099
-293.676	-53.894	0.322	0.146
-292.662	134.777	0.058	0.074
-291.647	-48.089	-0.154	-0.074
-290.632	433.282	0.134	-0.289
-289.618	0.893	0.284	0.201
-288.603	35.058	0.016	0.013
-287.589	44.187	0.157	0.142
-286.574	-107.593	0.469	0.102
-285.559	297.012	-0.195	-0.354
-284.545	69.369	0.286	0.291
-283.530	38.924	-0.090	-0.079
-282.516	800.000	0.067	0.276
-281.501	-93.556	-0.251	-0.069
-280.486	8.188	0.332	0.247
-279.472	-200.000	-0.009	0.178
-278.457	800.000	0.060	-0.195
-277.443	-200.000	0.053	-0.456
-276.428	-191.192	0.280	-0.003
-275.413	225.356	-0.069	0.110
-274.399	800.000	-0.130	0.404
-273.384	258.316	0.094	0.160
-272.370	-200.000	-0.002	-0.094
-271.355	-102.270	0.013	0.003
-270.340	271.837	0.128	0.224
-269.326	168.490	0.258	-0.364
-268.311	-28.550	-0.172	-0.098
-267.297	743.194	-0.105	-0.281
-266.282	152.130	0.082	-0.111
-265.267	-53.549	0.335	0.152
-264.253	231.791	0.133	-0.217
-263.238	-48.214	0.265	0.127
-262.224	-122.319	-0.054	-0.009
-261.209	-200.000	0.013	-0.331
-260.195	-146.135	0.063	0.005
-259.180	-200.000	-0.019	0.113
-258.165	-65.246	0.142	-0.057
-257.151	800.000	0.069	0.261
-256.136	-38.085	-0.158	0.083
-255.122	58.160	-0.050	-0.049
-254.107	645.175	-0.054	0.137
-253.092	-14.327	-0.105	-0.067
-252.078	-152.385	0.416	0.030
-251.063	800.000	0.082	0.329
-250.049	-34.092	0.310	-0.168
-249.034	-15.412	-0.136	0.086
-248.019	107.341	-0.187	0.220
-247.005	-3.905	-0.158	0.108
-245.990	-86.404	0.126	0.038
-244.976	22.275	-0.105	0.085
-243.961	89.387	0.144	0.159
-242.946	-69.673	-0.097	0.037
-241.932	46.286	-0.146	0.134
-240.917	-72.372	0.373	-0.136
-239.903	-27.743	0.213	-0.122
-238.888	-48.999	-0.250	0.118
-237.873	-170.935	0.150	-0.005
-236.859	-72.214	0.153	0.056
-235.844	115.063	-0.064	-0.078
-234.830	200.761	-0.067	-0.102
-233.815	36.878	-0.212	-0.185
-232.800	227.170	-0.153	0.246
-231.786	-102.143	0.169	-0.040
-230.771	-45.970	0.232	0.113
-229.757	330.771	0.060	0.114
-228.742	38.303	0.312	-0.275
-227.727	-200.000	0.014	-0.273
-226.713	1.037	0.086	-0.061
-225.698	-105.318	0.310	0.070
-224.684	-169.275	0.405	-0.015
-223.669	800.000	-0.076	-0.305
-222.655	290.099	0.068	0.122
-221.640	-151.423	-0.148	-0.011
-220.625	437.289	0.150	0.323
-219.611	125.233	0.173	0.216
-218.596	-98.068	0.352	0.090
-217.582	22.983	-0.195	0.158
-216.567	364.497	0.109	0.216
-215.552	72.169	-0.093	0.096
-214.538	-109.038	-0.242	0.051
-213.523	-104.619	0.043	0.010
-212.509	768.111	0.058	0.156
-211.494	82.770	0.069	0.074
-210.479	-43.295	0.214	0.107
-209.465	-44.434	-0.312	-0.154
-208.450	-200.000	-0.024	-0.142
-207.436	50.510	-0.099	0.092
-206.421	-200.000	0.007	0.232
-205.406	60.301	-0.044	0.043
-204.392	-169.115	0.382	-0.014
-203.377	49.900	0.066	-0.061
-202.363	800.000	-0.040	0.172
-201.348	1.862	0.059	0.042
-200.333	77.819	0.156	0.164
-199.319	-42.627	-0.264	-0.133
-198.304	-0.389	0.120	0.084
-197.290	-96.527	0.054	0.014
-196.275	-191.451	-0.126	-0.001
-195.260	-200.000	0.020	0.235
-194.246	800.000	0.089	0.322
-193.231	-200.000	0.067	-0.322
-192.217	501.774	0.094	-0.214
-191.202	123.309	0.166	0.205
-190.187	50.128	-0.134	-0.125
-189.173	-200.000	-0.022	-0.179
-188.158	203.774	0.062	-0.095
-187.144	-60.222	-0.276	-0.116
-186.129	69.870	0.075	-0.076
-185.114	7.125	0.256	0.188
-184.100	-24.417	-0.065	-0.038
-183.085	567.973	-0.076	-0.182
-182.071	-113.938	0.202	-0.039
-181.056	-29.459	0.166	-0.094
-180.042	-200.000	0.068	0.399
-179.027	-20.676	-0.060	-0.037
-178.012	1.312	-0.218	0.155
-176.998	-21.829	-0.134	0.080
-175.983	-9.171	-0.151	0.100
-174.969	57.719	0.139	0.134
-173.954	80.180	-0.108	0.115
-172.939	-91.971	-0.164	-0.046
-171.925	-106.679	0.034	0.008
-170.910	171.287	0.123	0.174
-169.896	453.588	-0.229	0.499
-168.881	226.705	0.120	0.192
-167.866	800.000	-0.135	0.378
-166.852	800.000	-0.062	-0.197
-165.837	74.774	0.152	-0.158
-164.823	-200.000	-0.004	0.203
-163.808	800.000	0.116	0.324
-162.793	800.000	0.129	0.395
-161.779	265.520	-0.124	0.214
-160.764	-200.000	0.057	-0.313
-159.750	-191.763	0.190	-0.002
-158.735	-120.040	0.112	-0.019
-157.720	152.746	-0.105	0.141
-156.706	684.396	-0.032	-0.082
-155.691	22.132	-0.192	0.155
-154.677	-200.000	-0.017	0.126
-153.662	-200.000	0.006	0.188
-152.647	800.000	0.072	-0.294
-151.633	-99.305	-0.420	-0.105
-150.618	42.013	0.093	-0.084
-149.604	86.570	-0.194	0.211
-148.589	308.988	-0.237	0.437
-147.574	-200.000	-0.018	-0.081
-146.560	38.233	0.154	0.135
-145.545	61.637	0.373	-0.366
-144.531	-40.381	-0.103	-0.053
-143.516	112.437	0.131	0.156
-142.502	-200.000	-0.023	0.229
-141.487	-20.675	0.214	0.130
-140.472	-43.350	0.478	-0.238
-139.458	469.288	-0.133	-0.295
-138.443	-128.174	-0.222	0.031
-137.429	57.860	-0.145	0.140
-136.414	512.315	-0.092	0.211
-135.399	-200.000	0.013	0.104
-134.385	800.000	0.008	-0.028
-133.370	-69.398	-0.184	0.070
-132.356	215.083	-0.019	0.030
-131.341	0.815	-0.108	-0.077
-130.326	-180.565	0.298	0.006
-129.312	109.496	0.021	-0.024
-128.297	-200.000	-0.018	0.191
-127.283	-34.255	-0.192	-0.104
-126.268	-25.215	-0.128	-0.074
-125.253	-77.007	0.157	0.054
-124.239	72.304	-0.281	0.289
-123.224	7.895	-0.147	0.108
-122.210	55.811	-0.236	-0.226
-121.195	-83.047	0.288	-0.091
