DTS Sentinel unit serial number:	SN413079Multiplexer serial number:	ORYXHardware model number:	OX4-SRSoftware version number:	ORYX F/W v4.00 Oryx Data Collector v3.7.2.0data status	okinstallation	princeton_trtdifferential loss correction	single-endedforward channel	channel 1reverse channel	N/Adate	2019/09/17time	12:34:35forward acquisition time	60.00reverse acquisition time	0.00gamma	496.2192k internal	0.2317k external	0.2317temperature offset calibration	0.9974default loss term (dB/km)	0.3790temperature slope calibration	1.0000multiplexer offset coefficient	1.0000multiplexer slope coefficient	1.0000fibre end	0.00T internal ref (°C)	32.08T ext. ref 1 (°C)	0.42T ext. ref 2 (°C)	29.56length (m)	temperature (°C)	Stokes	anti-Stokes-747.200	-200.000	0.035	0.191
-746.185	234.430	-0.124	0.208
-745.171	-79.487	0.305	0.104
-744.156	280.252	0.061	-0.110
-743.142	800.000	0.085	0.305
-742.127	-77.692	0.031	0.011
-741.112	-98.602	0.279	0.072
-740.098	-200.000	-0.024	0.144
-739.083	218.674	0.210	-0.339
-738.069	48.869	-0.106	0.101
-737.054	191.105	0.107	-0.163
-736.039	-200.000	-0.059	-0.392
-735.025	388.569	0.145	0.305
-734.010	-200.000	-0.031	-0.169
-732.996	219.129	-0.135	0.218
-731.981	-120.585	-0.157	-0.027
-730.966	4.957	0.132	0.098
-729.952	-200.000	0.048	0.302
-728.937	-37.627	0.054	-0.029
-727.923	340.924	0.168	-0.332
-726.908	800.000	-0.031	-0.128
-725.894	800.000	-0.093	0.267
-724.879	750.215	-0.127	0.347
-723.864	639.857	-0.095	-0.244
-722.850	800.000	0.123	-0.489
-721.835	-200.000	-0.009	0.385
-720.821	-75.117	0.333	-0.120
-719.806	800.000	0.085	-0.249
-718.791	325.550	0.102	0.197
-717.777	77.534	-0.093	0.100
-716.762	-200.000	0.065	-0.344
-715.748	-15.620	-0.194	-0.125
-714.733	-82.200	-0.173	-0.057
-713.718	-200.000	-0.027	-0.250
-712.704	-26.776	0.118	0.070
-711.689	-200.000	-0.038	-0.277
-710.675	-107.469	-0.058	-0.013
-709.660	-34.471	-0.227	-0.126
-708.645	800.000	-0.085	-0.244
-707.631	-199.996	0.070	-0.000
-706.616	-23.643	-0.121	0.073
-705.602	-200.000	0.021	0.163
-704.587	800.000	0.020	0.082
-703.572	-200.000	0.034	0.285
-702.558	-200.000	-0.008	-0.041
-701.543	-200.000	-0.011	-0.076
-700.529	-127.819	0.225	-0.033
-699.514	164.144	0.126	0.180
-698.499	-89.706	-0.190	0.056
-697.485	800.000	-0.010	-0.033
-696.470	28.897	-0.224	0.191
-695.456	396.953	0.032	-0.067
-694.441	-54.796	-0.237	0.108
-693.426	-122.610	-0.320	0.052
-692.412	-35.847	0.033	-0.018
-691.397	29.679	-0.267	0.229
-690.383	-0.980	-0.201	-0.144
-689.368	15.124	-0.356	0.282
-688.354	33.969	-0.186	-0.164
-687.339	275.673	-0.044	-0.079
-686.324	163.630	-0.155	0.220
-685.310	800.000	0.066	-0.230
-684.295	-2.466	-0.129	0.091
-683.281	-17.601	0.195	-0.124
-682.266	-78.077	-0.195	-0.068
-681.251	-24.037	0.241	0.145
-680.237	-200.000	-0.019	-0.104
-679.222	-79.391	0.305	0.104
-678.208	399.584	0.030	-0.064
-677.193	511.105	0.067	-0.158
-676.178	178.434	-0.115	-0.170
-675.164	4.337	-0.457	-0.338
-674.149	-200.000	0.008	0.077
-673.135	216.933	0.113	-0.181
-672.120	-200.000	0.050	-0.493
-671.105	-45.597	0.140	-0.070
-670.091	-26.690	0.142	0.084
-669.076	-120.901	-0.214	0.036
-668.062	-200.000	0.007	-0.290
-667.047	-1.209	0.158	-0.112
-666.032	-24.304	0.169	-0.102
-665.018	-104.669	-0.421	-0.098
-664.003	424.685	0.203	-0.442
-662.989	-161.136	0.089	0.005
-661.974	702.625	0.053	-0.140
-660.959	15.086	-0.158	-0.125
-659.945	82.355	0.058	0.063
-658.930	-200.000	0.000	0.163
-657.916	-200.000	0.014	0.225
-656.901	-187.230	0.169	0.002
-655.886	-30.872	0.086	0.049
-654.872	557.669	-0.071	0.174
-653.857	-44.533	-0.308	-0.155
-652.843	318.724	0.089	-0.170
-651.828	120.526	-0.241	0.302
-650.814	99.764	0.238	0.277
-649.799	99.332	0.033	-0.039
-648.784	-70.446	-0.510	-0.195
-647.770	-200.000	0.011	-0.360
-646.755	-105.956	0.219	0.050
-645.741	-133.731	0.125	-0.016
-644.726	800.000	0.057	-0.222
-643.711	95.825	0.090	-0.103
-642.697	263.594	0.129	0.225
-641.682	-200.000	0.016	0.071
-640.668	169.839	0.209	-0.301
-639.653	800.000	0.053	0.208
-638.638	-22.077	-0.203	0.125
-637.624	-166.814	0.290	-0.012
-636.609	121.427	-0.120	0.151
-635.595	-200.000	-0.008	-0.349
-634.580	-117.797	-0.323	-0.058
-633.565	-114.775	0.527	-0.101
-632.551	-148.921	0.049	0.004
-631.536	170.528	0.228	0.328
-630.522	-200.000	-0.028	0.307
-629.507	800.000	-0.095	-0.287
-628.492	-200.000	-0.006	-0.045
-627.478	112.050	-0.163	0.198
-626.463	-200.000	0.007	0.078
-625.449	-114.114	0.241	0.047
-624.434	-172.970	-0.106	-0.003
-623.419	-9.198	0.218	-0.147
-622.405	98.114	0.267	-0.310
-621.390	-200.000	0.006	0.165
-620.376	-55.235	0.155	-0.070
-619.361	800.000	-0.044	-0.139
-618.346	800.000	-0.049	-0.215
-617.332	-200.000	-0.011	0.132
-616.317	800.000	-0.075	-0.235
-615.303	-72.329	-0.241	0.090
-614.288	-64.092	-0.208	-0.085
-613.273	353.858	0.032	0.064
-612.259	500.177	-0.093	-0.217
-611.244	-71.187	-0.415	0.157
-610.230	-126.651	-0.385	0.057
-609.215	-122.229	-0.250	0.041
-608.201	92.977	0.118	-0.135
-607.186	800.000	0.051	0.215
-606.171	-125.116	-0.399	0.062
-605.157	-184.154	-0.335	0.006
-604.142	-27.475	0.099	0.058
-603.128	25.732	-0.249	-0.209
-602.113	128.320	0.087	-0.112
-601.098	-200.000	0.039	-0.223
-600.084	800.000	-0.078	0.271
-599.069	-143.848	0.135	0.013
-598.055	71.602	-0.080	-0.084
-597.040	-79.117	0.383	-0.131
-596.025	-50.646	-0.390	-0.185
-595.011	264.025	0.082	-0.143
-593.996	394.810	-0.099	-0.207
-592.982	-70.663	-0.297	-0.113
-591.967	104.916	-0.064	0.076
-590.952	166.693	-0.260	-0.371
-589.938	-43.881	-0.137	0.070
-588.923	67.335	0.270	-0.277
-587.909	366.278	-0.104	0.211
-586.894	-140.219	-0.099	-0.010
-585.879	-200.000	0.024	0.235
-584.865	-76.812	0.128	0.045
-583.850	-200.000	0.033	-0.184
-582.836	-200.000	-0.077	-0.347
-581.821	245.828	0.031	0.052
-580.806	145.405	0.133	-0.179
-579.792	14.308	0.120	-0.094
-578.777	800.000	-0.142	-0.401
-577.763	-13.351	0.199	-0.130
-576.748	-200.000	0.029	0.250
-575.733	-200.000	0.054	0.255
-574.719	-170.166	0.318	-0.011
-573.704	2.343	-0.370	-0.269
-572.690	-200.000	-0.059	-0.388
-571.675	123.493	-0.166	-0.209
-570.661	-103.434	0.189	-0.045
-569.646	362.796	0.062	0.124
-568.631	17.180	0.143	-0.114
-567.617	189.811	-0.133	-0.200
-566.602	-125.406	-0.231	0.035
-565.588	-37.291	-0.249	-0.134
-564.573	-124.702	0.273	-0.042
-563.558	226.397	0.111	-0.181
-562.544	150.369	-0.075	0.102
-561.529	-29.401	-0.150	-0.086
-560.515	-73.365	-0.258	0.095
-559.500	795.332	0.059	0.164
-558.485	316.117	0.182	-0.346
-557.471	-189.773	0.073	0.001
-556.456	579.812	0.255	-0.628
-555.442	116.630	0.154	-0.189
-554.427	-50.797	-0.108	0.051
-553.412	-200.000	-0.007	-0.150
-552.398	-62.009	-0.359	-0.151
-551.383	-147.905	-0.110	-0.009
-550.369	191.283	0.053	-0.081
-549.354	-95.461	0.036	0.010
-548.339	633.147	-0.077	0.196
-547.325	-117.293	0.130	0.024
-546.310	-71.368	-0.225	0.085
-545.296	614.404	0.112	-0.282
-544.281	116.090	0.168	-0.207
-543.266	97.294	-0.173	0.199
-542.252	363.515	-0.028	0.056
-541.237	78.108	-0.031	0.033
-540.223	-200.000	0.008	-0.288
-539.208	-34.283	0.129	0.071
-538.193	-200.000	0.017	0.089
-537.179	-4.070	-0.194	0.135
-536.164	-200.000	0.063	0.372
-535.150	265.577	-0.052	-0.091
-534.135	-200.000	0.014	0.249
-533.121	-63.992	0.114	0.047
-532.106	29.435	0.099	-0.084
-531.091	95.579	-0.074	0.084
-530.077	83.033	0.110	-0.120
-529.062	-106.889	0.087	0.019
-528.048	66.268	-0.172	0.175
-527.033	162.460	0.344	0.485
-526.018	236.085	0.121	-0.200
-525.004	44.096	-0.079	-0.072
-523.989	-29.810	-0.273	-0.156
-522.975	285.530	-0.107	-0.194
-521.960	-17.483	-0.059	0.037
-520.945	-122.348	0.098	0.016
-519.931	-200.000	-0.031	-0.389
-518.916	-200.000	0.015	0.074
-517.902	12.493	0.260	0.201
-516.887	31.453	0.085	-0.073
-515.872	-92.949	0.541	0.152
-514.858	26.175	0.114	-0.096
-513.843	-200.000	-0.026	0.205
-512.829	-89.001	0.485	0.144
-511.814	-46.348	0.173	0.085
-510.799	-200.000	0.039	0.263
-509.785	-18.470	-0.141	0.088
-508.770	591.034	0.067	0.167
-507.756	-32.921	0.105	0.058
-506.741	-136.621	-0.181	-0.021
-505.726	413.647	-0.129	-0.274
-504.712	-200.000	-0.004	-0.050
-503.697	-145.753	0.263	0.024
-502.683	161.273	-0.078	0.109
-501.668	800.000	-0.031	0.130
-500.653	14.994	-0.049	-0.039
-499.639	93.056	-0.046	0.052
-498.624	-181.491	-0.063	-0.001
-497.610	388.217	0.157	0.326
-496.595	-178.184	-0.417	-0.010
-495.581	-141.553	0.358	-0.036
-494.566	-200.000	-0.036	-0.228
-493.551	38.895	-0.203	-0.182
-492.537	235.072	-0.107	0.177
-491.522	8.017	0.249	-0.187
-490.508	-85.467	-0.519	0.162
-489.493	-146.053	-0.126	-0.011
-488.478	-54.608	0.144	-0.065
-487.464	542.055	-0.158	-0.378
-486.449	42.764	-0.210	0.191
-485.435	-200.000	-0.028	0.167
-484.420	-122.431	0.232	0.038
-483.405	84.966	0.132	0.145
-482.391	800.000	0.048	-0.156
-481.376	75.053	0.089	-0.094
-480.362	-137.043	-0.145	-0.017
-479.347	800.000	-0.093	-0.307
-478.332	-200.000	-0.015	-0.130
-477.318	-78.267	-0.072	-0.025
-476.303	-137.615	0.250	-0.028
-475.289	306.405	-0.122	0.228
-474.274	121.575	-0.153	-0.191
-473.259	-200.000	0.005	0.100
-472.245	397.749	-0.057	0.119
-471.230	-48.835	0.376	-0.181
-470.216	754.945	0.073	0.199
-469.201	14.834	-0.109	-0.086
-468.186	32.141	0.072	-0.062
-467.172	405.437	0.055	-0.116
-466.157	22.819	-0.131	0.107
-465.143	-95.741	-0.332	0.089
-464.128	800.000	-0.006	-0.024
-463.113	-19.928	0.256	0.158
-462.099	779.430	-0.070	0.191
-461.084	-185.869	-0.246	0.004
-460.070	-157.853	0.099	0.006
-459.055	641.365	0.063	-0.161
-458.040	-200.000	-0.028	-0.303
-457.026	-200.000	0.020	0.087
-456.011	-98.349	-0.163	0.042
-454.997	128.367	0.136	-0.173
-453.982	-200.000	-0.035	-0.334
-452.968	4.802	0.217	0.159
-451.953	-2.392	0.269	0.189
-450.938	800.000	-0.023	-0.072
-449.924	-63.897	0.195	0.080
-448.909	374.947	-0.117	-0.240
-447.895	-154.188	-0.186	0.013
-446.880	107.244	0.149	0.178
-445.865	-53.811	0.072	0.033
-444.851	3.141	-0.163	0.119
-443.836	-200.000	-0.029	0.308
-442.822	191.175	-0.067	-0.100
-441.807	425.630	-0.021	-0.046
-440.792	-191.218	0.141	0.001
-439.778	800.000	-0.042	0.159
-438.763	285.055	0.079	0.143
-437.749	-135.218	0.185	0.022
-436.734	90.806	0.145	-0.163
-435.719	555.108	0.180	0.433
-434.705	-200.000	0.026	-0.183
-433.690	-11.500	0.225	-0.148
-432.676	718.535	-0.047	-0.125
-431.661	800.000	-0.042	0.123
-430.646	153.016	0.348	-0.476
-429.632	-66.523	0.085	-0.034
-428.617	-102.010	0.130	0.031
-427.603	-138.704	-0.030	-0.003
-426.588	65.409	0.062	0.063
-425.573	-200.000	-0.052	-0.320
-424.559	-26.432	-0.043	-0.025
-423.544	1.229	0.107	0.077
-422.530	113.500	-0.324	0.394
-421.515	-127.746	-0.054	0.008
-420.500	-62.519	-0.210	-0.087
-419.486	-147.395	-0.073	0.006
-418.471	-72.272	0.374	0.139
-417.457	101.820	0.162	-0.189
-416.442	-200.000	0.037	-0.173
-415.428	800.000	0.058	-0.205
-414.413	800.000	-0.093	0.333
-413.398	-4.618	-0.591	0.408
-412.384	-200.000	0.000	-0.019
-411.369	-124.749	-0.249	0.039
-410.355	794.071	-0.065	0.178
-409.340	800.000	-0.001	-0.004
-408.325	212.737	-0.120	0.189
-407.311	-133.885	0.071	-0.009
-406.296	5.601	0.074	0.054
-405.282	299.504	-0.049	0.090
-404.267	800.000	0.110	0.353
-403.252	269.916	0.021	0.036
-402.238	177.833	0.145	-0.211
-401.223	187.978	0.145	-0.216
-400.209	42.504	-0.070	0.064
-399.194	-10.306	0.298	0.198
-398.179	353.639	-0.138	-0.274
-397.165	357.615	-0.098	-0.196
-396.150	215.774	-0.078	-0.123
-395.136	-200.000	0.009	-0.324
-394.121	-152.955	0.104	-0.007
-393.106	-86.673	0.144	-0.044
-392.092	800.000	-0.051	0.167
-391.077	572.728	0.072	-0.176
-390.063	800.000	-0.067	0.212
-389.048	-189.178	0.292	-0.003
-388.033	-200.000	-0.008	-0.045
-387.019	800.000	-0.047	0.135
-386.004	54.860	-0.175	-0.168
-384.990	760.062	-0.096	-0.260
-383.975	-200.000	0.028	0.178
-382.960	-91.286	-0.288	-0.082
-381.946	197.809	-0.126	-0.191
-380.931	-22.860	-0.144	-0.087
-379.917	-79.508	-0.264	-0.089
-378.902	255.742	0.109	-0.187
-377.888	21.150	0.102	0.082
-376.873	-72.130	-0.250	0.093
-375.858	-200.000	-0.024	0.290
-374.844	-200.000	-0.002	0.033
-373.829	248.230	0.060	0.102
-372.815	349.047	-0.047	0.092
-371.800	800.000	0.022	0.069
-370.785	-81.190	-0.470	-0.155
-369.771	800.000	-0.112	-0.408
-368.756	244.876	-0.187	-0.314
-367.742	-200.000	0.033	0.261
-366.727	53.024	-0.131	0.125
-365.712	645.822	0.098	-0.250
-364.698	-200.000	0.034	-0.157
-363.683	699.441	-0.124	0.327
-362.669	237.384	0.103	-0.171
-361.654	-16.201	-0.296	-0.188
-360.639	-126.803	0.118	-0.017
-359.625	5.831	-0.133	0.098
-358.610	23.944	0.152	-0.125
-357.596	731.193	0.040	0.106
-356.581	283.499	-0.016	0.029
-355.566	-82.540	-0.169	0.055
-354.552	6.518	0.019	-0.014
-353.537	43.700	0.173	0.158
-352.523	-52.441	-0.174	-0.080
-351.508	-20.362	-0.157	0.096
-350.493	-163.708	0.119	0.006
-349.479	83.137	-0.133	-0.144
-348.464	-1.752	0.307	0.216
-347.450	-172.501	-0.138	-0.004
-346.435	1.020	0.313	-0.223
-345.420	53.945	-0.196	0.187
-344.406	11.909	-0.255	0.196
-343.391	-136.014	-0.238	-0.028
-342.377	-94.558	-0.463	-0.126
-341.362	-200.000	0.002	-0.114
-340.348	-12.795	0.178	0.115
-339.333	-67.700	-0.217	0.085
-338.318	-21.037	0.054	0.033
-337.304	345.104	-0.120	-0.234
-336.289	-49.791	-0.171	0.081
-335.275	434.500	0.029	0.062
-334.260	-80.818	-0.203	-0.067
-333.245	486.423	0.051	0.116
-332.231	544.781	0.150	0.357
-331.216	37.638	-0.359	0.318
-330.202	731.529	0.165	-0.440
-329.187	40.112	0.046	0.041
-328.172	49.989	-0.241	0.227
-327.158	-178.631	-0.031	0.001
-326.143	336.412	0.168	-0.325
-325.129	-109.838	0.321	0.067
-324.114	80.647	0.152	-0.163
-323.099	800.000	-0.053	0.220
-322.085	-1.349	-0.110	0.077
-321.070	653.648	-0.098	-0.251
-320.056	-180.195	0.229	-0.005
-319.041	34.358	-0.265	0.230
-318.026	-148.112	-0.172	-0.014
-317.012	-161.280	-0.189	0.010
-315.997	-183.424	-0.143	0.002
-314.983	-167.379	0.763	0.031
-313.968	64.965	0.056	-0.056
-312.953	37.495	-0.166	0.147
-311.939	-45.909	0.102	0.050
-310.924	800.000	-0.075	0.299
-309.910	-200.000	-0.042	0.419
-308.895	-70.725	0.169	0.064
-307.880	-144.371	-0.198	0.018
-306.866	27.624	0.238	0.199
-305.851	-110.978	-0.240	-0.049
-304.837	109.073	0.162	0.193
-303.822	800.000	-0.071	0.204
-302.807	-65.479	0.358	-0.143
-301.793	-200.000	-0.002	-0.032
-300.778	-48.362	-0.302	-0.145
-299.764	-200.000	-0.063	0.286
-298.749	224.631	0.177	0.284
-297.735	47.800	0.260	0.241
-296.720	209.808	0.111	0.173
-295.705	800.000	0.091	0.293
-294.691	-53.704	-0.115	0.052
-293.676	-92.494	0.097	0.027
-292.662	201.513	-0.136	0.209
-291.647	29.680	0.257	-0.218
-290.632	-105.899	0.226	0.051
-289.618	-200.000	0.035	-0.184
-288.603	449.138	-0.156	-0.342
-287.589	-32.521	-0.115	-0.064
-286.574	-200.000	0.027	-0.139
-285.559	-128.799	0.284	-0.040
-284.545	6.679	-0.152	-0.112
-283.530	-155.236	-0.338	0.022
-282.516	-29.359	-0.155	0.088
-281.501	-200.000	-0.430	-0.001
-280.486	-12.088	-0.153	-0.100
-279.472	-137.930	-0.355	-0.039
-278.457	69.882	0.196	-0.201
-277.443	361.405	-0.033	0.066
-276.428	-200.000	-0.029	-0.161
-275.413	55.340	0.301	-0.289
-274.399	-200.000	0.018	0.139
-273.384	-73.239	0.184	0.067
-272.370	800.000	0.042	-0.153
-271.355	-12.162	-0.022	0.015
-270.340	-46.052	-0.120	0.059
-269.326	-200.000	0.034	-0.190
-268.311	375.243	0.123	0.248
-267.297	-63.808	-0.059	-0.024
-266.282	-30.152	0.138	0.078
-265.267	-79.799	0.258	0.086
-264.253	-120.365	-0.331	-0.056
-263.238	-45.813	0.193	0.095
-262.224	151.932	0.271	0.368
-261.209	-118.896	-0.118	0.021
-260.195	-35.851	-0.191	-0.103
-259.180	9.735	0.142	-0.107
-258.165	83.562	-0.099	-0.107
-257.151	-200.000	0.016	0.109
-256.136	-200.000	0.018	-0.167
-255.122	-200.000	0.053	0.247
-254.107	15.580	0.113	-0.088
-253.092	-130.218	0.171	0.023
-252.078	800.000	0.052	-0.194
-251.063	-58.147	0.193	0.084
-250.049	114.078	0.187	-0.226
-249.034	16.761	-0.244	0.192
-248.019	-87.321	0.074	-0.022
-247.005	-68.489	0.409	0.157
-245.990	-119.402	-0.094	0.016
-244.976	276.210	-0.064	-0.112
-243.961	-70.485	-0.030	0.011
-242.946	90.818	0.146	-0.163
-241.932	800.000	0.109	-0.422
-240.917	-28.368	0.029	0.017
-239.903	800.000	-0.170	0.570
-238.888	-80.339	-0.045	-0.015
-237.873	-200.000	-0.013	0.134
-236.859	-139.421	0.317	-0.034
-235.844	-155.255	-0.118	-0.008
-234.830	50.654	0.156	-0.147
-233.815	-49.932	0.166	-0.078
-232.800	-200.000	0.006	0.360
-231.786	518.895	-0.009	0.021
-230.771	-20.216	-0.037	-0.022
-229.757	-93.580	0.095	0.026
-228.742	-30.555	-0.144	-0.081
-227.727	185.487	0.349	0.514
-226.713	-36.099	0.181	-0.097
-225.698	-200.000	0.036	-0.333
-224.684	-181.380	0.284	-0.006
-223.669	82.725	-0.269	-0.290
-222.655	-2.340	0.161	0.112
-221.640	531.751	-0.132	0.310
-220.625	35.654	-0.038	-0.033
-219.611	501.742	-0.069	0.158
-218.596	800.000	0.095	-0.300
-217.582	403.634	0.087	0.181
-216.567	356.396	0.136	-0.268
-215.552	128.481	-0.149	0.188
-214.538	0.032	0.191	0.135
-213.523	-200.000	0.035	0.168
-212.509	-71.832	-0.013	-0.005
-211.494	-68.745	-0.278	-0.107
-210.479	276.946	0.165	0.291
-209.465	-34.338	0.295	0.161
-208.450	-123.158	0.439	-0.070
-207.436	20.471	-0.253	-0.203
-206.421	708.652	0.034	-0.089
-205.406	130.088	-0.198	-0.251
-204.392	187.303	-0.074	0.110
-203.377	247.093	-0.031	-0.052
-202.363	-200.000	-0.032	-0.156
-201.348	-200.000	0.017	-0.114
-200.333	-132.090	0.334	0.043
-199.319	304.770	-0.189	0.347
-198.304	-175.250	-0.056	-0.002
-197.290	-200.000	-0.002	0.107
-196.275	1.829	-0.205	0.146
-195.260	47.832	-0.195	0.181
-194.246	-128.718	-0.188	-0.026
-193.231	800.000	0.129	-0.389
-192.217	-200.000	0.017	-0.115
-191.202	79.326	-0.253	-0.269
-190.187	500.199	-0.153	0.350
-189.173	-42.096	0.214	0.108
-188.158	273.158	-0.054	0.095
-187.144	439.440	0.145	0.315
-186.129	-53.885	-0.088	-0.040
-185.114	167.532	-0.165	0.232
-184.100	219.015	0.116	-0.184
-183.085	48.089	0.160	0.149
-182.071	112.173	-0.151	0.181
-181.056	-87.736	-0.440	0.131
-180.042	50.889	0.091	0.085
-179.027	332.088	0.052	0.099
-178.012	631.565	0.058	0.144
-176.998	536.166	-0.081	0.191
-175.983	97.254	0.089	0.102
-174.969	800.000	-0.022	0.076
-173.954	-200.000	0.027	0.161
-172.939	-165.114	0.307	0.013
-171.925	-27.712	0.307	0.176
-170.910	-200.000	0.061	-0.332
-169.896	-185.084	0.205	-0.003
-168.881	-110.612	0.079	0.016
-167.866	-99.460	-0.262	0.065
-166.852	-1.339	0.042	0.030
-165.837	-127.395	0.142	-0.021
-164.823	800.000	-0.126	-0.373
-163.808	-48.876	-0.191	-0.091
-162.793	-200.000	0.012	0.130
-161.779	-127.053	0.083	-0.012
-160.764	128.464	-0.034	-0.042
-159.750	172.722	-0.134	-0.191
-158.735	-44.719	-0.141	-0.069
-157.720	-93.291	-0.140	-0.038
-156.706	-200.000	-0.023	0.371
-155.691	-20.631	0.161	-0.098
-154.677	-39.471	-0.122	0.063
-153.662	38.115	0.130	0.114
-152.647	-59.345	0.222	0.094
-151.633	-200.000	0.057	0.488
-150.618	140.788	0.069	-0.090
-149.604	-86.698	0.259	-0.078
-148.589	621.669	-0.089	0.221
-147.574	800.000	0.003	0.012
-146.560	23.578	-0.178	0.145
-145.545	-200.000	0.002	-0.058
-144.531	-10.056	-0.294	-0.193
-143.516	11.395	0.253	0.192
-142.502	-199.403	-0.208	-0.001
-141.487	-156.593	0.390	-0.024
-140.472	-99.748	0.287	0.071
-139.458	-200.000	0.189	-0.000
-138.443	-97.871	0.139	0.035
-137.429	501.062	0.109	-0.249
-136.414	800.000	0.015	0.042
-135.399	-13.112	-0.205	-0.132
-134.385	-126.818	-0.348	0.051
-133.370	800.000	-0.046	0.137
-132.356	-200.000	-0.045	0.276
-131.341	-47.516	-0.195	-0.094
-130.326	293.222	-0.144	0.259
-129.312	-41.007	0.255	0.130
-128.297	-182.543	0.284	0.005
-127.283	-93.726	0.390	-0.106
-126.268	-175.114	0.215	0.006
-125.253	-200.000	0.021	0.224
-124.239	-42.834	0.096	-0.048
-123.224	-82.144	0.149	0.048
-122.210	-94.629	0.233	-0.062
-121.195	-72.353	-0.295	-0.108
