DTS Sentinel unit serial number:	SN413079Multiplexer serial number:	ORYXHardware model number:	OX4-SRSoftware version number:	ORYX F/W v4.00 Oryx Data Collector v3.7.2.0data status	okinstallation	princeton_trtdifferential loss correction	single-endedforward channel	channel 1reverse channel	N/Adate	2019/09/16time	09:26:35forward acquisition time	60.00reverse acquisition time	0.00gamma	496.2192k internal	0.2322k external	0.2322temperature offset calibration	0.9969default loss term (dB/km)	0.3790temperature slope calibration	1.0000multiplexer offset coefficient	1.0000multiplexer slope coefficient	1.0000fibre end	0.00T internal ref (°C)	31.66T ext. ref 1 (°C)	12.19T ext. ref 2 (°C)	29.27length (m)	temperature (°C)	Stokes	anti-Stokes-747.200	800.000	-0.068	0.273
-746.185	-84.629	-0.096	0.031
-745.171	-98.579	-0.128	0.033
-744.156	12.434	-0.105	-0.082
-743.142	-108.268	-0.191	-0.042
-742.127	-188.504	-0.131	-0.002
-741.112	-141.030	0.476	-0.049
-740.098	164.752	-0.327	0.466
-739.083	28.312	0.264	-0.226
-738.069	575.453	0.155	0.381
-737.054	-38.592	-0.189	-0.101
-736.039	-168.609	-0.171	-0.007
-735.025	800.000	0.102	0.313
-734.010	325.701	0.246	-0.475
-732.996	-142.428	-0.197	-0.020
-731.981	-104.290	-0.304	0.071
-730.966	-200.000	0.054	0.385
-729.952	508.029	0.062	-0.146
-728.937	-32.761	-0.278	-0.156
-727.923	-11.983	0.095	0.063
-726.908	64.317	-0.166	-0.169
-725.894	-21.795	-0.225	-0.138
-724.879	-200.000	-0.009	0.050
-723.864	5.375	-0.208	-0.155
-722.850	175.758	-0.171	0.250
-721.835	296.011	-0.241	-0.446
-720.821	-37.149	-0.029	0.016
-719.806	-184.412	-0.082	-0.001
-718.791	-114.318	-0.216	-0.042
-717.777	-39.190	0.160	0.085
-716.762	-147.087	-0.186	-0.016
-715.748	-93.380	0.173	-0.048
-714.733	78.938	0.039	-0.042
-713.718	85.240	-0.103	0.114
-712.704	-192.952	0.245	0.002
-711.689	132.721	0.300	-0.390
-710.675	-155.187	-0.372	-0.025
-709.660	248.284	0.189	0.322
-708.645	-111.940	-0.024	-0.005
-707.631	125.976	0.221	-0.282
-706.616	73.019	0.293	-0.309
-705.602	-200.000	0.026	-0.289
-704.587	-200.000	0.074	-0.374
-703.572	251.820	-0.164	0.282
-702.558	321.785	0.193	0.371
-701.543	14.317	-0.114	-0.089
-700.529	-200.000	-0.015	-0.438
-699.514	-127.424	-0.084	-0.012
-698.499	-31.610	0.138	0.078
-697.485	-181.935	0.208	0.004
-696.470	800.000	0.087	-0.363
-695.456	-32.575	-0.231	0.130
-694.441	-26.990	-0.059	-0.034
-693.426	-61.310	0.584	0.248
-692.412	-200.000	-0.024	0.252
-691.397	-65.783	0.168	-0.068
-690.383	518.305	0.097	-0.228
-689.368	-200.000	-0.056	-0.322
-688.354	-57.798	0.219	-0.097
-687.339	-200.000	-0.002	-0.281
-686.324	-4.569	-0.061	0.043
-685.310	-60.553	-0.405	-0.173
-684.295	233.925	0.083	-0.138
-683.281	-200.000	-0.023	-0.191
-682.266	800.000	-0.117	0.474
-681.251	-200.000	0.020	-0.129
-680.237	123.111	0.355	-0.449
-679.222	-25.823	-0.237	-0.141
-678.208	190.620	-0.037	0.057
-677.193	-200.000	-0.282	-0.001
-676.178	-123.147	-0.524	0.085
-675.164	-200.000	0.023	0.103
-674.149	-200.000	0.007	-0.075
-673.135	40.081	0.210	-0.190
-672.120	-200.000	-0.046	0.261
-671.105	800.000	0.029	-0.095
-670.091	-173.347	-0.349	0.011
-669.076	-200.000	-0.036	-0.328
-668.062	-41.412	-0.250	0.129
-667.047	89.782	-0.279	0.314
-666.032	-80.969	0.242	0.081
-665.018	-180.021	-0.237	-0.005
-664.003	-100.281	-0.291	-0.073
-662.989	278.189	0.051	-0.092
-661.974	-168.317	0.233	-0.009
-660.959	-200.000	-0.007	0.000
-659.945	152.412	0.181	-0.249
-658.930	-95.508	-0.336	-0.091
-657.916	30.499	-0.198	-0.170
-656.901	288.611	0.216	0.394
-655.886	800.000	0.141	-0.419
-654.872	229.374	0.195	-0.320
-653.857	35.509	-0.206	-0.182
-652.843	-41.321	0.147	0.076
-651.828	77.727	0.123	-0.132
-650.814	800.000	0.092	-0.356
-649.799	230.542	-0.113	0.186
-648.784	-179.084	-0.065	0.001
-647.770	-107.850	0.241	-0.053
-646.755	-18.611	-0.340	-0.213
-645.741	-200.000	-0.024	-0.192
-644.726	-145.066	0.211	-0.019
-643.711	172.666	0.108	0.157
-642.697	-155.787	-0.302	0.019
-641.682	579.932	-0.177	0.436
-640.668	528.768	-0.067	0.159
-639.653	-21.730	0.189	-0.116
-638.638	435.146	0.045	-0.099
-637.624	-71.143	-0.207	-0.078
-636.609	-20.075	-0.214	0.133
-635.595	-84.870	-0.117	-0.037
-634.580	-200.000	-0.045	-0.356
-633.565	-86.832	-0.173	-0.053
-632.551	-133.087	0.297	-0.038
-631.536	-61.794	-0.060	-0.025
-630.522	-174.581	-0.103	0.003
-629.507	607.133	0.071	0.177
-628.492	-96.810	-0.029	0.008
-627.478	-65.217	0.245	-0.099
-626.463	224.292	0.124	0.202
-625.449	74.267	0.185	0.195
-624.434	-134.350	0.328	0.041
-623.419	359.375	-0.050	-0.101
-622.405	-104.993	-0.059	-0.014
-621.390	-200.000	-0.031	0.178
-620.376	800.000	-0.097	0.303
-619.361	-200.000	-0.033	-0.190
-618.346	-200.000	0.045	0.277
-617.332	-197.508	0.452	0.003
-616.317	-14.951	0.212	0.137
-615.303	-189.468	-0.127	-0.001
-614.288	170.327	-0.175	-0.252
-613.273	110.069	0.086	0.103
-612.259	-62.943	0.071	0.030
-611.244	-123.796	0.208	0.033
-610.230	93.726	0.069	-0.079
-609.215	370.385	-0.047	0.095
-608.201	355.024	0.106	-0.211
-607.186	-22.833	-0.273	0.166
-606.171	800.000	-0.130	0.363
-605.157	-36.800	0.158	0.085
-604.142	187.179	-0.033	0.049
-603.128	303.612	-0.071	-0.131
-602.113	-99.203	-0.280	-0.071
-601.098	339.261	-0.090	-0.175
-600.084	84.348	0.235	0.258
-599.069	-51.532	0.057	0.027
-598.055	59.938	-0.051	0.050
-597.040	-102.924	-0.108	-0.026
-596.025	-200.000	-0.103	0.000
-595.011	109.484	-0.079	0.095
-593.996	155.991	-0.123	-0.171
-592.982	24.292	-0.189	0.157
-591.967	-127.017	0.248	-0.037
-590.952	-200.000	-0.038	-0.193
-589.938	-200.000	-0.049	0.264
-588.923	-161.391	0.220	-0.011
-587.909	-79.312	-0.073	0.025
-586.894	-142.696	-0.513	-0.050
-585.879	49.271	0.251	-0.237
-584.865	-59.154	-0.110	0.048
-583.850	-200.000	0.047	0.235
-582.836	-85.529	0.064	0.020
-581.821	-174.470	0.124	-0.004
-580.806	655.366	0.086	0.221
-579.792	-136.330	-0.385	-0.045
-578.777	800.000	-0.060	-0.243
-577.763	800.000	0.102	-0.315
-576.748	-57.276	0.047	-0.021
-575.733	12.062	0.118	-0.091
-574.719	800.000	-0.116	-0.387
-573.704	3.114	0.291	-0.213
-572.690	28.074	-0.031	0.026
-571.675	-32.666	-0.173	-0.097
-570.661	-150.108	0.061	-0.005
-569.646	134.714	-0.173	-0.225
-568.631	513.714	-0.076	0.177
-567.617	248.452	0.091	-0.154
-566.602	18.037	-0.206	0.165
-565.588	800.000	0.033	0.107
-564.573	800.000	-0.024	0.068
-563.558	800.000	0.040	0.125
-562.544	20.783	-0.095	-0.077
-561.529	-22.813	0.150	-0.091
-560.515	75.807	-0.081	-0.086
-559.500	-200.000	-0.051	-0.300
-558.485	-120.029	0.455	-0.078
-557.471	-200.000	0.005	-0.526
-556.456	-102.833	0.282	-0.067
-555.442	273.495	-0.086	0.152
-554.427	-147.601	0.069	0.006
-553.412	573.368	0.129	-0.316
-552.398	-53.073	0.177	0.081
-551.383	-89.044	-0.147	0.044
-550.369	-2.467	-0.219	-0.154
-549.354	-121.687	-0.254	0.042
-548.339	-63.785	-0.249	0.102
-547.325	800.000	0.144	-0.410
-546.310	-96.903	-0.150	0.039
-545.296	337.680	0.121	0.236
-544.281	368.685	-0.149	-0.302
-543.266	-200.000	-0.008	0.098
-542.252	-127.710	-0.285	-0.041
-541.237	-107.862	-0.107	0.023
-540.223	101.724	0.036	-0.042
-539.208	-200.000	-0.026	0.192
-538.193	-161.563	-0.144	-0.007
-537.179	-200.000	0.060	-0.482
-536.164	214.285	0.113	0.179
-535.150	19.533	0.159	-0.128
-534.135	-90.494	0.134	-0.039
-533.121	116.219	0.186	0.229
-532.106	-162.077	-0.080	-0.004
-531.091	-200.000	-0.349	-0.001
-530.077	46.915	-0.206	-0.192
-529.062	321.282	0.257	0.490
-528.048	48.908	0.112	-0.105
-527.033	-200.000	0.030	0.204
-526.018	-148.147	0.136	0.011
-525.004	800.000	-0.106	-0.359
-523.989	-146.163	-0.409	-0.036
-522.975	51.235	0.143	0.136
-521.960	-63.917	-0.212	-0.087
-520.945	-28.341	0.189	-0.109
-519.931	-44.576	-0.217	0.109
-518.916	-157.617	-0.340	-0.020
-517.902	112.882	-0.104	-0.126
-516.887	-137.503	0.079	-0.009
-515.872	162.863	-0.137	-0.193
-514.858	320.260	-0.098	0.186
-513.843	85.357	-0.179	-0.197
-512.829	-66.013	0.433	-0.173
-511.814	-52.115	0.351	-0.163
-510.799	-200.000	-0.030	-0.244
-509.785	506.497	-0.005	0.012
-508.770	-99.278	-0.351	0.089
-507.756	110.781	0.140	-0.168
-506.741	-77.238	-0.252	-0.088
-505.726	-3.906	-0.138	-0.096
-504.712	257.617	0.147	-0.254
-503.697	-200.000	-0.021	-0.395
-502.683	-200.000	0.011	-0.155
-501.668	-195.935	-0.125	0.001
-500.653	-128.549	0.112	-0.016
-499.639	-200.000	0.016	0.414
-498.624	800.000	-0.038	0.122
-497.610	692.660	0.011	-0.028
-496.595	800.000	0.025	0.097
-495.581	-5.892	-0.073	0.050
-494.566	-140.588	-0.274	0.028
-493.551	321.375	-0.150	0.286
-492.537	-95.563	-0.317	-0.085
-491.522	326.486	0.107	-0.206
-490.508	800.000	-0.024	-0.105
-489.493	-127.654	0.314	0.045
-488.478	519.253	-0.105	0.246
-487.464	-1.874	-0.104	0.073
-486.449	53.974	-0.304	0.292
-485.435	-200.000	-0.013	0.202
-484.420	-31.736	-0.243	-0.136
-483.405	-74.739	0.046	0.016
-482.391	-200.000	0.067	0.341
-481.376	-111.749	0.155	0.031
-480.362	-200.000	0.075	-0.360
-479.347	-1.135	-0.219	0.155
-478.332	108.088	-0.225	-0.269
-477.318	-200.000	-0.048	-0.526
-476.303	18.204	-0.115	-0.092
-475.289	-200.000	-0.026	0.363
-474.274	-200.000	-0.029	0.321
-473.259	176.666	0.097	-0.140
-472.245	800.000	0.022	0.062
-471.230	-64.727	0.219	0.089
-470.216	349.463	-0.024	0.046
-469.201	-200.000	-0.074	0.342
-468.186	-47.104	-0.187	-0.091
-467.172	253.491	0.032	0.054
-466.157	336.229	-0.177	-0.344
-465.143	-9.382	-0.181	0.121
-464.128	-57.902	0.111	-0.048
-463.113	-47.969	-0.184	-0.089
-462.099	38.600	-0.285	-0.254
-461.084	55.664	0.246	-0.238
-460.070	-71.836	0.131	-0.049
-459.055	800.000	-0.068	0.221
-458.040	625.868	0.059	-0.150
-457.026	-166.772	0.407	-0.017
-456.011	33.782	0.222	0.193
-454.997	-15.487	-0.118	0.075
-453.982	-200.000	0.021	0.206
-452.968	673.997	-0.107	0.278
-451.953	-144.353	0.137	0.013
-450.938	-200.000	-0.011	-0.070
-449.924	544.822	0.063	0.150
-448.909	11.992	0.224	-0.172
-447.895	-131.801	-0.247	-0.032
-446.880	-200.000	-0.036	0.248
-445.865	88.781	0.206	-0.229
-444.851	-178.522	0.283	0.007
-443.836	-200.000	0.019	-0.303
-442.822	607.781	-0.065	-0.162
-441.807	6.148	0.398	0.294
-440.792	-200.000	0.049	0.257
-439.778	-77.176	-0.114	0.039
-438.763	113.336	-0.069	-0.084
-437.749	-107.479	0.131	-0.029
-436.734	800.000	0.036	-0.108
-435.719	-116.054	0.146	-0.027
-434.705	-59.677	0.180	0.077
-433.690	-76.718	0.181	0.063
-432.676	175.806	-0.140	-0.202
-431.661	-200.000	0.006	-0.260
-430.646	65.593	0.267	-0.270
-429.632	-106.298	0.095	-0.021
-428.617	-53.547	0.227	0.103
-427.603	-89.182	0.244	0.072
-426.588	288.205	0.258	0.467
-425.573	281.536	0.057	0.101
-424.559	335.361	0.040	-0.077
-423.544	-182.369	-0.184	0.003
-422.530	-200.000	0.001	0.051
-421.515	-200.000	-0.004	0.121
-420.500	-122.531	-0.245	-0.040
-419.486	-200.000	0.004	-0.036
-418.471	-180.241	-0.085	0.002
-417.457	-123.694	0.532	0.084
-416.442	800.000	-0.038	0.118
-415.428	-200.000	0.029	-0.277
-414.413	-3.349	-0.259	-0.180
-413.398	384.239	0.085	-0.174
-412.384	133.298	-0.173	-0.223
-411.369	800.000	0.153	-0.480
-410.355	-129.244	0.365	0.051
-409.340	162.305	-0.209	0.292
-408.325	51.715	0.063	-0.060
-407.311	-200.000	-0.083	0.387
-406.296	287.053	-0.091	-0.164
-405.282	-32.321	-0.139	-0.077
-404.267	65.982	-0.285	0.289
-403.252	-21.154	-0.092	-0.056
-402.238	17.977	-0.154	-0.122
-401.223	687.153	-0.071	-0.185
-400.209	55.940	0.215	0.208
-399.194	362.345	-0.033	-0.066
-398.179	800.000	0.003	0.010
-397.165	-72.365	-0.078	-0.029
-396.150	-31.444	-0.224	0.126
-395.136	205.083	-0.074	0.115
-394.121	-140.881	-0.175	-0.018
-393.106	196.527	-0.013	0.020
-392.092	311.608	-0.064	-0.119
-391.077	-117.853	-0.332	-0.059
-390.063	83.074	0.182	0.197
-389.048	23.965	0.175	0.144
-388.033	-200.000	-0.004	-0.030
-387.019	96.775	-0.195	0.223
-386.004	19.557	0.063	-0.051
-384.990	589.184	-0.047	-0.115
-383.975	522.283	0.044	-0.103
-382.960	-200.000	0.031	-0.344
-381.946	800.000	0.024	0.074
-380.931	-52.596	0.162	-0.075
-379.917	-141.364	-0.338	0.034
-378.902	800.000	-0.058	0.171
-377.888	-200.000	-0.004	-0.199
-376.873	-38.370	-0.125	-0.066
-375.858	-200.000	-0.011	0.074
-374.844	0.378	-0.073	-0.052
-373.829	-23.874	0.065	0.039
-372.815	-81.689	0.242	-0.079
-371.800	-103.024	0.160	0.038
-370.785	-200.000	0.009	0.138
-369.771	-149.515	0.137	0.011
-368.756	-136.044	0.158	-0.018
-367.742	-200.000	0.012	-0.123
-366.727	27.162	0.096	0.081
-365.712	-200.000	-0.031	0.307
-364.698	170.421	0.227	-0.324
-363.683	206.006	0.134	-0.208
-362.669	33.980	0.208	-0.180
-361.654	-200.000	-0.007	-0.089
-360.639	309.468	-0.167	0.310
-359.625	-107.111	-0.219	0.048
-358.610	-163.915	-0.249	0.012
-357.596	24.192	-0.079	-0.065
-356.581	368.481	0.156	0.314
-355.566	-127.599	-0.219	0.032
-354.552	522.176	0.066	0.154
-353.537	-157.737	-0.098	-0.006
-352.523	-74.291	-0.058	-0.021
-351.508	-67.490	0.373	-0.146
-350.493	81.738	-0.264	-0.284
-349.479	-137.415	-0.050	0.006
-348.464	-17.312	0.213	-0.133
-347.450	-8.280	0.076	-0.051
-346.435	-199.984	0.086	0.000
-345.420	-93.777	0.027	-0.007
-344.406	-200.000	-0.010	0.216
-343.391	-200.000	-0.048	0.228
-342.377	-75.443	-0.121	0.043
-341.362	0.645	-0.106	-0.075
-340.348	-122.326	0.076	0.012
-339.333	66.876	0.225	-0.228
-338.318	40.707	-0.067	-0.060
-337.304	30.761	-0.221	0.188
-336.289	233.515	0.155	-0.254
-335.275	-69.703	0.180	-0.068
-334.260	800.000	0.040	-0.164
-333.245	-200.000	0.007	-0.043
-332.231	-200.000	0.070	-0.378
-331.216	-200.000	-0.046	-0.242
-330.202	330.060	0.194	0.372
-329.187	-152.649	0.052	-0.004
-328.172	-200.000	0.097	0.437
-327.158	-200.000	0.033	-0.157
-326.143	-13.867	-0.409	-0.263
-325.129	232.567	0.164	0.268
-324.114	-66.919	0.339	0.133
-323.099	-200.000	-0.004	-0.028
-322.085	162.598	-0.198	0.276
-321.070	176.796	-0.118	-0.170
-320.056	-96.088	-0.032	-0.008
-319.041	153.297	0.042	-0.057
-318.026	1.687	0.208	0.149
-317.012	-192.399	0.271	-0.003
-315.997	122.649	-0.051	0.063
-314.983	-44.226	0.165	0.082
-313.968	-8.890	-0.198	-0.132
-312.953	367.669	-0.123	-0.247
-311.939	-83.853	-0.312	-0.099
-310.924	50.879	0.103	0.097
-309.910	203.329	-0.181	0.278
-308.895	93.561	0.300	0.338
-307.880	143.503	0.077	0.102
-306.866	133.856	-0.251	-0.323
-305.851	-200.000	-0.015	0.162
-304.837	286.123	-0.255	0.457
-303.822	-200.000	0.026	-0.419
-302.807	-200.000	-0.027	-0.128
-301.793	-200.000	0.056	0.512
-300.778	-200.000	0.011	-0.184
-299.764	14.381	-0.210	-0.162
-298.749	800.000	-0.153	0.456
-297.735	-39.940	-0.160	0.083
-296.720	-43.291	0.486	0.244
-295.705	800.000	-0.052	0.212
-294.691	56.365	-0.039	-0.037
-293.676	-200.000	-0.028	0.211
-292.662	800.000	-0.092	0.280
-291.647	564.252	0.075	0.180
-290.632	161.637	-0.169	-0.234
-289.618	205.440	-0.076	0.118
-288.603	654.769	0.079	-0.202
-287.589	-200.000	0.037	-0.316
-286.574	-184.245	0.172	0.003
-285.559	-200.000	0.002	-0.388
-284.545	-45.639	0.246	-0.121
-283.530	60.577	0.204	-0.201
-282.516	169.843	-0.209	-0.296
-281.501	-56.557	0.172	0.076
-280.486	-171.857	-0.197	0.006
-279.472	-66.823	-0.171	0.067
-278.457	-200.000	-0.004	-0.026
-277.443	-109.596	0.239	-0.050
-276.428	-72.228	0.050	0.019
-275.413	800.000	0.129	-0.356
-274.399	-200.000	-0.015	-0.157
-273.384	-65.038	0.256	0.102
-272.370	800.000	0.069	-0.193
-271.355	-200.000	0.012	0.055
-270.340	-200.000	0.018	-0.108
-269.326	-120.627	-0.357	-0.060
-268.311	-200.000	0.012	0.119
-267.297	-200.000	-0.112	0.000
-266.282	-200.000	-0.019	-0.349
-265.267	-12.468	-0.111	-0.072
-264.253	88.737	-0.082	-0.091
-263.238	800.000	-0.057	-0.198
-262.224	197.744	-0.115	-0.173
-261.209	35.440	-0.047	-0.041
-260.195	-36.128	0.369	-0.198
-259.180	182.377	0.115	0.169
-258.165	-200.000	-0.059	0.346
-257.151	-26.082	0.240	0.140
-256.136	180.351	-0.123	-0.178
-255.122	800.000	0.086	0.320
-254.107	-200.000	-0.007	0.088
-253.092	-200.000	-0.023	-0.127
-252.078	49.462	0.309	0.288
-251.063	440.183	-0.023	-0.051
-250.049	-137.473	0.196	0.022
-249.034	111.127	0.198	0.236
-248.019	-188.328	-0.261	0.003
-247.005	44.671	0.073	-0.066
-245.990	-158.349	0.183	-0.011
-244.976	68.245	-0.224	0.227
-243.961	8.407	0.064	-0.048
-242.946	-200.000	-0.027	0.349
-241.932	86.977	0.040	-0.043
-240.917	15.352	0.280	0.218
-239.903	297.502	-0.179	-0.325
-238.888	-200.000	0.022	-0.171
-237.873	-181.618	-0.147	0.003
-236.859	-93.880	0.071	-0.019
-235.844	-33.110	-0.167	-0.092
-234.830	-32.822	0.116	-0.064
-233.815	-5.230	-0.068	0.046
-232.800	-101.073	-0.183	-0.044
-231.786	467.353	0.078	-0.173
-230.771	-9.048	-0.109	0.072
-229.757	-200.000	-0.028	0.249
-228.742	-138.818	0.143	0.015
-227.727	-77.023	-0.092	-0.032
-226.713	-42.993	0.055	-0.028
-225.698	33.942	-0.124	-0.107
-224.684	-13.664	-0.151	-0.097
-223.669	-110.366	-0.271	0.056
-222.655	-182.115	0.127	0.002
-221.640	128.869	0.197	0.249
-220.625	65.669	-0.291	0.292
-219.611	800.000	-0.095	-0.329
-218.596	502.618	0.082	-0.187
-217.582	158.708	0.094	0.130
-216.567	-53.704	0.433	0.196
-215.552	800.000	0.051	0.208
-214.538	-200.000	-0.011	0.196
-213.523	181.188	0.173	0.252
-212.509	34.710	0.172	0.149
-211.494	-200.000	0.050	-0.224
-210.479	-183.875	0.301	0.005
-209.465	-74.396	-0.195	0.070
-208.450	174.794	0.107	0.153
-207.436	-140.089	-0.111	0.012
-206.421	-141.604	-0.219	-0.022
-205.406	-40.989	0.243	-0.124
-204.392	-52.580	0.176	0.080
-203.377	400.804	0.034	0.071
-202.363	-154.556	0.209	0.014
-201.348	68.625	0.213	-0.216
-200.333	431.503	-0.106	0.226
-199.319	-73.695	-0.055	-0.020
-198.304	-73.151	-0.294	0.106
-197.290	185.094	0.113	0.166
-196.275	-95.669	0.071	0.019
-195.260	-122.866	-0.126	0.020
-194.246	-15.218	-0.194	0.122
-193.231	-0.887	0.334	0.234
-192.217	-65.058	0.092	0.037
-191.202	-79.172	-0.331	-0.111
-190.187	-31.835	-0.164	-0.091
-189.173	-200.000	-0.006	0.141
-188.158	247.060	-0.093	0.156
-187.144	-115.120	0.156	-0.029
-186.129	-122.530	0.100	0.016
-185.114	36.413	0.355	0.309
-184.100	29.126	-0.078	-0.065
-183.085	-7.990	-0.299	0.200
-182.071	-200.000	-0.003	-0.230
-181.056	184.116	-0.039	0.058
-180.042	47.412	-0.434	0.399
-179.027	-200.000	0.060	0.519
-178.012	-126.961	-0.218	-0.032
-176.998	-83.706	-0.155	-0.049
-175.983	529.009	-0.111	0.258
-174.969	800.000	0.032	-0.095
-173.954	-32.625	0.054	0.030
-172.939	-200.000	-0.033	-0.226
-171.925	325.900	-0.080	-0.151
-170.910	16.282	0.116	0.091
-169.896	-200.000	-0.011	-0.274
-168.881	74.049	0.146	0.152
-167.866	-200.000	-0.018	-0.300
-166.852	-200.000	-0.034	-0.149
-165.837	27.394	0.139	-0.115
-164.823	-105.060	0.170	-0.038
-163.808	-55.257	0.437	-0.194
-162.793	-124.831	0.203	0.031
-161.779	96.759	0.036	-0.040
-160.764	-200.000	0.035	0.233
-159.750	800.000	0.156	0.483
-158.735	55.679	-0.351	-0.336
-157.720	-200.000	-0.022	0.375
-156.706	102.476	0.053	0.061
-155.691	-19.607	-0.117	-0.072
-154.677	54.645	0.123	-0.117
-153.662	-0.938	-0.288	-0.201
-152.647	-200.000	0.024	0.322
-151.633	800.000	-0.051	-0.191
-150.618	-114.483	0.294	0.056
-149.604	-200.000	0.006	-0.154
-148.589	200.543	0.165	0.251
-147.574	-200.000	-0.004	-0.147
-146.560	-51.887	0.067	-0.031
-145.545	143.230	-0.163	-0.214
-144.531	-200.000	-0.044	0.425
-143.516	89.437	-0.074	0.082
-142.502	-200.000	-0.002	-0.031
-141.487	-94.888	0.210	0.056
-140.472	800.000	-0.028	-0.085
-139.458	17.697	-0.269	-0.211
-138.443	800.000	-0.107	-0.409
-137.429	-112.286	-0.108	0.021
-136.414	-75.098	0.106	0.038
-135.399	75.317	0.086	-0.090
-134.385	-114.794	-0.128	0.024
-133.370	129.933	0.198	0.250
-132.356	-20.445	0.158	0.096
-131.341	-24.199	-0.186	0.109
-130.326	-112.590	0.058	-0.011
-129.312	-39.744	-0.193	-0.100
-128.297	151.924	0.303	0.407
-127.283	800.000	0.068	-0.289
-126.268	-12.590	-0.101	0.065
-125.253	800.000	-0.075	-0.278
-124.239	-18.057	-0.175	-0.108
-123.224	94.497	0.315	-0.353
