DTS Sentinel unit serial number:	SN413079Multiplexer serial number:	ORYXHardware model number:	OX4-SRSoftware version number:	ORYX F/W v4.00 Oryx Data Collector v3.7.2.0data status	okinstallation	princeton_trtdifferential loss correction	single-endedforward channel	channel 1reverse channel	N/Adate	2019/09/18time	03:54:35forward acquisition time	60.00reverse acquisition time	0.00gamma	496.2192k internal	0.2339k external	0.2339temperature offset calibration	0.9976default loss term (dB/km)	0.3790temperature slope calibration	1.0000multiplexer offset coefficient	1.0000multiplexer slope coefficient	1.0000fibre end	0.00T internal ref (°C)	23.06T ext. ref 1 (°C)	0.17T ext. ref 2 (°C)	18.05length (m)	temperature (°C)	Stokes	anti-Stokes-747.200	125.853	0.127	-0.161
-746.185	753.138	-0.095	0.257
-745.171	70.321	-0.191	-0.198
-744.156	-154.258	-0.458	0.031
-743.142	-55.477	-0.325	0.146
-742.127	-110.886	0.237	0.049
-741.112	-200.000	0.007	0.136
-740.098	-12.018	0.374	0.246
-739.083	-81.129	0.201	0.067
-738.069	201.923	-0.122	-0.189
-737.054	-12.291	0.224	-0.147
-736.039	-117.719	0.274	-0.049
-735.025	-152.946	0.154	0.011
-734.010	-94.317	-0.379	-0.104
-732.996	182.441	-0.098	0.144
-731.981	-200.000	-0.046	0.369
-730.966	-107.987	-0.110	-0.024
-729.952	292.869	-0.080	-0.146
-728.937	-130.492	0.080	0.011
-727.923	58.623	0.051	-0.050
-726.908	-89.385	0.215	0.063
-725.894	-24.358	-0.351	-0.210
-724.879	800.000	0.080	-0.280
-723.864	800.000	-0.075	0.316
-722.850	476.010	-0.173	-0.391
-721.835	-200.000	-0.001	-0.102
-720.821	-20.137	-0.249	0.154
-719.806	625.765	-0.064	0.162
-718.791	-37.497	-0.328	0.176
-717.777	800.000	-0.113	0.334
-716.762	-200.000	-0.037	0.409
-715.748	-26.998	0.176	0.103
-714.733	-136.068	0.219	0.026
-713.718	-200.000	-0.019	0.241
-712.704	-130.383	-0.260	-0.035
-711.689	160.011	-0.093	0.130
-710.675	601.594	-0.038	-0.094
-709.660	-14.776	-0.181	0.116
-708.645	375.999	0.100	-0.203
-707.631	223.855	0.161	-0.260
-706.616	-60.020	-0.046	0.020
-705.602	27.147	-0.139	-0.117
-704.587	-200.000	0.014	0.201
-703.572	800.000	-0.126	-0.386
-702.558	657.011	-0.123	0.316
-701.543	-63.489	-0.161	-0.066
-700.529	-200.000	-0.009	0.119
-699.514	-200.000	-0.012	0.235
-698.499	119.513	0.247	0.307
-697.485	111.141	0.181	-0.219
-696.470	-48.201	0.148	0.072
-695.456	-200.000	-0.052	-0.326
-694.441	-92.627	-0.223	-0.063
-693.426	-156.807	-0.037	0.002
-692.412	-45.128	-0.294	0.147
-691.397	-200.000	-0.013	-0.232
-690.383	334.429	-0.070	0.136
-689.368	-145.161	0.122	0.011
-688.354	-12.167	-0.381	0.250
-687.339	65.837	0.037	0.037
-686.324	178.267	0.152	-0.223
-685.310	-55.209	-0.254	-0.114
-684.295	-156.159	0.145	-0.009
-683.281	-72.606	0.157	-0.058
-682.266	82.618	-0.084	-0.091
-681.251	164.894	-0.036	-0.051
-680.237	-200.000	-0.016	0.172
-679.222	800.000	0.047	0.205
-678.208	10.051	0.223	-0.170
-677.193	-200.000	-0.060	-0.356
-676.178	-5.926	-0.116	0.079
-675.164	347.420	0.096	0.190
-674.149	-200.000	0.017	0.091
-673.135	800.000	0.037	-0.115
-672.120	-200.000	0.001	-0.060
-671.105	324.492	0.052	-0.099
-670.091	49.342	0.200	0.188
-669.076	-79.274	-0.206	0.070
-668.062	-200.000	-0.031	0.280
-667.047	800.000	-0.040	-0.166
-666.032	-88.551	0.448	-0.133
-665.018	-78.238	0.075	0.026
-664.003	-108.447	-0.195	0.042
-662.989	193.701	-0.081	-0.123
-661.974	-75.083	-0.060	0.021
-660.959	610.728	0.087	-0.217
-659.945	428.281	0.066	0.143
-658.930	495.024	0.122	0.280
-657.916	-113.258	-0.142	0.028
-656.901	800.000	-0.125	0.350
-655.886	-117.085	-0.114	0.021
-654.872	-200.000	-0.021	-0.260
-653.857	106.078	0.211	0.250
-652.843	293.368	0.076	0.139
-651.828	42.890	0.178	-0.162
-650.814	-115.701	-0.307	-0.057
-649.799	-109.008	-0.180	0.038
-648.784	-115.346	0.260	-0.049
-647.770	474.588	-0.134	0.302
-646.755	-200.000	0.004	-0.292
-645.741	-19.987	0.214	0.132
-644.726	-45.613	0.173	-0.086
-643.711	683.069	0.086	0.223
-642.697	-116.085	-0.467	-0.087
-641.682	290.395	0.077	-0.139
-640.668	25.664	-0.102	-0.085
-639.653	-160.568	0.085	0.005
-638.638	240.521	0.231	-0.385
-637.624	364.250	-0.045	0.090
-636.609	184.197	-0.286	-0.423
-635.595	80.110	-0.114	-0.122
-634.580	-200.000	-0.000	0.195
-633.565	678.804	-0.115	0.298
-632.551	-16.988	-0.246	-0.155
-631.536	-35.066	-0.070	0.038
-630.522	59.746	0.056	0.055
-629.507	170.831	0.233	0.334
-628.492	-73.433	0.436	0.159
-627.478	-16.747	-0.220	0.139
-626.463	102.460	-0.181	-0.212
-625.449	112.002	-0.147	-0.177
-624.434	77.382	0.270	-0.287
-623.419	141.816	0.043	-0.057
-622.405	-102.239	0.194	-0.046
-621.390	121.877	0.202	-0.251
-620.376	323.845	-0.143	0.273
-619.361	-7.786	-0.010	0.007
-618.346	-200.000	-0.062	-0.557
-617.332	-51.289	-0.230	-0.107
-616.317	142.473	-0.036	-0.047
-615.303	646.492	-0.080	-0.205
-614.288	-134.476	-0.313	-0.038
-613.273	-200.000	0.056	-0.438
-612.259	-51.012	0.272	-0.127
-611.244	-36.750	-0.254	0.136
-610.230	276.426	0.081	-0.144
-609.215	-113.349	-0.065	0.013
-608.201	-116.781	-0.204	0.037
-607.186	-45.152	0.274	-0.136
-606.171	-25.790	0.249	0.146
-605.157	153.252	0.047	0.064
-604.142	-200.000	0.008	0.252
-603.128	325.281	0.032	0.062
-602.113	722.845	-0.119	-0.316
-601.098	-73.119	-0.205	-0.075
-600.084	-62.517	-0.168	-0.070
-599.069	-200.000	-0.041	-0.190
-598.055	191.812	-0.086	0.129
-597.040	-26.479	0.161	0.094
-596.025	-110.342	0.300	0.062
-595.011	91.914	0.371	-0.416
-593.996	454.146	-0.074	0.162
-592.982	-200.000	-0.037	-0.333
-591.967	-140.785	0.253	0.026
-590.952	-148.656	0.193	0.016
-589.938	252.974	-0.083	-0.142
-588.923	-88.881	-0.057	0.017
-587.909	800.000	0.105	-0.350
-586.894	800.000	0.044	0.125
-585.879	-102.806	0.133	-0.032
-584.865	630.070	-0.069	0.173
-583.850	-104.837	0.179	0.041
-582.836	445.174	-0.159	0.348
-581.821	662.898	0.115	-0.295
-580.806	800.000	0.040	0.165
-579.792	163.359	0.065	-0.091
-578.777	-200.000	0.024	0.117
-577.763	-149.487	-0.104	-0.008
-576.748	800.000	-0.032	-0.100
-575.733	91.812	-0.235	0.263
-574.719	103.836	-0.067	0.078
-573.704	-56.526	-0.243	-0.107
-572.690	305.411	0.041	-0.076
-571.675	3.678	-0.292	-0.212
-570.661	-58.177	0.022	-0.010
-569.646	-63.386	0.216	0.088
-568.631	-200.000	0.005	0.106
-567.617	-125.864	0.272	-0.041
-566.602	-86.212	-0.122	0.037
-565.588	800.000	0.039	0.108
-564.573	-68.817	0.194	-0.075
-563.558	275.700	0.148	0.261
-562.544	38.755	-0.131	-0.117
-561.529	-189.063	0.105	0.001
-560.515	800.000	-0.059	0.164
-559.500	251.553	0.092	0.155
-558.485	-64.134	0.252	-0.102
-557.471	720.970	-0.045	-0.118
-556.456	-200.000	-0.005	-0.338
-555.442	419.999	-0.122	0.259
-554.427	-200.000	0.001	-0.223
-553.412	468.133	-0.152	-0.339
-552.398	-153.499	-0.132	0.009
-551.383	217.452	0.067	0.107
-550.369	800.000	0.032	0.125
-549.354	800.000	-0.038	0.164
-548.339	479.703	-0.039	0.087
-547.325	97.395	-0.294	0.337
-546.310	342.686	-0.143	-0.280
-545.296	-83.367	0.082	0.026
-544.281	482.769	-0.152	-0.343
-543.266	-101.894	0.121	-0.029
-542.252	56.411	-0.120	0.117
-541.237	-180.948	0.322	0.006
-540.223	-105.840	0.219	0.049
-539.208	-36.706	0.140	0.075
-538.193	-37.037	-0.336	-0.179
-537.179	324.568	0.009	-0.018
-536.164	44.803	0.184	-0.168
-535.150	-175.211	0.457	-0.013
-534.135	12.519	0.232	0.178
-533.121	180.223	0.193	0.282
-532.106	-200.000	-0.040	-0.188
-531.091	79.719	0.093	-0.099
-530.077	800.000	-0.028	0.079
-529.062	-30.358	0.139	0.079
-528.048	290.335	-0.077	0.139
-527.033	800.000	0.067	0.282
-526.018	-200.000	-0.030	0.295
-525.004	10.217	0.213	-0.161
-523.989	-162.456	-0.521	-0.026
-522.975	-200.000	0.044	0.263
-521.960	-104.354	0.102	-0.023
-520.945	141.620	0.107	0.140
-519.931	476.010	-0.067	0.151
-518.916	24.463	0.172	0.141
-517.902	-78.214	0.272	-0.093
-516.887	-63.186	0.349	0.143
-515.872	-72.574	-0.105	-0.038
-514.858	347.574	0.065	-0.127
-513.843	136.403	0.076	-0.098
-512.829	197.508	0.056	0.085
-511.814	-45.716	-0.061	0.030
-510.799	-72.739	-0.169	0.062
-509.785	800.000	-0.054	-0.155
-508.770	735.175	-0.026	-0.069
-507.756	-42.455	-0.149	-0.075
-506.741	155.638	0.227	0.311
-505.726	-194.053	0.012	0.000
-504.712	-200.000	0.011	-0.072
-503.697	-32.496	-0.221	-0.123
-502.683	-24.356	0.170	-0.101
-501.668	-200.000	0.009	0.115
-500.653	0.024	-0.141	-0.100
-499.639	-71.038	0.244	0.091
-498.624	800.000	-0.070	0.298
-497.610	-39.909	0.382	0.198
-496.595	23.397	-0.118	-0.096
-495.581	397.539	0.147	-0.306
-494.566	-200.000	-0.024	0.113
-493.551	463.637	0.087	0.192
-492.537	-200.000	-0.001	0.026
-491.522	78.385	-0.271	-0.287
-490.508	145.961	0.139	0.185
-489.493	-35.781	0.269	0.145
-488.478	47.401	-0.180	-0.167
-487.464	303.765	-0.122	0.224
-486.449	-137.288	0.269	-0.030
-485.435	62.456	0.361	0.358
-484.420	-140.325	0.130	0.013
-483.405	-200.000	0.067	-0.381
-482.391	-134.383	-0.212	-0.026
-481.376	419.475	0.151	0.321
-480.362	445.872	-0.046	-0.101
-479.347	158.458	-0.128	-0.177
-478.332	-86.585	-0.370	0.113
-477.318	-41.801	-0.286	-0.146
-476.303	-140.313	0.198	-0.021
-475.289	74.802	0.219	0.229
-474.274	-20.376	-0.439	0.268
-473.259	-23.176	0.096	-0.057
-472.245	-102.167	-0.090	0.021
-471.230	538.117	-0.147	-0.347
-470.216	370.480	-0.095	0.191
-469.201	102.429	-0.157	-0.182
-468.186	744.956	-0.085	-0.226
-467.172	-80.054	0.111	0.037
-466.157	301.947	-0.078	0.143
-465.143	255.845	-0.111	-0.189
-464.128	-61.090	0.130	-0.054
-463.113	-200.000	-0.023	0.166
-462.099	-52.287	-0.306	0.141
-461.084	-167.640	0.114	0.005
-460.070	730.558	0.110	0.293
-459.055	800.000	0.140	-0.396
-458.040	-200.000	0.005	-0.123
-457.026	-200.000	-0.025	0.110
-456.011	573.170	-0.135	-0.327
-454.997	-54.962	-0.055	-0.025
-453.982	-69.731	0.061	0.023
-452.968	800.000	-0.044	0.160
-451.953	-16.553	-0.149	0.094
-450.938	-120.097	0.250	-0.042
-449.924	-95.357	-0.185	0.049
-448.909	800.000	0.013	0.045
-447.895	46.275	-0.186	0.171
-446.880	24.705	-0.149	0.122
-445.865	53.530	0.074	0.070
-444.851	-48.047	0.184	0.088
-443.836	53.298	-0.156	0.148
-442.822	86.807	0.364	0.398
-441.807	94.617	-0.136	-0.154
-440.792	-106.723	0.195	0.043
-439.778	-36.561	0.351	0.187
-438.763	-200.000	-0.015	-0.135
-437.749	-12.836	-0.158	-0.102
-436.734	-162.532	-0.053	0.003
-435.719	-76.666	0.433	-0.151
-434.705	-48.703	-0.281	0.134
-433.690	800.000	-0.058	0.224
-432.676	800.000	-0.087	-0.238
-431.661	-137.261	0.143	0.016
-430.646	-17.379	0.211	0.132
-429.632	-200.000	-0.060	-0.284
-428.617	-200.000	0.010	-0.211
-427.603	-43.109	-0.208	0.105
-426.588	-200.000	-0.242	0.001
-425.573	370.651	-0.095	0.190
-424.559	-181.721	-0.314	0.006
-423.544	104.976	-0.159	0.186
-422.530	800.000	0.115	-0.364
-421.515	303.524	-0.072	0.132
-420.500	-90.351	-0.061	0.018
-419.486	356.697	-0.089	0.176
-418.471	800.000	-0.061	0.244
-417.457	-56.983	-0.169	0.074
-416.442	800.000	-0.097	0.343
-415.428	-85.915	-0.171	0.052
-414.413	-160.638	-0.272	0.014
-413.398	674.772	-0.069	-0.178
-412.384	9.106	0.108	0.081
-411.369	-31.196	0.284	0.159
-410.355	-42.170	0.078	0.040
-409.340	553.068	0.093	-0.222
-408.325	341.670	0.039	0.076
-407.311	38.247	-0.212	-0.187
-406.296	-29.667	-0.187	-0.105
-405.282	111.195	-0.242	0.289
-404.267	225.916	0.144	-0.231
-403.252	-172.987	0.255	-0.008
-402.238	47.789	-0.241	0.223
-401.223	469.570	-0.125	-0.277
-400.209	-55.098	-0.085	0.038
-399.194	86.791	-0.158	-0.173
-398.179	10.076	-0.252	-0.190
-397.165	-200.000	0.011	-0.152
-396.150	-140.010	-0.565	-0.059
-395.136	47.152	0.266	0.245
-394.121	-200.000	0.006	-0.096
-393.106	132.839	-0.186	0.238
-392.092	-20.267	-0.083	-0.051
-391.077	157.220	-0.043	-0.058
-390.063	136.909	0.119	-0.153
-389.048	-34.416	0.250	-0.135
-388.033	22.749	0.066	0.054
-387.019	-165.039	-0.329	-0.014
-386.004	-93.591	0.140	0.038
-384.990	206.229	-0.210	-0.322
-383.975	-200.000	0.066	-0.291
-382.960	122.633	0.041	-0.050
-381.946	800.000	0.083	0.287
-380.931	-200.000	0.011	-0.145
-379.917	-200.000	-0.005	-0.246
-378.902	687.500	-0.066	-0.171
-377.888	442.617	0.069	0.149
-376.873	-33.654	0.072	0.039
-375.858	32.816	0.076	0.065
-374.844	-36.165	-0.398	0.213
-373.829	800.000	-0.055	-0.203
-372.815	231.714	0.116	0.188
-371.800	107.639	0.129	0.151
-370.785	-200.000	0.093	-0.488
-369.771	142.513	0.136	0.178
-368.756	82.784	-0.167	0.179
-367.742	766.812	0.077	0.206
-366.727	-200.000	0.036	-0.275
-365.712	-181.653	-0.446	0.009
-364.698	21.669	0.307	0.247
-363.683	-11.795	-0.400	-0.260
-362.669	-119.858	0.394	-0.067
-361.654	-200.000	0.001	0.280
-360.639	330.701	-0.061	0.117
-359.625	-33.755	-0.134	0.073
-358.610	-36.738	-0.198	0.105
-357.596	-95.118	0.148	0.039
-356.581	7.316	-0.114	-0.084
-355.566	440.976	0.050	-0.108
-354.552	-27.455	-0.272	-0.157
-353.537	671.681	-0.053	-0.135
-352.523	-200.000	-0.034	0.257
-351.508	-17.576	0.278	0.173
-350.493	-200.000	-0.052	-0.356
-349.479	-25.297	-0.280	0.164
-348.464	800.000	0.083	-0.292
-347.450	-104.347	-0.141	0.032
-346.435	-130.392	-0.413	-0.055
-345.420	-200.000	-0.062	-0.307
-344.406	36.986	-0.203	-0.177
-343.391	133.205	0.109	0.140
-342.377	101.986	0.227	-0.261
-341.362	-120.787	-0.277	0.046
-340.348	66.370	0.169	0.170
-339.333	-97.967	-0.061	0.016
-338.318	96.313	0.317	0.358
-337.304	215.063	-0.064	-0.099
-336.289	-14.732	-0.267	0.169
-335.275	184.201	-0.067	0.098
-334.260	-200.000	0.004	0.351
-333.245	529.964	0.043	0.100
-332.231	-107.603	-0.040	-0.009
-331.216	279.043	-0.073	0.129
-330.202	800.000	0.045	-0.185
-329.187	-2.043	-0.262	0.182
-328.172	5.084	-0.340	0.247
-327.158	545.855	0.223	-0.527
-326.143	261.261	-0.091	0.156
-325.129	800.000	0.110	0.402
-324.114	438.039	0.051	-0.109
-323.099	-107.027	0.100	0.022
-322.085	-200.000	-0.061	-0.286
-321.070	-200.000	0.049	-0.542
-320.056	517.058	-0.040	-0.092
-319.041	-197.285	0.206	-0.001
-318.026	800.000	-0.057	0.239
-317.012	-113.212	-0.219	-0.042
-315.997	-114.733	-0.324	-0.061
-314.983	-17.474	-0.259	0.161
-313.968	223.703	-0.134	0.213
-312.953	-200.000	0.005	-0.057
-311.939	222.819	0.162	-0.258
-310.924	105.598	-0.142	0.166
-309.910	27.135	0.092	0.076
-308.895	-200.000	-0.012	-0.428
-307.880	-200.000	0.002	-0.127
-306.866	-78.198	0.166	-0.056
-305.851	292.676	-0.019	0.034
-304.837	800.000	-0.044	-0.164
-303.822	159.629	-0.061	-0.083
-302.807	-146.771	-0.067	-0.006
-301.793	68.573	-0.072	0.072
-300.778	290.187	-0.038	-0.068
-299.764	239.454	-0.025	-0.040
-298.749	19.277	0.259	0.205
-297.735	-200.000	-0.014	0.135
-296.720	-200.000	0.033	-0.256
-295.705	-96.430	0.142	-0.037
-294.691	150.105	0.118	-0.158
-293.676	-200.000	0.039	0.436
-292.662	800.000	-0.031	0.086
-291.647	223.838	-0.146	0.232
-290.632	-131.091	0.267	0.035
-289.618	729.537	0.037	0.097
-288.603	-57.761	0.144	-0.062
-287.589	33.652	-0.132	0.113
-286.574	800.000	-0.032	0.089
-285.559	-0.570	-0.069	0.048
-284.545	-27.518	0.088	0.050
-283.530	-70.852	-0.173	0.064
-282.516	-102.381	0.262	-0.062
-281.501	-200.000	0.002	0.223
-280.486	-35.712	-0.232	0.124
-279.472	-64.908	0.076	0.030
-278.457	-200.000	0.064	-0.315
-277.443	3.524	0.166	0.119
-276.428	391.665	0.036	-0.074
-275.413	134.078	-0.137	0.175
-274.399	58.123	0.168	0.162
-273.384	-57.440	-0.237	0.102
-272.370	463.929	0.147	-0.323
-271.355	800.000	0.029	-0.114
-270.340	-26.970	0.073	0.042
-269.326	-200.000	0.061	-0.412
-268.311	639.404	0.052	-0.129
-267.297	12.183	-0.111	0.084
-266.282	800.000	-0.086	0.245
-265.267	-125.857	-0.054	0.008
-264.253	-12.713	-0.027	0.017
-263.238	-200.000	-0.016	0.228
-262.224	19.275	-0.309	0.244
-261.209	-200.000	0.049	-0.307
-260.195	387.153	0.088	-0.179
-259.180	-55.741	-0.135	0.059
-258.165	-37.885	-0.024	-0.013
-257.151	-59.176	0.395	-0.167
-256.136	166.448	0.218	0.304
-255.122	264.076	0.056	-0.096
-254.107	-200.000	0.052	0.000
-253.092	-44.471	0.096	0.047
-252.078	-200.000	0.019	-0.280
-251.063	22.623	-0.089	0.072
-250.049	-66.730	0.263	0.103
-249.034	38.105	-0.277	0.243
-248.019	-83.046	-0.150	0.047
-247.005	-200.000	-0.021	-0.193
-245.990	29.185	0.275	-0.230
-244.976	800.000	-0.056	-0.205
-243.961	344.499	0.142	-0.274
-242.946	-200.000	0.034	0.222
-241.932	-65.454	-0.091	0.036
-240.917	87.626	-0.132	-0.144
-239.903	34.039	0.156	0.134
-238.888	-123.566	0.201	0.031
-237.873	742.800	0.015	-0.040
-236.859	375.716	0.073	0.147
-235.844	223.030	-0.174	0.275
-234.830	378.955	-0.107	-0.215
-233.815	-200.000	0.100	0.537
-232.800	800.000	-0.045	0.164
-231.786	-200.000	-0.061	0.296
-230.771	-69.236	0.103	0.039
-229.757	-92.143	-0.271	0.075
-228.742	196.370	0.140	0.210
-227.727	-155.747	0.049	-0.003
-226.713	-1.157	-0.110	-0.076
-225.698	23.723	-0.272	-0.220
-224.684	104.172	0.162	0.188
-223.669	30.518	0.059	-0.050
-222.655	-51.099	-0.255	-0.117
-221.640	296.161	-0.127	0.229
-220.625	26.370	0.034	0.028
-219.611	45.341	-0.089	-0.081
-218.596	137.756	0.215	-0.276
-217.582	89.381	0.100	-0.110
-216.567	-200.000	0.016	-0.101
-215.552	-44.766	0.394	-0.193
-214.538	21.567	-0.083	-0.067
-213.523	104.786	-0.255	-0.295
-212.509	800.000	-0.039	-0.126
-211.494	39.164	0.310	0.272
-210.479	26.497	-0.200	-0.165
-209.465	235.120	0.118	0.192
-208.450	-92.956	0.134	0.037
-207.436	800.000	0.063	0.192
-206.421	-200.000	0.030	0.298
-205.406	-94.868	0.107	-0.028
-204.392	-181.670	0.317	0.006
-203.377	-131.465	-0.180	0.023
-202.363	-200.000	0.002	0.043
-201.348	-39.811	0.199	-0.102
-200.333	-200.000	-0.022	-0.207
-199.319	308.870	-0.113	0.207
-198.304	440.212	-0.144	-0.309
-197.290	72.483	0.385	-0.395
-196.275	-200.000	0.001	-0.174
-195.260	-37.118	0.065	0.034
-194.246	-86.371	0.152	0.046
-193.231	138.664	-0.047	-0.061
-192.217	121.996	-0.047	-0.058
-191.202	182.507	0.097	-0.140
-190.187	-86.201	0.231	-0.070
-189.173	-43.684	-0.035	-0.017
-188.158	-69.758	0.249	0.094
-187.144	700.857	-0.119	0.307
-186.129	67.123	-0.177	-0.177
-185.114	177.696	0.198	-0.283
-184.100	-176.446	0.038	0.001
-183.085	84.418	-0.159	0.171
-182.071	124.388	-0.196	0.242
-181.056	365.565	0.076	-0.150
-180.042	652.964	-0.063	0.158
-179.027	-119.572	-0.227	0.039
-178.012	800.000	0.070	-0.217
-176.998	46.457	0.231	0.210
-175.983	11.203	0.143	-0.107
-174.969	800.000	0.030	-0.123
-173.954	516.509	0.175	-0.402
-172.939	-153.018	-0.049	-0.003
-171.925	-88.924	-0.406	-0.118
-170.910	-100.583	0.439	-0.106
-169.896	-137.758	0.230	-0.025
-168.881	-32.549	-0.341	0.186
-167.866	-187.464	0.481	-0.006
-166.852	-53.730	-0.120	-0.054
-165.837	-24.442	0.122	0.071
-164.823	135.061	-0.143	0.182
-163.808	-49.698	-0.214	-0.100
-162.793	-61.658	0.418	0.172
-161.779	-86.272	0.109	0.033
-160.764	-97.033	-0.171	-0.044
-159.750	41.266	-0.122	0.109
-158.735	-46.923	-0.053	0.026
-157.720	-127.151	0.121	-0.017
-156.706	-92.931	-0.144	-0.039
-155.691	-60.052	0.116	-0.048
-154.677	-110.664	-0.103	0.021
-153.662	800.000	0.023	0.072
-152.647	-200.000	-0.027	0.368
-151.633	70.453	0.198	0.200
-150.618	-16.795	0.301	-0.187
-149.604	-200.000	0.034	-0.216
-148.589	20.705	0.121	0.096
-147.574	-158.996	-0.373	0.021
-146.560	13.997	0.229	0.175
-145.545	-112.734	-0.021	0.004
-144.531	-148.503	0.104	0.008
-143.516	-200.000	-0.045	0.276
-142.502	-146.237	0.431	0.037
-141.487	50.303	-0.209	-0.194
-140.472	358.988	-0.121	0.236
-139.458	-133.405	-0.085	0.010
-138.443	-132.588	0.165	0.021
-137.429	519.245	0.103	-0.236
-136.414	749.509	0.109	0.289
-135.399	-82.193	0.148	-0.047
-134.385	-148.304	-0.148	0.012
-133.370	-86.501	-0.297	-0.089
-132.356	276.899	0.062	0.108
-131.341	250.815	-0.046	0.077
-130.326	205.221	0.144	0.219
-129.312	791.121	0.070	0.188
-128.297	-78.916	-0.186	0.062
-127.283	-200.000	0.005	0.365
-126.268	132.208	0.185	0.233
-125.253	68.125	-0.024	0.024
-124.239	764.730	-0.084	-0.222
-123.224	272.422	0.032	0.055
-122.210	800.000	0.095	0.272
-121.195	800.000	0.089	-0.298
