DTS Sentinel unit serial number:	SN413079Multiplexer serial number:	ORYXHardware model number:	OX4-SRSoftware version number:	ORYX F/W v4.00 Oryx Data Collector v3.7.2.0data status	okinstallation	princeton_trtdifferential loss correction	single-endedforward channel	channel 1reverse channel	N/Adate	2019/09/12time	03:48:11forward acquisition time	60.00reverse acquisition time	0.00gamma	496.2192k internal	0.2322k external	0.2322temperature offset calibration	1.0079default loss term (dB/km)	0.3790temperature slope calibration	1.0000multiplexer offset coefficient	1.0000multiplexer slope coefficient	1.0000fibre end	0.00T internal ref (°C)	32.14T ext. ref 1 (°C)	2.14T ext. ref 2 (°C)	27.20length (m)	temperature (°C)	Stokes	anti-Stokes-747.200	-200.000	0.031	0.351
-746.185	592.431	0.102	0.254
-745.171	-200.000	-0.011	-0.195
-744.156	-135.931	-0.324	0.039
-743.142	652.758	-0.040	-0.103
-742.127	-152.886	-0.296	0.021
-741.112	-19.461	-0.285	0.179
-740.098	800.000	0.052	0.181
-739.083	-140.816	-0.253	-0.026
-738.069	35.249	-0.119	-0.106
-737.054	-9.395	-0.071	-0.048
-736.039	42.730	0.179	0.164
-735.025	93.588	0.318	0.364
-734.010	-49.316	-0.173	-0.083
-732.996	435.230	0.087	-0.191
-731.981	435.326	-0.112	-0.247
-730.966	542.806	0.016	0.038
-729.952	306.346	0.122	0.229
-728.937	430.266	-0.240	-0.524
-727.923	140.763	-0.126	-0.168
-726.908	-100.942	0.114	0.028
-725.894	-51.731	-0.491	0.231
-724.879	154.943	0.207	0.287
-723.864	246.255	-0.109	-0.185
-722.850	-111.429	-0.137	-0.028
-721.835	291.781	0.089	0.163
-720.821	98.658	-0.097	0.113
-719.806	116.219	-0.276	0.341
-718.791	206.189	0.118	0.186
-717.777	113.658	-0.203	0.248
-716.762	-40.033	-0.410	0.216
-715.748	133.797	0.061	-0.080
-714.733	24.272	-0.169	0.141
-713.718	698.089	-0.079	-0.209
-712.704	800.000	0.074	-0.256
-711.689	-5.127	-0.263	-0.182
-710.675	-200.000	0.053	0.447
-709.660	31.416	-0.089	0.077
-708.645	-200.000	-0.016	-0.171
-707.631	-8.142	0.191	0.130
-706.616	-83.804	0.140	-0.045
-705.602	3.338	-0.140	-0.103
-704.587	-23.297	-0.224	0.136
-703.572	307.425	-0.073	0.138
-702.558	-6.797	-0.305	-0.209
-701.543	370.766	0.032	-0.066
-700.529	800.000	-0.083	0.359
-699.514	-56.217	0.249	0.112
-698.499	-63.126	-0.265	-0.110
-697.485	800.000	-0.096	0.294
-696.470	800.000	-0.079	0.294
-695.456	341.885	-0.086	-0.169
-694.441	-97.832	0.042	-0.011
-693.426	800.000	0.114	-0.437
-692.412	234.686	-0.145	-0.242
-691.397	-101.862	0.207	0.050
-690.383	5.402	-0.209	-0.155
-689.368	20.611	0.228	0.186
-688.354	104.277	0.130	-0.154
-687.339	-200.000	0.012	0.066
-686.324	22.177	-0.071	-0.059
-685.310	-83.695	0.244	-0.079
-684.295	-78.741	0.147	0.051
-683.281	-200.000	0.014	-0.187
-682.266	94.798	0.041	-0.048
-681.251	2.426	-0.289	-0.211
-680.237	-35.650	-0.075	0.041
-679.222	21.142	0.079	-0.064
-678.208	-200.000	0.025	-0.147
-677.193	-111.886	-0.300	0.061
-676.178	-143.768	0.033	0.003
-675.164	-37.085	-0.084	-0.045
-674.149	257.497	0.055	0.095
-673.135	50.912	0.107	-0.102
-672.120	-85.390	-0.054	-0.017
-671.105	800.000	-0.004	-0.013
-670.091	-56.966	-0.094	0.042
-669.076	800.000	-0.103	-0.442
-668.062	229.637	-0.131	0.216
-667.047	226.736	-0.071	-0.115
-666.032	26.008	-0.065	0.055
-665.018	800.000	0.177	0.518
-664.003	-21.536	0.133	0.082
-662.989	130.866	0.139	0.180
-661.974	-200.000	-0.029	0.386
-660.959	104.687	-0.016	0.019
-659.945	-33.289	0.197	-0.110
-658.930	-141.126	-0.282	0.029
-657.916	12.315	0.402	-0.312
-656.901	800.000	-0.090	0.288
-655.886	-149.171	0.223	-0.018
-654.872	-79.859	-0.215	-0.073
-653.857	152.479	-0.101	0.139
-652.843	-54.387	-0.235	-0.107
-651.828	779.531	-0.089	-0.245
-650.814	-185.155	-0.214	0.003
-649.799	118.165	-0.297	0.369
-648.784	-39.493	0.286	-0.151
-647.770	-200.000	-0.009	0.048
-646.755	-107.684	-0.371	0.082
-645.741	-200.000	-0.024	0.187
-644.726	800.000	0.058	0.218
-643.711	-3.145	-0.183	-0.128
-642.697	-30.742	-0.141	0.080
-641.682	458.090	0.069	0.155
-640.668	41.279	0.245	-0.223
-639.653	-200.000	0.009	-0.080
-638.638	800.000	-0.015	-0.049
-637.624	800.000	0.060	0.183
-636.609	256.313	-0.196	0.338
-635.595	800.000	0.052	-0.167
-634.580	9.733	0.101	-0.077
-633.565	338.079	0.105	-0.206
-632.551	598.026	-0.004	-0.010
-631.536	-57.545	-0.362	-0.160
-630.522	-16.167	0.117	0.075
-629.507	491.579	0.049	-0.114
-628.492	-104.140	-0.189	-0.044
-627.478	-29.361	-0.122	-0.070
-626.463	-92.559	0.038	-0.011
-625.449	91.471	0.056	-0.063
-624.434	99.668	-0.136	0.158
-623.419	-150.982	0.264	0.020
-622.405	50.260	-0.082	0.078
-621.390	-148.074	-0.239	0.020
-620.376	34.785	-0.231	0.203
-619.361	-101.800	-0.338	-0.082
-618.346	-2.940	-0.212	0.149
-617.332	351.914	0.003	-0.007
-616.317	800.000	-0.064	0.232
-615.303	33.244	0.109	-0.095
-614.288	-121.714	0.069	0.012
-613.273	14.668	0.060	-0.047
-612.259	-127.095	0.338	-0.050
-611.244	325.453	-0.101	-0.195
-610.230	6.620	0.217	-0.162
-609.215	333.239	0.146	0.285
-608.201	-60.300	-0.175	0.075
-607.186	612.821	-0.090	0.226
-606.171	-110.805	0.290	-0.060
-605.157	-200.000	-0.051	0.386
-604.142	-200.000	-0.022	0.111
-603.128	-161.867	0.230	0.012
-602.113	81.610	-0.117	0.127
-601.098	-55.018	-0.147	0.067
-600.084	624.002	0.125	0.317
-599.069	121.790	-0.168	-0.210
-598.055	-173.614	-0.171	0.005
-597.040	-67.812	-0.168	-0.066
-596.025	-18.301	0.259	0.163
-595.011	-104.235	0.003	0.001
-593.996	159.085	-0.156	-0.217
-592.982	134.858	-0.083	-0.108
-591.967	3.380	-0.482	0.352
-590.952	543.171	0.068	0.162
-589.938	-200.000	0.028	-0.437
-588.923	-67.885	0.333	0.131
-587.909	-93.310	-0.252	0.070
-586.894	-134.208	-0.273	-0.034
-585.879	-189.499	-0.122	0.001
-584.865	666.942	-0.089	-0.231
-583.850	-200.000	-0.021	0.107
-582.836	424.567	0.041	-0.088
-581.821	383.134	0.115	-0.238
-580.806	-200.000	-0.012	-0.331
-579.792	-1.452	0.152	-0.108
-578.777	-76.097	-0.168	0.060
-577.763	800.000	-0.050	0.189
-576.748	76.475	0.141	0.150
-575.733	143.211	0.121	0.162
-574.719	-100.006	-0.100	0.025
-573.704	-145.566	0.082	-0.007
-572.690	-117.245	-0.178	-0.033
-571.675	45.543	-0.026	0.024
-570.661	59.438	-0.067	-0.066
-569.646	522.775	-0.065	0.152
-568.631	-102.818	0.189	-0.045
-567.617	379.433	-0.080	-0.165
-566.602	800.000	0.108	-0.354
-565.588	-15.803	0.095	-0.061
-564.573	-127.086	0.208	0.031
-563.558	-36.883	-0.174	-0.094
-562.544	441.516	-0.091	0.201
-561.529	-74.683	-0.220	0.079
-560.515	-200.000	-0.051	-0.378
-559.500	-200.000	-0.058	-0.382
-558.485	-200.000	-0.021	0.286
-557.471	-146.846	0.293	0.025
-556.456	-136.225	0.158	0.019
-555.442	-95.834	0.142	0.038
-554.427	-5.109	0.219	-0.151
-553.412	-200.000	0.050	0.253
-552.398	-37.118	0.070	0.038
-551.383	-200.000	0.041	0.213
-550.369	-92.196	-0.153	0.043
-549.354	30.659	0.375	0.322
-548.339	182.669	0.126	0.187
-547.325	-200.000	0.005	-0.232
-546.310	-179.043	0.218	0.005
-545.296	-155.884	-0.271	-0.017
-544.281	-67.382	0.222	0.087
-543.266	341.115	0.203	0.399
-542.252	664.804	-0.034	0.088
-541.237	52.882	-0.298	-0.286
-540.223	-44.852	0.282	-0.141
-539.208	-200.000	0.024	-0.144
-538.193	148.609	0.137	-0.185
-537.179	-72.350	-0.218	-0.081
-536.164	-23.965	0.137	0.082
-535.150	92.738	-0.099	0.112
-534.135	37.414	0.087	0.077
-533.121	-200.000	-0.010	0.162
-532.106	800.000	-0.034	0.099
-531.091	800.000	0.053	0.180
-530.077	-27.269	0.229	-0.134
-529.062	418.218	-0.063	0.135
-528.048	800.000	0.060	0.243
-527.033	800.000	-0.037	0.107
-526.018	360.850	0.038	0.077
-525.004	-166.778	0.267	-0.011
-523.989	230.601	-0.125	0.205
-522.975	-4.009	-0.109	0.076
-521.960	-98.209	0.080	0.021
-520.945	800.000	-0.056	-0.201
-519.931	25.848	0.094	-0.078
-518.916	-86.633	-0.386	0.118
-517.902	-153.198	-0.206	-0.014
-516.887	-69.321	-0.128	-0.049
-515.872	133.998	0.144	-0.187
-514.858	-74.305	0.258	-0.093
-513.843	-12.749	-0.359	0.234
-512.829	160.960	-0.067	0.094
-511.814	-200.000	-0.030	0.141
-510.799	800.000	0.122	-0.432
-509.785	-118.958	-0.297	-0.052
-508.770	-135.537	0.247	-0.029
-507.756	236.118	0.101	-0.167
-506.741	119.817	0.058	-0.072
-505.726	-121.666	-0.213	-0.035
-504.712	44.025	-0.099	-0.091
-503.697	448.554	0.078	0.172
-502.683	-41.335	-0.279	0.144
-501.668	-200.000	-0.021	-0.142
-500.653	-75.492	0.180	-0.064
-499.639	792.969	0.177	-0.488
-498.624	86.374	-0.087	-0.096
-497.610	-200.000	-0.021	-0.136
-496.595	494.450	-0.102	-0.234
-495.581	-72.882	-0.029	0.011
-494.566	-109.696	-0.095	0.020
-493.551	-53.878	-0.338	0.154
-492.537	69.972	0.072	-0.074
-491.522	-112.021	-0.022	-0.004
-490.508	-141.815	0.431	0.043
-489.493	-179.137	-0.060	0.001
-488.478	108.117	-0.125	0.149
-487.464	190.262	0.282	0.423
-486.449	-200.000	0.029	-0.227
-485.435	800.000	-0.054	-0.193
-484.420	-171.458	-0.306	0.010
-483.405	-112.112	-0.213	-0.043
-482.391	-69.373	-0.059	0.023
-481.376	-2.961	-0.158	0.110
-480.362	-200.000	0.001	-0.232
-479.347	-200.000	0.070	-0.327
-478.332	-84.997	-0.126	0.039
-477.318	-121.693	-0.229	0.038
-476.303	-89.511	0.246	-0.072
-475.289	-118.951	-0.202	0.035
-474.274	34.322	-0.177	-0.154
-473.259	48.014	0.154	-0.144
-472.245	193.580	-0.101	0.154
-471.230	200.768	0.019	-0.030
-470.216	721.163	-0.018	-0.047
-469.201	435.360	0.042	-0.090
-468.186	-200.000	-0.013	-0.322
-467.172	-97.824	-0.133	-0.034
-466.157	-44.469	-0.021	0.010
-465.143	626.649	0.095	0.241
-464.128	-97.634	-0.070	-0.018
-463.113	-200.000	0.023	-0.157
-462.099	-129.566	0.300	-0.042
-461.084	164.019	-0.166	-0.233
-460.070	577.578	0.030	-0.074
-459.055	800.000	0.052	0.174
-458.040	16.634	0.139	0.110
-457.026	-108.409	-0.192	0.041
-456.011	527.223	-0.090	0.211
-454.997	433.074	0.061	0.132
-453.982	-48.926	-0.290	0.139
-452.968	125.628	0.160	0.202
-451.953	-117.330	-0.159	-0.029
-450.938	-113.986	0.048	-0.009
-449.924	-200.000	-0.018	0.184
-448.909	726.566	-0.046	0.122
-447.895	-92.958	-0.184	-0.051
-446.880	800.000	0.086	-0.283
-445.865	-200.000	-0.028	0.332
-444.851	44.560	-0.130	-0.119
-443.836	-190.816	-0.033	-0.000
-442.822	800.000	0.016	0.052
-441.807	95.732	-0.042	-0.047
-440.792	-122.432	0.361	0.059
-439.778	151.700	0.038	-0.052
-438.763	-45.248	-0.321	-0.159
-437.749	137.840	-0.183	-0.239
-436.734	-117.264	0.260	0.047
-435.719	422.984	-0.088	0.188
-434.705	-156.625	-0.391	-0.024
-433.690	214.657	0.223	-0.353
-432.676	138.040	-0.027	-0.035
-431.661	-152.051	0.328	0.024
-430.646	183.459	-0.053	0.078
-429.632	790.903	-0.033	0.091
-428.617	-80.811	0.259	0.086
-427.603	-200.000	0.022	0.097
-426.588	439.792	0.084	0.183
-425.573	-167.476	0.132	-0.005
-424.559	387.989	-0.118	-0.244
-423.544	137.113	-0.055	0.072
-422.530	-200.000	-0.012	-0.229
-421.515	206.453	-0.097	-0.151
-420.500	-200.000	-0.016	0.142
-419.486	311.344	-0.118	-0.221
-418.471	188.763	-0.157	-0.234
-417.457	-200.000	-0.015	-0.212
-416.442	-200.000	-0.004	-0.201
-415.428	316.332	0.024	-0.046
-414.413	-50.561	0.060	0.028
-413.398	800.000	-0.108	-0.344
-412.384	180.280	0.129	-0.189
-411.369	800.000	0.039	-0.143
-410.355	-97.422	0.234	0.061
-409.340	-164.388	-0.226	-0.010
-408.325	800.000	0.092	0.253
-407.311	682.307	0.055	0.142
-406.296	319.493	-0.037	0.069
-405.282	153.015	0.145	-0.198
-404.267	289.029	0.053	-0.096
-403.252	103.396	0.103	0.121
-402.238	25.538	0.042	-0.035
-401.223	-186.955	-0.230	-0.003
-400.209	-29.802	-0.128	0.073
-399.194	800.000	-0.087	0.259
-398.179	58.382	-0.160	0.156
-397.165	175.732	0.154	0.223
-396.150	800.000	0.097	-0.304
-395.136	-200.000	0.001	0.132
-394.121	-200.000	-0.002	-0.173
-393.106	-200.000	0.034	-0.260
-392.092	116.347	-0.197	0.241
-391.077	-127.293	0.147	-0.021
-390.063	416.646	0.089	-0.189
-389.048	59.435	0.151	0.148
-388.033	-5.517	-0.239	0.163
-387.019	184.719	0.098	0.144
-386.004	-185.874	-0.191	-0.003
-384.990	800.000	0.035	-0.119
-383.975	147.550	-0.115	0.154
-382.960	160.017	0.139	-0.194
-381.946	28.059	0.282	-0.237
-380.931	-15.215	-0.383	0.244
-379.917	-118.831	0.186	0.033
-378.902	-151.351	0.161	-0.012
-377.888	-119.616	-0.150	-0.026
-376.873	-200.000	0.073	0.369
-375.858	-100.708	-0.075	0.018
-374.844	147.612	-0.157	0.211
-373.829	-85.532	0.226	-0.070
-372.815	-200.000	0.005	-0.063
-371.800	-127.478	0.206	0.030
-370.785	-22.806	0.171	-0.103
-369.771	100.823	-0.123	-0.142
-368.756	239.750	-0.059	0.098
-367.742	-119.510	-0.392	-0.068
-366.727	143.101	0.057	0.075
-365.712	47.950	-0.072	0.067
-364.698	168.219	0.136	0.192
-363.683	52.896	-0.158	0.151
-362.669	-114.762	0.373	-0.071
-361.654	372.793	-0.123	0.249
-360.639	-75.868	-0.166	0.059
-359.625	-78.282	-0.318	-0.109
-358.610	-200.000	-0.015	-0.098
-357.596	174.909	-0.218	0.314
-356.581	137.930	0.101	0.131
-355.566	-200.000	0.006	-0.373
-354.552	101.785	-0.054	0.063
-353.537	295.090	-0.067	-0.122
-352.523	-200.000	-0.004	-0.031
-351.508	-200.000	-0.071	-0.410
-350.493	-66.845	0.175	-0.069
-349.479	681.273	0.069	0.179
-348.464	80.534	0.084	0.091
-347.450	-66.320	0.185	-0.073
-346.435	608.098	0.045	0.111
-345.420	-71.585	-0.056	0.021
-344.406	-122.008	-0.140	-0.023
-343.391	-200.000	-0.072	-0.377
-342.377	441.905	-0.158	0.345
-341.362	487.426	-0.064	-0.145
-340.348	308.356	0.059	0.109
-339.333	-80.598	0.303	0.100
-338.318	-41.931	-0.167	-0.085
-337.304	-18.026	0.196	-0.122
-336.289	800.000	0.079	-0.281
-335.275	-75.781	0.431	-0.152
-334.260	800.000	0.046	0.146
-333.245	65.107	-0.096	0.097
-332.231	151.731	0.184	0.250
-331.216	792.488	0.153	0.418
-330.202	-200.000	-0.063	0.316
-329.187	129.965	-0.169	-0.215
-328.172	-200.000	-0.047	-0.288
-327.158	800.000	-0.043	0.142
-326.143	-200.000	0.007	0.287
-325.129	-117.967	-0.206	0.037
-324.114	-200.000	-0.029	-0.216
-323.099	63.529	-0.232	0.231
-322.085	-14.545	0.120	0.077
-321.070	257.936	-0.053	0.091
-320.056	194.984	0.290	0.437
-319.041	41.535	-0.258	-0.232
-318.026	-115.985	0.426	-0.079
-317.012	-53.779	-0.175	-0.079
-315.997	13.283	-0.213	-0.164
-314.983	21.284	-0.081	0.065
-313.968	-43.862	0.112	-0.056
-312.953	47.314	0.126	-0.116
-311.939	729.341	0.054	-0.142
-310.924	2.776	0.123	0.089
-309.910	78.935	-0.066	-0.070
-308.895	800.000	0.045	0.159
-307.880	300.945	-0.143	-0.262
-306.866	114.992	-0.061	-0.074
-305.851	430.942	0.016	-0.033
-304.837	38.368	-0.324	-0.287
-303.822	-164.693	0.254	0.011
-302.807	-200.000	-0.055	0.331
-301.793	-94.871	-0.361	-0.097
-300.778	750.949	0.052	-0.139
-299.764	456.870	-0.003	-0.006
-298.749	-200.000	0.017	0.242
-297.735	340.647	-0.094	0.182
-296.720	-126.464	0.372	-0.055
-295.705	-28.133	0.163	-0.094
-294.691	-27.666	0.235	-0.135
-293.676	-200.000	0.039	-0.233
-292.662	-172.189	0.051	-0.002
-291.647	-74.808	0.258	0.092
-290.632	800.000	0.014	0.043
-289.618	-78.285	-0.097	0.033
-288.603	-200.000	-0.042	0.207
-287.589	-12.676	0.243	-0.157
-286.574	800.000	0.071	-0.219
-285.559	-28.006	-0.410	-0.236
-284.545	-200.000	0.051	0.236
-283.530	-22.954	0.041	0.025
-282.516	-200.000	-0.034	0.305
-281.501	800.000	0.072	0.206
-280.486	-71.822	-0.581	0.215
-279.472	0.674	0.291	-0.207
-278.457	142.455	-0.194	0.256
-277.443	58.356	-0.209	-0.203
-276.428	-24.430	0.076	0.045
-275.413	-109.077	-0.208	-0.044
-274.399	27.897	0.133	0.111
-273.384	-200.000	0.006	0.140
-272.370	800.000	0.147	-0.491
-271.355	-128.119	-0.236	0.034
-270.340	-66.628	0.215	0.085
-269.326	204.117	-0.122	-0.188
-268.311	-200.000	0.017	0.268
-267.297	161.143	0.113	-0.157
-266.282	2.309	0.239	-0.171
-265.267	-32.774	0.376	0.207
-264.253	-174.988	-0.086	-0.002
-263.238	-115.685	0.230	0.043
-262.224	109.460	0.040	0.048
-261.209	17.193	-0.238	-0.187
-260.195	-110.436	-0.194	0.040
-259.180	-39.474	-0.201	0.104
-258.165	-133.441	0.376	-0.047
-257.151	-200.000	0.035	-0.305
-256.136	71.190	-0.096	0.098
-255.122	-26.372	-0.220	0.128
-254.107	188.811	-0.203	-0.301
-253.092	-2.020	0.097	0.067
-252.078	-23.138	0.159	-0.095
-251.063	-100.262	0.237	0.058
-250.049	547.253	0.027	-0.065
-249.034	-45.638	-0.158	-0.077
-248.019	172.708	-0.122	-0.173
-247.005	43.784	-0.144	0.130
-245.990	-200.000	-0.005	0.164
-244.976	-200.000	0.021	0.193
-243.961	-91.685	-0.077	0.022
-242.946	-142.228	-0.158	-0.016
-241.932	-57.662	0.332	-0.144
-240.917	-116.772	0.094	-0.017
-239.903	-53.850	-0.291	-0.131
-238.888	60.022	-0.145	0.142
-237.873	-200.000	0.011	0.150
-236.859	29.368	-0.014	0.012
-235.844	132.520	0.105	0.135
-234.830	24.246	-0.153	-0.126
-233.815	679.326	0.048	0.124
-232.800	265.023	0.162	0.280
-231.786	-73.808	0.213	0.077
-230.771	-200.000	-0.002	-0.284
-229.757	-50.226	-0.141	-0.066
-228.742	-100.916	0.118	0.029
-227.727	-200.000	-0.010	0.263
-226.713	800.000	-0.013	0.037
-225.698	180.484	-0.140	0.204
-224.684	17.280	-0.043	0.034
-223.669	49.706	0.197	0.184
-222.655	70.430	0.069	0.070
-221.640	-200.000	-0.012	0.293
-220.625	494.541	0.110	-0.251
-219.611	-114.515	-0.210	-0.040
-218.596	-87.511	-0.300	-0.090
-217.582	512.776	0.143	-0.329
-216.567	-200.000	0.036	-0.177
-215.552	-36.278	-0.213	-0.114
-214.538	745.666	-0.069	0.183
-213.523	-111.601	0.239	0.048
-212.509	800.000	0.068	0.245
-211.494	-187.078	0.197	-0.003
-210.479	-123.559	-0.077	0.012
-209.465	-46.155	0.331	-0.161
-208.450	328.817	-0.214	-0.407
-207.436	8.229	0.227	-0.169
-206.421	-110.021	-0.437	-0.090
-205.406	-35.099	-0.307	0.166
-204.392	41.057	-0.117	0.104
-203.377	201.499	0.080	-0.122
-202.363	-200.000	0.032	-0.196
-201.348	-200.000	-0.000	-0.073
-200.333	-200.000	-0.003	0.100
-199.319	-200.000	0.015	0.184
-198.304	39.064	0.174	0.154
-197.290	88.211	-0.091	0.100
-196.275	36.517	0.224	0.196
-195.260	-200.000	0.013	-0.143
-194.246	-65.938	0.257	-0.101
-193.231	124.344	-0.037	0.046
-192.217	245.940	-0.234	0.390
-191.202	-169.611	-0.190	-0.007
-190.187	-20.058	0.192	0.117
-189.173	38.834	0.156	-0.138
-188.158	-25.198	0.307	-0.180
-187.144	-200.000	0.015	-0.237
-186.129	115.117	0.058	-0.070
-185.114	-200.000	0.021	0.203
-184.100	-200.000	0.016	-0.253
-183.085	68.769	-0.031	0.032
-182.071	-72.300	0.168	-0.062
-181.056	-142.460	0.047	-0.005
-180.042	-146.421	0.082	0.007
-179.027	800.000	0.043	-0.129
-178.012	51.451	0.213	-0.200
-176.998	-200.000	0.032	0.149
-175.983	-29.686	-0.082	0.046
-174.969	8.615	0.178	-0.133
-173.954	-136.256	-0.163	0.019
-172.939	347.702	0.090	0.175
-171.925	800.000	-0.026	-0.095
-170.910	-200.000	-0.032	0.150
-169.896	333.379	-0.101	-0.193
-168.881	185.128	0.149	0.219
-167.866	-200.000	0.002	-0.108
-166.852	249.900	0.101	-0.170
-165.837	22.701	-0.054	0.044
-164.823	220.092	-0.253	0.400
-163.808	0.423	0.174	-0.123
-162.793	578.579	-0.059	-0.141
-161.779	84.248	0.169	-0.182
-160.764	-117.247	0.308	-0.055
-159.750	-40.630	0.397	-0.203
-158.735	-200.000	0.033	-0.190
-157.720	-200.000	-0.002	0.034
-156.706	503.848	0.052	0.118
-155.691	-200.000	-0.053	-0.236
-154.677	7.759	0.296	0.219
-153.662	-89.280	-0.287	-0.084
-152.647	128.329	0.094	-0.118
-151.633	343.261	0.104	0.200
-150.618	-200.000	-0.020	0.250
-149.604	310.049	-0.058	-0.108
-148.589	-200.000	-0.006	-0.076
-147.574	215.108	0.115	0.179
-146.560	-84.879	-0.136	0.042
-145.545	-91.841	0.171	-0.048
-144.531	158.957	-0.070	-0.097
-143.516	11.107	0.227	-0.172
-142.502	168.108	-0.102	0.143
-141.487	-61.850	-0.115	0.048
-140.472	-33.185	0.335	0.183
-139.458	-200.000	0.002	0.105
-138.443	70.193	-0.250	-0.255
-137.429	-94.407	0.269	-0.073
-136.414	-200.000	0.068	0.294
-135.399	-80.438	-0.405	0.133
-134.385	-119.016	0.284	0.049
-133.370	-200.000	0.026	-0.350
-132.356	-122.924	-0.102	-0.016
-131.341	178.904	-0.103	0.149
-130.326	-81.173	0.229	0.075
-129.312	-57.322	-0.168	0.073
-128.297	-100.738	0.296	0.072
-127.283	633.307	0.137	-0.342
-126.268	293.140	0.033	-0.060
-125.253	-106.941	0.467	0.102
-124.239	-47.955	0.192	0.092
-123.224	11.017	-0.028	-0.021
-122.210	314.443	0.046	-0.085
-121.195	-110.052	-0.152	-0.031
