DTS Sentinel unit serial number:	SN413079Multiplexer serial number:	ORYXHardware model number:	OX4-SRSoftware version number:	ORYX F/W v4.00 Oryx Data Collector v3.7.2.0data status	okinstallation	princeton_trtdifferential loss correction	single-endedforward channel	channel 1reverse channel	N/Adate	2019/09/14time	12:26:35forward acquisition time	60.00reverse acquisition time	0.00gamma	496.2192k internal	0.2295k external	0.2295temperature offset calibration	1.0080default loss term (dB/km)	0.3790temperature slope calibration	1.0000multiplexer offset coefficient	1.0000multiplexer slope coefficient	1.0000fibre end	0.00T internal ref (°C)	37.87T ext. ref 1 (°C)	4.76T ext. ref 2 (°C)	34.92length (m)	temperature (°C)	Stokes	anti-Stokes-747.200	219.655	0.227	-0.372
-746.185	-51.830	0.196	-0.093
-745.171	2.237	0.118	-0.087
-744.156	-142.353	0.321	0.032
-743.142	-40.514	-0.206	-0.109
-742.127	800.000	0.055	0.161
-741.112	-13.702	0.049	-0.032
-740.098	455.795	-0.058	0.132
-739.083	51.235	0.281	0.272
-738.069	212.076	-0.276	0.444
-737.054	-83.785	0.251	-0.082
-736.039	-160.400	-0.454	-0.025
-735.025	155.177	0.069	-0.097
-734.010	172.471	-0.362	-0.532
-732.996	-15.882	-0.142	0.092
-731.981	61.643	-0.163	0.166
-730.966	-200.000	0.006	-0.201
-729.952	800.000	-0.052	-0.162
-728.937	800.000	-0.027	-0.116
-727.923	-130.635	-0.155	0.021
-726.908	-19.125	-0.039	-0.025
-725.894	144.305	-0.035	0.048
-724.879	105.583	-0.225	-0.271
-723.864	117.149	0.181	-0.227
-722.850	800.000	-0.135	0.461
-721.835	-200.000	-0.004	-0.253
-720.821	-200.000	0.025	-0.407
-719.806	800.000	-0.046	-0.172
-718.791	-72.661	-0.246	0.093
-717.777	-18.104	0.078	0.050
-716.762	14.951	-0.193	-0.154
-715.748	100.534	-0.290	-0.344
-714.733	-126.702	0.236	0.036
-713.718	21.466	-0.240	0.199
-712.704	-200.000	0.025	0.118
-711.689	-37.923	0.327	0.177
-710.675	-200.000	0.040	-0.257
-709.660	187.112	-0.120	-0.183
-708.645	-200.000	-0.042	0.191
-707.631	19.197	-0.119	-0.097
-706.616	-200.000	-0.015	0.259
-705.602	516.532	0.071	-0.169
-704.587	-166.713	-0.244	0.010
-703.572	-200.000	0.055	-0.276
-702.558	-68.399	0.152	-0.060
-701.543	-64.864	0.281	-0.116
-700.529	247.257	-0.049	-0.084
-699.514	-200.000	0.021	-0.120
-698.499	-165.000	-0.224	-0.010
-697.485	-186.374	-0.384	-0.006
-696.470	48.868	-0.085	0.081
-695.456	-200.000	0.029	-0.430
-694.441	-200.000	-0.010	0.066
-693.426	-200.000	0.027	0.176
-692.412	-96.325	-0.189	0.051
-691.397	286.866	0.101	-0.186
-690.383	-200.000	0.050	-0.375
-689.368	-200.000	-0.007	0.150
-688.354	800.000	0.055	0.210
-687.339	92.203	-0.093	0.107
-686.324	-200.000	0.015	-0.246
-685.310	-26.997	-0.367	-0.218
-684.295	187.328	-0.118	-0.180
-683.281	-99.322	-0.140	-0.036
-682.266	182.603	0.056	-0.084
-681.251	81.557	0.162	-0.179
-680.237	123.326	0.138	0.177
-679.222	213.055	0.214	0.345
-678.208	127.001	0.097	0.125
-677.193	-200.000	-0.026	0.177
-676.178	-79.949	0.060	-0.021
-675.164	-58.688	0.332	-0.147
-674.149	-56.010	-0.243	0.110
-673.135	-68.259	-0.148	0.059
-672.120	-200.000	-0.026	-0.278
-671.105	-200.000	0.007	-0.171
-670.091	-106.078	-0.352	-0.081
-669.076	-200.000	-0.003	-0.098
-668.062	738.210	0.108	-0.295
-667.047	-51.355	-0.269	0.128
-666.032	161.563	0.137	-0.196
-665.018	94.022	0.169	0.195
-664.003	-130.169	-0.308	0.043
-662.989	-27.295	0.256	-0.152
-661.974	-20.393	-0.219	-0.137
-660.959	-164.622	-0.122	0.006
-659.945	86.122	-0.122	-0.136
-658.930	-194.793	-0.224	-0.002
-657.916	-200.000	0.020	0.099
-656.901	800.000	-0.020	0.080
-655.886	138.544	0.128	-0.171
-654.872	199.470	-0.044	-0.068
-653.857	157.340	0.170	-0.240
-652.843	324.934	-0.117	-0.228
-651.828	-67.962	0.086	-0.034
-650.814	258.194	-0.155	-0.272
-649.799	800.000	0.095	-0.303
-648.784	-82.532	0.024	0.008
-647.770	228.312	-0.166	-0.275
-646.755	180.856	0.118	-0.177
-645.741	-200.000	0.031	-0.242
-644.726	315.027	-0.149	-0.285
-643.711	281.351	0.077	-0.139
-642.697	224.542	0.084	-0.138
-641.682	3.004	0.144	0.106
-640.668	-199.551	-0.227	0.001
-639.653	542.365	-0.061	-0.148
-638.638	800.000	-0.091	-0.256
-637.624	-159.964	-0.556	0.031
-636.609	-102.608	-0.126	-0.031
-635.595	46.093	0.227	0.214
-634.580	-200.000	0.053	0.309
-633.565	54.261	-0.089	0.088
-632.551	-122.749	-0.146	0.024
-631.536	414.962	-0.093	0.201
-630.522	-32.432	-0.315	0.179
-629.507	-46.177	0.143	0.071
-628.492	800.000	-0.092	-0.389
-627.478	177.436	-0.110	0.162
-626.463	800.000	-0.034	0.116
-625.449	800.000	-0.053	0.209
-624.434	-21.937	-0.119	0.074
-623.419	-200.000	0.055	-0.293
-622.405	207.909	0.181	-0.288
-621.390	767.799	0.092	0.253
-620.376	-32.209	0.091	0.052
-619.361	-79.893	0.282	-0.097
-618.346	800.000	-0.104	0.302
-617.332	414.637	0.087	0.188
-616.317	281.980	0.013	-0.023
-615.303	-36.281	-0.274	0.150
-614.288	-10.301	-0.069	0.047
-613.273	-200.000	-0.010	0.187
-612.259	-6.533	0.072	0.050
-611.244	-105.480	0.153	-0.035
-610.230	50.314	-0.211	-0.203
-609.215	800.000	0.101	0.326
-608.201	-70.148	-0.461	0.178
-607.186	800.000	-0.028	-0.085
-606.171	76.272	-0.051	-0.055
-605.157	-15.260	-0.167	0.109
-604.142	-47.705	0.187	0.092
-603.128	330.305	0.049	0.096
-602.113	368.436	-0.092	0.188
-601.098	316.320	0.053	0.103
-600.084	-200.000	-0.004	0.194
-599.069	514.037	-0.010	-0.023
-598.055	263.090	0.174	-0.307
-597.040	230.002	0.141	-0.234
-596.025	-104.037	-0.243	-0.058
-595.011	405.954	0.170	-0.366
-593.996	-68.043	0.199	-0.079
-592.982	800.000	0.046	-0.156
-591.967	560.092	-0.071	0.173
-590.952	7.261	-0.144	-0.109
-589.938	69.546	0.190	0.199
-588.923	-200.000	-0.018	0.302
-587.909	-200.000	0.025	0.114
-586.894	-29.160	-0.096	0.056
-585.879	-115.698	-0.285	-0.054
-584.865	436.215	0.161	0.357
-583.850	-174.693	0.412	0.012
-582.836	-200.000	0.000	-0.077
-581.821	-146.645	-0.109	-0.010
-580.806	293.199	0.086	-0.159
-579.792	-43.963	-0.214	0.109
-578.777	-200.000	-0.050	-0.402
-577.763	-7.615	0.254	0.175
-576.748	-200.000	-0.013	-0.094
-575.733	33.703	-0.318	-0.281
-574.719	592.312	-0.050	-0.125
-573.704	800.000	-0.045	0.134
-572.690	181.493	0.092	0.138
-571.675	201.302	0.043	-0.067
-570.661	800.000	0.006	0.021
-569.646	124.559	0.070	-0.090
-568.631	-200.000	-0.034	-0.240
-567.617	-200.000	0.041	-0.352
-566.602	219.713	-0.158	-0.257
-565.588	-93.379	-0.209	-0.059
-564.573	-51.193	-0.230	-0.109
-563.558	33.963	0.292	0.258
-562.544	152.789	-0.195	-0.271
-561.529	582.250	-0.148	-0.368
-560.515	104.230	-0.134	-0.161
-559.500	125.922	-0.100	-0.128
-558.485	-134.253	-0.232	0.029
-557.471	-173.952	-0.184	-0.005
-556.456	270.472	-0.084	-0.150
-555.442	-117.432	-0.158	-0.029
-554.427	-150.240	-0.277	0.022
-553.412	-121.728	0.204	-0.034
-552.398	18.975	0.210	0.171
-551.383	-63.888	0.085	0.035
-550.369	-38.374	-0.167	0.090
-549.354	330.235	-0.063	-0.123
-548.339	9.600	0.122	0.094
-547.325	-154.317	-0.331	0.023
-546.310	-157.315	-0.231	-0.014
-545.296	299.527	-0.213	-0.399
-544.281	-200.000	-0.035	0.247
-543.266	-93.380	-0.134	0.038
-542.252	-107.609	-0.312	-0.069
-541.237	-16.568	-0.198	0.127
-540.223	-200.000	-0.009	0.136
-539.208	-200.000	0.025	0.121
-538.193	-200.000	-0.022	0.138
-537.179	-25.199	0.257	0.154
-536.164	74.959	0.127	-0.136
-535.150	800.000	-0.072	-0.284
-534.135	72.932	0.139	0.147
-533.121	-85.705	0.235	0.074
-532.106	-90.637	-0.112	0.033
-531.091	-30.137	0.346	0.200
-530.077	581.713	0.127	0.316
-529.062	98.341	-0.068	-0.079
-528.048	77.130	-0.259	0.279
-527.033	-77.367	-0.224	-0.079
-526.018	800.000	-0.059	-0.237
-525.004	-200.000	0.012	-0.295
-523.989	800.000	0.068	0.297
-522.975	-200.000	-0.003	-0.021
-521.960	800.000	-0.106	-0.449
-520.945	121.693	-0.199	0.252
-519.931	80.077	0.058	0.064
-518.916	186.090	-0.189	0.284
-517.902	31.066	0.208	0.181
-516.887	37.436	0.290	-0.261
-515.872	-200.000	0.017	0.087
-514.858	-54.590	-0.251	-0.115
-513.843	-112.715	-0.362	0.073
-512.829	-200.000	-0.015	-0.139
-511.814	508.532	0.029	-0.069
-510.799	800.000	0.073	-0.227
-509.785	-173.478	-0.231	-0.007
-508.770	-200.000	-0.066	-0.306
-507.756	-95.647	-0.297	0.080
-506.741	81.295	0.130	-0.142
-505.726	-200.000	0.009	-0.104
-504.712	104.882	-0.302	0.360
-503.697	-123.636	-0.138	-0.022
-502.683	800.000	-0.046	0.171
-501.668	21.743	-0.151	-0.124
-500.653	-87.710	-0.270	0.083
-499.639	366.409	0.172	-0.352
-498.624	29.792	0.126	-0.108
-497.610	-200.000	0.038	0.260
-496.595	359.930	0.144	-0.291
-495.581	33.554	0.200	0.176
-494.566	30.206	-0.188	0.163
-493.551	-74.685	-0.090	-0.033
-492.537	208.443	-0.129	0.204
-491.522	-200.000	0.001	0.016
-490.508	-104.246	-0.208	0.049
-489.493	-67.928	-0.078	0.031
-488.478	800.000	-0.048	0.137
-487.464	664.697	-0.065	0.170
-486.449	-103.984	-0.044	-0.010
-485.435	67.670	0.281	0.291
-484.420	-200.000	0.005	-0.037
-483.405	128.353	0.239	0.308
-482.391	800.000	0.065	-0.280
-481.376	395.177	-0.130	0.274
-480.362	424.108	0.220	0.479
-479.347	263.927	0.149	-0.262
-478.332	-65.719	-0.140	-0.057
-477.318	141.829	-0.111	0.149
-476.303	-6.749	-0.079	0.054
-475.289	202.167	0.156	0.244
-474.274	-200.000	-0.060	-0.356
-473.259	-63.995	0.308	-0.127
-472.245	-116.199	-0.356	0.067
-471.230	-128.983	0.318	0.045
-470.216	800.000	0.018	-0.064
-469.201	38.335	-0.072	-0.065
-468.186	-9.780	-0.244	-0.164
-467.172	-200.000	0.008	-0.071
-466.157	73.602	-0.214	-0.227
-465.143	-15.974	-0.079	-0.051
-464.128	82.773	0.128	0.141
-463.113	-147.358	0.196	-0.017
-462.099	800.000	0.104	0.331
-461.084	800.000	-0.149	-0.448
-460.070	247.494	-0.058	-0.100
-459.055	-62.180	-0.237	0.100
-458.040	-200.000	-0.013	0.077
-457.026	-132.075	-0.373	0.049
-456.011	304.610	0.022	-0.041
-454.997	-52.092	-0.012	-0.005
-453.982	-47.275	-0.061	0.030
-452.968	-134.815	0.368	0.045
-451.953	-200.000	0.005	0.058
-450.938	242.171	0.065	0.110
-449.924	-140.667	-0.020	-0.002
-448.909	-117.448	0.108	0.020
-447.895	-17.001	0.119	0.076
-446.880	24.496	-0.135	0.113
-445.865	-200.000	-0.074	0.352
-444.851	-74.335	-0.186	-0.068
-443.836	-200.000	-0.005	-0.280
-442.822	-200.000	-0.024	0.236
-441.807	-200.000	0.002	0.027
-440.792	-131.506	-0.034	-0.005
-439.778	172.378	0.090	-0.131
-438.763	254.004	0.030	0.052
-437.749	311.372	0.166	0.315
-436.734	-200.000	-0.010	0.151
-435.719	798.541	-0.124	-0.345
-434.705	243.867	0.027	0.045
-433.690	-56.483	0.137	-0.061
-432.676	-63.088	-0.238	0.099
-431.661	168.484	0.274	-0.394
-430.646	102.410	0.249	-0.294
-429.632	13.718	-0.320	0.251
-428.617	-84.025	0.266	-0.085
-427.603	464.835	-0.087	-0.197
-426.588	-157.337	-0.325	-0.020
-425.573	75.594	-0.165	-0.176
-424.559	225.538	-0.141	0.230
-423.544	-110.872	0.175	-0.036
-422.530	393.928	0.094	-0.198
-421.515	105.217	0.197	-0.235
-420.500	-112.011	-0.122	0.025
-419.486	33.935	0.333	0.292
-418.471	-31.187	-0.038	-0.022
-417.457	-200.000	0.075	-0.359
-416.442	633.070	0.108	-0.276
-415.428	-200.000	-0.146	-0.000
-414.413	-108.871	-0.096	-0.021
-413.398	-165.085	-0.129	-0.006
-412.384	-200.000	0.055	0.386
-411.369	-148.729	-0.221	0.018
-410.355	444.085	0.190	0.420
-409.340	800.000	0.054	0.161
-408.325	149.020	0.054	-0.074
-407.311	-180.464	0.377	0.008
-406.296	-200.000	-0.025	0.258
-405.282	-43.820	0.222	-0.113
-404.267	265.954	-0.174	-0.306
-403.252	79.706	0.169	0.183
-402.238	-200.000	-0.354	-0.001
-401.223	222.566	-0.140	-0.228
-400.209	356.578	0.137	0.276
-399.194	-200.000	0.047	-0.215
-398.179	800.000	-0.049	-0.188
-397.165	175.397	0.017	0.024
-396.150	350.795	-0.139	0.278
-395.136	-1.398	0.341	-0.243
-394.121	-44.990	0.140	0.070
-393.106	122.682	0.236	0.298
-392.092	-103.934	-0.038	-0.009
-391.077	-112.903	-0.122	0.024
-390.063	-169.769	0.304	-0.011
-389.048	88.482	-0.152	-0.170
-388.033	208.510	0.054	-0.086
-387.019	-23.734	0.220	-0.133
-386.004	-200.000	0.030	-0.595
-384.990	197.149	-0.181	0.278
-383.975	7.402	0.417	0.314
-382.960	-38.491	-0.254	0.135
-381.946	-48.339	0.132	0.064
-380.931	468.849	-0.142	-0.321
-379.917	29.079	0.127	0.108
-378.902	219.057	-0.041	0.066
-377.888	-112.602	0.398	-0.080
-376.873	6.514	-0.233	-0.175
-375.858	-76.330	0.090	-0.032
-374.844	-200.000	0.017	-0.079
-373.829	-104.652	-0.122	0.028
-372.815	479.791	-0.063	-0.145
-371.800	-157.735	0.140	-0.008
-370.785	42.466	-0.191	0.175
-369.771	211.725	-0.181	-0.286
-368.756	6.067	0.269	-0.201
-367.742	-200.000	-0.060	-0.303
-366.727	800.000	-0.060	-0.251
-365.712	-1.089	-0.360	-0.257
-364.698	-155.530	0.407	0.026
-363.683	-200.000	-0.017	-0.441
-362.669	241.948	0.187	0.315
-361.654	201.347	-0.157	0.243
-360.639	-15.075	0.177	-0.114
-359.625	-186.451	-0.098	0.001
-358.610	129.192	-0.102	0.131
-357.596	-92.064	0.241	-0.069
-356.581	-200.000	0.016	0.103
-355.566	-24.291	-0.422	-0.254
-354.552	5.395	-0.079	0.059
-353.537	-36.036	-0.283	-0.154
-352.523	718.255	-0.050	0.134
-351.508	-135.526	0.430	-0.052
-350.493	-104.601	-0.166	0.038
-349.479	-3.336	0.101	0.071
-348.464	-200.000	-0.016	-0.091
-347.450	239.476	-0.122	0.204
-346.435	-11.788	0.034	-0.022
-345.420	-71.862	0.182	-0.068
-344.406	-200.000	0.017	-0.428
-343.391	-200.000	0.007	-0.239
-342.377	-200.000	0.012	-0.183
-341.362	39.287	0.179	0.161
-340.348	74.698	0.062	-0.065
-339.333	-200.000	-0.034	0.181
-338.318	-34.296	-0.250	-0.138
-337.304	800.000	0.049	-0.143
-336.289	450.439	0.060	0.133
-335.275	437.400	0.055	-0.120
-334.260	346.224	-0.170	0.336
-333.245	327.803	-0.089	0.172
-332.231	800.000	0.077	-0.229
-331.216	784.417	0.044	0.122
-330.202	-200.000	0.039	-0.191
-329.187	-200.000	-0.016	-0.092
-328.172	208.756	0.062	-0.097
-327.158	32.755	0.202	-0.176
-326.143	-161.609	-0.167	0.009
-325.129	-200.000	-0.017	0.190
-324.114	800.000	0.053	-0.150
-323.099	92.736	0.023	0.027
-322.085	-200.000	0.003	-0.068
-321.070	-53.656	0.063	0.029
-320.056	47.079	0.061	0.057
-319.041	-168.930	-0.081	0.003
-318.026	800.000	0.027	-0.091
-317.012	-200.000	0.008	-0.187
-315.997	-78.829	0.335	-0.115
-314.983	-200.000	-0.015	0.171
-313.968	52.992	-0.185	-0.178
-312.953	800.000	0.078	0.272
-311.939	-175.850	-0.415	0.011
-310.924	292.882	-0.048	-0.088
-309.910	-109.020	0.225	0.048
-308.895	-137.593	0.100	-0.011
-307.880	-137.047	0.251	0.029
-306.866	69.756	0.046	-0.048
-305.851	-99.817	0.144	0.036
-304.837	33.729	0.073	-0.064
-303.822	-118.754	-0.127	0.022
-302.807	236.505	0.077	-0.128
-301.793	-54.894	0.450	-0.204
-300.778	-76.026	-0.149	-0.053
-299.764	-29.806	0.180	0.103
-298.749	28.681	0.265	0.225
-297.735	-10.430	0.122	-0.081
-296.720	-200.000	0.009	0.143
-295.705	98.124	0.168	0.195
-294.691	800.000	0.044	0.159
-293.676	43.614	-0.186	-0.170
-292.662	-90.291	-0.054	0.016
-291.647	-200.000	0.040	0.320
-290.632	120.910	-0.232	0.290
-289.618	-200.000	-0.004	0.053
-288.603	137.107	-0.068	-0.090
-287.589	-55.269	0.053	-0.024
-286.574	62.900	-0.415	-0.417
-285.559	5.814	0.080	0.059
-284.545	214.365	-0.088	0.139
-283.530	133.959	0.183	-0.238
-282.516	150.311	-0.338	-0.461
-281.501	-35.399	0.022	-0.012
-280.486	-200.000	-0.048	-0.249
-279.472	204.015	0.190	0.296
-278.457	-200.000	-0.000	0.180
-277.443	115.871	0.143	0.175
-276.428	-69.591	0.173	-0.067
-275.413	134.002	0.245	0.318
-274.399	37.039	-0.114	-0.102
-273.384	-200.000	0.031	-0.333
-272.370	-150.042	-0.208	-0.016
-271.355	15.500	0.147	0.116
-270.340	-38.513	0.415	-0.220
-269.326	-45.542	0.205	0.102
-268.311	-178.573	0.221	-0.005
-267.297	472.904	0.067	0.152
-266.282	-156.759	0.085	-0.005
-265.267	-40.699	-0.102	-0.053
-264.253	113.970	0.035	-0.043
-263.238	-91.092	-0.070	0.020
-262.224	245.302	0.026	0.044
-261.209	-40.671	0.087	0.045
-260.195	-13.829	0.219	-0.142
-259.180	800.000	0.052	-0.208
-258.165	-78.150	0.057	0.020
-257.151	-179.376	0.463	-0.010
-256.136	-157.365	-0.033	-0.002
-255.122	168.297	-0.041	0.059
-254.107	128.520	0.123	0.157
-253.092	83.473	0.146	0.160
-252.078	-49.889	-0.132	-0.063
-251.063	-200.000	-0.052	-0.238
-250.049	-200.000	0.044	0.213
-249.034	41.920	0.145	-0.132
-248.019	-143.794	0.103	0.010
-247.005	-200.000	-0.007	0.211
-245.990	-142.790	0.294	0.029
-244.976	-29.732	0.235	0.134
-243.961	-36.873	-0.201	-0.108
-242.946	327.488	-0.180	-0.346
-241.932	-23.186	-0.231	0.139
-240.917	249.904	-0.161	0.274
-239.903	-6.806	0.199	-0.136
-238.888	-200.000	-0.011	0.048
-237.873	5.504	0.140	-0.104
-236.859	-200.000	0.025	-0.174
-235.844	33.946	0.078	-0.068
-234.830	54.932	-0.190	0.183
-233.815	-61.456	0.255	0.107
-232.800	-200.000	-0.113	0.529
-231.786	-184.386	0.113	0.002
-230.771	-81.831	-0.232	0.076
-229.757	-200.000	0.029	-0.166
-228.742	-200.000	-0.002	0.170
-227.727	484.198	0.165	-0.375
-226.713	-200.000	0.057	0.319
-225.698	198.274	0.089	-0.136
-224.684	-89.866	0.280	-0.082
-223.669	358.192	0.104	-0.209
-222.655	-200.000	-0.069	0.352
-221.640	-66.741	-0.151	0.060
-220.625	340.976	-0.179	0.350
-219.611	735.942	-0.049	0.132
-218.596	-185.718	0.168	0.003
-217.582	-200.000	-0.006	0.181
-216.567	800.000	0.086	-0.302
-215.552	-26.832	0.175	0.102
-214.538	800.000	-0.089	-0.362
-213.523	-149.728	-0.191	0.015
-212.509	-53.667	0.222	-0.102
-211.494	-54.535	-0.147	0.067
-210.479	185.543	-0.071	-0.105
-209.465	-51.769	0.285	0.133
-208.450	-19.717	-0.253	-0.156
-207.436	-30.750	-0.278	-0.157
-206.421	-182.127	-0.119	0.002
-205.406	-103.197	0.280	0.066
-204.392	800.000	0.064	0.212
-203.377	-200.000	0.030	-0.198
-202.363	-48.950	0.212	0.101
-201.348	154.815	-0.097	-0.134
-200.333	-200.000	0.003	0.136
-199.319	-38.911	-0.269	0.142
-198.304	800.000	-0.055	0.207
-197.290	-123.135	-0.400	0.064
-196.275	176.675	0.159	0.231
-195.260	800.000	0.049	-0.145
-194.246	-32.215	0.342	-0.191
-193.231	-200.000	0.034	0.238
-192.217	647.954	-0.063	-0.160
-191.202	42.005	0.069	-0.063
-190.187	75.719	-0.296	0.313
-189.173	188.031	0.223	0.334
-188.158	-67.704	0.377	-0.148
-187.144	-66.404	0.143	0.057
-186.129	69.830	-0.164	0.169
-185.114	-103.755	-0.334	0.078
-184.100	133.124	0.152	0.196
-183.085	-114.680	-0.264	0.050
-182.071	467.543	0.066	0.148
-181.056	80.969	0.044	-0.047
-180.042	-60.719	-0.065	-0.027
-179.027	108.813	0.164	-0.196
-178.012	110.554	-0.179	0.215
-176.998	800.000	0.084	0.364
-175.983	-158.934	-0.180	0.010
-174.969	505.317	-0.114	0.264
-173.954	800.000	-0.065	0.276
-172.939	-200.000	0.001	-0.207
-171.925	-120.904	0.284	-0.048
-170.910	74.881	0.224	0.236
-169.896	25.771	0.157	-0.131
-168.881	-101.527	0.184	-0.045
-167.866	800.000	-0.075	0.209
-166.852	-200.000	-0.024	0.265
-165.837	-13.354	0.144	-0.094
-164.823	-21.485	0.116	-0.071
-163.808	-113.322	-0.398	0.078
-162.793	-19.654	0.078	0.048
-161.779	-200.000	0.013	-0.058
-160.764	32.823	-0.156	-0.135
-159.750	-53.643	-0.056	-0.025
-158.735	-170.697	-0.200	0.007
-157.720	-200.000	-0.078	0.349
-156.706	-109.563	0.059	0.012
-155.691	26.409	-0.113	-0.094
-154.677	800.000	0.089	-0.378
-153.662	106.741	0.147	0.174
-152.647	32.493	-0.164	-0.142
-151.633	146.537	0.161	0.215
-150.618	-121.431	0.080	-0.013
-149.604	705.060	0.023	-0.060
-148.589	-200.000	0.060	0.341
-147.574	268.073	-0.114	0.199
-146.560	-97.552	0.178	-0.046
-145.545	128.221	-0.129	-0.164
-144.531	-41.988	-0.236	-0.121
-143.516	529.133	-0.065	0.152
-142.502	271.386	-0.058	-0.103
-141.487	-200.000	-0.038	0.194
-140.472	-80.595	0.096	0.032
-139.458	-37.046	0.125	-0.067
-138.443	649.988	0.095	-0.242
-137.429	406.218	-0.089	-0.187
-136.414	-196.737	0.371	0.002
-135.399	102.881	-0.278	0.324
-134.385	-166.845	0.237	0.010
-133.370	-200.000	0.001	-0.532
-132.356	486.435	0.077	0.174
-131.341	-26.230	0.258	0.151
-130.326	-117.573	0.467	0.084
-129.312	209.424	0.221	0.345
-128.297	116.425	0.055	0.067
-127.283	240.789	-0.208	-0.347
-126.268	772.067	0.010	0.026
-125.253	238.613	-0.110	-0.183
-124.239	-57.930	-0.194	0.085
-123.224	283.807	-0.234	0.419
-122.210	171.322	-0.063	0.090
