DTS Sentinel unit serial number:	SN413079Multiplexer serial number:	ORYXHardware model number:	OX4-SRSoftware version number:	ORYX F/W v4.00 Oryx Data Collector v3.7.2.0data status	okinstallation	princeton_trtdifferential loss correction	single-endedforward channel	channel 1reverse channel	N/Adate	2019/09/19time	15:10:35forward acquisition time	60.00reverse acquisition time	0.00gamma	496.2192k internal	0.2315k external	0.2315temperature offset calibration	1.0019default loss term (dB/km)	0.3790temperature slope calibration	1.0000multiplexer offset coefficient	1.0000multiplexer slope coefficient	1.0000fibre end	0.00T internal ref (°C)	33.44T ext. ref 1 (°C)	1.12T ext. ref 2 (°C)	30.44length (m)	temperature (°C)	Stokes	anti-Stokes-747.200	-200.000	-0.033	0.366
-746.185	-200.000	0.059	0.265
-745.171	-38.993	-0.435	0.232
-744.156	-200.000	-0.006	0.287
-743.142	800.000	-0.065	0.220
-742.127	-200.000	0.013	0.149
-741.112	-200.000	-0.019	-0.131
-740.098	-200.000	-0.036	-0.163
-739.083	-130.850	-0.075	0.010
-738.069	400.408	-0.133	0.282
-737.054	188.138	0.215	-0.326
-736.039	104.615	-0.236	-0.282
-735.025	800.000	0.121	-0.378
-734.010	-144.539	-0.127	0.012
-732.996	800.000	-0.132	-0.387
-731.981	-67.841	0.155	-0.061
-730.966	-200.000	-0.041	0.325
-729.952	-200.000	-0.032	0.287
-728.937	-79.106	0.206	0.071
-727.923	239.434	0.120	-0.203
-726.908	-137.614	0.060	-0.007
-725.894	232.307	0.077	-0.128
-724.879	-200.000	-0.006	-0.386
-723.864	-86.274	-0.133	0.042
-722.850	92.479	-0.146	-0.166
-721.835	-105.519	0.108	-0.025
-720.821	48.218	-0.156	-0.148
-719.806	109.642	0.141	-0.171
-718.791	235.233	-0.227	-0.379
-717.777	-200.000	0.013	-0.521
-716.762	-200.000	0.054	-0.277
-715.748	-16.773	-0.119	0.076
-714.733	-200.000	-0.004	0.248
-713.718	114.038	0.177	0.218
-712.704	-200.000	-0.014	0.074
-711.689	-38.434	0.210	-0.112
-710.675	134.890	0.082	-0.108
-709.660	477.420	0.016	-0.037
-708.645	-71.088	0.079	0.030
-707.631	-200.000	-0.021	-0.388
-706.616	448.210	-0.069	-0.154
-705.602	200.379	0.149	-0.232
-704.587	-200.000	0.019	-0.251
-703.572	-173.488	-0.249	-0.008
-702.558	-1.241	0.343	-0.245
-701.543	-61.949	-0.349	0.147
-700.529	-159.652	-0.097	0.005
-699.514	-7.631	0.103	-0.071
-698.499	265.014	-0.040	0.070
-697.485	-63.537	-0.153	-0.064
-696.470	142.742	0.235	-0.316
-695.456	800.000	-0.060	-0.245
-694.441	-6.215	0.235	0.162
-693.426	283.870	-0.065	-0.118
-692.412	55.923	0.237	-0.232
-691.397	-91.329	-0.149	-0.043
-690.383	800.000	0.084	-0.277
-689.368	-95.264	0.144	-0.039
-688.354	152.837	0.160	-0.221
-687.339	6.853	-0.095	-0.072
-686.324	-13.270	-0.049	-0.032
-685.310	587.369	0.109	-0.271
-684.295	-200.000	0.006	0.092
-683.281	-86.228	-0.238	0.074
-682.266	-132.332	0.149	0.019
-681.251	-20.438	0.210	0.130
-680.237	-71.828	0.071	0.027
-679.222	800.000	-0.127	0.417
-678.208	-109.321	-0.244	0.052
-677.193	57.201	-0.104	0.103
-676.178	800.000	0.025	0.072
-675.164	-31.113	0.168	-0.096
-674.149	-200.000	-0.035	0.161
-673.135	-75.305	0.250	-0.090
-672.120	-200.000	-0.046	-0.253
-671.105	800.000	0.154	0.456
-670.091	115.780	-0.120	0.148
-669.076	-200.000	-0.049	0.371
-668.062	-128.887	-0.170	-0.024
-667.047	107.566	0.075	0.091
-666.032	-122.393	0.142	0.023
-665.018	538.332	0.023	0.055
-664.003	-132.887	-0.117	-0.015
-662.989	608.125	0.029	-0.073
-661.974	-118.656	-0.204	-0.036
-660.959	-200.000	0.049	-0.382
-659.945	246.309	0.020	-0.034
-658.930	-200.000	0.075	-0.347
-657.916	-152.593	-0.433	0.031
-656.901	34.984	-0.232	0.205
-655.886	74.525	0.166	0.176
-654.872	416.694	-0.071	-0.152
-653.857	100.659	0.294	-0.345
-652.843	-94.654	0.304	-0.083
-651.828	-200.000	-0.003	0.145
-650.814	-200.000	-0.040	0.202
-649.799	-27.442	-0.377	-0.222
-648.784	-114.043	-0.194	-0.038
-647.770	-163.289	-0.171	0.008
-646.755	513.468	-0.195	0.458
-645.741	-200.000	0.017	0.114
-644.726	-34.526	-0.165	0.091
-643.711	800.000	0.052	-0.215
-642.697	485.624	-0.049	-0.113
-641.682	-200.000	0.046	0.306
-640.668	-137.864	0.279	-0.031
-639.653	-85.882	0.049	0.015
-638.638	800.000	0.062	0.262
-637.624	-63.200	0.310	0.129
-636.609	-39.856	0.220	-0.116
-635.595	-200.000	0.042	0.245
-634.580	210.087	0.201	0.318
-633.565	-65.611	0.317	0.128
-632.551	-200.000	0.022	0.183
-631.536	13.748	0.362	-0.284
-630.522	152.264	-0.178	-0.244
-629.507	800.000	0.054	0.175
-628.492	183.873	0.039	0.059
-627.478	110.780	-0.156	-0.189
-626.463	87.509	0.219	0.244
-625.449	167.302	-0.317	-0.454
-624.434	738.674	-0.117	-0.316
-623.419	-200.000	-0.032	0.191
-622.405	-200.000	0.025	-0.275
-621.390	-200.000	0.003	0.081
-620.376	332.806	-0.035	-0.068
-619.361	-122.953	-0.402	-0.065
-618.346	-61.632	-0.222	-0.094
-617.332	-149.119	-0.172	0.014
-616.317	800.000	0.081	-0.327
-615.303	800.000	-0.005	-0.017
-614.288	289.726	0.093	-0.169
-613.273	-21.115	0.364	-0.225
-612.259	-66.447	0.053	0.021
-611.244	-48.129	0.335	0.163
-610.230	-200.000	-0.025	-0.131
-609.215	117.579	-0.063	0.078
-608.201	-90.642	0.151	-0.044
-607.186	-13.249	-0.077	0.050
-606.171	101.210	-0.226	-0.265
-605.157	-200.000	0.050	-0.271
-604.142	-51.479	0.063	-0.030
-603.128	-135.218	-0.350	-0.042
-602.113	-88.004	-0.349	0.106
-601.098	16.106	0.148	-0.117
-600.084	424.682	0.184	0.399
-599.069	178.796	0.098	0.144
-598.055	800.000	0.042	0.138
-597.040	-28.028	-0.333	0.194
-596.025	479.792	-0.054	-0.124
-595.011	25.429	-0.069	0.058
-593.996	224.578	-0.147	0.239
-592.982	800.000	0.013	-0.053
-591.967	800.000	-0.033	-0.118
-590.952	117.326	-0.064	-0.080
-589.938	24.281	0.289	-0.241
-588.923	-143.752	-0.137	-0.013
-587.909	-200.000	0.019	0.093
-586.894	-55.742	-0.306	-0.138
-585.879	800.000	-0.064	-0.200
-584.865	-182.610	-0.175	0.003
-583.850	8.550	-0.110	-0.083
-582.836	99.549	-0.174	-0.202
-581.821	-26.120	-0.260	-0.154
-580.806	23.009	-0.248	0.205
-579.792	243.383	-0.189	0.319
-578.777	-66.455	0.277	0.111
-577.763	771.948	0.032	0.089
-576.748	253.782	-0.146	-0.252
-575.733	475.363	-0.052	0.118
-574.719	-53.496	-0.103	0.047
-573.704	312.924	0.057	0.108
-572.690	-38.010	-0.182	0.097
-571.675	367.324	0.081	-0.165
-570.661	-200.000	0.013	-0.116
-569.646	228.286	0.131	-0.215
-568.631	-200.000	0.007	-0.032
-567.617	413.763	0.093	0.199
-566.602	-76.045	-0.051	0.018
-565.588	-200.000	-0.025	-0.257
-564.573	112.936	0.180	0.219
-563.558	-104.108	-0.127	0.030
-562.544	383.849	0.079	0.163
-561.529	787.310	-0.089	-0.245
-560.515	-151.375	-0.512	-0.038
-559.500	2.043	-0.139	0.101
-558.485	-200.000	0.030	0.137
-557.471	800.000	0.065	-0.218
-556.456	119.087	0.159	0.198
-555.442	211.982	0.098	0.156
-554.427	-200.000	-0.048	-0.214
-553.412	244.638	0.042	-0.072
-552.398	-200.000	-0.011	-0.225
-551.383	-200.000	-0.018	0.309
-550.369	83.409	-0.128	-0.140
-549.354	-114.056	0.141	0.027
-548.339	46.693	0.110	0.103
-547.325	-47.660	-0.183	0.089
-546.310	-66.857	0.170	-0.068
-545.296	-5.143	-0.159	-0.110
-544.281	-83.956	0.358	-0.115
-543.266	-58.125	-0.342	0.150
-542.252	-165.151	-0.041	-0.002
-541.237	217.155	-0.031	-0.050
-540.223	61.772	0.118	0.118
-539.208	215.175	0.131	-0.209
-538.193	177.580	-0.068	-0.100
-537.179	-106.166	0.167	-0.038
-536.164	3.416	-0.343	-0.251
-535.150	-180.091	0.140	-0.003
-534.135	146.552	0.064	0.086
-533.121	-34.381	-0.034	-0.019
-532.106	-66.171	-0.160	0.064
-531.091	162.740	-0.101	0.143
-530.077	-155.940	0.289	-0.018
-529.062	-67.113	0.197	0.078
-528.048	-15.625	-0.077	0.049
-527.033	-200.000	0.015	-0.148
-526.018	-80.746	-0.284	0.095
-525.004	-42.845	0.268	0.137
-523.989	-157.142	0.194	0.012
-522.975	240.265	0.142	-0.238
-521.960	389.780	0.064	-0.133
-520.945	-200.000	0.036	0.421
-519.931	-111.441	0.205	0.042
-518.916	206.102	-0.214	-0.334
-517.902	229.469	-0.271	-0.445
-516.887	137.438	0.056	-0.073
-515.872	800.000	0.036	-0.104
-514.858	-200.000	-0.008	0.161
-513.843	-200.000	0.022	-0.260
-512.829	272.804	0.004	-0.007
-511.814	-138.753	0.349	0.038
-510.799	119.212	0.088	-0.109
-509.785	-134.010	0.396	-0.049
-508.770	765.929	0.041	-0.112
-507.756	-8.986	0.331	0.222
-506.741	800.000	-0.088	0.372
-505.726	-200.000	-0.056	-0.374
-504.712	178.279	-0.252	0.370
-503.697	-35.982	0.223	0.121
-502.683	-78.243	-0.181	0.062
-501.668	65.814	0.075	0.077
-500.653	-57.621	-0.189	-0.083
-499.639	665.360	0.139	0.361
-498.624	-159.466	0.351	-0.020
-497.610	-151.179	0.359	0.027
-496.595	35.368	0.239	-0.211
-495.581	-124.655	0.184	0.029
-494.566	155.634	0.080	-0.110
-493.551	800.000	-0.095	-0.265
-492.537	-57.593	-0.137	0.060
-491.522	-181.216	0.412	-0.008
-490.508	-157.139	0.165	0.010
-489.493	632.266	0.039	0.100
-488.478	546.940	-0.051	-0.124
-487.464	236.834	0.204	-0.340
-486.449	-116.043	-0.381	-0.071
-485.435	-50.844	-0.074	-0.035
-484.420	-200.000	-0.011	0.181
-483.405	-116.005	-0.261	0.049
-482.391	0.514	-0.120	0.086
-481.376	135.464	0.210	-0.274
-480.362	800.000	0.041	0.148
-479.347	-200.000	-0.052	-0.245
-478.332	376.004	-0.139	-0.284
-477.318	-62.984	0.381	-0.158
-476.303	-105.977	0.105	-0.024
-475.289	-139.463	0.326	0.035
-474.274	800.000	-0.174	-0.629
-473.259	-40.624	-0.367	-0.191
-472.245	60.215	-0.062	-0.062
-471.230	226.971	-0.208	0.339
-470.216	-4.394	-0.331	-0.229
-469.201	-200.000	-0.081	0.369
-468.186	-49.897	-0.020	-0.009
-467.172	-140.394	-0.225	0.024
-466.157	139.815	0.042	-0.055
-465.143	-200.000	0.009	0.249
-464.128	-200.000	0.022	-0.223
-463.113	800.000	0.031	-0.116
-462.099	-200.000	0.059	-0.271
-461.084	773.095	-0.133	-0.362
-460.070	-118.520	-0.402	0.071
-459.055	-200.000	0.052	0.343
-458.040	-200.000	-0.029	-0.235
-457.026	-73.907	0.312	-0.113
-456.011	-200.000	0.013	0.261
-454.997	800.000	-0.087	0.270
-453.982	284.432	-0.065	0.117
-452.968	-72.681	0.202	0.075
-451.953	436.002	-0.144	-0.314
-450.938	-117.612	-0.153	0.028
-449.924	800.000	-0.003	-0.011
-448.909	87.874	0.138	-0.153
-447.895	327.832	-0.045	0.086
-446.880	107.732	-0.196	0.233
-445.865	-9.098	0.174	0.117
-444.851	43.778	-0.149	-0.137
-443.836	26.710	-0.256	0.215
-442.822	93.405	-0.133	-0.151
-441.807	15.322	0.153	0.120
-440.792	-130.525	0.299	-0.040
-439.778	132.518	0.082	-0.105
-438.763	-200.000	-0.004	0.183
-437.749	-200.000	-0.040	0.300
-436.734	58.136	0.238	-0.233
-435.719	-29.971	-0.120	-0.069
-434.705	-41.956	-0.177	-0.091
-433.690	-144.058	0.145	0.014
-432.676	-200.000	0.016	0.234
-431.661	800.000	-0.082	-0.342
-430.646	-129.938	0.271	0.037
-429.632	4.912	-0.200	-0.147
-428.617	800.000	-0.055	-0.176
-427.603	800.000	0.013	0.047
-426.588	-118.513	0.549	0.097
-425.573	203.629	-0.188	-0.291
-424.559	-200.000	0.054	0.320
-423.544	-200.000	-0.037	-0.190
-422.530	2.462	-0.111	0.080
-421.515	217.667	-0.085	-0.136
-420.500	214.423	0.195	-0.309
-419.486	-40.181	0.163	-0.085
-418.471	-139.624	0.457	-0.049
-417.457	800.000	0.072	0.230
-416.442	-200.000	0.032	0.156
-415.428	141.972	-0.268	-0.356
-414.413	-200.000	0.055	-0.292
-413.398	474.706	0.026	0.058
-412.384	-188.019	0.291	-0.004
-411.369	355.446	0.199	-0.397
-410.355	51.774	0.296	-0.282
-409.340	800.000	0.155	0.445
-408.325	585.663	0.092	-0.226
-407.311	-118.526	0.281	0.050
-406.296	37.142	0.200	-0.177
-405.282	-57.054	0.131	0.058
-404.267	-200.000	0.008	0.448
-403.252	-51.150	0.245	0.115
-402.238	-1.411	-0.244	0.172
-401.223	127.347	0.212	0.269
-400.209	208.492	0.206	0.322
-399.194	34.047	-0.158	0.138
-398.179	800.000	0.074	-0.273
-397.165	-44.011	-0.130	0.065
-396.150	-73.844	-0.318	-0.115
-395.136	800.000	0.070	-0.266
-394.121	1.515	0.443	0.319
-393.106	800.000	-0.082	-0.238
-392.092	583.784	0.047	-0.115
-391.077	254.694	0.098	-0.167
-390.063	-108.972	-0.152	0.032
-389.048	-131.196	0.173	-0.023
-388.033	269.786	-0.030	0.053
-387.019	-152.165	-0.149	0.011
-386.004	-130.682	-0.273	-0.037
-384.990	-106.393	-0.035	0.008
-383.975	40.319	-0.310	-0.278
-382.960	-200.000	-0.040	-0.257
-381.946	201.284	-0.053	0.082
-380.931	-53.413	0.239	-0.110
-379.917	-111.085	0.243	0.050
-378.902	-124.706	-0.222	0.034
-377.888	-75.463	-0.442	0.157
-376.873	-78.567	-0.065	0.022
-375.858	6.032	-0.365	0.270
-374.844	559.850	-0.058	-0.139
-373.829	-155.422	-0.300	0.019
-372.815	-73.789	0.068	-0.025
-371.800	22.623	-0.293	-0.240
-370.785	-116.125	0.078	0.015
-369.771	114.780	-0.143	-0.174
-368.756	-55.168	0.148	0.066
-367.742	-85.049	0.381	-0.119
-366.727	20.058	-0.155	0.125
-365.712	7.823	-0.158	0.118
-364.698	-130.740	0.162	-0.022
-363.683	-129.674	-0.238	-0.033
-362.669	-200.000	-0.002	0.245
-361.654	-200.000	-0.018	-0.213
-360.639	800.000	-0.157	0.526
-359.625	-121.068	-0.256	-0.043
-358.610	-53.894	-0.277	-0.126
-357.596	800.000	0.046	0.129
-356.581	-71.066	0.281	0.106
-355.566	-120.673	-0.153	0.026
-354.552	800.000	-0.068	0.250
-353.537	-200.000	0.027	0.146
-352.523	-131.624	-0.109	-0.014
-351.508	114.797	0.323	0.392
-350.493	800.000	0.089	-0.370
-349.479	-21.960	0.069	0.042
-348.464	-43.064	0.121	0.061
-347.450	-36.224	0.112	-0.060
-346.435	784.731	-0.084	-0.231
-345.420	58.516	-0.208	0.204
-344.406	-200.000	0.006	0.081
-343.391	-150.960	-0.137	-0.010
-342.377	46.147	0.359	0.332
-341.362	-10.001	0.092	0.061
-340.348	226.683	-0.102	0.166
-339.333	-153.181	-0.201	0.014
-338.318	60.988	-0.095	-0.094
-337.304	89.456	-0.253	0.281
-336.289	590.707	0.086	-0.211
-335.275	800.000	0.028	-0.091
-334.260	-36.991	0.122	0.065
-333.245	-49.473	0.082	0.039
-332.231	38.165	0.178	0.158
-331.216	309.476	0.087	-0.162
-330.202	-149.351	0.301	0.024
-329.187	-63.042	-0.340	-0.140
-328.172	81.616	0.402	0.434
-327.158	-64.662	0.308	-0.124
-326.143	176.218	-0.076	-0.111
-325.129	-138.050	0.143	0.016
-324.114	-172.568	0.142	-0.004
-323.099	47.290	-0.253	0.235
-322.085	43.414	0.102	0.093
-321.070	6.659	-0.132	-0.098
-320.056	-75.225	0.181	0.064
-319.041	-61.588	0.189	0.079
-318.026	-99.018	-0.138	-0.035
-317.012	800.000	0.056	0.211
-315.997	-193.030	0.231	0.002
-314.983	100.981	0.009	-0.010
-313.968	127.733	0.185	-0.234
-312.953	173.704	0.022	0.032
-311.939	267.692	0.181	0.316
-310.924	-103.259	-0.297	0.070
-309.910	-200.000	-0.002	-0.015
-308.895	185.552	-0.039	0.058
-307.880	-200.000	-0.025	-0.109
-306.866	281.023	0.103	-0.184
-305.851	-104.935	0.137	-0.031
-304.837	-200.000	-0.026	-0.168
-303.822	-120.562	-0.148	-0.025
-302.807	-41.358	0.209	0.107
-301.793	64.096	-0.113	-0.113
-300.778	-149.806	0.081	0.006
-299.764	135.855	0.212	0.275
-298.749	-44.252	-0.155	0.077
-297.735	-200.000	-0.009	-0.534
-296.720	-17.566	-0.172	-0.108
-295.705	-19.937	0.319	0.196
-294.691	-166.108	-0.162	-0.007
-293.676	-116.554	-0.274	-0.050
-292.662	175.278	0.038	0.055
-291.647	137.198	0.146	-0.190
-290.632	525.289	-0.128	-0.299
-289.618	-134.273	-0.148	-0.018
-288.603	-76.872	0.349	-0.122
-287.589	800.000	-0.037	-0.149
-286.574	78.767	-0.080	0.085
-285.559	351.625	-0.022	-0.043
-284.545	-73.931	-0.158	-0.057
-283.530	800.000	0.046	0.138
-282.516	-108.659	0.287	-0.061
-281.501	57.010	0.080	-0.077
-280.486	800.000	0.071	0.223
-279.472	225.965	-0.137	0.221
-278.457	287.335	-0.065	0.117
-277.443	-200.000	0.014	0.190
-276.428	53.978	0.138	-0.132
-275.413	-78.705	-0.068	-0.023
-274.399	-88.472	-0.218	-0.065
-273.384	25.110	0.170	-0.140
-272.370	490.325	-0.027	-0.061
-271.355	276.079	0.091	-0.160
-270.340	66.923	-0.129	-0.130
-269.326	-63.359	-0.115	0.047
-268.311	-59.037	0.124	-0.053
-267.297	134.921	0.045	-0.058
-266.282	-0.845	-0.168	0.118
-265.267	-32.193	-0.381	0.212
-264.253	-36.031	-0.156	-0.084
-263.238	-113.088	-0.122	0.024
-262.224	-200.000	-0.041	0.205
-261.209	-135.246	0.033	0.004
-260.195	-41.917	0.348	0.177
-259.180	800.000	0.016	-0.056
-258.165	-87.140	-0.315	0.095
-257.151	-5.497	0.331	-0.226
-256.136	-200.000	0.017	0.087
-255.122	-122.093	-0.364	-0.059
-254.107	-18.958	-0.308	-0.191
-253.092	67.846	-0.184	0.187
-252.078	-54.164	-0.127	0.057
-251.063	478.283	-0.018	0.041
-250.049	610.606	0.059	-0.147
-249.034	-93.806	-0.073	-0.020
-248.019	70.610	-0.162	0.167
-247.005	95.291	-0.155	0.175
-245.990	99.788	-0.158	-0.181
-244.976	-200.000	-0.004	-0.138
-243.961	501.569	-0.122	-0.279
-242.946	-200.000	0.005	-0.089
-241.932	-40.519	-0.087	-0.045
-240.917	-200.000	-0.054	0.249
-239.903	-200.000	-0.050	-0.271
-238.888	800.000	0.101	0.368
-237.873	-127.364	0.457	0.066
-236.859	647.191	0.016	0.041
-235.844	313.286	-0.123	-0.230
-234.830	800.000	-0.064	-0.230
-233.815	-26.269	-0.291	0.170
-232.800	-158.468	0.194	-0.011
-231.786	-155.258	-0.096	0.006
-230.771	-68.032	-0.223	-0.086
-229.757	-200.000	0.030	-0.192
-228.742	-74.929	-0.103	0.036
-227.727	-54.361	-0.259	-0.117
-226.713	-19.226	0.132	-0.081
-225.698	800.000	-0.040	0.139
-224.684	-41.335	0.074	0.038
-223.669	5.575	0.454	-0.333
-222.655	251.410	0.033	-0.056
-221.640	-200.000	-0.043	0.235
-220.625	-13.966	0.097	0.062
-219.611	-85.800	-0.230	-0.071
-218.596	73.939	-0.106	-0.110
-217.582	-200.000	-0.019	0.298
-216.567	-157.596	-0.361	-0.021
-215.552	-12.329	0.327	-0.212
-214.538	415.466	-0.194	0.409
-213.523	-70.280	-0.379	0.143
-212.509	231.435	0.210	0.341
-211.494	-200.000	0.027	0.180
-210.479	800.000	0.089	0.383
-209.465	294.582	-0.305	0.553
-208.450	197.574	0.170	-0.258
-207.436	-59.179	-0.159	-0.068
-206.421	246.643	0.053	0.088
-205.406	-145.856	-0.224	-0.020
-204.392	800.000	0.116	-0.415
-203.377	800.000	0.040	0.120
-202.363	413.005	0.106	-0.223
-201.348	-110.689	0.329	0.067
-200.333	-200.000	0.000	0.228
-199.319	-144.157	0.277	-0.026
-198.304	-74.541	0.131	-0.047
-197.290	467.559	0.051	-0.114
-196.275	-30.811	-0.141	0.079
-195.260	57.059	0.073	0.070
-194.246	247.015	0.028	-0.047
-193.231	63.111	0.072	0.071
-192.217	105.510	-0.112	0.132
-191.202	-200.000	-0.001	0.104
-190.187	40.226	0.139	-0.124
-189.173	376.122	0.119	-0.241
-188.158	-200.000	-0.039	-0.213
-187.144	-34.544	0.200	-0.109
-186.129	6.760	-0.435	0.321
-185.114	359.826	0.129	-0.256
-184.100	-181.398	0.100	-0.002
-183.085	188.081	-0.199	0.295
-182.071	92.642	-0.087	-0.097
-181.056	-102.318	0.125	0.030
-180.042	15.953	-0.142	0.111
-179.027	-119.402	-0.371	0.064
-178.012	23.190	0.104	0.085
-176.998	-200.000	-0.006	0.127
-175.983	-200.000	0.033	0.399
-174.969	-81.874	0.160	-0.052
-173.954	-200.000	0.034	0.473
-172.939	-65.538	0.111	-0.044
-171.925	-175.783	0.323	0.009
-170.910	195.293	0.056	-0.084
-169.896	-60.540	0.347	0.146
-168.881	-75.039	0.289	0.102
-167.866	-200.000	-0.002	-0.395
-166.852	-23.782	-0.276	0.164
-165.837	-96.709	-0.420	-0.109
-164.823	129.258	-0.095	0.120
-163.808	-70.212	0.060	-0.023
-162.793	-23.107	-0.267	-0.159
-161.779	-200.000	-0.029	-0.242
-160.764	-200.000	-0.014	0.115
-159.750	613.943	0.130	0.322
-158.735	-200.000	0.046	-0.254
-157.720	-14.097	-0.179	-0.114
-156.706	283.452	0.208	0.369
-155.691	28.049	-0.202	-0.169
-154.677	800.000	0.086	0.319
-153.662	-40.416	0.141	0.073
-152.647	-110.598	0.149	-0.030
-151.633	800.000	-0.120	0.343
-150.618	800.000	0.035	-0.143
-149.604	44.614	0.098	0.089
-148.589	202.714	0.131	-0.200
-147.574	-110.041	0.167	-0.035
-146.560	237.105	0.233	-0.382
-145.545	-131.954	0.134	0.017
-144.531	11.738	-0.034	-0.026
-143.516	800.000	-0.109	-0.386
-142.502	800.000	0.109	-0.319
-141.487	800.000	0.050	-0.139
-140.472	-200.000	-0.022	-0.135
-139.458	-150.751	0.286	-0.022
-138.443	-88.448	0.040	0.012
-137.429	-200.000	0.052	-0.398
-136.414	370.838	0.154	-0.309
-135.399	17.626	-0.129	0.102
-134.385	51.024	-0.143	-0.134
-133.370	24.080	0.046	-0.038
-132.356	284.605	-0.060	0.107
-131.341	-200.000	-0.017	-0.078
-130.326	240.201	0.051	-0.085
-129.312	-115.433	-0.235	0.044
-128.297	-200.000	0.051	0.513
-127.283	-67.591	-0.058	0.023
-126.268	195.549	0.130	-0.196
-125.253	213.972	0.188	0.294
-124.239	-200.000	-0.067	0.324
-123.224	-24.027	-0.366	-0.216
-122.210	-56.211	-0.222	-0.098
