DTS Sentinel unit serial number:	SN413079Multiplexer serial number:	ORYXHardware model number:	OX4-SRSoftware version number:	ORYX F/W v4.00 Oryx Data Collector v3.7.2.0data status	okinstallation	princeton_trtdifferential loss correction	single-endedforward channel	channel 1reverse channel	N/Adate	2019/09/19time	09:10:35forward acquisition time	60.00reverse acquisition time	0.00gamma	496.2192k internal	0.2342k external	0.2342temperature offset calibration	1.0001default loss term (dB/km)	0.3790temperature slope calibration	1.0000multiplexer offset coefficient	1.0000multiplexer slope coefficient	1.0000fibre end	0.00T internal ref (°C)	21.91T ext. ref 1 (°C)	0.61T ext. ref 2 (°C)	19.12length (m)	temperature (°C)	Stokes	anti-Stokes-747.200	-111.765	0.492	-0.100
-746.185	-77.175	0.209	-0.073
-745.171	-200.000	-0.002	0.130
-744.156	-162.509	-0.259	0.013
-743.142	-90.368	0.241	0.070
-742.127	-200.000	0.090	0.555
-741.112	800.000	0.080	0.258
-740.098	-47.082	0.101	0.049
-739.083	156.410	0.140	0.193
-738.069	-200.000	0.060	0.280
-737.054	196.199	-0.089	-0.136
-736.039	-177.303	-0.362	0.009
-735.025	-90.019	0.108	0.031
-734.010	-168.788	-0.457	0.017
-732.996	-59.736	0.064	0.028
-731.981	-57.743	-0.196	0.086
-730.966	231.259	-0.156	-0.255
-729.952	800.000	-0.063	-0.219
-728.937	204.204	-0.167	0.259
-727.923	-75.967	-0.134	0.048
-726.908	-99.585	-0.248	-0.062
-725.894	0.333	-0.234	-0.167
-724.879	694.120	-0.168	0.441
-723.864	-84.701	-0.431	0.136
-722.850	32.023	0.143	0.123
-721.835	-23.049	-0.127	-0.076
-720.821	-160.729	-0.161	0.009
-719.806	-89.527	-0.107	-0.032
-718.791	-43.019	0.286	0.145
-717.777	38.113	-0.056	-0.050
-716.762	-157.559	-0.247	0.015
-715.748	140.101	-0.180	0.238
-714.733	439.308	0.090	-0.196
-713.718	209.179	-0.171	-0.268
-712.704	-67.828	-0.130	-0.051
-711.689	136.819	-0.127	0.165
-710.675	132.536	0.180	-0.232
-709.660	-64.758	-0.142	-0.057
-708.645	87.124	0.088	0.097
-707.631	-91.433	0.099	0.028
-706.616	614.067	-0.128	0.321
-705.602	-134.101	-0.117	0.014
-704.587	12.064	-0.214	0.165
-703.572	175.969	-0.061	0.088
-702.558	156.618	-0.141	-0.195
-701.543	27.936	-0.359	-0.303
-700.529	440.993	-0.113	-0.246
-699.514	-76.611	-0.132	-0.046
-698.499	-64.359	0.185	-0.075
-697.485	-200.000	0.070	-0.367
-696.470	123.886	-0.199	-0.249
-695.456	-107.661	0.113	-0.025
-694.441	-31.219	-0.197	0.111
-693.426	-65.378	-0.126	-0.051
-692.412	518.466	-0.053	-0.125
-691.397	71.689	0.100	0.104
-690.383	-168.527	0.038	0.001
-689.368	-104.329	-0.243	-0.056
-688.354	508.440	0.037	0.086
-687.339	22.154	0.251	0.205
-686.324	-66.384	-0.043	-0.017
-685.310	-10.766	0.050	-0.033
-684.295	-37.878	-0.096	-0.051
-683.281	23.497	-0.130	0.107
-682.266	90.845	0.175	0.196
-681.251	-129.499	-0.244	-0.034
-680.237	-200.000	-0.054	0.308
-679.222	-24.986	-0.227	-0.135
-678.208	-200.000	0.003	0.021
-677.193	-48.743	0.238	-0.114
-676.178	186.903	0.057	0.085
-675.164	66.873	-0.185	0.189
-674.149	-87.921	0.114	0.034
-673.135	-138.515	-0.189	-0.021
-672.120	227.320	-0.095	0.154
-671.105	-200.000	0.012	-0.138
-670.091	-1.410	0.148	-0.104
-669.076	800.000	-0.052	0.173
-668.062	539.413	-0.114	-0.272
-667.047	-0.148	0.340	0.241
-666.032	-114.988	-0.236	0.045
-665.018	-98.471	-0.163	0.042
-664.003	155.477	-0.139	-0.191
-662.989	-200.000	-0.012	0.191
-661.974	-200.000	0.003	-0.069
-660.959	-78.271	0.229	-0.078
-659.945	195.818	-0.145	-0.219
-658.930	-114.732	-0.199	0.038
-657.916	603.323	-0.033	0.083
-656.901	-96.798	0.287	-0.075
-655.886	-147.374	0.130	-0.011
-654.872	216.473	0.266	0.422
-653.857	-118.834	0.397	0.070
-652.843	-151.600	0.190	-0.014
-651.828	-40.837	-0.260	-0.134
-650.814	55.799	-0.148	-0.143
-649.799	-200.000	0.011	-0.811
-648.784	-161.598	0.123	0.006
-647.770	-200.000	-0.012	-0.656
-646.755	68.507	-0.049	-0.050
-645.741	318.411	0.173	0.327
-644.726	185.216	-0.131	-0.194
-643.711	487.058	-0.131	-0.297
-642.697	431.810	0.070	-0.152
-641.682	-91.414	-0.359	0.102
-640.668	800.000	-0.049	-0.204
-639.653	588.913	-0.074	-0.182
-638.638	16.823	0.189	0.149
-637.624	-102.135	-0.189	-0.045
-636.609	31.638	-0.257	-0.220
-635.595	-99.261	-0.191	-0.048
-634.580	239.710	0.093	-0.155
-633.565	44.340	0.365	0.334
-632.551	-200.000	-0.060	0.307
-631.536	7.222	0.131	-0.097
-630.522	-177.245	0.321	0.008
-629.507	257.931	0.265	-0.455
-628.492	44.294	-0.095	0.087
-627.478	73.536	-0.188	-0.196
-626.463	112.862	0.018	0.022
-625.449	-200.000	0.004	-0.206
-624.434	8.917	0.184	-0.138
-623.419	595.861	-0.078	-0.193
-622.405	53.666	-0.157	0.150
-621.390	-36.533	0.166	0.089
-620.376	18.466	-0.376	0.300
-619.361	231.375	0.201	0.328
-618.346	697.738	0.067	0.174
-617.332	800.000	-0.070	0.196
-616.317	7.004	0.106	0.079
-615.303	-29.880	0.074	0.042
-614.288	55.825	0.123	0.118
-613.273	496.528	-0.059	0.136
-612.259	672.400	-0.171	-0.443
-611.244	36.369	-0.107	0.094
-610.230	-57.981	0.144	0.063
-609.215	11.508	0.214	-0.164
-608.201	-31.060	0.189	0.106
-607.186	-1.643	-0.146	-0.103
-606.171	178.883	0.020	-0.029
-605.157	-100.273	-0.220	-0.054
-604.142	-170.676	-0.407	-0.014
-603.128	800.000	0.021	-0.066
-602.113	-162.625	0.132	-0.006
-601.098	203.381	-0.271	-0.418
-600.084	264.060	0.072	-0.124
-599.069	293.156	-0.064	-0.116
-598.055	581.055	-0.145	0.354
-597.040	5.323	0.138	-0.101
-596.025	800.000	0.026	0.100
-595.011	642.902	-0.064	0.163
-593.996	31.035	-0.194	0.166
-592.982	199.481	0.137	-0.209
-591.967	292.728	-0.086	0.156
-590.952	-200.000	-0.003	0.122
-589.938	-106.616	-0.292	0.065
-588.923	-77.670	-0.169	-0.058
-587.909	452.719	-0.075	-0.165
-586.894	242.451	0.149	-0.249
-585.879	-33.690	0.021	0.011
-584.865	264.310	0.072	0.124
-583.850	62.876	0.028	-0.028
-582.836	110.457	-0.262	-0.314
-581.821	184.992	-0.170	0.251
-580.806	152.239	-0.172	0.233
-579.792	-200.000	0.020	-0.258
-578.777	-141.471	-0.143	0.014
-577.763	-88.927	-0.249	-0.074
-576.748	-168.007	0.245	-0.010
-575.733	96.357	0.151	0.172
-574.719	-122.211	-0.315	-0.051
-573.704	117.141	-0.093	0.114
-572.690	800.000	-0.051	0.220
-571.675	197.840	0.252	-0.383
-570.661	-200.000	-0.001	-0.078
-569.646	-200.000	0.076	0.508
-568.631	-20.647	0.295	0.180
-567.617	199.324	-0.229	-0.349
-566.602	230.560	0.203	-0.330
-565.588	350.836	-0.256	-0.504
-564.573	-200.000	0.061	-0.270
-563.558	128.550	0.098	0.124
-562.544	800.000	-0.036	-0.135
-561.529	79.266	0.032	0.034
-560.515	234.014	-0.088	0.145
-559.500	-42.620	0.010	-0.005
-558.485	205.871	-0.107	0.166
-557.471	367.140	-0.095	0.190
-556.456	-103.455	0.414	-0.097
-555.442	391.765	0.029	0.060
-554.427	-200.000	-0.040	0.367
-553.412	-83.052	0.280	0.090
-552.398	126.079	-0.110	0.138
-551.383	-200.000	0.266	0.000
-550.369	-115.253	-0.433	0.081
-549.354	16.330	0.301	0.236
-548.339	-120.289	0.245	0.042
-547.325	-124.217	-0.202	0.031
-546.310	-200.000	-0.003	0.131
-545.296	-128.547	-0.057	0.008
-544.281	176.567	0.088	-0.128
-543.266	-200.000	-0.016	0.148
-542.252	226.109	0.158	-0.255
-541.237	-140.577	-0.337	-0.035
-540.223	-104.877	-0.097	0.022
-539.208	800.000	0.048	-0.147
-538.193	-41.839	-0.058	0.030
-537.179	800.000	-0.030	0.099
-536.164	-200.000	-0.011	0.169
-535.150	-157.508	-0.357	0.021
-534.135	-46.860	-0.082	-0.040
-533.121	-183.396	0.322	-0.006
-532.106	-34.615	-0.113	0.061
-531.091	466.245	-0.160	0.356
-530.077	40.585	-0.215	0.193
-529.062	-148.169	0.149	0.012
-528.048	120.898	0.131	0.162
-527.033	800.000	-0.027	0.085
-526.018	479.262	-0.008	-0.019
-525.004	-177.818	0.314	-0.007
-523.989	-200.000	0.032	0.249
-522.975	-47.481	-0.257	0.124
-521.960	-200.000	-0.066	0.338
-520.945	-102.816	0.158	0.037
-519.931	438.810	-0.128	0.278
-518.916	-200.000	-0.018	0.173
-517.902	-200.000	0.045	0.302
-516.887	-200.000	0.026	0.127
-515.872	324.210	0.136	0.257
-514.858	-19.007	-0.257	0.159
-513.843	130.192	0.073	-0.093
-512.829	-150.468	0.203	0.016
-511.814	403.942	0.028	-0.059
-510.799	800.000	-0.111	-0.356
-509.785	-200.000	0.000	0.058
-508.770	800.000	0.113	0.370
-507.756	64.197	0.132	-0.132
-506.741	93.175	-0.194	-0.217
-505.726	625.164	0.032	0.081
-504.712	-100.756	-0.418	0.102
-503.697	-200.000	0.073	0.480
-502.683	43.611	0.140	0.127
-501.668	94.213	0.281	-0.316
-500.653	-132.698	-0.122	-0.016
-499.639	-41.144	-0.161	-0.083
-498.624	-200.000	0.017	0.145
-497.610	-40.089	-0.202	-0.104
-496.595	-160.610	0.333	-0.018
-495.581	-4.303	-0.196	0.134
-494.566	-200.000	0.012	0.126
-493.551	501.218	-0.009	0.020
-492.537	-200.000	0.034	-0.171
-491.522	-67.483	-0.191	-0.075
-490.508	361.156	0.073	-0.144
-489.493	95.775	-0.059	0.067
-488.478	800.000	-0.065	-0.275
-487.464	-25.344	0.088	0.051
-486.449	800.000	0.032	0.118
-485.435	98.993	-0.223	-0.255
-484.420	299.642	-0.197	-0.359
-483.405	289.938	0.168	0.302
-482.391	-106.243	0.191	-0.043
-481.376	355.680	-0.094	-0.186
-480.362	1.540	-0.179	-0.128
-479.347	196.438	-0.180	0.271
-478.332	-200.000	0.029	-0.166
-477.318	-38.565	0.144	0.076
-476.303	730.112	-0.131	-0.347
-475.289	-29.964	-0.359	0.203
-474.274	800.000	0.055	-0.157
-473.259	292.277	-0.101	-0.183
-472.245	-139.655	0.306	0.032
-471.230	144.616	-0.120	-0.160
-470.216	50.972	-0.050	-0.047
-469.201	-200.000	0.015	-0.078
-468.186	138.498	-0.136	-0.178
-467.172	-200.000	-0.023	0.221
-466.157	-200.000	0.330	0.002
-465.143	75.559	0.109	-0.114
-464.128	-21.991	-0.148	-0.089
-463.113	181.477	0.092	0.134
-462.099	20.695	0.148	-0.118
-461.084	800.000	-0.119	-0.379
-460.070	-99.502	0.441	0.110
-459.055	150.394	0.084	0.113
-458.040	-115.437	0.140	0.026
-457.026	-145.885	-0.430	0.038
-456.011	-104.519	0.336	-0.077
-454.997	-126.823	0.441	0.065
-453.982	800.000	0.050	0.144
-452.968	-92.616	0.241	0.067
-451.953	-56.287	0.189	0.083
-450.938	-200.000	0.029	-0.175
-449.924	277.824	-0.139	0.244
-448.909	-3.282	-0.291	0.201
-447.895	7.009	0.134	-0.099
-446.880	-138.787	0.203	0.022
-445.865	-32.974	0.245	-0.135
-444.851	209.578	0.127	-0.197
-443.836	-17.987	-0.157	-0.097
-442.822	38.032	-0.123	0.109
-441.807	-42.792	-0.097	-0.049
-440.792	19.148	0.405	-0.321
-439.778	348.376	0.022	-0.042
-438.763	-154.520	-0.087	0.006
-437.749	-200.000	-0.013	-0.428
-436.734	-44.711	0.159	-0.079
-435.719	427.138	-0.099	-0.211
-434.705	800.000	0.099	0.418
-433.690	800.000	-0.105	0.313
-432.676	-32.843	0.339	0.186
-431.661	153.778	-0.244	-0.331
-430.646	800.000	0.091	0.287
-429.632	-49.852	0.240	-0.113
-428.617	-142.496	-0.274	-0.027
-427.603	-146.533	0.483	0.042
-426.588	-141.113	-0.167	0.017
-425.573	242.548	-0.116	-0.192
-424.559	-118.021	0.225	0.040
-423.544	360.729	0.129	-0.255
-422.530	-141.207	0.310	0.031
-421.515	-21.758	-0.466	0.281
-420.500	36.614	0.456	0.399
-419.486	26.307	0.172	-0.142
-418.471	-83.603	-0.275	-0.087
-417.457	548.460	-0.134	0.317
-416.442	800.000	-0.030	-0.116
-415.428	-127.077	0.149	-0.022
-414.413	-141.815	0.108	-0.011
-413.398	800.000	-0.077	0.304
-412.384	-32.327	0.145	0.080
-411.369	-91.095	0.249	0.071
-410.355	800.000	-0.054	-0.170
-409.340	-200.000	-0.047	-0.217
-408.325	538.907	-0.206	-0.484
-407.311	653.947	-0.031	-0.078
-406.296	-137.432	-0.211	-0.024
-405.282	-120.952	0.063	-0.010
-404.267	-155.942	-0.162	0.010
-403.252	-117.452	-0.276	0.049
-402.238	-200.000	-0.081	-0.621
-401.223	-198.465	0.144	0.001
-400.209	512.515	0.037	-0.085
-399.194	-100.850	0.320	0.078
-398.179	172.280	-0.100	-0.142
-397.165	17.071	-0.365	0.286
-396.150	-200.000	-0.030	0.280
-395.136	-108.780	-0.136	-0.029
-394.121	-36.440	0.139	-0.074
-393.106	-15.519	-0.078	0.049
-392.092	-56.667	0.236	0.103
-391.077	-200.000	-0.011	0.064
-390.063	-200.000	-0.044	0.233
-389.048	69.371	-0.042	0.042
-388.033	6.195	0.169	0.124
-387.019	-38.591	0.375	0.195
-386.004	25.527	-0.205	-0.168
-384.990	-105.733	-0.245	0.055
-383.975	-33.934	0.145	0.079
-382.960	109.582	-0.371	-0.440
-381.946	-7.894	0.205	-0.137
-380.931	-3.676	0.218	0.150
-379.917	397.495	-0.099	-0.204
-378.902	77.394	0.162	-0.170
-377.888	55.113	0.108	0.103
-376.873	-159.047	0.028	-0.002
-375.858	48.919	0.096	0.089
-374.844	-13.786	0.320	0.204
-373.829	-200.000	0.026	-0.154
-372.815	-34.815	-0.164	0.089
-371.800	-2.455	0.054	0.037
-370.785	450.684	0.074	0.162
-369.771	-200.000	-0.041	-0.371
-368.756	173.162	-0.128	0.182
-367.742	800.000	-0.019	-0.065
-366.727	800.000	0.080	0.297
-365.712	17.341	-0.131	0.103
-364.698	-55.747	-0.227	-0.100
-363.683	-200.000	-0.016	0.359
-362.669	-59.545	0.271	-0.115
-361.654	-119.861	0.183	0.031
-360.639	432.412	-0.054	0.115
-359.625	179.894	0.061	0.089
-358.610	800.000	0.103	0.308
-357.596	-200.000	0.015	-0.295
-356.581	-28.756	-0.366	-0.208
-355.566	301.705	0.056	0.102
-354.552	-77.107	0.363	-0.125
-353.537	800.000	-0.022	0.088
-352.523	-56.477	0.169	-0.074
-351.508	19.690	0.252	0.200
-350.493	-84.257	-0.283	-0.089
-349.479	412.602	-0.071	-0.149
-348.464	581.842	-0.019	-0.046
-347.450	186.751	0.268	-0.393
-346.435	800.000	0.092	-0.286
-345.420	121.970	-0.126	0.156
-344.406	-40.042	0.359	-0.184
-343.391	120.818	-0.108	0.132
-342.377	-87.769	-0.564	0.168
-341.362	-45.617	-0.195	0.095
-340.348	-63.054	-0.114	0.047
-339.333	-200.000	-0.054	-0.270
-338.318	-97.394	0.244	-0.063
-337.304	144.725	-0.328	0.432
-336.289	52.618	-0.248	-0.234
-335.275	-200.000	0.073	-0.325
-334.260	-63.510	0.076	0.031
-333.245	-162.998	0.061	0.003
-332.231	153.588	0.118	0.159
-331.216	130.532	-0.129	-0.163
-330.202	-200.000	0.021	0.188
-329.187	-200.000	-0.027	-0.363
-328.172	800.000	0.036	-0.149
-327.158	426.801	0.184	0.391
-326.143	800.000	0.067	0.225
-325.129	-97.015	0.201	-0.052
-324.114	800.000	0.102	0.296
-323.099	2.107	-0.012	0.009
-322.085	800.000	-0.046	-0.134
-321.070	-46.759	0.250	0.120
-320.056	361.033	-0.087	-0.172
-319.041	-119.604	0.250	0.043
-318.026	-120.575	-0.432	0.072
-317.012	-80.921	-0.284	-0.093
-315.997	108.895	0.155	0.183
-314.983	179.018	-0.232	0.334
-313.968	-200.000	-0.010	0.051
-312.953	-84.721	-0.156	-0.048
-311.939	241.619	0.124	-0.204
-310.924	-55.898	0.100	-0.044
-309.910	-26.289	0.112	-0.065
-308.895	76.129	-0.209	0.218
-307.880	-33.672	-0.318	-0.173
-306.866	-155.653	-0.107	0.007
-305.851	-80.891	0.242	-0.079
-304.837	-39.781	0.169	-0.087
-303.822	179.930	0.192	0.277
-302.807	-99.341	0.200	0.050
-301.793	82.836	0.180	-0.192
-300.778	133.478	0.189	-0.241
-299.764	376.918	0.069	-0.139
-298.749	-146.705	0.267	-0.023
-297.735	195.615	-0.075	0.113
-296.720	47.782	-0.070	0.064
-295.705	-106.498	0.369	0.081
-294.691	-35.544	-0.366	-0.196
-293.676	800.000	-0.061	-0.204
-292.662	142.576	0.015	0.019
-291.647	-92.488	-0.261	-0.072
-290.632	-200.000	-0.038	0.349
-289.618	-127.371	0.230	-0.033
-288.603	209.668	0.130	0.201
-287.589	-80.397	-0.077	0.025
-286.574	-90.382	-0.468	0.134
-285.559	107.703	-0.155	0.182
-284.545	800.000	-0.118	-0.329
-283.530	-109.470	-0.092	0.019
-282.516	-1.332	-0.093	-0.065
-281.501	786.265	0.047	-0.128
-280.486	-89.183	0.135	-0.039
-279.472	400.242	0.090	-0.185
-278.457	-40.667	0.322	-0.164
-277.443	174.409	-0.273	-0.388
-276.428	4.922	-0.163	0.118
-275.413	270.161	0.136	0.236
-274.399	-200.000	0.000	0.078
-273.384	-200.000	0.055	0.432
-272.370	91.158	0.118	-0.130
-271.355	366.606	-0.168	0.334
-270.340	-86.976	-0.252	0.075
-269.326	-63.865	-0.199	-0.080
-268.311	522.989	0.183	0.422
-267.297	-200.000	-0.062	0.401
-266.282	-49.959	-0.167	-0.078
-265.267	497.287	-0.027	0.060
-264.253	800.000	-0.012	-0.036
-263.238	800.000	0.107	-0.290
-262.224	-7.340	0.433	-0.288
-261.209	-18.957	0.038	0.023
-260.195	-156.974	-0.310	0.019
-259.180	-66.202	-0.272	-0.107
-258.165	-200.000	-0.036	0.436
-257.151	-112.852	-0.205	0.040
-256.136	4.006	-0.150	-0.108
-255.122	-150.230	-0.184	0.014
-254.107	-123.521	-0.146	-0.023
-253.092	-81.079	-0.559	0.182
-252.078	-200.000	-0.025	-0.361
-251.063	-150.052	0.098	0.007
-250.049	23.339	-0.263	-0.212
-249.034	-178.330	0.107	-0.002
-248.019	181.335	-0.151	0.219
-247.005	45.109	-0.200	-0.181
-245.990	-85.973	-0.675	-0.205
-244.976	-4.130	0.132	-0.090
-243.961	96.086	0.093	0.104
-242.946	-200.000	-0.018	-0.294
-241.932	13.054	-0.174	-0.133
-240.917	-172.418	-0.364	-0.011
-239.903	-188.823	0.052	-0.001
-238.888	800.000	0.026	0.090
-237.873	-200.000	0.029	-0.275
-236.859	-9.295	0.175	-0.115
-235.844	-119.634	0.128	-0.022
-234.830	800.000	0.027	0.105
-233.815	320.165	-0.124	0.231
-232.800	228.714	-0.192	-0.307
-231.786	435.580	-0.140	-0.298
-230.771	119.471	0.129	-0.157
-229.757	-109.092	0.346	0.072
-228.742	-92.873	-0.164	-0.045
-227.727	-23.358	-0.174	0.103
-226.713	800.000	0.047	-0.182
-225.698	-200.000	-0.024	0.169
-224.684	-39.256	-0.188	-0.097
-223.669	-163.119	0.402	-0.019
-222.655	-200.000	0.049	0.454
-221.640	-200.000	0.035	-0.370
-220.625	131.972	0.161	-0.204
-219.611	-128.626	0.254	0.035
-218.596	58.731	0.057	0.055
-217.582	-54.220	0.253	0.113
-216.567	-200.000	0.022	0.302
-215.552	675.868	-0.057	0.145
-214.538	-26.463	-0.218	0.125
-213.523	224.438	-0.111	0.176
-212.509	-129.152	-0.273	-0.037
-211.494	556.116	0.135	0.320
-210.479	-200.000	0.076	-0.370
-209.465	-59.298	-0.140	-0.059
-208.450	120.054	-0.037	-0.045
-207.436	90.990	-0.207	0.228
-206.421	157.912	-0.058	-0.078
-205.406	306.013	-0.050	-0.091
-204.392	203.244	0.152	0.231
-203.377	-139.483	-0.287	0.030
-202.363	-122.535	0.054	-0.009
-201.348	-95.560	0.222	0.058
-200.333	-24.940	-0.254	-0.148
-199.319	73.874	-0.132	-0.136
-198.304	231.480	-0.139	-0.223
-197.290	62.363	-0.193	0.189
-196.275	259.361	-0.216	0.366
-195.260	-200.000	-0.038	-0.324
-194.246	-34.661	0.328	-0.176
-193.231	800.000	0.064	-0.209
-192.217	-200.000	-0.034	-0.202
-191.202	-200.000	0.012	-0.188
-190.187	-200.000	-0.003	-0.018
-189.173	800.000	-0.086	0.239
-188.158	699.996	-0.127	-0.328
-187.144	17.258	-0.028	0.022
-186.129	-200.000	-0.008	-0.048
-185.114	800.000	-0.087	-0.339
-184.100	-35.962	0.285	0.151
-183.085	-200.000	0.010	0.161
-182.071	270.059	0.194	0.334
-181.056	62.732	-0.061	0.060
-180.042	-48.135	0.315	0.149
-179.027	138.396	-0.232	0.298
-178.012	235.664	0.105	0.170
-176.998	127.332	0.164	0.204
-175.983	-34.122	-0.147	0.079
-174.969	-147.239	0.373	0.031
-173.954	85.365	0.234	0.252
-172.939	-166.195	0.215	-0.009
-171.925	-84.047	0.257	-0.080
-170.910	448.368	-0.034	0.073
-169.896	335.312	-0.151	0.287
-168.881	-29.444	0.322	0.180
-167.866	-107.150	0.060	-0.013
-166.852	-89.339	-0.252	-0.073
-165.837	5.630	0.153	-0.111
-164.823	146.352	0.206	0.271
-163.808	-200.000	-0.068	0.308
-162.793	102.487	0.207	-0.237
-161.779	-21.558	0.192	0.114
-160.764	-35.565	0.272	0.145
-159.750	-179.592	-0.142	0.003
-158.735	71.368	-0.085	-0.086
-157.720	-200.000	0.009	-0.264
-156.706	88.011	0.175	-0.190
-155.691	215.782	0.122	-0.190
-154.677	-200.000	-0.049	0.386
-153.662	-96.770	0.195	-0.050
-152.647	-185.783	0.200	0.003
-151.633	800.000	-0.074	-0.256
-150.618	-137.016	-0.431	0.048
-149.604	-15.783	0.063	0.040
-148.589	163.727	-0.139	0.191
-147.574	-103.082	-0.224	-0.052
-146.560	-200.000	-0.021	0.137
-145.545	127.462	-0.064	-0.080
-144.531	-42.000	-0.170	0.085
-143.516	70.906	0.079	0.080
-142.502	74.381	0.124	0.128
-141.487	-200.000	-0.004	-0.121
-140.472	-200.000	0.003	-0.209
-139.458	469.800	-0.090	-0.197
-138.443	800.000	0.024	-0.092
-137.429	18.939	0.114	-0.089
-136.414	28.528	0.058	-0.048
-135.399	-200.000	-0.022	0.216
-134.385	421.711	-0.030	0.063
-133.370	-7.886	-0.024	0.016
-132.356	-200.000	-0.004	0.029
-131.341	-35.895	0.174	-0.092
-130.326	800.000	0.079	0.233
-129.312	-90.487	-0.219	0.062
-128.297	800.000	-0.096	0.301
-127.283	-63.984	-0.235	-0.094
-126.268	-11.741	-0.121	-0.078
-125.253	-200.000	-0.027	0.126
-124.239	110.548	0.275	0.324
-123.224	-12.407	0.345	-0.220
-122.210	-145.584	-0.328	0.029
-121.195	800.000	-0.034	-0.141
