DTS Sentinel unit serial number:	SN413079Multiplexer serial number:	ORYXHardware model number:	OX4-SRSoftware version number:	ORYX F/W v4.00 Oryx Data Collector v3.7.2.0data status	okinstallation	princeton_trtdifferential loss correction	single-endedforward channel	channel 1reverse channel	N/Adate	2019/09/19time	06:46:35forward acquisition time	60.00reverse acquisition time	0.00gamma	496.2192k internal	0.2343k external	0.2343temperature offset calibration	1.0022default loss term (dB/km)	0.3790temperature slope calibration	1.0000multiplexer offset coefficient	1.0000multiplexer slope coefficient	1.0000fibre end	0.00T internal ref (°C)	19.00T ext. ref 1 (°C)	0.56T ext. ref 2 (°C)	12.69length (m)	temperature (°C)	Stokes	anti-Stokes-747.200	-168.368	-0.114	0.004
-746.185	176.700	-0.210	0.306
-745.171	107.594	-0.061	-0.073
-744.156	-200.000	-0.000	0.252
-743.142	247.422	-0.127	0.215
-742.127	-36.422	-0.145	0.078
-741.112	-19.241	-0.235	-0.146
-740.098	-70.011	-0.285	0.109
-739.083	37.416	0.312	-0.277
-738.069	49.193	-0.114	0.107
-737.054	-4.000	-0.178	-0.124
-736.039	711.893	-0.081	-0.214
-735.025	-108.635	0.219	0.047
-734.010	-70.664	-0.055	0.021
-732.996	45.831	-0.272	0.252
-731.981	610.104	-0.091	-0.227
-730.966	-200.000	0.009	-0.177
-729.952	-53.017	0.166	-0.076
-728.937	-200.000	0.026	-0.259
-727.923	-200.000	-0.032	-0.361
-726.908	-200.000	-0.006	-0.520
-725.894	-200.000	0.032	-0.264
-724.879	70.716	-0.091	-0.094
-723.864	279.893	0.020	0.035
-722.850	171.667	-0.155	-0.223
-721.835	269.850	0.069	0.121
-720.821	15.769	0.153	0.120
-719.806	-200.000	-0.023	0.239
-718.791	-64.549	0.111	-0.045
-717.777	-3.454	-0.245	-0.171
-716.762	-200.000	0.047	0.416
-715.748	87.798	-0.148	-0.164
-714.733	-5.207	-0.229	-0.158
-713.718	-157.654	-0.137	-0.008
-712.704	16.811	-0.200	0.158
-711.689	8.336	0.096	-0.072
-710.675	-200.000	-0.065	-0.347
-709.660	-118.148	0.182	-0.032
-708.645	87.143	0.407	-0.450
-707.631	-106.815	-0.151	0.034
-706.616	181.057	-0.117	-0.171
-705.602	99.259	-0.114	0.132
-704.587	-58.443	0.178	0.077
-703.572	54.894	0.204	-0.197
-702.558	255.398	-0.110	-0.188
-701.543	-200.000	-0.007	-0.275
-700.529	-200.000	-0.013	0.126
-699.514	358.706	0.057	0.115
-698.499	-200.000	-0.014	0.202
-697.485	-23.155	0.587	0.353
-696.470	-87.086	-0.357	0.109
-695.456	-143.153	-0.171	-0.017
-694.441	137.361	-0.066	0.087
-693.426	465.053	-0.195	0.436
-692.412	-88.913	0.232	0.069
-691.397	-69.476	0.184	0.070
-690.383	800.000	-0.029	0.108
-689.368	-33.405	-0.074	-0.041
-688.354	-94.020	0.170	-0.047
-687.339	800.000	-0.163	-0.560
-686.324	-200.000	0.053	0.232
-685.310	51.491	0.323	0.307
-684.295	800.000	0.057	-0.249
-683.281	-2.502	-0.162	0.113
-682.266	513.954	0.190	0.444
-681.251	137.542	-0.115	0.150
-680.237	800.000	-0.096	-0.267
-679.222	17.825	-0.270	-0.215
-678.208	-189.950	-0.164	-0.002
-677.193	-56.689	0.446	-0.197
-676.178	9.089	-0.220	0.166
-675.164	800.000	0.114	0.350
-674.149	-200.000	0.188	-0.000
-673.135	-139.650	-0.218	-0.023
-672.120	-60.949	-0.260	0.110
-671.105	140.864	-0.252	-0.332
-670.091	146.576	-0.125	0.168
-669.076	-200.000	0.033	-0.247
-668.062	438.754	-0.098	-0.214
-667.047	114.499	0.216	0.263
-666.032	167.726	-0.151	0.214
-665.018	800.000	-0.078	-0.243
-664.003	-161.546	0.328	-0.017
-662.989	-200.000	0.011	-0.267
-661.974	3.910	0.112	-0.082
-660.959	-104.028	0.289	0.067
-659.945	-61.065	-0.234	-0.099
-658.930	-93.640	0.334	0.092
-657.916	68.228	0.134	-0.137
-656.901	-176.433	0.355	0.009
-655.886	180.276	0.171	0.250
-654.872	-28.476	0.114	-0.065
-653.857	297.598	0.103	-0.188
-652.843	76.983	-0.126	0.134
-651.828	185.329	-0.239	-0.354
-650.814	-14.944	-0.079	-0.050
-649.799	420.004	0.096	0.206
-648.784	35.255	-0.091	-0.080
-647.770	90.085	-0.129	0.144
-646.755	-1.589	0.184	-0.129
-645.741	-200.000	-0.026	-0.164
-644.726	-73.671	-0.112	0.041
-643.711	-200.000	-0.052	-0.438
-642.697	-159.203	-0.474	-0.027
-641.682	19.748	-0.218	-0.175
-640.668	-154.653	0.038	0.003
-639.653	30.067	-0.091	-0.077
-638.638	580.003	-0.060	-0.146
-637.624	-58.115	-0.183	0.079
-636.609	93.701	0.337	0.381
-635.595	-32.397	0.319	0.177
-634.580	-1.703	-0.066	0.046
-633.565	8.565	-0.222	0.167
-632.551	-2.509	-0.027	0.019
-631.536	-43.351	0.264	0.133
-630.522	161.355	0.122	0.171
-629.507	-200.000	0.015	0.248
-628.492	131.509	0.142	0.182
-627.478	800.000	0.025	0.082
-626.463	151.124	0.174	-0.236
-625.449	176.742	0.121	0.175
-624.434	32.038	-0.293	-0.252
-623.419	76.548	0.251	-0.265
-622.405	-103.582	-0.334	-0.078
-621.390	-200.000	-0.040	0.259
-620.376	800.000	0.040	0.121
-619.361	-95.168	0.168	0.045
-618.346	-165.336	-0.267	0.012
-617.332	26.162	0.163	-0.135
-616.317	-200.000	-0.006	-0.092
-615.303	800.000	-0.021	-0.083
-614.288	-128.119	-0.352	0.050
-613.273	-74.695	0.113	-0.040
-612.259	61.227	0.142	-0.141
-611.244	151.521	-0.205	0.278
-610.230	800.000	0.152	0.464
-609.215	-47.191	0.011	0.006
-608.201	-93.344	-0.222	0.061
-607.186	-83.369	0.265	-0.085
-606.171	-34.541	0.170	-0.093
-605.157	-78.314	-0.036	0.012
-604.142	-30.517	-0.217	-0.122
-603.128	96.358	-0.065	-0.074
-602.113	-200.000	0.009	-0.053
-601.098	709.346	-0.056	0.147
-600.084	-42.772	-0.299	-0.151
-599.069	454.973	0.096	0.212
-598.055	266.087	0.070	-0.122
-597.040	-151.403	-0.544	0.040
-596.025	149.831	0.122	-0.165
-595.011	-94.085	0.253	-0.069
-593.996	-95.423	0.114	-0.031
-592.982	222.310	-0.071	0.113
-591.967	26.161	0.235	0.195
-590.952	550.119	-0.140	-0.333
-589.938	49.427	0.183	0.171
-588.923	-200.000	0.004	-0.098
-587.909	-71.275	-0.134	-0.050
-586.894	29.527	0.186	0.157
-585.879	253.666	-0.193	-0.329
-584.865	-200.000	-0.039	0.250
-583.850	-200.000	-0.081	-0.372
-582.836	350.208	-0.084	-0.166
-581.821	-200.000	-0.014	0.102
-580.806	4.859	-0.236	0.172
-579.792	-66.033	0.249	0.099
-578.777	-172.847	0.185	0.006
-577.763	-200.000	0.007	0.163
-576.748	800.000	0.106	-0.411
-575.733	-120.907	0.380	-0.064
-574.719	-120.653	-0.115	-0.019
-573.704	-200.000	-0.039	0.410
-572.690	129.464	-0.199	-0.253
-571.675	667.232	0.038	0.099
-570.661	-75.025	0.029	0.010
-569.646	-200.000	-0.004	-0.021
-568.631	-3.045	-0.202	-0.140
-567.617	233.952	0.142	-0.232
-566.602	-200.000	0.015	-0.173
-565.588	-10.493	-0.282	-0.186
-564.573	20.692	0.125	-0.101
-563.558	-200.000	0.010	0.170
-562.544	-63.268	-0.231	-0.095
-561.529	-200.000	-0.005	-0.127
-560.515	-200.000	-0.030	-0.225
-559.500	651.863	-0.138	-0.352
-558.485	-200.000	-0.010	0.402
-557.471	800.000	0.022	0.087
-556.456	380.583	-0.237	-0.483
-555.442	800.000	0.088	-0.309
-554.427	25.099	-0.148	-0.122
-553.412	800.000	0.037	-0.131
-552.398	-20.480	0.259	-0.158
-551.383	-58.149	-0.280	0.121
-550.369	-200.000	-0.007	0.105
-549.354	207.514	-0.037	0.058
-548.339	-46.258	-0.049	0.024
-547.325	242.891	0.055	-0.091
-546.310	400.901	-0.077	0.161
-545.296	-75.260	-0.040	-0.014
-544.281	16.551	-0.081	0.063
-543.266	-200.000	0.051	-0.241
-542.252	-191.092	-0.225	0.002
-541.237	67.775	0.114	0.115
-540.223	-92.998	0.141	0.039
-539.208	-63.587	-0.218	0.089
-538.193	-70.815	0.008	-0.003
-537.179	-48.821	-0.128	0.061
-536.164	380.912	-0.208	0.423
-535.150	65.535	0.263	0.264
-534.135	-87.558	0.142	0.043
-533.121	44.359	-0.211	-0.192
-532.106	270.576	-0.046	0.080
-531.091	598.251	0.057	0.141
-530.077	-171.406	-0.262	0.009
-529.062	-77.180	-0.230	-0.080
-528.048	157.318	0.011	-0.016
-527.033	28.336	0.162	0.136
-526.018	-150.781	0.032	-0.002
-525.004	-200.000	0.042	0.226
-523.989	64.536	0.212	0.212
-522.975	110.946	0.332	0.396
-521.960	92.782	-0.123	-0.137
-520.945	-84.093	0.343	-0.108
-519.931	-93.718	-0.173	-0.047
-518.916	-37.313	-0.106	0.056
-517.902	-11.393	-0.200	-0.131
-516.887	-98.092	0.228	-0.058
-515.872	63.330	-0.030	0.030
-514.858	-167.356	-0.260	0.010
-513.843	19.648	-0.156	-0.125
-512.829	800.000	-0.039	-0.157
-511.814	-70.927	-0.288	-0.108
-510.799	297.962	0.050	0.091
-509.785	-200.000	-0.001	0.062
-508.770	77.787	0.076	-0.080
-507.756	-129.704	-0.513	-0.070
-506.741	-163.485	0.136	-0.006
-505.726	777.356	0.021	-0.057
-504.712	-109.144	0.079	0.017
-503.697	-128.401	0.101	-0.014
-502.683	-61.614	-0.173	0.072
-501.668	249.727	0.070	0.118
-500.653	3.433	0.142	-0.102
-499.639	-100.509	0.185	0.045
-498.624	-37.957	-0.131	0.069
-497.610	-148.412	-0.335	0.027
-496.595	-123.950	-0.383	-0.060
-495.581	540.504	-0.027	-0.063
-494.566	110.882	-0.138	-0.165
-493.551	156.845	-0.112	-0.154
-492.537	-119.078	-0.192	0.033
-491.522	794.571	-0.061	0.165
-490.508	-191.542	-0.072	0.001
-489.493	-96.295	-0.276	-0.072
-488.478	229.563	-0.192	0.311
-487.464	168.772	0.220	0.310
-486.449	800.000	-0.107	0.295
-485.435	-100.453	0.123	0.030
-484.420	800.000	0.054	-0.150
-483.405	301.288	0.129	0.237
-482.391	-83.861	-0.080	-0.025
-481.376	-39.978	0.075	-0.039
-480.362	800.000	0.144	0.428
-479.347	-200.000	0.003	-0.240
-478.332	377.283	-0.093	0.189
-477.318	460.702	-0.070	-0.155
-476.303	-37.826	-0.218	0.115
-475.289	258.770	0.065	-0.112
-474.274	800.000	0.023	0.099
-473.259	4.184	-0.306	-0.222
-472.245	-35.546	0.160	0.086
-471.230	-68.363	0.363	0.140
-470.216	-200.000	0.006	-0.218
-469.201	3.462	0.306	-0.221
-468.186	-182.059	0.293	0.005
-467.172	-76.182	-0.302	-0.105
-466.157	188.237	-0.146	-0.216
-465.143	-129.204	0.381	0.053
-464.128	54.957	0.242	-0.231
-463.113	-73.623	-0.237	0.086
-462.099	-78.550	0.103	-0.035
-461.084	-127.115	0.278	0.040
-460.070	-69.157	0.406	0.155
-459.055	207.140	-0.070	0.107
-458.040	-200.000	0.367	0.001
-457.026	123.867	-0.135	-0.168
-456.011	-94.375	-0.141	0.038
-454.997	59.282	-0.169	-0.164
-453.982	-200.000	-0.065	0.306
-452.968	-200.000	-0.031	0.148
-451.953	794.551	-0.104	0.284
-450.938	178.062	0.269	-0.389
-449.924	-200.000	0.034	-0.290
-448.909	643.063	0.075	0.189
-447.895	-80.996	0.222	-0.073
-446.880	-120.060	0.343	0.058
-445.865	75.245	0.118	0.123
-444.851	33.415	-0.077	-0.066
-443.836	-2.324	-0.235	0.163
-442.822	82.883	0.113	-0.122
-441.807	-81.079	0.062	0.020
-440.792	64.024	-0.069	-0.069
-439.778	184.205	-0.114	0.167
-438.763	-200.000	-0.026	0.154
-437.749	-22.768	-0.114	-0.068
-436.734	-200.000	0.033	-0.258
-435.719	-200.000	0.009	-0.043
-434.705	-200.000	-0.061	0.315
-433.690	-110.093	-0.344	-0.071
-432.676	-34.516	-0.177	0.096
-431.661	-65.501	-0.170	-0.067
-430.646	800.000	-0.013	-0.056
-429.632	-74.754	0.257	0.091
-428.617	-200.000	0.044	-0.230
-427.603	-60.140	-0.108	-0.046
-426.588	-17.006	-0.074	0.046
-425.573	-13.797	0.156	0.100
-424.559	-41.859	-0.090	0.046
-423.544	-200.000	0.004	-0.049
-422.530	-200.000	0.067	-0.000
-421.515	123.199	0.264	0.327
-420.500	-63.826	-0.135	0.055
-419.486	16.690	-0.155	-0.121
-418.471	-27.932	0.126	0.072
-417.457	800.000	0.153	-0.436
-416.442	131.812	0.037	0.047
-415.428	-150.127	-0.232	0.018
-414.413	21.906	0.253	-0.204
-413.398	56.928	0.251	0.242
-412.384	-89.037	0.135	0.040
-411.369	244.928	-0.192	-0.320
-410.355	-200.000	-0.035	-0.301
-409.340	-157.889	0.371	-0.022
-408.325	-200.000	0.010	0.091
-407.311	-67.077	0.290	-0.113
-406.296	-200.000	-0.048	-0.327
-405.282	-200.000	-0.023	-0.129
-404.267	9.108	-0.232	0.174
-403.252	-154.330	0.152	-0.010
-402.238	-60.724	-0.427	0.179
-401.223	-112.064	-0.156	0.031
-400.209	234.536	0.170	-0.277
-399.194	-115.714	-0.401	-0.074
-398.179	205.488	0.038	0.058
-397.165	176.720	0.107	-0.154
-396.150	234.750	-0.086	-0.140
-395.136	18.453	0.034	-0.027
-394.121	172.142	-0.025	-0.036
-393.106	115.305	-0.147	-0.178
-392.092	134.621	0.223	0.285
-391.077	-36.358	-0.105	0.056
-390.063	77.547	0.157	0.165
-389.048	179.290	0.114	-0.165
-388.033	129.438	-0.197	0.249
-387.019	-173.619	-0.156	-0.005
-386.004	-21.248	-0.113	0.068
-384.990	243.442	0.060	-0.100
-383.975	169.404	0.066	-0.092
-382.960	136.017	0.178	0.229
-381.946	-75.599	0.078	-0.027
-380.931	-90.480	-0.304	-0.087
-379.917	-200.000	0.000	-0.061
-378.902	478.602	-0.163	0.365
-377.888	-1.010	-0.157	0.109
-376.873	361.759	0.073	0.146
-375.858	800.000	0.021	0.091
-374.844	25.955	-0.140	0.115
-373.829	800.000	0.012	-0.035
-372.815	20.943	-0.085	-0.068
-371.800	180.556	-0.154	0.223
-370.785	522.454	-0.041	-0.095
-369.771	386.343	-0.053	0.108
-368.756	-200.000	0.035	0.195
-367.742	37.550	-0.067	0.058
-366.727	800.000	-0.017	-0.072
-365.712	-200.000	0.053	0.275
-364.698	294.359	0.103	0.187
-363.683	99.208	0.054	0.062
-362.669	-200.000	-0.027	0.148
-361.654	-200.000	0.089	-0.425
-360.639	800.000	-0.038	0.155
-359.625	-200.000	-0.004	-0.156
-358.610	800.000	-0.086	-0.295
-357.596	96.416	0.071	-0.081
-356.581	-121.700	-0.150	0.024
-355.566	384.004	-0.079	0.160
-354.552	477.976	0.067	-0.149
-353.537	686.990	-0.103	0.265
-352.523	-200.000	0.029	-0.147
-351.508	180.435	-0.039	0.056
-350.493	-40.348	0.267	0.137
-349.479	98.025	0.041	0.046
-348.464	138.736	0.064	-0.083
-347.450	75.398	-0.293	-0.305
-346.435	800.000	0.042	-0.163
-345.420	36.825	0.095	-0.083
-344.406	-200.000	0.009	-0.195
-343.391	800.000	-0.058	0.174
-342.377	-11.729	0.169	0.110
-341.362	-5.007	0.332	-0.225
-340.348	-200.000	0.006	-0.177
-339.333	-191.436	0.143	0.001
-338.318	66.527	0.200	0.201
-337.304	-149.109	-0.236	0.019
-336.289	118.773	-0.131	-0.160
-335.275	-124.748	0.418	-0.064
-334.260	-166.359	0.087	-0.004
-333.245	-30.968	0.223	-0.124
-332.231	48.081	-0.204	0.188
-331.216	-86.629	0.021	-0.006
-330.202	-101.775	0.119	0.028
-329.187	-138.161	-0.085	0.009
-328.172	680.668	0.146	-0.374
-327.158	14.897	-0.262	-0.202
-326.143	49.245	0.419	0.388
-325.129	800.000	-0.029	-0.102
-324.114	131.614	0.090	-0.114
-323.099	134.385	0.129	0.165
-322.085	800.000	0.019	-0.060
-321.070	-169.344	0.059	-0.002
-320.056	359.726	0.065	0.129
-319.041	-200.000	-0.017	0.221
-318.026	-70.924	-0.266	0.099
-317.012	-75.476	0.123	-0.043
-315.997	-105.842	-0.289	-0.064
-314.983	-68.540	-0.169	0.065
-313.968	126.671	0.113	0.141
-312.953	325.089	-0.039	0.073
-311.939	707.484	0.102	0.265
-310.924	800.000	0.087	0.263
-309.910	42.580	0.124	-0.111
-308.895	-19.685	-0.139	-0.085
-307.880	73.025	0.140	-0.144
-306.866	241.489	0.041	0.068
-305.851	-200.000	0.044	-0.240
-304.837	800.000	0.091	-0.289
-303.822	-156.041	-0.131	-0.008
-302.807	-129.077	-0.457	-0.063
-301.793	142.483	-0.078	-0.102
-300.778	-138.840	-0.224	-0.024
-299.764	714.504	0.139	-0.363
-298.749	-161.812	0.239	-0.012
-297.735	-73.709	0.150	0.054
-296.720	28.095	0.396	-0.329
-295.705	-91.292	-0.022	0.006
-294.691	-200.000	0.012	0.087
-293.676	686.549	-0.067	-0.173
-292.662	97.250	-0.040	-0.045
-291.647	-38.971	-0.073	0.038
-290.632	161.407	-0.102	-0.140
-289.618	-200.000	-0.016	0.194
-288.603	-200.000	0.032	0.193
-287.589	373.303	0.072	-0.145
-286.574	179.442	0.151	0.217
-285.559	-200.000	-0.020	0.275
-284.545	28.362	-0.131	0.109
-283.530	-83.092	-0.090	0.029
-282.516	800.000	-0.055	-0.178
-281.501	-82.280	0.114	0.037
-280.486	134.058	0.079	0.101
-279.472	-55.148	0.042	0.018
-278.457	146.410	0.077	0.101
-277.443	116.470	0.069	-0.083
-276.428	-39.440	0.261	-0.134
-275.413	-91.096	-0.079	-0.022
-274.399	59.782	-0.102	-0.099
-273.384	-113.990	0.287	-0.055
-272.370	-102.524	0.022	0.005
-271.355	563.948	-0.077	0.182
-270.340	-111.616	-0.178	0.036
-269.326	-111.380	-0.076	0.015
-268.311	-200.000	0.027	0.131
-267.297	-200.000	-0.160	0.716
-266.282	-200.000	0.052	0.268
-265.267	30.217	0.299	0.251
-264.253	166.227	0.145	0.202
-263.238	-143.422	0.185	-0.017
-262.224	688.307	-0.082	-0.210
-261.209	800.000	-0.062	0.169
-260.195	286.644	-0.098	-0.174
-259.180	10.321	-0.180	-0.135
-258.165	-158.787	-0.191	-0.011
-257.151	-200.000	-0.025	0.154
-256.136	800.000	0.108	-0.317
-255.122	-118.973	-0.257	0.044
-254.107	-93.190	0.346	0.095
-253.092	-200.000	-0.014	0.096
-252.078	62.782	0.050	0.049
-251.063	-3.115	0.306	-0.209
-250.049	-0.355	-0.122	-0.085
-249.034	800.000	-0.061	-0.166
-248.019	-71.860	-0.292	0.107
-247.005	-200.000	-0.039	0.229
-245.990	50.656	-0.154	0.143
-244.976	-66.813	-0.212	-0.082
-243.961	-113.167	-0.003	-0.001
-242.946	-119.738	0.153	0.026
-241.932	8.534	0.121	-0.090
-240.917	-72.817	-0.380	0.137
-239.903	800.000	-0.103	0.440
-238.888	58.179	0.189	0.182
-237.873	-49.734	0.117	0.054
-236.859	380.982	0.124	-0.250
-235.844	57.403	-0.281	-0.269
-234.830	-17.812	-0.314	-0.193
-233.815	-200.000	-0.036	-0.212
-232.800	-40.934	-0.142	0.072
-231.786	-119.052	0.308	0.053
-230.771	800.000	0.068	-0.269
-229.757	54.243	0.024	-0.023
-228.742	-119.378	-0.293	-0.050
-227.727	44.222	0.065	0.059
-226.713	42.144	-0.422	0.376
-225.698	-200.000	-0.114	0.505
-224.684	-67.840	-0.139	0.053
-223.669	-110.116	0.257	-0.053
-222.655	-125.472	0.118	-0.018
-221.640	800.000	-0.075	0.249
-220.625	-200.000	0.012	-0.118
-219.611	-92.688	-0.346	-0.095
-218.596	369.133	-0.063	0.125
-217.582	34.063	0.016	-0.014
-216.567	29.964	-0.151	0.126
-215.552	-162.895	0.157	0.008
-214.538	800.000	0.060	-0.191
-213.523	7.848	-0.130	0.096
-212.509	667.207	0.148	-0.374
-211.494	218.663	0.054	0.085
-210.479	18.816	-0.052	-0.041
-209.465	-32.452	0.105	-0.058
-208.450	134.325	-0.099	0.126
-207.436	-148.704	0.291	-0.023
-206.421	491.939	0.020	0.046
-205.406	244.607	-0.044	0.073
-204.392	-200.000	0.008	0.070
-203.377	17.931	-0.240	-0.187
-202.363	-75.489	0.214	-0.075
-201.348	-118.469	-0.066	-0.011
-200.333	443.727	0.166	-0.356
-199.319	120.787	-0.191	0.233
-198.304	-122.232	0.106	-0.017
-197.290	-31.671	0.423	-0.233
-196.275	-38.672	-0.103	-0.053
-195.260	-51.448	0.109	-0.050
-194.246	0.794	-0.144	-0.101
-193.231	-16.905	0.333	0.207
-192.217	-200.000	-0.056	0.242
-191.202	-200.000	0.088	-0.383
-190.187	-200.000	0.007	-0.085
-189.173	24.051	0.150	0.121
-188.158	-40.309	-0.117	-0.060
-187.144	-148.121	-0.137	0.011
-186.129	-137.512	0.011	0.001
-185.114	232.818	0.152	0.244
-184.100	800.000	0.086	0.242
-183.085	439.628	0.128	-0.274
-182.071	379.877	0.158	-0.318
-181.056	279.330	-0.077	-0.134
-180.042	-113.001	-0.177	0.034
-179.027	-65.956	0.205	-0.080
-178.012	-97.407	0.192	0.049
-176.998	-200.000	-0.010	0.170
-175.983	-200.000	-0.048	-0.373
-174.969	-200.000	0.046	-0.202
-173.954	80.180	-0.225	-0.237
-172.939	-63.187	0.329	-0.133
-171.925	-123.391	-0.143	0.022
-170.910	800.000	0.056	-0.202
-169.896	446.915	-0.050	0.107
-168.881	-100.479	-0.413	0.100
-167.866	-153.349	0.176	0.012
-166.852	565.656	0.130	0.309
-165.837	-46.276	0.309	0.149
-164.823	800.000	0.135	-0.375
-163.808	-200.000	0.010	0.048
-162.793	309.429	0.110	0.200
-161.779	800.000	0.040	-0.146
-160.764	-93.642	0.381	0.103
-159.750	85.781	0.133	-0.143
-158.735	800.000	0.096	0.325
-157.720	800.000	0.045	0.147
-156.706	-200.000	-0.009	0.425
-155.691	-200.000	0.008	0.089
-154.677	800.000	0.086	-0.314
-153.662	800.000	0.091	-0.277
-152.647	49.120	-0.183	-0.168
-151.633	14.415	0.126	0.096
-150.618	-87.860	0.559	0.165
-149.604	5.637	-0.096	0.069
-148.589	-200.000	0.159	-0.001
-147.574	800.000	0.111	-0.368
-146.560	392.755	0.105	-0.214
-145.545	90.774	0.196	-0.215
-144.531	-200.000	0.175	0.001
-143.516	-51.999	-0.261	-0.119
-142.502	-182.333	0.275	0.005
-141.487	98.603	-0.180	-0.203
-140.472	646.370	-0.133	-0.333
-139.458	-15.187	0.338	-0.211
-138.443	172.432	0.396	0.557
-137.429	-200.000	0.047	0.321
-136.414	-24.521	-0.299	-0.174
-135.399	-93.370	0.087	-0.024
-134.385	-40.653	0.312	-0.158
-133.370	52.132	-0.242	-0.225
-132.356	-139.795	0.154	0.016
-131.341	111.287	-0.166	-0.195
-130.326	-200.000	-0.014	0.124
-129.312	-200.000	-0.039	-0.223
-128.297	-37.106	0.269	0.141
-127.283	232.587	0.222	0.356
-126.268	231.441	0.036	0.057
-125.253	267.401	-0.154	0.264
-124.239	-102.468	-0.137	0.032
-123.224	664.019	0.113	-0.284
-122.210	468.457	-0.050	-0.110
-121.195	-122.306	0.052	0.008
