DTS Sentinel unit serial number:	SN413079Multiplexer serial number:	ORYXHardware model number:	OX4-SRSoftware version number:	ORYX F/W v4.00 Oryx Data Collector v3.7.2.0data status	okinstallation	princeton_trtdifferential loss correction	single-endedforward channel	channel 1reverse channel	N/Adate	2019/09/17time	13:18:35forward acquisition time	60.00reverse acquisition time	0.00gamma	496.2192k internal	0.2310k external	0.2310temperature offset calibration	0.9965default loss term (dB/km)	0.3790temperature slope calibration	1.0000multiplexer offset coefficient	1.0000multiplexer slope coefficient	1.0000fibre end	0.00T internal ref (°C)	34.17T ext. ref 1 (°C)	0.42T ext. ref 2 (°C)	31.35length (m)	temperature (°C)	Stokes	anti-Stokes-747.200	170.829	-0.183	0.267
-746.185	-200.000	0.059	0.359
-745.171	-74.596	-0.131	-0.048
-744.156	-28.044	0.128	0.075
-743.142	-73.275	0.295	-0.110
-742.127	-129.313	-0.163	0.023
-741.112	-200.000	0.001	0.069
-740.098	-22.289	-0.138	0.085
-739.083	18.354	0.153	-0.124
-738.069	800.000	0.067	0.292
-737.054	291.439	-0.090	0.166
-736.039	-145.736	-0.413	-0.037
-735.025	800.000	0.073	-0.249
-734.010	-82.370	-0.259	-0.086
-732.996	-109.902	0.255	-0.054
-731.981	-109.641	-0.353	-0.076
-730.966	-130.590	-0.380	-0.052
-729.952	-200.000	-0.027	0.145
-728.937	38.023	-0.236	0.213
-727.923	-200.000	-0.126	0.665
-726.908	462.961	0.043	0.097
-725.894	-200.000	0.004	0.111
-724.879	174.670	-0.119	0.175
-723.864	63.758	-0.165	-0.168
-722.850	-100.916	-0.237	-0.059
-721.835	-77.486	-0.205	0.072
-720.821	422.955	-0.062	-0.135
-719.806	-200.000	0.006	-0.039
-718.791	-200.000	0.040	-0.326
-717.777	94.574	-0.051	-0.059
-716.762	-200.000	-0.034	-0.165
-715.748	-180.220	0.063	-0.001
-714.733	117.240	-0.068	-0.085
-713.718	-45.598	-0.423	-0.212
-712.704	-200.000	-0.053	0.373
-711.689	441.463	-0.045	0.100
-710.675	-101.812	-0.249	-0.061
-709.660	800.000	-0.059	-0.245
-708.645	-79.957	-0.196	0.067
-707.631	389.585	-0.158	-0.332
-706.616	-103.135	0.149	-0.036
-705.602	-130.431	0.175	0.024
-704.587	240.828	-0.121	0.204
-703.572	-89.975	-0.299	0.088
-702.558	-200.000	0.015	-0.429
-701.543	800.000	0.030	-0.094
-700.529	-77.273	0.394	0.139
-699.514	-200.000	-0.067	-0.407
-698.499	7.214	-0.119	0.090
-697.485	-106.720	0.204	-0.046
-696.470	-200.000	0.006	0.084
-695.456	-200.000	-0.017	-0.202
-694.441	-78.811	0.054	-0.019
-693.426	-0.732	-0.181	0.130
-692.412	-21.019	-0.004	-0.002
-691.397	-14.757	-0.137	-0.089
-690.383	80.155	0.238	0.260
-689.368	-200.000	-0.005	0.069
-688.354	212.630	-0.092	-0.147
-687.339	-124.078	0.405	-0.064
-686.324	-109.710	-0.304	0.065
-685.310	-200.000	-0.002	0.117
-684.295	-99.641	0.207	-0.053
-683.281	-77.563	-0.386	-0.136
-682.266	164.526	-0.185	-0.264
-681.251	30.684	0.198	0.171
-680.237	568.202	0.073	0.179
-679.222	149.817	-0.202	0.277
-678.208	66.087	0.125	0.128
-677.193	-41.467	0.319	-0.166
-676.178	39.868	-0.421	-0.383
-675.164	-92.231	-0.353	-0.101
-674.149	-200.000	-0.022	0.367
-673.135	496.446	-0.097	-0.225
-672.120	-99.673	-0.023	-0.006
-671.105	-55.908	0.110	0.050
-670.091	99.762	0.095	0.111
-669.076	127.255	-0.012	-0.015
-668.062	-27.071	0.108	0.064
-667.047	-0.118	-0.338	-0.243
-666.032	-200.000	0.023	-0.257
-665.018	800.000	0.032	0.098
-664.003	800.000	0.039	-0.162
-662.989	800.000	-0.031	0.135
-661.974	192.888	-0.129	-0.197
-660.959	800.000	0.132	0.426
-659.945	-152.369	-0.184	-0.013
-658.930	-200.000	-0.062	0.326
-657.916	91.353	-0.020	-0.023
-656.901	221.558	-0.055	-0.090
-655.886	-103.171	-0.124	0.030
-654.872	-192.230	0.202	-0.002
-653.857	45.887	0.162	0.151
-652.843	-139.670	-0.666	0.072
-651.828	162.032	0.032	0.046
-650.814	-200.000	-0.032	0.154
-649.799	-98.505	-0.216	0.056
-648.784	345.182	-0.205	-0.408
-647.770	800.000	0.070	0.198
-646.755	421.278	0.033	0.071
-645.741	-200.000	-0.006	0.033
-644.726	-200.000	-0.008	-0.055
-643.711	507.586	0.181	-0.426
-642.697	-92.034	0.253	-0.072
-641.682	-200.000	-0.015	-0.153
-640.668	-110.191	-0.185	-0.039
-639.653	-200.000	-0.123	-0.553
-638.638	131.439	0.105	0.137
-637.624	-147.293	-0.243	0.021
-636.609	614.254	-0.057	0.145
-635.595	201.639	0.125	0.194
-634.580	-29.064	-0.058	0.033
-633.565	326.397	0.049	0.095
-632.551	268.580	-0.153	0.271
-631.536	-58.174	0.100	0.044
-630.522	-1.521	0.115	-0.082
-629.507	7.856	-0.260	-0.197
-628.492	11.010	-0.326	-0.252
-627.478	800.000	0.085	-0.290
-626.463	-200.000	0.016	0.232
-625.449	239.492	0.095	-0.159
-624.434	-8.036	-0.292	-0.199
-623.419	217.199	0.187	-0.301
-622.405	99.071	0.097	0.113
-621.390	-37.936	-0.198	-0.106
-620.376	-153.668	-0.074	0.005
-619.361	-117.040	-0.084	0.015
-618.346	-160.939	-0.059	-0.003
-617.332	5.449	-0.201	0.150
-616.317	-200.000	0.008	-0.090
-615.303	-200.000	-0.003	-0.130
-614.288	519.961	-0.035	-0.083
-613.273	-49.599	-0.199	-0.096
-612.259	-200.000	0.037	-0.209
-611.244	20.456	0.102	0.083
-610.230	-132.796	-0.130	-0.017
-609.215	467.395	-0.100	0.227
-608.201	800.000	-0.025	-0.073
-607.186	58.652	-0.135	-0.134
-606.171	-87.505	-0.309	-0.094
-605.157	-200.000	-0.004	-0.312
-604.142	-68.179	-0.306	-0.120
-603.128	306.424	-0.133	-0.250
-602.113	-200.000	0.011	0.102
-601.098	323.504	0.101	-0.195
-600.084	18.658	0.027	-0.022
-599.069	-109.408	-0.194	0.041
-598.055	86.330	0.042	-0.047
-597.040	188.288	0.171	-0.258
-596.025	-200.000	0.061	-0.290
-595.011	95.815	0.169	-0.195
-593.996	-147.677	0.102	-0.009
-592.982	48.081	-0.254	-0.240
-591.967	54.845	-0.022	0.021
-590.952	800.000	0.046	-0.143
-589.938	21.759	0.152	0.125
-588.923	21.519	0.287	0.235
-587.909	260.771	-0.121	-0.211
-586.894	-200.000	-0.031	-0.211
-585.879	353.719	0.100	-0.200
-584.865	-108.622	0.119	-0.026
-583.850	709.831	-0.181	0.483
-582.836	457.452	-0.079	0.177
-581.821	190.863	-0.072	0.109
-580.806	-37.210	-0.181	-0.098
-579.792	-47.171	0.257	-0.126
-578.777	130.812	0.248	0.322
-577.763	-1.014	0.505	-0.360
-576.748	7.477	-0.185	0.139
-575.733	-200.000	0.048	0.000
-574.719	-111.256	0.131	0.027
-573.704	800.000	-0.034	0.132
-572.690	-117.748	-0.232	-0.042
-571.675	800.000	0.101	0.389
-570.661	12.630	0.039	-0.030
-569.646	-200.000	0.000	0.109
-568.631	9.544	-0.267	-0.204
-567.617	800.000	0.045	0.164
-566.602	800.000	-0.072	-0.244
-565.588	-65.877	0.156	0.063
-564.573	365.502	0.047	0.095
-563.558	-200.000	-0.009	-0.211
-562.544	800.000	-0.072	0.202
-561.529	-169.289	-0.076	0.003
-560.515	-63.827	-0.021	-0.009
-559.500	-168.698	0.035	0.001
-558.485	2.331	0.375	0.274
-557.471	79.759	-0.119	0.129
-556.456	-107.250	-0.360	0.080
-555.442	-200.000	-0.043	-0.237
-554.427	-121.540	0.153	-0.026
-553.412	-200.000	-0.003	-0.235
-552.398	-67.068	-0.246	-0.098
-551.383	13.440	0.078	-0.061
-550.369	29.042	0.192	0.164
-549.354	10.095	-0.073	-0.056
-548.339	132.485	0.027	-0.035
-547.325	800.000	-0.080	0.242
-546.310	-200.000	0.024	0.387
-545.296	55.802	0.175	0.171
-544.281	31.753	0.317	0.275
-543.266	210.990	0.113	0.179
-542.252	-200.000	0.005	0.043
-541.237	-34.965	-0.126	0.069
-540.223	70.692	-0.077	0.081
-539.208	-200.000	-0.058	-0.337
-538.193	-9.885	0.160	0.107
-537.179	2.579	0.341	-0.249
-536.164	-129.636	0.075	-0.010
-535.150	800.000	0.034	0.118
-534.135	350.617	0.127	0.253
-533.121	-122.596	0.097	-0.016
-532.106	11.059	-0.163	-0.125
-531.091	66.169	0.192	-0.196
-530.077	-200.000	0.013	0.214
-529.062	-33.650	0.161	-0.090
-528.048	-102.809	-0.448	0.107
-527.033	800.000	-0.043	-0.166
-526.018	800.000	0.020	-0.061
-525.004	121.133	0.060	0.075
-523.989	800.000	-0.025	-0.075
-522.975	510.840	0.102	0.238
-521.960	-200.000	0.004	0.064
-520.945	-200.000	-0.035	0.170
-519.931	-67.634	-0.231	-0.091
-518.916	-200.000	0.021	0.467
-517.902	96.856	-0.148	0.171
-516.887	316.408	0.093	-0.178
-515.872	632.293	0.137	-0.348
-514.858	13.620	-0.239	0.187
-513.843	800.000	-0.099	0.382
-512.829	311.734	0.019	-0.036
-511.814	-200.000	-0.049	-0.314
-510.799	297.935	0.020	0.038
-509.785	184.187	-0.067	-0.100
-508.770	-83.852	-0.388	-0.124
-507.756	-200.000	0.015	0.341
-506.741	-60.410	0.461	-0.197
-505.726	800.000	-0.041	0.131
-504.712	800.000	-0.057	-0.221
-503.697	800.000	-0.139	0.512
-502.683	800.000	-0.041	-0.159
-501.668	114.796	0.139	-0.170
-500.653	18.535	0.103	0.083
-499.639	-200.000	-0.032	0.246
-498.624	-200.000	-0.037	-0.231
-497.610	-96.404	-0.145	-0.039
-496.595	-175.894	-0.333	-0.009
-495.581	-200.000	-0.026	0.126
-494.566	-50.218	-0.234	-0.111
-493.551	-200.000	-0.002	0.125
-492.537	696.587	-0.029	0.076
-491.522	93.411	-0.152	0.173
-490.508	-68.224	-0.194	0.076
-489.493	289.198	-0.127	-0.232
-488.478	-200.000	0.024	-0.522
-487.464	800.000	-0.019	-0.054
-486.449	521.723	0.064	0.150
-485.435	-96.357	-0.302	-0.080
-484.420	-22.428	-0.046	-0.028
-483.405	800.000	0.010	0.029
-482.391	-126.296	-0.324	0.049
-481.376	333.467	0.202	0.393
-480.362	-105.751	0.070	-0.016
-479.347	800.000	-0.029	0.083
-478.332	52.978	-0.103	0.099
-477.318	48.723	-0.122	-0.115
-476.303	-48.609	0.055	0.026
-475.289	771.532	-0.048	-0.133
-474.274	800.000	-0.020	-0.068
-473.259	361.070	0.062	-0.124
-472.245	189.603	-0.127	-0.191
-471.230	448.275	0.037	-0.083
-470.216	-79.736	0.068	-0.023
-469.201	-200.000	-0.012	0.302
-468.186	-200.000	-0.009	0.088
-467.172	-18.335	0.177	-0.111
-466.157	-111.607	0.437	0.089
-465.143	60.027	-0.086	-0.085
-464.128	62.220	-0.151	0.151
-463.113	800.000	-0.022	0.090
-462.099	800.000	0.029	0.123
-461.084	-103.395	0.258	-0.061
-460.070	138.548	-0.061	-0.080
-459.055	-115.485	0.025	-0.005
-458.040	-20.597	0.208	0.128
-457.026	63.256	-0.084	-0.084
-456.011	-104.609	0.153	-0.035
-454.997	-200.000	-0.042	-0.247
-453.982	-174.786	-0.146	0.004
-452.968	-67.548	0.038	0.015
-451.953	425.321	0.028	0.060
-450.938	-130.805	0.154	0.021
-449.924	800.000	-0.057	0.231
-448.909	-200.000	-0.008	0.204
-447.895	-200.000	0.007	0.035
-446.880	-149.981	-0.178	0.014
-445.865	-200.000	0.009	0.105
-444.851	546.274	-0.072	-0.174
-443.836	134.303	0.117	0.152
-442.822	-200.000	0.053	-0.253
-441.807	-116.624	0.154	0.028
-440.792	-200.000	-0.015	0.549
-439.778	324.879	0.179	-0.344
-438.763	800.000	0.025	-0.106
-437.749	142.236	0.196	-0.261
-436.734	50.409	0.247	0.234
-435.719	27.673	0.107	-0.091
-434.705	26.496	0.233	-0.195
-433.690	-149.941	0.218	-0.017
-432.676	99.843	-0.085	0.099
-431.661	-15.000	0.102	0.066
-430.646	-10.446	0.227	-0.151
-429.632	-18.524	0.130	-0.081
-428.617	89.913	-0.225	-0.252
-427.603	-200.000	-0.087	-0.392
-426.588	-164.651	0.372	0.017
-425.573	-200.000	0.040	-0.317
-424.559	-44.136	0.159	-0.080
-423.544	-156.343	-0.024	-0.001
-422.530	254.672	-0.054	-0.092
-421.515	-78.288	-0.218	0.075
-420.500	38.531	-0.235	0.210
-419.486	-92.056	0.125	0.035
-418.471	-200.000	-0.014	0.106
-417.457	-0.344	0.026	0.019
-416.442	-81.938	0.182	0.060
-415.428	-168.105	-0.209	0.008
-414.413	-200.000	-0.032	0.209
-413.398	-200.000	-0.015	-0.077
-412.384	9.424	0.215	0.163
-411.369	152.674	0.019	-0.026
-410.355	-143.418	0.095	-0.009
-409.340	126.880	0.040	-0.051
-408.325	-131.363	0.082	-0.011
-407.311	-162.577	-0.018	0.001
-406.296	46.189	-0.213	0.198
-405.282	-85.770	0.225	0.070
-404.267	800.000	-0.121	-0.398
-403.252	-114.068	-0.209	0.041
-402.238	-93.203	-0.347	-0.097
-401.223	-73.514	0.325	-0.119
-400.209	-200.000	0.040	0.442
-399.194	-103.007	-0.254	0.060
-398.179	3.417	0.208	-0.152
-397.165	262.232	0.226	0.393
-396.150	102.337	-0.033	-0.038
-395.136	-96.019	-0.157	-0.042
-394.121	-17.567	-0.373	-0.235
-393.106	13.787	0.066	0.051
-392.092	280.223	-0.182	0.326
-391.077	-200.000	0.020	-0.174
-390.063	-200.000	-0.023	-0.122
-389.048	-109.859	-0.322	-0.068
-388.033	266.242	-0.094	0.164
-387.019	800.000	-0.071	0.269
-386.004	-200.000	0.021	-0.335
-384.990	-42.326	0.123	0.063
-383.975	-126.599	0.145	-0.022
-382.960	-200.000	-0.009	0.334
-381.946	65.551	0.146	0.148
-380.931	-146.607	-0.384	0.033
-379.917	-160.860	0.173	0.009
-378.902	-76.976	-0.152	0.053
-377.888	-26.034	0.364	-0.214
-376.873	-200.000	-0.060	-0.322
-375.858	800.000	0.032	0.112
-374.844	-200.000	-0.001	-0.054
-373.829	36.080	0.073	-0.064
-372.815	617.293	-0.130	0.325
-371.800	-118.912	-0.304	-0.053
-370.785	-200.000	-0.015	-0.084
-369.771	-22.289	-0.297	-0.180
-368.756	287.992	-0.062	0.111
-367.742	334.615	0.048	0.093
-366.727	-77.440	-0.377	-0.131
-365.712	-200.000	0.058	0.390
-364.698	-173.752	0.205	-0.006
-363.683	-13.114	0.190	-0.123
-362.669	-200.000	-0.007	0.112
-361.654	232.750	-0.063	-0.103
-360.639	-101.049	0.153	0.038
-359.625	-54.372	-0.332	0.151
-358.610	453.284	0.156	-0.346
-357.596	-20.637	0.323	-0.199
-356.581	800.000	0.053	0.206
-355.566	49.292	-0.234	0.220
-354.552	-109.999	0.080	-0.017
-353.537	-29.725	0.277	0.158
-352.523	75.918	0.252	0.267
-351.508	-14.307	0.372	0.240
-350.493	322.791	-0.053	0.100
-349.479	800.000	0.135	-0.428
-348.464	43.829	0.075	0.068
-347.450	-3.889	0.224	0.155
-346.435	-161.686	0.125	0.006
-345.420	97.001	-0.250	-0.287
-344.406	-200.000	0.197	0.001
-343.391	-5.785	0.111	0.076
-342.377	139.244	-0.119	-0.157
-341.362	-8.110	0.068	0.046
-340.348	176.824	0.037	-0.053
-339.333	800.000	0.068	0.200
-338.318	666.365	0.062	0.159
-337.304	-160.594	-0.155	0.008
-336.289	-114.175	-0.246	-0.048
-335.275	694.357	-0.115	-0.301
-334.260	-154.392	-0.341	-0.023
-333.245	-200.000	-0.048	-0.322
-332.231	-200.000	-0.055	-0.293
-331.216	183.287	0.083	-0.122
-330.202	573.153	0.085	-0.206
-329.187	800.000	-0.030	0.089
-328.172	-74.889	-0.131	0.047
-327.158	-4.261	0.219	0.151
-326.143	325.292	0.138	0.264
-325.129	795.596	0.019	0.052
-324.114	-125.568	0.236	0.036
-323.099	607.874	-0.070	0.173
-322.085	-200.000	0.009	-0.155
-321.070	-143.080	0.287	-0.028
-320.056	406.923	-0.174	0.367
-319.041	800.000	-0.093	0.353
-318.026	800.000	0.083	-0.307
-317.012	-74.851	-0.412	-0.148
-315.997	-40.806	-0.407	0.210
-314.983	-122.563	0.097	-0.016
-313.968	404.812	-0.026	0.056
-312.953	144.619	-0.335	0.447
-311.939	800.000	0.073	0.265
-310.924	-133.624	-0.092	0.012
-309.910	-105.274	0.228	0.052
-308.895	-66.614	-0.279	0.111
-307.880	99.902	0.039	-0.045
-306.866	406.362	0.073	-0.153
-305.851	-82.834	0.085	0.027
-304.837	237.099	0.218	0.360
-303.822	80.667	0.266	0.286
-302.807	24.040	-0.167	-0.137
-301.793	-102.369	0.213	0.051
-300.778	230.021	0.193	0.314
-299.764	-56.646	-0.334	-0.148
-298.749	-25.089	-0.033	-0.020
-297.735	71.340	0.175	-0.181
-296.720	-71.957	0.161	0.060
-295.705	-58.353	0.261	0.113
-294.691	37.029	-0.026	-0.023
-293.676	-200.000	-0.100	0.000
-292.662	137.204	0.127	-0.165
-291.647	800.000	-0.136	0.399
-290.632	-36.015	0.324	-0.174
-289.618	-69.649	-0.163	-0.062
-288.603	282.279	-0.141	-0.251
-287.589	-200.000	0.026	0.220
-286.574	176.902	-0.041	-0.060
-285.559	-200.000	0.053	0.237
-284.545	722.367	-0.091	-0.241
-283.530	63.400	-0.201	-0.201
-282.516	-200.000	0.014	-0.115
-281.501	40.191	-0.183	-0.165
-280.486	76.748	0.084	-0.089
-279.472	125.106	-0.300	0.377
-278.457	-151.861	-0.224	-0.016
-277.443	-157.081	0.181	0.011
-276.428	-27.632	0.400	0.232
-275.413	215.742	0.074	0.117
-274.399	198.842	-0.178	-0.271
-273.384	-17.777	0.310	0.194
-272.370	800.000	0.047	0.146
-271.355	771.886	-0.102	-0.276
-270.340	8.754	-0.127	-0.095
-269.326	-200.000	0.006	0.048
-268.311	-146.692	-0.292	0.025
-267.297	-156.267	0.268	0.017
-266.282	-48.443	0.092	-0.044
-265.267	-49.490	-0.071	0.034
-264.253	-132.452	0.251	0.032
-263.238	187.124	-0.043	0.063
-262.224	-200.000	-0.051	-0.240
-261.209	401.622	0.140	0.292
-260.195	-200.000	-0.024	-0.211
-259.180	800.000	0.036	-0.130
-258.165	-200.000	0.019	-0.170
-257.151	-200.000	-0.006	-0.067
-256.136	302.739	0.262	-0.484
-255.122	800.000	0.032	0.130
-254.107	59.409	-0.314	0.308
-253.092	324.379	-0.145	-0.276
-252.078	800.000	0.144	-0.427
-251.063	-121.212	0.176	0.029
-250.049	800.000	0.118	-0.332
-249.034	35.414	0.178	-0.156
-248.019	8.319	0.134	0.100
-247.005	-56.362	0.165	0.073
-245.990	800.000	0.027	0.118
-244.976	-200.000	-0.012	0.054
-243.961	303.005	-0.095	0.175
-242.946	45.053	-0.159	0.146
-241.932	-179.218	0.172	0.004
-240.917	-187.522	-0.212	0.003
-239.903	-134.847	0.194	0.023
-238.888	-200.000	0.022	-0.150
-237.873	47.272	-0.245	-0.227
-236.859	-200.000	-0.005	0.325
-235.844	539.987	0.073	-0.173
-234.830	24.711	0.053	-0.043
-233.815	586.106	-0.074	-0.180
-232.800	554.311	-0.029	0.070
-231.786	192.377	0.049	0.073
-230.771	268.636	-0.063	-0.110
-229.757	800.000	-0.067	0.219
-228.742	47.523	0.075	-0.069
-227.727	47.204	-0.178	-0.165
-226.713	-107.876	-0.283	0.061
-225.698	-200.000	-0.002	0.174
-224.684	2.834	-0.177	-0.128
-223.669	44.246	-0.138	0.126
-222.655	-114.720	-0.161	0.031
-221.640	800.000	-0.035	0.114
-220.625	138.087	-0.151	0.197
-219.611	-115.065	0.058	0.011
-218.596	-39.605	0.113	0.059
-217.582	231.713	-0.031	-0.051
-216.567	31.222	0.106	-0.090
-215.552	195.913	-0.173	0.262
-214.538	-92.228	0.075	-0.021
-213.523	144.461	-0.125	0.167
-212.509	-82.935	0.371	0.119
-211.494	-200.000	0.011	0.063
-210.479	-122.745	-0.187	-0.030
-209.465	-200.000	0.030	0.141
-208.450	42.240	0.084	0.076
-207.436	-168.941	-0.310	0.012
-206.421	72.964	0.133	-0.138
-205.406	-41.564	0.133	0.068
-204.392	-12.908	0.147	0.095
-203.377	-112.919	0.412	0.081
-202.363	143.203	-0.127	0.167
-201.348	-114.085	-0.051	0.010
-200.333	-200.000	0.016	-0.119
-199.319	133.619	-0.184	-0.236
-198.304	800.000	-0.085	-0.241
-197.290	94.633	0.175	0.198
-196.275	-97.582	0.281	-0.072
-195.260	-51.123	0.218	-0.101
-194.246	219.277	0.176	-0.279
-193.231	-156.208	-0.030	0.002
-192.217	64.605	-0.180	-0.180
-191.202	800.000	0.051	0.196
-190.187	-89.983	-0.226	-0.066
-189.173	-147.782	0.180	0.015
-188.158	73.736	0.197	-0.205
-187.144	-51.827	0.132	0.061
-186.129	-200.000	-0.047	0.337
-185.114	-123.903	-0.244	0.038
-184.100	-20.208	-0.105	0.064
-183.085	11.883	-0.397	0.303
-182.071	92.717	-0.099	0.111
-181.056	779.252	-0.038	-0.103
-180.042	534.083	-0.075	0.177
-179.027	-158.248	0.211	-0.012
-178.012	-200.000	0.036	0.214
-176.998	-200.000	0.025	0.267
-175.983	-200.000	0.041	0.216
-174.969	-160.928	-0.316	-0.017
-173.954	70.624	0.389	-0.400
-172.939	-200.000	0.001	-0.224
-171.925	-140.204	-0.012	-0.001
-170.910	-37.690	0.217	-0.115
-169.896	-72.495	-0.072	-0.026
-168.881	59.495	0.123	0.121
-167.866	-92.770	-0.373	-0.104
-166.852	800.000	0.108	0.391
-165.837	415.651	0.145	0.306
-164.823	-41.362	-0.045	0.023
-163.808	-48.687	-0.197	-0.094
-162.793	63.091	0.172	0.171
-161.779	18.283	-0.191	0.152
-160.764	173.720	0.079	-0.113
-159.750	460.395	-0.073	-0.161
-158.735	520.385	0.091	-0.212
-157.720	122.894	-0.166	-0.207
-156.706	73.736	0.192	-0.200
-155.691	800.000	-0.082	-0.296
-154.677	-200.000	-0.034	-0.262
-153.662	-5.857	-0.045	0.030
-152.647	35.779	0.224	0.195
-151.633	7.212	0.262	-0.194
-150.618	15.296	-0.087	-0.068
-149.604	5.994	-0.196	0.144
-148.589	-122.640	0.186	0.030
-147.574	-18.654	-0.097	-0.060
-146.560	313.496	-0.066	-0.123
-145.545	260.413	0.034	-0.058
-144.531	-90.497	0.280	-0.080
-143.516	-88.219	0.218	-0.065
-142.502	-200.000	0.031	0.512
-141.487	-200.000	-0.039	0.282
-140.472	-200.000	-0.049	-0.434
-139.458	-200.000	0.021	-0.271
-138.443	800.000	-0.032	-0.127
-137.429	-84.341	-0.422	0.132
-136.414	-5.740	0.137	-0.093
-135.399	63.221	-0.133	-0.132
-134.385	-55.445	-0.295	-0.131
-133.370	-200.000	0.009	-0.118
-132.356	364.491	0.103	-0.204
-131.341	-200.000	0.048	-0.394
-130.326	800.000	0.069	-0.252
-129.312	800.000	-0.049	-0.180
-128.297	167.741	-0.181	0.256
-127.283	230.689	-0.204	0.331
-126.268	79.491	0.183	-0.194
-125.253	162.834	0.103	0.144
-124.239	-200.000	0.053	0.264
-123.224	36.096	-0.231	0.201
-122.210	-200.000	-0.020	-0.261
