DTS Sentinel unit serial number:	SN413079Multiplexer serial number:	ORYXHardware model number:	OX4-SRSoftware version number:	ORYX F/W v4.00 Oryx Data Collector v3.7.2.0data status	okinstallation	princeton_trtdifferential loss correction	single-endedforward channel	channel 1reverse channel	N/Adate	2019/09/12time	03:16:11forward acquisition time	60.00reverse acquisition time	0.00gamma	496.2192k internal	0.2322k external	0.2322temperature offset calibration	1.0083default loss term (dB/km)	0.3790temperature slope calibration	1.0000multiplexer offset coefficient	1.0000multiplexer slope coefficient	1.0000fibre end	0.00T internal ref (°C)	32.25T ext. ref 1 (°C)	2.12T ext. ref 2 (°C)	27.02length (m)	temperature (°C)	Stokes	anti-Stokes-747.200	135.378	0.064	0.084
-746.185	260.095	-0.291	-0.509
-745.171	-200.000	0.007	0.047
-744.156	-200.000	0.007	-0.145
-743.142	800.000	0.074	-0.219
-742.127	-163.940	-0.251	-0.012
-741.112	-200.000	-0.010	-0.194
-740.098	800.000	-0.119	0.379
-739.083	22.202	-0.084	0.070
-738.069	3.849	-0.286	-0.211
-737.054	-200.000	0.052	0.337
-736.039	-56.372	-0.180	0.081
-735.025	94.168	0.094	0.108
-734.010	239.596	-0.168	-0.282
-732.996	244.103	-0.066	0.112
-731.981	800.000	0.033	-0.122
-730.966	8.232	0.046	-0.035
-729.952	800.000	0.069	-0.239
-728.937	626.582	-0.046	0.117
-727.923	157.239	-0.044	0.061
-726.908	-200.000	0.002	-0.187
-725.894	-13.853	-0.090	0.059
-724.879	118.269	-0.091	0.113
-723.864	-171.818	-0.146	0.005
-722.850	175.322	-0.035	-0.051
-721.835	800.000	-0.064	0.199
-720.821	92.513	-0.159	0.181
-719.806	-200.000	0.012	-0.155
-718.791	800.000	0.036	0.153
-717.777	45.349	-0.156	-0.145
-716.762	518.195	0.065	-0.153
-715.748	-135.982	-0.198	-0.024
-714.733	-59.379	0.471	0.204
-713.718	-171.965	-0.193	-0.006
-712.704	800.000	-0.077	-0.214
-711.689	-25.666	0.048	-0.029
-710.675	-82.330	-0.239	-0.078
-709.660	-77.900	-0.221	0.077
-708.645	800.000	0.058	-0.226
-707.631	800.000	0.039	0.158
-706.616	-29.579	-0.077	-0.044
-705.602	-7.309	0.194	-0.133
-704.587	-133.483	0.257	-0.033
-703.572	-62.689	-0.098	0.041
-702.558	800.000	0.044	0.127
-701.543	-150.740	-0.192	0.015
-700.529	-172.694	-0.176	0.006
-699.514	333.499	-0.093	0.182
-698.499	-76.267	0.057	0.020
-697.485	-116.180	-0.402	-0.075
-696.470	-166.170	-0.325	0.014
-695.456	463.854	-0.063	0.142
-694.441	88.722	-0.135	-0.151
-693.426	203.539	-0.032	0.051
-692.412	-200.000	-0.020	0.144
-691.397	-200.000	0.001	-0.179
-690.383	-19.050	-0.106	0.067
-689.368	800.000	0.016	0.062
-688.354	-23.710	-0.251	0.152
-687.339	74.784	0.084	-0.089
-686.324	-50.364	-0.266	0.127
-685.310	-19.049	0.159	-0.100
-684.295	800.000	0.037	-0.109
-683.281	-200.000	0.008	-0.279
-682.266	-200.000	0.011	-0.262
-681.251	15.536	-0.119	0.094
-680.237	202.896	0.123	0.191
-679.222	800.000	-0.044	-0.143
-678.208	140.310	0.259	-0.345
-677.193	77.027	0.205	-0.220
-676.178	187.712	0.214	-0.323
-675.164	-134.721	0.115	-0.014
-674.149	15.314	-0.307	0.243
-673.135	391.103	-0.107	0.223
-672.120	800.000	-0.012	-0.043
-671.105	-141.164	-0.100	-0.010
-670.091	-78.030	-0.232	0.081
-669.076	-200.000	0.005	-0.152
-668.062	495.109	-0.057	-0.133
-667.047	-200.000	-0.015	0.192
-666.032	258.665	-0.144	0.251
-665.018	157.869	-0.149	0.208
-664.003	-200.000	0.013	-0.092
-662.989	214.813	-0.131	0.208
-661.974	31.169	-0.376	-0.325
-660.959	-107.294	0.135	-0.030
-659.945	-200.000	0.032	-0.360
-658.930	-149.926	0.250	0.020
-657.916	54.310	0.045	0.044
-656.901	800.000	0.066	0.194
-655.886	-200.000	0.020	0.240
-654.872	295.551	0.190	-0.351
-653.857	628.312	-0.088	-0.224
-652.843	8.501	-0.074	0.056
-651.828	193.069	0.084	0.128
-650.814	-39.181	0.297	-0.157
-649.799	188.357	0.111	-0.167
-648.784	-56.589	-0.207	-0.092
-647.770	-119.601	-0.062	0.011
-646.755	18.186	0.149	0.120
-645.741	800.000	-0.036	0.103
-644.726	85.595	0.142	0.157
-643.711	-200.000	0.037	0.213
-642.697	84.676	0.057	0.063
-641.682	-200.000	-0.032	-0.263
-640.668	459.279	0.137	-0.306
-639.653	279.709	-0.167	-0.299
-638.638	399.364	-0.177	0.373
-637.624	88.673	0.118	0.132
-636.609	-160.405	-0.435	-0.024
-635.595	-45.374	0.066	0.033
-634.580	800.000	0.071	0.201
-633.565	11.782	-0.306	0.236
-632.551	-8.594	-0.199	0.135
-631.536	-63.943	0.235	-0.097
-630.522	-141.522	-0.507	0.052
-629.507	-200.000	-0.032	0.247
-628.492	169.460	0.233	-0.335
-627.478	800.000	-0.074	-0.249
-626.463	-119.064	0.417	-0.073
-625.449	-22.550	-0.309	0.188
-624.434	313.206	-0.180	-0.341
-623.419	-200.000	0.020	0.092
-622.405	-112.070	0.434	0.088
-621.390	800.000	0.052	0.220
-620.376	-200.000	0.009	0.324
-619.361	-148.934	0.083	0.007
-618.346	-200.000	0.019	-0.128
-617.332	80.284	-0.049	0.053
-616.317	-75.261	-0.143	-0.051
-615.303	-108.217	-0.198	-0.043
-614.288	800.000	0.060	-0.208
-613.273	800.000	0.024	0.104
-612.259	56.087	0.187	-0.182
-611.244	117.662	0.084	0.104
-610.230	-200.000	0.018	0.112
-609.215	-200.000	-0.033	0.422
-608.201	-15.731	-0.392	-0.251
-607.186	-200.000	0.047	-0.238
-606.171	406.847	-0.040	-0.085
-605.157	-20.554	0.344	0.212
-604.142	800.000	-0.025	-0.086
-603.128	549.256	0.061	0.146
-602.113	-104.824	-0.112	-0.026
-601.098	-25.023	0.215	-0.128
-600.084	1.746	0.301	-0.218
-599.069	-194.955	-0.490	0.004
-598.055	800.000	0.029	0.087
-597.040	7.546	-0.145	0.109
-596.025	-95.115	0.199	-0.054
-595.011	46.479	-0.015	0.014
-593.996	-40.718	-0.284	-0.148
-592.982	800.000	0.090	-0.266
-591.967	18.938	0.057	-0.046
-590.952	800.000	0.084	0.336
-589.938	-36.116	0.219	-0.119
-588.923	-200.000	-0.029	-0.139
-587.909	-130.703	0.123	0.017
-586.894	34.557	0.172	0.151
-585.879	-200.000	0.026	-0.130
-584.865	100.376	-0.101	0.117
-583.850	692.196	0.064	-0.167
-582.836	800.000	0.095	0.306
-581.821	-77.937	0.255	-0.088
-580.806	84.855	0.062	0.068
-579.792	-36.993	0.046	0.025
-578.777	-82.784	0.103	0.033
-577.763	9.433	0.092	0.070
-576.748	232.562	-0.070	-0.115
-575.733	504.478	-0.053	0.122
-574.719	-79.864	-0.549	0.185
-573.704	-109.299	0.115	-0.025
-572.690	-44.792	0.393	0.197
-571.675	254.918	-0.087	-0.149
-570.661	34.196	-0.065	-0.057
-569.646	-38.390	-0.466	-0.248
-568.631	7.567	0.142	0.106
-567.617	-200.000	-0.065	0.387
-566.602	386.820	0.069	0.143
-565.588	-135.531	-0.348	0.042
-564.573	172.932	0.096	-0.138
-563.558	-114.596	-0.065	-0.012
-562.544	277.470	0.178	0.318
-561.529	-137.256	0.157	-0.018
-560.515	-37.340	0.104	-0.056
-559.500	-200.000	-0.022	-0.230
-558.485	351.871	0.081	0.160
-557.471	133.669	0.124	-0.161
-556.456	-200.000	0.019	-0.175
-555.442	-54.198	0.164	-0.075
-554.427	117.700	0.260	-0.321
-553.412	-63.219	0.137	-0.057
-552.398	800.000	-0.018	-0.052
-551.383	145.463	0.174	0.234
-550.369	152.303	-0.210	-0.287
-549.354	800.000	-0.127	0.441
-548.339	168.296	-0.070	-0.100
-547.325	438.350	0.097	-0.212
-546.310	-96.240	-0.286	0.076
-545.296	-112.368	-0.198	-0.040
-544.281	-200.000	-0.038	-0.300
-543.266	800.000	0.063	0.242
-542.252	-83.392	-0.342	0.110
-541.237	-200.000	-0.030	-0.253
-540.223	44.663	0.330	0.304
-539.208	-168.860	-0.128	0.005
-538.193	-121.026	0.282	0.047
-537.179	-10.071	0.211	0.140
-536.164	-200.000	-0.013	-0.081
-535.150	-16.050	-0.238	0.152
-534.135	800.000	-0.002	-0.010
-533.121	800.000	0.122	-0.350
-532.106	-5.713	-0.194	0.133
-531.091	-126.983	0.287	0.042
-530.077	43.256	-0.120	0.110
-529.062	281.716	-0.080	-0.144
-528.048	-142.663	-0.072	-0.007
-527.033	-181.631	0.135	-0.003
-526.018	-26.199	0.070	0.041
-525.004	-135.045	-0.250	-0.030
-523.989	434.259	0.062	-0.135
-522.975	-143.490	0.114	0.011
-521.960	-200.000	-0.023	-0.170
-520.945	-28.366	-0.053	0.031
-519.931	-74.518	0.145	-0.052
-518.916	800.000	0.064	-0.196
-517.902	131.808	-0.142	-0.182
-516.887	685.138	-0.089	0.233
-515.872	-182.744	-0.241	0.004
-514.858	174.369	0.085	0.122
-513.843	-200.000	-0.012	-0.293
-512.829	30.553	0.369	-0.316
-511.814	14.456	-0.185	-0.145
-510.799	268.875	-0.070	-0.123
-509.785	-151.752	-0.227	0.017
-508.770	-131.476	0.184	-0.024
-507.756	-62.239	-0.391	0.163
-506.741	-105.038	-0.134	-0.031
-505.726	-200.000	0.028	-0.224
-504.712	-200.000	0.015	0.179
-503.697	-148.894	-0.146	0.012
-502.683	-24.755	-0.113	-0.067
-501.668	-200.000	0.045	-0.397
-500.653	291.309	0.159	0.289
-499.639	131.582	-0.098	0.126
-498.624	148.169	0.160	-0.216
-497.610	-70.680	0.246	0.093
-496.595	-200.000	-0.019	0.139
-495.581	20.383	0.289	-0.233
-494.566	-41.777	-0.061	0.031
-493.551	-59.513	-0.155	0.067
-492.537	397.840	-0.046	-0.097
-491.522	-127.114	-0.154	0.023
-490.508	-97.703	-0.215	0.056
-489.493	-107.048	0.174	-0.038
-488.478	298.914	0.108	0.199
-487.464	-78.605	0.141	-0.048
-486.449	-87.633	0.343	0.104
-485.435	-109.536	0.159	-0.034
-484.420	97.812	-0.044	0.051
-483.405	-87.878	-0.336	-0.101
-482.391	-140.079	-0.147	-0.016
-481.376	800.000	-0.069	0.239
-480.362	-151.670	-0.311	-0.023
-479.347	-127.452	0.116	-0.017
-478.332	112.413	0.065	0.078
-477.318	-32.855	0.377	-0.209
-476.303	55.592	-0.137	-0.133
-475.289	38.639	0.341	-0.304
-474.274	16.875	-0.194	0.154
-473.259	177.901	0.114	0.166
-472.245	-200.000	0.010	-0.291
-471.230	-200.000	0.036	-0.307
-470.216	-24.824	0.112	-0.067
-469.201	-32.385	0.130	-0.073
-468.186	470.728	0.111	-0.250
-467.172	800.000	0.096	-0.330
-466.157	338.853	-0.106	-0.206
-465.143	-152.703	-0.126	0.009
-464.128	800.000	0.029	0.102
-463.113	130.375	0.081	0.104
-462.099	-123.216	0.065	0.010
-461.084	7.179	0.132	-0.098
-460.070	-200.000	0.048	-0.360
-459.055	520.165	-0.096	0.226
-458.040	-71.860	0.275	0.102
-457.026	-47.847	0.119	0.058
-456.011	800.000	0.053	0.159
-454.997	-48.344	-0.093	0.045
-453.982	721.987	-0.071	-0.189
-452.968	75.283	0.068	-0.072
-451.953	-16.655	-0.105	-0.066
-450.938	30.739	-0.306	0.261
-449.924	107.122	0.230	0.274
-448.909	-69.513	0.209	0.080
-447.895	-99.662	-0.257	0.064
-446.880	-56.572	-0.234	-0.104
-445.865	181.975	-0.074	-0.109
-444.851	800.000	0.114	-0.370
-443.836	-200.000	0.053	-0.282
-442.822	800.000	-0.089	-0.363
-441.807	221.846	-0.267	0.428
-440.792	-178.467	0.150	0.003
-439.778	585.868	0.119	0.292
-438.763	800.000	-0.075	0.308
-437.749	-39.736	-0.132	0.069
-436.734	-200.000	-0.009	0.303
-435.719	36.368	-0.245	0.215
-434.705	-151.671	-0.235	-0.017
-433.690	282.180	0.119	0.213
-432.676	-29.622	0.299	0.170
-431.661	-135.412	-0.349	0.042
-430.646	-119.030	0.123	-0.021
-429.632	-103.357	0.156	-0.037
-428.617	353.900	0.050	-0.099
-427.603	3.078	0.170	0.123
-426.588	308.359	0.046	0.085
-425.573	-187.407	0.117	-0.002
-424.559	469.907	-0.031	0.070
-423.544	-4.517	-0.228	0.157
-422.530	-200.000	0.028	-0.203
-421.515	455.202	0.123	0.273
-420.500	-164.220	0.205	0.009
-419.486	314.369	0.061	-0.114
-418.471	-38.506	-0.154	0.081
-417.457	-200.000	0.007	0.079
-416.442	800.000	0.024	-0.106
-415.428	52.445	-0.081	-0.077
-414.413	-0.257	-0.205	0.145
-413.398	87.847	-0.071	0.079
-412.384	-186.607	-0.142	0.002
-411.369	-128.634	-0.180	-0.025
-410.355	-120.156	-0.126	0.021
-409.340	13.072	-0.065	-0.050
-408.325	-63.333	0.065	0.026
-407.311	24.133	-0.150	0.123
-406.296	800.000	0.066	-0.259
-405.282	219.895	0.117	-0.187
-404.267	161.691	0.102	0.142
-403.252	219.641	0.068	0.108
-402.238	800.000	-0.106	0.436
-401.223	-96.500	0.160	-0.042
-400.209	-200.000	0.003	-0.106
-399.194	-141.910	0.221	-0.022
-398.179	-200.000	-0.002	0.030
-397.165	111.439	0.030	-0.037
-396.150	42.750	-0.101	0.092
-395.136	-124.354	-0.172	0.027
-394.121	12.855	0.129	0.099
-393.106	190.537	-0.131	-0.196
-392.092	-74.730	-0.286	-0.102
-391.077	-200.000	0.024	-0.367
-390.063	169.163	-0.252	-0.359
-389.048	-107.028	-0.401	-0.088
-388.033	323.702	0.078	-0.149
-387.019	132.360	-0.246	0.316
-386.004	217.514	-0.271	-0.431
-384.990	24.899	-0.056	-0.046
-383.975	800.000	-0.064	0.226
-382.960	-200.000	-0.015	0.206
-381.946	-89.409	-0.248	0.073
-380.931	800.000	0.093	-0.400
-379.917	-200.000	0.004	-0.085
-378.902	313.170	0.025	-0.047
-377.888	-72.751	-0.284	-0.104
-376.873	-64.170	0.314	0.128
-375.858	-44.299	-0.178	0.089
-374.844	593.656	-0.126	0.311
-373.829	-76.214	-0.053	0.019
-372.815	-12.935	-0.284	-0.184
-371.800	-200.000	0.019	0.123
-370.785	-14.247	0.098	0.063
-369.771	83.404	0.019	0.020
-368.756	-152.837	0.302	-0.021
-367.742	-122.690	-0.178	0.029
-366.727	800.000	0.106	-0.366
-365.712	-171.566	-0.151	-0.005
-364.698	-86.487	0.049	-0.015
-363.683	800.000	0.089	0.245
-362.669	17.408	-0.146	0.115
-361.654	-200.000	-0.010	-0.061
-360.639	-55.457	-0.170	0.076
-359.625	427.476	0.057	-0.123
-358.610	-125.926	0.228	0.034
-357.596	-157.729	-0.505	-0.030
-356.581	-54.057	0.057	-0.026
-355.566	-131.684	0.181	-0.024
-354.552	-21.288	-0.182	-0.110
-353.537	18.395	0.212	-0.169
-352.523	-124.720	-0.278	-0.043
-351.508	-18.225	-0.378	-0.235
-350.493	216.738	0.131	-0.207
-349.479	21.482	0.112	0.091
-348.464	189.426	0.103	-0.153
-347.450	-96.184	-0.148	-0.039
-346.435	-12.549	0.129	-0.084
-345.420	-74.413	-0.208	-0.075
-344.406	150.809	-0.145	0.196
-343.391	-28.132	0.019	-0.011
-342.377	16.723	-0.104	-0.082
-341.362	-25.172	0.082	-0.048
-340.348	30.552	0.095	-0.081
-339.333	152.682	-0.075	-0.102
-338.318	800.000	-0.040	0.122
-337.304	60.373	-0.137	-0.135
-336.289	-111.986	0.321	0.064
-335.275	155.779	-0.172	-0.236
-334.260	800.000	0.093	0.275
-333.245	-200.000	-0.010	-0.144
-332.231	156.161	-0.055	0.075
-331.216	800.000	0.080	-0.277
-330.202	-52.864	-0.190	-0.087
-329.187	800.000	-0.160	0.532
-328.172	43.226	-0.201	-0.182
-327.158	114.735	-0.134	0.162
-326.143	-171.439	0.227	-0.008
-325.129	-124.000	0.436	0.068
-324.114	181.183	0.121	0.177
-323.099	79.207	-0.092	0.098
-322.085	486.887	0.067	0.151
-321.070	-116.902	-0.241	-0.044
-320.056	179.219	0.193	-0.281
-319.041	-200.000	-0.060	0.339
-318.026	86.130	0.057	0.063
-317.012	-78.194	0.372	-0.127
-315.997	-105.003	-0.079	-0.018
-314.983	-166.174	0.291	-0.012
-313.968	-66.502	-0.163	-0.064
-312.953	162.015	0.037	-0.051
-311.939	219.884	-0.150	0.239
-310.924	101.935	0.130	-0.151
-309.910	62.000	0.281	-0.279
-308.895	800.000	0.079	0.230
-307.880	-44.175	0.536	-0.267
-306.866	-73.703	-0.358	0.129
-305.851	800.000	0.060	0.247
-304.837	19.628	0.310	0.247
-303.822	-109.506	-0.220	0.046
-302.807	-4.894	0.227	-0.155
-301.793	28.418	0.149	0.125
-300.778	-49.825	0.292	0.138
-299.764	-200.000	-0.018	-0.203
-298.749	-200.000	-0.002	-0.241
-297.735	57.755	0.224	-0.217
-296.720	-200.000	0.054	0.301
-295.705	800.000	-0.045	0.175
-294.691	142.878	0.043	-0.056
-293.676	-104.288	0.142	0.033
-292.662	14.236	0.126	0.098
-291.647	44.577	-0.297	-0.271
-290.632	3.613	0.132	-0.095
-289.618	-22.227	0.132	0.079
-288.603	70.346	-0.170	-0.174
-287.589	-137.920	0.242	-0.027
-286.574	-84.857	0.242	0.075
-285.559	-67.980	-0.143	-0.055
-284.545	114.761	-0.067	-0.082
-283.530	51.710	0.229	-0.216
-282.516	106.122	0.112	0.132
-281.501	372.184	0.138	0.278
-280.486	800.000	-0.039	-0.145
-279.472	337.634	0.222	-0.428
-278.457	800.000	-0.022	-0.083
-277.443	-115.090	0.245	0.046
-276.428	113.966	-0.208	-0.251
-275.413	-156.144	-0.099	-0.006
-274.399	-108.289	0.237	0.051
-273.384	-72.100	0.103	0.038
-272.370	-200.000	0.196	-0.001
-271.355	-200.000	0.010	-0.134
-270.340	-75.234	0.125	0.044
-269.326	378.991	-0.106	0.215
-268.311	800.000	-0.078	-0.261
-267.297	-200.000	0.040	0.231
-266.282	800.000	-0.189	0.531
-265.267	451.147	-0.066	-0.144
-264.253	-3.479	-0.166	0.114
-263.238	-108.785	0.009	0.002
-262.224	-200.000	0.007	0.337
-261.209	194.730	-0.048	-0.072
-260.195	13.161	0.276	0.212
-259.180	361.433	0.196	-0.390
-258.165	-200.000	-0.022	0.199
-257.151	105.568	-0.148	-0.173
-256.136	-23.612	-0.153	-0.091
-255.122	-93.872	-0.241	0.066
-254.107	-152.752	0.125	-0.009
-253.092	-105.049	-0.450	-0.102
-252.078	-122.290	0.119	0.019
-251.063	-141.759	0.138	-0.014
-250.049	416.660	0.150	-0.316
-249.034	-38.843	0.236	-0.123
-248.019	-94.367	0.211	-0.057
-247.005	217.031	-0.094	0.148
-245.990	8.997	0.062	0.046
-244.976	270.059	-0.048	0.084
-243.961	408.727	0.185	0.388
-242.946	-200.000	0.033	0.172
-241.932	-68.497	-0.251	-0.097
-240.917	-137.481	0.329	-0.037
-239.903	435.142	0.088	-0.190
-238.888	102.208	-0.027	0.031
-237.873	-125.420	-0.322	-0.049
-236.859	422.002	0.135	0.286
-235.844	495.309	-0.053	-0.122
-234.830	-200.000	0.004	0.101
-233.815	-151.594	-0.352	-0.026
-232.800	498.405	0.035	0.080
-231.786	-200.000	-0.063	-0.294
-230.771	-1.212	0.154	0.108
-229.757	-18.126	0.350	-0.217
-228.742	12.844	-0.376	0.288
-227.727	-26.491	-0.107	0.062
-226.713	-200.000	0.042	0.227
-225.698	731.070	-0.032	-0.085
-224.684	171.819	0.113	0.161
-223.669	649.107	-0.098	0.247
-222.655	-131.514	0.259	0.034
-221.640	-200.000	0.053	-0.266
-220.625	-114.385	0.206	0.039
-219.611	312.925	0.145	-0.270
-218.596	-20.587	0.194	-0.118
-217.582	333.779	0.185	0.353
-216.567	-46.386	-0.247	0.120
-215.552	-200.000	-0.001	-0.079
-214.538	640.874	-0.087	-0.219
-213.523	-51.284	-0.105	0.049
-212.509	-50.946	-0.439	-0.204
-211.494	800.000	-0.054	0.205
-210.479	482.883	-0.148	0.333
-209.465	313.041	-0.011	-0.021
-208.450	800.000	0.042	0.125
-207.436	27.375	-0.165	-0.137
-206.421	-82.912	0.197	0.063
-205.406	-38.363	-0.203	-0.106
-204.392	380.237	-0.036	-0.074
-203.377	-172.884	0.118	0.004
-202.363	57.259	-0.036	0.035
-201.348	86.604	0.145	-0.158
-200.333	-22.046	-0.372	-0.223
-199.319	-200.000	0.023	0.177
-198.304	74.034	-0.164	-0.170
-197.290	-200.000	0.043	0.244
-196.275	37.788	0.196	-0.172
-195.260	221.570	0.074	0.118
-194.246	286.755	-0.041	0.073
-193.231	66.721	0.305	0.307
-192.217	-81.224	0.260	0.085
-191.202	-44.899	-0.113	0.056
-190.187	-15.488	-0.197	0.124
-189.173	800.000	0.090	0.253
-188.158	-200.000	0.044	0.230
-187.144	-115.321	0.124	-0.023
-186.129	-69.173	0.094	0.036
-185.114	207.623	-0.156	-0.241
-184.100	-15.319	0.027	0.017
-183.085	269.517	0.105	-0.182
-182.071	14.874	0.252	0.195
-181.056	-200.000	-0.003	0.229
-180.042	-52.021	-0.367	0.168
-179.027	-200.000	0.016	-0.158
-178.012	85.455	-0.269	0.292
-176.998	-16.626	-0.031	-0.020
-175.983	-189.696	-0.097	0.001
-174.969	-200.000	0.018	-0.211
-173.954	-112.150	0.004	-0.001
-172.939	5.707	0.105	0.077
-171.925	265.920	0.122	0.211
-170.910	759.756	0.086	-0.232
-169.896	-67.814	0.063	-0.024
-168.881	20.926	-0.217	0.173
-167.866	-55.879	-0.427	-0.188
-166.852	9.055	0.138	-0.103
-165.837	-120.795	-0.280	-0.047
-164.823	-2.816	0.336	-0.232
-163.808	270.523	-0.150	-0.260
-162.793	150.519	0.019	0.026
-161.779	26.673	0.074	0.061
-160.764	-200.000	0.021	-0.157
-159.750	410.610	0.103	0.215
-158.735	15.557	-0.371	0.288
-157.720	-200.000	-0.044	0.218
-156.706	-74.046	0.269	-0.096
-155.691	-159.025	-0.303	0.017
-154.677	-200.000	-0.004	0.297
-153.662	719.149	-0.110	0.288
-152.647	-20.802	-0.104	-0.063
-151.633	-200.000	0.051	-0.269
-150.618	-73.205	-0.029	0.010
-149.604	-168.489	-0.140	-0.005
-148.589	16.099	0.070	0.054
-147.574	290.136	-0.131	-0.236
-146.560	20.265	0.198	-0.158
-145.545	800.000	-0.020	-0.065
-144.531	168.346	-0.084	0.117
-143.516	-11.309	-0.069	0.045
-142.502	-200.000	-0.011	0.175
-141.487	40.920	0.047	-0.042
-140.472	19.529	-0.124	0.098
-139.458	-83.359	0.064	0.020
-138.443	-200.000	-0.009	-0.135
-137.429	-102.187	0.168	0.040
-136.414	-187.047	-0.082	-0.001
-135.399	5.282	-0.090	0.066
-134.385	-2.739	0.204	-0.141
-133.370	189.872	-0.152	0.225
-132.356	-200.000	-0.042	-0.339
-131.341	136.447	0.126	0.163
-130.326	218.685	0.290	-0.457
-129.312	30.017	-0.287	-0.241
-128.297	94.241	0.101	0.113
-127.283	800.000	0.021	-0.085
-126.268	-200.000	-0.016	-0.368
-125.253	189.765	-0.200	0.295
-124.239	-200.000	-0.051	-0.384
-123.224	-200.000	-0.002	0.218
-122.210	15.553	-0.343	0.266
-121.195	-172.886	0.375	0.011
