DTS Sentinel unit serial number:	SN413079Multiplexer serial number:	ORYXHardware model number:	OX4-SRSoftware version number:	ORYX F/W v4.00 Oryx Data Collector v3.7.2.0data status	okinstallation	princeton_trtdifferential loss correction	single-endedforward channel	channel 1reverse channel	N/Adate	2019/09/19time	05:06:35forward acquisition time	60.00reverse acquisition time	0.00gamma	496.2192k internal	0.2342k external	0.2342temperature offset calibration	1.0023default loss term (dB/km)	0.3790temperature slope calibration	1.0000multiplexer offset coefficient	1.0000multiplexer slope coefficient	1.0000fibre end	0.00T internal ref (°C)	19.62T ext. ref 1 (°C)	0.61T ext. ref 2 (°C)	12.77length (m)	temperature (°C)	Stokes	anti-Stokes-747.200	-141.333	0.305	-0.031
-746.185	-200.000	-0.042	0.222
-745.171	-79.522	-0.193	0.065
-744.156	-200.000	0.017	0.404
-743.142	-15.895	-0.114	0.072
-742.127	-151.503	-0.270	0.020
-741.112	-100.554	-0.037	-0.009
-740.098	-112.983	0.349	-0.069
-739.083	-200.000	-0.010	0.127
-738.069	-200.000	0.027	0.350
-737.054	-200.000	-0.053	0.481
-736.039	-94.599	-0.311	0.085
-735.025	-10.551	0.111	-0.074
-734.010	-58.896	-0.147	-0.063
-732.996	800.000	-0.055	0.185
-731.981	800.000	0.085	-0.241
-730.966	-40.291	-0.192	0.100
-729.952	-0.436	-0.184	0.131
-728.937	-59.064	0.261	0.113
-727.923	-27.356	-0.177	0.103
-726.908	234.665	-0.110	-0.182
-725.894	-200.000	0.035	0.163
-724.879	800.000	0.020	0.077
-723.864	138.944	-0.149	0.196
-722.850	238.940	-0.155	-0.258
-721.835	42.741	-0.208	0.190
-720.821	-200.000	0.005	0.209
-719.806	800.000	0.123	0.347
-718.791	-159.330	-0.183	-0.010
-717.777	-200.000	-0.027	-0.171
-716.762	478.754	-0.044	-0.100
-715.748	683.765	-0.121	-0.317
-714.733	-106.011	-0.122	0.027
-713.718	-200.000	0.002	-0.151
-712.704	-20.813	0.273	-0.168
-711.689	-17.169	0.172	-0.108
-710.675	-200.000	0.012	0.100
-709.660	51.231	0.263	-0.249
-708.645	-162.767	0.161	-0.008
-707.631	12.906	-0.103	0.080
-706.616	284.502	0.142	-0.256
-705.602	-13.069	-0.206	0.134
-704.587	-99.439	-0.173	0.043
-703.572	-200.000	-0.036	-0.256
-702.558	24.376	0.162	0.134
-701.543	-200.000	0.107	0.664
-700.529	-77.154	0.164	0.057
-699.514	-152.301	-0.302	0.022
-698.499	471.591	0.156	0.350
-697.485	-200.000	0.048	-0.292
-696.470	230.944	0.132	-0.217
-695.456	-97.508	0.289	-0.075
-694.441	44.388	0.083	-0.076
-693.426	-86.658	0.352	0.108
-692.412	-33.436	0.178	0.098
-691.397	104.143	-0.127	0.149
-690.383	311.117	-0.048	-0.090
-689.368	-121.939	-0.034	-0.006
-688.354	800.000	0.098	-0.336
-687.339	360.284	0.059	-0.117
-686.324	230.197	0.179	-0.292
-685.310	800.000	0.079	-0.260
-684.295	-120.055	-0.096	-0.017
-683.281	800.000	-0.026	-0.083
-682.266	19.426	0.135	-0.108
-681.251	-200.000	0.038	0.231
-680.237	-138.472	-0.216	-0.024
-679.222	18.055	0.118	-0.094
-678.208	-93.006	-0.417	-0.116
-677.193	-85.016	0.324	-0.101
-676.178	-48.671	0.209	-0.100
-675.164	22.109	-0.010	-0.008
-674.149	-116.742	0.300	-0.055
-673.135	-109.465	-0.121	0.026
-672.120	-11.552	-0.263	-0.173
-671.105	-200.000	0.026	0.240
-670.091	800.000	0.103	0.395
-669.076	551.036	-0.025	-0.059
-668.062	78.869	-0.277	0.296
-667.047	2.614	0.071	-0.051
-666.032	-66.521	0.240	-0.095
-665.018	99.764	-0.209	0.242
-664.003	-200.000	0.019	0.139
-662.989	-35.503	0.197	0.107
-661.974	-31.896	-0.226	-0.126
-660.959	-200.000	0.008	0.131
-659.945	249.517	0.097	-0.165
-658.930	-18.723	-0.020	0.013
-657.916	308.740	0.186	-0.348
-656.901	-85.056	0.248	0.077
-655.886	194.351	-0.109	-0.165
-654.872	-165.406	-0.323	-0.014
-653.857	-92.284	0.378	0.106
-652.843	-130.164	-0.442	-0.060
-651.828	239.756	-0.140	-0.233
-650.814	-4.600	0.087	0.060
-649.799	21.903	-0.297	0.242
-648.784	406.133	-0.178	-0.376
-647.770	800.000	-0.073	0.314
-646.755	-200.000	0.011	0.091
-645.741	-132.534	-0.241	-0.031
-644.726	-200.000	-0.011	0.168
-643.711	87.062	0.144	-0.159
-642.697	740.345	0.084	-0.224
-641.682	-14.033	-0.156	-0.101
-640.668	-30.316	0.125	-0.071
-639.653	-200.000	-0.014	-0.090
-638.638	-200.000	-0.027	-0.290
-637.624	32.288	0.296	0.254
-636.609	250.903	-0.082	-0.139
-635.595	272.411	0.070	-0.124
-634.580	381.765	0.025	-0.051
-633.565	-127.558	-0.133	-0.019
-632.551	-79.903	0.068	-0.023
-631.536	11.833	0.072	-0.055
-630.522	682.577	0.064	-0.168
-629.507	-44.975	-0.176	0.087
-628.492	-135.238	0.059	0.007
-627.478	800.000	-0.116	-0.475
-626.463	-114.094	-0.054	0.010
-625.449	-58.430	0.034	0.015
-624.434	-88.987	0.189	-0.056
-623.419	211.701	0.122	0.191
-622.405	134.427	0.061	-0.079
-621.390	50.943	-0.167	0.158
-620.376	-200.000	0.019	-0.096
-619.361	53.752	-0.187	-0.179
-618.346	-200.000	-0.008	0.058
-617.332	34.857	0.051	0.045
-616.317	736.276	0.054	-0.144
-615.303	-200.000	0.024	-0.282
-614.288	-139.753	0.223	0.024
-613.273	698.899	0.071	-0.187
-612.259	-118.293	-0.428	-0.076
-611.244	70.833	-0.282	-0.291
-610.230	42.253	-0.267	0.241
-609.215	-200.000	0.011	-0.149
-608.201	135.176	-0.259	0.335
-607.186	-138.228	-0.519	0.057
-606.171	800.000	-0.033	0.096
-605.157	-165.590	0.313	-0.014
-604.142	800.000	0.095	0.279
-603.128	-60.748	0.228	0.096
-602.113	-106.057	-0.206	0.046
-601.098	-200.000	0.003	-0.048
-600.084	6.370	0.030	0.022
-599.069	15.085	0.283	-0.221
-598.055	655.448	-0.142	-0.364
-597.040	577.947	-0.066	-0.160
-596.025	-119.018	0.131	0.023
-595.011	-131.127	0.220	-0.029
-593.996	-87.525	0.216	-0.065
-592.982	-44.124	-0.124	0.062
-591.967	487.102	0.020	-0.046
-590.952	307.583	-0.024	-0.044
-589.938	164.272	0.156	-0.218
-588.923	-200.000	-0.014	-0.124
-587.909	74.361	-0.243	-0.254
-586.894	55.035	-0.289	-0.278
-585.879	438.666	0.079	0.172
-584.865	32.780	-0.134	0.116
-583.850	-89.614	0.168	0.049
-582.836	140.197	-0.195	-0.256
-581.821	213.364	-0.103	0.162
-580.806	-133.036	-0.369	-0.047
-579.792	-0.348	-0.170	0.121
-578.777	-88.006	0.174	-0.052
-577.763	427.710	0.092	-0.197
-576.748	-52.354	-0.452	0.208
-575.733	-197.210	-0.191	-0.001
-574.719	-158.303	0.190	-0.011
-573.704	-200.000	-0.025	0.130
-572.690	-56.404	0.072	0.032
-571.675	-200.000	-0.023	0.439
-570.661	-158.954	-0.331	-0.019
-569.646	-108.209	-0.118	0.025
-568.631	121.489	-0.270	-0.335
-567.617	-53.360	0.199	-0.091
-566.602	-27.137	-0.100	0.058
-565.588	-48.043	0.383	0.184
-564.573	-200.000	0.062	-0.281
-563.558	800.000	0.123	-0.341
-562.544	-37.444	-0.114	-0.060
-561.529	-56.572	-0.196	0.086
-560.515	-74.832	0.064	0.023
-559.500	5.051	-0.108	-0.079
-558.485	91.450	-0.063	0.071
-557.471	800.000	-0.056	-0.181
-556.456	-200.000	-0.025	-0.186
-555.442	-172.040	0.207	0.007
-554.427	-200.000	0.067	0.301
-553.412	-42.471	-0.200	-0.102
-552.398	800.000	0.021	-0.091
-551.383	15.253	0.054	-0.042
-550.369	-136.112	0.273	-0.032
-549.354	-12.701	-0.388	-0.251
-548.339	800.000	0.040	-0.126
-547.325	-132.536	-0.127	0.016
-546.310	-170.192	0.457	-0.016
-545.296	-200.000	0.037	-0.163
-544.281	-200.000	-0.014	-0.349
-543.266	800.000	-0.039	-0.152
-542.252	-46.919	0.384	-0.187
-541.237	42.318	-0.222	-0.200
-540.223	-117.412	0.096	0.017
-539.208	93.308	0.150	-0.169
-538.193	87.777	0.255	0.280
-537.179	-200.000	0.011	-0.093
-536.164	-44.766	-0.092	0.045
-535.150	-9.317	0.106	0.070
-534.135	7.046	0.156	0.115
-533.121	72.536	-0.070	0.072
-532.106	168.230	-0.048	0.068
-531.091	48.023	-0.095	-0.088
-530.077	-56.924	-0.089	-0.039
-529.062	-92.551	0.410	-0.114
-528.048	8.286	0.063	0.047
-527.033	-28.107	-0.286	0.165
-526.018	-200.000	0.009	0.217
-525.004	245.733	0.115	-0.192
-523.989	-22.250	0.110	0.066
-522.975	581.409	-0.103	-0.252
-521.960	-95.548	-0.188	-0.050
-520.945	-5.615	0.153	-0.104
-519.931	154.771	-0.031	-0.042
-518.916	-200.000	-0.004	-0.075
-517.902	132.151	0.239	0.305
-516.887	-200.000	-0.017	0.152
-515.872	206.930	-0.128	0.199
-514.858	42.833	-0.210	-0.190
-513.843	-20.368	0.547	0.334
-512.829	800.000	0.053	-0.206
-511.814	-95.266	0.385	0.103
-510.799	-200.000	0.018	-0.110
-509.785	-106.147	-0.182	-0.041
-508.770	18.982	0.213	0.169
-507.756	58.243	0.131	0.127
-506.741	-75.038	-0.137	0.049
-505.726	-188.961	0.399	-0.005
-504.712	-200.000	0.026	0.169
-503.697	329.828	0.035	-0.067
-502.683	-64.146	0.193	0.078
-501.668	-64.910	-0.173	-0.070
-500.653	145.251	-0.117	0.156
-499.639	95.374	-0.111	-0.126
-498.624	49.377	-0.315	-0.294
-497.610	800.000	0.075	-0.273
-496.595	-79.238	0.292	0.098
-495.581	178.810	0.037	-0.054
-494.566	-63.222	-0.135	-0.055
-493.551	-200.000	-0.023	0.147
-492.537	145.975	0.242	0.322
-491.522	-154.340	0.225	0.015
-490.508	-200.000	0.017	0.257
-489.493	800.000	0.067	0.249
-488.478	725.020	0.067	-0.178
-487.464	11.774	-0.309	-0.235
-486.449	800.000	0.078	-0.262
-485.435	-27.211	0.094	-0.054
-484.420	-200.000	-0.008	0.178
-483.405	-148.776	0.189	-0.015
-482.391	-80.858	-0.118	0.039
-481.376	308.000	0.075	-0.138
-480.362	147.118	0.086	0.115
-479.347	-82.846	0.294	0.094
-478.332	-200.000	-0.002	-0.033
-477.318	-37.027	-0.149	-0.079
-476.303	800.000	-0.059	0.204
-475.289	20.673	-0.005	-0.004
-474.274	323.986	-0.067	0.127
-473.259	800.000	0.052	-0.185
-472.245	-117.502	-0.155	-0.028
-471.230	-200.000	-0.040	-0.175
-470.216	17.388	-0.116	-0.091
-469.201	262.413	-0.112	-0.192
-468.186	528.679	-0.060	0.140
-467.172	-108.100	-0.325	0.070
-466.157	-200.000	-0.002	-0.089
-465.143	800.000	-0.089	-0.245
-464.128	30.012	-0.188	-0.159
-463.113	-25.671	-0.117	-0.068
-462.099	140.910	0.094	-0.123
-461.084	-160.494	0.373	-0.020
-460.070	47.557	0.267	0.246
-459.055	-200.000	-0.100	0.514
-458.040	326.323	-0.194	0.367
-457.026	152.677	0.213	0.288
-456.011	197.833	0.173	-0.262
-454.997	-200.000	-0.021	-0.215
-453.982	-200.000	0.021	0.328
-452.968	-75.245	-0.163	0.058
-451.953	-47.515	0.158	0.076
-450.938	-37.488	-0.214	0.113
-449.924	-92.055	0.144	0.040
-448.909	13.755	-0.081	0.062
-447.895	67.944	-0.080	0.081
-446.880	642.515	-0.071	-0.179
-445.865	-79.892	0.041	0.014
-444.851	504.940	-0.160	0.367
-443.836	24.338	0.210	-0.172
-442.822	199.624	-0.181	0.274
-441.807	10.749	0.176	-0.133
-440.792	186.967	-0.040	0.059
-439.778	249.986	-0.052	0.088
-438.763	-200.000	-0.012	0.091
-437.749	-120.343	0.078	0.013
-436.734	-99.506	0.250	0.062
-435.719	71.940	-0.138	-0.142
-434.705	81.324	-0.177	0.190
-433.690	-200.000	0.002	-0.270
-432.676	-158.319	0.171	-0.010
-431.661	-46.297	-0.408	-0.198
-430.646	407.525	0.064	0.133
-429.632	-117.643	-0.196	-0.035
-428.617	-102.898	0.108	0.025
-427.603	-133.560	0.079	-0.010
-426.588	-106.875	-0.215	0.047
-425.573	187.983	0.184	-0.272
-424.559	-2.984	-0.308	-0.212
-423.544	244.517	0.104	0.173
-422.530	46.212	-0.230	-0.211
-421.515	-151.786	0.439	0.032
-420.500	22.354	-0.184	0.149
-419.486	-200.000	-0.008	-0.315
-418.471	-13.660	0.267	-0.171
-417.457	800.000	0.082	-0.347
-416.442	88.641	-0.115	-0.127
-415.428	361.095	0.096	0.190
-414.413	728.713	-0.063	0.167
-413.398	-100.846	0.303	0.074
-412.384	-183.005	0.305	-0.005
-411.369	-64.758	-0.234	0.094
-410.355	584.756	-0.179	0.434
-409.340	33.425	-0.199	-0.171
-408.325	-18.243	-0.281	-0.174
-407.311	106.535	-0.082	0.096
-406.296	-200.000	-0.034	0.170
-405.282	-112.342	0.361	0.071
-404.267	-54.776	0.077	-0.034
-403.252	19.300	-0.205	-0.163
-402.238	69.788	-0.275	0.280
-401.223	-166.693	-0.177	0.007
-400.209	99.982	-0.100	0.114
-399.194	-158.010	-0.138	-0.008
-398.179	-100.733	0.157	0.038
-397.165	-98.816	-0.178	0.045
-396.150	-125.202	0.048	0.007
-395.136	267.670	0.141	-0.244
-394.121	-200.000	0.034	-0.267
-393.106	-18.018	-0.158	-0.098
-392.092	437.301	-0.112	-0.241
-391.077	-111.591	-0.182	-0.037
-390.063	-200.000	-0.046	-0.200
-389.048	-36.590	-0.401	0.213
-388.033	52.408	0.256	0.241
-387.019	-200.000	-0.067	-0.000
-386.004	-136.783	-0.388	0.044
-384.990	223.446	-0.060	-0.096
-383.975	664.370	-0.097	0.246
-382.960	-200.000	-0.004	0.260
-381.946	-114.830	-0.235	-0.044
-380.931	-126.432	-0.092	0.013
-379.917	145.788	0.155	-0.206
-378.902	297.947	-0.068	-0.123
-377.888	-149.891	0.242	0.019
-376.873	-19.887	-0.256	-0.156
-375.858	-76.580	0.506	-0.175
-374.844	-44.528	-0.155	0.076
-373.829	-19.670	0.117	-0.071
-372.815	800.000	0.040	-0.160
-371.800	-200.000	0.005	-0.101
-370.785	-66.919	-0.153	0.060
-369.771	-87.238	0.303	0.091
-368.756	-141.944	0.270	-0.027
-367.742	-105.401	-0.163	0.037
-366.727	307.872	-0.058	0.107
-365.712	-200.000	-0.024	-0.276
-364.698	10.965	0.063	-0.047
-363.683	48.180	-0.287	-0.265
-362.669	-37.581	0.218	-0.115
-361.654	98.227	-0.159	0.180
-360.639	319.922	-0.054	-0.102
-359.625	50.211	-0.098	0.092
-358.610	48.525	-0.116	0.107
-357.596	-36.540	0.233	-0.123
-356.581	94.920	-0.289	0.325
-355.566	-200.000	0.050	0.451
-354.552	-85.054	-0.052	0.016
-353.537	-200.000	-0.003	0.181
-352.523	-158.018	0.179	0.010
-351.508	-38.845	0.369	-0.192
-350.493	328.384	-0.092	-0.174
-349.479	-87.108	0.428	-0.128
-348.464	-200.000	0.041	-0.192
-347.450	-200.000	-0.028	0.124
-346.435	45.050	0.120	-0.109
-345.420	-77.733	-0.456	-0.155
-344.406	-49.889	0.161	0.075
-343.391	565.094	0.135	0.322
-342.377	-67.096	0.199	0.077
-341.362	-70.687	-0.234	0.087
-340.348	800.000	0.058	-0.208
-339.333	253.107	0.082	-0.138
-338.318	-146.127	-0.506	0.044
-337.304	-140.989	0.061	0.006
-336.289	-97.681	0.129	-0.033
-335.275	-27.456	-0.137	-0.079
-334.260	-200.000	-0.013	0.306
-333.245	639.603	0.012	0.030
-332.231	-190.076	0.065	0.001
-331.216	101.138	-0.193	0.221
-330.202	-120.989	-0.381	-0.063
-329.187	-111.523	-0.051	-0.010
-328.172	-137.429	0.141	0.016
-327.158	-200.000	-0.015	0.139
-326.143	35.518	0.121	0.105
-325.129	5.011	0.161	-0.117
-324.114	86.164	-0.200	-0.217
-323.099	63.892	0.244	0.242
-322.085	2.331	-0.159	-0.113
-321.070	130.509	0.179	-0.226
-320.056	122.315	0.151	0.186
-319.041	260.587	-0.159	0.271
-318.026	7.812	-0.221	0.163
-317.012	285.770	0.154	-0.274
-315.997	-200.000	-0.025	0.287
-314.983	-124.668	-0.356	0.054
-313.968	-200.000	-0.037	-0.188
-312.953	-44.200	-0.108	-0.053
-311.939	-40.049	-0.163	-0.084
-310.924	42.197	-0.014	0.013
-309.910	-12.249	-0.220	-0.142
-308.895	-9.447	-0.066	-0.044
-307.880	-32.911	0.127	-0.070
-306.866	106.511	0.116	-0.135
-305.851	-200.000	0.008	-0.060
-304.837	800.000	0.031	0.087
-303.822	-34.731	0.200	0.107
-302.807	-90.140	-0.295	-0.085
-301.793	-57.830	-0.169	0.073
-300.778	-31.500	-0.210	0.116
-299.764	-200.000	-0.067	0.344
-298.749	141.471	0.165	-0.215
-297.735	-200.000	-0.015	-0.135
-296.720	37.798	0.086	0.075
-295.705	800.000	0.098	0.303
-294.691	-63.751	0.140	-0.056
-293.676	-200.000	-0.074	0.420
-292.662	-129.252	0.176	0.024
-291.647	-200.000	0.019	-0.085
-290.632	-200.000	0.007	-0.274
-289.618	125.642	-0.101	-0.125
-288.603	341.353	-0.167	0.321
-287.589	348.074	0.110	-0.213
-286.574	108.503	-0.121	-0.142
-285.559	-86.879	0.080	-0.024
-284.545	507.907	-0.013	-0.030
-283.530	-82.465	0.133	-0.042
-282.516	-38.424	0.184	-0.096
-281.501	42.197	-0.068	-0.061
-280.486	96.963	-0.133	-0.150
-279.472	4.845	-0.147	0.106
-278.457	-110.733	0.295	-0.060
-277.443	186.073	0.212	0.310
-276.428	-141.475	0.322	0.032
-275.413	165.813	-0.105	-0.146
-274.399	-55.021	-0.218	-0.097
-273.384	-132.157	0.120	0.015
-272.370	-13.361	-0.409	0.261
-271.355	-200.000	0.004	-0.053
-270.340	351.209	0.021	-0.041
-269.326	-200.000	0.005	-0.081
-268.311	800.000	-0.091	-0.251
-267.297	33.466	0.139	0.119
-266.282	-35.061	0.149	0.080
-265.267	195.784	-0.090	0.135
-264.253	800.000	0.111	0.333
-263.238	23.720	-0.354	-0.287
-262.224	156.248	0.070	0.095
-261.209	-101.538	0.324	-0.077
-260.195	-42.068	0.174	0.088
-259.180	33.265	0.131	0.112
-258.165	405.034	0.125	0.259
-257.151	-120.189	0.236	0.040
-256.136	17.835	-0.101	0.079
-255.122	-109.118	0.507	-0.106
-254.107	800.000	-0.079	0.316
-253.092	453.213	-0.170	0.369
-252.078	54.145	0.091	-0.086
-251.063	800.000	0.137	0.486
-250.049	83.354	0.089	0.095
-249.034	-50.989	-0.089	0.041
-248.019	-200.000	-0.008	0.115
-247.005	-178.877	-0.339	0.008
-245.990	800.000	0.085	0.316
-244.976	-200.000	-0.074	-0.375
-243.961	87.167	0.050	0.054
-242.946	-200.000	0.017	0.318
-241.932	-69.515	0.383	-0.144
-240.917	800.000	0.041	0.158
-239.903	27.896	-0.007	-0.006
-238.888	-121.361	-0.287	0.047
-237.873	103.034	0.128	-0.147
-236.859	-75.512	-0.054	-0.019
-235.844	800.000	0.033	-0.102
-234.830	8.045	0.179	-0.132
-233.815	800.000	0.072	0.277
-232.800	-2.008	-0.056	-0.039
-231.786	800.000	0.072	0.254
-230.771	-117.213	-0.180	0.032
-229.757	-86.922	-0.268	-0.080
-228.742	18.276	0.286	0.224
-227.727	-200.000	0.022	-0.164
-226.713	800.000	-0.026	0.078
-225.698	-4.973	-0.387	-0.262
-224.684	-200.000	0.051	0.276
-223.669	-41.019	0.187	0.095
-222.655	-200.000	0.007	0.555
-221.640	178.956	-0.206	0.296
-220.625	-200.000	0.058	-0.449
-219.611	522.780	-0.057	0.132
-218.596	-66.905	0.216	0.084
-217.582	-75.284	-0.175	-0.061
-216.567	-200.000	-0.015	0.161
-215.552	-70.821	0.218	0.081
-214.538	-94.992	0.059	0.016
-213.523	-200.000	-0.003	-0.092
-212.509	-109.619	0.378	-0.078
-211.494	-131.996	-0.124	0.016
-210.479	455.821	0.049	-0.107
-209.465	-117.787	0.153	-0.027
-208.450	70.729	0.110	-0.112
-207.436	198.139	-0.225	-0.337
-206.421	-200.000	0.025	0.192
-205.406	-53.222	0.180	0.081
-204.392	-169.720	0.068	-0.002
-203.377	-197.469	0.288	0.002
-202.363	-90.090	-0.046	0.013
-201.348	432.888	0.143	-0.304
-200.333	-200.000	-0.038	0.268
-199.319	71.568	0.162	0.165
-198.304	-147.738	-0.347	-0.029
-197.290	-200.000	-0.114	0.000
-196.275	800.000	0.061	0.238
-195.260	-60.423	0.300	0.125
-194.246	148.060	0.248	0.328
-193.231	374.986	0.035	-0.070
-192.217	54.932	0.221	-0.209
-191.202	-185.202	-0.116	0.002
-190.187	480.040	0.160	-0.355
-189.173	17.600	-0.319	-0.249
-188.158	-160.216	0.285	0.015
-187.144	327.669	-0.052	-0.098
-186.129	531.446	-0.084	0.195
-185.114	580.060	0.114	-0.273
-184.100	800.000	-0.071	-0.259
-183.085	83.612	0.222	-0.237
-182.071	-20.118	-0.216	0.131
-181.056	-52.503	0.107	-0.048
-180.042	39.694	0.226	-0.199
-179.027	195.854	-0.086	0.129
-178.012	417.164	0.086	-0.180
-176.998	-6.165	-0.109	-0.073
-175.983	-74.387	-0.227	-0.080
-174.969	-143.538	-0.254	0.024
-173.954	-23.277	0.373	0.220
-172.939	85.613	0.168	-0.181
-171.925	-115.203	0.127	-0.023
-170.910	-200.000	-0.018	0.219
-169.896	-200.000	0.005	-0.081
-168.881	46.945	0.066	-0.060
-167.866	-144.539	-0.045	-0.004
-166.852	800.000	0.115	0.310
-165.837	57.758	-0.088	0.084
-164.823	-200.000	-0.014	0.091
-163.808	-35.628	0.071	0.038
-162.793	530.582	0.045	-0.103
-161.779	301.934	-0.069	-0.124
-160.764	-35.928	-0.211	-0.112
-159.750	41.789	-0.331	0.294
-158.735	-4.236	-0.206	0.140
-157.720	-108.830	-0.138	0.029
-156.706	800.000	-0.070	0.224
-155.691	-153.839	0.404	-0.027
-154.677	-148.818	-0.221	0.017
-153.662	96.258	0.090	0.100
-152.647	-107.621	0.144	-0.031
-151.633	-200.000	0.021	0.198
-150.618	-200.000	0.194	0.000
-149.604	800.000	-0.108	-0.367
-148.589	-120.687	0.180	0.030
-147.574	369.843	-0.159	-0.315
-146.560	-138.107	-0.341	0.037
-145.545	85.480	0.184	-0.197
-144.531	65.332	0.213	0.211
-143.516	468.552	-0.138	-0.304
-142.502	28.040	-0.111	0.091
-141.487	-43.167	-0.076	-0.038
-140.472	42.807	0.211	-0.188
-139.458	-33.388	-0.300	-0.162
-138.443	-200.000	0.078	-0.429
-137.429	-77.280	0.206	0.070
-136.414	800.000	0.094	0.330
-135.399	362.450	-0.144	0.284
-134.385	-106.107	-0.284	0.062
-133.370	486.631	0.061	-0.137
-132.356	-164.492	-0.251	-0.011
-131.341	64.744	-0.090	0.088
-130.326	207.186	-0.171	-0.261
-129.312	800.000	-0.096	0.374
-128.297	35.017	0.185	-0.159
-127.283	-6.730	-0.113	-0.075
-126.268	-200.000	-0.002	0.030
-125.253	-200.000	-0.033	0.266
-124.239	-83.426	-0.228	0.071
-123.224	278.126	0.103	0.179
-122.210	800.000	0.031	0.119
-121.195	545.672	-0.027	0.063
