DTS Sentinel unit serial number:	SN413079Multiplexer serial number:	ORYXHardware model number:	OX4-SRSoftware version number:	ORYX F/W v4.00 Oryx Data Collector v3.7.2.0data status	okinstallation	princeton_trtdifferential loss correction	single-endedforward channel	channel 1reverse channel	N/Adate	2019/09/17time	21:26:35forward acquisition time	60.00reverse acquisition time	0.00gamma	496.2192k internal	0.2339k external	0.2339temperature offset calibration	0.9977default loss term (dB/km)	0.3790temperature slope calibration	1.0000multiplexer offset coefficient	1.0000multiplexer slope coefficient	1.0000fibre end	0.00T internal ref (°C)	27.33T ext. ref 1 (°C)	0.19T ext. ref 2 (°C)	19.31length (m)	temperature (°C)	Stokes	anti-Stokes-747.200	49.278	0.206	0.194
-746.185	-200.000	0.003	0.074
-745.171	-170.206	-0.210	0.007
-744.156	800.000	-0.121	0.363
-743.142	-200.000	0.012	-0.059
-742.127	-48.000	-0.294	-0.143
-741.112	-99.244	0.182	0.046
-740.098	-200.000	0.002	0.187
-739.083	-137.187	-0.055	-0.006
-738.069	-25.598	0.002	0.001
-737.054	-200.000	0.027	-0.152
-736.039	67.876	-0.279	-0.286
-735.025	-71.867	0.370	0.138
-734.010	-32.757	-0.287	0.160
-732.996	-174.752	0.231	0.007
-731.981	-113.548	-0.200	0.039
-730.966	395.368	-0.069	-0.144
-729.952	800.000	0.061	-0.200
-728.937	129.569	-0.067	-0.086
-727.923	-44.209	-0.365	-0.183
-726.908	-69.585	0.104	0.040
-725.894	-92.770	-0.320	-0.090
-724.879	142.255	-0.053	-0.070
-723.864	21.109	0.204	-0.166
-722.850	72.204	-0.145	0.151
-721.835	-200.000	0.005	-0.138
-720.821	114.482	0.064	-0.078
-719.806	800.000	0.112	0.380
-718.791	188.846	-0.085	0.127
-717.777	-200.000	-0.065	-0.686
-716.762	-200.000	0.156	-0.000
-715.748	-200.000	0.009	0.096
-714.733	10.165	0.063	0.048
-713.718	167.493	0.075	-0.107
-712.704	13.343	-0.115	-0.090
-711.689	800.000	0.017	-0.050
-710.675	-8.376	-0.198	0.133
-709.660	144.402	-0.146	-0.196
-708.645	800.000	0.035	0.116
-707.631	-200.000	0.018	-0.317
-706.616	-33.321	0.300	0.166
-705.602	16.803	-0.169	-0.134
-704.587	-175.726	-0.187	-0.005
-703.572	-100.445	0.277	0.069
-702.558	166.003	0.028	0.039
-701.543	409.086	-0.101	0.214
-700.529	800.000	-0.093	-0.260
-699.514	333.374	-0.166	-0.321
-698.499	104.744	0.219	-0.258
-697.485	-200.000	0.002	-0.026
-696.470	-200.000	-0.006	-0.096
-695.456	41.315	-0.310	-0.280
-694.441	-23.524	-0.128	0.077
-693.426	-119.966	-0.259	0.045
-692.412	172.513	-0.096	0.139
-691.397	389.011	-0.198	-0.411
-690.383	44.341	0.241	0.222
-689.368	800.000	0.147	0.516
-688.354	161.172	-0.122	-0.170
-687.339	269.075	0.084	-0.147
-686.324	-53.666	-0.025	-0.011
-685.310	-200.000	0.010	0.344
-684.295	88.402	0.123	-0.137
-683.281	223.301	-0.072	-0.116
-682.266	419.490	0.095	-0.203
-681.251	-200.000	-0.012	-0.113
-680.237	-44.490	-0.098	0.049
-679.222	-154.126	0.210	0.014
-678.208	39.515	0.107	-0.096
-677.193	635.865	0.069	0.175
-676.178	-143.110	0.189	0.018
-675.164	-200.000	0.064	0.354
-674.149	21.124	-0.387	-0.314
-673.135	6.852	-0.143	0.107
-672.120	179.505	-0.109	0.159
-671.105	352.157	0.105	0.208
-670.091	59.298	-0.274	-0.269
-669.076	467.099	-0.083	0.187
-668.062	-118.644	0.050	-0.009
-667.047	-182.337	-0.088	-0.002
-666.032	509.775	-0.102	0.237
-665.018	86.090	-0.260	0.286
-664.003	359.199	-0.116	-0.233
-662.989	107.544	0.151	-0.180
-661.974	640.289	0.077	0.197
-660.959	113.332	0.089	0.108
-659.945	684.432	-0.082	-0.213
-658.930	259.251	0.194	0.334
-657.916	800.000	-0.054	0.180
-656.901	233.152	-0.119	0.196
-655.886	-200.000	0.078	0.350
-654.872	-114.714	-0.271	-0.052
-653.857	-26.857	0.264	0.154
-652.843	800.000	-0.035	-0.130
-651.828	800.000	0.095	-0.292
-650.814	75.025	-0.089	0.094
-649.799	157.277	0.014	0.020
-648.784	106.335	-0.101	0.119
-647.770	-200.000	-0.005	0.048
-646.755	33.844	-0.056	0.049
-645.741	765.998	0.076	-0.206
-644.726	800.000	0.029	-0.086
-643.711	-85.426	-0.235	0.073
-642.697	-145.921	-0.106	0.009
-641.682	-154.776	0.164	-0.011
-640.668	-200.000	0.020	0.268
-639.653	-92.583	-0.226	-0.063
-638.638	20.845	0.106	-0.086
-637.624	93.122	0.090	-0.102
-636.609	-133.434	0.115	0.014
-635.595	217.892	0.155	-0.247
-634.580	-150.291	0.470	0.036
-633.565	-103.407	0.027	0.006
-632.551	362.798	0.062	-0.125
-631.536	800.000	-0.049	0.177
-630.522	203.094	-0.052	-0.080
-629.507	-40.219	0.181	-0.094
-628.492	-200.000	-0.002	-0.081
-627.478	60.965	0.091	0.091
-626.463	155.131	0.156	0.215
-625.449	-30.948	-0.275	-0.155
-624.434	800.000	0.075	-0.254
-623.419	173.070	0.121	-0.174
-622.405	-20.496	0.142	-0.087
-621.390	-200.000	0.040	-0.265
-620.376	79.100	-0.122	-0.130
-619.361	431.648	-0.106	-0.229
-618.346	-151.045	-0.142	0.011
-617.332	-74.888	-0.061	-0.022
-616.317	-200.000	0.004	0.067
-615.303	-181.418	0.228	0.004
-614.288	-32.001	-0.318	0.177
-613.273	301.638	-0.131	0.242
-612.259	-200.000	-0.005	0.228
-611.244	800.000	-0.077	0.289
-610.230	4.572	0.214	-0.157
-609.215	-200.000	-0.021	0.173
-608.201	-200.000	0.014	0.286
-607.186	-41.336	-0.177	-0.091
-606.171	346.968	0.126	-0.248
-605.157	3.977	0.139	-0.102
-604.142	-118.837	-0.127	0.022
-603.128	800.000	-0.041	0.125
-602.113	-200.000	0.041	-0.214
-601.098	-43.706	0.172	-0.087
-600.084	-31.552	0.103	-0.058
-599.069	-116.210	0.079	0.015
-598.055	57.223	0.160	0.155
-597.040	-13.537	-0.312	0.201
-596.025	288.899	-0.119	0.215
-595.011	-146.880	-0.090	-0.008
-593.996	-96.245	0.289	-0.076
-592.982	-135.552	-0.051	-0.006
-591.967	-72.999	0.443	-0.162
-590.952	67.986	-0.101	0.103
-589.938	6.276	0.239	0.177
-588.923	-200.000	0.018	-0.371
-587.909	169.929	-0.134	0.191
-586.894	-91.493	0.242	-0.069
-585.879	-111.289	-0.063	-0.013
-584.865	343.045	-0.192	0.375
-583.850	528.428	0.054	0.126
-582.836	-68.795	-0.226	0.087
-581.821	-37.867	-0.163	-0.086
-580.806	709.110	0.046	0.121
-579.792	-36.310	0.177	0.095
-578.777	-192.010	0.123	-0.001
-577.763	11.287	-0.096	0.073
-576.748	-172.937	-0.356	0.011
-575.733	50.638	0.185	0.174
-574.719	26.171	0.210	0.175
-573.704	-66.052	-0.435	-0.173
-572.690	67.847	0.113	0.116
-571.675	-53.488	0.209	0.095
-570.661	612.724	0.059	-0.148
-569.646	-123.741	-0.099	0.016
-568.631	-200.000	0.005	-0.033
-567.617	-174.586	-0.366	-0.010
-566.602	-7.791	-0.132	-0.089
-565.588	-122.313	-0.149	-0.024
-564.573	330.764	-0.086	-0.165
-563.558	-28.300	-0.276	0.159
-562.544	46.505	0.170	0.157
-561.529	-63.191	0.118	-0.048
-560.515	-33.914	-0.128	-0.070
-559.500	-94.343	-0.279	0.076
-558.485	-200.000	0.023	-0.112
-557.471	-109.137	-0.179	0.038
-556.456	800.000	-0.018	-0.056
-555.442	-24.092	-0.062	-0.037
-554.427	501.588	-0.082	0.189
-553.412	-111.867	0.181	-0.036
-552.398	-200.000	0.008	0.072
-551.383	-118.870	-0.104	0.018
-550.369	232.311	-0.219	-0.358
-549.354	-89.018	0.181	0.053
-548.339	-200.000	0.027	0.142
-547.325	102.914	-0.029	0.033
-546.310	800.000	-0.086	-0.253
-545.296	13.121	-0.291	-0.224
-544.281	392.551	-0.075	0.156
-543.266	-200.000	-0.020	0.247
-542.252	741.590	-0.029	0.077
-541.237	-200.000	-0.012	0.135
-540.223	-104.836	-0.206	-0.047
-539.208	-200.000	-0.041	-0.326
-538.193	-200.000	0.008	-0.180
-537.179	-200.000	-0.001	0.141
-536.164	-200.000	0.074	0.374
-535.150	-200.000	-0.004	0.635
-534.135	-106.375	0.286	0.064
-533.121	-15.249	-0.299	0.190
-532.106	-92.766	-0.205	0.057
-531.091	-200.000	0.015	-0.071
-530.077	-1.853	-0.208	0.146
-529.062	800.000	-0.067	0.265
-528.048	365.543	-0.084	-0.169
-527.033	-71.796	-0.218	-0.081
-526.018	-88.169	0.210	0.063
-525.004	-76.130	0.348	0.122
-523.989	-11.776	0.197	-0.129
-522.975	139.412	-0.187	0.245
-521.960	72.290	-0.180	0.187
-520.945	45.258	0.406	-0.372
-519.931	30.021	0.151	0.128
-518.916	16.555	-0.318	0.250
-517.902	-48.203	0.028	-0.014
-516.887	89.702	-0.115	-0.127
-515.872	-163.942	0.327	0.015
-514.858	410.063	-0.126	-0.265
-513.843	-200.000	0.024	-0.544
-512.829	-36.170	-0.188	0.101
-511.814	-200.000	-0.029	-0.164
-510.799	-157.643	-0.218	-0.013
-509.785	701.648	0.072	-0.189
-508.770	-200.000	-0.034	-0.151
-507.756	-200.000	-0.045	-0.238
-506.741	-142.530	0.274	0.027
-505.726	-50.538	0.227	0.106
-504.712	31.914	0.215	-0.184
-503.697	120.530	-0.266	-0.328
-502.683	-23.275	-0.032	-0.019
-501.668	-22.791	0.285	0.171
-500.653	-168.957	-0.172	0.006
-499.639	-134.632	0.281	0.034
-498.624	-200.000	0.014	0.134
-497.610	-106.370	0.137	-0.030
-496.595	-113.041	-0.120	0.023
-495.581	18.093	-0.270	0.214
-494.566	25.365	0.088	-0.073
-493.551	34.613	-0.175	0.152
-492.537	60.721	0.046	0.046
-491.522	-200.000	0.013	0.179
-490.508	433.529	-0.078	-0.167
-489.493	800.000	0.059	-0.206
-488.478	-28.892	-0.178	0.102
-487.464	-103.314	-0.093	-0.022
-486.449	-59.757	-0.069	-0.029
-485.435	201.190	0.065	0.100
-484.420	505.289	-0.092	0.212
-483.405	282.072	-0.021	0.037
-482.391	-12.741	-0.203	0.132
-481.376	481.479	-0.038	0.085
-480.362	137.937	-0.235	0.306
-479.347	-53.955	0.090	-0.041
-478.332	-200.000	-0.037	-0.326
-477.318	77.006	-0.078	0.083
-476.303	-75.989	0.324	-0.114
-475.289	800.000	0.072	-0.240
-474.274	-118.943	0.126	-0.022
-473.259	-97.874	0.374	-0.096
-472.245	-55.341	0.250	-0.111
-471.230	268.070	0.131	-0.228
-470.216	-134.928	-0.176	-0.021
-469.201	800.000	0.081	0.246
-468.186	139.461	-0.091	-0.118
-467.172	23.145	-0.162	0.132
-466.157	-111.683	0.306	0.061
-465.143	-3.693	0.195	0.135
-464.128	-200.000	-0.049	0.389
-463.113	7.239	-0.275	-0.204
-462.099	26.776	0.374	0.310
-461.084	-131.412	0.315	-0.041
-460.070	-200.000	0.037	0.200
-459.055	95.570	0.161	-0.182
-458.040	-200.000	-0.010	-0.517
-457.026	-1.117	-0.191	0.134
-456.011	307.868	-0.192	-0.356
-454.997	800.000	-0.057	0.243
-453.982	-49.586	0.379	-0.179
-452.968	-61.327	-0.413	-0.172
-451.953	-98.120	-0.360	-0.092
-450.938	-61.994	0.136	0.056
-449.924	15.581	-0.329	0.257
-448.909	-166.294	-0.107	0.004
-447.895	-109.700	0.179	0.037
-446.880	248.218	0.171	-0.287
-445.865	220.141	0.147	0.233
-444.851	169.755	-0.103	-0.146
-443.836	-200.000	-0.036	0.391
-442.822	-24.584	0.038	0.023
-441.807	66.590	0.167	0.168
-440.792	18.045	-0.273	-0.216
-439.778	180.009	-0.091	0.132
-438.763	431.591	-0.085	0.182
-437.749	197.491	-0.065	-0.098
-436.734	-200.000	-0.005	-0.204
-435.719	427.126	0.055	-0.118
-434.705	-200.000	0.025	-0.219
-433.690	-91.236	-0.127	0.036
-432.676	-200.000	0.019	0.293
-431.661	84.116	-0.073	-0.079
-430.646	-148.547	0.382	-0.031
-429.632	130.131	-0.127	-0.161
-428.617	-100.016	-0.132	0.033
-427.603	6.252	-0.105	-0.078
-426.588	-200.000	0.034	0.245
-425.573	800.000	0.010	-0.038
-424.559	-200.000	0.042	0.241
-423.544	-29.173	-0.153	-0.087
-422.530	800.000	0.093	0.366
-421.515	-200.000	0.062	-0.286
-420.500	535.907	-0.054	-0.127
-419.486	-114.472	0.115	-0.022
-418.471	162.544	0.140	-0.194
-417.457	-120.989	0.174	-0.029
-416.442	-82.631	-0.357	0.115
-415.428	-200.000	-0.007	-0.239
-414.413	-79.686	0.028	-0.009
-413.398	163.443	-0.161	-0.224
-412.384	-200.000	-0.010	0.289
-411.369	-136.446	0.151	-0.017
-410.355	369.690	0.052	0.105
-409.340	800.000	0.080	0.271
-408.325	46.814	0.172	-0.158
-407.311	-200.000	-0.027	-0.266
-406.296	-79.072	-0.187	-0.063
-405.282	22.859	-0.145	-0.118
-404.267	-134.816	-0.087	0.010
-403.252	-161.589	-0.135	-0.007
-402.238	61.836	0.049	0.048
-401.223	-200.000	0.019	-0.178
-400.209	-122.787	0.337	-0.054
-399.194	82.801	-0.278	-0.299
-398.179	32.121	0.161	-0.137
-397.165	-67.882	0.220	-0.085
-396.150	438.615	0.095	0.205
-395.136	-200.000	0.043	-0.216
-394.121	73.029	0.211	0.218
-393.106	-47.680	-0.256	0.123
-392.092	402.703	0.022	0.045
-391.077	-130.321	0.141	-0.019
-390.063	-90.763	0.308	0.088
-389.048	-35.337	-0.334	-0.180
-388.033	-31.038	0.152	0.085
-387.019	800.000	0.065	-0.208
-386.004	104.401	0.053	-0.061
-384.990	800.000	0.026	0.081
-383.975	-200.000	-0.032	-0.228
-382.960	-200.000	-0.000	0.069
-381.946	-200.000	-0.373	0.001
-380.931	-200.000	0.012	0.209
-379.917	-131.636	0.228	0.030
-378.902	111.572	-0.258	-0.307
-377.888	-200.000	-0.015	0.105
-376.873	-57.204	-0.093	0.041
-375.858	298.722	-0.074	-0.134
-374.844	5.292	0.095	0.069
-373.829	32.370	0.195	-0.166
-372.815	-200.000	0.062	-0.414
-371.800	-200.000	-0.028	-0.159
-370.785	23.848	-0.248	-0.202
-369.771	-200.000	0.028	-0.206
-368.756	-88.250	0.095	0.028
-367.742	-200.000	-0.038	0.213
-366.727	11.153	0.271	-0.205
-365.712	-200.000	-0.059	-0.273
-364.698	-24.402	0.129	0.076
-363.683	-118.316	-0.221	-0.039
-362.669	43.087	-0.059	0.053
-361.654	249.395	0.045	0.075
-360.639	-128.609	-0.099	-0.014
-359.625	-20.496	-0.320	0.195
-358.610	-200.000	0.013	-0.105
-357.596	583.338	-0.133	-0.324
-356.581	-77.223	-0.233	0.080
-355.566	-200.000	-0.006	0.082
-354.552	534.870	0.039	-0.091
-353.537	553.141	0.079	-0.187
-352.523	-73.660	-0.108	-0.039
-351.508	800.000	-0.097	0.331
-350.493	-17.370	-0.078	0.048
-349.479	-8.929	-0.156	0.103
-348.464	-165.411	-0.326	-0.014
-347.450	-112.338	0.183	-0.036
-346.435	-22.302	-0.199	0.119
-345.420	-200.000	-0.029	-0.131
-344.406	368.114	0.133	-0.266
-343.391	-45.318	0.155	-0.076
-342.377	152.277	0.081	-0.109
-341.362	-200.000	0.076	0.461
-340.348	16.990	0.099	0.078
-339.333	-197.648	-0.148	0.001
-338.318	-200.000	-0.001	-0.336
-337.304	-21.704	-0.226	0.136
-336.289	-200.000	0.022	0.120
-335.275	110.714	0.131	-0.155
-334.260	-21.793	0.230	-0.138
-333.245	693.087	-0.028	0.073
-332.231	-200.000	0.020	0.327
-331.216	800.000	-0.065	-0.219
-330.202	-61.978	0.338	-0.139
-329.187	-54.490	-0.166	-0.074
-328.172	-33.967	-0.134	0.073
-327.158	427.425	0.083	-0.177
-326.143	-55.934	0.169	0.074
-325.129	-15.217	-0.305	0.192
-324.114	-114.470	0.233	0.044
-323.099	264.306	0.082	-0.140
-322.085	798.544	-0.047	0.128
-321.070	67.836	0.192	0.194
-320.056	-91.448	-0.112	-0.032
-319.041	-200.000	-0.005	0.046
-318.026	-200.000	0.005	-0.076
-317.012	140.418	0.128	-0.167
-315.997	45.192	-0.185	-0.169
-314.983	285.269	0.033	-0.058
-313.968	-200.000	-0.056	0.415
-312.953	-77.422	0.272	-0.093
-311.939	-200.000	-0.005	0.156
-310.924	-25.689	0.155	0.090
-309.910	-200.000	-0.179	0.000
-308.895	-83.593	0.194	0.061
-307.880	-55.019	0.114	-0.051
-306.866	-90.327	-0.094	0.027
-305.851	43.850	0.109	-0.098
-304.837	-200.000	0.018	-0.111
-303.822	-133.715	-0.030	-0.004
-302.807	-134.299	0.082	-0.010
-301.793	157.351	0.197	0.268
-300.778	-200.000	-0.042	0.297
-299.764	-200.000	-0.009	0.160
-298.749	-127.210	-0.158	-0.023
-297.735	607.951	-0.080	-0.197
-296.720	800.000	0.040	-0.114
-295.705	551.839	0.119	0.281
-294.691	742.525	0.076	0.201
-293.676	94.456	-0.201	0.225
-292.662	87.699	0.177	0.193
-291.647	-136.938	-0.146	0.016
-290.632	20.356	-0.099	-0.079
-289.618	703.599	0.085	0.222
-288.603	116.989	-0.147	-0.178
-287.589	-108.179	0.110	-0.023
-286.574	-31.009	0.143	-0.080
-285.559	130.731	0.139	0.175
-284.545	-104.665	0.056	-0.013
-283.530	-200.000	-0.027	0.185
-282.516	800.000	0.026	-0.077
-281.501	-24.829	0.209	-0.122
-280.486	800.000	-0.091	0.266
-279.472	-200.000	0.048	0.313
-278.457	-124.682	-0.055	-0.008
-277.443	-83.634	0.175	0.055
-276.428	70.074	0.084	0.085
-275.413	-65.188	0.340	-0.135
-274.399	-57.431	0.265	0.114
-273.384	-95.171	-0.262	0.070
-272.370	-122.405	-0.184	0.030
-271.355	-88.185	0.135	0.040
-270.340	673.943	-0.115	0.294
-269.326	105.781	0.098	-0.115
-268.311	-164.045	-0.130	0.006
-267.297	15.247	0.141	-0.109
-266.282	-200.000	0.007	0.198
-265.267	-200.000	0.036	-0.161
-264.253	602.123	0.094	-0.231
-263.238	-24.099	0.041	0.024
-262.224	-116.652	-0.154	-0.028
-261.209	-200.000	-0.021	-0.304
-260.195	214.927	0.267	0.416
-259.180	-64.194	-0.325	-0.130
-258.165	12.634	-0.100	0.076
-257.151	540.202	0.166	0.389
-256.136	-114.206	0.049	0.009
-255.122	-58.678	0.086	-0.037
-254.107	21.839	-0.055	-0.044
-253.092	59.075	0.125	-0.121
-252.078	38.431	-0.098	-0.086
-251.063	-200.000	0.023	-0.111
-250.049	320.656	0.061	0.113
-249.034	670.205	-0.066	0.168
-248.019	-169.682	0.050	0.002
-247.005	-88.405	0.224	-0.066
-245.990	4.258	0.120	-0.086
-244.976	84.381	-0.291	-0.313
-243.961	-200.000	-0.067	0.360
-242.946	800.000	-0.029	-0.101
-241.932	-158.148	-0.273	-0.016
-240.917	340.752	0.022	-0.042
-239.903	-36.526	0.148	0.078
-238.888	72.821	-0.088	0.090
-237.873	49.382	0.228	-0.211
-236.859	-200.000	0.012	0.084
-235.844	68.931	-0.142	0.144
-234.830	-97.706	-0.285	0.072
-233.815	616.913	-0.119	-0.294
-232.800	12.502	-0.256	0.194
-231.786	-0.846	-0.351	-0.245
-230.771	106.618	-0.134	0.156
-229.757	96.406	0.174	-0.196
-228.742	53.775	0.186	-0.175
-227.727	433.382	-0.137	0.292
-226.713	465.195	0.069	0.153
-225.698	-91.294	-0.129	-0.036
-224.684	-200.000	0.056	0.310
-223.669	-101.544	-0.274	-0.065
-222.655	352.884	0.075	0.147
-221.640	-91.941	-0.176	-0.049
-220.625	-200.000	-0.003	-0.097
-219.611	-126.647	-0.202	0.029
-218.596	-200.000	0.029	-0.298
-217.582	300.495	0.210	-0.380
-216.567	-2.890	0.101	0.069
-215.552	591.440	-0.108	-0.262
-214.538	55.588	0.104	-0.099
-213.523	252.449	0.200	0.335
-212.509	28.994	0.140	-0.117
-211.494	-98.407	0.029	-0.007
-210.479	-150.788	-0.241	0.018
-209.465	19.268	-0.228	-0.180
-208.450	146.878	0.147	-0.194
-207.436	-16.434	-0.262	-0.163
-206.421	-200.000	0.022	-0.202
-205.406	800.000	-0.090	0.297
-204.392	-200.000	-0.011	0.211
-203.377	-200.000	-0.071	0.328
-202.363	-108.194	0.186	0.039
-201.348	475.885	-0.042	0.094
-200.333	-200.000	0.011	-0.194
-199.319	97.937	0.392	-0.442
-198.304	90.016	0.125	0.138
-197.290	157.834	-0.250	0.340
-196.275	-132.345	0.318	-0.040
-195.260	-146.900	0.109	-0.009
-194.246	157.929	0.038	0.051
-193.231	-44.960	0.245	0.120
-192.217	-200.000	0.000	0.167
-191.202	-121.494	-0.236	-0.038
-190.187	202.160	0.092	0.139
-189.173	-14.339	0.217	0.137
-188.158	-51.987	-0.466	-0.213
-187.144	9.445	0.267	-0.199
-186.129	800.000	-0.093	0.314
-185.114	189.370	0.081	-0.120
-184.100	-20.762	-0.110	-0.066
-183.085	118.398	-0.113	0.137
-182.071	-200.000	-0.058	-0.272
-181.056	411.415	-0.053	-0.110
-180.042	-86.074	0.147	0.044
-179.027	25.803	-0.183	-0.150
-178.012	-179.633	0.237	-0.005
-176.998	257.160	-0.150	-0.254
-175.983	800.000	0.042	0.141
-174.969	-36.465	0.119	-0.063
-173.954	-45.805	-0.078	0.038
-172.939	-163.697	0.122	0.006
-171.925	800.000	0.086	0.234
-170.910	675.055	0.168	-0.428
-169.896	25.242	-0.116	-0.094
-168.881	286.161	-0.099	0.175
-167.866	165.785	0.128	0.177
-166.852	20.261	0.068	0.054
-165.837	-200.000	-0.021	-0.390
-164.823	800.000	0.086	0.256
-163.808	162.131	0.116	-0.159
-162.793	27.782	-0.161	0.133
-161.779	-90.012	0.181	0.052
-160.764	800.000	-0.021	-0.062
-159.750	-41.997	0.114	0.057
-158.735	-158.730	0.248	-0.014
-157.720	-50.479	-0.066	0.030
-156.706	-200.000	0.015	0.183
-155.691	475.151	0.179	-0.395
-154.677	800.000	-0.027	0.102
-153.662	103.497	-0.033	-0.038
-152.647	-12.305	-0.214	-0.137
-151.633	-73.912	-0.270	0.096
-150.618	620.014	0.114	-0.280
-149.604	739.218	-0.064	0.170
-148.589	101.892	0.047	-0.054
-147.574	-84.978	0.070	0.022
-146.560	-6.839	-0.175	0.116
-145.545	16.189	0.164	0.127
-144.531	-200.000	-0.099	-0.481
-143.516	153.135	-0.184	0.247
-142.502	92.967	-0.097	0.107
-141.487	354.941	-0.044	-0.086
-140.472	20.451	-0.205	0.162
-139.458	9.530	-0.277	0.206
-138.443	7.614	-0.110	-0.080
-137.429	800.000	-0.062	0.174
-136.414	800.000	-0.063	-0.253
-135.399	580.550	0.124	0.298
-134.385	-16.551	-0.085	0.053
-133.370	634.773	-0.134	0.332
-132.356	30.456	-0.205	-0.171
-131.341	68.444	0.158	-0.158
-130.326	3.244	-0.121	0.086
-129.312	-200.000	-0.012	-0.294
-128.297	-0.734	0.136	-0.095
-127.283	-168.054	0.190	-0.007
-126.268	-200.000	-0.092	-0.441
-125.253	27.866	-0.184	0.152
-124.239	-80.267	0.049	-0.016
-123.224	-200.000	-0.006	0.268
-122.210	-64.327	0.102	0.041
-121.195	46.052	0.253	-0.230
