DTS Sentinel unit serial number:	SN413079Multiplexer serial number:	ORYXHardware model number:	OX4-SRSoftware version number:	ORYX F/W v4.00 Oryx Data Collector v3.7.2.0data status	okinstallation	princeton_trtdifferential loss correction	single-endedforward channel	channel 1reverse channel	N/Adate	2019/09/17time	15:54:36forward acquisition time	60.00reverse acquisition time	0.00gamma	496.2192k internal	0.2291k external	0.2291temperature offset calibration	0.9956default loss term (dB/km)	0.3790temperature slope calibration	1.0000multiplexer offset coefficient	1.0000multiplexer slope coefficient	1.0000fibre end	0.00T internal ref (°C)	39.52T ext. ref 1 (°C)	0.38T ext. ref 2 (°C)	38.25length (m)	temperature (°C)	Stokes	anti-Stokes-747.200	-160.227	-0.191	-0.011
-746.185	-90.781	0.166	0.049
-745.171	-200.000	0.012	0.294
-744.156	-200.000	0.088	0.547
-743.142	-4.487	-0.176	-0.124
-742.127	-157.470	-0.190	0.012
-741.112	-200.000	-0.009	-0.195
-740.098	402.126	0.159	0.343
-739.083	122.253	0.187	-0.239
-738.069	-200.000	0.006	0.036
-737.054	330.025	-0.032	-0.063
-736.039	-118.644	0.315	-0.057
-735.025	800.000	0.010	0.035
-734.010	-79.450	-0.380	0.131
-732.996	86.424	-0.295	-0.333
-731.981	-171.469	0.250	-0.009
-730.966	-88.983	-0.496	0.150
-729.952	-169.210	0.229	-0.009
-728.937	49.902	-0.149	0.144
-727.923	-200.000	0.002	0.077
-726.908	95.193	0.098	0.115
-725.894	800.000	0.053	0.186
-724.879	415.558	-0.050	0.109
-723.864	-86.338	-0.157	-0.049
-722.850	-107.113	-0.296	-0.067
-721.835	-156.728	-0.192	0.012
-720.821	800.000	0.123	-0.366
-719.806	-123.639	0.044	0.007
-718.791	624.241	-0.099	0.255
-717.777	-200.000	-0.019	0.227
-716.762	-200.000	-0.054	-0.276
-715.748	-200.000	0.073	-0.453
-714.733	34.477	-0.131	0.117
-713.718	33.788	0.135	0.120
-712.704	-200.000	0.005	-0.075
-711.689	-1.192	0.092	-0.066
-710.675	85.160	-0.092	-0.103
-709.660	-200.000	0.050	-0.314
-708.645	-161.307	-0.416	0.022
-707.631	-79.182	-0.313	-0.109
-706.616	-45.042	0.106	-0.054
-705.602	-86.909	-0.088	-0.028
-704.587	-58.489	-0.122	0.054
-703.572	-200.000	-0.036	0.160
-702.558	180.513	0.113	-0.170
-701.543	-200.000	0.006	0.132
-700.529	-82.948	0.271	0.089
-699.514	389.091	0.104	0.221
-698.499	215.267	-0.155	0.252
-697.485	671.804	-0.190	0.504
-696.470	-200.000	0.079	-0.360
-695.456	538.053	0.122	-0.296
-694.441	-23.587	-0.197	-0.121
-693.426	-73.457	-0.213	-0.079
-692.412	-200.000	-0.010	-0.097
-691.397	-200.000	0.055	-0.292
-690.383	-121.678	-0.270	-0.046
-689.368	-200.000	-0.027	-0.152
-688.354	67.393	-0.041	0.043
-687.339	-90.943	0.223	0.066
-686.324	29.595	0.198	0.172
-685.310	-79.095	0.522	-0.181
-684.295	-44.279	-0.251	0.129
-683.281	-200.000	0.010	-0.065
-682.266	154.186	-0.169	-0.237
-681.251	-78.160	-0.113	-0.040
-680.237	-32.226	-0.232	0.132
-679.222	38.787	-0.131	-0.120
-678.208	-111.862	0.142	-0.029
-677.193	77.170	0.134	0.145
-676.178	-200.000	-0.027	-0.147
-675.164	800.000	0.072	0.243
-674.149	45.451	0.220	0.208
-673.135	-96.465	-0.134	-0.036
-672.120	446.571	-0.095	-0.214
-671.105	-2.629	0.162	0.116
-670.091	90.281	0.090	-0.103
-669.076	256.943	0.147	0.258
-668.062	29.742	0.055	-0.048
-667.047	-104.551	-0.204	-0.048
-666.032	800.000	0.116	-0.401
-665.018	-139.590	-0.169	0.018
-664.003	-200.000	0.050	0.224
-662.989	-200.000	0.015	0.206
-661.974	-133.424	0.103	-0.013
-660.959	361.455	0.074	-0.152
-659.945	-85.414	-0.103	0.033
-658.930	112.277	-0.039	0.048
-657.916	-200.000	0.001	-0.395
-656.901	-140.970	0.153	0.016
-655.886	-45.648	0.237	0.120
-654.872	800.000	-0.105	-0.343
-653.857	121.566	-0.176	-0.224
-652.843	92.039	-0.237	0.272
-651.828	-144.165	-0.409	0.039
-650.814	800.000	-0.083	-0.363
-649.799	151.994	0.125	-0.174
-648.784	-71.960	-0.161	0.061
-647.770	139.032	0.061	-0.082
-646.755	-79.358	-0.207	-0.071
-645.741	239.818	-0.159	-0.270
-644.726	437.796	-0.155	-0.344
-643.711	-137.148	-0.135	0.016
-642.697	-48.658	0.400	-0.196
-641.682	-77.081	-0.151	0.054
-640.668	800.000	0.081	0.282
-639.653	800.000	-0.086	-0.300
-638.638	-90.333	-0.196	-0.058
-637.624	-200.000	-0.021	0.113
-636.609	-200.000	-0.047	0.329
-635.595	-67.075	0.163	-0.066
-634.580	-53.067	0.227	-0.106
-633.565	247.155	0.018	-0.030
-632.551	-63.123	0.122	-0.051
-631.536	339.199	-0.134	-0.267
-630.522	-159.461	-0.475	0.027
-629.507	-113.690	-0.210	0.042
-628.492	800.000	0.073	-0.235
-627.478	-90.436	0.104	0.031
-626.463	800.000	-0.039	-0.138
-625.449	52.202	-0.191	-0.186
-624.434	-66.211	-0.368	0.150
-623.419	-125.927	0.196	-0.030
-622.405	-132.885	-0.356	-0.046
-621.390	152.703	0.148	-0.206
-620.376	-118.028	-0.136	-0.025
-619.361	74.127	-0.126	0.134
-618.346	138.040	-0.157	0.209
-617.332	-110.676	0.080	-0.017
-616.317	42.596	-0.257	-0.238
-615.303	650.710	0.106	-0.276
-614.288	195.869	0.239	0.370
-613.273	15.396	-0.158	0.126
-612.259	-143.891	0.202	-0.019
-611.244	-8.151	0.103	-0.071
-610.230	18.758	0.132	0.108
-609.215	-86.255	0.079	-0.025
-608.201	12.385	-0.189	0.148
-607.186	-32.279	0.188	-0.107
-606.171	63.038	0.072	-0.074
-605.157	93.392	-0.152	-0.176
-604.142	800.000	0.054	0.188
-603.128	-50.502	-0.164	-0.079
-602.113	800.000	0.086	-0.364
-601.098	176.256	0.199	-0.294
-600.084	-161.607	-0.269	-0.014
-599.069	120.273	-0.137	0.173
-598.055	-181.234	0.143	-0.003
-597.040	606.300	0.098	-0.249
-596.025	-93.260	0.129	0.036
-595.011	-89.493	0.152	-0.046
-593.996	114.563	-0.234	-0.290
-592.982	-200.000	-0.040	0.328
-591.967	227.623	-0.045	-0.075
-590.952	-88.977	0.292	-0.088
-589.938	-149.538	-0.209	-0.017
-588.923	-139.802	-0.214	-0.023
-587.909	424.293	0.148	-0.323
-586.894	-12.790	0.055	0.036
-585.879	-74.988	-0.179	-0.065
-584.865	-69.897	-0.274	-0.106
-583.850	53.706	-0.012	-0.012
-582.836	800.000	0.060	0.230
-581.821	-79.587	-0.062	0.021
-580.806	42.315	-0.219	0.202
-579.792	263.962	-0.077	-0.137
-578.777	142.586	-0.146	-0.197
-577.763	-117.246	-0.304	-0.056
-576.748	-200.000	-0.037	0.310
-575.733	800.000	0.169	-0.588
-574.719	152.190	-0.236	-0.327
-573.704	27.541	0.135	-0.116
-572.690	46.378	-0.061	-0.058
-571.675	59.292	-0.125	0.126
-570.661	-129.845	-0.312	0.044
-569.646	-128.744	0.101	0.014
-568.631	386.615	0.054	0.114
-567.617	-84.691	0.062	-0.020
-566.602	-200.000	-0.045	0.267
-565.588	800.000	0.073	-0.238
-564.573	-22.474	-0.098	-0.060
-563.558	81.925	0.093	-0.103
-562.544	3.328	-0.165	0.122
-561.529	-19.466	-0.169	0.107
-560.515	-14.901	0.447	-0.292
-559.500	-71.355	-0.224	0.085
-558.485	158.618	-0.101	-0.143
-557.471	-141.269	-0.390	0.040
-556.456	-166.776	-0.392	0.016
-555.442	-200.000	-0.012	0.385
-554.427	547.955	-0.068	-0.165
-553.412	68.691	0.024	0.025
-552.398	-21.056	0.079	0.049
-551.383	-174.922	0.107	0.003
-550.369	-11.704	-0.174	-0.116
-549.354	-95.463	0.032	-0.009
-548.339	-110.523	0.167	0.035
-547.325	278.515	-0.089	0.162
-546.310	653.255	-0.082	0.213
-545.296	-107.965	-0.243	0.054
-544.281	-1.665	-0.201	0.144
-543.266	199.398	-0.095	0.148
-542.252	-112.333	0.194	-0.040
-541.237	82.877	-0.118	-0.131
-540.223	13.288	0.034	0.027
-539.208	-85.780	-0.132	-0.042
-538.193	-200.000	-0.019	0.092
-537.179	1.711	0.226	-0.165
-536.164	129.686	-0.152	-0.197
-535.150	15.292	-0.485	-0.386
-534.135	-200.000	-0.031	0.199
-533.121	-84.096	0.378	-0.122
-532.106	-200.000	-0.035	0.278
-531.091	737.629	-0.076	0.207
-530.077	406.396	0.045	0.096
-529.062	717.178	0.016	-0.043
-528.048	-200.000	-0.055	0.371
-527.033	200.078	-0.197	0.308
-526.018	-12.972	-0.159	-0.105
-525.004	-152.071	-0.308	-0.023
-523.989	714.739	-0.028	-0.074
-522.975	208.531	0.147	0.233
-521.960	16.544	-0.145	-0.116
-520.945	-78.278	0.478	-0.166
-519.931	800.000	0.026	-0.086
-518.916	-161.976	-0.398	-0.020
-517.902	-39.718	-0.069	-0.037
-516.887	86.625	0.103	0.115
-515.872	787.299	-0.013	-0.037
-514.858	-156.944	-0.192	-0.012
-513.843	52.463	-0.081	0.078
-512.829	-21.894	0.178	-0.110
-511.814	-146.519	0.313	-0.028
-510.799	-200.000	0.064	0.341
-509.785	-70.241	-0.225	0.087
-508.770	339.560	0.220	-0.435
-507.756	-200.000	0.029	0.216
-506.741	-95.254	-0.074	-0.020
-505.726	-112.640	0.407	0.082
-504.712	-70.575	0.168	0.065
-503.697	-71.908	0.471	0.178
-502.683	-124.351	-0.309	0.049
-501.668	-28.308	-0.052	0.030
-500.653	800.000	0.114	0.357
-499.639	-64.046	-0.149	0.062
-498.624	-200.000	-0.019	-0.188
-497.610	-104.291	-0.147	-0.035
-496.595	-12.776	0.294	0.195
-495.581	-75.462	-0.254	-0.092
-494.566	11.372	0.122	0.095
-493.551	-3.862	0.287	-0.202
-492.537	11.826	-0.028	-0.022
-491.522	251.737	-0.057	0.099
-490.508	-93.271	0.130	-0.037
-489.493	-169.710	-0.084	0.003
-488.478	-71.202	0.117	-0.044
-487.464	282.343	-0.059	-0.107
-486.449	-182.821	0.346	0.006
-485.435	41.886	-0.179	-0.165
-484.420	413.570	-0.116	-0.250
-483.405	-3.150	-0.024	-0.017
-482.391	-200.000	0.009	0.165
-481.376	123.366	0.134	0.170
-480.362	255.001	-0.094	-0.163
-479.347	88.711	0.038	0.043
-478.332	-181.064	-0.144	0.003
-477.318	-111.325	0.184	0.038
-476.303	397.300	-0.099	-0.210
-475.289	800.000	0.064	-0.219
-474.274	-146.142	0.061	-0.005
-473.259	27.989	0.051	0.044
-472.245	-31.151	0.043	0.025
-471.230	800.000	-0.100	0.344
-470.216	-154.771	-0.078	-0.005
-469.201	-10.708	0.224	0.150
-468.186	-200.000	-0.016	0.267
-467.172	-160.692	0.268	-0.014
-466.157	210.482	-0.252	0.401
-465.143	667.574	-0.145	0.379
-464.128	-81.376	0.015	0.005
-463.113	-97.444	-0.145	-0.038
-462.099	-2.507	0.144	-0.102
-461.084	-145.968	-0.206	0.019
-460.070	50.087	0.114	0.109
-459.055	195.201	0.126	-0.194
-458.040	800.000	0.076	0.249
-457.026	145.964	-0.064	-0.086
-456.011	56.113	0.044	0.043
-454.997	800.000	0.013	-0.051
-453.982	-200.000	0.011	0.053
-452.968	706.604	-0.041	0.109
-451.953	-78.193	-0.226	0.078
-450.938	-152.609	0.108	0.008
-449.924	-36.283	-0.093	-0.051
-448.909	623.443	0.055	0.140
-447.895	800.000	0.037	0.111
-446.880	-188.821	-0.165	0.002
-445.865	-110.030	0.255	-0.054
-444.851	184.158	-0.120	-0.179
-443.836	359.186	-0.105	0.211
-442.822	-200.000	-0.035	0.278
-441.807	-122.547	0.193	0.032
-440.792	11.487	-0.028	0.022
-439.778	-1.141	-0.394	0.282
-438.763	-133.940	0.271	-0.034
-437.749	-170.710	-0.274	-0.010
-436.734	-144.632	-0.241	-0.022
-435.719	534.403	0.060	-0.144
-434.705	-70.045	0.077	-0.030
-433.690	-119.552	0.482	-0.085
-432.676	-200.000	0.173	0.000
-431.661	-106.770	-0.099	-0.022
-430.646	77.181	-0.101	0.108
-429.632	-62.064	0.079	-0.033
-428.617	-0.810	-0.267	-0.192
-427.603	-29.756	0.103	0.059
-426.588	-200.000	-0.014	0.155
-425.573	-87.396	0.532	-0.163
-424.559	-135.992	0.060	-0.007
-423.544	800.000	-0.017	0.063
-422.530	224.348	-0.177	0.290
-421.515	800.000	0.110	0.316
-420.500	109.701	-0.063	-0.076
-419.486	-200.000	-0.009	0.053
-418.471	-45.766	-0.077	0.039
-417.457	-200.000	-0.009	0.065
-416.442	-147.821	0.261	0.022
-415.428	49.216	0.302	-0.287
-414.413	143.817	-0.052	0.070
-413.398	-200.000	-0.029	-0.223
-412.384	617.848	-0.070	-0.178
-411.369	-200.000	-0.041	0.257
-410.355	172.323	-0.170	0.247
-409.340	-52.731	0.182	-0.085
-408.325	39.671	0.045	0.041
-407.311	-92.518	-0.180	-0.051
-406.296	-115.926	-0.237	-0.045
-405.282	-200.000	-0.114	-0.536
-404.267	-72.318	-0.050	-0.019
-403.252	800.000	0.084	0.291
-402.238	-200.000	0.014	0.125
-401.223	-93.112	-0.330	-0.093
-400.209	-111.481	0.214	0.044
-399.194	6.908	-0.247	0.186
-398.179	-200.000	-0.001	0.066
-397.165	-200.000	0.064	0.374
-396.150	-200.000	-0.012	0.361
-395.136	-200.000	0.011	-0.136
-394.121	-54.853	0.308	0.140
-393.106	800.000	-0.053	0.154
-392.092	-18.753	-0.179	0.113
-391.077	-200.000	0.047	0.232
-390.063	332.603	0.187	0.364
-389.048	219.048	0.038	0.061
-388.033	-152.038	-0.167	0.012
-387.019	8.670	-0.175	-0.133
-386.004	57.875	0.072	-0.071
-384.990	-200.000	0.019	-0.259
-383.975	-49.856	-0.221	0.106
-382.960	-140.401	0.173	0.018
-381.946	-37.279	-0.132	0.071
-380.931	-163.881	0.011	-0.001
-379.917	-83.178	0.084	0.027
-378.902	-128.060	0.129	-0.019
-377.888	128.965	-0.124	0.160
-376.873	-119.231	-0.098	-0.017
-375.858	-105.596	0.262	-0.060
-374.844	800.000	0.084	0.241
-373.829	237.141	0.151	0.252
-372.815	-103.023	-0.134	0.032
-371.800	470.969	0.047	0.107
-370.785	800.000	0.035	-0.103
-369.771	-200.000	-0.007	0.104
-368.756	-95.150	0.092	-0.025
-367.742	-63.302	-0.355	-0.147
-366.727	-200.000	0.004	-0.173
-365.712	800.000	0.061	-0.184
-364.698	143.627	-0.211	0.283
-363.683	-68.622	0.521	-0.203
-362.669	-200.000	0.014	-0.106
-361.654	-117.229	-0.179	0.033
-360.639	69.247	-0.132	0.137
-359.625	800.000	-0.074	0.211
-358.610	-91.251	0.195	-0.056
-357.596	460.861	-0.062	0.139
-356.581	376.500	0.106	-0.219
-355.566	800.000	0.151	-0.422
-354.552	34.169	0.054	0.048
-353.537	68.358	0.159	0.164
-352.523	533.510	-0.083	-0.199
-351.508	68.975	0.216	-0.224
-350.493	-96.628	-0.242	-0.064
-349.479	378.243	0.067	-0.138
-348.464	-70.879	0.273	0.104
-347.450	-200.000	0.003	0.028
-346.435	-107.773	0.182	0.040
-345.420	-101.359	0.163	0.040
-344.406	-3.979	-0.058	-0.040
-343.391	-200.000	-0.022	-0.151
-342.377	-109.795	0.241	-0.051
-341.362	800.000	0.013	0.053
-340.348	477.345	0.021	-0.048
-339.333	-19.030	0.166	-0.104
-338.318	-81.825	0.180	0.059
-337.304	-200.000	-0.027	0.120
-336.289	451.077	0.081	0.181
-335.275	334.309	0.047	0.091
-334.260	-127.298	-0.390	-0.057
-333.245	220.466	-0.170	0.274
-332.231	165.266	0.131	0.186
-331.216	-200.000	-0.011	-0.076
-330.202	800.000	-0.085	0.266
-329.187	800.000	-0.091	0.376
-328.172	-200.000	0.037	-0.220
-327.158	-114.629	0.224	0.043
-326.143	-120.149	0.183	-0.032
-325.129	165.649	-0.217	0.309
-324.114	548.857	-0.059	0.142
-323.099	-104.352	-0.011	0.003
-322.085	564.278	-0.058	0.142
-321.070	-169.447	0.259	-0.010
-320.056	-64.170	-0.278	-0.114
-319.041	140.375	0.263	0.350
-318.026	284.719	-0.051	0.092
-317.012	0.460	-0.056	-0.041
-315.997	48.607	0.178	-0.168
-314.983	-137.387	0.214	-0.024
-313.968	-200.000	0.015	-0.387
-312.953	217.711	0.153	-0.246
-311.939	-200.000	0.041	-0.391
-310.924	-93.516	0.254	0.071
-309.910	152.963	0.103	0.142
-308.895	-90.805	-0.164	-0.048
-307.880	-200.000	0.052	-0.264
-306.866	66.525	-0.069	0.071
-305.851	-27.609	-0.174	-0.101
-304.837	545.198	-0.087	-0.210
-303.822	-200.000	0.030	0.246
-302.807	-200.000	0.051	0.277
-301.793	-200.000	0.020	-0.110
-300.778	153.674	-0.112	-0.154
-299.764	101.046	-0.053	-0.062
-298.749	-200.000	0.029	-0.386
-297.735	20.684	0.103	-0.084
-296.720	80.104	-0.090	0.098
-295.705	-148.188	-0.332	0.028
-294.691	-200.000	0.004	0.063
-293.676	-172.876	-0.306	-0.010
-292.662	454.306	0.163	-0.364
-291.647	-84.460	-0.141	0.045
-290.632	-5.214	-0.203	0.141
-289.618	-200.000	0.030	0.244
-288.603	204.527	0.079	0.123
-287.589	-91.956	-0.269	-0.077
-286.574	222.865	-0.217	0.352
-285.559	8.569	-0.225	0.171
-284.545	-200.000	0.030	-0.288
-283.530	135.980	0.149	0.196
-282.516	-200.000	-0.042	0.247
-281.501	-200.000	0.040	0.340
-280.486	-10.720	0.273	-0.181
-279.472	-67.739	0.142	-0.056
-278.457	108.507	-0.191	-0.230
-277.443	-24.324	0.094	-0.056
-276.428	168.550	0.102	0.146
-275.413	273.228	-0.048	0.085
-274.399	-200.000	-0.019	-0.190
-273.384	67.907	0.290	-0.298
-272.370	-29.214	0.371	0.213
-271.355	-68.320	0.251	-0.098
-270.340	307.668	-0.170	0.318
-269.326	-88.060	0.479	-0.144
-268.311	-186.847	-0.067	-0.001
-267.297	-200.000	-0.001	0.039
-266.282	-162.766	0.129	0.006
-265.267	-29.402	0.100	0.057
-264.253	-36.855	0.185	-0.100
-263.238	78.757	0.043	0.047
-262.224	22.248	-0.184	-0.151
-261.209	-139.497	0.277	-0.030
-260.195	-85.330	0.213	-0.067
-259.180	-200.000	0.014	-0.134
-258.165	-27.449	-0.144	-0.084
-257.151	-41.659	0.186	-0.096
-256.136	85.930	-0.212	0.234
-255.122	393.485	-0.178	-0.373
-254.107	560.750	0.049	0.119
-253.092	-6.169	0.263	-0.180
-252.078	800.000	-0.061	0.224
-251.063	-134.919	-0.370	0.045
-250.049	-40.969	0.037	-0.019
-249.034	593.260	-0.129	0.321
-248.019	-6.008	-0.109	-0.075
-247.005	53.947	0.256	0.247
-245.990	-200.000	0.014	-0.252
-244.976	-113.756	0.126	0.025
-243.961	105.291	0.218	0.259
-242.946	12.588	-0.300	-0.232
-241.932	-92.160	0.297	0.084
-240.917	-140.145	-0.305	0.032
-239.903	24.700	-0.217	-0.180
-238.888	-9.809	0.262	0.175
-237.873	-200.000	0.011	-0.137
-236.859	18.611	0.118	0.094
-235.844	401.178	0.093	-0.196
-234.830	89.762	0.154	0.172
-233.815	-200.000	-0.063	-0.349
-232.800	-83.176	0.063	-0.020
-231.786	-10.096	-0.263	-0.175
-230.771	-90.707	0.172	-0.050
-229.757	-113.321	0.131	0.026
-228.742	-33.223	-0.009	-0.005
-227.727	-10.292	0.199	0.133
-226.713	-127.111	0.264	-0.039
-225.698	-43.622	-0.229	0.116
-224.684	41.645	-0.104	-0.094
-223.669	-74.000	0.188	-0.068
-222.655	-186.230	-0.190	0.003
-221.640	800.000	0.094	-0.270
-220.625	-10.789	-0.106	0.070
-219.611	67.836	-0.072	-0.074
-218.596	-68.872	-0.229	0.089
-217.582	800.000	0.086	-0.239
-216.567	-119.996	0.275	-0.047
-215.552	96.621	-0.038	-0.044
-214.538	103.021	-0.257	0.302
-213.523	-200.000	0.010	-0.123
-212.509	74.479	0.226	-0.239
-211.494	87.231	-0.036	-0.040
-210.479	378.263	0.079	0.162
-209.465	-77.202	0.203	-0.071
-208.450	-91.126	-0.120	0.034
-207.436	-116.160	-0.311	-0.058
-206.421	82.047	-0.201	0.219
-205.406	-200.000	0.044	-0.313
-204.392	-137.340	0.181	-0.021
-203.377	-76.522	-0.192	-0.068
-202.363	800.000	-0.131	0.363
-201.348	-200.000	-0.036	-0.194
-200.333	-100.942	-0.104	0.026
-199.319	243.857	0.047	-0.078
-198.304	-36.995	0.290	-0.156
-197.290	14.232	-0.086	0.067
-196.275	142.664	0.045	-0.059
-195.260	-14.982	-0.046	0.030
-194.246	-200.000	0.042	0.392
-193.231	-200.000	0.018	-0.263
-192.217	163.598	0.112	-0.158
-191.202	693.028	-0.063	0.166
-190.187	-51.866	0.210	0.098
-189.173	-172.592	0.288	-0.009
-188.158	178.868	-0.123	-0.180
-187.144	-104.354	-0.338	0.078
-186.129	-107.843	-0.178	-0.039
-185.114	258.481	-0.019	0.033
-184.100	81.810	-0.076	-0.082
-183.085	800.000	-0.084	0.267
-182.071	-125.700	-0.244	0.037
-181.056	-98.207	0.244	-0.063
-180.042	368.028	-0.044	0.089
-179.027	-65.042	0.318	-0.128
-178.012	1.509	0.064	0.046
-176.998	-200.000	0.016	0.090
-175.983	71.278	0.140	-0.146
-174.969	408.674	0.193	-0.410
-173.954	99.400	0.111	-0.129
-172.939	627.786	0.003	-0.006
-171.925	40.735	0.223	0.201
-170.910	86.295	0.180	-0.199
-169.896	-180.933	0.203	0.004
-168.881	11.225	0.212	-0.162
-167.866	800.000	0.089	-0.373
-166.852	-71.122	-0.374	0.141
-165.837	-200.000	-0.011	0.114
-164.823	286.944	-0.092	-0.166
-163.808	-45.349	-0.228	-0.113
-162.793	488.079	-0.064	-0.146
-161.779	266.024	0.190	-0.332
-160.764	65.930	-0.158	0.161
-159.750	-148.449	-0.098	-0.008
-158.735	-87.902	-0.167	0.050
-157.720	-1.098	0.233	-0.165
-156.706	92.895	0.166	-0.187
-155.691	800.000	-0.022	0.080
-154.677	119.138	0.208	0.257
-153.662	22.045	-0.090	-0.073
-152.647	652.278	0.080	0.204
-151.633	800.000	-0.088	0.276
-150.618	48.350	0.160	0.150
-149.604	-165.107	0.370	0.016
-148.589	-68.653	-0.177	0.068
-147.574	-200.000	0.031	-0.408
-146.560	-200.000	0.036	0.227
-145.545	126.671	0.075	-0.095
-144.531	-200.000	-0.046	0.448
-143.516	36.108	-0.154	0.135
-142.502	-132.576	-0.508	-0.065
-141.487	-67.469	0.149	-0.059
-140.472	800.000	0.104	-0.313
-139.458	-200.000	-0.031	0.180
-138.443	170.028	-0.098	0.140
-137.429	-65.014	-0.191	-0.077
-136.414	-200.000	0.032	-0.148
-135.399	-38.704	-0.160	-0.084
-134.385	800.000	0.068	0.246
-133.370	800.000	-0.034	0.111
-132.356	-135.650	-0.289	0.034
-131.341	138.093	0.085	0.111
-130.326	-80.027	0.115	-0.038
-129.312	-200.000	0.005	-0.045
-128.297	36.643	0.508	0.448
-127.283	19.929	0.232	0.187
-126.268	800.000	0.040	-0.134
-125.253	-24.035	-0.146	0.087
-124.239	262.584	-0.111	0.192
-123.224	-200.000	0.009	0.141
-122.210	-172.294	0.206	-0.007
