DTS Sentinel unit serial number:	SN413079Multiplexer serial number:	ORYXHardware model number:	OX4-SRSoftware version number:	ORYX F/W v4.00 Oryx Data Collector v3.7.2.0data status	okinstallation	princeton_trtdifferential loss correction	single-endedforward channel	channel 1reverse channel	N/Adate	2019/09/17time	10:26:35forward acquisition time	60.00reverse acquisition time	0.00gamma	496.2192k internal	0.2323k external	0.2323temperature offset calibration	0.9960default loss term (dB/km)	0.3790temperature slope calibration	1.0000multiplexer offset coefficient	1.0000multiplexer slope coefficient	1.0000fibre end	0.00T internal ref (°C)	29.94T ext. ref 1 (°C)	0.17T ext. ref 2 (°C)	25.52length (m)	temperature (°C)	Stokes	anti-Stokes-747.200	177.394	-0.307	0.451
-746.185	-105.397	-0.510	-0.117
-745.171	-118.319	-0.108	0.019
-744.156	800.000	-0.019	0.071
-743.142	11.138	0.241	0.186
-742.127	-36.615	0.196	-0.107
-741.112	-200.000	-0.021	-0.184
-740.098	526.380	-0.127	0.302
-739.083	-88.977	0.124	-0.037
-738.069	-24.302	-0.282	-0.170
-737.054	-33.727	0.099	-0.055
-736.039	-200.000	0.077	-0.391
-735.025	-6.488	0.195	-0.134
-734.010	-200.000	0.032	-0.358
-732.996	-200.000	0.045	-0.425
-731.981	401.929	0.135	-0.287
-730.966	79.501	0.323	-0.350
-729.952	30.844	-0.479	-0.414
-728.937	0.528	-0.078	0.056
-727.923	-99.803	-0.158	-0.040
-726.908	81.777	-0.263	0.288
-725.894	-51.301	-0.090	0.042
-724.879	-185.274	-0.204	0.003
-723.864	-1.554	-0.088	-0.062
-722.850	800.000	-0.075	-0.245
-721.835	-78.243	-0.342	-0.119
-720.821	-98.002	0.108	0.028
-719.806	-200.000	-0.003	-0.022
-718.791	-79.678	0.194	-0.066
-717.777	69.317	0.456	0.473
-716.762	-16.438	0.324	0.207
-715.748	157.947	-0.296	-0.414
-714.733	59.271	-0.092	0.091
-713.718	161.309	-0.286	-0.403
-712.704	-129.259	0.199	-0.028
-711.689	-46.043	0.358	0.178
-710.675	-53.159	0.068	0.031
-709.660	-185.923	-0.075	0.001
-708.645	-90.499	0.296	0.087
-707.631	-157.415	-0.300	-0.018
-706.616	45.539	0.155	-0.144
-705.602	-162.545	0.183	-0.009
-704.587	-200.000	-0.015	-0.119
-703.572	-200.000	0.095	-0.000
-702.558	-200.000	0.012	0.267
-701.543	14.669	-0.128	-0.100
-700.529	233.253	0.205	0.340
-699.514	-200.000	-0.045	-0.346
-698.499	-2.327	-0.468	0.331
-697.485	-8.332	0.082	0.056
-696.470	-45.680	-0.264	-0.132
-695.456	-112.828	0.106	-0.021
-694.441	-116.599	0.299	0.055
-693.426	-99.487	0.045	-0.011
-692.412	150.323	0.131	-0.180
-691.397	-61.443	0.212	0.090
-690.383	-200.000	0.064	0.427
-689.368	13.255	0.276	-0.216
-688.354	-89.260	0.238	-0.071
-687.339	-104.903	-0.299	0.069
-686.324	-88.585	-0.230	0.069
-685.310	151.325	0.128	-0.176
-684.295	-200.000	-0.352	-0.002
-683.281	429.206	0.060	-0.130
-682.266	142.714	0.080	0.107
-681.251	-200.000	-0.015	0.243
-680.237	-60.149	-0.238	0.102
-679.222	-25.377	0.206	0.123
-678.208	-20.726	0.065	-0.040
-677.193	-31.021	0.445	-0.253
-676.178	775.296	0.061	-0.169
-675.164	8.949	-0.103	0.078
-674.149	-115.955	-0.233	-0.044
-673.135	-200.000	-0.013	-0.310
-672.120	-200.000	-0.073	-0.616
-671.105	-84.399	0.416	-0.133
-670.091	-74.445	-0.148	-0.054
-669.076	41.565	-0.253	-0.230
-668.062	800.000	0.057	0.250
-667.047	639.216	-0.082	0.210
-666.032	-200.000	-0.006	0.095
-665.018	-12.753	-0.035	0.023
-664.003	-110.893	0.288	0.060
-662.989	-53.518	0.076	0.035
-661.974	-89.566	0.297	-0.088
-660.959	27.330	0.260	-0.220
-659.945	574.365	0.101	-0.247
-658.930	-44.165	-0.077	-0.039
-657.916	20.752	0.143	0.117
-656.901	-46.892	-0.238	-0.117
-655.886	214.116	-0.089	0.142
-654.872	258.612	-0.061	0.106
-653.857	-130.529	-0.137	0.019
-652.843	106.336	-0.153	0.182
-651.828	800.000	-0.167	-0.471
-650.814	-31.783	-0.222	0.125
-649.799	14.205	0.256	-0.200
-648.784	92.930	0.253	0.287
-647.770	-200.000	-0.028	0.273
-646.755	-159.243	-0.101	0.006
-645.741	-139.399	0.404	-0.044
-644.726	265.738	-0.179	-0.315
-643.711	-200.000	-0.010	-0.468
-642.697	-95.159	0.107	0.029
-641.682	-131.471	0.239	0.032
-640.668	-88.512	-0.334	-0.100
-639.653	800.000	-0.069	-0.236
-638.638	-200.000	0.008	0.128
-637.624	253.347	-0.031	-0.053
-636.609	163.585	0.188	0.265
-635.595	699.936	0.047	-0.125
-634.580	-87.144	0.229	-0.070
-633.565	-20.715	0.137	0.085
-632.551	104.829	-0.071	0.084
-631.536	800.000	-0.009	-0.025
-630.522	-84.114	0.063	-0.020
-629.507	-73.227	-0.366	-0.135
-628.492	800.000	-0.033	-0.141
-627.478	93.508	-0.189	0.215
-626.463	-200.000	-0.046	-0.258
-625.449	-31.947	-0.172	0.097
-624.434	116.502	-0.164	-0.202
-623.419	-172.810	0.173	0.005
-622.405	-200.000	-0.004	-0.041
-621.390	-54.932	-0.115	-0.052
-620.376	287.127	-0.060	0.108
-619.361	73.498	-0.051	-0.054
-618.346	-200.000	-0.025	-0.129
-617.332	-200.000	-0.008	0.122
-616.317	-55.117	0.041	-0.019
-615.303	183.810	-0.053	0.078
-614.288	-200.000	-0.032	0.236
-613.273	-200.000	0.008	0.134
-612.259	-124.830	-0.210	0.033
-611.244	-102.754	-0.277	-0.066
-610.230	289.536	0.055	-0.099
-609.215	42.821	0.203	0.186
-608.201	800.000	0.061	-0.170
-607.186	520.119	0.077	-0.180
-606.171	482.434	0.147	-0.335
-605.157	452.456	0.150	-0.333
-604.142	800.000	0.058	-0.188
-603.128	-200.000	0.025	0.174
-602.113	268.805	0.019	0.034
-601.098	634.591	-0.031	-0.079
-600.084	800.000	0.074	-0.293
-599.069	160.574	0.107	0.150
-598.055	7.731	-0.227	0.171
-597.040	-147.423	0.428	-0.036
-596.025	-65.220	-0.190	-0.077
-595.011	-200.000	-0.051	0.315
-593.996	-75.636	0.054	0.019
-592.982	123.670	-0.263	-0.331
-591.967	800.000	-0.090	0.349
-590.952	-200.000	0.016	0.378
-589.938	257.693	-0.253	-0.437
-588.923	-200.000	0.028	-0.270
-587.909	-44.695	0.126	0.063
-586.894	-165.296	-0.428	0.019
-585.879	525.770	-0.056	0.132
-584.865	119.053	0.036	-0.045
-583.850	-19.645	-0.091	-0.057
-582.836	469.073	0.089	0.200
-581.821	58.022	-0.130	-0.128
-580.806	23.487	-0.016	0.013
-579.792	-200.000	0.011	0.101
-578.777	206.033	-0.074	0.115
-577.763	-200.000	-0.003	0.458
-576.748	68.164	0.165	-0.169
-575.733	-192.311	-0.495	0.005
-574.719	800.000	0.023	0.083
-573.704	180.564	0.123	0.181
-572.690	225.907	-0.092	0.150
-571.675	-200.000	0.042	0.381
-570.661	-43.683	-0.418	0.211
-569.646	681.703	0.122	-0.320
-568.631	-141.138	-0.076	-0.008
-567.617	-79.276	-0.262	-0.089
-566.602	-108.327	0.451	-0.098
-565.588	104.984	-0.230	0.272
-564.573	-125.354	0.227	0.035
-563.558	-151.012	0.262	-0.020
-562.544	289.529	-0.147	-0.268
-561.529	-200.000	0.007	-0.114
-560.515	86.171	0.179	-0.197
-559.500	-127.458	0.115	-0.017
-558.485	-127.908	0.450	0.065
-557.471	44.070	0.171	-0.157
-556.456	-200.000	0.003	-0.131
-555.442	800.000	0.026	-0.111
-554.427	800.000	-0.048	0.201
-553.412	-46.143	-0.349	0.172
-552.398	-107.022	-0.173	0.038
-551.383	-200.000	0.050	0.308
-550.369	147.307	0.036	0.048
-549.354	-53.856	-0.258	0.118
-548.339	-106.439	0.267	-0.060
-547.325	-200.000	0.021	0.328
-546.310	171.205	-0.230	-0.331
-545.296	8.496	0.393	-0.296
-544.281	-26.868	0.233	0.136
-543.266	-200.000	0.047	0.360
-542.252	-52.194	0.094	0.044
-541.237	-200.000	-0.023	0.280
-540.223	-200.000	-0.018	-0.319
-539.208	-200.000	-0.005	0.064
-538.193	-140.260	-0.132	0.014
-537.179	6.958	-0.141	0.105
-536.164	-200.000	0.020	0.132
-535.150	-200.000	0.028	0.270
-534.135	39.748	-0.061	-0.055
-533.121	134.592	0.176	0.229
-532.106	149.253	-0.136	-0.184
-531.091	661.221	-0.124	0.319
-530.077	-74.685	-0.414	0.149
-529.062	-88.418	-0.273	-0.082
-528.048	-71.710	-0.097	0.036
-527.033	185.132	-0.165	0.245
-526.018	694.403	0.021	-0.055
-525.004	-34.882	-0.182	-0.099
-523.989	242.761	-0.056	-0.094
-522.975	-109.465	0.506	0.107
-521.960	273.099	0.039	-0.068
-520.945	-54.176	0.329	-0.149
-519.931	-200.000	-0.028	0.185
-518.916	800.000	0.067	-0.223
-517.902	-143.907	0.163	-0.015
-516.887	131.959	-0.120	-0.155
-515.872	-176.057	0.137	0.004
-514.858	-27.298	0.190	0.111
-513.843	-95.754	-0.261	0.070
-512.829	-3.169	-0.243	-0.170
-511.814	-32.131	-0.222	-0.124
-510.799	-3.893	-0.150	0.104
-509.785	327.058	0.030	0.057
-508.770	-200.000	0.005	-0.059
-507.756	112.886	-0.103	0.125
-506.741	-200.000	-0.010	-0.135
-505.726	42.899	-0.029	0.026
-504.712	-200.000	0.006	-0.104
-503.697	800.000	0.029	0.083
-502.683	-106.924	0.402	0.089
-501.668	-200.000	-0.007	0.184
-500.653	-200.000	0.027	0.239
-499.639	74.295	0.185	-0.195
-498.624	-44.942	-0.234	-0.117
-497.610	31.382	-0.073	0.063
-496.595	-86.748	-0.187	0.057
-495.581	-187.932	0.245	0.003
-494.566	-112.601	0.395	0.079
-493.551	-48.351	-0.089	0.043
-492.537	-80.387	-0.274	0.092
-491.522	-140.033	0.137	0.014
-490.508	-200.000	-0.029	0.159
-489.493	-25.189	0.259	0.153
-488.478	-200.000	-0.004	-0.242
-487.464	194.597	0.111	0.169
-486.449	-50.487	-0.313	0.148
-485.435	230.774	0.106	-0.174
-484.420	-200.000	-0.053	0.303
-483.405	-146.068	0.227	-0.020
-482.391	-100.838	0.362	0.089
-481.376	800.000	0.023	0.074
-480.362	-100.960	-0.203	0.050
-479.347	-200.000	-0.117	-0.000
-478.332	-97.286	-0.143	0.037
-477.318	104.357	-0.059	0.069
-476.303	-85.426	0.027	-0.009
-475.289	13.743	-0.053	0.041
-474.274	-89.565	0.161	-0.047
-473.259	-200.000	0.072	-0.357
-472.245	175.999	0.130	0.188
-471.230	-101.640	0.124	-0.030
-470.216	-200.000	-0.010	-0.193
-469.201	800.000	0.151	-0.466
-468.186	-32.901	0.095	-0.053
-467.172	-93.202	-0.375	-0.104
-466.157	800.000	0.034	-0.141
-465.143	446.412	0.105	-0.231
-464.128	120.403	-0.128	-0.159
-463.113	153.827	-0.137	-0.188
-462.099	2.711	0.285	0.206
-461.084	-46.486	0.110	0.054
-460.070	30.230	0.134	-0.114
-459.055	-200.000	0.063	-0.311
-458.040	-9.599	-0.298	0.198
-457.026	-200.000	-0.028	0.143
-456.011	-56.923	-0.066	0.029
-454.997	800.000	0.084	-0.265
-453.982	-200.000	0.042	0.196
-452.968	47.244	0.222	0.206
-451.953	-200.000	0.019	-0.119
-450.938	-35.571	-0.189	0.102
-449.924	135.210	-0.176	0.228
-448.909	171.704	-0.176	0.253
-447.895	104.614	0.075	0.089
-446.880	-90.172	-0.273	0.079
-445.865	800.000	0.060	0.212
-444.851	-86.120	0.115	-0.035
-443.836	123.084	0.225	0.281
-442.822	97.722	0.007	-0.008
-441.807	21.365	0.153	0.124
-440.792	-150.763	0.318	0.024
-439.778	-128.913	0.255	-0.036
-438.763	359.241	0.153	-0.305
-437.749	342.136	-0.132	-0.257
-436.734	151.524	0.106	-0.145
-435.719	800.000	-0.105	0.380
-434.705	-126.310	-0.074	0.011
-433.690	800.000	-0.086	0.367
-432.676	364.928	-0.241	-0.484
-431.661	800.000	-0.053	0.209
-430.646	493.976	0.073	-0.167
-429.632	25.999	-0.258	-0.215
-428.617	90.526	-0.092	-0.102
-427.603	-25.862	0.140	-0.082
-426.588	-146.429	-0.045	-0.004
-425.573	800.000	0.154	-0.450
-424.559	-11.101	0.173	-0.114
-423.544	-59.126	0.248	0.106
-422.530	329.619	0.068	0.131
-421.515	-72.670	0.239	0.088
-420.500	108.631	-0.047	-0.056
-419.486	-151.656	0.300	0.022
-418.471	1.152	0.134	0.096
-417.457	-44.182	0.205	-0.103
-416.442	288.859	-0.069	0.124
-415.428	-200.000	-0.033	-0.157
-414.413	-74.554	-0.145	-0.052
-413.398	62.446	-0.076	-0.075
-412.384	-85.227	-0.114	0.036
-411.369	800.000	0.064	0.234
-410.355	-136.010	-0.212	-0.025
-409.340	688.189	-0.122	0.319
-408.325	-112.578	-0.381	-0.076
-407.311	-200.000	-0.073	-0.361
-406.296	784.984	-0.042	0.114
-405.282	-200.000	-0.026	-0.157
-404.267	-38.554	0.136	-0.072
-403.252	-200.000	0.023	0.177
-402.238	-35.636	-0.077	-0.041
-401.223	-70.576	-0.131	-0.050
-400.209	-200.000	-0.062	-0.309
-399.194	-200.000	-0.033	-0.254
-398.179	-3.288	-0.231	-0.160
-397.165	-74.246	0.175	-0.063
-396.150	131.141	-0.211	-0.270
-395.136	606.431	-0.052	0.129
-394.121	152.604	-0.070	-0.095
-393.106	134.702	-0.091	-0.117
-392.092	-16.421	0.156	0.099
-391.077	-139.179	-0.140	-0.015
-390.063	-200.000	-0.088	-0.400
-389.048	-73.967	-0.076	0.028
-388.033	14.306	-0.178	0.138
-387.019	-200.000	0.000	-0.356
-386.004	58.667	0.108	0.106
-384.990	800.000	0.108	0.438
-383.975	262.794	-0.076	-0.132
-382.960	-75.676	0.176	-0.062
-381.946	33.603	0.207	0.179
-380.931	800.000	0.019	0.078
-379.917	-75.621	-0.150	0.053
-378.902	-130.489	-0.264	-0.036
-377.888	-200.000	-0.012	-0.135
-376.873	96.741	0.064	0.073
-375.858	-200.000	0.010	0.067
-374.844	336.914	-0.127	0.245
-373.829	200.085	0.028	-0.043
-372.815	256.240	0.200	-0.341
-371.800	-200.000	-0.008	-0.051
-370.785	-124.538	-0.075	0.012
-369.771	-16.562	0.247	0.156
-368.756	-55.831	-0.107	-0.047
-367.742	800.000	0.131	-0.424
-366.727	309.732	0.258	-0.480
-365.712	-193.967	0.079	0.001
-364.698	-200.000	0.010	-0.327
-363.683	-200.000	-0.065	-0.438
-362.669	620.779	-0.068	0.170
-361.654	-200.000	0.004	0.201
-360.639	800.000	0.009	-0.025
-359.625	540.980	0.013	-0.031
-358.610	-105.586	-0.296	-0.067
-357.596	-137.101	0.261	-0.030
-356.581	260.067	0.051	0.087
-355.566	-173.086	-0.270	-0.008
-354.552	192.884	-0.143	-0.215
-353.537	770.419	0.102	0.277
-352.523	-200.000	0.003	0.205
-351.508	800.000	-0.113	0.337
-350.493	96.079	0.065	0.073
-349.479	41.693	-0.036	-0.032
-348.464	-200.000	-0.045	-0.290
-347.450	-44.259	-0.083	0.041
-346.435	243.372	0.141	-0.235
-345.420	-20.184	0.056	0.034
-344.406	-20.210	0.395	0.242
-343.391	179.582	0.050	0.072
-342.377	59.125	0.075	-0.073
-341.362	2.150	-0.271	-0.195
-340.348	175.644	-0.108	0.155
-339.333	-200.000	-0.018	0.111
-338.318	-106.261	0.256	-0.057
-337.304	-29.467	-0.200	0.114
-336.289	-25.647	0.110	0.064
-335.275	129.553	0.086	-0.109
-334.260	528.516	0.115	0.269
-333.245	608.196	-0.170	0.422
-332.231	254.333	-0.203	0.345
-331.216	-171.814	-0.236	-0.008
-330.202	-58.540	-0.172	0.074
-329.187	800.000	0.038	0.159
-328.172	384.551	-0.243	-0.498
-327.158	-161.404	0.173	-0.009
-326.143	-200.000	0.006	0.178
-325.129	32.527	-0.056	0.048
-324.114	-5.294	0.503	0.343
-323.099	131.708	-0.087	0.111
-322.085	32.366	0.151	-0.130
-321.070	-114.123	0.054	0.010
-320.056	541.059	-0.023	0.055
-319.041	-35.282	-0.202	-0.109
-318.026	-19.687	-0.164	0.101
-317.012	-123.781	-0.325	0.051
-315.997	34.439	-0.151	0.131
-314.983	72.047	0.235	0.243
-313.968	-200.000	0.047	0.252
-312.953	4.097	0.107	-0.078
-311.939	303.030	-0.035	0.064
-310.924	-200.000	-0.072	0.411
-309.910	-200.000	0.030	-0.381
-308.895	-200.000	-0.050	0.222
-307.880	46.178	0.055	-0.051
-306.866	99.091	-0.048	-0.055
-305.851	800.000	0.042	0.171
-304.837	164.838	-0.123	-0.172
-303.822	800.000	0.078	0.298
-302.807	-177.540	-0.278	0.007
-301.793	-87.354	0.126	0.038
-300.778	-51.602	-0.326	-0.151
-299.764	800.000	0.096	-0.340
-298.749	5.618	0.294	-0.216
-297.735	-200.000	-0.023	-0.219
-296.720	-53.657	0.234	-0.106
-295.705	-95.260	-0.283	-0.076
-294.691	800.000	-0.032	0.088
-293.676	32.015	-0.206	0.176
-292.662	-60.367	0.240	-0.101
-291.647	-155.576	-0.327	-0.021
-290.632	-200.000	0.017	0.207
-289.618	-200.000	-0.017	-0.257
-288.603	-134.683	0.155	-0.019
-287.589	-30.049	0.196	0.110
-286.574	-107.408	-0.607	0.132
-285.559	74.924	0.410	-0.428
-284.545	-69.800	-0.234	0.089
-283.530	-24.566	0.179	0.106
-282.516	800.000	-0.137	0.422
-281.501	-117.216	-0.078	0.014
-280.486	-196.073	-0.137	0.001
-279.472	280.251	-0.211	0.373
-278.457	-148.037	-0.028	-0.002
-277.443	800.000	0.124	-0.353
-276.428	-44.983	-0.114	0.056
-275.413	82.643	-0.092	-0.099
-274.399	-5.780	0.166	0.113
-273.384	374.667	-0.055	-0.111
-272.370	-160.643	0.063	0.003
-271.355	-114.622	0.285	0.054
-270.340	-81.736	0.061	0.020
-269.326	-48.323	-0.256	0.122
-268.311	-123.893	0.618	0.097
-267.297	468.438	0.140	-0.312
-266.282	-200.000	-0.043	0.382
-265.267	-200.000	0.217	0.000
-264.253	-20.741	-0.353	-0.215
-263.238	-200.000	0.007	0.085
-262.224	-200.000	0.009	0.158
-261.209	-200.000	-0.024	0.257
-260.195	800.000	-0.078	0.226
-259.180	-200.000	-0.002	-0.167
-258.165	800.000	-0.072	-0.204
-257.151	-96.641	0.458	0.120
-256.136	-50.839	-0.201	0.094
-255.122	-123.079	-0.309	-0.049
-254.107	247.444	-0.123	0.205
-253.092	-155.300	0.206	-0.013
-252.078	-64.491	0.269	-0.108
-251.063	-173.897	0.291	-0.009
-250.049	-41.435	0.058	-0.030
-249.034	-200.000	0.160	0.000
-248.019	800.000	-0.078	-0.230
-247.005	174.776	0.144	-0.206
-245.990	99.568	0.312	0.358
-244.976	8.825	-0.106	0.079
-243.961	-194.740	-0.127	-0.001
-242.946	-118.436	-0.384	-0.067
-241.932	-97.016	-0.063	-0.016
-240.917	-35.419	-0.345	0.185
-239.903	115.292	0.223	0.270
-238.888	-59.372	-0.106	0.045
-237.873	-200.000	0.027	0.130
-236.859	-200.000	-0.013	-0.120
-235.844	34.854	0.247	0.214
-234.830	365.649	-0.162	-0.322
-233.815	-162.463	0.138	0.007
-232.800	409.257	0.049	-0.103
-231.786	-26.602	-0.185	0.107
-230.771	30.204	-0.163	-0.138
-229.757	-152.420	-0.145	0.010
-228.742	800.000	-0.139	0.410
-227.727	-141.689	0.159	-0.016
-226.713	-200.000	-0.011	0.129
-225.698	-109.697	-0.279	-0.058
-224.684	-29.372	-0.167	-0.095
-223.669	-0.266	0.020	-0.014
-222.655	-200.000	-0.008	-0.093
-221.640	800.000	-0.141	0.395
-220.625	67.007	-0.089	-0.090
-219.611	-22.854	0.230	-0.137
-218.596	-119.584	-0.384	0.066
-217.582	-38.088	-0.246	-0.129
-216.567	288.275	-0.093	-0.166
-215.552	-29.676	-0.085	0.048
-214.538	-200.000	0.002	0.042
-213.523	15.794	-0.153	-0.119
-212.509	-125.893	-0.080	0.012
-211.494	-200.000	-0.010	0.208
-210.479	18.574	0.250	0.198
-209.465	-139.675	0.256	-0.027
-208.450	76.514	-0.030	-0.032
-207.436	88.468	-0.089	0.097
-206.421	-104.924	-0.213	-0.048
-205.406	-162.512	-0.133	-0.006
-204.392	800.000	0.051	0.172
-203.377	573.586	0.111	-0.267
-202.363	204.476	0.184	0.282
-201.348	-200.000	-0.055	0.378
-200.333	-24.633	-0.102	0.060
-199.319	-147.690	-0.160	0.013
-198.304	157.358	-0.137	0.187
-197.290	-155.403	0.103	0.007
-196.275	-129.306	0.256	-0.035
-195.260	7.047	-0.193	0.142
-194.246	-79.092	0.111	0.037
-193.231	-47.946	0.280	-0.134
-192.217	-0.918	-0.216	-0.151
-191.202	176.164	0.088	-0.126
-190.187	154.692	0.184	-0.249
-189.173	800.000	-0.013	-0.037
-188.158	-200.000	0.009	-0.160
-187.144	23.054	0.248	0.201
-186.129	-200.000	-0.028	0.278
-185.114	83.220	0.177	-0.191
-184.100	-102.635	0.336	-0.079
-183.085	-134.910	0.273	-0.033
-182.071	-200.000	-0.028	-0.234
-181.056	-141.178	0.241	-0.024
-180.042	800.000	0.082	-0.320
-179.027	-94.196	-0.129	0.035
-178.012	-53.899	0.233	-0.105
-176.998	-200.000	-0.002	0.020
-175.983	661.865	-0.101	-0.257
-174.969	-200.000	-0.011	0.278
-173.954	-53.852	-0.201	-0.091
-172.939	24.495	0.225	-0.183
-171.925	269.574	-0.060	-0.104
-170.910	29.463	0.213	-0.178
-169.896	237.583	0.130	-0.212
-168.881	-67.542	-0.277	-0.107
-167.866	-200.000	-0.005	0.163
-166.852	428.403	0.098	0.209
-165.837	425.897	0.249	-0.529
-164.823	-200.000	-0.023	0.119
-163.808	800.000	-0.056	-0.213
-162.793	368.337	0.116	0.231
-161.779	-200.000	0.017	-0.123
-160.764	-45.199	0.250	-0.122
-159.750	348.369	0.092	0.178
-158.735	-200.000	-0.029	-0.129
-157.720	136.587	0.095	-0.123
-156.706	108.709	-0.148	-0.174
-155.691	147.602	0.041	-0.055
-154.677	-200.000	-0.011	-0.182
-153.662	-171.539	-0.402	0.013
-152.647	-88.635	0.297	-0.087
-151.633	65.733	-0.118	-0.118
-150.618	-159.506	0.250	0.014
-149.604	-58.746	-0.217	-0.093
-148.589	-180.584	-0.208	0.004
-147.574	-31.228	0.418	0.232
-146.560	435.736	-0.031	-0.066
-145.545	-200.000	0.069	-0.350
-144.531	318.519	0.170	-0.317
-143.516	-133.922	0.305	0.037
-142.502	-66.571	-0.187	-0.073
-141.487	-200.000	0.029	-0.176
-140.472	85.563	0.013	-0.014
-139.458	85.597	-0.117	0.127
-138.443	-200.000	-0.196	0.000
-137.429	443.046	-0.074	-0.160
-136.414	533.354	0.025	0.057
-135.399	800.000	0.079	0.251
-134.385	-86.932	-0.182	-0.055
-133.370	-66.992	-0.251	-0.098
-132.356	-200.000	0.010	0.063
-131.341	-93.356	0.164	-0.045
-130.326	212.939	0.113	0.175
-129.312	-143.879	0.237	-0.022
-128.297	-147.155	-0.112	0.009
-127.283	-181.438	0.242	-0.005
-126.268	29.187	-0.137	0.115
-125.253	39.257	-0.139	0.122
-124.239	484.111	0.023	0.051
-123.224	-197.211	0.203	0.001
