DTS Sentinel unit serial number:	SN413079Multiplexer serial number:	ORYXHardware model number:	OX4-SRSoftware version number:	ORYX F/W v4.00 Oryx Data Collector v3.7.2.0data status	okinstallation	princeton_trtdifferential loss correction	single-endedforward channel	channel 1reverse channel	N/Adate	2019/09/13time	18:38:35forward acquisition time	60.00reverse acquisition time	0.00gamma	496.2192k internal	0.2318k external	0.2318temperature offset calibration	1.0134default loss term (dB/km)	0.3790temperature slope calibration	1.0000multiplexer offset coefficient	1.0000multiplexer slope coefficient	1.0000fibre end	0.00T internal ref (°C)	32.97T ext. ref 1 (°C)	4.18T ext. ref 2 (°C)	26.01length (m)	temperature (°C)	Stokes	anti-Stokes-747.200	24.730	0.052	-0.044
-746.185	-54.873	-0.119	0.054
-745.171	-200.000	0.009	-0.069
-744.156	800.000	-0.029	-0.082
-743.142	-162.597	-0.104	0.005
-742.127	103.194	-0.143	-0.170
-741.112	-146.143	0.075	0.007
-740.098	553.513	0.049	-0.119
-739.083	-113.290	-0.052	0.010
-738.069	-54.571	-0.222	-0.102
-737.054	-111.982	-0.478	-0.097
-736.039	-7.065	-0.177	0.122
-735.025	-70.928	-0.126	-0.048
-734.010	265.874	0.129	0.228
-732.996	-200.000	0.056	-0.354
-731.981	-200.000	-0.020	-0.160
-730.966	800.000	-0.077	0.236
-729.952	-10.992	-0.156	-0.104
-728.937	-108.744	0.163	0.035
-727.923	-89.371	-0.042	-0.013
-726.908	154.201	-0.136	-0.189
-725.894	800.000	-0.090	-0.255
-724.879	-94.610	-0.182	-0.050
-723.864	649.796	0.051	-0.132
-722.850	-50.270	-0.011	0.005
-721.835	800.000	-0.014	-0.046
-720.821	-200.000	0.065	0.409
-719.806	-187.001	-0.236	-0.003
-718.791	-200.000	-0.038	-0.216
-717.777	-25.015	-0.360	-0.216
-716.762	-108.134	0.162	-0.036
-715.748	162.018	0.164	0.232
-714.733	-160.279	-0.270	-0.015
-713.718	70.099	0.096	-0.101
-712.704	576.989	-0.064	0.158
-711.689	-82.172	-0.202	-0.067
-710.675	328.714	-0.134	-0.260
-709.660	-133.019	0.292	-0.037
-708.645	144.580	-0.076	-0.102
-707.631	-149.608	-0.504	0.040
-706.616	-32.385	-0.195	0.110
-705.602	-25.270	-0.056	0.034
-704.587	-74.272	0.429	0.157
-703.572	464.710	0.066	0.148
-702.558	231.501	0.150	0.248
-701.543	-35.604	-0.141	0.077
-700.529	-5.116	0.176	0.122
-699.514	-200.000	-0.001	-0.137
-698.499	100.470	0.214	-0.251
-697.485	33.860	-0.071	0.062
-696.470	-200.000	0.027	0.185
-695.456	632.439	-0.061	-0.157
-694.441	-118.011	-0.119	-0.022
-693.426	-3.152	-0.147	-0.104
-692.412	-22.182	-0.083	-0.051
-691.397	-129.053	0.239	-0.034
-690.383	-200.000	0.002	0.049
-689.368	-72.203	0.274	0.103
-688.354	-17.223	0.023	-0.015
-687.339	-200.000	0.029	-0.293
-686.324	800.000	-0.066	0.188
-685.310	-137.220	-0.142	0.016
-684.295	-200.000	-0.028	0.326
-683.281	-84.028	-0.209	-0.067
-682.266	-82.903	-0.320	-0.104
-681.251	-113.236	0.156	-0.031
-680.237	800.000	0.012	0.044
-679.222	56.107	0.155	-0.152
-678.208	-56.130	0.097	-0.044
-677.193	-129.088	-0.213	0.030
-676.178	24.744	-0.292	0.244
-675.164	800.000	-0.112	0.339
-674.149	-110.522	-0.226	0.047
-673.135	-200.000	0.014	-0.213
-672.120	11.675	-0.370	-0.287
-671.105	-200.000	-0.007	0.049
-670.091	-200.000	-0.018	-0.211
-669.076	-31.783	-0.209	-0.118
-668.062	-100.696	0.302	0.075
-667.047	-173.006	0.414	0.013
-666.032	-6.137	-0.061	0.042
-665.018	-200.000	0.019	-0.164
-664.003	93.047	0.195	-0.222
-662.989	-200.000	-0.007	-0.185
-661.974	-56.050	-0.137	-0.062
-660.959	112.189	-0.193	-0.235
-659.945	-200.000	-0.013	0.458
-658.930	19.449	-0.235	-0.190
-657.916	-200.000	-0.004	0.215
-656.901	231.783	-0.314	0.519
-655.886	-142.586	0.183	0.018
-654.872	-200.000	0.010	0.201
-653.857	-95.562	-0.160	0.043
-652.843	-141.629	0.131	0.013
-651.828	109.396	-0.334	0.403
-650.814	-200.000	-0.039	-0.178
-649.799	64.138	-0.222	0.225
-648.784	-123.849	-0.336	-0.053
-647.770	2.699	-0.186	-0.136
-646.755	148.243	-0.151	-0.206
-645.741	21.924	0.087	0.072
-644.726	40.420	-0.075	-0.068
-643.711	350.241	0.144	0.287
-642.697	187.191	-0.207	-0.311
-641.682	155.478	0.267	-0.370
-640.668	-140.503	0.302	-0.032
-639.653	-104.695	0.300	0.070
-638.638	196.709	-0.142	0.218
-637.624	-103.137	0.182	0.043
-636.609	-200.000	-0.034	0.186
-635.595	800.000	0.018	0.063
-634.580	800.000	-0.059	-0.187
-633.565	-200.000	-0.006	0.139
-632.551	252.401	-0.076	-0.130
-631.536	-200.000	0.021	-0.283
-630.522	246.379	0.149	-0.254
-629.507	411.631	0.220	0.471
-628.492	-129.042	-0.451	0.064
-627.478	-200.000	-0.011	0.250
-626.463	-96.814	0.129	-0.034
-625.449	-71.008	-0.176	0.067
-624.434	142.366	-0.162	0.216
-623.419	800.000	0.059	-0.253
-622.405	69.670	0.236	-0.244
-621.390	626.558	0.090	-0.230
-620.376	-72.990	-0.120	-0.044
-619.361	-200.000	0.035	-0.196
-618.346	151.120	0.269	0.368
-617.332	800.000	0.103	0.372
-616.317	7.456	0.233	-0.175
-615.303	97.733	0.164	0.190
-614.288	-200.000	-0.005	0.270
-613.273	622.384	-0.027	0.069
-612.259	-142.823	0.103	0.010
-611.244	-30.285	0.107	0.061
-610.230	70.941	0.235	-0.246
-609.215	-200.000	0.010	0.050
-608.201	800.000	-0.046	0.181
-607.186	1.089	-0.182	-0.131
-606.171	-101.878	0.533	-0.130
-605.157	-200.000	-0.003	-0.478
-604.142	-200.000	-0.042	0.203
-603.128	-200.000	-0.037	0.406
-602.113	-143.741	0.063	-0.006
-601.098	-108.580	-0.167	-0.036
-600.084	-172.248	-0.413	0.013
-599.069	150.223	0.102	0.139
-598.055	-200.000	0.021	0.405
-597.040	800.000	-0.083	-0.261
-596.025	24.622	-0.149	0.124
-595.011	-0.252	-0.240	-0.172
-593.996	-18.436	-0.202	0.127
-592.982	79.262	-0.254	0.274
-591.967	334.459	-0.145	0.282
-590.952	100.189	-0.051	0.059
-589.938	27.486	-0.116	0.098
-588.923	-200.000	-0.005	-0.236
-587.909	244.858	0.064	0.108
-586.894	175.437	0.205	-0.299
-585.879	800.000	-0.053	0.201
-584.865	-99.764	-0.142	0.036
-583.850	-200.000	0.025	0.292
-582.836	-200.000	0.015	0.150
-581.821	-151.212	-0.147	0.011
-580.806	-51.477	0.263	-0.124
-579.792	63.504	-0.099	-0.100
-578.777	-59.486	-0.319	-0.138
-577.763	613.692	-0.037	0.094
-576.748	-57.291	-0.182	-0.080
-575.733	-101.287	-0.068	-0.017
-574.719	-41.828	-0.198	0.102
-573.704	-200.000	0.033	-0.203
-572.690	-8.063	0.158	-0.107
-571.675	-200.000	0.042	0.279
-570.661	-90.486	0.237	-0.069
-569.646	-156.830	-0.120	0.007
-568.631	1.085	-0.085	-0.062
-567.617	-200.000	0.288	0.000
-566.602	-88.374	-0.469	-0.141
-565.588	-200.000	0.046	-0.221
-564.573	196.807	-0.040	-0.061
-563.558	-66.934	0.227	0.090
-562.544	-148.457	0.044	-0.004
-561.529	196.967	0.208	0.318
-560.515	-54.298	-0.188	-0.086
-559.500	206.330	-0.277	-0.434
-558.485	-147.164	-0.262	-0.022
-557.471	15.639	0.152	-0.120
-556.456	344.379	-0.148	0.291
-555.442	54.217	0.099	0.096
-554.427	800.000	0.104	0.375
-553.412	-63.853	0.171	0.070
-552.398	38.127	-0.180	-0.161
-551.383	800.000	-0.024	0.082
-550.369	-200.000	-0.025	0.121
-549.354	153.093	0.012	0.016
-548.339	-36.534	0.039	-0.021
-547.325	-5.081	0.036	-0.025
-546.310	800.000	-0.077	-0.214
-545.296	-90.197	-0.196	0.057
-544.281	-54.037	0.086	-0.039
-543.266	-1.484	-0.121	-0.085
-542.252	604.174	-0.136	-0.340
-541.237	273.379	-0.157	0.278
-540.223	-200.000	0.053	0.349
-539.208	193.480	0.018	-0.028
-538.193	800.000	0.102	-0.312
-537.179	-37.200	-0.181	-0.097
-536.164	-200.000	0.050	0.462
-535.150	11.866	-0.137	0.106
-534.135	51.490	-0.138	0.132
-533.121	-14.868	0.034	0.022
-532.106	-34.443	0.188	-0.104
-531.091	800.000	0.055	0.195
-530.077	42.713	-0.130	-0.119
-529.062	-200.000	0.003	0.122
-528.048	-200.000	0.079	-0.416
-527.033	-137.136	-0.083	0.009
-526.018	21.337	-0.321	-0.262
-525.004	-131.761	-0.362	0.048
-523.989	-103.129	0.119	0.028
-522.975	800.000	-0.110	0.308
-521.960	-110.813	-0.301	0.062
-520.945	-86.652	0.071	0.022
-519.931	-20.891	-0.129	0.079
-518.916	-57.273	-0.072	0.032
-517.902	-132.520	0.309	0.040
-516.887	78.171	0.341	0.365
-515.872	-48.295	0.186	-0.090
-514.858	-200.000	0.012	-0.150
-513.843	-72.217	0.345	-0.128
-512.829	-52.176	0.410	-0.191
-511.814	199.355	0.216	0.332
-510.799	800.000	-0.019	0.068
-509.785	-200.000	0.003	0.122
-508.770	-136.031	-0.267	-0.032
-507.756	-200.000	-0.020	-0.171
-506.741	-120.636	-0.225	-0.038
-505.726	-87.491	-0.291	0.088
-504.712	-52.482	0.267	-0.124
-503.697	-174.289	0.244	0.007
-502.683	-27.435	0.093	-0.054
-501.668	800.000	0.037	0.118
-500.653	-200.000	0.064	0.287
-499.639	1.109	-0.112	-0.081
-498.624	36.624	0.095	-0.084
-497.610	110.396	-0.096	-0.116
-496.595	-93.240	0.072	-0.020
-495.581	57.546	0.221	0.217
-494.566	204.712	0.104	0.162
-493.551	137.434	-0.146	0.192
-492.537	-11.512	-0.176	0.116
-491.522	-200.000	0.076	0.417
-490.508	4.554	0.255	-0.188
-489.493	744.638	-0.114	-0.306
-488.478	100.877	0.026	0.030
-487.464	465.945	0.050	0.112
-486.449	18.547	-0.219	-0.175
-485.435	49.311	-0.183	0.172
-484.420	-95.875	0.086	-0.023
-483.405	-200.000	0.007	-0.230
-482.391	-6.551	0.164	0.112
-481.376	15.869	-0.170	-0.134
-480.362	227.116	-0.050	0.081
-479.347	32.723	0.191	0.166
-478.332	-49.529	-0.132	-0.063
-477.318	21.238	0.177	-0.144
-476.303	-200.000	-0.003	-0.034
-475.289	800.000	0.031	0.101
-474.274	719.352	-0.087	0.232
-473.259	577.965	0.031	-0.076
-472.245	-200.000	0.005	-0.161
-471.230	-200.000	0.008	-0.066
-470.216	-200.000	-0.011	-0.072
-469.201	-122.851	-0.039	0.006
-468.186	-13.866	0.123	0.080
-467.172	118.425	0.160	-0.198
-466.157	90.595	-0.063	0.071
-465.143	-200.000	0.004	-0.043
-464.128	-136.334	-0.450	0.053
-463.113	-100.319	-0.138	-0.034
-462.099	-91.160	0.362	-0.104
-461.084	-200.000	0.020	-0.165
-460.070	-74.100	-0.321	-0.116
-459.055	201.110	0.131	0.203
-458.040	86.054	0.011	-0.012
-457.026	-25.621	0.278	-0.164
-456.011	3.915	0.101	0.074
-454.997	133.215	0.167	-0.216
-453.982	235.280	0.214	-0.354
-452.968	499.422	0.113	-0.260
-451.953	-76.637	0.030	-0.011
-450.938	74.501	-0.144	-0.152
-449.924	-99.033	0.214	-0.054
-448.909	-139.241	0.120	-0.013
-447.895	152.042	0.247	-0.336
-446.880	57.608	-0.262	0.256
-445.865	800.000	0.070	0.274
-444.851	227.753	-0.033	0.054
-443.836	-27.224	-0.051	0.030
-442.822	121.167	0.097	0.120
-441.807	349.039	-0.081	-0.159
-440.792	-99.154	0.264	-0.067
-439.778	-200.000	-0.053	-0.378
-438.763	800.000	0.021	-0.090
-437.749	-37.650	-0.358	-0.191
-436.734	166.650	-0.240	-0.340
-435.719	722.392	-0.064	-0.171
-434.705	-200.000	-0.017	-0.081
-433.690	63.894	0.141	0.142
-432.676	-11.948	0.147	0.096
-431.661	60.304	0.126	0.125
-430.646	69.966	0.228	0.235
-429.632	-75.727	-0.074	0.026
-428.617	161.949	-0.153	0.215
-427.603	-200.000	0.025	-0.162
-426.588	-91.589	-0.351	0.100
-425.573	800.000	0.067	0.188
-424.559	382.276	0.093	0.192
-423.544	-125.980	0.248	0.037
-422.530	-125.325	-0.486	0.074
-421.515	-200.000	-0.014	-0.113
-420.500	-13.512	-0.067	-0.044
-419.486	789.091	0.055	0.152
-418.471	-86.002	0.101	-0.031
-417.457	-200.000	0.022	-0.216
-416.442	-13.748	-0.198	-0.128
-415.428	-200.000	0.020	0.116
-414.413	4.557	-0.085	0.062
-413.398	170.531	0.151	0.216
-412.384	-148.728	0.124	0.010
-411.369	45.366	-0.065	0.060
-410.355	-200.000	0.024	-0.135
-409.340	-25.444	0.215	0.127
-408.325	-134.110	0.173	0.021
-407.311	-36.897	-0.092	0.049
-406.296	361.831	-0.078	-0.156
-405.282	-200.000	-0.004	0.178
-404.267	-76.963	-0.376	-0.131
-403.252	-200.000	0.015	-0.129
-402.238	-200.000	0.022	-0.144
-401.223	-59.826	0.261	0.112
-400.209	81.325	-0.156	0.168
-399.194	-200.000	0.008	0.075
-398.179	449.305	-0.082	-0.181
-397.165	143.490	0.082	-0.109
-396.150	-200.000	-0.022	0.108
-395.136	-73.129	0.276	-0.101
-394.121	390.568	0.053	-0.111
-393.106	-134.715	0.228	-0.028
-392.092	313.514	0.100	-0.187
-391.077	111.531	-0.239	-0.287
-390.063	-37.468	-0.117	-0.063
-389.048	172.713	-0.134	-0.192
-388.033	751.354	-0.044	-0.119
-387.019	800.000	-0.038	-0.127
-386.004	500.227	-0.141	-0.324
-384.990	66.598	-0.076	0.077
-383.975	-132.510	-0.237	-0.030
-382.960	-200.000	0.032	0.192
-381.946	268.949	-0.112	0.197
-380.931	-160.723	0.414	0.022
-379.917	-200.000	-0.024	0.116
-378.902	98.473	-0.068	0.078
-377.888	800.000	-0.043	-0.121
-376.873	46.130	0.088	0.081
-375.858	47.515	0.193	0.179
-374.844	-6.200	-0.095	0.065
-373.829	-200.000	-0.041	0.263
-372.815	-41.595	-0.258	-0.132
-371.800	2.146	-0.062	0.045
-370.785	-39.029	-0.198	-0.104
-369.771	-15.471	0.374	0.238
-368.756	-66.058	-0.286	-0.114
-367.742	132.765	0.203	0.261
-366.727	-174.854	-0.412	0.012
-365.712	-154.232	0.223	-0.015
-364.698	418.337	0.059	-0.126
-363.683	-63.162	0.269	-0.111
-362.669	-52.262	0.181	0.084
-361.654	153.006	0.071	-0.097
-360.639	-143.064	0.193	-0.019
-359.625	234.707	-0.114	0.188
-358.610	-156.225	0.401	-0.025
-357.596	291.597	-0.039	-0.070
-356.581	68.776	-0.207	0.212
-355.566	-46.247	0.385	-0.189
-354.552	334.020	-0.089	0.171
-353.537	-67.737	0.525	0.205
-352.523	121.796	-0.052	0.065
-351.508	427.353	-0.128	0.276
-350.493	90.974	0.084	-0.093
-349.479	-71.692	-0.406	0.151
-348.464	-184.405	0.363	0.006
-347.450	253.818	-0.083	0.141
-346.435	69.811	-0.260	-0.267
-345.420	-200.000	-0.028	0.217
-344.406	-153.655	0.171	-0.012
-343.391	800.000	0.009	0.035
-342.377	11.379	0.074	0.057
-341.362	92.040	0.040	-0.045
-340.348	-200.000	-0.058	-0.346
-339.333	-200.000	-0.053	-0.417
-338.318	-35.535	0.239	-0.129
-337.304	800.000	-0.019	0.070
-336.289	-200.000	0.010	0.105
-335.275	25.670	0.171	-0.142
-334.260	182.512	0.056	-0.082
-333.245	195.328	-0.019	0.029
-332.231	40.767	-0.162	0.146
-331.216	-2.036	-0.159	-0.111
-330.202	112.471	0.238	-0.287
-329.187	-40.989	-0.230	-0.119
-328.172	800.000	0.106	0.309
-327.158	-86.725	0.507	-0.154
-326.143	-200.000	0.011	-0.216
-325.129	20.970	0.214	-0.172
-324.114	99.908	-0.185	0.214
-323.099	-200.000	0.010	-0.107
-322.085	-200.000	0.005	0.133
-321.070	-98.494	-0.309	-0.079
-320.056	-90.451	-0.117	0.034
-319.041	-200.000	0.013	0.305
-318.026	800.000	0.023	0.098
-317.012	239.567	0.153	-0.253
-315.997	13.289	0.478	-0.369
-314.983	-40.655	0.321	0.165
-313.968	-148.485	-0.201	-0.016
-312.953	357.757	0.057	-0.113
-311.939	-1.162	0.151	-0.106
-310.924	47.216	-0.220	0.204
-309.910	17.399	-0.241	0.191
-308.895	-163.244	-0.359	-0.017
-307.880	-8.662	0.271	0.181
-306.866	-200.000	0.053	0.302
-305.851	6.526	0.058	0.043
-304.837	432.790	-0.029	0.063
-303.822	-165.101	0.194	0.009
-302.807	201.892	0.197	0.303
-301.793	476.667	-0.062	0.139
-300.778	800.000	0.044	0.131
-299.764	494.909	0.125	-0.286
-298.749	800.000	0.089	-0.269
-297.735	-200.000	0.031	0.368
-296.720	-42.158	-0.181	0.092
-295.705	71.104	0.124	0.128
-294.691	-181.277	0.243	-0.005
-293.676	800.000	0.084	-0.270
-292.662	30.940	0.066	0.056
-291.647	588.277	0.092	-0.226
-290.632	-180.605	-0.100	0.002
-289.618	44.797	0.053	0.048
-288.603	-200.000	0.014	0.307
-287.589	-200.000	-0.047	-0.290
-286.574	-43.615	-0.138	-0.069
-285.559	15.052	-0.062	0.048
-284.545	-200.000	-0.053	0.361
-283.530	237.526	0.139	0.229
-282.516	800.000	-0.096	-0.296
-281.501	254.865	0.156	0.266
-280.486	-200.000	0.001	-0.100
-279.472	-200.000	0.022	0.119
-278.457	-137.071	0.218	0.025
-277.443	800.000	0.069	-0.202
-276.428	-69.325	-0.232	0.089
-275.413	800.000	-0.049	0.169
-274.399	-36.477	-0.165	0.088
-273.384	-190.779	-0.243	-0.003
-272.370	61.346	0.030	0.030
-271.355	472.668	-0.129	0.290
-270.340	-70.839	0.384	-0.144
-269.326	-86.652	-0.085	0.026
-268.311	-32.100	-0.079	0.044
-267.297	35.962	-0.072	-0.063
-266.282	117.299	-0.036	0.043
-265.267	800.000	0.196	-0.553
-264.253	-66.253	0.254	-0.100
-263.238	-200.000	0.050	0.285
-262.224	171.943	0.058	-0.082
-261.209	3.870	-0.158	-0.115
-260.195	-167.654	-0.131	0.005
-259.180	800.000	-0.089	-0.360
-258.165	-200.000	0.005	0.059
-257.151	-66.418	0.060	0.024
-256.136	-200.000	-0.005	-0.150
-255.122	-179.451	0.196	0.004
-254.107	800.000	0.033	0.104
-253.092	-121.940	-0.187	0.031
-252.078	502.507	-0.117	0.269
-251.063	545.687	0.040	0.094
-250.049	-47.217	0.274	-0.133
-249.034	89.026	-0.135	0.149
-248.019	134.800	0.087	-0.113
-247.005	-115.034	-0.130	-0.025
-245.990	-34.407	0.286	-0.156
-244.976	-66.879	-0.396	0.155
-243.961	50.750	0.124	-0.116
-242.946	0.467	0.263	-0.186
-241.932	-62.372	0.241	-0.100
-240.917	-53.441	-0.158	-0.072
-239.903	-101.103	0.147	-0.036
-238.888	800.000	-0.050	-0.172
-237.873	800.000	0.101	0.294
-236.859	-12.409	-0.072	0.047
-235.844	97.077	0.160	0.182
-234.830	255.792	-0.134	0.227
-233.815	-200.000	-0.020	-0.209
-232.800	-125.596	-0.420	0.063
-231.786	-49.826	0.350	-0.165
-230.771	601.561	-0.040	0.099
-229.757	114.079	0.024	-0.029
-228.742	156.578	-0.283	-0.387
-227.727	-16.784	-0.270	-0.170
-226.713	-200.000	0.063	0.324
-225.698	-120.996	-0.185	-0.031
-224.684	-143.156	0.037	0.004
-223.669	-200.000	0.004	-0.067
-222.655	42.686	-0.084	-0.076
-221.640	144.790	-0.045	-0.060
-220.625	-8.009	0.169	-0.113
-219.611	-87.918	0.169	0.050
-218.596	179.047	-0.241	-0.349
-217.582	16.627	0.108	0.084
-216.567	414.428	-0.206	-0.435
-215.552	-200.000	-0.017	-0.174
-214.538	466.480	0.141	-0.313
-213.523	377.775	-0.102	0.206
-212.509	3.370	-0.414	-0.299
-211.494	-146.628	-0.199	-0.017
-210.479	48.150	0.236	-0.218
-209.465	800.000	0.102	-0.311
-208.450	-83.822	-0.038	-0.012
-207.436	-58.436	-0.168	0.072
-206.421	-70.683	0.161	-0.060
-205.406	-200.000	0.013	-0.064
-204.392	-8.863	0.205	-0.136
-203.377	-185.997	-0.317	-0.005
-202.363	-200.000	-0.016	0.089
-201.348	-64.134	-0.279	-0.113
-200.333	-166.193	-0.208	0.009
-199.319	800.000	-0.024	-0.068
-198.304	18.082	-0.243	-0.192
-197.290	-114.953	-0.242	-0.046
-196.275	66.206	0.249	0.251
-195.260	-96.140	0.087	0.023
-194.246	-200.000	0.002	-0.121
-193.231	-23.027	-0.254	-0.152
-192.217	-200.000	0.020	-0.248
-191.202	800.000	-0.102	0.334
-190.187	-65.229	0.145	-0.058
-189.173	-36.359	0.288	-0.154
-188.158	-17.516	0.279	0.174
-187.144	-200.000	0.006	-0.041
-186.129	11.739	-0.104	0.079
-185.114	47.573	0.222	-0.205
-184.100	-200.000	0.016	-0.208
-183.085	-119.734	-0.328	-0.056
-182.071	-95.895	-0.284	-0.075
-181.056	-176.486	-0.161	0.004
-180.042	35.730	0.480	0.417
-179.027	21.906	-0.063	0.051
-178.012	8.147	-0.045	0.034
-176.998	-46.642	-0.071	-0.034
-175.983	-105.011	-0.087	-0.020
-174.969	-134.405	-0.322	0.039
-173.954	334.090	0.078	0.148
-172.939	-107.138	-0.195	-0.043
-171.925	83.676	0.131	0.141
-170.910	494.497	0.165	0.376
-169.896	-107.850	-0.280	0.060
-168.881	-130.510	0.162	-0.022
-167.866	-200.000	0.075	0.422
-166.852	-200.000	-0.017	0.137
-165.837	136.003	-0.244	-0.314
-164.823	309.757	-0.069	0.128
-163.808	-200.000	0.031	0.170
-162.793	-68.880	0.342	0.131
-161.779	-98.528	-0.117	0.030
-160.764	-126.015	-0.358	0.053
-159.750	-44.751	-0.346	0.171
-158.735	-70.328	0.239	0.090
-157.720	-200.000	0.057	-0.255
-156.706	295.336	-0.055	-0.100
-155.691	-5.827	0.219	-0.149
-154.677	-148.631	-0.148	-0.012
-153.662	-128.323	-0.382	0.054
-152.647	144.897	0.184	0.243
-151.633	-75.556	0.214	0.075
-150.618	113.822	0.148	0.178
-149.604	42.578	-0.052	0.047
-148.589	-200.000	0.033	-0.429
-147.574	47.831	0.382	0.353
-146.560	185.121	0.078	0.114
-145.545	208.002	0.114	0.177
-144.531	54.854	-0.028	-0.026
-143.516	-109.602	-0.375	0.078
-142.502	46.280	0.170	-0.156
-141.487	-89.769	0.241	0.070
-140.472	-200.000	-0.033	-0.159
-139.458	69.490	0.174	0.177
-138.443	190.845	0.051	0.076
-137.429	717.207	-0.075	-0.196
-136.414	-77.526	-0.211	-0.072
-135.399	-176.986	-0.067	-0.002
-134.385	-150.157	-0.178	0.014
-133.370	215.444	0.128	0.201
-132.356	-169.383	0.069	0.002
-131.341	-200.000	-0.021	-0.219
-130.326	-200.000	-0.004	0.241
-129.312	-120.497	-0.126	0.021
-128.297	36.086	0.243	0.211
-127.283	187.184	-0.102	0.150
-126.268	-180.071	0.239	0.005
-125.253	-151.252	0.161	-0.012
-124.239	-88.996	-0.347	0.102
-123.224	541.481	0.036	0.085
-122.210	-51.387	-0.244	0.113
-121.195	94.435	0.322	0.361
