DTS Sentinel unit serial number:	SN413079Multiplexer serial number:	ORYXHardware model number:	OX4-SRSoftware version number:	ORYX F/W v4.00 Oryx Data Collector v3.7.2.0data status	okinstallation	princeton_trtdifferential loss correction	single-endedforward channel	channel 1reverse channel	N/Adate	2019/09/12time	23:34:35forward acquisition time	60.00reverse acquisition time	0.00gamma	496.2192k internal	0.2328k external	0.2328temperature offset calibration	1.0146default loss term (dB/km)	0.3790temperature slope calibration	1.0000multiplexer offset coefficient	1.0000multiplexer slope coefficient	1.0000fibre end	0.00T internal ref (°C)	28.94T ext. ref 1 (°C)	3.76T ext. ref 2 (°C)	23.60length (m)	temperature (°C)	Stokes	anti-Stokes-747.200	-18.304	-0.132	0.083
-746.185	-55.090	0.089	0.040
-745.171	-69.272	0.062	0.024
-744.156	-70.183	0.153	0.058
-743.142	693.871	-0.099	0.261
-742.127	-200.000	-0.031	0.244
-741.112	-87.987	0.115	-0.035
-740.098	-200.000	0.061	0.291
-739.083	244.347	-0.105	0.177
-738.069	-56.231	-0.173	0.078
-737.054	-89.772	-0.166	0.049
-736.039	477.209	0.016	0.035
-735.025	800.000	-0.107	0.367
-734.010	3.122	-0.304	-0.223
-732.996	800.000	0.053	-0.222
-731.981	-81.867	-0.047	0.016
-730.966	-117.085	0.282	-0.052
-729.952	80.475	-0.158	-0.171
-728.937	234.003	0.149	-0.247
-727.923	271.800	-0.178	-0.317
-726.908	-9.475	-0.142	0.096
-725.894	-200.000	0.043	-0.213
-724.879	296.813	-0.165	-0.305
-723.864	-20.060	0.195	-0.121
-722.850	352.387	0.102	0.204
-721.835	-200.000	-0.050	-0.258
-720.821	-174.640	-0.227	0.007
-719.806	-145.520	0.152	0.014
-718.791	-103.708	0.113	-0.027
-717.777	161.463	0.120	0.169
-716.762	34.383	0.065	0.057
-715.748	37.641	-0.128	-0.114
-714.733	-64.354	-0.298	0.122
-713.718	-27.376	0.135	-0.079
-712.704	-36.900	0.137	-0.074
-711.689	-1.367	-0.009	-0.006
-710.675	15.447	-0.270	-0.213
-709.660	180.229	0.206	0.304
-708.645	285.928	0.061	-0.110
-707.631	-154.134	-0.426	0.029
-706.616	-81.061	0.191	-0.063
-705.602	-56.125	0.288	0.129
-704.587	393.270	0.040	-0.084
-703.572	-200.000	-0.014	0.084
-702.558	223.945	-0.146	-0.236
-701.543	-74.613	0.218	-0.079
-700.529	52.613	0.137	0.132
-699.514	-111.512	-0.294	0.060
-698.499	800.000	0.060	0.181
-697.485	28.529	-0.091	0.078
-696.470	84.659	0.292	0.322
-695.456	800.000	0.084	-0.253
-694.441	-71.036	0.167	0.063
-693.426	-200.000	0.024	0.290
-692.412	170.651	-0.279	0.402
-691.397	20.657	-0.164	-0.134
-690.383	391.613	-0.090	-0.189
-689.368	220.483	-0.081	-0.131
-688.354	57.207	0.102	0.100
-687.339	56.410	0.185	0.181
-686.324	-140.615	-0.155	0.016
-685.310	86.513	-0.133	0.148
-684.295	-13.326	0.133	-0.087
-683.281	-66.827	-0.032	-0.013
-682.266	726.261	-0.170	0.455
-681.251	72.069	0.195	-0.204
-680.237	202.842	0.153	0.238
-679.222	-54.499	-0.173	-0.079
-678.208	-124.313	-0.156	-0.025
-677.193	-3.628	0.269	0.188
-676.178	-200.000	-0.028	0.171
-675.164	-1.346	-0.016	-0.011
-674.149	-30.857	0.106	-0.060
-673.135	-165.849	-0.225	-0.010
-672.120	-188.495	0.156	-0.002
-671.105	105.230	0.070	-0.083
-670.091	-189.001	-0.076	-0.001
-669.076	-200.000	-0.025	-0.261
-668.062	-56.154	0.130	-0.058
-667.047	800.000	0.048	-0.167
-666.032	307.637	-0.080	0.150
-665.018	64.316	-0.337	0.341
-664.003	121.653	-0.190	-0.237
-662.989	-1.939	0.144	0.102
-661.974	800.000	0.108	-0.363
-660.959	607.669	-0.094	0.235
-659.945	134.510	0.063	-0.083
-658.930	-90.975	0.172	0.050
-657.916	-4.912	-0.276	0.191
-656.901	67.161	-0.238	-0.243
-655.886	-58.991	0.181	-0.078
-654.872	425.671	0.100	0.217
-653.857	29.662	0.368	0.314
-652.843	31.767	0.170	0.147
-651.828	-200.000	-0.000	0.085
-650.814	-59.028	0.234	-0.101
-649.799	-48.246	-0.497	-0.240
-648.784	800.000	-0.099	-0.370
-647.770	-135.013	-0.281	0.034
-646.755	44.084	0.183	0.169
-645.741	-35.127	-0.194	-0.106
-644.726	477.742	0.136	0.309
-643.711	-144.268	0.092	0.009
-642.697	117.741	0.146	0.181
-641.682	298.746	-0.092	0.171
-640.668	108.488	-0.205	-0.245
-639.653	233.588	0.102	-0.168
-638.638	83.725	0.393	-0.430
-637.624	-86.274	-0.438	-0.135
-636.609	0.282	0.170	0.121
-635.595	-200.000	-0.008	-0.048
-634.580	-121.081	-0.284	-0.048
-633.565	30.282	0.037	0.032
-632.551	222.436	-0.325	-0.525
-631.536	617.892	-0.094	-0.238
-630.522	-200.000	0.003	0.185
-629.507	248.649	0.150	-0.255
-628.492	800.000	0.072	0.276
-627.478	-124.676	-0.233	-0.036
-626.463	460.094	0.030	-0.067
-625.449	-80.261	0.173	0.058
-624.434	263.286	0.053	-0.092
-623.419	800.000	-0.084	0.294
-622.405	-169.690	0.473	0.017
-621.390	-115.880	-0.166	0.031
-620.376	-120.070	0.147	-0.025
-619.361	-200.000	0.010	0.215
-618.346	25.084	-0.016	0.013
-617.332	65.906	-0.095	0.097
-616.317	15.789	-0.135	0.106
-615.303	-95.683	-0.149	0.040
-614.288	356.193	-0.007	-0.014
-613.273	-22.558	-0.083	0.050
-612.259	-73.561	0.087	-0.032
-611.244	-200.000	0.023	-0.134
-610.230	-200.000	-0.039	0.229
-609.215	511.698	0.106	-0.246
-608.201	23.884	0.180	-0.149
-607.186	-64.724	-0.198	0.080
-606.171	-200.000	0.009	-0.204
-605.157	36.760	-0.369	0.327
-604.142	-35.557	0.183	0.100
-603.128	173.636	0.064	0.092
-602.113	800.000	-0.018	0.078
-601.098	-200.000	0.007	0.145
-600.084	295.427	0.015	0.028
-599.069	-200.000	0.043	0.352
-598.055	-186.321	0.158	-0.002
-597.040	270.931	0.094	0.165
-596.025	800.000	0.068	0.292
-595.011	-48.873	0.213	-0.103
-593.996	125.338	0.246	-0.311
-592.982	371.758	0.086	-0.175
-591.967	800.000	-0.072	0.214
-590.952	-21.898	-0.358	-0.218
-589.938	-19.497	-0.367	-0.228
-588.923	-60.820	-0.267	0.113
-587.909	475.093	0.112	-0.253
-586.894	571.413	0.045	-0.109
-585.879	-69.944	0.152	-0.058
-584.865	559.567	0.056	-0.136
-583.850	-17.922	-0.354	-0.222
-582.836	393.347	0.165	-0.344
-581.821	-63.616	0.247	-0.102
-580.806	-122.926	-0.166	-0.027
-579.792	-200.000	0.000	0.001
-578.777	-200.000	0.030	-0.297
-577.763	-62.183	-0.154	0.064
-576.748	-128.358	0.200	-0.029
-575.733	16.463	-0.216	-0.171
-574.719	223.471	-0.192	-0.310
-573.704	28.068	-0.380	-0.321
-572.690	580.295	0.095	-0.232
-571.675	-200.000	-0.044	-0.270
-570.661	-22.244	-0.193	-0.117
-569.646	800.000	-0.135	-0.475
-568.631	-165.326	-0.244	-0.011
-567.617	-200.000	-0.086	0.456
-566.602	-51.312	-0.367	-0.172
-565.588	800.000	0.050	-0.143
-564.573	-105.197	-0.268	0.061
-563.558	800.000	-0.041	0.119
-562.544	-120.653	0.217	-0.037
-561.529	-125.263	0.100	0.015
-560.515	370.598	0.180	0.366
-559.500	800.000	0.071	-0.267
-558.485	295.322	0.099	0.182
-557.471	-142.189	-0.398	0.039
-556.456	718.930	0.083	-0.221
-555.442	-128.524	-0.201	0.028
-554.427	-200.000	-0.030	0.268
-553.412	-68.844	0.358	0.138
-552.398	-200.000	-0.036	-0.203
-551.383	7.291	-0.146	0.109
-550.369	-148.756	0.213	-0.017
-549.354	25.097	0.306	-0.254
-548.339	24.735	-0.306	-0.254
-547.325	800.000	0.044	0.136
-546.310	277.744	-0.123	-0.219
-545.296	800.000	0.017	-0.054
-544.281	-97.550	-0.227	-0.059
-543.266	-200.000	0.009	0.058
-542.252	-200.000	-0.041	0.309
-541.237	-152.413	-0.313	-0.022
-540.223	275.108	-0.111	-0.196
-539.208	28.287	-0.215	-0.181
-538.193	-200.000	0.020	0.107
-537.179	-200.000	-0.011	0.167
-536.164	243.485	-0.063	0.106
-535.150	38.724	-0.198	-0.177
-534.135	-50.909	0.157	0.074
-533.121	-187.784	0.302	0.004
-532.106	33.193	0.190	-0.165
-531.091	800.000	-0.048	-0.152
-530.077	124.856	-0.062	-0.078
-529.062	131.726	-0.138	0.177
-528.048	278.082	-0.107	-0.190
-527.033	-200.000	0.026	0.000
-526.018	-24.922	-0.142	-0.084
-525.004	-200.000	-0.016	0.229
-523.989	-200.000	-0.019	0.213
-522.975	-101.758	-0.087	-0.021
-521.960	-67.361	0.128	-0.050
-520.945	280.425	0.149	0.266
-519.931	21.701	0.305	0.248
-518.916	190.084	-0.073	0.109
-517.902	-5.514	-0.394	-0.270
-516.887	261.723	-0.251	-0.434
-515.872	-63.113	0.181	-0.075
-514.858	-88.879	0.172	0.051
-513.843	180.032	0.041	0.060
-512.829	-44.814	-0.203	-0.101
-511.814	646.555	-0.070	0.179
-510.799	35.427	0.180	0.158
-509.785	395.521	0.013	-0.028
-508.770	-127.375	0.539	-0.078
-507.756	-200.000	0.012	0.129
-506.741	79.384	0.243	-0.261
-505.726	800.000	-0.083	-0.335
-504.712	338.138	0.154	0.300
-503.697	-142.096	-0.134	-0.013
-502.683	143.274	0.051	0.068
-501.668	-98.321	0.092	-0.024
-500.653	-185.926	0.207	0.003
-499.639	148.691	-0.254	0.342
-498.624	-200.000	0.017	-0.091
-497.610	59.894	0.069	-0.068
-496.595	-200.000	0.000	0.068
-495.581	-56.465	0.029	-0.013
-494.566	289.958	0.132	-0.238
-493.551	485.537	-0.140	-0.319
-492.537	-200.000	-0.000	-0.426
-491.522	-200.000	-0.084	0.384
-490.508	-139.062	-0.100	-0.011
-489.493	-117.883	0.279	0.050
-488.478	-159.388	-0.068	0.004
-487.464	800.000	0.028	-0.086
-486.449	58.337	-0.114	0.111
-485.435	18.712	0.258	0.206
-484.420	3.302	-0.453	-0.329
-483.405	43.792	-0.245	0.224
-482.391	41.704	-0.160	-0.145
-481.376	-113.169	-0.180	0.035
-480.362	342.381	0.028	-0.054
-479.347	-20.164	0.175	0.108
-478.332	415.066	-0.126	0.268
-477.318	-200.000	0.001	-0.182
-476.303	-200.000	-0.018	-0.101
-475.289	-200.000	-0.024	0.176
-474.274	-177.108	-0.157	-0.004
-473.259	67.497	-0.125	-0.127
-472.245	-135.158	-0.263	-0.032
-471.230	90.247	-0.308	0.344
-470.216	151.114	-0.196	0.265
-469.201	800.000	0.178	0.565
-468.186	-41.885	0.054	-0.028
-467.172	569.461	-0.095	-0.229
-466.157	800.000	0.059	-0.252
-465.143	60.557	0.136	-0.135
-464.128	-98.991	-0.282	-0.071
-463.113	53.290	-0.112	-0.107
-462.099	7.995	-0.019	-0.014
-461.084	623.508	0.054	-0.136
-460.070	-29.131	-0.129	0.074
-459.055	626.239	0.170	-0.428
-458.040	-200.000	-0.139	0.000
-457.026	464.924	0.121	0.270
-456.011	-109.633	-0.268	-0.056
-454.997	10.703	-0.157	-0.119
-453.982	-200.000	0.014	-0.370
-452.968	-18.515	-0.065	-0.040
-451.953	-56.091	-0.279	-0.124
-450.938	-108.455	-0.149	-0.032
-449.924	-71.166	-0.311	-0.116
-448.909	800.000	0.049	-0.152
-447.895	-67.033	-0.083	0.032
-446.880	161.449	0.125	0.174
-445.865	160.442	-0.173	-0.240
-444.851	39.867	0.098	0.088
-443.836	289.281	-0.079	0.142
-442.822	-58.300	-0.114	0.049
-441.807	139.008	-0.089	-0.117
-440.792	101.239	0.112	0.130
-439.778	-40.728	0.236	0.122
-438.763	-87.782	-0.483	-0.145
-437.749	-109.349	-0.171	-0.036
-436.734	-200.000	-0.012	-0.140
-435.719	307.219	-0.085	-0.158
-434.705	169.907	0.168	-0.239
-433.690	25.971	0.170	0.141
-432.676	339.064	-0.126	0.244
-431.661	36.968	-0.165	0.145
-430.646	744.975	0.094	-0.252
-429.632	180.610	-0.060	0.088
-428.617	-65.386	-0.105	0.042
-427.603	17.091	-0.173	0.136
-426.588	228.849	-0.066	0.106
-425.573	-150.484	0.209	0.016
-424.559	-3.035	0.161	0.112
-423.544	-165.101	0.459	0.020
-422.530	800.000	-0.063	0.201
-421.515	108.780	-0.187	0.223
-420.500	131.071	0.190	0.242
-419.486	254.320	-0.100	-0.170
-418.471	-54.137	-0.009	-0.004
-417.457	230.435	0.117	0.190
-416.442	-75.397	0.350	0.124
-415.428	-28.066	-0.079	0.045
-414.413	125.482	0.174	0.218
-413.398	-200.000	0.096	0.532
-412.384	-59.952	0.033	-0.014
-411.369	65.716	0.032	-0.032
-410.355	-79.385	0.085	0.028
-409.340	67.172	-0.216	0.219
-408.325	448.803	-0.109	-0.240
-407.311	-200.000	0.001	-0.036
-406.296	-92.785	-0.277	-0.077
-405.282	-5.896	-0.323	0.220
-404.267	-65.878	0.295	0.117
-403.252	800.000	0.086	-0.344
-402.238	-100.063	-0.107	-0.026
-401.223	197.786	-0.149	-0.227
-400.209	-165.063	0.149	-0.007
-399.194	-100.256	0.187	0.046
-398.179	-73.324	0.181	0.066
-397.165	-42.139	-0.200	-0.101
-396.150	327.624	0.105	0.201
-395.136	-200.000	0.038	0.309
-394.121	202.897	0.220	-0.337
-393.106	800.000	0.068	-0.186
-392.092	-113.226	0.353	-0.069
-391.077	-91.993	0.268	0.075
-390.063	-119.900	-0.251	0.043
-389.048	265.557	-0.070	0.122
-388.033	-180.303	0.008	-0.000
-387.019	347.014	0.043	0.085
-386.004	-41.643	0.315	-0.161
-384.990	53.021	0.149	0.141
-383.975	183.663	0.186	0.273
-382.960	800.000	-0.033	0.099
-381.946	-44.780	-0.215	-0.107
-380.931	183.442	-0.151	0.222
-379.917	3.975	-0.137	-0.100
-378.902	-200.000	0.044	0.217
-377.888	123.231	0.245	0.305
-376.873	-200.000	0.029	0.310
-375.858	107.591	-0.326	0.385
-374.844	-95.278	0.156	-0.042
-373.829	-86.724	-0.119	0.036
-372.815	-147.299	-0.252	-0.021
-371.800	398.470	0.163	-0.340
-370.785	-94.165	-0.269	-0.073
-369.771	-66.535	0.259	0.102
-368.756	-84.581	0.200	-0.063
-367.742	-11.206	0.332	-0.217
-366.727	97.462	-0.086	0.098
-365.712	-200.000	-0.040	0.187
-364.698	48.844	0.211	0.196
-363.683	-21.973	0.156	-0.094
-362.669	-92.902	-0.256	0.071
-361.654	-200.000	-0.043	0.274
-360.639	800.000	0.027	0.079
-359.625	-86.055	-0.322	0.099
-358.610	-15.415	0.219	0.139
-357.596	136.474	-0.094	-0.122
-356.581	-98.859	-0.424	0.107
-355.566	-84.500	-0.162	-0.051
-354.552	-200.000	-0.020	-0.249
-353.537	-16.545	0.543	0.341
-352.523	-200.000	0.016	-0.232
-351.508	-78.405	-0.097	0.033
-350.493	97.060	0.363	0.413
-349.479	-135.630	-0.270	-0.032
-348.464	-200.000	0.012	-0.166
-347.450	453.519	0.053	-0.117
-346.435	-75.251	0.230	0.082
-345.420	-200.000	-0.002	-0.103
-344.406	800.000	0.065	0.222
-343.391	350.778	0.065	-0.128
-342.377	-200.000	-0.034	-0.321
-341.362	-112.191	0.280	0.056
-340.348	586.140	0.018	-0.044
-339.333	353.839	-0.093	-0.183
-338.318	-200.000	0.002	0.250
-337.304	-153.457	-0.257	0.018
-336.289	117.890	-0.166	0.203
-335.275	-19.409	0.263	0.161
-334.260	-97.828	0.181	-0.046
-333.245	-49.511	0.098	0.046
-332.231	-200.000	0.041	0.189
-331.216	582.319	0.047	0.114
-330.202	59.257	-0.075	-0.073
-329.187	682.086	-0.071	-0.185
-328.172	800.000	-0.058	0.211
-327.158	-97.383	-0.221	0.057
-326.143	-200.000	-0.000	0.203
-325.129	-200.000	0.016	-0.136
-324.114	-43.257	-0.292	-0.147
-323.099	-44.325	0.384	-0.191
-322.085	-70.335	0.326	-0.123
-321.070	800.000	0.054	-0.175
-320.056	268.622	0.032	0.056
-319.041	-200.000	-0.003	0.057
-318.026	127.490	0.065	0.082
-317.012	759.985	0.147	0.394
-315.997	-52.708	0.204	-0.093
-314.983	-125.314	-0.184	0.028
-313.968	-160.872	0.265	-0.014
-312.953	-50.482	-0.239	0.112
-311.939	36.354	0.044	0.038
-310.924	-119.867	0.112	-0.019
-309.910	-200.000	0.005	0.043
-308.895	169.422	0.095	-0.134
-307.880	216.279	0.074	-0.117
-306.866	-48.564	0.175	-0.083
-305.851	-102.398	-0.243	-0.058
-304.837	-200.000	-0.025	0.244
-303.822	46.453	0.128	0.118
-302.807	10.062	-0.109	-0.082
-301.793	-10.543	0.111	-0.073
-300.778	275.520	-0.106	0.187
-299.764	133.425	-0.186	0.238
-298.749	-200.000	-0.007	-0.309
-297.735	5.113	0.103	-0.075
-296.720	37.090	-0.220	0.193
-295.705	70.539	-0.162	-0.166
-294.691	-51.848	0.280	-0.129
-293.676	-42.257	0.143	-0.072
-292.662	-106.267	-0.133	-0.030
-291.647	-70.509	0.378	0.141
-290.632	96.206	-0.056	0.063
-289.618	223.705	-0.066	0.106
-288.603	-42.547	0.375	0.189
-287.589	81.501	-0.304	-0.325
-286.574	800.000	-0.076	-0.222
-285.559	-200.000	-0.033	-0.185
-284.545	-49.957	0.378	-0.178
-283.530	-40.232	-0.226	0.116
-282.516	131.842	-0.048	-0.061
-281.501	-63.030	0.260	-0.106
-280.486	-110.039	0.192	-0.040
-279.472	-13.305	0.139	0.089
-278.457	-23.236	-0.272	0.162
-277.443	-88.803	0.148	-0.044
-276.428	-50.440	-0.172	0.080
-275.413	-200.000	-0.025	0.140
-274.399	800.000	-0.088	0.323
-273.384	178.658	0.091	0.132
-272.370	351.678	-0.146	0.287
-271.355	800.000	-0.113	0.342
-270.340	611.950	-0.118	-0.292
-269.326	286.325	0.037	-0.067
-268.311	-107.210	0.023	-0.005
-267.297	-200.000	-0.053	0.282
-266.282	-200.000	-0.001	-0.314
-265.267	-189.889	-0.284	-0.003
-264.253	-200.000	-0.068	0.311
-263.238	282.470	0.047	0.084
-262.224	-98.061	0.254	-0.065
-261.209	-200.000	0.011	-0.138
-260.195	-42.202	-0.312	0.158
-259.180	800.000	0.079	0.248
-258.165	66.481	0.205	0.206
-257.151	-33.029	-0.091	-0.050
-256.136	-200.000	0.003	0.102
-255.122	-51.438	0.136	0.063
-254.107	-150.956	0.098	-0.007
-253.092	10.835	0.098	0.074
-252.078	-79.113	-0.093	-0.031
-251.063	-200.000	0.041	-0.325
-250.049	-58.394	0.164	0.070
-249.034	-25.485	0.204	-0.119
-248.019	192.045	0.163	-0.243
-247.005	-200.000	-0.005	-0.112
-245.990	726.465	0.048	0.126
-244.976	-88.160	-0.177	-0.052
-243.961	203.513	0.074	-0.113
-242.946	177.664	0.127	0.182
-241.932	308.867	0.006	-0.012
-240.917	800.000	0.043	0.186
-239.903	-200.000	-0.051	-0.229
-238.888	-200.000	0.039	0.199
-237.873	27.870	0.250	-0.208
-236.859	90.652	0.259	-0.286
-235.844	207.124	-0.072	0.112
-234.830	-104.557	0.198	-0.045
-233.815	-121.181	-0.074	0.012
-232.800	-82.922	-0.318	-0.101
-231.786	373.311	-0.028	0.056
-230.771	37.191	0.191	-0.167
-229.757	14.709	0.160	0.124
-228.742	459.447	0.121	-0.265
-227.727	-97.734	0.140	0.036
-226.713	494.842	-0.157	0.355
-225.698	-14.147	0.160	0.102
-224.684	495.600	-0.166	0.376
-223.669	320.607	-0.110	0.207
-222.655	-180.568	-0.209	0.004
-221.640	-200.000	-0.019	0.181
-220.625	-106.220	-0.245	-0.054
-219.611	-200.000	-0.014	-0.210
-218.596	-137.470	-0.172	0.019
-217.582	27.930	0.230	-0.191
-216.567	45.405	0.199	-0.181
-215.552	-91.684	0.031	0.009
-214.538	595.427	0.083	-0.202
-213.523	285.210	0.076	0.136
-212.509	-153.632	0.145	-0.010
-211.494	-114.225	0.184	0.035
-210.479	-123.160	0.245	-0.039
-209.465	-13.396	-0.001	-0.001
-208.450	-174.146	0.224	-0.006
-207.436	-200.000	0.014	-0.091
-206.421	88.333	0.178	0.196
-205.406	621.723	-0.145	-0.360
-204.392	153.511	-0.064	-0.087
-203.377	480.938	0.122	-0.274
-202.363	100.196	0.242	-0.276
-201.348	-183.313	-0.257	0.004
-200.333	220.053	0.122	-0.194
-199.319	-25.908	0.270	-0.157
-198.304	167.564	-0.067	-0.093
-197.290	540.959	-0.105	-0.246
-196.275	240.731	-0.034	0.056
-195.260	10.758	-0.486	0.366
-194.246	-170.349	-0.011	0.000
-193.231	19.437	0.239	-0.189
-192.217	105.059	-0.183	0.213
-191.202	800.000	-0.089	0.358
-190.187	-173.747	-0.321	-0.009
-189.173	800.000	-0.074	0.244
-188.158	219.744	0.086	0.136
-187.144	651.338	-0.029	-0.072
-186.129	-81.458	0.174	0.056
-185.114	-61.646	0.202	0.084
-184.100	15.701	-0.133	0.103
-183.085	83.918	0.212	0.229
-182.071	107.946	0.113	0.133
-181.056	269.476	-0.059	0.102
-180.042	609.119	0.090	0.222
-179.027	-132.403	0.041	0.005
-178.012	263.761	0.105	0.180
-176.998	800.000	-0.036	-0.118
-175.983	-91.168	-0.226	-0.064
-174.969	-12.270	-0.030	-0.020
-173.954	-200.000	0.016	0.108
-172.939	32.728	0.168	0.143
-171.925	-82.906	0.180	-0.057
-170.910	150.608	-0.066	0.088
-169.896	-140.620	-0.229	-0.023
-168.881	-87.646	0.097	0.029
-167.866	-200.000	-0.039	-0.258
-166.852	-200.000	-0.011	-0.168
-165.837	244.334	0.318	0.526
-164.823	-56.269	0.089	-0.039
-163.808	-200.000	0.078	-0.397
-162.793	11.077	0.066	0.050
-161.779	-52.010	0.317	0.145
-160.764	800.000	-0.051	-0.208
-159.750	455.507	-0.078	0.171
-158.735	281.715	0.075	-0.133
-157.720	-126.645	-0.179	-0.026
-156.706	295.441	-0.128	0.230
-155.691	800.000	0.084	-0.232
-154.677	-123.489	0.237	-0.037
-153.662	306.497	-0.145	-0.266
-152.647	-200.000	0.038	-0.330
-151.633	22.902	0.150	-0.121
-150.618	-64.561	-0.197	0.079
-149.604	-118.649	0.190	-0.033
-148.589	-200.000	0.001	0.125
-147.574	-80.435	0.369	0.121
-146.560	-186.837	-0.402	-0.006
-145.545	-93.415	0.085	-0.023
-144.531	-120.680	0.227	-0.038
-143.516	136.735	-0.182	0.234
-142.502	135.151	0.102	0.130
-141.487	-114.512	-0.217	0.041
-140.472	-200.000	-0.003	-0.031
-139.458	416.424	0.018	-0.037
-138.443	-200.000	-0.037	0.268
-137.429	193.935	-0.061	-0.091
-136.414	-200.000	-0.043	0.194
-135.399	-50.146	-0.264	-0.123
-134.385	-200.000	-0.039	-0.310
-133.370	-16.613	-0.214	0.133
-132.356	-133.398	0.079	0.010
-131.341	-152.936	0.328	-0.023
-130.326	-200.000	-0.049	-0.266
-129.312	90.313	-0.123	0.136
-128.297	-200.000	-0.024	0.138
-127.283	0.813	-0.287	0.202
-126.268	215.853	-0.130	0.204
-125.253	800.000	-0.105	0.325
-124.239	61.092	-0.078	0.076
-123.224	-155.827	-0.117	-0.007
-122.210	142.729	0.134	-0.175
-121.195	-110.321	0.106	0.022
