DTS Sentinel unit serial number:	SN413079Multiplexer serial number:	ORYXHardware model number:	OX4-SRSoftware version number:	ORYX F/W v4.00 Oryx Data Collector v3.7.2.0data status	okinstallation	princeton_trtdifferential loss correction	single-endedforward channel	channel 1reverse channel	N/Adate	2019/09/12time	21:18:35forward acquisition time	60.00reverse acquisition time	0.00gamma	496.2192k internal	0.2325k external	0.2325temperature offset calibration	1.0146default loss term (dB/km)	0.3790temperature slope calibration	1.0000multiplexer offset coefficient	1.0000multiplexer slope coefficient	1.0000fibre end	0.00T internal ref (°C)	30.59T ext. ref 1 (°C)	3.70T ext. ref 2 (°C)	25.20length (m)	temperature (°C)	Stokes	anti-Stokes-747.200	390.093	-0.166	0.348
-746.185	93.171	0.193	0.220
-745.171	-179.532	0.444	0.010
-744.156	212.601	0.027	-0.042
-743.142	-1.093	-0.104	-0.074
-742.127	72.962	-0.117	0.123
-741.112	-129.956	-0.140	-0.019
-740.098	-200.000	0.067	0.367
-739.083	150.912	-0.121	0.166
-738.069	180.986	0.079	-0.118
-737.054	-24.883	0.235	0.141
-736.039	-90.868	-0.423	0.123
-735.025	385.148	0.022	-0.046
-734.010	77.014	-0.149	0.160
-732.996	-200.000	-0.011	-0.082
-731.981	731.990	-0.039	0.104
-730.966	-12.141	-0.089	0.059
-729.952	-200.000	-0.004	0.025
-728.937	62.382	-0.156	0.157
-727.923	-25.291	-0.151	-0.090
-726.908	-142.683	-0.235	0.023
-725.894	-200.000	0.026	-0.181
-724.879	-200.000	-0.036	-0.215
-723.864	-200.000	-0.006	-0.268
-722.850	9.481	0.141	0.107
-721.835	64.170	0.253	-0.257
-720.821	800.000	0.036	-0.120
-719.806	-92.403	0.086	0.024
-718.791	-128.646	0.321	-0.046
-717.777	-200.000	0.033	-0.199
-716.762	209.745	-0.248	0.392
-715.748	120.816	-0.212	0.265
-714.733	800.000	0.017	0.050
-713.718	64.507	-0.024	0.024
-712.704	-28.786	0.350	0.203
-711.689	800.000	-0.054	-0.224
-710.675	-153.908	0.404	-0.028
-709.660	109.254	0.084	0.101
-708.645	17.114	0.245	-0.196
-707.631	143.895	0.179	-0.240
-706.616	21.483	-0.143	0.117
-705.602	605.915	0.209	-0.525
-704.587	227.483	0.085	-0.140
-703.572	219.282	-0.224	-0.361
-702.558	47.731	0.236	0.221
-701.543	-200.000	0.019	0.169
-700.529	86.201	-0.226	-0.251
-699.514	306.964	0.105	0.197
-698.499	-200.000	0.041	-0.249
-697.485	-102.013	0.144	-0.035
-696.470	800.000	-0.046	-0.145
-695.456	-74.445	0.252	0.092
-694.441	-54.132	-0.336	0.154
-693.426	-200.000	0.041	-0.232
-692.412	-76.549	0.054	-0.019
-691.397	181.565	-0.288	0.426
-690.383	-88.716	0.333	-0.100
-689.368	-14.426	-0.118	-0.076
-688.354	358.242	-0.151	0.304
-687.339	50.402	-0.076	-0.072
-686.324	-106.199	0.135	-0.030
-685.310	-132.105	0.254	-0.033
-684.295	4.624	-0.083	-0.061
-683.281	-60.633	0.203	-0.087
-682.266	9.962	-0.087	0.066
-681.251	-63.946	-0.171	-0.070
-680.237	-200.000	-0.021	-0.103
-679.222	370.302	0.042	-0.086
-678.208	-200.000	0.012	-0.300
-677.193	-51.028	-0.325	-0.153
-676.178	-72.318	0.165	0.061
-675.164	677.281	-0.104	-0.273
-674.149	800.000	-0.099	0.365
-673.135	-200.000	-0.012	0.273
-672.120	-13.699	0.118	0.077
-671.105	147.808	0.231	-0.314
-670.091	514.247	0.049	-0.114
-669.076	-200.000	0.009	0.279
-668.062	462.390	-0.095	0.213
-667.047	-178.576	0.429	0.010
-666.032	63.031	0.310	-0.312
-665.018	79.745	-0.162	-0.175
-664.003	26.514	0.164	-0.138
-662.989	207.189	0.061	-0.095
-661.974	79.567	0.086	0.093
-660.959	-200.000	-0.007	-0.044
-659.945	-200.000	-0.025	0.120
-658.930	339.042	0.104	0.203
-657.916	-200.000	0.023	-0.150
-656.901	-95.924	0.192	0.052
-655.886	484.767	0.031	0.070
-654.872	800.000	-0.128	0.451
-653.857	104.555	-0.166	-0.197
-652.843	81.331	0.099	-0.108
-651.828	69.855	0.069	0.071
-650.814	67.623	0.119	-0.123
-649.799	-193.317	-0.304	0.003
-648.784	-109.579	-0.088	0.019
-647.770	-2.696	-0.207	-0.146
-646.755	800.000	-0.043	-0.164
-645.741	-200.000	0.005	0.048
-644.726	800.000	-0.056	-0.230
-643.711	263.560	-0.106	-0.185
-642.697	-200.000	-0.029	-0.222
-641.682	-38.258	-0.080	0.043
-640.668	31.236	-0.255	-0.220
-639.653	193.248	0.115	-0.175
-638.638	800.000	0.061	0.200
-637.624	455.735	0.159	0.355
-636.609	800.000	-0.041	-0.177
-635.595	342.552	0.119	0.234
-634.580	800.000	-0.041	-0.130
-633.565	-200.000	0.022	-0.388
-632.551	227.384	-0.066	0.108
-631.536	619.037	-0.077	0.195
-630.522	-35.668	-0.046	0.025
-629.507	-183.296	-0.236	0.004
-628.492	738.725	0.107	-0.288
-627.478	-200.000	0.006	0.309
-626.463	-39.598	-0.123	0.065
-625.449	642.672	0.157	-0.402
-624.434	348.481	-0.092	0.182
-623.419	-106.419	-0.049	-0.011
-622.405	72.655	0.061	-0.064
-621.390	-90.898	0.469	-0.136
-620.376	800.000	0.044	0.186
-619.361	800.000	0.035	0.139
-618.346	-133.496	0.219	-0.028
-617.332	-137.018	-0.237	0.027
-616.317	-41.828	0.193	-0.099
-615.303	-50.970	0.303	0.143
-614.288	800.000	-0.032	0.126
-613.273	596.499	-0.127	0.315
-612.259	-78.648	-0.362	-0.124
-611.244	-38.725	-0.349	0.185
-610.230	-200.000	-0.004	0.084
-609.215	243.375	0.168	-0.283
-608.201	-125.235	-0.236	0.036
-607.186	112.080	0.197	0.239
-606.171	-58.190	0.247	-0.108
-605.157	-200.000	0.004	-0.207
-604.142	11.622	0.211	0.163
-603.128	-18.210	-0.286	0.179
-602.113	-66.509	-0.134	0.053
-601.098	272.540	0.062	-0.110
-600.084	-200.000	0.047	-0.224
-599.069	255.499	0.055	0.095
-598.055	-36.659	0.056	-0.030
-597.040	-8.991	-0.111	-0.075
-596.025	118.040	-0.207	0.256
-595.011	127.578	0.054	0.068
-593.996	800.000	0.039	0.131
-592.982	-95.253	-0.050	0.014
-591.967	-17.719	0.060	-0.038
-590.952	-23.837	0.189	0.113
-589.938	365.501	0.045	-0.091
-588.923	23.177	-0.110	-0.091
-587.909	200.956	0.268	-0.413
-586.894	291.429	0.057	-0.104
-585.879	132.016	0.164	0.211
-584.865	225.242	-0.127	-0.206
-583.850	-124.455	-0.073	0.011
-582.836	60.128	-0.164	-0.163
-581.821	800.000	-0.023	0.074
-580.806	-87.812	0.243	0.073
-579.792	800.000	0.087	-0.250
-578.777	74.446	-0.200	-0.211
-577.763	-59.533	-0.189	0.081
-576.748	800.000	0.062	-0.171
-575.733	-200.000	-0.006	-0.172
-574.719	-143.180	0.266	-0.026
-573.704	800.000	-0.074	-0.246
-572.690	-141.522	-0.169	0.017
-571.675	-165.362	0.240	-0.011
-570.661	-95.917	-0.201	-0.054
-569.646	160.480	0.168	-0.235
-568.631	111.177	0.057	-0.068
-567.617	-200.000	0.002	0.165
-566.602	-200.000	0.001	0.011
-565.588	210.681	-0.049	0.076
-564.573	-119.686	-0.117	0.020
-563.558	-200.000	0.050	-0.277
-562.544	88.152	0.178	0.198
-561.529	-12.642	-0.116	-0.076
-560.515	800.000	-0.062	-0.261
-559.500	-94.831	-0.059	-0.016
-558.485	236.404	0.201	0.333
-557.471	186.348	-0.137	-0.205
-556.456	-150.671	-0.333	0.025
-555.442	246.990	0.101	-0.170
-554.427	367.078	-0.134	-0.270
-553.412	-200.000	-0.014	0.089
-552.398	-138.954	-0.158	0.017
-551.383	-54.022	-0.073	-0.033
-550.369	-200.000	0.004	-0.174
-549.354	117.683	-0.164	0.202
-548.339	-200.000	-0.014	0.294
-547.325	14.502	0.286	0.224
-546.310	-63.952	-0.200	0.082
-545.296	-90.054	0.041	-0.012
-544.281	275.830	0.068	-0.122
-543.266	-1.319	0.187	-0.132
-542.252	55.749	0.070	-0.068
-541.237	-99.618	-0.211	-0.053
-540.223	91.210	0.125	0.141
-539.208	-53.436	0.150	0.069
-538.193	800.000	0.128	-0.399
-537.179	704.597	-0.095	-0.250
-536.164	674.178	0.094	0.244
-535.150	-115.560	0.122	-0.023
-534.135	-200.000	-0.041	-0.278
-533.121	51.165	0.156	0.148
-532.106	122.239	-0.078	0.097
-531.091	-11.472	-0.266	0.175
-530.077	698.257	0.048	-0.127
-529.062	109.815	0.076	-0.091
-528.048	800.000	0.118	-0.440
-527.033	800.000	-0.041	-0.170
-526.018	85.751	0.051	-0.056
-525.004	120.532	-0.244	0.303
-523.989	-89.943	0.285	-0.083
-522.975	800.000	-0.068	-0.218
-521.960	-200.000	0.000	-0.163
-520.945	108.681	-0.159	0.190
-519.931	38.169	-0.136	0.121
-518.916	35.997	0.144	-0.127
-517.902	800.000	-0.063	-0.178
-516.887	298.986	0.041	0.075
-515.872	-200.000	-0.020	-0.267
-514.858	48.125	-0.180	-0.168
-513.843	117.155	-0.153	-0.188
-512.829	-166.952	-0.261	0.011
-511.814	-200.000	0.043	-0.461
-510.799	-142.266	-0.104	0.010
-509.785	-86.803	-0.155	0.047
-508.770	800.000	0.017	-0.057
-507.756	-42.441	0.068	0.035
-506.741	56.123	-0.268	0.260
-505.726	-87.040	-0.183	-0.056
-504.712	-200.000	0.008	0.068
-503.697	-170.881	0.278	-0.010
-502.683	58.463	-0.166	-0.162
-501.668	488.022	0.052	0.119
-500.653	99.223	-0.195	0.225
-499.639	800.000	-0.042	-0.182
-498.624	591.371	-0.094	-0.232
-497.610	47.419	-0.134	-0.124
-496.595	4.786	-0.121	-0.089
-495.581	13.320	0.489	-0.378
-494.566	-121.614	0.306	0.051
-493.551	-36.211	0.042	0.022
-492.537	-31.155	0.252	-0.142
-491.522	-200.000	-0.027	0.166
-490.508	164.870	-0.145	-0.204
-489.493	-53.580	-0.103	-0.047
-488.478	800.000	-0.077	-0.295
-487.464	-37.964	0.162	-0.086
-486.449	-200.000	0.021	0.203
-485.435	545.427	-0.120	-0.287
-484.420	53.141	-0.189	0.180
-483.405	-144.353	-0.270	0.025
-482.391	-14.529	-0.074	-0.047
-481.376	-11.211	-0.183	-0.120
-480.362	253.785	0.087	0.148
-479.347	-183.270	-0.322	0.006
-478.332	468.717	-0.116	0.261
-477.318	37.009	-0.104	0.092
-476.303	449.557	0.034	0.075
-475.289	196.064	-0.164	-0.249
-474.274	135.537	-0.054	-0.070
-473.259	-200.000	0.017	0.252
-472.245	129.069	0.115	0.146
-471.230	-166.833	0.210	0.009
-470.216	60.860	-0.258	0.256
-469.201	101.510	-0.057	-0.066
-468.186	394.143	0.136	0.283
-467.172	-102.703	0.046	-0.011
-466.157	-48.088	0.210	-0.101
-465.143	-200.000	-0.017	-0.145
-464.128	29.329	-0.151	0.128
-463.113	-51.420	-0.157	-0.073
-462.099	421.314	0.106	0.226
-461.084	-158.679	0.306	-0.018
-460.070	-177.489	-0.559	-0.014
-459.055	-112.196	0.191	-0.038
-458.040	-48.796	-0.106	0.051
-457.026	-200.000	-0.034	0.341
-456.011	54.184	0.153	-0.147
-454.997	671.035	-0.166	0.428
-453.982	39.944	0.050	0.045
-452.968	-82.933	0.133	0.043
-451.953	-26.452	-0.267	0.156
-450.938	-200.000	0.002	-0.059
-449.924	-69.343	-0.063	-0.024
-448.909	800.000	-0.108	-0.325
-447.895	327.948	0.053	-0.102
-446.880	54.145	-0.124	0.119
-445.865	119.245	0.035	-0.043
-444.851	202.461	-0.067	0.103
-443.836	-124.286	0.066	-0.010
-442.822	22.153	-0.208	0.169
-441.807	800.000	-0.057	0.246
-440.792	-200.000	0.041	-0.313
-439.778	229.153	0.075	0.122
-438.763	800.000	-0.096	0.340
-437.749	-200.000	-0.010	-0.054
-436.734	800.000	-0.121	0.408
-435.719	-200.000	0.084	0.424
-434.705	465.770	0.194	0.433
-433.690	-14.865	-0.106	-0.068
-432.676	6.760	0.262	0.195
-431.661	-190.292	-0.244	-0.003
-430.646	26.667	-0.330	0.275
-429.632	295.933	-0.061	-0.111
-428.617	-4.296	-0.243	-0.168
-427.603	-200.000	-0.005	0.123
-426.588	138.550	0.161	0.211
-425.573	163.678	0.054	0.075
-424.559	17.839	-0.251	-0.199
-423.544	147.871	0.136	-0.183
-422.530	-200.000	0.018	-0.277
-421.515	-53.695	-0.380	0.173
-420.500	-97.167	0.127	-0.033
-419.486	-39.638	-0.065	0.034
-418.471	-200.000	0.018	0.199
-417.457	293.523	0.095	-0.173
-416.442	104.049	-0.129	0.151
-415.428	401.353	0.084	0.175
-414.413	-200.000	0.067	-0.368
-413.398	83.640	-0.177	0.192
-412.384	-200.000	-0.024	0.171
-411.369	-100.273	0.085	0.021
-410.355	-101.150	-0.241	-0.059
-409.340	-117.090	-0.279	-0.051
-408.325	389.989	0.108	0.223
-407.311	58.341	-0.117	-0.115
-406.296	27.634	-0.167	0.140
-405.282	-200.000	-0.045	0.446
-404.267	186.615	0.127	0.189
-403.252	800.000	0.044	-0.136
-402.238	65.313	-0.068	-0.068
-401.223	44.285	0.171	0.156
-400.209	6.710	-0.200	-0.148
-399.194	-120.054	-0.108	-0.018
-398.179	-200.000	0.019	0.151
-397.165	-163.495	0.227	0.011
-396.150	13.935	0.306	-0.237
-395.136	-91.214	0.325	-0.093
-394.121	-4.828	0.209	-0.143
-393.106	14.170	-0.160	-0.124
-392.092	-179.585	0.171	-0.004
-391.077	-200.000	-0.040	0.216
-390.063	-175.597	-0.160	-0.004
-389.048	-88.147	0.006	0.002
-388.033	245.773	-0.014	0.023
-387.019	-62.880	0.295	0.122
-386.004	800.000	-0.072	-0.288
-384.990	12.700	-0.118	0.090
-383.975	-200.000	-0.010	0.245
-382.960	-100.267	0.179	0.044
-381.946	-200.000	-0.032	-0.226
-380.931	447.923	-0.056	0.123
-379.917	800.000	0.043	-0.144
-378.902	2.822	0.164	0.118
-377.888	123.592	0.155	-0.194
-376.873	800.000	0.085	0.295
-375.858	800.000	0.024	0.074
-374.844	-68.208	-0.288	-0.111
-373.829	-200.000	0.016	-0.116
-372.815	-86.067	0.289	0.089
-371.800	-50.045	-0.216	-0.102
-370.785	-55.377	-0.133	0.059
-369.771	369.118	0.176	-0.354
-368.756	-141.787	0.173	0.017
-367.742	108.438	0.172	0.204
-366.727	174.380	0.167	-0.240
-365.712	320.603	0.181	-0.342
-364.698	-84.290	0.275	0.086
-363.683	800.000	-0.083	0.282
-362.669	108.805	-0.074	0.088
-361.654	-61.993	0.386	0.160
-360.639	708.812	-0.098	0.258
-359.625	206.370	-0.182	-0.281
-358.610	-118.606	0.098	-0.017
-357.596	48.553	-0.172	-0.160
-356.581	-84.264	-0.137	0.043
-355.566	-91.806	0.192	0.054
-354.552	-105.846	-0.531	0.119
-353.537	800.000	0.097	0.306
-352.523	-122.696	0.137	0.022
-351.508	-122.840	-0.219	-0.035
-350.493	82.366	0.220	-0.237
-349.479	-173.416	-0.232	-0.007
-348.464	-187.888	0.093	0.001
-347.450	26.936	0.072	-0.060
-346.435	7.771	-0.343	0.255
-345.420	399.808	-0.049	0.103
-344.406	-200.000	0.011	0.149
-343.391	151.669	-0.165	0.224
-342.377	637.319	-0.071	-0.178
-341.362	-25.522	-0.150	0.088
-340.348	800.000	-0.037	-0.107
-339.333	-131.342	-0.181	-0.024
-338.318	172.225	-0.225	0.321
-337.304	92.013	0.155	-0.173
-336.289	197.399	0.062	0.094
-335.275	-131.583	0.300	0.039
-334.260	101.448	-0.203	-0.235
-333.245	17.733	0.214	0.169
-332.231	800.000	0.073	-0.283
-331.216	800.000	-0.104	-0.369
-330.202	-118.459	0.298	-0.052
-329.187	-148.280	0.120	0.010
-328.172	-200.000	0.066	-0.429
-327.158	-75.805	-0.466	0.164
-326.143	-62.892	0.205	-0.084
-325.129	-4.730	-0.111	-0.076
-324.114	148.141	0.263	-0.352
-323.099	-200.000	0.042	-0.246
-322.085	15.681	-0.102	0.079
-321.070	-134.031	0.042	-0.005
-320.056	-41.501	0.240	0.122
-319.041	11.864	-0.234	0.178
-318.026	59.638	-0.109	-0.107
-317.012	-197.284	0.213	0.001
-315.997	27.980	0.326	0.273
-314.983	-18.461	0.370	0.229
-313.968	-136.533	-0.678	0.078
-312.953	-148.054	-0.072	0.006
-311.939	-0.201	0.128	-0.091
-310.924	-200.000	0.008	0.264
-309.910	-200.000	-0.002	-0.121
-308.895	800.000	0.078	0.267
-307.880	-125.774	-0.111	0.017
-306.866	-70.854	-0.094	-0.035
-305.851	-200.000	-0.010	0.204
-304.837	15.424	0.251	0.195
-303.822	427.187	0.109	-0.233
-302.807	152.345	0.310	0.420
-301.793	-200.000	0.021	-0.149
-300.778	-85.440	0.128	-0.040
-299.764	4.348	-0.191	-0.138
-298.749	58.129	0.104	-0.101
-297.735	-200.000	0.002	-0.171
-296.720	7.917	0.171	0.127
-295.705	-129.609	-0.101	0.014
-294.691	33.281	-0.104	0.089
-293.676	800.000	0.086	0.307
-292.662	-20.575	-0.301	0.183
-291.647	-6.951	0.314	-0.211
-290.632	26.148	0.077	-0.063
-289.618	-200.000	0.014	-0.207
-288.603	-122.720	-0.503	0.081
-287.589	-2.837	-0.111	0.077
-286.574	-96.163	0.270	0.071
-285.559	4.711	0.234	-0.171
-284.545	49.843	-0.189	-0.177
-283.530	16.717	-0.159	0.125
-282.516	-28.425	-0.096	0.055
-281.501	-200.000	-0.031	-0.327
-280.486	800.000	-0.041	0.151
-279.472	-200.000	-0.113	0.000
-278.457	-164.852	-0.184	0.008
-277.443	789.726	0.097	-0.263
-276.428	182.079	0.086	0.126
-275.413	32.030	-0.087	-0.074
-274.399	-103.623	-0.162	-0.038
-273.384	282.924	-0.020	-0.035
-272.370	-41.686	-0.182	0.092
-271.355	137.636	0.091	-0.119
-270.340	181.117	0.037	0.054
-269.326	216.604	0.114	0.180
-268.311	231.827	-0.159	-0.258
-267.297	-50.322	0.045	0.021
-266.282	-116.530	0.126	0.023
-265.267	800.000	0.018	-0.065
-264.253	-71.419	0.307	-0.114
-263.238	-58.640	-0.159	0.068
-262.224	191.108	-0.020	0.029
-261.209	34.561	0.053	-0.046
-260.195	800.000	-0.065	-0.181
-259.180	-101.385	-0.183	-0.044
-258.165	-200.000	0.038	0.218
-257.151	214.853	-0.115	0.180
-256.136	-50.430	0.209	-0.098
-255.122	90.521	0.090	0.100
-254.107	-96.031	-0.157	0.041
-253.092	-110.837	0.152	0.031
-252.078	-187.501	0.202	-0.003
-251.063	800.000	-0.053	-0.164
-250.049	-200.000	0.019	-0.187
-249.034	91.553	-0.146	0.163
-248.019	-86.447	-0.320	-0.097
-247.005	-56.182	0.367	0.162
-245.990	-28.538	0.104	-0.059
-244.976	208.345	0.205	0.317
-243.961	-107.509	-0.144	0.031
-242.946	-96.791	0.206	-0.053
-241.932	-128.847	-0.120	-0.017
-240.917	-200.000	0.396	-0.002
-239.903	160.364	0.068	-0.094
-238.888	-200.000	0.011	0.169
-237.873	-103.140	-0.204	0.048
-236.859	-6.479	-0.111	-0.075
-235.844	66.687	-0.146	0.147
-234.830	201.392	0.203	-0.310
-233.815	-200.000	0.087	0.428
-232.800	-27.328	0.168	0.097
-231.786	-200.000	-0.020	-0.302
-230.771	-200.000	-0.008	0.247
-229.757	-60.631	0.312	-0.131
-228.742	-101.833	-0.051	-0.012
-227.727	-128.412	-0.153	-0.022
-226.713	91.217	0.115	0.127
-225.698	517.348	0.041	0.096
-224.684	-200.000	0.005	-0.145
-223.669	295.085	0.183	-0.330
-222.655	-71.424	0.459	-0.170
-221.640	14.330	0.075	-0.057
-220.625	-116.452	0.094	0.017
-219.611	22.627	-0.087	0.070
-218.596	-63.455	-0.150	-0.061
-217.582	-61.584	-0.052	0.022
-216.567	-113.072	0.503	0.098
-215.552	-141.122	0.227	0.023
-214.538	92.103	0.078	0.087
-213.523	142.807	0.201	0.263
-212.509	-5.475	0.079	0.054
-211.494	590.109	-0.151	-0.369
-210.479	-200.000	0.069	-0.371
-209.465	-121.487	0.142	-0.023
-208.450	-76.220	0.054	-0.019
-207.436	364.096	0.216	0.429
-206.421	-47.831	0.160	0.077
-205.406	800.000	-0.045	0.191
-204.392	348.770	-0.067	0.131
-203.377	414.792	0.078	0.165
-202.363	800.000	0.018	0.070
-201.348	624.444	-0.069	0.172
-200.333	178.052	-0.036	-0.052
-199.319	800.000	-0.056	0.173
-198.304	-88.305	-0.309	0.091
-197.290	224.763	0.069	-0.111
-196.275	88.796	0.099	0.109
-195.260	97.415	-0.254	0.288
-194.246	-96.867	0.187	-0.049
-193.231	800.000	0.119	0.417
-192.217	800.000	-0.070	-0.215
-191.202	-83.775	0.201	0.063
-190.187	-200.000	-0.024	0.178
-189.173	-95.542	0.066	0.017
-188.158	-96.791	-0.160	0.041
-187.144	-72.922	0.322	0.117
-186.129	-69.919	0.199	-0.075
-185.114	294.396	-0.153	0.276
-184.100	-51.640	-0.128	0.059
-183.085	240.995	-0.058	-0.095
-182.071	-16.758	-0.217	0.136
-181.056	-200.000	0.054	-0.275
-180.042	-92.600	-0.234	-0.065
-179.027	800.000	0.115	-0.333
-178.012	-200.000	0.259	0.001
-176.998	6.577	-0.159	0.117
-175.983	80.906	-0.123	0.131
-174.969	171.384	-0.135	0.191
-173.954	285.480	-0.074	0.131
-172.939	800.000	0.041	0.124
-171.925	241.471	0.120	-0.198
-170.910	-134.738	0.116	0.014
-169.896	610.569	-0.219	-0.541
-168.881	279.619	-0.217	-0.382
-167.866	800.000	-0.066	0.181
-166.852	-46.046	0.177	-0.086
-165.837	-52.722	0.151	0.068
-164.823	-34.421	0.356	0.193
-163.808	308.154	0.101	-0.186
-162.793	-90.407	-0.187	0.053
-161.779	143.570	-0.263	-0.345
-160.764	-43.174	-0.248	0.124
-159.750	-200.000	0.002	0.038
-158.735	224.156	0.143	-0.228
-157.720	-9.295	0.155	0.102
-156.706	-200.000	0.118	-0.559
-155.691	-38.300	-0.219	0.115
-154.677	372.557	0.138	0.276
-153.662	-81.069	0.011	-0.004
-152.647	-86.748	0.266	0.080
-151.633	42.245	0.074	0.067
-150.618	-200.000	-0.033	0.206
-149.604	-135.184	0.351	0.042
-148.589	252.047	0.047	-0.079
-147.574	130.176	-0.182	-0.229
-146.560	106.139	0.131	-0.152
-145.545	318.758	0.080	-0.150
-144.531	393.326	0.090	0.185
-143.516	-57.220	0.293	0.127
-142.502	342.041	-0.089	-0.172
-141.487	-95.294	-0.163	0.043
-140.472	60.611	-0.074	-0.072
-139.458	800.000	0.046	-0.177
-138.443	728.251	-0.073	-0.193
-137.429	340.912	0.193	-0.372
-136.414	800.000	0.045	0.124
-135.399	131.748	-0.194	0.246
-134.385	282.694	0.127	0.225
-133.370	-200.000	0.051	-0.399
-132.356	-90.044	0.278	-0.080
-131.341	590.605	-0.047	0.115
-130.326	48.746	0.199	-0.184
-129.312	-77.885	-0.276	0.094
-128.297	-195.003	0.276	-0.002
-127.283	-200.000	0.040	-0.294
-126.268	-62.470	0.188	0.077
-125.253	-200.000	0.032	0.175
-124.239	81.338	0.347	0.370
-123.224	201.087	-0.080	0.121
-122.210	116.056	-0.260	-0.314
-121.195	-184.257	0.402	-0.007
-120.180	-23.183	-0.194	0.115
