DTS Sentinel unit serial number:	SN413079Multiplexer serial number:	ORYXHardware model number:	OX4-SRSoftware version number:	ORYX F/W v4.00 Oryx Data Collector v3.7.2.0data status	okinstallation	princeton_trtdifferential loss correction	single-endedforward channel	channel 1reverse channel	N/Adate	2019/09/17time	20:34:35forward acquisition time	60.00reverse acquisition time	0.00gamma	496.2192k internal	0.2330k external	0.2330temperature offset calibration	0.9980default loss term (dB/km)	0.3790temperature slope calibration	1.0000multiplexer offset coefficient	1.0000multiplexer slope coefficient	1.0000fibre end	0.00T internal ref (°C)	30.33T ext. ref 1 (°C)	0.21T ext. ref 2 (°C)	21.00length (m)	temperature (°C)	Stokes	anti-Stokes-747.200	-200.000	-0.050	0.366
-746.185	-25.570	-0.127	0.076
-745.171	-12.298	-0.130	0.085
-744.156	4.896	-0.384	0.284
-743.142	-108.605	-0.120	0.026
-742.127	-118.924	-0.262	0.046
-741.112	-200.000	0.009	-0.115
-740.098	-200.000	-0.021	0.299
-739.083	22.840	-0.209	0.173
-738.069	-73.716	-0.095	0.035
-737.054	800.000	-0.085	0.265
-736.039	-200.000	0.043	-0.319
-735.025	-141.106	0.193	0.020
-734.010	214.964	-0.073	0.117
-732.996	800.000	0.031	0.102
-731.981	-169.019	0.311	0.012
-730.966	130.068	0.093	0.120
-729.952	31.457	-0.314	-0.271
-728.937	-200.000	-0.027	0.250
-727.923	-200.000	0.010	-0.081
-726.908	-200.000	-0.007	-0.294
-725.894	-82.885	-0.387	-0.126
-724.879	568.468	0.161	-0.395
-723.864	-41.455	-0.269	-0.139
-722.850	800.000	0.067	-0.283
-721.835	127.255	-0.220	0.281
-720.821	3.652	-0.189	0.139
-719.806	-200.000	0.006	-0.307
-718.791	210.971	-0.203	-0.320
-717.777	73.586	0.296	-0.312
-716.762	709.366	-0.144	0.384
-715.748	-85.819	-0.073	-0.023
-714.733	126.770	0.238	-0.304
-713.718	72.997	-0.112	-0.118
-712.704	45.767	-0.226	0.210
-711.689	-132.029	-0.147	0.019
-710.675	800.000	-0.031	0.101
-709.660	61.685	-0.117	0.117
-708.645	-42.870	0.214	0.109
-707.631	28.494	0.218	-0.186
-706.616	222.930	-0.114	-0.186
-705.602	-92.322	-0.449	-0.127
-704.587	-200.000	0.019	0.111
-703.572	82.339	-0.105	-0.115
-702.558	666.031	0.155	-0.403
-701.543	-70.060	0.102	0.039
-700.529	33.795	-0.248	-0.217
-699.514	501.569	0.104	0.242
-698.499	-200.000	-0.015	0.084
-697.485	800.000	0.007	0.025
-696.470	38.350	0.076	-0.068
-695.456	800.000	0.040	0.172
-694.441	800.000	0.044	-0.128
-693.426	800.000	-0.088	0.258
-692.412	800.000	-0.082	0.353
-691.397	81.205	-0.153	0.166
-690.383	-93.867	-0.037	-0.010
-689.368	-109.511	-0.448	-0.095
-688.354	-89.083	0.165	-0.049
-687.339	-114.379	-0.047	-0.009
-686.324	218.524	-0.244	-0.392
-685.310	-84.704	-0.257	0.081
-684.295	-83.944	0.260	0.083
-683.281	186.531	-0.120	-0.180
-682.266	410.569	0.054	-0.114
-681.251	741.760	-0.091	-0.244
-680.237	350.346	-0.220	-0.436
-679.222	11.448	0.228	-0.176
-678.208	-141.716	-0.081	0.008
-677.193	240.219	-0.094	0.157
-676.178	17.890	-0.127	-0.102
-675.164	800.000	-0.057	-0.195
-674.149	-4.279	0.128	0.089
-673.135	-64.642	0.146	-0.060
-672.120	783.203	0.041	-0.114
-671.105	-200.000	-0.023	0.126
-670.091	-200.000	0.022	-0.114
-669.076	-103.528	-0.336	-0.079
-668.062	-51.692	0.070	-0.033
-667.047	-186.675	0.149	-0.002
-666.032	-73.968	-0.243	0.089
-665.018	495.938	-0.153	-0.354
-664.003	-31.059	-0.288	-0.163
-662.989	-200.000	0.058	0.333
-661.974	104.179	-0.161	-0.190
-660.959	119.040	0.032	-0.040
-659.945	108.229	0.163	0.195
-658.930	800.000	0.027	0.103
-657.916	-200.000	0.039	-0.331
-656.901	-174.306	0.132	0.004
-655.886	800.000	-0.148	-0.476
-654.872	30.462	-0.029	-0.025
-653.857	117.164	-0.181	0.223
-652.843	-200.000	-0.283	-0.000
-651.828	-200.000	-0.030	0.143
-650.814	-200.000	0.031	0.228
-649.799	-200.000	0.029	-0.399
-648.784	-59.405	-0.132	-0.057
-647.770	574.513	0.032	-0.078
-646.755	156.619	0.156	0.216
-645.741	27.455	-0.200	0.169
-644.726	5.513	0.106	0.079
-643.711	791.041	-0.099	-0.272
-642.697	800.000	0.039	-0.152
-641.682	-127.808	-0.334	-0.048
-640.668	800.000	-0.102	-0.286
-639.653	74.954	0.086	-0.091
-638.638	61.364	-0.221	-0.221
-637.624	200.802	-0.063	-0.097
-636.609	496.683	-0.100	0.231
-635.595	40.345	0.120	0.108
-634.580	-200.000	0.074	-0.422
-633.565	-52.012	0.272	-0.127
-632.551	63.768	0.205	-0.207
-631.536	317.216	-0.016	0.030
-630.522	589.160	0.057	-0.140
-629.507	-38.530	-0.327	-0.173
-628.492	800.000	-0.171	0.533
-627.478	-4.583	-0.142	-0.098
-626.463	800.000	-0.079	-0.281
-625.449	800.000	0.036	0.124
-624.434	-76.716	0.382	0.134
-623.419	-35.957	-0.288	0.156
-622.405	365.730	0.045	-0.090
-621.390	104.958	-0.124	-0.147
-620.376	73.070	-0.036	-0.037
-619.361	800.000	0.004	0.015
-618.346	193.896	-0.080	0.122
-617.332	28.727	-0.071	0.060
-616.317	800.000	-0.036	-0.117
-615.303	81.220	-0.331	-0.358
-614.288	-200.000	0.010	-0.175
-613.273	-200.000	0.028	0.156
-612.259	-200.000	-0.035	-0.269
-611.244	-170.791	-0.245	0.008
-610.230	-17.959	0.203	-0.127
-609.215	407.169	0.105	-0.221
-608.201	-200.000	0.028	0.209
-607.186	-65.396	-0.088	0.036
-606.171	32.175	-0.194	0.168
-605.157	34.625	0.235	0.206
-604.142	-200.000	0.020	-0.200
-603.128	-101.825	0.213	-0.052
-602.113	-27.132	0.357	-0.208
-601.098	100.054	0.154	0.179
-600.084	49.049	0.231	0.217
-599.069	-23.995	0.267	-0.160
-598.055	28.758	0.035	-0.030
-597.040	-15.393	0.079	0.050
-596.025	-105.615	0.201	-0.046
-595.011	24.998	0.066	0.055
-593.996	-150.536	-0.144	-0.011
-592.982	186.825	0.077	0.115
-591.967	800.000	-0.064	0.241
-590.952	54.432	0.065	0.063
-589.938	-200.000	0.016	-0.238
-588.923	226.683	-0.051	0.083
-587.909	-69.873	-0.126	-0.048
-586.894	-52.951	-0.222	0.102
-585.879	-20.523	0.154	0.094
-584.865	-200.000	-0.049	-0.277
-583.850	15.649	-0.113	-0.089
-582.836	194.895	0.196	-0.297
-581.821	33.560	0.123	-0.107
-580.806	235.696	-0.135	-0.223
-579.792	-200.000	0.112	0.493
-578.777	51.183	0.180	-0.171
-577.763	-49.541	0.094	0.045
-576.748	-46.006	0.311	-0.153
-575.733	-161.939	-0.362	-0.018
-574.719	528.813	0.080	-0.189
-573.704	-47.869	-0.197	0.095
-572.690	-78.729	0.456	-0.156
-571.675	-130.694	-0.304	0.041
-570.661	21.376	-0.208	0.169
-569.646	-200.000	0.042	0.403
-568.631	-28.929	-0.043	-0.025
-567.617	5.792	-0.268	0.198
-566.602	2.661	0.138	-0.100
-565.588	591.954	-0.047	0.117
-564.573	-107.380	0.173	-0.038
-563.558	-200.000	0.007	-0.128
-562.544	-57.051	-0.226	0.100
-561.529	-121.000	-0.400	-0.067
-560.515	-200.000	-0.038	-0.318
-559.500	-101.252	0.072	-0.018
-558.485	-200.000	0.023	0.255
-557.471	92.840	0.150	0.170
-556.456	-125.578	-0.296	0.045
-555.442	-13.204	-0.134	-0.087
-554.427	-200.000	-0.003	0.058
-553.412	-176.965	-0.019	-0.000
-552.398	-60.813	-0.159	0.067
-551.383	188.327	0.025	-0.038
-550.369	144.423	-0.067	-0.090
-549.354	49.251	0.361	-0.339
-548.339	9.681	-0.271	-0.206
-547.325	-166.826	-0.225	-0.009
-546.310	516.267	-0.081	0.188
-545.296	-127.534	0.059	0.009
-544.281	614.174	-0.087	0.218
-543.266	425.412	-0.058	-0.125
-542.252	25.653	-0.106	-0.088
-541.237	-149.297	0.306	-0.024
-540.223	27.036	0.141	0.118
-539.208	800.000	0.060	0.244
-538.193	143.651	0.011	0.015
-537.179	-83.846	0.175	-0.056
-536.164	-45.278	0.601	0.298
-535.150	333.833	-0.217	0.420
-534.135	521.219	-0.109	-0.256
-533.121	82.379	0.029	-0.031
-532.106	-200.000	0.074	-0.408
-531.091	121.073	-0.125	-0.155
-530.077	208.204	-0.178	-0.278
-529.062	100.393	0.113	0.131
-528.048	-90.694	-0.107	-0.031
-527.033	-200.000	-0.063	0.345
-526.018	167.350	0.194	-0.275
-525.004	-200.000	0.129	0.000
-523.989	-27.857	-0.101	-0.058
-522.975	-9.371	-0.126	-0.084
-521.960	369.414	0.022	-0.045
-520.945	160.962	-0.096	0.134
-519.931	-200.000	0.024	-0.313
-518.916	-200.000	0.027	-0.213
-517.902	379.989	-0.080	0.164
-516.887	800.000	0.037	-0.110
-515.872	135.160	0.178	-0.230
-514.858	-172.120	-0.358	0.012
-513.843	568.867	-0.099	0.239
-512.829	800.000	0.052	-0.154
-511.814	12.448	0.105	-0.081
-510.799	90.547	-0.212	-0.237
-509.785	78.644	0.271	0.290
-508.770	-90.721	-0.246	0.071
-507.756	-200.000	-0.079	-0.425
-506.741	-66.811	0.384	-0.152
-505.726	-200.000	0.037	-0.408
-504.712	-81.029	0.316	-0.104
-503.697	800.000	0.046	-0.190
-502.683	-123.894	-0.191	0.030
-501.668	800.000	0.031	0.116
-500.653	-46.874	-0.135	0.066
-499.639	581.588	-0.116	0.283
-498.624	86.797	0.134	0.148
-497.610	438.845	0.035	-0.075
-496.595	471.754	-0.119	0.267
-495.581	-114.263	-0.376	-0.072
-494.566	-55.854	-0.115	0.051
-493.551	-120.440	0.204	0.035
-492.537	-8.345	-0.026	-0.017
-491.522	54.490	0.075	0.072
-490.508	-200.000	0.005	0.204
-489.493	-200.000	0.049	0.239
-488.478	152.844	0.061	0.083
-487.464	112.965	-0.094	0.113
-486.449	204.983	-0.111	-0.172
-485.435	141.725	0.196	0.259
-484.420	-200.000	-0.007	-0.258
-483.405	-65.596	0.253	0.101
-482.391	323.877	0.075	-0.142
-481.376	74.201	-0.126	-0.132
-480.362	-29.237	0.143	0.082
-479.347	120.397	-0.201	0.249
-478.332	-200.000	0.009	0.151
-477.318	-200.000	0.006	-0.155
-476.303	520.675	-0.120	-0.279
-475.289	800.000	0.061	-0.173
-474.274	-3.619	-0.141	-0.098
-473.259	6.733	0.226	-0.168
-472.245	159.951	-0.082	0.113
-471.230	-200.000	0.076	0.339
-470.216	-21.684	0.309	-0.188
-469.201	-200.000	-0.031	0.279
-468.186	-168.980	0.077	-0.003
-467.172	-33.096	-0.099	-0.055
-466.157	-127.912	0.305	0.044
-465.143	15.665	-0.117	0.091
-464.128	19.761	0.141	-0.113
-463.113	103.093	-0.083	0.097
-462.099	-200.000	0.074	-0.434
-461.084	-115.128	0.171	0.032
-460.070	-200.000	-0.016	-0.211
-459.055	-120.797	-0.211	-0.035
-458.040	332.444	-0.161	-0.309
-457.026	480.391	-0.026	0.059
-456.011	122.207	0.193	0.240
-454.997	-200.000	-0.014	0.202
-453.982	-200.000	-0.035	0.351
-452.968	-59.737	-0.345	-0.147
-451.953	221.087	-0.038	0.061
-450.938	-26.281	0.156	-0.091
-449.924	393.119	0.119	0.248
-448.909	-200.000	0.001	-0.083
-447.895	800.000	-0.018	-0.076
-446.880	-82.388	-0.303	-0.098
-445.865	7.156	0.068	-0.050
-444.851	-200.000	-0.021	-0.245
-443.836	-84.317	0.274	-0.086
-442.822	-166.548	-0.010	0.000
-441.807	-200.000	-0.018	-0.357
-440.792	-146.040	0.169	0.015
-439.778	246.237	0.061	-0.102
-438.763	23.073	0.050	-0.041
-437.749	-132.897	0.369	0.047
-436.734	-200.000	-0.024	0.175
-435.719	-120.826	-0.149	0.025
-434.705	325.707	0.081	-0.155
-433.690	309.767	-0.098	0.183
-432.676	90.863	0.172	-0.192
-431.661	-86.666	0.183	0.056
-430.646	470.705	0.035	0.078
-429.632	-16.618	0.178	0.112
-428.617	-200.000	0.003	0.166
-427.603	-73.442	-0.224	0.081
-426.588	-14.136	0.179	0.115
-425.573	714.716	0.023	-0.060
-424.559	54.648	0.191	0.183
-423.544	124.338	-0.146	-0.183
-422.530	47.069	0.058	-0.054
-421.515	-200.000	-0.041	-0.198
-420.500	-200.000	0.006	0.107
-419.486	-92.770	0.155	-0.043
-418.471	67.704	-0.050	0.050
-417.457	-148.847	-0.412	-0.033
-416.442	-47.038	0.188	-0.091
-415.428	-57.417	-0.244	-0.107
-414.413	-143.503	0.208	-0.020
-413.398	-108.776	-0.189	0.040
-412.384	-70.810	-0.094	-0.035
-411.369	800.000	0.105	0.335
-410.355	8.418	0.151	-0.113
-409.340	208.673	0.116	-0.181
-408.325	-79.453	-0.220	0.074
-407.311	232.643	0.131	-0.214
-406.296	-169.656	0.337	0.012
-405.282	676.120	-0.156	0.404
-404.267	800.000	-0.027	-0.075
-403.252	218.170	-0.038	0.060
-402.238	50.029	-0.177	-0.166
-401.223	249.437	-0.141	0.238
-400.209	800.000	0.055	-0.163
-399.194	-69.578	-0.346	0.132
-398.179	179.882	-0.135	-0.196
-397.165	-200.000	-0.064	-0.292
-396.150	75.764	-0.160	-0.168
-395.136	-200.000	0.068	-0.330
-394.121	18.300	-0.188	0.149
-393.106	-5.856	0.059	0.040
-392.092	-100.500	-0.219	0.054
-391.077	35.818	-0.144	-0.125
-390.063	-150.680	-0.245	0.019
-389.048	172.696	0.184	-0.263
-388.033	-44.100	-0.117	-0.058
-387.019	53.303	-0.200	0.190
-386.004	11.616	0.201	0.153
-384.990	-55.294	-0.373	0.166
-383.975	-200.000	-0.017	0.460
-382.960	-104.366	0.240	0.055
-381.946	247.290	-0.173	-0.290
-380.931	305.828	-0.180	-0.332
-379.917	352.354	0.041	-0.080
-378.902	-12.993	-0.097	-0.063
-377.888	533.986	-0.006	-0.013
-376.873	-12.924	0.066	-0.043
-375.858	-136.928	-0.280	-0.032
-374.844	225.221	-0.205	0.330
-373.829	-129.832	-0.076	-0.010
-372.815	148.340	-0.160	-0.215
-371.800	60.224	0.102	0.100
-370.785	351.252	0.150	-0.294
-369.771	-22.798	0.080	0.048
-368.756	53.114	0.344	0.326
-367.742	282.751	0.055	0.098
-366.727	-200.000	-0.003	0.168
-365.712	800.000	0.104	0.299
-364.698	800.000	0.011	0.038
-363.683	55.365	-0.095	0.091
-362.669	-24.151	-0.144	-0.085
-361.654	-91.437	0.349	-0.099
-360.639	-200.000	-0.060	-0.266
-359.625	765.392	0.048	-0.131
-358.610	101.920	-0.241	-0.279
-357.596	-200.000	-0.006	-0.238
-356.581	67.950	0.031	-0.032
-355.566	-200.000	0.038	-0.235
-354.552	179.473	-0.069	-0.101
-353.537	353.010	-0.155	0.305
-352.523	667.252	-0.055	0.141
-351.508	-33.863	0.077	-0.042
-350.493	1.734	0.206	0.147
-349.479	9.751	-0.240	0.181
-348.464	291.583	0.052	-0.093
-347.450	-4.627	-0.309	0.211
-346.435	-90.219	-0.264	0.076
-345.420	800.000	-0.134	0.505
-344.406	54.805	-0.151	0.145
-343.391	134.050	-0.078	0.100
-342.377	-200.000	-0.023	0.110
-341.362	126.098	-0.266	0.334
-340.348	17.349	-0.167	-0.131
-339.333	-174.637	0.227	-0.006
-338.318	-200.000	-0.001	0.240
-337.304	180.958	0.295	-0.430
-336.289	-28.858	0.210	-0.120
-335.275	46.457	0.128	0.118
-334.260	-99.115	-0.225	-0.056
-333.245	168.837	-0.031	-0.044
-332.231	-25.677	-0.154	0.090
-331.216	800.000	-0.018	0.071
-330.202	-123.741	-0.444	0.070
-329.187	-54.932	0.095	-0.042
-328.172	-200.000	0.002	-0.173
-327.158	-200.000	0.057	-0.376
-326.143	624.724	0.115	-0.287
-325.129	168.645	-0.034	-0.048
-324.114	796.752	-0.090	-0.246
-323.099	237.268	0.114	0.187
-322.085	-200.000	0.047	-0.446
-321.070	202.657	-0.086	0.131
-320.056	-56.153	0.164	0.072
-319.041	-0.458	0.100	0.071
-318.026	692.955	-0.053	0.136
-317.012	-79.344	-0.150	0.050
-315.997	-53.151	0.060	0.027
-314.983	-200.000	0.081	0.424
-313.968	-70.368	-0.189	0.071
-312.953	800.000	0.080	-0.272
-311.939	10.306	-0.134	-0.101
-310.924	277.323	-0.184	0.323
-309.910	329.020	-0.107	0.204
-308.895	287.988	0.023	0.041
-307.880	-54.779	0.429	0.192
-306.866	-149.113	0.329	-0.026
-305.851	-107.168	-0.391	0.085
-304.837	-200.000	0.035	0.472
-303.822	-200.000	0.054	0.294
-302.807	220.379	-0.070	-0.111
-301.793	20.863	-0.131	-0.105
-300.778	83.239	0.157	0.170
-299.764	-200.000	0.040	0.243
-298.749	-56.320	0.154	-0.068
-297.735	-52.558	-0.212	-0.097
-296.720	39.709	0.215	0.191
-295.705	61.483	0.055	-0.054
-294.691	38.961	-0.158	-0.140
-293.676	428.269	0.232	-0.495
-292.662	-200.000	-0.005	0.025
-291.647	644.104	-0.073	0.183
-290.632	-200.000	-0.036	0.175
-289.618	70.534	-0.298	-0.305
-288.603	13.526	-0.098	0.075
-287.589	77.223	0.289	0.304
-286.574	-4.512	-0.176	0.120
-285.559	337.436	0.088	0.169
-284.545	432.011	-0.138	-0.296
-283.530	800.000	-0.091	0.291
-282.516	7.239	-0.158	-0.117
-281.501	442.518	0.099	0.214
-280.486	65.350	0.126	0.126
-279.472	800.000	-0.063	-0.200
-278.457	-118.980	0.479	-0.083
-277.443	46.725	-0.222	0.204
-276.428	-9.801	0.198	-0.130
-275.413	416.079	0.101	-0.213
-274.399	-200.000	0.005	0.033
-273.384	-54.130	-0.150	0.068
-272.370	-128.596	0.019	0.003
-271.355	144.385	0.185	0.244
-270.340	28.977	0.190	0.160
-269.326	206.424	-0.072	0.111
-268.311	153.981	-0.102	-0.138
-267.297	147.271	0.161	0.215
-266.282	-165.424	-0.240	0.010
-265.267	-50.887	0.267	0.124
-264.253	-82.313	-0.269	-0.087
-263.238	207.064	0.171	-0.263
-262.224	800.000	-0.056	0.206
-261.209	-84.332	0.300	0.094
-260.195	800.000	0.034	-0.113
-259.180	-149.686	0.266	-0.021
-258.165	-75.005	-0.369	0.131
-257.151	149.477	-0.071	0.094
-256.136	2.962	0.268	0.193
-255.122	127.932	-0.100	-0.126
-254.107	-108.102	-0.139	-0.030
-253.092	-200.000	-0.039	0.393
-252.078	800.000	-0.081	-0.319
-251.063	48.008	0.168	-0.155
-250.049	6.305	-0.100	-0.073
-249.034	-101.906	0.335	0.080
-248.019	50.885	-0.114	-0.107
-247.005	113.410	-0.158	0.190
-245.990	-110.481	0.231	0.047
-244.976	-200.000	0.048	0.321
-243.961	161.082	0.091	0.126
-242.946	-38.953	0.124	-0.064
-241.932	235.323	-0.059	0.096
-240.917	-40.354	-0.343	0.176
-239.903	-179.732	0.189	-0.004
-238.888	-75.562	-0.249	0.087
-237.873	334.111	0.111	-0.213
-236.859	-200.000	-0.016	0.144
-235.844	-200.000	-0.036	0.209
-234.830	34.053	-0.123	-0.105
-233.815	48.799	0.011	-0.010
-232.800	-200.000	0.009	-0.239
-231.786	121.452	0.140	-0.172
-230.771	-200.000	-0.011	-0.205
-229.757	-155.055	0.428	0.028
-228.742	166.709	0.100	0.140
-227.727	13.346	0.270	0.207
-226.713	101.858	0.131	0.151
-225.698	-62.006	0.106	0.044
-224.684	800.000	-0.069	-0.280
-223.669	800.000	0.064	-0.184
-222.655	-70.340	0.359	-0.134
-221.640	257.831	-0.118	-0.201
-220.625	-200.000	0.038	0.361
-219.611	417.135	-0.122	0.258
-218.596	-200.000	-0.016	-0.097
-217.582	145.633	-0.168	-0.222
-216.567	96.750	0.162	-0.183
-215.552	-8.277	0.134	-0.089
-214.538	-91.415	-0.174	0.049
-213.523	66.445	-0.201	0.201
-212.509	-200.000	-0.017	0.275
-211.494	-26.431	-0.173	0.100
-210.479	26.737	0.130	-0.107
-209.465	125.275	0.035	-0.044
-208.450	399.168	0.159	0.329
-207.436	760.515	-0.128	0.341
-206.421	17.162	0.230	0.180
-205.406	800.000	-0.035	0.126
-204.392	-200.000	-0.057	0.316
-203.377	-53.061	0.097	0.044
-202.363	79.743	0.238	-0.252
-201.348	-200.000	0.006	-0.103
-200.333	-87.148	-0.137	-0.041
-199.319	-200.000	0.036	0.241
-198.304	211.023	0.091	-0.141
-197.290	370.955	-0.121	-0.243
-196.275	-65.944	0.309	-0.122
-195.260	-124.257	0.428	0.066
-194.246	117.153	0.215	0.260
-193.231	-200.000	0.011	0.115
-192.217	-200.000	-0.052	-0.272
-191.202	-60.757	0.292	-0.122
-190.187	704.581	0.021	0.054
-189.173	132.197	0.175	0.223
-188.158	-68.676	-0.089	0.034
-187.144	-163.629	-0.122	-0.006
-186.129	-115.135	0.024	0.004
-185.114	-49.427	-0.349	-0.164
-184.100	167.678	0.061	-0.086
-183.085	-82.665	0.097	0.031
-182.071	343.816	0.128	-0.246
-181.056	-132.054	-0.198	-0.025
-180.042	181.541	-0.246	0.356
-179.027	-115.020	0.201	-0.038
-178.012	-200.000	-0.001	-0.227
-176.998	-14.519	-0.267	0.169
-175.983	94.060	0.088	0.098
-174.969	-87.865	-0.079	0.023
-173.954	196.661	0.110	-0.166
-172.939	-58.630	-0.070	-0.030
-171.925	800.000	-0.081	-0.308
-170.910	267.564	-0.082	-0.141
-169.896	103.396	0.121	0.140
-168.881	-28.982	-0.079	-0.045
-167.866	133.002	-0.050	-0.064
-166.852	-30.491	-0.094	-0.053
-165.837	-153.901	-0.138	0.009
-164.823	85.303	-0.124	0.134
-163.808	-200.000	-0.026	0.362
-162.793	30.286	0.117	-0.098
-161.779	789.112	-0.159	-0.429
-160.764	-38.703	-0.037	-0.019
-159.750	-115.740	0.247	-0.045
-158.735	-86.283	0.078	-0.024
-157.720	410.785	0.039	-0.081
-156.706	-87.985	-0.093	0.028
-155.691	-200.000	-0.038	0.224
-154.677	34.984	-0.207	0.178
-153.662	46.546	0.077	-0.070
-152.647	-71.106	0.150	0.056
-151.633	-200.000	-0.035	0.268
-150.618	-200.000	0.026	0.377
-149.604	800.000	0.024	0.095
-148.589	-200.000	0.031	0.305
-147.574	-81.842	0.117	-0.038
-146.560	-78.196	-0.369	-0.125
-145.545	-35.310	0.314	0.168
-144.531	-200.000	-0.020	-0.231
-143.516	39.787	-0.274	-0.242
-142.502	800.000	0.028	0.099
-141.487	-142.283	0.068	0.007
-140.472	264.338	-0.042	-0.071
-139.458	160.500	0.116	-0.159
-138.443	-99.669	-0.372	0.092
-137.429	11.267	-0.180	-0.136
-136.414	-75.296	0.206	0.072
-135.399	161.456	-0.095	-0.131
-134.385	694.955	0.096	0.247
-133.370	-81.446	0.123	0.040
-132.356	153.550	0.058	0.077
-131.341	49.753	-0.122	-0.113
-130.326	800.000	-0.161	0.566
-129.312	-81.946	-0.117	-0.038
-128.297	134.288	-0.094	0.120
-127.283	130.077	-0.094	0.118
-126.268	-112.198	0.300	-0.059
-125.253	6.427	-0.196	-0.143
-124.239	800.000	-0.080	-0.293
-123.224	-163.676	-0.296	-0.014
-122.210	788.128	0.074	-0.201
-121.195	-191.038	-0.069	0.001
