DTS Sentinel unit serial number:	SN413079Multiplexer serial number:	ORYXHardware model number:	OX4-SRSoftware version number:	ORYX F/W v4.00 Oryx Data Collector v3.7.2.0data status	okinstallation	princeton_trtdifferential loss correction	single-endedforward channel	channel 1reverse channel	N/Adate	2019/09/13time	11:42:35forward acquisition time	60.00reverse acquisition time	0.00gamma	496.2192k internal	0.2313k external	0.2313temperature offset calibration	1.0157default loss term (dB/km)	0.3790temperature slope calibration	1.0000multiplexer offset coefficient	1.0000multiplexer slope coefficient	1.0000fibre end	0.00T internal ref (°C)	33.11T ext. ref 1 (°C)	4.50T ext. ref 2 (°C)	30.31length (m)	temperature (°C)	Stokes	anti-Stokes-747.200	125.706	-0.122	-0.157
-746.185	800.000	0.060	-0.183
-745.171	267.320	0.174	-0.309
-744.156	456.164	-0.008	-0.018
-743.142	-63.978	0.272	0.113
-742.127	-142.191	-0.392	0.039
-741.112	22.889	-0.184	0.153
-740.098	32.823	0.187	0.164
-739.083	473.266	0.052	-0.119
-738.069	370.688	-0.148	0.305
-737.054	406.538	-0.006	0.013
-736.039	371.419	-0.142	0.291
-735.025	0.606	0.036	0.026
-734.010	328.280	-0.065	-0.127
-732.996	-13.678	0.017	0.011
-731.981	506.642	0.051	-0.120
-730.966	-34.346	-0.395	-0.220
-729.952	-160.058	-0.264	0.015
-728.937	262.742	0.065	0.115
-727.923	-111.524	-0.184	-0.038
-726.908	38.302	0.148	0.134
-725.894	-200.000	0.074	-0.383
-724.879	-74.771	0.127	-0.046
-723.864	-12.193	0.130	0.086
-722.850	207.826	-0.122	0.194
-721.835	-200.000	-0.020	-0.342
-720.821	-46.085	-0.155	-0.078
-719.806	-72.061	-0.396	-0.149
-718.791	21.047	-0.171	-0.141
-717.777	-44.451	0.335	-0.170
-716.762	-41.614	0.214	-0.112
-715.748	800.000	0.047	-0.150
-714.733	19.415	-0.117	0.095
-713.718	-106.442	-0.360	0.081
-712.704	108.887	-0.144	0.174
-711.689	71.380	-0.195	-0.205
-710.675	-200.000	0.053	-0.285
-709.660	-59.459	0.217	0.094
-708.645	61.432	-0.175	-0.176
-707.631	70.754	0.063	-0.066
-706.616	-200.000	-0.017	-0.201
-705.602	-31.593	0.053	0.030
-704.587	155.108	0.142	-0.198
-703.572	31.003	0.150	0.130
-702.558	-36.467	0.247	0.135
-701.543	-108.410	0.222	0.048
-700.529	-68.545	-0.162	-0.064
-699.514	6.989	0.229	0.173
-698.499	800.000	-0.078	-0.234
-697.485	-158.291	-0.144	0.008
-696.470	774.877	0.041	0.114
-695.456	-15.356	0.283	-0.183
-694.441	-107.320	-0.202	-0.045
-693.426	132.691	0.103	-0.135
-692.412	-74.292	-0.330	0.121
-691.397	72.687	0.184	-0.194
-690.383	-12.809	0.092	-0.061
-689.368	800.000	-0.039	0.136
-688.354	117.640	0.107	-0.133
-687.339	-59.305	0.169	0.074
-686.324	25.395	0.250	-0.210
-685.310	73.108	-0.268	0.284
-684.295	-200.000	0.010	-0.282
-683.281	-200.000	-0.010	-0.226
-682.266	129.076	0.147	-0.189
-681.251	-111.205	-0.216	-0.045
-680.237	232.257	0.311	0.517
-679.222	-200.000	-0.015	0.211
-678.208	800.000	-0.088	0.362
-677.193	800.000	-0.125	-0.500
-676.178	-13.942	-0.203	-0.133
-675.164	-200.000	-0.024	0.425
-674.149	-11.408	-0.060	0.040
-673.135	34.510	0.196	-0.173
-672.120	800.000	-0.081	0.250
-671.105	800.000	-0.017	-0.073
-670.091	800.000	0.016	-0.053
-669.076	-200.000	0.001	-0.006
-668.062	188.560	-0.042	0.063
-667.047	-104.255	-0.224	0.053
-666.032	6.003	-0.031	0.023
-665.018	-65.776	0.260	0.105
-664.003	-200.000	-0.034	0.264
-662.989	483.905	-0.061	0.140
-661.974	160.894	-0.038	-0.054
-660.959	-37.185	0.049	0.026
-659.945	-180.190	0.098	-0.002
-658.930	-200.000	-0.075	-0.336
-657.916	578.393	0.123	0.304
-656.901	-41.865	-0.148	0.077
-655.886	-87.178	-0.115	-0.035
-654.872	800.000	0.034	-0.132
-653.857	-200.000	-0.005	0.054
-652.843	472.487	-0.122	0.277
-651.828	38.150	-0.106	0.095
-650.814	-172.620	0.094	0.003
-649.799	69.916	-0.047	-0.049
-648.784	-102.266	-0.210	0.051
-647.770	-155.282	-0.061	-0.004
-646.755	-200.000	-0.058	0.260
-645.741	-180.011	0.456	-0.010
-644.726	0.179	0.182	0.131
-643.711	-200.000	0.023	0.142
-642.697	-2.105	0.363	-0.258
-641.682	5.946	-0.269	0.202
-640.668	-53.680	-0.267	-0.123
-639.653	800.000	0.073	-0.231
-638.638	476.360	0.055	-0.125
-637.624	-54.100	0.234	0.108
-636.609	800.000	0.047	-0.135
-635.595	182.980	0.025	-0.038
-634.580	-200.000	-0.005	0.069
-633.565	334.014	-0.075	-0.147
-632.551	-181.417	0.104	-0.002
-631.536	-186.655	-0.229	0.003
-630.522	-62.005	-0.291	-0.123
-629.507	115.446	0.132	-0.163
-628.492	-105.423	0.114	-0.026
-627.478	-200.000	-0.014	0.323
-626.463	-181.492	0.384	-0.008
-625.449	193.149	-0.071	-0.109
-624.434	493.698	-0.065	0.150
-623.419	316.366	0.080	-0.153
-622.405	-44.067	0.284	-0.144
-621.390	-128.001	-0.351	-0.051
-620.376	-144.487	0.040	0.004
-619.361	-76.397	0.236	0.084
-618.346	-122.634	-0.213	-0.035
-617.332	800.000	0.060	-0.181
-616.317	-123.315	-0.272	0.044
-615.303	-47.026	0.074	0.037
-614.288	198.072	-0.278	0.428
-613.273	-103.873	0.162	-0.038
-612.259	-49.892	-0.330	-0.158
-611.244	653.380	0.113	-0.292
-610.230	0.491	0.142	-0.103
-609.215	58.532	-0.146	0.145
-608.201	800.000	0.044	-0.192
-607.186	-31.968	-0.335	0.189
-606.171	-200.000	0.013	-0.272
-605.157	-64.895	-0.163	-0.067
-604.142	-200.000	0.005	0.299
-603.128	623.192	0.168	-0.428
-602.113	-53.016	0.278	-0.129
-601.098	-148.914	0.233	0.019
-600.084	-54.082	0.290	0.133
-599.069	-200.000	0.001	-0.249
-598.055	156.302	-0.245	-0.341
-597.040	79.174	-0.006	-0.007
-596.025	-81.065	-0.295	-0.099
-595.011	574.808	-0.061	-0.150
-593.996	61.632	0.071	-0.071
-592.982	16.698	0.086	-0.069
-591.967	-77.751	0.080	-0.028
-590.952	288.930	-0.143	-0.261
-589.938	-101.501	0.086	0.021
-588.923	16.557	0.250	0.199
-587.909	-147.685	-0.379	-0.032
-586.894	251.046	-0.142	-0.244
-585.879	-88.998	-0.397	0.119
-584.865	-101.065	-0.108	-0.027
-583.850	-200.000	0.070	0.333
-582.836	190.407	-0.090	0.137
-581.821	-119.461	-0.309	-0.054
-580.806	-65.910	0.214	0.086
-579.792	800.000	-0.010	-0.043
-578.777	-125.221	-0.111	-0.017
-577.763	24.727	0.440	-0.367
-576.748	-76.614	0.107	0.038
-575.733	500.155	-0.049	-0.114
-574.719	29.225	0.138	-0.118
-573.704	-25.838	0.071	0.042
-572.690	-200.000	-0.042	0.318
-571.675	-129.647	0.364	-0.051
-570.661	298.935	0.079	0.146
-569.646	-126.049	-0.060	0.009
-568.631	-104.540	-0.315	0.073
-567.617	786.479	-0.032	0.088
-566.602	800.000	0.021	-0.073
-565.588	-61.947	0.111	0.047
-564.573	800.000	0.084	0.360
-563.558	26.950	-0.082	-0.069
-562.544	800.000	0.034	0.118
-561.529	-184.701	0.330	-0.005
-560.515	319.680	-0.158	-0.302
-559.500	-89.038	0.140	-0.042
-558.485	800.000	-0.027	0.111
-557.471	800.000	-0.053	-0.230
-556.456	137.567	0.219	0.288
-555.442	-30.983	-0.017	0.010
-554.427	331.570	0.020	-0.038
-553.412	-105.974	0.151	-0.034
-552.398	-200.000	0.006	0.052
-551.383	64.065	0.114	-0.116
-550.369	-200.000	-0.029	-0.281
-549.354	-0.843	-0.176	-0.125
-548.339	604.097	0.080	0.201
-547.325	-49.581	0.208	-0.100
-546.310	-200.000	0.018	0.278
-545.296	38.928	0.056	-0.051
-544.281	-200.000	0.035	0.225
-543.266	-63.717	0.396	0.163
-542.252	65.289	-0.341	0.347
-541.237	288.760	-0.124	-0.226
-540.223	-104.297	-0.218	0.051
-539.208	-64.703	-0.210	0.086
-538.193	-200.000	0.000	0.038
-537.179	-200.000	0.008	-0.115
-536.164	-59.677	-0.136	-0.058
-535.150	-148.615	0.196	0.016
-534.135	203.216	0.220	0.342
-533.121	-110.818	0.057	0.012
-532.106	-200.000	0.077	-0.376
-531.091	-31.565	-0.181	-0.103
-530.077	-50.857	0.148	0.070
-529.062	-96.544	0.015	0.004
-528.048	800.000	-0.025	0.089
-527.033	-200.000	0.033	0.163
-526.018	-200.000	0.050	-0.278
-525.004	-200.000	0.055	-0.267
-523.989	-21.724	-0.112	-0.069
-522.975	36.900	0.185	-0.165
-521.960	29.048	0.227	-0.194
-520.945	31.580	-0.052	0.045
-519.931	-27.070	0.267	-0.156
-518.916	631.014	0.075	0.190
-517.902	-200.000	-0.017	0.196
-516.887	-100.327	-0.195	-0.049
-515.872	800.000	-0.076	0.224
-514.858	-9.126	-0.183	-0.123
-513.843	-47.973	-0.025	-0.012
-512.829	37.588	-0.142	0.127
-511.814	269.284	-0.093	-0.165
-510.799	-200.000	0.469	-0.001
-509.785	-14.795	0.103	0.066
-508.770	693.560	-0.068	-0.179
-507.756	13.237	-0.289	-0.225
-506.741	-15.454	-0.333	-0.214
-505.726	-100.218	-0.417	-0.104
-504.712	-54.910	0.254	0.115
-503.697	-200.000	-0.059	-0.373
-502.683	-131.220	-0.455	0.061
-501.668	-200.000	-0.036	0.309
-500.653	-162.380	0.211	-0.011
-499.639	152.111	-0.275	-0.377
-498.624	-200.000	-0.003	0.083
-497.610	-200.000	-0.007	0.451
-496.595	464.734	-0.203	0.455
-495.581	205.067	-0.182	0.284
-494.566	-56.001	0.135	0.061
-493.551	-200.000	0.044	-0.193
-492.537	-161.987	0.187	-0.009
-491.522	-26.405	-0.301	0.177
-490.508	-19.910	0.193	-0.120
-489.493	-157.251	-0.225	-0.014
-488.478	116.062	-0.149	0.183
-487.464	-200.000	0.005	-0.065
-486.449	-148.934	-0.110	0.009
-485.435	-200.000	-0.037	-0.412
-484.420	800.000	0.103	-0.300
-483.405	-200.000	-0.034	-0.185
-482.391	-50.138	-0.120	-0.057
-481.376	800.000	-0.019	-0.055
-480.362	5.039	-0.127	0.094
-479.347	-8.873	0.052	0.035
-478.332	-54.375	-0.172	0.078
-477.318	800.000	0.098	0.288
-476.303	246.345	0.026	-0.045
-475.289	211.925	0.120	-0.190
-474.274	-76.958	0.201	0.071
-473.259	437.017	0.026	0.056
-472.245	141.145	-0.182	-0.241
-471.230	54.677	-0.169	-0.163
-470.216	800.000	-0.057	-0.179
-469.201	-48.892	0.212	0.102
-468.186	-31.646	-0.108	-0.061
-467.172	4.502	-0.254	0.187
-466.157	511.394	0.009	0.020
-465.143	-123.878	0.115	0.018
-464.128	23.575	0.136	-0.112
-463.113	23.050	-0.159	0.131
-462.099	-162.701	-0.139	-0.007
-461.084	-60.475	0.155	-0.066
-460.070	124.738	0.207	0.261
-459.055	800.000	0.046	0.170
-458.040	-65.646	0.170	-0.068
-457.026	319.622	0.030	-0.057
-456.011	-200.000	0.020	-0.140
-454.997	465.850	-0.089	0.199
-453.982	-200.000	0.032	0.321
-452.968	122.203	-0.028	-0.035
-451.953	-200.000	-0.009	-0.194
-450.938	-78.507	-0.272	0.093
-449.924	22.413	-0.299	-0.245
-448.909	-137.904	0.248	0.028
-447.895	-19.539	0.110	0.069
-446.880	-106.263	-0.290	-0.065
-445.865	-200.000	0.048	0.263
-444.851	-165.313	-0.088	-0.004
-443.836	551.175	-0.104	-0.251
-442.822	749.362	0.134	-0.362
-441.807	-81.777	0.210	-0.069
-440.792	231.795	-0.052	-0.086
-439.778	4.647	-0.234	0.172
-438.763	-75.402	0.391	-0.140
-437.749	283.883	0.123	0.222
-436.734	-200.000	0.021	0.369
-435.719	-48.755	0.029	-0.014
-434.705	247.059	-0.062	0.104
-433.690	-47.359	0.276	0.134
-432.676	45.922	0.076	0.070
-431.661	-8.836	-0.213	-0.143
-430.646	-69.850	-0.135	-0.052
-429.632	-197.660	0.341	0.002
-428.617	800.000	0.064	-0.200
-427.603	-200.000	-0.006	0.087
-426.588	-200.000	0.019	-0.089
-425.573	-122.499	-0.295	0.048
-424.559	-200.000	-0.006	-0.126
-423.544	27.408	-0.137	0.115
-422.530	800.000	-0.024	-0.096
-421.515	24.386	0.131	-0.109
-420.500	349.454	0.130	0.258
-419.486	8.819	0.085	0.064
-418.471	-168.272	-0.353	-0.014
-417.457	-73.511	0.303	-0.111
-416.442	-45.829	-0.306	-0.151
-415.428	-61.286	0.176	0.074
-414.413	303.246	-0.108	0.199
-413.398	-175.887	-0.290	0.008
-412.384	800.000	0.072	-0.200
-411.369	155.990	-0.203	0.280
-410.355	-45.868	0.351	-0.173
-409.340	-200.000	-0.047	0.309
-408.325	-200.000	-0.266	-0.001
-407.311	800.000	0.100	-0.336
-406.296	449.894	-0.128	0.283
-405.282	-166.598	0.442	-0.018
-404.267	-166.403	0.085	-0.004
-403.252	-120.534	-0.260	0.044
-402.238	302.492	0.109	-0.202
-401.223	92.025	-0.134	0.151
-400.209	800.000	-0.102	-0.380
-399.194	800.000	0.155	0.450
-398.179	-45.924	0.098	0.049
-397.165	-200.000	0.009	-0.452
-396.150	-200.000	0.045	0.205
-395.136	327.726	0.056	0.108
-394.121	11.297	0.154	0.118
-393.106	634.210	-0.127	-0.323
-392.092	17.811	0.118	-0.094
-391.077	170.417	-0.274	0.392
-390.063	-200.000	0.007	-0.621
-389.048	-200.000	-0.039	-0.204
-388.033	-116.496	0.181	-0.033
-387.019	800.000	0.061	0.207
-386.004	-11.758	-0.220	-0.145
-384.990	48.478	-0.131	0.122
-383.975	-119.019	0.380	0.067
-382.960	215.617	-0.170	0.269
-381.946	408.362	0.031	-0.066
-380.931	43.829	0.154	-0.141
-379.917	-198.365	-0.129	-0.001
-378.902	62.317	0.179	-0.179
-377.888	649.522	-0.058	-0.149
-376.873	-165.614	0.253	-0.011
-375.858	-2.143	-0.361	-0.254
-374.844	-61.269	0.214	0.090
-373.829	-17.780	0.207	0.130
-372.815	-77.086	0.273	0.095
-371.800	5.592	-0.019	-0.014
-370.785	-200.000	-0.044	-0.335
-369.771	18.150	-0.071	-0.057
-368.756	-41.981	-0.195	-0.100
-367.742	20.760	0.193	0.156
-366.727	-60.158	0.142	0.060
-365.712	-200.000	-0.005	0.203
-364.698	-53.765	0.161	-0.073
-363.683	85.954	0.079	0.086
-362.669	4.717	-0.416	0.305
-361.654	-200.000	-0.001	0.060
-360.639	9.044	0.059	-0.044
-359.625	-200.000	0.020	0.141
-358.610	-93.179	-0.172	-0.048
-357.596	-200.000	-0.003	0.290
-356.581	431.544	0.092	-0.200
-355.566	206.453	0.137	0.213
-354.552	99.393	0.057	-0.066
-353.537	43.749	-0.214	-0.196
-352.523	-84.573	-0.138	-0.043
-351.508	151.731	-0.113	0.154
-350.493	-187.205	-0.217	-0.003
-349.479	-133.028	0.255	-0.032
-348.464	-40.038	-0.389	0.203
-347.450	-108.908	0.187	-0.040
-346.435	450.518	-0.151	0.333
-345.420	-134.310	-0.110	-0.014
-344.406	-16.035	0.174	0.111
-343.391	360.121	-0.108	0.216
-342.377	57.499	-0.131	-0.128
-341.362	136.200	-0.158	-0.206
-340.348	-200.000	0.029	0.153
-339.333	-8.284	0.349	-0.234
-338.318	298.018	-0.062	0.114
-337.304	-31.540	0.164	0.092
-336.289	-47.831	-0.206	-0.100
-335.275	360.072	0.042	0.084
-334.260	-59.564	0.240	-0.103
-333.245	-171.729	0.113	0.004
-332.231	-200.000	-0.042	-0.209
-331.216	-149.360	-0.241	0.019
-330.202	-24.700	0.257	0.153
-329.187	-59.386	-0.276	-0.118
-328.172	1.601	0.121	0.087
-327.158	-70.938	0.115	-0.043
-326.143	45.213	-0.244	-0.225
-325.129	-200.000	0.009	0.168
-324.114	420.857	-0.051	-0.109
-323.099	146.568	-0.192	0.257
-322.085	-136.842	-0.085	-0.010
-321.070	-24.085	-0.175	-0.104
-320.056	48.767	0.074	0.069
-319.041	19.220	0.070	-0.056
-318.026	-137.186	-0.076	-0.009
-317.012	-200.000	0.030	0.188
-315.997	194.634	-0.127	0.192
-314.983	-91.595	-0.531	-0.151
-313.968	-63.502	-0.244	-0.100
-312.953	-94.265	-0.165	-0.045
-311.939	-18.638	0.139	0.087
-310.924	-31.670	-0.206	0.115
-309.910	-141.347	-0.277	0.028
-308.895	-200.000	-0.013	0.193
-307.880	-140.062	0.433	-0.045
-306.866	-200.000	-0.008	0.043
-305.851	135.599	-0.080	0.103
-304.837	-63.553	0.147	0.060
-303.822	252.520	0.081	0.138
-302.807	3.990	-0.065	-0.047
-301.793	-108.526	0.259	-0.055
-300.778	240.874	-0.047	0.079
-299.764	604.577	0.042	-0.104
-298.749	800.000	-0.103	-0.302
-297.735	-60.861	-0.148	-0.062
-296.720	-200.000	0.006	-0.097
-295.705	-200.000	-0.007	0.048
-294.691	-154.326	0.188	-0.013
-293.676	6.793	0.066	0.049
-292.662	11.156	0.139	0.106
-291.647	-200.000	0.042	0.186
-290.632	-139.026	-0.371	-0.040
-289.618	38.425	-0.061	-0.054
-288.603	-200.000	0.027	-0.471
-287.589	757.072	0.128	-0.346
-286.574	41.749	0.268	0.242
-285.559	9.824	0.134	-0.101
-284.545	-55.744	0.158	0.070
-283.530	-140.462	0.231	0.024
-282.516	-158.031	-0.030	-0.002
-281.501	52.803	0.091	0.086
-280.486	-190.830	0.028	-0.000
-279.472	-99.566	0.158	0.039
-278.457	75.072	0.107	0.112
-277.443	-90.206	0.146	0.042
-276.428	-200.000	0.006	0.327
-275.413	-200.000	-0.014	-0.091
-274.399	248.472	-0.195	-0.328
-273.384	-150.683	0.198	0.015
-272.370	606.342	0.091	0.227
-271.355	-13.206	-0.243	0.157
-270.340	-19.553	0.315	0.194
-269.326	-200.000	-0.037	0.249
-268.311	22.614	0.168	-0.137
-267.297	800.000	-0.059	0.222
-266.282	800.000	-0.046	-0.193
-265.267	510.304	0.034	0.079
-264.253	-114.734	-0.090	0.017
-263.238	9.035	-0.107	0.080
-262.224	-200.000	0.037	0.226
-261.209	75.683	-0.159	-0.168
-260.195	-17.207	0.352	0.221
-259.180	197.939	-0.049	-0.074
-258.165	-67.670	-0.076	-0.030
-257.151	-200.000	0.069	-0.398
-256.136	11.712	0.143	-0.109
-255.122	-144.833	-0.379	0.035
-254.107	-159.970	0.371	-0.020
-253.092	-128.777	-0.121	0.017
-252.078	-39.292	0.082	-0.043
-251.063	70.772	0.376	-0.387
-250.049	-83.646	0.119	-0.038
-249.034	-70.040	-0.220	-0.083
-248.019	-200.000	0.009	0.087
-247.005	-92.161	-0.266	-0.075
-245.990	6.446	0.133	0.098
-244.976	-200.000	-0.043	-0.214
-243.961	193.868	0.124	0.186
-242.946	-11.683	-0.089	0.058
-241.932	205.773	0.153	-0.236
-240.917	-78.472	0.078	-0.027
-239.903	-200.000	0.010	0.051
-238.888	334.904	-0.144	0.278
-237.873	-200.000	0.030	0.232
-236.859	-17.173	-0.150	0.094
-235.844	-51.513	0.560	0.260
-234.830	390.810	-0.093	-0.191
-233.815	-158.686	-0.083	-0.005
-232.800	602.407	0.045	0.110
-231.786	-58.684	-0.177	0.076
-230.771	800.000	-0.036	0.140
-229.757	21.327	-0.146	0.118
-228.742	800.000	-0.107	0.351
-227.727	-36.600	0.270	-0.144
-226.713	-9.918	-0.189	0.125
-225.698	-16.116	-0.248	0.157
-224.684	-49.717	-0.201	0.095
-223.669	800.000	0.115	-0.357
-222.655	-6.173	0.124	-0.084
-221.640	-136.371	-0.523	0.061
-220.625	-200.000	-0.008	-0.044
-219.611	702.010	-0.136	-0.357
-218.596	279.857	0.058	0.102
-217.582	-114.841	-0.554	0.105
-216.567	-200.000	-0.017	0.178
-215.552	800.000	0.066	-0.187
-214.538	-50.965	0.260	-0.121
-213.523	389.565	-0.179	-0.369
-212.509	-200.000	-0.028	0.123
-211.494	-111.527	-0.096	0.019
-210.479	-35.538	-0.014	0.008
-209.465	-137.159	-0.283	0.032
-208.450	-200.000	-0.009	-0.092
-207.436	89.302	0.182	0.201
-206.421	118.724	0.191	-0.234
-205.406	-27.147	0.281	0.163
-204.392	-51.745	-0.173	-0.080
-203.377	-200.000	0.022	-0.272
-202.363	-177.505	-0.385	-0.009
-201.348	209.701	0.234	0.364
-200.333	102.279	0.175	0.203
-199.319	-49.569	0.186	-0.088
-198.304	800.000	0.066	-0.193
-197.290	-25.494	0.161	0.094
-196.275	-200.000	0.026	-0.130
-195.260	-200.000	0.051	0.276
-194.246	-121.683	-0.107	-0.018
-193.231	70.073	-0.166	0.170
-192.217	-61.162	0.319	-0.134
-191.202	148.250	0.290	-0.389
-190.187	-84.725	0.184	0.057
-189.173	800.000	-0.055	0.207
-188.158	-68.773	-0.063	-0.024
-187.144	-57.030	0.424	0.186
-186.129	245.736	-0.146	0.244
-185.114	51.600	0.169	0.159
-184.100	426.816	0.059	-0.126
-183.085	70.112	-0.137	0.140
-182.071	82.269	0.158	0.170
-181.056	-200.000	-0.017	-0.251
-180.042	289.866	-0.305	0.550
-179.027	-45.618	0.134	-0.066
-178.012	606.288	-0.010	-0.025
-176.998	71.059	-0.213	-0.219
-175.983	800.000	0.095	-0.264
-174.969	-200.000	0.043	0.197
-173.954	800.000	0.129	0.359
-172.939	-4.470	0.328	0.225
-171.925	-122.221	0.150	0.024
-170.910	41.192	-0.307	-0.275
-169.896	-65.536	-0.064	0.025
-168.881	-111.029	-0.461	-0.094
-167.866	800.000	0.051	0.161
-166.852	454.727	0.085	0.187
-165.837	198.002	0.132	0.199
-164.823	-149.920	-0.052	0.004
-163.808	800.000	-0.024	-0.084
-162.793	-200.000	-0.038	-0.388
-161.779	-113.626	0.269	0.052
-160.764	-180.515	-0.261	0.005
-159.750	-92.854	0.291	0.081
-158.735	25.708	0.420	-0.346
-157.720	-24.347	-0.304	-0.180
-156.706	-200.000	-0.038	-0.275
-155.691	418.248	-0.094	-0.200
-154.677	-200.000	-0.033	0.226
-153.662	-170.095	0.156	0.006
-152.647	-200.000	0.047	0.286
-151.633	-113.943	-0.388	-0.075
-150.618	30.766	-0.123	-0.104
-149.604	-154.904	0.157	0.010
-148.589	-200.000	-0.016	-0.086
-147.574	96.320	0.190	-0.215
-146.560	-200.000	-0.010	0.262
-145.545	329.862	-0.101	-0.192
-144.531	-1.562	-0.293	-0.205
-143.516	-142.091	-0.143	0.014
-142.502	-119.420	-0.212	-0.037
-141.487	-105.567	0.176	0.039
-140.472	-18.314	0.063	0.039
-139.458	-200.000	-0.007	-0.069
-138.443	800.000	-0.091	-0.312
-137.429	800.000	0.099	0.323
-136.414	135.490	0.052	-0.067
-135.399	139.077	0.156	-0.203
-134.385	253.052	-0.127	-0.215
-133.370	-95.754	0.303	0.080
-132.356	-99.825	-0.158	0.039
-131.341	-46.346	0.111	0.054
-130.326	800.000	-0.023	-0.071
-129.312	-73.114	-0.371	-0.135
-128.297	-200.000	0.067	-0.299
-127.283	-23.364	0.068	0.040
-126.268	105.198	0.211	0.247
-125.253	90.975	0.134	-0.149
-124.239	-31.154	0.244	0.136
-123.224	-95.853	0.459	0.121
-122.210	-9.646	0.233	-0.153
-121.195	636.552	0.142	0.356
