DTS Sentinel unit serial number:	SN413079Multiplexer serial number:	ORYXHardware model number:	OX4-SRSoftware version number:	ORYX F/W v4.00 Oryx Data Collector v3.7.2.0data status	okinstallation	princeton_trtdifferential loss correction	single-endedforward channel	channel 1reverse channel	N/Adate	2019/09/11time	16:20:11forward acquisition time	60.00reverse acquisition time	0.00gamma	496.2192k internal	0.2290k external	0.2290temperature offset calibration	0.9991default loss term (dB/km)	0.3790temperature slope calibration	1.0000multiplexer offset coefficient	1.0000multiplexer slope coefficient	1.0000fibre end	0.00T internal ref (°C)	43.48T ext. ref 1 (°C)	1.06T ext. ref 2 (°C)	38.94length (m)	temperature (°C)	Stokes	anti-Stokes-747.200	10.517	-0.226	-0.176
-746.185	-4.756	0.064	0.045
-745.171	-130.302	0.343	0.048
-744.156	800.000	0.015	-0.066
-743.142	-200.000	-0.044	-0.228
-742.127	-200.000	0.003	0.157
-741.112	362.627	-0.095	0.194
-740.098	-200.000	0.012	-0.062
-739.083	-152.702	0.060	0.004
-738.069	733.212	-0.130	0.355
-737.054	-142.163	0.305	0.031
-736.039	171.254	-0.075	0.110
-735.025	-153.516	0.032	0.002
-734.010	-62.960	-0.194	-0.082
-732.996	-3.140	-0.008	-0.006
-731.981	-200.000	-0.013	0.134
-730.966	-200.000	0.093	-0.436
-729.952	-104.090	0.191	-0.046
-728.937	-65.483	-0.179	-0.074
-727.923	-137.646	-0.382	0.044
-726.908	-37.643	-0.050	-0.027
-725.894	337.122	0.097	0.193
-724.879	-56.949	-0.196	-0.089
-723.864	800.000	-0.057	0.228
-722.850	224.314	-0.163	-0.269
-721.835	251.745	0.054	-0.093
-720.821	-41.262	-0.136	-0.072
-719.806	-200.000	-0.039	-0.195
-718.791	-24.623	-0.142	0.086
-717.777	-200.000	-0.027	0.157
-716.762	-57.931	0.421	0.188
-715.748	800.000	0.040	-0.126
-714.733	-55.159	-0.096	-0.044
-713.718	217.878	0.091	0.149
-712.704	123.046	-0.045	0.057
-711.689	-18.017	-0.218	-0.139
-710.675	-120.082	-0.183	-0.032
-709.660	-139.815	-0.170	0.018
-708.645	-200.000	0.047	0.387
-707.631	167.991	0.053	-0.077
-706.616	246.150	-0.038	-0.065
-705.602	83.210	0.173	0.192
-704.587	-98.588	0.141	-0.037
-703.572	162.410	0.221	0.317
-702.558	-145.427	-0.267	0.025
-701.543	-200.000	0.034	-0.153
-700.529	659.776	0.088	-0.232
-699.514	800.000	-0.055	-0.206
-698.499	-38.005	-0.354	-0.192
-697.485	800.000	0.038	0.148
-696.470	203.146	-0.119	-0.188
-695.456	6.060	-0.216	-0.163
-694.441	-29.696	0.292	0.170
-693.426	15.596	0.201	-0.162
-692.412	34.819	-0.312	-0.279
-691.397	-82.286	0.223	-0.074
-690.383	28.523	0.116	0.100
-689.368	18.978	-0.207	-0.170
-688.354	-163.274	0.439	-0.021
-687.339	-148.393	0.222	-0.019
-686.324	161.841	-0.141	-0.202
-685.310	800.000	-0.054	0.235
-684.295	155.780	0.122	-0.172
-683.281	-156.989	-0.227	0.014
-682.266	25.748	0.051	0.043
-681.251	800.000	-0.109	-0.334
-680.237	-37.600	0.031	0.017
-679.222	299.570	0.138	-0.259
-678.208	205.100	0.079	-0.125
-677.193	31.425	0.060	-0.053
-676.178	447.036	0.098	-0.220
-675.164	-74.314	0.147	0.054
-674.149	249.363	-0.163	-0.282
-673.135	-40.706	-0.261	-0.138
-672.120	-128.931	-0.290	0.042
-671.105	-200.000	-0.013	-0.247
-670.091	84.220	0.231	0.258
-669.076	44.610	-0.146	-0.137
-668.062	-200.000	0.035	-0.249
-667.047	174.033	-0.132	-0.195
-666.032	3.007	-0.160	-0.119
-665.018	-200.000	0.009	0.250
-664.003	78.752	0.076	0.083
-662.989	-52.113	-0.275	-0.131
-661.974	609.389	0.091	-0.232
-660.959	769.996	0.051	0.142
-659.945	-185.660	-0.109	0.002
-658.930	299.216	-0.051	0.095
-657.916	-200.000	0.304	-0.000
-656.901	296.300	0.099	-0.186
-655.886	60.366	-0.052	0.052
-654.872	123.128	-0.089	-0.114
-653.857	-200.000	0.011	-0.081
-652.843	-200.000	0.005	0.081
-651.828	763.652	-0.123	0.340
-650.814	297.555	-0.150	0.282
-649.799	180.720	-0.047	-0.070
-648.784	-61.690	0.006	-0.003
-647.770	-117.595	-0.137	0.025
-646.755	-200.000	-0.068	-0.459
-645.741	37.257	0.034	0.031
-644.726	88.906	-0.130	0.148
-643.711	-134.672	0.231	-0.029
-642.697	-107.788	0.106	-0.024
-641.682	-200.000	0.015	0.352
-640.668	-14.986	-0.172	0.112
-639.653	146.730	0.224	-0.307
-638.638	-120.313	0.253	-0.044
-637.624	-65.267	-0.195	-0.080
-636.609	800.000	-0.016	-0.066
-635.595	-19.715	-0.258	0.162
-634.580	181.122	-0.348	0.521
-633.565	106.008	-0.213	-0.258
-632.551	708.343	-0.093	-0.250
-631.536	-51.181	-0.108	0.051
-630.522	-200.000	0.087	0.391
-629.507	-200.000	-0.017	0.225
-628.492	-25.642	-0.206	0.124
-627.478	242.446	0.109	-0.186
-626.463	-138.305	0.181	-0.020
-625.449	-51.560	-0.463	0.220
-624.434	-88.535	-0.214	-0.065
-623.419	-157.586	0.138	-0.008
-622.405	-200.000	0.064	0.357
-621.390	223.623	0.150	0.246
-620.376	-30.893	0.228	0.131
-619.361	-105.841	-0.322	0.074
-618.346	59.443	-0.091	-0.091
-617.332	-200.000	0.017	0.124
-616.317	59.947	-0.300	0.302
-615.303	-200.000	0.010	-0.053
-614.288	240.095	-0.001	0.002
-613.273	193.396	0.195	0.300
-612.259	-30.060	0.117	-0.068
-611.244	98.597	-0.123	0.145
-610.230	93.574	0.134	0.155
-609.215	-63.799	0.017	-0.007
-608.201	-115.555	0.375	-0.072
-607.186	-76.831	0.106	0.038
-606.171	-23.040	0.051	-0.031
-605.157	413.356	-0.043	0.094
-604.142	-200.000	0.026	0.260
-603.128	27.440	-0.152	0.130
-602.113	57.824	-0.144	0.144
-601.098	-200.000	0.001	0.214
-600.084	756.444	-0.077	0.213
-599.069	800.000	-0.066	-0.203
-598.055	-200.000	0.014	-0.318
-597.040	-134.279	0.238	-0.030
-596.025	800.000	-0.072	0.256
-595.011	800.000	0.052	-0.197
-593.996	-200.000	0.012	-0.089
-592.982	-200.000	0.017	-0.152
-591.967	162.960	0.133	0.190
-590.952	800.000	0.075	-0.230
-589.938	-49.888	-0.110	-0.053
-588.923	171.884	0.161	-0.235
-587.909	42.172	-0.304	0.281
-586.894	38.059	-0.097	0.087
-585.879	459.089	-0.134	-0.305
-584.865	-10.068	-0.296	0.200
-583.850	-56.558	-0.135	0.061
-582.836	83.382	-0.132	-0.146
-581.821	800.000	-0.107	0.385
-580.806	247.211	-0.080	0.138
-579.792	304.764	-0.077	-0.145
-578.777	-77.342	-0.284	0.101
-577.763	31.515	0.182	-0.160
-576.748	-81.118	0.167	-0.056
-575.733	-167.580	0.016	0.001
-574.719	-200.000	-0.029	0.444
-573.704	-64.180	-0.278	-0.115
-572.690	393.917	0.167	-0.355
-571.675	-96.494	-0.070	0.019
-570.661	29.066	-0.182	-0.157
-569.646	283.258	-0.119	0.217
-568.631	-138.771	0.218	-0.024
-567.617	-65.184	0.215	0.088
-566.602	-38.911	-0.310	-0.166
-565.588	60.233	-0.214	0.215
-564.573	-99.490	0.164	0.042
-563.558	39.704	-0.160	0.146
-562.544	-200.000	0.001	-0.169
-561.529	-97.316	0.262	0.070
-560.515	-96.188	-0.160	-0.043
-559.500	91.952	0.129	-0.148
-558.485	-4.080	-0.227	0.160
-557.471	-66.190	-0.116	-0.047
-556.456	-200.000	0.008	-0.159
-555.442	276.671	-0.157	-0.283
-554.427	-132.443	0.100	0.013
-553.412	-13.734	0.499	-0.328
-552.398	-150.456	-0.091	-0.007
-551.383	67.043	-0.103	-0.106
-550.369	-139.233	-0.353	-0.039
-549.354	-200.000	0.047	0.380
-548.339	275.749	-0.021	-0.038
-547.325	325.805	-0.062	-0.120
-546.310	-200.000	0.002	-0.195
-545.296	-55.281	-0.112	-0.051
-544.281	122.812	0.262	0.333
-543.266	10.126	-0.148	-0.115
-542.252	-200.000	0.007	-0.258
-541.237	-164.824	-0.347	-0.016
-540.223	-200.000	0.020	-0.253
-539.208	-15.489	0.224	-0.145
-538.193	-125.532	-0.262	-0.040
-537.179	-143.565	-0.231	0.022
-536.164	-75.898	-0.141	0.051
-535.150	60.395	0.164	-0.165
-534.135	338.286	0.099	0.196
-533.121	-170.219	-0.068	-0.002
-532.106	35.240	-0.067	0.060
-531.091	-200.000	-0.001	0.214
-530.077	-132.783	-0.257	0.033
-529.062	-200.000	0.054	-0.271
-528.048	287.713	0.020	0.037
-527.033	-31.369	-0.126	-0.072
-526.018	-84.603	-0.214	-0.068
-525.004	800.000	-0.023	-0.068
-523.989	156.040	-0.098	-0.138
-522.975	-165.245	-0.307	0.014
-521.960	-200.000	-0.290	0.000
-520.945	447.134	0.121	0.270
-519.931	-200.000	0.002	-0.068
-518.916	525.717	0.091	-0.218
-517.902	-34.597	-0.309	0.172
-516.887	85.710	0.168	-0.187
-515.872	-63.001	0.204	0.086
-514.858	218.180	0.112	-0.181
-513.843	-200.000	0.016	-0.157
-512.829	1.552	0.108	-0.079
-511.814	-8.676	-0.158	-0.108
-510.799	704.060	-0.114	-0.304
-509.785	0.529	0.279	0.202
-508.770	20.973	0.209	-0.172
-507.756	-36.088	0.166	-0.091
-506.741	-200.000	0.004	-0.500
-505.726	-107.711	0.082	-0.018
-504.712	118.663	0.113	-0.142
-503.697	800.000	0.035	-0.142
-502.683	101.377	0.140	-0.165
-501.668	17.385	-0.091	0.073
-500.653	-76.639	0.176	-0.063
-499.639	-123.946	-0.154	-0.025
-498.624	96.878	0.058	-0.067
-497.610	-93.581	-0.067	-0.019
-496.595	114.477	0.053	-0.066
-495.581	5.343	-0.160	-0.120
-494.566	171.548	0.212	-0.309
-493.551	-129.021	0.704	0.100
-492.537	162.148	0.143	0.203
-491.522	-200.000	0.018	-0.131
-490.508	-45.905	-0.169	0.085
-489.493	220.598	-0.130	-0.211
-488.478	-2.023	-0.196	-0.140
-487.464	-115.733	-0.131	0.025
-486.449	-200.000	0.109	-0.558
-485.435	-40.873	0.131	0.068
-484.420	-200.000	0.032	0.359
-483.405	70.266	-0.140	0.146
-482.391	-141.607	-0.297	-0.030
-481.376	800.000	-0.072	0.255
-480.362	537.960	0.069	-0.167
-479.347	-9.214	0.376	0.255
-478.332	-200.000	-0.022	0.193
-477.318	-176.165	-0.227	-0.006
-476.303	-200.000	-0.087	-0.548
-475.289	-19.346	-0.084	-0.053
-474.274	-158.490	0.135	0.008
-473.259	-41.885	0.220	-0.115
-472.245	308.723	0.081	0.152
-471.230	-41.513	-0.247	0.129
-470.216	800.000	0.062	0.234
-469.201	-68.544	0.172	0.068
-468.186	-200.000	-0.022	-0.105
-467.172	209.193	-0.118	0.187
-466.157	-18.297	0.142	0.090
-465.143	141.683	0.055	0.074
-464.128	-27.032	0.095	-0.056
-463.113	14.969	0.171	-0.136
-462.099	-200.000	-0.031	-0.173
-461.084	32.506	-0.228	0.200
-460.070	90.723	-0.123	0.139
-459.055	128.593	-0.298	-0.385
-458.040	224.009	0.047	-0.076
-457.026	296.551	0.060	0.111
-456.011	199.642	-0.023	0.036
-454.997	541.912	-0.059	-0.143
-453.982	-200.000	0.003	-0.038
-452.968	800.000	-0.031	0.114
-451.953	479.807	0.095	-0.219
-450.938	127.853	0.045	-0.058
-449.924	261.346	-0.131	-0.229
-448.909	29.002	0.112	-0.096
-447.895	414.347	-0.046	0.099
-446.880	141.317	0.090	-0.121
-445.865	-60.896	0.014	-0.006
-444.851	-100.493	-0.328	0.082
-443.836	-137.217	-0.252	-0.029
-442.822	-39.223	0.253	-0.134
-441.807	478.793	-0.091	0.208
-440.792	-5.707	0.098	-0.068
-439.778	39.801	-0.224	0.204
-438.763	-200.000	-0.025	-0.111
-437.749	-138.203	-0.186	-0.021
-436.734	-32.260	0.032	-0.018
-435.719	224.537	-0.065	-0.106
-434.705	800.000	-0.066	-0.213
-433.690	-121.946	-0.115	-0.019
-432.676	-200.000	0.001	0.480
-431.661	-200.000	-0.033	0.152
-430.646	217.744	0.157	-0.254
-429.632	474.573	-0.081	0.186
-428.617	-95.982	-0.227	0.061
-427.603	-17.982	0.132	-0.084
-426.588	-200.000	-0.018	-0.122
-425.573	141.627	0.083	0.111
-424.559	367.836	-0.138	0.282
-423.544	-155.206	-0.082	0.005
-422.530	784.999	-0.091	-0.251
-421.515	-39.545	-0.138	-0.073
-420.500	-200.000	0.014	0.354
-419.486	90.126	-0.146	-0.165
-418.471	-123.598	-0.104	0.017
-417.457	-5.520	-0.205	0.142
-416.442	216.930	0.179	-0.288
-415.428	-50.032	-0.210	-0.101
-414.413	278.555	0.240	-0.433
-413.398	-30.432	0.311	-0.179
-412.384	-200.000	-0.027	0.260
-411.369	199.431	0.030	-0.046
-410.355	-200.000	-0.027	-0.282
-409.340	-71.110	-0.338	0.128
-408.325	-8.860	-0.188	-0.127
-407.311	67.112	0.045	-0.046
-406.296	44.297	0.127	0.118
-405.282	62.005	-0.151	-0.152
-404.267	753.898	0.108	-0.294
-403.252	-145.489	-0.395	0.036
-402.238	-127.240	0.196	-0.029
-401.223	800.000	0.086	-0.253
-400.209	-194.917	-0.140	0.001
-399.194	-41.528	0.235	0.122
-398.179	-200.000	0.018	0.257
-397.165	-171.147	-0.380	-0.013
-396.150	-81.706	0.115	-0.038
-395.136	94.125	-0.276	-0.317
-394.121	115.064	-0.120	0.148
-393.106	800.000	-0.053	0.214
-392.092	800.000	0.092	0.320
-391.077	103.693	0.084	0.099
-390.063	421.644	0.125	-0.272
-389.048	139.943	-0.119	-0.159
-388.033	-104.853	0.173	-0.040
-387.019	-175.571	0.160	-0.004
-386.004	9.381	-0.081	0.062
-384.990	128.840	0.111	0.143
-383.975	-200.000	0.001	-0.038
-382.960	485.976	0.122	0.281
-381.946	800.000	-0.037	0.131
-380.931	-200.000	-0.030	0.177
-379.917	-155.813	0.135	-0.009
-378.902	-143.201	0.178	-0.017
-377.888	465.155	0.084	0.190
-376.873	-1.777	-0.085	0.061
-375.858	-92.003	0.256	0.073
-374.844	17.125	-0.186	0.149
-373.829	-105.180	0.173	-0.040
-372.815	-200.000	-0.019	-0.175
-371.800	12.735	-0.142	-0.110
-370.785	-125.085	-0.330	0.051
-369.771	-164.122	0.303	0.014
-368.756	-34.926	0.059	-0.033
-367.742	301.021	0.095	0.177
-366.727	-15.803	0.174	-0.112
-365.712	-200.000	-0.017	0.274
-364.698	-79.723	0.054	-0.018
-363.683	-2.121	-0.096	-0.068
-362.669	800.000	-0.103	0.310
-361.654	45.624	-0.070	-0.066
-360.639	-44.954	0.163	0.082
-359.625	25.551	0.062	0.052
-358.610	343.074	0.075	-0.149
-357.596	-79.539	0.238	0.081
-356.581	23.303	0.181	0.150
-355.566	-42.740	0.188	-0.096
-354.552	3.037	-0.088	-0.065
-353.537	-200.000	-0.033	0.159
-352.523	-64.353	-0.473	-0.194
-351.508	186.792	-0.168	-0.252
-350.493	185.803	-0.177	-0.265
-349.479	-19.783	-0.281	0.175
-348.464	419.204	0.100	0.216
-347.450	347.665	0.044	-0.087
-346.435	800.000	0.120	0.350
-345.420	-194.543	-0.136	0.001
-344.406	71.401	-0.225	0.235
-343.391	157.063	0.120	0.168
-342.377	800.000	-0.095	0.295
-341.362	355.258	-0.197	0.395
-340.348	-200.000	-0.008	-0.186
-339.333	-110.886	0.056	-0.012
-338.318	399.724	0.067	-0.141
-337.304	-100.690	0.153	-0.038
-336.289	-58.806	-0.332	0.145
-335.275	-97.982	-0.200	0.052
-334.260	800.000	0.083	-0.359
-333.245	9.650	0.021	-0.016
-332.231	640.004	-0.110	0.282
-331.216	101.151	0.040	-0.047
-330.202	-32.696	-0.294	0.165
-329.187	398.325	0.063	-0.133
-328.172	16.418	-0.008	-0.006
-327.158	-72.421	-0.048	-0.018
-326.143	-200.000	0.484	-0.002
-325.129	2.330	0.112	0.081
-324.114	-42.659	0.247	0.127
-323.099	-143.549	0.298	0.029
-322.085	235.907	-0.194	0.322
-321.070	-200.000	0.001	0.245
-320.056	-119.619	-0.453	0.079
-319.041	610.144	-0.056	0.142
-318.026	-24.679	-0.094	0.056
-317.012	70.518	0.061	0.063
-315.997	-109.159	0.177	-0.038
-314.983	-53.720	-0.221	0.101
-313.968	800.000	0.060	0.184
-312.953	-8.503	0.154	-0.104
-311.939	465.189	0.148	0.334
-310.924	227.040	0.206	0.337
-309.910	-200.000	-0.037	-0.188
-308.895	238.002	-0.107	-0.178
-307.880	470.329	0.031	-0.070
-306.866	-60.220	-0.256	-0.110
-305.851	-200.000	-0.028	-0.154
-304.837	61.029	-0.107	0.107
-303.822	-114.213	-0.074	-0.014
-302.807	-20.357	-0.367	-0.228
-301.793	-99.975	0.346	-0.087
-300.778	800.000	0.140	0.502
-299.764	774.138	0.033	-0.091
-298.749	800.000	-0.034	0.105
-297.735	-200.000	-0.001	0.161
-296.720	-34.763	0.199	-0.109
-295.705	223.492	-0.062	-0.101
-294.691	9.136	0.147	-0.111
-293.676	-200.000	0.013	-0.316
-292.662	46.948	-0.100	-0.093
-291.647	-11.829	0.125	0.083
-290.632	-134.808	-0.203	0.025
-289.618	-107.123	0.400	0.089
-288.603	-64.028	0.417	0.171
-287.589	-200.000	0.012	0.198
-286.574	131.679	0.078	0.101
-285.559	800.000	-0.032	0.095
-284.545	5.333	-0.042	0.031
-283.530	481.148	0.048	0.110
-282.516	78.386	0.086	0.092
-281.501	50.370	0.196	-0.186
-280.486	-200.000	0.069	-0.322
-279.472	-200.000	0.000	0.080
-278.457	193.544	-0.058	-0.088
-277.443	-23.899	-0.250	0.150
-276.428	269.288	0.061	0.109
-275.413	-13.911	0.298	-0.193
-274.399	-49.219	-0.176	0.085
-273.384	27.500	-0.219	-0.185
-272.370	19.158	0.092	-0.074
-271.355	800.000	-0.051	-0.170
-270.340	-200.000	-0.007	0.052
-269.326	-125.371	0.231	-0.035
-268.311	-54.010	-0.220	-0.101
-267.297	287.205	-0.038	0.069
-266.282	304.264	0.092	-0.172
-265.267	498.658	0.081	-0.188
-264.253	105.661	-0.034	0.040
-263.238	82.907	0.126	0.138
-262.224	21.753	-0.242	-0.198
-261.209	-62.655	0.435	-0.181
-260.195	-157.107	0.192	0.012
-259.180	800.000	0.079	0.247
-258.165	-20.549	0.197	-0.122
-257.151	93.907	-0.089	0.102
-256.136	11.418	0.018	-0.014
-255.122	-62.079	0.281	0.118
-254.107	83.972	-0.054	0.060
-253.092	637.925	0.112	-0.287
-252.078	-167.883	-0.298	0.012
-251.063	182.765	0.085	-0.126
-250.049	515.032	-0.119	0.279
-249.034	97.745	0.076	0.088
-248.019	-200.000	-0.012	-0.068
-247.005	25.642	-0.036	0.030
-245.990	82.369	-0.107	-0.117
-244.976	745.853	0.059	0.158
-243.961	800.000	-0.057	-0.230
-242.946	-200.000	0.074	-0.372
-241.932	-26.130	0.122	-0.072
-240.917	-81.959	0.358	0.117
-239.903	28.450	0.136	0.115
-238.888	790.619	0.047	-0.130
-237.873	-7.260	-0.016	-0.011
-236.859	-137.948	0.255	0.029
-235.844	361.710	0.052	0.105
-234.830	348.400	-0.195	0.385
-233.815	20.461	-0.155	-0.126
-232.800	142.282	0.044	0.059
-231.786	-176.950	-0.233	-0.006
-230.771	185.699	-0.027	-0.041
-229.757	-200.000	-0.004	-0.083
-228.742	299.098	0.200	0.369
-227.727	166.196	0.207	0.294
-226.713	520.216	0.091	-0.214
-225.698	298.135	-0.103	-0.191
-224.684	-133.054	-0.186	-0.024
-223.669	-115.759	-0.170	0.032
-222.655	-200.000	0.021	0.155
-221.640	341.801	0.043	-0.084
-220.625	101.462	0.114	-0.134
-219.611	404.515	0.089	0.189
-218.596	800.000	0.099	0.363
-217.582	382.440	0.105	-0.216
-216.567	-92.296	-0.184	0.052
-215.552	-90.952	0.332	-0.096
-214.538	404.460	0.219	-0.463
-213.523	-44.260	0.234	0.118
-212.509	-151.019	-0.292	-0.022
-211.494	-116.061	-0.206	-0.039
-210.479	-200.000	0.074	0.350
-209.465	236.571	0.176	-0.292
-208.450	800.000	-0.007	-0.022
-207.436	106.351	0.148	0.176
-206.421	-200.000	-0.035	0.154
-205.406	-200.000	0.021	0.272
-204.392	48.453	0.288	0.271
-203.377	91.501	0.039	-0.044
-202.363	-200.000	0.000	0.257
-201.348	-171.399	-0.228	0.008
-200.333	-121.037	0.098	0.017
-199.319	800.000	-0.085	0.237
-198.304	323.215	0.221	0.422
-197.290	144.082	0.144	-0.192
-196.275	-62.952	0.041	-0.017
-195.260	-30.708	0.153	-0.087
-194.246	120.961	0.230	-0.286
-193.231	-130.949	0.470	-0.063
-192.217	-6.817	-0.255	-0.174
-191.202	-43.168	-0.082	-0.042
-190.187	-39.353	-0.195	0.103
-189.173	-121.670	0.217	-0.036
-188.158	-109.680	0.297	-0.063
-187.144	-200.000	-0.015	-0.441
-186.129	-200.000	-0.027	0.132
-185.114	-88.266	-0.216	-0.065
-184.100	-42.073	0.311	-0.160
-183.085	55.186	0.397	-0.384
-182.071	41.315	-0.179	-0.162
-181.056	-74.257	0.013	0.005
-180.042	800.000	0.051	-0.192
-179.027	215.392	0.116	0.184
-178.012	-104.881	0.106	-0.024
-176.998	197.652	0.081	0.124
-175.983	210.378	0.110	-0.173
-174.969	232.298	-0.118	-0.194
-173.954	-200.000	0.005	0.058
-172.939	89.478	0.054	-0.060
-171.925	451.733	0.110	0.245
-170.910	-69.470	-0.131	0.050
-169.896	-200.000	0.034	-0.158
-168.881	-14.807	0.072	-0.046
-167.866	13.737	-0.138	-0.107
-166.852	-87.990	-0.277	-0.083
-165.837	47.704	-0.189	-0.176
-164.823	53.075	0.093	0.089
-163.808	327.065	-0.042	0.081
-162.793	277.321	-0.072	-0.128
-161.779	85.337	0.117	-0.129
-160.764	-52.471	0.090	0.041
-159.750	-200.000	-0.016	0.151
-158.735	-43.185	-0.102	-0.051
-157.720	220.231	0.134	-0.216
-156.706	800.000	-0.033	-0.126
-155.691	-156.443	-0.405	0.025
-154.677	234.612	0.075	0.124
-153.662	-200.000	0.011	-0.218
-152.647	56.903	0.347	0.338
-151.633	195.736	0.061	0.093
-150.618	-62.569	-0.186	0.077
-149.604	461.658	-0.158	0.353
-148.589	568.240	-0.020	0.048
-147.574	358.704	0.029	0.057
-146.560	21.870	-0.135	0.110
-145.545	-200.000	0.030	-0.484
-144.531	-200.000	-0.025	-0.133
-143.516	-26.181	0.170	-0.100
-142.502	800.000	0.047	-0.134
-141.487	146.367	0.267	-0.359
-140.472	-115.840	0.164	0.031
-139.458	-200.000	-0.044	0.476
-138.443	-99.045	0.096	0.024
-137.429	743.843	0.121	0.326
-136.414	275.733	-0.093	0.165
-135.399	-46.747	0.145	-0.071
-134.385	-111.505	-0.118	0.024
-133.370	-200.000	-0.033	0.161
-132.356	-7.231	-0.059	-0.040
-131.341	-32.319	0.175	0.098
-130.326	-70.262	0.218	-0.083
-129.312	-17.043	-0.199	-0.126
-128.297	-109.144	0.135	0.029
-127.283	-200.000	-0.035	0.338
-126.268	203.837	0.195	0.301
-125.253	-7.635	0.043	-0.029
-124.239	-122.864	0.235	-0.038
-123.224	64.616	0.186	0.188
-122.210	-200.000	-0.044	-0.457
-121.195	407.490	-0.032	-0.067
