DTS Sentinel unit serial number:	SN413079Multiplexer serial number:	ORYXHardware model number:	OX4-SRSoftware version number:	ORYX F/W v4.00 Oryx Data Collector v3.7.2.0data status	okinstallation	princeton_trtdifferential loss correction	single-endedforward channel	channel 1reverse channel	N/Adate	2019/09/12time	00:24:11forward acquisition time	60.00reverse acquisition time	0.00gamma	496.2192k internal	0.2319k external	0.2319temperature offset calibration	1.0074default loss term (dB/km)	0.3790temperature slope calibration	1.0000multiplexer offset coefficient	1.0000multiplexer slope coefficient	1.0000fibre end	0.00T internal ref (°C)	33.48T ext. ref 1 (°C)	2.05T ext. ref 2 (°C)	27.53length (m)	temperature (°C)	Stokes	anti-Stokes-747.200	34.825	0.066	0.059
-746.185	589.324	0.093	0.232
-745.171	-107.115	0.298	0.066
-744.156	-135.900	-0.167	-0.020
-743.142	-137.363	0.226	-0.026
-742.127	-192.602	-0.043	0.000
-741.112	207.079	0.249	0.392
-740.098	-200.000	0.070	0.322
-739.083	631.909	-0.089	0.227
-738.069	310.204	0.200	0.378
-737.054	-200.000	0.010	0.216
-736.039	-200.000	-0.097	-0.458
-735.025	800.000	0.058	0.232
-734.010	-37.331	-0.060	0.032
-732.996	800.000	-0.053	-0.159
-731.981	94.855	-0.153	-0.176
-730.966	-137.936	-0.308	0.035
-729.952	800.000	-0.043	0.165
-728.937	-126.348	-0.411	-0.062
-727.923	-200.000	-0.021	-0.372
-726.908	-141.751	-0.137	-0.014
-725.894	177.857	-0.140	0.206
-724.879	-200.000	-0.002	-0.154
-723.864	166.366	-0.210	-0.301
-722.850	-200.000	-0.028	-0.254
-721.835	17.870	0.110	-0.088
-720.821	422.213	0.136	0.295
-719.806	196.794	-0.158	0.243
-718.791	-200.000	0.003	-0.189
-717.777	-114.242	-0.350	0.068
-716.762	153.050	-0.207	-0.287
-715.748	19.030	0.185	-0.150
-714.733	-119.160	-0.219	-0.039
-713.718	-10.449	0.078	0.052
-712.704	63.677	0.057	0.058
-711.689	-200.000	-0.061	-0.291
-710.675	68.169	-0.118	0.122
-709.660	223.436	-0.134	-0.219
-708.645	72.094	0.119	-0.125
-707.631	-200.000	0.026	0.200
-706.616	-44.766	-0.330	0.166
-705.602	-200.000	-0.008	-0.158
-704.587	149.295	0.125	-0.171
-703.572	800.000	0.044	-0.151
-702.558	167.874	0.029	0.041
-701.543	250.362	-0.273	-0.468
-700.529	5.967	-0.052	-0.039
-699.514	449.407	0.117	-0.261
-698.499	31.408	-0.147	-0.127
-697.485	214.792	0.194	0.310
-696.470	634.635	0.117	0.300
-695.456	-200.000	0.007	0.036
-694.441	-46.710	0.267	0.132
-693.426	-100.430	-0.092	-0.023
-692.412	108.239	-0.135	0.163
-691.397	10.650	-0.092	-0.071
-690.383	-200.000	-0.072	-0.320
-689.368	-200.000	0.010	0.128
-688.354	-154.869	0.393	0.026
-687.339	-119.242	0.163	-0.029
-686.324	-89.447	-0.133	-0.040
-685.310	-200.000	0.045	0.262
-684.295	-58.991	-0.130	0.057
-683.281	-85.805	-0.208	0.065
-682.266	60.934	-0.157	0.157
-681.251	2.321	0.243	0.178
-680.237	-76.275	0.113	0.040
-679.222	-20.131	-0.111	-0.069
-678.208	2.446	0.219	-0.160
-677.193	176.580	-0.057	0.083
-676.178	-200.000	0.024	-0.222
-675.164	5.637	-0.090	-0.067
-674.149	-150.259	-0.121	0.009
-673.135	-200.000	0.013	-0.071
-672.120	800.000	0.045	0.144
-671.105	-104.192	0.320	0.075
-670.091	-200.000	0.003	-0.106
-669.076	-200.000	0.073	0.372
-668.062	-147.060	0.210	-0.018
-667.047	64.469	0.095	0.096
-666.032	6.261	0.403	0.302
-665.018	-137.217	0.109	-0.013
-664.003	-200.000	-0.038	0.211
-662.989	-129.151	-0.052	0.007
-661.974	800.000	0.088	0.282
-660.959	-200.000	0.010	0.192
-659.945	130.984	0.012	0.016
-658.930	-34.876	0.052	0.028
-657.916	-200.000	-0.017	0.221
-656.901	-96.975	0.177	-0.047
-655.886	-151.172	-0.433	-0.033
-654.872	489.375	0.106	-0.244
-653.857	-200.000	-0.005	0.331
-652.843	283.062	-0.164	-0.297
-651.828	-96.820	0.319	0.084
-650.814	-200.000	-0.001	0.110
-649.799	-96.863	0.075	0.020
-648.784	232.577	-0.005	0.009
-647.770	-96.325	-0.249	0.066
-646.755	221.470	0.104	0.168
-645.741	225.689	0.056	0.091
-644.726	426.081	-0.161	-0.350
-643.711	-200.000	-0.049	0.276
-642.697	-200.000	0.022	-0.294
-641.682	200.491	0.270	-0.419
-640.668	-27.993	0.121	0.071
-639.653	27.302	-0.271	-0.229
-638.638	-63.705	0.060	0.025
-637.624	-200.000	0.020	-0.089
-636.609	-200.000	-0.023	-0.136
-635.595	-39.382	-0.419	-0.221
-634.580	-148.899	-0.229	-0.019
-633.565	355.566	0.016	-0.032
-632.551	-200.000	0.055	0.492
-631.536	-48.983	0.374	-0.180
-630.522	-131.659	0.319	0.042
-629.507	-10.555	0.152	0.101
-628.492	-27.443	-0.208	0.122
-627.478	393.643	-0.068	0.143
-626.463	-115.930	-0.245	0.046
-625.449	125.186	0.268	0.341
-624.434	-166.156	-0.208	0.009
-623.419	-109.199	0.201	0.043
-622.405	-114.540	0.133	0.026
-621.390	-49.658	-0.267	-0.128
-620.376	292.150	0.162	-0.297
-619.361	142.343	0.196	-0.262
-618.346	-85.123	0.112	0.035
-617.332	431.597	0.050	0.110
-616.317	41.496	-0.138	-0.126
-615.303	800.000	-0.137	0.526
-614.288	206.263	-0.113	0.177
-613.273	95.941	-0.242	-0.278
-612.259	104.147	-0.275	-0.325
-611.244	-7.900	0.047	0.032
-610.230	-88.802	-0.398	-0.119
-609.215	-200.000	-0.004	-0.041
-608.201	149.690	-0.182	-0.248
-607.186	455.999	-0.170	-0.379
-606.171	572.508	-0.111	-0.273
-605.157	-200.000	0.009	-0.059
-604.142	-80.242	0.353	0.119
-603.128	69.247	0.112	-0.116
-602.113	172.556	-0.298	-0.431
-601.098	800.000	-0.058	-0.161
-600.084	-7.792	0.022	0.015
-599.069	87.785	0.138	-0.153
-598.055	-200.000	0.035	-0.164
-597.040	-107.828	-0.490	-0.107
-596.025	-4.726	0.197	0.137
-595.011	800.000	-0.115	0.480
-593.996	-74.181	-0.108	-0.039
-592.982	-12.464	-0.066	-0.043
-591.967	110.588	0.270	-0.327
-590.952	-130.427	-0.132	-0.018
-589.938	-129.655	-0.140	0.019
-588.923	312.680	-0.113	0.214
-587.909	233.743	0.031	-0.051
-586.894	44.365	-0.150	0.138
-585.879	-200.000	0.015	-0.068
-584.865	-142.335	-0.084	-0.008
-583.850	-12.611	-0.165	-0.109
-582.836	-180.628	0.321	0.007
-581.821	90.033	0.223	0.250
-580.806	-40.082	0.389	-0.204
-579.792	148.918	0.082	0.112
-578.777	31.625	-0.042	0.036
-577.763	48.126	-0.150	-0.141
-576.748	-80.543	0.156	-0.052
-575.733	109.889	0.049	-0.059
-574.719	-200.000	0.032	0.181
-573.704	-75.224	0.118	0.042
-572.690	-79.834	0.373	0.126
-571.675	417.770	-0.133	-0.285
-570.661	800.000	0.116	-0.381
-569.646	-15.579	-0.117	-0.075
-568.631	306.627	0.243	-0.455
-567.617	-200.000	0.003	-0.337
-566.602	65.660	-0.271	0.276
-565.588	800.000	0.052	0.168
-564.573	202.391	0.195	-0.302
-563.558	27.961	0.247	0.209
-562.544	545.073	-0.068	-0.162
-561.529	521.286	0.048	0.113
-560.515	87.478	-0.410	-0.456
-559.500	-31.609	0.404	-0.228
-558.485	565.689	-0.117	-0.285
-557.471	-26.785	0.168	-0.099
-556.456	201.226	0.251	0.389
-555.442	-150.564	-0.254	-0.019
-554.427	19.538	-0.231	-0.186
-553.412	-32.406	-0.101	-0.056
-552.398	-17.267	0.223	-0.141
-551.383	-200.000	0.016	-0.333
-550.369	-200.000	-0.393	0.001
-549.354	-145.119	0.424	0.039
-548.339	1.547	-0.262	0.190
-547.325	-200.000	-0.006	-0.216
-546.310	694.985	0.049	-0.129
-545.296	509.553	0.273	-0.637
-544.281	79.048	0.185	0.199
-543.266	-184.605	0.291	0.005
-542.252	101.145	0.080	0.093
-541.237	-1.820	-0.065	-0.046
-540.223	-67.200	0.075	-0.030
-539.208	394.694	0.117	0.244
-538.193	192.665	-0.144	-0.219
-537.179	-200.000	-0.106	-0.477
-536.164	44.126	-0.065	-0.060
-535.150	129.006	0.167	-0.214
-534.135	-141.749	-0.198	-0.020
-533.121	547.666	0.075	-0.181
-532.106	450.173	-0.145	0.321
-531.091	-55.304	-0.273	-0.123
-530.077	50.400	-0.166	-0.158
-529.062	-34.951	0.152	0.083
-528.048	-134.109	-0.294	-0.036
-527.033	-200.000	-0.035	0.331
-526.018	194.493	0.084	-0.127
-525.004	-122.115	-0.161	-0.026
-523.989	-200.000	0.030	0.593
-522.975	63.682	0.172	0.173
-521.960	-27.229	-0.174	0.102
-520.945	35.693	-0.210	-0.185
-519.931	-103.222	0.418	0.099
-518.916	-57.144	0.470	-0.208
-517.902	206.574	-0.111	-0.173
-516.887	-59.188	-0.143	0.062
-515.872	800.000	0.083	0.239
-514.858	-192.765	-0.125	0.001
-513.843	120.968	0.031	-0.039
-512.829	-30.445	0.091	0.052
-511.814	-200.000	-0.039	0.268
-510.799	-198.632	-0.440	0.002
-509.785	20.485	0.071	0.057
-508.770	47.933	-0.343	-0.322
-507.756	-141.532	0.171	0.017
-506.741	800.000	0.038	0.125
-505.726	-115.500	-0.132	-0.025
-504.712	495.779	-0.026	0.061
-503.697	-200.000	0.019	0.138
-502.683	-200.000	-0.052	-0.239
-501.668	33.026	-0.067	0.058
-500.653	-160.529	-0.127	0.007
-499.639	186.194	0.126	0.188
-498.624	-200.000	-0.032	0.403
-497.610	-200.000	-0.024	0.108
-496.595	-200.000	0.012	0.084
-495.581	38.054	0.137	0.122
-494.566	413.604	0.065	0.138
-493.551	485.396	-0.106	-0.243
-492.537	-99.987	0.138	-0.034
-491.522	-200.000	-0.045	0.208
-490.508	800.000	0.066	-0.202
-489.493	26.683	0.178	-0.150
-488.478	-85.528	-0.506	-0.158
-487.464	41.305	-0.237	0.215
-486.449	-200.000	0.016	-0.163
-485.435	-58.330	-0.293	0.128
-484.420	-130.680	0.142	-0.019
-483.405	-154.202	-0.235	-0.016
-482.391	4.507	0.006	-0.004
-481.376	69.047	0.195	-0.201
-480.362	-200.000	0.006	0.268
-479.347	718.842	-0.105	-0.279
-478.332	309.410	-0.026	0.048
-477.318	800.000	-0.036	0.118
-476.303	-200.000	0.025	0.126
-475.289	-182.052	0.215	-0.004
-474.274	199.323	-0.089	0.137
-473.259	165.840	0.155	-0.219
-472.245	301.957	0.069	-0.127
-471.230	-200.000	0.012	0.432
-470.216	-33.209	0.187	0.104
-469.201	800.000	0.054	-0.170
-468.186	-113.690	0.267	0.052
-467.172	-39.930	0.102	-0.053
-466.157	150.800	-0.088	-0.120
-465.143	435.281	0.035	-0.076
-464.128	-31.582	0.470	-0.264
-463.113	-14.855	-0.113	-0.073
-462.099	28.894	-0.118	-0.100
-461.084	556.993	0.110	-0.266
-460.070	-124.456	-0.125	0.019
-459.055	800.000	-0.061	-0.259
-458.040	-20.762	0.123	0.075
-457.026	19.949	-0.299	-0.241
-456.011	-47.078	-0.002	-0.001
-454.997	-200.000	-0.018	-0.168
-453.982	-96.977	-0.256	0.067
-452.968	95.711	0.148	0.169
-451.953	286.570	0.212	0.383
-450.938	-30.328	-0.112	-0.064
-449.924	-200.000	-0.054	0.354
-448.909	-200.000	-0.082	-0.415
-447.895	-200.000	0.022	-0.193
-446.880	-200.000	-0.022	0.317
-445.865	-200.000	-0.055	-0.287
-444.851	-17.626	-0.271	-0.170
-443.836	94.264	0.132	-0.150
-442.822	-129.558	0.211	-0.029
-441.807	80.256	-0.148	0.159
-440.792	30.455	-0.302	-0.258
-439.778	-83.526	-0.162	0.052
-438.763	576.476	-0.059	-0.145
-437.749	-122.061	0.468	0.077
-436.734	730.656	0.062	-0.166
-435.719	-45.408	0.183	-0.091
-434.705	-99.022	-0.566	-0.143
-433.690	-84.742	-0.126	-0.040
-432.676	-112.423	0.178	-0.036
-431.661	-102.874	-0.373	-0.089
-430.646	-43.835	-0.149	0.075
-429.632	710.726	-0.008	0.022
-428.617	-110.216	0.286	0.060
-427.603	-47.954	-0.258	-0.125
-426.588	-200.000	-0.031	0.169
-425.573	31.025	0.409	-0.351
-424.559	40.675	0.065	-0.059
-423.544	800.000	-0.070	0.283
-422.530	-118.148	0.198	-0.035
-421.515	288.560	-0.018	0.032
-420.500	452.751	0.159	0.351
-419.486	-174.579	-0.144	0.004
-418.471	169.543	0.101	-0.144
-417.457	-200.000	0.000	-0.121
-416.442	-17.264	0.150	-0.094
-415.428	-200.000	0.006	-0.057
-414.413	-47.312	0.388	0.189
-413.398	-57.337	0.217	0.095
-412.384	-200.000	-0.023	0.117
-411.369	223.555	0.065	-0.105
-410.355	-64.097	0.405	0.165
-409.340	315.261	0.129	0.242
-408.325	-14.762	-0.090	0.058
-407.311	255.625	-0.159	-0.273
-406.296	-80.339	-0.306	-0.102
-405.282	369.965	-0.066	0.133
-404.267	76.990	-0.237	0.251
-403.252	53.102	-0.153	-0.147
-402.238	24.325	-0.012	-0.010
-401.223	27.720	0.027	-0.023
-400.209	-132.795	0.321	-0.041
-399.194	-121.545	0.353	-0.059
-398.179	-84.649	0.384	0.121
-397.165	201.387	0.130	0.199
-396.150	-200.000	-0.022	-0.110
-395.136	-200.000	0.006	0.051
-394.121	800.000	0.058	0.245
-393.106	186.299	-0.140	0.207
-392.092	17.305	-0.311	0.246
-391.077	431.602	-0.184	0.399
-390.063	34.237	0.103	0.090
-389.048	800.000	0.012	0.050
-388.033	-19.362	-0.216	0.134
-387.019	-149.423	0.277	0.022
-386.004	-124.363	0.229	-0.036
-384.990	42.089	0.235	0.213
-383.975	539.336	0.179	0.425
-382.960	-26.000	0.290	-0.170
-381.946	-200.000	-0.018	0.289
-380.931	602.595	0.144	0.358
-379.917	-103.143	-0.405	0.096
-378.902	-200.000	0.016	0.124
-377.888	-117.385	-0.185	-0.033
-376.873	800.000	-0.109	-0.301
-375.858	-35.304	-0.071	-0.039
-374.844	-200.000	0.039	-0.210
-373.829	548.385	-0.051	0.123
-372.815	408.553	-0.100	0.210
-371.800	415.163	0.102	-0.216
-370.785	800.000	0.061	-0.213
-369.771	15.747	0.234	0.184
-368.756	460.447	-0.095	-0.211
-367.742	-75.050	0.029	0.010
-366.727	-36.692	0.121	0.065
-365.712	194.620	0.200	-0.303
-364.698	-200.000	-0.005	0.164
-363.683	469.435	0.013	0.029
-362.669	-157.215	0.074	-0.004
-361.654	-180.679	-0.172	0.004
-360.639	-22.482	-0.036	-0.022
-359.625	-107.740	-0.120	-0.026
-358.610	-64.323	0.219	0.089
-357.596	163.536	-0.205	-0.288
-356.581	-143.728	0.351	-0.033
-355.566	-50.814	-0.123	0.058
-354.552	77.686	-0.129	-0.137
-353.537	800.000	0.045	0.143
-352.523	375.106	0.181	0.367
-351.508	-200.000	-0.001	0.060
-350.493	-5.349	0.088	-0.060
-349.479	308.453	0.184	-0.342
-348.464	-136.978	0.028	0.003
-347.450	-67.728	-0.191	0.074
-346.435	-200.000	-0.014	-0.234
-345.420	-13.333	0.271	0.175
-344.406	-111.142	0.113	0.023
-343.391	106.846	-0.132	-0.156
-342.377	-138.740	-0.181	0.020
-341.362	-171.410	0.168	0.006
-340.348	402.652	0.043	0.091
-339.333	600.853	-0.051	0.125
-338.318	556.081	0.051	0.122
-337.304	223.190	0.018	-0.029
-336.289	3.174	-0.141	0.102
-335.275	-200.000	0.061	0.270
-334.260	-23.957	-0.333	0.198
-333.245	-200.000	0.005	-0.265
-332.231	800.000	-0.043	-0.148
-331.216	-159.373	-0.231	0.013
-330.202	149.916	-0.332	0.448
-329.187	61.262	0.145	-0.143
-328.172	377.555	0.122	0.247
-327.158	270.927	0.173	-0.303
-326.143	-101.072	-0.141	0.034
-325.129	328.909	0.109	0.209
-324.114	185.050	0.178	0.263
-323.099	0.016	0.321	0.228
-322.085	-200.000	-0.059	0.370
-321.070	-64.617	-0.258	-0.104
-320.056	783.775	0.124	0.339
-319.041	221.000	-0.066	-0.105
-318.026	-200.000	-0.018	-0.118
-317.012	-93.461	-0.168	-0.046
-315.997	-24.604	-0.298	0.176
-314.983	800.000	0.056	-0.238
-313.968	-124.150	0.058	0.009
-312.953	107.540	-0.406	-0.481
-311.939	-200.000	-0.020	0.148
-310.924	249.465	-0.135	-0.228
-309.910	-134.976	0.128	0.015
-308.895	-17.337	-0.106	-0.066
-307.880	-175.344	0.121	-0.003
-306.866	14.591	-0.136	-0.105
-305.851	211.478	0.185	0.290
-304.837	64.065	0.136	-0.136
-303.822	800.000	0.133	-0.367
-302.807	-16.683	0.085	0.054
-301.793	-122.911	0.254	0.041
-300.778	-200.000	0.020	0.244
-299.764	-84.120	-0.226	-0.071
-298.749	-33.577	-0.232	-0.128
-297.735	-124.431	0.188	-0.029
-296.720	-149.446	-0.314	0.025
-295.705	396.232	-0.081	-0.169
-294.691	-139.467	-0.147	-0.016
-293.676	82.313	0.050	0.054
-292.662	29.274	0.292	0.247
-291.647	-16.207	-0.105	0.066
-290.632	-78.894	0.349	0.118
-289.618	37.417	-0.170	-0.149
-288.603	-94.137	-0.462	0.126
-287.589	-57.680	-0.158	0.069
-286.574	-96.322	-0.288	-0.076
-285.559	-200.000	0.002	0.053
-284.545	222.051	-0.054	0.087
-283.530	97.103	-0.135	-0.154
-282.516	800.000	-0.011	0.043
-281.501	-11.240	-0.044	0.029
-280.486	128.050	-0.104	-0.132
-279.472	8.716	-0.187	0.140
-278.457	197.164	-0.085	0.129
-277.443	7.312	0.127	-0.094
-276.428	-16.497	0.124	0.078
-275.413	134.885	-0.174	0.225
-274.399	19.763	0.162	0.130
-273.384	273.659	0.024	-0.042
-272.370	-66.447	0.240	0.095
-271.355	-200.000	0.009	0.047
-270.340	-99.277	0.222	-0.056
-269.326	-28.606	-0.226	0.129
-268.311	301.548	0.116	0.214
-267.297	565.439	0.117	-0.282
-266.282	221.175	-0.211	-0.336
-265.267	439.119	-0.099	0.215
-264.253	-57.008	-0.039	-0.017
-263.238	-89.844	-0.221	0.064
-262.224	542.491	0.032	0.076
-261.209	12.000	0.104	-0.079
-260.195	-105.027	0.224	-0.051
-259.180	-200.000	-0.012	0.204
-258.165	-48.937	-0.079	0.038
-257.151	-55.289	0.041	0.018
-256.136	-200.000	0.032	0.302
-255.122	546.253	0.112	-0.267
-254.107	800.000	-0.150	0.443
-253.092	276.171	0.128	0.226
-252.078	62.998	-0.136	-0.135
-251.063	-183.899	0.370	0.006
-250.049	164.741	0.156	-0.219
-249.034	-200.000	-0.001	-0.162
-248.019	-200.000	0.014	0.230
-247.005	-114.546	-0.142	0.027
-245.990	-7.445	-0.223	-0.150
-244.976	-67.420	0.225	0.088
-243.961	-49.731	0.088	0.042
-242.946	800.000	0.084	0.296
-241.932	-92.158	0.133	0.037
-240.917	800.000	-0.073	0.282
-239.903	-104.882	0.193	-0.044
-238.888	33.369	-0.089	-0.077
-237.873	-71.455	-0.200	-0.074
-236.859	-99.325	-0.369	-0.092
-235.844	-100.279	0.246	-0.061
-234.830	-109.589	-0.255	0.053
-233.815	-200.000	0.016	-0.135
-232.800	-50.151	-0.247	0.116
-231.786	-200.000	0.023	-0.144
-230.771	682.975	0.101	-0.261
-229.757	39.427	-0.065	-0.058
-228.742	18.787	0.143	-0.114
-227.727	-200.000	0.028	0.203
-226.713	108.920	-0.126	0.150
-225.698	-89.630	-0.072	-0.021
-224.684	322.586	0.113	-0.214
-223.669	6.290	0.102	-0.075
-222.655	89.818	-0.166	0.184
-221.640	548.215	0.071	0.168
-220.625	471.116	0.190	0.424
-219.611	-199.054	-0.425	-0.002
-218.596	-166.813	0.192	0.008
-217.582	476.284	-0.027	-0.060
-216.567	-200.000	0.031	-0.313
-215.552	454.103	-0.030	-0.066
-214.538	-31.602	-0.129	-0.072
-213.523	-1.237	-0.085	0.060
-212.509	-41.317	0.302	-0.154
-211.494	-200.000	0.042	0.315
-210.479	-200.000	-0.025	-0.166
-209.465	611.246	0.180	-0.446
-208.450	215.171	0.047	0.073
-207.436	422.962	0.217	0.462
-206.421	-88.225	-0.157	0.047
-205.406	-70.904	-0.284	-0.106
-204.392	-88.222	-0.179	0.053
-203.377	55.478	0.172	-0.165
-202.363	24.335	0.157	-0.129
-201.348	147.185	0.260	0.346
-200.333	73.869	-0.199	0.207
-199.319	-96.374	-0.081	0.021
-198.304	515.990	-0.056	0.130
-197.290	800.000	0.084	-0.283
-196.275	-102.151	-0.232	0.055
-195.260	451.686	0.077	-0.168
-194.246	-97.179	-0.270	0.070
-193.231	800.000	-0.049	0.194
-192.217	37.821	0.071	-0.063
-191.202	-135.552	-0.031	0.004
-190.187	-114.769	0.355	0.067
-189.173	800.000	-0.072	0.287
-188.158	-200.000	0.048	-0.255
-187.144	-9.469	0.206	0.136
-186.129	446.903	-0.082	0.178
-185.114	-30.489	0.113	0.063
-184.100	258.121	0.064	-0.110
-183.085	-200.000	-0.027	-0.313
-182.071	20.660	-0.158	0.127
-181.056	9.772	0.198	0.149
-180.042	-118.850	-0.370	0.064
-179.027	105.367	0.218	0.254
-178.012	-93.886	-0.092	-0.025
-176.998	-200.000	0.003	0.091
-175.983	-94.016	-0.274	-0.075
-174.969	-84.509	0.335	-0.105
-173.954	115.512	-0.070	-0.085
-172.939	58.317	-0.212	0.206
-171.925	-159.355	0.376	-0.021
-170.910	-200.000	0.001	0.266
-169.896	-148.415	-0.200	-0.016
-168.881	508.449	0.088	0.202
-167.866	-65.905	-0.217	0.086
-166.852	-200.000	-0.006	-0.128
-165.837	-34.601	-0.051	0.028
-164.823	-99.773	0.200	-0.050
-163.808	-22.188	0.073	0.044
-162.793	325.873	0.078	-0.148
-161.779	3.492	0.207	0.149
-160.764	-200.000	0.019	-0.270
-159.750	-55.134	0.210	0.093
-158.735	66.556	0.118	-0.119
-157.720	-5.653	0.179	-0.121
-156.706	233.034	0.116	-0.189
-155.691	-158.190	-0.524	-0.030
-154.677	-87.415	-0.191	0.057
-153.662	-200.000	-0.034	0.241
-152.647	800.000	-0.072	0.226
-151.633	-152.587	0.184	0.013
-150.618	141.555	0.057	0.075
-149.604	123.837	0.110	-0.137
-148.589	-109.801	0.333	-0.069
-147.574	-63.685	-0.144	-0.059
-146.560	19.331	0.141	-0.112
-145.545	-119.062	0.314	0.054
-144.531	263.187	-0.070	-0.120
-143.516	301.292	-0.086	0.157
-142.502	800.000	-0.030	0.086
-141.487	800.000	0.055	0.224
-140.472	14.771	0.139	0.107
-139.458	755.755	-0.140	0.374
-138.443	-127.974	0.411	-0.058
-137.429	-89.942	0.149	0.043
-136.414	445.167	0.071	0.153
-135.399	-200.000	0.002	0.039
-134.385	800.000	-0.102	0.395
-133.370	-94.285	-0.266	0.072
-132.356	28.617	-0.295	-0.246
-131.341	800.000	-0.038	0.114
-130.326	-200.000	-0.053	-0.332
-129.312	1.841	-0.437	0.311
-128.297	800.000	0.042	-0.129
-127.283	-200.000	-0.010	0.459
-126.268	800.000	-0.022	-0.090
-125.253	3.073	-0.116	0.084
-124.239	56.385	-0.246	0.236
-123.224	-200.000	-0.030	-0.294
-122.210	76.290	0.280	-0.293
-121.195	-24.973	0.095	-0.055
