DTS Sentinel unit serial number:	SN413079Multiplexer serial number:	ORYXHardware model number:	OX4-SRSoftware version number:	ORYX F/W v4.00 Oryx Data Collector v3.7.2.0data status	okinstallation	princeton_trtdifferential loss correction	single-endedforward channel	channel 1reverse channel	N/Adate	2019/09/10time	19:16:11forward acquisition time	60.00reverse acquisition time	0.00gamma	496.2192k internal	0.2318k external	0.2318temperature offset calibration	0.9931default loss term (dB/km)	0.3790temperature slope calibration	1.0000multiplexer offset coefficient	1.0000multiplexer slope coefficient	1.0000fibre end	0.00T internal ref (°C)	33.94T ext. ref 1 (°C)	-0.35T ext. ref 2 (°C)	26.36length (m)	temperature (°C)	Stokes	anti-Stokes-747.200	-200.000	-0.015	-0.073
-746.185	111.894	-0.375	0.459
-745.171	127.018	0.068	0.087
-744.156	666.896	0.012	0.031
-743.142	562.101	0.048	0.117
-742.127	13.768	-0.026	-0.020
-741.112	239.100	-0.053	-0.089
-740.098	800.000	0.026	0.112
-739.083	130.278	-0.100	0.129
-738.069	179.824	0.068	0.101
-737.054	232.452	-0.170	0.282
-736.039	-200.000	-0.019	-0.218
-735.025	680.858	0.062	0.163
-734.010	800.000	0.077	-0.254
-732.996	-27.343	-0.156	0.092
-731.981	-92.553	-0.194	-0.055
-730.966	185.961	0.044	0.065
-729.952	475.575	-0.108	-0.247
-728.937	-175.099	0.400	-0.011
-727.923	-200.000	0.037	-0.174
-726.908	107.163	-0.044	0.053
-725.894	-200.000	-0.005	0.272
-724.879	20.780	0.063	0.052
-723.864	-28.581	-0.285	0.166
-722.850	-200.000	-0.002	-0.025
-721.835	7.528	-0.379	-0.286
-720.821	-57.111	0.296	-0.132
-719.806	-200.000	0.019	0.397
-718.791	-200.000	-0.084	0.569
-717.777	278.295	-0.087	0.157
-716.762	215.966	0.055	-0.089
-715.748	263.786	-0.069	0.122
-714.733	-107.849	0.174	0.038
-713.718	-95.211	-0.035	0.009
-712.704	-11.320	-0.157	0.105
-711.689	800.000	0.039	0.132
-710.675	-34.569	-0.430	-0.238
-709.660	-200.000	-0.051	0.434
-708.645	-200.000	0.033	0.217
-707.631	-156.545	-0.062	-0.004
-706.616	211.842	0.029	0.045
-705.602	-200.000	0.012	0.135
-704.587	-94.746	-0.108	-0.029
-703.572	53.483	0.156	-0.151
-702.558	483.673	0.079	0.181
-701.543	216.118	-0.027	0.043
-700.529	-200.000	0.085	0.460
-699.514	-102.343	0.072	-0.018
-698.499	-78.723	-0.097	-0.033
-697.485	-56.936	0.325	0.145
-696.470	-82.226	-0.027	-0.009
-695.456	89.212	-0.100	-0.113
-694.441	-80.391	0.218	0.074
-693.426	-10.954	0.079	0.053
-692.412	-118.478	-0.117	0.021
-691.397	214.537	-0.229	-0.366
-690.383	-182.327	0.184	0.003
-689.368	-53.957	-0.190	0.088
-688.354	-200.000	0.009	0.154
-687.339	429.061	0.129	-0.282
-686.324	5.279	-0.152	0.113
-685.310	695.194	0.031	-0.083
-684.295	800.000	0.094	-0.270
-683.281	-83.192	-0.366	-0.119
-682.266	-140.690	0.214	-0.022
-681.251	473.666	0.176	0.401
-680.237	541.044	-0.117	0.281
-679.222	-200.000	-0.003	0.042
-678.208	380.721	-0.052	-0.107
-677.193	404.252	-0.129	-0.274
-676.178	476.383	0.095	-0.218
-675.164	-191.248	-0.199	0.002
-674.149	31.552	-0.157	0.137
-673.135	-18.387	0.280	0.177
-672.120	-62.844	-0.310	0.130
-671.105	-33.154	0.130	-0.073
-670.091	55.595	0.142	-0.139
-669.076	142.235	-0.071	0.095
-668.062	-165.684	-0.184	0.008
-667.047	669.433	-0.105	-0.275
-666.032	447.403	0.241	-0.535
-665.018	228.536	0.028	-0.045
-664.003	-200.000	-0.015	0.406
-662.989	13.951	0.223	0.175
-661.974	-145.004	-0.308	-0.028
-660.959	570.584	-0.081	0.198
-659.945	-175.649	-0.266	-0.007
-658.930	800.000	-0.094	-0.300
-657.916	800.000	-0.027	0.101
-656.901	-51.696	0.102	0.048
-655.886	-200.000	-0.002	-0.171
-654.872	-47.723	0.272	-0.133
-653.857	-200.000	-0.036	0.184
-652.843	-200.000	0.002	0.012
-651.828	800.000	-0.075	-0.320
-650.814	-71.702	-0.204	0.077
-649.799	188.819	-0.030	-0.046
-648.784	800.000	-0.060	0.169
-647.770	-200.000	0.025	0.120
-646.755	-200.000	-0.004	-0.214
-645.741	564.203	0.147	-0.360
-644.726	604.368	0.018	-0.045
-643.711	-81.746	-0.218	-0.072
-642.697	224.564	0.129	0.211
-641.682	150.060	0.035	0.048
-640.668	567.028	0.015	-0.037
-639.653	800.000	-0.043	0.153
-638.638	87.034	0.265	-0.295
-637.624	28.621	0.073	0.062
-636.609	74.594	0.100	-0.106
-635.595	6.118	-0.059	-0.044
-634.580	31.057	-0.109	-0.095
-633.565	360.682	0.048	-0.097
-632.551	-200.000	0.007	0.133
-631.536	-111.561	0.280	0.057
-630.522	-200.000	0.023	0.191
-629.507	328.178	0.115	-0.223
-628.492	-93.628	-0.255	0.071
-627.478	442.654	-0.043	0.095
-626.463	133.197	-0.125	-0.163
-625.449	-177.020	-0.266	0.007
-624.434	-200.000	0.012	-0.172
-623.419	-105.671	0.325	-0.074
-622.405	-175.615	0.393	-0.011
-621.390	-101.559	-0.219	-0.054
-620.376	-107.784	-0.101	-0.022
-619.361	-200.000	0.037	0.186
-618.346	800.000	0.012	0.050
-617.332	-83.139	-0.097	-0.031
-616.317	-170.709	-0.231	-0.008
-615.303	-81.232	0.317	0.105
-614.288	-200.000	0.012	0.187
-613.273	-200.000	-0.006	-0.135
-612.259	-90.169	-0.073	0.021
-611.244	-49.981	-0.033	0.016
-610.230	-84.020	-0.318	-0.102
-609.215	-111.146	-0.345	-0.071
-608.201	-3.542	0.224	0.157
-607.186	-78.288	0.169	-0.058
-606.171	365.263	-0.060	0.122
-605.157	75.191	0.208	0.221
-604.142	-183.586	-0.096	-0.002
-603.128	-18.091	-0.262	-0.165
-602.113	-107.319	0.229	0.051
-601.098	-133.627	-0.211	0.027
-600.084	501.176	-0.112	-0.261
-599.069	139.231	0.074	-0.098
-598.055	230.447	0.144	0.238
-597.040	79.374	0.221	0.239
-596.025	18.599	0.084	-0.068
-595.011	-200.000	0.006	-0.034
-593.996	388.085	0.067	-0.140
-592.982	-97.550	-0.104	0.027
-591.967	-138.080	0.125	-0.014
-590.952	-130.907	0.145	-0.020
-589.938	-124.318	-0.043	-0.007
-588.923	-88.646	-0.136	0.041
-587.909	39.356	-0.065	0.059
-586.894	313.191	0.098	-0.185
-585.879	-62.938	0.220	-0.091
-584.865	-88.095	0.099	0.030
-583.850	0.077	0.139	-0.099
-582.836	767.721	0.107	-0.292
-581.821	-151.408	0.159	-0.012
-580.806	26.190	-0.088	-0.074
-579.792	-125.093	-0.121	0.019
-578.777	800.000	0.007	-0.025
-577.763	-100.536	-0.047	-0.012
-576.748	-69.419	-0.128	0.049
-575.733	-48.132	0.179	0.087
-574.719	-133.737	-0.068	-0.009
-573.704	749.805	0.116	-0.314
-572.690	48.598	0.043	-0.040
-571.675	-200.000	-0.030	0.239
-570.661	-200.000	-0.032	-0.397
-569.646	-102.200	0.196	-0.047
-568.631	-56.092	-0.026	0.011
-567.617	293.309	-0.115	0.211
-566.602	384.348	0.156	-0.323
-565.588	-161.612	0.467	-0.024
-564.573	-124.704	0.257	-0.040
-563.558	22.298	-0.092	-0.076
-562.544	-136.233	-0.378	0.044
-561.529	13.430	0.171	0.134
-560.515	-159.715	0.326	-0.018
-559.500	-80.032	-0.355	-0.120
-558.485	35.876	-0.273	-0.241
-557.471	-47.239	-0.141	-0.069
-556.456	164.985	-0.205	-0.291
-555.442	-71.631	0.280	-0.105
-554.427	34.482	-0.258	-0.227
-553.412	-200.000	-0.030	-0.177
-552.398	-200.000	0.072	-0.440
-551.383	179.648	0.119	-0.175
-550.369	106.155	0.216	0.257
-549.354	800.000	-0.048	0.196
-548.339	800.000	-0.123	0.490
-547.325	-34.572	-0.244	-0.134
-546.310	89.884	0.087	-0.098
-545.296	-123.625	-0.420	0.067
-544.281	-47.364	-0.091	0.045
-543.266	-200.000	0.007	-0.222
-542.252	422.323	-0.136	-0.293
-541.237	-200.000	-0.003	-0.259
-540.223	660.626	-0.108	0.279
-539.208	-62.712	0.242	0.101
-538.193	-149.252	0.293	0.023
-537.179	-120.748	0.184	-0.031
-536.164	-49.126	-0.105	-0.050
-535.150	-75.925	-0.367	0.131
-534.135	800.000	0.100	-0.369
-533.121	-76.885	0.062	0.022
-532.106	-200.000	-0.002	0.097
-531.091	25.548	-0.199	-0.166
-530.077	64.773	0.203	-0.206
-529.062	244.430	-0.188	0.317
-528.048	174.845	0.226	-0.328
-527.033	133.025	0.081	-0.104
-526.018	144.797	-0.104	0.139
-525.004	47.715	0.225	-0.211
-523.989	142.945	-0.211	-0.281
-522.975	239.768	0.332	-0.555
-521.960	51.584	0.118	-0.112
-520.945	-33.514	0.290	0.161
-519.931	354.189	0.075	0.150
-518.916	47.391	0.215	0.201
-517.902	-82.420	0.128	-0.042
-516.887	-51.179	0.048	-0.022
-515.872	-69.826	-0.308	0.118
-514.858	-80.166	-0.193	-0.065
-513.843	-97.216	-0.243	0.064
-512.829	-196.359	-0.386	0.003
-511.814	800.000	0.045	0.176
-510.799	177.777	0.036	-0.053
-509.785	-200.000	0.030	-0.463
-508.770	-97.439	-0.274	0.071
-507.756	-200.000	0.017	-0.132
-506.741	800.000	-0.007	0.024
-505.726	12.264	-0.104	-0.080
-504.712	800.000	-0.036	-0.114
-503.697	-87.720	0.288	-0.087
-502.683	-172.893	0.182	-0.006
-501.668	-20.292	-0.119	-0.073
-500.653	-200.000	0.072	0.373
-499.639	-125.865	-0.294	0.044
-498.624	-200.000	0.062	0.296
-497.610	276.598	-0.156	0.278
-496.595	-76.814	0.230	-0.081
-495.581	-34.372	0.166	0.091
-494.566	290.345	-0.112	0.204
-493.551	-200.000	0.005	-0.122
-492.537	75.357	-0.115	0.122
-491.522	350.236	-0.130	0.258
-490.508	-82.644	0.344	0.112
-489.493	95.248	0.281	0.320
-488.478	-200.000	-0.027	-0.364
-487.464	-94.572	0.143	0.039
-486.449	-75.479	-0.336	0.120
-485.435	577.956	-0.047	0.115
-484.420	170.470	-0.184	-0.264
-483.405	-13.239	-0.272	-0.177
-482.391	-9.594	-0.154	0.103
-481.376	-200.000	0.030	0.204
-480.362	-1.716	-0.336	0.237
-479.347	-200.000	0.004	0.225
-478.332	-200.000	-0.004	0.189
-477.318	-200.000	0.002	-0.030
-476.303	-125.351	0.058	0.009
-475.289	484.233	-0.116	0.263
-474.274	-200.000	-0.031	0.289
-473.259	-35.804	-0.216	-0.117
-472.245	57.290	0.253	0.248
-471.230	-120.417	0.124	0.021
-470.216	596.831	0.064	0.160
-469.201	-57.418	0.193	-0.085
-468.186	-82.278	0.220	-0.072
-467.172	145.257	-0.049	0.066
-466.157	17.140	0.304	0.241
-465.143	-122.701	0.482	0.078
-464.128	241.629	0.061	0.102
-463.113	-45.851	0.244	-0.121
-462.099	-200.000	-0.023	0.124
-461.084	156.181	-0.208	-0.288
-460.070	167.768	0.206	0.293
-459.055	-156.698	0.205	0.013
-458.040	121.323	-0.085	-0.106
-457.026	45.976	0.131	0.121
-456.011	71.289	0.153	0.158
-454.997	22.891	-0.245	0.201
-453.982	-93.122	-0.185	0.051
-452.968	312.460	-0.212	-0.399
-451.953	-200.000	-0.012	0.172
-450.938	-200.000	0.031	-0.436
-449.924	-47.906	-0.173	0.084
-448.909	-152.913	-0.278	0.020
-447.895	-200.000	-0.009	-0.124
-446.880	800.000	-0.083	0.257
-445.865	-64.958	0.165	-0.067
-444.851	13.699	0.288	0.224
-443.836	-42.769	-0.116	0.059
-442.822	-115.677	-0.365	-0.069
-441.807	-1.102	0.191	-0.135
-440.792	158.313	0.132	-0.184
-439.778	-58.683	-0.293	0.127
-438.763	-46.068	0.183	-0.090
-437.749	68.842	-0.069	0.071
-436.734	14.275	-0.215	-0.168
-435.719	19.422	0.265	-0.213
-434.705	-175.574	0.152	-0.004
-433.690	-64.755	0.215	0.087
-432.676	16.274	0.120	0.094
-431.661	-137.812	-0.264	-0.030
-430.646	-175.991	-0.228	-0.006
-429.632	42.646	0.117	0.106
-428.617	-159.653	0.242	0.013
-427.603	-53.113	0.167	0.077
-426.588	800.000	0.032	0.092
-425.573	-200.000	0.010	0.131
-424.559	-64.956	-0.164	-0.066
-423.544	-200.000	-0.020	-0.188
-422.530	357.745	-0.125	0.250
-421.515	-139.532	0.442	0.047
-420.500	27.544	0.163	0.137
-419.486	34.380	-0.186	-0.162
-418.471	-145.354	0.205	0.018
-417.457	-93.100	-0.290	-0.081
-416.442	-200.000	-0.016	0.149
-415.428	-109.368	-0.093	-0.020
-414.413	-200.000	-0.031	0.292
-413.398	62.493	0.109	-0.109
-412.384	1.899	-0.024	0.017
-411.369	1.005	0.324	0.232
-410.355	-88.591	0.236	-0.070
-409.340	-19.046	-0.165	0.102
-408.325	-200.000	0.017	-0.211
-407.311	101.039	-0.082	-0.096
-406.296	-200.000	-0.018	-0.242
-405.282	141.761	-0.193	-0.256
-404.267	-200.000	0.070	0.348
-403.252	-102.219	-0.122	-0.029
-402.238	42.733	0.208	0.190
-401.223	-89.289	0.291	0.086
-400.209	396.923	0.112	-0.233
-399.194	79.000	-0.171	-0.183
-398.179	122.965	0.187	-0.233
-397.165	-200.000	-0.024	-0.219
-396.150	249.931	-0.046	-0.078
-395.136	-200.000	0.033	-0.328
-394.121	800.000	0.071	0.249
-393.106	-200.000	-0.040	0.287
-392.092	570.613	0.078	0.189
-391.077	53.538	-0.107	0.102
-390.063	-56.602	0.054	0.024
-389.048	62.084	0.265	-0.264
-388.033	800.000	0.055	0.229
-387.019	280.228	-0.129	-0.230
-386.004	344.306	0.018	-0.035
-384.990	-28.966	0.100	0.057
-383.975	411.531	-0.032	0.067
-382.960	-39.688	-0.248	0.130
-381.946	-46.985	0.070	0.034
-380.931	-94.822	-0.082	-0.022
-379.917	130.157	-0.237	-0.302
-378.902	334.834	-0.105	-0.203
-377.888	642.915	-0.024	0.060
-376.873	-200.000	0.051	0.236
-375.858	-29.861	0.065	0.037
-374.844	-127.622	-0.194	0.028
-373.829	-104.821	-0.098	-0.022
-372.815	-5.765	0.390	-0.266
-371.800	514.414	-0.164	-0.381
-370.785	312.246	0.087	0.164
-369.771	173.925	0.167	-0.241
-368.756	-200.000	0.021	-0.174
-367.742	43.986	-0.251	-0.230
-366.727	-67.284	-0.207	-0.081
-365.712	470.668	-0.138	-0.310
-364.698	410.673	-0.091	0.192
-363.683	257.348	0.133	-0.227
-362.669	317.087	0.073	0.137
-361.654	-119.393	-0.595	0.103
-360.639	-89.944	0.237	-0.069
-359.625	800.000	0.093	0.366
-358.610	800.000	0.036	-0.117
-357.596	-144.597	-0.177	-0.016
-356.581	-158.597	-0.302	0.017
-355.566	221.961	0.241	0.386
-354.552	454.839	-0.088	-0.195
-353.537	-106.459	-0.187	0.042
-352.523	-77.936	0.223	0.077
-351.508	-40.133	-0.058	-0.030
-350.493	-188.083	-0.137	0.002
-349.479	-160.944	0.237	-0.012
-348.464	800.000	-0.030	0.115
-347.450	800.000	-0.064	-0.182
-346.435	-110.446	-0.091	0.019
-345.420	63.718	-0.236	-0.236
-344.406	800.000	0.054	-0.227
-343.391	-120.306	-0.171	0.029
-342.377	-200.000	-0.012	0.218
-341.362	106.660	-0.079	0.093
-340.348	389.733	0.069	-0.142
-339.333	-31.488	0.172	0.096
-338.318	38.434	0.232	0.206
-337.304	-100.450	-0.183	-0.045
-336.289	129.905	0.165	-0.211
-335.275	-102.160	-0.238	0.057
-334.260	1.886	0.195	0.140
-333.245	186.427	-0.085	-0.125
-332.231	-200.000	0.050	0.260
-331.216	191.154	0.136	0.204
-330.202	-200.000	-0.044	-0.223
-329.187	-200.000	-0.006	0.109
-328.172	-71.446	-0.203	0.076
-327.158	28.775	0.096	0.081
-326.143	-8.251	-0.109	-0.073
-325.129	-139.100	0.124	0.013
-324.114	-0.664	0.243	0.172
-323.099	-101.163	-0.176	0.043
-322.085	-200.000	-0.044	-0.211
-321.070	13.998	0.153	0.118
-320.056	309.603	-0.081	0.151
-319.041	713.473	0.062	0.163
-318.026	-133.385	-0.201	0.025
-317.012	-99.261	-0.178	-0.045
-315.997	399.837	-0.123	-0.257
-314.983	-200.000	-0.022	0.367
-313.968	198.568	-0.050	0.077
-312.953	131.329	0.023	0.030
-311.939	800.000	-0.054	0.174
-310.924	-153.336	-0.196	-0.014
-309.910	-38.807	-0.214	-0.112
-308.895	377.286	0.117	-0.238
-307.880	-200.000	0.030	0.222
-306.866	202.434	0.097	-0.148
-305.851	159.158	-0.063	-0.088
-304.837	11.303	0.293	0.223
-303.822	223.381	-0.065	-0.104
-302.807	-200.000	-0.056	-0.426
-301.793	42.929	-0.131	0.119
-300.778	-40.513	-0.163	0.084
-299.764	-39.069	0.188	-0.098
-298.749	800.000	0.091	0.282
-297.735	-200.000	0.015	-0.138
-296.720	-48.078	0.205	0.099
-295.705	-69.058	0.163	0.062
-294.691	11.581	0.164	0.125
-293.676	-151.075	0.275	0.021
-292.662	-180.968	-0.135	0.003
-291.647	-33.935	-0.103	-0.057
-290.632	-76.295	-0.291	-0.102
-289.618	367.833	-0.088	0.176
-288.603	-38.944	-0.094	-0.049
-287.589	14.305	-0.330	-0.256
-286.574	-136.064	0.202	-0.024
-285.559	-200.000	-0.004	0.097
-284.545	-63.237	-0.168	-0.069
-283.530	-5.097	0.213	0.145
-282.516	-200.000	0.001	0.084
-281.501	-66.940	-0.167	-0.066
-280.486	800.000	0.054	-0.213
-279.472	-72.578	-0.117	0.043
-278.457	95.095	-0.101	-0.114
-277.443	-173.419	0.088	0.003
-276.428	-71.754	-0.156	0.058
-275.413	-81.744	-0.203	0.066
-274.399	169.457	-0.113	-0.160
-273.384	395.443	0.112	-0.233
-272.370	182.023	0.261	0.381
-271.355	257.597	0.069	-0.119
-270.340	-153.538	-0.161	-0.011
-269.326	17.594	0.129	0.102
-268.311	-74.388	0.149	-0.053
-267.297	134.797	0.135	-0.173
-266.282	-46.079	-0.077	0.038
-265.267	-200.000	-0.011	0.088
-264.253	39.188	-0.170	0.151
-263.238	108.361	-0.158	0.188
-262.224	7.070	-0.050	0.037
-261.209	84.380	0.150	0.163
-260.195	24.189	0.113	-0.092
-259.180	-200.000	-0.042	-0.217
-258.165	-49.021	0.033	-0.016
-257.151	2.301	0.223	-0.160
-256.136	-200.000	-0.027	-0.137
-255.122	-182.147	-0.190	0.004
-254.107	285.480	-0.269	-0.481
-253.092	-86.265	-0.242	0.074
-252.078	800.000	0.061	0.200
-251.063	292.180	0.039	0.070
-250.049	601.197	-0.092	0.226
-249.034	285.636	0.146	0.260
-248.019	-200.000	-0.078	-0.384
-247.005	57.930	-0.246	-0.239
-245.990	279.569	-0.263	-0.466
-244.976	22.177	0.201	-0.163
-243.961	-78.498	0.433	0.147
-242.946	800.000	0.063	-0.179
-241.932	800.000	0.117	-0.350
-240.917	130.158	-0.132	0.168
-239.903	-166.163	0.107	0.004
-238.888	21.716	-0.042	-0.034
-237.873	-200.000	0.040	0.401
-236.859	-15.709	-0.227	-0.143
-235.844	-125.518	-0.382	-0.058
-234.830	-106.320	-0.286	-0.064
-233.815	800.000	-0.063	0.175
-232.800	-63.536	-0.349	-0.142
-231.786	800.000	0.035	0.117
-230.771	-88.567	0.077	0.023
-229.757	-200.000	-0.048	0.366
-228.742	327.159	0.105	-0.200
-227.727	674.686	0.053	-0.137
-226.713	143.251	0.134	0.177
-225.698	-200.000	-0.031	0.243
-224.684	75.996	-0.130	-0.136
-223.669	800.000	0.050	0.148
-222.655	-90.397	0.215	-0.062
-221.640	-200.000	-0.018	-0.169
-220.625	-98.514	-0.217	-0.055
-219.611	449.669	0.170	-0.372
-218.596	800.000	0.027	0.088
-217.582	-200.000	0.009	0.303
-216.567	-52.378	0.193	0.089
-215.552	-67.909	-0.158	0.061
-214.538	-200.000	-0.011	-0.237
-213.523	74.394	0.195	0.203
-212.509	180.575	-0.151	-0.220
-211.494	29.558	0.019	-0.016
-210.479	445.109	0.044	-0.095
-209.465	-39.280	0.322	-0.167
-208.450	-200.000	-0.013	-0.218
-207.436	18.464	0.119	0.094
-206.421	54.870	0.078	0.074
-205.406	-200.000	-0.016	0.149
-204.392	-200.000	-0.043	-0.214
-203.377	-52.343	0.248	0.114
-202.363	103.475	0.116	-0.135
-201.348	114.425	0.089	0.107
-200.333	-48.942	0.373	-0.177
-199.319	-58.124	-0.138	-0.060
-198.304	232.458	-0.055	-0.090
-197.290	-90.464	-0.160	0.046
-196.275	358.291	0.061	-0.121
-195.260	702.720	-0.141	-0.369
-194.246	-59.263	0.193	0.082
-193.231	-200.000	0.057	0.340
-192.217	-76.818	0.186	-0.065
-191.202	23.758	-0.246	-0.201
-190.187	-48.784	-0.023	0.011
-189.173	-200.000	0.007	0.112
-188.158	75.915	0.136	0.143
-187.144	304.363	0.043	0.078
-186.129	800.000	-0.078	0.331
-185.114	32.411	0.007	0.006
-184.100	42.420	-0.048	-0.043
-183.085	177.514	-0.024	-0.034
-182.071	229.194	-0.133	0.216
-181.056	-172.870	-0.196	-0.006
-180.042	169.988	0.090	0.127
-179.027	-73.300	0.485	-0.176
-178.012	161.116	-0.029	-0.039
-176.998	-32.819	-0.285	0.157
-175.983	-200.000	0.085	0.489
-174.969	258.671	-0.138	0.235
-173.954	103.429	0.129	0.150
-172.939	420.839	0.187	0.396
-171.925	-63.120	0.053	0.022
-170.910	-200.000	-0.008	-0.154
-169.896	-92.818	-0.239	-0.066
-168.881	61.859	0.293	0.289
-167.866	44.031	-0.226	0.205
-166.852	720.059	-0.027	0.071
-165.837	-94.786	-0.208	0.056
-164.823	148.457	0.028	-0.037
-163.808	-82.018	-0.291	0.094
-162.793	800.000	0.106	0.295
-161.779	11.986	-0.159	0.121
-160.764	240.182	0.088	0.145
-159.750	-200.000	0.002	0.060
-158.735	28.872	-0.131	0.110
-157.720	-7.677	-0.103	0.069
-156.706	-200.000	0.061	0.325
-155.691	-98.100	0.179	0.046
-154.677	28.549	0.095	0.080
-153.662	60.760	-0.183	-0.180
-152.647	800.000	0.039	-0.143
-151.633	-85.793	-0.026	-0.008
-150.618	-200.000	-0.076	0.419
-149.604	32.930	0.015	-0.013
-148.589	-200.000	-0.045	-0.241
-147.574	85.283	0.177	0.192
-146.560	-200.000	0.040	0.296
-145.545	-170.086	0.102	-0.004
-144.531	114.896	0.065	0.079
-143.516	-86.577	-0.214	0.065
-142.502	52.544	-0.214	-0.202
-141.487	22.112	-0.165	-0.133
-140.472	281.335	0.109	0.193
-139.458	-200.000	0.096	0.459
-138.443	800.000	-0.058	0.226
-137.429	-200.000	-0.011	0.225
-136.414	-200.000	0.014	0.127
-135.399	-58.984	0.105	-0.045
-134.385	-200.000	0.023	-0.132
-133.370	-160.307	-0.292	0.016
-132.356	-112.622	-0.329	-0.065
-131.341	127.411	0.169	-0.212
-130.326	100.711	-0.042	0.048
-129.312	-48.503	0.220	0.105
-128.297	357.929	0.111	-0.219
-127.283	-2.341	0.403	-0.279
-126.268	-200.000	0.004	-0.024
-125.253	-127.484	-0.319	-0.046
-124.239	58.017	-0.160	0.155
-123.224	-200.000	-0.058	0.405
-122.210	83.074	0.140	-0.150
-121.195	-51.322	-0.013	0.006
