DTS Sentinel unit serial number:	SN413079Multiplexer serial number:	ORYXHardware model number:	OX4-SRSoftware version number:	ORYX F/W v4.00 Oryx Data Collector v3.7.2.0data status	okinstallation	princeton_trtdifferential loss correction	single-endedforward channel	channel 1reverse channel	N/Adate	2019/09/19time	00:46:35forward acquisition time	60.00reverse acquisition time	0.00gamma	496.2192k internal	0.2343k external	0.2343temperature offset calibration	1.0028default loss term (dB/km)	0.3790temperature slope calibration	1.0000multiplexer offset coefficient	1.0000multiplexer slope coefficient	1.0000fibre end	0.00T internal ref (°C)	22.12T ext. ref 1 (°C)	0.74T ext. ref 2 (°C)	15.39length (m)	temperature (°C)	Stokes	anti-Stokes-747.200	174.601	0.035	-0.051
-746.185	-95.542	0.026	-0.007
-745.171	-90.937	0.172	-0.050
-744.156	-200.000	-0.035	0.271
-743.142	117.258	-0.077	-0.095
-742.127	73.387	0.059	0.062
-741.112	-200.000	-0.055	-0.453
-740.098	76.897	0.086	-0.092
-739.083	117.782	0.151	0.187
-738.069	125.597	-0.218	0.276
-737.054	10.589	-0.192	-0.147
-736.039	-200.000	0.037	-0.205
-735.025	4.169	0.349	0.255
-734.010	102.314	-0.177	-0.207
-732.996	475.143	0.018	-0.041
-731.981	256.457	0.087	0.150
-730.966	-11.358	0.244	0.160
-729.952	-200.000	-0.065	-0.397
-728.937	512.330	0.150	-0.349
-727.923	169.083	0.051	0.073
-726.908	20.071	-0.109	-0.088
-725.894	800.000	0.025	-0.099
-724.879	46.388	-0.186	-0.173
-723.864	-200.000	-0.027	-0.184
-722.850	800.000	-0.049	-0.189
-721.835	-32.024	-0.343	0.192
-720.821	97.016	0.052	-0.060
-719.806	556.445	0.129	0.311
-718.791	29.412	-0.255	0.217
-717.777	-200.000	-0.026	0.162
-716.762	-158.600	-0.367	-0.021
-715.748	377.149	0.244	-0.499
-714.733	-200.000	0.024	0.110
-713.718	-76.845	-0.320	0.112
-712.704	800.000	0.033	0.094
-711.689	800.000	0.084	0.237
-710.675	-194.706	0.497	-0.004
-709.660	-200.000	0.022	0.156
-708.645	2.993	-0.196	0.142
-707.631	61.517	0.122	-0.122
-706.616	800.000	-0.037	-0.121
-705.602	34.108	0.112	-0.098
-704.587	-200.000	0.049	-0.218
-703.572	-200.000	0.025	-0.224
-702.558	-61.732	-0.210	0.088
-701.543	-200.000	0.364	-0.001
-700.529	-100.992	0.105	0.026
-699.514	-99.773	0.222	-0.055
-698.499	149.327	0.059	-0.080
-697.485	187.145	-0.129	0.192
-696.470	-149.077	0.296	0.024
-695.456	-84.732	-0.100	0.032
-694.441	-200.000	0.041	0.212
-693.426	-118.006	-0.139	-0.025
-692.412	151.841	0.099	-0.135
-691.397	540.908	-0.230	-0.548
-690.383	-200.000	0.085	-0.381
-689.368	-64.561	0.181	-0.074
-688.354	-200.000	-0.009	0.312
-687.339	-124.217	-0.189	0.030
-686.324	-92.153	-0.220	0.062
-685.310	242.816	0.082	0.137
-684.295	52.822	-0.128	-0.122
-683.281	269.470	-0.104	-0.183
-682.266	275.775	-0.147	0.260
-681.251	-200.000	0.001	-0.279
-680.237	-200.000	-0.008	0.116
-679.222	614.773	0.097	0.244
-678.208	171.330	-0.245	-0.351
-677.193	-83.481	0.215	-0.069
-676.178	-200.000	0.036	-0.223
-675.164	-200.000	-0.004	-0.214
-674.149	-127.485	-0.404	-0.059
-673.135	-112.355	0.344	-0.069
-672.120	416.120	-0.109	0.232
-671.105	-150.860	-0.024	0.002
-670.091	-152.134	-0.132	-0.010
-669.076	-113.365	0.254	-0.050
-668.062	-63.466	-0.303	-0.124
-667.047	22.453	-0.288	-0.235
-666.032	105.317	0.044	-0.052
-665.018	-68.348	-0.268	-0.104
-664.003	510.468	0.026	-0.061
-662.989	-34.802	-0.184	0.101
-661.974	-180.149	-0.379	0.008
-660.959	-23.493	0.249	0.149
-659.945	540.527	-0.123	-0.293
-658.930	-200.000	-0.012	0.204
-657.916	124.130	-0.113	0.141
-656.901	18.481	0.159	-0.127
-655.886	-106.215	0.184	0.041
-654.872	-131.582	-0.176	-0.023
-653.857	23.956	-0.135	-0.111
-652.843	-101.233	-0.301	-0.073
-651.828	10.225	0.106	-0.080
-650.814	-200.000	0.048	-0.302
-649.799	90.221	-0.241	-0.268
-648.784	-46.767	0.466	0.228
-647.770	-41.586	-0.120	0.062
-646.755	-54.654	-0.400	0.180
-645.741	-200.000	0.006	-0.198
-644.726	-24.139	-0.202	-0.120
-643.711	-200.000	0.009	-0.056
-642.697	23.943	-0.211	-0.173
-641.682	800.000	-0.081	0.271
-640.668	138.665	0.231	-0.302
-639.653	-166.819	-0.229	-0.009
-638.638	11.629	-0.241	-0.184
-637.624	-98.574	0.181	0.046
-636.609	-200.000	-0.019	0.104
-635.595	800.000	-0.106	0.321
-634.580	-75.863	-0.142	0.050
-633.565	-63.236	-0.036	0.015
-632.551	-104.446	-0.189	0.044
-631.536	-67.926	0.223	0.087
-630.522	-88.420	-0.240	0.071
-629.507	-102.750	-0.266	0.063
-628.492	134.672	0.139	0.179
-627.478	-102.282	0.293	-0.070
-626.463	-200.000	-0.007	0.279
-625.449	-49.344	0.216	0.103
-624.434	-38.625	-0.185	-0.097
-623.419	-74.399	0.315	-0.113
-622.405	800.000	-0.084	0.247
-621.390	96.890	-0.128	0.147
-620.376	-58.943	-0.129	0.055
-619.361	244.824	0.114	-0.191
-618.346	319.433	0.123	-0.233
-617.332	635.368	0.180	0.455
-616.317	-176.430	0.269	-0.007
-615.303	-200.000	0.010	0.252
-614.288	440.306	-0.057	0.123
-613.273	-155.998	-0.468	-0.030
-612.259	-200.000	-0.030	0.218
-611.244	285.460	-0.055	-0.098
-610.230	800.000	0.075	-0.300
-609.215	22.318	-0.262	0.214
-608.201	-151.522	-0.145	0.011
-607.186	241.940	-0.172	0.287
-606.171	-36.165	0.219	0.118
-605.157	80.556	0.196	0.211
-604.142	-200.000	0.007	0.173
-603.128	89.959	-0.192	-0.214
-602.113	-71.034	-0.303	0.114
-601.098	204.943	0.085	-0.131
-600.084	312.074	-0.200	-0.374
-599.069	266.329	-0.058	-0.100
-598.055	147.692	0.334	-0.448
-597.040	147.248	-0.118	-0.158
-596.025	98.986	-0.268	0.308
-595.011	-200.000	-0.004	-0.144
-593.996	127.077	-0.068	0.086
-592.982	302.802	0.119	-0.220
-591.967	123.869	-0.170	-0.212
-590.952	51.259	-0.270	-0.255
-589.938	-13.643	0.128	0.083
-588.923	262.769	0.038	0.066
-587.909	-69.171	-0.237	0.091
-586.894	42.365	0.163	0.147
-585.879	250.811	-0.023	0.039
-584.865	-54.131	-0.113	0.051
-583.850	-39.420	0.400	0.209
-582.836	-200.000	0.010	0.065
-581.821	110.749	0.173	-0.207
-580.806	-129.494	-0.116	0.016
-579.792	-96.095	0.280	0.074
-578.777	-105.316	-0.252	-0.057
-577.763	81.151	-0.056	-0.060
-576.748	-39.886	0.192	0.100
-575.733	-17.423	-0.168	-0.105
-574.719	-123.833	-0.096	0.015
-573.704	-154.722	-0.230	0.015
-572.690	20.025	-0.216	-0.173
-571.675	293.879	-0.040	-0.073
-570.661	-155.397	0.196	-0.013
-569.646	18.103	-0.084	-0.067
-568.631	24.004	0.108	-0.089
-567.617	35.025	-0.350	0.305
-566.602	239.527	0.104	0.172
-565.588	36.213	0.188	0.165
-564.573	73.334	-0.160	-0.166
-563.558	98.743	-0.128	-0.147
-562.544	-200.000	0.001	-0.080
-561.529	100.861	0.252	0.292
-560.515	-200.000	0.010	0.064
-559.500	157.328	-0.138	0.189
-558.485	800.000	0.064	-0.247
-557.471	800.000	-0.110	0.313
-556.456	53.189	-0.223	0.212
-555.442	-43.848	0.103	-0.051
-554.427	-19.527	-0.358	-0.221
-553.412	30.387	-0.211	0.179
-552.398	-200.000	0.013	0.097
-551.383	781.536	0.056	-0.153
-550.369	223.737	0.068	-0.108
-549.354	-25.028	-0.109	0.064
-548.339	47.082	-0.106	0.098
-547.325	-200.000	0.055	-0.417
-546.310	42.448	-0.206	-0.186
-545.296	-200.000	0.048	-0.272
-544.281	231.646	-0.179	0.292
-543.266	-32.327	0.198	-0.110
-542.252	-20.416	-0.327	-0.200
-541.237	-200.000	-0.030	-0.269
-540.223	-200.000	-0.008	0.144
-539.208	411.099	0.111	-0.234
-538.193	698.276	-0.100	-0.262
-537.179	27.131	0.095	0.080
-536.164	-20.779	-0.247	0.150
-535.150	-94.556	0.555	0.150
-534.135	208.643	0.124	-0.193
-533.121	800.000	0.070	0.278
-532.106	-88.662	0.327	-0.097
-531.091	0.024	-0.077	-0.055
-530.077	194.591	0.070	-0.106
-529.062	-109.616	0.370	0.078
-528.048	-37.723	-0.106	0.056
-527.033	-200.000	0.101	0.000
-526.018	-200.000	0.190	-0.000
-525.004	-49.564	0.204	0.096
-523.989	-69.853	0.230	-0.087
-522.975	-154.493	-0.204	0.014
-521.960	-94.395	0.172	-0.047
-520.945	230.710	0.273	-0.444
-519.931	111.117	-0.048	-0.058
-518.916	-72.356	0.257	-0.095
-517.902	511.769	0.039	0.091
-516.887	-46.172	-0.177	0.087
-515.872	-189.382	-0.188	0.002
-514.858	-161.767	-0.198	0.010
-513.843	-200.000	-0.001	-0.465
-512.829	-77.412	0.125	0.043
-511.814	490.454	-0.045	-0.102
-510.799	-19.501	0.199	-0.122
-509.785	99.431	0.073	-0.084
-508.770	-200.000	-0.040	-0.210
-507.756	402.515	0.163	0.340
-506.741	-200.000	0.013	0.188
-505.726	154.622	-0.113	-0.154
-504.712	567.041	0.099	-0.238
-503.697	-41.533	0.082	0.042
-502.683	-200.000	-0.001	-0.023
-501.668	-100.342	0.350	-0.086
-500.653	90.245	-0.248	0.275
-499.639	256.545	-0.040	-0.067
-498.624	-200.000	0.005	0.153
-497.610	800.000	-0.044	0.152
-496.595	-118.387	0.141	0.025
-495.581	36.115	0.250	-0.218
-494.566	800.000	-0.054	-0.152
-493.551	800.000	-0.019	0.052
-492.537	184.960	0.198	0.291
-491.522	-143.167	-0.054	0.005
-490.508	-200.000	0.019	-0.404
-489.493	74.576	-0.068	-0.071
-488.478	60.011	-0.182	-0.178
-487.464	279.075	-0.252	0.446
-486.449	-71.726	0.215	0.080
-485.435	703.970	0.082	0.215
-484.420	268.294	0.166	-0.288
-483.405	99.973	-0.263	-0.302
-482.391	-133.884	-0.246	0.030
-481.376	-6.412	0.106	0.072
-480.362	-200.000	0.023	-0.157
-479.347	-200.000	-0.011	-0.121
-478.332	-67.679	-0.136	-0.053
-477.318	800.000	0.145	0.451
-476.303	110.598	0.150	0.178
-475.289	322.977	-0.075	-0.142
-474.274	-200.000	-0.019	-0.479
-473.259	172.674	-0.063	-0.090
-472.245	-121.474	0.393	0.065
-471.230	445.712	-0.118	-0.257
-470.216	18.195	-0.336	0.266
-469.201	338.580	0.112	0.216
-468.186	402.521	-0.065	-0.135
-467.172	800.000	0.058	0.244
-466.157	6.410	-0.135	0.099
-465.143	85.951	0.102	-0.112
-464.128	-200.000	-0.005	0.151
-463.113	-107.282	-0.193	0.042
-462.099	578.462	-0.143	-0.345
-461.084	6.187	0.161	0.118
-460.070	-200.000	-0.010	0.138
-459.055	-200.000	0.039	-0.191
-458.040	-129.632	-0.076	0.010
-457.026	-35.453	-0.098	-0.052
-456.011	-200.000	0.004	0.019
-454.997	287.376	-0.081	-0.145
-453.982	688.483	-0.118	0.306
-452.968	140.395	-0.033	0.043
-451.953	-200.000	0.021	-0.179
-450.938	138.450	-0.175	-0.228
-449.924	137.851	-0.113	-0.146
-448.909	-200.000	0.007	0.275
-447.895	-152.601	0.189	0.013
-446.880	-36.136	0.061	0.032
-445.865	-200.000	0.022	-0.100
-444.851	-33.598	-0.094	0.051
-443.836	-22.442	-0.232	-0.139
-442.822	66.786	-0.184	0.185
-441.807	-200.000	0.044	-0.312
-440.792	-200.000	0.007	0.079
-439.778	-200.000	0.002	0.252
-438.763	350.530	0.049	-0.095
-437.749	-200.000	0.054	-0.243
-436.734	13.402	0.093	-0.071
-435.719	-62.771	0.114	0.047
-434.705	-134.428	0.059	-0.007
-433.690	207.298	-0.038	-0.059
-432.676	-200.000	0.002	0.080
-431.661	-200.000	0.073	-0.428
-430.646	125.006	0.074	-0.092
-429.632	-35.819	-0.310	0.166
-428.617	-81.316	0.160	0.052
-427.603	-152.753	-0.330	0.023
-426.588	463.265	-0.075	0.165
-425.573	-200.000	0.021	0.392
-424.559	-200.000	0.043	0.359
-423.544	26.133	0.146	0.121
-422.530	-144.464	-0.191	0.017
-421.515	-108.399	-0.243	0.052
-420.500	-200.000	0.048	0.230
-419.486	-84.239	0.226	0.071
-418.471	550.965	0.042	-0.099
-417.457	-58.297	-0.317	-0.136
-416.442	-200.000	0.020	-0.220
-415.428	-26.179	-0.261	0.151
-414.413	-200.000	-0.015	0.102
-413.398	-102.183	0.194	0.046
-412.384	307.428	0.113	-0.209
-411.369	29.471	-0.168	-0.141
-410.355	-54.846	0.151	0.067
-409.340	470.587	-0.061	0.135
-408.325	393.900	0.028	-0.057
-407.311	-91.815	-0.411	-0.115
-406.296	360.375	-0.108	0.214
-405.282	-200.000	0.016	0.245
-404.267	316.777	-0.042	0.079
-403.252	-132.096	0.118	0.015
-402.238	-22.431	-0.165	-0.099
-401.223	126.765	-0.124	0.155
-400.209	-104.677	0.244	-0.056
-399.194	-200.000	0.079	0.432
-398.179	213.403	-0.060	-0.094
-397.165	268.361	0.137	0.237
-396.150	-2.534	-0.279	-0.193
-395.136	-123.004	0.220	-0.035
-394.121	-200.000	-0.035	0.246
-393.106	-7.648	0.143	-0.095
-392.092	245.537	-0.034	-0.057
-391.077	-112.202	0.034	0.007
-390.063	39.788	-0.234	-0.208
-389.048	-17.880	0.095	-0.059
-388.033	106.806	-0.191	-0.224
-387.019	532.897	0.163	0.381
-386.004	-200.000	-0.027	-0.165
-384.990	-161.867	0.285	0.014
-383.975	242.055	-0.077	-0.127
-382.960	-21.439	-0.033	0.020
-381.946	-164.807	0.175	-0.008
-380.931	-200.000	-0.006	0.289
-379.917	24.438	0.162	-0.133
-378.902	-200.000	0.018	-0.310
-377.888	55.373	0.038	0.036
-376.873	-42.395	0.131	0.066
-375.858	-46.747	0.259	0.125
-374.844	40.938	0.048	0.042
-373.829	146.854	-0.136	0.180
-372.815	-39.075	0.028	0.015
-371.800	-8.962	-0.084	-0.055
-370.785	-27.162	-0.144	0.083
-369.771	346.131	0.090	-0.175
-368.756	187.249	-0.109	-0.161
-367.742	307.695	0.044	-0.081
-366.727	-106.604	-0.325	0.071
-365.712	-200.000	-0.043	0.314
-364.698	-36.566	-0.023	-0.012
-363.683	31.290	0.238	-0.201
-362.669	-58.405	-0.273	0.117
-361.654	-182.473	0.210	0.004
-360.639	-57.543	0.047	0.020
-359.625	-163.817	-0.274	-0.013
-358.610	150.492	-0.237	-0.317
-357.596	61.580	0.143	-0.141
-356.581	-200.000	0.007	-0.287
-355.566	655.300	0.053	0.135
-354.552	-4.079	0.077	-0.052
-353.537	800.000	0.117	-0.382
-352.523	-200.000	-0.003	-0.062
-351.508	-121.574	0.225	0.037
-350.493	82.440	0.102	0.109
-349.479	383.700	0.001	0.002
-348.464	-28.710	0.096	-0.055
-347.450	191.991	0.123	0.183
-346.435	-200.000	0.018	0.087
-345.420	239.610	-0.223	0.365
-344.406	-200.000	-0.028	-0.488
-343.391	-34.925	0.184	-0.099
-342.377	-45.656	-0.290	0.142
-341.362	-66.709	0.112	-0.044
-340.348	-93.851	-0.223	0.061
-339.333	-82.929	0.316	0.101
-338.318	800.000	-0.073	0.246
-337.304	-2.231	0.299	0.207
-336.289	-200.000	-0.002	0.156
-335.275	-92.900	-0.274	-0.075
-334.260	800.000	0.046	-0.152
-333.245	-42.890	0.235	-0.117
-332.231	120.692	-0.100	0.123
-331.216	-200.000	-0.013	0.389
-330.202	201.491	-0.013	0.019
-329.187	-41.568	-0.248	-0.126
-328.172	-45.372	0.254	0.124
-327.158	115.017	-0.269	0.323
-326.143	277.367	-0.123	-0.215
-325.129	-61.320	0.197	-0.082
-324.114	-55.047	0.115	-0.051
-323.099	-200.000	0.010	0.120
-322.085	475.595	0.060	-0.134
-321.070	300.129	-0.074	-0.134
-320.056	497.606	0.113	0.257
-319.041	-93.930	0.207	0.056
-318.026	-200.000	-0.020	0.312
-317.012	-174.865	0.267	0.007
-315.997	29.390	-0.123	0.103
-314.983	217.184	0.160	0.250
-313.968	-110.957	0.230	-0.047
-312.953	800.000	-0.142	-0.422
-311.939	314.379	0.097	-0.180
-310.924	168.795	0.063	-0.088
-309.910	-114.108	-0.201	0.038
-308.895	493.400	0.145	0.328
-307.880	42.269	0.232	0.208
-306.866	-56.447	-0.125	-0.055
-305.851	-200.000	-0.084	0.403
-304.837	461.475	0.093	0.204
-303.822	-83.192	0.320	0.101
-302.807	274.955	-0.014	0.024
-301.793	26.256	-0.206	-0.170
-300.778	83.932	0.087	0.093
-299.764	-15.598	0.064	-0.040
-298.749	420.399	0.166	-0.349
-297.735	594.184	-0.030	-0.072
-296.720	-200.000	-0.021	0.141
-295.705	189.499	-0.074	0.109
-294.691	-200.000	0.018	-0.174
-293.676	-74.731	0.326	-0.115
-292.662	-200.000	0.056	-0.449
-291.647	21.371	-0.183	0.146
-290.632	243.661	-0.157	0.260
-289.618	38.410	0.229	0.200
-288.603	-52.803	-0.147	-0.067
-287.589	-122.778	0.189	0.030
-286.574	-200.000	-0.010	0.137
-285.559	146.667	0.183	-0.242
-284.545	-75.780	0.151	0.053
-283.530	-78.470	-0.091	-0.031
-282.516	-200.000	-0.075	-0.491
-281.501	672.202	-0.103	-0.263
-280.486	76.899	0.172	-0.180
-279.472	2.995	0.116	-0.083
-278.457	31.446	-0.203	0.171
-277.443	17.016	0.086	0.067
-276.428	53.142	0.188	-0.177
-275.413	-60.560	0.192	-0.080
-274.399	800.000	-0.055	-0.224
-273.384	262.916	-0.182	0.310
-272.370	217.111	-0.102	0.160
-271.355	-83.965	0.360	0.113
-270.340	-125.824	0.387	0.057
-269.326	-200.000	0.018	-0.093
-268.311	64.166	-0.157	-0.155
-267.297	243.936	0.025	-0.041
-266.282	800.000	0.014	0.044
-265.267	325.724	-0.152	-0.287
-264.253	-45.934	0.259	0.125
-263.238	-200.000	0.025	-0.221
-262.224	-200.000	-0.035	-0.386
-261.209	46.118	0.119	-0.109
-260.195	800.000	-0.047	-0.157
-259.180	108.430	0.103	-0.121
-258.165	800.000	0.053	0.215
-257.151	81.350	-0.074	-0.079
-256.136	800.000	0.031	0.115
-255.122	177.347	-0.086	0.123
-254.107	332.485	0.065	-0.124
-253.092	-43.896	0.148	0.073
-252.078	-132.776	0.367	-0.046
-251.063	800.000	0.020	-0.062
-250.049	352.344	-0.037	-0.072
-249.034	-74.197	0.228	-0.081
-248.019	14.242	-0.321	0.246
-247.005	210.968	-0.205	0.316
-245.990	201.785	-0.073	0.110
-244.976	292.895	0.235	-0.421
-243.961	269.745	0.097	-0.168
-242.946	46.625	0.324	0.295
-241.932	220.471	0.182	0.287
-240.917	-135.816	-0.072	0.008
-239.903	800.000	-0.041	-0.145
-238.888	-192.748	-0.343	-0.003
-237.873	-200.000	-0.009	-0.167
-236.859	339.728	-0.103	0.197
-235.844	715.721	0.196	-0.511
-234.830	-58.374	-0.242	0.103
-233.815	-136.901	0.285	-0.032
-232.800	-93.874	-0.115	0.031
-231.786	-200.000	0.009	-0.082
-230.771	-94.222	0.201	0.054
-229.757	96.385	0.145	-0.163
-228.742	-167.440	0.091	0.004
-227.727	15.889	0.182	0.141
-226.713	-112.367	0.396	-0.078
-225.698	800.000	-0.059	0.225
-224.684	36.679	0.176	0.152
-223.669	-126.783	0.111	-0.016
-222.655	-68.274	0.113	-0.043
-221.640	-200.000	0.037	-0.184
-220.625	-200.000	0.011	0.153
-219.611	-16.581	0.264	0.164
-218.596	133.766	0.080	-0.101
-217.582	48.510	0.093	-0.086
-216.567	240.420	-0.075	0.123
-215.552	161.531	-0.211	0.289
-214.538	-147.276	-0.011	0.001
-213.523	800.000	0.073	0.236
-212.509	-106.926	-0.160	0.035
-211.494	251.341	0.162	-0.271
-210.479	-200.000	0.001	0.108
-209.465	9.371	-0.024	0.018
-208.450	93.915	0.152	-0.169
-207.436	-200.000	-0.231	0.000
-206.421	161.048	0.147	-0.202
-205.406	623.598	0.042	-0.104
-204.392	-55.415	0.106	0.047
-203.377	53.001	-0.169	-0.159
-202.363	-200.000	-0.037	-0.392
-201.348	13.937	-0.433	-0.330
-200.333	361.085	0.108	0.213
-199.319	-34.572	0.189	-0.101
-198.304	-14.629	-0.263	0.166
-197.290	211.953	0.217	0.334
-196.275	226.478	-0.125	0.199
-195.260	91.688	-0.153	0.168
-194.246	-200.000	-0.069	0.322
-193.231	-156.434	-0.325	0.020
-192.217	800.000	0.054	0.199
-191.202	42.396	-0.259	0.231
-190.187	-37.578	-0.307	0.161
-189.173	-22.549	0.086	0.051
-188.158	50.006	0.057	0.053
-187.144	-200.000	0.008	-0.066
-186.129	518.294	-0.088	-0.202
-185.114	50.753	0.168	-0.156
-184.100	257.336	0.112	-0.189
-183.085	-34.019	0.239	-0.129
-182.071	-121.365	-0.249	0.041
-181.056	-127.157	-0.243	-0.035
-180.042	-40.188	0.062	-0.032
-179.027	-200.000	0.018	0.211
-178.012	-25.333	0.294	-0.170
-176.998	800.000	0.034	0.093
-175.983	103.338	0.196	-0.226
-174.969	63.163	-0.198	0.194
-173.954	-200.000	-0.054	-0.264
-172.939	-159.394	-0.497	-0.027
-171.925	800.000	0.033	-0.090
-170.910	97.211	0.175	0.196
-169.896	4.778	-0.236	0.170
-168.881	800.000	0.101	0.339
-167.866	117.934	0.276	-0.333
-166.852	274.704	-0.086	0.150
-165.837	-0.991	-0.292	-0.202
-164.823	44.453	-0.112	0.101
-163.808	32.735	-0.430	-0.364
-162.793	-200.000	0.040	0.283
-161.779	104.463	0.160	0.184
-160.764	-200.000	0.042	-0.266
-159.750	-36.860	0.119	-0.063
-158.735	341.624	-0.128	0.244
-157.720	-79.006	-0.208	0.069
-156.706	-68.357	-0.072	-0.027
-155.691	168.193	-0.137	0.190
-154.677	68.319	-0.208	-0.208
-153.662	-48.175	-0.012	-0.005
-152.647	118.725	-0.145	0.175
-151.633	101.232	-0.177	-0.202
-150.618	-117.969	-0.110	-0.019
-149.604	-200.000	-0.050	-0.330
-148.589	800.000	-0.018	0.055
-147.574	651.915	0.061	-0.154
-146.560	71.755	-0.217	-0.220
-145.545	71.075	-0.117	-0.119
-144.531	384.640	0.102	-0.206
-143.516	62.137	0.212	0.207
-142.502	11.169	0.184	0.137
-141.487	-131.603	-0.381	-0.049
-140.472	426.312	-0.129	-0.272
-139.458	800.000	0.081	0.340
-138.443	-41.624	-0.350	0.176
-137.429	-164.868	-0.050	-0.002
-136.414	-200.000	-0.009	-0.211
-135.399	-183.248	0.400	0.007
-134.385	-29.067	-0.130	-0.073
-133.370	-44.219	0.159	-0.078
-132.356	-64.736	0.116	-0.046
-131.341	-200.000	0.015	0.152
-130.326	-200.000	-0.001	-0.093
-129.312	219.103	0.087	0.136
-128.297	-49.904	-0.208	0.097
-127.283	-26.245	0.162	-0.093
-126.268	-30.914	-0.206	-0.114
-125.253	234.243	-0.081	0.130
-124.239	440.813	0.171	0.366
-123.224	-200.000	-0.031	0.275
-122.210	800.000	0.069	-0.259
-121.195	270.892	-0.163	-0.280
