DTS Sentinel unit serial number:	SN413079Multiplexer serial number:	ORYXHardware model number:	OX4-SRSoftware version number:	ORYX F/W v4.00 Oryx Data Collector v3.7.2.0data status	okinstallation	princeton_trtdifferential loss correction	single-endedforward channel	channel 1reverse channel	N/Adate	2019/09/16time	11:26:35forward acquisition time	60.00reverse acquisition time	0.00gamma	496.2192k internal	0.2297k external	0.2297temperature offset calibration	0.9964default loss term (dB/km)	0.3790temperature slope calibration	1.0000multiplexer offset coefficient	1.0000multiplexer slope coefficient	1.0000fibre end	0.00T internal ref (°C)	37.48T ext. ref 1 (°C)	12.93T ext. ref 2 (°C)	35.26length (m)	temperature (°C)	Stokes	anti-Stokes-747.200	202.124	-0.186	-0.293
-746.185	-80.802	-0.305	0.103
-745.171	-121.151	-0.084	0.014
-744.156	-77.460	0.259	-0.092
-743.142	277.331	-0.082	-0.149
-742.127	-32.017	-0.420	-0.240
-741.112	-167.936	-0.170	0.007
-740.098	-200.000	-0.031	0.312
-739.083	154.684	0.177	-0.248
-738.069	99.629	0.170	0.201
-737.054	81.211	-0.138	0.152
-736.039	-84.327	-0.146	0.047
-735.025	-154.899	-0.133	-0.009
-734.010	-200.000	-0.046	-0.264
-732.996	123.722	0.207	0.265
-731.981	41.541	-0.157	-0.145
-730.966	747.629	-0.020	0.055
-729.952	-63.325	-0.400	0.168
-728.937	-110.568	0.103	-0.022
-727.923	118.006	0.154	0.194
-726.908	800.000	0.024	-0.078
-725.894	-25.638	-0.141	-0.085
-724.879	319.916	0.057	-0.111
-723.864	55.950	-0.091	0.090
-722.850	-174.960	-0.245	-0.007
-721.835	135.944	-0.162	-0.215
-720.821	-200.000	0.036	0.172
-719.806	-98.155	-0.105	0.027
-718.791	-200.000	0.076	0.400
-717.777	136.636	0.232	-0.309
-716.762	-52.195	0.222	-0.105
-715.748	-194.140	-0.426	-0.004
-714.733	37.868	-0.316	0.287
-713.718	-107.844	0.211	0.047
-712.704	-187.477	0.252	-0.003
-711.689	-200.000	-0.053	0.371
-710.675	-200.000	0.062	0.359
-709.660	9.707	-0.076	-0.059
-708.645	-2.275	-0.053	0.038
-707.631	4.422	-0.169	-0.126
-706.616	-181.175	-0.225	0.005
-705.602	65.661	0.241	0.249
-704.587	-19.309	-0.271	-0.171
-703.572	-21.770	-0.182	-0.113
-702.558	-113.315	0.302	0.061
-701.543	10.981	0.119	-0.092
-700.529	374.057	-0.072	0.150
-699.514	-70.930	-0.090	0.034
-698.499	-112.709	0.238	0.048
-697.485	50.343	-0.070	0.067
-696.470	-54.358	0.201	0.093
-695.456	247.373	0.091	0.157
-694.441	-87.192	-0.329	0.102
-693.426	-80.951	-0.132	-0.045
-692.412	-200.000	-0.012	0.122
-691.397	-200.000	-0.045	-0.246
-690.383	27.460	0.197	-0.168
-689.368	591.787	0.177	-0.446
-688.354	22.236	0.269	-0.224
-687.339	800.000	0.071	0.266
-686.324	-200.000	-0.001	0.130
-685.310	379.216	-0.109	0.228
-684.295	-200.000	0.012	-0.093
-683.281	117.910	0.160	0.200
-682.266	-34.719	-0.327	-0.182
-681.251	211.337	0.097	0.156
-680.237	-200.000	-0.048	-0.312
-679.222	-163.355	-0.134	-0.007
-678.208	-155.330	-0.210	0.014
-677.193	-115.559	-0.078	0.015
-676.178	216.574	-0.133	-0.215
-675.164	476.514	0.064	0.146
-674.149	127.562	0.031	-0.040
-673.135	-121.365	-0.046	0.008
-672.120	35.451	-0.198	-0.177
-671.105	-126.060	-0.410	0.063
-670.091	-110.173	-0.162	-0.034
-669.076	-200.000	0.067	-0.409
-668.062	-126.836	-0.222	0.033
-667.047	-83.291	-0.040	-0.013
-666.032	-75.936	-0.256	-0.092
-665.018	-48.528	0.165	-0.081
-664.003	-200.000	0.047	0.211
-662.989	70.089	0.103	-0.108
-661.974	800.000	0.063	0.177
-660.959	92.374	0.142	0.163
-659.945	-200.000	0.023	0.297
-658.930	-119.371	-0.127	0.022
-657.916	15.115	-0.121	0.097
-656.901	-89.058	0.283	0.085
-655.886	-7.337	-0.237	-0.164
-654.872	82.175	0.101	-0.111
-653.857	4.759	0.231	0.172
-652.843	79.527	-0.102	0.111
-651.828	62.292	0.042	-0.042
-650.814	-71.711	0.108	-0.041
-649.799	731.325	-0.085	0.232
-648.784	100.134	0.079	0.093
-647.770	768.611	0.022	-0.061
-646.755	74.308	-0.036	0.039
-645.741	-55.056	0.303	0.139
-644.726	-157.263	0.181	0.011
-643.711	147.912	-0.057	0.078
-642.697	-123.422	-0.119	-0.019
-641.682	800.000	0.171	-0.580
-640.668	800.000	0.040	0.122
-639.653	79.606	-0.126	0.137
-638.638	71.580	0.056	0.059
-637.624	-11.168	-0.217	-0.145
-636.609	-104.618	0.206	0.048
-635.595	-25.935	-0.248	-0.148
-634.580	105.800	-0.062	-0.075
-633.565	-200.000	-0.037	-0.229
-632.551	-130.223	0.042	0.006
-631.536	-102.477	0.363	0.088
-630.522	-61.141	0.515	0.221
-629.507	-161.739	0.120	0.006
-628.492	-35.681	-0.042	0.023
-627.478	566.072	-0.148	0.365
-626.463	-21.591	-0.068	-0.042
-625.449	-4.207	-0.063	0.044
-624.434	71.748	-0.165	-0.174
-623.419	-139.338	-0.046	-0.005
-622.405	-200.000	0.018	-0.205
-621.390	800.000	0.063	0.177
-620.376	441.035	-0.065	-0.145
-619.361	87.536	0.162	0.182
-618.346	-200.000	-0.009	0.109
-617.332	353.780	0.064	-0.129
-616.317	-23.916	0.125	0.076
-615.303	-200.000	0.005	-0.095
-614.288	-200.000	0.006	-0.486
-613.273	-57.785	-0.279	0.124
-612.259	800.000	0.073	-0.208
-611.244	-200.000	-0.005	0.181
-610.230	-36.049	-0.212	-0.116
-609.215	-22.641	0.245	-0.151
-608.201	-200.000	0.013	0.062
-607.186	-0.073	-0.154	-0.112
-606.171	-105.389	-0.077	0.018
-605.157	476.719	-0.023	-0.054
-604.142	-23.012	-0.106	0.065
-603.128	-200.000	-0.002	-0.110
-602.113	418.367	0.112	0.244
-601.098	-13.117	-0.125	0.083
-600.084	-102.683	-0.115	0.028
-599.069	-13.885	0.090	-0.059
-598.055	-34.438	0.322	-0.179
-597.040	-29.794	-0.142	-0.082
-596.025	-40.652	-0.292	-0.154
-595.011	-200.000	0.020	0.154
-593.996	-98.257	0.022	0.006
-592.982	-22.174	-0.356	0.219
-591.967	58.023	-0.230	0.228
-590.952	102.332	-0.100	-0.118
-589.938	800.000	-0.016	0.068
-588.923	-103.682	0.327	0.078
-587.909	-200.000	-0.052	-0.311
-586.894	-62.922	0.059	0.025
-585.879	216.964	-0.185	0.299
-584.865	-200.000	-0.025	0.172
-583.850	-152.588	-0.248	0.018
-582.836	-200.000	0.002	-0.164
-581.821	800.000	0.018	-0.079
-580.806	138.076	-0.172	-0.228
-579.792	47.402	0.133	-0.125
-578.777	-63.982	0.133	0.055
-577.763	135.390	0.107	0.142
-576.748	49.943	-0.308	0.295
-575.733	370.583	0.072	-0.149
-574.719	-60.102	0.354	-0.153
-573.704	-2.272	0.109	-0.078
-572.690	-200.000	0.027	0.319
-571.675	-200.000	0.020	0.266
-570.661	3.585	0.203	-0.150
-569.646	397.002	-0.105	-0.223
-568.631	800.000	0.040	0.157
-567.617	-128.586	0.127	0.018
-566.602	-155.453	0.143	-0.009
-565.588	-38.546	0.317	0.170
-564.573	-200.000	0.011	-0.103
-563.558	800.000	-0.013	0.042
-562.544	159.559	0.183	-0.258
-561.529	-34.883	0.221	0.122
-560.515	99.862	-0.296	-0.348
-559.500	-200.000	0.006	0.241
-558.485	800.000	0.089	0.319
-557.471	800.000	-0.012	0.045
-556.456	103.958	-0.191	-0.227
-555.442	-117.147	-0.212	-0.039
-554.427	-84.644	0.125	-0.040
-553.412	-200.000	0.019	0.340
-552.398	-200.000	-0.030	0.162
-551.383	-65.505	-0.091	0.037
-550.369	-200.000	0.006	0.042
-549.354	-30.180	-0.152	0.088
-548.339	-200.000	-0.051	0.269
-547.325	-123.403	-0.151	0.024
-546.310	-200.000	-0.018	0.129
-545.296	-200.000	-0.025	0.331
-544.281	-159.793	-0.232	-0.013
-543.266	-41.409	-0.061	0.032
-542.252	-130.699	-0.283	-0.039
-541.237	16.609	0.248	0.199
-540.223	-59.720	0.136	0.059
-539.208	-7.142	-0.119	0.082
-538.193	-24.402	0.242	0.146
-537.179	800.000	-0.031	-0.106
-536.164	-111.428	-0.349	0.072
-535.150	-200.000	-0.004	-0.328
-534.135	-11.535	0.397	0.264
-533.121	800.000	-0.034	-0.127
-532.106	-135.965	0.126	0.015
-531.091	-166.300	0.327	-0.014
-530.077	88.021	-0.248	-0.279
-529.062	-21.318	-0.270	0.167
-528.048	32.088	-0.158	0.138
-527.033	-60.482	0.087	-0.037
-526.018	-200.000	0.011	-0.089
-525.004	-200.000	0.006	0.152
-523.989	-68.817	0.062	-0.024
-522.975	-200.000	-0.022	0.241
-521.960	-148.945	0.498	-0.041
-520.945	39.268	-0.114	-0.103
-519.931	-59.859	-0.279	-0.121
-518.916	800.000	0.044	0.139
-517.902	-57.105	-0.134	-0.060
-516.887	800.000	-0.071	0.263
-515.872	-184.022	0.343	-0.006
-514.858	146.147	0.212	-0.287
-513.843	-101.366	-0.051	-0.012
-512.829	452.359	0.083	0.185
-511.814	321.856	-0.162	-0.312
-510.799	800.000	0.040	0.137
-509.785	800.000	-0.082	0.264
-508.770	-17.489	-0.145	0.092
-507.756	-200.000	0.044	0.221
-506.741	-74.506	-0.074	-0.027
-505.726	-160.592	0.162	0.009
-504.712	-200.000	0.022	0.135
-503.697	-24.165	-0.192	-0.116
-502.683	-34.883	0.040	0.022
-501.668	-35.783	-0.120	0.066
-500.653	-200.000	-0.010	0.327
-499.639	-17.413	0.127	-0.081
-498.624	-100.075	-0.144	0.036
-497.610	-137.719	0.080	-0.009
-496.595	-200.000	-0.066	-0.297
-495.581	-136.160	0.228	-0.027
-494.566	-130.316	-0.111	-0.015
-493.551	720.031	-0.114	0.307
-492.537	-200.000	0.009	-0.285
-491.522	-200.000	-0.011	-0.508
-490.508	800.000	0.062	0.268
-489.493	10.522	-0.238	0.183
-488.478	-4.169	0.046	0.033
-487.464	411.034	0.072	0.154
-486.449	-200.000	-0.031	-0.198
-485.435	15.211	-0.231	0.183
-484.420	-62.772	-0.400	0.168
-483.405	720.810	0.023	0.061
-482.391	-200.000	-0.015	0.103
-481.376	19.863	-0.242	0.197
-480.362	-107.543	-0.184	0.041
-479.347	2.548	0.047	-0.034
-478.332	79.744	0.169	-0.184
-477.318	800.000	0.070	-0.221
-476.303	-119.125	0.369	-0.065
-475.289	245.237	-0.044	-0.075
-474.274	16.120	0.332	0.265
-473.259	-200.000	0.002	0.414
-472.245	-66.017	-0.280	-0.113
-471.230	25.167	-0.220	0.184
-470.216	-200.000	-0.004	0.099
-469.201	56.772	0.182	0.179
-468.186	-200.000	-0.015	0.316
-467.172	152.191	0.082	-0.113
-466.157	-187.606	0.011	0.000
-465.143	-14.169	0.198	0.129
-464.128	-82.673	0.170	-0.056
-463.113	-1.294	-0.206	0.147
-462.099	71.620	0.209	0.219
-461.084	-200.000	0.022	-0.229
-460.070	309.649	0.089	-0.167
-459.055	19.659	0.209	-0.170
-458.040	695.530	0.023	0.060
-457.026	43.571	0.355	0.328
-456.011	-25.224	-0.188	-0.112
-454.997	-48.236	0.203	0.099
-453.982	-10.410	-0.167	-0.111
-452.968	78.418	0.245	-0.264
-451.953	-32.460	0.218	-0.122
-450.938	174.128	0.118	-0.172
-449.924	138.815	0.098	0.130
-448.909	-200.000	0.003	0.018
-447.895	73.377	0.412	0.435
-446.880	-115.218	-0.229	-0.044
-445.865	800.000	0.094	0.367
-444.851	-200.000	-0.016	-0.112
-443.836	191.566	-0.141	0.215
-442.822	119.010	-0.210	0.261
-441.807	384.867	0.134	0.279
-440.792	158.924	-0.175	0.246
-439.778	52.657	0.189	-0.182
-438.763	-140.677	-0.148	0.015
-437.749	94.616	-0.274	-0.314
-436.734	227.074	-0.101	0.165
-435.719	800.000	0.091	-0.335
-434.705	-164.356	-0.041	0.002
-433.690	-44.779	-0.223	0.112
-432.676	-200.000	-0.017	0.090
-431.661	-86.863	0.207	0.064
-430.646	546.763	-0.041	-0.098
-429.632	-132.124	-0.157	-0.021
-428.617	277.242	0.134	0.240
-427.603	-53.991	0.562	-0.258
-426.588	20.373	-0.261	0.213
-425.573	206.565	-0.172	0.270
-424.559	154.594	-0.156	-0.216
-423.544	-200.000	-0.072	-0.318
-422.530	78.192	0.223	-0.240
-421.515	59.902	0.416	-0.415
-420.500	175.910	-0.200	0.292
-419.486	-197.149	-0.345	0.002
-418.471	-125.359	0.038	-0.006
-417.457	800.000	0.069	0.286
-416.442	289.556	-0.105	0.193
-415.428	800.000	-0.049	0.203
-414.413	-16.253	-0.143	0.092
-413.398	-144.751	0.311	-0.029
-412.384	-200.000	-0.002	-0.305
-411.369	-77.893	0.168	-0.058
-410.355	-168.599	-0.217	-0.008
-409.340	800.000	0.080	0.283
-408.325	76.201	-0.106	-0.114
-407.311	-120.630	0.095	0.016
-406.296	-200.000	-0.009	0.095
-405.282	63.990	0.159	-0.161
-404.267	45.298	0.342	-0.318
-403.252	36.112	0.267	-0.237
-402.238	-76.642	-0.144	-0.051
-401.223	-200.000	-0.010	-0.148
-400.209	-104.686	-0.191	-0.044
-399.194	800.000	-0.052	0.167
-398.179	-200.000	0.053	0.300
-397.165	329.207	0.069	0.134
-396.150	-148.245	0.150	0.012
-395.136	800.000	-0.044	0.130
-394.121	-4.503	-0.156	-0.108
-393.106	-80.311	-0.203	0.068
-392.092	800.000	-0.074	0.266
-391.077	-200.000	0.019	0.548
-390.063	17.448	-0.224	0.179
-389.048	312.125	-0.072	0.136
-388.033	-107.743	-0.306	0.067
-387.019	-76.757	-0.532	-0.188
-386.004	46.449	-0.363	0.339
-384.990	13.913	-0.168	-0.131
-383.975	-200.000	0.015	0.163
-382.960	-200.000	-0.046	-0.435
-381.946	277.402	0.031	0.056
-380.931	-36.043	-0.362	-0.197
-379.917	-200.000	-0.008	-0.312
-378.902	718.284	-0.029	0.076
-377.888	-114.972	0.114	-0.022
-376.873	4.145	0.046	-0.034
-375.858	-156.440	0.071	-0.004
-374.844	800.000	0.116	-0.468
-373.829	-200.000	-0.031	0.470
-372.815	95.365	-0.209	0.239
-371.800	-122.960	-0.346	0.056
-370.785	-58.103	-0.140	0.061
-369.771	679.821	0.116	-0.305
-368.756	-200.000	-0.018	-0.095
-367.742	125.016	-0.086	0.109
-366.727	-7.079	0.224	-0.153
-365.712	-200.000	-0.011	0.150
-364.698	-200.000	-0.021	-0.175
-363.683	-1.692	-0.227	0.161
-362.669	65.989	0.307	-0.313
-361.654	800.000	0.025	-0.107
-360.639	792.183	0.069	0.190
-359.625	-46.015	0.184	0.091
-358.610	-33.308	-0.085	-0.047
-357.596	31.077	-0.150	-0.129
-356.581	-19.207	0.229	-0.143
-355.566	-146.281	0.254	0.022
-354.552	-200.000	-0.019	0.209
-353.537	303.127	0.128	0.239
-352.523	-80.702	-0.178	-0.060
-351.508	800.000	0.071	-0.223
-350.493	-9.706	0.068	0.045
-349.479	-30.079	-0.163	-0.093
-348.464	219.962	0.225	-0.363
-347.450	-166.483	0.265	-0.011
-346.435	277.214	-0.068	0.121
-345.420	800.000	-0.047	-0.171
-344.406	674.364	-0.023	0.060
-343.391	483.892	0.066	0.152
-342.377	-48.737	-0.112	0.054
-341.362	-24.852	-0.270	-0.161
-340.348	-200.000	0.027	-0.647
-339.333	-120.538	-0.256	0.044
-338.318	235.944	-0.021	0.035
-337.304	800.000	0.024	0.097
-336.289	193.241	0.052	0.079
-335.275	-200.000	-0.017	-0.099
-334.260	532.630	-0.056	0.134
-333.245	-200.000	0.013	-0.163
-332.231	84.311	0.220	0.242
-331.216	546.283	-0.126	-0.304
-330.202	6.153	0.366	-0.273
-329.187	69.164	0.137	-0.141
-328.172	50.849	0.110	-0.105
-327.158	-145.866	0.368	-0.033
-326.143	203.655	-0.150	-0.233
-325.129	5.833	-0.153	-0.113
-324.114	12.701	-0.378	-0.293
-323.099	-200.000	0.004	-0.174
-322.085	-12.280	-0.138	0.091
-321.070	402.391	0.133	-0.281
-320.056	60.378	0.043	-0.043
-319.041	330.974	0.045	-0.086
-318.026	-200.000	0.034	0.175
-317.012	16.770	0.264	-0.210
-315.997	266.193	0.050	0.087
-314.983	-102.053	-0.151	-0.037
-313.968	-107.080	-0.139	0.031
-312.953	800.000	-0.067	-0.198
-311.939	800.000	0.019	0.071
-310.924	-161.627	0.314	0.016
-309.910	51.389	-0.100	0.095
-308.895	800.000	-0.081	0.286
-307.880	-70.421	-0.386	0.147
-306.866	800.000	0.060	-0.226
-305.851	-161.998	-0.311	0.016
-304.837	-130.708	-0.147	0.020
-303.822	-200.000	-0.175	-0.775
-302.807	-200.000	-0.008	-0.124
-301.793	179.821	-0.182	-0.268
-300.778	-21.576	-0.059	0.036
-299.764	-60.724	-0.197	-0.084
-298.749	-200.000	-0.001	0.061
-297.735	-132.424	-0.328	-0.042
-296.720	57.237	0.156	0.153
-295.705	-127.510	0.355	0.052
-294.691	-5.989	0.124	-0.085
-293.676	-56.552	0.098	0.043
-292.662	184.669	-0.132	0.196
-291.647	155.824	-0.262	0.362
-290.632	-46.812	0.106	0.052
-289.618	-93.688	0.056	-0.015
-288.603	800.000	0.154	-0.591
-287.589	800.000	0.051	-0.146
-286.574	-68.372	0.135	-0.053
-285.559	221.394	0.044	-0.072
-284.545	63.168	0.422	0.424
-283.530	-76.277	-0.323	0.114
-282.516	-30.752	0.308	-0.175
-281.501	-157.775	0.341	0.020
-280.486	-173.769	-0.180	-0.005
-279.472	-82.856	-0.293	0.095
-278.457	301.397	-0.039	0.072
-277.443	-119.510	-0.365	-0.064
-276.428	688.854	-0.191	-0.502
-275.413	-70.442	-0.039	0.015
-274.399	87.825	0.192	0.214
-273.384	375.239	0.118	0.241
-272.370	-53.174	-0.115	0.053
-271.355	800.000	-0.023	-0.075
-270.340	9.855	0.146	0.111
-269.326	-200.000	-0.007	-0.093
-268.311	193.427	-0.143	0.216
-267.297	-200.000	0.011	-0.151
-266.282	-45.839	0.079	-0.039
-265.267	34.729	-0.114	-0.100
-264.253	137.089	0.167	0.218
-263.238	86.124	0.074	-0.081
-262.224	220.134	-0.092	0.148
-261.209	-151.789	-0.210	0.015
-260.195	-21.205	0.096	-0.059
-259.180	-24.907	-0.101	0.060
-258.165	800.000	0.076	-0.214
-257.151	800.000	-0.037	-0.152
-256.136	-83.414	0.163	0.052
-255.122	-33.871	0.370	-0.204
-254.107	-200.000	0.021	0.113
-253.092	72.188	0.142	0.148
-252.078	26.698	0.073	-0.061
-251.063	-200.000	0.015	-0.328
-250.049	-79.062	-0.157	-0.053
-249.034	-200.000	0.025	-0.265
-248.019	35.339	0.074	0.065
-247.005	694.682	-0.061	-0.160
-245.990	-18.941	-0.126	-0.078
-244.976	-82.658	-0.122	0.039
-243.961	143.055	-0.266	0.354
-242.946	31.765	0.142	-0.122
-241.932	-55.379	0.314	-0.141
-240.917	-200.000	0.044	-0.197
-239.903	369.414	0.053	-0.108
-238.888	81.618	0.132	0.144
-237.873	173.882	-0.116	0.167
-236.859	-160.051	-0.177	-0.010
-235.844	-200.000	-0.002	0.059
-234.830	7.694	-0.162	-0.122
-233.815	-46.676	0.086	0.042
-232.800	49.179	0.292	0.275
-231.786	-77.146	-0.216	0.075
-230.771	239.205	0.272	0.452
-229.757	-200.000	-0.024	0.113
-228.742	-134.060	-0.225	-0.028
-227.727	139.749	0.045	-0.059
-226.713	-60.265	-0.052	0.022
-225.698	230.777	-0.131	-0.214
-224.684	-200.000	-0.030	0.166
-223.669	43.772	0.310	-0.284
-222.655	800.000	0.099	0.350
-221.640	-200.000	0.043	0.212
-220.625	-33.131	0.083	0.046
-219.611	-73.788	0.352	0.128
-218.596	-75.825	-0.296	-0.105
-217.582	-142.859	0.276	0.027
-216.567	-101.540	0.053	-0.013
-215.552	-200.000	0.016	-0.192
-214.538	800.000	0.064	-0.280
-213.523	163.469	-0.146	0.205
-212.509	-30.470	-0.157	0.089
-211.494	-200.000	-0.010	-0.058
-210.479	-95.678	0.301	0.081
-209.465	-147.955	-0.299	0.025
-208.450	-12.799	-0.199	-0.130
-207.436	800.000	-0.181	-0.573
-206.421	223.675	0.030	0.048
-205.406	113.648	-0.147	-0.178
-204.392	446.177	-0.042	-0.093
-203.377	319.274	-0.084	-0.160
-202.363	565.969	-0.005	0.012
-201.348	-66.177	0.192	-0.077
-200.333	114.215	-0.223	-0.272
-199.319	-147.192	0.082	-0.007
-198.304	-170.208	-0.248	0.009
-197.290	338.646	-0.126	0.244
-196.275	31.863	0.357	0.307
-195.260	-119.692	0.305	-0.053
-194.246	-107.919	0.156	-0.034
-193.231	4.995	-0.144	0.106
-192.217	51.389	-0.117	0.111
-191.202	-200.000	-0.012	-0.059
-190.187	-200.000	0.019	-0.157
-189.173	-33.782	-0.094	-0.052
-188.158	-200.000	0.008	0.188
-187.144	800.000	0.038	0.154
-186.129	73.979	-0.178	0.187
-185.114	325.747	0.142	0.272
-184.100	-110.111	-0.023	-0.005
-183.085	35.973	-0.209	0.184
-182.071	800.000	-0.039	-0.155
-181.056	189.849	0.219	-0.329
-180.042	-160.328	-0.069	0.004
-179.027	32.287	-0.169	0.146
-178.012	-15.985	0.220	0.140
-176.998	-98.819	0.147	-0.037
-175.983	800.000	-0.072	0.255
-174.969	-200.000	0.092	-0.444
-173.954	800.000	-0.048	0.164
-172.939	800.000	-0.013	0.050
-171.925	800.000	-0.132	0.426
-170.910	-68.121	0.139	-0.054
-169.896	9.832	-0.164	0.124
-168.881	51.791	0.263	-0.250
-167.866	248.063	0.204	-0.344
-166.852	68.667	-0.336	-0.344
-165.837	-200.000	0.000	-0.055
-164.823	-66.986	-0.187	-0.074
-163.808	192.583	-0.214	-0.322
-162.793	-48.421	-0.172	-0.083
-161.779	800.000	-0.106	-0.339
-160.764	45.060	0.181	0.166
-159.750	-134.409	0.233	-0.028
-158.735	-53.461	0.173	-0.079
-157.720	-116.469	0.240	-0.044
-156.706	-50.369	-0.298	-0.140
-155.691	-19.359	0.078	0.048
-154.677	-53.440	0.080	-0.037
-153.662	63.378	0.260	-0.260
-152.647	-146.486	0.193	-0.017
-151.633	-33.836	0.330	0.182
-150.618	-66.083	0.320	0.127
-149.604	-31.837	-0.217	0.121
-148.589	97.979	-0.099	-0.114
-147.574	-24.125	0.235	0.140
-146.560	558.432	0.095	0.229
-145.545	-184.420	-0.255	-0.004
-144.531	148.105	-0.031	-0.042
-143.516	800.000	-0.092	-0.369
-142.502	-57.657	-0.106	-0.046
-141.487	-71.428	-0.443	0.165
-140.472	800.000	-0.037	-0.161
-139.458	-32.538	0.260	-0.145
-138.443	-124.190	-0.166	-0.026
-137.429	-25.237	0.303	-0.179
-136.414	-153.929	0.166	-0.011
-135.399	40.189	0.303	0.271
-134.385	160.027	-0.052	0.072
-133.370	181.976	-0.013	-0.019
-132.356	-139.814	0.389	0.041
-131.341	-174.987	-0.282	0.008
-130.326	-145.697	0.276	0.025
-129.312	486.565	0.156	0.355
-128.297	-80.400	-0.152	-0.051
-127.283	257.624	-0.139	-0.238
-126.268	-2.615	0.073	0.051
-125.253	278.953	0.115	-0.204
-124.239	173.331	0.045	-0.065
-123.224	-168.042	-0.294	-0.011
-122.210	68.252	0.203	-0.207
-121.195	-200.000	0.056	0.313
