DTS Sentinel unit serial number:	SN413079Multiplexer serial number:	ORYXHardware model number:	OX4-SRSoftware version number:	ORYX F/W v4.00 Oryx Data Collector v3.7.2.0data status	okinstallation	princeton_trtdifferential loss correction	single-endedforward channel	channel 1reverse channel	N/Adate	2019/09/16time	20:38:35forward acquisition time	60.00reverse acquisition time	0.00gamma	496.2192k internal	0.2324k external	0.2324temperature offset calibration	0.9949default loss term (dB/km)	0.3790temperature slope calibration	1.0000multiplexer offset coefficient	1.0000multiplexer slope coefficient	1.0000fibre end	0.00T internal ref (°C)	32.50T ext. ref 1 (°C)	0.05T ext. ref 2 (°C)	26.28length (m)	temperature (°C)	Stokes	anti-Stokes-747.200	-149.862	0.219	0.017
-746.185	-21.830	0.298	0.183
-745.171	143.566	-0.369	-0.496
-744.156	264.957	-0.107	0.188
-743.142	-91.918	0.125	-0.036
-742.127	45.128	-0.124	0.115
-741.112	-103.045	0.144	0.034
-740.098	800.000	0.058	0.217
-739.083	591.429	-0.083	0.208
-738.069	692.590	0.116	0.306
-737.054	800.000	-0.064	-0.216
-736.039	-21.239	-0.283	0.175
-735.025	-93.667	0.096	-0.027
-734.010	-33.241	-0.116	0.065
-732.996	120.950	-0.187	-0.235
-731.981	64.456	-0.103	-0.104
-730.966	800.000	-0.012	0.037
-729.952	-200.000	-0.005	0.286
-728.937	-155.404	-0.176	0.011
-727.923	-200.000	-0.076	-0.415
-726.908	-61.323	0.126	-0.053
-725.894	187.461	-0.203	-0.305
-724.879	79.051	-0.122	0.132
-723.864	-74.949	-0.127	0.046
-722.850	15.443	-0.244	0.193
-721.835	496.980	0.129	-0.299
-720.821	74.696	0.046	-0.049
-719.806	-118.146	-0.417	0.075
-718.791	-54.949	0.351	-0.159
-717.777	120.374	0.172	-0.215
-716.762	-144.413	0.228	-0.021
-715.748	-200.000	-0.200	-0.000
-714.733	228.039	0.187	-0.308
-713.718	-62.725	0.157	0.065
-712.704	55.519	0.087	-0.085
-711.689	-31.617	0.076	-0.043
-710.675	12.652	-0.142	-0.110
-709.660	-36.046	0.294	0.160
-708.645	-124.311	0.084	-0.013
-707.631	400.670	-0.118	0.250
-706.616	300.782	-0.155	-0.289
-705.602	16.509	0.160	0.127
-704.587	-55.206	0.174	0.079
-703.572	172.775	-0.083	0.121
-702.558	225.802	0.160	0.262
-701.543	-119.721	-0.346	0.060
-700.529	-19.862	0.394	-0.245
-699.514	-137.945	-0.099	0.011
-698.499	800.000	0.054	0.198
-697.485	559.648	-0.041	-0.099
-696.470	169.806	-0.009	-0.013
-695.456	449.251	0.069	-0.154
-694.441	-107.056	0.249	-0.055
-693.426	-166.666	-0.088	-0.004
-692.412	-200.000	0.009	0.068
-691.397	288.103	-0.129	0.235
-690.383	800.000	0.117	-0.326
-689.368	121.217	-0.182	0.228
-688.354	-95.542	0.114	-0.031
-687.339	44.011	0.203	-0.187
-686.324	800.000	-0.054	-0.228
-685.310	-69.339	0.041	-0.016
-684.295	108.004	0.266	-0.319
-683.281	-124.829	0.079	-0.012
-682.266	357.412	0.073	0.147
-681.251	-68.658	-0.207	-0.081
-680.237	-200.000	-0.047	0.256
-679.222	-119.297	0.217	-0.038
-678.208	-20.562	0.298	-0.184
-677.193	305.667	0.157	-0.294
-676.178	235.627	0.142	-0.236
-675.164	578.766	-0.049	-0.120
-674.149	-35.697	0.229	0.125
-673.135	235.057	0.103	-0.171
-672.120	-127.226	-0.171	-0.025
-671.105	799.463	-0.040	-0.111
-670.091	-29.734	0.080	0.046
-669.076	53.458	-0.168	-0.162
-668.062	800.000	-0.071	-0.198
-667.047	128.452	-0.104	0.134
-666.032	62.643	0.269	-0.270
-665.018	308.701	-0.125	-0.235
-664.003	-48.547	-0.118	-0.057
-662.989	800.000	-0.058	-0.189
-661.974	-61.110	0.326	-0.139
-660.959	352.612	-0.100	0.200
-659.945	-135.826	-0.434	-0.052
-658.930	-77.722	-0.109	0.038
-657.916	109.575	0.102	-0.124
-656.901	148.262	-0.148	-0.201
-655.886	31.966	0.172	-0.149
-654.872	-200.000	0.061	-0.313
-653.857	-131.470	0.233	-0.031
-652.843	800.000	0.096	-0.322
-651.828	7.643	0.081	0.061
-650.814	-36.435	-0.070	-0.038
-649.799	5.419	-0.082	0.061
-648.784	63.586	0.204	-0.206
-647.770	800.000	0.026	0.102
-646.755	-25.500	0.222	-0.132
-645.741	-200.000	0.051	0.327
-644.726	149.589	-0.148	-0.201
-643.711	3.884	-0.228	-0.168
-642.697	227.276	-0.146	-0.238
-641.682	-4.105	0.129	0.090
-640.668	53.251	0.280	0.270
-639.653	28.845	-0.108	0.092
-638.638	-172.947	-0.201	0.006
-637.624	234.669	0.267	0.442
-636.609	-160.111	-0.234	0.013
-635.595	20.848	0.099	-0.081
-634.580	37.612	-0.058	0.052
-633.565	-151.602	0.395	-0.029
-632.551	58.143	-0.040	0.040
-631.536	-190.885	0.582	0.006
-630.522	-200.000	-0.088	-0.432
-629.507	800.000	-0.064	0.234
-628.492	-100.103	-0.331	0.083
-627.478	-163.454	-0.368	-0.018
-626.463	102.419	0.173	-0.204
-625.449	395.329	-0.034	0.070
-624.434	-200.000	0.013	-0.238
-623.419	-200.000	-0.049	0.512
-622.405	800.000	-0.048	-0.173
-621.390	230.501	0.084	0.139
-620.376	-80.021	0.168	-0.057
-619.361	218.708	0.015	0.024
-618.346	218.089	-0.235	0.376
-617.332	-23.334	0.170	-0.102
-616.317	117.444	-0.199	-0.246
-615.303	-95.973	-0.202	-0.054
-614.288	-200.000	0.002	-0.129
-613.273	-105.557	0.182	0.041
-612.259	-128.318	0.155	0.022
-611.244	34.775	0.193	0.169
-610.230	-114.103	-0.256	-0.050
-609.215	33.237	-0.182	-0.158
-608.201	165.513	0.227	-0.322
-607.186	27.340	0.060	-0.051
-606.171	-109.199	-0.236	0.050
-605.157	98.356	-0.232	0.268
-604.142	-188.987	-0.170	-0.002
-603.128	5.605	-0.233	-0.173
-602.113	126.735	-0.166	0.211
-601.098	-91.499	-0.129	-0.037
-600.084	346.753	-0.095	-0.187
-599.069	-97.883	-0.207	0.054
-598.055	136.067	-0.177	0.232
-597.040	-200.000	0.043	0.217
-596.025	-53.924	-0.530	0.242
-595.011	51.951	0.081	-0.077
-593.996	-162.783	-0.255	0.012
-592.982	-89.352	0.031	-0.009
-591.967	-36.045	0.274	-0.148
-590.952	-200.000	-0.006	-0.025
-589.938	-200.000	0.032	0.221
-588.923	-169.279	0.223	-0.008
-587.909	-200.000	0.019	0.183
-586.894	-200.000	-0.005	-0.070
-585.879	303.241	-0.097	-0.181
-584.865	-141.622	0.308	-0.031
-583.850	-168.944	-0.185	-0.007
-582.836	800.000	-0.027	-0.093
-581.821	174.149	-0.012	-0.017
-580.806	-192.090	-0.270	-0.003
-579.792	344.809	-0.126	0.247
-578.777	390.409	0.098	-0.205
-577.763	83.298	-0.120	-0.131
-576.748	800.000	0.061	0.215
-575.733	136.949	0.035	-0.046
-574.719	-21.342	-0.337	-0.207
-573.704	701.332	0.117	0.309
-572.690	-200.000	0.005	-0.033
-571.675	-200.000	-0.056	0.292
-570.661	-200.000	-0.014	0.301
-569.646	-200.000	-0.005	-0.052
-568.631	-198.104	-0.190	-0.001
-567.617	370.365	-0.106	0.215
-566.602	-200.000	0.025	0.442
-565.588	-73.785	-0.403	0.147
-564.573	533.429	-0.153	0.362
-563.558	-200.000	-0.005	0.147
-562.544	10.028	-0.169	-0.129
-561.529	-169.009	-0.100	0.004
-560.515	96.271	0.125	0.143
-559.500	187.042	0.137	-0.204
-558.485	-200.000	0.005	-0.530
-557.471	-60.747	0.065	-0.028
-556.456	-89.772	0.198	0.058
-555.442	-140.757	0.071	-0.007
-554.427	-128.068	0.311	0.045
-553.412	-200.000	-0.031	-0.281
-552.398	305.090	0.135	0.252
-551.383	-106.905	0.341	-0.076
-550.369	20.209	0.061	0.049
-549.354	-93.482	-0.198	-0.055
-548.339	138.969	-0.149	0.196
-547.325	800.000	-0.112	-0.487
-546.310	-130.495	0.127	0.017
-545.296	71.739	-0.081	-0.085
-544.281	94.061	0.179	-0.203
-543.266	43.600	0.192	0.176
-542.252	202.466	-0.123	-0.190
-541.237	45.495	-0.242	0.224
-540.223	-200.000	-0.049	-0.273
-539.208	231.549	-0.049	-0.081
-538.193	-112.132	0.222	0.045
-537.179	-131.397	-0.398	0.053
-536.164	-30.773	-0.430	-0.244
-535.150	169.704	0.032	0.046
-534.135	800.000	-0.023	-0.078
-533.121	-200.000	0.043	0.227
-532.106	-101.560	-0.118	-0.029
-531.091	-137.710	-0.310	0.035
-530.077	-200.000	0.021	-0.289
-529.062	-200.000	-0.014	0.261
-528.048	800.000	0.055	-0.216
-527.033	-200.000	-0.012	-0.196
-526.018	69.273	0.165	0.170
-525.004	30.319	0.036	0.031
-523.989	-200.000	-0.024	0.253
-522.975	-137.999	-0.398	-0.044
-521.960	49.981	-0.265	-0.250
-520.945	800.000	-0.045	-0.152
-519.931	601.756	-0.104	-0.259
-518.916	-147.249	0.165	-0.014
-517.902	-33.508	0.244	-0.135
-516.887	96.531	0.014	0.016
-515.872	-5.232	-0.057	0.040
-514.858	-149.328	-0.103	0.008
-513.843	-9.672	-0.246	-0.164
-512.829	97.674	0.116	-0.133
-511.814	488.956	-0.028	0.065
-510.799	383.000	0.041	0.084
-509.785	-60.627	0.215	-0.091
-508.770	83.560	0.065	0.071
-507.756	800.000	0.027	0.078
-506.741	25.401	0.167	0.139
-505.726	-200.000	0.039	-0.289
-504.712	224.881	0.025	0.041
-503.697	22.929	0.175	-0.143
-502.683	-7.166	0.150	0.102
-501.668	-200.000	0.009	-0.123
-500.653	140.292	0.019	-0.025
-499.639	-173.943	0.149	-0.004
-498.624	-55.344	0.200	-0.090
-497.610	-17.323	-0.164	0.103
-496.595	224.832	-0.181	-0.293
-495.581	153.903	0.389	-0.534
-494.566	-31.075	0.073	0.041
-493.551	246.470	0.324	0.546
-492.537	-37.875	0.207	-0.110
-491.522	-150.005	0.100	0.008
-490.508	453.848	0.176	0.390
-489.493	-200.000	-0.003	-0.029
-488.478	-117.944	0.169	-0.030
-487.464	-88.925	0.212	-0.063
-486.449	304.989	0.075	0.140
-485.435	192.138	-0.215	0.323
-484.420	800.000	0.129	-0.364
-483.405	-83.651	0.231	-0.074
-482.391	80.637	0.155	0.167
-481.376	-161.209	0.124	0.006
-480.362	-136.023	-0.263	-0.031
-479.347	-156.107	-0.453	0.029
-478.332	55.272	-0.094	-0.091
-477.318	29.714	-0.090	-0.077
-476.303	299.239	-0.199	-0.367
-475.289	800.000	0.041	0.141
-474.274	185.228	0.129	-0.191
-473.259	-200.000	0.052	-0.365
-472.245	-25.163	-0.092	-0.054
-471.230	-200.000	-0.026	-0.149
-470.216	50.407	-0.075	0.071
-469.201	-178.124	0.399	-0.009
-468.186	27.521	0.072	-0.061
-467.172	-200.000	-0.018	-0.223
-466.157	-120.238	-0.323	-0.055
-465.143	-200.000	0.018	-0.139
-464.128	150.064	-0.066	-0.090
-463.113	800.000	0.118	0.379
-462.099	800.000	0.076	0.253
-461.084	-49.666	-0.125	-0.059
-460.070	50.819	-0.322	0.305
-459.055	59.659	-0.224	0.220
-458.040	-63.186	0.399	-0.164
-457.026	-104.393	-0.223	0.052
-456.011	-200.000	-0.025	-0.258
-454.997	32.660	-0.177	-0.152
-453.982	442.003	0.051	0.112
-452.968	-84.164	0.251	-0.079
-451.953	-200.000	-0.017	0.138
-450.938	353.672	0.219	-0.433
-449.924	60.646	0.104	-0.103
-448.909	-103.602	-0.201	-0.047
-447.895	-124.160	-0.177	0.028
-446.880	-200.000	-0.039	-0.170
-445.865	-110.704	0.289	0.060
-444.851	800.000	0.051	0.215
-443.836	-140.489	-0.126	-0.013
-442.822	-99.170	0.138	-0.035
-441.807	28.036	-0.062	0.052
-440.792	-50.455	-0.151	-0.071
-439.778	-22.301	-0.240	0.145
-438.763	-57.833	0.095	-0.041
-437.749	156.996	-0.084	-0.116
-436.734	-96.640	-0.235	-0.062
-435.719	-11.217	0.262	0.172
-434.705	-26.786	0.128	-0.075
-433.690	160.450	-0.039	0.054
-432.676	252.181	-0.172	0.292
-431.661	179.556	-0.069	-0.101
-430.646	-57.332	0.245	0.108
-429.632	66.547	-0.213	0.216
-428.617	55.586	-0.116	0.112
-427.603	82.521	0.317	0.344
-426.588	-200.000	-0.010	0.241
-425.573	368.601	0.063	0.126
-424.559	-39.633	0.305	0.159
-423.544	800.000	-0.064	0.192
-422.530	787.982	0.054	0.147
-421.515	-78.856	-0.165	0.056
-420.500	197.474	-0.143	0.218
-419.486	386.398	0.214	0.441
-418.471	-10.481	-0.260	0.172
-417.457	87.982	0.059	-0.066
-416.442	31.692	0.213	-0.183
-415.428	288.067	-0.119	-0.215
-414.413	800.000	0.058	-0.179
-413.398	-131.033	0.182	-0.024
-412.384	-55.695	0.127	0.056
-411.369	-200.000	-0.053	-0.294
-410.355	-160.635	-0.043	0.002
-409.340	17.783	-0.164	0.130
-408.325	-200.000	0.002	0.010
-407.311	10.145	0.112	-0.085
-406.296	-75.206	-0.249	-0.089
-405.282	800.000	0.091	-0.261
-404.267	60.971	0.271	-0.268
-403.252	8.368	0.081	0.061
-402.238	-200.000	-0.015	-0.401
-401.223	114.009	0.065	-0.079
-400.209	46.625	-0.295	0.273
-399.194	80.701	-0.167	0.179
-398.179	-76.762	-0.335	-0.117
-397.165	469.791	0.194	0.435
-396.150	-60.693	-0.082	0.035
-395.136	40.789	-0.327	-0.294
-394.121	416.097	0.014	-0.029
-393.106	413.727	-0.027	-0.056
-392.092	642.442	0.085	0.217
-391.077	42.522	-0.168	-0.152
-390.063	800.000	0.043	-0.178
-389.048	362.262	0.036	-0.073
-388.033	476.077	-0.036	0.081
-387.019	726.654	0.061	0.162
-386.004	-56.020	-0.150	0.066
-384.990	287.919	0.102	0.183
-383.975	78.459	0.096	0.102
-382.960	185.189	-0.067	0.098
-381.946	-105.536	-0.163	-0.037
-380.931	-142.067	0.593	0.059
-379.917	800.000	0.099	0.292
-378.902	-138.958	0.055	-0.006
-377.888	627.933	-0.037	0.093
-376.873	52.666	0.307	-0.292
-375.858	800.000	0.143	-0.516
-374.844	12.040	0.152	-0.116
-373.829	536.947	0.051	0.120
-372.815	157.536	0.093	0.128
-371.800	-180.831	0.151	-0.003
-370.785	-41.050	-0.192	0.099
-369.771	-51.371	-0.385	-0.179
-368.756	-174.659	0.230	-0.007
-367.742	173.232	0.083	0.119
-366.727	522.353	0.142	-0.332
-365.712	36.080	-0.136	-0.119
-364.698	252.523	0.175	0.296
-363.683	21.207	-0.036	-0.029
-362.669	677.418	0.110	-0.283
-361.654	-152.607	-0.185	0.013
-360.639	-200.000	0.028	-0.196
-359.625	33.977	-0.220	0.191
-358.610	-108.577	-0.119	-0.026
-357.596	-200.000	-0.024	-0.152
-356.581	-200.000	0.043	0.378
-355.566	73.223	-0.105	0.109
-354.552	-200.000	0.044	-0.234
-353.537	65.734	-0.064	-0.064
-352.523	-200.000	0.003	0.061
-351.508	40.710	0.086	0.077
-350.493	-200.000	0.031	0.185
-349.479	-50.551	0.400	0.187
-348.464	-200.000	0.287	-0.000
-347.450	138.054	-0.158	0.206
-346.435	-50.594	-0.244	-0.114
-345.420	297.569	0.092	0.169
-344.406	-42.039	-0.498	-0.253
-343.391	520.031	-0.029	0.068
-342.377	-200.000	0.038	-0.177
-341.362	-200.000	0.021	0.140
-340.348	94.264	-0.035	0.039
-339.333	-21.571	-0.081	-0.049
-338.318	-14.149	-0.069	-0.044
-337.304	-135.403	0.387	-0.046
-336.289	483.545	0.111	-0.250
-335.275	-73.587	0.312	0.113
-334.260	176.013	-0.185	-0.266
-333.245	233.856	-0.076	0.124
-332.231	-200.000	0.006	0.029
-331.216	-149.185	-0.199	0.016
-330.202	323.022	-0.092	0.175
-329.187	-200.000	0.001	-0.141
-328.172	-200.000	-0.003	-0.125
-327.158	-1.355	-0.124	-0.087
-326.143	800.000	0.034	-0.095
-325.129	-154.769	-0.342	-0.022
-324.114	-86.679	0.127	-0.039
-323.099	115.178	-0.022	-0.027
-322.085	149.440	0.126	-0.170
-321.070	-200.000	-0.029	-0.300
-320.056	-200.000	0.008	0.272
-319.041	-109.608	-0.148	-0.031
-318.026	34.959	-0.208	0.180
-317.012	-122.390	0.256	-0.041
-315.997	800.000	-0.039	0.139
-314.983	-200.000	0.026	0.158
-313.968	83.830	0.255	-0.276
-312.953	392.137	-0.228	-0.471
-311.939	328.957	0.079	-0.152
-310.924	-25.714	0.193	0.113
-309.910	19.672	-0.145	0.116
-308.895	518.699	0.100	-0.233
-307.880	35.371	0.278	0.242
-306.866	-124.773	-0.312	-0.048
-305.851	-20.020	0.202	-0.123
-304.837	-106.033	0.133	0.030
-303.822	-82.861	0.303	0.097
-302.807	-90.253	-0.260	0.075
-301.793	-200.000	0.023	0.246
-300.778	-173.904	-0.139	0.004
-299.764	-79.782	0.222	0.074
-298.749	-97.700	-0.015	-0.004
-297.735	-200.000	-0.028	-0.382
-296.720	53.838	-0.122	-0.117
-295.705	800.000	0.104	0.298
-294.691	21.012	0.251	-0.202
-293.676	229.207	0.108	-0.174
-292.662	-104.880	0.018	0.004
-291.647	-140.981	-0.216	0.022
-290.632	-53.369	-0.245	-0.111
-289.618	-200.000	-0.011	-0.082
-288.603	385.650	0.020	0.041
-287.589	8.232	-0.038	0.028
-286.574	-103.669	-0.079	-0.018
-285.559	-70.939	0.203	-0.076
-284.545	-200.000	-0.005	-0.155
-283.530	42.025	-0.152	-0.137
-282.516	-25.214	0.184	-0.108
-281.501	-56.459	0.073	0.032
-280.486	14.112	-0.204	-0.157
-279.472	344.256	-0.242	-0.471
-278.457	105.146	0.113	0.132
-277.443	255.796	-0.067	0.115
-276.428	53.965	0.192	-0.183
-275.413	-200.000	-0.011	0.415
-274.399	8.324	0.085	-0.063
-273.384	800.000	-0.065	-0.234
-272.370	-55.427	0.101	-0.045
-271.355	18.849	0.344	0.273
-270.340	-143.811	-0.571	0.053
-269.326	114.161	-0.182	0.220
-268.311	800.000	-0.066	0.261
-267.297	-58.595	0.056	0.024
-266.282	800.000	0.084	-0.275
-265.267	-16.466	0.047	0.030
-264.253	-16.755	-0.224	-0.140
-263.238	800.000	0.034	-0.100
-262.224	-7.534	0.104	-0.070
-261.209	323.404	-0.025	-0.047
-260.195	241.946	-0.144	-0.238
-259.180	-68.737	-0.216	0.083
-258.165	-92.027	0.257	-0.072
-257.151	-94.851	-0.231	0.062
-256.136	15.939	-0.210	0.164
-255.122	20.371	0.192	-0.154
-254.107	92.855	-0.186	-0.208
-253.092	-42.461	0.273	-0.138
-252.078	-200.000	0.037	0.165
-251.063	-91.276	-0.265	-0.075
-250.049	593.688	-0.018	0.045
-249.034	-200.000	0.044	0.221
-248.019	-136.082	0.556	-0.065
-247.005	-132.591	-0.378	-0.048
-245.990	-142.039	-0.081	-0.008
-244.976	-62.196	0.108	0.045
-243.961	45.382	-0.144	-0.131
-242.946	409.629	0.059	-0.123
-241.932	163.246	-0.068	0.095
-240.917	-146.939	0.391	0.033
-239.903	61.178	0.193	0.190
-238.888	800.000	0.102	0.279
-237.873	-200.000	0.005	-0.130
-236.859	-200.000	-0.012	0.368
-235.844	-150.528	-0.246	0.019
-234.830	800.000	0.085	-0.308
-233.815	797.505	-0.006	0.016
-232.800	-74.377	0.203	-0.073
-231.786	-185.467	-0.270	0.004
-230.771	-182.420	0.074	0.001
-229.757	-127.523	-0.225	0.032
-228.742	83.923	-0.335	0.362
-227.727	106.141	0.101	-0.119
-226.713	-49.352	0.253	0.119
-225.698	800.000	0.046	-0.164
-224.684	-200.000	0.019	-0.325
-223.669	-200.000	0.058	0.264
-222.655	101.722	0.216	0.249
-221.640	111.543	-0.096	-0.115
-220.625	112.310	0.008	-0.009
-219.611	88.334	0.150	-0.164
-218.596	-180.369	0.203	0.004
-217.582	258.567	-0.144	0.245
-216.567	800.000	-0.047	-0.150
-215.552	566.669	0.166	-0.399
-214.538	181.306	-0.038	0.055
-213.523	49.624	-0.151	0.140
-212.509	-160.830	0.211	0.011
-211.494	-82.899	-0.156	0.050
-210.479	-1.884	-0.281	-0.195
-209.465	-140.025	0.138	-0.014
-208.450	-82.224	0.246	0.079
-207.436	800.000	0.073	0.205
-206.421	56.896	-0.090	-0.087
-205.406	-69.209	0.281	0.107
-204.392	156.676	0.079	-0.108
-203.377	513.162	0.186	0.429
-202.363	1.951	0.148	0.106
-201.348	-40.361	0.364	0.187
-200.333	-200.000	-0.050	-0.244
-199.319	-54.628	-0.317	-0.142
-198.304	-136.657	0.074	0.008
-197.290	398.323	0.235	0.486
-196.275	-200.000	0.007	0.088
-195.260	22.017	-0.106	-0.086
-194.246	88.587	0.049	-0.053
-193.231	463.567	0.021	-0.046
-192.217	-80.501	-0.436	0.144
-191.202	-12.703	-0.101	0.065
-190.187	-13.351	-0.139	0.089
-189.173	-19.848	-0.083	-0.050
-188.158	-56.359	0.093	-0.041
-187.144	645.996	0.030	-0.076
-186.129	263.542	0.135	-0.233
-185.114	-200.000	-0.009	-0.245
-184.100	8.327	0.192	-0.142
-183.085	-0.606	-0.189	-0.133
-182.071	62.523	0.106	0.105
-181.056	-34.760	0.081	0.044
-180.042	26.665	-0.087	0.072
-179.027	-184.061	-0.121	0.002
-178.012	196.463	0.185	-0.278
-176.998	-200.000	-0.020	-0.250
-175.983	656.686	0.031	-0.077
-174.969	-164.445	0.315	0.014
-173.954	-113.503	0.101	0.019
-172.939	58.480	-0.232	0.225
-171.925	182.145	-0.131	0.190
-170.910	-123.470	0.300	0.047
-169.896	-91.035	-0.141	0.040
-168.881	-154.197	0.095	-0.006
-167.866	40.719	-0.138	-0.123
-166.852	-92.868	-0.195	0.054
-165.837	-87.039	0.289	-0.087
-164.823	277.745	0.154	0.271
-163.808	-200.000	-0.023	0.471
-162.793	-196.465	-0.256	-0.002
-161.779	502.925	0.018	0.042
-160.764	-142.632	0.244	0.024
-159.750	-93.000	-0.409	0.113
-158.735	230.175	0.160	0.258
-157.720	-200.000	0.030	0.226
-156.706	345.349	-0.075	-0.144
-155.691	-200.000	0.033	-0.177
-154.677	8.382	0.294	-0.218
-153.662	-200.000	-0.036	0.325
-152.647	519.810	-0.182	0.421
-151.633	-1.698	0.078	0.054
-150.618	-200.000	0.015	0.137
-149.604	56.268	-0.083	-0.080
-148.589	-200.000	0.027	0.179
-147.574	-105.474	-0.044	-0.010
-146.560	-8.185	-0.066	0.044
-145.545	800.000	0.076	-0.312
-144.531	31.587	0.101	-0.085
-143.516	-169.933	-0.311	-0.011
-142.502	-22.417	0.265	0.158
-141.487	-77.577	0.261	-0.089
-140.472	195.380	0.136	-0.204
-139.458	1.885	-0.220	-0.156
-138.443	-22.352	0.109	-0.065
-137.429	800.000	0.002	0.006
-136.414	-112.421	-0.461	-0.091
-135.399	-166.812	-0.256	0.010
-134.385	-120.209	0.248	0.042
-133.370	-118.277	-0.313	0.055
-132.356	271.330	-0.057	-0.099
-131.341	-180.043	0.339	-0.007
-130.326	-48.917	-0.320	0.151
-129.312	-61.269	0.315	0.131
-128.297	143.052	-0.194	0.254
-127.283	56.412	0.263	0.252
-126.268	542.884	0.062	0.145
-125.253	182.501	-0.180	-0.262
-124.239	-168.132	-0.281	-0.011
-123.224	83.899	-0.110	0.118
-122.210	-156.958	0.021	-0.001
-121.195	-200.000	0.033	0.157
