DTS Sentinel unit serial number:	SN413079Multiplexer serial number:	ORYXHardware model number:	OX4-SRSoftware version number:	ORYX F/W v4.00 Oryx Data Collector v3.7.2.0data status	okinstallation	princeton_trtdifferential loss correction	single-endedforward channel	channel 1reverse channel	N/Adate	2019/09/17time	05:54:35forward acquisition time	60.00reverse acquisition time	0.00gamma	496.2192k internal	0.2326k external	0.2326temperature offset calibration	0.9966default loss term (dB/km)	0.3790temperature slope calibration	1.0000multiplexer offset coefficient	1.0000multiplexer slope coefficient	1.0000fibre end	0.00T internal ref (°C)	28.87T ext. ref 1 (°C)	0.14T ext. ref 2 (°C)	22.61length (m)	temperature (°C)	Stokes	anti-Stokes-747.200	-178.542	0.318	-0.007
-746.185	37.581	0.158	0.141
-745.171	800.000	-0.067	-0.250
-744.156	-13.544	-0.300	0.196
-743.142	-144.633	0.035	-0.003
-742.127	-27.311	0.156	0.092
-741.112	509.302	-0.130	0.306
-740.098	122.521	-0.067	0.084
-739.083	-158.872	-0.494	-0.028
-738.069	-41.953	0.172	-0.089
-737.054	-200.000	0.008	0.093
-736.039	795.367	-0.046	-0.128
-735.025	51.568	0.137	0.131
-734.010	-106.899	0.086	-0.019
-732.996	82.204	-0.127	-0.139
-731.981	800.000	-0.007	0.027
-730.966	69.042	0.196	-0.203
-729.952	-200.000	-0.006	-0.163
-728.937	-151.372	-0.180	-0.014
-727.923	12.132	0.069	-0.054
-726.908	800.000	0.078	0.264
-725.894	-200.000	0.028	0.206
-724.879	-177.967	0.124	0.003
-723.864	-200.000	0.015	-0.152
-722.850	-190.179	-0.358	-0.004
-721.835	375.488	-0.117	-0.239
-720.821	15.625	-0.180	-0.143
-719.806	-200.000	-0.044	-0.262
-718.791	-25.369	0.083	0.049
-717.777	205.784	0.126	-0.198
-716.762	-65.507	-0.124	-0.050
-715.748	178.270	-0.194	-0.286
-714.733	800.000	0.010	0.036
-713.718	443.859	0.080	-0.176
-712.704	64.975	-0.119	0.121
-711.689	11.570	0.316	-0.244
-710.675	800.000	-0.056	-0.167
-709.660	46.488	-0.229	-0.214
-708.645	-149.727	-0.266	-0.021
-707.631	38.824	-0.137	-0.124
-706.616	-200.000	-0.029	-0.165
-705.602	-159.565	-0.165	0.009
-704.587	800.000	0.036	0.131
-703.572	-155.154	0.273	0.018
-702.558	24.781	-0.119	-0.100
-701.543	121.100	0.151	-0.189
-700.529	-129.297	-0.130	-0.018
-699.514	151.626	-0.050	0.068
-698.499	-200.000	0.005	-0.354
-697.485	28.824	-0.011	0.010
-696.470	-106.407	-0.270	0.061
-695.456	-200.000	0.018	-0.416
-694.441	134.407	0.067	-0.087
-693.426	-57.788	-0.171	-0.075
-692.412	-182.496	-0.136	-0.003
-691.397	30.805	0.323	-0.279
-690.383	27.728	-0.214	-0.181
-689.368	-102.505	0.043	0.010
-688.354	-30.535	-0.052	-0.030
-687.339	800.000	0.055	0.195
-686.324	130.721	0.089	0.115
-685.310	699.747	0.039	0.103
-684.295	9.391	-0.042	-0.032
-683.281	81.204	-0.271	-0.294
-682.266	800.000	-0.033	0.106
-681.251	-200.000	-0.022	-0.205
-680.237	-134.937	-0.449	-0.055
-679.222	-119.420	-0.147	-0.026
-678.208	53.262	0.154	0.148
-677.193	-75.897	-0.063	-0.022
-676.178	-23.108	0.191	-0.115
-675.164	-68.667	-0.272	0.106
-674.149	-133.428	-0.326	0.041
-673.135	-200.000	-0.485	-0.001
-672.120	-110.970	-0.224	-0.046
-671.105	332.057	-0.076	0.148
-670.091	41.774	-0.138	0.126
-669.076	-14.108	0.383	0.249
-668.062	358.465	-0.078	-0.157
-667.047	141.169	0.177	-0.235
-666.032	-19.798	0.177	0.110
-665.018	81.294	0.257	0.279
-664.003	-200.000	-0.036	-0.250
-662.989	61.027	-0.080	-0.079
-661.974	-200.000	0.009	-0.366
-660.959	194.409	0.232	-0.354
-659.945	-31.731	-0.273	-0.154
-658.930	4.439	-0.125	-0.092
-657.916	-5.522	-0.108	-0.075
-656.901	-200.000	-0.006	-0.310
-655.886	-160.291	-0.124	0.007
-654.872	50.456	-0.278	0.264
-653.857	14.225	0.226	-0.177
-652.843	-115.015	-0.093	-0.018
-651.828	-58.160	0.291	-0.128
-650.814	255.984	-0.054	-0.093
-649.799	-96.453	0.177	-0.047
-648.784	800.000	-0.021	-0.060
-647.770	-200.000	0.024	0.293
-646.755	-0.054	-0.381	0.273
-645.741	9.580	0.173	0.132
-644.726	-20.949	-0.270	-0.166
-643.711	-27.227	0.165	-0.097
-642.697	-29.522	0.229	-0.131
-641.682	-56.659	0.261	-0.116
-640.668	-50.757	0.203	-0.096
-639.653	-41.045	0.499	0.259
-638.638	-89.796	0.173	0.051
-637.624	433.296	0.076	-0.167
-636.609	-200.000	-0.038	-0.371
-635.595	-125.683	-0.302	-0.046
-634.580	331.068	0.066	-0.127
-633.565	-102.415	0.099	0.024
-632.551	323.320	0.093	0.179
-631.536	780.773	-0.069	0.189
-630.522	162.511	-0.163	-0.230
-629.507	389.322	0.096	0.200
-628.492	-105.313	-0.479	0.109
-627.478	36.585	-0.152	0.134
-626.463	-200.000	0.008	0.254
-625.449	417.473	0.118	0.254
-624.434	128.502	0.245	0.313
-623.419	-200.000	-0.017	0.146
-622.405	617.500	0.093	-0.235
-621.390	-200.000	-0.048	-0.308
-620.376	61.882	-0.234	-0.234
-619.361	-17.128	-0.041	-0.026
-618.346	-76.326	0.206	0.073
-617.332	-111.353	0.174	0.036
-616.317	247.782	0.086	-0.146
-615.303	-19.939	-0.125	-0.077
-614.288	53.254	-0.150	0.145
-613.273	-66.407	0.256	0.102
-612.259	164.242	-0.064	0.091
-611.244	-200.000	0.029	-0.427
-610.230	-200.000	0.012	0.067
-609.215	166.425	-0.131	-0.186
-608.201	-200.000	0.004	0.128
-607.186	370.888	-0.119	-0.243
-606.171	-96.964	0.286	-0.075
-605.157	-182.702	-0.203	-0.004
-604.142	-12.300	-0.138	0.091
-603.128	-157.908	0.308	-0.018
-602.113	75.120	-0.125	-0.132
-601.098	360.396	-0.160	-0.321
-600.084	107.594	0.054	0.064
-599.069	-16.241	-0.125	0.079
-598.055	-8.852	0.160	-0.107
-597.040	-19.880	-0.147	-0.091
-596.025	368.182	-0.026	-0.052
-595.011	-75.152	-0.288	-0.103
-593.996	-142.032	0.277	-0.028
-592.982	-89.276	-0.041	0.012
-591.967	-200.000	0.040	-0.362
-590.952	388.842	0.056	-0.116
-589.938	3.926	0.234	0.171
-588.923	800.000	0.061	0.190
-587.909	-182.178	-0.380	-0.007
-586.894	46.365	0.113	0.105
-585.879	800.000	0.076	0.251
-584.865	512.786	-0.035	-0.082
-583.850	800.000	-0.062	-0.258
-582.836	-116.207	0.280	0.052
-581.821	-200.000	0.011	0.299
-580.806	-200.000	-0.009	0.100
-579.792	532.476	-0.036	0.085
-578.777	142.416	-0.124	0.164
-577.763	704.994	-0.111	0.295
-576.748	-3.288	-0.175	0.122
-575.733	167.378	-0.024	0.034
-574.719	-151.851	0.188	-0.014
-573.704	-145.269	0.177	0.016
-572.690	-111.082	-0.395	0.081
-571.675	800.000	0.058	0.251
-570.661	-45.212	0.119	-0.059
-569.646	-50.074	-0.068	-0.032
-568.631	-55.949	-0.151	0.067
-567.617	-15.134	-0.282	0.181
-566.602	17.321	0.320	-0.254
-565.588	800.000	0.113	0.318
-564.573	800.000	-0.132	0.375
-563.558	155.766	-0.082	-0.114
-562.544	-61.568	-0.323	-0.136
-561.529	3.772	-0.296	-0.216
-560.515	-16.583	0.098	0.062
-559.500	-118.592	-0.103	-0.018
-558.485	800.000	-0.084	-0.302
-557.471	-90.726	0.307	0.089
-556.456	-200.000	0.006	-0.055
-555.442	-200.000	0.001	-0.138
-554.427	-135.413	-0.312	-0.037
-553.412	-88.300	-0.204	0.061
-552.398	-5.522	0.182	0.125
-551.383	130.258	-0.058	0.075
-550.369	-132.195	-0.244	0.032
-549.354	1.421	0.203	0.146
-548.339	13.004	0.081	-0.063
-547.325	65.019	-0.011	0.011
-546.310	7.366	0.193	-0.144
-545.296	-186.957	-0.225	-0.003
-544.281	-198.923	-0.084	0.000
-543.266	644.616	0.060	0.154
-542.252	194.836	0.239	-0.362
-541.237	-114.681	-0.225	0.043
-540.223	-32.054	-0.088	0.049
-539.208	-31.499	0.173	-0.097
-538.193	-200.000	0.010	-0.202
-537.179	-8.432	-0.193	-0.130
-536.164	-173.304	-0.459	0.014
-535.150	365.890	0.208	0.418
-534.135	800.000	0.077	-0.265
-533.121	0.159	-0.076	-0.054
-532.106	-76.302	-0.060	0.021
-531.091	6.382	-0.088	0.065
-530.077	-152.148	0.137	0.010
-529.062	-200.000	-0.046	-0.321
-528.048	800.000	0.020	-0.073
-527.033	19.488	-0.048	-0.038
-526.018	23.161	0.119	-0.098
-525.004	-32.466	-0.098	-0.055
-523.989	282.792	0.025	0.044
-522.975	-35.770	0.041	0.022
-521.960	799.950	0.017	0.046
-520.945	-18.990	0.168	-0.104
-519.931	-14.697	0.112	-0.072
-518.916	301.161	0.146	-0.270
-517.902	-200.000	-0.008	-0.264
-516.887	-187.015	0.312	0.004
-515.872	-200.000	-0.015	-0.152
-514.858	-131.616	0.165	-0.022
-513.843	-11.234	0.207	0.137
-512.829	172.118	0.084	0.120
-511.814	354.048	0.152	-0.302
-510.799	-200.000	0.025	-0.426
-509.785	800.000	-0.087	-0.269
-508.770	-184.176	-0.090	0.001
-507.756	59.836	-0.092	-0.091
-506.741	-127.771	-0.125	0.018
-505.726	118.257	-0.033	-0.041
-504.712	40.863	-0.055	-0.049
-503.697	279.030	0.113	-0.202
-502.683	136.866	0.060	0.078
-501.668	13.414	-0.225	-0.174
-500.653	-33.840	0.126	-0.069
-499.639	-34.762	0.025	0.014
-498.624	-200.000	-0.045	0.271
-497.610	370.586	0.185	-0.375
-496.595	-16.707	-0.268	0.169
-495.581	-34.648	-0.166	-0.091
-494.566	-157.033	-0.122	-0.007
-493.551	7.867	-0.298	0.223
-492.537	-137.731	-0.296	0.033
-491.522	800.000	-0.047	-0.198
-490.508	98.796	-0.068	-0.078
-489.493	-200.000	-0.041	0.191
-488.478	211.174	-0.119	0.186
-487.464	66.656	-0.293	0.298
-486.449	-103.053	-0.227	0.054
-485.435	-80.820	0.129	-0.043
-484.420	-36.539	0.183	-0.098
-483.405	297.015	-0.114	0.210
-482.391	51.987	-0.202	0.192
-481.376	53.263	0.213	0.204
-480.362	800.000	-0.039	-0.128
-479.347	-200.000	0.011	-0.118
-478.332	38.269	0.034	0.031
-477.318	-97.852	-0.208	0.054
-476.303	-36.491	-0.201	0.108
-475.289	-200.000	0.032	0.256
-474.274	-113.445	-0.021	-0.004
-473.259	800.000	-0.037	-0.159
-472.245	-200.000	0.033	-0.217
-471.230	28.260	0.218	0.183
-470.216	-21.202	0.275	-0.167
-469.201	651.105	-0.004	-0.011
-468.186	-102.625	0.234	-0.056
-467.172	84.837	-0.163	0.178
-466.157	8.640	-0.128	0.096
-465.143	6.697	-0.280	0.208
-464.128	-200.000	0.045	0.253
-463.113	-133.097	0.220	-0.028
-462.099	-136.477	0.026	-0.003
-461.084	236.360	0.059	-0.097
-460.070	-22.905	-0.179	-0.108
-459.055	800.000	0.013	0.057
-458.040	329.667	0.081	-0.156
-457.026	-117.864	-0.110	0.020
-456.011	90.325	0.142	0.158
-454.997	-122.746	0.280	0.045
-453.982	-98.275	-0.150	0.038
-452.968	24.807	0.307	-0.253
-451.953	-132.517	0.239	-0.031
-450.938	58.175	-0.054	-0.053
-449.924	-142.259	-0.151	0.015
-448.909	-165.373	-0.309	-0.014
-447.895	-84.519	-0.083	0.026
-446.880	-141.625	-0.031	-0.003
-445.865	-75.955	-0.161	-0.057
-444.851	-137.301	0.210	-0.024
-443.836	800.000	0.047	-0.152
-442.822	-50.235	-0.243	-0.115
-441.807	-38.789	0.451	0.237
-440.792	-29.472	0.108	0.062
-439.778	-128.087	-0.360	-0.051
-438.763	-200.000	0.015	-0.093
-437.749	-200.000	0.004	-0.245
-436.734	-74.344	-0.082	0.030
-435.719	-9.205	-0.230	0.153
-434.705	800.000	0.072	-0.230
-433.690	-200.000	0.003	-0.031
-432.676	743.657	0.133	-0.355
-431.661	-62.117	0.218	0.091
-430.646	-200.000	0.093	0.409
-429.632	-72.827	0.142	0.052
-428.617	666.975	0.044	0.112
-427.603	239.415	-0.266	-0.440
-426.588	142.503	-0.064	0.085
-425.573	-79.961	-0.164	0.055
-424.559	-85.243	0.160	0.050
-423.544	-200.000	-0.032	0.197
-422.530	-95.993	-0.233	-0.062
-421.515	143.197	0.024	-0.032
-420.500	-8.901	-0.059	0.040
-419.486	254.234	0.164	-0.279
-418.471	-110.445	-0.340	0.070
-417.457	39.414	0.192	0.171
-416.442	138.368	0.052	0.068
-415.428	-94.584	0.130	0.035
-414.413	175.696	0.249	-0.360
-413.398	-55.630	0.229	0.102
-412.384	800.000	0.099	0.428
-411.369	395.836	0.160	-0.333
-410.355	800.000	-0.064	0.221
-409.340	-102.538	-0.145	0.035
-408.325	153.319	-0.045	-0.062
-407.311	74.536	-0.118	0.123
-406.296	-174.882	0.192	0.005
-405.282	-200.000	-0.010	0.048
-404.267	182.010	-0.381	-0.559
-403.252	158.556	-0.114	-0.157
-402.238	-200.000	0.006	0.283
-401.223	800.000	-0.054	0.170
-400.209	-123.251	-0.111	0.018
-399.194	-96.249	0.252	-0.066
-398.179	-200.000	0.039	0.381
-397.165	556.516	-0.118	0.283
-396.150	-114.118	-0.031	0.006
-395.136	-75.203	0.095	0.034
-394.121	-200.000	-0.045	0.231
-393.106	-63.556	0.125	0.051
-392.092	-75.483	-0.210	0.074
-391.077	-200.000	0.037	-0.185
-390.063	-200.000	0.009	-0.300
-389.048	-58.301	-0.130	-0.056
-388.033	800.000	0.065	0.239
-387.019	-119.552	0.484	0.083
-386.004	157.898	-0.070	0.096
-384.990	-157.906	-0.240	0.014
-383.975	49.699	0.295	0.277
-382.960	149.582	0.079	0.107
-381.946	192.222	0.109	-0.163
-380.931	-49.163	-0.268	0.128
-379.917	197.978	-0.215	0.327
-378.902	-59.870	0.169	0.072
-377.888	237.549	-0.047	0.078
-376.873	-200.000	0.004	0.026
-375.858	-143.329	-0.190	0.018
-374.844	-30.883	0.176	-0.099
-373.829	-113.580	0.214	-0.042
-372.815	-38.627	-0.357	0.188
-371.800	-200.000	-0.034	-0.225
-370.785	301.228	0.003	0.006
-369.771	-200.000	0.014	-0.071
-368.756	337.192	-0.018	-0.035
-367.742	-126.716	-0.074	0.011
-366.727	119.549	-0.117	0.143
-365.712	56.424	-0.075	0.073
-364.698	-7.219	0.123	0.083
-363.683	327.986	-0.077	0.148
-362.669	6.246	0.267	0.197
-361.654	5.866	0.253	0.186
-360.639	70.300	0.199	-0.204
-359.625	-66.672	0.244	-0.096
-358.610	-26.246	-0.234	-0.137
-357.596	-79.182	0.248	0.084
-356.581	-200.000	-0.039	0.225
-355.566	114.382	-0.021	-0.025
-354.552	-67.070	0.134	0.053
-353.537	-8.170	-0.114	-0.076
-352.523	-40.935	0.341	-0.175
-351.508	533.311	-0.132	0.310
-350.493	205.952	0.213	-0.329
-349.479	423.514	0.117	0.250
-348.464	-112.505	-0.199	-0.039
-347.450	13.892	-0.105	-0.081
-346.435	-19.247	0.180	0.111
-345.420	-108.792	-0.101	-0.021
-344.406	-110.277	0.129	0.027
-343.391	101.402	0.128	-0.149
-342.377	-130.878	0.250	-0.033
-341.362	-57.405	0.339	0.148
-340.348	-43.326	0.337	0.169
-339.333	-56.910	-0.184	-0.081
-338.318	-200.000	-0.017	-0.205
-337.304	236.783	0.074	-0.122
-336.289	-122.678	-0.256	-0.041
-335.275	-29.568	-0.318	-0.180
-334.260	-96.921	-0.122	-0.032
-333.245	-200.000	0.070	0.448
-332.231	800.000	0.056	-0.153
-331.216	800.000	-0.127	0.356
-330.202	330.595	-0.101	-0.193
-329.187	-161.347	0.194	-0.010
-328.172	299.721	0.096	0.175
-327.158	57.583	-0.182	0.177
-326.143	-200.000	0.009	0.147
-325.129	75.776	-0.229	-0.240
-324.114	206.554	0.133	0.206
-323.099	32.432	0.119	-0.102
-322.085	-33.887	0.119	0.065
-321.070	82.581	0.209	0.225
-320.056	-117.922	-0.226	-0.040
-319.041	-66.697	0.269	-0.106
-318.026	-4.839	-0.101	0.069
-317.012	-200.000	0.077	-0.390
-315.997	577.493	-0.086	-0.208
-314.983	-200.000	-0.009	-0.384
-313.968	-77.877	0.195	-0.067
-312.953	-15.689	-0.097	0.061
-311.939	544.590	-0.083	-0.197
-310.924	-71.938	-0.293	-0.108
-309.910	23.156	-0.041	-0.033
-308.895	-18.157	-0.282	-0.175
-307.880	16.983	0.118	-0.093
-306.866	328.538	-0.088	-0.167
-305.851	-49.178	0.099	-0.047
-304.837	-12.494	0.129	-0.083
-303.822	63.624	-0.160	0.159
-302.807	-128.446	0.285	0.040
-301.793	178.642	0.265	-0.383
-300.778	261.854	-0.142	-0.244
-299.764	800.000	0.095	-0.302
-298.749	-75.167	0.209	-0.074
-297.735	80.542	0.135	0.144
-296.720	-200.000	-0.013	0.092
-295.705	-183.391	-0.138	0.002
-294.691	800.000	0.081	0.267
-293.676	195.337	-0.103	0.155
-292.662	800.000	-0.022	0.082
-291.647	26.397	-0.204	-0.169
-290.632	-27.800	-0.174	0.100
-289.618	-200.000	0.038	0.262
-288.603	-200.000	0.036	0.205
-287.589	33.538	0.134	-0.115
-286.574	231.742	0.033	0.053
-285.559	5.672	0.069	-0.051
-284.545	-51.757	-0.368	0.170
-283.530	679.692	-0.110	-0.285
-282.516	-101.319	-0.085	0.021
-281.501	-200.000	0.024	-0.364
-280.486	800.000	0.148	-0.410
-279.472	180.943	0.025	-0.037
-278.457	284.389	-0.095	0.169
-277.443	450.741	-0.139	0.303
-276.428	41.238	0.087	-0.078
-275.413	-200.000	-0.010	0.119
-274.399	695.872	0.107	0.279
-273.384	-180.823	0.392	0.008
-272.370	-101.715	-0.028	-0.007
-271.355	-117.980	-0.289	-0.051
-270.340	-103.067	-0.077	0.018
-269.326	162.414	0.270	-0.375
-268.311	800.000	-0.016	0.054
-267.297	87.471	0.136	0.149
-266.282	-29.219	-0.043	0.024
-265.267	-125.878	0.088	-0.013
-264.253	-74.422	0.114	0.041
-263.238	800.000	-0.060	-0.168
-262.224	-160.812	0.162	-0.008
-261.209	-35.213	0.204	0.110
-260.195	428.602	0.062	-0.133
-259.180	317.333	0.050	-0.094
-258.165	-32.304	0.183	-0.101
-257.151	75.701	0.066	0.069
-256.136	139.472	0.259	0.338
-255.122	800.000	-0.084	-0.308
-254.107	-200.000	0.007	0.125
-253.092	-146.350	-0.228	0.020
-252.078	-183.157	-0.314	-0.005
-251.063	119.288	-0.046	-0.056
-250.049	-200.000	-0.035	0.334
-249.034	61.679	-0.040	-0.040
-248.019	-19.954	-0.303	-0.185
-247.005	75.440	-0.145	-0.152
-245.990	-105.146	0.122	-0.028
-244.976	-60.567	0.047	0.020
-243.961	-88.271	-0.227	-0.067
-242.946	-200.000	-0.051	-0.350
-241.932	-200.000	-0.008	-0.158
-240.917	-57.064	-0.240	0.105
-239.903	-61.536	0.074	0.031
-238.888	-70.501	-0.186	0.070
-237.873	383.285	0.090	0.183
-236.859	-127.616	-0.322	-0.046
-235.844	-54.882	-0.021	-0.009
-234.830	-200.000	-0.016	-0.266
-233.815	141.047	0.351	-0.459
-232.800	39.652	0.089	-0.079
-231.786	-143.182	-0.212	-0.020
-230.771	-200.000	0.040	0.198
-229.757	-200.000	0.003	0.228
-228.742	-9.192	0.225	0.149
-227.727	429.675	0.146	0.311
-226.713	800.000	-0.064	0.200
-225.698	-185.174	0.366	-0.006
-224.684	-57.732	-0.219	0.095
-223.669	-96.211	0.162	0.042
-222.655	-98.992	0.132	0.033
-221.640	566.804	-0.132	-0.317
-220.625	-200.000	0.009	0.127
-219.611	-200.000	0.034	0.152
-218.596	-94.592	-0.102	0.027
-217.582	-134.842	-0.433	-0.052
-216.567	205.947	0.081	-0.124
-215.552	168.101	-0.141	0.198
-214.538	383.156	-0.263	0.534
-213.523	-200.000	-0.019	0.178
-212.509	-150.589	-0.360	-0.027
-211.494	-145.802	-0.400	-0.035
-210.479	380.564	0.072	-0.146
-209.465	-200.000	-0.002	0.086
-208.450	-200.000	-0.046	0.336
-207.436	789.143	-0.156	-0.424
-206.421	-200.000	-0.014	0.361
-205.406	179.721	-0.164	0.238
-204.392	56.088	-0.258	-0.247
-203.377	628.461	0.053	-0.133
-202.363	-131.583	-0.468	0.061
-201.348	121.446	-0.111	-0.137
-200.333	71.828	0.282	-0.289
-199.319	800.000	-0.054	-0.198
-198.304	6.534	0.048	-0.036
-197.290	800.000	-0.104	-0.313
-196.275	-55.302	0.194	-0.086
-195.260	-72.147	0.277	0.102
-194.246	31.318	0.252	0.214
-193.231	-3.439	0.233	-0.160
-192.217	13.219	0.189	-0.145
-191.202	-200.000	-0.009	-0.081
-190.187	226.482	-0.237	-0.379
-189.173	-200.000	-0.097	0.641
-188.158	72.991	0.116	0.120
-187.144	24.892	0.153	0.125
-186.129	0.516	-0.206	0.145
-185.114	71.182	0.118	0.121
-184.100	126.326	0.231	0.288
-183.085	800.000	-0.037	-0.123
-182.071	-124.911	-0.117	0.018
-181.056	404.645	0.094	-0.195
-180.042	-87.275	-0.143	-0.043
-179.027	156.528	0.093	0.127
-178.012	-92.412	-0.415	-0.115
-176.998	800.000	0.059	-0.192
-175.983	506.014	0.064	0.147
-174.969	31.590	-0.176	0.149
-173.954	232.630	-0.058	0.095
-172.939	-100.962	0.132	-0.032
-171.925	564.449	-0.062	-0.149
-170.910	298.749	-0.033	-0.059
-169.896	-200.000	0.009	0.120
-168.881	242.343	0.073	-0.120
-167.866	115.868	-0.123	-0.148
-166.852	307.075	-0.101	-0.185
-165.837	-127.402	0.038	0.005
-164.823	800.000	-0.043	-0.125
-163.808	-200.000	-0.029	0.216
-162.793	-34.987	-0.077	0.041
-161.779	-89.293	0.128	0.037
-160.764	37.273	0.181	0.158
-159.750	-89.962	0.379	0.109
-158.735	-35.927	-0.200	-0.107
-157.720	-200.000	-0.004	-0.120
-156.706	-165.422	0.259	0.011
-155.691	98.610	0.186	-0.212
-154.677	389.439	0.063	0.129
-153.662	-100.247	0.415	0.102
-152.647	39.300	0.273	0.241
-151.633	222.050	-0.134	0.212
-150.618	-69.676	-0.215	-0.081
-149.604	-45.351	-0.108	-0.053
-148.589	-57.206	-0.019	0.008
-147.574	-20.751	-0.144	0.087
-146.560	-1.412	-0.284	-0.197
-145.545	44.458	0.150	-0.135
-144.531	104.909	0.060	0.070
-143.516	291.818	0.145	0.260
-142.502	110.858	0.107	-0.127
-141.487	-124.680	0.469	-0.072
-140.472	-135.568	0.099	0.012
-139.458	-107.612	-0.210	0.045
-138.443	-200.000	-0.030	-0.157
-137.429	-200.000	-0.023	-0.221
-136.414	164.642	0.187	-0.260
-135.399	-88.549	0.075	-0.022
-134.385	-48.968	0.377	-0.178
-133.370	-4.737	0.143	0.097
-132.356	-74.394	-0.363	0.129
-131.341	-114.494	0.615	-0.116
-130.326	189.211	0.168	0.248
-129.312	800.000	-0.008	0.022
-128.297	-90.810	-0.335	0.095
-127.283	-89.240	-0.337	0.098
-126.268	71.178	0.218	0.222
-125.253	-114.649	-0.177	-0.033
-124.239	-200.000	0.014	-0.080
-123.224	217.733	0.158	-0.248
-122.210	331.771	0.071	0.134
-121.195	-200.000	-0.004	-0.152
