DTS Sentinel unit serial number:	SN413079Multiplexer serial number:	ORYXHardware model number:	OX4-SRSoftware version number:	ORYX F/W v4.00 Oryx Data Collector v3.7.2.0data status	okinstallation	princeton_trtdifferential loss correction	single-endedforward channel	channel 1reverse channel	N/Adate	2019/09/19time	10:50:35forward acquisition time	60.00reverse acquisition time	0.00gamma	496.2192k internal	0.2338k external	0.2338temperature offset calibration	1.0003default loss term (dB/km)	0.3790temperature slope calibration	1.0000multiplexer offset coefficient	1.0000multiplexer slope coefficient	1.0000fibre end	0.00T internal ref (°C)	24.72T ext. ref 1 (°C)	0.74T ext. ref 2 (°C)	20.16length (m)	temperature (°C)	Stokes	anti-Stokes-747.200	800.000	0.070	0.224
-746.185	711.889	-0.088	0.233
-745.171	-94.624	0.283	0.077
-744.156	-91.778	-0.122	-0.035
-743.142	-145.333	-0.109	-0.010
-742.127	-63.641	-0.328	-0.135
-741.112	-6.065	0.292	-0.200
-740.098	151.680	-0.168	0.229
-739.083	-66.538	-0.253	0.101
-738.069	303.953	-0.143	0.266
-737.054	726.611	0.084	-0.226
-736.039	800.000	-0.019	0.078
-735.025	-61.822	0.101	-0.043
-734.010	-200.000	-0.005	-0.169
-732.996	129.175	0.122	-0.156
-731.981	-66.531	-0.080	-0.032
-730.966	-169.630	-0.348	-0.013
-729.952	580.873	0.024	0.059
-728.937	800.000	0.043	-0.129
-727.923	-200.000	0.046	0.431
-726.908	791.872	0.119	0.329
-725.894	89.740	0.123	0.137
-724.879	277.283	-0.156	-0.279
-723.864	-141.697	0.478	-0.048
-722.850	-40.244	-0.143	-0.075
-721.835	29.281	0.064	0.054
-720.821	-77.349	-0.175	-0.061
-719.806	-27.179	0.170	-0.099
-718.791	-200.000	-0.024	-0.152
-717.777	389.402	0.094	0.195
-716.762	58.643	-0.228	0.224
-715.748	12.425	-0.297	-0.230
-714.733	-115.464	0.254	-0.048
-713.718	32.261	-0.296	-0.256
-712.704	-100.047	-0.069	-0.017
-711.689	201.053	-0.082	0.126
-710.675	-10.305	-0.115	-0.077
-709.660	-58.819	-0.176	-0.076
-708.645	62.136	0.141	-0.141
-707.631	66.276	0.122	0.124
-706.616	-166.123	0.057	-0.002
-705.602	-3.363	-0.101	-0.070
-704.587	377.334	-0.107	0.219
-703.572	800.000	0.076	-0.231
-702.558	260.481	0.122	0.211
-701.543	14.186	-0.427	0.333
-700.529	-200.000	0.048	-0.266
-699.514	222.107	-0.092	-0.149
-698.499	377.165	0.215	0.440
-697.485	144.858	0.112	0.150
-696.470	-123.600	-0.373	-0.059
-695.456	-82.806	0.217	-0.070
-694.441	-72.154	0.178	0.066
-693.426	103.694	0.123	-0.145
-692.412	78.768	0.139	-0.148
-691.397	308.264	-0.107	0.200
-690.383	-110.334	-0.210	0.044
-689.368	13.781	0.155	0.121
-688.354	800.000	-0.069	-0.195
-687.339	25.770	-0.158	-0.131
-686.324	31.972	-0.130	-0.112
-685.310	-111.982	0.245	-0.050
-684.295	-92.293	-0.376	0.106
-683.281	-200.000	0.017	0.245
-682.266	-111.413	-0.286	0.058
-681.251	512.875	0.107	-0.250
-680.237	-4.646	-0.282	-0.194
-679.222	-116.366	-0.406	0.075
-678.208	189.522	0.263	-0.394
-677.193	262.475	-0.117	-0.203
-676.178	204.426	-0.036	-0.056
-675.164	-93.585	-0.191	-0.053
-674.149	62.349	0.089	-0.089
-673.135	-200.000	-0.022	-0.395
-672.120	-66.402	0.189	-0.075
-671.105	800.000	-0.098	-0.414
-670.091	81.301	-0.137	0.148
-669.076	-139.179	-0.134	0.014
-668.062	-60.583	-0.518	-0.220
-667.047	383.814	0.055	-0.113
-666.032	-104.855	0.263	-0.060
-665.018	-200.000	0.026	-0.259
-664.003	167.744	0.129	0.184
-662.989	91.824	-0.173	0.195
-661.974	-131.551	0.154	0.020
-660.959	-119.790	-0.146	0.025
-659.945	38.335	0.169	-0.151
-658.930	-102.259	-0.159	-0.038
-657.916	477.162	-0.062	0.141
-656.901	534.911	0.081	-0.192
-655.886	616.911	-0.079	-0.197
-654.872	125.768	0.074	-0.094
-653.857	-151.206	-0.177	-0.013
-652.843	49.460	-0.227	-0.213
-651.828	456.046	0.097	0.215
-650.814	586.735	0.135	-0.333
-649.799	678.784	0.133	-0.345
-648.784	-200.000	0.003	-0.042
-647.770	-118.492	-0.258	0.046
-646.755	778.755	-0.096	0.264
-645.741	-200.000	0.003	0.081
-644.726	-173.946	0.281	-0.008
-643.711	-74.809	0.191	-0.068
-642.697	-15.847	-0.192	-0.122
-641.682	-60.578	-0.283	-0.120
-640.668	-110.240	0.072	-0.015
-639.653	311.228	-0.068	-0.128
-638.638	244.578	-0.052	-0.086
-637.624	52.347	0.027	0.025
-636.609	-77.404	-0.186	-0.064
-635.595	-2.244	0.098	-0.069
-634.580	-34.653	-0.341	0.186
-633.565	254.133	-0.224	-0.382
-632.551	13.436	0.146	-0.113
-631.536	-200.000	0.002	-0.075
-630.522	57.431	-0.432	-0.421
-629.507	-19.955	0.075	-0.046
-628.492	-74.592	-0.067	0.024
-627.478	14.406	0.086	0.067
-626.463	-29.452	0.258	0.148
-625.449	-66.591	0.188	-0.074
-624.434	-167.975	-0.367	-0.014
-623.419	15.712	0.132	-0.104
-622.405	54.343	-0.277	0.266
-621.390	-200.000	0.046	-0.203
-620.376	-161.707	0.260	0.013
-619.361	-96.326	-0.392	-0.104
-618.346	106.769	0.109	-0.129
-617.332	-12.271	0.265	-0.173
-616.317	800.000	0.119	0.364
-615.303	-200.000	-0.007	0.234
-614.288	392.595	-0.171	0.355
-613.273	-140.422	-0.115	0.012
-612.259	800.000	0.040	0.169
-611.244	421.085	0.172	-0.369
-610.230	-95.878	0.120	-0.032
-609.215	800.000	-0.066	-0.242
-608.201	341.048	0.199	-0.388
-607.186	-200.000	-0.023	0.137
-606.171	39.454	0.080	-0.072
-605.157	-88.634	0.302	-0.090
-604.142	279.391	0.133	0.237
-603.128	8.295	0.299	0.224
-602.113	125.192	-0.196	0.247
-601.098	-200.000	0.034	-0.332
-600.084	-200.000	-0.026	0.164
-599.069	-56.426	0.227	0.100
-598.055	380.550	-0.128	-0.261
-597.040	-200.000	0.032	-0.180
-596.025	-69.220	-0.215	-0.082
-595.011	-200.000	-0.070	0.482
-593.996	-126.937	-0.022	-0.003
-592.982	800.000	0.037	0.128
-591.967	-115.222	-0.278	-0.053
-590.952	-184.192	0.264	-0.004
-589.938	-3.292	-0.230	0.160
-588.923	157.302	-0.107	-0.148
-587.909	34.820	0.102	-0.089
-586.894	80.960	0.009	0.010
-585.879	-1.648	0.233	-0.164
-584.865	250.929	0.184	0.311
-583.850	79.453	-0.338	0.362
-582.836	12.587	-0.099	0.076
-581.821	-150.807	0.371	0.028
-580.806	-72.142	0.331	-0.123
-579.792	89.880	-0.129	0.143
-578.777	-200.000	0.016	-0.230
-577.763	318.863	-0.107	-0.203
-576.748	-124.558	0.229	0.035
-575.733	182.936	0.119	0.175
-574.719	95.142	0.076	0.087
-573.704	137.914	0.120	0.157
-572.690	-147.579	0.135	-0.011
-571.675	-200.000	-0.018	-0.130
-570.661	-200.000	0.021	0.201
-569.646	-200.000	-0.026	-0.121
-568.631	-200.000	-0.004	-0.155
-567.617	-17.807	0.192	0.120
-566.602	137.909	-0.041	0.053
-565.588	-142.968	0.347	-0.034
-564.573	-124.767	0.524	0.081
-563.558	-7.295	0.185	-0.125
-562.544	0.903	-0.187	-0.133
-561.529	-152.929	-0.144	0.010
-560.515	214.139	0.128	-0.201
-559.500	-200.000	-0.042	-0.311
-558.485	800.000	-0.077	-0.296
-557.471	-22.580	-0.353	-0.213
-556.456	120.522	-0.073	-0.090
-555.442	484.781	-0.101	-0.229
-554.427	-46.408	-0.018	0.009
-553.412	-156.386	0.452	-0.028
-552.398	78.250	0.145	0.154
-551.383	-107.367	0.057	-0.012
-550.369	-80.129	0.183	-0.061
-549.354	-28.349	0.127	0.073
-548.339	800.000	0.013	0.038
-547.325	147.993	0.133	0.179
-546.310	-42.258	-0.289	0.147
-545.296	800.000	0.081	-0.298
-544.281	615.994	0.117	0.292
-543.266	86.806	-0.279	-0.306
-542.252	587.916	0.074	0.182
-541.237	-102.145	0.266	-0.064
-540.223	-59.152	-0.146	0.063
-539.208	262.294	0.084	0.145
-538.193	118.792	0.093	-0.115
-537.179	-200.000	-0.035	-0.187
-536.164	-135.859	-0.101	0.012
-535.150	108.045	0.082	0.097
-534.135	800.000	0.077	0.277
-533.121	70.044	-0.108	-0.111
-532.106	-86.038	-0.297	-0.091
-531.091	648.775	0.139	0.354
-530.077	-88.260	-0.488	0.145
-529.062	667.845	0.077	-0.197
-528.048	112.585	0.290	-0.349
-527.033	-200.000	-0.009	0.088
-526.018	-27.691	-0.134	-0.078
-525.004	-41.711	0.108	0.055
-523.989	70.797	-0.087	-0.090
-522.975	39.360	0.127	0.113
-521.960	267.160	0.098	0.171
-520.945	31.362	0.246	0.210
-519.931	-78.993	0.261	-0.088
-518.916	-151.815	-0.218	0.016
-517.902	491.955	-0.113	0.258
-516.887	739.425	0.057	0.151
-515.872	169.432	-0.126	0.180
-514.858	387.708	-0.147	-0.302
-513.843	79.338	-0.291	-0.310
-512.829	19.509	0.180	-0.144
-511.814	-4.234	-0.265	-0.182
-510.799	144.015	-0.120	-0.159
-509.785	272.114	0.153	-0.268
-508.770	-134.458	-0.163	-0.020
-507.756	-100.007	-0.045	0.011
-506.741	-144.538	-0.080	-0.007
-505.726	102.666	-0.099	0.115
-504.712	-112.277	-0.187	0.037
-503.697	-200.000	-0.001	0.279
-502.683	-200.000	0.019	-0.090
-501.668	91.451	0.199	-0.222
-500.653	420.149	-0.198	-0.422
-499.639	-101.543	-0.156	-0.038
-498.624	14.068	-0.266	0.206
-497.610	55.590	-0.132	-0.127
-496.595	53.217	0.237	-0.226
-495.581	800.000	0.053	-0.205
-494.566	86.510	0.222	-0.243
-493.551	800.000	0.027	-0.087
-492.537	800.000	0.087	-0.282
-491.522	-134.632	0.409	0.050
-490.508	-56.388	-0.306	0.135
-489.493	800.000	-0.041	0.166
-488.478	-200.000	-0.001	0.096
-487.464	-62.367	0.294	-0.121
-486.449	-94.051	0.239	0.065
-485.435	0.827	-0.010	0.007
-484.420	-112.309	0.092	-0.018
-483.405	97.019	-0.061	-0.070
-482.391	-132.971	0.063	0.008
-481.376	100.687	-0.239	0.276
-480.362	-115.920	-0.215	-0.040
-479.347	190.882	0.300	-0.448
-478.332	573.168	0.034	-0.081
-477.318	-153.689	-0.158	0.011
-476.303	-102.839	-0.011	-0.003
-475.289	800.000	-0.060	-0.193
-474.274	800.000	-0.061	0.171
-473.259	-62.452	-0.169	0.070
-472.245	268.058	-0.213	0.370
-471.230	-140.541	0.347	-0.036
-470.216	800.000	0.093	0.277
-469.201	800.000	0.115	0.458
-468.186	800.000	-0.023	0.097
-467.172	800.000	-0.161	-0.475
-466.157	143.974	-0.122	0.162
-465.143	59.263	-0.134	-0.131
-464.128	-67.916	-0.108	-0.042
-463.113	800.000	-0.036	-0.102
-462.099	28.934	-0.156	0.131
-461.084	-83.072	-0.201	0.064
-460.070	-200.000	-0.002	0.179
-459.055	-26.207	-0.139	0.081
-458.040	-142.573	-0.254	0.025
-457.026	-124.948	-0.179	-0.027
-456.011	-200.000	-0.029	-0.139
-454.997	232.631	-0.264	0.431
-453.982	-200.000	0.019	0.098
-452.968	29.934	-0.228	0.193
-451.953	-83.192	0.127	0.040
-450.938	-173.086	0.411	-0.013
-449.924	-163.247	-0.382	0.018
-448.909	-4.324	-0.186	0.128
-447.895	-200.000	0.042	0.202
-446.880	206.425	-0.055	0.085
-445.865	-20.257	0.077	0.047
-444.851	109.544	0.221	0.263
-443.836	-124.758	-0.224	0.034
-442.822	39.949	-0.166	0.148
-441.807	-63.343	0.099	-0.040
-440.792	167.305	0.184	0.259
-439.778	220.259	-0.069	0.109
-438.763	-70.184	0.144	0.054
-437.749	-200.000	-0.072	-0.313
-436.734	-116.417	-0.120	0.022
-435.719	93.646	-0.009	-0.010
-434.705	-163.955	-0.120	-0.006
-433.690	-109.458	0.098	0.021
-432.676	164.546	0.054	0.075
-431.661	-43.826	-0.108	-0.054
-430.646	275.046	0.172	-0.301
-429.632	-27.110	0.272	0.157
-428.617	32.114	0.134	-0.115
-427.603	130.531	0.057	-0.072
-426.588	113.970	0.137	0.165
-425.573	-13.304	-0.169	0.109
-424.559	58.419	0.088	-0.086
-423.544	650.751	-0.138	0.350
-422.530	-43.249	0.114	0.057
-421.515	-27.681	0.056	0.032
-420.500	15.682	0.247	-0.192
-419.486	-116.844	-0.119	-0.022
-418.471	96.656	0.050	0.057
-417.457	-38.769	-0.071	-0.037
-416.442	-132.289	0.119	0.015
-415.428	-3.142	0.098	-0.067
-414.413	132.234	0.060	-0.077
-413.398	-84.701	-0.056	0.017
-412.384	-157.862	0.161	0.009
-411.369	-200.000	0.019	-0.210
-410.355	-200.000	0.016	-0.101
-409.340	-172.363	0.145	-0.005
-408.325	398.510	0.144	-0.298
-407.311	-71.559	-0.213	-0.079
-406.296	-111.874	0.111	0.022
-405.282	-100.463	0.082	0.020
-404.267	59.631	0.150	-0.146
-403.252	-66.005	0.072	0.028
-402.238	-103.262	-0.147	-0.034
-401.223	153.114	0.297	-0.402
-400.209	-38.709	-0.381	-0.199
-399.194	-59.791	0.170	-0.072
-398.179	-102.292	-0.154	0.037
-397.165	53.982	-0.206	-0.196
-396.150	-200.000	-0.018	-0.242
-395.136	50.648	-0.280	-0.262
-394.121	-123.580	-0.282	-0.044
-393.106	263.155	0.030	-0.052
-392.092	393.225	-0.110	0.226
-391.077	313.150	0.139	-0.258
-390.063	387.476	-0.139	0.285
-389.048	-200.000	-0.009	0.137
-388.033	75.499	-0.072	0.076
-387.019	-126.117	-0.232	-0.034
-386.004	-86.324	0.282	-0.086
-384.990	-200.000	-0.009	0.150
-383.975	5.871	0.169	0.124
-382.960	30.044	-0.091	-0.077
-381.946	-65.314	0.159	-0.063
-380.931	800.000	0.085	-0.248
-379.917	44.995	0.136	0.124
-378.902	-29.607	0.145	0.082
-377.888	-63.183	0.270	0.110
-376.873	-110.117	0.254	-0.053
-375.858	4.395	-0.261	0.189
-374.844	25.697	-0.143	0.118
-373.829	379.546	-0.032	-0.064
-372.815	-200.000	-0.051	-0.302
-371.800	-200.000	-0.019	-0.171
-370.785	164.323	0.075	-0.104
-369.771	630.433	0.051	0.128
-368.756	-200.000	0.037	0.247
-367.742	-109.993	-0.103	-0.021
-366.727	-108.229	-0.239	-0.051
-365.712	-200.000	-0.028	0.196
-364.698	-155.888	0.428	0.027
-363.683	-107.518	0.440	-0.095
-362.669	114.925	-0.243	0.292
-361.654	152.666	-0.048	-0.064
-360.639	-34.268	0.143	0.077
-359.625	163.408	0.033	-0.045
-358.610	211.570	0.125	-0.195
-357.596	426.700	-0.115	-0.245
-356.581	84.132	-0.121	0.131
-355.566	-136.022	-0.252	-0.029
-354.552	-200.000	-0.017	0.123
-353.537	649.385	0.132	0.333
-352.523	-167.995	0.427	0.017
-351.508	84.572	0.127	-0.137
-350.493	-200.000	-0.026	0.172
-349.479	174.700	-0.052	0.074
-348.464	-200.000	-0.046	-0.242
-347.450	-200.000	0.009	-0.126
-346.435	-159.319	-0.308	-0.017
-345.420	-200.000	-0.040	0.225
-344.406	-60.183	0.107	0.045
-343.391	388.241	0.134	0.275
-342.377	734.532	-0.128	0.338
-341.362	-200.000	0.062	-0.406
-340.348	185.323	0.094	-0.138
-339.333	800.000	0.008	-0.025
-338.318	191.843	-0.164	0.243
-337.304	46.097	-0.198	0.181
-336.289	-114.491	0.457	-0.087
-335.275	-131.059	-0.262	0.035
-334.260	191.290	0.087	0.129
-333.245	32.103	0.159	0.135
-332.231	421.935	-0.114	0.242
-331.216	350.463	0.197	-0.384
-330.202	27.739	0.112	-0.093
-329.187	433.694	-0.195	0.419
-328.172	800.000	-0.049	0.189
-327.158	224.496	-0.056	0.090
-326.143	120.633	0.230	0.282
-325.129	-11.463	-0.141	-0.092
-324.114	-191.499	-0.385	-0.004
-323.099	-18.090	-0.166	0.102
-322.085	-200.000	0.006	-0.201
-321.070	-150.422	-0.252	0.019
-320.056	-5.597	-0.221	0.149
-319.041	-11.134	-0.120	0.078
-318.026	71.313	0.074	-0.076
-317.012	69.670	-0.194	0.197
-315.997	800.000	0.077	-0.329
-314.983	-68.153	-0.185	0.071
-313.968	-58.545	0.257	0.110
-312.953	28.363	-0.343	0.286
-311.939	-175.545	0.204	-0.005
-310.924	-68.741	0.240	-0.091
-309.910	144.908	0.183	0.241
-308.895	47.241	0.239	0.219
-307.880	-200.000	0.000	-0.036
-306.866	196.426	0.186	0.280
-305.851	-48.358	0.247	-0.117
-304.837	4.568	0.108	-0.078
-303.822	-11.348	0.268	-0.174
-302.807	264.521	0.058	-0.100
-301.793	-200.000	-0.018	-0.120
-300.778	14.464	-0.218	0.168
-299.764	-200.000	0.003	-0.042
-298.749	120.597	-0.106	0.130
-297.735	-200.000	-0.003	0.307
-296.720	-169.818	-0.332	-0.012
-295.705	-140.861	0.158	0.016
-294.691	-158.242	-0.234	0.013
-293.676	357.280	0.128	0.252
-292.662	-149.673	-0.754	0.059
-291.647	800.000	0.088	-0.257
-290.632	-45.127	-0.262	-0.128
-289.618	-200.000	-0.006	-0.095
-288.603	-125.801	0.464	0.069
-287.589	9.599	-0.179	0.134
-286.574	-200.000	-0.035	0.170
-285.559	-121.703	-0.155	-0.025
-284.545	-200.000	-0.002	-0.217
-283.530	-85.892	-0.030	0.009
-282.516	-52.950	0.220	-0.100
-281.501	-200.000	-0.002	0.058
-280.486	306.797	-0.167	0.307
-279.472	-131.488	-0.446	-0.058
-278.457	-200.000	-0.049	0.226
-277.443	124.965	0.193	-0.240
-276.428	800.000	0.016	0.062
-275.413	-16.706	-0.074	-0.046
-274.399	-43.993	0.258	-0.128
-273.384	-109.166	0.222	-0.046
-272.370	0.722	0.084	0.059
-271.355	-54.238	-0.075	0.034
-270.340	-150.841	0.136	-0.010
-269.326	-138.659	-0.098	0.011
-268.311	800.000	-0.117	0.323
-267.297	800.000	0.020	-0.084
-266.282	-200.000	-0.043	-0.260
-265.267	-200.000	0.028	-0.130
-264.253	-200.000	-0.011	-0.251
-263.238	528.357	-0.037	0.087
-262.224	-17.095	-0.178	0.111
-261.209	-79.874	-0.273	-0.090
-260.195	-200.000	0.028	-0.205
-259.180	-141.820	0.246	0.024
-258.165	-168.028	-0.225	-0.009
-257.151	-167.582	0.094	-0.004
-256.136	-200.000	-0.032	-0.191
-255.122	-118.055	0.211	0.037
-254.107	658.958	-0.109	0.277
-253.092	-6.353	-0.101	0.068
-252.078	800.000	-0.029	0.082
-251.063	-107.590	-0.068	0.015
-250.049	105.779	-0.224	0.261
-249.034	313.623	0.269	0.498
-248.019	671.657	-0.093	0.237
-247.005	-200.000	-0.002	-0.207
-245.990	-167.780	-0.208	-0.008
-244.976	789.215	-0.025	0.067
-243.961	800.000	0.040	0.165
-242.946	800.000	0.046	0.164
-241.932	275.711	-0.009	0.016
-240.917	136.101	-0.075	-0.096
-239.903	800.000	0.171	0.552
-238.888	24.088	-0.223	-0.181
-237.873	-119.811	0.211	0.036
-236.859	197.156	-0.038	0.057
-235.844	800.000	-0.070	0.219
-234.830	-200.000	-0.004	-0.165
-233.815	382.439	-0.010	-0.021
-232.800	-153.941	-0.118	0.008
-231.786	-45.612	-0.071	0.034
-230.771	96.937	0.118	0.133
-229.757	-200.000	-0.016	-0.114
-228.742	-16.886	-0.313	-0.195
-227.727	34.779	-0.029	0.025
-226.713	76.544	0.312	-0.325
-225.698	654.096	0.137	-0.346
-224.684	-200.000	-0.033	0.246
-223.669	800.000	0.020	-0.085
-222.655	623.885	0.149	0.368
-221.640	800.000	0.027	-0.075
-220.625	-11.214	0.174	-0.113
-219.611	-90.284	-0.173	0.049
-218.596	-99.861	-0.105	0.026
-217.582	476.386	0.117	-0.260
-216.567	-46.981	-0.306	-0.147
-215.552	47.091	-0.148	-0.136
-214.538	71.093	0.126	-0.129
-213.523	-14.265	0.042	0.027
-212.509	-200.000	-0.013	-0.530
-211.494	800.000	-0.065	-0.263
-210.479	-20.203	-0.183	0.111
-209.465	-26.180	-0.390	-0.225
-208.450	206.044	0.204	-0.312
-207.436	-101.789	0.390	-0.093
-206.421	-200.000	0.002	0.090
-205.406	-91.777	0.119	-0.033
-204.392	-179.812	-0.146	-0.003
-203.377	-200.000	-0.024	0.112
-202.363	731.442	0.038	-0.099
-201.348	99.466	-0.090	0.102
-200.333	158.498	0.118	0.161
-199.319	101.492	-0.117	-0.133
-198.304	525.428	0.153	0.354
-197.290	9.612	-0.327	0.243
-196.275	-200.000	-0.007	0.429
-195.260	-71.719	-0.273	0.100
-194.246	-51.797	-0.093	0.042
-193.231	-29.385	0.135	0.076
-192.217	22.438	0.191	0.153
-191.202	-37.823	0.256	-0.134
-190.187	-9.398	0.239	0.156
-189.173	-141.670	0.312	-0.031
-188.158	232.457	0.179	0.288
-187.144	23.626	0.103	0.083
-186.129	-57.082	0.125	0.054
-185.114	-126.727	-0.078	0.011
-184.100	800.000	0.060	-0.231
-183.085	-200.000	0.007	-0.193
-182.071	-200.000	0.014	0.203
-181.056	36.102	-0.044	0.038
-180.042	-69.971	0.252	0.094
-179.027	800.000	-0.071	-0.254
-178.012	26.994	-0.106	-0.087
-176.998	-170.506	-0.102	-0.003
-175.983	800.000	-0.008	0.027
-174.969	99.359	0.065	0.073
-173.954	35.566	-0.065	-0.056
-172.939	134.078	0.066	-0.084
-171.925	-148.910	0.144	-0.011
-170.910	-97.218	-0.095	0.024
-169.896	108.943	-0.204	-0.239
-168.881	96.170	0.252	-0.283
-167.866	476.389	-0.204	-0.451
-166.852	35.470	0.227	0.195
-165.837	20.468	-0.140	0.111
-164.823	270.926	-0.067	0.116
-163.808	-4.232	0.062	-0.042
-162.793	92.695	-0.292	-0.323
-161.779	-157.108	-0.400	-0.024
-160.764	-90.863	0.160	0.045
-159.750	-146.415	-0.118	0.010
-158.735	71.826	0.086	-0.088
-157.720	5.299	-0.123	0.089
-156.706	88.699	0.154	-0.167
-155.691	157.287	-0.066	-0.090
-154.677	93.885	0.167	0.186
-153.662	218.030	0.101	0.157
-152.647	-54.699	0.069	-0.031
-151.633	-200.000	-0.038	-0.357
-150.618	-13.531	0.206	0.131
-149.604	389.358	-0.044	0.089
-148.589	800.000	-0.047	-0.156
-147.574	254.333	0.135	0.227
-146.560	-200.000	0.021	0.099
-145.545	-200.000	0.004	-0.122
-144.531	-200.000	-0.037	0.323
-143.516	210.393	0.040	-0.061
-142.502	-120.850	0.487	0.080
-141.487	163.529	-0.212	0.293
-140.472	-42.409	0.340	0.170
-139.458	-102.822	0.044	-0.010
-138.443	365.986	-0.229	-0.451
-137.429	-65.161	-0.201	0.079
-136.414	-12.053	-0.093	-0.059
-135.399	-67.625	-0.058	-0.022
-134.385	-138.871	0.097	0.010
-133.370	59.910	-0.182	0.176
-132.356	-200.000	-0.018	0.109
-131.341	-49.811	0.172	0.080
-130.326	2.055	-0.341	-0.241
-129.312	-30.373	0.208	-0.116
-128.297	800.000	-0.068	0.217
-127.283	-73.089	0.170	0.061
-126.268	-200.000	-0.037	0.439
-125.253	-200.000	-0.073	0.335
-124.239	38.167	-0.274	0.239
-123.224	471.146	-0.049	-0.109
-122.210	-54.101	0.101	-0.045
-121.195	396.610	-0.114	-0.233
