DTS Sentinel unit serial number:	SN413079Multiplexer serial number:	ORYXHardware model number:	OX4-SRSoftware version number:	ORYX F/W v4.00 Oryx Data Collector v3.7.2.0data status	okinstallation	princeton_trtdifferential loss correction	single-endedforward channel	channel 1reverse channel	N/Adate	2019/09/13time	17:22:35forward acquisition time	60.00reverse acquisition time	0.00gamma	496.2192k internal	0.2294k external	0.2294temperature offset calibration	1.0146default loss term (dB/km)	0.3790temperature slope calibration	1.0000multiplexer offset coefficient	1.0000multiplexer slope coefficient	1.0000fibre end	0.00T internal ref (°C)	36.06T ext. ref 1 (°C)	4.78T ext. ref 2 (°C)	32.31length (m)	temperature (°C)	Stokes	anti-Stokes-747.200	152.364	0.218	0.304
-746.185	22.612	-0.291	0.244
-745.171	339.076	0.133	-0.266
-744.156	-72.362	-0.433	0.164
-743.142	247.312	0.068	0.117
-742.127	-110.972	-0.121	0.025
-741.112	-131.808	-0.056	0.008
-740.098	-200.000	0.003	0.184
-739.083	14.328	0.179	-0.143
-738.069	-25.917	-0.069	0.041
-737.054	-200.000	-0.030	0.154
-736.039	105.976	-0.140	-0.169
-735.025	-28.732	0.184	0.108
-734.010	17.304	-0.048	-0.039
-732.996	-200.000	-0.015	-0.228
-731.981	-22.906	-0.149	0.092
-730.966	800.000	-0.089	0.290
-729.952	-186.165	-0.276	0.004
-728.937	-200.000	-0.002	0.194
-727.923	800.000	-0.191	-0.540
-726.908	43.719	-0.161	-0.151
-725.894	-148.185	-0.168	0.014
-724.879	438.476	-0.062	-0.139
-723.864	142.200	-0.084	0.114
-722.850	146.028	-0.074	-0.101
-721.835	-110.806	0.140	-0.029
-720.821	-105.466	-0.081	-0.019
-719.806	-200.000	-0.023	0.130
-718.791	79.087	-0.140	-0.153
-717.777	21.905	-0.240	0.200
-716.762	-200.000	-0.003	-0.186
-715.748	-62.167	-0.440	-0.187
-714.733	322.744	0.124	-0.241
-713.718	-135.826	-0.318	-0.038
-712.704	-15.009	-0.058	-0.038
-711.689	89.691	-0.079	-0.090
-710.675	-74.400	-0.245	0.090
-709.660	163.545	0.104	-0.149
-708.645	-170.705	0.200	0.007
-707.631	-12.163	-0.104	0.070
-706.616	-125.532	-0.168	-0.026
-705.602	-200.000	-0.011	-0.183
-704.587	-59.214	0.251	-0.110
-703.572	204.891	-0.186	0.295
-702.558	800.000	-0.124	0.443
-701.543	-131.490	-0.416	0.056
-700.529	12.575	0.044	0.035
-699.514	85.106	0.169	-0.189
-698.499	-19.616	0.136	-0.086
-697.485	800.000	-0.014	0.048
-696.470	34.285	0.145	-0.129
-695.456	-105.072	-0.650	0.152
-694.441	204.654	-0.134	-0.212
-693.426	167.619	0.053	0.077
-692.412	-167.507	0.399	0.016
-691.397	-76.599	-0.284	0.102
-690.383	108.193	-0.050	-0.061
-689.368	162.327	0.060	-0.086
-688.354	-200.000	-0.021	-0.154
-687.339	-102.892	0.208	-0.050
-686.324	-14.933	0.228	-0.149
-685.310	525.919	-0.048	-0.115
-684.295	-11.767	0.206	0.138
-683.281	800.000	-0.049	-0.165
-682.266	9.703	-0.374	-0.289
-681.251	800.000	-0.015	-0.054
-680.237	-119.733	0.189	-0.033
-679.222	-200.000	0.041	0.236
-678.208	44.520	-0.213	-0.200
-677.193	64.491	-0.091	-0.093
-676.178	350.160	-0.038	-0.076
-675.164	564.705	0.033	-0.081
-674.149	-200.000	-0.005	-0.183
-673.135	287.960	0.131	-0.242
-672.120	479.385	-0.132	-0.305
-671.105	1.785	0.293	0.215
-670.091	-200.000	-0.061	-0.346
-669.076	-167.471	-0.078	-0.003
-668.062	-160.387	-0.397	0.022
-667.047	800.000	-0.045	-0.140
-666.032	259.716	0.198	-0.348
-665.018	-5.238	0.062	0.043
-664.003	553.523	0.116	0.284
-662.989	383.946	0.083	0.175
-661.974	206.610	-0.313	-0.497
-660.959	150.289	0.104	0.144
-659.945	67.514	0.096	0.100
-658.930	28.659	0.128	0.110
-657.916	581.847	-0.151	-0.378
-656.901	36.416	-0.148	-0.133
-655.886	80.357	0.210	-0.231
-654.872	398.587	-0.035	0.074
-653.857	-111.122	0.287	-0.060
-652.843	180.003	0.109	0.162
-651.828	41.475	0.259	-0.239
-650.814	550.114	0.060	-0.146
-649.799	247.724	-0.115	-0.198
-648.784	-200.000	0.022	-0.450
-647.770	-200.000	0.001	-0.188
-646.755	50.913	0.184	0.177
-645.741	-129.034	0.217	-0.031
-644.726	-136.633	0.154	-0.018
-643.711	800.000	-0.038	-0.111
-642.697	-121.317	0.193	-0.033
-641.682	475.891	-0.120	-0.275
-640.668	18.170	-0.222	0.181
-639.653	367.245	-0.056	-0.114
-638.638	102.593	0.019	0.022
-637.624	200.100	-0.116	-0.182
-636.609	165.368	-0.166	-0.239
-635.595	189.221	0.089	0.136
-634.580	-66.677	0.108	-0.044
-633.565	115.598	-0.130	0.161
-632.551	5.175	0.118	-0.089
-631.536	130.627	0.202	-0.263
-630.522	-158.152	-0.056	-0.003
-629.507	-72.638	-0.361	0.135
-628.492	-200.000	0.026	-0.496
-627.478	2.051	0.187	-0.137
-626.463	167.786	0.077	-0.111
-625.449	20.228	0.236	-0.194
-624.434	160.058	-0.262	-0.371
-623.419	-17.886	-0.323	-0.206
-622.405	268.429	-0.088	-0.157
-621.390	45.597	0.150	0.141
-620.376	-115.460	-0.292	-0.056
-619.361	91.802	0.153	-0.175
-618.346	-118.603	-0.213	0.038
-617.332	105.289	-0.175	0.211
-616.317	-200.000	0.025	-0.120
-615.303	553.614	-0.017	0.042
-614.288	-55.630	0.168	-0.077
-613.273	23.749	-0.080	-0.067
-612.259	-9.648	0.130	-0.088
-611.244	-163.014	-0.183	0.009
-610.230	-200.000	-0.046	-0.317
-609.215	-36.929	-0.295	0.161
-608.201	-172.849	0.236	-0.007
-607.186	145.056	0.166	0.225
-606.171	185.475	-0.291	0.439
-605.157	508.145	0.083	-0.196
-604.142	-200.000	-0.044	-0.231
-603.128	-200.000	-0.018	0.245
-602.113	178.186	-0.043	-0.064
-601.098	-16.664	0.147	-0.094
-600.084	-107.588	-0.171	-0.038
-599.069	800.000	-0.098	-0.310
-598.055	-200.000	-0.000	-0.182
-597.040	-51.693	-0.145	-0.069
-596.025	800.000	0.064	0.220
-595.011	-83.401	-0.373	-0.122
-593.996	-84.603	0.214	-0.069
-592.982	-175.586	0.240	-0.007
-591.967	-200.000	-0.030	-0.480
-590.952	126.073	0.089	-0.114
-589.938	106.229	0.033	0.039
-588.923	-200.000	0.002	-0.053
-587.909	-200.000	0.023	-0.147
-586.894	-138.872	0.134	-0.015
-585.879	420.636	0.154	0.336
-584.865	54.371	0.228	-0.223
-583.850	0.698	-0.134	0.097
-582.836	-200.000	0.024	-0.304
-581.821	548.301	0.174	-0.424
-580.806	55.466	-0.226	-0.223
-579.792	24.318	-0.065	0.055
-578.777	800.000	0.044	0.130
-577.763	-50.233	-0.156	0.075
-576.748	-119.305	-0.116	-0.021
-575.733	98.035	-0.259	-0.303
-574.719	-42.693	-0.210	0.108
-573.704	197.038	-0.183	-0.283
-572.690	-152.806	-0.333	-0.024
-571.675	55.372	0.273	0.269
-570.661	119.420	0.054	-0.068
-569.646	-158.150	0.275	-0.016
-568.631	-187.309	0.427	-0.006
-567.617	36.337	-0.031	-0.028
-566.602	-102.018	-0.208	0.051
-565.588	-200.000	-0.016	-0.256
-564.573	-200.000	0.051	-0.292
-563.558	57.581	0.103	-0.102
-562.544	31.276	-0.177	-0.155
-561.529	604.041	-0.030	0.076
-560.515	103.004	0.021	0.025
-559.500	-140.419	0.180	-0.019
-558.485	-18.341	0.012	0.008
-557.471	-133.093	0.070	0.009
-556.456	800.000	0.090	-0.378
-555.442	443.726	0.060	0.134
-554.427	674.645	-0.056	-0.149
-553.412	-40.298	-0.317	-0.168
-552.398	-200.000	-0.015	-0.176
-551.383	-74.882	0.072	0.026
-550.369	-116.806	0.391	-0.073
-549.354	-132.406	-0.102	0.013
-548.339	-200.000	-0.015	-0.187
-547.325	-91.367	-0.064	0.019
-546.310	-19.404	0.298	0.187
-545.296	800.000	-0.038	-0.130
-544.281	291.734	-0.046	0.086
-543.266	208.923	0.084	0.133
-542.252	-14.188	-0.308	0.201
-541.237	-200.000	-0.023	0.117
-540.223	800.000	-0.062	-0.200
-539.208	74.517	0.220	-0.235
-538.193	36.061	-0.109	0.097
-537.179	-7.628	0.043	-0.030
-536.164	123.245	0.122	-0.155
-535.150	30.699	-0.102	-0.089
-534.135	-185.353	0.061	-0.001
-533.121	52.469	0.173	-0.168
-532.106	-66.706	-0.263	0.106
-531.091	728.582	-0.088	0.238
-530.077	-115.998	-0.095	-0.018
-529.062	-200.000	-0.006	0.196
-528.048	-200.000	0.017	-0.228
-527.033	-73.619	0.239	-0.088
-526.018	-200.000	0.021	0.211
-525.004	-28.863	0.139	-0.081
-523.989	-59.130	-0.165	0.072
-522.975	-169.117	-0.175	-0.007
-521.960	-0.134	-0.167	0.121
-520.945	800.000	0.040	0.166
-519.931	-38.533	0.149	0.080
-518.916	202.832	-0.070	0.110
-517.902	-200.000	-0.017	-0.103
-516.887	-200.000	-0.008	0.038
-515.872	-200.000	-0.019	-0.353
-514.858	-200.000	-0.037	-0.248
-513.843	-200.000	-0.008	0.158
-512.829	-18.379	-0.095	0.060
-511.814	-103.425	-0.132	0.031
-510.799	-11.595	0.024	-0.016
-509.785	-14.850	-0.192	-0.125
-508.770	-200.000	-0.017	0.144
-507.756	-200.000	-0.024	-0.144
-506.741	9.828	-0.101	0.078
-505.726	-200.000	-0.020	0.121
-504.712	-114.490	-0.492	0.096
-503.697	-200.000	0.063	-0.393
-502.683	-144.307	0.166	-0.016
-501.668	-101.841	0.100	-0.025
-500.653	-67.369	-0.512	-0.204
-499.639	-200.000	0.005	0.065
-498.624	30.610	-0.072	-0.063
-497.610	32.716	-0.108	0.095
-496.595	-0.787	0.155	-0.111
-495.581	-60.253	0.176	0.076
-494.566	-16.396	0.189	-0.122
-493.551	-66.565	0.102	-0.041
-492.537	-200.000	0.038	0.239
-491.522	689.499	-0.076	-0.202
-490.508	-200.000	-0.017	-0.127
-489.493	3.011	-0.078	-0.058
-488.478	-53.086	-0.305	0.142
-487.464	-49.415	-0.317	0.153
-486.449	800.000	-0.071	-0.266
-485.435	241.274	-0.033	-0.055
-484.420	143.395	-0.167	0.225
-483.405	-37.900	0.252	0.135
-482.391	305.446	-0.119	0.223
-481.376	-124.936	-0.065	0.010
-480.362	-200.000	-0.009	-0.135
-479.347	6.139	0.079	0.059
-478.332	-200.000	-0.002	0.048
-477.318	83.842	-0.118	0.130
-476.303	-200.000	0.004	0.104
-475.289	-91.551	-0.223	0.064
-474.274	65.150	0.165	0.168
-473.259	800.000	-0.053	0.226
-472.245	280.401	0.145	0.262
-471.230	57.108	-0.179	0.177
-470.216	-90.791	0.224	-0.065
-469.201	-151.370	-0.316	-0.024
-468.186	-98.607	-0.301	0.078
-467.172	-18.353	-0.151	-0.095
-466.157	-200.000	0.018	0.114
-465.143	240.643	0.054	-0.091
-464.128	-27.146	-0.146	-0.086
-463.113	107.054	-0.036	-0.043
-462.099	-200.000	-0.033	-0.389
-461.084	-200.000	-0.002	0.131
-460.070	-200.000	0.015	0.227
-459.055	-34.420	0.187	0.104
-458.040	383.539	0.194	-0.404
-457.026	-67.329	-0.177	0.070
-456.011	235.587	0.132	0.221
-454.997	-40.229	0.152	-0.080
-453.982	-158.184	0.054	0.003
-452.968	70.004	0.242	-0.252
-451.953	-105.444	-0.106	0.024
-450.938	-103.926	0.190	0.045
-449.924	-52.466	-0.155	0.073
-448.909	2.033	-0.100	-0.073
-447.895	270.270	-0.271	0.482
-446.880	-10.825	0.190	-0.127
-445.865	800.000	-0.028	0.125
-444.851	-167.195	0.433	0.018
-443.836	-53.500	-0.213	-0.098
-442.822	-34.643	-0.072	-0.040
-441.807	164.025	-0.094	0.134
-440.792	-92.248	-0.231	0.066
-439.778	-200.000	-0.002	-0.072
-438.763	800.000	-0.035	-0.110
-437.749	-144.377	0.177	0.017
-436.734	340.314	-0.073	-0.144
-435.719	-20.552	-0.210	0.130
-434.705	-7.470	0.115	-0.079
-433.690	-32.229	-0.255	0.144
-432.676	-57.470	0.082	0.036
-431.661	-15.494	-0.368	0.237
-430.646	56.132	0.289	0.283
-429.632	-72.894	-0.264	0.098
-428.617	-200.000	0.106	0.650
-427.603	711.055	-0.100	0.268
-426.588	-46.422	-0.066	0.033
-425.573	643.346	0.033	-0.085
-424.559	-12.872	0.042	0.028
-423.544	7.053	-0.054	-0.041
-422.530	800.000	0.050	-0.179
-421.515	183.176	0.150	0.224
-420.500	-89.309	-0.114	0.034
-419.486	84.896	0.245	-0.271
-418.471	91.290	0.146	0.166
-417.457	-126.802	-0.264	0.039
-416.442	458.666	0.112	-0.251
-415.428	29.515	-0.097	0.083
-414.413	-74.130	0.352	0.129
-413.398	99.144	-0.319	0.372
-412.384	-200.000	-0.012	0.169
-411.369	58.098	-0.114	0.112
-410.355	37.161	0.311	0.278
-409.340	-200.000	-0.034	-0.195
-408.325	-118.151	-0.179	0.032
-407.311	800.000	0.059	0.194
-406.296	155.888	-0.414	0.576
-405.282	-135.201	-0.144	-0.017
-404.267	-160.836	-0.160	0.009
-403.252	35.063	0.188	0.166
-402.238	550.010	-0.159	-0.385
-401.223	197.514	0.138	-0.212
-400.209	800.000	0.088	-0.308
-399.194	-24.793	0.225	0.135
-398.179	800.000	-0.070	-0.273
-397.165	405.767	0.148	0.314
-396.150	91.026	0.130	0.147
-395.136	-194.293	-0.151	-0.001
-394.121	96.494	-0.044	0.051
-393.106	209.075	-0.089	-0.140
-392.092	-39.899	0.209	-0.110
-391.077	-69.313	-0.197	-0.076
-390.063	290.604	0.221	0.406
-389.048	-200.000	0.084	-0.433
-388.033	-200.000	-0.084	0.393
-387.019	-35.899	0.125	-0.068
-386.004	309.403	0.133	-0.251
-384.990	-106.906	-0.218	-0.049
-383.975	104.586	0.147	-0.174
-382.960	800.000	-0.045	-0.157
-381.946	228.795	0.066	0.108
-380.931	-113.855	-0.273	-0.054
-379.917	-119.482	0.242	0.042
-378.902	-7.097	0.079	0.054
-377.888	-87.168	0.392	-0.120
-376.873	-139.259	-0.224	0.024
-375.858	7.947	-0.155	0.117
-374.844	-67.818	-0.193	-0.076
-373.829	76.908	-0.184	-0.197
-372.815	429.805	0.084	0.182
-371.800	20.809	0.155	-0.127
-370.785	-200.000	0.011	-0.230
-369.771	-66.896	-0.274	0.109
-368.756	402.219	-0.115	0.243
-367.742	-200.000	-0.057	0.488
-366.727	-135.969	0.127	0.015
-365.712	800.000	0.080	-0.320
-364.698	-65.392	-0.196	0.080
-363.683	-200.000	0.030	-0.158
-362.669	-200.000	0.013	-0.123
-361.654	78.088	-0.197	0.211
-360.639	-114.507	-0.120	0.023
-359.625	-200.000	0.038	-0.177
-358.610	191.138	0.192	0.291
-357.596	-148.110	0.058	0.005
-356.581	304.669	-0.026	0.049
-355.566	37.996	0.248	0.222
-354.552	685.298	0.007	-0.019
-353.537	-200.000	0.005	0.190
-352.523	-154.982	0.194	-0.013
-351.508	-200.000	-0.014	0.406
-350.493	265.780	0.049	0.087
-349.479	-110.348	0.329	0.069
-348.464	42.953	0.341	-0.313
-347.450	766.432	0.143	0.393
-346.435	-200.000	0.014	-0.097
-345.420	668.989	-0.153	0.399
-344.406	-27.200	-0.251	0.147
-343.391	-200.000	-0.035	-0.181
-342.377	556.096	0.166	-0.401
-341.362	7.117	0.139	-0.104
-340.348	-56.894	0.213	-0.095
-339.333	270.752	-0.075	0.132
-338.318	-48.665	-0.347	0.168
-337.304	195.066	-0.140	0.214
-336.289	-76.281	-0.253	-0.090
-335.275	72.567	0.228	-0.240
-334.260	-46.020	0.193	0.096
-333.245	-118.533	0.127	-0.023
-332.231	-70.808	0.104	0.040
-331.216	-88.446	-0.438	-0.131
-330.202	193.893	0.042	0.064
-329.187	-200.000	0.002	-0.113
-328.172	-56.291	-0.374	0.167
-327.158	267.604	-0.260	0.458
-326.143	-77.736	0.168	0.059
-325.129	58.004	0.096	0.094
-324.114	-33.275	0.107	-0.060
-323.099	-38.502	-0.103	-0.055
-322.085	-107.465	-0.469	0.103
-321.070	-146.930	0.073	0.006
-320.056	-29.142	0.224	0.129
-319.041	243.548	0.135	0.228
-318.026	-200.000	-0.007	0.156
-317.012	47.290	-0.253	-0.237
-315.997	-200.000	0.021	0.126
-314.983	57.067	-0.214	-0.210
-313.968	128.018	0.094	-0.120
-312.953	-123.065	0.266	0.043
-311.939	91.357	-0.070	-0.079
-310.924	-200.000	-0.017	0.187
-309.910	400.040	0.051	-0.108
-308.895	-43.432	-0.283	-0.144
-307.880	-162.742	0.391	0.019
-306.866	-200.000	0.009	-0.056
-305.851	-38.500	-0.163	0.087
-304.837	800.000	-0.048	-0.202
-303.822	-172.046	0.266	-0.009
-302.807	-59.234	0.217	0.094
-301.793	104.763	-0.233	-0.276
-300.778	-120.658	0.037	0.006
-299.764	-27.144	0.203	-0.119
-298.749	5.154	0.068	-0.051
-297.735	-200.000	0.004	-0.374
-296.720	-200.000	-0.008	-0.083
-295.705	-64.222	0.133	-0.054
-294.691	-70.414	0.394	0.150
-293.676	73.338	-0.117	0.123
-292.662	-200.000	0.032	-0.294
-291.647	-200.000	0.015	-0.142
-290.632	177.848	0.025	-0.037
-289.618	134.212	0.222	0.290
-288.603	800.000	0.115	0.391
-287.589	-183.736	-0.015	0.000
-286.574	30.197	-0.092	0.079
-285.559	-61.184	0.350	0.148
-284.545	68.147	-0.288	-0.297
-283.530	16.408	0.151	-0.120
-282.516	18.544	0.090	0.072
-281.501	77.851	0.142	0.152
-280.486	-169.240	-0.014	0.001
-279.472	-141.150	0.174	-0.018
-278.457	-80.542	0.082	-0.028
-277.443	-66.606	-0.235	-0.094
-276.428	-98.305	-0.294	0.076
-275.413	-141.949	0.207	-0.021
-274.399	349.678	0.069	0.137
-273.384	-35.222	-0.349	-0.191
-272.370	-200.000	0.009	0.050
-271.355	10.465	0.324	-0.248
-270.340	238.591	-0.228	0.381
-269.326	11.839	0.191	0.147
-268.311	12.487	0.025	0.020
-267.297	800.000	0.142	0.575
-266.282	-200.000	-0.037	0.356
-265.267	-76.264	0.234	-0.083
-264.253	-42.327	0.125	-0.064
-263.238	-200.000	-0.006	0.173
-262.224	-200.000	-0.071	0.362
-261.209	-132.270	0.414	-0.054
-260.195	-6.290	-0.104	-0.071
-259.180	800.000	0.054	0.231
-258.165	-144.403	-0.328	0.031
-257.151	288.362	0.030	0.054
-256.136	-19.897	0.183	0.113
-255.122	-200.000	0.032	0.364
-254.107	-1.091	0.130	0.092
-253.092	-200.000	0.010	-0.202
-252.078	44.985	-0.106	-0.098
-251.063	-200.000	0.008	-0.083
-250.049	-114.868	0.349	-0.067
-249.034	-106.378	-0.357	-0.080
-248.019	-133.773	0.224	0.028
-247.005	83.278	0.105	0.115
-245.990	-176.127	-0.459	0.012
-244.976	630.298	0.040	0.103
-243.961	-117.294	0.186	0.034
-242.946	-115.352	-0.293	0.055
-241.932	-59.482	-0.086	0.037
-240.917	273.662	-0.043	0.076
-239.903	21.056	-0.123	0.100
-238.888	800.000	0.109	0.310
-237.873	800.000	-0.041	0.143
-236.859	619.965	0.050	-0.125
-235.844	117.866	-0.139	0.171
-234.830	85.304	-0.275	0.302
-233.815	-85.283	0.211	-0.066
-232.800	-200.000	-0.043	-0.267
-231.786	-82.517	-0.195	0.063
-230.771	-91.011	0.334	-0.096
-229.757	264.073	-0.093	-0.163
-228.742	145.557	-0.197	0.265
-227.727	-200.000	-0.064	0.333
-226.713	71.786	0.221	0.230
-225.698	164.661	0.067	0.094
-224.684	-43.447	0.346	0.175
-223.669	448.702	-0.160	0.352
-222.655	-30.053	0.070	-0.040
-221.640	-177.538	-0.204	0.005
-220.625	-46.454	0.479	-0.235
-219.611	-16.920	-0.117	0.074
-218.596	-200.000	0.006	-0.195
-217.582	-119.427	0.178	-0.031
-216.567	-200.000	0.002	0.055
-215.552	-200.000	0.025	-0.177
-214.538	167.413	-0.215	0.306
-213.523	200.895	-0.225	-0.346
-212.509	-100.147	0.044	0.011
-211.494	-145.220	-0.117	0.011
-210.479	-200.000	-0.009	-0.132
-209.465	10.297	-0.167	-0.127
-208.450	800.000	0.047	0.137
-207.436	-200.000	-0.002	-0.026
-206.421	-85.278	0.215	-0.067
-205.406	-6.118	0.049	0.033
-204.392	800.000	0.064	0.254
-203.377	-103.390	0.274	-0.065
-202.363	-8.180	-0.292	0.197
-201.348	5.421	-0.110	-0.081
-200.333	-200.000	0.017	-0.125
-199.319	-200.000	-0.065	-0.428
-198.304	-53.054	-0.188	0.087
-197.290	-184.241	-0.328	-0.005
-196.275	-200.000	0.015	-0.127
-195.260	102.237	0.127	-0.148
-194.246	-118.289	-0.432	-0.077
-193.231	-1.811	0.055	-0.039
-192.217	-194.899	0.160	-0.001
-191.202	-154.838	-0.248	0.016
-190.187	97.282	0.121	-0.139
-189.173	-106.992	0.128	0.028
-188.158	-200.000	-0.004	-0.220
-187.144	172.125	0.095	-0.137
-186.129	-100.899	0.269	0.066
-185.114	-200.000	0.020	-0.119
-184.100	145.999	-0.159	0.214
-183.085	-24.125	-0.344	0.206
-182.071	-200.000	0.054	-0.338
-181.056	-200.000	0.014	0.101
-180.042	-5.304	0.095	0.066
-179.027	25.799	0.273	0.228
-178.012	-40.736	0.176	-0.091
-176.998	221.738	0.039	-0.063
-175.983	-141.864	0.074	0.007
-174.969	-13.436	0.212	-0.137
-173.954	21.381	-0.237	-0.193
-172.939	334.773	-0.188	-0.365
-171.925	471.138	0.011	0.025
-170.910	-174.764	0.402	-0.011
-169.896	800.000	-0.067	0.230
-168.881	417.202	-0.111	0.238
-167.866	800.000	-0.002	-0.004
-166.852	-108.730	0.586	-0.126
-165.837	-22.728	0.260	0.157
-164.823	26.699	-0.138	0.115
-163.808	79.533	-0.074	-0.079
-162.793	3.505	0.171	0.124
-161.779	800.000	-0.008	-0.027
-160.764	-200.000	0.001	-0.098
-159.750	201.850	-0.100	0.153
-158.735	75.900	0.176	-0.186
-157.720	196.190	-0.012	0.018
-156.706	-35.850	0.167	0.090
-155.691	53.094	0.196	-0.188
-154.677	-200.000	-0.016	0.231
-153.662	133.985	0.118	-0.153
-152.647	145.391	0.220	-0.294
-151.633	800.000	0.044	0.134
-150.618	-161.866	0.245	0.012
-149.604	179.270	-0.104	0.152
-148.589	-63.386	0.169	0.069
-147.574	-200.000	-0.027	-0.146
-146.560	31.896	-0.315	-0.271
-145.545	146.923	0.205	0.275
-144.531	-91.768	0.180	-0.051
-143.516	-22.988	0.372	-0.224
-142.502	161.707	-0.138	0.193
-141.487	-200.000	-0.003	0.074
-140.472	800.000	-0.150	-0.417
-139.458	-200.000	0.038	-0.243
-138.443	40.034	0.111	0.099
-137.429	296.549	0.046	0.085
-136.414	-52.427	0.283	0.131
-135.399	-200.000	0.031	0.307
-134.385	312.251	0.050	-0.093
-133.370	82.957	-0.202	-0.220
-132.356	28.027	-0.208	0.175
-131.341	-200.000	-0.024	0.287
-130.326	-69.052	-0.231	-0.089
-129.312	60.159	-0.080	-0.079
-128.297	800.000	-0.120	-0.424
-127.283	70.922	0.139	-0.143
-126.268	-76.220	0.157	-0.055
-125.253	-145.201	-0.237	0.021
-124.239	137.936	-0.078	0.102
-123.224	800.000	0.073	0.276
-122.210	-152.179	-0.149	-0.011
-121.195	90.649	-0.116	0.130
