DTS Sentinel unit serial number:	SN413079Multiplexer serial number:	ORYXHardware model number:	OX4-SRSoftware version number:	ORYX F/W v4.00 Oryx Data Collector v3.7.2.0data status	okinstallation	princeton_trtdifferential loss correction	single-endedforward channel	channel 1reverse channel	N/Adate	2019/09/16time	21:46:35forward acquisition time	60.00reverse acquisition time	0.00gamma	496.2192k internal	0.2325k external	0.2325temperature offset calibration	0.9955default loss term (dB/km)	0.3790temperature slope calibration	1.0000multiplexer offset coefficient	1.0000multiplexer slope coefficient	1.0000fibre end	0.00T internal ref (°C)	31.28T ext. ref 1 (°C)	0.07T ext. ref 2 (°C)	25.59length (m)	temperature (°C)	Stokes	anti-Stokes-747.200	38.823	0.364	0.328
-746.185	271.967	0.087	0.155
-745.171	-200.000	0.056	0.459
-744.156	436.045	-0.102	0.224
-743.142	-200.000	0.072	0.466
-742.127	-200.000	-0.049	0.258
-741.112	-11.899	0.231	0.153
-740.098	-200.000	-0.032	0.273
-739.083	-200.000	0.004	-0.292
-738.069	-200.000	0.013	0.097
-737.054	325.647	0.048	-0.093
-736.039	-200.000	0.083	0.563
-735.025	466.085	0.131	-0.296
-734.010	593.563	0.113	-0.283
-732.996	-38.917	-0.157	-0.084
-731.981	-2.275	-0.084	0.060
-730.966	-78.415	0.127	-0.044
-729.952	-200.000	-0.058	0.350
-728.937	800.000	0.040	0.156
-727.923	117.907	-0.065	-0.081
-726.908	-176.534	0.099	0.003
-725.894	-24.785	-0.054	-0.032
-724.879	-200.000	0.041	-0.458
-723.864	-39.011	0.297	0.158
-722.850	282.509	0.222	0.402
-721.835	573.157	0.041	-0.100
-720.821	-25.874	-0.197	0.117
-719.806	-103.297	0.087	0.021
-718.791	-200.000	-0.046	-0.237
-717.777	-200.000	-0.006	0.286
-716.762	-21.845	-0.228	0.140
-715.748	-167.724	0.105	-0.004
-714.733	-200.000	-0.002	-0.048
-713.718	-10.644	-0.330	-0.220
-712.704	31.742	0.010	0.009
-711.689	66.284	-0.238	0.244
-710.675	800.000	0.072	0.228
-709.660	800.000	0.122	-0.405
-708.645	-100.494	0.035	0.009
-707.631	8.333	-0.108	0.082
-706.616	108.791	0.159	0.191
-705.602	-4.479	0.084	-0.058
-704.587	800.000	-0.085	-0.345
-703.572	-25.472	-0.145	-0.086
-702.558	-200.000	-0.003	0.185
-701.543	113.186	-0.165	0.201
-700.529	395.579	0.108	-0.228
-699.514	7.113	-0.020	0.015
-698.499	-200.000	0.035	0.171
-697.485	-84.448	0.147	-0.047
-696.470	61.503	-0.213	-0.214
-695.456	-200.000	0.016	0.115
-694.441	320.988	-0.023	-0.043
-693.426	-92.257	-0.298	-0.085
-692.412	-108.606	0.325	-0.070
-691.397	800.000	-0.051	-0.194
-690.383	501.547	0.078	-0.181
-689.368	800.000	-0.036	-0.111
-688.354	-41.351	0.151	-0.078
-687.339	-179.223	-0.145	0.003
-686.324	-40.692	0.218	-0.114
-685.310	-41.448	0.207	0.107
-684.295	-8.690	-0.207	0.140
-683.281	71.727	0.183	-0.191
-682.266	37.141	-0.107	-0.095
-681.251	-117.467	0.193	0.035
-680.237	800.000	0.030	-0.123
-679.222	800.000	-0.043	-0.175
-678.208	-46.210	-0.184	-0.091
-677.193	-200.000	0.022	0.315
-676.178	395.335	-0.078	-0.163
-675.164	367.254	-0.033	-0.068
-674.149	800.000	0.093	-0.262
-673.135	128.250	-0.136	-0.175
-672.120	-65.706	-0.234	0.094
-671.105	161.436	0.199	-0.281
-670.091	45.867	-0.175	0.163
-669.076	-171.162	-0.306	0.010
-668.062	506.114	0.042	0.097
-667.047	-200.000	-0.007	-0.102
-666.032	85.317	-0.194	0.215
-665.018	64.437	-0.152	0.154
-664.003	17.064	-0.085	0.067
-662.989	140.027	-0.106	0.141
-661.974	800.000	0.056	-0.199
-660.959	-39.854	-0.226	-0.119
-659.945	-44.391	-0.273	-0.138
-658.930	-31.087	0.257	0.146
-657.916	-53.459	-0.172	-0.079
-656.901	800.000	-0.096	0.398
-655.886	-200.000	-0.003	-0.112
-654.872	439.412	0.207	0.455
-653.857	638.848	-0.117	-0.298
-652.843	-89.588	-0.024	-0.007
-651.828	-121.625	-0.255	-0.043
-650.814	-98.906	0.458	0.117
-649.799	737.175	0.081	-0.217
-648.784	-200.000	-0.050	-0.257
-647.770	-165.943	-0.171	-0.007
-646.755	-34.767	0.222	0.122
-645.741	800.000	0.055	0.220
-644.726	504.783	0.108	0.252
-643.711	-82.134	0.211	-0.069
-642.697	-2.630	-0.164	0.115
-641.682	-63.773	0.273	0.112
-640.668	422.917	-0.154	0.333
-639.653	353.019	-0.102	0.203
-638.638	52.407	0.156	-0.150
-637.624	-200.000	0.014	-0.279
-636.609	137.223	-0.106	0.139
-635.595	-168.945	0.140	0.005
-634.580	377.152	0.078	0.160
-633.565	217.887	0.063	-0.102
-632.551	381.558	0.059	-0.121
-631.536	800.000	-0.069	-0.209
-630.522	612.095	-0.109	-0.274
-629.507	-95.073	0.286	-0.078
-628.492	33.176	-0.117	-0.102
-627.478	-103.400	-0.262	0.062
-626.463	-10.952	0.143	-0.095
-625.449	800.000	-0.081	0.257
-624.434	45.030	0.159	-0.147
-623.419	-98.318	-0.136	0.035
-622.405	58.504	-0.175	-0.173
-621.390	18.899	-0.048	0.039
-620.376	-148.158	-0.136	0.011
-619.361	360.784	0.119	-0.239
-618.346	-68.497	-0.060	-0.023
-617.332	-157.163	-0.257	-0.016
-616.317	-46.118	-0.147	-0.072
-615.303	133.608	-0.102	-0.132
-614.288	-11.877	0.167	0.110
-613.273	13.050	-0.088	0.069
-612.259	667.951	-0.082	-0.213
-611.244	-71.518	0.433	-0.163
-610.230	-200.000	-0.010	0.058
-609.215	398.809	-0.010	0.021
-608.201	-200.000	-0.032	0.217
-607.186	-200.000	-0.009	-0.161
-606.171	-171.820	-0.073	-0.002
-605.157	-14.938	-0.176	-0.113
-604.142	-124.881	-0.197	-0.030
-603.128	-130.228	-0.034	0.005
-602.113	-200.000	-0.047	0.240
-601.098	152.067	0.038	0.052
-600.084	-97.091	0.111	-0.029
-599.069	279.943	-0.174	0.311
-598.055	-36.890	0.186	0.100
-597.040	-200.000	-0.009	-0.287
-596.025	-200.000	-0.008	0.192
-595.011	800.000	0.115	0.479
-593.996	-30.831	0.097	-0.055
-592.982	-31.465	0.169	-0.095
-591.967	62.766	0.081	0.081
-590.952	-142.252	-0.014	-0.001
-589.938	12.319	-0.145	0.112
-588.923	-200.000	-0.031	0.295
-587.909	25.683	-0.195	-0.163
-586.894	334.319	0.109	0.212
-585.879	-130.604	-0.113	0.015
-584.865	800.000	-0.194	0.579
-583.850	152.376	-0.029	0.040
-582.836	-139.730	-0.281	-0.030
-581.821	-200.000	-0.006	0.111
-580.806	800.000	0.004	-0.013
-579.792	-200.000	0.023	-0.126
-578.777	349.701	0.061	0.120
-577.763	-200.000	0.018	0.197
-576.748	800.000	0.077	0.215
-575.733	-139.036	0.316	0.034
-574.719	-200.000	0.019	0.250
-573.704	800.000	0.104	-0.426
-572.690	-200.000	0.049	-0.532
-571.675	-92.579	-0.090	0.025
-570.661	11.926	-0.164	-0.126
-569.646	-200.000	0.016	0.387
-568.631	528.772	-0.011	0.027
-567.617	800.000	0.035	0.142
-566.602	800.000	0.127	0.358
-565.588	-200.000	0.086	0.587
-564.573	52.123	0.028	-0.027
-563.558	-163.765	-0.300	0.014
-562.544	-35.962	0.175	0.095
-561.529	227.505	-0.113	-0.183
-560.515	-59.580	-0.088	-0.038
-559.500	-200.000	0.021	-0.197
-558.485	-200.000	0.010	0.140
-557.471	-200.000	0.016	-0.096
-556.456	-200.000	0.022	-0.263
-555.442	-79.746	-0.285	-0.096
-554.427	-139.004	-0.412	-0.045
-553.412	637.953	0.048	0.122
-552.398	481.383	-0.117	-0.266
-551.383	-200.000	0.005	0.029
-550.369	-48.299	0.343	-0.166
-549.354	268.864	-0.083	0.146
-548.339	51.883	-0.115	-0.110
-547.325	-200.000	0.064	-0.407
-546.310	-200.000	-0.046	-0.434
-545.296	-21.766	-0.096	0.059
-544.281	224.560	0.058	0.093
-543.266	-200.000	0.017	-0.340
-542.252	-40.661	0.339	-0.176
-541.237	116.383	-0.207	0.254
-540.223	718.749	-0.108	0.287
-539.208	800.000	0.031	0.133
-538.193	-133.802	-0.229	0.029
-537.179	-170.942	-0.166	-0.006
-536.164	800.000	0.094	-0.363
-535.150	-70.280	0.203	-0.077
-534.135	-43.497	-0.362	-0.183
-533.121	143.944	0.163	-0.217
-532.106	127.949	-0.022	-0.028
-531.091	800.000	0.030	-0.115
-530.077	-4.621	-0.088	-0.061
-529.062	1.659	0.100	0.072
-528.048	437.700	0.064	-0.140
-527.033	254.700	0.053	0.091
-526.018	800.000	-0.055	-0.236
-525.004	-167.691	0.154	-0.006
-523.989	800.000	0.065	0.209
-522.975	44.974	-0.147	-0.135
-521.960	-10.679	-0.315	0.208
-520.945	182.198	-0.105	-0.155
-519.931	-105.088	0.068	-0.016
-518.916	-200.000	-0.008	-0.185
-517.902	26.583	0.045	-0.038
-516.887	-32.525	-0.295	0.164
-515.872	800.000	-0.059	-0.192
-514.858	-200.000	-0.092	0.456
-513.843	37.421	-0.155	0.138
-512.829	-200.000	-0.022	-0.335
-511.814	267.402	0.119	-0.207
-510.799	-81.194	-0.236	0.078
-509.785	-65.094	-0.190	0.077
-508.770	-199.542	-0.112	0.001
-507.756	6.318	0.174	-0.129
-506.741	-23.743	-0.246	-0.147
-505.726	-134.212	0.366	-0.045
-504.712	800.000	-0.056	0.238
-503.697	39.316	-0.306	0.274
-502.683	309.717	0.221	-0.414
-501.668	78.040	0.171	0.182
-500.653	-9.026	0.062	-0.042
-499.639	-200.000	0.003	-0.150
-498.624	288.148	0.077	-0.139
-497.610	800.000	-0.109	0.311
-496.595	-200.000	-0.029	0.227
-495.581	65.926	0.159	-0.161
-494.566	-200.000	0.010	0.292
-493.551	800.000	-0.121	0.349
-492.537	111.874	-0.149	-0.180
-491.522	551.082	0.060	0.143
-490.508	441.443	-0.022	-0.047
-489.493	573.851	-0.071	-0.172
-488.478	126.896	0.125	-0.158
-487.464	-6.622	-0.206	0.140
-486.449	-143.213	-0.357	0.034
-485.435	9.752	0.019	-0.015
-484.420	4.869	0.110	0.081
-483.405	357.553	0.057	-0.113
-482.391	-28.201	0.223	0.129
-481.376	-69.043	0.154	0.059
-480.362	-200.000	0.004	-0.223
-479.347	237.301	0.211	0.349
-478.332	96.876	-0.252	0.289
-477.318	556.456	-0.083	-0.200
-476.303	-200.000	0.037	0.310
-475.289	33.372	-0.090	-0.078
-474.274	800.000	0.085	-0.308
-473.259	42.033	0.153	-0.139
-472.245	800.000	-0.111	-0.431
-471.230	50.859	0.125	-0.118
-470.216	18.479	0.113	-0.090
-469.201	800.000	-0.121	0.410
-468.186	43.145	-0.222	0.203
-467.172	170.598	-0.097	0.139
-466.157	-200.000	-0.044	0.323
-465.143	-200.000	0.017	-0.105
-464.128	-81.191	-0.286	-0.094
-463.113	184.394	0.158	0.234
-462.099	13.901	0.192	-0.149
-461.084	-8.861	0.208	-0.139
-460.070	-200.000	-0.067	0.306
-459.055	-200.000	-0.011	0.061
-458.040	-33.689	0.132	0.073
-457.026	-200.000	0.007	-0.112
-456.011	20.324	0.153	0.123
-454.997	11.076	-0.285	0.217
-453.982	4.115	0.128	0.094
-452.968	-200.000	-0.034	-0.365
-451.953	96.537	0.190	-0.217
-450.938	-46.634	-0.098	-0.048
-449.924	-200.000	0.045	-0.362
-448.909	-200.000	0.009	0.157
-447.895	304.968	0.258	-0.478
-446.880	-170.169	-0.036	-0.001
-445.865	-58.604	0.421	-0.182
-444.851	53.411	0.077	-0.073
-443.836	204.340	-0.184	0.285
-442.822	88.585	0.266	0.295
-441.807	800.000	0.039	0.111
-440.792	-73.684	-0.313	0.114
-439.778	-200.000	0.010	-0.084
-438.763	762.803	0.038	0.104
-437.749	800.000	-0.150	-0.507
-436.734	234.591	-0.058	-0.095
-435.719	-200.000	-0.033	0.179
-434.705	-200.000	0.052	-0.464
-433.690	49.473	-0.082	-0.077
-432.676	560.053	0.133	-0.320
-431.661	-131.581	0.054	0.007
-430.646	-173.406	-0.179	0.005
-429.632	-156.310	0.518	-0.032
-428.617	18.482	-0.120	0.096
-427.603	148.023	-0.047	-0.063
-426.588	800.000	0.090	-0.247
-425.573	-147.766	-0.098	0.008
-424.559	182.538	0.080	0.118
-423.544	800.000	0.062	0.238
-422.530	-200.000	0.006	0.148
-421.515	800.000	0.039	0.170
-420.500	316.143	-0.078	0.146
-419.486	-200.000	0.000	-0.160
-418.471	-26.551	0.168	0.098
-417.457	190.572	0.123	0.184
-416.442	131.599	-0.092	0.118
-415.428	-57.880	0.013	0.006
-414.413	-68.550	0.033	0.013
-413.398	95.268	-0.064	0.072
-412.384	-75.969	0.318	-0.112
-411.369	-200.000	-0.010	0.192
-410.355	-107.171	-0.262	-0.057
-409.340	71.842	-0.026	-0.026
-408.325	-56.116	0.206	0.091
-407.311	-91.418	0.385	-0.109
-406.296	34.427	-0.178	0.155
-405.282	21.353	-0.140	0.113
-404.267	-94.977	-0.117	0.031
-403.252	-72.609	-0.365	0.134
-402.238	-142.835	0.367	-0.036
-401.223	485.655	0.071	-0.162
-400.209	119.964	0.149	-0.184
-399.194	-200.000	-0.048	0.368
-398.179	-200.000	-0.052	0.325
-397.165	-29.203	-0.273	-0.156
-396.150	214.485	-0.098	0.155
-395.136	-25.714	-0.116	-0.068
-394.121	-200.000	-0.001	0.243
-393.106	83.019	0.097	-0.105
-392.092	124.898	-0.051	-0.064
-391.077	-10.085	-0.066	0.044
-390.063	568.911	0.078	-0.188
-389.048	800.000	0.056	0.194
-388.033	800.000	-0.052	0.166
-387.019	62.639	0.177	0.176
-386.004	5.210	-0.199	-0.146
-384.990	-50.314	0.238	0.112
-383.975	105.208	0.146	0.172
-382.960	-200.000	-0.246	-0.000
-381.946	-200.000	-0.095	-0.503
-380.931	608.829	0.048	0.118
-379.917	-200.000	-0.056	0.400
-378.902	-53.879	0.133	0.060
-377.888	-72.264	-0.191	0.070
-376.873	41.533	0.353	-0.318
-375.858	109.609	0.094	-0.112
-374.844	642.665	0.071	0.179
-373.829	-65.992	-0.168	0.067
-372.815	-200.000	-0.009	0.202
-371.800	-120.738	-0.349	-0.059
-370.785	33.562	-0.178	0.154
-369.771	-102.498	0.190	-0.045
-368.756	89.569	0.084	-0.093
-367.742	169.204	0.132	-0.187
-366.727	-137.362	-0.485	0.055
-365.712	-200.000	0.013	-0.126
-364.698	-100.949	0.404	0.099
-363.683	-101.914	-0.229	0.055
-362.669	480.904	-0.099	-0.223
-361.654	-200.000	-0.010	0.490
-360.639	-200.000	-0.016	0.338
-359.625	-200.000	-0.047	0.326
-358.610	191.750	0.086	0.129
-357.596	800.000	0.047	-0.170
-356.581	800.000	0.049	-0.208
-355.566	-21.362	0.222	0.135
-354.552	45.414	-0.197	-0.181
-353.537	-200.000	0.004	-0.036
-352.523	-200.000	-0.031	-0.216
-351.508	-200.000	-0.027	-0.177
-350.493	-4.768	0.093	-0.064
-349.479	800.000	0.019	-0.084
-348.464	-157.593	0.183	-0.011
-347.450	-200.000	0.009	-0.150
-346.435	-90.830	0.294	0.084
-345.420	16.288	-0.158	-0.124
-344.406	-200.000	0.002	-0.169
-343.391	-200.000	0.004	0.128
-342.377	800.000	-0.047	-0.204
-341.362	-137.744	0.369	-0.041
-340.348	-58.218	0.412	0.178
-339.333	153.778	-0.209	0.284
-338.318	62.678	0.068	0.067
-337.304	267.400	-0.111	0.193
-336.289	800.000	0.060	0.172
-335.275	-121.097	0.237	0.039
-334.260	-89.509	0.396	0.116
-333.245	-89.833	0.067	-0.020
-332.231	800.000	-0.031	-0.103
-331.216	800.000	0.015	-0.053
-330.202	342.226	0.055	0.106
-329.187	276.839	-0.049	-0.086
-328.172	195.917	0.107	-0.161
-327.158	800.000	-0.073	-0.268
-326.143	319.882	0.049	-0.092
-325.129	-30.078	0.142	-0.080
-324.114	-54.254	0.194	-0.088
-323.099	135.128	-0.030	0.039
-322.085	800.000	0.091	0.372
-321.070	-175.660	-0.369	-0.010
-320.056	800.000	0.036	-0.152
-319.041	-24.541	0.136	0.080
-318.026	-122.855	0.325	0.052
-317.012	-101.149	-0.232	-0.056
-315.997	34.373	-0.133	-0.115
-314.983	-42.201	-0.030	0.015
-313.968	-65.825	-0.286	-0.114
-312.953	301.090	0.168	-0.308
-311.939	-52.622	-0.261	-0.119
-310.924	-200.000	0.010	-0.222
-309.910	49.309	0.195	-0.182
-308.895	47.545	-0.170	0.157
-307.880	352.078	0.135	0.265
-306.866	83.953	-0.121	-0.131
-305.851	-81.106	0.272	-0.089
-304.837	-200.000	-0.030	-0.141
-303.822	-140.593	-0.299	0.031
-302.807	-200.000	-0.059	-0.284
-301.793	800.000	-0.013	0.036
-300.778	-91.621	0.394	-0.111
-299.764	-200.000	0.025	-0.170
-298.749	182.275	0.106	0.155
-297.735	-144.506	-0.061	0.006
-296.720	-1.233	-0.080	-0.056
-295.705	-200.000	-0.031	0.153
-294.691	-147.334	0.107	-0.009
-293.676	66.942	0.088	0.089
-292.662	211.096	-0.076	0.118
-291.647	120.313	-0.087	0.108
-290.632	87.963	0.148	0.163
-289.618	-200.000	-0.003	-0.068
-288.603	179.098	0.043	-0.063
-287.589	-200.000	-0.003	0.164
-286.574	-39.755	0.078	-0.040
-285.559	-200.000	0.172	0.000
-284.545	224.898	-0.101	0.161
-283.530	-174.218	0.268	0.008
-282.516	-200.000	-0.035	0.358
-281.501	-27.413	-0.255	0.147
-280.486	153.197	0.153	-0.208
-279.472	711.179	-0.141	-0.369
-278.457	-52.116	0.302	-0.139
-277.443	102.582	-0.235	-0.273
-276.428	-200.000	-0.021	-0.112
-275.413	0.994	0.053	-0.038
-274.399	89.285	0.116	-0.128
-273.384	800.000	0.039	0.130
-272.370	800.000	0.021	-0.062
-271.355	-56.118	-0.080	-0.036
-270.340	-179.955	-0.215	-0.005
-269.326	53.470	0.250	-0.237
-268.311	-21.710	0.145	0.088
-267.297	800.000	-0.028	0.089
-266.282	191.731	0.161	-0.241
-265.267	-24.243	-0.369	-0.218
-264.253	124.588	-0.047	0.058
-263.238	-57.699	-0.186	-0.081
-262.224	-96.326	-0.115	0.030
-261.209	49.194	-0.375	-0.349
-260.195	-200.000	-0.088	0.398
-259.180	63.499	0.399	0.396
-258.165	-4.189	-0.270	0.185
-257.151	-66.876	-0.249	0.097
-256.136	-132.659	0.247	0.031
-255.122	198.973	0.170	0.257
-254.107	32.542	0.168	-0.144
-253.092	-130.759	0.302	-0.040
-252.078	523.133	0.033	0.077
-251.063	-44.387	0.175	0.087
-250.049	768.535	-0.147	-0.397
-249.034	-23.922	0.183	0.108
-248.019	-111.199	0.302	0.061
-247.005	800.000	0.032	0.127
-245.990	-200.000	-0.074	-0.328
-244.976	-200.000	0.008	-0.163
-243.961	-1.029	-0.176	-0.124
-242.946	155.516	0.110	-0.150
-241.932	-180.402	0.414	0.009
-240.917	47.694	-0.175	0.161
-239.903	-91.197	0.350	0.099
-238.888	-43.363	0.042	-0.021
-237.873	-154.275	-0.288	0.019
-236.859	344.472	0.154	0.300
-235.844	530.054	-0.138	0.322
-234.830	98.283	0.070	-0.080
-233.815	-200.000	0.006	0.079
-232.800	-10.899	0.275	-0.180
-231.786	-200.000	0.026	0.379
-230.771	-105.050	0.119	0.027
-229.757	-120.438	0.389	0.065
-228.742	104.988	-0.070	-0.081
-227.727	-51.591	0.208	-0.096
-226.713	-129.052	0.071	0.010
-225.698	-19.100	0.171	-0.105
-224.684	74.277	0.284	-0.295
-223.669	-168.120	0.172	-0.007
-222.655	136.564	-0.283	0.366
-221.640	198.272	-0.010	-0.016
-220.625	-159.462	-0.149	-0.008
-219.611	-138.808	0.137	0.015
-218.596	800.000	-0.040	-0.145
-217.582	138.645	-0.265	-0.345
-216.567	124.344	0.154	-0.191
-215.552	71.459	-0.195	0.200
-214.538	283.334	0.129	-0.229
-213.523	800.000	0.040	-0.171
-212.509	-88.046	-0.225	-0.067
-211.494	88.862	-0.311	-0.342
-210.479	-37.877	-0.285	0.150
-209.465	-200.000	0.021	-0.235
-208.450	33.772	0.272	0.234
-207.436	109.679	0.139	0.164
-206.421	-15.826	-0.213	0.134
-205.406	-10.649	0.217	0.142
-204.392	-26.571	-0.133	0.077
-203.377	180.869	0.047	0.068
-202.363	-200.000	0.018	0.158
-201.348	-48.407	-0.293	0.139
-200.333	-89.010	-0.365	-0.107
-199.319	104.368	-0.232	-0.269
-198.304	-68.845	-0.195	0.074
-197.290	-200.000	0.016	-0.285
-196.275	363.100	-0.045	-0.090
-195.260	-168.627	-0.105	-0.004
-194.246	-51.112	-0.229	-0.106
-193.231	249.784	0.148	0.248
-192.217	-200.000	-0.037	-0.294
-191.202	-153.663	-0.110	0.007
-190.187	303.932	-0.108	0.198
-189.173	92.262	-0.147	-0.164
-188.158	-200.000	-0.010	-0.311
-187.144	-200.000	-0.020	0.281
-186.129	263.194	0.174	0.298
-185.114	-200.000	-0.011	0.179
-184.100	-123.401	-0.172	-0.027
-183.085	-200.000	0.043	-0.421
-182.071	31.629	0.160	-0.136
-181.056	4.950	-0.210	-0.153
-180.042	-200.000	0.039	-0.212
-179.027	-200.000	-0.006	0.189
-178.012	-182.771	-0.274	0.005
-176.998	-146.658	-0.275	-0.024
-175.983	250.486	-0.124	-0.208
-174.969	-78.335	-0.513	-0.174
-173.954	-166.100	-0.177	-0.007
-172.939	800.000	-0.023	0.075
-171.925	-200.000	-0.012	-0.255
-170.910	-200.000	0.005	0.127
-169.896	-200.000	-0.037	0.216
-168.881	-200.000	-0.003	-0.042
-167.866	-98.444	0.289	0.073
-166.852	192.105	0.066	0.098
-165.837	800.000	0.041	0.113
-164.823	258.598	0.122	0.207
-163.808	800.000	0.029	0.103
-162.793	-64.222	0.040	-0.016
-161.779	-200.000	-0.018	-0.123
-160.764	505.753	-0.144	-0.330
-159.750	37.103	-0.082	0.072
-158.735	-200.000	-0.003	-0.038
-157.720	321.782	-0.117	0.219
-156.706	423.282	0.157	0.333
-155.691	-11.798	-0.138	0.089
-154.677	87.970	0.231	0.252
-153.662	-200.000	-0.021	-0.170
-152.647	-56.425	0.164	-0.072
-151.633	19.832	-0.105	0.084
-150.618	-200.000	0.003	0.038
-149.604	626.658	-0.073	0.181
-148.589	-26.314	-0.097	-0.056
-147.574	800.000	0.067	-0.262
-146.560	-49.679	-0.105	0.049
-145.545	-136.713	-0.070	0.008
-144.531	-88.231	0.197	0.058
-143.516	465.525	0.104	0.230
-142.502	423.960	-0.103	0.218
-141.487	-156.451	-0.348	0.021
-140.472	31.376	0.367	-0.311
-139.458	800.000	-0.107	-0.344
-138.443	207.501	-0.067	0.103
-137.429	22.459	0.309	0.249
-136.414	69.079	-0.064	0.065
-135.399	187.544	-0.058	0.085
-134.385	177.941	0.119	0.171
-133.370	110.473	-0.150	0.177
-132.356	-2.740	0.030	-0.021
-131.341	-200.000	0.009	0.098
-130.326	327.269	0.151	0.286
-129.312	800.000	-0.025	0.090
-128.297	104.276	0.025	-0.029
-127.283	58.060	0.220	0.213
-126.268	-99.353	-0.420	0.104
-125.253	158.227	0.085	0.116
-124.239	-42.611	-0.242	0.121
-123.224	150.130	0.041	0.055
-122.210	72.065	0.185	0.189
-121.195	40.600	-0.040	0.035
