DTS Sentinel unit serial number:	SN413079Multiplexer serial number:	ORYXHardware model number:	OX4-SRSoftware version number:	ORYX F/W v4.00 Oryx Data Collector v3.7.2.0data status	okinstallation	princeton_trtdifferential loss correction	single-endedforward channel	channel 1reverse channel	N/Adate	2019/09/17time	11:06:35forward acquisition time	60.00reverse acquisition time	0.00gamma	496.2192k internal	0.2323k external	0.2323temperature offset calibration	0.9962default loss term (dB/km)	0.3790temperature slope calibration	1.0000multiplexer offset coefficient	1.0000multiplexer slope coefficient	1.0000fibre end	0.00T internal ref (°C)	30.39T ext. ref 1 (°C)	0.23T ext. ref 2 (°C)	26.02length (m)	temperature (°C)	Stokes	anti-Stokes-747.200	553.173	0.093	0.226
-746.185	-200.000	-0.026	0.195
-745.171	800.000	0.070	0.199
-744.156	800.000	-0.068	0.255
-743.142	-200.000	0.047	0.247
-742.127	-17.484	-0.135	0.086
-741.112	38.759	0.358	0.323
-740.098	162.569	-0.141	0.200
-739.083	-90.042	-0.382	0.112
-738.069	-200.000	-0.035	0.447
-737.054	-158.502	0.118	0.007
-736.039	800.000	-0.134	-0.534
-735.025	-143.801	0.130	0.012
-734.010	24.382	-0.176	-0.147
-732.996	6.889	0.164	0.123
-731.981	-200.000	0.008	0.133
-730.966	800.000	-0.189	-0.539
-729.952	172.394	-0.101	-0.146
-728.937	-60.598	0.274	-0.117
-727.923	-200.000	-0.041	-0.213
-726.908	800.000	-0.095	0.272
-725.894	718.786	-0.045	0.120
-724.879	-97.366	-0.073	0.019
-723.864	-186.667	-0.155	0.002
-722.850	-74.436	-0.198	-0.072
-721.835	21.852	-0.175	0.144
-720.821	-58.573	-0.192	-0.084
-719.806	130.562	0.093	0.120
-718.791	291.082	0.100	0.183
-717.777	-78.229	-0.399	-0.138
-716.762	-200.000	-0.076	-0.362
-715.748	-6.616	0.199	-0.137
-714.733	-87.638	-0.342	-0.104
-713.718	-22.212	0.084	0.052
-712.704	343.348	-0.063	0.125
-711.689	263.022	0.084	-0.147
-710.675	-200.000	-0.025	-0.310
-709.660	-200.000	-0.256	0.000
-708.645	800.000	0.065	-0.191
-707.631	-200.000	-0.022	0.118
-706.616	-200.000	-0.006	-0.034
-705.602	-87.659	0.203	-0.062
-704.587	218.840	-0.219	-0.352
-703.572	651.170	-0.058	-0.151
-702.558	35.361	-0.035	-0.031
-701.543	193.128	0.207	-0.316
-700.529	800.000	-0.043	-0.129
-699.514	23.959	-0.202	-0.168
-698.499	-81.089	0.085	-0.028
-697.485	32.228	-0.058	0.051
-696.470	111.336	-0.223	-0.271
-695.456	-165.029	-0.302	-0.014
-694.441	23.155	-0.230	0.190
-693.426	-42.325	0.188	0.096
-692.412	-182.148	-0.310	0.006
-691.397	-183.319	0.212	-0.004
-690.383	-200.000	0.045	0.205
-689.368	135.030	-0.360	-0.471
-688.354	-17.375	-0.062	-0.039
-687.339	-200.000	0.012	-0.268
-686.324	556.336	0.044	-0.106
-685.310	-200.000	-0.020	-0.114
-684.295	38.395	-0.262	-0.235
-683.281	-0.648	0.143	-0.102
-682.266	800.000	-0.090	-0.254
-681.251	-200.000	0.022	0.106
-680.237	336.730	-0.137	0.268
-679.222	800.000	0.078	0.292
-678.208	-119.979	-0.413	0.071
-677.193	-13.823	-0.121	-0.079
-676.178	147.967	-0.259	-0.352
-675.164	-88.862	0.277	-0.083
-674.149	-153.421	-0.298	0.021
-673.135	-9.170	-0.110	-0.074
-672.120	-144.569	0.172	-0.016
-671.105	-106.409	-0.377	-0.085
-670.091	30.403	-0.220	-0.189
-669.076	-200.000	-0.019	-0.148
-668.062	-36.129	0.269	-0.146
-667.047	77.696	0.127	-0.137
-666.032	-113.179	0.300	0.059
-665.018	525.405	0.034	0.080
-664.003	474.144	0.063	-0.143
-662.989	140.359	-0.203	0.270
-661.974	296.023	-0.214	-0.395
-660.959	-37.578	0.224	0.120
-659.945	-63.448	-0.406	0.168
-658.930	177.449	-0.152	-0.222
-657.916	473.864	0.166	-0.377
-656.901	-37.658	-0.155	0.083
-655.886	800.000	-0.041	0.176
-654.872	-193.532	-0.221	0.002
-653.857	467.191	0.143	-0.322
-652.843	-35.345	-0.055	-0.030
-651.828	330.636	-0.176	-0.342
-650.814	105.774	-0.077	-0.092
-649.799	-74.249	0.416	-0.152
-648.784	713.265	0.022	-0.059
-647.770	800.000	0.095	-0.318
-646.755	-26.198	-0.071	-0.042
-645.741	-200.000	0.003	0.289
-644.726	800.000	-0.012	-0.034
-643.711	395.710	0.105	-0.221
-642.697	-200.000	-0.001	0.139
-641.682	800.000	0.071	0.236
-640.668	-200.000	-0.017	0.298
-639.653	250.813	-0.095	-0.163
-638.638	463.150	0.022	0.049
-637.624	256.198	-0.006	-0.010
-636.609	-33.430	-0.023	0.013
-635.595	36.824	0.133	-0.118
-634.580	-200.000	-0.006	-0.055
-633.565	-18.242	-0.458	0.288
-632.551	85.603	0.127	0.141
-631.536	-200.000	0.000	0.043
-630.522	38.453	0.109	0.098
-629.507	422.778	0.007	0.014
-628.492	334.463	-0.075	-0.146
-627.478	-200.000	0.052	-0.281
-626.463	24.695	-0.204	0.170
-625.449	-171.942	-0.388	-0.013
-624.434	358.545	0.149	0.300
-623.419	-104.458	-0.387	-0.090
-622.405	-69.658	0.159	0.061
-621.390	800.000	-0.141	0.579
-620.376	-5.150	-0.228	0.157
-619.361	98.397	0.112	-0.130
-618.346	19.092	-0.198	-0.160
-617.332	-52.257	-0.128	-0.059
-616.317	745.808	0.201	0.543
-615.303	51.659	0.279	0.267
-614.288	-200.000	-0.002	-0.072
-613.273	-88.551	0.300	-0.090
-612.259	68.354	0.206	0.212
-611.244	413.745	0.090	-0.192
-610.230	659.262	-0.075	-0.193
-609.215	-65.614	-0.291	-0.117
-608.201	-200.000	-0.011	0.268
-607.186	527.511	-0.053	-0.126
-606.171	191.153	0.066	-0.100
-605.157	-55.030	-0.374	0.169
-604.142	-200.000	-0.029	-0.177
-603.128	-94.540	-0.056	0.015
-602.113	-4.153	0.075	0.052
-601.098	-42.543	-0.269	0.137
-600.084	54.533	-0.149	0.144
-599.069	32.406	-0.151	0.131
-598.055	-200.000	0.047	0.241
-597.040	-200.000	0.032	0.220
-596.025	800.000	-0.018	-0.061
-595.011	-200.000	-0.058	0.307
-593.996	268.739	-0.074	-0.130
-592.982	-42.995	0.157	-0.080
-591.967	-131.472	-0.277	0.037
-590.952	115.877	-0.100	-0.123
-589.938	-89.351	0.124	0.037
-588.923	-154.387	0.129	0.009
-587.909	-115.617	0.406	0.077
-586.894	-106.364	-0.240	-0.054
-585.879	785.718	0.089	0.246
-584.865	108.898	-0.122	0.146
-583.850	-200.000	-0.015	-0.207
-582.836	179.315	0.244	0.359
-581.821	72.003	0.154	0.161
-580.806	-200.000	0.018	-0.166
-579.792	-200.000	-0.020	-0.248
-578.777	800.000	0.010	0.042
-577.763	312.968	-0.221	0.416
-576.748	-24.973	-0.203	-0.121
-575.733	-84.209	-0.137	0.044
-574.719	208.919	-0.100	-0.156
-573.704	-97.583	-0.016	-0.004
-572.690	-67.979	-0.354	-0.139
-571.675	124.667	0.160	0.203
-570.661	-50.119	-0.419	0.199
-569.646	335.406	0.101	-0.197
-568.631	-105.722	0.227	-0.051
-567.617	136.081	-0.248	0.325
-566.602	-34.662	0.301	0.165
-565.588	800.000	0.055	-0.180
-564.573	226.554	-0.119	0.194
-563.558	405.373	0.158	0.334
-562.544	83.180	-0.278	0.304
-561.529	-18.293	0.325	-0.204
-560.515	-159.298	0.052	0.003
-559.500	-150.806	-0.211	-0.016
-558.485	-4.512	-0.129	-0.089
-557.471	115.020	0.292	0.358
-556.456	-200.000	-0.054	0.403
-555.442	-89.383	-0.239	0.071
-554.427	-200.000	-0.025	-0.303
-553.412	800.000	-0.054	-0.150
-552.398	-200.000	0.006	0.039
-551.383	-115.271	-0.151	-0.029
-550.369	63.957	-0.262	0.264
-549.354	65.339	0.012	-0.013
-548.339	-120.179	0.201	-0.034
-547.325	-65.643	-0.204	-0.082
-546.310	-78.348	-0.150	-0.051
-545.296	800.000	0.074	0.216
-544.281	-132.640	0.021	0.003
-543.266	18.618	-0.184	0.148
-542.252	-55.299	0.146	-0.066
-541.237	-72.655	0.330	-0.122
-540.223	-86.485	-0.268	0.082
-539.208	-29.362	-0.030	-0.017
-538.193	-200.000	-0.036	-0.202
-537.179	-200.000	-0.010	0.181
-536.164	-200.000	0.030	-0.278
-535.150	-33.334	0.119	0.066
-534.135	-144.038	-0.173	0.016
-533.121	800.000	-0.067	-0.188
-532.106	-200.000	-0.025	0.231
-531.091	-111.886	-0.109	0.022
-530.077	-200.000	0.038	-0.188
-529.062	58.764	-0.203	-0.200
-528.048	-32.768	0.264	0.147
-527.033	-85.362	0.546	-0.171
-526.018	170.859	0.174	0.250
-525.004	414.329	-0.111	0.237
-523.989	-200.000	0.048	0.255
-522.975	-43.022	0.207	0.105
-521.960	-79.370	-0.024	0.008
-520.945	91.628	-0.240	-0.270
-519.931	800.000	-0.077	-0.333
-518.916	-200.000	-0.021	0.165
-517.902	34.506	0.393	0.343
-516.887	35.137	-0.187	0.164
-515.872	-78.463	0.179	0.061
-514.858	-49.737	0.183	-0.087
-513.843	-200.000	-0.035	-0.244
-512.829	-74.015	0.170	0.062
-511.814	101.066	0.101	-0.117
-510.799	303.733	0.228	-0.424
-509.785	-200.000	0.025	-0.383
-508.770	213.109	-0.176	-0.278
-507.756	-200.000	0.030	0.263
-506.741	164.974	-0.079	-0.111
-505.726	-80.396	0.151	-0.051
-504.712	282.127	-0.008	-0.014
-503.697	79.524	-0.153	-0.164
-502.683	-200.000	-0.018	-0.178
-501.668	-71.299	0.221	-0.083
-500.653	-42.530	-0.181	0.092
-499.639	-200.000	-0.021	-0.114
-498.624	-200.000	-0.002	0.156
-497.610	751.989	-0.095	-0.256
-496.595	278.355	-0.076	-0.136
-495.581	28.618	-0.053	-0.044
-494.566	800.000	-0.038	0.106
-493.551	-200.000	-0.007	-0.334
-492.537	-200.000	-0.002	-0.203
-491.522	24.643	-0.109	0.090
-490.508	223.709	0.045	-0.072
-489.493	-200.000	0.030	-0.231
-488.478	86.328	0.093	0.103
-487.464	58.684	-0.052	0.051
-486.449	-200.000	-0.060	-0.386
-485.435	800.000	-0.078	0.332
-484.420	122.274	0.110	-0.137
-483.405	68.034	-0.179	-0.183
-482.391	30.055	0.049	0.042
-481.376	363.751	0.019	0.037
-480.362	-124.445	0.316	-0.049
-479.347	356.740	-0.133	0.266
-478.332	-127.936	0.417	-0.060
-477.318	-84.334	0.202	-0.064
-476.303	20.237	0.068	-0.055
-475.289	330.581	0.172	-0.330
-474.274	-172.100	0.234	0.008
-473.259	-178.940	0.339	0.008
-472.245	-147.442	0.286	0.024
-471.230	278.275	-0.096	0.171
-470.216	205.375	0.069	-0.107
-469.201	318.424	0.058	-0.109
-468.186	-25.880	-0.035	-0.020
-467.172	-63.376	0.151	0.062
-466.157	800.000	-0.087	0.349
-465.143	-200.000	0.022	-0.096
-464.128	-88.554	0.281	0.084
-463.113	-125.547	-0.097	0.015
-462.099	-200.000	-0.010	0.234
-461.084	-114.580	0.083	-0.016
-460.070	-108.963	-0.219	0.047
-459.055	307.575	0.102	0.190
-458.040	-137.442	-0.419	0.047
-457.026	34.980	0.190	-0.166
-456.011	-200.000	0.014	-0.203
-454.997	-15.990	-0.171	0.108
-453.982	31.045	0.300	-0.257
-452.968	-95.518	-0.213	-0.057
-451.953	68.351	0.180	0.184
-450.938	-200.000	-0.043	-0.214
-449.924	-200.000	0.007	-0.242
-448.909	60.643	0.215	0.213
-447.895	-200.000	-0.016	0.186
-446.880	800.000	0.067	0.204
-445.865	-200.000	0.053	0.436
-444.851	346.476	-0.107	-0.210
-443.836	800.000	-0.065	-0.266
-442.822	-37.638	0.263	0.140
-441.807	-79.042	0.145	-0.049
-440.792	43.433	-0.046	0.042
-439.778	701.861	-0.130	0.341
-438.763	-26.564	0.086	0.050
-437.749	-94.867	0.088	-0.024
-436.734	-32.993	-0.337	-0.187
-435.719	-200.000	-0.011	-0.285
-434.705	-16.967	-0.110	-0.069
-433.690	-104.834	0.017	-0.004
-432.676	69.571	-0.106	0.109
-431.661	34.194	0.143	0.124
-430.646	-200.000	-0.002	0.171
-429.632	198.632	-0.187	0.286
-428.617	-14.517	0.245	0.157
-427.603	-59.717	-0.095	-0.041
-426.588	-200.000	-0.023	-0.343
-425.573	79.417	0.147	-0.158
-424.559	36.325	0.116	0.102
-423.544	-81.813	0.204	0.067
-422.530	-113.096	0.146	-0.029
-421.515	83.764	0.034	-0.037
-420.500	615.678	0.064	-0.161
-419.486	257.816	0.204	-0.350
-418.471	-47.097	0.143	0.070
-417.457	-160.060	-0.241	-0.013
-416.442	-200.000	0.036	0.301
-415.428	125.512	-0.231	-0.290
-414.413	-103.489	-0.239	-0.056
-413.398	-141.880	-0.387	0.039
-412.384	-139.018	-0.216	0.023
-411.369	-95.223	0.255	0.068
-410.355	800.000	-0.041	-0.138
-409.340	-39.721	-0.342	0.178
-408.325	-32.285	0.130	0.072
-407.311	-200.000	0.009	0.092
-406.296	-92.918	-0.289	-0.080
-405.282	-143.418	-0.094	-0.009
-404.267	39.499	0.104	-0.093
-403.252	-135.693	-0.130	-0.015
-402.238	-200.000	-0.038	0.329
-401.223	-54.702	-0.163	0.074
-400.209	-7.628	-0.027	-0.018
-399.194	320.589	0.066	-0.125
-398.179	-200.000	0.014	-0.398
-397.165	13.198	-0.239	0.184
-396.150	245.161	0.204	0.341
-395.136	109.824	-0.192	0.229
-394.121	-11.484	-0.096	-0.063
-393.106	-200.000	0.035	0.249
-392.092	-200.000	0.101	0.676
-391.077	33.515	0.169	0.146
-390.063	29.845	-0.099	0.084
-389.048	77.576	-0.096	-0.102
-388.033	-175.849	0.114	0.003
-387.019	145.340	0.107	0.143
-386.004	41.165	0.053	0.048
-384.990	800.000	0.038	-0.108
-383.975	101.186	0.024	-0.027
-382.960	-117.092	-0.394	0.072
-381.946	567.683	0.065	0.157
-380.931	-145.213	-0.403	-0.036
-379.917	114.757	0.040	0.048
-378.902	251.982	0.249	0.422
-377.888	-33.207	-0.391	-0.216
-376.873	-150.862	0.221	-0.017
-375.858	68.958	-0.096	-0.098
-374.844	-5.818	0.137	-0.094
-373.829	-7.567	0.533	0.359
-372.815	62.252	-0.159	0.158
-371.800	-200.000	0.002	0.199
-370.785	-180.128	-0.077	0.002
-369.771	223.936	0.043	0.070
-368.756	-97.518	-0.219	-0.057
-367.742	-49.916	0.449	0.212
-366.727	49.918	-0.075	0.071
-365.712	-197.280	0.083	0.001
-364.698	526.891	-0.216	-0.506
-363.683	-200.000	-0.016	-0.266
-362.669	-200.000	-0.048	0.246
-361.654	56.283	0.039	-0.037
-360.639	-200.000	0.003	-0.106
-359.625	-88.642	0.345	0.102
-358.610	-126.004	-0.262	-0.039
-357.596	-37.520	-0.063	-0.034
-356.581	1.787	-0.133	0.096
-355.566	0.058	-0.068	0.048
-354.552	-96.572	0.146	-0.038
-353.537	-158.750	0.434	-0.025
-352.523	57.567	0.126	-0.123
-351.508	800.000	0.016	0.066
-350.493	237.953	0.046	0.076
-349.479	800.000	0.090	0.266
-348.464	-34.923	0.235	-0.128
-347.450	670.024	0.044	-0.113
-346.435	800.000	-0.053	-0.172
-345.420	-200.000	-0.017	0.351
-344.406	219.887	0.140	-0.223
-343.391	800.000	0.081	0.272
-342.377	13.705	0.140	0.108
-341.362	104.317	0.127	-0.149
-340.348	800.000	-0.123	-0.493
-339.333	-200.000	-0.003	0.093
-338.318	-111.325	-0.105	0.021
-337.304	-150.296	0.264	-0.020
-336.289	-170.118	-0.089	-0.003
-335.275	320.981	0.041	-0.078
-334.260	458.603	0.123	0.271
-333.245	52.995	-0.050	-0.047
-332.231	800.000	0.100	-0.281
-331.216	-45.474	-0.077	0.038
-330.202	235.148	0.066	0.108
-329.187	769.228	0.011	-0.029
-328.172	-43.303	-0.175	-0.088
-327.158	30.773	0.130	-0.111
-326.143	-101.465	0.290	-0.070
-325.129	-112.599	0.166	0.033
-324.114	531.882	-0.107	0.252
-323.099	-200.000	-0.032	0.173
-322.085	634.798	-0.071	-0.178
-321.070	136.860	-0.098	-0.127
-320.056	-68.815	0.136	-0.052
-319.041	658.661	-0.047	-0.119
-318.026	-200.000	-0.075	-0.333
-317.012	-93.979	0.176	0.048
-315.997	-71.390	0.258	0.096
-314.983	-131.588	-0.177	0.023
-313.968	21.801	-0.057	-0.046
-312.953	-51.444	-0.258	0.120
-311.939	-73.299	-0.068	-0.025
-310.924	-42.501	-0.088	0.044
-309.910	391.213	-0.027	-0.055
-308.895	-97.247	-0.239	0.062
-307.880	-200.000	0.056	0.300
-306.866	800.000	0.051	0.163
-305.851	-200.000	-0.035	-0.189
-304.837	2.488	0.191	0.137
-303.822	-150.940	-0.170	0.013
-302.807	-9.451	0.330	0.219
-301.793	-51.463	-0.424	-0.196
-300.778	60.290	-0.266	-0.261
-299.764	-174.615	0.215	0.006
-298.749	71.481	0.172	0.178
-297.735	-60.869	0.220	-0.093
-296.720	-160.892	-0.243	0.013
-295.705	61.871	-0.068	0.067
-294.691	-164.904	0.299	-0.013
-293.676	-136.492	-0.240	0.028
-292.662	162.409	-0.009	-0.012
-291.647	-200.000	0.004	0.082
-290.632	-153.218	-0.230	-0.016
-289.618	-115.380	0.085	0.016
-288.603	133.725	-0.037	-0.047
-287.589	-200.000	-0.013	-0.084
-286.574	-200.000	0.004	-0.110
-285.559	198.032	-0.120	-0.181
-284.545	-73.123	-0.218	-0.079
-283.530	100.480	-0.195	-0.225
-282.516	25.893	0.149	-0.123
-281.501	-98.422	0.024	-0.006
-280.486	12.909	0.158	-0.121
-279.472	-24.438	0.217	-0.128
-278.457	-200.000	-0.029	-0.158
-277.443	-133.582	-0.173	0.022
-276.428	-200.000	-0.054	-0.330
-275.413	-200.000	0.016	-0.129
-274.399	-58.839	-0.316	0.136
-273.384	56.853	0.165	0.160
-272.370	-200.000	0.023	-0.129
-271.355	-63.272	-0.228	-0.093
-270.340	800.000	0.042	-0.182
-269.326	800.000	-0.090	0.335
-268.311	-79.915	-0.090	-0.030
-267.297	-200.000	-0.028	0.272
-266.282	-35.026	0.093	0.050
-265.267	-200.000	-0.073	-0.402
-264.253	532.788	-0.075	-0.176
-263.238	26.410	-0.264	-0.219
-262.224	-77.135	-0.216	0.075
-261.209	30.548	-0.202	0.171
-260.195	-200.000	-0.057	-0.269
-259.180	-76.528	0.150	0.052
-258.165	-200.000	0.010	0.185
-257.151	800.000	0.063	-0.174
-256.136	658.573	-0.019	-0.050
-255.122	33.102	0.151	0.129
-254.107	-131.606	-0.102	0.013
-253.092	-142.885	-0.222	-0.021
-252.078	800.000	0.081	0.227
-251.063	-200.000	0.004	0.076
-250.049	-79.265	0.149	-0.050
-249.034	-123.393	-0.286	0.045
-248.019	800.000	0.021	0.068
-247.005	-129.263	0.095	0.013
-245.990	280.523	-0.118	-0.209
-244.976	-14.102	0.110	0.070
-243.961	200.549	-0.185	-0.282
-242.946	93.790	0.087	0.098
-241.932	-170.106	-0.268	0.009
-240.917	-200.000	0.032	-0.220
-239.903	-200.000	-0.013	0.117
-238.888	-200.000	0.033	0.443
-237.873	800.000	-0.087	-0.344
-236.859	271.742	-0.073	0.127
-235.844	-200.000	0.025	0.488
-234.830	697.166	-0.054	-0.141
-233.815	8.141	0.123	0.091
-232.800	175.254	0.090	-0.129
-231.786	-35.448	0.231	-0.124
-230.771	800.000	0.054	-0.177
-229.757	-44.781	0.037	0.018
-228.742	-200.000	0.025	0.184
-227.727	522.401	-0.029	-0.068
-226.713	-11.132	-0.128	0.084
-225.698	-111.306	-0.139	0.028
-224.684	-93.829	-0.232	0.063
-223.669	466.503	0.088	-0.195
-222.655	-101.188	0.221	0.053
-221.640	-28.986	0.089	0.051
-220.625	29.635	0.362	-0.304
-219.611	-125.667	-0.150	0.022
-218.596	-42.996	0.338	0.170
-217.582	-37.353	-0.316	-0.167
-216.567	-98.545	0.021	-0.005
-215.552	3.720	0.306	-0.221
-214.538	-49.431	-0.174	0.082
-213.523	-186.928	-0.168	0.002
-212.509	-158.482	-0.207	0.012
-211.494	-8.024	0.284	-0.190
-210.479	-157.212	-0.104	0.006
-209.465	70.848	-0.158	0.162
-208.450	159.358	-0.038	0.052
-207.436	83.288	0.163	0.175
-206.421	-58.830	0.247	0.106
-205.406	339.143	-0.128	-0.247
-204.392	-200.000	-0.026	-0.202
-203.377	-126.501	0.142	0.021
-202.363	198.547	0.213	-0.322
-201.348	-173.475	0.306	-0.009
-200.333	137.887	-0.116	-0.150
-199.319	49.513	-0.106	0.098
-198.304	-62.301	-0.121	-0.050
-197.290	84.529	0.189	-0.205
-196.275	-124.994	0.139	0.021
-195.260	-46.050	-0.126	-0.062
-194.246	800.000	0.102	0.313
-193.231	800.000	-0.056	-0.214
-192.217	14.042	-0.142	-0.109
-191.202	84.912	-0.108	-0.117
-190.187	298.661	-0.023	0.042
-189.173	-200.000	0.008	0.290
-188.158	208.429	0.144	0.223
-187.144	323.946	-0.060	0.113
-186.129	142.720	-0.072	-0.095
-185.114	331.819	0.082	0.157
-184.100	-10.877	-0.205	-0.134
-183.085	476.088	-0.123	-0.275
-182.071	61.894	0.198	-0.195
-181.056	-200.000	0.012	-0.274
-180.042	-101.322	0.293	0.071
-179.027	800.000	0.075	-0.282
-178.012	481.575	-0.105	-0.236
-176.998	-26.350	-0.359	0.208
-175.983	-63.556	-0.099	-0.040
-174.969	1.464	-0.097	-0.069
-173.954	-25.971	-0.094	-0.055
-172.939	452.596	-0.013	-0.028
-171.925	184.811	-0.086	0.126
-170.910	800.000	-0.113	0.328
-169.896	-200.000	0.003	-0.252
-168.881	800.000	0.035	-0.129
-167.866	-60.621	-0.370	-0.155
-166.852	-113.161	0.174	-0.034
-165.837	161.535	0.229	0.317
-164.823	-20.677	0.132	-0.080
-163.808	9.864	0.298	-0.223
-162.793	-200.000	0.010	-0.241
-161.779	95.390	-0.098	-0.111
-160.764	-20.819	0.135	-0.081
-159.750	-200.000	0.061	0.320
-158.735	-18.716	0.198	-0.122
-157.720	-145.222	0.282	0.025
-156.706	-136.744	-0.135	0.015
-155.691	-139.308	0.307	-0.033
-154.677	-40.235	0.086	-0.044
-153.662	-200.000	-0.050	-0.302
-152.647	-152.808	-0.179	-0.013
-151.633	51.384	-0.314	-0.294
-150.618	290.565	0.075	-0.135
-149.604	-31.972	0.251	-0.139
-148.589	562.626	0.173	0.413
-147.574	243.888	-0.107	-0.178
-146.560	-44.194	-0.114	0.056
-145.545	148.404	-0.020	0.027
-144.531	800.000	0.032	-0.133
-143.516	-10.725	-0.384	-0.250
-142.502	297.669	-0.178	0.322
-141.487	-200.000	0.044	0.278
-140.472	505.832	-0.057	-0.129
-139.458	800.000	0.044	0.159
-138.443	47.617	0.239	0.220
-137.429	-47.222	-0.047	0.023
-136.414	459.099	-0.144	0.315
-135.399	33.588	-0.020	0.017
-134.385	205.923	-0.140	0.215
-133.370	-7.445	0.266	0.177
-132.356	-53.072	-0.025	0.011
-131.341	-53.140	0.077	-0.035
-130.326	142.438	0.230	-0.301
-129.312	-53.642	0.225	0.102
-128.297	799.745	0.094	-0.257
-127.283	-56.874	0.168	-0.073
-126.268	-86.942	-0.126	0.038
-125.253	-44.587	0.346	0.170
-124.239	-200.000	-0.014	-0.063
-123.224	-157.253	0.102	-0.006
-122.210	305.913	-0.142	0.260
