DTS Sentinel unit serial number:	SN413079Multiplexer serial number:	ORYXHardware model number:	OX4-SRSoftware version number:	ORYX F/W v4.00 Oryx Data Collector v3.7.2.0data status	okinstallation	princeton_trtdifferential loss correction	single-endedforward channel	channel 1reverse channel	N/Adate	2019/09/15time	09:02:35forward acquisition time	60.00reverse acquisition time	0.00gamma	496.2192k internal	0.2314k external	0.2314temperature offset calibration	0.9986default loss term (dB/km)	0.3790temperature slope calibration	1.0000multiplexer offset coefficient	1.0000multiplexer slope coefficient	1.0000fibre end	0.00T internal ref (°C)	32.81T ext. ref 1 (°C)	4.98T ext. ref 2 (°C)	29.83length (m)	temperature (°C)	Stokes	anti-Stokes-747.200	-200.000	0.003	-0.234
-746.185	339.532	-0.209	0.413
-745.171	800.000	0.094	-0.273
-744.156	-199.775	-0.065	-0.000
-743.142	-139.051	-0.136	0.015
-742.127	-113.784	-0.332	-0.065
-741.112	459.955	-0.108	0.243
-740.098	158.908	-0.120	0.169
-739.083	244.698	0.128	0.218
-738.069	-200.000	0.022	0.105
-737.054	-52.543	0.234	-0.110
-736.039	-20.580	-0.265	0.165
-735.025	-142.618	-0.033	-0.003
-734.010	241.038	0.052	-0.088
-732.996	-200.000	-0.005	0.320
-731.981	234.548	-0.066	0.110
-730.966	662.749	-0.095	-0.249
-729.952	-156.989	0.137	-0.008
-728.937	241.386	-0.089	-0.150
-727.923	-36.480	-0.183	0.100
-726.908	-177.328	0.263	-0.007
-725.894	-110.130	-0.345	-0.073
-724.879	-108.411	-0.329	0.072
-723.864	-192.540	0.130	-0.001
-722.850	312.875	-0.155	-0.295
-721.835	-66.441	0.376	-0.151
-720.821	800.000	-0.063	-0.182
-719.806	33.571	-0.348	-0.307
-718.791	165.066	0.139	-0.199
-717.777	192.133	0.069	-0.105
-716.762	-171.101	-0.301	0.010
-715.748	-48.268	-0.134	-0.066
-714.733	-91.603	0.066	0.019
-713.718	60.267	-0.076	-0.076
-712.704	653.081	0.117	-0.304
-711.689	-9.965	-0.163	-0.110
-710.675	-110.870	-0.211	-0.044
-709.660	-200.000	-0.020	-0.365
-708.645	-102.605	-0.528	-0.128
-707.631	-120.859	-0.133	-0.023
-706.616	169.044	0.034	-0.049
-705.602	-200.000	0.086	-0.464
-704.587	-86.616	0.182	-0.057
-703.572	-200.000	0.025	-0.114
-702.558	227.221	-0.260	-0.428
-701.543	179.240	0.150	-0.222
-700.529	800.000	-0.108	-0.306
-699.514	-76.880	-0.535	-0.189
-698.499	-200.000	0.044	-0.238
-697.485	8.690	0.140	-0.107
-696.470	239.840	0.179	-0.301
-695.456	10.302	-0.152	-0.117
-694.441	-120.926	-0.115	-0.020
-693.426	158.403	-0.137	-0.192
-692.412	-13.373	-0.255	-0.168
-691.397	-200.000	0.007	0.117
-690.383	800.000	-0.061	0.208
-689.368	-200.000	-0.047	-0.340
-688.354	-200.000	-0.037	0.184
-687.339	-200.000	0.001	0.229
-686.324	-132.055	0.432	0.057
-685.310	-164.264	-0.154	-0.007
-684.295	14.612	0.141	0.111
-683.281	35.252	-0.199	-0.177
-682.266	-121.277	0.176	-0.030
-681.251	262.860	0.128	0.225
-680.237	77.276	-0.080	-0.086
-679.222	800.000	0.055	-0.202
-678.208	699.413	0.106	0.281
-677.193	-115.266	-0.034	-0.007
-676.178	-68.346	0.237	-0.093
-675.164	800.000	0.106	-0.310
-674.149	117.122	-0.084	-0.104
-673.135	-71.703	-0.114	-0.043
-672.120	-1.740	0.075	-0.053
-671.105	490.401	-0.075	0.173
-670.091	113.037	-0.145	-0.177
-669.076	489.450	0.126	0.291
-668.062	285.931	0.175	-0.319
-667.047	-86.620	-0.306	0.095
-666.032	-37.538	-0.152	-0.082
-665.018	-107.525	-0.301	-0.067
-664.003	-66.786	-0.081	-0.033
-662.989	-69.527	0.165	-0.064
-661.974	-53.143	-0.253	0.118
-660.959	112.131	0.195	0.238
-659.945	-200.000	-0.031	0.146
-658.930	-38.408	0.243	0.130
-657.916	-100.497	0.127	-0.032
-656.901	-200.000	0.031	-0.272
-655.886	-200.000	-0.011	0.133
-654.872	390.704	0.169	-0.355
-653.857	-200.000	-0.058	-0.304
-652.843	226.380	0.103	0.169
-651.828	-75.857	-0.285	0.102
-650.814	485.441	-0.023	0.053
-649.799	-178.619	-0.386	-0.009
-648.784	51.468	0.333	-0.320
-647.770	39.792	0.202	-0.183
-646.755	-79.655	0.109	-0.037
-645.741	62.367	0.034	-0.034
-644.726	5.709	0.233	0.174
-643.711	-75.226	-0.196	0.071
-642.697	671.605	0.076	0.198
-641.682	-200.000	0.027	0.128
-640.668	224.857	0.126	-0.207
-639.653	-41.012	-0.317	-0.166
-638.638	243.710	0.235	-0.398
-637.624	-200.000	-0.004	0.226
-636.609	15.494	-0.110	0.087
-635.595	-50.558	0.053	0.025
-634.580	275.316	0.162	-0.290
-633.565	-33.534	-0.138	-0.077
-632.551	90.098	-0.092	-0.104
-631.536	-94.000	-0.176	0.049
-630.522	-143.379	0.158	0.015
-629.507	800.000	-0.093	-0.354
-628.492	-200.000	0.020	0.171
-627.478	115.688	0.084	0.104
-626.463	-200.000	-0.024	-0.138
-625.449	-144.504	-0.373	0.035
-624.434	-200.000	0.057	-0.347
-623.419	-81.333	0.188	-0.063
-622.405	-200.000	0.013	-0.094
-621.390	191.804	-0.079	-0.120
-620.376	89.317	0.113	0.127
-619.361	126.147	-0.057	0.073
-618.346	128.518	-0.146	0.188
-617.332	31.235	0.161	0.140
-616.317	-48.160	-0.114	0.055
-615.303	-103.466	0.214	-0.051
-614.288	9.400	0.192	-0.147
-613.273	-159.279	-0.174	-0.010
-612.259	-200.000	-0.069	0.452
-611.244	-130.524	-0.268	0.036
-610.230	77.252	-0.337	0.362
-609.215	-83.685	-0.225	-0.072
-608.201	-200.000	0.238	-0.000
-607.186	800.000	0.065	0.230
-606.171	182.316	0.079	0.117
-605.157	-200.000	0.001	0.074
-604.142	-123.008	-0.071	-0.011
-603.128	490.167	0.130	-0.299
-602.113	300.627	0.077	-0.143
-601.098	-200.000	0.003	-0.196
-600.084	-200.000	-0.041	-0.259
-599.069	-176.312	-0.235	0.006
-598.055	-111.283	0.260	0.054
-597.040	15.695	-0.389	-0.308
-596.025	800.000	0.027	-0.102
-595.011	-81.982	-0.387	-0.128
-593.996	-32.882	-0.167	-0.094
-592.982	292.497	-0.143	-0.262
-591.967	468.787	-0.164	0.371
-590.952	-11.112	0.192	-0.128
-589.938	142.532	-0.122	-0.163
-588.923	148.803	0.191	-0.260
-587.909	-54.117	-0.076	0.035
-586.894	-52.548	-0.219	0.102
-585.879	308.090	-0.151	0.284
-584.865	-69.663	0.274	-0.105
-583.850	15.248	-0.224	-0.177
-582.836	65.499	-0.253	-0.258
-581.821	191.602	0.154	0.233
-580.806	-113.762	-0.177	0.035
-579.792	-111.653	0.126	-0.026
-578.777	22.789	-0.211	-0.174
-577.763	-39.769	0.084	0.044
-576.748	-166.520	0.139	-0.006
-575.733	153.110	0.249	0.343
-574.719	-47.622	-0.459	-0.224
-573.704	149.426	0.038	0.052
-572.690	-100.291	0.061	0.015
-571.675	800.000	-0.044	-0.145
-570.661	-56.213	-0.150	0.067
-569.646	276.946	-0.097	-0.173
-568.631	-93.905	0.134	0.037
-567.617	-155.373	-0.049	0.003
-566.602	326.348	0.090	-0.173
-565.588	-200.000	-0.001	0.210
-564.573	384.671	0.148	0.308
-563.558	-102.761	0.100	-0.024
-562.544	172.906	-0.204	0.297
-561.529	-127.066	0.139	0.021
-560.515	673.125	0.191	-0.498
-559.500	-2.343	0.155	0.110
-558.485	-200.000	0.018	-0.085
-557.471	133.134	-0.242	-0.314
-556.456	-18.809	0.235	0.147
-555.442	800.000	-0.088	-0.262
-554.427	416.038	0.100	0.215
-553.412	285.981	0.084	-0.152
-552.398	-134.060	-0.119	-0.015
-551.383	-139.219	0.553	0.060
-550.369	-200.000	0.062	-0.425
-549.354	56.856	0.111	0.109
-548.339	-149.747	-0.055	-0.004
-547.325	-71.925	0.153	-0.057
-546.310	44.044	-0.262	-0.242
-545.296	307.801	-0.103	0.193
-544.281	438.671	-0.143	0.313
-543.266	286.920	0.057	-0.103
-542.252	174.724	-0.208	-0.303
-541.237	800.000	0.047	-0.149
-540.223	-25.751	0.009	0.006
-539.208	800.000	0.055	-0.153
-538.193	7.990	0.358	0.270
-537.179	-145.682	0.265	-0.024
-536.164	79.827	0.240	-0.259
-535.150	519.572	-0.147	0.346
-534.135	3.984	-0.254	0.187
-533.121	-200.000	-0.014	0.075
-532.106	1.795	0.069	0.050
-531.091	589.043	0.116	-0.288
-530.077	213.966	-0.113	-0.180
-529.062	29.816	0.313	0.268
-528.048	232.579	-0.121	-0.200
-527.033	-200.000	-0.003	0.023
-526.018	-122.854	0.239	-0.039
-525.004	82.427	-0.174	0.189
-523.989	193.220	-0.023	-0.035
-522.975	-147.225	-0.048	0.004
-521.960	354.678	-0.129	-0.257
-520.945	169.330	0.136	-0.195
-519.931	800.000	-0.027	-0.086
-518.916	117.852	0.025	0.031
-517.902	800.000	0.047	0.130
-516.887	-46.497	-0.279	-0.137
-515.872	-58.474	-0.159	0.069
-514.858	105.249	0.143	-0.170
-513.843	250.922	-0.122	-0.209
-512.829	800.000	-0.085	0.369
-511.814	-154.595	-0.123	0.008
-510.799	742.395	0.012	-0.033
-509.785	301.944	0.132	-0.245
-508.770	92.065	0.083	-0.094
-507.756	83.623	0.261	-0.286
-506.741	507.758	0.088	0.204
-505.726	720.997	-0.159	0.425
-504.712	-70.262	0.288	0.110
-503.697	189.908	0.177	0.266
-502.683	-96.222	-0.160	-0.043
-501.668	-109.426	-0.106	-0.022
-500.653	20.549	0.174	0.141
-499.639	-34.071	-0.046	-0.025
-498.624	-200.000	-0.020	0.256
-497.610	-116.795	0.367	0.068
-496.595	50.497	0.078	-0.074
-495.581	28.138	-0.111	-0.094
-494.566	191.290	0.101	0.153
-493.551	-90.655	0.466	0.135
-492.537	-133.239	-0.133	0.017
-491.522	148.768	0.139	0.188
-490.508	769.169	-0.063	-0.173
-489.493	-61.093	-0.144	0.061
-488.478	-32.576	-0.089	0.050
-487.464	254.411	0.018	-0.030
-486.449	1.739	0.083	0.060
-485.435	-129.494	0.133	0.018
-484.420	161.684	-0.189	0.266
-483.405	-65.803	-0.359	0.144
-482.391	158.066	-0.133	-0.186
-481.376	345.322	0.121	-0.238
-480.362	-148.455	0.239	-0.020
-479.347	-135.633	0.134	0.016
-478.332	-200.000	-0.081	-0.383
-477.318	46.013	0.168	0.156
-476.303	-136.717	0.066	-0.008
-475.289	800.000	0.055	-0.172
-474.274	-15.868	-0.494	0.316
-473.259	-166.493	-0.249	-0.010
-472.245	343.516	0.232	0.457
-471.230	-142.259	-0.230	0.023
-470.216	800.000	-0.068	0.255
-469.201	63.805	0.250	0.252
-468.186	-49.513	-0.308	-0.147
-467.172	54.039	0.142	-0.137
-466.157	-24.713	-0.079	-0.047
-465.143	-89.763	-0.135	0.040
-464.128	110.105	-0.246	0.297
-463.113	695.959	-0.106	0.278
-462.099	111.640	0.122	0.147
-461.084	-200.000	0.111	0.491
-460.070	67.881	0.273	-0.280
-459.055	2.032	0.289	-0.209
-458.040	-200.000	-0.029	-0.294
-457.026	800.000	0.019	-0.066
-456.011	-109.366	-0.151	0.032
-454.997	-200.000	-0.004	0.097
-453.982	15.709	0.125	0.099
-452.968	117.656	-0.129	-0.159
-451.953	779.023	0.088	-0.241
-450.938	800.000	-0.063	0.210
-449.924	351.519	0.087	-0.172
-448.909	-22.944	0.271	0.164
-447.895	-15.681	0.377	0.241
-446.880	22.356	-0.206	0.169
-445.865	-200.000	0.010	-0.274
-444.851	70.481	-0.161	0.166
-443.836	540.311	0.200	0.478
-442.822	215.437	0.142	0.226
-441.807	-17.988	-0.217	-0.136
-440.792	-89.664	0.113	-0.033
-439.778	259.948	-0.052	0.091
-438.763	27.034	-0.109	-0.092
-437.749	117.922	0.237	0.292
-436.734	-96.520	-0.082	-0.022
-435.719	800.000	0.083	-0.291
-434.705	177.654	0.093	0.135
-433.690	-78.028	0.488	0.168
-432.676	-71.288	-0.312	0.117
-431.661	366.519	-0.052	0.105
-430.646	207.321	-0.197	-0.307
-429.632	800.000	-0.099	-0.359
-428.617	29.275	-0.166	0.141
-427.603	-63.528	-0.205	0.084
-426.588	182.064	0.182	0.268
-425.573	-93.590	-0.127	-0.035
-424.559	-101.010	-0.357	0.088
-423.544	-34.343	0.245	-0.135
-422.530	-200.000	-0.001	-0.060
-421.515	-68.178	-0.137	-0.053
-420.500	-153.383	0.295	-0.021
-419.486	800.000	-0.064	-0.251
-418.471	409.743	0.075	0.158
-417.457	142.706	-0.120	0.159
-416.442	189.046	-0.101	0.152
-415.428	-128.587	0.167	0.024
-414.413	-200.000	0.055	-0.264
-413.398	-90.929	-0.178	-0.051
-412.384	-163.294	-0.272	0.013
-411.369	133.029	0.116	-0.150
-410.355	-23.062	0.314	-0.189
-409.340	407.623	0.123	-0.261
-408.325	56.649	0.386	-0.376
-407.311	445.636	0.071	-0.156
-406.296	-102.931	0.048	-0.011
-405.282	282.184	-0.079	0.142
-404.267	27.210	0.036	-0.030
-403.252	-92.405	0.095	-0.027
-402.238	-200.000	-0.075	0.349
-401.223	137.059	0.134	-0.175
-400.209	-200.000	-0.005	-0.087
-399.194	-65.933	0.056	0.022
-398.179	11.370	-0.190	0.146
-397.165	174.444	0.128	0.185
-396.150	51.012	0.158	-0.150
-395.136	3.900	-0.277	-0.203
-394.121	-142.682	0.337	0.033
-393.106	194.331	0.049	0.075
-392.092	-71.689	-0.428	-0.160
-391.077	-200.000	-0.048	0.306
-390.063	31.705	0.365	-0.314
-389.048	-200.000	-0.022	-0.271
-388.033	-23.069	-0.168	-0.101
-387.019	-58.150	-0.105	0.046
-386.004	-29.403	-0.079	0.045
-384.990	-4.844	-0.101	-0.070
-383.975	-130.741	-0.257	0.035
-382.960	-200.000	0.044	-0.259
-381.946	719.188	-0.095	0.251
-380.931	66.954	-0.126	0.129
-379.917	-127.204	0.226	-0.033
-378.902	105.294	0.129	0.153
-377.888	-102.337	0.246	-0.059
-376.873	-200.000	0.019	-0.199
-375.858	800.000	0.055	0.190
-374.844	79.024	-0.228	-0.245
-373.829	-1.468	0.377	-0.266
-372.815	295.974	-0.083	-0.152
-371.800	193.377	-0.131	-0.199
-370.785	-200.000	0.008	0.083
-369.771	543.416	-0.146	0.348
-368.756	32.855	-0.161	0.139
-367.742	-5.224	0.149	0.103
-366.727	82.792	-0.148	0.160
-365.712	103.968	0.102	-0.120
-364.698	196.995	-0.192	0.293
-363.683	-91.268	0.132	0.038
-362.669	-200.000	-0.013	0.060
-361.654	53.370	-0.153	0.147
-360.639	-200.000	-0.004	0.201
-359.625	-33.562	-0.288	-0.159
-358.610	-79.359	0.303	-0.102
-357.596	-105.492	-0.103	0.023
-356.581	800.000	0.044	0.148
-355.566	242.972	-0.264	-0.442
-354.552	-13.991	0.052	0.034
-353.537	-200.000	0.028	0.222
-352.523	800.000	0.131	0.445
-351.508	327.545	0.165	0.316
-350.493	201.153	0.114	-0.176
-349.479	-200.000	0.043	-0.314
-348.464	800.000	0.109	-0.399
-347.450	-85.962	0.176	0.054
-346.435	-124.632	0.230	0.036
-345.420	-126.324	0.143	-0.021
-344.406	102.534	-0.045	0.052
-343.391	-183.972	0.165	0.003
-342.377	-79.805	-0.116	0.039
-341.362	-128.066	0.022	-0.003
-340.348	352.062	0.134	0.266
-339.333	39.010	0.247	0.221
-338.318	-200.000	0.003	-0.159
-337.304	104.151	-0.085	0.099
-336.289	-80.809	0.355	0.118
-335.275	223.451	0.064	0.102
-334.260	-58.890	0.329	0.142
-333.245	-200.000	0.059	0.272
-332.231	-159.694	0.316	-0.017
-331.216	-2.159	-0.155	0.109
-330.202	-75.228	-0.182	-0.065
-329.187	-5.346	-0.088	-0.060
-328.172	475.482	-0.069	-0.156
-327.158	-200.000	-0.013	-0.189
-326.143	-44.412	-0.202	-0.101
-325.129	457.905	-0.028	0.063
-324.114	800.000	-0.027	0.088
-323.099	-180.724	-0.280	-0.006
-322.085	-23.080	-0.213	-0.128
-321.070	-115.985	-0.405	0.075
-320.056	800.000	-0.051	-0.190
-319.041	714.252	0.064	-0.170
-318.026	-132.338	-0.184	0.024
-317.012	-134.378	0.264	0.032
-315.997	800.000	-0.121	-0.514
-314.983	2.735	0.305	-0.220
-313.968	-153.040	-0.318	-0.022
-312.953	800.000	0.019	0.081
-311.939	496.555	-0.063	0.144
-310.924	-8.325	-0.121	0.081
-309.910	800.000	-0.042	-0.147
-308.895	97.823	0.115	0.132
-307.880	501.904	-0.114	-0.263
-306.866	-70.735	-0.249	0.094
-305.851	-112.734	0.098	-0.019
-304.837	268.651	0.111	0.193
-303.822	-200.000	-0.084	0.426
-302.807	-200.000	0.003	-0.106
-301.793	433.680	0.035	0.075
-300.778	-200.000	0.033	0.234
-299.764	-200.000	-0.095	-0.498
-298.749	-71.651	0.120	-0.045
-297.735	7.956	-0.233	0.174
-296.720	800.000	0.067	0.277
-295.705	-119.174	0.186	-0.032
-294.691	287.179	0.007	0.012
-293.676	29.110	-0.238	-0.201
-292.662	-200.000	0.028	-0.181
-291.647	-117.801	-0.184	0.033
-290.632	-200.000	-0.017	0.449
-289.618	572.929	-0.175	0.424
-288.603	224.311	0.269	0.433
-287.589	444.154	0.087	-0.189
-286.574	113.767	-0.016	-0.020
-285.559	-200.000	-0.018	0.143
-284.545	-143.750	-0.347	-0.033
-283.530	159.583	0.095	-0.131
-282.516	-168.290	-0.287	-0.011
-281.501	200.425	-0.184	-0.281
-280.486	6.743	-0.177	0.131
-279.472	-64.894	-0.433	-0.174
-278.457	113.778	-0.242	-0.292
-277.443	26.063	0.150	-0.125
-276.428	163.045	0.095	-0.133
-275.413	54.114	-0.179	-0.171
-274.399	-20.320	-0.199	0.122
-273.384	60.016	-0.172	-0.169
-272.370	-84.914	-0.200	0.063
-271.355	206.865	-0.088	0.136
-270.340	16.092	0.124	0.098
-269.326	178.442	-0.029	-0.043
-268.311	-92.612	-0.164	0.046
-267.297	-128.570	-0.280	-0.040
-266.282	68.905	0.183	0.187
-265.267	800.000	-0.017	-0.069
-264.253	-200.000	-0.028	-0.267
-263.238	328.469	-0.047	0.089
-262.224	284.482	0.038	-0.068
-261.209	-67.189	-0.208	-0.082
-260.195	57.794	0.256	-0.249
-259.180	334.788	-0.105	-0.202
-258.165	782.518	0.036	0.099
-257.151	480.544	0.075	-0.170
-256.136	800.000	0.048	-0.136
-255.122	-60.816	-0.333	-0.140
-254.107	5.768	0.103	-0.076
-253.092	137.143	-0.124	0.162
-252.078	-50.789	0.095	0.044
-251.063	-16.011	-0.224	-0.142
-250.049	-115.811	-0.353	0.066
-249.034	-32.637	-0.256	-0.142
-248.019	-200.000	-0.021	-0.203
-247.005	-144.176	0.183	0.017
-245.990	-9.058	0.282	-0.188
-244.976	-57.934	0.219	0.095
-243.961	-194.452	-0.254	0.002
-242.946	136.903	-0.162	0.211
-241.932	112.830	0.187	0.225
-240.917	800.000	-0.104	0.343
-239.903	-43.867	0.109	-0.055
-238.888	-3.748	-0.263	-0.181
-237.873	267.976	0.076	0.132
-236.859	-106.153	0.255	-0.057
-235.844	201.605	-0.113	0.173
-234.830	771.933	0.061	-0.164
-233.815	207.777	0.155	-0.241
-232.800	112.594	-0.187	0.225
-231.786	113.374	-0.145	-0.174
-230.771	-7.711	-0.186	-0.125
-229.757	-120.849	0.405	-0.068
-228.742	-17.634	0.520	0.324
-227.727	43.147	-0.067	-0.061
-226.713	-146.485	-0.283	-0.025
-225.698	-30.870	0.235	-0.132
-224.684	36.309	0.128	0.112
-223.669	-123.737	0.136	-0.021
-222.655	409.872	-0.159	-0.335
-221.640	65.370	-0.213	0.214
-220.625	-16.409	0.106	-0.067
-219.611	-54.651	-0.112	-0.050
-218.596	-9.845	0.102	-0.068
-217.582	-155.663	0.064	0.004
-216.567	-121.340	0.404	-0.067
-215.552	-200.000	0.005	0.359
-214.538	-144.247	0.240	0.022
-213.523	800.000	-0.003	0.010
-212.509	38.391	-0.099	-0.088
-211.494	-1.834	0.201	0.140
-210.479	-129.061	-0.044	0.006
-209.465	81.053	0.114	0.122
-208.450	20.386	0.066	0.053
-207.436	-105.043	-0.093	0.021
-206.421	-109.431	-0.183	0.038
-205.406	-52.407	0.213	-0.098
-204.392	601.114	0.099	-0.245
-203.377	-36.181	-0.065	-0.035
-202.363	-83.376	0.092	-0.029
-201.348	120.684	0.081	-0.100
-200.333	58.712	-0.241	0.235
-199.319	-200.000	0.009	-0.195
-198.304	800.000	0.041	0.178
-197.290	-192.876	-0.204	-0.002
-196.275	-88.199	-0.074	-0.022
-195.260	196.319	0.101	0.152
-194.246	-200.000	0.019	0.218
-193.231	267.501	0.171	0.298
-192.217	-200.000	-0.031	0.377
-191.202	102.603	-0.144	0.167
-190.187	113.774	-0.068	-0.083
-189.173	-118.955	-0.154	-0.027
-188.158	56.425	-0.211	0.204
-187.144	-113.885	0.198	0.038
-186.129	168.712	-0.150	0.213
-185.114	-200.000	0.037	0.257
-184.100	-0.451	0.066	-0.046
-183.085	116.688	0.111	0.135
-182.071	34.007	-0.089	0.077
-181.056	-78.948	0.160	-0.054
-180.042	-33.888	0.252	0.138
-179.027	132.814	0.035	0.045
-178.012	-20.115	-0.174	0.106
-176.998	-103.071	-0.239	0.056
-175.983	-11.006	0.092	-0.060
-174.969	-200.000	0.027	-0.149
-173.954	-154.007	-0.027	-0.002
-172.939	800.000	-0.061	-0.252
-171.925	-71.639	-0.310	0.115
-170.910	-74.294	0.538	-0.193
-169.896	-176.605	-0.249	0.006
-168.881	800.000	-0.061	0.203
-167.866	9.611	0.209	0.157
-166.852	800.000	0.033	0.122
-165.837	43.750	0.076	-0.069
-164.823	102.814	-0.084	-0.098
-163.808	800.000	-0.069	-0.264
-162.793	206.042	0.276	-0.426
-161.779	800.000	-0.031	-0.113
-160.764	-66.873	-0.212	-0.083
-159.750	-115.025	0.293	-0.055
-158.735	-68.136	0.232	-0.090
-157.720	127.597	0.158	0.199
-156.706	116.513	0.074	0.090
-155.691	-190.870	0.174	-0.002
-154.677	-94.471	0.334	0.090
-153.662	-200.000	-0.012	-0.091
-152.647	-134.420	-0.136	-0.017
-151.633	-200.000	-0.004	0.332
-150.618	278.745	-0.038	-0.067
-149.604	-73.147	0.075	-0.027
-148.589	-125.359	0.292	0.044
-147.574	-146.070	-0.201	-0.018
-146.560	-200.000	-0.032	-0.432
-145.545	-200.000	0.000	-0.143
-144.531	230.175	0.156	0.253
-143.516	266.135	-0.008	0.013
-142.502	10.608	-0.409	-0.309
-141.487	-166.766	0.123	0.005
-140.472	-119.008	-0.177	-0.031
-139.458	800.000	0.076	0.268
-138.443	-74.806	0.216	-0.077
-137.429	-152.284	0.094	-0.007
-136.414	10.518	-0.092	-0.069
-135.399	800.000	-0.088	-0.346
-134.385	-159.952	0.347	-0.019
-133.370	-200.000	-0.005	0.114
-132.356	-149.882	-0.317	-0.025
-131.341	23.143	0.062	0.050
-130.326	-142.425	-0.258	-0.025
-129.312	117.439	0.042	0.052
-128.297	26.313	0.173	-0.143
-127.283	28.567	-0.068	0.057
-126.268	-51.564	-0.084	0.039
-125.253	-70.929	0.240	-0.089
-124.239	800.000	-0.054	0.218
-123.224	-120.940	0.216	0.036
-122.210	-95.274	-0.168	0.045
