DTS Sentinel unit serial number:	SN413079Multiplexer serial number:	ORYXHardware model number:	OX4-SRSoftware version number:	ORYX F/W v4.00 Oryx Data Collector v3.7.2.0data status	okinstallation	princeton_trtdifferential loss correction	single-endedforward channel	channel 1reverse channel	N/Adate	2019/09/16time	08:26:35forward acquisition time	60.00reverse acquisition time	0.00gamma	496.2192k internal	0.2325k external	0.2325temperature offset calibration	0.9979default loss term (dB/km)	0.3790temperature slope calibration	1.0000multiplexer offset coefficient	1.0000multiplexer slope coefficient	1.0000fibre end	0.00T internal ref (°C)	29.19T ext. ref 1 (°C)	11.89T ext. ref 2 (°C)	25.67length (m)	temperature (°C)	Stokes	anti-Stokes-747.200	154.012	0.226	-0.312
-746.185	-74.816	-0.150	-0.054
-745.171	35.962	-0.163	-0.145
-744.156	-104.064	0.138	-0.032
-743.142	630.071	-0.076	-0.195
-742.127	113.527	-0.134	0.164
-741.112	259.716	0.035	0.061
-740.098	18.452	-0.131	-0.105
-739.083	800.000	-0.036	-0.107
-738.069	-128.888	-0.117	0.017
-737.054	-82.642	-0.468	0.153
-736.039	-50.512	-0.093	0.044
-735.025	20.293	-0.214	0.174
-734.010	-66.777	-0.462	-0.185
-732.996	-52.710	0.300	-0.140
-731.981	144.855	-0.226	-0.304
-730.966	-44.454	-0.084	0.043
-729.952	-165.122	-0.254	-0.011
-728.937	27.749	-0.049	-0.042
-727.923	85.592	0.253	-0.280
-726.908	777.392	0.025	-0.069
-725.894	-200.000	-0.005	-0.464
-724.879	-67.512	-0.165	-0.065
-723.864	-151.851	-0.234	0.017
-722.850	102.741	-0.134	-0.158
-721.835	126.343	0.056	-0.072
-720.821	-200.000	0.015	-0.303
-719.806	-200.000	-0.040	-0.271
-718.791	78.194	-0.278	-0.299
-717.777	59.447	0.098	-0.097
-716.762	-77.503	0.089	-0.031
-715.748	318.591	0.066	0.126
-714.733	-51.617	0.118	-0.055
-713.718	538.525	-0.169	-0.405
-712.704	800.000	-0.227	-0.661
-711.689	-72.815	-0.266	0.099
-710.675	115.678	0.201	-0.248
-709.660	285.062	0.014	-0.025
-708.645	-68.539	0.173	-0.068
-707.631	-69.036	-0.346	0.134
-706.616	125.908	-0.202	-0.257
-705.602	-137.380	0.232	0.027
-704.587	418.483	0.046	-0.099
-703.572	-29.698	0.098	-0.057
-702.558	41.064	0.029	0.027
-701.543	-200.000	-0.059	-0.287
-700.529	-200.000	0.001	-0.404
-699.514	164.700	0.215	-0.305
-698.499	-176.705	0.020	-0.001
-697.485	-18.574	0.134	0.084
-696.470	-130.048	-0.093	-0.013
-695.456	-200.000	-0.039	-0.188
-694.441	800.000	0.058	-0.228
-693.426	-37.927	0.285	-0.153
-692.412	65.592	-0.158	-0.161
-691.397	141.955	0.065	-0.087
-690.383	-62.619	-0.226	-0.094
-689.368	276.819	-0.171	0.307
-688.354	-112.105	-0.190	-0.039
-687.339	-200.000	0.017	-0.252
-686.324	-49.914	0.214	-0.102
-685.310	-130.618	-0.266	0.036
-684.295	-200.000	-0.042	0.236
-683.281	361.711	0.014	0.028
-682.266	67.288	0.107	-0.109
-681.251	-21.619	-0.183	-0.113
-680.237	-101.807	0.131	0.032
-679.222	-115.207	-0.103	0.020
-678.208	-200.000	-0.004	0.132
-677.193	113.741	0.112	-0.137
-676.178	100.787	0.138	-0.161
-675.164	-115.513	-0.082	-0.016
-674.149	-200.000	0.020	0.244
-673.135	87.163	0.183	-0.204
-672.120	-200.000	-0.006	-0.257
-671.105	-200.000	-0.022	0.238
-670.091	213.930	-0.066	-0.105
-669.076	-66.075	0.281	-0.113
-668.062	-38.364	-0.156	-0.083
-667.047	439.084	0.074	-0.163
-666.032	-51.409	0.280	-0.132
-665.018	-86.560	0.079	0.024
-664.003	800.000	-0.056	0.155
-662.989	47.997	-0.086	-0.080
-661.974	-200.000	-0.021	-0.296
-660.959	-138.620	0.069	0.008
-659.945	800.000	0.100	-0.296
-658.930	213.447	-0.184	-0.293
-657.916	553.387	-0.102	0.246
-656.901	-200.000	0.012	0.130
-655.886	331.548	0.130	0.253
-654.872	44.147	0.016	-0.015
-653.857	-200.000	-0.035	-0.192
-652.843	262.760	-0.170	-0.297
-651.828	800.000	-0.059	0.223
-650.814	-200.000	0.006	-0.294
-649.799	-92.300	-0.202	-0.057
-648.784	-200.000	-0.029	0.177
-647.770	699.974	-0.101	0.266
-646.755	-43.463	-0.086	-0.044
-645.741	129.672	-0.165	-0.212
-644.726	-19.598	-0.086	0.053
-643.711	-200.000	0.029	0.246
-642.697	66.769	0.076	-0.078
-641.682	-134.948	-0.160	-0.019
-640.668	800.000	0.027	-0.077
-639.653	450.397	-0.040	0.089
-638.638	83.420	-0.107	-0.117
-637.624	800.000	0.060	-0.181
-636.609	99.489	-0.132	0.153
-635.595	411.958	-0.131	0.280
-634.580	-149.159	0.346	-0.028
-633.565	-200.000	0.040	-0.302
-632.551	-188.222	0.111	-0.001
-631.536	-73.853	-0.230	-0.084
-630.522	-200.000	-0.019	-0.106
-629.507	32.397	-0.342	0.297
-628.492	-124.907	0.130	0.020
-627.478	672.044	-0.110	0.285
-626.463	800.000	-0.044	0.144
-625.449	-168.305	0.117	-0.005
-624.434	-200.000	0.017	0.152
-623.419	-165.449	0.164	-0.007
-622.405	148.065	-0.227	0.307
-621.390	-101.615	-0.433	0.106
-620.376	65.067	-0.219	-0.222
-619.361	-14.002	-0.151	0.098
-618.346	-45.194	-0.206	-0.103
-617.332	800.000	-0.014	0.045
-616.317	-51.631	0.358	0.168
-615.303	382.838	0.144	0.298
-614.288	112.311	0.222	0.269
-613.273	52.524	-0.101	-0.096
-612.259	-148.535	-0.166	-0.014
-611.244	420.580	0.153	-0.330
-610.230	800.000	-0.007	0.028
-609.215	800.000	0.106	-0.372
-608.201	-121.524	-0.424	0.071
-607.186	-90.975	-0.119	0.034
-606.171	357.993	-0.144	0.288
-605.157	-121.472	0.057	0.010
-604.142	431.184	0.041	0.089
-603.128	-151.719	0.349	-0.026
-602.113	104.610	-0.123	-0.145
-601.098	-39.552	0.080	0.042
-600.084	-77.442	-0.229	0.080
-599.069	-200.000	-0.026	0.331
-598.055	82.887	-0.398	-0.434
-597.040	-60.643	-0.172	0.073
-596.025	232.816	0.037	-0.061
-595.011	-27.717	-0.180	0.104
-593.996	86.211	-0.169	0.187
-592.982	-200.000	-0.012	-0.085
-591.967	800.000	-0.042	0.179
-590.952	-92.095	-0.020	0.006
-589.938	-200.000	0.080	-0.391
-588.923	79.807	0.071	0.077
-587.909	-28.100	-0.058	0.034
-586.894	-200.000	0.023	0.111
-585.879	49.355	0.150	-0.141
-584.865	-200.000	0.028	-0.214
-583.850	9.790	-0.041	-0.031
-582.836	61.941	0.173	0.173
-581.821	627.461	-0.190	0.481
-580.806	-95.885	0.070	0.019
-579.792	231.086	0.086	0.141
-578.777	205.912	0.190	-0.296
-577.763	529.471	0.081	0.192
-576.748	172.314	0.207	-0.298
-575.733	289.161	-0.149	-0.270
-574.719	-85.585	-0.177	0.055
-573.704	-14.296	0.146	0.094
-572.690	32.129	0.165	0.143
-571.675	180.382	0.056	-0.083
-570.661	-122.527	0.209	-0.034
-569.646	213.652	-0.065	0.102
-568.631	-200.000	0.088	-0.422
-567.617	-200.000	0.025	0.143
-566.602	122.702	-0.127	-0.159
-565.588	96.537	0.143	-0.164
-564.573	147.934	0.140	-0.189
-563.558	800.000	0.102	-0.357
-562.544	-144.613	-0.117	-0.011
-561.529	157.504	0.122	-0.170
-560.515	-117.181	0.522	-0.095
-559.500	-200.000	0.006	-0.181
-558.485	141.609	-0.249	-0.330
-557.471	5.876	0.015	-0.011
-556.456	16.198	0.214	0.169
-555.442	27.122	0.216	-0.181
-554.427	343.006	-0.069	0.134
-553.412	800.000	0.076	0.224
-552.398	691.502	0.182	-0.479
-551.383	-146.028	0.382	-0.034
-550.369	-0.084	0.310	-0.221
-549.354	-60.142	-0.277	-0.118
-548.339	204.402	-0.138	-0.215
-547.325	-160.326	0.191	-0.010
-546.310	31.510	-0.407	-0.350
-545.296	208.700	-0.215	-0.337
-544.281	-200.000	0.034	0.163
-543.266	-72.802	0.176	-0.065
-542.252	-129.235	0.565	-0.079
-541.237	341.514	0.093	-0.182
-540.223	-158.732	-0.260	0.015
-539.208	800.000	0.139	0.392
-538.193	39.538	-0.100	-0.089
-537.179	11.467	-0.039	-0.030
-536.164	56.043	-0.089	-0.086
-535.150	-40.457	0.143	-0.074
-534.135	53.689	-0.016	0.015
-533.121	-137.679	0.120	-0.013
-532.106	-71.026	0.230	-0.087
-531.091	-200.000	0.025	-0.265
-530.077	-200.000	-0.031	-0.214
-529.062	-133.345	-0.152	-0.019
-528.048	-85.751	0.228	-0.071
-527.033	-200.000	0.007	-0.050
-526.018	162.241	-0.089	-0.125
-525.004	-200.000	0.061	-0.438
-523.989	800.000	-0.064	0.208
-522.975	-76.559	0.129	0.045
-521.960	84.691	0.222	-0.243
-520.945	649.675	0.104	-0.266
-519.931	-133.993	-0.345	-0.043
-518.916	-61.162	-0.067	0.028
-517.902	624.497	0.043	0.108
-516.887	-139.122	-0.137	0.015
-515.872	261.262	-0.139	0.241
-514.858	115.370	0.078	-0.095
-513.843	-125.044	-0.083	-0.013
-512.829	39.351	0.138	-0.124
-511.814	196.183	-0.094	0.144
-510.799	66.815	0.139	-0.142
-509.785	-43.321	0.204	0.103
-508.770	394.111	-0.146	-0.305
-507.756	158.174	-0.091	-0.127
-506.741	-41.602	0.157	-0.081
-505.726	-200.000	-0.003	0.420
-504.712	-111.961	0.156	0.031
-503.697	-200.000	-0.015	0.323
-502.683	-200.000	0.049	0.450
-501.668	-200.000	-0.011	-0.238
-500.653	-140.042	0.578	-0.061
-499.639	20.831	-0.109	0.089
-498.624	-147.829	0.109	0.009
-497.610	77.213	0.122	-0.130
-496.595	-27.425	-0.175	-0.102
-495.581	54.660	-0.123	0.119
-494.566	-87.285	-0.205	-0.062
-493.551	-133.765	-0.108	0.013
-492.537	-106.828	-0.032	0.007
-491.522	17.900	-0.066	0.052
-490.508	-84.703	0.201	-0.063
-489.493	-8.053	-0.192	0.129
-488.478	-200.000	-0.032	0.150
-487.464	370.292	-0.112	-0.227
-486.449	-6.722	-0.459	-0.312
-485.435	-173.610	-0.221	0.007
-484.420	100.212	0.180	-0.208
-483.405	-63.667	0.123	0.050
-482.391	22.361	0.097	0.079
-481.376	73.655	-0.282	-0.295
-480.362	-156.427	-0.194	-0.012
-479.347	-154.477	0.148	0.010
-478.332	184.211	-0.092	0.136
-477.318	-200.000	0.007	0.181
-476.303	-200.000	-0.039	-0.310
-475.289	-200.000	-0.024	-0.156
-474.274	-200.000	-0.034	0.399
-473.259	-128.145	-0.378	-0.054
-472.245	210.569	-0.140	0.219
-471.230	-200.000	-0.023	0.122
-470.216	26.397	0.144	-0.120
-469.201	24.833	0.229	0.189
-468.186	-200.000	0.011	0.118
-467.172	12.109	0.161	0.123
-466.157	-200.000	-0.001	-0.014
-465.143	-65.633	0.222	0.089
-464.128	420.578	-0.056	-0.120
-463.113	-106.143	-0.143	0.032
-462.099	75.954	-0.178	0.188
-461.084	-19.661	0.074	-0.046
-460.070	-70.734	-0.396	0.149
-459.055	-99.009	0.314	0.079
-458.040	-200.000	-0.041	-0.266
-457.026	800.000	0.082	0.233
-456.011	-12.017	-0.271	0.177
-454.997	-153.917	0.341	-0.023
-453.982	-107.972	-0.118	-0.026
-452.968	544.363	-0.025	-0.060
-451.953	-114.876	-0.187	-0.036
-450.938	-132.730	0.300	-0.038
-449.924	148.404	0.062	0.083
-448.909	240.288	-0.181	0.301
-447.895	-143.972	-0.452	-0.042
-446.880	-75.199	-0.159	-0.057
-445.865	-30.105	0.083	0.047
-444.851	-153.479	0.152	-0.010
-443.836	-94.816	-0.193	-0.052
-442.822	399.776	0.199	-0.416
-441.807	-90.064	-0.060	0.017
-440.792	61.420	-0.158	-0.156
-439.778	354.093	-0.051	-0.102
-438.763	-153.782	0.125	0.009
-437.749	-121.369	-0.163	0.027
-436.734	12.676	-0.215	-0.165
-435.719	35.776	0.194	0.170
-434.705	-22.281	-0.344	-0.208
-433.690	-178.771	0.265	-0.006
-432.676	234.828	-0.171	0.281
-431.661	-71.496	-0.310	0.115
-430.646	46.957	-0.179	-0.166
-429.632	-78.844	0.061	-0.021
-428.617	666.481	0.055	0.143
-427.603	36.410	-0.127	-0.112
-426.588	-200.000	0.004	-0.232
-425.573	-57.427	-0.315	0.138
-424.559	-124.377	-0.156	0.024
-423.544	-200.000	0.043	-0.202
-422.530	133.756	0.211	-0.273
-421.515	76.397	-0.169	-0.179
-420.500	800.000	0.067	0.248
-419.486	-122.590	0.316	-0.051
-418.471	-200.000	0.029	0.245
-417.457	214.560	0.020	-0.032
-416.442	327.808	-0.120	-0.230
-415.428	-170.997	0.143	-0.005
-414.413	-200.000	-0.070	0.417
-413.398	466.679	-0.181	0.404
-412.384	-39.867	0.353	0.184
-411.369	-111.817	-0.547	0.110
-410.355	-21.849	0.127	-0.077
-409.340	378.281	0.031	0.063
-408.325	-62.861	-0.132	0.055
-407.311	-41.810	0.138	0.070
-406.296	-189.383	0.235	0.003
-405.282	-117.392	-0.378	0.068
-404.267	-4.360	0.094	-0.065
-403.252	121.288	0.130	0.162
-402.238	-61.726	0.318	-0.133
-401.223	79.707	0.234	-0.250
-400.209	-200.000	0.003	0.027
-399.194	-116.026	0.329	0.061
-398.179	285.998	0.163	-0.293
-397.165	-176.458	0.158	0.004
-396.150	301.240	-0.039	-0.072
-395.136	-85.110	0.060	0.019
-394.121	-200.000	-0.039	0.385
-393.106	162.312	0.104	-0.145
-392.092	129.541	-0.040	0.051
-391.077	-56.368	0.199	-0.088
-390.063	-72.819	-0.074	-0.027
-389.048	-200.000	-0.012	-0.248
-388.033	3.157	-0.206	0.149
-387.019	-43.060	0.153	-0.077
-386.004	705.482	0.069	0.182
-384.990	727.722	0.058	-0.153
-383.975	800.000	-0.014	0.053
-382.960	-122.038	-0.060	-0.010
-381.946	27.149	-0.375	-0.313
-380.931	114.935	-0.184	-0.223
-379.917	-18.578	0.200	-0.124
-378.902	-38.665	-0.139	-0.073
-377.888	-200.000	0.044	-0.235
-376.873	800.000	-0.028	-0.106
-375.858	-88.258	0.125	-0.037
-374.844	-35.549	-0.110	-0.059
-373.829	399.426	0.115	0.240
-372.815	-184.823	-0.277	-0.004
-371.800	-26.354	-0.351	0.205
-370.785	800.000	0.068	0.241
-369.771	375.770	-0.096	0.195
-368.756	-200.000	-0.006	-0.345
-367.742	21.380	-0.341	0.276
-366.727	-118.866	-0.202	0.035
-365.712	-100.607	-0.154	-0.038
-364.698	-123.031	0.331	0.053
-363.683	-19.563	0.179	-0.110
-362.669	78.490	0.154	0.164
-361.654	136.432	-0.050	0.065
-360.639	-87.141	-0.226	0.068
-359.625	-29.729	0.161	-0.091
-358.610	-68.487	0.218	0.084
-357.596	-200.000	0.020	0.328
-356.581	800.000	-0.035	-0.137
-355.566	-144.021	0.198	-0.018
-354.552	454.432	-0.142	-0.312
-353.537	-121.960	0.160	0.026
-352.523	107.991	0.113	0.134
-351.508	-25.060	0.280	0.165
-350.493	-200.000	0.052	-0.243
-349.479	-200.000	0.026	-0.426
-348.464	-200.000	0.009	-0.131
-347.450	777.442	0.048	-0.129
-346.435	196.220	0.165	0.249
-345.420	228.098	0.021	0.035
-344.406	199.745	-0.002	-0.003
-343.391	109.584	0.278	0.331
-342.377	398.816	-0.068	-0.141
-341.362	51.618	0.096	-0.090
-340.348	-15.534	-0.147	0.093
-339.333	-31.210	0.145	-0.081
-338.318	-82.736	-0.315	0.101
-337.304	-91.910	-0.202	-0.057
-336.289	-133.194	0.060	0.007
-335.275	-16.193	0.391	-0.247
-334.260	105.009	-0.091	-0.107
-333.245	-96.831	0.215	0.056
-332.231	661.871	0.143	-0.367
-331.216	800.000	0.064	-0.202
-330.202	608.713	0.151	0.374
-329.187	-200.000	-0.013	0.159
-328.172	577.832	0.134	0.326
-327.158	-113.615	-0.151	-0.029
-326.143	110.081	-0.103	0.123
-325.129	800.000	-0.092	-0.290
-324.114	-200.000	0.001	0.253
-323.099	-136.180	0.278	0.032
-322.085	-200.000	0.040	-0.246
-321.070	-200.000	0.067	0.359
-320.056	176.382	-0.127	0.183
-319.041	135.728	0.075	0.097
-318.026	787.646	-0.074	-0.200
-317.012	-11.013	0.038	-0.025
-315.997	105.734	0.154	-0.181
-314.983	112.619	0.261	0.313
-313.968	1.145	0.247	0.176
-312.953	-9.027	-0.196	0.130
-311.939	122.977	0.049	0.061
-310.924	414.424	-0.113	0.238
-309.910	-200.000	0.004	0.050
-308.895	-96.387	-0.138	0.036
-307.880	-60.109	-0.161	-0.068
-306.866	-116.378	0.555	-0.102
-305.851	6.973	0.266	-0.197
-304.837	-200.000	-0.001	0.052
-303.822	-39.631	-0.089	0.046
-302.807	73.104	-0.153	-0.159
-301.793	-46.960	0.148	0.072
-300.778	-114.963	0.311	-0.059
-299.764	16.614	0.267	-0.209
-298.749	-200.000	0.027	-0.228
-297.735	-200.000	-0.026	0.173
-296.720	-24.045	-0.062	-0.037
-295.705	32.608	0.188	-0.161
-294.691	-200.000	-0.019	-0.260
-293.676	-100.037	0.166	-0.041
-292.662	800.000	-0.061	0.249
-291.647	302.862	0.177	0.325
-290.632	0.719	0.423	-0.300
-289.618	416.550	0.136	0.288
-288.603	-50.762	-0.231	0.108
-287.589	800.000	-0.068	-0.206
-286.574	-126.330	-0.382	0.057
-285.559	80.408	-0.045	-0.048
-284.545	101.104	-0.134	0.154
-283.530	-45.128	0.283	-0.140
-282.516	-200.000	-0.004	0.179
-281.501	99.716	0.070	-0.081
-280.486	-73.652	-0.273	-0.098
-279.472	208.885	-0.104	0.162
-278.457	-62.264	-0.356	0.147
-277.443	-170.493	0.372	0.013
-276.428	414.219	-0.078	0.164
-275.413	-58.750	-0.479	0.205
-274.399	-104.441	0.144	0.033
-273.384	-200.000	-0.017	0.133
-272.370	554.513	-0.107	-0.256
-271.355	-160.794	0.231	-0.012
-270.340	93.172	0.078	0.088
-269.326	343.278	0.162	0.315
-268.311	-151.975	-0.149	0.011
-267.297	61.968	0.074	0.073
-266.282	-158.977	-0.422	-0.024
-265.267	-200.000	0.021	-0.118
-264.253	50.854	-0.336	-0.315
-263.238	-149.718	0.155	0.012
-262.224	400.061	-0.110	-0.228
-261.209	3.737	0.129	0.093
-260.195	-200.000	-0.003	-0.031
-259.180	322.948	0.100	0.189
-258.165	136.726	0.218	-0.282
-257.151	800.000	-0.072	0.303
-256.136	600.738	0.050	0.122
-255.122	91.220	-0.168	-0.186
-254.107	430.604	-0.048	-0.103
-253.092	349.009	0.183	-0.357
-252.078	571.500	-0.082	-0.197
-251.063	-50.045	0.194	0.091
-250.049	-0.353	0.134	-0.094
-249.034	-86.586	-0.466	0.141
-248.019	114.775	-0.214	-0.258
-247.005	-65.058	-0.083	-0.033
-245.990	-8.728	0.216	0.143
-244.976	-200.000	-0.025	-0.216
-243.961	167.039	-0.187	-0.263
-242.946	119.835	-0.187	0.230
-241.932	-46.728	0.259	0.126
-240.917	800.000	-0.165	-0.511
-239.903	488.747	-0.056	0.125
-238.888	-76.348	0.343	0.119
-237.873	153.675	-0.153	0.207
-236.859	-104.439	0.165	0.038
-235.844	800.000	-0.021	-0.060
-234.830	-200.000	-0.024	0.135
-233.815	32.724	-0.384	0.329
-232.800	192.170	0.104	-0.155
-231.786	-200.000	0.009	-0.236
-230.771	250.310	0.084	-0.141
-229.757	-200.000	-0.063	0.332
-228.742	-200.000	0.013	-0.156
-227.727	48.757	-0.105	0.097
-226.713	-11.594	-0.178	-0.116
-225.698	-147.286	0.126	0.011
-224.684	-96.833	0.222	0.058
-223.669	-200.000	0.174	0.001
-222.655	800.000	-0.057	0.178
-221.640	-90.016	-0.251	0.072
-220.625	-3.196	-0.172	-0.119
-219.611	-188.803	-0.104	0.001
-218.596	-46.648	0.122	-0.059
-217.582	-107.732	-0.203	-0.044
-216.567	800.000	0.022	0.087
-215.552	194.047	-0.103	-0.155
-214.538	-30.726	-0.065	0.036
-213.523	-148.230	0.172	-0.014
-212.509	571.782	-0.111	0.268
-211.494	-136.058	-0.339	0.039
-210.479	-200.000	0.002	-0.063
-209.465	-200.000	-0.010	0.298
-208.450	309.621	-0.128	0.236
-207.436	368.609	0.171	0.342
-206.421	-154.334	0.082	-0.005
-205.406	-113.390	-0.301	0.058
-204.392	-0.736	0.297	0.208
-203.377	-74.917	0.254	0.090
-202.363	269.453	0.120	0.208
-201.348	-200.000	0.049	0.219
-200.333	800.000	-0.083	0.273
-199.319	263.550	-0.208	0.357
-198.304	-200.000	0.045	0.409
-197.290	85.615	0.051	0.055
-196.275	194.000	-0.046	0.068
-195.260	-200.000	-0.016	0.223
-194.246	-200.000	-0.007	0.070
-193.231	-200.000	-0.052	0.236
-192.217	-54.611	-0.134	0.060
-191.202	387.553	0.103	0.210
-190.187	-192.331	-0.119	0.001
-189.173	-200.000	0.038	-0.193
-188.158	800.000	0.034	-0.114
-187.144	182.823	0.233	-0.339
-186.129	411.601	0.068	0.142
-185.114	430.738	-0.102	0.218
-184.100	-85.996	-0.187	-0.057
-183.085	-29.940	-0.185	0.104
-182.071	5.179	0.349	-0.254
-181.056	282.565	0.139	-0.246
-180.042	-13.595	-0.240	0.153
-179.027	-23.132	0.224	-0.133
-178.012	800.000	0.087	-0.290
-176.998	800.000	0.066	-0.202
-175.983	-115.085	0.201	-0.038
-174.969	-141.709	0.281	-0.028
-173.954	73.106	-0.309	-0.318
-172.939	-67.739	0.150	0.058
-171.925	498.752	0.116	0.263
-170.910	-76.907	-0.318	-0.110
-169.896	-200.000	0.016	-0.141
-168.881	800.000	-0.065	-0.212
-167.866	-200.000	0.000	-0.011
-166.852	800.000	-0.039	-0.157
-165.837	224.786	0.104	0.167
-164.823	-14.021	0.158	0.101
-163.808	21.399	-0.287	0.230
-162.793	38.203	0.135	-0.118
-161.779	200.410	-0.099	-0.150
-160.764	200.615	-0.156	0.237
-159.750	155.586	0.187	0.254
-158.735	217.262	0.062	0.097
-157.720	800.000	0.127	-0.458
-156.706	91.123	-0.117	-0.129
-155.691	61.519	-0.246	0.241
-154.677	-35.258	0.292	-0.157
-153.662	36.086	-0.316	0.275
-152.647	477.642	0.025	-0.056
-151.633	85.836	-0.087	-0.094
-150.618	-153.327	0.116	0.008
-149.604	-159.080	-0.164	-0.009
-148.589	-164.737	-0.323	0.014
-147.574	-76.902	0.165	0.057
-146.560	800.000	-0.015	0.065
-145.545	-200.000	0.026	0.246
-144.531	-107.222	-0.190	-0.041
-143.516	-176.184	-0.106	0.003
-142.502	-102.629	0.355	-0.084
-141.487	232.303	0.126	-0.204
-140.472	14.895	0.125	-0.096
-139.458	-167.379	-0.302	0.012
-138.443	529.241	-0.107	0.248
-137.429	800.000	-0.017	-0.050
-136.414	-55.966	0.466	0.205
-135.399	-158.794	0.315	0.018
-134.385	1.712	-0.325	0.231
-133.370	37.801	-0.138	-0.120
-132.356	-87.834	0.333	0.099
-131.341	-157.059	0.137	0.008
-130.326	-64.537	-0.193	0.077
-129.312	-43.313	0.168	0.084
-128.297	31.017	-0.113	0.095
-127.283	-200.000	0.017	-0.089
-126.268	70.923	0.265	0.271
-125.253	-200.000	0.002	0.018
-124.239	-138.828	0.163	-0.017
-123.224	144.563	0.064	0.084
-122.210	-92.976	-0.163	-0.045
