DTS Sentinel unit serial number:	SN413079Multiplexer serial number:	ORYXHardware model number:	OX4-SRSoftware version number:	ORYX F/W v4.00 Oryx Data Collector v3.7.2.0data status	okinstallation	princeton_trtdifferential loss correction	single-endedforward channel	channel 1reverse channel	N/Adate	2019/09/12time	21:46:35forward acquisition time	60.00reverse acquisition time	0.00gamma	496.2192k internal	0.2326k external	0.2326temperature offset calibration	1.0146default loss term (dB/km)	0.3790temperature slope calibration	1.0000multiplexer offset coefficient	1.0000multiplexer slope coefficient	1.0000fibre end	0.00T internal ref (°C)	30.25T ext. ref 1 (°C)	3.72T ext. ref 2 (°C)	24.81length (m)	temperature (°C)	Stokes	anti-Stokes-747.200	101.901	0.206	0.242
-746.185	-200.000	0.012	0.188
-745.171	-185.505	-0.237	0.004
-744.156	50.640	-0.185	0.176
-743.142	-41.029	-0.171	0.089
-742.127	727.703	0.023	0.062
-741.112	800.000	0.052	-0.163
-740.098	37.212	0.239	0.214
-739.083	-170.165	-0.222	0.008
-738.069	59.765	-0.204	0.203
-737.054	800.000	-0.017	0.049
-736.039	58.734	0.162	0.160
-735.025	-65.590	0.492	0.199
-734.010	3.179	-0.166	-0.122
-732.996	-200.000	0.014	-0.316
-731.981	28.541	-0.164	-0.140
-730.966	14.643	0.124	-0.098
-729.952	135.427	0.107	0.140
-728.937	-77.079	-0.111	-0.039
-727.923	-75.424	-0.117	-0.042
-726.908	800.000	0.076	-0.248
-725.894	-20.226	0.101	0.063
-724.879	62.878	-0.139	-0.140
-723.864	66.926	-0.347	-0.356
-722.850	-200.000	0.007	0.070
-721.835	-200.000	-0.019	-0.163
-720.821	800.000	-0.075	0.211
-719.806	-200.000	0.360	0.000
-718.791	800.000	-0.101	-0.287
-717.777	-35.779	-0.136	-0.074
-716.762	121.205	0.274	-0.343
-715.748	-200.000	-0.003	-0.058
-714.733	-198.206	-0.165	0.001
-713.718	-65.876	-0.242	-0.097
-712.704	-145.022	-0.156	0.014
-711.689	126.421	-0.037	-0.047
-710.675	-83.812	-0.185	0.059
-709.660	-27.426	-0.419	0.245
-708.645	170.995	0.073	-0.105
-707.631	-49.727	-0.256	0.123
-706.616	144.391	0.142	-0.191
-705.602	-151.773	-0.017	-0.001
-704.587	110.458	-0.170	0.206
-703.572	18.863	-0.152	0.123
-702.558	-37.151	-0.138	-0.075
-701.543	418.915	-0.128	0.277
-700.529	-200.000	-0.027	-0.138
-699.514	-200.000	-0.045	-0.273
-698.499	138.859	-0.148	0.195
-697.485	523.056	-0.024	0.056
-696.470	-58.057	-0.101	0.044
-695.456	-200.000	-0.007	0.070
-694.441	-200.000	-0.032	-0.265
-693.426	-200.000	0.054	-0.299
-692.412	-200.000	0.024	-0.127
-691.397	-59.773	-0.244	0.105
-690.383	800.000	0.077	-0.233
-689.368	-178.775	0.405	-0.009
-688.354	800.000	0.075	0.248
-687.339	-45.830	0.171	0.085
-686.324	492.087	0.078	-0.180
-685.310	47.616	0.186	-0.175
-684.295	91.057	-0.172	0.194
-683.281	-91.918	-0.102	0.029
-682.266	777.638	0.025	-0.069
-681.251	-138.277	-0.122	-0.014
-680.237	-13.003	-0.135	0.088
-679.222	800.000	0.044	0.138
-678.208	800.000	0.025	-0.092
-677.193	507.999	-0.083	-0.194
-676.178	69.857	-0.091	-0.095
-675.164	-80.781	-0.372	-0.124
-674.149	186.644	-0.151	-0.225
-673.135	323.039	-0.217	-0.417
-672.120	16.270	-0.093	-0.074
-671.105	-200.000	0.054	-0.267
-670.091	-99.861	0.354	0.089
-669.076	-200.000	-0.028	0.142
-668.062	800.000	-0.081	0.265
-667.047	-9.298	-0.212	0.143
-666.032	132.654	0.061	-0.080
-665.018	-175.661	0.210	0.006
-664.003	-135.524	-0.106	0.013
-662.989	-200.000	-0.020	0.189
-661.974	9.911	0.141	-0.107
-660.959	36.672	-0.177	-0.157
-659.945	36.939	0.076	0.068
-658.930	-200.000	0.003	-0.048
-657.916	279.125	-0.069	-0.123
-656.901	97.870	-0.225	0.260
-655.886	410.143	-0.112	-0.239
-654.872	-200.000	-0.031	0.140
-653.857	19.841	0.103	0.083
-652.843	67.384	0.331	-0.340
-651.828	169.034	-0.134	-0.193
-650.814	-77.951	0.293	-0.102
-649.799	754.471	-0.160	-0.435
-648.784	-200.000	-0.047	0.313
-647.770	-159.746	0.414	-0.023
-646.755	-48.096	0.269	0.130
-645.741	-17.508	0.268	0.169
-644.726	-60.717	0.155	0.066
-643.711	-20.731	0.209	-0.129
-642.697	31.461	0.144	-0.125
-641.682	-31.752	-0.272	-0.153
-640.668	-200.000	0.015	-0.153
-639.653	-34.967	0.115	0.063
-638.638	-109.713	-0.086	-0.018
-637.624	218.964	0.107	0.172
-636.609	219.184	0.194	0.312
-635.595	85.307	-0.205	0.226
-634.580	400.282	-0.042	-0.089
-633.565	800.000	0.079	-0.277
-632.551	11.210	0.089	0.069
-631.536	-73.557	0.151	0.055
-630.522	800.000	-0.094	0.315
-629.507	-44.501	-0.258	0.130
-628.492	121.681	0.174	-0.217
-627.478	51.548	-0.071	0.068
-626.463	800.000	0.059	0.188
-625.449	-155.734	-0.158	0.010
-624.434	76.746	0.234	0.249
-623.419	183.690	0.181	-0.268
-622.405	-68.891	0.218	-0.085
-621.390	50.141	-0.178	0.169
-620.376	127.858	0.095	-0.121
-619.361	219.044	-0.020	0.032
-618.346	-142.831	-0.460	0.045
-617.332	-200.000	0.043	-0.212
-616.317	-93.055	0.043	-0.012
-615.303	800.000	0.066	-0.268
-614.288	-200.000	0.013	-0.097
-613.273	-200.000	-0.022	0.161
-612.259	800.000	-0.099	-0.321
-611.244	-11.542	0.170	-0.112
-610.230	800.000	0.043	0.151
-609.215	134.480	-0.198	-0.258
-608.201	308.126	-0.170	0.318
-607.186	57.565	0.217	-0.213
-606.171	185.490	-0.119	0.177
-605.157	560.972	0.080	0.195
-604.142	-140.122	-0.049	-0.005
-603.128	-77.161	0.179	-0.062
-602.113	356.735	-0.082	-0.163
-601.098	-200.000	0.003	-0.198
-600.084	800.000	0.047	0.187
-599.069	146.507	0.238	0.321
-598.055	-157.263	-0.395	-0.024
-597.040	-200.000	-0.026	-0.246
-596.025	65.875	0.158	0.160
-595.011	-158.978	0.025	-0.001
-593.996	800.000	0.043	-0.173
-592.982	21.366	-0.345	-0.281
-591.967	-200.000	-0.006	0.146
-590.952	-132.579	-0.163	0.021
-589.938	169.377	-0.095	-0.136
-588.923	132.530	-0.135	0.175
-587.909	-200.000	-0.051	0.258
-586.894	232.984	-0.213	0.351
-585.879	211.347	0.061	-0.097
-584.865	160.153	0.199	0.278
-583.850	-181.824	-0.282	0.005
-582.836	131.488	0.109	-0.140
-581.821	-47.838	0.334	0.162
-580.806	57.574	0.164	0.160
-579.792	58.872	-0.195	0.192
-578.777	30.856	-0.299	0.257
-577.763	-25.241	0.224	0.133
-576.748	-200.000	-0.024	0.109
-575.733	-103.061	0.289	-0.069
-574.719	-200.000	0.002	0.152
-573.704	227.916	0.100	0.162
-572.690	-122.599	0.348	0.057
-571.675	170.749	-0.128	0.183
-570.661	-68.712	-0.243	-0.094
-569.646	517.807	-0.093	0.218
-568.631	-90.660	-0.370	-0.107
-567.617	-200.000	0.023	-0.118
-566.602	-194.919	0.124	-0.001
-565.588	-140.842	-0.264	0.027
-564.573	233.967	0.073	-0.120
-563.558	-65.358	0.382	-0.154
-562.544	-27.450	0.240	-0.140
-561.529	-125.680	-0.393	-0.060
-560.515	-3.321	0.076	-0.053
-559.500	16.003	-0.369	-0.291
-558.485	-17.665	0.153	-0.096
-557.471	157.376	-0.138	-0.191
-556.456	-115.677	-0.026	0.005
-555.442	69.327	-0.126	-0.130
-554.427	33.577	-0.191	-0.166
-553.412	-5.501	-0.298	0.205
-552.398	24.525	-0.151	-0.125
-551.383	225.795	-0.186	-0.301
-550.369	800.000	-0.020	-0.059
-549.354	800.000	-0.047	0.143
-548.339	800.000	0.104	-0.329
-547.325	-50.267	0.080	0.038
-546.310	-200.000	0.017	-0.257
-545.296	-93.863	-0.133	-0.037
-544.281	-200.000	0.008	0.059
-543.266	495.280	0.032	0.074
-542.252	43.273	0.433	0.396
-541.237	800.000	0.079	0.227
-540.223	-56.817	-0.161	0.071
-539.208	310.002	0.061	0.113
-538.193	266.671	-0.124	-0.216
-537.179	51.417	-0.273	0.260
-536.164	-200.000	-0.015	-0.085
-535.150	86.617	0.077	-0.085
-534.135	-84.648	0.310	-0.098
-533.121	-12.067	-0.215	-0.141
-532.106	-200.000	0.180	-0.001
-531.091	98.865	-0.062	-0.071
-530.077	-2.581	-0.163	0.114
-529.062	279.348	0.231	0.412
-528.048	-200.000	0.004	-0.168
-527.033	18.237	0.096	0.076
-526.018	-177.671	0.193	-0.005
-525.004	235.173	-0.055	-0.091
-523.989	-80.065	-0.251	0.084
-522.975	-200.000	-0.005	-0.148
-521.960	38.342	-0.099	0.088
-520.945	111.571	0.134	0.161
-519.931	-32.861	0.303	0.168
-518.916	-8.453	-0.169	0.114
-517.902	301.170	-0.204	0.376
-516.887	-151.665	-0.110	0.008
-515.872	-76.587	-0.286	-0.100
-514.858	33.081	0.241	-0.209
-513.843	-74.155	0.297	-0.108
-512.829	-80.711	-0.252	-0.084
-511.814	-73.326	0.404	-0.148
-510.799	-200.000	-0.003	-0.133
-509.785	-130.760	0.156	0.021
-508.770	89.269	0.141	-0.157
-507.756	-200.000	-0.192	-0.001
-506.741	-158.546	0.050	-0.003
-505.726	-200.000	0.003	0.099
-504.712	-77.947	-0.283	0.098
-503.697	-40.403	0.064	0.033
-502.683	45.200	-0.356	0.328
-501.668	800.000	-0.050	0.182
-500.653	-38.542	0.322	-0.170
-499.639	332.244	0.102	0.197
-498.624	175.380	0.049	-0.070
-497.610	8.709	-0.399	-0.300
-496.595	303.804	-0.121	0.224
-495.581	-200.000	-0.013	0.129
-494.566	-9.885	0.235	0.156
-493.551	800.000	-0.052	0.184
-492.537	322.778	0.123	0.233
-491.522	-88.578	-0.296	-0.088
-490.508	-200.000	-0.020	-0.378
-489.493	-52.661	0.158	-0.073
-488.478	-76.421	0.084	0.030
-487.464	389.351	-0.207	0.428
-486.449	-88.316	-0.116	-0.035
-485.435	-72.645	-0.254	-0.093
-484.420	115.034	-0.186	-0.226
-483.405	17.255	0.195	0.155
-482.391	209.975	-0.277	-0.434
-481.376	-200.000	-0.002	-0.034
-480.362	206.502	0.106	-0.165
-479.347	-121.499	0.079	-0.013
-478.332	-67.173	-0.182	-0.072
-477.318	-200.000	-0.017	-0.103
-476.303	164.599	0.239	0.336
-475.289	-23.745	-0.120	-0.072
-474.274	-200.000	0.001	0.176
-473.259	-200.000	0.095	0.477
-472.245	800.000	0.100	0.367
-471.230	-200.000	0.061	0.462
-470.216	154.486	-0.045	0.062
-469.201	800.000	0.099	-0.356
-468.186	7.486	-0.153	0.114
-467.172	-17.068	-0.290	0.183
-466.157	29.989	-0.225	-0.191
-465.143	-140.897	-0.349	0.036
-464.128	-89.704	-0.225	0.066
-463.113	-200.000	0.088	-0.433
-462.099	457.232	-0.134	-0.296
-461.084	-120.195	-0.135	0.023
-460.070	-200.000	0.009	-0.072
-459.055	-200.000	-0.007	0.141
-458.040	-200.000	-0.016	0.170
-457.026	-177.407	-0.251	0.006
-456.011	54.515	0.150	0.144
-454.997	-97.177	-0.196	-0.051
-453.982	-10.896	-0.248	-0.164
-452.968	194.076	-0.159	0.240
-451.953	-62.754	-0.051	0.021
-450.938	-5.216	0.151	-0.104
-449.924	800.000	-0.044	-0.173
-448.909	-10.291	0.311	-0.205
-447.895	-200.000	-0.004	-0.045
-446.880	-172.241	0.258	0.008
-445.865	-117.354	0.257	-0.046
-444.851	74.129	0.173	-0.181
-443.836	280.640	0.151	-0.269
-442.822	-115.523	-0.370	0.069
-441.807	-41.998	-0.209	-0.106
-440.792	-18.997	0.149	-0.092
-439.778	1.234	0.137	-0.098
-438.763	-200.000	0.026	-0.314
-437.749	800.000	0.067	0.238
-436.734	-27.675	0.228	0.132
-435.719	120.846	-0.156	0.193
-434.705	205.734	0.077	0.119
-433.690	371.182	0.118	0.239
-432.676	-29.216	-0.117	-0.067
-431.661	709.359	0.074	0.195
-430.646	800.000	-0.074	0.220
-429.632	598.238	0.042	-0.103
-428.617	-65.958	-0.141	-0.056
-427.603	10.495	0.005	0.003
-426.588	158.393	0.090	-0.125
-425.573	38.282	-0.425	-0.377
-424.559	-47.383	0.280	-0.136
-423.544	-87.949	0.580	0.174
-422.530	-11.534	-0.090	-0.059
-421.515	800.000	0.036	0.129
-420.500	-21.719	0.392	-0.238
-419.486	-77.037	0.175	-0.061
-418.471	-167.680	-0.318	0.013
-417.457	317.811	0.069	0.131
-416.442	-55.644	0.262	0.117
-415.428	-97.474	0.183	-0.047
-414.413	-200.000	-0.054	0.318
-413.398	-102.743	0.125	0.030
-412.384	-150.026	-0.064	0.005
-411.369	663.872	-0.198	0.508
-410.355	-44.142	0.080	-0.040
-409.340	-39.377	0.172	-0.090
-408.325	678.665	0.056	-0.144
-407.311	95.902	0.112	0.128
-406.296	-1.465	0.344	0.241
-405.282	101.750	-0.167	-0.193
-404.267	-200.000	-0.039	0.285
-403.252	800.000	-0.020	0.067
-402.238	-136.209	-0.298	-0.035
-401.223	279.095	0.087	0.154
-400.209	-175.839	-0.187	0.005
-399.194	530.205	-0.008	-0.018
-398.179	360.686	0.107	-0.214
-397.165	-112.409	-0.088	-0.018
-396.150	-28.608	0.222	0.127
-395.136	-175.874	-0.159	0.004
-394.121	199.425	0.120	-0.183
-393.106	309.146	-0.078	-0.146
-392.092	-23.275	-0.056	-0.034
-391.077	-116.004	0.030	0.006
-390.063	-98.840	-0.173	0.044
-389.048	-104.027	0.271	-0.063
-388.033	378.573	0.049	0.101
-387.019	800.000	-0.121	0.452
-386.004	-83.831	-0.133	-0.042
-384.990	-200.000	0.010	-0.178
-383.975	108.605	-0.313	-0.372
-382.960	208.383	-0.009	0.013
-381.946	34.670	0.089	0.078
-380.931	-31.096	-0.239	0.134
-379.917	-200.000	-0.037	-0.321
-378.902	800.000	0.129	-0.425
-377.888	487.712	0.110	-0.249
-376.873	-77.203	0.233	0.081
-375.858	-200.000	-0.059	0.391
-374.844	-78.349	0.403	0.137
-373.829	-200.000	-0.049	0.233
-372.815	-32.258	0.202	0.112
-371.800	-139.011	0.243	0.026
-370.785	800.000	-0.080	0.219
-369.771	-2.510	0.146	0.102
-368.756	-22.991	0.260	-0.156
-367.742	36.637	0.051	-0.045
-366.727	-115.686	-0.126	-0.024
-365.712	-30.410	0.097	-0.055
-364.698	35.148	0.297	-0.259
-363.683	94.616	-0.112	-0.127
-362.669	-200.000	0.012	0.073
-361.654	731.322	-0.117	0.312
-360.639	-124.559	-0.188	0.029
-359.625	-136.476	0.192	0.022
-358.610	-136.531	-0.181	0.021
-357.596	-82.436	-0.191	-0.061
-356.581	-43.423	0.311	0.156
-355.566	3.536	-0.265	0.192
-354.552	70.491	-0.157	-0.161
-353.537	-57.587	-0.119	-0.052
-352.523	115.579	-0.169	0.205
-351.508	-149.224	0.147	0.012
-350.493	-18.376	-0.350	-0.217
-349.479	-100.133	-0.256	0.063
-348.464	-87.314	0.126	0.038
-347.450	156.718	0.111	0.152
-346.435	-115.587	0.108	0.020
-345.420	176.396	-0.160	-0.231
-344.406	3.239	0.162	-0.117
-343.391	-200.000	0.037	-0.235
-342.377	458.414	0.099	-0.218
-341.362	45.417	-0.143	0.131
-340.348	169.231	0.121	0.171
-339.333	29.247	-0.317	0.267
-338.318	97.932	0.014	-0.016
-337.304	-75.977	0.087	0.030
-336.289	-200.000	-0.003	-0.141
-335.275	-140.018	0.301	0.032
-334.260	-149.809	0.247	0.019
-333.245	-36.332	0.145	-0.078
-332.231	-200.000	-0.018	-0.104
-331.216	-199.492	-0.188	0.001
-330.202	-98.385	0.173	-0.044
-329.187	-119.936	0.009	-0.002
-328.172	60.212	0.154	0.151
-327.158	-106.644	-0.299	0.066
-326.143	-81.206	0.306	-0.100
-325.129	-155.392	0.333	-0.021
-324.114	-161.512	-0.036	0.002
-323.099	489.262	0.033	0.075
-322.085	-88.013	0.096	0.029
-321.070	129.011	-0.287	0.363
-320.056	-59.590	-0.264	-0.112
-319.041	-189.999	-0.327	0.004
-318.026	453.818	0.132	0.289
-317.012	-52.173	0.277	-0.128
-315.997	-31.647	-0.231	0.129
-314.983	-105.105	-0.153	-0.035
-313.968	-0.590	-0.173	-0.122
-312.953	54.779	0.140	0.134
-311.939	-10.388	0.204	0.134
-310.924	12.018	0.216	-0.165
-309.910	11.687	0.327	0.249
-308.895	16.039	0.149	0.116
-307.880	118.910	-0.208	-0.255
-306.866	248.513	0.121	-0.203
-305.851	-123.593	-0.177	-0.028
-304.837	-200.000	0.010	0.309
-303.822	705.351	-0.025	-0.064
-302.807	374.259	0.162	-0.326
-301.793	-38.480	0.069	-0.036
-300.778	710.548	-0.109	0.287
-299.764	-200.000	0.071	-0.356
-298.749	144.042	0.249	0.329
-297.735	-116.772	0.202	0.037
-296.720	446.964	0.050	0.109
-295.705	37.477	-0.137	0.120
-294.691	85.186	-0.312	0.339
-293.676	100.552	0.081	0.094
-292.662	44.800	0.114	0.104
-291.647	-176.110	0.122	0.003
-290.632	-118.939	0.189	0.033
-289.618	95.966	0.075	-0.085
-288.603	-200.000	-0.001	0.021
-287.589	-26.029	0.063	0.037
-286.574	800.000	-0.027	0.097
-285.559	197.625	-0.081	-0.122
-284.545	-46.444	0.062	-0.030
-283.530	82.389	-0.207	-0.223
-282.516	-108.975	0.327	-0.069
-281.501	525.843	-0.010	-0.024
-280.486	-141.351	0.370	-0.037
-279.472	-200.000	-0.056	-0.283
-278.457	58.296	0.107	-0.104
-277.443	-44.779	0.234	0.116
-276.428	800.000	0.049	0.156
-275.413	605.827	0.070	-0.172
-274.399	800.000	-0.006	-0.024
-273.384	-153.789	-0.200	-0.014
-272.370	395.984	0.176	-0.363
-271.355	-23.637	0.078	0.046
-270.340	-13.113	-0.346	-0.223
-269.326	800.000	0.033	-0.129
-268.311	296.467	-0.014	-0.026
-267.297	-0.109	-0.176	-0.124
-266.282	800.000	0.026	0.075
-265.267	-200.000	-0.022	-0.359
-264.253	800.000	-0.098	0.397
-263.238	612.963	0.088	0.219
-262.224	-200.000	-0.018	0.160
-261.209	44.759	0.163	-0.148
-260.195	-108.571	-0.214	0.045
-259.180	53.391	0.151	-0.143
-258.165	419.119	0.195	-0.412
-257.151	-200.000	0.031	0.143
-256.136	39.361	-0.120	-0.106
-255.122	-62.590	0.223	-0.092
-254.107	-93.575	-0.039	0.011
-253.092	7.818	-0.211	-0.157
-252.078	395.920	0.034	-0.069
-251.063	-168.192	-0.265	0.010
-250.049	793.975	-0.012	0.034
-249.034	-60.068	-0.553	0.234
-248.019	-200.000	-0.001	-0.048
-247.005	-5.381	0.279	-0.190
-245.990	628.078	-0.045	0.113
-244.976	753.308	0.054	-0.145
-243.961	-109.853	0.111	0.023
-242.946	-184.059	-0.174	0.003
-241.932	-1.328	-0.381	0.266
-240.917	800.000	-0.079	-0.280
-239.903	-93.465	-0.214	-0.059
-238.888	22.431	0.030	-0.025
-237.873	144.901	0.066	-0.087
-236.859	1.522	-0.250	-0.178
-235.844	-58.315	-0.240	0.103
-234.830	-145.649	-0.175	0.015
-233.815	-200.000	0.001	0.137
-232.800	800.000	-0.079	0.256
-231.786	-33.584	0.067	-0.037
-230.771	4.268	0.100	-0.072
-229.757	-69.322	0.198	-0.075
-228.742	-95.405	0.185	-0.049
-227.727	488.862	0.100	0.226
-226.713	-66.059	-0.232	-0.092
-225.698	-200.000	0.007	0.186
-224.684	800.000	-0.092	-0.347
-223.669	-200.000	0.023	-0.312
-222.655	-124.457	0.053	-0.008
-221.640	471.619	-0.080	-0.179
-220.625	-200.000	0.033	0.202
-219.611	-176.773	-0.393	0.010
-218.596	-127.682	-0.236	-0.034
-217.582	795.747	0.117	-0.319
-216.567	-14.166	0.083	0.053
-215.552	-158.616	0.351	0.020
-214.538	800.000	-0.068	-0.202
-213.523	800.000	-0.067	-0.203
-212.509	-149.498	-0.270	0.021
-211.494	562.093	-0.082	0.196
-210.479	-165.543	-0.102	-0.004
-209.465	287.490	-0.129	-0.230
-208.450	-200.000	-0.027	0.180
-207.436	601.605	-0.117	0.286
-206.421	-21.142	-0.274	-0.165
-205.406	-126.998	0.199	-0.029
-204.392	-57.625	0.238	-0.103
-203.377	235.982	0.066	-0.108
-202.363	-95.790	0.040	0.011
-201.348	-116.387	0.338	0.062
-200.333	-57.672	0.195	-0.084
-199.319	118.041	-0.174	0.212
-198.304	-79.546	-0.250	0.083
-197.290	347.318	-0.176	-0.343
-196.275	-108.969	-0.154	-0.032
-195.260	-93.879	-0.109	-0.030
-194.246	-200.000	0.014	0.413
-193.231	64.050	0.039	0.038
-192.217	800.000	0.070	-0.299
-191.202	-132.087	-0.171	-0.022
-190.187	326.807	-0.024	0.046
-189.173	117.682	-0.238	-0.289
-188.158	-200.000	0.025	-0.299
-187.144	-123.635	0.179	-0.028
-186.129	1.267	-0.153	0.108
-185.114	-44.458	-0.277	0.137
-184.100	62.328	0.122	0.120
-183.085	204.376	-0.204	-0.312
-182.071	800.000	-0.052	0.155
-181.056	-71.369	-0.094	0.035
-180.042	-107.701	-0.127	-0.027
-179.027	45.881	-0.136	-0.124
-178.012	-200.000	-0.007	0.160
-176.998	-163.654	0.308	-0.014
-175.983	68.350	0.106	0.107
-174.969	-200.000	-0.008	0.499
-173.954	64.499	-0.209	-0.208
-172.939	-28.607	-0.151	0.086
-171.925	37.989	0.162	0.142
-170.910	34.251	-0.236	-0.203
-169.896	10.440	0.187	-0.141
-168.881	-200.000	0.055	0.243
-167.866	-172.719	-0.165	0.005
-166.852	272.923	0.038	-0.066
-165.837	1.900	0.330	-0.235
-164.823	1.613	0.224	-0.159
-163.808	123.463	0.240	0.296
-162.793	648.186	-0.108	-0.272
-161.779	-131.552	0.200	0.026
-160.764	509.123	0.109	-0.249
-159.750	-200.000	0.010	0.108
-158.735	-9.431	-0.156	0.102
-157.720	-200.000	-0.015	-0.174
-156.706	-90.562	0.291	0.083
-155.691	7.861	0.280	-0.207
-154.677	201.912	0.110	-0.168
-153.662	43.780	-0.039	0.035
-152.647	178.732	-0.066	-0.096
-151.633	35.613	0.058	0.050
-150.618	800.000	-0.067	0.239
-149.604	-132.434	0.173	0.022
-148.589	195.884	-0.044	-0.066
-147.574	128.707	-0.050	-0.062
-146.560	326.723	-0.279	-0.527
-145.545	96.810	0.268	0.302
-144.531	60.478	-0.060	0.059
-143.516	101.934	-0.098	-0.112
-142.502	-56.294	0.335	-0.146
-141.487	405.312	0.189	0.392
-140.472	-18.887	-0.348	-0.213
-139.458	-88.778	0.198	-0.058
-138.443	96.806	0.241	-0.272
-137.429	-85.407	-0.165	0.051
-136.414	-200.000	-0.018	-0.126
-135.399	31.884	0.111	0.094
-134.385	-42.393	-0.356	-0.179
-133.370	-22.642	-0.095	0.056
-132.356	-200.000	0.034	0.177
-131.341	-94.742	0.094	0.025
-130.326	800.000	0.059	-0.178
-129.312	307.336	0.069	0.126
-128.297	-154.513	0.168	0.011
-127.283	36.743	0.161	0.140
-126.268	152.937	0.118	0.158
-125.253	-200.000	0.020	0.211
-124.239	193.780	0.167	0.249
-123.224	25.935	0.133	-0.109
-122.210	-24.038	-0.184	-0.108
-121.195	468.808	-0.033	-0.072
-120.180	800.000	0.040	0.152
