DTS Sentinel unit serial number:	SN413079Multiplexer serial number:	ORYXHardware model number:	OX4-SRSoftware version number:	ORYX F/W v4.00 Oryx Data Collector v3.7.2.0data status	okinstallation	princeton_trtdifferential loss correction	single-endedforward channel	channel 1reverse channel	N/Adate	2019/09/15time	02:30:35forward acquisition time	60.00reverse acquisition time	0.00gamma	496.2192k internal	0.2322k external	0.2322temperature offset calibration	0.9986default loss term (dB/km)	0.3790temperature slope calibration	1.0000multiplexer offset coefficient	1.0000multiplexer slope coefficient	1.0000fibre end	0.00T internal ref (°C)	31.50T ext. ref 1 (°C)	4.54T ext. ref 2 (°C)	25.82length (m)	temperature (°C)	Stokes	anti-Stokes-747.200	255.480	0.208	0.361
-746.185	-73.480	0.318	0.117
-745.171	-105.359	-0.220	-0.051
-744.156	-0.835	0.229	0.164
-743.142	20.697	0.240	-0.196
-742.127	-200.000	0.044	0.459
-741.112	-200.000	-0.003	-0.087
-740.098	-91.394	0.144	0.042
-739.083	-93.991	-0.271	0.075
-738.069	-200.000	0.017	0.345
-737.054	-200.000	0.016	0.137
-736.039	19.127	-0.060	-0.048
-735.025	42.848	0.139	0.128
-734.010	-200.000	0.066	0.325
-732.996	-143.230	-0.321	-0.031
-731.981	800.000	0.037	-0.164
-730.966	317.747	0.070	0.134
-729.952	-200.000	0.020	-0.230
-728.937	49.071	-0.086	-0.082
-727.923	-73.248	0.184	-0.068
-726.908	800.000	-0.048	0.142
-725.894	-200.000	0.035	0.184
-724.879	-113.818	0.051	0.010
-723.864	-43.175	-0.273	0.140
-722.850	58.318	-0.026	-0.026
-721.835	62.536	-0.098	-0.099
-720.821	658.788	-0.081	-0.212
-719.806	63.358	-0.201	-0.204
-718.791	-200.000	-0.052	0.243
-717.777	-200.000	0.028	-0.171
-716.762	-200.000	0.050	-0.416
-715.748	431.514	0.088	-0.193
-714.733	-22.055	0.121	-0.074
-713.718	-111.143	0.184	-0.038
-712.704	-200.000	-0.031	-0.153
-711.689	15.630	-0.514	-0.407
-710.675	-122.829	0.219	-0.036
-709.660	800.000	-0.169	-0.539
-708.645	-57.302	0.132	-0.059
-707.631	268.468	-0.103	-0.182
-706.616	-146.299	-0.204	-0.018
-705.602	-200.000	0.006	-0.125
-704.587	800.000	-0.047	0.192
-703.572	-95.071	-0.136	-0.037
-702.558	276.363	-0.120	0.214
-701.543	-41.309	0.200	0.104
-700.529	800.000	-0.033	0.114
-699.514	800.000	-0.039	-0.126
-698.499	160.735	0.026	-0.037
-697.485	-173.916	-0.178	-0.005
-696.470	258.479	0.081	0.141
-695.456	-182.066	0.245	0.005
-694.441	-105.356	-0.323	-0.074
-693.426	315.379	0.157	-0.298
-692.412	38.246	-0.094	-0.084
-691.397	-54.806	0.255	0.116
-690.383	-132.525	-0.324	-0.042
-689.368	-200.000	0.017	0.087
-688.354	-69.253	0.465	-0.180
-687.339	-79.211	0.398	-0.136
-686.324	-200.000	-0.025	-0.245
-685.310	207.088	0.082	-0.129
-684.295	800.000	-0.010	0.036
-683.281	27.530	-0.152	-0.129
-682.266	-120.141	0.315	-0.054
-681.251	370.244	0.143	0.292
-680.237	-200.000	0.003	-0.439
-679.222	-70.309	0.467	-0.179
-678.208	-14.005	-0.303	-0.197
-677.193	170.950	0.109	-0.158
-676.178	-200.000	-0.022	0.161
-675.164	3.938	0.048	-0.035
-674.149	-200.000	-0.001	0.261
-673.135	20.878	0.177	-0.144
-672.120	-182.795	0.207	-0.004
-671.105	249.054	-0.097	0.165
-670.091	-152.954	0.208	0.015
-669.076	-133.974	0.175	0.022
-668.062	-81.107	-0.343	-0.114
-667.047	714.339	0.146	-0.390
-666.032	-165.161	-0.244	-0.011
-665.018	541.039	-0.033	-0.079
-664.003	78.439	0.145	-0.156
-662.989	800.000	-0.159	0.469
-661.974	-161.721	0.071	-0.004
-660.959	-108.105	0.256	0.056
-659.945	23.078	0.250	0.207
-658.930	-132.146	0.167	-0.022
-657.916	800.000	-0.062	-0.182
-656.901	269.188	0.200	-0.354
-655.886	164.931	-0.062	-0.088
-654.872	-11.882	0.147	-0.097
-653.857	65.134	-0.188	0.191
-652.843	800.000	-0.070	0.201
-651.828	800.000	-0.066	-0.253
-650.814	-46.010	0.297	0.147
-649.799	-200.000	0.051	0.391
-648.784	36.058	-0.038	0.034
-647.770	-115.670	-0.134	0.025
-646.755	-200.000	-0.019	0.152
-645.741	-103.307	-0.240	0.057
-644.726	8.598	-0.193	-0.146
-643.711	-58.785	-0.108	0.047
-642.697	-200.000	-0.017	0.135
-641.682	226.954	-0.123	-0.201
-640.668	-74.253	-0.062	0.023
-639.653	-200.000	-0.016	-0.212
-638.638	45.590	0.300	-0.279
-637.624	28.996	0.100	-0.085
-636.609	23.626	0.068	0.056
-635.595	-200.000	0.016	0.171
-634.580	-101.202	0.138	0.034
-633.565	800.000	-0.018	-0.054
-632.551	62.416	-0.119	-0.119
-631.536	97.687	0.153	-0.177
-630.522	-83.614	0.122	0.039
-629.507	425.957	-0.081	0.175
-628.492	363.214	-0.127	-0.257
-627.478	-61.451	-0.400	-0.169
-626.463	-22.568	0.289	-0.176
-625.449	-114.023	0.223	0.043
-624.434	-107.039	-0.195	-0.043
-623.419	-153.474	0.144	0.010
-622.405	168.592	0.173	0.247
-621.390	-131.460	-0.234	0.031
-620.376	144.104	0.116	0.156
-619.361	-112.802	-0.164	0.033
-618.346	-78.569	-0.070	-0.024
-617.332	-10.410	0.099	-0.066
-616.317	-21.373	0.283	-0.174
-615.303	96.820	-0.125	-0.144
-614.288	274.989	-0.153	-0.273
-613.273	151.785	-0.104	0.143
-612.259	-33.853	0.177	0.098
-611.244	785.343	0.118	0.325
-610.230	-200.000	0.023	-0.129
-609.215	-10.245	-0.271	0.181
-608.201	-52.402	0.128	-0.059
-607.186	-135.494	-0.084	-0.010
-606.171	-96.787	0.189	-0.050
-605.157	12.654	0.362	0.281
-604.142	800.000	0.017	0.071
-603.128	-65.401	-0.193	0.078
-602.113	-200.000	0.019	0.239
-601.098	800.000	-0.052	0.204
-600.084	28.411	0.038	-0.032
-599.069	627.261	-0.020	-0.050
-598.055	-116.805	-0.167	0.031
-597.040	-52.683	-0.323	-0.150
-596.025	-200.000	0.024	-0.124
-595.011	49.478	-0.076	-0.071
-593.996	-171.792	0.213	0.007
-592.982	166.452	0.129	0.184
-591.967	171.700	-0.251	-0.362
-590.952	-200.000	0.293	0.001
-589.938	-16.070	-0.113	-0.072
-588.923	96.346	-0.186	-0.214
-587.909	459.153	-0.067	0.151
-586.894	556.987	-0.068	-0.165
-585.879	-5.490	-0.078	0.054
-584.865	-200.000	0.004	-0.148
-583.850	57.393	-0.062	-0.061
-582.836	-43.991	0.270	-0.136
-581.821	693.986	-0.124	0.327
-580.806	175.311	0.055	0.080
-579.792	140.225	0.032	0.042
-578.777	-87.587	0.249	-0.075
-577.763	-153.907	0.157	-0.011
-576.748	467.796	-0.085	0.191
-575.733	611.553	-0.167	-0.420
-574.719	-72.589	-0.264	-0.098
-573.704	-126.143	0.238	-0.036
-572.690	258.063	0.139	-0.241
-571.675	-77.655	-0.242	-0.084
-570.661	10.189	-0.138	-0.106
-569.646	157.136	-0.129	-0.179
-568.631	-200.000	0.033	0.265
-567.617	-85.540	-0.110	-0.034
-566.602	265.790	0.071	-0.124
-565.588	-104.208	-0.420	0.098
-564.573	800.000	-0.054	-0.166
-563.558	-121.936	-0.290	0.048
-562.544	-200.000	0.056	0.268
-561.529	356.689	-0.060	0.119
-560.515	-130.239	0.253	0.034
-559.500	-168.647	0.208	0.008
-558.485	800.000	-0.068	-0.195
-557.471	79.422	0.167	-0.180
-556.456	-200.000	-0.033	0.169
-555.442	150.964	0.019	-0.026
-554.427	734.669	0.059	0.157
-553.412	-26.685	0.056	-0.033
-552.398	-49.107	0.237	0.114
-551.383	390.284	-0.054	-0.112
-550.369	-121.777	0.421	-0.070
-549.354	800.000	-0.035	0.119
-548.339	800.000	-0.036	-0.131
-547.325	-200.000	0.030	0.274
-546.310	-106.980	-0.352	0.078
-545.296	-29.134	-0.129	0.074
-544.281	800.000	0.024	0.098
-543.266	251.102	-0.012	-0.020
-542.252	-96.306	-0.097	-0.026
-541.237	182.654	-0.067	-0.099
-540.223	84.343	0.128	0.140
-539.208	-143.846	-0.076	-0.007
-538.193	800.000	-0.117	-0.326
-537.179	-200.000	0.048	-0.310
-536.164	777.155	-0.065	0.178
-535.150	197.571	-0.078	-0.119
-534.135	-85.867	0.231	0.072
-533.121	-28.304	-0.138	-0.080
-532.106	-200.000	0.007	-0.110
-531.091	-200.000	0.013	-0.132
-530.077	115.360	0.259	0.316
-529.062	-28.301	-0.261	-0.151
-528.048	800.000	0.021	0.070
-527.033	31.262	-0.156	0.134
-526.018	137.266	-0.283	-0.370
-525.004	-200.000	0.003	0.061
-523.989	800.000	-0.050	-0.193
-522.975	-200.000	0.010	0.069
-521.960	800.000	-0.031	0.096
-520.945	-129.769	-0.334	0.046
-519.931	800.000	-0.018	0.071
-518.916	-33.336	-0.081	-0.045
-517.902	550.948	0.025	0.059
-516.887	-200.000	-0.030	-0.291
-515.872	800.000	-0.014	0.052
-514.858	82.184	0.094	-0.102
-513.843	-150.705	-0.306	0.023
-512.829	-60.606	0.134	0.057
-511.814	26.608	0.140	0.118
-510.799	-98.991	0.235	-0.060
-509.785	-108.039	0.421	0.091
-508.770	29.846	0.090	0.076
-507.756	800.000	-0.085	0.303
-506.741	-46.299	0.205	0.101
-505.726	533.823	-0.103	-0.244
-504.712	94.347	0.103	-0.118
-503.697	-120.861	0.197	-0.033
-502.683	-21.420	-0.195	-0.119
-501.668	41.867	-0.096	0.087
-500.653	-112.678	-0.464	0.092
-499.639	-86.238	-0.197	0.061
-498.624	11.052	0.081	-0.062
-497.610	24.640	0.195	0.161
-496.595	418.501	-0.088	0.188
-495.581	781.404	-0.033	0.090
-494.566	262.964	0.144	0.251
-493.551	145.474	0.074	-0.099
-492.537	-200.000	0.052	-0.243
-491.522	-200.000	-0.003	-0.229
-490.508	-135.740	-0.302	0.036
-489.493	24.672	-0.157	-0.130
-488.478	800.000	-0.103	0.430
-487.464	-144.365	0.293	0.027
-486.449	-200.000	0.015	0.165
-485.435	-97.712	-0.060	-0.015
-484.420	-200.000	-0.013	-0.106
-483.405	-74.261	-0.130	-0.047
-482.391	-47.173	0.371	-0.181
-481.376	123.527	-0.078	0.098
-480.362	-139.516	-0.256	-0.027
-479.347	301.804	0.268	0.495
-478.332	-29.960	-0.327	0.187
-477.318	292.358	-0.119	-0.217
-476.303	253.314	0.186	-0.318
-475.289	392.009	-0.122	0.254
-474.274	-96.885	-0.137	-0.036
-473.259	778.997	-0.077	0.210
-472.245	-106.971	-0.157	-0.035
-471.230	-50.047	-0.309	-0.147
-470.216	-200.000	-0.058	0.381
-469.201	72.428	-0.227	-0.236
-468.186	-184.559	0.116	-0.002
-467.172	138.395	-0.051	-0.067
-466.157	98.501	0.222	0.256
-465.143	-44.693	0.149	-0.075
-464.128	-200.000	0.021	-0.302
-463.113	-91.530	0.289	0.082
-462.099	388.418	0.045	0.094
-461.084	27.141	-0.223	0.187
-460.070	-6.760	-0.081	0.055
-459.055	-37.432	0.154	0.082
-458.040	137.181	-0.015	0.019
-457.026	-187.142	0.093	0.001
-456.011	-130.096	0.170	-0.023
-454.997	-36.146	0.171	0.092
-453.982	800.000	0.069	-0.235
-452.968	-40.649	0.071	0.037
-451.953	-200.000	-0.017	-0.228
-450.938	-200.000	0.018	0.191
-449.924	288.096	0.185	-0.335
-448.909	-189.580	-0.057	-0.001
-447.895	-33.899	0.349	0.192
-446.880	-97.093	0.331	0.086
-445.865	-162.284	-0.123	0.006
-444.851	-200.000	0.032	0.349
-443.836	-187.594	-0.105	0.001
-442.822	365.275	0.038	0.076
-441.807	-48.679	0.190	-0.091
-440.792	-100.727	-0.086	0.021
-439.778	-200.000	-0.012	0.230
-438.763	-153.695	0.277	-0.019
-437.749	-87.334	0.171	-0.052
-436.734	432.165	-0.060	-0.131
-435.719	-138.649	0.226	-0.025
-434.705	28.899	-0.318	-0.269
-433.690	-20.132	0.143	-0.088
-432.676	36.382	-0.153	-0.135
-431.661	800.000	0.062	0.221
-430.646	62.676	-0.122	0.121
-429.632	800.000	-0.080	-0.225
-428.617	-90.588	0.105	-0.030
-427.603	-65.864	0.197	0.079
-426.588	83.234	-0.076	0.083
-425.573	-64.383	-0.221	-0.090
-424.559	-200.000	0.060	-0.284
-423.544	800.000	0.047	0.152
-422.530	-88.444	-0.192	-0.057
-421.515	43.896	0.193	0.176
-420.500	8.145	0.291	-0.218
-419.486	-150.296	-0.331	-0.025
-418.471	53.558	-0.075	-0.072
-417.457	-23.368	0.258	-0.155
-416.442	-8.798	-0.151	-0.101
-415.428	-28.741	0.041	0.023
-414.413	-67.721	0.071	0.028
-413.398	-5.941	0.127	-0.087
-412.384	-200.000	-0.015	-0.370
-411.369	58.292	0.154	0.150
-410.355	-136.348	0.188	0.022
-409.340	-200.000	0.037	-0.208
-408.325	-200.000	-0.007	-0.424
-407.311	-168.184	0.493	-0.019
-406.296	-187.891	-0.417	-0.005
-405.282	-185.312	-0.209	-0.003
-404.267	-59.203	0.305	-0.131
-403.252	-200.000	0.008	0.045
-402.238	-15.927	0.142	0.090
-401.223	800.000	0.026	0.074
-400.209	-179.069	-0.587	0.013
-399.194	16.272	-0.143	-0.113
-398.179	3.614	-0.071	-0.052
-397.165	627.318	0.037	0.093
-396.150	306.670	-0.180	-0.335
-395.136	-82.056	0.145	0.047
-394.121	-60.497	-0.223	0.094
-393.106	39.653	0.128	0.115
-392.092	-200.000	-0.010	-0.044
-391.077	-200.000	-0.012	-0.080
-390.063	-16.913	0.271	-0.170
-389.048	388.926	-0.076	0.158
-388.033	-15.476	-0.101	0.064
-387.019	-200.000	-0.019	0.217
-386.004	423.992	0.097	0.207
-384.990	-146.782	0.202	0.017
-383.975	219.615	0.175	-0.280
-382.960	248.616	-0.107	0.181
-381.946	800.000	-0.037	-0.113
-380.931	-200.000	-0.001	-0.009
-379.917	-49.200	0.155	-0.074
-378.902	-144.041	-0.262	0.025
-377.888	-55.303	-0.002	-0.001
-376.873	360.955	0.138	0.275
-375.858	32.358	0.065	0.056
-374.844	162.593	0.228	0.319
-373.829	-200.000	-0.006	-0.201
-372.815	81.081	0.034	0.036
-371.800	201.638	-0.098	0.150
-370.785	294.360	-0.100	0.182
-369.771	-35.828	-0.354	0.191
-368.756	-200.000	-0.030	-0.155
-367.742	-200.000	0.009	0.112
-366.727	800.000	0.056	0.232
-365.712	-185.346	0.140	-0.002
-364.698	507.966	-0.030	0.069
-363.683	-89.413	-0.169	-0.049
-362.669	-139.447	-0.215	0.023
-361.654	-200.000	0.002	-0.091
-360.639	-112.236	-0.175	-0.035
-359.625	-98.190	-0.310	-0.079
-358.610	-200.000	-0.069	-0.509
-357.596	-200.000	0.020	-0.155
-356.581	-145.514	0.160	-0.014
-355.566	19.985	-0.312	-0.250
-354.552	-79.338	0.147	0.050
-353.537	-200.000	-0.059	0.446
-352.523	-65.511	-0.053	0.021
-351.508	-107.151	-0.196	0.043
-350.493	-78.794	0.087	-0.030
-349.479	-91.916	-0.440	0.124
-348.464	-31.559	0.088	-0.049
-347.450	-80.041	0.201	0.067
-346.435	17.109	-0.054	0.042
-345.420	47.460	-0.116	0.107
-344.406	-100.984	0.049	0.012
-343.391	-120.389	-0.152	0.026
-342.377	-200.000	-0.013	-0.114
-341.362	397.303	-0.054	-0.113
-340.348	-45.406	0.219	-0.108
-339.333	528.944	0.055	0.129
-338.318	-80.541	0.140	-0.046
-337.304	800.000	0.033	0.119
-336.289	800.000	-0.075	0.220
-335.275	-146.286	0.319	0.028
-334.260	109.185	0.149	-0.178
-333.245	-126.892	-0.333	0.049
-332.231	-106.676	0.436	-0.097
-331.216	800.000	-0.015	0.054
-330.202	-44.974	0.271	-0.134
-329.187	-3.470	0.184	0.128
-328.172	-200.000	0.010	0.067
-327.158	-200.000	0.028	-0.176
-326.143	116.154	-0.115	-0.140
-325.129	-200.000	0.014	-0.186
-324.114	-88.171	-0.115	0.034
-323.099	-200.000	0.005	-0.193
-322.085	51.855	0.169	-0.160
-321.070	-100.175	-0.099	-0.025
-320.056	800.000	-0.060	-0.168
-319.041	17.010	0.260	0.205
-318.026	-68.279	-0.230	0.089
-317.012	-120.407	0.257	-0.044
-315.997	-72.899	-0.675	-0.246
-314.983	-59.623	-0.174	-0.074
-313.968	-65.928	-0.107	-0.043
-312.953	-200.000	0.003	0.152
-311.939	800.000	-0.062	-0.191
-310.924	473.746	-0.101	-0.227
-309.910	-31.636	-0.462	0.258
-308.895	31.691	0.480	0.411
-307.880	800.000	0.051	-0.167
-306.866	148.670	-0.055	0.074
-305.851	-54.060	-0.134	0.061
-304.837	-105.103	0.122	-0.028
-303.822	-200.000	0.004	0.152
-302.807	122.725	-0.070	-0.087
-301.793	-200.000	0.015	-0.156
-300.778	-24.736	0.161	-0.095
-299.764	800.000	0.066	-0.247
-298.749	236.721	-0.062	0.102
-297.735	-35.985	0.295	-0.159
-296.720	375.560	-0.222	-0.450
-295.705	-147.890	0.184	-0.015
-294.691	-200.000	0.021	0.243
-293.676	-115.170	0.083	0.016
-292.662	800.000	0.034	0.142
-291.647	238.312	-0.140	0.231
-290.632	37.701	0.068	0.060
-289.618	85.612	0.100	0.109
-288.603	195.574	0.070	-0.105
-287.589	-123.659	-0.269	0.042
-286.574	-115.134	0.320	-0.060
-285.559	-21.065	0.201	0.122
-284.545	250.051	0.053	-0.090
-283.530	-151.783	-0.144	-0.010
-282.516	0.657	0.223	-0.158
-281.501	4.647	0.145	0.106
-280.486	74.388	-0.074	0.077
-279.472	-151.490	0.249	0.018
-278.457	312.190	0.064	0.119
-277.443	44.848	0.102	0.093
-276.428	648.669	-0.016	-0.040
-275.413	-118.365	0.122	0.022
-274.399	-66.855	-0.125	0.049
-273.384	-200.000	-0.026	0.179
-272.370	-200.000	0.042	0.377
-271.355	-101.640	0.176	-0.042
-270.340	8.490	-0.232	-0.173
-269.326	-200.000	0.014	0.155
-268.311	-89.864	0.083	-0.024
-267.297	-3.921	0.225	-0.155
-266.282	-200.000	-0.013	-0.123
-265.267	-110.395	-0.134	-0.028
-264.253	-84.714	-0.074	-0.023
-263.238	-12.499	-0.385	-0.250
-262.224	97.509	-0.139	-0.158
-261.209	-72.529	-0.240	-0.088
-260.195	55.381	0.199	-0.191
-259.180	96.350	0.099	0.112
-258.165	-73.831	-0.056	0.020
-257.151	-18.171	-0.233	0.144
-256.136	800.000	-0.053	0.165
-255.122	800.000	-0.044	0.130
-254.107	-136.675	0.069	-0.008
-253.092	-95.554	0.341	-0.091
-252.078	68.033	-0.014	0.014
-251.063	-164.668	0.108	-0.005
-250.049	800.000	-0.048	-0.144
-249.034	-175.884	-0.194	-0.005
-248.019	800.000	0.126	-0.420
-247.005	-37.961	-0.333	0.175
-245.990	800.000	0.021	-0.081
-244.976	85.072	-0.071	0.077
-243.961	691.371	0.123	0.320
-242.946	-135.175	0.322	0.038
-241.932	43.950	-0.145	-0.131
-240.917	800.000	-0.031	0.127
-239.903	488.708	0.050	0.112
-238.888	800.000	0.069	-0.239
-237.873	-91.149	0.484	-0.137
-236.859	-111.326	0.089	0.018
-235.844	346.141	0.143	0.278
-234.830	-120.996	0.234	-0.039
-233.815	-168.671	-0.358	0.013
-232.800	242.531	-0.126	-0.209
-231.786	359.964	-0.040	-0.080
-230.771	-93.166	-0.139	-0.038
-229.757	-30.188	0.141	0.079
-228.742	-91.418	0.281	0.080
-227.727	-200.000	0.052	0.313
-226.713	-31.530	-0.201	-0.112
-225.698	-104.772	0.263	0.060
-224.684	111.311	0.079	0.094
-223.669	205.383	0.079	0.122
-222.655	-114.842	-0.246	-0.046
-221.640	629.318	-0.136	-0.342
-220.625	20.227	0.380	-0.303
-219.611	244.087	0.155	-0.258
-218.596	-200.000	-0.016	-0.179
-217.582	-103.736	0.218	-0.051
-216.567	-24.327	-0.142	-0.084
-215.552	499.661	-0.134	-0.306
-214.538	-59.231	0.315	0.134
-213.523	-200.000	-0.045	-0.284
-212.509	-187.210	-0.147	0.002
-211.494	53.353	0.217	0.206
-210.479	-171.524	-0.165	-0.005
-209.465	-71.021	0.602	-0.224
-208.450	-200.000	-0.035	0.166
-207.436	-105.295	0.082	-0.018
-206.421	-87.913	-0.276	0.082
-205.406	-86.712	0.433	-0.131
-204.392	161.748	-0.116	-0.161
-203.377	-72.499	-0.150	0.055
-202.363	95.518	0.018	0.020
-201.348	-148.737	-0.199	0.016
-200.333	-138.286	0.150	-0.016
-199.319	-200.000	0.015	0.190
-198.304	800.000	0.039	0.110
-197.290	498.548	-0.106	-0.242
-196.275	-200.000	-0.017	-0.151
-195.260	800.000	-0.058	-0.165
-194.246	247.730	-0.074	0.123
-193.231	620.249	-0.065	0.162
-192.217	800.000	-0.106	0.456
-191.202	119.458	0.160	0.196
-190.187	-0.622	-0.053	0.037
-189.173	167.495	0.289	0.406
-188.158	-200.000	0.000	0.300
-187.144	-13.016	-0.182	0.117
-186.129	77.955	-0.119	0.126
-185.114	423.585	0.094	0.199
-184.100	-91.416	-0.311	0.088
-183.085	-200.000	0.153	0.001
-182.071	-200.000	0.021	0.399
-181.056	102.879	-0.220	0.254
-180.042	-84.557	-0.080	0.025
-179.027	515.206	-0.188	-0.435
-178.012	-159.247	0.156	0.009
-176.998	-139.318	0.047	0.005
-175.983	152.259	0.135	0.183
-174.969	18.755	-0.190	0.150
-173.954	-55.758	0.130	-0.057
-172.939	43.031	0.046	0.041
-171.925	-200.000	0.026	-0.124
-170.910	-42.469	-0.136	0.069
-169.896	-164.048	-0.260	0.012
-168.881	263.769	-0.119	-0.204
-167.866	-28.323	-0.336	-0.191
-166.852	-102.082	-0.413	-0.098
-165.837	-200.000	0.009	0.117
-164.823	-122.758	-0.362	-0.058
-163.808	-118.935	-0.106	0.018
-162.793	-117.372	-0.102	0.018
-161.779	-200.000	0.003	0.088
-160.764	800.000	-0.053	0.148
-159.750	408.541	-0.159	-0.331
-158.735	-113.592	0.268	0.052
-157.720	800.000	0.131	0.447
-156.706	-29.048	0.266	0.151
-155.691	-200.000	-0.038	-0.393
-154.677	-200.000	0.039	-0.182
-153.662	69.627	0.139	0.141
-152.647	45.314	0.218	0.199
-151.633	126.605	0.171	0.214
-150.618	-200.000	-0.033	0.178
-149.604	-200.000	-0.003	0.097
-148.589	800.000	-0.038	-0.128
-147.574	-8.529	-0.335	0.222
-146.560	-200.000	0.067	-0.410
-145.545	-153.470	-0.055	0.004
-144.531	508.751	0.067	0.154
-143.516	-127.470	0.052	0.007
-142.502	800.000	-0.025	-0.088
-141.487	54.876	0.184	-0.175
-140.472	31.217	-0.148	-0.125
-139.458	800.000	0.126	0.381
-138.443	-16.897	0.060	-0.037
-137.429	-200.000	0.097	-0.492
-136.414	247.280	-0.080	-0.134
-135.399	-200.000	0.010	-0.365
-134.385	67.501	0.113	-0.114
-133.370	167.646	-0.159	0.223
-132.356	-140.017	0.225	-0.023
-131.341	-200.000	-0.035	-0.223
-130.326	-63.447	-0.310	0.126
-129.312	-24.135	-0.305	0.180
-128.297	23.043	-0.141	-0.114
-127.283	-38.436	-0.239	-0.125
-126.268	259.036	0.111	0.189
-125.253	-54.730	0.115	0.051
-124.239	-68.808	-0.162	-0.062
-123.224	-200.000	0.046	0.202
-122.210	458.651	0.092	0.202
