DTS Sentinel unit serial number:	SN413079Multiplexer serial number:	ORYXHardware model number:	OX4-SRSoftware version number:	ORYX F/W v4.00 Oryx Data Collector v3.7.2.0data status	okinstallation	princeton_trtdifferential loss correction	single-endedforward channel	channel 1reverse channel	N/Adate	2019/09/18time	13:38:35forward acquisition time	60.00reverse acquisition time	0.00gamma	496.2192k internal	0.2312k external	0.2312temperature offset calibration	0.9984default loss term (dB/km)	0.3790temperature slope calibration	1.0000multiplexer offset coefficient	1.0000multiplexer slope coefficient	1.0000fibre end	0.00T internal ref (°C)	34.39T ext. ref 1 (°C)	0.63T ext. ref 2 (°C)	30.69length (m)	temperature (°C)	Stokes	anti-Stokes-747.200	800.000	0.013	0.049
-746.185	-12.101	-0.040	-0.026
-745.171	101.180	0.100	-0.118
-744.156	-75.727	-0.395	0.142
-743.142	136.759	0.257	-0.341
-742.127	-159.604	-0.530	-0.030
-741.112	800.000	-0.035	-0.100
-740.098	-194.803	0.442	0.003
-739.083	100.297	0.239	0.281
-738.069	-200.000	-0.019	0.084
-737.054	-20.898	0.088	-0.055
-736.039	-200.000	-0.044	-0.214
-735.025	618.154	0.038	0.096
-734.010	-157.335	0.103	0.006
-732.996	5.123	-0.244	-0.183
-731.981	-200.000	0.066	0.344
-730.966	-200.000	-0.015	-0.269
-729.952	155.069	-0.146	-0.203
-728.937	-10.279	0.165	-0.111
-727.923	-65.671	-0.102	0.041
-726.908	-2.783	0.090	-0.064
-725.894	24.052	-0.112	-0.093
-724.879	-159.153	-0.386	-0.022
-723.864	-57.508	0.092	0.041
-722.850	54.011	-0.171	-0.166
-721.835	595.142	0.199	-0.499
-720.821	-111.160	0.246	0.051
-719.806	-200.000	0.011	-0.304
-718.791	3.684	0.048	-0.035
-717.777	-25.557	0.272	-0.163
-716.762	-61.381	-0.327	0.140
-715.748	-34.734	0.180	-0.100
-714.733	150.862	-0.085	-0.118
-713.718	-66.706	-0.171	-0.069
-712.704	218.355	0.116	0.188
-711.689	-141.833	0.222	0.023
-710.675	800.000	0.071	-0.302
-709.660	-90.549	-0.285	0.084
-708.645	12.370	0.266	-0.208
-707.631	-108.067	-0.436	-0.096
-706.616	-140.514	-0.031	-0.003
-705.602	-103.182	0.114	-0.027
-704.587	718.144	-0.067	0.181
-703.572	-93.315	-0.135	0.038
-702.558	-200.000	0.002	0.273
-701.543	-99.958	0.344	0.087
-700.529	152.171	0.127	-0.176
-699.514	-169.803	-0.222	-0.008
-698.499	-26.721	0.202	-0.120
-697.485	-200.000	0.004	0.094
-696.470	162.940	-0.132	-0.188
-695.456	297.987	0.118	-0.220
-694.441	19.254	0.245	0.199
-693.426	-108.947	-0.176	-0.038
-692.412	-200.000	0.008	-0.252
-691.397	-128.463	0.268	0.039
-690.383	-200.000	-0.052	-0.355
-689.368	102.365	0.058	0.069
-688.354	205.579	0.152	0.240
-687.339	736.457	-0.105	0.286
-686.324	281.284	-0.068	-0.123
-685.310	-41.119	0.131	-0.069
-684.295	-9.124	0.256	0.173
-683.281	753.211	0.100	-0.272
-682.266	124.343	-0.046	-0.058
-681.251	39.030	-0.242	-0.219
-680.237	33.633	0.309	-0.272
-679.222	800.000	0.029	0.097
-678.208	-37.768	-0.147	-0.079
-677.193	800.000	0.077	-0.256
-676.178	-129.810	0.240	0.033
-675.164	39.086	-0.204	-0.185
-674.149	-97.731	-0.195	0.051
-673.135	800.000	-0.026	0.103
-672.120	-84.538	-0.232	-0.074
-671.105	-135.331	0.304	0.037
-670.091	233.599	-0.118	0.197
-669.076	-200.000	-0.073	-0.374
-668.062	131.002	0.136	-0.177
-667.047	79.599	0.112	-0.121
-666.032	-45.076	0.175	-0.088
-665.018	-133.685	0.452	-0.057
-664.003	-36.857	-0.085	-0.046
-662.989	-200.000	0.011	0.060
-661.974	193.785	0.160	-0.245
-660.959	284.977	-0.062	-0.113
-659.945	16.931	0.015	0.012
-658.930	41.030	-0.102	-0.093
-657.916	-164.206	0.084	0.004
-656.901	800.000	-0.045	0.185
-655.886	-91.801	-0.123	-0.035
-654.872	-137.782	0.252	0.029
-653.857	30.742	0.098	0.084
-652.843	88.878	-0.269	0.302
-651.828	800.000	0.040	0.143
-650.814	-200.000	0.040	-0.219
-649.799	800.000	-0.034	-0.134
-648.784	-134.774	0.131	0.016
-647.770	-146.545	0.158	0.014
-646.755	-200.000	-0.021	0.259
-645.741	15.399	-0.099	0.079
-644.726	79.653	-0.205	0.222
-643.711	-34.922	-0.143	-0.079
-642.697	307.809	-0.136	-0.256
-641.682	634.988	0.041	-0.105
-640.668	-89.506	0.208	0.062
-639.653	350.640	0.098	0.196
-638.638	-200.000	-0.011	0.161
-637.624	-152.660	-0.282	-0.020
-636.609	800.000	0.090	-0.333
-635.595	800.000	-0.131	0.409
-634.580	108.390	-0.134	0.161
-633.565	800.000	-0.034	-0.145
-632.551	-10.283	-0.138	-0.093
-631.536	-200.000	-0.029	0.201
-630.522	800.000	0.057	-0.192
-629.507	-112.280	-0.174	-0.035
-628.492	800.000	-0.097	-0.341
-627.478	-13.758	-0.128	-0.083
-626.463	-200.000	0.030	0.197
-625.449	-88.459	0.301	-0.091
-624.434	-88.725	0.078	0.024
-623.419	140.178	-0.079	0.105
-622.405	-88.894	0.163	-0.049
-621.390	-14.090	0.246	-0.160
-620.376	800.000	0.084	0.257
-619.361	-200.000	0.014	0.081
-618.346	-53.056	-0.270	0.125
-617.332	-200.000	0.005	0.029
-616.317	42.355	-0.273	0.250
-615.303	333.933	-0.050	0.097
-614.288	9.031	0.207	-0.157
-613.273	-78.475	-0.277	0.096
-612.259	253.518	-0.105	-0.181
-611.244	74.468	0.036	0.038
-610.230	-64.229	-0.322	-0.132
-609.215	715.581	-0.078	0.209
-608.201	126.067	-0.087	0.112
-607.186	3.346	-0.170	-0.125
-606.171	566.330	-0.164	0.401
-605.157	11.825	0.106	-0.082
-604.142	-200.000	0.014	0.150
-603.128	38.448	-0.051	-0.046
-602.113	-64.322	0.164	0.067
-601.098	800.000	0.117	0.341
-600.084	31.300	0.140	0.121
-599.069	-63.117	-0.211	-0.088
-598.055	-200.000	-0.034	-0.436
-597.040	800.000	0.066	0.257
-596.025	-81.882	0.229	-0.076
-595.011	-134.291	0.123	-0.015
-593.996	203.865	-0.185	0.289
-592.982	-149.943	-0.144	0.011
-591.967	134.292	-0.174	-0.228
-590.952	-119.545	-0.278	0.048
-589.938	-200.000	0.025	-0.398
-588.923	596.477	-0.090	0.225
-587.909	245.860	0.122	-0.206
-586.894	-200.000	0.018	-0.332
-585.879	-69.111	0.128	-0.050
-584.865	-63.128	-0.148	-0.062
-583.850	-200.000	-0.070	-0.389
-582.836	-200.000	0.033	-0.273
-581.821	193.190	0.076	0.116
-580.806	490.938	0.111	0.255
-579.792	-69.648	0.146	0.056
-578.777	319.526	-0.093	0.177
-577.763	-86.059	0.175	0.054
-576.748	-200.000	0.016	-0.155
-575.733	255.332	0.148	-0.256
-574.719	370.768	-0.141	-0.288
-573.704	82.544	-0.180	-0.197
-572.690	-200.000	0.003	0.059
-571.675	-23.810	-0.229	-0.138
-570.661	-78.417	0.112	-0.039
-569.646	-165.647	0.138	-0.006
-568.631	58.633	-0.189	0.187
-567.617	-200.000	0.017	-0.227
-566.602	-150.732	0.323	-0.025
-565.588	-107.017	0.053	-0.012
-564.573	-200.000	0.064	0.365
-563.558	-107.373	-0.264	0.058
-562.544	-73.654	-0.080	0.029
-561.529	360.907	-0.074	0.150
-560.515	-61.274	-0.218	-0.093
-559.500	75.125	-0.047	-0.049
-558.485	-39.082	-0.259	0.137
-557.471	-99.001	0.311	0.080
-556.456	800.000	0.115	0.360
-555.442	-33.922	0.053	-0.029
-554.427	-77.242	0.260	-0.091
-553.412	-200.000	-0.076	0.484
-552.398	248.296	-0.062	0.106
-551.383	-26.627	0.241	0.142
-550.369	19.359	-0.209	0.169
-549.354	133.511	-0.022	0.029
-548.339	-19.560	-0.265	0.165
-547.325	12.591	-0.257	-0.200
-546.310	146.644	-0.229	-0.310
-545.296	479.718	0.112	-0.255
-544.281	-200.000	0.000	0.127
-543.266	40.611	0.066	0.060
-542.252	-23.896	0.203	-0.123
-541.237	566.163	0.143	0.348
-540.223	335.732	-0.218	0.426
-539.208	-200.000	-0.029	0.218
-538.193	-56.449	0.155	-0.069
-537.179	-21.880	-0.280	-0.171
-536.164	-200.000	-0.002	-0.050
-535.150	-200.000	-0.033	-0.309
-534.135	91.551	-0.042	-0.048
-533.121	514.808	0.099	-0.234
-532.106	-98.172	0.183	0.047
-531.091	29.120	0.040	-0.034
-530.077	800.000	-0.007	-0.021
-529.062	800.000	0.075	-0.223
-528.048	-17.696	-0.110	0.069
-527.033	-12.380	0.262	0.172
-526.018	-82.399	-0.309	-0.101
-525.004	800.000	-0.093	-0.302
-523.989	-200.000	0.039	-0.190
-522.975	37.642	-0.111	0.099
-521.960	800.000	-0.032	0.127
-520.945	-125.217	-0.195	-0.030
-519.931	716.557	0.087	-0.232
-518.916	-148.989	0.170	0.014
-517.902	-200.000	0.076	-0.452
-516.887	-200.000	0.048	-0.267
-515.872	-200.000	0.013	-0.060
-514.858	-171.585	-0.118	-0.004
-513.843	534.776	-0.060	0.143
-512.829	-38.478	0.210	0.112
-511.814	-200.000	-0.034	0.156
-510.799	110.914	-0.310	-0.375
-509.785	-197.520	0.039	-0.000
-508.770	-128.542	-0.148	0.021
-507.756	-6.438	-0.242	0.166
-506.741	-200.000	-0.050	-0.392
-505.726	-200.000	0.020	0.115
-504.712	-110.682	-0.244	0.051
-503.697	667.855	0.053	0.137
-502.683	-61.038	0.186	-0.079
-501.668	33.339	-0.181	0.158
-500.653	-109.409	0.072	0.015
-499.639	-46.632	0.093	-0.046
-498.624	-200.000	0.025	-0.186
-497.610	-8.061	-0.175	0.119
-496.595	-200.000	-0.040	0.439
-495.581	-126.747	-0.139	-0.021
-494.566	323.621	-0.086	-0.164
-493.551	800.000	-0.075	-0.228
-492.537	-77.704	0.265	0.092
-491.522	-175.544	-0.069	-0.002
-490.508	323.485	0.097	-0.185
-489.493	-109.614	0.237	0.050
-488.478	445.164	0.209	0.460
-487.464	800.000	0.022	-0.063
-486.449	-57.261	0.218	0.096
-485.435	170.363	-0.102	0.147
-484.420	-8.990	0.327	-0.220
-483.405	321.699	0.127	0.242
-482.391	621.417	-0.140	0.353
-481.376	58.989	0.089	0.088
-480.362	-4.057	-0.148	-0.103
-479.347	800.000	-0.061	-0.266
-478.332	115.782	0.037	0.046
-477.318	-34.941	-0.075	0.041
-476.303	-7.543	-0.173	0.117
-475.289	800.000	-0.050	-0.192
-474.274	-18.897	0.192	0.120
-473.259	-51.903	0.190	-0.089
-472.245	140.665	-0.055	-0.073
-471.230	800.000	0.022	-0.093
-470.216	-200.000	-0.003	0.159
-469.201	34.463	-0.166	-0.145
-468.186	42.759	-0.175	-0.160
-467.172	-146.894	-0.159	-0.014
-466.157	-200.000	0.079	-0.386
-465.143	631.741	0.028	-0.070
-464.128	-91.547	-0.162	0.046
-463.113	800.000	0.065	-0.233
-462.099	31.382	-0.216	-0.186
-461.084	-200.000	0.076	-0.362
-460.070	-78.173	-0.457	-0.158
-459.055	43.175	-0.023	-0.021
-458.040	-73.253	-0.193	0.071
-457.026	43.449	-0.241	0.221
-456.011	-200.000	-0.061	0.535
-454.997	800.000	-0.075	0.314
-453.982	244.447	0.084	-0.141
-452.968	-130.288	-0.273	-0.037
-451.953	484.558	-0.228	-0.521
-450.938	551.793	0.051	0.122
-449.924	-94.708	0.227	0.062
-448.909	-45.958	0.377	-0.187
-447.895	308.574	-0.125	0.234
-446.880	-16.753	0.320	-0.203
-445.865	-58.672	0.169	0.074
-444.851	102.152	0.084	0.098
-443.836	-115.549	-0.390	0.073
-442.822	-106.143	0.272	-0.061
-441.807	-154.484	0.145	-0.010
-440.792	-39.975	0.486	-0.254
-439.778	2.113	0.175	-0.127
-438.763	800.000	-0.039	0.169
-437.749	-70.624	-0.081	-0.031
-436.734	183.790	0.141	0.209
-435.719	134.274	0.040	0.052
-434.705	-64.430	0.254	-0.103
-433.690	-29.158	-0.108	-0.062
-432.676	-200.000	0.019	-0.181
-431.661	60.212	-0.270	0.268
-430.646	-200.000	0.038	-0.347
-429.632	-200.000	-0.008	-0.119
-428.617	518.481	-0.116	0.271
-427.603	-98.741	-0.224	0.057
-426.588	-89.272	-0.327	-0.097
-425.573	-200.000	0.036	-0.193
-424.559	-156.905	0.093	-0.006
-423.544	-200.000	-0.011	-0.147
-422.530	-200.000	0.067	-0.310
-421.515	167.197	-0.101	-0.144
-420.500	-99.171	0.161	0.041
-419.486	-41.929	0.426	-0.219
-418.471	138.760	0.108	-0.142
-417.457	-85.665	0.323	-0.101
-416.442	-70.310	0.104	0.040
-415.428	-110.118	-0.201	-0.042
-414.413	78.586	-0.147	-0.158
-413.398	-200.000	0.006	0.095
-412.384	132.021	-0.124	0.159
-411.369	64.818	-0.114	0.115
-410.355	-64.392	-0.380	0.155
-409.340	-91.583	0.273	-0.078
-408.325	73.652	-0.138	0.145
-407.311	-175.076	0.264	0.007
-406.296	-20.079	0.189	0.117
-405.282	-200.000	-0.012	-0.208
-404.267	-200.000	-0.001	-0.194
-403.252	82.022	0.071	-0.077
-402.238	-27.659	0.132	-0.077
-401.223	-200.000	0.006	-0.191
-400.209	12.905	-0.208	0.161
-399.194	-200.000	-0.037	0.375
-398.179	800.000	-0.092	0.332
-397.165	166.994	0.072	0.102
-396.150	-65.415	0.117	0.047
-395.136	-101.262	0.054	0.013
-394.121	253.604	-0.110	0.188
-393.106	128.082	-0.107	0.137
-392.092	-19.073	-0.143	0.089
-391.077	272.573	0.062	-0.109
-390.063	597.782	-0.021	0.053
-389.048	-200.000	-0.011	0.192
-388.033	111.574	0.085	-0.102
-387.019	-97.978	-0.119	-0.031
-386.004	-102.256	-0.100	-0.024
-384.990	800.000	-0.061	0.215
-383.975	772.878	0.098	-0.269
-382.960	-200.000	0.016	0.080
-381.946	80.194	-0.056	0.061
-380.931	-62.534	-0.085	0.035
-379.917	0.548	-0.248	-0.177
-378.902	142.252	0.197	-0.261
-377.888	-71.902	-0.135	-0.050
-376.873	800.000	0.034	0.146
-375.858	-134.254	-0.142	0.017
-374.844	330.601	-0.105	-0.202
-373.829	-21.732	-0.280	0.171
-372.815	320.619	0.111	-0.210
-371.800	-46.191	0.213	-0.105
-370.785	10.203	-0.210	-0.160
-369.771	-131.952	0.145	-0.019
-368.756	-111.905	-0.287	0.058
-367.742	30.075	0.278	-0.237
-366.727	30.221	0.119	-0.102
-365.712	-200.000	-0.016	-0.127
-364.698	22.113	0.269	0.219
-363.683	62.069	0.242	-0.241
-362.669	-36.858	-0.363	0.195
-361.654	-92.376	0.307	0.086
-360.639	27.527	0.235	0.198
-359.625	-200.000	0.002	0.161
-358.610	306.280	-0.191	-0.355
-357.596	81.901	0.147	0.159
-356.581	98.795	-0.206	0.237
-355.566	463.676	0.019	-0.042
-354.552	759.622	0.025	-0.068
-353.537	-200.000	0.656	0.003
-352.523	172.638	0.075	0.108
-351.508	600.690	-0.095	0.236
-350.493	281.792	0.107	0.191
-349.479	44.529	0.258	-0.237
-348.464	-200.000	0.012	0.059
-347.450	-109.499	0.151	0.032
-346.435	76.496	-0.104	0.110
-345.420	-200.000	0.014	-0.224
-344.406	-49.426	-0.318	-0.152
-343.391	-91.784	-0.279	0.079
-342.377	-39.325	0.239	-0.125
-341.362	-77.263	-0.131	0.046
-340.348	241.014	0.278	-0.464
-339.333	800.000	-0.094	-0.267
-338.318	-200.000	0.039	-0.175
-337.304	800.000	-0.122	0.367
-336.289	800.000	0.008	0.028
-335.275	-187.248	-0.124	0.002
-334.260	22.534	0.089	0.073
-333.245	-163.697	-0.469	0.022
-332.231	-109.443	0.023	-0.005
-331.216	161.198	-0.104	0.145
-330.202	-58.409	-0.151	-0.065
-329.187	101.234	0.039	0.046
-328.172	21.969	-0.059	0.048
-327.158	-58.625	0.161	0.070
-326.143	-158.168	-0.329	-0.019
-325.129	49.682	-0.134	-0.126
-324.114	-21.559	0.252	0.153
-323.099	-200.000	-0.041	-0.223
-322.085	-54.749	-0.112	-0.051
-321.070	159.159	0.227	-0.315
-320.056	-30.043	-0.317	-0.180
-319.041	718.606	-0.044	0.118
-318.026	-103.299	0.243	0.057
-317.012	483.355	0.080	-0.181
-315.997	203.294	-0.037	0.058
-314.983	479.432	-0.099	-0.225
-313.968	136.177	0.174	-0.227
-312.953	-61.275	0.291	0.122
-311.939	-200.000	-0.028	-0.387
-310.924	-93.408	0.384	0.106
-309.910	343.864	0.018	0.035
-308.895	-200.000	-0.042	-0.214
-307.880	-52.110	-0.133	-0.062
-306.866	-10.460	-0.165	0.109
-305.851	145.666	-0.209	0.280
-304.837	800.000	0.038	-0.115
-303.822	87.871	-0.092	-0.102
-302.807	-200.000	-0.014	-0.065
-301.793	49.801	0.309	0.291
-300.778	-58.886	-0.186	0.080
-299.764	-165.916	0.388	-0.017
-298.749	-78.673	-0.233	-0.079
-297.735	-200.000	0.031	0.184
-296.720	-100.947	0.058	-0.014
-295.705	-23.519	-0.099	-0.060
-294.691	63.333	0.183	0.183
-293.676	0.480	-0.060	-0.043
-292.662	-127.668	0.372	-0.054
-291.647	-32.981	0.077	0.042
-290.632	161.675	0.112	0.156
-289.618	544.741	-0.054	-0.127
-288.603	-76.146	-0.175	0.062
-287.589	-107.254	-0.074	-0.016
-286.574	-136.066	0.382	-0.045
-285.559	323.064	-0.142	-0.271
-284.545	-200.000	0.047	-0.400
-283.530	-11.852	-0.103	0.067
-282.516	800.000	-0.060	0.251
-281.501	458.931	-0.145	-0.321
-280.486	607.579	0.065	-0.162
-279.472	-83.152	0.288	-0.092
-278.457	-7.414	-0.288	-0.194
-277.443	-121.732	0.311	-0.051
-276.428	-51.420	0.176	-0.082
-275.413	-163.844	-0.257	-0.012
-274.399	92.049	0.112	-0.126
-273.384	-145.322	-0.183	-0.016
-272.370	800.000	0.043	0.166
-271.355	-140.936	-0.114	0.012
-270.340	-200.000	0.013	-0.205
-269.326	800.000	-0.006	0.023
-268.311	-103.225	0.119	-0.028
-267.297	51.194	0.150	-0.142
-266.282	557.590	-0.046	0.112
-265.267	-144.030	0.190	0.018
-264.253	-21.643	0.132	0.080
-263.238	-200.000	0.019	-0.237
-262.224	800.000	0.052	0.201
-261.209	-200.000	-0.011	-0.161
-260.195	-109.506	-0.116	0.024
-259.180	-90.587	-0.107	0.031
-258.165	-200.000	-0.010	0.155
-257.151	-73.586	0.268	0.097
-256.136	-82.199	0.365	0.118
-255.122	-164.397	0.253	0.012
-254.107	-200.000	0.005	0.130
-253.092	-85.250	0.596	0.185
-252.078	-200.000	0.020	0.187
-251.063	-41.001	0.232	0.119
-250.049	23.818	0.307	-0.252
-249.034	422.456	-0.058	-0.124
-248.019	460.356	-0.111	-0.247
-247.005	800.000	0.162	0.684
-245.990	754.628	-0.061	0.163
-244.976	306.094	0.123	-0.228
-243.961	132.463	-0.113	-0.145
-242.946	85.126	0.261	0.285
-241.932	256.315	-0.106	-0.182
-240.917	800.000	0.085	0.249
-239.903	800.000	0.068	-0.206
-238.888	-157.373	0.185	0.011
-237.873	-54.837	-0.278	0.125
-236.859	22.100	0.090	0.073
-235.844	414.700	-0.152	0.322
-234.830	42.018	-0.175	0.158
-233.815	10.201	-0.024	-0.018
-232.800	-64.039	0.123	0.050
-231.786	-135.806	0.111	-0.013
-230.771	-80.660	0.070	0.023
-229.757	148.745	-0.119	0.160
-228.742	-61.904	0.200	0.083
-227.727	-114.025	0.394	-0.076
-226.713	-96.906	-0.197	0.051
-225.698	-59.734	-0.148	0.063
-224.684	-200.000	0.008	0.120
-223.669	-98.697	0.237	0.060
-222.655	6.015	-0.214	0.157
-221.640	-200.000	-0.010	0.151
-220.625	-200.000	0.064	-0.287
-219.611	-16.504	-0.214	-0.135
-218.596	71.057	-0.193	0.198
-217.582	123.553	-0.131	0.163
-216.567	10.675	-0.089	-0.068
-215.552	800.000	-0.116	0.369
-214.538	5.607	0.171	0.125
-213.523	-48.653	0.205	0.098
-212.509	-99.952	-0.203	-0.050
-211.494	800.000	0.078	0.232
-210.479	-200.000	-0.006	-0.109
-209.465	80.024	-0.247	0.264
-208.450	489.539	-0.142	0.322
-207.436	-174.430	0.158	0.005
-206.421	150.334	0.069	0.093
-205.406	800.000	0.078	0.316
-204.392	800.000	0.044	0.132
-203.377	-200.000	-0.043	0.355
-202.363	-200.000	-0.092	-0.400
-201.348	336.573	0.076	-0.148
-200.333	411.059	-0.134	-0.283
-199.319	-200.000	0.023	-0.162
-198.304	523.550	-0.060	0.141
-197.290	88.224	-0.010	0.011
-196.275	32.705	0.131	-0.113
-195.260	371.790	-0.116	-0.234
-194.246	-200.000	0.020	0.471
-193.231	-139.501	0.107	-0.011
-192.217	-40.108	0.039	-0.020
-191.202	-100.665	0.202	-0.049
-190.187	-94.539	0.137	-0.037
-189.173	-2.906	0.064	0.044
-188.158	127.095	-0.240	-0.303
-187.144	346.302	-0.095	-0.186
-186.129	42.208	-0.177	-0.159
-185.114	-196.710	0.278	0.002
-184.100	166.782	-0.276	0.389
-183.085	245.423	0.182	-0.304
-182.071	-33.608	0.478	0.262
-181.056	39.992	-0.238	0.212
-180.042	7.191	-0.163	0.121
-179.027	-11.375	0.191	-0.125
-178.012	800.000	0.044	0.151
-176.998	209.765	0.185	-0.288
-175.983	-200.000	-0.012	-0.258
-174.969	7.870	0.140	-0.104
-173.954	-134.285	-0.362	-0.044
-172.939	569.136	-0.069	-0.166
-171.925	-110.107	0.178	0.037
-170.910	-12.426	-0.174	0.113
-169.896	68.832	-0.177	0.180
-168.881	83.181	-0.230	-0.249
-167.866	-102.882	0.220	-0.052
-166.852	-200.000	-0.005	0.060
-165.837	255.709	-0.121	0.206
-164.823	800.000	-0.031	-0.099
-163.808	-47.903	-0.165	-0.079
-162.793	800.000	-0.112	0.346
-161.779	-200.000	-0.033	0.270
-160.764	-135.519	0.037	0.004
-159.750	-130.659	-0.271	-0.036
-158.735	-17.963	-0.361	-0.225
-157.720	265.011	0.136	0.235
-156.706	190.161	0.165	-0.246
-155.691	8.130	0.174	0.130
-154.677	800.000	-0.071	-0.201
-153.662	663.914	-0.134	0.342
-152.647	800.000	0.010	0.029
-151.633	178.624	0.211	0.305
-150.618	-200.000	0.200	-0.001
-149.604	239.159	0.148	0.243
-148.589	-13.421	-0.226	-0.145
-147.574	-200.000	-0.090	0.508
-146.560	69.951	-0.176	0.180
-145.545	-77.194	0.282	-0.097
-144.531	-200.000	-0.053	-0.315
-143.516	-140.594	-0.306	-0.031
-142.502	-126.899	0.374	-0.055
-141.487	-200.000	0.052	-0.414
-140.472	-200.000	0.012	0.368
-139.458	-151.114	0.025	0.002
-138.443	-138.800	-0.090	-0.010
-137.429	27.095	0.173	0.143
-136.414	97.779	0.303	0.346
-135.399	373.269	0.154	-0.311
-134.385	792.437	-0.023	-0.063
-133.370	31.647	-0.155	-0.132
-132.356	-198.298	0.165	0.001
-131.341	800.000	-0.035	-0.120
-130.326	56.656	0.203	-0.196
-129.312	99.616	-0.163	0.187
-128.297	-200.000	-0.059	0.290
-127.283	800.000	0.068	0.189
-126.268	-106.101	0.149	0.033
-125.253	43.757	-0.170	-0.154
-124.239	-142.609	-0.088	-0.009
-123.224	-200.000	-0.005	-0.166
-122.210	37.365	0.206	0.181
-121.195	98.794	0.198	-0.226
