DTS Sentinel unit serial number:	SN413079Multiplexer serial number:	ORYXHardware model number:	OX4-SRSoftware version number:	ORYX F/W v4.00 Oryx Data Collector v3.7.2.0data status	okinstallation	princeton_trtdifferential loss correction	single-endedforward channel	channel 1reverse channel	N/Adate	2019/09/16time	16:58:35forward acquisition time	60.00reverse acquisition time	0.00gamma	496.2192k internal	0.2296k external	0.2296temperature offset calibration	0.9963default loss term (dB/km)	0.3790temperature slope calibration	1.0000multiplexer offset coefficient	1.0000multiplexer slope coefficient	1.0000fibre end	0.00T internal ref (°C)	39.37T ext. ref 1 (°C)	15.27T ext. ref 2 (°C)	33.65length (m)	temperature (°C)	Stokes	anti-Stokes-747.200	-41.454	0.053	0.028
-746.185	136.142	-0.323	0.430
-745.171	-200.000	-0.012	0.233
-744.156	161.461	0.064	0.092
-743.142	-140.127	0.095	0.010
-742.127	800.000	0.077	0.219
-741.112	627.837	-0.187	0.483
-740.098	46.077	0.172	0.163
-739.083	-19.295	0.138	0.088
-738.069	800.000	-0.064	0.203
-737.054	234.477	0.224	-0.376
-736.039	-200.000	-0.045	-0.341
-735.025	-83.683	0.404	0.132
-734.010	800.000	-0.154	-0.564
-732.996	-84.647	-0.419	-0.135
-731.981	-1.810	-0.229	0.165
-730.966	-30.689	0.152	0.088
-729.952	-40.144	-0.149	0.079
-728.937	110.235	-0.099	-0.122
-727.923	99.388	-0.121	-0.143
-726.908	160.940	0.156	-0.222
-725.894	-178.494	-0.141	0.003
-724.879	800.000	-0.032	-0.096
-723.864	-10.531	-0.151	0.102
-722.850	-69.353	0.046	0.018
-721.835	-200.000	0.029	-0.152
-720.821	-105.837	0.254	0.059
-719.806	222.997	0.169	-0.277
-718.791	66.309	-0.236	-0.245
-717.777	-22.812	-0.406	-0.250
-716.762	38.604	-0.145	-0.132
-715.748	-121.080	0.318	-0.054
-714.733	-90.007	-0.032	-0.010
-713.718	-54.387	-0.342	-0.158
-712.704	688.884	-0.100	-0.266
-711.689	-200.000	-0.041	-0.322
-710.675	-74.286	0.175	-0.064
-709.660	-200.000	-0.035	0.191
-708.645	46.404	-0.133	0.126
-707.631	118.793	0.040	0.050
-706.616	800.000	0.085	0.324
-705.602	-23.935	-0.207	0.126
-704.587	195.249	-0.018	-0.027
-703.572	119.589	-0.177	0.224
-702.558	96.207	-0.104	-0.121
-701.543	-142.138	0.056	0.006
-700.529	-28.314	0.036	0.021
-699.514	-200.000	0.057	-0.351
-698.499	-200.000	-0.053	-0.301
-697.485	-200.000	0.025	-0.312
-696.470	-37.304	0.159	0.087
-695.456	-27.472	-0.108	-0.064
-694.441	-9.122	0.233	0.159
-693.426	-115.715	0.261	-0.050
-692.412	560.283	0.091	0.223
-691.397	313.840	0.111	-0.213
-690.383	-31.658	0.089	0.051
-689.368	-200.000	-0.008	-0.165
-688.354	-29.769	0.276	-0.160
-687.339	-78.983	0.377	-0.131
-686.324	36.232	0.063	0.057
-685.310	409.470	0.172	0.371
-684.295	-9.981	-0.273	-0.185
-683.281	-9.079	-0.123	-0.084
-682.266	800.000	-0.090	0.259
-681.251	10.448	-0.281	0.218
-680.237	172.367	-0.035	-0.052
-679.222	42.071	-0.383	0.355
-678.208	800.000	0.045	-0.187
-677.193	-113.356	-0.122	0.024
-676.178	800.000	-0.049	0.140
-675.164	-150.152	0.388	0.031
-674.149	637.044	-0.155	-0.401
-673.135	-200.000	-0.020	0.138
-672.120	128.672	-0.142	-0.184
-671.105	-24.723	-0.477	-0.289
-670.091	800.000	0.037	-0.146
-669.076	800.000	0.060	-0.205
-668.062	800.000	0.006	0.025
-667.047	479.668	0.101	-0.233
-666.032	155.591	0.175	0.245
-665.018	-124.564	0.189	-0.030
-664.003	31.274	-0.147	-0.129
-662.989	10.112	-0.140	0.108
-661.974	800.000	-0.020	-0.085
-660.959	109.263	0.110	0.134
-659.945	25.892	-0.327	0.277
-658.930	-17.906	-0.116	-0.074
-657.916	-21.709	0.224	-0.139
-656.901	800.000	-0.039	-0.115
-655.886	-200.000	-0.030	-0.207
-654.872	14.916	0.267	0.212
-653.857	-62.948	0.073	-0.031
-652.843	-150.804	-0.149	0.011
-651.828	221.039	-0.191	0.313
-650.814	5.538	0.160	-0.120
-649.799	800.000	-0.029	-0.110
-648.784	-200.000	-0.007	-0.092
-647.770	-67.636	0.184	-0.073
-646.755	800.000	0.089	-0.347
-645.741	329.785	-0.077	-0.150
-644.726	-200.000	0.326	0.001
-643.711	28.917	0.204	-0.176
-642.697	255.278	0.111	-0.193
-641.682	266.703	0.067	0.120
-640.668	26.613	-0.315	-0.268
-639.653	450.930	-0.039	0.088
-638.638	-103.020	-0.090	-0.022
-637.624	-200.000	-0.031	-0.246
-636.609	-200.000	-0.049	0.273
-635.595	228.949	0.090	-0.149
-634.580	800.000	0.055	-0.229
-633.565	-200.000	0.006	-0.124
-632.551	-102.087	-0.160	-0.039
-631.536	88.784	0.255	-0.288
-630.522	-116.669	-0.173	-0.032
-629.507	-200.000	0.012	0.231
-628.492	-120.342	-0.145	0.025
-627.478	-193.852	0.092	-0.001
-626.463	-138.025	0.116	-0.013
-625.449	800.000	-0.108	-0.379
-624.434	-44.131	-0.107	0.055
-623.419	-200.000	0.009	0.333
-622.405	800.000	-0.083	0.276
-621.390	123.280	-0.036	0.045
-620.376	-76.454	0.611	0.219
-619.361	-41.199	-0.126	0.066
-618.346	-127.075	0.356	-0.053
-617.332	36.275	0.129	0.116
-616.317	10.058	0.142	0.110
-615.303	123.281	-0.190	0.242
-614.288	-200.000	-0.020	-0.185
-613.273	79.428	-0.244	-0.266
-612.259	800.000	-0.080	-0.235
-611.244	-64.040	0.154	-0.064
-610.230	-15.963	-0.223	-0.144
-609.215	-200.000	0.017	0.413
-608.201	-48.566	0.534	-0.261
-607.186	27.054	-0.370	-0.315
-606.171	94.556	0.064	-0.073
-605.157	-134.189	-0.218	0.027
-604.142	-132.178	-0.104	-0.014
-603.128	-74.620	0.173	0.063
-602.113	65.166	0.289	-0.296
-601.098	800.000	-0.063	-0.195
-600.084	-200.000	0.070	0.465
-599.069	128.139	0.140	-0.181
-598.055	-200.000	0.003	0.092
-597.040	131.611	0.021	-0.027
-596.025	194.204	-0.096	0.147
-595.011	-200.000	-0.001	0.415
-593.996	53.327	0.149	-0.145
-592.982	-200.000	-0.001	0.188
-591.967	-64.088	-0.331	-0.137
-590.952	-17.797	-0.312	0.199
-589.938	59.943	-0.080	0.080
-588.923	-200.000	-0.004	-0.080
-587.909	-59.376	0.339	0.148
-586.894	800.000	0.085	-0.265
-585.879	30.520	0.177	-0.153
-584.865	256.419	-0.060	-0.105
-583.850	800.000	-0.066	-0.188
-582.836	-84.241	-0.136	-0.044
-581.821	-143.682	-0.228	-0.022
-580.806	-117.180	0.192	-0.035
-579.792	29.961	0.065	0.056
-578.777	-24.776	0.041	0.024
-577.763	-112.761	0.070	-0.014
-576.748	800.000	-0.070	0.206
-575.733	-93.760	-0.324	-0.091
-574.719	-46.827	0.118	0.058
-573.704	-175.445	-0.222	0.006
-572.690	90.657	0.229	0.260
-571.675	-200.000	0.005	-0.063
-570.661	140.384	-0.043	-0.057
-569.646	-118.673	-0.063	0.011
-568.631	310.958	-0.059	0.112
-567.617	-104.878	0.117	0.027
-566.602	-117.400	0.186	0.034
-565.588	-200.000	0.002	0.169
-564.573	290.281	0.145	-0.267
-563.558	649.323	0.138	0.359
-562.544	-200.000	-0.032	0.179
-561.529	-4.345	-0.151	0.106
-560.515	208.767	-0.119	-0.189
-559.500	-100.277	0.101	-0.025
-558.485	800.000	0.035	0.122
-557.471	57.043	0.102	-0.101
-556.456	178.068	-0.100	0.147
-555.442	49.548	-0.155	-0.148
-554.427	60.923	-0.228	-0.229
-553.412	-147.533	-0.211	-0.018
-552.398	35.881	-0.103	0.092
-551.383	-101.101	-0.049	0.012
-550.369	221.802	-0.096	-0.157
-549.354	-39.375	0.136	0.073
-548.339	-200.000	0.006	0.040
-547.325	18.545	-0.242	-0.196
-546.310	-48.985	0.316	-0.153
-545.296	-53.312	-0.208	-0.097
-544.281	800.000	-0.039	0.139
-543.266	47.453	0.023	-0.022
-542.252	-20.711	-0.201	0.125
-541.237	-69.913	0.443	0.171
-540.223	361.271	0.090	-0.184
-539.208	-107.463	-0.262	-0.058
-538.193	-200.000	0.012	0.077
-537.179	-200.000	-0.022	0.172
-536.164	-59.520	-0.249	-0.108
-535.150	-200.000	0.019	0.240
-534.135	188.034	0.167	0.253
-533.121	259.889	-0.124	-0.217
-532.106	250.599	0.132	0.227
-531.091	-200.000	0.014	-0.116
-530.077	281.590	-0.086	-0.157
-529.062	-200.000	-0.018	-0.173
-528.048	-200.000	-0.008	0.104
-527.033	-31.544	0.052	0.030
-526.018	-40.899	0.218	0.114
-525.004	-42.853	0.038	0.020
-523.989	-47.135	-0.401	0.198
-522.975	-112.484	0.327	0.066
-521.960	393.935	0.016	-0.035
-520.945	68.152	0.053	0.055
-519.931	-115.502	0.213	0.041
-518.916	13.248	-0.312	-0.245
-517.902	-49.948	-0.384	0.185
-516.887	-200.000	0.180	-0.001
-515.872	396.049	0.039	-0.083
-514.858	77.389	0.259	-0.279
-513.843	-53.313	-0.092	0.043
-512.829	-107.858	-0.692	-0.152
-511.814	-62.515	0.350	0.147
-510.799	-200.000	0.014	0.229
-509.785	24.338	-0.149	-0.125
-508.770	285.656	-0.179	-0.327
-507.756	-3.053	-0.077	-0.055
-506.741	-106.985	0.301	-0.067
-505.726	572.167	0.041	-0.101
-504.712	-200.000	-0.006	0.045
-503.697	194.474	0.123	-0.189
-502.683	31.281	-0.224	-0.195
-501.668	-170.448	0.369	0.013
-500.653	-158.719	-0.296	-0.017
-499.639	-38.176	-0.590	0.316
-498.624	-128.373	0.144	0.021
-497.610	-18.146	0.268	-0.170
-496.595	33.054	0.452	0.397
-495.581	-4.830	-0.086	0.060
-494.566	-95.914	0.290	-0.078
-493.551	800.000	0.085	0.277
-492.537	-13.737	-0.129	-0.084
-491.522	52.846	-0.117	-0.113
-490.508	-34.468	-0.197	0.109
-489.493	-117.762	-0.361	0.066
-488.478	1.675	0.196	-0.143
-487.464	-200.000	0.055	-0.372
-486.449	-200.000	-0.002	-0.280
-485.435	106.304	-0.233	-0.279
-484.420	800.000	0.047	-0.140
-483.405	-94.178	0.182	0.050
-482.391	137.865	0.134	0.178
-481.376	-176.749	-0.278	-0.007
-480.362	-45.654	0.160	0.080
-479.347	-200.000	0.051	0.392
-478.332	217.263	0.058	-0.093
-477.318	172.869	-0.150	0.218
-476.303	-108.693	0.324	0.070
-475.289	-200.000	-0.016	-0.161
-474.274	-200.000	0.008	0.262
-473.259	-135.557	0.138	0.017
-472.245	478.563	-0.050	-0.116
-471.230	68.261	-0.169	-0.175
-470.216	528.074	-0.052	-0.123
-469.201	-155.692	0.317	-0.021
-468.186	800.000	0.028	0.111
-467.172	529.587	-0.205	0.490
-466.157	-181.880	0.381	0.007
-465.143	447.561	-0.024	0.053
-464.128	-132.106	0.203	0.027
-463.113	27.329	-0.028	0.024
-462.099	-200.000	-0.008	0.448
-461.084	248.092	-0.125	-0.213
-460.070	-200.000	0.010	0.134
-459.055	800.000	0.079	-0.286
-458.040	-19.064	0.172	-0.108
-457.026	137.426	-0.110	0.146
-456.011	-58.067	-0.141	-0.062
-454.997	40.218	-0.121	-0.110
-453.982	348.865	0.135	0.270
-452.968	562.932	0.040	0.098
-451.953	756.878	-0.017	-0.047
-450.938	148.201	0.070	0.095
-449.924	-35.309	0.176	-0.097
-448.909	800.000	0.012	0.034
-447.895	-80.273	0.425	0.144
-446.880	18.086	-0.066	-0.053
-445.865	-111.818	-0.093	0.019
-444.851	-185.242	0.183	-0.003
-443.836	-170.004	-0.233	0.008
-442.822	-73.007	-0.358	0.133
-441.807	800.000	-0.045	0.158
-440.792	-200.000	0.021	-0.139
-439.778	579.733	-0.096	0.237
-438.763	800.000	0.021	0.084
-437.749	40.879	-0.254	-0.231
-436.734	-114.985	0.153	0.029
-435.719	-151.016	0.069	0.005
-434.705	-92.650	0.103	-0.029
-433.690	-15.481	0.053	-0.034
-432.676	598.854	0.024	0.060
-431.661	-121.094	-0.262	0.044
-430.646	-110.407	0.116	0.024
-429.632	-84.826	-0.202	-0.064
-428.617	184.981	-0.053	-0.079
-427.603	-31.416	0.184	-0.105
-426.588	-86.555	0.238	0.074
-425.573	-109.400	-0.080	0.017
-424.559	800.000	-0.075	-0.279
-423.544	716.220	0.075	0.200
-422.530	355.651	0.058	-0.117
-421.515	-200.000	-0.021	-0.167
-420.500	-38.617	0.227	0.121
-419.486	-200.000	-0.031	0.159
-418.471	171.273	0.040	0.058
-417.457	-169.723	0.141	-0.005
-416.442	-93.257	-0.015	-0.004
-415.428	276.574	-0.087	-0.156
-414.413	79.294	0.104	0.112
-413.398	-77.419	-0.269	0.094
-412.384	800.000	0.063	-0.197
-411.369	-200.000	-0.067	-0.461
-410.355	27.755	0.077	0.066
-409.340	-75.239	0.201	-0.072
-408.325	800.000	0.012	0.046
-407.311	17.105	-0.189	0.151
-406.296	-200.000	-0.050	0.321
-405.282	800.000	-0.042	0.163
-404.267	398.119	-0.109	0.229
-403.252	198.694	0.164	-0.253
-402.238	139.357	0.032	-0.043
-401.223	-116.526	-0.180	0.033
-400.209	800.000	-0.049	-0.142
-399.194	800.000	-0.032	0.120
-398.179	-200.000	-0.251	0.001
-397.165	800.000	-0.040	-0.161
-396.150	-54.848	0.177	-0.080
-395.136	376.798	0.028	-0.058
-394.121	-200.000	-0.039	0.186
-393.106	-38.368	-0.105	0.056
-392.092	-200.000	-0.022	0.310
-391.077	-25.438	-0.380	-0.226
-390.063	-200.000	0.066	-0.299
-389.048	61.000	-0.332	-0.332
-388.033	153.579	-0.117	0.162
-387.019	800.000	-0.055	-0.172
-386.004	-91.445	0.152	-0.044
-384.990	153.259	0.029	-0.040
-383.975	-26.105	-0.269	0.159
-382.960	-16.537	0.123	0.078
-381.946	-76.075	0.210	-0.075
-380.931	-30.721	-0.259	0.148
-379.917	11.504	-0.020	0.016
-378.902	328.830	-0.057	-0.110
-377.888	-6.479	0.218	0.150
-376.873	-200.000	-0.005	-0.031
-375.858	-200.000	-0.043	-0.332
-374.844	-127.618	-0.061	-0.009
-373.829	800.000	-0.034	0.125
-372.815	-158.930	0.289	0.017
-371.800	331.179	0.134	0.261
-370.785	-89.899	0.152	-0.045
-369.771	-16.847	0.082	-0.052
-368.756	-118.356	-0.246	0.044
-367.742	-52.451	-0.378	0.176
-366.727	-77.520	-0.236	-0.082
-365.712	-146.327	0.315	0.028
-364.698	661.743	-0.042	0.109
-363.683	525.884	0.108	-0.256
-362.669	800.000	0.076	-0.287
-361.654	-99.178	-0.265	-0.067
-360.639	-104.513	-0.030	-0.007
-359.625	21.242	-0.082	0.067
-358.610	-68.734	0.175	0.068
-357.596	122.781	0.160	0.202
-356.581	-6.800	-0.161	-0.110
-355.566	-78.145	0.117	0.040
-354.552	-77.908	-0.252	0.088
-353.537	58.599	-0.057	-0.056
-352.523	-60.244	0.132	-0.057
-351.508	64.126	-0.137	-0.138
-350.493	81.646	0.108	-0.117
-349.479	-72.778	0.057	-0.021
-348.464	9.884	-0.158	0.121
-347.450	-141.830	-0.222	-0.022
-346.435	-6.709	0.284	-0.195
-345.420	-33.187	0.358	-0.200
-344.406	95.280	-0.039	0.045
-343.391	-54.855	0.184	0.084
-342.377	-89.037	-0.309	-0.092
-341.362	-44.684	0.155	-0.078
-340.348	339.888	-0.130	-0.255
-339.333	-20.478	-0.167	0.103
-338.318	-38.788	-0.172	0.091
-337.304	79.803	0.146	0.158
-336.289	-2.160	-0.108	-0.076
-335.275	-200.000	-0.076	-0.402
-334.260	3.233	-0.283	-0.207
-333.245	800.000	0.065	0.240
-332.231	800.000	0.086	0.310
-331.216	-122.637	0.528	0.086
-330.202	-12.585	-0.144	0.094
-329.187	-200.000	0.008	0.079
-328.172	443.270	0.044	0.096
-327.158	-124.892	0.115	-0.018
-326.143	384.865	-0.091	0.189
-325.129	206.713	-0.083	0.130
-324.114	-126.280	-0.211	-0.032
-323.099	-35.173	0.144	-0.079
-322.085	-200.000	0.002	-0.018
-321.070	-200.000	-0.012	-0.126
-320.056	-63.492	0.270	-0.112
-319.041	200.523	-0.175	-0.271
-318.026	800.000	-0.028	0.117
-317.012	458.032	-0.110	-0.245
-315.997	800.000	-0.120	0.382
-314.983	-1.224	-0.221	-0.157
-313.968	72.661	0.071	0.075
-312.953	-120.671	-0.162	0.028
-311.939	-28.824	0.365	0.211
-310.924	-84.741	-0.106	-0.034
-309.910	92.791	-0.186	-0.211
-308.895	-129.025	0.216	0.030
-307.880	-112.118	-0.201	0.041
-306.866	-200.000	0.033	0.202
-305.851	-92.300	-0.097	-0.028
-304.837	-109.309	0.236	0.050
-303.822	32.449	-0.114	-0.099
-302.807	800.000	-0.075	0.244
-301.793	800.000	-0.040	0.114
-300.778	-200.000	-0.026	0.189
-299.764	-200.000	0.023	0.120
-298.749	-200.000	-0.007	-0.204
-297.735	-108.824	-0.265	-0.057
-296.720	-73.988	-0.061	-0.022
-295.705	-115.236	-0.162	-0.031
-294.691	536.006	0.037	0.088
-293.676	-60.494	0.305	0.130
-292.662	800.000	0.165	-0.505
-291.647	800.000	0.131	-0.508
-290.632	800.000	-0.049	-0.207
-289.618	65.289	0.199	0.202
-288.603	192.067	0.106	0.161
-287.589	59.924	-0.225	0.223
-286.574	63.384	-0.214	-0.216
-285.559	-118.646	0.199	-0.035
-284.545	-178.248	0.197	-0.005
-283.530	800.000	0.020	0.087
-282.516	399.960	0.063	0.132
-281.501	-55.075	0.252	-0.114
-280.486	-91.190	0.159	-0.046
-279.472	800.000	-0.052	0.211
-278.457	354.547	-0.028	0.055
-277.443	-116.971	0.107	0.020
-276.428	55.513	-0.187	0.181
-275.413	617.911	-0.087	-0.219
-274.399	-200.000	0.047	-0.233
-273.384	-87.506	0.392	-0.119
-272.370	156.279	0.131	-0.181
-271.355	-122.614	0.155	0.025
-270.340	9.344	0.171	0.129
-269.326	-124.121	-0.051	-0.008
-268.311	391.944	0.110	-0.230
-267.297	800.000	0.047	-0.176
-266.282	-200.000	0.029	-0.172
-265.267	15.516	-0.116	0.092
-264.253	-200.000	-0.027	-0.198
-263.238	146.233	-0.085	-0.114
-262.224	30.537	0.209	-0.179
-261.209	3.479	0.327	-0.239
-260.195	-135.807	0.165	-0.019
-259.180	-142.271	0.187	-0.019
-258.165	-110.119	-0.279	0.058
-257.151	29.958	0.228	0.195
-256.136	4.392	-0.107	-0.078
-255.122	-200.000	0.005	0.086
-254.107	112.806	0.120	0.146
-253.092	8.538	0.066	0.050
-252.078	-96.533	0.164	-0.043
-251.063	-47.126	0.086	-0.042
-250.049	-88.893	0.208	0.062
-249.034	-106.830	-0.182	0.040
-248.019	-25.400	0.169	-0.100
-247.005	-112.902	0.083	0.017
-245.990	32.435	-0.100	-0.087
-244.976	640.499	0.110	-0.282
-243.961	-44.450	-0.364	-0.183
-242.946	-141.066	0.280	-0.029
-241.932	156.532	-0.033	0.046
-240.917	-89.901	0.121	-0.035
-239.903	165.351	0.050	0.071
-238.888	540.835	0.123	0.294
-237.873	-200.000	0.021	0.119
-236.859	355.189	-0.058	0.117
-235.844	2.486	-0.074	-0.054
-234.830	-200.000	-0.039	-0.172
-233.815	-200.000	0.007	-0.200
-232.800	-200.000	-0.135	0.000
-231.786	-134.359	0.319	0.039
-230.771	-199.564	-0.126	0.001
-229.757	237.073	-0.067	0.111
-228.742	-166.286	0.424	0.018
-227.727	121.763	0.125	-0.156
-226.713	-23.080	0.146	-0.088
-225.698	87.702	-0.122	0.136
-224.684	800.000	0.083	-0.283
-223.669	733.664	0.122	0.326
-222.655	-122.096	0.141	0.023
-221.640	-200.000	0.041	-0.252
-220.625	800.000	0.043	-0.181
-219.611	-200.000	0.007	0.127
-218.596	-200.000	0.035	0.426
-217.582	800.000	-0.027	0.088
-216.567	-200.000	-0.024	0.205
-215.552	-200.000	-0.038	0.180
-214.538	-200.000	-0.026	0.297
-213.523	-123.561	-0.272	0.043
-212.509	138.086	0.090	0.118
-211.494	-200.000	0.017	-0.264
-210.479	312.840	-0.194	0.365
-209.465	-36.190	0.051	0.027
-208.450	-97.783	0.199	-0.051
-207.436	121.189	0.102	0.127
-206.421	-184.557	0.160	0.003
-205.406	40.489	-0.113	0.102
-204.392	486.296	0.105	-0.239
-203.377	-56.520	0.238	0.105
-202.363	541.504	-0.138	0.328
-201.348	19.019	-0.124	0.099
-200.333	378.789	0.022	-0.045
-199.319	222.325	0.146	-0.236
-198.304	-200.000	0.018	0.114
-197.290	-60.041	-0.479	-0.205
-196.275	66.008	-0.151	0.153
-195.260	-6.161	0.339	0.231
-194.246	-155.579	-0.222	0.014
-193.231	-16.296	0.110	0.070
-192.217	556.126	0.035	0.083
-191.202	380.614	0.015	-0.031
-190.187	-200.000	0.001	0.216
-189.173	800.000	0.003	0.009
-188.158	98.940	0.233	-0.269
-187.144	-113.672	-0.044	0.009
-186.129	437.388	-0.136	0.295
-185.114	-29.241	0.305	0.175
-184.100	173.223	-0.093	-0.134
-183.085	-5.420	0.351	-0.241
-182.071	800.000	-0.052	0.198
-181.056	298.367	-0.223	-0.410
-180.042	-107.582	-0.314	-0.069
-179.027	-22.463	-0.107	-0.065
-178.012	-95.935	-0.041	-0.011
-176.998	-200.000	-0.015	-0.357
-175.983	14.263	0.199	0.155
-174.969	-40.339	-0.341	-0.177
-173.954	87.119	-0.330	-0.365
-172.939	-28.395	0.185	-0.107
-171.925	5.624	-0.175	0.129
-170.910	-200.000	-0.010	0.223
-169.896	800.000	-0.044	0.184
-168.881	518.891	-0.053	-0.123
-167.866	-200.000	0.005	0.026
-166.852	464.758	-0.082	0.184
-165.837	-130.931	-0.428	-0.057
-164.823	-90.355	-0.227	0.066
-163.808	729.397	0.096	0.257
-162.793	-72.411	-0.199	0.074
-161.779	-200.000	-0.026	-0.189
-160.764	490.458	-0.112	0.256
-159.750	-43.527	-0.092	0.047
-158.735	800.000	-0.093	0.299
-157.720	-200.000	-0.050	0.231
-156.706	-134.169	-0.120	0.015
-155.691	-200.000	0.003	0.205
-154.677	-12.298	-0.375	-0.245
-153.662	-8.422	-0.139	0.093
-152.647	93.190	-0.341	0.385
-151.633	-200.000	0.005	0.043
-150.618	-65.267	-0.143	-0.058
-149.604	-129.899	0.473	0.065
-148.589	326.573	-0.138	-0.263
-147.574	-59.330	0.164	0.070
-146.560	800.000	0.075	0.219
-145.545	-200.000	0.028	-0.137
-144.531	-110.869	-0.111	-0.023
-143.516	130.179	0.042	0.053
-142.502	-200.000	-0.020	-0.194
-141.487	-117.266	0.213	0.039
-140.472	-70.838	0.142	0.053
-139.458	-98.597	0.262	0.067
-138.443	6.097	-0.229	0.169
-137.429	800.000	0.040	0.163
-136.414	-92.514	-0.074	-0.021
-135.399	800.000	-0.032	0.138
-134.385	529.660	0.133	0.314
-133.370	-36.319	-0.105	-0.057
-132.356	-191.463	0.144	0.001
-131.341	88.270	-0.106	0.118
-130.326	-91.102	-0.164	-0.047
-129.312	-100.001	-0.161	0.040
-128.297	-200.000	-0.021	0.219
-127.283	-76.261	0.114	0.040
-126.268	800.000	0.159	-0.442
-125.253	242.531	-0.043	-0.071
-124.239	-200.000	0.041	0.244
-123.224	-200.000	0.015	-0.123
-122.210	90.028	0.161	0.179
-121.195	-14.371	-0.325	0.208
