DTS Sentinel unit serial number:	SN413079Multiplexer serial number:	ORYXHardware model number:	OX4-SRSoftware version number:	ORYX F/W v4.00 Oryx Data Collector v3.7.2.0data status	okinstallation	princeton_trtdifferential loss correction	single-endedforward channel	channel 1reverse channel	N/Adate	2019/09/16time	14:18:35forward acquisition time	60.00reverse acquisition time	0.00gamma	496.2192k internal	0.2294k external	0.2294temperature offset calibration	0.9953default loss term (dB/km)	0.3790temperature slope calibration	1.0000multiplexer offset coefficient	1.0000multiplexer slope coefficient	1.0000fibre end	0.00T internal ref (°C)	42.17T ext. ref 1 (°C)	14.15T ext. ref 2 (°C)	36.85length (m)	temperature (°C)	Stokes	anti-Stokes-747.200	662.023	0.124	-0.326
-746.185	-109.931	-0.116	-0.025
-745.171	800.000	-0.035	0.110
-744.156	710.004	-0.096	0.261
-743.142	76.166	0.190	0.206
-742.127	-200.000	0.002	0.244
-741.112	-181.116	0.307	0.006
-740.098	800.000	-0.059	0.193
-739.083	28.385	-0.153	-0.132
-738.069	502.797	0.130	0.308
-737.054	-38.613	0.321	-0.174
-736.039	-172.725	-0.088	0.003
-735.025	111.259	0.048	-0.059
-734.010	-17.652	0.069	-0.044
-732.996	-53.415	-0.188	0.088
-731.981	26.650	0.193	-0.165
-730.966	114.272	-0.006	-0.008
-729.952	-200.000	0.013	-0.347
-728.937	-140.015	0.303	-0.033
-727.923	-149.079	-0.134	-0.011
-726.908	-200.000	0.004	-0.139
-725.894	-82.615	0.192	-0.064
-724.879	800.000	0.089	0.261
-723.864	121.382	-0.071	-0.090
-722.850	306.494	-0.166	-0.316
-721.835	-86.420	0.093	-0.029
-720.821	-19.741	-0.118	-0.075
-719.806	461.621	0.104	0.237
-718.791	-170.749	0.055	0.002
-717.777	-200.000	0.056	-0.274
-716.762	-200.000	-0.018	-0.335
-715.748	630.866	0.056	-0.144
-714.733	-101.979	-0.312	-0.077
-713.718	128.302	-0.027	0.035
-712.704	-110.024	-0.037	-0.008
-711.689	-138.461	-0.214	0.024
-710.675	59.506	0.349	-0.351
-709.660	800.000	-0.036	-0.138
-708.645	800.000	0.066	-0.271
-707.631	235.573	-0.216	0.364
-706.616	800.000	-0.086	-0.299
-705.602	136.359	0.270	-0.360
-704.587	-200.000	-0.066	-0.343
-703.572	-121.742	0.518	-0.088
-702.558	212.899	0.091	0.147
-701.543	-176.672	-0.199	-0.005
-700.529	-200.000	0.003	0.339
-699.514	800.000	0.140	0.449
-698.499	-52.460	0.184	-0.087
-697.485	-3.502	0.060	-0.043
-696.470	150.382	-0.335	-0.464
-695.456	-155.761	0.118	-0.008
-694.441	-95.589	-0.192	-0.052
-693.426	800.000	0.050	0.160
-692.412	-11.242	-0.191	-0.129
-691.397	-83.223	-0.030	-0.010
-690.383	-57.440	0.207	-0.093
-689.368	-200.000	-0.031	-0.201
-688.354	800.000	-0.064	-0.268
-687.339	-81.907	-0.215	0.072
-686.324	-33.408	0.212	-0.119
-685.310	81.256	0.217	-0.239
-684.295	19.261	-0.239	0.196
-683.281	-200.000	-0.022	-0.117
-682.266	31.893	0.041	0.036
-681.251	12.603	0.221	0.174
-680.237	361.648	-0.045	-0.092
-679.222	110.178	-0.161	0.197
-678.208	742.546	0.024	0.067
-677.193	-158.424	0.211	-0.012
-676.178	381.427	0.162	0.340
-675.164	231.249	-0.052	0.087
-674.149	-71.099	-0.160	0.061
-673.135	-107.533	-0.154	0.034
-672.120	-47.681	0.216	0.107
-671.105	800.000	-0.044	0.174
-670.091	102.737	-0.072	-0.086
-669.076	169.807	0.112	0.163
-668.062	-103.436	0.332	-0.080
-667.047	-127.602	0.230	-0.034
-666.032	-116.897	-0.268	-0.050
-665.018	800.000	-0.090	-0.309
-664.003	83.101	0.093	-0.103
-662.989	-200.000	0.014	-0.202
-661.974	-200.000	-0.026	-0.468
-660.959	731.994	-0.054	-0.148
-659.945	800.000	0.023	-0.099
-658.930	-25.634	0.235	-0.141
-657.916	-132.829	-0.296	-0.038
-656.901	134.364	-0.245	0.324
-655.886	-64.937	0.207	-0.085
-654.872	60.149	0.142	0.144
-653.857	102.578	-0.293	-0.349
-652.843	-19.956	-0.205	-0.129
-651.828	-200.000	-0.016	-0.088
-650.814	-24.591	-0.025	0.015
-649.799	80.231	0.073	-0.080
-648.784	169.960	-0.199	-0.290
-647.770	352.247	-0.092	-0.185
-646.755	-53.103	-0.020	0.009
-645.741	800.000	-0.042	0.131
-644.726	-106.202	0.164	0.037
-643.711	-85.202	0.351	0.112
-642.697	-72.600	-0.278	0.105
-641.682	-13.210	0.194	0.128
-640.668	-200.000	-0.015	-0.096
-639.653	218.954	0.067	-0.109
-638.638	-64.211	-0.419	-0.174
-637.624	800.000	0.035	-0.104
-636.609	-83.796	0.263	0.085
-635.595	75.024	0.099	0.106
-634.580	-109.962	-0.162	0.034
-633.565	-69.300	0.240	0.094
-632.551	485.134	0.066	-0.152
-631.536	-134.493	0.183	0.023
-630.522	76.073	-0.086	-0.092
-629.507	26.464	0.125	0.107
-628.492	800.000	-0.034	0.126
-627.478	-91.728	-0.379	0.110
-626.463	-56.124	0.058	-0.026
-625.449	-144.505	-0.277	-0.026
-624.434	-46.431	-0.160	-0.080
-623.419	-200.000	-0.007	-0.102
-622.405	-14.138	-0.143	0.094
-621.390	-122.269	-0.144	0.024
-620.376	-76.402	-0.169	0.060
-619.361	800.000	-0.019	0.062
-618.346	663.083	-0.053	0.139
-617.332	482.353	0.017	0.039
-616.317	-144.826	0.213	0.020
-615.303	-40.120	-0.071	0.037
-614.288	94.944	-0.204	-0.237
-613.273	167.476	0.128	-0.186
-612.259	-2.530	0.042	0.030
-611.244	-2.170	-0.274	0.196
-610.230	-124.844	-0.360	-0.057
-609.215	-83.311	-0.227	0.074
-608.201	-200.000	0.017	-0.290
-607.186	-51.675	-0.275	0.131
-606.171	-10.832	-0.221	0.149
-605.157	144.879	0.198	-0.270
-604.142	-122.901	-0.437	0.072
-603.128	22.001	-0.154	-0.128
-602.113	33.887	-0.126	0.112
-601.098	-200.000	0.040	-0.198
-600.084	-200.000	-0.012	-0.260
-599.069	-149.569	0.139	0.011
-598.055	800.000	-0.081	0.281
-597.040	-48.346	-0.220	0.108
-596.025	158.781	0.017	-0.025
-595.011	-123.195	0.137	-0.022
-593.996	447.068	-0.070	-0.156
-592.982	800.000	-0.099	0.392
-591.967	139.976	-0.158	0.212
-590.952	200.334	0.028	0.044
-589.938	-200.000	-0.006	0.060
-588.923	111.015	0.191	-0.233
-587.909	100.544	0.249	-0.294
-586.894	12.357	-0.115	0.090
-585.879	356.733	-0.185	-0.376
-584.865	-58.300	-0.248	-0.110
-583.850	-137.544	0.304	0.035
-582.836	-200.000	-0.124	-0.000
-581.821	-100.766	-0.035	0.009
-580.806	-93.913	0.190	0.053
-579.792	-43.985	0.093	-0.048
-578.777	652.711	-0.028	-0.072
-577.763	435.366	-0.086	-0.191
-576.748	220.421	0.170	-0.277
-575.733	383.307	-0.051	-0.107
-574.719	153.351	-0.142	-0.197
-573.704	60.770	-0.320	-0.322
-572.690	-33.479	-0.221	-0.124
-571.675	-11.397	0.068	0.045
-570.661	692.103	-0.071	0.190
-569.646	-112.250	-0.341	-0.069
-568.631	800.000	-0.031	0.124
-567.617	800.000	0.078	0.247
-566.602	-46.943	-0.213	-0.106
-565.588	144.451	-0.152	-0.207
-564.573	594.584	0.027	-0.067
-563.558	238.148	-0.041	-0.069
-562.544	576.782	-0.059	0.145
-561.529	-19.167	0.195	0.123
-560.515	237.447	-0.114	0.191
-559.500	25.052	0.198	0.167
-558.485	111.080	0.136	-0.166
-557.471	800.000	0.086	-0.333
-556.456	-12.138	0.299	-0.199
-555.442	547.949	0.091	-0.221
-554.427	504.487	-0.101	-0.238
-553.412	800.000	-0.126	0.386
-552.398	-85.626	0.338	-0.107
-551.383	53.673	0.090	-0.088
-550.369	-73.644	-0.212	0.078
-549.354	-127.736	-0.120	-0.018
-548.339	14.335	0.149	-0.118
-547.325	83.945	-0.284	-0.315
-546.310	103.377	0.173	-0.206
-545.296	-166.141	-0.265	0.011
-544.281	77.140	-0.077	0.083
-543.266	-52.892	0.253	-0.118
-542.252	236.807	0.105	0.176
-541.237	-200.000	0.062	0.327
-540.223	800.000	0.108	0.383
-539.208	-12.294	0.051	0.034
-538.193	-73.093	-0.100	-0.037
-537.179	-200.000	0.019	-0.250
-536.164	-69.987	-0.397	-0.153
-535.150	411.608	-0.104	0.223
-534.135	-200.000	0.006	0.309
-533.121	465.264	0.150	-0.341
-532.106	98.773	0.095	-0.112
-531.091	47.281	0.170	-0.161
-530.077	62.321	-0.114	0.116
-529.062	472.204	0.090	0.205
-528.048	-200.000	0.005	0.106
-527.033	-200.000	-0.014	0.068
-526.018	94.138	-0.194	0.223
-525.004	-22.643	0.242	-0.149
-523.989	-122.866	0.135	0.022
-522.975	164.016	0.074	-0.105
-521.960	-138.333	-0.351	-0.039
-520.945	60.134	0.339	0.340
-519.931	-154.266	0.208	-0.014
-518.916	530.494	0.126	0.302
-517.902	-110.503	-0.111	0.023
-516.887	727.305	-0.087	0.236
-515.872	233.765	0.096	-0.160
-514.858	-200.000	0.034	0.184
-513.843	-200.000	0.023	-0.151
-512.829	800.000	-0.050	0.186
-511.814	-146.613	-0.471	0.041
-510.799	445.811	-0.094	-0.210
-509.785	-66.505	0.160	-0.064
-508.770	22.094	-0.103	0.086
-507.756	195.303	0.191	-0.294
-506.741	150.077	0.202	0.278
-505.726	-200.000	0.031	-0.145
-504.712	124.942	0.100	-0.128
-503.697	92.612	0.178	-0.203
-502.683	5.040	-0.282	0.210
-501.668	-28.650	-0.262	-0.153
-500.653	-67.150	-0.159	-0.064
-499.639	-200.000	0.063	0.455
-498.624	-200.000	-0.083	0.445
-497.610	63.663	-0.159	-0.162
-496.595	222.758	-0.105	-0.171
-495.581	-106.922	-0.227	0.051
-494.566	1.071	0.160	-0.116
-493.551	26.625	0.014	0.012
-492.537	-27.887	-0.177	0.104
-491.522	-95.096	-0.075	0.020
-490.508	-27.683	0.318	-0.187
-489.493	800.000	-0.081	-0.241
-488.478	-160.568	-0.470	-0.025
-487.464	-200.000	-0.016	-0.316
-486.449	-200.000	0.005	-0.104
-485.435	112.659	-0.106	-0.130
-484.420	27.680	0.067	-0.057
-483.405	282.775	-0.079	-0.143
-482.391	-70.474	-0.210	0.081
-481.376	8.949	0.139	-0.107
-480.362	362.577	0.037	-0.074
-479.347	-62.491	-0.327	-0.138
-478.332	31.650	-0.114	0.100
-477.318	-29.695	0.138	0.080
-476.303	6.603	0.044	0.033
-475.289	72.790	-0.224	-0.237
-474.274	-17.647	0.049	0.031
-473.259	-200.000	-0.013	0.365
-472.245	-82.430	-0.114	0.038
-471.230	188.016	0.211	-0.318
-470.216	533.646	0.160	-0.383
-469.201	-26.510	-0.105	-0.062
-468.186	-200.000	0.055	-0.334
-467.172	91.294	-0.080	-0.091
-466.157	91.342	0.181	0.206
-465.143	-95.054	-0.246	-0.067
-464.128	-40.027	0.241	0.127
-463.113	-3.169	0.245	0.173
-462.099	130.005	0.254	0.329
-461.084	90.572	-0.122	0.138
-460.070	800.000	-0.065	-0.187
-459.055	800.000	0.098	-0.352
-458.040	74.168	0.160	-0.170
-457.026	800.000	-0.116	0.351
-456.011	201.656	-0.270	0.420
-454.997	212.498	-0.122	-0.195
-453.982	403.914	0.148	0.316
-452.968	515.019	0.056	-0.133
-451.953	-82.252	-0.093	0.031
-450.938	-200.000	-0.019	-0.245
-449.924	-17.606	-0.203	-0.129
-448.909	-200.000	0.095	0.421
-447.895	0.592	-0.057	0.041
-446.880	37.577	0.249	0.223
-445.865	37.758	-0.169	0.152
-444.851	31.511	-0.026	-0.022
-443.836	425.607	-0.127	0.276
-442.822	67.957	-0.098	-0.101
-441.807	-89.731	-0.250	-0.074
-440.792	326.352	-0.145	-0.281
-439.778	-65.168	0.114	0.046
-438.763	-200.000	0.005	0.070
-437.749	-200.000	0.074	0.000
-436.734	539.658	0.080	0.192
-435.719	652.161	0.073	0.188
-434.705	-200.000	-0.020	0.354
-433.690	-114.918	0.164	0.031
-432.676	800.000	0.137	-0.385
-431.661	238.516	0.127	-0.213
-430.646	-55.630	-0.293	0.132
-429.632	393.940	-0.105	0.220
-428.617	-10.641	0.259	-0.173
-427.603	-67.140	0.283	0.113
-426.588	800.000	-0.064	0.239
-425.573	800.000	0.102	0.320
-424.559	30.495	0.141	-0.122
-423.544	-9.880	0.162	0.109
-422.530	-56.492	0.251	-0.112
-421.515	-147.600	-0.495	0.042
-420.500	-117.468	-0.108	-0.020
-419.486	800.000	0.105	-0.338
-418.471	-136.219	0.346	0.041
-417.457	-200.000	-0.011	0.246
-416.442	47.802	-0.217	-0.205
-415.428	281.096	-0.045	0.081
-414.413	-47.729	-0.151	0.074
-413.398	-167.940	-0.308	-0.012
-412.384	328.704	0.103	0.200
-411.369	-82.229	0.192	-0.063
-410.355	-100.796	0.306	0.076
-409.340	286.562	-0.100	-0.183
-408.325	285.567	-0.033	-0.060
-407.311	-117.399	-0.126	0.023
-406.296	138.523	-0.175	0.232
-405.282	-8.419	0.241	-0.164
-404.267	800.000	-0.026	-0.102
-403.252	-131.634	-0.133	0.018
-402.238	-155.761	0.159	-0.010
-401.223	800.000	-0.114	0.342
-400.209	155.932	-0.122	-0.170
-399.194	30.614	0.175	-0.151
-398.179	-19.283	0.245	-0.153
-397.165	159.140	0.192	-0.270
-396.150	220.096	0.069	-0.112
-395.136	27.670	-0.183	0.155
-394.121	-80.167	0.074	0.025
-393.106	-15.460	0.142	-0.092
-392.092	312.514	-0.097	-0.184
-391.077	154.167	0.210	-0.290
-390.063	146.132	-0.031	-0.042
-389.048	800.000	0.036	0.101
-388.033	-200.000	-0.005	-0.208
-387.019	-103.468	-0.262	0.062
-386.004	52.559	-0.164	-0.158
-384.990	-200.000	-0.019	0.181
-383.975	158.807	0.137	-0.192
-382.960	-125.479	0.202	-0.031
-381.946	-40.258	0.077	0.041
-380.931	-142.819	-0.164	-0.016
-379.917	-200.000	-0.027	-0.202
-378.902	258.221	-0.094	0.162
-377.888	-147.613	-0.159	-0.014
-376.873	540.498	-0.079	0.191
-375.858	-141.288	-0.291	0.030
-374.844	337.195	-0.156	0.305
-373.829	-200.000	0.003	0.034
-372.815	272.555	0.053	0.095
-371.800	-104.200	0.249	-0.058
-370.785	110.751	-0.165	0.200
-369.771	800.000	-0.013	-0.048
-368.756	-200.000	0.007	0.064
-367.742	-200.000	0.004	-0.254
-366.727	-55.157	0.348	-0.158
-365.712	800.000	0.055	0.212
-364.698	131.621	0.061	0.080
-363.683	-5.858	-0.081	-0.056
-362.669	277.991	0.088	0.157
-361.654	458.124	0.136	0.304
-360.639	93.667	-0.135	0.154
-359.625	709.358	0.050	0.134
-358.610	-125.673	0.095	-0.015
-357.596	800.000	-0.034	-0.095
-356.581	-120.549	-0.131	0.022
-355.566	-0.709	0.044	-0.032
-354.552	800.000	0.047	0.142
-353.537	-200.000	-0.027	0.371
-352.523	13.585	0.286	0.224
-351.508	22.721	-0.073	-0.061
-350.493	-112.301	0.117	0.024
-349.479	-200.000	-0.012	0.208
-348.464	-83.861	0.121	0.039
-347.450	-106.055	0.180	0.041
-346.435	-92.664	-0.149	0.042
-345.420	176.081	-0.089	-0.130
-344.406	-5.784	0.127	0.087
-343.391	2.467	-0.240	0.175
-342.377	800.000	0.027	-0.109
-341.362	-30.418	-0.058	-0.033
-340.348	80.497	0.105	0.113
-339.333	-77.291	-0.150	0.052
-338.318	800.000	0.040	0.139
-337.304	103.992	0.237	0.281
-336.289	-112.020	-0.213	-0.043
-335.275	-141.906	-0.409	0.041
-334.260	343.664	0.039	0.078
-333.245	-85.371	-0.235	0.074
-332.231	82.699	0.261	-0.286
-331.216	-200.000	-0.035	0.376
-330.202	-14.622	0.138	0.089
-329.187	55.148	-0.111	0.108
-328.172	-101.643	0.321	0.078
-327.158	-200.000	0.019	-0.251
-326.143	-88.721	0.150	-0.045
-325.129	15.412	-0.172	0.136
-324.114	16.432	-0.185	-0.147
-323.099	-200.000	-0.008	-0.100
-322.085	-72.838	-0.138	0.051
-321.070	125.173	0.198	0.251
-320.056	21.470	-0.106	0.086
-319.041	-200.000	-0.084	0.440
-318.026	214.507	-0.281	0.448
-317.012	-169.351	0.250	0.009
-315.997	-118.381	0.137	-0.025
-314.983	-30.615	0.410	0.233
-313.968	4.587	-0.228	0.169
-312.953	-200.000	-0.003	0.390
-311.939	217.338	-0.045	0.072
-310.924	-16.194	-0.404	-0.258
-309.910	-200.000	-0.001	-0.272
-308.895	-11.664	0.454	0.300
-307.880	-100.179	0.272	-0.068
-306.866	34.392	-0.269	0.236
-305.851	-200.000	-0.005	-0.285
-304.837	369.654	-0.045	-0.092
-303.822	-92.386	-0.127	-0.036
-302.807	-200.000	0.035	0.332
-301.793	463.176	-0.076	0.170
-300.778	-59.657	-0.205	0.088
-299.764	644.823	0.020	-0.051
-298.749	-54.852	0.217	-0.098
-297.735	509.101	0.071	0.165
-296.720	245.486	0.008	0.013
-295.705	383.476	0.071	0.148
-294.691	12.505	-0.102	0.079
-293.676	221.324	-0.183	-0.295
-292.662	110.485	-0.108	0.131
-291.647	-84.187	-0.115	-0.037
-290.632	192.943	0.245	-0.372
-289.618	228.511	-0.155	-0.253
-288.603	800.000	-0.078	-0.343
-287.589	-200.000	0.023	0.210
-286.574	60.360	0.010	0.010
-285.559	-159.367	0.108	0.006
-284.545	800.000	0.138	0.601
-283.530	-128.538	-0.414	0.059
-282.516	800.000	-0.026	0.079
-281.501	240.846	0.176	-0.295
-280.486	5.125	0.040	0.030
-279.472	-109.471	-0.065	-0.014
-278.457	689.238	-0.086	-0.225
-277.443	-142.495	-0.220	0.022
-276.428	282.375	0.216	0.389
-275.413	800.000	-0.059	-0.165
-274.399	-200.000	0.005	-0.084
-273.384	381.117	0.120	-0.246
-272.370	-65.592	-0.268	-0.108
-271.355	179.387	0.124	0.182
-270.340	-93.735	0.144	0.040
-269.326	-54.842	-0.181	-0.082
-268.311	80.293	0.125	0.135
-267.297	140.065	0.098	-0.130
-266.282	-80.878	0.338	0.112
-265.267	25.005	-0.145	-0.121
-264.253	-72.899	0.339	-0.125
-263.238	-186.109	0.434	0.006
-262.224	-74.104	0.282	-0.103
-261.209	-200.000	0.000	0.006
-260.195	116.677	-0.195	-0.240
-259.180	-61.343	0.042	0.018
-258.165	399.658	0.110	0.231
-257.151	-89.407	0.251	-0.074
-256.136	-69.893	0.071	-0.027
-255.122	800.000	0.062	-0.214
-254.107	-102.474	-0.060	-0.014
-253.092	32.711	-0.159	0.138
-252.078	-132.363	-0.141	0.018
-251.063	-60.925	0.138	-0.058
-250.049	-95.000	0.147	0.040
-249.034	260.657	0.103	-0.179
-248.019	126.085	-0.173	0.220
-247.005	539.945	0.083	0.198
-245.990	-91.501	-0.240	0.069
-244.976	13.166	-0.101	0.078
-243.961	97.658	0.075	0.086
-242.946	185.100	0.240	-0.358
-241.932	468.497	0.112	0.252
-240.917	-200.000	-0.013	-0.393
-239.903	-48.120	-0.258	0.125
-238.888	-84.096	-0.210	0.067
-237.873	460.557	0.014	0.031
-236.859	-10.170	-0.114	0.076
-235.844	-121.035	0.460	0.077
-234.830	-66.424	-0.028	-0.011
-233.815	63.126	0.184	-0.185
-232.800	-87.270	0.235	0.072
-231.786	-200.000	0.021	0.155
-230.771	-200.000	-0.063	-0.308
-229.757	-200.000	-0.013	-0.074
-228.742	5.004	-0.127	-0.094
-227.727	105.580	-0.262	0.310
-226.713	-2.907	0.273	0.191
-225.698	148.372	0.102	-0.137
-224.684	94.121	0.164	-0.187
-223.669	-125.690	-0.324	-0.049
-222.655	344.655	0.049	-0.097
-221.640	800.000	0.023	-0.077
-220.625	-187.020	-0.236	0.003
-219.611	-200.000	0.017	0.142
-218.596	-157.954	0.312	-0.018
-217.582	-174.886	-0.211	-0.006
-216.567	-131.348	0.146	0.019
-215.552	-92.662	-0.107	-0.030
-214.538	-200.000	-0.010	-0.071
-213.523	-9.188	0.120	-0.080
-212.509	176.008	-0.245	0.356
-211.494	483.223	0.158	-0.361
-210.479	-52.878	0.475	-0.219
-209.465	800.000	-0.043	0.129
-208.450	800.000	-0.065	0.266
-207.436	-200.000	-0.011	-0.190
-206.421	-69.232	0.089	-0.034
-205.406	127.629	0.127	-0.162
-204.392	324.857	-0.046	-0.088
-203.377	-87.873	-0.160	0.048
-202.363	-200.000	0.025	-0.511
-201.348	-200.000	-0.008	-0.201
-200.333	-68.125	-0.096	0.037
-199.319	-145.830	0.117	0.010
-198.304	-72.744	0.439	0.162
-197.290	310.694	-0.126	0.236
-196.275	341.550	-0.085	-0.166
-195.260	77.088	0.284	-0.302
-194.246	-150.861	0.080	-0.006
-193.231	-200.000	0.066	0.396
-192.217	-200.000	-0.014	0.145
-191.202	800.000	-0.106	0.402
-190.187	259.433	-0.180	0.311
-189.173	-120.729	-0.121	-0.020
-188.158	-21.546	0.152	0.093
-187.144	-200.000	-0.051	-0.296
-186.129	-200.000	-0.012	-0.091
-185.114	199.966	0.064	-0.099
-184.100	-32.133	0.334	0.187
-183.085	-40.787	0.224	0.116
-182.071	-90.714	0.098	-0.028
-181.056	-200.000	0.029	-0.213
-180.042	88.801	-0.297	0.330
-179.027	-95.985	0.039	0.010
-178.012	153.128	-0.058	0.079
-176.998	-160.044	0.302	-0.016
-175.983	800.000	-0.098	-0.373
-174.969	-37.673	0.024	0.013
-173.954	-119.368	0.109	-0.019
-172.939	-118.198	-0.270	-0.048
-171.925	-149.093	-0.122	0.010
-170.910	75.361	-0.074	-0.078
-169.896	-71.304	0.128	0.048
-168.881	800.000	0.103	0.343
-167.866	177.480	0.130	-0.189
-166.852	53.334	0.191	-0.183
-165.837	-23.200	0.268	-0.162
-164.823	-200.000	0.030	-0.167
-163.808	-106.856	-0.124	0.027
-162.793	800.000	-0.045	-0.173
-161.779	53.009	-0.228	-0.218
-160.764	111.145	-0.156	-0.188
-159.750	-200.000	-0.042	-0.250
-158.735	34.610	0.316	0.276
-157.720	733.956	-0.061	0.164
-156.706	-200.000	0.085	-0.477
-155.691	-87.205	0.195	0.059
-154.677	-22.678	0.172	-0.104
-153.662	22.581	0.227	0.186
-152.647	-200.000	0.009	-0.210
-151.633	-200.000	-0.043	-0.398
-150.618	800.000	-0.063	0.237
-149.604	800.000	-0.008	-0.032
-148.589	800.000	-0.096	0.379
-147.574	-104.682	0.310	-0.071
-146.560	-57.682	0.263	0.115
-145.545	800.000	-0.088	0.317
-144.531	-200.000	-0.004	0.168
-143.516	-160.089	0.372	0.020
-142.502	150.062	-0.122	-0.165
-141.487	-16.243	0.116	-0.074
-140.472	-75.008	-0.150	0.054
-139.458	-20.708	-0.142	-0.087
-138.443	-164.964	0.416	-0.019
-137.429	-93.611	-0.064	0.018
-136.414	253.001	0.182	0.311
-135.399	-78.694	-0.172	-0.059
-134.385	-10.297	-0.056	0.037
-133.370	-126.635	0.257	-0.038
-132.356	-14.505	-0.312	0.200
-131.341	17.390	-0.209	-0.166
-130.326	-80.077	0.140	-0.047
-129.312	800.000	-0.046	-0.195
-128.297	435.715	0.018	0.040
-127.283	-40.135	-0.249	0.130
-126.268	186.564	-0.138	0.205
-125.253	566.957	0.044	-0.107
-124.239	-200.000	0.020	-0.105
-123.224	-200.000	0.035	-0.162
-122.210	-109.179	-0.322	0.068
-121.195	-200.000	0.004	-0.251
