DTS Sentinel unit serial number:	SN413079Multiplexer serial number:	ORYXHardware model number:	OX4-SRSoftware version number:	ORYX F/W v4.00 Oryx Data Collector v3.7.2.0data status	okinstallation	princeton_trtdifferential loss correction	single-endedforward channel	channel 1reverse channel	N/Adate	2019/09/14time	01:46:35forward acquisition time	60.00reverse acquisition time	0.00gamma	496.2192k internal	0.2336k external	0.2336temperature offset calibration	1.0079default loss term (dB/km)	0.3790temperature slope calibration	1.0000multiplexer offset coefficient	1.0000multiplexer slope coefficient	1.0000fibre end	0.00T internal ref (°C)	26.44T ext. ref 1 (°C)	3.19T ext. ref 2 (°C)	21.45length (m)	temperature (°C)	Stokes	anti-Stokes-747.200	-200.000	-0.010	-0.243
-746.185	196.625	-0.182	0.278
-745.171	6.243	0.089	-0.066
-744.156	-39.384	-0.324	-0.171
-743.142	-122.756	0.146	-0.024
-742.127	-200.000	-0.024	-0.213
-741.112	-51.405	-0.121	0.057
-740.098	126.905	0.141	0.179
-739.083	800.000	-0.095	0.406
-738.069	800.000	0.130	0.408
-737.054	-68.055	-0.139	-0.055
-736.039	480.611	-0.100	-0.229
-735.025	-124.185	0.335	0.053
-734.010	105.344	-0.073	0.087
-732.996	267.760	-0.126	-0.222
-731.981	800.000	-0.035	-0.120
-730.966	-108.669	-0.112	-0.024
-729.952	238.988	0.175	-0.292
-728.937	711.052	-0.014	-0.037
-727.923	-63.424	-0.087	0.036
-726.908	-200.000	-0.030	-0.142
-725.894	-44.491	-0.145	-0.073
-724.879	-89.504	0.138	-0.041
-723.864	358.998	-0.126	-0.252
-722.850	-115.466	0.311	0.059
-721.835	149.653	-0.175	0.238
-720.821	-94.965	0.353	-0.096
-719.806	339.028	-0.125	-0.244
-718.791	-129.627	0.270	0.037
-717.777	50.240	-0.244	0.231
-716.762	-119.151	0.400	-0.070
-715.748	-200.000	-0.008	-0.069
-714.733	-82.021	0.385	-0.126
-713.718	-57.785	0.104	-0.046
-712.704	91.161	0.067	-0.076
-711.689	-21.154	0.071	0.044
-710.675	29.301	0.224	-0.191
-709.660	13.093	-0.119	0.093
-708.645	-200.000	-0.022	0.143
-707.631	800.000	-0.179	0.525
-706.616	533.671	0.206	0.489
-705.602	154.488	-0.192	0.264
-704.587	-200.000	0.026	0.183
-703.572	-35.203	0.129	-0.071
-702.558	425.985	0.129	-0.278
-701.543	476.827	0.140	-0.316
-700.529	-46.655	0.219	-0.108
-699.514	177.118	-0.200	0.291
-698.499	225.030	0.146	0.237
-697.485	183.306	-0.075	-0.111
-696.470	800.000	-0.081	-0.250
-695.456	311.951	0.081	-0.152
-694.441	-32.515	0.217	0.121
-693.426	-50.342	-0.301	-0.142
-692.412	800.000	-0.079	-0.307
-691.397	-80.876	0.200	0.067
-690.383	-83.652	-0.220	0.070
-689.368	84.175	0.256	-0.281
-688.354	385.327	0.052	0.107
-687.339	-40.738	-0.376	-0.195
-686.324	-79.211	-0.123	0.042
-685.310	-200.000	0.017	-0.110
-684.295	4.781	0.174	0.128
-683.281	-200.000	0.003	-0.192
-682.266	-114.501	0.465	-0.089
-681.251	4.414	-0.064	-0.047
-680.237	-108.598	-0.156	-0.034
-679.222	-106.799	0.136	-0.030
-678.208	155.067	-0.095	0.131
-677.193	-200.000	-0.012	-0.159
-676.178	800.000	-0.040	-0.169
-675.164	27.123	0.315	0.265
-674.149	-200.000	-0.012	-0.176
-673.135	43.537	-0.108	0.099
-672.120	150.625	0.167	0.227
-671.105	-34.406	-0.138	0.076
-670.091	800.000	0.136	-0.383
-669.076	-157.674	-0.352	-0.021
-668.062	183.547	-0.034	0.050
-667.047	-1.428	-0.056	-0.040
-666.032	-105.462	-0.081	-0.019
-665.018	-200.000	-0.031	0.349
-664.003	800.000	0.114	-0.397
-662.989	-195.602	0.421	-0.003
-661.974	516.093	-0.130	0.303
-660.959	-137.152	-0.159	0.018
-659.945	-200.000	0.033	-0.234
-658.930	-54.757	0.169	-0.076
-657.916	-200.000	0.033	-0.147
-656.901	800.000	-0.097	-0.314
-655.886	84.216	-0.093	0.102
-654.872	141.838	-0.276	0.366
-653.857	72.390	0.160	0.166
-652.843	147.336	0.087	0.117
-651.828	34.840	0.109	-0.096
-650.814	14.612	-0.188	-0.147
-649.799	100.871	-0.081	0.094
-648.784	-95.988	-0.312	-0.083
-647.770	264.198	0.157	-0.274
-646.755	25.140	0.245	-0.203
-645.741	800.000	-0.043	0.156
-644.726	216.436	-0.176	-0.279
-643.711	-46.446	-0.143	-0.070
-642.697	-13.398	0.130	0.084
-641.682	800.000	-0.068	-0.296
-640.668	-200.000	-0.004	-0.211
-639.653	110.102	-0.219	-0.263
-638.638	245.237	-0.073	-0.123
-637.624	800.000	-0.065	-0.210
-636.609	448.938	-0.134	-0.294
-635.595	121.309	0.081	0.101
-634.580	-93.243	-0.281	0.078
-633.565	-121.688	-0.013	0.002
-632.551	800.000	-0.057	-0.224
-631.536	222.161	0.142	-0.229
-630.522	800.000	0.094	0.272
-629.507	727.315	-0.029	0.076
-628.492	-200.000	-0.019	0.140
-627.478	-6.747	0.381	-0.259
-626.463	-200.000	-0.037	-0.575
-625.449	-7.541	0.394	-0.266
-624.434	120.512	-0.210	0.261
-623.419	-57.960	0.268	0.117
-622.405	-200.000	-0.050	-0.392
-621.390	-200.000	-0.051	-0.357
-620.376	-80.373	-0.170	-0.057
-619.361	-200.000	-0.010	0.218
-618.346	-200.000	-0.002	-0.100
-617.332	462.780	0.097	0.215
-616.317	-200.000	-0.018	0.239
-615.303	235.779	0.141	-0.232
-614.288	-114.603	-0.031	0.006
-613.273	52.383	-0.080	-0.076
-612.259	-78.114	0.381	0.131
-611.244	81.065	-0.244	-0.263
-610.230	-118.073	-0.322	-0.058
-609.215	-200.000	-0.023	-0.192
-608.201	553.530	-0.063	0.150
-607.186	-143.995	-0.122	0.011
-606.171	182.775	-0.253	-0.372
-605.157	46.236	0.101	-0.094
-604.142	-200.000	0.024	0.160
-603.128	-200.000	-0.017	0.146
-602.113	-134.232	0.189	-0.023
-601.098	-151.882	0.236	0.017
-600.084	-200.000	-0.000	0.093
-599.069	-200.000	0.006	0.172
-598.055	-200.000	0.019	0.139
-597.040	213.494	0.120	-0.189
-596.025	-104.186	-0.077	0.018
-595.011	-102.426	0.111	0.027
-593.996	800.000	0.126	-0.363
-592.982	63.939	0.129	0.130
-591.967	-137.271	-0.344	0.039
-590.952	101.349	0.053	0.062
-589.938	-138.844	-0.342	0.037
-588.923	-13.307	0.452	-0.293
-587.909	-142.222	0.343	0.034
-586.894	800.000	-0.043	0.121
-585.879	-67.212	-0.032	-0.013
-584.865	-78.088	-0.154	-0.053
-583.850	514.671	0.085	0.198
-582.836	-55.676	-0.287	-0.128
-581.821	144.340	-0.198	0.264
-580.806	521.112	0.159	0.372
-579.792	88.463	-0.279	-0.310
-578.777	-117.439	-0.090	0.016
-577.763	-12.688	0.446	-0.290
-576.748	32.889	-0.198	-0.171
-575.733	26.468	-0.161	-0.134
-574.719	337.482	0.061	0.117
-573.704	293.814	-0.041	0.074
-572.690	101.158	0.236	0.274
-571.675	-200.000	-0.042	-0.193
-570.661	800.000	-0.078	0.336
-569.646	23.794	0.110	0.090
-568.631	-200.000	0.019	0.110
-567.617	800.000	-0.017	-0.050
-566.602	143.726	-0.141	-0.187
-565.588	-200.000	0.002	0.151
-564.573	95.660	-0.027	-0.030
-563.558	412.038	0.090	0.191
-562.544	169.490	-0.058	-0.083
-561.529	-30.298	0.225	0.128
-560.515	42.675	0.167	0.152
-559.500	-94.456	-0.168	-0.046
-558.485	106.140	0.173	0.205
-557.471	-200.000	-0.016	0.191
-556.456	-68.664	-0.156	-0.060
-555.442	-83.486	0.277	-0.088
-554.427	-71.167	0.496	0.186
-553.412	83.492	-0.048	0.052
-552.398	105.710	-0.153	-0.180
-551.383	373.091	-0.048	-0.098
-550.369	117.481	-0.054	-0.066
-549.354	-137.762	-0.053	0.006
-548.339	-83.390	-0.160	0.051
-547.325	800.000	0.053	-0.190
-546.310	-200.000	0.032	-0.335
-545.296	800.000	-0.084	-0.302
-544.281	72.399	0.120	0.125
-543.266	88.740	0.100	0.111
-542.252	800.000	-0.090	-0.253
-541.237	-102.782	0.299	0.071
-540.223	-200.000	0.001	0.248
-539.208	127.353	0.027	-0.034
-538.193	144.862	-0.111	-0.148
-537.179	230.616	-0.036	-0.058
-536.164	-200.000	-0.114	-0.531
-535.150	-122.017	-0.204	0.033
-534.135	-140.137	-0.400	-0.042
-533.121	-182.285	0.126	-0.002
-532.106	-200.000	0.025	-0.187
-531.091	277.219	-0.122	-0.216
-530.077	-95.163	0.145	0.039
-529.062	125.244	0.207	-0.260
-528.048	-200.000	0.008	0.066
-527.033	92.049	0.239	-0.268
-526.018	44.206	-0.417	0.381
-525.004	-27.925	0.085	-0.049
-523.989	-57.032	-0.379	-0.166
-522.975	-200.000	0.018	-0.256
-521.960	-200.000	0.029	-0.158
-520.945	-55.773	-0.247	-0.110
-519.931	-200.000	0.002	0.183
-518.916	49.512	-0.116	0.109
-517.902	21.181	0.266	-0.215
-516.887	685.583	-0.083	0.216
-515.872	93.885	0.115	0.129
-514.858	431.924	-0.064	0.139
-513.843	-7.565	-0.161	0.108
-512.829	-79.837	0.086	0.029
-511.814	98.667	0.055	-0.063
-510.799	800.000	0.055	-0.173
-509.785	-198.845	0.354	0.002
-508.770	-39.863	-0.178	0.092
-507.756	-120.591	-0.339	0.057
-506.741	-146.758	-0.125	-0.011
-505.726	-93.751	0.198	-0.054
-504.712	81.398	-0.189	-0.203
-503.697	-200.000	0.007	-0.080
-502.683	-80.620	0.261	0.087
-501.668	-66.411	-0.174	-0.069
-500.653	-200.000	0.003	0.253
-499.639	-148.624	0.166	-0.013
-498.624	-65.726	-0.272	0.108
-497.610	-200.000	-0.012	0.094
-496.595	-15.652	0.167	0.106
-495.581	-200.000	-0.010	-0.046
-494.566	-200.000	-0.027	0.130
-493.551	-200.000	-0.064	-0.303
-492.537	-30.447	0.132	0.075
-491.522	800.000	-0.111	0.360
-490.508	-29.039	0.127	-0.072
-489.493	-96.033	0.212	-0.056
-488.478	-200.000	-0.007	0.235
-487.464	-145.169	0.229	0.021
-486.449	-55.365	-0.214	-0.095
-485.435	-44.160	-0.313	0.156
-484.420	-55.179	0.075	0.034
-483.405	800.000	-0.039	-0.168
-482.391	17.214	0.050	0.039
-481.376	104.024	0.097	-0.113
-480.362	-114.189	-0.259	-0.050
-479.347	-37.615	0.085	-0.045
-478.332	-137.827	-0.166	-0.018
-477.318	-10.524	-0.064	0.042
-476.303	477.448	0.071	0.161
-475.289	46.683	-0.077	-0.071
-474.274	-118.979	0.231	0.040
-473.259	654.387	-0.059	0.151
-472.245	11.877	-0.089	-0.068
-471.230	-115.191	0.179	0.034
-470.216	79.016	-0.105	-0.112
-469.201	95.206	-0.107	0.121
-468.186	800.000	0.046	0.174
-467.172	-200.000	0.061	0.352
-466.157	-53.028	-0.192	-0.088
-465.143	-200.000	-0.115	-0.697
-464.128	-200.000	-0.059	-0.330
-463.113	191.793	0.131	0.195
-462.099	-49.131	0.128	-0.061
-461.084	800.000	-0.168	-0.490
-460.070	43.638	0.248	-0.225
-459.055	744.807	0.090	-0.239
-458.040	18.213	0.138	0.109
-457.026	324.708	-0.110	-0.209
-456.011	185.608	0.121	0.179
-454.997	800.000	0.099	0.397
-453.982	29.642	0.100	0.084
-452.968	116.470	0.101	0.123
-451.953	158.915	0.085	0.117
-450.938	-108.929	-0.257	0.054
-449.924	-96.646	-0.107	-0.028
-448.909	-130.025	0.108	0.015
-447.895	1.631	0.088	0.063
-446.880	-200.000	-0.059	-0.293
-445.865	-200.000	-0.010	0.107
-444.851	35.289	0.161	0.140
-443.836	-31.047	0.193	0.108
-442.822	40.452	0.227	-0.203
-441.807	111.031	-0.118	-0.141
-440.792	800.000	-0.004	-0.011
-439.778	-74.419	0.223	0.080
-438.763	0.696	0.030	0.021
-437.749	114.089	0.142	0.171
-436.734	15.682	0.084	0.065
-435.719	-58.220	-0.167	0.072
-434.705	-106.913	-0.010	0.002
-433.690	407.225	-0.037	0.078
-432.676	-200.000	-0.066	0.316
-431.661	-200.000	0.011	-0.134
-430.646	-15.445	-0.130	0.083
-429.632	-200.000	-0.027	0.273
-428.617	-52.305	-0.193	-0.089
-427.603	14.063	-0.082	-0.063
-426.588	-200.000	-0.016	0.160
-425.573	-39.385	-0.584	-0.304
-424.559	-12.550	0.077	-0.050
-423.544	521.593	-0.204	0.474
-422.530	515.788	0.103	0.239
-421.515	-200.000	-0.010	0.117
-420.500	800.000	0.021	0.079
-419.486	-55.045	0.153	-0.068
-418.471	-16.880	-0.080	-0.050
-417.457	-42.009	-0.360	0.183
-416.442	-43.885	0.227	0.113
-415.428	-126.249	-0.156	-0.023
-414.413	-103.381	-0.439	-0.103
-413.398	-173.510	0.354	0.011
-412.384	-29.193	0.277	0.157
-411.369	-52.828	0.204	0.093
-410.355	800.000	-0.046	0.138
-409.340	-200.000	0.010	-0.056
-408.325	800.000	0.070	0.297
-407.311	-61.755	0.264	0.110
-406.296	-44.810	-0.140	0.069
-405.282	-76.521	-0.299	0.104
-404.267	-3.399	-0.259	-0.179
-403.252	-200.000	-0.065	-0.384
-402.238	365.161	-0.073	-0.146
-401.223	-200.000	0.033	0.177
-400.209	25.321	-0.191	0.157
-399.194	-200.000	-0.030	-0.000
-398.179	800.000	0.062	0.177
-397.165	385.469	0.206	0.422
-396.150	-184.370	-0.330	0.005
-395.136	-2.274	-0.240	-0.167
-394.121	-200.000	0.012	-0.159
-393.106	-102.189	0.291	-0.069
-392.092	110.220	0.034	0.040
-391.077	469.925	0.117	0.260
-390.063	-200.000	0.028	0.292
-389.048	-89.822	-0.246	0.071
-388.033	-125.336	0.391	-0.059
-387.019	265.976	0.057	-0.099
-386.004	-69.038	0.036	-0.014
-384.990	183.508	0.067	0.098
-383.975	623.327	0.087	-0.217
-382.960	-130.742	-0.272	-0.036
-381.946	-130.583	-0.298	0.040
-380.931	331.376	-0.105	-0.200
-379.917	-200.000	-0.051	0.246
-378.902	-124.206	0.393	-0.061
-377.888	800.000	-0.156	0.663
-376.873	-98.933	-0.075	0.019
-375.858	299.304	0.067	-0.122
-374.844	-198.947	0.129	-0.001
-373.829	-100.631	0.178	-0.044
-372.815	800.000	0.070	-0.270
-371.800	-146.124	-0.099	-0.009
-370.785	4.260	-0.128	-0.093
-369.771	-200.000	0.071	-0.331
-368.756	112.598	-0.192	0.231
-367.742	65.135	0.072	-0.072
-366.727	2.510	-0.176	-0.126
-365.712	-200.000	0.015	0.068
-364.698	124.712	-0.132	-0.165
-363.683	25.833	-0.179	-0.148
-362.669	543.429	0.079	0.186
-361.654	800.000	-0.055	0.198
-360.639	-200.000	-0.034	0.153
-359.625	636.221	0.111	-0.279
-358.610	57.453	0.280	-0.270
-357.596	-154.854	0.332	0.022
-356.581	-159.579	0.360	0.020
-355.566	-200.000	0.030	-0.208
-354.552	-21.965	-0.201	0.121
-353.537	50.453	0.036	0.034
-352.523	-132.920	-0.083	-0.010
-351.508	138.347	-0.126	-0.164
-350.493	-183.001	0.306	0.005
-349.479	-141.644	-0.094	-0.009
-348.464	13.873	0.193	0.149
-347.450	-79.111	-0.123	0.041
-346.435	14.213	-0.234	-0.180
-345.420	-58.000	0.225	-0.097
-344.406	187.090	0.079	-0.116
-343.391	-93.551	-0.104	-0.028
-342.377	-154.325	-0.139	0.009
-341.362	-200.000	0.027	-0.246
-340.348	-69.931	-0.282	0.106
-339.333	-200.000	-0.045	0.400
-338.318	-113.501	0.251	-0.049
-337.304	-89.747	-0.174	0.050
-336.289	-31.871	0.225	-0.124
-335.275	35.141	0.106	-0.092
-334.260	-69.908	-0.311	0.117
-333.245	454.215	0.067	-0.146
-332.231	222.653	-0.160	0.254
-331.216	800.000	0.188	0.599
-330.202	530.897	0.129	-0.301
-329.187	-101.638	-0.338	0.081
-328.172	800.000	-0.026	0.087
-327.158	168.059	0.037	-0.052
-326.143	129.831	-0.259	0.328
-325.129	254.084	-0.248	-0.419
-324.114	-200.000	0.007	0.031
-323.099	-200.000	-0.008	0.193
-322.085	178.960	-0.086	0.125
-321.070	-119.743	0.077	0.013
-320.056	-111.559	-0.242	-0.049
-319.041	-172.117	-0.163	-0.005
-318.026	-61.927	-0.095	0.039
-317.012	-146.109	0.119	0.010
-315.997	-145.501	0.263	0.023
-314.983	-131.293	0.193	-0.025
-313.968	-95.529	-0.248	0.066
-312.953	-135.116	0.340	0.040
-311.939	-59.554	-0.154	0.065
-310.924	800.000	0.052	0.160
-309.910	-144.810	-0.461	0.042
-308.895	154.803	0.034	-0.046
-307.880	-133.161	0.208	0.026
-306.866	566.271	0.025	-0.060
-305.851	10.799	-0.227	-0.171
-304.837	294.037	0.116	-0.209
-303.822	26.054	-0.190	0.157
-302.807	-200.000	-0.061	-0.398
-301.793	-200.000	-0.026	-0.334
-300.778	268.429	-0.039	-0.067
-299.764	146.216	-0.123	-0.162
-298.749	-89.473	-0.294	0.085
-297.735	75.550	-0.034	0.036
-296.720	-150.796	-0.448	0.034
-295.705	-101.316	0.229	-0.055
-294.691	226.721	-0.176	0.281
-293.676	50.584	0.006	-0.006
-292.662	65.352	-0.076	0.076
-291.647	800.000	-0.066	0.216
-290.632	-44.467	-0.107	-0.053
-289.618	-62.219	0.282	-0.116
-288.603	653.588	-0.111	-0.281
-287.589	-44.815	-0.258	-0.127
-286.574	800.000	-0.028	-0.104
-285.559	-91.866	-0.043	0.012
-284.545	210.109	-0.148	-0.230
-283.530	-200.000	-0.032	-0.179
-282.516	125.933	0.151	0.189
-281.501	-125.894	0.072	0.011
-280.486	162.014	0.243	-0.336
-279.472	-52.193	0.268	-0.122
-278.457	-176.547	0.211	0.005
-277.443	-125.855	0.156	-0.023
-276.428	800.000	-0.067	0.200
-275.413	55.806	0.201	-0.192
-274.399	602.851	0.097	0.239
-273.384	233.866	-0.165	0.268
-272.370	-165.715	0.184	-0.008
-271.355	800.000	-0.074	-0.298
-270.340	77.929	0.053	0.056
-269.326	197.984	-0.102	0.154
-268.311	-200.000	-0.030	0.482
-267.297	125.366	0.206	0.256
-266.282	-5.092	0.245	0.166
-265.267	94.843	-0.140	0.157
-264.253	336.390	-0.219	0.419
-263.238	598.272	-0.094	0.231
-262.224	-17.672	-0.343	0.212
-261.209	-143.312	0.390	0.037
-260.195	18.517	-0.277	-0.218
-259.180	-171.921	0.193	-0.006
-258.165	8.009	-0.266	0.196
-257.151	-62.222	-0.380	-0.156
-256.136	-60.339	0.149	0.062
-255.122	-200.000	0.022	0.214
-254.107	-200.000	-0.022	-0.171
-253.092	255.797	0.160	-0.269
-252.078	41.324	-0.167	0.149
-251.063	-12.784	0.198	-0.127
-250.049	407.484	0.102	0.212
-249.034	-116.911	-0.078	-0.014
-248.019	-69.785	0.456	-0.172
-247.005	-200.000	-0.007	0.061
-245.990	61.300	0.173	0.169
-244.976	-21.687	-0.139	-0.083
-243.961	800.000	0.068	0.193
-242.946	-200.000	-0.061	0.296
-241.932	327.024	0.158	0.298
-240.917	800.000	-0.150	-0.416
-239.903	133.563	-0.240	-0.305
-238.888	10.241	-0.014	0.011
-237.873	-200.000	-0.006	-0.244
-236.859	-165.403	0.118	0.005
-235.844	-140.776	0.274	-0.028
-234.830	-136.579	0.266	0.030
-233.815	-8.050	0.072	0.048
-232.800	233.779	0.084	-0.136
-231.786	-108.860	0.173	-0.036
-230.771	800.000	0.120	0.423
-229.757	23.957	0.246	0.200
-228.742	398.234	-0.109	-0.225
-227.727	178.827	0.050	-0.073
-226.713	72.134	0.162	0.166
-225.698	-14.162	-0.188	0.120
-224.684	-200.000	0.027	-0.150
-223.669	284.322	-0.075	-0.133
-222.655	204.218	0.182	0.277
-221.640	224.696	-0.172	0.273
-220.625	-200.000	-0.041	0.342
-219.611	156.494	0.181	-0.246
-218.596	-35.520	0.279	0.149
-217.582	-200.000	-0.056	0.377
-216.567	-136.421	0.024	-0.003
-215.552	603.566	-0.080	-0.195
-214.538	-29.135	0.226	-0.127
-213.523	33.333	-0.152	0.130
-212.509	137.601	0.036	0.046
-211.494	-29.269	0.108	-0.061
-210.479	253.188	0.049	-0.082
-209.465	-2.671	0.046	-0.032
-208.450	-62.819	0.123	0.050
-207.436	27.355	-0.082	0.068
-206.421	23.360	-0.175	0.141
-205.406	-96.462	0.215	-0.056
-204.392	327.178	-0.080	-0.152
-203.377	-31.620	0.161	0.089
-202.363	-99.701	-0.119	0.029
-201.348	135.689	0.045	-0.058
-200.333	-200.000	0.022	-0.120
-199.319	-43.477	-0.110	-0.055
-198.304	-82.354	0.324	0.103
-197.290	-200.000	-0.028	-0.373
-196.275	-200.000	0.026	-0.230
-195.260	-68.619	-0.226	0.086
-194.246	453.897	0.155	0.338
-193.231	-37.675	-0.180	0.094
-192.217	-119.413	-0.184	0.031
-191.202	146.127	0.139	-0.184
-190.187	-163.822	0.470	-0.022
-189.173	-200.000	0.037	0.175
-188.158	-200.000	0.012	-0.331
-187.144	-162.506	0.089	0.004
-186.129	586.730	0.058	0.140
-185.114	-12.646	0.137	0.088
-184.100	-125.288	0.089	-0.013
-183.085	-114.693	-0.119	0.022
-182.071	77.903	0.091	0.095
-181.056	-86.555	-0.263	0.079
-180.042	-200.000	-0.007	0.037
-179.027	16.572	-0.214	-0.166
-178.012	273.152	0.071	-0.124
-176.998	-78.009	0.076	-0.026
-175.983	-94.987	-0.181	-0.048
-174.969	119.718	0.137	-0.167
-173.954	130.591	-0.039	0.050
-172.939	35.022	-0.307	0.264
-171.925	800.000	0.072	0.223
-170.910	800.000	0.038	0.105
-169.896	-200.000	-0.020	0.110
-168.881	101.898	-0.006	0.007
-167.866	-200.000	-0.006	-0.061
-166.852	-200.000	0.037	0.179
-165.837	-16.179	0.141	-0.088
-164.823	-83.631	0.197	-0.062
-163.808	-121.343	0.317	-0.052
-162.793	350.072	0.044	-0.086
-161.779	-43.107	0.119	-0.059
-160.764	-93.606	0.155	0.042
-159.750	7.774	-0.179	0.131
-158.735	149.552	0.191	-0.254
-157.720	-88.935	0.117	0.034
-156.706	12.142	-0.212	0.160
-155.691	-109.103	-0.336	0.070
-154.677	-50.673	-0.047	0.022
-153.662	36.568	0.027	0.023
-152.647	1.650	-0.246	-0.174
-151.633	-200.000	0.005	-0.091
-150.618	153.244	-0.068	0.092
-149.604	800.000	-0.060	-0.178
-148.589	94.493	-0.139	-0.155
-147.574	82.740	0.111	-0.118
-146.560	-200.000	0.029	-0.271
-145.545	6.662	0.109	-0.079
-144.531	156.924	-0.218	0.296
-143.516	-124.761	0.385	-0.058
-142.502	367.268	-0.061	0.121
-141.487	3.196	0.160	0.114
-140.472	103.447	0.139	0.160
-139.458	367.993	-0.226	0.448
-138.443	421.685	-0.127	0.267
-137.429	153.518	-0.025	-0.034
-136.414	-170.543	0.157	0.005
-135.399	-40.986	0.230	0.116
-134.385	40.148	0.171	0.151
-133.370	-113.317	-0.222	0.043
-132.356	-37.646	-0.112	-0.058
-131.341	-200.000	-0.065	-0.385
-130.326	-57.355	0.171	-0.074
-129.312	-200.000	0.003	0.115
-128.297	42.704	0.106	0.095
-127.283	-118.909	0.245	-0.042
-126.268	-18.920	0.178	0.109
-125.253	-177.628	0.189	0.004
-124.239	-72.801	-0.340	-0.123
-123.224	-89.519	-0.130	-0.037
-122.210	-123.066	0.393	0.062
