DTS Sentinel unit serial number:	SN413079Multiplexer serial number:	ORYXHardware model number:	OX4-SRSoftware version number:	ORYX F/W v4.00 Oryx Data Collector v3.7.2.0data status	okinstallation	princeton_trtdifferential loss correction	single-endedforward channel	channel 1reverse channel	N/Adate	2019/09/13time	03:58:35forward acquisition time	60.00reverse acquisition time	0.00gamma	496.2192k internal	0.2333k external	0.2333temperature offset calibration	1.0165default loss term (dB/km)	0.3790temperature slope calibration	1.0000multiplexer offset coefficient	1.0000multiplexer slope coefficient	1.0000fibre end	0.00T internal ref (°C)	27.05T ext. ref 1 (°C)	4.07T ext. ref 2 (°C)	21.27length (m)	temperature (°C)	Stokes	anti-Stokes-747.200	800.000	-0.039	-0.131
-746.185	529.391	-0.117	0.278
-745.171	54.454	0.100	-0.097
-744.156	-77.863	0.245	-0.085
-743.142	-31.128	0.150	0.085
-742.127	19.039	-0.191	-0.154
-741.112	-91.900	-0.186	0.053
-740.098	328.846	0.096	0.185
-739.083	-126.234	0.112	0.017
-738.069	775.903	-0.064	0.177
-737.054	226.554	0.106	-0.173
-736.039	-98.494	-0.175	0.045
-735.025	99.913	0.251	0.293
-734.010	-4.328	-0.080	-0.056
-732.996	128.313	-0.333	-0.426
-731.981	-200.000	-0.029	-0.213
-730.966	-200.000	0.033	-0.322
-729.952	370.448	0.078	-0.158
-728.937	-83.744	-0.182	-0.058
-727.923	-179.080	0.301	-0.007
-726.908	38.856	0.290	-0.260
-725.894	96.412	-0.154	-0.177
-724.879	-120.268	-0.120	-0.021
-723.864	264.192	-0.063	-0.110
-722.850	-71.940	-0.119	-0.044
-721.835	-86.046	-0.315	0.098
-720.821	29.195	0.073	-0.062
-719.806	3.178	0.188	-0.137
-718.791	-200.000	0.024	-0.194
-717.777	-13.383	-0.095	-0.062
-716.762	-60.334	0.197	0.084
-715.748	8.855	-0.316	0.239
-714.733	-200.000	0.011	-0.099
-713.718	-200.000	0.042	-0.333
-712.704	-2.555	0.064	0.045
-711.689	418.744	0.044	0.095
-710.675	148.239	0.124	0.167
-709.660	124.695	-0.113	-0.143
-708.645	-163.446	0.186	0.009
-707.631	76.745	-0.351	-0.374
-706.616	-121.535	-0.236	0.039
-705.602	-200.000	-0.014	-0.109
-704.587	536.560	0.098	-0.232
-703.572	-152.054	-0.392	-0.029
-702.558	-200.000	0.010	0.215
-701.543	-73.883	-0.291	0.106
-700.529	-3.981	0.110	0.077
-699.514	800.000	-0.094	-0.387
-698.499	800.000	0.046	-0.134
-697.485	53.025	-0.180	-0.173
-696.470	-101.001	-0.365	0.090
-695.456	5.739	-0.318	-0.236
-694.441	-110.787	0.133	-0.028
-693.426	-200.000	-0.005	0.166
-692.412	-200.000	0.038	-0.227
-691.397	-147.649	0.359	-0.030
-690.383	411.131	-0.067	-0.142
-689.368	-130.551	-0.292	0.040
-688.354	18.493	-0.056	-0.045
-687.339	-111.623	0.367	0.075
-686.324	800.000	0.084	-0.246
-685.310	-8.734	0.006	0.004
-684.295	-132.733	0.140	-0.018
-683.281	76.941	-0.153	0.163
-682.266	-98.082	0.102	0.026
-681.251	46.495	-0.131	0.121
-680.237	75.174	-0.162	-0.171
-679.222	295.789	0.106	-0.194
-678.208	-57.931	0.245	0.107
-677.193	-82.982	-0.184	0.060
-676.178	149.454	0.179	-0.243
-675.164	-57.257	-0.316	-0.139
-674.149	295.248	0.146	-0.267
-673.135	389.868	-0.103	0.215
-672.120	-200.000	-0.059	-0.307
-671.105	733.492	0.064	0.171
-670.091	-200.000	-0.020	-0.114
-669.076	175.995	-0.196	-0.285
-668.062	-1.060	0.096	-0.068
-667.047	443.674	0.079	0.175
-666.032	325.333	0.018	-0.035
-665.018	434.351	0.060	-0.131
-664.003	-91.022	-0.374	0.108
-662.989	111.801	-0.168	-0.203
-661.974	-156.892	0.194	-0.012
-660.959	284.531	-0.158	-0.284
-659.945	-120.232	0.155	0.027
-658.930	-94.106	-0.713	-0.196
-657.916	-192.963	-0.143	0.001
-656.901	-64.098	0.045	0.018
-655.886	-76.468	-0.150	0.053
-654.872	-200.000	0.013	0.162
-653.857	4.735	0.221	0.162
-652.843	273.410	-0.079	0.139
-651.828	134.305	0.037	0.049
-650.814	102.797	-0.081	0.095
-649.799	-85.383	0.254	-0.079
-648.784	-200.000	-0.011	0.104
-647.770	-79.995	-0.340	-0.114
-646.755	8.293	0.114	-0.086
-645.741	-200.000	0.035	0.157
-644.726	-171.763	0.116	-0.004
-643.711	445.001	0.062	-0.137
-642.697	33.006	-0.039	0.034
-641.682	-75.474	-0.338	-0.120
-640.668	-200.000	0.001	-0.169
-639.653	18.682	-0.221	0.177
-638.638	800.000	0.147	0.492
-637.624	242.923	-0.030	-0.050
-636.609	152.644	-0.097	0.133
-635.595	800.000	-0.043	0.174
-634.580	282.281	0.078	-0.141
-633.565	15.159	0.102	-0.080
-632.551	-69.605	-0.310	-0.119
-631.536	-200.000	0.005	0.318
-630.522	-37.993	-0.147	-0.078
-629.507	-200.000	0.005	0.111
-628.492	29.684	0.271	-0.231
-627.478	719.227	-0.103	-0.273
-626.463	35.899	0.255	0.225
-625.449	-96.112	0.142	-0.038
-624.434	-60.103	0.089	0.038
-623.419	-61.529	0.137	0.058
-622.405	104.152	0.124	-0.146
-621.390	-200.000	-0.030	0.163
-620.376	189.187	-0.094	0.141
-619.361	276.515	-0.068	-0.120
-618.346	164.916	-0.222	0.314
-617.332	-133.582	-0.143	0.018
-616.317	61.630	0.176	-0.175
-615.303	-161.459	-0.230	0.012
-614.288	17.058	-0.545	0.432
-613.273	-41.855	-0.274	0.140
-612.259	0.361	0.093	-0.067
-611.244	323.307	-0.067	0.128
-610.230	38.860	-0.450	0.402
-609.215	-31.130	0.267	-0.151
-608.201	-40.044	0.326	0.170
-607.186	142.400	-0.050	0.066
-606.171	-57.436	0.215	0.094
-605.157	77.136	-0.308	0.327
-604.142	-55.409	0.327	0.147
-603.128	17.174	-0.088	-0.070
-602.113	110.518	-0.147	-0.177
-601.098	-23.092	-0.137	-0.082
-600.084	-179.272	0.150	0.003
-599.069	-73.370	0.350	0.128
-598.055	39.085	-0.183	-0.164
-597.040	48.230	0.202	-0.189
-596.025	-200.000	-0.007	-0.331
-595.011	-139.860	0.466	-0.049
-593.996	84.946	-0.265	-0.290
-592.982	135.637	0.160	-0.208
-591.967	-159.078	-0.114	0.006
-590.952	-200.000	0.029	-0.200
-589.938	-200.000	-0.049	-0.248
-588.923	-14.078	0.189	0.122
-587.909	-200.000	-0.054	-0.371
-586.894	-200.000	-0.033	0.161
-585.879	-110.518	0.490	-0.101
-584.865	12.215	-0.182	0.140
-583.850	110.521	0.045	0.054
-582.836	-92.634	0.275	-0.077
-581.821	-40.439	-0.201	0.104
-580.806	37.598	-0.324	-0.288
-579.792	180.083	0.057	0.084
-578.777	-200.000	0.078	0.402
-577.763	800.000	-0.016	-0.046
-576.748	800.000	0.024	0.073
-575.733	159.668	0.012	0.017
-574.719	-31.780	-0.130	-0.073
-573.704	-89.076	-0.081	0.024
-572.690	400.921	-0.132	0.276
-571.675	457.292	-0.049	-0.109
-570.661	-200.000	-0.011	-0.147
-569.646	-78.717	0.118	-0.040
-568.631	660.121	-0.046	-0.118
-567.617	11.378	-0.275	0.210
-566.602	670.324	-0.064	0.165
-565.588	597.081	-0.076	0.188
-564.573	-25.796	0.510	-0.300
-563.558	157.474	-0.075	0.104
-562.544	-32.190	0.241	0.135
-561.529	-151.827	-0.269	-0.020
-560.515	-200.000	-0.001	-0.281
-559.500	-128.867	0.045	-0.006
-558.485	-44.697	0.353	-0.176
-557.471	-24.054	-0.149	-0.089
-556.456	374.418	-0.086	-0.175
-555.442	181.873	0.151	-0.222
-554.427	467.112	0.055	0.122
-553.412	-135.141	-0.169	-0.020
-552.398	5.253	-0.268	0.197
-551.383	493.712	0.043	-0.098
-550.369	800.000	0.029	-0.110
-549.354	733.948	0.089	-0.237
-548.339	-55.565	0.180	-0.081
-547.325	20.637	-0.332	-0.268
-546.310	800.000	-0.095	-0.297
-545.296	129.586	-0.161	0.205
-544.281	-13.233	0.152	-0.099
-543.266	-92.607	-0.244	0.068
-542.252	546.809	0.045	0.106
-541.237	-200.000	0.031	0.187
-540.223	104.565	-0.074	-0.087
-539.208	232.105	0.074	0.121
-538.193	800.000	0.045	0.178
-537.179	-200.000	0.059	0.337
-536.164	-24.196	0.140	0.083
-535.150	164.683	0.065	0.091
-534.135	343.181	-0.198	-0.387
-533.121	-200.000	-0.053	-0.454
-532.106	-200.000	-0.012	0.255
-531.091	800.000	-0.034	0.095
-530.077	-140.468	0.112	-0.012
-529.062	-126.213	-0.105	0.016
-528.048	-145.933	-0.174	-0.015
-527.033	-120.888	-0.091	-0.015
-526.018	-83.111	-0.142	-0.046
-525.004	-94.841	0.332	0.090
-523.989	-135.962	-0.065	0.008
-522.975	-96.273	-0.166	0.044
-521.960	-96.419	-0.062	-0.016
-520.945	12.545	0.140	0.107
-519.931	-14.631	0.051	-0.033
-518.916	-45.801	-0.098	-0.048
-517.902	62.484	-0.136	0.136
-516.887	-200.000	-0.024	-0.248
-515.872	407.920	-0.104	0.220
-514.858	-25.872	-0.146	0.086
-513.843	9.126	0.213	0.160
-512.829	800.000	0.180	0.516
-511.814	-149.090	-0.023	-0.002
-510.799	-66.292	-0.175	-0.069
-509.785	726.807	-0.139	-0.370
-508.770	-36.611	-0.110	-0.059
-507.756	217.558	-0.198	0.314
-506.741	-200.000	0.023	-0.114
-505.726	-111.878	-0.236	-0.047
-504.712	-200.000	0.026	0.140
-503.697	-48.889	0.267	-0.127
-502.683	66.293	-0.321	-0.325
-501.668	-168.005	0.429	-0.017
-500.653	16.641	-0.121	-0.096
-499.639	31.426	0.292	0.250
-498.624	-200.000	-0.004	0.359
-497.610	-22.740	0.072	0.043
-496.595	307.758	-0.310	-0.576
-495.581	-62.822	0.099	-0.041
-494.566	-178.956	-0.249	-0.006
-493.551	-200.000	0.007	-0.074
-492.537	401.388	0.154	0.322
-491.522	84.065	-0.157	-0.171
-490.508	377.186	0.083	0.169
-489.493	-74.503	-0.209	0.075
-488.478	-200.000	-0.010	0.070
-487.464	-91.253	0.207	-0.059
-486.449	40.000	-0.061	-0.055
-485.435	-69.885	-0.330	-0.125
-484.420	-23.276	0.265	0.159
-483.405	317.567	-0.139	-0.263
-482.391	-200.000	0.005	0.151
-481.376	-102.868	0.194	-0.046
-480.362	526.101	0.058	-0.135
-479.347	-200.000	0.050	0.220
-478.332	158.032	0.065	-0.089
-477.318	-86.389	-0.068	0.021
-476.303	-200.000	-0.081	-0.495
-475.289	703.498	0.055	0.144
-474.274	376.167	0.103	0.210
-473.259	800.000	-0.059	-0.192
-472.245	-200.000	0.009	0.173
-471.230	-169.638	-0.238	0.009
-470.216	-200.000	-0.081	-0.354
-469.201	800.000	0.016	-0.048
-468.186	52.822	0.126	0.119
-467.172	-17.263	0.237	0.148
-466.157	305.563	0.081	0.149
-465.143	111.137	0.053	-0.064
-464.128	-1.728	-0.240	-0.168
-463.113	-200.000	-0.108	-0.000
-462.099	-50.345	0.254	0.119
-461.084	-132.364	-0.086	-0.011
-460.070	-89.519	-0.158	0.046
-459.055	0.322	-0.212	-0.150
-458.040	-127.441	-0.101	0.015
-457.026	114.606	-0.286	0.347
-456.011	-90.329	-0.355	0.102
-454.997	-200.000	0.062	0.310
-453.982	-78.364	0.061	0.021
-452.968	320.226	0.047	0.090
-451.953	-166.481	-0.395	0.016
-450.938	-200.000	-0.008	-0.054
-449.924	-97.789	0.250	-0.064
-448.909	800.000	-0.160	0.464
-447.895	-200.000	0.010	-0.043
-446.880	2.885	-0.241	-0.174
-445.865	-131.623	0.490	0.064
-444.851	-1.680	-0.178	-0.124
-443.836	-114.216	0.277	0.053
-442.822	-152.305	-0.015	-0.001
-441.807	513.250	-0.110	0.255
-440.792	-168.756	-0.100	-0.004
-439.778	101.122	0.144	0.167
-438.763	-82.644	0.140	-0.045
-437.749	111.808	-0.179	-0.215
-436.734	58.293	0.109	-0.106
-435.719	115.240	0.261	0.317
-434.705	-200.000	-0.013	-0.154
-433.690	262.038	0.122	0.210
-432.676	175.077	-0.080	-0.116
-431.661	48.268	-0.111	-0.103
-430.646	206.453	0.062	-0.095
-429.632	578.358	0.029	-0.070
-428.617	413.944	-0.067	0.142
-427.603	61.060	-0.218	-0.215
-426.588	-112.859	-0.173	-0.034
-425.573	-81.797	0.204	-0.067
-424.559	-200.000	-0.017	-0.220
-423.544	-105.767	-0.209	-0.047
-422.530	-111.853	-0.081	0.016
-421.515	-2.207	-0.043	-0.030
-420.500	-18.207	-0.020	-0.013
-419.486	-140.560	0.220	-0.023
-418.471	-200.000	0.005	-0.062
-417.457	-34.236	-0.175	0.096
-416.442	-132.067	-0.072	0.009
-415.428	-34.920	-0.037	-0.020
-414.413	-200.000	0.031	0.172
-413.398	-200.000	0.003	0.162
-412.384	176.619	0.092	-0.132
-411.369	346.855	-0.102	-0.200
-410.355	-200.000	0.018	0.289
-409.340	-12.226	0.331	0.215
-408.325	71.555	-0.116	0.120
-407.311	6.037	-0.212	0.156
-406.296	-35.530	0.136	0.074
-405.282	306.849	0.150	-0.278
-404.267	-42.043	0.199	0.101
-403.252	166.829	0.060	0.085
-402.238	-42.927	0.046	-0.023
-401.223	16.612	0.317	-0.249
-400.209	355.310	0.154	-0.305
-399.194	198.252	-0.149	-0.226
-398.179	480.453	0.106	0.239
-397.165	-200.000	-0.014	0.480
-396.150	1.305	-0.247	-0.176
-395.136	2.244	0.146	0.105
-394.121	-200.000	0.004	0.116
-393.106	27.832	0.082	0.068
-392.092	-200.000	0.018	-0.109
-391.077	-137.012	0.158	-0.018
-390.063	102.738	-0.109	0.127
-389.048	1.204	-0.049	-0.035
-388.033	-114.429	-0.185	-0.035
-387.019	-17.351	0.144	-0.090
-386.004	166.241	0.145	-0.203
-384.990	-200.000	-0.016	-0.198
-383.975	326.397	-0.157	-0.298
-382.960	-200.000	-0.002	-0.067
-381.946	-177.535	0.127	0.003
-380.931	171.570	0.160	-0.228
-379.917	2.038	-0.221	-0.158
-378.902	317.183	-0.072	-0.135
-377.888	147.776	-0.151	0.201
-376.873	-200.000	0.011	0.149
-375.858	-140.236	0.149	-0.015
-374.844	457.666	-0.133	0.294
-373.829	-98.957	0.265	-0.067
-372.815	745.319	-0.027	0.071
-371.800	-50.750	-0.131	0.061
-370.785	-50.752	0.405	-0.189
-369.771	567.044	-0.067	-0.162
-368.756	800.000	0.090	0.341
-367.742	127.626	0.031	0.039
-366.727	126.324	0.022	0.028
-365.712	170.597	-0.208	-0.296
-364.698	-57.881	0.262	0.113
-363.683	800.000	0.048	0.188
-362.669	800.000	-0.123	-0.453
-361.654	-46.980	0.376	0.182
-360.639	128.320	-0.282	0.356
-359.625	68.842	-0.197	-0.200
-358.610	49.381	0.018	0.017
-357.596	141.247	0.249	0.326
-356.581	-200.000	0.008	-0.228
-355.566	9.373	-0.219	0.164
-354.552	800.000	0.006	-0.026
-353.537	-102.885	-0.242	-0.057
-352.523	355.390	0.034	-0.066
-351.508	103.467	-0.139	-0.162
-350.493	-200.000	0.006	0.085
-349.479	800.000	0.057	-0.229
-348.464	800.000	0.108	-0.295
-347.450	213.868	0.068	0.107
-346.435	-45.222	0.176	-0.086
-345.420	-200.000	-0.010	-0.066
-344.406	21.381	-0.265	0.213
-343.391	-200.000	0.066	-0.322
-342.377	88.919	-0.151	-0.167
-341.362	512.947	0.047	0.108
-340.348	-200.000	-0.001	0.034
-339.333	276.480	-0.092	-0.162
-338.318	-165.525	-0.087	0.004
-337.304	19.179	0.254	-0.202
-336.289	-199.017	0.176	0.001
-335.275	-200.000	0.017	0.133
-334.260	-77.470	0.101	0.035
-333.245	800.000	-0.052	0.163
-332.231	-56.193	-0.146	0.064
-331.216	31.071	0.185	-0.157
-330.202	214.106	-0.124	-0.193
-329.187	46.482	0.262	-0.241
-328.172	-98.008	0.163	0.042
-327.158	-200.000	-0.011	0.266
-326.143	104.390	-0.333	0.388
-325.129	-200.000	0.017	0.098
-324.114	-200.000	0.017	-0.087
-323.099	-58.341	0.055	-0.024
-322.085	0.782	0.237	-0.168
-321.070	-52.937	-0.236	-0.107
-320.056	13.078	0.256	0.196
-319.041	800.000	0.128	-0.377
-318.026	-76.649	0.156	0.054
-317.012	-10.043	0.166	-0.109
-315.997	800.000	0.085	0.340
-314.983	800.000	0.007	0.020
-313.968	-200.000	-0.036	0.248
-312.953	85.425	0.040	-0.043
-311.939	640.181	-0.067	-0.169
-310.924	401.893	-0.021	-0.044
-309.910	-137.873	-0.178	0.020
-308.895	-200.000	0.031	0.138
-307.880	8.607	-0.095	-0.070
-306.866	800.000	0.082	-0.315
-305.851	-16.315	-0.249	-0.156
-304.837	35.739	-0.122	0.106
-303.822	326.437	-0.152	0.287
-302.807	793.748	0.070	0.189
-301.793	-200.000	-0.014	-0.143
-300.778	800.000	0.027	-0.114
-299.764	-200.000	-0.047	-0.280
-298.749	-93.824	-0.219	0.060
-297.735	800.000	-0.060	0.204
-296.720	375.482	0.113	0.228
-295.705	-137.582	-0.148	-0.016
-294.691	800.000	-0.015	0.062
-293.676	32.715	0.118	-0.101
-292.662	-34.974	0.016	-0.009
-291.647	-75.987	-0.205	-0.072
-290.632	-200.000	0.063	0.361
-289.618	-13.530	-0.119	-0.076
-288.603	38.521	-0.131	-0.116
-287.589	-200.000	0.020	-0.144
-286.574	-200.000	0.038	0.298
-285.559	81.575	-0.168	0.179
-284.545	265.703	0.200	0.345
-283.530	67.342	0.175	-0.177
-282.516	800.000	-0.031	-0.097
-281.501	-200.000	0.018	0.133
-280.486	145.290	-0.106	-0.140
-279.472	-16.802	-0.205	0.128
-278.457	53.524	-0.115	0.109
-277.443	404.012	0.110	-0.228
-276.428	25.218	0.390	0.320
-275.413	-103.303	0.342	-0.080
-274.399	-101.751	-0.127	0.030
-273.384	-120.765	-0.167	0.028
-272.370	85.750	-0.065	-0.071
-271.355	-200.000	-0.003	0.184
-270.340	-200.000	0.018	-0.210
-269.326	-120.509	-0.281	0.047
-268.311	800.000	0.036	0.140
-267.297	-71.614	0.114	0.042
-266.282	533.132	0.081	-0.189
-265.267	-98.216	0.211	0.053
-264.253	13.626	0.372	-0.285
-263.238	371.090	-0.098	-0.197
-262.224	-79.305	0.241	-0.080
-261.209	240.801	0.042	0.069
-260.195	800.000	0.088	0.282
-259.180	-22.352	0.278	0.166
-258.165	-200.000	0.002	0.157
-257.151	-37.965	-0.140	0.073
-256.136	800.000	-0.034	0.119
-255.122	654.274	-0.075	-0.190
-254.107	-142.376	-0.117	-0.011
-253.092	2.931	-0.031	0.022
-252.078	-10.623	-0.331	-0.216
-251.063	-1.193	0.316	0.221
-250.049	438.421	-0.035	-0.076
-249.034	-186.972	-0.170	-0.002
-248.019	-37.401	0.241	0.127
-247.005	-163.019	0.272	0.013
-245.990	380.153	-0.126	0.255
-244.976	-200.000	-0.025	-0.154
-243.961	74.275	0.102	0.105
-242.946	800.000	-0.147	0.478
-241.932	149.430	-0.147	0.197
-240.917	107.271	0.288	-0.338
-239.903	8.814	-0.179	0.133
-238.888	-92.316	0.278	0.077
-237.873	162.335	-0.147	0.204
-236.859	29.429	0.187	-0.157
-235.844	-200.000	-0.013	0.154
-234.830	125.442	-0.101	-0.125
-233.815	-200.000	-0.005	-0.071
-232.800	-103.420	-0.338	0.078
-231.786	285.157	0.119	-0.212
-230.771	-94.855	0.224	0.060
-229.757	-151.648	0.221	-0.016
-228.742	248.343	0.108	-0.181
-227.727	163.254	0.090	0.125
-226.713	-80.541	0.175	0.058
-225.698	-200.000	-0.005	-0.330
-224.684	-61.646	-0.159	-0.066
-223.669	800.000	0.034	0.117
-222.655	-25.962	0.206	0.119
-221.640	26.919	0.063	-0.052
-220.625	81.675	-0.127	-0.135
-219.611	-200.000	0.004	0.047
-218.596	-200.000	-0.008	-0.052
-217.582	246.440	-0.209	-0.346
-216.567	-110.309	-0.153	0.031
-215.552	146.196	0.222	0.294
-214.538	237.287	-0.092	0.150
-213.523	-99.975	-0.155	-0.038
-212.509	-2.307	-0.044	0.031
-211.494	-50.826	-0.205	-0.095
-210.479	-91.658	0.248	0.069
-209.465	-142.881	0.110	0.011
-208.450	-73.135	-0.148	0.054
-207.436	800.000	-0.031	-0.085
-206.421	-5.846	-0.136	-0.092
-205.406	800.000	0.060	-0.207
-204.392	91.834	-0.228	-0.253
-203.377	650.403	-0.037	-0.092
-202.363	-13.391	0.131	-0.084
-201.348	562.527	-0.105	-0.250
-200.333	301.929	0.143	-0.261
-199.319	-192.889	-0.055	-0.000
-198.304	73.953	-0.120	-0.124
-197.290	-104.114	-0.380	0.087
-196.275	63.860	0.127	0.126
-195.260	-33.934	0.644	0.349
-194.246	118.088	-0.224	0.272
-193.231	-102.222	0.119	-0.028
-192.217	-103.032	-0.315	0.073
-191.202	-200.000	-0.015	0.154
-190.187	65.712	0.062	0.062
-189.173	-90.295	0.125	-0.036
-188.158	527.016	-0.093	-0.216
-187.144	160.037	-0.030	-0.042
-186.129	704.425	0.072	-0.187
-185.114	57.274	0.121	0.117
-184.100	-162.238	-0.268	-0.013
-183.085	-200.000	0.001	0.090
-182.071	80.615	0.046	0.049
-181.056	-138.389	0.029	-0.003
-180.042	255.377	-0.017	-0.028
-179.027	-98.990	0.390	0.097
-178.012	62.581	0.183	-0.180
-176.998	-144.281	-0.322	-0.029
-175.983	-200.000	-0.038	-0.400
-174.969	800.000	-0.087	-0.245
-173.954	-184.193	0.332	0.005
-172.939	-200.000	0.000	-0.218
-171.925	-200.000	0.016	0.243
-170.910	-200.000	-0.001	-0.155
-169.896	21.023	0.307	-0.245
-168.881	800.000	0.031	0.123
-167.866	611.007	-0.079	0.193
-166.852	800.000	0.013	-0.040
-165.837	118.036	-0.091	0.110
-164.823	2.495	-0.125	0.089
-163.808	181.830	-0.088	-0.128
-162.793	464.315	0.117	0.256
-161.779	-200.000	0.019	-0.100
-160.764	-200.000	-0.015	0.135
-159.750	-73.540	0.241	-0.086
-158.735	-142.690	0.290	-0.028
-157.720	76.033	0.167	0.174
-156.706	-49.799	-0.352	-0.164
-155.691	-49.654	0.150	-0.070
-154.677	-42.357	-0.396	-0.199
-153.662	144.261	0.064	0.084
-152.647	-200.000	0.033	0.159
-151.633	800.000	0.029	-0.086
-150.618	-63.335	0.228	0.092
-149.604	-131.884	0.340	-0.044
-148.589	8.155	0.137	-0.101
-147.574	449.900	-0.097	0.210
-146.560	-100.827	0.068	-0.016
-145.545	-200.000	0.005	0.142
-144.531	-9.670	0.231	-0.151
-143.516	-91.254	0.189	-0.053
-142.502	-125.219	-0.251	-0.038
-141.487	632.937	0.069	0.172
-140.472	-58.152	0.175	0.075
-139.458	-200.000	0.005	-0.153
-138.443	-200.000	0.039	0.317
-137.429	33.396	0.320	0.273
-136.414	377.602	0.079	-0.158
-135.399	800.000	-0.088	0.306
-134.385	-200.000	-0.007	0.031
-133.370	351.575	0.016	0.031
-132.356	36.838	-0.013	0.012
-131.341	169.407	0.110	-0.154
-130.326	-91.991	-0.136	0.038
-129.312	-85.958	0.134	0.041
-128.297	293.140	0.061	-0.110
-127.283	-200.000	0.035	0.409
-126.268	-200.000	0.034	0.244
-125.253	25.087	-0.194	-0.158
-124.239	-200.000	0.016	0.213
-123.224	-200.000	0.019	-0.258
-122.210	288.844	0.126	-0.224
-121.195	-200.000	0.018	-0.080
