DTS Sentinel unit serial number:	SN413079Multiplexer serial number:	ORYXHardware model number:	OX4-SRSoftware version number:	ORYX F/W v4.00 Oryx Data Collector v3.7.2.0data status	okinstallation	princeton_trtdifferential loss correction	single-endedforward channel	channel 1reverse channel	N/Adate	2019/09/15time	11:34:35forward acquisition time	60.00reverse acquisition time	0.00gamma	496.2192k internal	0.2308k external	0.2308temperature offset calibration	0.9984default loss term (dB/km)	0.3790temperature slope calibration	1.0000multiplexer offset coefficient	1.0000multiplexer slope coefficient	1.0000fibre end	0.00T internal ref (°C)	34.31T ext. ref 1 (°C)	4.98T ext. ref 2 (°C)	29.86length (m)	temperature (°C)	Stokes	anti-Stokes-747.200	800.000	0.052	-0.168
-746.185	47.030	0.075	-0.071
-745.171	-61.010	-0.200	-0.086
-744.156	128.606	-0.222	0.288
-743.142	-200.000	0.027	-0.140
-742.127	-173.072	0.285	-0.009
-741.112	358.737	0.229	0.465
-740.098	800.000	-0.046	0.150
-739.083	-73.388	-0.464	-0.172
-738.069	-106.789	0.199	0.045
-737.054	68.124	0.085	0.088
-736.039	-85.755	-0.292	0.092
-735.025	-12.840	0.099	-0.066
-734.010	-39.257	-0.232	0.124
-732.996	-91.118	-0.378	0.110
-731.981	-134.559	-0.194	-0.024
-730.966	288.885	-0.042	-0.077
-729.952	-76.895	0.155	0.055
-728.937	-123.032	-0.166	-0.027
-727.923	508.945	-0.156	-0.369
-726.908	229.487	0.140	-0.232
-725.894	-53.501	-0.339	-0.158
-724.879	0.435	-0.363	-0.263
-723.864	15.390	0.183	-0.146
-722.850	-62.144	-0.144	0.061
-721.835	800.000	-0.067	-0.238
-720.821	800.000	0.024	-0.069
-719.806	800.000	-0.093	-0.285
-718.791	-68.472	0.115	-0.045
-717.777	-153.486	0.355	-0.025
-716.762	-200.000	0.002	0.039
-715.748	1.028	-0.175	-0.128
-714.733	85.745	0.111	0.124
-713.718	-101.796	0.116	-0.029
-712.704	5.150	-0.162	0.121
-711.689	57.278	0.156	0.154
-710.675	-92.841	-0.253	-0.072
-709.660	-20.713	0.155	-0.097
-708.645	-200.000	-0.031	-0.232
-707.631	104.634	0.119	0.142
-706.616	-53.877	0.112	-0.052
-705.602	508.749	0.139	0.327
-704.587	-79.018	-0.269	0.093
-703.572	181.069	0.137	0.204
-702.558	-11.289	0.223	-0.149
-701.543	442.099	0.041	0.092
-700.529	800.000	0.063	0.243
-699.514	-113.595	-0.339	-0.067
-698.499	538.690	0.142	-0.343
-697.485	40.523	-0.096	-0.088
-696.470	-200.000	0.042	0.202
-695.456	-200.000	-0.075	0.346
-694.441	800.000	0.028	0.116
-693.426	48.089	0.120	0.114
-692.412	138.382	-0.347	-0.461
-691.397	800.000	-0.026	-0.079
-690.383	-200.000	0.003	0.055
-689.368	36.562	0.165	0.148
-688.354	1.590	-0.119	-0.087
-687.339	-142.793	0.370	-0.037
-686.324	-200.000	-0.017	-0.200
-685.310	-200.000	-0.055	-0.367
-684.295	265.240	-0.243	0.430
-683.281	-27.907	0.361	-0.212
-682.266	-19.010	-0.130	0.082
-681.251	144.200	-0.136	0.183
-680.237	-33.537	-0.181	-0.101
-679.222	-200.000	0.026	0.208
-678.208	800.000	-0.091	0.339
-677.193	657.164	-0.104	-0.272
-676.178	-149.473	0.328	-0.026
-675.164	656.131	-0.066	-0.171
-674.149	-66.081	0.425	-0.172
-673.135	56.579	-0.265	-0.262
-672.120	25.562	-0.076	0.064
-671.105	-90.172	-0.330	0.097
-670.091	422.158	0.096	-0.208
-669.076	-200.000	0.015	-0.135
-668.062	-81.794	-0.316	0.105
-667.047	-96.253	-0.310	-0.083
-666.032	317.678	0.075	-0.145
-665.018	173.093	-0.132	0.192
-664.003	-116.587	0.166	0.031
-662.989	302.639	0.198	-0.371
-661.974	122.381	0.249	0.316
-660.959	-200.000	0.000	0.131
-659.945	-72.254	-0.117	-0.044
-658.930	800.000	-0.049	0.142
-657.916	-200.000	-0.051	0.329
-656.901	-200.000	0.050	-0.275
-655.886	216.314	-0.034	0.055
-654.872	52.265	0.191	0.184
-653.857	-150.287	-0.397	0.031
-652.843	-94.208	-0.451	-0.125
-651.828	-68.687	-0.146	0.057
-650.814	-81.625	0.051	0.017
-649.799	-200.000	-0.006	0.160
-648.784	-178.282	-0.313	-0.007
-647.770	-55.834	0.243	-0.110
-646.755	462.611	-0.085	0.192
-645.741	-34.703	0.220	0.122
-644.726	47.824	0.154	0.146
-643.711	-89.169	0.239	-0.071
-642.697	38.008	0.278	0.251
-641.682	-200.000	-0.064	0.352
-640.668	-6.708	-0.225	0.155
-639.653	187.632	0.102	-0.154
-638.638	127.345	-0.238	0.306
-637.624	15.888	-0.156	-0.124
-636.609	31.258	-0.077	0.067
-635.595	-64.737	-0.215	0.088
-634.580	163.890	-0.140	-0.200
-633.565	135.060	-0.122	-0.160
-632.551	800.000	-0.030	0.093
-631.536	-155.864	0.365	0.024
-630.522	-190.478	-0.432	0.005
-629.507	421.646	-0.040	-0.087
-628.492	-89.098	0.316	-0.095
-627.478	19.193	-0.204	-0.166
-626.463	-200.000	0.011	0.220
-625.449	-72.778	0.191	-0.071
-624.434	-185.719	-0.147	-0.002
-623.419	515.734	-0.059	-0.140
-622.405	800.000	0.024	0.096
-621.390	800.000	-0.028	-0.084
-620.376	-200.000	0.048	0.257
-619.361	137.591	-0.087	-0.115
-618.346	-15.697	-0.399	0.258
-617.332	-56.039	0.205	0.092
-616.317	-130.208	-0.256	-0.035
-615.303	-31.270	0.192	-0.109
-614.288	114.757	0.114	0.140
-613.273	187.037	0.036	0.055
-612.259	29.945	0.086	0.074
-611.244	162.740	0.164	0.232
-610.230	-95.935	0.206	-0.056
-609.215	247.620	-0.057	0.098
-608.201	-89.865	-0.181	-0.054
-607.186	-47.506	-0.140	-0.069
-606.171	-136.286	0.397	-0.047
-605.157	300.948	0.215	0.402
-604.142	-134.826	0.024	0.003
-603.128	800.000	-0.087	-0.252
-602.113	-200.000	-0.022	0.158
-601.098	96.531	0.284	-0.328
-600.084	-28.535	0.177	-0.103
-599.069	800.000	-0.073	-0.268
-598.055	306.898	-0.070	-0.131
-597.040	-70.362	-0.046	0.018
-596.025	-69.409	0.282	-0.109
-595.011	0.712	0.218	-0.157
-593.996	-72.655	0.235	0.088
-592.982	-200.000	-0.035	-0.202
-591.967	-100.603	0.351	0.088
-590.952	-182.871	0.256	0.005
-589.938	-200.000	0.017	0.132
-588.923	800.000	0.088	-0.318
-587.909	-120.076	-0.392	0.068
-586.894	-47.306	-0.239	0.118
-585.879	-102.170	0.198	-0.048
-584.865	800.000	-0.065	0.195
-583.850	137.474	0.186	-0.246
-582.836	-91.695	0.417	-0.120
-581.821	16.167	-0.183	-0.146
-580.806	561.778	0.033	-0.080
-579.792	70.845	0.018	0.019
-578.777	212.683	-0.133	-0.211
-577.763	202.214	0.162	-0.252
-576.748	392.533	0.073	-0.153
-575.733	59.958	-0.095	-0.094
-574.719	-200.000	-0.023	-0.168
-573.704	-200.000	-0.003	0.218
-572.690	493.692	-0.136	0.314
-571.675	800.000	-0.047	0.146
-570.661	-7.068	-0.248	-0.170
-569.646	90.182	-0.023	0.026
-568.631	-119.133	-0.358	0.063
-567.617	800.000	0.005	0.018
-566.602	-130.981	0.226	0.030
-565.588	527.940	0.034	-0.080
-564.573	-200.000	0.009	-0.198
-563.558	-64.462	-0.149	0.061
-562.544	-151.880	-0.171	0.013
-561.529	800.000	-0.091	0.299
-560.515	-36.855	0.145	-0.078
-559.500	-33.457	0.217	0.121
-558.485	63.134	0.071	-0.072
-557.471	84.813	0.189	-0.209
-556.456	292.213	-0.126	0.231
-555.442	128.400	-0.229	-0.295
-554.427	-57.411	0.282	0.125
-553.412	83.190	0.190	-0.208
-552.398	-200.000	-0.064	-0.391
-551.383	-85.973	-0.083	0.026
-550.369	259.339	-0.191	0.332
-549.354	184.982	-0.162	-0.243
-548.339	-200.000	0.015	0.246
-547.325	800.000	-0.028	0.088
-546.310	-200.000	-0.009	0.119
-545.296	-159.109	0.326	-0.019
-544.281	90.797	-0.197	-0.223
-543.266	800.000	-0.043	-0.165
-542.252	53.035	-0.254	0.245
-541.237	-22.532	0.141	-0.086
-540.223	-2.981	-0.250	-0.176
-539.208	412.460	-0.088	-0.189
-538.193	347.397	-0.243	-0.484
-537.179	171.653	-0.088	-0.127
-536.164	-200.000	-0.013	-0.159
-535.150	20.607	0.233	0.190
-534.135	232.168	0.241	-0.399
-533.121	-29.328	-0.318	0.184
-532.106	-12.295	-0.262	-0.173
-531.091	297.638	-0.129	-0.240
-530.077	-43.869	-0.190	-0.097
-529.062	-71.173	-0.205	0.077
-528.048	-200.000	0.032	0.190
-527.033	800.000	-0.078	-0.221
-526.018	-178.321	-0.130	-0.003
-525.004	65.695	-0.109	-0.111
-523.989	-200.000	0.043	0.231
-522.975	800.000	0.027	0.109
-521.960	-89.512	-0.182	-0.054
-520.945	-128.244	0.293	-0.042
-519.931	-200.000	0.035	-0.162
-518.916	-200.000	0.008	-0.206
-517.902	-6.677	-0.146	0.100
-516.887	178.820	0.155	-0.229
-515.872	-13.871	-0.075	-0.049
-514.858	73.197	0.107	-0.113
-513.843	-7.494	0.073	-0.050
-512.829	-200.000	0.022	-0.279
-511.814	-67.918	0.049	0.019
-510.799	-200.000	-0.003	0.397
-509.785	96.343	-0.170	0.196
-508.770	-32.806	-0.358	0.201
-507.756	3.625	0.093	-0.069
-506.741	-56.472	0.236	0.105
-505.726	-200.000	-0.005	0.033
-504.712	12.777	0.214	-0.167
-503.697	-200.000	-0.024	0.319
-502.683	-79.336	0.086	0.029
-501.668	-200.000	0.062	-0.277
-500.653	292.306	-0.139	-0.255
-499.639	-129.624	0.098	-0.014
-498.624	-53.496	0.252	-0.116
-497.610	119.019	-0.012	-0.015
-496.595	-144.106	-0.390	0.037
-495.581	-37.527	-0.257	0.138
-494.566	-44.552	-0.103	-0.052
-493.551	83.143	0.056	0.061
-492.537	337.902	0.056	0.111
-491.522	16.567	0.184	0.146
-490.508	800.000	0.041	-0.168
-489.493	-84.733	0.138	-0.044
-488.478	285.727	-0.088	0.160
-487.464	-106.838	0.144	0.032
-486.449	61.031	0.071	0.071
-485.435	-200.000	0.024	-0.121
-484.420	40.499	-0.151	-0.137
-483.405	292.727	-0.112	-0.205
-482.391	-37.413	-0.096	0.052
-481.376	-135.683	0.342	-0.041
-480.362	-156.994	-0.379	0.023
-479.347	43.544	0.042	-0.039
-478.332	-200.000	0.004	0.258
-477.318	-20.497	0.255	-0.158
-476.303	-96.190	-0.224	0.060
-475.289	-26.498	-0.228	0.134
-474.274	262.124	0.036	-0.063
-473.259	-13.758	-0.113	0.073
-472.245	-134.054	0.116	-0.014
-471.230	40.828	-0.106	-0.096
-470.216	-153.658	-0.311	0.022
-469.201	73.560	-0.183	0.193
-468.186	-200.000	-0.030	-0.253
-467.172	-200.000	-0.040	-0.447
-466.157	38.421	0.119	0.107
-465.143	548.025	0.059	-0.142
-464.128	-200.000	-0.043	-0.270
-463.113	756.689	-0.035	0.095
-462.099	-56.393	0.144	0.064
-461.084	-47.149	-0.315	-0.155
-460.070	800.000	0.027	-0.093
-459.055	745.283	-0.078	-0.212
-458.040	86.178	0.072	-0.079
-457.026	-200.000	-0.008	0.158
-456.011	134.944	-0.023	0.029
-454.997	300.999	-0.089	0.164
-453.982	150.454	-0.124	0.170
-452.968	800.000	-0.028	-0.092
-451.953	800.000	0.015	0.056
-450.938	270.469	0.135	0.239
-449.924	134.753	0.095	-0.124
-448.909	-106.763	-0.138	-0.031
-447.895	66.695	-0.083	-0.085
-446.880	183.654	-0.093	-0.138
-445.865	-146.280	-0.308	0.027
-444.851	-95.865	-0.121	0.032
-443.836	38.357	-0.305	-0.273
-442.822	-104.792	0.177	-0.041
-441.807	-4.519	-0.222	-0.154
-440.792	276.671	-0.074	-0.132
-439.778	-200.000	-0.020	-0.175
-438.763	87.866	0.090	0.101
-437.749	-200.000	0.005	0.090
-436.734	241.994	0.066	0.111
-435.719	-200.000	0.017	-0.186
-434.705	-79.724	0.036	-0.012
-433.690	-100.242	0.148	0.037
-432.676	34.768	-0.085	0.074
-431.661	-16.906	0.395	-0.251
-430.646	800.000	0.118	0.457
-429.632	-51.322	0.258	0.121
-428.617	58.068	0.213	-0.210
-427.603	275.984	0.133	-0.237
-426.588	-54.429	-0.276	0.126
-425.573	798.648	0.129	0.358
-424.559	-65.010	-0.222	-0.090
-423.544	33.085	-0.255	0.222
-422.530	43.701	-0.099	0.091
-421.515	95.812	0.112	-0.129
-420.500	171.206	0.123	0.176
-419.486	800.000	0.040	0.150
-418.471	54.892	0.147	-0.142
-417.457	-75.681	0.247	-0.088
-416.442	128.650	0.255	0.327
-415.428	800.000	0.063	-0.179
-414.413	173.589	-0.173	-0.250
-413.398	91.994	0.226	-0.256
-412.384	401.588	-0.091	0.192
-411.369	-152.233	0.154	-0.011
-410.355	91.678	-0.193	-0.218
-409.340	266.277	0.077	0.135
-408.325	-39.437	-0.168	0.089
-407.311	-200.000	-0.023	0.116
-406.296	-24.607	-0.054	0.032
-405.282	57.403	0.178	-0.174
-404.267	761.384	-0.112	-0.304
-403.252	282.901	-0.095	-0.170
-402.238	800.000	-0.025	0.109
-401.223	-62.266	0.303	0.127
-400.209	97.200	-0.124	-0.143
-399.194	-200.000	-0.024	0.299
-398.179	141.899	0.146	0.194
-397.165	-75.471	-0.238	0.085
-396.150	40.548	0.049	0.044
-395.136	-51.518	-0.308	-0.144
-394.121	161.682	-0.145	-0.204
-393.106	-200.000	-0.046	-0.329
-392.092	-38.554	0.192	0.102
-391.077	15.466	-0.279	0.220
-390.063	487.376	0.006	-0.013
-389.048	-74.076	0.060	0.022
-388.033	-200.000	0.027	0.276
-387.019	22.663	-0.294	0.241
-386.004	360.152	-0.161	0.323
-384.990	800.000	0.062	-0.243
-383.975	-46.576	0.332	-0.163
-382.960	800.000	0.093	0.381
-381.946	-24.555	0.155	0.093
-380.931	-80.841	0.307	-0.102
-379.917	-41.881	-0.343	-0.176
-378.902	-86.510	-0.014	-0.004
-377.888	7.658	0.116	0.087
-376.873	-151.181	-0.065	-0.005
-375.858	-32.659	-0.201	0.112
-374.844	279.960	-0.050	0.090
-373.829	319.050	-0.078	0.149
-372.815	-137.508	-0.278	0.031
-371.800	-200.000	-0.013	0.067
-370.785	42.211	0.211	0.192
-369.771	53.011	0.132	-0.126
-368.756	9.825	0.186	0.141
-367.742	328.217	0.072	0.139
-366.727	-22.382	-0.149	-0.090
-365.712	-200.000	0.007	-0.303
-364.698	800.000	0.051	0.163
-363.683	800.000	-0.080	0.253
-362.669	-1.544	0.100	-0.070
-361.654	-109.580	-0.375	0.079
-360.639	-63.385	0.125	-0.052
-359.625	-69.343	-0.087	0.034
-358.610	94.574	-0.112	-0.128
-357.596	-68.571	0.104	0.040
-356.581	-200.000	-0.006	0.144
-355.566	-151.377	0.164	0.012
-354.552	164.973	-0.058	0.082
-353.537	-30.574	-0.199	0.113
-352.523	21.290	0.175	0.142
-351.508	-70.994	0.275	-0.104
-350.493	421.544	0.120	0.258
-349.479	-45.436	0.271	0.134
-348.464	-80.997	-0.064	-0.021
-347.450	800.000	-0.024	0.082
-346.435	85.421	0.265	0.291
-345.420	-102.018	0.404	-0.098
-344.406	-30.698	-0.178	0.101
-343.391	-8.621	-0.063	0.042
-342.377	-74.549	0.274	0.099
-341.362	-1.617	-0.128	0.090
-340.348	800.000	0.061	0.258
-339.333	92.061	-0.150	-0.169
-338.318	-163.483	-0.047	-0.002
-337.304	-200.000	0.011	0.132
-336.289	-11.156	0.159	-0.105
-335.275	65.414	0.241	0.244
-334.260	-40.289	-0.331	0.173
-333.245	345.376	0.095	0.187
-332.231	800.000	-0.018	-0.076
-331.216	44.882	0.112	0.104
-330.202	352.679	0.142	0.283
-329.187	-33.499	0.277	0.153
-328.172	-200.000	0.003	0.130
-327.158	-200.000	0.003	0.070
-326.143	-40.328	-0.167	0.087
-325.129	-200.000	-0.005	-0.088
-324.114	-200.000	-0.009	-0.088
-323.099	-89.948	0.165	0.048
-322.085	-146.882	-0.155	-0.013
-321.070	301.908	-0.108	-0.199
-320.056	23.335	0.108	-0.089
-319.041	232.180	0.182	-0.299
-318.026	-105.776	-0.207	-0.047
-317.012	677.295	0.043	0.111
-315.997	74.080	0.129	-0.135
-314.983	-200.000	0.008	0.255
-313.968	-116.995	-0.179	0.033
-312.953	-161.563	0.172	0.009
-311.939	619.538	0.068	-0.171
-310.924	32.989	0.192	-0.167
-309.910	773.209	0.165	-0.449
-308.895	14.064	-0.095	0.074
-307.880	-29.195	-0.097	-0.056
-306.866	-99.040	-0.113	-0.029
-305.851	-139.809	0.300	-0.032
-304.837	0.886	-0.188	-0.135
-303.822	800.000	-0.097	-0.326
-302.807	515.512	0.108	-0.252
-301.793	-54.740	0.440	-0.199
-300.778	-200.000	-0.001	0.140
-299.764	574.306	0.122	0.296
-298.749	-200.000	0.060	-0.284
-297.735	104.935	0.218	0.257
-296.720	-200.000	-0.004	0.306
-295.705	39.931	-0.088	0.079
-294.691	-200.000	-0.051	0.239
-293.676	731.393	0.030	0.080
-292.662	-200.000	-0.013	-0.077
-291.647	-8.467	-0.414	0.278
-290.632	-82.940	0.245	-0.079
-289.618	-98.149	-0.251	0.064
-288.603	-156.227	-0.145	0.009
-287.589	-160.902	0.067	0.004
-286.574	800.000	0.055	0.199
-285.559	-62.675	-0.241	0.100
-284.545	221.439	-0.044	0.070
-283.530	-86.970	-0.317	-0.097
-282.516	5.346	-0.120	0.088
-281.501	18.286	0.271	0.216
-280.486	720.328	0.133	-0.354
-279.472	8.531	0.142	-0.107
-278.457	89.603	0.345	0.384
-277.443	-200.000	0.041	-0.230
-276.428	-171.948	-0.130	0.004
-275.413	-161.325	0.040	-0.002
-274.399	-200.000	-0.010	0.235
-273.384	138.642	0.213	0.279
-272.370	800.000	0.082	-0.295
-271.355	800.000	0.058	-0.240
-270.340	48.769	0.227	-0.212
-269.326	502.105	0.152	-0.350
-268.311	144.615	-0.138	-0.184
-267.297	212.817	-0.143	0.225
-266.282	89.325	0.200	-0.223
-265.267	-200.000	-0.068	-0.408
-264.253	800.000	-0.023	-0.065
-263.238	166.001	-0.115	-0.163
-262.224	-191.203	-0.179	0.002
-261.209	148.005	0.187	0.252
-260.195	-200.000	0.026	-0.277
-259.180	-6.295	0.033	-0.023
-258.165	142.146	0.177	0.234
-257.151	-134.398	-0.163	-0.020
-256.136	238.651	0.217	-0.360
-255.122	-60.491	-0.278	0.118
-254.107	39.869	0.187	0.168
-253.092	800.000	-0.033	-0.128
-252.078	149.196	0.213	0.288
-251.063	36.659	-0.089	0.079
-250.049	310.581	0.046	0.086
-249.034	-79.561	0.274	0.092
-248.019	483.341	0.021	-0.048
-247.005	-50.496	0.124	0.058
-245.990	195.782	0.130	-0.197
-244.976	-163.518	0.214	-0.010
-243.961	800.000	0.069	0.267
-242.946	63.670	0.211	0.211
-241.932	-55.897	-0.240	0.107
-240.917	-177.528	-0.086	-0.002
-239.903	-56.223	0.021	0.009
-238.888	-86.936	-0.524	-0.159
-237.873	113.671	0.207	-0.251
-236.859	-200.000	0.011	0.117
-235.844	-75.690	0.386	-0.137
-234.830	800.000	-0.041	-0.124
-233.815	-42.203	0.215	-0.110
-232.800	-200.000	0.004	-0.097
-231.786	216.338	-0.028	0.044
-230.771	-5.053	-0.062	-0.043
-229.757	53.264	-0.243	0.232
-228.742	-110.979	-0.150	-0.031
-227.727	189.450	-0.108	-0.162
-226.713	98.390	0.175	0.201
-225.698	236.889	-0.140	0.231
-224.684	91.411	0.229	-0.256
-223.669	74.381	-0.148	0.155
-222.655	110.704	-0.336	-0.403
-221.640	-36.332	-0.134	-0.072
-220.625	-184.651	-0.390	-0.006
-219.611	-150.552	0.042	-0.003
-218.596	-92.226	0.353	-0.099
-217.582	51.810	-0.211	0.200
-216.567	-112.119	0.142	0.028
-215.552	294.573	-0.038	-0.069
-214.538	-200.000	-0.015	0.276
-213.523	-165.192	-0.093	-0.004
-212.509	240.694	0.194	0.323
-211.494	192.558	0.088	0.132
-210.479	492.841	0.027	0.062
-209.465	-61.035	0.203	0.085
-208.450	-11.554	-0.255	-0.167
-207.436	-200.000	0.015	-0.127
-206.421	54.814	0.157	0.150
-205.406	9.427	-0.346	0.261
-204.392	355.711	-0.190	-0.377
-203.377	282.003	-0.108	-0.192
-202.363	19.606	0.340	0.272
-201.348	800.000	0.053	0.158
-200.333	-31.238	0.174	0.098
-199.319	-102.213	-0.248	-0.059
-198.304	800.000	0.031	0.103
-197.290	-190.624	-0.274	-0.003
-196.275	-155.527	-0.060	-0.004
-195.260	242.610	-0.199	0.331
-194.246	27.452	0.272	0.228
-193.231	-7.940	0.200	0.135
-192.217	-113.594	-0.198	-0.038
-191.202	-49.238	-0.300	0.143
-190.187	167.876	-0.263	-0.372
-189.173	95.967	-0.092	0.105
-188.158	-99.486	0.165	0.041
-187.144	-30.290	-0.127	-0.072
-186.129	800.000	0.031	-0.137
-185.114	2.365	0.314	-0.226
-184.100	-200.000	0.010	0.053
-183.085	-40.508	-0.221	-0.114
-182.071	51.382	0.263	0.249
-181.056	67.227	0.242	0.245
-180.042	-62.656	0.399	-0.165
-179.027	25.490	0.146	-0.121
-178.012	440.508	0.032	0.069
-176.998	800.000	-0.090	-0.379
-175.983	20.221	0.043	0.034
-174.969	-200.000	-0.014	-0.107
-173.954	-200.000	0.035	-0.305
-172.939	96.996	-0.109	0.124
-171.925	800.000	-0.019	-0.071
-170.910	-200.000	0.034	-0.177
-169.896	-90.014	-0.097	0.028
-168.881	-11.957	-0.168	0.109
-167.866	390.444	-0.077	-0.158
-166.852	185.873	-0.117	-0.173
-165.837	174.151	-0.168	0.242
-164.823	800.000	0.084	0.288
-163.808	-200.000	-0.075	-0.364
-162.793	-37.660	0.168	0.089
-161.779	-200.000	-0.010	0.086
-160.764	-200.000	0.059	0.330
-159.750	250.042	-0.086	-0.145
-158.735	151.217	-0.022	0.029
-157.720	-192.259	-0.313	0.003
-156.706	51.231	-0.030	0.028
-155.691	-185.855	-0.280	0.004
-154.677	152.319	0.054	-0.073
-153.662	-54.898	-0.254	0.114
-152.647	-138.678	-0.405	0.044
-151.633	-200.000	0.167	-0.000
-150.618	588.854	-0.056	0.137
-149.604	137.642	0.095	0.123
-148.589	-200.000	0.059	0.302
-147.574	-92.507	-0.101	0.028
-146.560	-37.516	0.258	0.137
-145.545	37.635	-0.167	0.148
-144.531	-52.570	0.117	-0.054
-143.516	-178.283	0.280	0.007
-142.502	325.327	-0.077	-0.147
-141.487	164.716	0.059	0.082
-140.472	128.988	-0.117	-0.148
-139.458	-200.000	-0.042	-0.236
-138.443	-61.556	-0.143	0.060
-137.429	-123.698	-0.105	-0.016
-136.414	-57.289	-0.209	0.091
-135.399	-36.459	-0.014	-0.008
-134.385	-200.000	-0.041	-0.274
-133.370	-200.000	-0.052	0.276
-132.356	227.390	0.243	0.392
-131.341	249.031	-0.043	0.072
-130.326	-200.000	0.030	-0.430
-129.312	-51.834	-0.526	0.243
-128.297	-65.447	-0.374	-0.149
-127.283	-89.934	0.201	0.058
-126.268	69.535	-0.119	0.122
-125.253	96.175	-0.181	-0.205
-124.239	191.729	0.051	0.076
-123.224	-184.236	-0.362	0.006
-122.210	275.569	0.118	-0.208
-121.195	800.000	0.047	0.171
-120.180	-32.563	-0.093	0.051
