DTS Sentinel unit serial number:	SN413079Multiplexer serial number:	ORYXHardware model number:	OX4-SRSoftware version number:	ORYX F/W v4.00 Oryx Data Collector v3.7.2.0data status	okinstallation	princeton_trtdifferential loss correction	single-endedforward channel	channel 1reverse channel	N/Adate	2019/09/19time	05:54:35forward acquisition time	60.00reverse acquisition time	0.00gamma	496.2192k internal	0.2343k external	0.2343temperature offset calibration	1.0023default loss term (dB/km)	0.3790temperature slope calibration	1.0000multiplexer offset coefficient	1.0000multiplexer slope coefficient	1.0000fibre end	0.00T internal ref (°C)	19.19T ext. ref 1 (°C)	0.59T ext. ref 2 (°C)	12.74length (m)	temperature (°C)	Stokes	anti-Stokes-747.200	20.920	0.257	0.209
-746.185	157.301	-0.206	0.286
-745.171	-107.894	-0.254	0.055
-744.156	-200.000	0.007	-0.128
-743.142	-200.000	-0.027	0.266
-742.127	-45.491	-0.278	0.138
-741.112	114.143	0.117	0.142
-740.098	-146.746	0.100	0.009
-739.083	-150.699	0.047	-0.004
-738.069	14.719	-0.304	0.238
-737.054	-200.000	-0.054	0.278
-736.039	800.000	-0.048	0.140
-735.025	-183.073	0.246	-0.004
-734.010	433.232	-0.133	0.289
-732.996	-200.000	0.033	-0.217
-731.981	-63.129	0.180	-0.074
-730.966	225.947	-0.054	0.088
-729.952	-78.556	-0.267	-0.091
-728.937	115.977	-0.075	-0.092
-727.923	70.518	-0.171	-0.177
-726.908	-4.759	-0.223	0.154
-725.894	-197.229	-0.166	0.001
-724.879	-50.442	-0.024	0.011
-723.864	153.529	0.106	-0.145
-722.850	583.040	-0.042	-0.104
-721.835	-51.254	0.244	-0.114
-720.821	197.940	0.056	0.085
-719.806	719.685	0.106	-0.282
-718.791	-66.905	0.117	0.046
-717.777	-167.697	-0.460	-0.018
-716.762	-70.764	-0.396	-0.150
-715.748	4.754	0.029	-0.021
-714.733	800.000	-0.012	-0.042
-713.718	129.041	0.057	0.073
-712.704	290.163	-0.147	-0.267
-711.689	84.718	0.088	0.097
-710.675	72.009	-0.169	0.176
-709.660	-104.556	-0.226	0.052
-708.645	-122.755	0.262	-0.042
-707.631	165.976	0.152	0.215
-706.616	-30.669	-0.115	-0.065
-705.602	135.658	-0.144	-0.188
-704.587	-82.320	0.061	0.020
-703.572	357.950	-0.185	-0.370
-702.558	-39.823	-0.120	0.063
-701.543	-13.190	0.134	0.087
-700.529	-57.165	0.229	0.101
-699.514	66.942	-0.133	-0.135
-698.499	-200.000	-0.009	0.100
-697.485	-200.000	-0.042	0.415
-696.470	111.909	0.149	0.180
-695.456	-43.726	0.058	0.029
-694.441	188.543	0.078	0.116
-693.426	-62.196	0.136	0.057
-692.412	-200.000	0.024	0.413
-691.397	-200.000	-0.062	0.312
-690.383	-162.724	0.138	0.007
-689.368	-27.223	-0.272	0.158
-688.354	723.955	-0.014	-0.038
-687.339	-200.000	0.015	0.618
-686.324	-200.000	0.043	0.246
-685.310	243.483	-0.054	-0.091
-684.295	-80.218	-0.045	-0.015
-683.281	284.804	-0.179	-0.322
-682.266	-29.974	0.054	-0.031
-681.251	103.296	-0.202	-0.237
-680.237	-44.596	0.281	-0.140
-679.222	82.513	0.184	-0.199
-678.208	-2.116	-0.174	-0.122
-677.193	660.930	0.146	0.376
-676.178	319.317	0.077	-0.146
-675.164	800.000	-0.124	-0.367
-674.149	28.899	0.043	0.036
-673.135	112.318	-0.088	0.106
-672.120	173.950	-0.052	0.075
-671.105	123.269	0.173	0.216
-670.091	800.000	0.103	-0.299
-669.076	-99.533	0.111	0.028
-668.062	88.475	0.194	-0.215
-667.047	436.705	0.051	-0.111
-666.032	101.775	-0.042	0.049
-665.018	-55.005	-0.328	-0.148
-664.003	158.449	0.244	-0.338
-662.989	135.950	0.054	-0.070
-661.974	-57.797	-0.228	-0.100
-660.959	518.758	-0.042	-0.098
-659.945	-200.000	0.019	-0.452
-658.930	209.794	-0.113	0.177
-657.916	77.958	-0.132	-0.141
-656.901	-124.561	-0.271	-0.042
-655.886	24.508	0.200	-0.165
-654.872	-87.214	0.175	-0.053
-653.857	7.166	-0.083	-0.062
-652.843	127.046	0.074	0.093
-651.828	-200.000	0.027	0.210
-650.814	49.499	-0.082	-0.077
-649.799	-17.808	-0.274	0.172
-648.784	-62.745	0.169	-0.070
-647.770	-84.700	0.319	0.100
-646.755	-200.000	0.033	-0.164
-645.741	-68.039	0.228	-0.089
-644.726	-94.249	0.096	0.026
-643.711	-200.000	-0.024	0.153
-642.697	-122.849	0.280	0.045
-641.682	229.809	0.044	-0.071
-640.668	109.660	-0.093	0.111
-639.653	-200.000	0.028	-0.133
-638.638	-129.353	-0.387	-0.054
-637.624	249.228	0.169	0.285
-636.609	-42.949	0.348	0.176
-635.595	-118.735	-0.357	0.063
-634.580	46.805	-0.163	-0.151
-633.565	-200.000	0.024	0.271
-632.551	-200.000	0.054	0.246
-631.536	-89.462	-0.200	-0.059
-630.522	-26.393	-0.199	0.117
-629.507	107.647	-0.129	-0.153
-628.492	38.291	0.081	-0.072
-627.478	430.516	-0.099	-0.213
-626.463	-138.614	-0.085	-0.009
-625.449	-88.875	-0.169	-0.050
-624.434	8.966	-0.027	0.021
-623.419	-75.590	-0.271	-0.096
-622.405	-162.913	0.514	-0.025
-621.390	800.000	0.029	0.107
-620.376	800.000	0.102	0.395
-619.361	-125.722	-0.656	-0.099
-618.346	-41.812	0.155	-0.079
-617.332	228.125	-0.110	0.179
-616.317	781.336	-0.017	0.046
-615.303	-113.104	-0.071	0.014
-614.288	325.230	0.069	-0.131
-613.273	-111.666	-0.027	0.005
-612.259	362.652	0.077	-0.154
-611.244	57.078	0.111	-0.108
-610.230	38.394	-0.108	-0.096
-609.215	40.907	0.262	0.236
-608.201	-10.655	-0.233	-0.154
-607.186	800.000	0.043	0.126
-606.171	-102.741	0.207	0.049
-605.157	168.321	0.028	0.040
-604.142	-55.636	-0.069	0.031
-603.128	-134.387	-0.105	0.013
-602.113	-200.000	0.061	0.287
-601.098	390.181	-0.089	0.185
-600.084	199.743	0.071	-0.108
-599.069	-200.000	0.030	0.170
-598.055	-156.994	0.164	0.010
-597.040	-98.385	-0.039	-0.010
-596.025	633.285	-0.061	0.153
-595.011	-108.224	-0.269	-0.058
-593.996	-163.382	-0.154	0.007
-592.982	152.358	-0.173	0.236
-591.967	93.934	-0.179	0.202
-590.952	800.000	-0.055	-0.171
-589.938	744.352	-0.023	0.063
-588.923	-88.616	-0.478	-0.142
-587.909	797.972	-0.097	-0.266
-586.894	505.199	-0.064	0.148
-585.879	163.244	-0.113	0.158
-584.865	159.151	0.175	-0.242
-583.850	250.337	-0.139	0.235
-582.836	112.141	0.033	-0.039
-581.821	573.036	0.083	-0.201
-580.806	-101.182	-0.128	0.031
-579.792	-179.126	0.146	-0.003
-578.777	-130.171	-0.087	0.012
-577.763	800.000	-0.003	-0.011
-576.748	-200.000	0.005	0.316
-575.733	80.771	0.117	-0.126
-574.719	71.432	0.184	-0.190
-573.704	74.891	-0.276	-0.289
-572.690	-34.650	0.299	-0.163
-571.675	-36.361	-0.070	-0.038
-570.661	-200.000	-0.041	0.373
-569.646	-68.177	-0.175	0.068
-568.631	81.783	0.206	-0.222
-567.617	57.320	-0.070	-0.068
-566.602	-74.186	0.249	-0.090
-565.588	92.429	-0.022	-0.025
-564.573	-71.721	-0.155	0.057
-563.558	123.360	0.206	-0.256
-562.544	-75.436	-0.189	0.067
-561.529	720.803	0.070	-0.186
-560.515	-60.219	-0.073	-0.031
-559.500	-200.000	-0.039	0.276
-558.485	501.373	-0.157	0.361
-557.471	206.543	-0.055	-0.086
-556.456	-153.485	0.098	-0.007
-555.442	702.870	0.032	-0.084
-554.427	800.000	-0.048	0.171
-553.412	-67.395	-0.309	0.121
-552.398	16.329	-0.102	0.080
-551.383	800.000	-0.068	0.209
-550.369	-200.000	-0.023	0.238
-549.354	800.000	-0.058	-0.234
-548.339	496.597	-0.057	0.131
-547.325	104.602	0.060	-0.070
-546.310	172.840	0.058	0.084
-545.296	-124.475	0.305	-0.047
-544.281	-32.371	0.124	-0.069
-543.266	-58.841	-0.257	0.111
-542.252	-136.410	-0.372	-0.043
-541.237	289.549	-0.114	-0.206
-540.223	221.426	0.126	-0.201
-539.208	-164.529	-0.326	0.015
-538.193	241.869	0.058	-0.097
-537.179	-200.000	0.038	0.166
-536.164	-40.093	-0.091	-0.047
-535.150	-200.000	-0.007	-0.229
-534.135	119.231	-0.218	0.267
-533.121	-200.000	-0.297	-0.001
-532.106	19.107	0.119	-0.094
-531.091	253.655	-0.062	-0.106
-530.077	497.788	0.079	0.181
-529.062	33.954	-0.304	-0.263
-528.048	-131.995	0.370	-0.048
-527.033	209.578	-0.222	-0.346
-526.018	242.482	0.229	-0.380
-525.004	-12.986	0.120	0.078
-523.989	-200.000	-0.001	0.150
-522.975	150.352	-0.127	-0.171
-521.960	800.000	0.055	0.167
-520.945	316.502	-0.122	0.230
-519.931	-157.545	0.118	-0.007
-518.916	800.000	0.099	-0.292
-517.902	800.000	0.076	-0.219
-516.887	240.425	0.172	0.284
-515.872	9.559	0.290	0.218
-514.858	29.014	-0.175	-0.147
-513.843	178.997	0.061	0.089
-512.829	-78.278	-0.165	0.056
-511.814	103.770	-0.361	-0.421
-510.799	732.592	0.176	-0.468
-509.785	707.422	-0.108	-0.284
-508.770	106.751	0.273	-0.321
-507.756	-71.867	0.152	-0.056
-506.741	-118.389	0.119	0.021
-505.726	150.918	0.126	-0.170
-504.712	-200.000	-0.043	-0.356
-503.697	-15.128	0.141	-0.090
-502.683	-200.000	-0.030	-0.324
-501.668	-75.429	0.167	-0.059
-500.653	-27.519	-0.115	0.066
-499.639	-200.000	-0.065	0.506
-498.624	800.000	-0.056	-0.232
-497.610	-110.988	0.135	-0.028
-496.595	-49.569	0.308	0.145
-495.581	362.992	0.133	-0.265
-494.566	134.686	0.195	-0.251
-493.551	-94.985	-0.229	-0.062
-492.537	123.515	-0.132	0.164
-491.522	16.464	0.219	-0.172
-490.508	-60.115	0.126	-0.053
-489.493	-118.425	-0.262	-0.046
-488.478	-101.079	0.347	0.084
-487.464	7.020	-0.314	0.232
-486.449	-9.300	-0.076	-0.050
-485.435	428.976	0.062	0.134
-484.420	-200.000	0.004	0.093
-483.405	-119.511	0.195	0.033
-482.391	48.272	0.341	0.316
-481.376	176.868	-0.089	0.128
-480.362	-200.000	-0.019	-0.258
-479.347	69.240	0.035	-0.036
-478.332	800.000	0.010	-0.033
-477.318	800.000	0.063	0.211
-476.303	698.530	0.049	0.129
-475.289	-107.893	0.050	0.011
-474.274	-200.000	-0.002	0.204
-473.259	800.000	0.088	-0.249
-472.245	-105.993	-0.135	0.030
-471.230	178.090	-0.088	0.127
-470.216	31.368	0.150	0.127
-469.201	164.770	-0.049	-0.068
-468.186	-200.000	0.046	-0.243
-467.172	-49.084	-0.416	0.197
-466.157	66.712	-0.229	-0.231
-465.143	-93.061	-0.269	-0.074
-464.128	644.188	0.102	-0.257
-463.113	-85.052	0.227	-0.070
-462.099	128.018	-0.215	0.271
-461.084	-81.712	-0.205	-0.067
-460.070	37.220	0.155	0.136
-459.055	-11.893	-0.137	0.089
-458.040	1.739	-0.259	-0.185
-457.026	71.329	-0.222	-0.228
-456.011	-175.544	-0.463	-0.012
-454.997	-200.000	0.023	-0.174
-453.982	-164.878	-0.148	0.007
-452.968	-200.000	0.017	0.097
-451.953	66.940	0.203	-0.205
-450.938	-74.220	0.373	-0.134
-449.924	85.000	-0.192	0.209
-448.909	107.403	0.038	-0.045
-447.895	172.256	-0.081	-0.115
-446.880	3.831	0.136	0.099
-445.865	800.000	0.067	0.213
-444.851	-50.714	0.205	-0.096
-443.836	100.257	-0.146	0.167
-442.822	-111.574	0.251	-0.050
-441.807	-200.000	-0.020	-0.316
-440.792	-200.000	-0.050	-0.280
-439.778	-88.590	-0.241	0.071
-438.763	759.291	0.089	0.240
-437.749	-200.000	-0.025	-0.217
-436.734	250.428	0.079	-0.133
-435.719	800.000	-0.044	0.139
-434.705	-200.000	-0.007	0.210
-433.690	-200.000	0.010	-0.186
-432.676	-200.000	-0.095	0.538
-431.661	-29.878	-0.143	0.080
-430.646	133.611	0.155	-0.199
-429.632	-80.276	0.217	0.072
-428.617	193.171	0.182	0.271
-427.603	-83.849	-0.223	0.070
-426.588	800.000	0.057	0.240
-425.573	800.000	0.132	0.476
-424.559	-28.607	-0.017	0.010
-423.544	-184.614	-0.194	-0.003
-422.530	160.942	0.101	-0.139
-421.515	-200.000	0.009	0.093
-420.500	800.000	-0.041	-0.169
-419.486	34.463	-0.218	-0.188
-418.471	55.220	0.045	-0.043
-417.457	-188.096	0.177	0.002
-416.442	230.818	0.237	0.383
-415.428	-200.000	-0.017	0.174
-414.413	-97.010	-0.226	0.058
-413.398	-36.243	-0.084	0.045
-412.384	-158.208	0.600	-0.035
-411.369	-42.981	-0.056	-0.028
-410.355	774.599	-0.085	-0.230
-409.340	17.066	0.041	-0.032
-408.325	448.710	0.109	0.238
-407.311	800.000	-0.036	0.133
-406.296	800.000	-0.044	0.126
-405.282	800.000	0.087	-0.306
-404.267	485.032	-0.089	-0.200
-403.252	31.254	-0.147	0.125
-402.238	338.269	0.053	-0.101
-401.223	-7.178	-0.058	0.039
-400.209	109.594	0.017	-0.020
-399.194	800.000	0.088	-0.246
-398.179	-53.391	0.097	-0.044
-397.165	-184.605	0.271	0.004
-396.150	33.007	0.091	-0.078
-395.136	675.272	0.028	0.071
-394.121	331.439	0.033	0.062
-393.106	230.113	-0.195	-0.316
-392.092	-42.341	0.220	0.111
-391.077	-200.000	0.003	-0.108
-390.063	-161.890	-0.215	0.011
-389.048	800.000	-0.056	0.218
-388.033	-200.000	0.059	0.272
-387.019	-105.811	0.128	0.029
-386.004	228.738	0.161	0.260
-384.990	10.282	0.181	-0.136
-383.975	-191.934	-0.006	0.000
-382.960	800.000	0.027	0.089
-381.946	604.751	-0.060	0.148
-380.931	209.906	0.174	0.269
-379.917	160.938	-0.106	0.146
-378.902	-200.000	-0.026	0.129
-377.888	-98.344	0.167	-0.042
-376.873	800.000	0.060	0.194
-375.858	471.470	-0.136	-0.301
-374.844	21.489	0.327	0.262
-373.829	800.000	0.012	0.039
-372.815	-16.744	0.190	0.119
-371.800	-93.031	-0.058	0.016
-370.785	-200.000	-0.028	-0.190
-369.771	28.885	0.297	-0.248
-368.756	20.040	0.145	-0.115
-367.742	800.000	-0.127	-0.410
-366.727	-94.664	0.235	0.063
-365.712	149.710	0.033	0.045
-364.698	-77.102	-0.190	-0.065
-363.683	-90.560	-0.408	0.116
-362.669	-36.192	-0.191	0.102
-361.654	-93.098	-0.426	0.117
-360.639	-53.816	0.212	0.096
-359.625	800.000	-0.111	-0.370
-358.610	451.181	0.062	-0.136
-357.596	746.365	-0.106	0.281
-356.581	83.478	0.116	-0.125
-355.566	76.368	0.114	-0.119
-354.552	-21.440	-0.028	0.017
-353.537	20.699	0.176	-0.141
-352.523	21.265	-0.209	-0.167
-351.508	407.696	0.054	-0.112
-350.493	490.573	-0.112	0.252
-349.479	-122.515	-0.038	-0.006
-348.464	50.030	-0.086	0.080
-347.450	-200.000	0.020	-0.195
-346.435	120.898	0.192	0.235
-345.420	-100.332	-0.226	0.055
-344.406	71.438	0.218	-0.223
-343.391	530.980	0.203	-0.474
-342.377	-94.886	0.195	-0.052
-341.362	99.997	-0.287	-0.327
-340.348	30.866	-0.111	0.094
-339.333	342.506	-0.050	-0.097
-338.318	141.630	0.168	0.219
-337.304	44.886	-0.246	0.223
-336.289	130.919	0.097	-0.123
-335.275	-15.588	0.231	0.145
-334.260	4.170	0.053	0.038
-333.245	-200.000	0.002	-0.208
-332.231	-200.000	0.018	0.341
-331.216	-175.670	0.209	-0.006
-330.202	-19.221	-0.032	0.020
-329.187	565.049	-0.139	-0.332
-328.172	-148.413	-0.448	-0.036
-327.158	-200.000	0.065	-0.326
-326.143	-20.740	-0.270	-0.163
-325.129	57.028	0.151	0.145
-324.114	-49.205	0.132	0.062
-323.099	-124.609	-0.306	0.047
-322.085	-29.805	0.156	0.088
-321.070	-65.423	0.296	0.117
-320.056	323.294	-0.162	-0.305
-319.041	-16.463	-0.123	-0.077
-318.026	31.295	0.240	0.203
-317.012	800.000	0.062	-0.202
-315.997	800.000	-0.092	-0.376
-314.983	351.977	0.119	-0.231
-313.968	375.115	-0.036	-0.072
-312.953	-200.000	-0.018	-0.145
-311.939	-79.154	-0.113	-0.038
-310.924	800.000	-0.081	0.334
-309.910	73.125	0.048	-0.050
-308.895	-187.468	-0.151	-0.002
-307.880	-109.678	0.270	0.056
-306.866	-77.586	0.283	-0.097
-305.851	-200.000	-0.005	-0.159
-304.837	204.059	-0.067	-0.101
-303.822	31.580	0.187	0.158
-302.807	65.178	0.064	0.064
-301.793	140.461	0.112	-0.145
-300.778	-43.079	0.280	-0.140
-299.764	192.171	-0.142	0.210
-298.749	388.973	-0.118	0.240
-297.735	800.000	0.071	0.244
-296.720	-71.354	0.218	0.080
-295.705	438.983	-0.199	0.427
-294.691	366.361	0.105	0.209
-293.676	313.646	-0.133	0.247
-292.662	383.003	-0.144	-0.291
-291.647	-122.509	0.084	0.013
-290.632	-152.349	0.083	0.006
-289.618	-123.487	-0.273	0.043
-288.603	-76.952	-0.081	-0.028
-287.589	-74.904	0.309	0.109
-286.574	203.670	-0.155	0.236
-285.559	475.938	-0.073	0.163
-284.545	-200.000	0.035	0.215
-283.530	-76.745	-0.322	0.111
-282.516	176.000	0.151	0.215
-281.501	30.849	-0.154	-0.130
-280.486	556.996	-0.053	0.126
-279.472	21.150	-0.376	-0.300
-278.457	-200.000	-0.039	-0.291
-277.443	134.182	-0.050	0.063
-276.428	-124.832	-0.266	-0.040
-275.413	-68.334	-0.122	-0.047
-274.399	800.000	0.075	0.260
-273.384	-181.794	-0.245	0.005
-272.370	-81.178	-0.134	-0.044
-271.355	800.000	-0.122	0.466
-270.340	188.386	-0.113	-0.166
-269.326	-34.902	0.167	-0.090
-268.311	269.931	0.123	-0.212
-267.297	795.506	0.148	-0.400
-266.282	-8.407	0.184	-0.121
-265.267	162.931	0.120	0.166
-264.253	333.285	-0.173	0.329
-263.238	-122.606	-0.203	-0.032
-262.224	591.254	0.078	-0.189
-261.209	2.811	-0.119	-0.085
-260.195	-63.410	-0.304	-0.123
-259.180	800.000	-0.031	-0.118
-258.165	690.110	0.039	-0.100
-257.151	328.181	-0.110	-0.208
-256.136	550.519	0.108	0.254
-255.122	257.388	0.069	-0.116
-254.107	681.091	0.073	0.187
-253.092	-200.000	0.018	0.186
-252.078	-9.721	-0.095	0.062
-251.063	-200.000	-0.014	-0.085
-250.049	-200.000	-0.053	-0.322
-249.034	-73.312	0.250	0.090
-248.019	-200.000	-0.058	-0.328
-247.005	-159.804	0.099	-0.005
-245.990	-9.164	0.185	0.121
-244.976	-97.695	-0.243	0.062
-243.961	-200.000	-0.040	0.288
-242.946	781.197	0.105	0.282
-241.932	-200.000	-0.046	0.327
-240.917	-88.498	-0.191	-0.056
-239.903	190.772	-0.196	-0.290
-238.888	150.264	-0.076	0.101
-237.873	550.556	-0.064	0.152
-236.859	-142.071	0.278	-0.027
-235.844	-94.175	-0.369	0.099
-234.830	-200.000	0.068	0.552
-233.815	347.477	-0.129	0.249
-232.800	-10.933	0.111	0.072
-231.786	-200.000	0.007	0.057
-230.771	90.464	0.079	0.087
-229.757	-200.000	-0.029	-0.163
-228.742	-195.411	-0.370	0.003
-227.727	29.490	0.271	-0.226
-226.713	72.615	-0.109	0.112
-225.698	800.000	-0.050	-0.150
-224.684	-18.462	0.089	-0.055
-223.669	-103.013	-0.241	-0.056
-222.655	108.280	-0.107	-0.126
-221.640	-200.000	0.064	0.353
-220.625	281.529	0.141	0.248
-219.611	-200.000	0.006	0.157
-218.596	-200.000	0.057	-0.360
-217.582	-82.938	-0.280	0.089
-216.567	-36.080	-0.300	-0.159
-215.552	-90.610	0.179	-0.051
-214.538	-200.000	0.029	-0.327
-213.523	732.019	0.110	0.289
-212.509	-200.000	0.196	0.001
-211.494	-200.000	0.028	-0.139
-210.479	101.134	-0.177	-0.202
-209.465	-200.000	-0.012	-0.284
-208.450	268.282	0.098	0.168
-207.436	-200.000	0.005	-0.236
-206.421	-77.728	0.447	-0.152
-205.406	800.000	0.059	-0.185
-204.392	745.014	-0.013	0.035
-203.377	778.837	0.063	-0.169
-202.363	-200.000	-0.011	0.264
-201.348	387.480	0.105	0.213
-200.333	-10.061	0.095	-0.062
-199.319	-4.898	0.113	0.076
-198.304	165.596	0.140	-0.194
-197.290	-200.000	0.037	-0.202
-196.275	355.148	-0.022	-0.042
-195.260	-30.854	-0.184	0.102
-194.246	-54.261	-0.075	0.033
-193.231	-200.000	0.003	-0.060
-192.217	-200.000	0.029	0.154
-191.202	-84.195	0.041	-0.013
-190.187	240.351	0.102	-0.167
-189.173	800.000	-0.097	0.344
-188.158	-105.570	0.156	-0.035
-187.144	-200.000	0.009	0.070
-186.129	-83.718	0.530	0.166
-185.114	165.936	-0.134	0.186
-184.100	-114.243	-0.272	-0.051
-183.085	800.000	0.057	-0.184
-182.071	97.624	0.140	0.158
-181.056	1.475	0.177	-0.124
-180.042	-103.661	0.287	0.066
-179.027	-126.641	0.286	0.042
-178.012	800.000	-0.077	0.309
-176.998	175.263	0.298	-0.423
-175.983	385.717	-0.055	-0.111
-174.969	-63.129	0.402	-0.162
-173.954	-123.088	0.125	0.020
-172.939	-73.282	-0.023	0.008
-171.925	-102.011	-0.320	-0.076
-170.910	540.923	0.144	0.336
-169.896	-200.000	-0.007	0.127
-168.881	-23.728	-0.181	-0.106
-167.866	-20.012	0.188	-0.114
-166.852	221.317	0.261	0.410
-165.837	-152.700	0.172	-0.012
-164.823	60.322	0.072	0.070
-163.808	-19.953	0.085	0.052
-162.793	212.346	0.166	-0.257
-161.779	-149.124	0.198	-0.016
-160.764	-32.004	-0.123	-0.068
-159.750	-96.842	-0.152	-0.039
-158.735	59.122	-0.128	-0.124
-157.720	800.000	0.040	0.159
-156.706	109.432	-0.108	-0.127
-155.691	-200.000	0.005	-0.033
-154.677	800.000	-0.019	-0.076
-153.662	-32.447	0.346	0.189
-152.647	74.505	-0.203	0.209
-151.633	-81.054	-0.302	-0.098
-150.618	800.000	-0.059	-0.201
-149.604	-115.162	-0.153	-0.028
-148.589	-19.871	-0.216	0.130
-147.574	265.879	-0.121	0.206
-146.560	-87.730	0.314	0.093
-145.545	-25.290	0.054	0.031
-144.531	769.276	0.110	0.294
-143.516	126.690	0.042	-0.052
-142.502	99.624	0.084	0.095
-141.487	-184.966	-0.057	-0.001
-140.472	-127.362	0.320	0.046
-139.458	-80.100	-0.246	0.081
-138.443	-99.864	-0.283	-0.069
-137.429	800.000	-0.040	0.162
-136.414	-89.242	0.196	0.057
-135.399	-29.932	-0.215	-0.120
-134.385	-200.000	-0.013	0.153
-133.370	-22.405	-0.349	-0.207
-132.356	402.689	0.159	-0.327
-131.341	-104.967	0.315	0.071
-130.326	-200.000	0.011	0.221
-129.312	-115.137	-0.243	-0.045
-128.297	-38.064	0.300	0.156
-127.283	-200.000	0.001	0.088
-126.268	62.915	-0.246	-0.240
-125.253	-143.733	0.526	-0.049
-124.239	800.000	-0.083	0.342
-123.224	-158.722	-0.304	-0.017
-122.210	491.688	0.165	0.369
-121.195	800.000	0.069	-0.247
