DTS Sentinel unit serial number:	SN413079Multiplexer serial number:	ORYXHardware model number:	OX4-SRSoftware version number:	ORYX F/W v4.00 Oryx Data Collector v3.7.2.0data status	okinstallation	princeton_trtdifferential loss correction	single-endedforward channel	channel 1reverse channel	N/Adate	2019/09/18time	12:06:35forward acquisition time	60.00reverse acquisition time	0.00gamma	496.2192k internal	0.2323k external	0.2323temperature offset calibration	0.9980default loss term (dB/km)	0.3790temperature slope calibration	1.0000multiplexer offset coefficient	1.0000multiplexer slope coefficient	1.0000fibre end	0.00T internal ref (°C)	31.62T ext. ref 1 (°C)	0.50T ext. ref 2 (°C)	27.07length (m)	temperature (°C)	Stokes	anti-Stokes-747.200	-200.000	0.019	0.191
-746.185	-200.000	0.085	0.512
-745.171	-123.715	-0.181	0.029
-744.156	-3.740	-0.243	0.171
-743.142	-200.000	-0.007	-0.087
-742.127	-23.097	-0.284	0.172
-741.112	57.055	-0.258	0.254
-740.098	233.919	0.107	0.178
-739.083	-200.000	0.052	0.306
-738.069	-104.399	-0.319	0.075
-737.054	211.199	0.165	-0.261
-736.039	-200.000	0.020	0.149
-735.025	-59.824	0.284	0.123
-734.010	800.000	-0.025	-0.092
-732.996	-200.000	0.072	-0.522
-731.981	-182.725	-0.361	-0.007
-730.966	-141.694	-0.512	-0.052
-729.952	-73.958	-0.236	0.086
-728.937	-200.000	-0.005	-0.258
-727.923	116.067	0.101	0.125
-726.908	23.533	0.139	-0.116
-725.894	51.390	-0.072	0.069
-724.879	-48.164	-0.134	0.065
-723.864	638.650	0.068	-0.174
-722.850	-130.581	-0.116	-0.016
-721.835	71.546	-0.099	0.103
-720.821	-57.897	-0.216	0.095
-719.806	-164.327	0.185	0.009
-718.791	8.585	0.203	-0.154
-717.777	-138.897	-0.288	-0.032
-716.762	-200.000	0.033	0.192
-715.748	-141.424	0.213	-0.022
-714.733	-153.623	0.030	-0.002
-713.718	800.000	-0.073	-0.228
-712.704	41.631	0.113	0.103
-711.689	-152.313	0.272	-0.020
-710.675	-200.000	-0.008	-0.075
-709.660	800.000	-0.035	-0.123
-708.645	-146.909	0.437	-0.038
-707.631	-79.668	-0.206	-0.070
-706.616	747.786	-0.080	0.216
-705.602	-200.000	0.061	0.379
-704.587	154.021	0.024	0.034
-703.572	-137.680	-0.387	-0.044
-702.558	152.941	0.094	-0.130
-701.543	263.258	-0.093	-0.163
-700.529	121.459	-0.079	-0.099
-699.514	51.097	0.084	-0.081
-698.499	-38.886	-0.378	-0.201
-697.485	410.861	0.027	-0.057
-696.470	800.000	0.120	0.340
-695.456	-112.448	-0.628	0.126
-694.441	800.000	0.049	-0.146
-693.426	226.992	0.119	-0.195
-692.412	-47.418	-0.303	0.148
-691.397	258.458	-0.043	0.074
-690.383	-150.537	-0.198	-0.015
-689.368	-200.000	0.006	0.271
-688.354	800.000	0.097	0.372
-687.339	670.834	0.070	0.183
-686.324	631.052	0.087	0.222
-685.310	222.313	-0.100	0.162
-684.295	-6.104	0.360	0.248
-683.281	800.000	-0.040	0.131
-682.266	-200.000	-0.010	0.343
-681.251	-93.558	-0.257	0.071
-680.237	660.755	-0.093	0.243
-679.222	-200.000	-0.054	0.380
-678.208	378.836	-0.069	-0.142
-677.193	-12.193	-0.386	0.255
-676.178	800.000	-0.077	0.241
-675.164	800.000	-0.093	-0.326
-674.149	-64.436	0.390	-0.159
-673.135	257.489	0.118	0.204
-672.120	-119.586	-0.262	-0.046
-671.105	91.539	-0.088	0.099
-670.091	800.000	-0.046	-0.193
-669.076	-78.435	0.081	0.028
-668.062	540.351	0.007	0.017
-667.047	183.808	0.148	-0.220
-666.032	-98.726	-0.125	-0.032
-665.018	-67.940	0.240	-0.094
-664.003	275.930	0.118	-0.211
-662.989	-126.478	0.217	-0.032
-661.974	104.816	-0.032	-0.038
-660.959	-35.893	-0.337	0.184
-659.945	-94.762	-0.231	-0.063
-658.930	583.709	-0.035	-0.086
-657.916	800.000	-0.053	-0.157
-656.901	-149.049	0.175	-0.014
-655.886	800.000	-0.067	-0.225
-654.872	-45.430	-0.192	-0.096
-653.857	685.249	-0.005	0.013
-652.843	-144.767	-0.152	0.014
-651.828	-116.888	0.381	0.070
-650.814	-200.000	-0.017	0.387
-649.799	218.601	-0.095	-0.153
-648.784	594.470	0.088	0.219
-647.770	27.561	0.074	0.063
-646.755	800.000	-0.105	-0.385
-645.741	-200.000	0.009	0.050
-644.726	-157.399	-0.153	0.009
-643.711	-104.813	-0.127	0.029
-642.697	69.539	-0.247	-0.256
-641.682	-62.463	-0.037	-0.015
-640.668	222.995	-0.075	0.121
-639.653	-65.472	-0.264	-0.107
-638.638	365.221	0.092	0.186
-637.624	800.000	0.013	-0.053
-636.609	122.310	-0.101	0.127
-635.595	413.550	0.076	-0.163
-634.580	800.000	0.036	0.150
-633.565	800.000	-0.076	0.252
-632.551	-34.533	-0.102	-0.056
-631.536	800.000	0.054	-0.157
-630.522	374.751	-0.099	0.203
-629.507	336.390	0.067	0.131
-628.492	-200.000	0.009	-0.169
-627.478	-49.236	0.256	-0.123
-626.463	-200.000	-0.039	-0.351
-625.449	-122.261	0.381	0.063
-624.434	-199.074	0.041	0.000
-623.419	-200.000	-0.001	0.179
-622.405	-200.000	-0.013	0.173
-621.390	29.503	-0.112	0.096
-620.376	-89.577	0.161	0.048
-619.361	-150.474	-0.378	-0.029
-618.346	-95.754	0.216	0.058
-617.332	-3.356	-0.120	0.084
-616.317	-182.968	-0.203	0.004
-615.303	-49.889	-0.414	-0.197
-614.288	800.000	0.070	-0.201
-613.273	-72.494	0.281	0.104
-612.259	-5.756	0.197	-0.135
-611.244	-200.000	-0.009	-0.086
-610.230	-25.837	-0.098	-0.058
-609.215	-40.335	-0.111	-0.058
-608.201	17.773	-0.078	0.062
-607.186	-109.370	-0.324	0.069
-606.171	668.032	-0.072	0.187
-605.157	800.000	-0.035	-0.106
-604.142	212.155	-0.114	0.180
-603.128	-158.001	0.030	-0.002
-602.113	33.640	0.120	0.105
-601.098	0.493	0.088	0.063
-600.084	44.459	-0.054	-0.050
-599.069	-200.000	0.030	0.148
-598.055	-67.151	-0.293	-0.116
-597.040	-64.884	-0.106	0.043
-596.025	-200.000	-0.008	0.112
-595.011	-200.000	-0.012	0.341
-593.996	411.149	0.176	-0.376
-592.982	222.415	-0.077	-0.125
-591.967	105.456	0.119	0.141
-590.952	-33.473	0.118	0.066
-589.938	-9.984	-0.132	-0.088
-588.923	-62.766	-0.072	-0.030
-587.909	111.037	0.181	-0.218
-586.894	-200.000	0.012	-0.225
-585.879	-175.903	0.147	-0.004
-584.865	148.899	0.082	0.111
-583.850	264.564	-0.133	-0.233
-582.836	188.972	-0.355	0.533
-581.821	171.330	-0.251	0.361
-580.806	-60.297	0.064	-0.027
-579.792	-200.000	0.037	0.504
-578.777	-182.689	-0.074	-0.001
-577.763	-83.668	-0.255	-0.082
-576.748	-200.000	0.089	-0.441
-575.733	81.573	-0.123	0.134
-574.719	-80.494	0.250	-0.083
-573.704	-200.000	-0.013	-0.204
-572.690	-200.000	0.044	0.324
-571.675	604.467	0.018	-0.046
-570.661	-125.782	-0.183	-0.028
-569.646	749.914	0.069	-0.187
-568.631	614.765	-0.085	0.215
-567.617	-32.382	-0.362	0.202
-566.602	800.000	0.068	-0.283
-565.588	29.158	-0.141	0.120
-564.573	134.720	-0.264	-0.343
-563.558	-200.000	0.005	0.271
-562.544	-144.499	0.468	0.043
-561.529	-200.000	0.029	-0.236
-560.515	128.670	0.081	-0.104
-559.500	-200.000	0.014	-0.111
-558.485	406.125	-0.163	0.345
-557.471	225.749	-0.083	-0.134
-556.456	-200.000	-0.006	0.270
-555.442	-59.144	0.072	-0.031
-554.427	-120.410	0.074	-0.013
-553.412	-85.685	-0.252	-0.078
-552.398	-200.000	0.037	0.191
-551.383	182.697	0.056	0.083
-550.369	-54.089	-0.171	-0.078
-549.354	23.043	-0.142	0.117
-548.339	270.087	-0.112	-0.197
-547.325	323.243	0.170	-0.326
-546.310	-200.000	0.020	-0.114
-545.296	800.000	0.094	0.279
-544.281	800.000	0.149	-0.470
-543.266	29.168	0.101	-0.086
-542.252	-137.769	0.340	-0.038
-541.237	345.349	0.020	-0.038
-540.223	-111.101	0.283	-0.058
-539.208	-175.748	-0.301	-0.008
-538.193	-121.255	-0.051	0.009
-537.179	70.907	0.068	-0.070
-536.164	81.294	0.095	0.102
-535.150	114.711	-0.166	-0.203
-534.135	-123.367	0.242	0.039
-533.121	12.077	-0.148	0.114
-532.106	-64.713	-0.203	-0.082
-531.091	800.000	0.091	0.368
-530.077	-200.000	-0.014	-0.135
-529.062	62.781	0.180	-0.181
-528.048	203.858	-0.072	0.111
-527.033	-58.480	0.210	-0.091
-526.018	-51.148	0.304	0.143
-525.004	-132.279	-0.088	0.011
-523.989	-200.000	-0.102	-0.481
-522.975	-20.420	0.548	0.338
-521.960	90.797	0.026	0.029
-520.945	-200.000	0.052	0.246
-519.931	72.129	0.168	-0.175
-518.916	-41.585	-0.439	0.226
-517.902	-71.458	-0.061	0.023
-516.887	800.000	-0.012	0.041
-515.872	-123.595	0.307	-0.049
-514.858	-54.466	0.095	-0.043
-513.843	103.341	-0.131	-0.154
-512.829	-74.595	0.278	-0.100
-511.814	800.000	0.045	-0.195
-510.799	-155.474	0.178	-0.012
-509.785	34.450	-0.092	-0.081
-508.770	-7.976	0.107	-0.072
-507.756	-200.000	-0.076	-0.389
-506.741	88.833	0.121	-0.135
-505.726	167.236	-0.092	0.131
-504.712	-89.033	-0.033	0.010
-503.697	417.593	0.102	-0.218
-502.683	-10.909	-0.108	-0.071
-501.668	-41.361	-0.289	-0.149
-500.653	800.000	-0.022	-0.077
-499.639	-151.273	-0.343	0.026
-498.624	-8.597	-0.032	0.021
-497.610	-200.000	0.033	0.167
-496.595	800.000	0.012	0.046
-495.581	-23.893	-0.225	0.135
-494.566	-200.000	-0.016	0.131
-493.551	-56.950	-0.304	0.134
-492.537	66.825	-0.286	-0.291
-491.522	-45.564	0.208	0.103
-490.508	-139.214	-0.694	-0.075
-489.493	-71.827	0.157	-0.058
-488.478	-63.989	-0.098	0.040
-487.464	45.984	-0.202	-0.187
-486.449	41.989	0.174	-0.158
-485.435	-26.853	0.164	-0.096
-484.420	12.599	0.224	-0.173
-483.405	22.724	-0.087	-0.071
-482.391	19.574	-0.153	0.123
-481.376	800.000	-0.019	-0.065
-480.362	-200.000	-0.024	-0.186
-479.347	-200.000	-0.058	-0.263
-478.332	-67.233	-0.171	-0.067
-477.318	91.756	-0.093	0.105
-476.303	162.137	0.121	0.169
-475.289	578.138	-0.065	0.160
-474.274	-200.000	-0.086	-0.396
-473.259	-200.000	0.053	0.248
-472.245	31.484	0.123	0.106
-471.230	800.000	-0.152	-0.436
-470.216	-73.766	-0.157	-0.057
-469.201	-121.202	0.145	-0.024
-468.186	-200.000	0.009	-0.236
-467.172	126.445	0.202	-0.255
-466.157	-200.000	0.009	-0.182
-465.143	-42.104	-0.098	-0.050
-464.128	-91.610	-0.118	0.033
-463.113	800.000	0.197	0.583
-462.099	-200.000	-0.032	0.318
-461.084	49.612	-0.040	0.037
-460.070	410.704	0.040	0.085
-459.055	4.986	-0.095	-0.070
-458.040	448.692	0.042	-0.093
-457.026	52.872	0.160	0.153
-456.011	38.209	-0.315	-0.280
-454.997	800.000	-0.040	0.141
-453.982	34.596	0.227	0.198
-452.968	327.388	0.104	0.200
-451.953	-45.424	0.080	-0.040
-450.938	800.000	-0.034	-0.131
-449.924	680.196	-0.062	0.162
-448.909	13.143	0.182	0.140
-447.895	-38.865	0.110	-0.058
-446.880	542.404	0.170	-0.404
-445.865	2.920	-0.121	0.088
-444.851	-200.000	0.016	0.195
-443.836	800.000	-0.082	-0.248
-442.822	-200.000	-0.005	-0.112
-441.807	-119.112	0.063	0.011
-440.792	114.086	0.167	0.203
-439.778	246.349	0.034	0.058
-438.763	86.971	0.081	-0.089
-437.749	27.603	0.303	-0.254
-436.734	-60.757	-0.102	0.043
-435.719	461.087	0.056	0.125
-434.705	569.349	-0.077	-0.188
-433.690	-200.000	0.001	-0.039
-432.676	-200.000	-0.008	-0.185
-431.661	130.970	0.058	0.074
-430.646	-200.000	0.016	0.154
-429.632	3.553	-0.125	-0.091
-428.617	800.000	0.048	-0.165
-427.603	49.685	0.189	0.178
-426.588	-96.719	0.331	0.087
-425.573	116.853	-0.207	0.253
-424.559	132.411	-0.055	0.071
-423.544	800.000	-0.081	-0.224
-422.530	-57.134	-0.277	0.122
-421.515	-11.687	0.035	-0.023
-420.500	-72.128	-0.230	-0.085
-419.486	-143.965	0.044	0.004
-418.471	209.954	-0.061	0.095
-417.457	257.914	0.028	0.048
-416.442	-10.764	-0.206	-0.136
-415.428	391.926	-0.106	-0.220
-414.413	21.614	0.013	0.011
-413.398	-200.000	0.027	0.209
-412.384	-200.000	0.001	-0.163
-411.369	-200.000	0.069	0.724
-410.355	474.690	-0.054	0.122
-409.340	-57.358	-0.086	0.038
-408.325	12.721	-0.104	-0.080
-407.311	90.961	0.228	-0.255
-406.296	-7.350	0.238	0.161
-405.282	-70.590	0.353	-0.133
-404.267	-103.998	0.224	-0.052
-403.252	564.154	0.150	0.363
-402.238	3.770	0.069	0.050
-401.223	192.936	-0.053	0.079
-400.209	34.552	-0.083	-0.072
-399.194	-71.671	-0.164	-0.061
-398.179	65.498	0.310	-0.313
-397.165	-35.414	0.103	-0.056
-396.150	-200.000	-0.026	0.184
-395.136	-73.900	-0.663	0.240
-394.121	-200.000	0.022	0.332
-393.106	637.697	0.173	-0.438
-392.092	89.617	-0.231	0.256
-391.077	-107.675	0.274	-0.060
-390.063	-200.000	0.031	-0.190
-389.048	-46.909	0.289	-0.141
-388.033	-86.075	0.111	-0.034
-387.019	20.564	-0.277	-0.224
-386.004	-112.101	-0.336	0.067
-384.990	63.302	-0.111	-0.111
-383.975	318.740	-0.126	-0.238
-382.960	363.086	-0.115	0.230
-381.946	-105.554	0.206	0.047
-380.931	-200.000	-0.005	0.249
-379.917	-152.095	0.166	0.012
-378.902	800.000	0.090	0.262
-377.888	763.123	0.097	0.262
-376.873	-200.000	0.012	0.255
-375.858	-120.658	0.122	0.021
-374.844	51.758	0.047	-0.045
-373.829	-200.000	0.056	-0.353
-372.815	120.644	-0.029	0.036
-371.800	-151.794	0.120	-0.009
-370.785	583.594	0.046	-0.112
-369.771	800.000	-0.057	0.173
-368.756	64.326	0.142	-0.142
-367.742	-76.648	-0.177	0.062
-366.727	-79.884	0.254	0.085
-365.712	40.201	0.126	-0.113
-364.698	-31.198	0.312	0.175
-363.683	800.000	-0.067	-0.188
-362.669	221.789	-0.186	-0.298
-361.654	-200.000	0.008	-0.081
-360.639	-200.000	0.018	0.149
-359.625	-23.990	0.051	0.030
-358.610	-200.000	-0.013	-0.275
-357.596	529.173	0.056	-0.133
-356.581	766.478	-0.099	-0.267
-355.566	-106.701	0.059	0.013
-354.552	44.900	0.146	-0.134
-353.537	-200.000	-0.035	-0.182
-352.523	-200.000	0.035	-0.204
-351.508	17.557	0.107	0.085
-350.493	127.124	-0.240	-0.302
-349.479	-53.177	-0.297	-0.135
-348.464	-58.146	-0.148	0.064
-347.450	89.323	0.220	0.244
-346.435	800.000	-0.106	0.420
-345.420	-200.000	0.032	0.147
-344.406	-200.000	0.041	-0.324
-343.391	219.099	-0.163	0.259
-342.377	-164.257	-0.226	0.010
-341.362	207.813	-0.102	-0.159
-340.348	-2.550	-0.091	-0.063
-339.333	-12.678	-0.133	0.086
-338.318	-163.393	0.277	0.013
-337.304	57.743	-0.138	0.134
-336.289	70.979	0.270	0.278
-335.275	-200.000	-0.060	0.293
-334.260	-126.757	0.255	-0.037
-333.245	195.313	-0.156	0.236
-332.231	-63.222	0.213	0.087
-331.216	268.917	-0.161	0.281
-330.202	800.000	0.139	0.487
-329.187	800.000	-0.052	0.216
-328.172	41.821	0.224	0.202
-327.158	145.311	0.205	0.273
-326.143	431.896	0.035	0.075
-325.129	414.195	0.064	0.135
-324.114	-45.965	-0.198	0.097
-323.099	30.612	0.145	0.123
-322.085	-200.000	0.039	-0.291
-321.070	172.504	-0.077	-0.109
-320.056	256.104	-0.116	-0.198
-319.041	98.569	-0.197	-0.225
-318.026	-140.975	0.154	0.016
-317.012	272.863	-0.161	0.283
-315.997	167.035	0.106	-0.149
-314.983	375.505	0.067	0.135
-313.968	1.134	-0.054	-0.038
-312.953	152.147	0.219	0.297
-311.939	422.593	0.131	0.280
-310.924	800.000	0.055	0.167
-309.910	-200.000	0.010	-0.155
-308.895	210.021	0.154	0.239
-307.880	260.584	-0.021	0.036
-306.866	339.217	-0.058	0.112
-305.851	76.307	0.326	0.343
-304.837	312.981	-0.049	-0.091
-303.822	-71.644	-0.265	0.098
-302.807	689.682	0.062	-0.161
-301.793	99.992	0.181	0.208
-300.778	8.639	0.069	0.051
-299.764	113.178	0.059	0.071
-298.749	-106.903	0.082	0.018
-297.735	800.000	-0.068	-0.204
-296.720	23.540	0.167	0.136
-295.705	210.905	-0.114	0.178
-294.691	800.000	0.055	-0.172
-293.676	61.801	-0.243	0.240
-292.662	265.625	0.064	0.111
-291.647	110.626	-0.343	-0.409
-290.632	-77.571	-0.301	-0.103
-289.618	567.286	0.066	0.160
-288.603	0.365	0.316	-0.224
-287.589	-200.000	0.007	0.097
-286.574	784.832	-0.030	-0.082
-285.559	-97.101	-0.233	-0.061
-284.545	64.986	-0.015	0.015
-283.530	-50.286	-0.126	0.059
-282.516	32.142	0.187	0.160
-281.501	-200.000	0.001	0.066
-280.486	671.132	0.094	-0.241
-279.472	-142.928	0.090	0.009
-278.457	-114.054	-0.401	-0.077
-277.443	82.735	0.178	-0.192
-276.428	800.000	0.138	-0.380
-275.413	389.743	-0.137	0.283
-274.399	-108.940	0.032	-0.007
-273.384	-59.297	0.245	-0.104
-272.370	-158.457	-0.155	0.009
-271.355	-200.000	-0.009	0.233
-270.340	-173.494	-0.254	-0.008
-269.326	-83.837	-0.108	-0.034
-268.311	213.728	0.228	-0.357
-267.297	368.739	-0.035	-0.070
-266.282	-139.483	0.054	0.006
-265.267	103.732	0.120	-0.139
-264.253	-200.000	-0.048	0.303
-263.238	165.369	-0.128	-0.179
-262.224	800.000	-0.059	-0.239
-261.209	177.884	-0.065	0.094
-260.195	-66.255	-0.156	-0.061
-259.180	800.000	0.106	0.293
-258.165	-9.486	0.290	0.192
-257.151	800.000	0.022	0.079
-256.136	800.000	0.123	-0.375
-255.122	800.000	-0.062	-0.250
-254.107	-9.474	-0.143	-0.094
-253.092	-129.630	0.318	-0.043
-252.078	800.000	0.048	0.200
-251.063	54.049	-0.198	-0.189
-250.049	197.583	0.131	-0.198
-249.034	-168.853	0.161	0.006
-248.019	284.609	-0.101	-0.181
-247.005	800.000	0.136	0.377
-245.990	-159.163	-0.021	0.001
-244.976	-200.000	-0.027	-0.253
-243.961	54.443	-0.216	0.206
-242.946	512.476	0.085	-0.197
-241.932	26.202	0.225	-0.186
-240.917	800.000	0.046	-0.131
-239.903	12.185	0.347	-0.265
-238.888	140.023	0.277	0.361
-237.873	50.197	0.131	0.123
-236.859	620.145	-0.050	0.126
-235.844	668.976	-0.029	0.075
-234.830	195.475	-0.113	-0.170
-233.815	772.110	0.055	0.148
-232.800	800.000	-0.054	-0.199
-231.786	-200.000	0.038	-0.213
-230.771	-72.931	0.081	-0.030
-229.757	61.932	-0.195	0.192
-228.742	-1.056	0.311	0.218
-227.727	-200.000	-0.066	0.296
-226.713	332.518	0.181	0.346
-225.698	-66.606	0.137	-0.054
-224.684	225.082	0.193	-0.309
-223.669	-200.000	-0.004	0.264
-222.655	18.553	0.050	-0.040
-221.640	800.000	-0.052	-0.187
-220.625	-111.151	-0.132	-0.027
-219.611	-49.327	0.276	-0.130
-218.596	1.362	0.110	-0.078
-217.582	38.157	-0.140	-0.123
-216.567	82.227	0.171	-0.184
-215.552	-200.000	0.004	-0.053
-214.538	800.000	-0.145	0.473
-213.523	253.052	-0.177	0.298
-212.509	-63.295	0.516	-0.210
-211.494	63.845	0.377	-0.375
-210.479	-200.000	0.026	-0.220
-209.465	89.973	-0.080	-0.088
-208.450	112.743	0.141	-0.169
-207.436	-200.000	-0.077	0.415
-206.421	-49.344	-0.116	-0.055
-205.406	-200.000	-0.044	-0.317
-204.392	-200.000	0.027	0.411
-203.377	-40.081	-0.397	0.204
-202.363	-167.971	-0.370	-0.014
-201.348	170.760	0.043	0.061
-200.333	144.579	-0.200	0.264
-199.319	-200.000	-0.008	-0.087
-198.304	648.302	-0.118	-0.299
-197.290	800.000	0.043	-0.144
-196.275	235.284	0.059	0.096
-195.260	44.731	0.147	-0.134
-194.246	-145.785	0.448	-0.039
-193.231	-81.963	-0.312	-0.101
-192.217	-59.781	-0.369	0.156
-191.202	-200.000	-0.014	0.108
-190.187	-200.000	0.039	0.344
-189.173	-61.258	-0.160	0.067
-188.158	193.513	0.076	0.114
-187.144	-37.104	-0.037	-0.020
-186.129	-200.000	-0.006	-0.127
-185.114	-63.029	0.243	0.099
-184.100	77.087	0.236	-0.248
-183.085	-200.000	0.009	0.271
-182.071	19.617	-0.151	-0.120
-181.056	-122.663	0.252	0.040
-180.042	-104.029	-0.309	-0.071
-179.027	-50.765	0.109	0.051
-178.012	-200.000	-0.111	-0.500
-176.998	-200.000	0.012	-0.183
-175.983	-124.111	-0.491	0.076
-174.969	-10.310	-0.180	0.118
-173.954	-107.164	0.471	-0.103
-172.939	152.711	0.126	-0.170
-171.925	-78.434	-0.408	0.138
-170.910	-153.635	-0.322	0.022
-169.896	90.155	-0.071	-0.078
-168.881	79.917	-0.181	-0.192
-167.866	212.345	-0.211	-0.329
-166.852	133.430	0.051	-0.066
-165.837	-98.021	-0.195	-0.050
-164.823	728.736	-0.031	0.081
-163.808	192.406	-0.126	-0.188
-162.793	-200.000	0.062	0.310
-161.779	14.953	0.095	-0.073
-160.764	800.000	-0.044	-0.170
-159.750	540.266	-0.020	0.048
-158.735	137.588	0.109	0.141
-157.720	7.606	0.402	0.297
-156.706	-15.658	-0.232	0.146
-155.691	83.582	-0.047	0.050
-154.677	-200.000	-0.000	-0.062
-153.662	-200.000	0.010	0.055
-152.647	212.386	0.066	0.102
-151.633	-200.000	0.017	0.198
-150.618	45.703	-0.205	0.187
-149.604	9.109	0.126	0.094
-148.589	-66.617	0.182	-0.071
-147.574	139.410	0.172	-0.223
-146.560	-77.961	0.203	-0.069
-145.545	-33.224	-0.045	-0.025
-144.531	-120.505	-0.375	-0.063
-143.516	-110.149	-0.348	0.072
-142.502	-76.451	-0.443	-0.154
-141.487	-200.000	0.002	-0.179
-140.472	-116.259	-0.224	0.041
-139.458	-86.892	-0.258	0.078
-138.443	-4.912	0.153	0.104
-137.429	-44.191	-0.221	0.109
-136.414	-200.000	0.009	-0.048
-135.399	319.127	0.041	-0.077
-134.385	-66.496	0.274	0.107
-133.370	125.473	-0.042	-0.052
-132.356	47.488	0.032	0.030
-131.341	800.000	0.093	0.278
-130.326	403.521	0.192	0.399
-129.312	88.204	-0.031	0.034
-128.297	25.696	-0.156	-0.128
-127.283	-200.000	0.028	0.185
-126.268	158.756	-0.110	-0.151
-125.253	-89.824	-0.221	0.064
-124.239	800.000	0.086	0.257
-123.224	22.500	0.053	-0.043
-122.210	58.920	-0.171	-0.166
-121.195	2.370	0.171	-0.122
-120.180	49.895	0.202	-0.188
