DTS Sentinel unit serial number:	SN413079Multiplexer serial number:	ORYXHardware model number:	OX4-SRSoftware version number:	ORYX F/W v4.00 Oryx Data Collector v3.7.2.0data status	okinstallation	princeton_trtdifferential loss correction	single-endedforward channel	channel 1reverse channel	N/Adate	2019/09/19time	01:10:35forward acquisition time	60.00reverse acquisition time	0.00gamma	496.2192k internal	0.2344k external	0.2344temperature offset calibration	1.0019default loss term (dB/km)	0.3790temperature slope calibration	1.0000multiplexer offset coefficient	1.0000multiplexer slope coefficient	1.0000fibre end	0.00T internal ref (°C)	21.81T ext. ref 1 (°C)	0.70T ext. ref 2 (°C)	15.35length (m)	temperature (°C)	Stokes	anti-Stokes-747.200	-200.000	0.021	0.155
-746.185	15.389	-0.255	0.200
-745.171	-200.000	-0.011	0.207
-744.156	800.000	-0.115	0.344
-743.142	-71.588	0.133	0.050
-742.127	135.299	-0.200	0.261
-741.112	-55.006	0.272	0.122
-740.098	-133.004	-0.418	0.053
-739.083	27.987	-0.254	0.214
-738.069	-16.967	-0.179	0.113
-737.054	-102.873	0.170	-0.041
-736.039	56.761	-0.167	-0.163
-735.025	157.789	0.167	-0.231
-734.010	645.260	-0.028	-0.072
-732.996	473.312	0.043	-0.096
-731.981	54.905	0.112	-0.108
-730.966	41.603	-0.272	-0.247
-729.952	-200.000	-0.031	-0.358
-728.937	78.902	-0.292	-0.312
-727.923	1.647	-0.262	-0.189
-726.908	115.449	-0.198	-0.242
-725.894	-110.278	-0.167	0.035
-724.879	201.339	-0.069	0.106
-723.864	-107.872	0.307	0.067
-722.850	106.856	-0.261	0.310
-721.835	800.000	-0.044	0.189
-720.821	512.107	0.089	-0.206
-719.806	-155.874	-0.180	-0.011
-718.791	-124.502	-0.073	-0.011
-717.777	800.000	0.140	0.449
-716.762	-1.758	-0.126	-0.088
-715.748	-200.000	0.004	-0.039
-714.733	-103.899	-0.272	-0.063
-713.718	-200.000	-0.037	0.163
-712.704	-200.000	0.037	-0.169
-711.689	7.244	-0.246	-0.184
-710.675	55.384	0.296	0.287
-709.660	111.502	0.072	-0.087
-708.645	800.000	0.060	-0.195
-707.631	-5.888	-0.041	0.028
-706.616	57.307	-0.063	-0.062
-705.602	19.640	-0.174	-0.140
-704.587	59.308	-0.212	-0.209
-703.572	-200.000	-0.003	0.105
-702.558	-52.553	0.249	-0.115
-701.543	-200.000	-0.006	0.238
-700.529	-200.000	-0.006	-0.279
-699.514	214.355	0.182	-0.287
-698.499	-200.000	0.390	-0.000
-697.485	0.486	-0.341	0.243
-696.470	-0.570	-0.161	0.114
-695.456	-200.000	0.010	0.299
-694.441	-63.533	-0.514	0.211
-693.426	186.879	-0.112	0.167
-692.412	616.030	0.024	0.059
-691.397	-200.000	-0.022	0.162
-690.383	41.150	-0.314	-0.284
-689.368	-119.883	-0.157	-0.027
-688.354	-197.055	-0.049	-0.000
-687.339	-44.067	-0.053	-0.027
-686.324	184.414	-0.150	0.222
-685.310	163.338	-0.188	-0.263
-684.295	-200.000	0.016	0.310
-683.281	76.060	0.106	-0.112
-682.266	-62.743	-0.522	-0.216
-681.251	340.402	-0.079	0.154
-680.237	-30.486	-0.383	-0.217
-679.222	-158.134	-0.063	0.004
-678.208	800.000	-0.082	-0.279
-677.193	-57.133	0.097	-0.043
-676.178	-122.741	0.182	0.029
-675.164	-104.247	0.254	0.059
-674.149	-200.000	-0.016	0.216
-673.135	556.159	0.065	0.157
-672.120	-200.000	0.001	0.086
-671.105	800.000	0.063	-0.274
-670.091	-31.525	0.423	-0.237
-669.076	-0.832	-0.402	-0.284
-668.062	255.491	0.197	-0.336
-667.047	170.610	0.132	0.188
-666.032	150.863	0.006	0.008
-665.018	42.154	0.041	0.037
-664.003	800.000	0.045	-0.153
-662.989	42.191	0.152	-0.137
-661.974	-50.604	-0.375	0.176
-660.959	43.255	-0.045	0.041
-659.945	-92.275	0.124	-0.035
-658.930	270.998	0.046	-0.081
-657.916	-5.857	0.140	-0.095
-656.901	-38.671	-0.320	0.169
-655.886	97.123	-0.231	0.264
-654.872	117.617	0.163	-0.200
-653.857	-200.000	0.017	-0.321
-652.843	421.373	0.058	-0.124
-651.828	-200.000	0.086	0.376
-650.814	-117.338	-0.291	-0.053
-649.799	-88.362	-0.104	0.031
-648.784	-86.913	-0.197	0.060
-647.770	501.646	-0.153	-0.351
-646.755	149.013	0.026	-0.035
-645.741	-108.930	-0.298	0.063
-644.726	87.590	-0.218	0.241
-643.711	53.440	-0.242	0.231
-642.697	-39.628	-0.255	0.133
-641.682	23.210	0.243	0.199
-640.668	800.000	0.055	-0.203
-639.653	4.979	-0.219	0.160
-638.638	667.664	0.070	-0.181
-637.624	-93.556	0.176	0.048
-636.609	-170.126	0.268	0.009
-635.595	89.996	0.138	-0.154
-634.580	177.479	0.202	-0.294
-633.565	800.000	0.010	0.039
-632.551	212.518	-0.226	0.355
-631.536	-44.529	-0.338	0.168
-630.522	800.000	0.051	0.163
-629.507	-67.903	-0.127	-0.049
-628.492	-95.683	0.148	0.039
-627.478	20.257	0.325	0.261
-626.463	352.436	0.074	-0.147
-625.449	154.770	0.264	0.361
-624.434	16.251	-0.499	0.392
-623.419	-137.289	0.098	0.011
-622.405	-200.000	0.008	-0.059
-621.390	5.122	-0.302	0.222
-620.376	447.979	-0.194	-0.426
-619.361	-4.635	-0.082	0.056
-618.346	148.233	0.164	-0.220
-617.332	1.160	-0.078	-0.056
-616.317	-46.649	-0.123	-0.060
-615.303	-44.464	0.307	-0.153
-614.288	127.754	0.163	0.207
-613.273	210.338	-0.061	0.095
-612.259	-200.000	-0.014	-0.133
-611.244	-87.317	-0.296	0.089
-610.230	666.503	0.058	0.148
-609.215	146.677	-0.201	0.269
-608.201	-12.104	-0.357	0.232
-607.186	129.592	0.212	-0.270
-606.171	51.865	0.283	0.268
-605.157	-19.051	-0.035	-0.022
-604.142	-159.709	-0.498	-0.027
-603.128	-200.000	0.013	-0.075
-602.113	-200.000	0.046	0.252
-601.098	-95.860	0.058	0.015
-600.084	-147.680	-0.185	0.015
-599.069	-11.350	-0.149	0.098
-598.055	-29.474	0.174	-0.099
-597.040	-200.000	0.004	0.240
-596.025	-132.274	0.446	0.057
-595.011	206.049	-0.097	-0.150
-593.996	44.723	-0.058	-0.053
-592.982	61.361	-0.172	0.170
-591.967	-43.887	0.122	0.061
-590.952	-89.191	0.125	-0.037
-589.938	-200.000	-0.004	0.086
-588.923	-200.000	0.009	-0.066
-587.909	47.689	0.151	-0.140
-586.894	31.574	-0.330	0.282
-585.879	-200.000	0.009	0.181
-584.865	-104.533	0.405	-0.093
-583.850	800.000	0.087	-0.329
-582.836	67.936	-0.194	-0.197
-581.821	-200.000	0.001	0.047
-580.806	89.692	0.044	-0.049
-579.792	-62.580	-0.140	-0.058
-578.777	800.000	0.058	-0.169
-577.763	139.939	-0.162	-0.212
-576.748	-68.671	0.115	0.044
-575.733	-200.000	-0.044	0.607
-574.719	10.609	0.145	-0.110
-573.704	21.297	0.222	-0.179
-572.690	-22.097	-0.084	-0.051
-571.675	93.023	0.117	0.131
-570.661	-54.252	-0.216	-0.097
-569.646	51.979	-0.036	-0.034
-568.631	-200.000	-0.036	0.208
-567.617	94.966	0.068	-0.077
-566.602	188.679	-0.037	-0.055
-565.588	800.000	-0.093	-0.287
-564.573	-64.606	-0.133	-0.054
-563.558	-110.266	0.092	0.019
-562.544	-118.448	0.297	0.052
-561.529	-103.224	-0.133	0.031
-560.515	-23.351	-0.124	0.074
-559.500	255.283	-0.199	-0.339
-558.485	-200.000	-0.010	-0.102
-557.471	-110.307	-0.300	0.062
-556.456	-200.000	-0.064	-0.412
-555.442	424.344	0.089	0.190
-554.427	-151.246	0.305	0.023
-553.412	800.000	0.056	-0.167
-552.398	21.352	-0.263	0.212
-551.383	82.318	-0.131	0.142
-550.369	800.000	0.054	0.171
-549.354	86.583	0.076	0.083
-548.339	-91.092	0.096	-0.027
-547.325	-200.000	0.022	-0.477
-546.310	12.148	0.102	-0.078
-545.296	-162.161	0.205	0.010
-544.281	-200.000	0.006	-0.109
-543.266	-74.731	-0.089	0.032
-542.252	-30.355	0.103	-0.058
-541.237	800.000	-0.072	0.291
-540.223	-200.000	0.083	0.468
-539.208	8.801	-0.197	-0.147
-538.193	-101.279	0.285	-0.069
-537.179	10.226	-0.190	0.143
-536.164	800.000	-0.146	0.408
-535.150	117.863	-0.199	-0.243
-534.135	-46.108	0.229	-0.112
-533.121	-200.000	-0.049	0.305
-532.106	-200.000	-0.043	0.198
-531.091	273.161	0.140	-0.246
-530.077	-200.000	-0.067	-0.336
-529.062	-20.035	-0.105	-0.064
-528.048	13.613	0.211	-0.163
-527.033	-162.057	0.303	0.015
-526.018	143.322	0.112	-0.148
-525.004	256.456	0.016	0.028
-523.989	176.909	-0.019	-0.027
-522.975	-170.109	-0.232	-0.008
-521.960	154.302	-0.040	-0.055
-520.945	103.401	0.007	0.008
-519.931	-200.000	0.000	0.015
-518.916	-17.597	-0.285	-0.178
-517.902	-200.000	0.005	0.304
-516.887	560.336	0.129	-0.308
-515.872	-132.101	-0.206	0.027
-514.858	800.000	-0.043	-0.120
-513.843	304.625	-0.359	-0.661
-512.829	43.785	0.240	-0.218
-511.814	-200.000	0.004	0.027
-510.799	70.212	0.161	-0.165
-509.785	-26.071	0.229	-0.134
-508.770	-27.318	-0.038	-0.022
-507.756	67.334	0.031	0.031
-506.741	12.175	0.229	0.175
-505.726	655.596	0.060	0.153
-504.712	81.651	0.112	0.120
-503.697	-20.034	0.202	-0.124
-502.683	800.000	0.033	-0.107
-501.668	-200.000	-0.004	-0.019
-500.653	124.151	-0.188	-0.234
-499.639	779.886	-0.104	-0.281
-498.624	285.610	-0.174	-0.312
-497.610	800.000	0.061	0.207
-496.595	-98.934	0.350	-0.088
-495.581	-200.000	0.026	-0.298
-494.566	-200.000	0.015	0.172
-493.551	-106.540	-0.263	0.058
-492.537	800.000	0.030	-0.102
-491.522	479.477	0.130	0.293
-490.508	-71.637	0.092	-0.034
-489.493	-200.000	0.059	-0.429
-488.478	-23.323	-0.209	0.125
-487.464	-166.223	-0.240	0.010
-486.449	800.000	0.042	0.173
-485.435	120.345	0.156	0.192
-484.420	-17.795	-0.097	-0.060
-483.405	396.410	-0.054	-0.112
-482.391	-147.112	-0.207	-0.018
-481.376	672.810	0.105	-0.269
-480.362	-100.798	0.160	-0.039
-479.347	4.310	-0.218	0.158
-478.332	-34.117	-0.093	0.051
-477.318	-94.253	-0.286	-0.077
-476.303	-46.862	0.237	0.115
-475.289	-87.078	0.211	-0.064
-474.274	-200.000	-0.025	-0.205
-473.259	-63.749	-0.213	0.086
-472.245	20.154	-0.177	-0.142
-471.230	-92.925	0.066	-0.018
-470.216	-50.283	0.180	0.084
-469.201	-200.000	-0.011	0.139
-468.186	-16.865	-0.122	-0.076
-467.172	800.000	-0.076	0.215
-466.157	6.592	0.046	0.034
-465.143	-8.651	-0.154	-0.102
-464.128	231.737	-0.304	-0.494
-463.113	-33.389	-0.112	-0.061
-462.099	505.254	-0.069	0.158
-461.084	223.909	-0.064	-0.102
-460.070	-194.845	-0.177	-0.001
-459.055	-200.000	0.028	0.226
-458.040	682.799	-0.057	-0.146
-457.026	-13.744	0.156	0.100
-456.011	-200.000	-0.010	-0.078
-454.997	216.395	0.041	-0.065
-453.982	226.193	-0.077	0.124
-452.968	22.313	-0.073	0.059
-451.953	19.989	-0.297	0.237
-450.938	-129.473	-0.180	0.025
-449.924	800.000	0.124	0.466
-448.909	0.366	-0.208	0.147
-447.895	-33.477	-0.252	0.138
-446.880	-148.778	-0.126	-0.010
-445.865	207.034	0.144	-0.221
-444.851	43.015	-0.278	-0.251
-443.836	35.306	-0.076	-0.066
-442.822	-146.554	0.093	-0.008
-441.807	800.000	-0.040	0.119
-440.792	55.343	-0.033	0.032
-439.778	267.959	-0.167	-0.289
-438.763	-195.703	-0.101	0.001
-437.749	-200.000	-0.016	0.299
-436.734	-120.712	0.249	0.042
-435.719	102.748	-0.249	0.288
-434.705	-200.000	0.021	0.253
-433.690	-46.493	-0.117	0.057
-432.676	-63.360	-0.227	-0.092
-431.661	-200.000	-0.002	0.195
-430.646	-175.009	-0.055	-0.002
-429.632	36.190	0.180	-0.157
-428.617	-200.000	-0.008	-0.038
-427.603	800.000	0.083	0.260
-426.588	800.000	-0.143	0.402
-425.573	290.951	0.073	-0.131
-424.559	-114.147	0.072	-0.014
-423.544	-32.144	-0.235	0.130
-422.530	21.039	-0.113	-0.091
-421.515	-19.306	-0.284	0.174
-420.500	-200.000	-0.008	0.128
-419.486	-24.148	0.134	-0.079
-418.471	800.000	0.066	-0.192
-417.457	-38.836	0.168	-0.088
-416.442	172.488	0.143	-0.204
-415.428	-200.000	-0.043	0.488
-414.413	-109.955	-0.509	-0.105
-413.398	160.503	0.080	-0.110
-412.384	315.622	0.021	0.039
-411.369	42.289	0.244	-0.219
-410.355	719.742	0.017	-0.045
-409.340	-169.993	-0.076	-0.003
-408.325	179.857	-0.101	-0.146
-407.311	800.000	-0.030	0.118
-406.296	-155.943	0.256	-0.016
-405.282	-94.918	-0.088	-0.024
-404.267	591.175	0.077	-0.187
-403.252	-200.000	-0.023	-0.289
-402.238	-200.000	-0.003	-0.020
-401.223	800.000	0.069	0.296
-400.209	362.943	-0.082	0.163
-399.194	-9.728	0.218	-0.143
-398.179	290.062	0.183	-0.328
-397.165	149.754	-0.331	-0.443
-396.150	-53.287	-0.189	-0.086
-395.136	125.673	0.119	0.148
-394.121	456.902	-0.176	-0.386
-393.106	23.919	0.049	0.040
-392.092	-122.911	-0.218	-0.035
-391.077	-200.000	0.000	-0.175
-390.063	800.000	0.020	-0.058
-389.048	465.871	-0.027	-0.061
-388.033	503.274	-0.110	0.252
-387.019	65.988	0.131	0.131
-386.004	398.178	-0.091	0.187
-384.990	298.926	-0.142	0.258
-383.975	382.711	-0.153	-0.310
-382.960	381.386	-0.142	-0.288
-381.946	800.000	-0.047	-0.144
-380.931	-200.000	-0.040	0.191
-379.917	719.103	0.057	-0.148
-378.902	49.699	0.077	-0.072
-377.888	-163.215	0.125	0.006
-376.873	-11.357	0.177	-0.115
-375.858	-130.620	0.164	0.022
-374.844	133.706	0.204	0.260
-373.829	-92.094	0.112	0.031
-372.815	-200.000	-0.018	0.099
-371.800	444.428	0.157	0.340
-370.785	172.366	-0.051	-0.073
-369.771	578.736	0.025	-0.060
-368.756	-101.146	-0.231	-0.056
-367.742	227.021	0.294	-0.472
-366.727	12.399	-0.066	-0.050
-365.712	-65.018	-0.228	-0.091
-364.698	-21.903	0.193	-0.116
-363.683	7.234	0.168	0.124
-362.669	-72.948	0.155	-0.056
-361.654	194.581	-0.120	-0.180
-360.639	79.642	0.184	-0.195
-359.625	-67.424	0.273	0.106
-358.610	88.723	0.162	-0.178
-357.596	-86.497	-0.416	-0.126
-356.581	-9.459	0.058	-0.038
-355.566	-36.463	-0.248	-0.132
-354.552	-200.000	0.039	0.402
-353.537	176.349	-0.064	0.092
-352.523	-122.555	0.207	-0.033
-351.508	254.560	0.129	0.217
-350.493	-82.438	0.249	-0.080
-349.479	-103.969	0.194	0.045
-348.464	800.000	-0.055	-0.227
-347.450	-134.721	-0.253	0.030
-346.435	-52.868	-0.330	-0.150
-345.420	-200.000	0.018	-0.097
-344.406	800.000	-0.026	0.080
-343.391	800.000	0.027	0.108
-342.377	128.152	0.073	0.092
-341.362	-200.000	0.026	0.435
-340.348	-162.506	0.268	0.013
-339.333	-29.233	0.227	-0.128
-338.318	260.702	0.148	-0.252
-337.304	1.460	0.484	0.343
-336.289	309.041	-0.137	-0.252
-335.275	-111.253	-0.237	0.048
-334.260	800.000	0.054	-0.162
-333.245	800.000	-0.128	-0.397
-332.231	-104.347	0.161	-0.037
-331.216	5.200	0.166	0.121
-330.202	35.337	0.154	0.133
-329.187	58.507	0.157	0.152
-328.172	3.087	-0.128	-0.092
-327.158	800.000	0.056	0.239
-326.143	-93.885	0.175	-0.048
-325.129	800.000	-0.034	0.105
-324.114	-200.000	0.053	0.403
-323.099	7.306	0.027	-0.020
-322.085	-200.000	-0.053	0.344
-321.070	800.000	0.043	-0.119
-320.056	159.559	-0.117	-0.160
-319.041	222.193	-0.080	0.126
-318.026	-1.888	0.220	0.152
-317.012	531.504	-0.056	0.130
-315.997	800.000	0.103	-0.295
-314.983	-200.000	0.022	-0.120
-313.968	331.686	-0.041	-0.078
-312.953	-92.471	0.231	-0.064
-311.939	-13.904	0.020	-0.013
-310.924	9.889	0.308	0.230
-309.910	-200.000	0.077	0.359
-308.895	-200.000	0.002	0.094
-307.880	800.000	0.056	-0.235
-306.866	-138.038	0.238	0.026
-305.851	-27.687	-0.215	-0.122
-304.837	-79.437	-0.232	0.077
-303.822	-200.000	-0.014	0.330
-302.807	69.777	-0.227	-0.230
-301.793	800.000	0.054	-0.201
-300.778	-47.767	0.020	-0.009
-299.764	145.390	0.094	-0.124
-298.749	-52.139	0.197	0.090
-297.735	800.000	-0.051	-0.178
-296.720	-200.000	-0.007	-0.044
-295.705	800.000	-0.089	0.299
-294.691	-139.020	0.183	-0.019
-293.676	30.997	-0.236	0.199
-292.662	800.000	0.060	0.193
-291.647	-21.131	0.260	0.156
-290.632	-200.000	0.016	0.396
-289.618	103.606	-0.164	0.190
-288.603	-200.000	-0.031	0.141
-287.589	396.175	0.009	0.018
-286.574	-200.000	0.012	-0.733
-285.559	301.484	-0.132	-0.239
-284.545	446.634	-0.097	-0.210
-283.530	35.092	-0.200	-0.172
-282.516	-121.395	0.206	-0.034
-281.501	185.745	-0.183	-0.267
-280.486	800.000	-0.070	0.237
-279.472	-33.241	0.147	0.080
-278.457	461.807	0.016	-0.034
-277.443	-200.000	-0.028	-0.210
-276.428	185.243	0.078	0.114
-275.413	-58.852	0.039	0.016
-274.399	-96.792	0.670	-0.173
-273.384	-0.678	-0.116	0.081
-272.370	-36.664	0.122	0.065
-271.355	-125.639	0.205	-0.031
-270.340	27.497	-0.145	-0.120
-269.326	-38.470	-0.190	-0.099
-268.311	-70.318	0.193	-0.072
-267.297	-200.000	0.002	0.341
-266.282	800.000	-0.072	-0.240
-265.267	119.800	-0.195	0.238
-264.253	252.762	-0.113	-0.189
-263.238	-34.770	0.141	0.076
-262.224	-200.000	0.009	0.191
-261.209	-70.419	0.217	0.081
-260.195	-128.209	0.249	-0.035
-259.180	800.000	0.019	-0.060
-258.165	-200.000	0.004	0.280
-257.151	-200.000	0.009	-0.239
-256.136	800.000	-0.021	-0.066
-255.122	-87.159	0.224	0.067
-254.107	-25.645	0.293	-0.170
-253.092	-115.047	-0.381	-0.071
-252.078	-44.374	-0.180	-0.089
-251.063	-86.778	-0.150	0.045
-250.049	340.168	0.031	-0.060
-249.034	445.346	-0.055	0.118
-248.019	97.586	-0.049	0.055
-247.005	17.049	-0.181	0.141
-245.990	88.792	0.051	-0.056
-244.976	-70.302	0.123	0.046
-243.961	146.968	0.075	-0.099
-242.946	59.248	-0.187	0.181
-241.932	58.669	0.269	0.260
-240.917	-200.000	0.043	0.190
-239.903	221.596	0.079	0.125
-238.888	-200.000	-0.012	-0.109
-237.873	-110.638	0.110	0.022
-236.859	-83.067	0.568	0.179
-235.844	-69.814	0.221	-0.083
-234.830	-200.000	0.003	0.134
-233.815	470.665	0.118	-0.260
-232.800	800.000	-0.097	-0.323
-231.786	-137.810	-0.134	0.015
-230.771	-64.821	0.132	-0.052
-229.757	19.522	-0.119	0.094
-228.742	-136.163	0.403	0.046
-227.727	175.759	0.155	0.220
-226.713	187.025	0.110	-0.160
-225.698	-200.000	-0.003	0.251
-224.684	536.945	0.061	0.143
-223.669	-200.000	-0.006	-0.049
-222.655	-187.811	-0.418	-0.005
-221.640	532.518	-0.013	0.031
-220.625	-200.000	0.011	-0.050
-219.611	-46.706	0.104	0.050
-218.596	-76.266	-0.322	0.111
-217.582	-168.540	-0.289	0.011
-216.567	-59.749	0.144	-0.061
-215.552	800.000	-0.020	0.061
-214.538	-79.688	-0.217	-0.072
-213.523	-29.712	0.150	-0.084
-212.509	-161.727	0.205	-0.010
-211.494	-138.828	-0.242	-0.026
-210.479	262.102	0.088	0.149
-209.465	-200.000	0.003	-0.082
-208.450	-161.684	0.296	0.015
-207.436	19.516	-0.022	0.017
-206.421	15.974	0.267	-0.206
-205.406	362.143	-0.085	0.167
-204.392	89.202	-0.103	0.113
-203.377	-71.796	0.289	0.106
-202.363	118.066	0.140	0.169
-201.348	20.629	0.080	-0.063
-200.333	-200.000	-0.051	0.310
-199.319	-131.857	-0.076	-0.010
-198.304	58.150	-0.057	0.054
-197.290	-46.105	-0.520	-0.251
-196.275	230.936	0.245	0.393
-195.260	-79.419	-0.278	-0.092
-194.246	77.611	-0.168	0.176
-193.231	-44.348	-0.213	0.104
-192.217	759.542	0.037	0.099
-191.202	-77.711	-0.091	0.031
-190.187	108.814	-0.183	-0.214
-189.173	800.000	-0.116	-0.329
-188.158	-47.129	-0.292	-0.139
-187.144	81.712	0.146	-0.154
-186.129	800.000	-0.056	-0.195
-185.114	395.888	-0.041	-0.084
-184.100	-93.714	-0.304	0.082
-183.085	-200.000	-0.023	0.225
-182.071	64.225	0.183	-0.180
-181.056	-50.147	0.211	0.098
-180.042	-59.865	0.284	-0.119
-179.027	150.445	-0.048	-0.064
-178.012	2.651	-0.111	0.079
-176.998	-77.026	0.132	0.045
-175.983	-23.167	0.102	-0.060
-174.969	-200.000	0.055	-0.395
-173.954	800.000	0.105	-0.421
-172.939	-100.500	0.392	-0.095
-171.925	-200.000	-0.008	0.223
-170.910	73.241	0.191	0.196
-169.896	619.194	-0.101	0.249
-168.881	650.107	0.031	-0.077
-167.866	800.000	0.076	-0.244
-166.852	382.032	-0.039	0.079
-165.837	800.000	0.020	0.066
-164.823	-80.164	0.183	0.060
-163.808	20.445	-0.094	-0.075
-162.793	-181.554	-0.142	-0.003
-161.779	-38.063	0.323	0.168
-160.764	401.416	-0.123	0.252
-159.750	-80.171	0.238	-0.078
-158.735	800.000	0.113	0.364
-157.720	-7.994	0.191	0.126
-156.706	-153.396	-0.258	-0.018
-155.691	-38.422	0.089	0.046
-154.677	-65.430	0.169	-0.066
-153.662	-158.872	-0.139	-0.008
-152.647	-71.746	-0.470	-0.171
-151.633	-59.204	-0.084	-0.035
-150.618	-162.569	-0.320	0.015
-149.604	247.411	0.102	-0.169
-148.589	654.881	0.030	-0.076
-147.574	49.361	0.085	-0.078
-146.560	59.720	-0.201	0.194
-145.545	800.000	-0.042	-0.174
-144.531	1.535	-0.240	0.169
-143.516	-56.460	-0.027	0.012
-142.502	91.752	-0.023	-0.026
-141.487	603.008	-0.114	-0.276
-140.472	-19.903	0.358	0.216
-139.458	16.040	-0.135	0.104
-138.443	-118.796	-0.284	-0.049
-137.429	800.000	-0.044	-0.151
-136.414	-103.721	0.233	0.053
-135.399	-167.443	0.208	0.008
-134.385	-140.020	0.158	0.016
-133.370	11.625	-0.105	-0.079
-132.356	-123.291	-0.112	-0.018
-131.341	800.000	-0.048	-0.163
-130.326	-200.000	0.008	-0.269
-129.312	83.279	-0.116	-0.123
-128.297	-159.556	0.214	-0.012
-127.283	-200.000	0.011	0.074
-126.268	-127.422	-0.105	-0.015
-125.253	694.972	-0.147	-0.377
-124.239	232.493	-0.078	-0.125
-123.224	-184.177	0.201	0.003
-122.210	-75.744	0.142	-0.049
-121.195	-200.000	0.036	0.169
