DTS Sentinel unit serial number:	SN413079Multiplexer serial number:	ORYXHardware model number:	OX4-SRSoftware version number:	ORYX F/W v4.00 Oryx Data Collector v3.7.2.0data status	okinstallation	princeton_trtdifferential loss correction	single-endedforward channel	channel 1reverse channel	N/Adate	2019/09/14time	05:42:35forward acquisition time	60.00reverse acquisition time	0.00gamma	496.2192k internal	0.2334k external	0.2334temperature offset calibration	1.0080default loss term (dB/km)	0.3790temperature slope calibration	1.0000multiplexer offset coefficient	1.0000multiplexer slope coefficient	1.0000fibre end	0.00T internal ref (°C)	26.94T ext. ref 1 (°C)	3.39T ext. ref 2 (°C)	21.68length (m)	temperature (°C)	Stokes	anti-Stokes-747.200	-46.747	-0.154	0.076
-746.185	-72.563	0.114	0.042
-745.171	-25.716	-0.215	-0.128
-744.156	-171.551	-0.125	-0.004
-743.142	-58.325	-0.100	-0.044
-742.127	69.178	-0.182	0.188
-741.112	161.327	-0.055	0.077
-740.098	-138.138	-0.207	-0.023
-739.083	5.421	0.147	0.109
-738.069	-159.838	0.153	-0.008
-737.054	72.636	0.191	0.200
-736.039	-169.657	-0.200	-0.007
-735.025	-73.514	0.156	-0.057
-734.010	-137.599	-0.173	-0.020
-732.996	94.239	-0.211	-0.241
-731.981	-6.090	-0.084	0.058
-730.966	-200.000	0.029	-0.205
-729.952	800.000	0.116	-0.396
-728.937	-128.133	-0.048	-0.007
-727.923	-200.000	-0.092	-0.422
-726.908	-200.000	0.007	-0.284
-725.894	-114.249	0.360	0.070
-724.879	611.772	-0.104	-0.262
-723.864	22.333	-0.381	0.313
-722.850	-200.000	0.012	0.171
-721.835	800.000	-0.054	-0.178
-720.821	800.000	-0.087	-0.329
-719.806	40.100	-0.350	-0.316
-718.791	143.290	0.305	-0.407
-717.777	-47.749	0.155	0.075
-716.762	285.296	-0.250	0.452
-715.748	-58.158	0.085	-0.037
-714.733	-81.458	0.207	0.069
-713.718	57.613	-0.135	-0.133
-712.704	-7.504	0.379	-0.257
-711.689	599.467	0.092	-0.229
-710.675	-200.000	-0.035	-0.202
-709.660	-139.864	0.274	0.029
-708.645	71.306	0.181	-0.189
-707.631	630.850	0.097	-0.247
-706.616	-200.000	-0.058	-0.437
-705.602	-181.533	-0.243	0.005
-704.587	-89.711	-0.145	-0.043
-703.572	301.546	-0.052	0.097
-702.558	-200.000	-0.038	-0.431
-701.543	-133.962	-0.188	-0.023
-700.529	-200.000	0.005	-0.091
-699.514	-200.000	-0.020	-0.351
-698.499	-120.343	0.224	-0.038
-697.485	-200.000	-0.013	0.198
-696.470	739.541	-0.070	-0.188
-695.456	258.953	-0.137	0.238
-694.441	-22.953	-0.181	-0.109
-693.426	4.898	0.200	-0.147
-692.412	-101.780	-0.128	-0.031
-691.397	800.000	-0.097	-0.277
-690.383	270.093	0.088	0.155
-689.368	-200.000	-0.026	0.166
-688.354	-200.000	-0.021	0.129
-687.339	-189.805	-0.403	-0.005
-686.324	-138.599	-0.123	-0.014
-685.310	-145.647	0.182	-0.016
-684.295	800.000	0.014	-0.042
-683.281	-200.000	0.019	-0.342
-682.266	101.552	-0.189	0.221
-681.251	-14.255	0.081	-0.052
-680.237	-86.716	-0.180	0.055
-679.222	-25.203	0.067	0.040
-678.208	402.794	0.187	0.395
-677.193	-73.540	0.328	0.120
-676.178	-102.624	-0.203	0.049
-675.164	-95.982	0.111	-0.030
-674.149	12.719	-0.366	0.283
-673.135	497.398	0.103	0.237
-672.120	75.609	0.057	-0.060
-671.105	800.000	0.093	0.278
-670.091	-66.127	-0.336	0.134
-669.076	62.922	-0.447	-0.448
-668.062	-105.352	0.282	-0.064
-667.047	288.068	0.194	0.351
-666.032	800.000	0.036	0.124
-665.018	592.508	0.142	-0.352
-664.003	493.776	0.075	0.172
-662.989	-68.555	-0.107	-0.042
-661.974	-65.368	-0.227	-0.091
-660.959	72.726	0.066	-0.069
-659.945	35.819	-0.179	-0.158
-658.930	-55.540	0.393	-0.177
-657.916	800.000	-0.130	-0.460
-656.901	-58.026	0.156	-0.068
-655.886	-86.532	-0.235	0.072
-654.872	21.489	0.150	0.122
-653.857	7.504	0.219	0.164
-652.843	-131.817	-0.202	-0.026
-651.828	9.841	0.146	-0.111
-650.814	-200.000	-0.329	-0.002
-649.799	345.090	0.125	0.247
-648.784	-128.426	-0.294	-0.042
-647.770	644.336	0.049	0.125
-646.755	-200.000	-0.013	-0.172
-645.741	-158.621	0.182	0.011
-644.726	-41.930	-0.268	0.138
-643.711	193.451	-0.088	0.133
-642.697	-98.016	-0.129	-0.033
-641.682	259.964	0.143	0.248
-640.668	-34.883	-0.051	0.028
-639.653	490.659	0.052	-0.120
-638.638	-69.950	-0.102	-0.039
-637.624	-107.381	0.027	-0.006
-636.609	201.521	0.124	-0.192
-635.595	-200.000	0.003	0.023
-634.580	-200.000	-0.043	-0.323
-633.565	68.665	0.180	-0.185
-632.551	531.715	0.062	0.146
-631.536	-200.000	0.012	0.155
-630.522	-200.000	-0.004	-0.135
-629.507	-116.962	-0.116	0.021
-628.492	75.632	0.158	0.167
-627.478	115.256	0.086	0.105
-626.463	143.005	-0.078	0.104
-625.449	-56.898	-0.190	-0.084
-624.434	-177.044	-0.095	0.002
-623.419	686.451	0.113	-0.296
-622.405	800.000	0.056	-0.221
-621.390	-200.000	0.016	0.164
-620.376	48.924	0.336	0.316
-619.361	-42.812	0.198	0.100
-618.346	-54.499	0.157	0.071
-617.332	-200.000	-0.031	0.223
-616.317	-86.172	-0.157	-0.048
-615.303	129.286	-0.089	-0.114
-614.288	-104.736	-0.155	-0.036
-613.273	800.000	-0.106	0.295
-612.259	-130.535	-0.055	-0.007
-611.244	572.813	0.053	0.129
-610.230	162.381	0.284	0.398
-609.215	-200.000	-0.008	0.186
-608.201	800.000	0.021	0.070
-607.186	-15.298	0.188	-0.120
-606.171	-51.136	-0.154	-0.072
-605.157	66.921	0.174	0.178
-604.142	-134.824	-0.206	-0.025
-603.128	800.000	0.151	0.431
-602.113	358.028	0.075	0.150
-601.098	40.017	0.126	-0.113
-600.084	-200.000	-0.024	-0.291
-599.069	24.588	-0.208	0.172
-598.055	-109.095	-0.433	0.092
-597.040	-97.572	0.082	0.021
-596.025	-43.676	-0.299	-0.151
-595.011	194.597	-0.116	0.175
-593.996	-37.575	0.273	-0.146
-592.982	-154.562	-0.276	-0.018
-591.967	66.921	-0.058	0.059
-590.952	-200.000	0.036	-0.171
-589.938	-200.000	-0.023	0.113
-588.923	-57.317	-0.228	-0.100
-587.909	689.448	-0.044	-0.114
-586.894	40.428	-0.148	0.133
-585.879	-36.648	-0.335	-0.180
-584.865	135.054	-0.164	-0.213
-583.850	173.064	-0.321	0.462
-582.836	458.722	-0.149	-0.330
-581.821	-44.891	0.118	-0.059
-580.806	419.510	-0.075	-0.161
-579.792	-200.000	-0.034	0.156
-578.777	-200.000	0.059	0.277
-577.763	800.000	-0.027	-0.107
-576.748	-4.115	0.087	-0.060
-575.733	145.845	-0.021	-0.027
-574.719	614.463	0.114	-0.284
-573.704	30.833	0.153	-0.131
-572.690	100.821	-0.235	0.273
-571.675	-106.409	-0.170	-0.038
-570.661	-2.847	-0.247	-0.172
-569.646	58.732	-0.177	0.174
-568.631	74.047	0.263	0.276
-567.617	37.942	0.133	0.118
-566.602	-49.462	0.119	0.057
-565.588	-119.069	-0.012	0.002
-564.573	-21.127	-0.175	0.107
-563.558	262.161	0.101	-0.175
-562.544	800.000	0.071	0.246
-561.529	800.000	0.036	-0.099
-560.515	-94.229	-0.281	-0.077
-559.500	179.102	0.104	-0.152
-558.485	2.543	0.058	0.042
-557.471	-60.860	-0.250	-0.105
-556.456	-105.249	0.291	-0.066
-555.442	102.749	0.159	0.185
-554.427	776.476	0.069	0.188
-553.412	800.000	-0.175	0.498
-552.398	-200.000	-0.027	0.139
-551.383	-62.382	0.324	-0.134
-550.369	-200.000	0.038	-0.359
-549.354	174.633	-0.048	0.069
-548.339	37.272	0.146	0.129
-547.325	44.450	-0.140	-0.128
-546.310	-42.575	0.102	0.052
-545.296	85.130	0.084	-0.092
-544.281	-180.420	-0.309	-0.006
-543.266	233.748	-0.143	-0.235
-542.252	10.740	0.029	-0.022
-541.237	-28.752	-0.083	0.047
-540.223	-120.543	-0.038	-0.006
-539.208	43.178	-0.182	0.165
-538.193	-200.000	0.050	-0.222
-537.179	107.119	0.074	0.088
-536.164	-138.209	-0.298	0.033
-535.150	145.810	-0.090	-0.120
-534.135	800.000	0.089	0.247
-533.121	-114.696	0.262	0.050
-532.106	380.984	-0.170	-0.347
-531.091	-15.864	-0.100	0.063
-530.077	439.251	0.083	-0.181
-529.062	-19.428	-0.182	0.112
-528.048	-200.000	0.009	0.157
-527.033	-200.000	0.008	0.039
-526.018	-34.195	0.182	0.100
-525.004	51.636	0.346	0.328
-523.989	623.711	0.006	0.016
-522.975	-4.665	-0.181	-0.124
-521.960	50.580	0.079	-0.074
-520.945	-60.348	-0.131	-0.055
-519.931	252.707	0.133	-0.226
-518.916	-200.000	-0.009	-0.299
-517.902	-200.000	-0.007	-0.380
-516.887	392.151	0.121	-0.251
-515.872	-115.387	0.152	-0.029
-514.858	260.210	-0.139	-0.239
-513.843	730.347	-0.108	-0.288
-512.829	85.877	-0.149	0.163
-511.814	-104.797	0.179	0.041
-510.799	64.182	-0.186	0.186
-509.785	800.000	-0.052	0.179
-508.770	-41.188	0.104	0.053
-507.756	-12.209	0.101	0.066
-506.741	-200.000	-0.046	0.213
-505.726	115.731	0.051	0.062
-504.712	-114.422	0.245	0.047
-503.697	-80.282	0.145	0.048
-502.683	143.676	0.121	0.161
-501.668	-107.001	-0.379	-0.083
-500.653	128.793	-0.233	-0.296
-499.639	-105.588	-0.191	0.043
-498.624	-132.149	0.297	-0.038
-497.610	112.841	-0.073	-0.089
-496.595	432.554	0.085	0.182
-495.581	-99.852	-0.163	0.041
-494.566	321.793	0.098	0.186
-493.551	800.000	0.025	-0.099
-492.537	-132.160	0.226	0.029
-491.522	-63.734	0.155	0.063
-490.508	619.920	-0.110	0.275
-489.493	800.000	-0.135	0.439
-488.478	3.267	-0.194	0.141
-487.464	39.041	0.276	-0.245
-486.449	-110.785	-0.262	-0.054
-485.435	164.479	0.088	0.124
-484.420	-200.000	0.024	0.109
-483.405	-200.000	-0.073	-0.463
-482.391	800.000	-0.103	0.358
-481.376	57.288	0.045	0.044
-480.362	-9.189	-0.108	-0.072
-479.347	181.010	-0.120	-0.175
-478.332	-107.114	0.176	-0.039
-477.318	-200.000	-0.009	0.180
-476.303	-2.226	-0.321	-0.224
-475.289	-200.000	0.000	0.116
-474.274	-25.201	0.447	0.263
-473.259	-110.276	-0.409	0.085
-472.245	-54.249	-0.068	-0.031
-471.230	115.697	-0.101	-0.123
-470.216	-200.000	0.005	0.037
-469.201	-33.573	-0.037	0.020
-468.186	275.607	-0.062	0.109
-467.172	-140.862	-0.268	0.027
-466.157	84.207	-0.116	0.126
-465.143	-200.000	-0.026	-0.305
-464.128	800.000	-0.087	0.291
-463.113	-73.040	0.180	-0.066
-462.099	-160.612	0.232	-0.012
-461.084	28.579	-0.120	-0.101
-460.070	-47.038	-0.206	-0.100
-459.055	-200.000	-0.006	0.280
-458.040	-58.224	-0.063	0.027
-457.026	41.108	0.308	-0.277
-456.011	393.373	0.106	-0.218
-454.997	46.174	-0.257	-0.237
-453.982	-168.528	0.172	-0.007
-452.968	278.731	0.173	0.306
-451.953	-107.914	0.069	-0.015
-450.938	-200.000	0.011	-0.068
-449.924	-51.445	-0.133	-0.062
-448.909	496.288	-0.032	-0.074
-447.895	800.000	-0.051	-0.166
-446.880	-99.200	0.257	0.065
-445.865	18.121	0.293	0.232
-444.851	-200.000	-0.043	0.408
-443.836	800.000	0.003	-0.012
-442.822	440.512	0.127	-0.276
-441.807	57.686	-0.150	-0.146
-440.792	234.586	-0.100	-0.163
-439.778	800.000	-0.160	0.479
-438.763	-48.710	0.311	0.148
-437.749	-23.649	-0.088	0.053
-436.734	-11.054	-0.086	-0.056
-435.719	-0.825	0.204	-0.143
-434.705	-50.936	0.091	-0.043
-433.690	2.881	-0.095	-0.068
-432.676	-3.347	-0.170	0.117
-431.661	-200.000	-0.006	-0.056
-430.646	-200.000	0.015	0.153
-429.632	-34.282	0.075	0.041
-428.617	125.340	-0.081	-0.102
-427.603	380.377	-0.053	0.107
-426.588	-122.768	-0.410	0.066
-425.573	607.411	0.072	-0.178
-424.559	-200.000	-0.016	0.099
-423.544	-200.000	-0.040	-0.315
-422.530	384.354	0.078	0.159
-421.515	-200.000	-0.032	0.161
-420.500	-40.362	-0.068	0.035
-419.486	-200.000	-0.011	0.078
-418.471	-200.000	-0.026	-0.130
-417.457	63.954	-0.198	-0.197
-416.442	-200.000	-0.034	0.220
-415.428	800.000	-0.061	-0.170
-414.413	-164.372	-0.200	-0.009
-413.398	301.164	0.083	0.153
-412.384	-74.604	-0.103	-0.037
-411.369	148.591	0.145	0.195
-410.355	800.000	-0.144	0.401
-409.340	45.713	-0.111	-0.102
-408.325	187.158	-0.033	-0.049
-407.311	-200.000	-0.000	0.388
-406.296	580.267	0.065	0.159
-405.282	752.310	-0.043	-0.116
-404.267	3.737	0.102	-0.074
-403.252	-200.000	0.008	0.154
-402.238	83.084	0.056	0.061
-401.223	-132.339	0.368	0.047
-400.209	800.000	0.104	-0.312
-399.194	-98.264	-0.156	0.040
-398.179	-88.728	0.469	0.138
-397.165	800.000	-0.075	0.310
-396.150	-200.000	0.048	-0.311
-395.136	30.621	0.220	0.187
-394.121	-69.227	-0.325	0.124
-393.106	-200.000	-0.006	-0.212
-392.092	87.451	-0.236	-0.258
-391.077	800.000	0.083	0.355
-390.063	-59.037	-0.250	0.107
-389.048	800.000	0.085	-0.250
-388.033	-113.582	-0.014	0.003
-387.019	27.853	0.345	0.288
-386.004	118.696	0.257	-0.314
-384.990	-53.060	-0.232	-0.106
-383.975	-200.000	-0.014	-0.117
-382.960	-200.000	0.029	0.183
-381.946	800.000	0.072	0.203
-380.931	202.475	0.219	0.335
-379.917	205.946	0.083	-0.129
-378.902	-119.875	-0.373	0.063
-377.888	-84.820	0.156	-0.049
-376.873	81.549	0.125	-0.134
-375.858	163.235	0.096	-0.134
-374.844	-44.245	0.062	-0.031
-373.829	362.871	-0.045	-0.090
-372.815	576.790	-0.103	-0.249
-371.800	-200.000	0.025	0.194
-370.785	154.633	-0.101	0.137
-369.771	-200.000	-0.036	0.254
-368.756	-57.809	-0.210	0.091
-367.742	-41.100	-0.068	0.035
-366.727	-200.000	0.019	0.210
-365.712	464.509	0.130	0.287
-364.698	12.696	-0.166	0.127
-363.683	-53.885	0.191	-0.086
-362.669	-82.217	0.293	0.094
-361.654	800.000	-0.080	-0.340
-360.639	6.733	-0.214	-0.157
-359.625	-200.000	0.015	-0.109
-358.610	-50.418	-0.155	-0.073
-357.596	800.000	-0.080	-0.254
-356.581	-200.000	0.021	0.217
-355.566	800.000	-0.024	0.065
-354.552	36.437	0.091	0.079
-353.537	800.000	-0.018	-0.054
-352.523	430.547	-0.089	-0.191
-351.508	-141.031	0.146	0.015
-350.493	-122.954	-0.102	0.016
-349.479	361.949	-0.092	-0.182
-348.464	-133.741	-0.366	0.045
-347.450	-112.152	0.176	-0.035
-346.435	251.671	-0.146	0.246
-345.420	-200.000	-0.122	0.001
-344.406	-30.752	0.193	0.108
-343.391	-25.866	-0.374	0.218
-342.377	800.000	-0.093	-0.349
-341.362	-65.706	-0.262	0.104
-340.348	-93.929	0.212	-0.058
-339.333	-34.951	0.178	-0.096
-338.318	-200.000	0.032	0.315
-337.304	436.451	-0.093	0.200
-336.289	38.795	0.237	-0.209
-335.275	3.756	-0.161	-0.116
-334.260	-23.343	0.157	0.093
-333.245	245.356	0.158	0.263
-332.231	-143.894	0.398	-0.037
-331.216	-7.976	0.196	0.131
-330.202	-200.000	-0.009	0.078
-329.187	46.422	0.271	-0.249
-328.172	-37.172	-0.263	0.139
-327.158	800.000	0.087	-0.237
-326.143	376.221	0.105	-0.213
-325.129	-200.000	0.035	-0.297
-324.114	198.120	-0.068	0.103
-323.099	-59.720	-0.104	-0.044
-322.085	-137.613	0.392	-0.044
-321.070	-200.000	0.044	-0.222
-320.056	-31.487	0.148	-0.082
-319.041	-133.600	-0.083	-0.010
-318.026	-200.000	0.018	-0.111
-317.012	475.395	-0.064	0.143
-315.997	-200.000	-0.045	-0.223
-314.983	-200.000	0.002	-0.114
-313.968	318.882	-0.210	-0.394
-312.953	34.729	-0.173	-0.150
-311.939	656.609	0.124	-0.315
-310.924	-53.487	0.185	-0.084
-309.910	-10.148	-0.124	-0.082
-308.895	-131.846	-0.342	0.044
-307.880	-132.948	-0.105	0.013
-306.866	-109.701	0.158	-0.033
-305.851	103.511	0.179	-0.208
-304.837	364.535	0.142	0.282
-303.822	44.243	0.088	0.080
-302.807	-79.557	-0.082	0.027
-301.793	-200.000	-0.008	0.409
-300.778	148.091	0.031	-0.041
-299.764	754.478	0.055	-0.146
-298.749	212.484	-0.107	0.166
-297.735	-48.659	-0.155	-0.073
-296.720	-18.360	0.224	0.138
-295.705	-33.645	0.071	0.039
-294.691	0.670	-0.112	-0.079
-293.676	399.953	0.264	-0.546
-292.662	800.000	0.066	-0.271
-291.647	-66.738	-0.405	0.158
-290.632	-200.000	-0.004	0.237
-289.618	-124.472	0.346	0.053
-288.603	-128.641	0.070	0.010
-287.589	-67.168	-0.174	-0.068
-286.574	-200.000	0.038	-0.358
-285.559	212.188	0.063	-0.099
-284.545	348.210	-0.051	0.100
-283.530	-200.000	-0.004	-0.262
-282.516	800.000	-0.087	0.302
-281.501	284.510	-0.076	-0.135
-280.486	-200.000	-0.011	0.369
-279.472	-75.608	0.254	-0.089
-278.457	-200.000	-0.068	0.328
-277.443	96.797	-0.069	-0.078
-276.428	73.469	0.167	0.172
-275.413	11.319	-0.197	0.149
-274.399	424.538	-0.097	0.206
-273.384	-59.305	-0.316	-0.134
-272.370	6.723	0.195	-0.143
-271.355	-8.488	0.140	0.093
-270.340	224.960	-0.130	0.208
-269.326	-61.252	0.094	-0.039
-268.311	-13.723	0.120	0.077
-267.297	-67.870	-0.230	0.089
-266.282	-157.702	0.282	0.017
-265.267	-96.837	-0.057	0.015
-264.253	-200.000	-0.008	-0.236
-263.238	34.614	-0.068	0.058
-262.224	-36.464	0.002	0.001
-261.209	800.000	-0.022	-0.092
-260.195	-1.621	-0.247	-0.172
-259.180	-81.003	-0.067	0.022
-258.165	-73.298	0.202	-0.073
-257.151	144.966	-0.196	0.259
-256.136	259.818	0.207	-0.352
-255.122	-79.179	0.212	-0.071
-254.107	133.635	0.089	-0.113
-253.092	-97.154	0.635	-0.164
-252.078	150.400	-0.082	-0.110
-251.063	210.609	0.103	-0.160
-250.049	54.394	0.172	-0.163
-249.034	727.662	-0.042	0.111
-248.019	-200.000	0.064	-0.365
-247.005	-87.064	0.322	0.097
-245.990	-44.562	0.163	0.080
-244.976	83.275	-0.052	-0.056
-243.961	-200.000	0.086	0.399
-242.946	36.779	0.140	-0.122
-241.932	-200.000	0.006	0.145
-240.917	-147.213	0.304	-0.026
-239.903	309.122	-0.108	0.199
-238.888	-157.610	0.156	-0.009
-237.873	-118.762	0.185	0.032
-236.859	401.052	-0.045	0.093
-235.844	46.892	0.073	-0.067
-234.830	-11.277	-0.171	-0.111
-233.815	-49.614	0.110	0.051
-232.800	-92.203	0.502	-0.139
-231.786	-200.000	0.001	0.063
-230.771	281.562	-0.027	0.048
-229.757	-88.629	-0.354	-0.104
-228.742	52.116	0.130	-0.122
-227.727	-75.769	-0.270	0.094
-226.713	-200.000	-0.028	-0.218
-225.698	-200.000	-0.024	-0.285
-224.684	-63.634	0.263	-0.106
-223.669	179.635	-0.163	0.235
-222.655	-130.504	0.110	-0.015
-221.640	-200.000	0.055	0.334
-220.625	-32.217	-0.262	0.144
-219.611	278.769	0.049	-0.087
-218.596	-16.080	0.196	-0.123
-217.582	352.580	0.192	-0.374
-216.567	-2.858	0.087	0.060
-215.552	-46.885	-0.102	-0.049
-214.538	147.861	0.089	-0.117
-213.523	68.188	-0.087	0.087
-212.509	100.991	0.135	-0.155
-211.494	-58.801	-0.197	-0.084
-210.479	-137.764	-0.098	-0.011
-209.465	-62.388	0.208	-0.085
-208.450	-161.473	0.047	0.002
-207.436	473.473	-0.081	-0.180
-206.421	68.016	-0.211	-0.213
-205.406	-180.206	-0.257	0.005
-204.392	304.890	-0.107	-0.195
-203.377	60.759	-0.188	-0.183
-202.363	-200.000	0.001	0.054
-201.348	-22.277	0.045	-0.027
-200.333	193.028	-0.139	-0.207
-199.319	-158.787	0.251	-0.014
-198.304	-157.928	0.176	0.010
-197.290	35.640	-0.265	-0.229
-196.275	287.545	0.127	0.226
-195.260	-94.630	-0.326	-0.087
-194.246	-92.174	-0.060	-0.017
-193.231	-13.568	0.159	0.101
-192.217	800.000	-0.021	-0.087
-191.202	-80.229	0.271	0.089
-190.187	-24.584	-0.098	0.057
-189.173	-68.572	0.287	-0.109
-188.158	-14.290	-0.075	0.048
-187.144	-74.959	0.213	-0.075
-186.129	205.642	0.109	-0.167
-185.114	87.368	-0.172	0.187
-184.100	-57.841	0.203	-0.087
-183.085	-124.856	0.173	-0.026
-182.071	-141.416	0.071	-0.007
-181.056	230.863	-0.135	0.217
-180.042	298.371	-0.054	0.098
-179.027	-200.000	0.006	-0.058
-178.012	599.970	-0.149	0.363
-176.998	-200.000	0.031	0.201
-175.983	218.521	0.069	-0.108
-174.969	-57.968	-0.126	-0.054
-173.954	15.897	0.329	0.255
-172.939	-200.000	-0.018	0.107
-171.925	16.506	0.108	0.084
-170.910	13.623	-0.145	-0.110
-169.896	-85.087	0.223	-0.069
-168.881	800.000	0.061	0.256
-167.866	6.973	-0.125	-0.091
-166.852	-2.277	0.357	-0.246
-165.837	-200.000	-0.037	-0.274
-164.823	26.309	0.099	-0.081
-163.808	-64.152	-0.071	0.028
-162.793	-200.000	0.040	-0.458
-161.779	-11.802	-0.207	0.134
-160.764	-89.124	-0.324	-0.094
-159.750	255.720	0.080	-0.134
-158.735	800.000	-0.010	0.042
-157.720	-200.000	-0.017	-0.168
-156.706	306.194	-0.068	0.125
-155.691	39.586	-0.135	0.119
-154.677	237.526	-0.063	0.102
-153.662	72.936	-0.275	-0.282
-152.647	35.934	-0.060	0.052
-151.633	47.868	-0.183	0.168
-150.618	-200.000	0.004	-0.124
-149.604	176.327	-0.059	-0.084
-148.589	485.608	0.097	0.218
-147.574	-83.266	0.134	0.042
-146.560	424.011	-0.022	0.046
-145.545	-119.172	-0.463	-0.079
-144.531	-200.000	0.010	0.232
-143.516	-88.145	-0.138	0.041
-142.502	800.000	-0.063	0.256
-141.487	84.952	0.167	-0.179
-140.472	800.000	-0.011	-0.039
-139.458	800.000	-0.005	-0.020
-138.443	-51.843	-0.157	0.072
-137.429	-23.209	0.108	0.063
-136.414	-6.109	0.126	-0.085
-135.399	-200.000	-0.018	-0.223
-134.385	58.214	-0.102	0.098
-133.370	157.721	0.182	-0.248
-132.356	110.599	-0.129	-0.152
-131.341	56.237	-0.070	-0.067
-130.326	178.990	0.136	0.194
-129.312	-200.000	0.016	-0.167
-128.297	-200.000	0.050	0.296
-127.283	229.167	0.041	0.066
-126.268	64.420	-0.157	0.155
-125.253	492.793	0.154	0.347
-124.239	7.969	0.075	0.055
-123.224	-85.034	0.034	0.010
-122.210	-97.696	0.456	-0.116
-121.195	27.691	0.248	0.204
