DTS Sentinel unit serial number:	SN413079Multiplexer serial number:	ORYXHardware model number:	OX4-SRSoftware version number:	ORYX F/W v4.00 Oryx Data Collector v3.7.2.0data status	okinstallation	princeton_trtdifferential loss correction	single-endedforward channel	channel 1reverse channel	N/Adate	2019/09/14time	01:38:35forward acquisition time	60.00reverse acquisition time	0.00gamma	496.2192k internal	0.2336k external	0.2336temperature offset calibration	1.0074default loss term (dB/km)	0.3790temperature slope calibration	1.0000multiplexer offset coefficient	1.0000multiplexer slope coefficient	1.0000fibre end	0.00T internal ref (°C)	26.44T ext. ref 1 (°C)	3.19T ext. ref 2 (°C)	21.50length (m)	temperature (°C)	Stokes	anti-Stokes-747.200	-107.416	0.336	-0.074
-746.185	-169.636	-0.233	0.008
-745.171	-161.316	0.091	0.005
-744.156	-200.000	0.039	0.368
-743.142	47.929	-0.124	-0.116
-742.127	270.642	-0.138	0.243
-741.112	-47.687	-0.119	-0.058
-740.098	210.212	-0.023	-0.036
-739.083	12.707	-0.084	0.065
-738.069	-132.356	-0.266	0.034
-737.054	-149.639	-0.169	-0.013
-736.039	729.246	-0.085	-0.229
-735.025	-129.354	0.310	0.043
-734.010	-46.957	-0.151	-0.074
-732.996	30.011	-0.189	0.162
-731.981	800.000	-0.031	-0.098
-730.966	-28.018	-0.081	-0.047
-729.952	800.000	0.017	0.072
-728.937	800.000	-0.021	-0.064
-727.923	800.000	0.060	-0.229
-726.908	-110.119	0.177	0.037
-725.894	-98.091	-0.381	0.098
-724.879	800.000	-0.062	-0.260
-723.864	-200.000	-0.019	-0.180
-722.850	201.605	0.049	0.076
-721.835	-200.000	-0.014	0.116
-720.821	186.205	0.105	-0.156
-719.806	-200.000	-0.043	0.229
-718.791	173.409	-0.081	-0.117
-717.777	55.857	0.306	0.297
-716.762	-86.125	-0.217	0.067
-715.748	-42.261	0.231	-0.118
-714.733	2.445	0.030	0.022
-713.718	800.000	-0.081	-0.324
-712.704	-18.502	-0.239	-0.150
-711.689	72.785	-0.068	-0.071
-710.675	-159.155	-0.173	0.010
-709.660	-200.000	-0.010	-0.255
-708.645	13.620	-0.194	-0.151
-707.631	217.719	-0.169	-0.271
-706.616	633.244	0.101	0.256
-705.602	63.403	0.118	-0.119
-704.587	-78.247	-0.091	-0.031
-703.572	-116.510	0.395	0.073
-702.558	71.591	-0.170	-0.177
-701.543	-2.222	0.174	-0.123
-700.529	-72.444	0.169	-0.063
-699.514	79.105	0.219	-0.235
-698.499	227.357	-0.126	0.205
-697.485	-95.731	-0.269	0.072
-696.470	61.367	0.089	0.088
-695.456	82.221	-0.182	-0.198
-694.441	-200.000	-0.013	-0.415
-693.426	-74.305	0.244	-0.088
-692.412	-200.000	0.054	-0.240
-691.397	-107.320	-0.036	0.008
-690.383	-150.366	0.121	-0.009
-689.368	289.411	0.049	0.088
-688.354	-164.010	0.150	0.007
-687.339	-168.630	0.297	0.011
-686.324	15.322	-0.187	0.147
-685.310	-7.808	0.022	0.015
-684.295	-137.108	-0.457	-0.052
-683.281	158.236	0.103	0.143
-682.266	747.719	0.020	0.053
-681.251	-200.000	-0.032	-0.169
-680.237	-78.090	-0.070	-0.024
-679.222	-152.602	0.330	0.024
-678.208	16.531	0.062	-0.049
-677.193	-87.516	-0.223	0.068
-676.178	800.000	-0.083	-0.281
-675.164	-32.798	-0.112	-0.062
-674.149	-20.400	0.192	0.118
-673.135	212.599	0.113	0.178
-672.120	-149.277	0.251	0.020
-671.105	-200.000	0.019	0.286
-670.091	-25.149	-0.066	0.039
-669.076	-184.278	0.089	-0.001
-668.062	-200.000	-0.055	-0.275
-667.047	800.000	0.084	-0.270
-666.032	218.916	-0.142	-0.228
-665.018	-49.594	0.108	0.052
-664.003	46.333	-0.172	-0.160
-662.989	227.331	0.087	-0.142
-661.974	-89.384	0.205	-0.060
-660.959	75.187	-0.095	-0.100
-659.945	-78.219	0.182	0.062
-658.930	95.623	-0.169	-0.193
-657.916	-200.000	0.039	0.244
-656.901	-200.000	-0.038	-0.268
-655.886	800.000	0.009	0.032
-654.872	1.168	0.187	-0.134
-653.857	15.143	-0.227	-0.178
-652.843	-112.919	0.314	0.062
-651.828	9.765	0.141	0.107
-650.814	-200.000	-0.003	-0.155
-649.799	-102.112	0.205	-0.049
-648.784	142.431	-0.304	-0.404
-647.770	-146.412	-0.389	-0.034
-646.755	374.382	0.109	-0.222
-645.741	90.325	-0.292	0.327
-644.726	300.941	0.027	0.050
-643.711	106.967	0.094	0.111
-642.697	202.086	0.090	-0.139
-641.682	301.816	-0.009	-0.017
-640.668	-43.475	0.201	0.101
-639.653	-164.631	-0.184	0.008
-638.638	-200.000	-0.019	0.196
-637.624	-18.902	0.105	-0.066
-636.609	-200.000	-0.040	-0.385
-635.595	-9.046	0.452	-0.302
-634.580	-200.000	-0.027	0.193
-633.565	-200.000	-0.042	0.365
-632.551	189.407	-0.063	0.094
-631.536	-200.000	0.036	0.377
-630.522	61.393	0.105	0.105
-629.507	73.656	0.087	0.091
-628.492	-200.000	0.462	-0.002
-627.478	-121.514	-0.194	-0.032
-626.463	328.965	-0.083	-0.159
-625.449	-162.761	-0.374	0.018
-624.434	-11.454	-0.306	0.201
-623.419	-114.345	-0.271	-0.052
-622.405	7.194	0.095	-0.071
-621.390	39.795	-0.126	0.113
-620.376	86.540	-0.239	-0.264
-619.361	-47.985	0.081	0.039
-618.346	7.729	0.187	0.140
-617.332	-200.000	-0.006	0.193
-616.317	0.175	-0.177	0.126
-615.303	19.597	0.185	-0.149
-614.288	-57.329	0.284	0.125
-613.273	800.000	-0.062	-0.180
-612.259	-200.000	-0.029	0.148
-611.244	279.374	-0.070	0.125
-610.230	-150.926	-0.285	-0.022
-609.215	-147.146	-0.176	0.015
-608.201	169.069	-0.101	-0.145
-607.186	-14.737	0.078	-0.050
-606.171	19.719	-0.176	0.141
-605.157	-200.000	0.017	-0.075
-604.142	21.715	-0.310	0.252
-603.128	0.676	0.296	0.212
-602.113	-111.328	-0.038	0.008
-601.098	146.706	0.088	0.118
-600.084	-58.543	0.481	-0.209
-599.069	57.267	-0.068	0.066
-598.055	-40.406	0.104	-0.054
-597.040	-87.926	-0.144	0.043
-596.025	-181.583	-0.338	0.007
-595.011	-69.071	0.057	-0.022
-593.996	669.707	-0.110	0.284
-592.982	-200.000	-0.023	0.238
-591.967	94.338	-0.141	0.160
-590.952	-200.000	-0.012	0.201
-589.938	33.786	0.176	0.153
-588.923	11.588	-0.057	0.044
-587.909	48.122	-0.070	0.065
-586.894	13.973	0.322	-0.250
-585.879	151.246	-0.101	-0.138
-584.865	325.333	-0.169	-0.322
-583.850	-88.780	-0.152	-0.045
-582.836	103.894	-0.029	-0.034
-581.821	-200.000	-0.022	-0.183
-580.806	12.678	-0.184	-0.142
-579.792	-73.725	0.304	0.110
-578.777	-40.459	-0.128	0.066
-577.763	-75.362	0.242	-0.086
-576.748	-144.883	-0.353	-0.032
-575.733	-200.000	0.003	0.047
-574.719	-200.000	-0.051	-0.300
-573.704	-8.631	0.370	-0.248
-572.690	-32.057	-0.130	-0.072
-571.675	-118.365	-0.085	-0.015
-570.661	344.656	0.044	-0.085
-569.646	-147.324	0.070	-0.006
-568.631	800.000	-0.137	0.392
-567.617	800.000	-0.054	-0.178
-566.602	-200.000	-0.020	-0.129
-565.588	749.207	0.067	-0.179
-564.573	-174.951	0.112	0.003
-563.558	505.671	-0.134	-0.309
-562.544	-46.210	-0.368	0.180
-561.529	-60.398	-0.375	0.159
-560.515	-200.000	-0.036	-0.161
-559.500	586.332	0.058	-0.142
-558.485	448.327	0.041	-0.089
-557.471	-200.000	0.036	-0.175
-556.456	-104.636	-0.101	-0.023
-555.442	800.000	0.049	0.156
-554.427	-53.211	0.232	0.106
-553.412	402.539	0.092	-0.193
-552.398	-87.772	0.211	-0.063
-551.383	44.957	0.215	-0.198
-550.369	-15.515	-0.196	-0.125
-549.354	74.966	0.244	0.256
-548.339	-140.417	-0.257	-0.027
-547.325	-131.655	-0.087	-0.011
-546.310	160.630	-0.055	-0.077
-545.296	29.215	0.235	0.199
-544.281	-198.154	-0.179	0.001
-543.266	-200.000	0.022	0.195
-542.252	-200.000	-0.005	0.059
-541.237	61.440	0.197	-0.195
-540.223	-60.961	0.180	-0.076
-539.208	216.259	0.240	0.380
-538.193	83.928	-0.079	0.086
-537.179	800.000	-0.116	-0.347
-536.164	9.885	0.057	-0.043
-535.150	-82.565	0.136	-0.044
-534.135	-28.657	-0.099	-0.057
-533.121	69.931	-0.265	0.272
-532.106	25.722	0.214	-0.178
-531.091	766.584	0.052	-0.142
-530.077	-38.357	-0.107	-0.057
-529.062	-52.821	0.214	-0.098
-528.048	-24.091	0.116	-0.069
-527.033	353.388	0.166	-0.328
-526.018	430.232	-0.186	-0.401
-525.004	38.543	-0.354	-0.314
-523.989	-200.000	-0.011	0.133
-522.975	-14.455	0.291	-0.186
-521.960	145.535	-0.009	-0.013
-520.945	708.433	-0.048	0.126
-519.931	-94.537	-0.080	0.022
-518.916	-200.000	0.006	-0.193
-517.902	-137.375	0.330	0.037
-516.887	-200.000	-0.098	-0.000
-515.872	717.582	-0.065	-0.172
-514.858	-63.697	0.417	-0.170
-513.843	-136.439	-0.227	0.026
-512.829	-99.418	0.484	-0.121
-511.814	-50.989	-0.229	0.107
-510.799	209.013	-0.076	-0.119
-509.785	180.961	-0.095	0.139
-508.770	104.069	0.081	-0.095
-507.756	112.920	-0.264	-0.319
-506.741	311.917	0.032	-0.060
-505.726	-153.883	-0.229	0.016
-504.712	-44.485	0.206	-0.102
-503.697	-200.000	0.021	0.243
-502.683	556.082	0.110	0.264
-501.668	-71.505	-0.310	0.115
-500.653	367.325	0.091	-0.182
-499.639	220.481	-0.172	0.275
-498.624	-129.731	0.144	-0.020
-497.610	-17.736	-0.371	-0.231
-496.595	148.212	-0.127	0.170
-495.581	-101.906	-0.304	0.073
-494.566	237.015	0.162	-0.266
-493.551	-46.682	0.053	0.026
-492.537	379.941	0.043	-0.088
-491.522	800.000	-0.071	0.214
-490.508	-156.910	0.280	0.017
-489.493	-57.510	0.197	-0.086
-488.478	92.574	0.136	0.153
-487.464	47.568	-0.071	0.065
-486.449	-31.806	-0.058	0.032
-485.435	181.837	0.095	0.139
-484.420	-200.000	-0.033	-0.178
-483.405	732.354	0.019	0.049
-482.391	800.000	0.083	0.288
-481.376	-64.703	0.365	-0.147
-480.362	-122.387	-0.217	-0.035
-479.347	800.000	-0.098	-0.346
-478.332	6.581	-0.207	-0.153
-477.318	-4.930	-0.068	-0.046
-476.303	659.291	-0.115	-0.294
-475.289	-167.864	-0.254	-0.010
-474.274	19.040	0.056	-0.045
-473.259	-149.671	-0.381	0.030
-472.245	285.685	0.006	-0.010
-471.230	501.646	0.025	0.057
-470.216	-19.756	-0.067	-0.041
-469.201	800.000	-0.059	-0.162
-468.186	-66.897	-0.054	0.021
-467.172	-200.000	-0.008	0.080
-466.157	433.804	0.170	-0.367
-465.143	80.577	0.082	-0.088
-464.128	296.376	-0.091	0.166
-463.113	-108.233	0.191	-0.041
-462.099	-200.000	-0.017	-0.194
-461.084	-200.000	0.188	0.001
-460.070	4.470	-0.103	-0.075
-459.055	-200.000	0.003	-0.157
-458.040	56.886	0.166	-0.161
-457.026	-12.668	-0.385	-0.249
-456.011	-39.782	-0.302	0.156
-454.997	800.000	0.015	0.057
-453.982	-81.579	-0.358	0.117
-452.968	10.907	0.218	-0.165
-451.953	-90.981	-0.229	0.065
-450.938	-200.000	-0.004	-0.090
-449.924	-181.772	0.093	-0.002
-448.909	188.899	0.125	0.185
-447.895	-20.803	0.250	0.152
-446.880	396.866	0.025	-0.052
-445.865	-200.000	-0.244	0.000
-444.851	-200.000	0.009	0.169
-443.836	-79.811	-0.060	0.020
-442.822	142.848	-0.186	0.245
-441.807	-200.000	0.036	-0.221
-440.792	511.125	-0.101	-0.233
-439.778	118.639	0.108	-0.133
-438.763	-200.000	-0.028	-0.300
-437.749	306.129	-0.131	0.242
-436.734	-64.978	-0.518	-0.208
-435.719	-200.000	-0.063	0.371
-434.705	-144.890	-0.095	-0.009
-433.690	60.445	-0.243	0.239
-432.676	-110.189	0.129	0.027
-431.661	483.209	-0.142	0.320
-430.646	-138.755	-0.210	-0.023
-429.632	791.300	-0.117	0.320
-428.617	-65.829	-0.216	0.086
-427.603	-200.000	0.001	-0.128
-426.588	-27.990	0.185	0.106
-425.573	-76.251	-0.307	0.107
-424.559	800.000	0.116	-0.490
-423.544	-200.000	0.011	0.154
-422.530	-151.444	-0.250	0.018
-421.515	163.568	0.176	0.246
-420.500	312.431	-0.141	0.262
-419.486	-147.882	0.226	0.019
-418.471	228.104	0.035	-0.057
-417.457	-11.880	-0.124	-0.080
-416.442	361.413	0.098	0.195
-415.428	-62.679	0.466	0.191
-414.413	-170.584	0.384	0.013
-413.398	-200.000	0.011	-0.055
-412.384	740.048	0.018	0.049
-411.369	457.462	0.022	-0.049
-410.355	-142.585	-0.168	-0.016
-409.340	800.000	-0.088	0.289
-408.325	-200.000	-0.030	0.226
-407.311	-76.748	-0.190	0.066
-406.296	-126.812	0.378	0.055
-405.282	72.854	0.289	0.299
-404.267	773.173	0.104	0.281
-403.252	19.200	-0.194	-0.154
-402.238	-69.744	0.055	0.021
-401.223	503.514	-0.019	-0.043
-400.209	362.858	0.049	0.098
-399.194	19.087	0.285	0.226
-398.179	60.399	-0.112	0.110
-397.165	-137.688	-0.165	0.018
-396.150	-132.865	0.272	-0.034
-395.136	-200.000	-0.274	0.001
-394.121	-43.064	0.235	0.118
-393.106	-13.361	-0.195	-0.126
-392.092	-200.000	-0.008	-0.074
-391.077	800.000	0.030	0.102
-390.063	-172.480	0.104	-0.003
-389.048	-200.000	-0.023	-0.178
-388.033	129.954	0.203	-0.258
-387.019	370.823	-0.214	0.430
-386.004	290.898	0.081	0.146
-384.990	800.000	0.115	0.354
-383.975	567.119	0.051	-0.122
-382.960	800.000	0.058	-0.179
-381.946	800.000	0.067	-0.243
-380.931	-79.225	-0.329	0.110
-379.917	12.524	0.160	0.122
-378.902	-9.541	-0.109	-0.072
-377.888	18.104	-0.194	0.153
-376.873	21.118	-0.107	-0.086
-375.858	-75.297	0.372	0.131
-374.844	57.192	-0.123	-0.119
-373.829	141.363	-0.208	0.273
-372.815	372.441	-0.058	0.116
-371.800	101.034	0.354	0.408
-370.785	-130.169	-0.145	0.020
-369.771	-136.059	-0.165	0.019
-368.756	272.837	-0.107	0.187
-367.742	800.000	0.064	0.210
-366.727	361.033	-0.134	0.266
-365.712	800.000	0.034	-0.125
-364.698	339.823	-0.093	-0.179
-363.683	-56.508	0.164	0.072
-362.669	-85.901	0.277	-0.085
-361.654	281.719	0.258	0.457
-360.639	-113.651	-0.275	0.053
-359.625	-134.202	0.145	-0.018
-358.610	-54.190	0.454	-0.204
-357.596	297.039	0.098	0.178
-356.581	193.647	0.189	0.283
-355.566	-14.211	-0.161	-0.103
-354.552	800.000	-0.064	0.199
-353.537	-13.113	0.298	0.192
-352.523	-200.000	-0.064	0.372
-351.508	-115.635	-0.331	0.061
-350.493	-0.724	0.014	-0.010
-349.479	800.000	0.092	-0.286
-348.464	-200.000	0.004	0.232
-347.450	74.623	0.148	-0.154
-346.435	-71.321	-0.130	0.048
-345.420	-71.419	0.402	0.149
-344.406	-6.183	-0.101	0.068
-343.391	75.085	0.141	-0.147
-342.377	-15.728	-0.331	0.209
-341.362	800.000	-0.045	-0.130
-340.348	292.413	0.068	0.122
-339.333	-200.000	-0.025	-0.265
-338.318	800.000	0.021	-0.082
-337.304	-200.000	-0.019	0.181
-336.289	-79.934	0.063	-0.021
-335.275	-150.185	0.326	0.025
-334.260	-40.923	-0.173	0.088
-333.245	-200.000	0.077	0.404
-332.231	436.187	0.138	0.297
-331.216	266.577	0.056	-0.097
-330.202	-183.201	-0.110	-0.002
-329.187	62.122	0.246	-0.242
-328.172	36.050	0.191	0.166
-327.158	-200.000	-0.055	0.410
-326.143	-119.381	-0.059	-0.010
-325.129	189.317	0.156	0.231
-324.114	569.282	0.086	-0.207
-323.099	-9.873	-0.154	-0.102
-322.085	-200.000	-0.035	-0.234
-321.070	800.000	0.092	-0.330
-320.056	273.709	-0.080	-0.140
-319.041	-18.908	0.170	0.105
-318.026	-143.958	-0.078	-0.007
-317.012	-169.251	0.301	-0.011
-315.997	-200.000	0.015	-0.245
-314.983	274.024	0.094	-0.164
-313.968	27.095	-0.078	-0.065
-312.953	-200.000	0.007	0.035
-311.939	-123.609	-0.240	0.038
-310.924	21.685	-0.199	-0.160
-309.910	-200.000	-0.006	0.292
-308.895	-200.000	0.015	-0.365
-307.880	-93.436	0.261	0.071
-306.866	800.000	-0.035	0.108
-305.851	800.000	0.066	-0.190
-304.837	350.938	0.017	0.034
-303.822	460.949	-0.105	-0.232
-302.807	-7.337	0.267	-0.178
-301.793	202.165	0.115	-0.175
-300.778	16.572	-0.247	-0.192
-299.764	-102.070	0.489	0.116
-298.749	-13.927	0.188	-0.120
-297.735	4.547	-0.304	0.220
-296.720	-114.981	0.113	0.021
-295.705	34.163	-0.294	0.253
-294.691	527.629	0.131	-0.305
-293.676	309.882	-0.064	0.119
-292.662	-114.226	-0.176	-0.034
-291.647	115.293	0.139	0.167
-290.632	800.000	0.015	0.042
-289.618	742.281	0.096	-0.256
-288.603	262.586	-0.055	-0.095
-287.589	158.252	-0.208	0.285
-286.574	303.136	-0.138	0.253
-285.559	-200.000	-0.001	-0.066
-284.545	800.000	-0.055	0.164
-283.530	-152.372	0.238	-0.017
-282.516	-135.088	0.324	0.038
-281.501	-200.000	-0.022	-0.176
-280.486	-98.211	-0.182	-0.046
-279.472	-107.852	-0.154	0.033
-278.457	-200.000	-0.057	-0.330
-277.443	-7.541	0.128	-0.085
-276.428	-200.000	0.029	0.125
-275.413	-200.000	0.002	-0.030
-274.399	547.979	0.092	0.217
-273.384	-152.512	0.378	0.027
-272.370	-200.000	0.045	0.293
-271.355	153.826	-0.170	-0.230
-270.340	-166.658	0.087	-0.004
-269.326	-61.348	-0.137	-0.057
-268.311	66.321	0.225	-0.225
-267.297	4.037	-0.279	0.201
-266.282	107.554	-0.211	0.247
-265.267	-174.606	-0.296	-0.008
-264.253	229.488	-0.220	0.354
-263.238	-22.897	0.052	-0.031
-262.224	-39.634	-0.058	0.030
-261.209	-200.000	0.075	-0.562
-260.195	141.742	-0.222	-0.289
-259.180	-113.926	0.064	-0.012
-258.165	-153.139	-0.251	0.017
-257.151	-200.000	0.068	-0.303
-256.136	-87.874	-0.167	0.050
-255.122	-31.880	-0.133	-0.074
-254.107	-200.000	-0.052	-0.252
-253.092	800.000	0.106	-0.305
-252.078	-200.000	0.024	0.315
-251.063	800.000	0.103	-0.384
-250.049	-200.000	0.057	-0.319
-249.034	-200.000	-0.077	0.501
-248.019	-154.817	0.103	0.007
-247.005	-13.565	0.067	-0.043
-245.990	236.999	0.212	0.346
-244.976	433.274	-0.062	0.132
-243.961	800.000	0.049	-0.165
-242.946	-200.000	0.002	0.046
-241.932	-200.000	0.040	-0.292
-240.917	88.653	-0.158	-0.173
-239.903	425.081	-0.080	-0.170
-238.888	66.241	0.225	-0.225
-237.873	-200.000	-0.009	0.216
-236.859	249.170	0.165	-0.275
-235.844	-200.000	0.005	0.213
-234.830	464.156	-0.096	0.212
-233.815	598.794	-0.065	-0.159
-232.800	594.957	-0.127	-0.310
-231.786	-104.176	0.400	0.091
-230.771	185.685	0.197	0.288
-229.757	-97.570	-0.145	-0.037
-228.742	800.000	0.068	-0.213
-227.727	-115.528	-0.065	0.012
-226.713	-200.000	0.020	-0.173
-225.698	-10.424	0.049	0.032
-224.684	-143.611	0.147	-0.014
-223.669	-107.115	-0.369	0.080
-222.655	-25.844	-0.294	-0.170
-221.640	67.188	0.135	0.136
-220.625	-200.000	0.028	0.288
-219.611	-200.000	-0.009	0.139
-218.596	-68.530	-0.109	0.042
-217.582	75.777	0.040	0.042
-216.567	385.749	0.061	0.124
-215.552	-53.203	0.153	0.069
-214.538	179.778	-0.122	0.176
-213.523	-200.000	0.012	-0.101
-212.509	800.000	0.078	-0.298
-211.494	60.170	0.109	0.106
-210.479	38.687	0.180	0.158
-209.465	-90.022	-0.150	-0.043
-208.450	52.775	-0.236	0.222
-207.436	-178.425	0.376	-0.009
-206.421	327.016	-0.023	0.044
-205.406	30.918	-0.334	-0.281
-204.392	-8.242	-0.145	-0.096
-203.377	-133.773	-0.080	-0.010
-202.363	228.575	0.126	0.202
-201.348	-17.606	0.212	0.131
-200.333	35.500	-0.138	-0.119
-199.319	-115.566	-0.165	0.030
-198.304	-46.428	-0.215	0.104
-197.290	-74.905	0.425	-0.150
-196.275	800.000	0.094	0.387
-195.260	666.168	-0.010	-0.026
-194.246	585.098	-0.063	0.151
-193.231	201.302	0.139	-0.210
-192.217	-68.858	-0.147	0.056
-191.202	75.186	0.061	-0.063
-190.187	-129.430	0.473	-0.064
-189.173	360.684	0.081	-0.159
-188.158	-85.017	-0.368	-0.113
-187.144	-82.758	0.378	0.120
-186.129	85.830	0.128	-0.138
-185.114	-92.900	-0.266	0.073
-184.100	800.000	0.087	-0.367
-183.085	-169.880	-0.303	0.011
-182.071	757.902	0.036	-0.096
-181.056	800.000	-0.091	-0.274
-180.042	-124.859	0.115	-0.017
-179.027	222.843	-0.106	-0.168
-178.012	-101.013	-0.164	0.039
-176.998	37.913	0.159	-0.139
-175.983	-99.302	0.353	-0.088
-174.969	15.694	-0.107	-0.083
-173.954	-120.127	-0.271	0.046
-172.939	-60.377	0.173	-0.072
-171.925	-200.000	-0.045	0.258
-170.910	-12.077	0.327	0.210
-169.896	-16.597	0.050	0.031
-168.881	-1.525	-0.143	0.099
-167.866	141.305	0.039	0.050
-166.852	-200.000	-0.007	0.095
-165.837	22.072	-0.269	-0.215
-164.823	-125.877	-0.047	0.007
-163.808	254.694	-0.147	-0.247
-162.793	154.167	0.109	0.147
-161.779	549.253	-0.048	-0.112
-160.764	259.491	-0.131	-0.222
-159.750	800.000	0.085	0.249
-158.735	-200.000	0.022	-0.195
-157.720	-13.193	0.249	-0.159
-156.706	-200.000	0.024	0.287
-155.691	-142.905	0.351	0.033
-154.677	-88.794	0.164	0.048
-153.662	158.300	0.122	0.166
-152.647	800.000	-0.110	-0.389
-151.633	-27.300	0.187	0.107
-150.618	-169.173	0.163	-0.006
-149.604	-149.335	-0.205	0.016
-148.589	309.450	-0.129	0.237
-147.574	-200.000	0.001	0.158
-146.560	800.000	0.077	0.296
-145.545	62.451	0.486	-0.476
-144.531	-66.934	-0.199	0.077
-143.516	-29.873	-0.312	-0.174
-142.502	800.000	-0.121	-0.368
-141.487	-200.000	0.045	-0.265
-140.472	-145.653	0.108	0.010
-139.458	-5.169	-0.167	0.112
-138.443	2.029	0.236	0.167
-137.429	-160.440	0.361	-0.019
-136.414	117.716	0.087	0.105
-135.399	54.900	0.065	-0.062
-134.385	-96.734	0.102	0.026
-133.370	319.071	0.178	-0.331
-132.356	504.579	0.135	0.307
-131.341	11.927	0.042	0.032
-130.326	-130.801	-0.072	0.010
-129.312	800.000	0.043	-0.122
-128.297	-15.502	0.286	0.179
-127.283	-92.241	0.102	0.028
-126.268	-58.942	0.228	0.097
-125.253	-179.128	0.284	-0.006
-124.239	-90.515	0.153	0.043
-123.224	405.009	0.167	-0.345
-122.210	-172.057	0.159	0.005
-121.195	-200.000	0.111	0.504
