DTS Sentinel unit serial number:	SN413079Multiplexer serial number:	ORYXHardware model number:	OX4-SRSoftware version number:	ORYX F/W v4.00 Oryx Data Collector v3.7.2.0data status	okinstallation	princeton_trtdifferential loss correction	single-endedforward channel	channel 1reverse channel	N/Adate	2019/09/17time	08:46:35forward acquisition time	60.00reverse acquisition time	0.00gamma	496.2192k internal	0.2327k external	0.2327temperature offset calibration	0.9967default loss term (dB/km)	0.3790temperature slope calibration	1.0000multiplexer offset coefficient	1.0000multiplexer slope coefficient	1.0000fibre end	0.00T internal ref (°C)	27.77T ext. ref 1 (°C)	0.13T ext. ref 2 (°C)	23.35length (m)	temperature (°C)	Stokes	anti-Stokes-747.200	-120.866	0.287	0.049
-746.185	-98.082	-0.168	0.044
-745.171	-200.000	0.011	0.116
-744.156	-131.771	-0.158	-0.021
-743.142	-93.059	-0.097	0.027
-742.127	136.618	0.049	0.065
-741.112	-30.331	-0.363	-0.208
-740.098	-117.232	-0.186	0.034
-739.083	-200.000	-0.047	0.335
-738.069	-127.767	-0.031	0.004
-737.054	88.103	0.147	0.164
-736.039	800.000	0.092	-0.275
-735.025	-88.245	0.118	0.035
-734.010	-149.057	-0.145	0.012
-732.996	149.432	-0.189	0.257
-731.981	-167.892	0.135	0.005
-730.966	476.390	-0.145	0.331
-729.952	-95.031	0.285	-0.078
-728.937	-200.000	0.001	-0.127
-727.923	-156.340	0.017	-0.001
-726.908	118.202	0.020	-0.025
-725.894	40.246	-0.124	-0.113
-724.879	-16.389	-0.126	-0.081
-723.864	2.519	0.028	0.020
-722.850	521.834	0.068	-0.160
-721.835	24.633	-0.243	0.202
-720.821	-199.702	-0.221	0.001
-719.806	278.155	0.109	-0.196
-718.791	291.873	-0.155	-0.285
-717.777	-12.016	-0.184	0.121
-716.762	-136.801	-0.243	-0.028
-715.748	-77.954	0.234	0.081
-714.733	-48.814	-0.184	-0.089
-713.718	-182.852	-0.312	-0.006
-712.704	387.052	-0.136	0.284
-711.689	-80.199	0.267	-0.090
-710.675	7.153	-0.359	-0.270
-709.660	-200.000	0.098	-0.492
-708.645	-77.525	-0.300	-0.105
-707.631	-0.282	0.153	-0.110
-706.616	-15.107	0.225	-0.145
-705.602	800.000	0.041	-0.129
-704.587	203.478	-0.196	-0.305
-703.572	-68.021	0.401	-0.157
-702.558	800.000	0.042	0.143
-701.543	-200.000	0.001	0.034
-700.529	136.821	-0.176	-0.231
-699.514	61.515	-0.063	-0.063
-698.499	-29.784	0.440	0.253
-697.485	-30.586	-0.212	0.121
-696.470	121.250	0.129	-0.161
-695.456	338.265	0.151	-0.295
-694.441	800.000	0.103	-0.371
-693.426	-200.000	-0.011	-0.211
-692.412	-50.130	-0.314	-0.150
-691.397	306.660	0.129	-0.242
-690.383	-96.300	-0.187	0.050
-689.368	800.000	-0.014	0.040
-688.354	143.112	0.123	-0.165
-687.339	-200.000	-0.004	-0.100
-686.324	32.451	-0.160	0.139
-685.310	-200.000	-0.002	0.176
-684.295	38.209	0.115	-0.103
-683.281	147.925	-0.027	-0.037
-682.266	-200.000	-0.026	-0.367
-681.251	-101.328	0.157	0.039
-680.237	-136.842	0.071	0.008
-679.222	-85.041	0.076	-0.024
-678.208	-200.000	-0.039	0.194
-677.193	-200.000	-0.008	-0.063
-676.178	800.000	0.100	-0.309
-675.164	-200.000	0.002	0.132
-674.149	-50.733	-0.199	-0.094
-673.135	-46.172	0.074	-0.037
-672.120	170.366	0.161	-0.231
-671.105	38.518	-0.127	-0.114
-670.091	-28.508	-0.176	0.102
-669.076	-200.000	-0.089	0.410
-668.062	800.000	-0.111	-0.400
-667.047	67.944	-0.139	0.143
-666.032	-91.901	0.053	0.015
-665.018	-200.000	-0.053	0.288
-664.003	503.581	-0.032	-0.075
-662.989	108.284	0.181	0.217
-661.974	439.704	0.108	-0.236
-660.959	480.925	0.010	0.022
-659.945	152.139	0.072	-0.099
-658.930	63.158	-0.188	-0.190
-657.916	-123.804	-0.387	0.061
-656.901	148.212	-0.273	-0.370
-655.886	-74.904	-0.245	-0.088
-654.872	131.777	-0.077	0.100
-653.857	-141.531	-0.132	-0.013
-652.843	75.332	0.086	0.091
-651.828	-200.000	0.039	-0.192
-650.814	134.324	-0.071	-0.092
-649.799	-16.124	-0.279	0.178
-648.784	-200.000	-0.055	0.246
-647.770	84.865	-0.098	-0.108
-646.755	724.021	-0.131	0.350
-645.741	-61.229	0.366	0.155
-644.726	-128.632	-0.268	-0.038
-643.711	266.310	-0.109	-0.192
-642.697	40.936	0.039	0.035
-641.682	77.731	0.091	0.097
-640.668	-185.918	-0.180	-0.003
-639.653	91.559	0.238	-0.268
-638.638	158.949	0.148	-0.206
-637.624	280.549	-0.022	0.039
-636.609	-152.306	0.209	-0.015
-635.595	-101.790	-0.199	-0.048
-634.580	800.000	0.064	-0.244
-633.565	-101.239	0.186	0.046
-632.551	-149.072	-0.066	-0.005
-631.536	96.245	0.252	-0.289
-630.522	19.499	0.196	-0.158
-629.507	-108.558	0.263	-0.057
-628.492	126.774	0.015	-0.019
-627.478	14.404	-0.203	0.159
-626.463	-55.968	-0.141	0.063
-625.449	-79.571	-0.323	0.109
-624.434	649.155	0.072	-0.184
-623.419	562.279	0.092	0.224
-622.405	353.449	0.113	0.226
-621.390	99.458	0.074	0.085
-620.376	-54.134	0.163	0.074
-619.361	-56.571	-0.114	-0.051
-618.346	112.866	-0.169	-0.206
-617.332	-8.198	0.208	-0.141
-616.317	-130.965	-0.239	0.032
-615.303	-91.942	-0.232	0.066
-614.288	-23.619	-0.181	-0.109
-613.273	237.840	-0.008	0.013
-612.259	-77.017	0.139	-0.049
-611.244	-200.000	0.008	-0.220
-610.230	-200.000	0.001	-0.047
-609.215	800.000	0.011	0.039
-608.201	-14.588	0.094	0.061
-607.186	-200.000	0.000	-0.077
-606.171	300.360	-0.098	-0.181
-605.157	142.335	-0.228	-0.303
-604.142	-119.298	-0.234	-0.041
-603.128	800.000	0.040	0.171
-602.113	-48.055	0.188	-0.091
-601.098	282.761	0.125	-0.224
-600.084	-120.034	0.320	0.055
-599.069	-97.826	-0.133	-0.035
-598.055	-112.668	-0.064	-0.013
-597.040	-200.000	-0.035	-0.198
-596.025	349.946	0.081	0.160
-595.011	-17.406	0.198	0.125
-593.996	618.238	0.087	0.218
-592.982	495.726	-0.095	-0.220
-591.967	115.767	0.052	-0.064
-590.952	800.000	0.080	0.290
-589.938	-139.020	-0.111	-0.012
-588.923	9.715	0.181	0.138
-587.909	-200.000	0.007	-0.313
-586.894	653.583	0.089	-0.230
-585.879	89.343	-0.082	0.091
-584.865	118.847	-0.136	0.168
-583.850	79.069	0.172	0.185
-582.836	469.052	-0.009	-0.021
-581.821	-85.857	-0.273	-0.085
-580.806	-162.798	0.278	0.014
-579.792	-59.912	0.227	0.097
-578.777	800.000	0.109	0.332
-577.763	634.259	-0.102	0.258
-576.748	-124.580	-0.424	0.066
-575.733	-25.654	0.337	0.199
-574.719	-45.724	0.276	-0.137
-573.704	-59.242	0.265	-0.114
-572.690	-28.157	0.194	0.112
-571.675	800.000	-0.070	-0.214
-570.661	-64.202	-0.425	-0.174
-569.646	-106.422	-0.251	0.056
-568.631	13.631	0.115	0.090
-567.617	-83.259	0.080	-0.026
-566.602	-51.102	-0.203	0.095
-565.588	-185.828	-0.011	-0.000
-564.573	8.107	0.196	-0.147
-563.558	-48.543	0.285	-0.137
-562.544	-200.000	-0.032	-0.167
-561.529	-90.040	-0.234	-0.068
-560.515	-200.000	-0.037	-0.266
-559.500	-65.581	-0.253	0.102
-558.485	-81.777	-0.424	-0.139
-557.471	-127.873	-0.229	-0.033
-556.456	-200.000	-0.019	-0.159
-555.442	-89.644	0.313	-0.092
-554.427	-200.000	-0.008	0.059
-553.412	47.817	0.071	0.066
-552.398	49.346	-0.336	0.316
-551.383	106.811	0.185	-0.220
-550.369	-200.000	0.004	0.146
-549.354	140.578	-0.076	0.101
-548.339	103.729	-0.203	0.238
-547.325	-42.954	0.121	0.061
-546.310	38.345	0.133	0.118
-545.296	-172.724	0.194	0.006
-544.281	233.746	0.152	0.250
-543.266	21.860	-0.092	-0.075
-542.252	-180.225	-0.139	0.003
-541.237	627.621	-0.084	0.213
-540.223	464.021	-0.071	-0.158
-539.208	-200.000	0.044	-0.281
-538.193	-200.000	0.018	-0.171
-537.179	-200.000	0.032	-0.346
-536.164	-62.840	0.476	-0.197
-535.150	800.000	0.055	0.181
-534.135	-96.639	0.228	0.060
-533.121	-119.441	-0.186	0.032
-532.106	800.000	-0.070	-0.256
-531.091	-25.379	0.257	0.152
-530.077	800.000	0.090	-0.267
-529.062	-95.870	-0.123	0.033
-528.048	232.105	0.106	-0.174
-527.033	-128.790	0.215	0.030
-526.018	-200.000	-0.001	0.069
-525.004	366.649	-0.105	0.212
-523.989	137.150	0.056	-0.074
-522.975	40.821	0.221	0.199
-521.960	-178.622	0.185	0.004
-520.945	205.857	-0.037	-0.058
-519.931	-170.738	-0.076	0.003
-518.916	-79.687	0.193	0.065
-517.902	-53.494	-0.187	0.085
-516.887	-200.000	-0.000	0.496
-515.872	800.000	-0.028	0.084
-514.858	-47.816	-0.267	-0.129
-513.843	35.614	0.442	0.388
-512.829	-200.000	0.002	0.117
-511.814	18.803	-0.319	-0.255
-510.799	-200.000	-0.048	-0.235
-509.785	-141.351	0.320	0.032
-508.770	800.000	-0.085	-0.336
-507.756	190.910	-0.252	-0.379
-506.741	-50.824	-0.182	-0.086
-505.726	29.355	0.124	0.105
-504.712	174.048	0.225	-0.324
-503.697	-160.005	0.252	-0.014
-502.683	-200.000	0.035	0.358
-501.668	-18.572	0.245	-0.153
-500.653	-131.740	-0.279	-0.037
-499.639	-200.000	0.014	-0.133
-498.624	-200.000	-0.032	-0.237
-497.610	-113.942	0.196	0.038
-496.595	-56.459	-0.257	-0.114
-495.581	50.748	0.072	0.068
-494.566	108.719	0.257	0.307
-493.551	-24.165	0.339	-0.202
-492.537	38.474	-0.080	-0.071
-491.522	-200.000	-0.035	0.204
-490.508	86.293	-0.096	0.105
-489.493	-200.000	0.032	-0.179
-488.478	121.243	-0.090	0.111
-487.464	-200.000	0.058	0.461
-486.449	-93.682	0.128	0.035
-485.435	359.420	0.094	-0.188
-484.420	-38.022	0.093	0.049
-483.405	154.471	0.221	0.302
-482.391	728.736	-0.094	0.250
-481.376	-103.508	0.257	0.060
-480.362	64.587	-0.213	-0.214
-479.347	800.000	0.076	-0.248
-478.332	506.427	0.093	0.215
-477.318	173.573	-0.163	0.235
-476.303	507.101	0.092	-0.213
-475.289	1.886	-0.301	0.217
-474.274	-13.185	-0.311	0.202
-473.259	-110.039	-0.361	0.075
-472.245	-127.902	-0.059	0.008
-471.230	-150.957	0.348	-0.026
-470.216	137.017	0.134	-0.174
-469.201	15.920	-0.073	-0.057
-468.186	185.489	-0.218	-0.323
-467.172	-200.000	0.039	0.173
-466.157	249.576	0.095	-0.161
-465.143	-102.929	0.246	-0.058
-464.128	-92.526	0.076	0.021
-463.113	-51.584	-0.199	-0.093
-462.099	800.000	0.061	-0.175
-461.084	70.722	0.052	-0.054
-460.070	-34.685	-0.119	-0.065
-459.055	-50.317	0.099	-0.047
-458.040	-123.023	-0.178	0.029
-457.026	74.421	0.219	-0.230
-456.011	103.073	0.168	-0.196
-454.997	106.356	0.141	0.166
-453.982	-60.503	0.227	0.096
-452.968	-0.667	0.009	0.007
-451.953	-200.000	-0.037	0.228
-450.938	144.634	-0.090	0.119
-449.924	412.099	-0.054	-0.115
-448.909	-78.264	0.089	-0.031
-447.895	150.085	-0.233	-0.315
-446.880	252.150	0.081	-0.137
-445.865	800.000	-0.074	0.240
-444.851	800.000	-0.025	-0.092
-443.836	-200.000	-0.029	0.380
-442.822	-75.317	-0.338	-0.120
-441.807	790.486	-0.236	-0.646
-440.792	-4.280	0.027	0.019
-439.778	-84.714	0.088	-0.027
-438.763	-42.593	-0.317	-0.161
-437.749	800.000	-0.008	-0.031
-436.734	-43.682	0.131	-0.066
-435.719	140.877	0.055	-0.073
-434.705	37.101	-0.034	0.030
-433.690	-120.610	-0.256	-0.043
-432.676	800.000	-0.061	-0.254
-431.661	383.596	-0.062	0.126
-430.646	37.546	0.126	-0.111
-429.632	-138.707	-0.207	0.023
-428.617	-200.000	0.005	0.034
-427.603	-74.382	-0.251	0.090
-426.588	-17.570	-0.320	-0.200
-425.573	-7.011	0.303	0.205
-424.559	643.707	0.101	-0.258
-423.544	-200.000	0.022	-0.098
-422.530	-200.000	0.011	0.345
-421.515	-64.920	-0.111	-0.045
-420.500	-63.633	0.313	0.128
-419.486	-148.725	0.130	0.011
-418.471	370.364	-0.157	0.317
-417.457	13.630	-0.142	0.110
-416.442	290.258	-0.160	0.289
-415.428	240.296	0.062	0.103
-414.413	-81.266	0.344	0.113
-413.398	-36.868	-0.131	-0.070
-412.384	452.701	0.051	-0.112
-411.369	-77.299	-0.166	-0.057
-410.355	572.646	-0.183	0.444
-409.340	-200.000	-0.015	-0.111
-408.325	47.019	0.178	0.165
-407.311	-102.787	0.151	0.036
-406.296	38.892	0.262	0.233
-405.282	68.790	0.202	-0.206
-404.267	-2.630	0.119	0.083
-403.252	-200.000	-0.044	0.241
-402.238	-162.581	0.281	0.014
-401.223	-24.698	-0.296	-0.175
-400.209	267.940	0.106	-0.184
-399.194	800.000	0.071	0.265
-398.179	-115.598	0.154	-0.029
-397.165	30.303	0.047	-0.040
-396.150	53.093	-0.113	-0.107
-395.136	800.000	-0.030	0.111
-394.121	311.419	-0.088	-0.164
-393.106	70.331	0.090	0.093
-392.092	-125.682	-0.230	-0.035
-391.077	67.875	-0.200	-0.203
-390.063	-200.000	-0.007	0.406
-389.048	800.000	-0.059	0.167
-388.033	800.000	-0.077	0.212
-387.019	-171.271	-0.133	0.004
-386.004	168.721	0.256	0.363
-384.990	-200.000	0.003	0.075
-383.975	-82.865	0.121	0.039
-382.960	-76.811	-0.339	0.118
-381.946	-200.000	-0.073	-0.328
-380.931	10.072	-0.132	-0.100
-379.917	-50.902	-0.087	0.040
-378.902	800.000	-0.124	0.356
-377.888	9.270	-0.083	0.062
-376.873	254.654	0.025	0.043
-375.858	-38.812	-0.509	0.266
-374.844	-106.267	0.167	0.037
-373.829	800.000	0.030	0.085
-372.815	-77.273	0.113	-0.039
-371.800	-37.754	-0.225	0.119
-370.785	800.000	-0.074	-0.318
-369.771	347.377	0.085	-0.166
-368.756	-89.007	0.254	0.075
-367.742	82.364	0.186	0.201
-366.727	36.381	-0.199	-0.175
-365.712	800.000	0.046	-0.185
-364.698	62.487	-0.239	-0.237
-363.683	126.312	0.079	0.099
-362.669	28.744	-0.259	0.218
-361.654	-116.573	-0.275	-0.050
-360.639	-73.659	0.250	-0.090
-359.625	800.000	-0.093	0.277
-358.610	100.144	-0.101	-0.117
-357.596	433.441	0.098	0.211
-356.581	10.273	0.017	-0.012
-355.566	-200.000	-0.003	-0.136
-354.552	-200.000	-0.021	-0.170
-353.537	148.178	-0.108	-0.144
-352.523	800.000	-0.048	0.195
-351.508	-76.705	0.374	0.130
-350.493	800.000	-0.029	0.085
-349.479	31.714	0.100	-0.085
-348.464	433.237	-0.071	0.153
-347.450	-58.546	0.100	0.043
-346.435	-52.024	-0.245	-0.113
-345.420	61.407	-0.036	0.036
-344.406	23.014	0.186	0.152
-343.391	-36.523	-0.139	-0.074
-342.377	800.000	-0.079	0.275
-341.362	-16.697	-0.230	-0.144
-340.348	-44.131	0.056	0.028
-339.333	141.266	-0.224	0.293
-338.318	-200.000	-0.022	0.203
-337.304	-83.055	-0.329	-0.105
-336.289	-111.506	0.165	-0.033
-335.275	-200.000	-0.027	-0.536
-334.260	-2.399	-0.078	0.054
-333.245	-200.000	0.008	-0.305
-332.231	-57.106	0.262	0.114
-331.216	-32.999	0.049	0.027
-330.202	-169.329	0.155	-0.006
-329.187	-200.000	0.009	-0.090
-328.172	307.299	0.142	-0.263
-327.158	-29.856	-0.224	0.126
-326.143	-140.981	0.247	0.025
-325.129	-76.873	0.161	0.056
-324.114	-43.056	0.308	0.155
-323.099	-94.618	0.167	0.045
-322.085	-40.322	0.045	0.023
-321.070	-67.031	-0.234	0.092
-320.056	252.452	0.178	-0.300
-319.041	60.484	-0.269	0.264
-318.026	-117.321	-0.263	0.047
-317.012	-0.644	-0.252	-0.177
-315.997	-200.000	0.023	-0.283
-314.983	-200.000	0.016	-0.192
-313.968	-119.301	-0.141	0.024
-312.953	88.732	0.299	0.329
-311.939	800.000	-0.040	-0.158
-310.924	178.863	0.273	-0.396
-309.910	2.099	-0.215	-0.154
-308.895	800.000	-0.165	0.469
-307.880	141.638	0.224	0.293
-306.866	144.951	-0.074	-0.098
-305.851	-140.795	-0.055	-0.006
-304.837	-200.000	0.002	0.024
-303.822	182.357	0.187	0.273
-302.807	13.408	0.020	-0.016
-301.793	-79.157	0.402	-0.135
-300.778	800.000	0.012	-0.042
-299.764	229.386	0.112	0.180
-298.749	-21.014	0.218	0.132
-297.735	-43.389	-0.124	0.062
-296.720	-74.957	-0.193	-0.069
-295.705	22.449	0.132	-0.107
-294.691	-16.025	-0.185	0.116
-293.676	-61.557	0.321	-0.134
-292.662	800.000	0.015	0.060
-291.647	800.000	0.061	0.233
-290.632	288.921	-0.201	-0.360
-289.618	-59.059	0.165	0.071
-288.603	800.000	-0.153	0.433
-287.589	-102.992	-0.175	-0.041
-286.574	-94.900	0.292	0.078
-285.559	-184.804	0.235	0.004
-284.545	190.029	-0.089	-0.133
-283.530	-200.000	-0.016	-0.241
-282.516	97.268	0.265	-0.301
-281.501	-41.665	-0.354	-0.180
-280.486	-126.854	0.002	0.000
-279.472	-9.320	0.077	-0.051
-278.457	-61.391	-0.401	0.167
-277.443	227.428	-0.171	0.275
-276.428	-79.906	0.213	-0.071
-275.413	800.000	-0.113	-0.328
-274.399	178.251	0.219	-0.316
-273.384	-200.000	0.015	0.092
-272.370	61.007	0.264	-0.259
-271.355	-17.902	0.154	-0.096
-270.340	-59.349	-0.301	-0.128
-269.326	25.797	0.059	0.048
-268.311	140.905	0.063	0.083
-267.297	800.000	-0.057	0.188
-266.282	422.392	0.099	0.210
-265.267	800.000	0.078	0.302
-264.253	234.952	-0.103	0.168
-263.238	21.753	0.084	-0.068
-262.224	-200.000	-0.023	0.239
-261.209	615.537	-0.097	0.241
-260.195	164.999	0.119	-0.166
-259.180	-32.993	0.335	0.184
-258.165	-25.257	0.154	0.090
-257.151	-62.591	-0.192	0.079
-256.136	67.502	0.145	0.147
-255.122	-200.000	0.032	0.143
-254.107	381.072	-0.020	0.040
-253.092	690.545	0.070	-0.180
-252.078	341.959	0.058	0.111
-251.063	-200.000	0.033	0.189
-250.049	-14.277	0.274	0.175
-249.034	-200.000	-0.018	-0.243
-248.019	-76.493	0.162	-0.056
-247.005	-200.000	0.023	-0.255
-245.990	-200.000	0.019	-0.308
-244.976	410.547	0.030	-0.063
-243.961	-78.524	-0.119	0.040
-242.946	349.433	0.076	0.149
-241.932	-200.000	-0.032	-0.156
-240.917	-53.978	0.240	0.108
-239.903	-36.894	0.178	0.094
-238.888	800.000	0.087	0.287
-237.873	-200.000	0.022	-0.163
-236.859	-156.077	-0.117	-0.007
-235.844	405.641	-0.147	-0.307
-234.830	-39.509	-0.341	0.176
-233.815	22.299	0.174	0.140
-232.800	-126.430	0.036	-0.005
-231.786	457.460	-0.174	0.383
-230.771	-123.340	-0.155	0.024
-229.757	0.218	0.085	0.060
-228.742	-29.511	0.065	-0.037
-227.727	399.599	-0.054	-0.112
-226.713	74.785	0.175	-0.182
-225.698	-88.840	-0.315	-0.092
-224.684	461.401	0.075	0.165
-223.669	379.422	0.041	0.082
-222.655	39.129	0.092	-0.081
-221.640	-102.387	-0.252	-0.060
-220.625	353.077	-0.092	-0.180
-219.611	111.266	0.093	-0.111
-218.596	12.411	-0.068	0.052
-217.582	130.227	0.218	0.275
-216.567	-78.861	-0.641	-0.216
-215.552	52.694	0.131	-0.123
-214.538	243.754	-0.037	0.062
-213.523	-100.155	-0.286	0.070
-212.509	-200.000	-0.033	0.180
-211.494	-156.114	-0.377	-0.024
-210.479	800.000	0.101	0.306
-209.465	-200.000	-0.036	-0.199
-208.450	800.000	0.018	-0.064
-207.436	-110.158	-0.234	-0.048
-206.421	-200.000	-0.013	-0.178
-205.406	-55.023	-0.021	0.009
-204.392	652.964	-0.062	-0.158
-203.377	-78.923	0.147	-0.049
-202.363	240.334	0.195	0.321
-201.348	44.239	-0.024	-0.022
-200.333	800.000	-0.089	0.359
-199.319	-60.597	-0.374	0.157
-198.304	-12.941	-0.094	0.060
-197.290	-15.647	0.230	0.145
-196.275	297.950	0.150	0.272
-195.260	800.000	-0.037	0.106
-194.246	-200.000	-0.004	-0.016
-193.231	-132.075	0.141	0.018
-192.217	-169.083	-0.162	-0.006
-191.202	-200.000	0.030	-0.235
-190.187	297.627	-0.169	0.305
-189.173	-200.000	-0.008	0.099
-188.158	446.396	0.032	0.069
-187.144	-117.434	-0.265	0.047
-186.129	113.998	-0.028	0.033
-185.114	-169.313	0.255	-0.009
-184.100	-52.809	0.221	-0.100
-183.085	-156.241	-0.421	0.026
-182.071	176.364	0.101	-0.145
-181.056	221.970	0.114	0.181
-180.042	-59.029	-0.112	-0.048
-179.027	800.000	0.062	-0.203
-178.012	559.756	0.052	-0.124
-176.998	-200.000	0.068	-0.409
-175.983	-200.000	0.019	-0.168
-174.969	127.634	0.075	-0.095
-173.954	-114.635	0.277	-0.052
-172.939	-118.463	-0.493	-0.086
-171.925	-144.017	-0.245	0.023
-170.910	-66.710	-0.267	0.104
-169.896	99.318	-0.268	-0.306
-168.881	695.388	-0.067	0.174
-167.866	-70.480	-0.204	-0.076
-166.852	277.194	-0.143	-0.250
-165.837	15.501	0.215	-0.166
-164.823	0.629	0.113	0.080
-163.808	-200.000	0.291	-0.001
-162.793	800.000	-0.050	0.194
-161.779	-200.000	0.051	-0.285
-160.764	-65.637	0.220	-0.087
-159.750	316.743	0.086	-0.161
-158.735	-148.768	-0.124	0.010
-157.720	800.000	0.012	-0.048
-156.706	8.094	-0.098	0.073
-155.691	76.800	0.081	-0.085
-154.677	695.540	-0.070	-0.182
-153.662	-200.000	0.031	-0.216
-152.647	71.407	-0.236	-0.241
-151.633	-80.090	0.191	-0.063
-150.618	39.832	-0.039	-0.035
-149.604	-125.904	-0.187	-0.028
-148.589	-34.254	0.148	0.080
-147.574	303.995	0.081	-0.148
-146.560	146.352	-0.125	0.165
-145.545	42.521	0.036	-0.032
-144.531	15.560	0.150	-0.116
-143.516	198.706	0.054	-0.081
-142.502	-75.090	-0.150	0.053
-141.487	-200.000	0.014	0.077
-140.472	-200.000	-0.017	-0.078
-139.458	-96.496	-0.227	0.059
-138.443	750.731	-0.158	0.421
-137.429	180.582	0.097	-0.140
-136.414	84.827	-0.181	0.196
-135.399	-200.000	-0.006	0.079
-134.385	800.000	0.068	-0.288
-133.370	-200.000	-0.056	-0.346
-132.356	-200.000	0.032	0.202
-131.341	28.587	-0.035	0.029
-130.326	-161.713	0.258	-0.013
-129.312	12.986	0.171	0.130
-128.297	54.493	-0.082	-0.077
-127.283	-35.329	0.076	-0.041
-126.268	277.164	-0.139	-0.243
-125.253	-91.377	0.250	0.070
-124.239	800.000	0.085	0.358
-123.224	86.994	-0.124	0.134
-122.210	-200.000	0.018	0.162
-121.195	10.913	0.117	-0.088
