DTS Sentinel unit serial number:	SN413079Multiplexer serial number:	ORYXHardware model number:	OX4-SRSoftware version number:	ORYX F/W v4.00 Oryx Data Collector v3.7.2.0data status	okinstallation	princeton_trtdifferential loss correction	single-endedforward channel	channel 1reverse channel	N/Adate	2019/09/15time	00:38:35forward acquisition time	60.00reverse acquisition time	0.00gamma	496.2192k internal	0.2320k external	0.2320temperature offset calibration	0.9994default loss term (dB/km)	0.3790temperature slope calibration	1.0000multiplexer offset coefficient	1.0000multiplexer slope coefficient	1.0000fibre end	0.00T internal ref (°C)	32.11T ext. ref 1 (°C)	4.56T ext. ref 2 (°C)	27.12length (m)	temperature (°C)	Stokes	anti-Stokes-747.200	70.163	0.181	0.189
-746.185	-200.000	0.054	0.251
-745.171	-200.000	-0.007	0.181
-744.156	-34.787	-0.103	-0.057
-743.142	-7.303	0.091	-0.062
-742.127	800.000	0.033	0.104
-741.112	109.122	0.100	0.121
-740.098	800.000	0.047	0.187
-739.083	-200.000	-0.020	0.297
-738.069	100.576	-0.111	0.130
-737.054	0.489	0.259	0.187
-736.039	57.306	-0.122	-0.120
-735.025	38.724	0.147	-0.133
-734.010	-54.625	-0.171	0.078
-732.996	-124.045	0.348	0.055
-731.981	-115.098	0.112	-0.022
-730.966	-85.274	-0.272	0.086
-729.952	113.732	0.098	-0.121
-728.937	-149.710	0.170	-0.014
-727.923	-50.281	-0.219	0.104
-726.908	48.434	-0.448	0.424
-725.894	800.000	-0.082	0.238
-724.879	-200.000	0.002	0.117
-723.864	39.571	-0.096	-0.087
-722.850	51.669	0.246	-0.237
-721.835	75.600	-0.296	0.316
-720.821	28.010	-0.157	-0.133
-719.806	-143.985	0.450	-0.043
-718.791	58.672	-0.287	0.284
-717.777	-121.458	-0.382	-0.064
-716.762	800.000	0.117	0.393
-715.748	-100.091	0.222	-0.056
-714.733	184.194	-0.099	-0.148
-713.718	-200.000	-0.042	-0.248
-712.704	-158.042	-0.465	-0.028
-711.689	138.094	0.157	-0.207
-710.675	-62.921	-0.241	0.101
-709.660	-32.541	-0.187	0.105
-708.645	3.610	-0.147	0.108
-707.631	800.000	0.102	-0.285
-706.616	-194.749	0.413	0.003
-705.602	-133.504	-0.227	-0.029
-704.587	-84.680	-0.213	0.068
-703.572	-30.274	-0.010	-0.006
-702.558	321.696	0.097	0.187
-701.543	800.000	-0.085	0.255
-700.529	-136.083	-0.292	0.035
-699.514	-140.450	-0.128	0.013
-698.499	-200.000	0.053	0.390
-697.485	800.000	0.102	0.400
-696.470	27.838	-0.181	0.154
-695.456	-200.000	0.082	-0.368
-694.441	-121.981	0.136	-0.023
-693.426	800.000	0.077	-0.326
-692.412	-117.256	-0.181	-0.033
-691.397	800.000	0.065	-0.283
-690.383	669.202	-0.051	-0.134
-689.368	-66.184	-0.225	-0.091
-688.354	-13.915	0.209	0.136
-687.339	-184.373	-0.208	-0.003
-686.324	-68.773	-0.128	0.050
-685.310	-135.578	-0.144	0.017
-684.295	-200.000	-0.034	0.307
-683.281	49.106	-0.165	0.157
-682.266	76.218	-0.255	-0.272
-681.251	179.078	0.140	-0.206
-680.237	-200.000	0.055	-0.433
-679.222	481.911	0.053	0.120
-678.208	-53.060	0.278	0.129
-677.193	-4.613	-0.244	-0.170
-676.178	-76.598	0.051	-0.018
-675.164	-183.287	-0.236	-0.004
-674.149	733.921	0.121	0.328
-673.135	434.731	-0.072	0.157
-672.120	51.349	-0.241	0.231
-671.105	68.698	-0.225	0.233
-670.091	-135.348	0.258	0.031
-669.076	800.000	-0.075	-0.300
-668.062	446.806	0.119	0.263
-667.047	-200.000	-0.005	0.029
-666.032	-36.530	-0.264	-0.143
-665.018	-153.905	0.161	0.011
-664.003	311.550	-0.144	0.271
-662.989	509.616	-0.067	-0.156
-661.974	-128.697	0.123	0.017
-660.959	-71.152	-0.233	0.088
-659.945	-124.359	-0.506	0.080
-658.930	-200.000	0.025	0.261
-657.916	-135.414	0.092	0.011
-656.901	744.083	0.132	0.358
-655.886	40.083	-0.170	0.154
-654.872	19.265	-0.160	0.130
-653.857	101.183	0.032	0.037
-652.843	167.151	0.177	0.254
-651.828	-133.319	-0.096	-0.012
-650.814	591.862	-0.029	-0.072
-649.799	109.142	-0.176	0.212
-648.784	-141.735	-0.223	0.023
-647.770	-42.974	0.185	0.095
-646.755	-200.000	-0.024	0.251
-645.741	-141.879	0.171	-0.017
-644.726	800.000	-0.086	-0.248
-643.711	800.000	0.074	-0.299
-642.697	262.344	-0.051	0.088
-641.682	108.431	0.272	-0.327
-640.668	-200.000	0.052	-0.330
-639.653	-26.595	0.179	0.106
-638.638	108.746	0.071	-0.085
-637.624	-95.915	0.038	0.010
-636.609	278.785	0.105	0.188
-635.595	800.000	0.052	0.200
-634.580	-200.000	-0.046	-0.252
-633.565	98.300	-0.068	0.078
-632.551	-200.000	0.039	-0.179
-631.536	225.636	0.137	0.223
-630.522	-172.481	-0.553	0.018
-629.507	-21.859	-0.143	-0.087
-628.492	-200.000	0.030	-0.170
-627.478	-200.000	-0.036	-0.366
-626.463	-200.000	0.029	0.143
-625.449	460.420	-0.083	-0.185
-624.434	-200.000	-0.028	-0.220
-623.419	-3.297	0.155	-0.109
-622.405	-0.227	0.318	0.228
-621.390	160.895	-0.197	-0.277
-620.376	-200.000	-0.052	-0.310
-619.361	32.720	0.126	0.110
-618.346	641.951	-0.156	-0.401
-617.332	-86.838	0.085	-0.026
-616.317	180.645	-0.070	0.103
-615.303	381.163	-0.109	0.225
-614.288	65.261	-0.052	-0.053
-613.273	97.014	-0.310	-0.357
-612.259	-111.322	-0.249	0.051
-611.244	-132.925	0.102	0.013
-610.230	-3.468	-0.310	-0.217
-609.215	339.324	-0.105	-0.206
-608.201	-200.000	0.072	-0.542
-607.186	-200.000	0.070	-0.317
-606.171	800.000	-0.113	0.479
-605.157	800.000	0.089	0.327
-604.142	-200.000	0.068	-0.485
-603.128	27.943	0.122	0.103
-602.113	-58.224	-0.274	0.120
-601.098	-69.834	-0.123	-0.047
-600.084	-200.000	0.012	0.261
-599.069	86.614	-0.086	-0.095
-598.055	433.506	0.055	-0.121
-597.040	585.942	-0.151	-0.374
-596.025	83.129	-0.092	-0.100
-595.011	-27.848	-0.086	0.050
-593.996	-92.102	-0.055	-0.016
-592.982	-200.000	-0.038	0.519
-591.967	-84.995	0.287	-0.091
-590.952	794.173	-0.076	0.211
-589.938	714.680	0.100	0.267
-588.923	432.273	-0.059	-0.130
-587.909	737.878	0.110	-0.297
-586.894	-137.845	-0.160	-0.018
-585.879	-200.000	0.008	0.372
-584.865	-183.032	-0.016	0.000
-583.850	113.856	-0.047	0.057
-582.836	-181.494	0.280	0.005
-581.821	800.000	-0.033	0.097
-580.806	800.000	0.027	0.114
-579.792	39.788	0.086	0.078
-578.777	-71.998	-0.048	-0.018
-577.763	-52.674	-0.319	0.148
-576.748	800.000	-0.030	-0.100
-575.733	25.767	-0.366	-0.306
-574.719	-59.936	-0.170	0.073
-573.704	-87.011	-0.171	0.052
-572.690	73.206	0.188	-0.198
-571.675	-121.593	0.279	-0.046
-570.661	800.000	-0.019	0.061
-569.646	-91.422	0.092	0.026
-568.631	-111.336	-0.160	0.033
-567.617	-57.608	-0.213	-0.094
-566.602	3.976	-0.268	-0.197
-565.588	127.375	0.192	0.244
-564.573	553.045	0.103	0.249
-563.558	-90.027	-0.284	-0.083
-562.544	-200.000	0.001	-0.332
-561.529	-200.000	-0.013	-0.077
-560.515	19.190	-0.024	0.020
-559.500	-5.026	-0.128	0.088
-558.485	-66.963	0.348	0.138
-557.471	800.000	-0.039	-0.146
-556.456	800.000	0.057	-0.181
-555.442	800.000	-0.074	-0.248
-554.427	65.537	-0.238	0.242
-553.412	-127.038	0.165	0.024
-552.398	148.712	0.101	0.137
-551.383	36.882	0.243	0.215
-550.369	800.000	-0.058	0.165
-549.354	347.912	-0.080	-0.158
-548.339	-57.334	0.371	-0.163
-547.325	649.620	-0.093	0.239
-546.310	-47.389	-0.112	-0.055
-545.296	477.095	0.054	-0.123
-544.281	-15.265	0.159	0.102
-543.266	-137.260	-0.320	0.036
-542.252	87.722	-0.055	-0.061
-541.237	-126.852	0.353	-0.052
-540.223	122.302	-0.178	-0.223
-539.208	-24.771	-0.257	-0.153
-538.193	409.577	-0.028	-0.061
-537.179	310.071	0.159	0.299
-536.164	112.658	-0.277	-0.337
-535.150	-134.943	-0.081	0.010
-534.135	1.042	0.233	0.167
-533.121	205.181	-0.152	0.237
-532.106	457.157	-0.102	0.228
-531.091	-11.828	-0.196	-0.129
-530.077	-200.000	0.034	0.166
-529.062	26.019	0.170	-0.143
-528.048	22.168	0.151	0.124
-527.033	478.020	-0.073	-0.166
-526.018	-1.730	0.156	0.110
-525.004	-104.159	-0.472	-0.110
-523.989	800.000	-0.051	-0.184
-522.975	-95.825	-0.326	0.087
-521.960	166.431	-0.066	-0.094
-520.945	-200.000	0.092	-0.458
-519.931	303.012	0.047	0.088
-518.916	-111.961	-0.153	0.031
-517.902	-62.514	-0.237	-0.099
-516.887	-75.931	0.172	0.061
-515.872	800.000	0.092	0.294
-514.858	246.886	0.072	-0.122
-513.843	-59.591	0.243	-0.104
-512.829	117.296	-0.170	-0.210
-511.814	-200.000	0.009	-0.395
-510.799	800.000	-0.030	0.119
-509.785	-97.208	-0.058	-0.015
-508.770	-200.000	0.009	-0.068
-507.756	-200.000	0.005	0.128
-506.741	331.387	0.063	0.122
-505.726	800.000	0.075	0.248
-504.712	-20.378	0.173	0.106
-503.697	-116.490	-0.141	0.026
-502.683	-200.000	-0.037	0.218
-501.668	69.440	-0.038	-0.039
-500.653	-200.000	-0.010	-0.160
-499.639	-35.932	0.296	-0.161
-498.624	-140.284	0.267	0.028
-497.610	-88.982	-0.147	-0.043
-496.595	-65.577	0.260	0.105
-495.581	34.598	0.146	0.128
-494.566	800.000	0.105	-0.306
-493.551	-145.765	0.194	0.017
-492.537	481.421	0.138	-0.314
-491.522	304.551	-0.086	0.160
-490.508	-200.000	0.003	-0.131
-489.493	348.441	-0.105	0.208
-488.478	-110.991	-0.098	-0.020
-487.464	-200.000	-0.007	-0.043
-486.449	800.000	-0.058	0.192
-485.435	800.000	0.025	-0.069
-484.420	134.408	0.311	-0.403
-483.405	534.063	-0.151	0.359
-482.391	-27.858	-0.262	0.152
-481.376	19.855	0.165	-0.133
-480.362	-47.376	0.407	-0.198
-479.347	800.000	-0.113	0.320
-478.332	-200.000	-0.009	0.343
-477.318	-76.100	-0.184	0.065
-476.303	140.784	-0.181	0.240
-475.289	-22.235	-0.082	0.050
-474.274	92.205	0.259	-0.292
-473.259	95.003	-0.257	-0.293
-472.245	-200.000	0.054	-0.279
-471.230	-38.057	-0.220	-0.117
-470.216	-31.229	0.219	0.123
-469.201	-129.677	0.168	-0.023
-468.186	42.576	-0.015	-0.013
-467.172	-200.000	-0.011	0.277
-466.157	313.111	0.132	0.249
-465.143	-148.658	-0.075	-0.006
-464.128	356.114	-0.071	-0.142
-463.113	-66.642	-0.341	0.135
-462.099	800.000	-0.074	0.250
-461.084	-81.149	-0.145	0.048
-460.070	38.307	0.152	0.136
-459.055	526.510	0.097	0.228
-458.040	142.415	0.080	0.106
-457.026	192.841	-0.076	0.115
-456.011	376.036	-0.089	-0.182
-454.997	-151.198	-0.133	-0.010
-453.982	-45.968	0.341	-0.168
-452.968	-200.000	-0.051	-0.239
-451.953	-48.120	0.046	-0.022
-450.938	440.208	-0.032	0.070
-449.924	800.000	0.022	0.094
-448.909	-43.488	-0.184	0.093
-447.895	-110.905	0.027	0.006
-446.880	47.992	0.279	0.261
-445.865	-200.000	-0.024	0.270
-444.851	800.000	0.064	0.238
-443.836	85.833	0.184	0.202
-442.822	800.000	0.031	0.087
-441.807	-190.696	-0.206	0.002
-440.792	422.859	-0.051	0.109
-439.778	-71.734	-0.120	-0.045
-438.763	-191.238	-0.087	-0.001
-437.749	-129.435	0.084	-0.012
-436.734	355.418	-0.025	-0.050
-435.719	800.000	-0.047	-0.182
-434.705	473.031	0.122	0.275
-433.690	-200.000	0.008	0.129
-432.676	153.803	-0.098	-0.134
-431.661	-122.675	-0.448	-0.073
-430.646	-130.523	-0.557	-0.075
-429.632	113.572	-0.090	-0.109
-428.617	800.000	-0.086	-0.318
-427.603	800.000	0.086	-0.304
-426.588	655.988	0.062	0.160
-425.573	-97.596	0.245	0.064
-424.559	70.268	0.150	0.155
-423.544	-66.039	-0.290	0.116
-422.530	-73.527	0.050	-0.018
-421.515	110.576	-0.148	0.177
-420.500	269.461	0.163	0.287
-419.486	139.296	0.061	-0.080
-418.471	-175.490	0.387	0.011
-417.457	-38.965	0.187	0.098
-416.442	295.421	-0.053	-0.096
-415.428	-53.554	-0.158	0.072
-414.413	3.285	0.266	0.194
-413.398	-17.931	-0.153	-0.096
-412.384	20.033	0.041	0.033
-411.369	617.915	-0.076	-0.190
-410.355	-200.000	-0.024	0.295
-409.340	226.297	-0.186	0.302
-408.325	-200.000	0.025	0.173
-407.311	-57.071	-0.091	0.040
-406.296	93.985	0.171	-0.194
-405.282	-38.191	-0.070	-0.037
-404.267	78.140	-0.066	-0.071
-403.252	-173.422	0.088	0.003
-402.238	-65.419	0.239	0.096
-401.223	259.631	-0.173	0.298
-400.209	-23.121	-0.178	0.107
-399.194	106.955	0.041	-0.049
-398.179	145.044	-0.046	-0.062
-397.165	85.288	-0.141	-0.154
-396.150	591.146	-0.045	-0.110
-395.136	-200.000	0.009	-0.042
-394.121	52.502	0.177	-0.169
-393.106	800.000	-0.026	0.086
-392.092	47.027	-0.086	0.080
-391.077	-13.131	-0.074	-0.048
-390.063	-200.000	-0.038	0.201
-389.048	-169.066	0.031	0.001
-388.033	-12.920	0.166	0.108
-387.019	800.000	0.118	0.462
-386.004	-178.522	-0.251	-0.006
-384.990	-200.000	-0.040	0.186
-383.975	310.905	0.080	0.149
-382.960	40.385	0.134	-0.120
-381.946	-153.834	0.072	0.005
-380.931	-128.562	0.164	-0.023
-379.917	800.000	-0.040	0.155
-378.902	98.612	-0.199	0.229
-377.888	42.649	-0.290	-0.263
-376.873	-48.529	-0.059	0.028
-375.858	-127.199	0.264	-0.038
-374.844	36.918	0.206	-0.182
-373.829	-200.000	0.016	-0.144
-372.815	-70.055	-0.134	0.051
-371.800	-90.424	-0.253	-0.073
-370.785	-62.641	0.245	-0.101
-369.771	89.512	0.229	0.254
-368.756	-88.793	0.129	0.038
-367.742	-150.538	-0.243	0.019
-366.727	-200.000	-0.045	-0.449
-365.712	22.673	0.192	-0.157
-364.698	-141.663	-0.278	-0.028
-363.683	279.661	-0.248	0.442
-362.669	800.000	-0.049	-0.186
-361.654	47.603	0.111	-0.103
-360.639	-153.494	-0.275	-0.019
-359.625	107.352	-0.097	0.115
-358.610	-89.454	-0.266	0.078
-357.596	12.448	0.165	0.127
-356.581	-106.058	-0.298	-0.067
-355.566	294.288	-0.034	-0.062
-354.552	-63.322	-0.065	0.027
-353.537	73.447	-0.115	0.120
-352.523	328.916	-0.145	0.277
-351.508	800.000	0.024	0.101
-350.493	800.000	0.054	-0.153
-349.479	-34.134	-0.228	0.125
-348.464	800.000	-0.032	0.097
-347.450	-200.000	0.003	0.081
-346.435	124.714	0.042	-0.053
-345.420	-136.916	-0.235	0.027
-344.406	506.524	0.111	0.256
-343.391	400.089	0.163	-0.341
-342.377	-1.849	0.230	0.161
-341.362	-78.131	0.238	0.082
-340.348	46.048	-0.223	-0.205
-339.333	-118.307	0.156	0.028
-338.318	140.791	0.137	0.180
-337.304	-2.927	0.309	-0.215
-336.289	161.267	0.152	0.211
-335.275	55.839	0.300	-0.289
-334.260	39.323	-0.098	-0.087
-333.245	97.542	0.101	0.116
-332.231	6.716	-0.241	-0.178
-331.216	299.475	-0.055	-0.101
-330.202	-200.000	0.015	-0.089
-329.187	55.157	-0.232	-0.223
-328.172	-54.240	-0.010	0.004
-327.158	-73.215	0.145	0.053
-326.143	37.614	-0.190	-0.168
-325.129	203.233	-0.138	-0.212
-324.114	-70.089	0.179	0.068
-323.099	-117.357	-0.148	0.027
-322.085	105.685	0.217	-0.256
-321.070	-70.688	-0.436	-0.164
-320.056	-43.404	-0.176	-0.088
-319.041	89.190	0.204	-0.225
-318.026	25.350	-0.155	-0.128
-317.012	671.381	0.196	0.506
-315.997	182.954	0.159	-0.233
-314.983	800.000	-0.041	-0.164
-313.968	-200.000	0.020	0.189
-312.953	800.000	0.158	-0.469
-311.939	45.782	0.098	0.090
-310.924	9.449	-0.102	-0.077
-309.910	800.000	0.011	-0.042
-308.895	-142.222	0.191	0.019
-307.880	199.551	0.104	-0.158
-306.866	357.701	0.090	0.179
-305.851	36.759	0.075	-0.066
-304.837	237.844	0.048	0.080
-303.822	79.719	-0.139	-0.149
-302.807	172.108	-0.113	0.161
-301.793	154.639	0.096	-0.130
-300.778	-200.000	0.032	0.144
-299.764	25.908	-0.219	-0.181
-298.749	800.000	0.055	-0.175
-297.735	34.497	-0.179	0.155
-296.720	-200.000	-0.006	0.157
-295.705	218.049	-0.038	-0.060
-294.691	291.806	-0.064	-0.115
-293.676	-79.345	0.073	0.025
-292.662	187.903	0.091	-0.136
-291.647	-151.341	0.227	-0.017
-290.632	-200.000	0.018	-0.183
-289.618	108.366	0.133	-0.158
-288.603	-168.265	-0.263	0.010
-287.589	-200.000	0.038	0.216
-286.574	-154.646	0.216	-0.014
-285.559	417.342	0.117	0.249
-284.545	611.206	-0.018	-0.044
-283.530	126.386	0.160	0.202
-282.516	-194.452	-0.206	-0.002
-281.501	-200.000	0.066	0.423
-280.486	-200.000	0.030	-0.191
-279.472	800.000	-0.053	0.218
-278.457	800.000	0.023	-0.073
-277.443	156.720	-0.103	0.141
-276.428	-200.000	0.006	0.186
-275.413	-169.534	-0.356	0.013
-274.399	24.680	-0.036	0.030
-273.384	20.835	0.071	0.057
-272.370	324.174	0.122	-0.231
-271.355	272.000	0.054	0.094
-270.340	294.689	0.184	0.334
-269.326	-200.000	-0.001	-0.061
-268.311	800.000	0.036	-0.122
-267.297	800.000	0.084	-0.245
-266.282	-200.000	0.012	-0.100
-265.267	-53.017	0.346	0.158
-264.253	162.613	0.239	-0.333
-263.238	-78.404	0.148	0.050
-262.224	-17.614	-0.200	0.125
-261.209	800.000	-0.062	0.228
-260.195	-200.000	0.070	0.331
-259.180	-76.273	0.211	0.074
-258.165	302.386	-0.074	-0.136
-257.151	800.000	0.053	-0.156
-256.136	-38.393	0.145	0.076
-255.122	153.209	0.151	0.205
-254.107	-44.945	0.063	0.031
-253.092	800.000	0.033	0.124
-252.078	-200.000	-0.001	-0.011
-251.063	-18.517	0.104	0.065
-250.049	514.461	-0.016	-0.037
-249.034	37.449	-0.165	-0.145
-248.019	202.367	0.165	-0.253
-247.005	-144.923	0.167	-0.015
-245.990	442.943	0.071	-0.155
-244.976	-123.418	0.478	-0.076
-243.961	800.000	0.052	0.187
-242.946	800.000	-0.046	0.192
-241.932	318.427	0.120	-0.226
-240.917	-200.000	-0.071	-0.312
-239.903	189.361	0.261	-0.388
-238.888	800.000	0.083	-0.261
-237.873	16.405	-0.153	-0.120
-236.859	-115.533	-0.220	-0.041
-235.844	-49.951	-0.219	-0.103
-234.830	-45.195	0.242	0.119
-233.815	142.244	-0.159	0.210
-232.800	-141.103	0.549	0.056
-231.786	-135.314	0.264	0.031
-230.771	-20.922	0.233	-0.142
-229.757	582.442	-0.148	0.361
-228.742	-200.000	0.013	0.263
-227.727	765.269	-0.146	-0.394
-226.713	-98.080	0.126	0.032
-225.698	-161.193	0.095	-0.005
-224.684	191.994	-0.047	-0.070
-223.669	-42.084	-0.245	-0.124
-222.655	-56.843	0.121	0.053
-221.640	-96.707	-0.262	0.068
-220.625	-165.520	-0.203	-0.009
-219.611	-103.412	-0.038	0.009
-218.596	284.849	-0.096	0.170
-217.582	-114.452	0.261	-0.050
-216.567	-144.061	-0.068	0.006
-215.552	70.928	0.063	-0.065
-214.538	-165.008	0.286	-0.013
-213.523	-113.426	-0.066	-0.013
-212.509	-117.792	0.243	0.043
-211.494	733.184	-0.094	-0.248
-210.479	259.293	-0.197	0.336
-209.465	-69.263	-0.122	0.047
-208.450	72.856	0.082	0.085
-207.436	-119.985	-0.084	-0.014
-206.421	-55.072	-0.294	-0.131
-205.406	-57.693	-0.200	0.087
-204.392	165.184	-0.122	0.171
-203.377	143.502	0.190	0.250
-202.363	-93.536	0.438	0.120
-201.348	-111.307	0.167	-0.034
-200.333	-84.524	-0.231	0.072
-199.319	-200.000	0.027	-0.283
-198.304	-23.110	0.031	-0.019
-197.290	800.000	-0.063	-0.199
-196.275	200.247	-0.122	0.186
-195.260	300.112	-0.127	0.232
-194.246	-200.000	0.019	0.310
-193.231	271.429	-0.158	-0.275
-192.217	76.473	-0.124	0.130
-191.202	800.000	0.047	-0.154
-190.187	150.050	0.075	0.101
-189.173	-77.258	-0.158	-0.054
-188.158	20.165	-0.090	-0.072
-187.144	-200.000	-0.055	-0.382
-186.129	-137.052	0.046	0.005
-185.114	800.000	0.043	-0.131
-184.100	79.026	0.103	-0.109
-183.085	-60.158	-0.299	-0.126
-182.071	-51.246	-0.259	-0.120
-181.056	229.381	-0.062	0.100
-180.042	-49.531	-0.073	0.034
-179.027	29.599	-0.196	0.165
-178.012	-129.920	0.330	0.045
-176.998	95.036	0.055	0.062
-175.983	-163.389	-0.453	0.021
-174.969	-111.762	0.165	-0.033
-173.954	-76.950	-0.067	-0.023
-172.939	-200.000	-0.078	0.568
-171.925	-89.996	0.297	0.086
-170.910	-200.000	-0.001	0.243
-169.896	136.127	-0.088	-0.114
-168.881	800.000	0.099	0.303
-167.866	26.978	0.220	-0.182
-166.852	-200.000	-0.013	-0.184
-165.837	-155.034	0.236	-0.015
-164.823	12.834	0.160	-0.122
-163.808	128.772	0.167	-0.210
-162.793	-121.103	0.079	0.013
-161.779	569.219	-0.134	0.323
-160.764	-200.000	0.034	0.205
-159.750	241.898	-0.037	0.062
-158.735	-200.000	0.023	0.173
-157.720	-200.000	0.017	0.124
-156.706	-200.000	-0.054	-0.242
-155.691	451.872	0.153	-0.335
-154.677	76.046	0.173	-0.181
-153.662	273.423	0.068	0.119
-152.647	-70.092	0.170	0.064
-151.633	-54.260	0.113	0.051
-150.618	119.685	0.076	-0.092
-149.604	-25.385	0.412	-0.241
-148.589	-89.053	-0.116	0.034
-147.574	-200.000	-0.008	-0.182
-146.560	-85.757	-0.184	0.056
-145.545	-156.896	0.233	-0.014
-144.531	-56.500	0.361	-0.158
-143.516	-97.796	-0.195	-0.050
-142.502	296.356	-0.054	0.098
-141.487	800.000	0.052	-0.219
-140.472	52.805	-0.152	-0.143
-139.458	-129.549	0.204	0.028
-138.443	800.000	0.060	0.207
-137.429	-74.276	0.244	-0.087
-136.414	51.557	-0.259	0.243
-135.399	-37.361	-0.333	-0.176
-134.385	800.000	0.021	-0.066
-133.370	11.536	0.157	-0.119
-132.356	-23.717	-0.158	0.094
-131.341	312.005	0.044	-0.082
-130.326	800.000	0.053	-0.214
-129.312	-200.000	-0.008	-0.352
-128.297	422.301	0.242	-0.512
-127.283	-29.108	-0.074	0.042
-126.268	-200.000	-0.001	-0.111
-125.253	99.281	-0.090	0.103
-124.239	-55.002	-0.139	-0.062
-123.224	-193.800	-0.211	0.002
-122.210	-66.538	-0.376	0.147
-121.195	116.690	-0.051	-0.061
