DTS Sentinel unit serial number:	SN413079Multiplexer serial number:	ORYXHardware model number:	OX4-SRSoftware version number:	ORYX F/W v4.00 Oryx Data Collector v3.7.2.0data status	okinstallation	princeton_trtdifferential loss correction	single-endedforward channel	channel 1reverse channel	N/Adate	2019/09/14time	03:22:36forward acquisition time	60.00reverse acquisition time	0.00gamma	496.2192k internal	0.2335k external	0.2335temperature offset calibration	1.0079default loss term (dB/km)	0.3790temperature slope calibration	1.0000multiplexer offset coefficient	1.0000multiplexer slope coefficient	1.0000fibre end	0.00T internal ref (°C)	26.62T ext. ref 1 (°C)	3.27T ext. ref 2 (°C)	21.64length (m)	temperature (°C)	Stokes	anti-Stokes-747.200	30.549	0.313	0.269
-746.185	-42.376	-0.294	-0.151
-745.171	-30.343	0.254	0.145
-744.156	16.037	-0.093	0.073
-743.142	-106.180	0.335	0.075
-742.127	-164.976	0.251	-0.011
-741.112	428.992	0.138	-0.300
-740.098	-33.654	-0.162	0.090
-739.083	-68.291	-0.149	0.058
-738.069	533.833	0.071	0.169
-737.054	-20.907	0.190	-0.117
-736.039	-144.670	-0.352	0.033
-735.025	800.000	0.011	0.046
-734.010	159.981	0.068	-0.095
-732.996	307.616	-0.191	-0.357
-731.981	-200.000	-0.010	0.194
-730.966	-64.016	-0.208	0.085
-729.952	384.738	-0.089	0.185
-728.937	138.283	-0.258	0.339
-727.923	-21.233	-0.184	-0.113
-726.908	-200.000	0.015	-0.120
-725.894	-66.926	0.039	0.015
-724.879	-42.641	0.187	0.095
-723.864	18.617	-0.179	0.144
-722.850	-200.000	0.008	0.071
-721.835	112.509	-0.184	-0.223
-720.821	-200.000	0.038	-0.244
-719.806	30.164	0.093	0.080
-718.791	31.282	-0.136	-0.118
-717.777	122.210	0.048	0.061
-716.762	52.518	0.174	-0.167
-715.748	-14.746	0.222	0.143
-714.733	191.541	-0.107	0.161
-713.718	-123.978	0.484	0.076
-712.704	372.607	0.090	0.183
-711.689	-200.000	0.062	0.298
-710.675	-40.977	0.214	0.111
-709.660	-52.847	0.130	-0.060
-708.645	-200.000	-0.003	0.491
-707.631	-89.530	0.301	0.089
-706.616	-150.679	-0.130	-0.010
-705.602	0.789	-0.230	0.165
-704.587	800.000	-0.020	0.075
-703.572	-200.000	0.028	0.163
-702.558	228.488	0.123	-0.202
-701.543	-200.000	0.006	-0.101
-700.529	57.768	-0.224	0.220
-699.514	38.862	0.198	0.177
-698.499	800.000	0.060	-0.242
-697.485	-200.000	-0.040	-0.240
-696.470	800.000	-0.058	0.216
-695.456	334.135	0.119	0.231
-694.441	-200.000	0.011	-0.193
-693.426	-200.000	-0.027	-0.275
-692.412	-62.471	0.129	-0.054
-691.397	-148.880	-0.146	-0.012
-690.383	-31.043	-0.195	0.110
-689.368	800.000	-0.068	0.284
-688.354	-200.000	0.018	-0.099
-687.339	12.584	0.092	-0.071
-686.324	-126.029	0.295	-0.044
-685.310	118.814	-0.250	0.309
-684.295	-181.386	-0.247	-0.005
-683.281	-163.959	-0.186	0.009
-682.266	-6.053	0.231	0.158
-681.251	-91.322	-0.254	-0.073
-680.237	255.020	0.157	-0.269
-679.222	800.000	0.030	0.122
-678.208	-101.211	0.273	0.067
-677.193	-115.606	-0.017	0.003
-676.178	-24.415	0.281	-0.168
-675.164	135.251	-0.151	0.197
-674.149	73.780	-0.050	-0.052
-673.135	80.339	-0.076	-0.082
-672.120	-200.000	0.041	-0.233
-671.105	98.414	-0.155	0.179
-670.091	49.553	-0.023	0.022
-669.076	-142.043	0.239	0.024
-668.062	800.000	-0.048	-0.152
-667.047	-200.000	0.026	-0.485
-666.032	800.000	-0.084	-0.320
-665.018	-200.000	-0.002	-0.196
-664.003	800.000	0.079	0.250
-662.989	-142.471	0.226	-0.022
-661.974	237.108	-0.070	0.116
-660.959	-74.756	0.211	0.076
-659.945	185.757	-0.046	-0.069
-658.930	-97.175	-0.455	-0.119
-657.916	414.190	0.040	-0.084
-656.901	-78.029	0.384	-0.132
-655.886	294.612	0.051	-0.093
-654.872	-58.272	-0.159	0.069
-653.857	472.629	-0.087	0.196
-652.843	-58.004	-0.093	-0.041
-651.828	-167.425	-0.251	-0.010
-650.814	66.032	0.155	-0.157
-649.799	800.000	-0.087	-0.255
-648.784	-53.534	0.199	-0.091
-647.770	-200.000	-0.000	-0.360
-646.755	-173.412	0.119	0.004
-645.741	195.075	-0.077	0.117
-644.726	98.970	-0.155	0.179
-643.711	800.000	-0.010	-0.033
-642.697	220.797	-0.078	-0.126
-641.682	-28.815	0.245	-0.141
-640.668	800.000	-0.107	0.299
-639.653	-94.754	0.108	0.029
-638.638	-142.087	0.239	0.024
-637.624	440.048	-0.159	-0.347
-636.609	211.843	0.108	0.170
-635.595	-99.506	0.137	0.034
-634.580	75.885	0.093	-0.098
-633.565	-126.948	-0.130	0.019
-632.551	56.402	0.123	-0.119
-631.536	51.530	-0.134	0.128
-630.522	129.115	0.149	-0.191
-629.507	151.237	0.209	-0.285
-628.492	-96.779	-0.150	0.039
-627.478	800.000	-0.078	-0.313
-626.463	-99.325	0.046	0.011
-625.449	-127.240	0.068	0.010
-624.434	-38.264	-0.135	0.072
-623.419	800.000	0.047	0.204
-622.405	-35.267	0.178	-0.097
-621.390	800.000	0.012	0.045
-620.376	-60.731	0.164	0.070
-619.361	-200.000	-0.053	-0.347
-618.346	-184.142	-0.149	-0.002
-617.332	-28.142	-0.174	0.100
-616.317	-200.000	-0.002	0.061
-615.303	127.862	0.105	0.133
-614.288	-69.732	-0.213	0.082
-613.273	-157.656	0.239	-0.014
-612.259	-49.222	0.146	-0.070
-611.244	164.738	-0.064	0.090
-610.230	-14.509	-0.089	-0.057
-609.215	183.376	-0.053	-0.078
-608.201	-103.379	0.189	0.045
-607.186	-200.000	-0.008	-0.100
-606.171	-200.000	0.051	-0.240
-605.157	277.517	0.038	0.067
-604.142	129.721	-0.083	0.107
-603.128	28.884	0.135	0.114
-602.113	27.486	0.215	0.180
-601.098	28.515	0.031	-0.026
-600.084	11.912	0.216	-0.166
-599.069	58.801	-0.123	-0.121
-598.055	-136.800	-0.246	-0.028
-597.040	800.000	0.048	-0.187
-596.025	2.462	-0.334	-0.241
-595.011	33.032	0.199	-0.172
-593.996	52.740	-0.429	-0.410
-592.982	294.797	0.145	-0.265
-591.967	9.842	-0.423	-0.321
-590.952	-92.376	0.286	-0.080
-589.938	169.475	-0.066	-0.094
-588.923	560.667	-0.073	-0.176
-587.909	-59.699	-0.207	0.088
-586.894	795.202	-0.051	0.140
-585.879	-200.000	-0.060	0.349
-584.865	-114.820	0.133	-0.025
-583.850	-148.999	-0.159	0.013
-582.836	-200.000	0.006	0.180
-581.821	-132.403	0.299	0.038
-580.806	-200.000	0.029	0.136
-579.792	-200.000	0.005	-0.081
-578.777	-40.557	0.578	0.299
-577.763	19.450	0.087	0.070
-576.748	800.000	-0.042	0.164
-575.733	-158.482	-0.120	-0.007
-574.719	163.064	0.162	-0.227
-573.704	800.000	-0.035	-0.147
-572.690	-64.776	-0.261	0.106
-571.675	-200.000	-0.047	0.352
-570.661	-132.884	-0.248	0.031
-569.646	-200.000	0.002	-0.124
-568.631	-77.188	-0.282	-0.098
-567.617	-55.689	-0.286	-0.128
-566.602	-185.017	0.295	0.005
-565.588	-94.591	-0.236	-0.064
-564.573	419.190	-0.127	0.271
-563.558	-26.698	0.409	-0.239
-562.544	-107.644	-0.176	0.038
-561.529	327.900	-0.037	0.071
-560.515	-34.319	0.081	-0.044
-559.500	1.620	0.200	0.144
-558.485	-200.000	0.067	0.408
-557.471	128.401	-0.112	-0.142
-556.456	800.000	-0.141	-0.423
-555.442	476.509	0.120	-0.269
-554.427	10.675	-0.208	0.158
-553.412	-109.798	0.238	-0.050
-552.398	736.796	0.025	-0.068
-551.383	113.139	0.141	-0.170
-550.369	5.931	0.238	-0.176
-549.354	-42.051	-0.108	-0.055
-548.339	115.790	0.220	0.268
-547.325	153.111	0.068	0.093
-546.310	800.000	-0.052	-0.148
-545.296	37.796	0.123	-0.109
-544.281	96.243	-0.127	-0.145
-543.266	-200.000	0.020	0.104
-542.252	-200.000	-0.047	-0.270
-541.237	132.530	0.187	-0.240
-540.223	-129.846	-0.143	-0.020
-539.208	-43.294	-0.257	0.129
-538.193	343.792	-0.116	-0.226
-537.179	426.117	0.069	0.147
-536.164	129.027	-0.088	0.112
-535.150	-34.760	-0.262	0.143
-534.135	742.351	-0.148	0.398
-533.121	-200.000	0.044	-0.346
-532.106	74.386	-0.168	0.176
-531.091	-121.196	0.349	0.058
-530.077	800.000	0.035	0.126
-529.062	641.846	-0.092	0.234
-528.048	-134.282	-0.415	-0.051
-527.033	-60.259	-0.411	0.174
-526.018	29.729	-0.106	0.090
-525.004	-200.000	0.010	-0.149
-523.989	288.104	-0.169	-0.305
-522.975	-42.729	-0.083	0.042
-521.960	277.249	0.187	-0.331
-520.945	451.096	-0.033	-0.072
-519.931	-200.000	0.035	-0.158
-518.916	-176.963	0.187	-0.005
-517.902	-200.000	0.012	0.210
-516.887	-200.000	-0.025	-0.134
-515.872	-48.786	-0.165	-0.079
-514.858	-200.000	0.015	0.432
-513.843	53.399	0.108	-0.103
-512.829	-132.794	-0.453	-0.058
-511.814	-92.100	0.318	0.089
-510.799	-149.707	0.130	0.010
-509.785	164.397	-0.053	-0.075
-508.770	54.016	0.120	-0.115
-507.756	-32.282	0.098	0.054
-506.741	-52.775	-0.257	0.118
-505.726	-200.000	0.067	0.000
-504.712	-42.441	-0.396	-0.201
-503.697	8.142	0.192	0.143
-502.683	-125.300	0.261	0.040
-501.668	-43.687	-0.123	-0.062
-500.653	800.000	0.084	-0.327
-499.639	-43.576	-0.158	0.079
-498.624	-0.264	-0.277	-0.196
-497.610	-200.000	0.029	-0.201
-496.595	80.012	-0.246	-0.263
-495.581	448.262	-0.072	0.158
-494.566	278.308	0.023	0.041
-493.551	188.674	-0.220	-0.327
-492.537	-200.000	0.015	0.361
-491.522	-72.479	0.161	-0.059
-490.508	3.048	0.158	0.114
-489.493	-108.666	0.114	0.024
-488.478	-200.000	0.005	-0.115
-487.464	347.407	0.070	0.138
-486.449	-102.024	0.103	0.025
-485.435	-75.892	-0.088	0.031
-484.420	14.542	0.209	-0.162
-483.405	-200.000	-0.064	0.426
-482.391	800.000	0.040	-0.118
-481.376	343.949	-0.067	0.131
-480.362	-80.351	0.068	-0.023
-479.347	483.198	0.092	0.208
-478.332	30.583	0.186	0.158
-477.318	-154.348	-0.062	-0.004
-476.303	-200.000	-0.030	0.153
-475.289	126.165	0.139	0.174
-474.274	-134.148	-0.210	0.026
-473.259	579.863	0.052	0.127
-472.245	-0.483	0.129	-0.091
-471.230	70.761	0.319	-0.328
-470.216	-133.831	0.026	0.003
-469.201	15.613	-0.088	-0.068
-468.186	-175.655	-0.369	-0.010
-467.172	230.070	-0.079	-0.129
-466.157	-161.350	0.164	-0.008
-465.143	441.910	0.048	0.104
-464.128	67.291	-0.135	-0.137
-463.113	-178.371	-0.264	0.006
-462.099	-200.000	-0.016	0.126
-461.084	374.461	-0.110	0.222
-460.070	-98.956	0.123	-0.031
-459.055	800.000	0.046	0.153
-458.040	-200.000	-0.000	0.129
-457.026	-93.207	-0.243	0.067
-456.011	-52.074	-0.237	0.109
-454.997	-146.967	0.098	0.008
-453.982	-31.216	0.288	0.161
-452.968	87.985	0.186	-0.205
-451.953	-99.342	-0.243	0.061
-450.938	800.000	0.041	0.117
-449.924	-122.546	0.127	0.021
-448.909	-200.000	0.011	-0.152
-447.895	-117.494	-0.152	0.027
-446.880	188.264	-0.065	0.097
-445.865	360.845	0.065	0.129
-444.851	123.212	0.063	-0.079
-443.836	-108.706	-0.192	-0.041
-442.822	90.763	-0.159	0.176
-441.807	-114.508	-0.126	-0.024
-440.792	-61.337	0.065	-0.027
-439.778	23.527	0.352	0.288
-438.763	3.980	-0.248	0.180
-437.749	-72.020	0.378	0.139
-436.734	-124.121	0.047	-0.007
-435.719	800.000	-0.030	0.100
-434.705	-40.856	-0.215	0.110
-433.690	-88.810	-0.261	0.077
-432.676	-20.312	0.129	0.079
-431.661	471.193	0.065	0.146
-430.646	-2.954	-0.204	0.142
-429.632	-20.109	-0.084	-0.051
-428.617	143.225	-0.090	-0.119
-427.603	-78.340	0.255	0.087
-426.588	206.212	-0.048	-0.074
-425.573	84.151	-0.071	-0.077
-424.559	481.263	0.146	0.330
-423.544	-126.994	0.110	-0.016
-422.530	0.116	0.170	0.120
-421.515	407.740	0.061	0.129
-420.500	-81.286	-0.207	0.068
-419.486	328.915	-0.018	-0.033
-418.471	-200.000	-0.025	-0.180
-417.457	112.111	0.061	0.073
-416.442	-82.893	0.263	0.084
-415.428	78.085	0.341	-0.361
-414.413	41.058	0.116	0.104
-413.398	-21.574	-0.155	-0.094
-412.384	-200.000	0.025	-0.239
-411.369	-200.000	0.033	-0.395
-410.355	-1.653	-0.209	-0.146
-409.340	162.708	-0.163	0.227
-408.325	-200.000	0.043	0.190
-407.311	-151.369	0.186	0.014
-406.296	-10.204	0.278	0.183
-405.282	121.081	0.076	-0.093
-404.267	-200.000	0.017	0.230
-403.252	601.883	-0.072	-0.177
-402.238	191.358	0.068	-0.102
-401.223	800.000	0.009	-0.040
-400.209	8.374	-0.303	0.226
-399.194	336.093	0.148	0.285
-398.179	800.000	0.067	0.187
-397.165	338.728	0.206	-0.397
-396.150	344.962	-0.167	-0.325
-395.136	40.917	0.013	-0.011
-394.121	-74.741	0.304	-0.108
-393.106	-86.452	-0.297	-0.090
-392.092	27.652	-0.273	-0.228
-391.077	-95.042	0.123	0.033
-390.063	-93.767	-0.305	-0.083
-389.048	498.846	0.085	-0.194
-388.033	-81.921	-0.275	-0.089
-387.019	-20.862	-0.116	-0.071
-386.004	-106.799	0.309	-0.068
-384.990	-200.000	-0.026	0.387
-383.975	-131.634	-0.112	0.015
-382.960	-200.000	0.021	-0.231
-381.946	-82.658	0.307	0.099
-380.931	-200.000	-0.005	0.177
-379.917	139.164	-0.081	0.106
-378.902	591.390	-0.030	-0.073
-377.888	-114.785	0.122	0.023
-376.873	165.436	0.227	0.318
-375.858	192.274	-0.104	-0.155
-374.844	-49.327	0.098	-0.046
-373.829	-30.958	0.369	0.206
-372.815	-57.204	-0.235	-0.102
-371.800	372.281	-0.050	-0.101
-370.785	9.035	0.130	-0.097
-369.771	-42.498	-0.172	-0.087
-368.756	-195.617	-0.158	-0.001
-367.742	52.137	0.149	0.140
-366.727	-91.048	0.219	0.062
-365.712	-29.086	0.272	-0.155
-364.698	342.383	-0.008	0.016
-363.683	96.378	0.203	0.230
-362.669	800.000	-0.107	-0.438
-361.654	285.470	-0.177	-0.316
-360.639	-200.000	-0.050	-0.315
-359.625	800.000	-0.020	0.073
-358.610	239.332	-0.110	-0.180
-357.596	-200.000	-0.012	0.088
-356.581	212.522	-0.153	-0.239
-355.566	-5.696	0.038	0.026
-354.552	342.822	-0.040	-0.078
-353.537	-124.053	-0.304	0.047
-352.523	116.156	0.102	0.124
-351.508	-200.000	-0.009	-0.207
-350.493	-67.236	0.236	-0.092
-349.479	-110.407	0.295	0.061
-348.464	-33.923	0.322	0.175
-347.450	-200.000	-0.001	0.049
-346.435	-66.889	-0.345	-0.135
-345.420	253.516	0.026	-0.044
-344.406	-200.000	0.034	-0.177
-343.391	-200.000	-0.271	0.001
-342.377	116.355	0.009	-0.011
-341.362	230.633	0.178	-0.288
-340.348	-25.829	0.205	0.119
-339.333	61.766	-0.195	-0.192
-338.318	-98.496	-0.109	-0.028
-337.304	-131.819	0.198	0.026
-336.289	800.000	0.056	0.205
-335.275	-200.000	0.004	-0.120
-334.260	-200.000	-0.008	-0.045
-333.245	-2.368	-0.076	0.053
-332.231	685.563	0.065	0.167
-331.216	-163.231	-0.401	0.019
-330.202	-164.431	0.083	0.004
-329.187	-15.129	0.191	0.121
-328.172	28.196	-0.093	0.078
-327.158	-10.185	0.011	0.007
-326.143	6.620	0.121	0.089
-325.129	80.193	-0.316	0.335
-324.114	-15.358	0.108	0.068
-323.099	-119.480	-0.312	-0.053
-322.085	554.536	-0.082	0.194
-321.070	-87.656	-0.243	0.073
-320.056	-94.085	-0.075	-0.020
-319.041	312.016	-0.126	-0.234
-318.026	-106.727	0.134	0.029
-317.012	800.000	0.067	0.234
-315.997	606.435	0.061	0.151
-314.983	-4.665	0.065	0.044
-313.968	-200.000	0.023	-0.150
-312.953	-157.459	0.177	-0.011
-311.939	800.000	-0.009	-0.027
-310.924	629.066	-0.107	-0.268
-309.910	242.566	-0.081	-0.134
-308.895	-200.000	-0.026	0.376
-307.880	-17.362	-0.155	-0.097
-306.866	26.322	0.117	-0.097
-305.851	131.921	-0.036	0.046
-304.837	800.000	0.061	0.167
-303.822	-19.135	0.299	-0.183
-302.807	800.000	-0.113	0.414
-301.793	81.488	-0.140	0.150
-300.778	-98.449	-0.277	0.070
-299.764	82.260	-0.094	0.101
-298.749	800.000	0.039	0.136
-297.735	800.000	-0.116	0.406
-296.720	-200.000	-0.003	-0.229
-295.705	89.032	0.146	-0.160
-294.691	-45.584	0.199	0.097
-293.676	-200.000	-0.015	-0.157
-292.662	447.779	-0.116	0.252
-291.647	-17.400	-0.258	0.160
-290.632	-96.880	0.325	0.084
-289.618	-172.231	-0.245	0.008
-288.603	-154.419	-0.266	-0.018
-287.589	116.242	0.102	-0.124
-286.574	121.668	-0.259	-0.319
-285.559	-128.273	0.314	-0.044
-284.545	-200.000	-0.016	0.327
-283.530	800.000	0.063	0.249
-282.516	188.515	-0.099	-0.146
-281.501	800.000	-0.049	0.163
-280.486	-153.864	0.165	-0.011
-279.472	223.075	-0.147	0.234
-278.457	4.167	-0.162	-0.117
-277.443	27.307	0.166	0.137
-276.428	-160.714	0.207	0.011
-275.413	-107.038	-0.309	0.067
-274.399	679.844	-0.077	0.198
-273.384	80.983	-0.063	-0.067
-272.370	-87.992	-0.252	0.075
-271.355	28.862	0.143	-0.119
-270.340	800.000	-0.062	-0.226
-269.326	-200.000	0.011	-0.135
-268.311	-116.308	-0.208	0.038
-267.297	267.734	-0.157	-0.270
-266.282	-3.054	0.224	-0.154
-265.267	-200.000	0.033	-0.188
-264.253	800.000	-0.034	-0.130
-263.238	-200.000	-0.057	-0.369
-262.224	657.644	-0.026	0.065
-261.209	800.000	0.105	0.345
-260.195	-20.641	0.099	-0.060
-259.180	46.746	0.181	0.166
-258.165	253.877	0.081	-0.136
-257.151	116.386	0.176	-0.213
-256.136	800.000	-0.074	-0.275
-255.122	-42.121	-0.145	-0.073
-254.107	-33.662	-0.227	-0.123
-253.092	-57.512	0.293	0.127
-252.078	413.675	0.109	-0.229
-251.063	182.623	0.080	0.116
-250.049	194.072	-0.147	-0.219
-249.034	374.461	0.167	0.335
-248.019	-200.000	0.032	-0.139
-247.005	-89.165	0.046	-0.013
-245.990	-104.584	0.263	-0.060
-244.976	17.562	-0.051	0.040
-243.961	-103.390	0.164	0.038
-242.946	-65.275	-0.223	-0.089
-241.932	-186.744	-0.023	0.000
-240.917	-90.542	0.296	-0.084
-239.903	198.432	0.128	0.193
-238.888	10.090	0.199	0.149
-237.873	317.937	-0.234	0.437
-236.859	-200.000	-0.030	0.187
-235.844	-146.056	-0.304	0.026
-234.830	357.925	-0.161	0.315
-233.815	-200.000	-0.003	0.174
-232.800	-69.048	0.258	-0.098
-231.786	37.442	0.122	-0.106
-230.771	-200.000	0.028	0.147
-229.757	176.188	0.086	-0.122
-228.742	-200.000	-0.186	0.000
-227.727	59.095	0.093	0.091
-226.713	58.663	-0.094	0.091
-225.698	7.262	0.100	-0.073
-224.684	-200.000	0.076	-0.359
-223.669	49.080	0.259	0.240
-222.655	-142.420	-0.276	0.027
-221.640	-200.000	-0.013	0.158
-220.625	71.212	0.063	0.064
-219.611	-200.000	-0.002	-0.423
-218.596	-200.000	0.032	-0.142
-217.582	-77.467	0.211	0.072
-216.567	800.000	-0.049	0.207
-215.552	-53.806	-0.285	0.128
-214.538	-94.212	-0.356	0.096
-213.523	-114.802	0.254	-0.048
-212.509	354.943	-0.191	-0.373
-211.494	-200.000	0.012	-0.119
-210.479	800.000	0.093	0.267
-209.465	-78.247	0.006	-0.002
-208.450	-109.656	-0.096	0.020
-207.436	126.428	-0.209	0.260
-206.421	55.407	-0.139	0.132
-205.406	-170.743	-0.255	0.009
-204.392	-200.000	0.025	0.258
-203.377	-200.000	0.039	0.271
-202.363	-30.043	-0.342	0.192
-201.348	-200.000	-0.061	-0.301
-200.333	-19.901	0.214	-0.130
-199.319	-164.000	0.169	0.008
-198.304	-128.802	0.159	-0.022
-197.290	-96.476	-0.125	0.032
-196.275	-2.941	0.056	0.039
-195.260	65.645	-0.045	-0.044
-194.246	173.250	-0.093	-0.132
-193.231	599.001	-0.043	-0.105
-192.217	-200.000	0.005	0.112
-191.202	-191.259	0.307	-0.003
-190.187	36.074	0.041	-0.035
-189.173	44.096	0.278	-0.251
-188.158	40.385	0.205	-0.181
-187.144	800.000	0.037	0.129
-186.129	20.412	0.252	-0.200
-185.114	-88.664	0.269	0.079
-184.100	95.824	0.230	0.258
-183.085	-195.777	-0.088	0.001
-182.071	-48.541	0.242	0.114
-181.056	800.000	-0.117	-0.462
-180.042	-146.511	-0.287	0.025
-179.027	-200.000	-0.029	0.216
-178.012	-200.000	-0.003	0.189
-176.998	710.176	0.082	0.212
-175.983	-88.978	-0.348	-0.101
-174.969	-91.389	0.124	-0.035
-173.954	-53.215	0.228	0.103
-172.939	-164.133	0.258	-0.012
-171.925	361.030	0.195	0.383
-170.910	-0.940	0.162	0.113
-169.896	-176.782	-0.311	0.008
-168.881	-127.787	0.261	0.037
-167.866	-200.000	-0.031	0.224
-166.852	-108.393	-0.086	-0.018
-165.837	-86.094	-0.358	0.109
-164.823	-200.000	0.023	0.180
-163.808	-200.000	0.027	-0.137
-162.793	334.783	0.049	-0.092
-161.779	-79.154	0.647	-0.216
-160.764	-200.000	-0.003	-0.025
-159.750	-200.000	0.032	-0.219
-158.735	800.000	0.021	0.078
-157.720	-35.615	-0.434	0.231
-156.706	-18.424	0.061	0.038
-155.691	-40.561	-0.166	-0.084
-154.677	-99.339	-0.294	0.073
-153.662	-44.466	0.211	-0.104
-152.647	302.484	0.117	-0.213
-151.633	-24.516	-0.252	-0.147
-150.618	115.815	0.180	-0.216
-149.604	-83.151	0.419	0.132
-148.589	-114.822	-0.362	0.068
-147.574	575.290	-0.102	-0.243
-146.560	35.883	0.112	0.097
-145.545	800.000	0.105	0.313
-144.531	-187.718	-0.354	-0.005
-143.516	-57.024	0.070	-0.030
-142.502	-91.577	-0.217	0.061
-141.487	800.000	0.074	0.243
-140.472	-99.166	0.202	0.050
-139.458	65.083	-0.097	-0.096
-138.443	455.208	-0.079	-0.171
-137.429	-147.552	-0.258	-0.021
-136.414	-125.704	0.071	-0.011
-135.399	-9.884	-0.186	0.121
-134.385	34.988	0.295	0.253
-133.370	-154.476	-0.150	0.010
-132.356	643.081	-0.066	-0.166
-131.341	489.431	0.048	-0.108
-130.326	16.581	0.098	-0.076
-129.312	31.798	0.077	0.065
-128.297	-157.326	0.260	-0.015
-127.283	-200.000	-0.055	0.256
-126.268	-200.000	-0.036	0.188
-125.253	-43.660	-0.119	-0.059
-124.239	-200.000	0.016	0.209
-123.224	38.804	-0.179	0.156
-122.210	-38.142	-0.410	-0.213
-121.195	800.000	-0.092	-0.299
-120.180	-37.908	-0.069	-0.036
