DTS Sentinel unit serial number:	SN413079Multiplexer serial number:	ORYXHardware model number:	OX4-SRSoftware version number:	ORYX F/W v4.00 Oryx Data Collector v3.7.2.0data status	okinstallation	princeton_trtdifferential loss correction	single-endedforward channel	channel 1reverse channel	N/Adate	2019/09/15time	07:34:35forward acquisition time	60.00reverse acquisition time	0.00gamma	496.2192k internal	0.2325k external	0.2325temperature offset calibration	1.0001default loss term (dB/km)	0.3790temperature slope calibration	1.0000multiplexer offset coefficient	1.0000multiplexer slope coefficient	1.0000fibre end	0.00T internal ref (°C)	30.62T ext. ref 1 (°C)	4.96T ext. ref 2 (°C)	25.42length (m)	temperature (°C)	Stokes	anti-Stokes-747.200	-149.218	0.370	0.030
-746.185	-200.000	-0.003	-0.035
-745.171	-156.193	0.145	0.009
-744.156	-24.285	-0.316	0.190
-743.142	221.294	-0.067	0.109
-742.127	331.387	-0.218	0.424
-741.112	-42.170	-0.405	-0.209
-740.098	62.972	-0.164	0.166
-739.083	572.495	0.108	-0.265
-738.069	394.845	-0.118	0.249
-737.054	634.661	-0.043	-0.111
-736.039	89.347	-0.170	-0.192
-735.025	421.726	0.117	0.253
-734.010	-26.376	-0.124	-0.074
-732.996	401.669	0.007	-0.015
-731.981	137.874	0.032	0.042
-730.966	34.334	-0.302	0.265
-729.952	-65.914	-0.102	0.041
-728.937	800.000	0.080	-0.350
-727.923	214.811	-0.090	0.144
-726.908	55.505	-0.452	-0.441
-725.894	-200.000	0.008	0.137
-724.879	161.167	0.013	-0.018
-723.864	27.170	0.106	0.090
-722.850	-134.112	-0.481	0.060
-721.835	-86.440	0.274	0.085
-720.821	21.409	-0.312	0.255
-719.806	-12.031	0.076	-0.050
-718.791	49.356	0.068	0.065
-717.777	-200.000	-0.016	0.069
-716.762	-39.745	-0.273	0.144
-715.748	-200.000	-0.034	0.254
-714.733	599.743	-0.170	0.424
-713.718	189.339	-0.038	0.058
-712.704	40.717	-0.046	-0.042
-711.689	-137.171	-0.111	0.013
-710.675	396.811	0.098	-0.207
-709.660	724.453	-0.103	0.277
-708.645	60.854	-0.217	0.217
-707.631	-200.000	-0.016	0.105
-706.616	37.973	-0.387	-0.347
-705.602	51.928	-0.047	0.045
-704.587	-85.226	0.258	0.081
-703.572	-200.000	0.031	-0.180
-702.558	-104.922	-0.365	-0.084
-701.543	-200.000	0.032	-0.196
-700.529	21.055	0.284	-0.232
-699.514	-113.483	0.183	-0.036
-698.499	-111.222	0.094	-0.019
-697.485	481.379	0.123	-0.282
-696.470	-43.437	-0.270	0.138
-695.456	-144.455	-0.113	0.011
-694.441	180.365	-0.044	-0.066
-693.426	347.170	-0.120	0.238
-692.412	800.000	0.011	0.037
-691.397	-200.000	0.017	-0.096
-690.383	-22.187	0.120	0.073
-689.368	-68.814	0.181	-0.070
-688.354	-46.137	0.220	-0.109
-687.339	-200.000	-0.022	-0.101
-686.324	-90.545	0.156	-0.046
-685.310	-106.103	-0.177	-0.040
-684.295	64.646	0.066	-0.067
-683.281	-158.176	0.257	0.015
-682.266	800.000	-0.068	-0.210
-681.251	800.000	-0.104	0.298
-680.237	-200.000	0.008	-0.170
-679.222	800.000	-0.078	0.282
-678.208	-4.352	0.175	-0.122
-677.193	-200.000	0.032	0.192
-676.178	-58.474	-0.063	0.028
-675.164	-173.881	0.115	0.003
-674.149	-15.210	-0.200	-0.129
-673.135	43.068	0.125	-0.115
-672.120	180.304	0.039	0.058
-671.105	124.286	-0.184	0.233
-670.091	-127.365	0.254	-0.037
-669.076	-13.498	-0.162	0.105
-668.062	11.381	-0.082	0.063
-667.047	-200.000	0.039	0.187
-666.032	673.012	-0.121	-0.315
-665.018	-82.084	-0.124	0.041
-664.003	204.664	-0.134	-0.209
-662.989	-28.426	0.010	0.006
-661.974	75.448	-0.308	-0.327
-660.959	800.000	-0.039	0.122
-659.945	-96.471	0.236	0.063
-658.930	186.445	0.184	-0.275
-657.916	800.000	-0.038	0.122
-656.901	-120.766	0.341	0.058
-655.886	197.221	0.207	-0.317
-654.872	800.000	-0.021	0.082
-653.857	-2.566	-0.183	-0.129
-652.843	274.130	0.138	0.246
-651.828	407.125	0.203	0.432
-650.814	103.059	0.117	0.138
-649.799	-86.659	-0.023	-0.007
-648.784	-200.000	0.026	0.293
-647.770	800.000	-0.042	-0.156
-646.755	715.044	0.106	-0.283
-645.741	-200.000	0.060	-0.275
-644.726	-122.363	0.308	-0.050
-643.711	167.602	-0.147	-0.210
-642.697	-200.000	-0.061	-0.297
-641.682	28.567	-0.309	0.263
-640.668	25.070	0.036	-0.030
-639.653	44.099	-0.092	0.085
-638.638	105.537	-0.194	-0.231
-637.624	72.733	-0.084	-0.089
-636.609	-104.492	0.160	-0.037
-635.595	-154.608	-0.275	0.018
-634.580	536.517	-0.099	0.237
-633.565	800.000	-0.033	-0.141
-632.551	-102.813	-0.205	0.049
-631.536	106.541	0.084	-0.100
-630.522	110.223	-0.093	-0.113
-629.507	-36.815	-0.499	-0.269
-628.492	-200.000	-0.021	-0.133
-627.478	800.000	-0.044	0.180
-626.463	-45.700	0.097	-0.048
-625.449	-123.988	0.295	0.047
-624.434	349.777	0.131	0.259
-623.419	287.281	-0.010	0.017
-622.405	106.159	-0.140	-0.167
-621.390	-34.345	0.184	0.102
-620.376	-49.457	-0.266	-0.127
-619.361	-174.590	-0.260	0.007
-618.346	-200.000	-0.123	-0.001
-617.332	-137.339	-0.142	-0.016
-616.317	28.293	0.228	-0.193
-615.303	74.886	0.161	0.170
-614.288	250.913	-0.044	0.075
-613.273	99.944	-0.136	0.159
-612.259	-80.184	-0.309	-0.104
-611.244	-62.304	0.380	0.159
-610.230	-27.081	0.361	0.211
-609.215	-80.317	0.263	0.088
-608.201	800.000	-0.050	-0.200
-607.186	103.064	0.138	0.162
-606.171	-200.000	0.021	-0.222
-605.157	-86.157	0.242	0.075
-604.142	288.586	-0.126	0.229
-603.128	-200.000	0.004	-0.144
-602.113	-67.464	-0.383	0.151
-601.098	-200.000	0.015	0.242
-600.084	712.352	-0.092	-0.245
-599.069	800.000	0.042	-0.159
-598.055	138.424	-0.174	0.229
-597.040	26.962	0.111	0.094
-596.025	218.271	0.149	0.238
-595.011	228.966	-0.119	0.196
-593.996	239.779	-0.046	-0.076
-592.982	-123.417	-0.306	-0.049
-591.967	-200.000	-0.012	-0.121
-590.952	800.000	0.099	0.308
-589.938	-83.394	0.069	-0.022
-588.923	-9.355	-0.083	-0.055
-587.909	-44.598	-0.143	0.072
-586.894	-101.037	-0.156	0.038
-585.879	-53.428	-0.258	0.119
-584.865	-48.211	-0.109	0.053
-583.850	800.000	-0.058	-0.230
-582.836	-118.821	0.313	-0.055
-581.821	296.720	0.151	0.278
-580.806	-55.071	-0.113	0.051
-579.792	-200.000	0.033	-0.272
-578.777	-112.293	0.256	-0.051
-577.763	-132.585	-0.456	0.059
-576.748	-148.459	-0.483	0.040
-575.733	-119.900	0.294	0.051
-574.719	-63.125	0.527	0.218
-573.704	-72.010	0.212	-0.079
-572.690	-75.006	-0.315	-0.113
-571.675	-200.000	-0.013	-0.449
-570.661	94.476	-0.095	-0.108
-569.646	-6.188	-0.226	0.155
-568.631	40.523	-0.190	-0.171
-567.617	642.475	0.019	-0.048
-566.602	428.435	-0.166	-0.359
-565.588	115.281	-0.089	-0.109
-564.573	800.000	-0.058	0.218
-563.558	-46.965	0.125	0.061
-562.544	-200.000	0.026	-0.165
-561.529	51.680	-0.189	-0.180
-560.515	-9.353	0.167	-0.112
-559.500	-119.142	0.284	-0.050
-558.485	-200.000	-0.040	-0.225
-557.471	-71.033	0.078	-0.029
-556.456	-97.193	0.246	0.064
-555.442	16.314	-0.128	0.101
-554.427	-200.000	0.021	0.251
-553.412	233.397	-0.229	-0.377
-552.398	-200.000	0.035	-0.283
-551.383	-145.100	0.232	0.021
-550.369	-180.066	-0.194	-0.004
-549.354	-148.499	-0.212	0.017
-548.339	-148.363	0.110	-0.009
-547.325	-50.732	0.266	0.125
-546.310	-141.986	0.323	0.032
-545.296	-24.525	-0.356	0.212
-544.281	-131.720	-0.449	0.059
-543.266	102.817	0.222	0.260
-542.252	-49.756	0.097	0.046
-541.237	-65.537	-0.434	0.174
-540.223	247.628	0.203	0.344
-539.208	-142.349	-0.196	0.019
-538.193	-26.691	0.139	-0.081
-537.179	-200.000	-0.042	0.191
-536.164	-200.000	-0.024	0.250
-535.150	58.336	0.281	0.275
-534.135	237.191	0.010	-0.016
-533.121	433.846	0.067	-0.146
-532.106	528.603	-0.115	-0.271
-531.091	179.240	0.129	-0.189
-530.077	122.737	-0.091	0.114
-529.062	-103.157	-0.196	0.046
-528.048	-12.889	0.021	0.014
-527.033	337.037	0.069	0.134
-526.018	800.000	-0.115	-0.343
-525.004	404.060	-0.247	-0.521
-523.989	650.501	-0.092	-0.236
-522.975	-128.908	0.137	-0.019
-521.960	137.000	-0.309	-0.404
-520.945	800.000	0.034	0.141
-519.931	-18.260	0.241	0.151
-518.916	359.824	-0.111	-0.222
-517.902	-200.000	-0.009	-0.071
-516.887	56.066	0.101	0.098
-515.872	800.000	0.096	0.270
-514.858	-200.000	0.035	-0.230
-513.843	800.000	-0.053	-0.158
-512.829	-77.203	-0.351	-0.122
-511.814	-200.000	-0.028	-0.180
-510.799	-200.000	-0.020	0.398
-509.785	-23.944	0.130	0.078
-508.770	157.608	-0.063	0.088
-507.756	-37.901	-0.150	-0.080
-506.741	-200.000	0.029	0.146
-505.726	13.762	0.086	0.067
-504.712	-200.000	-0.003	-0.092
-503.697	-200.000	-0.045	-0.384
-502.683	-65.177	0.123	-0.049
-501.668	37.355	0.350	0.310
-500.653	-32.132	0.243	-0.136
-499.639	-21.235	-0.199	0.122
-498.624	270.098	-0.146	-0.256
-497.610	800.000	0.055	-0.194
-496.595	259.969	0.077	-0.132
-495.581	-200.000	-0.007	0.200
-494.566	-200.000	-0.371	-0.001
-493.551	-112.451	0.257	0.051
-492.537	-54.249	0.332	0.151
-491.522	156.736	0.214	-0.296
-490.508	292.552	-0.175	0.318
-489.493	-200.000	0.023	0.396
-488.478	-85.343	0.409	0.127
-487.464	-34.365	0.356	-0.195
-486.449	-51.908	-0.547	-0.254
-485.435	-85.516	-0.087	0.027
-484.420	288.218	-0.084	-0.151
-483.405	-57.008	0.210	0.092
-482.391	193.982	-0.372	0.562
-481.376	473.469	-0.043	0.097
-480.362	41.521	0.363	-0.328
-479.347	59.930	-0.184	0.182
-478.332	-64.796	-0.087	0.035
-477.318	-200.000	0.018	0.147
-476.303	-9.567	-0.103	0.068
-475.289	-27.832	0.160	-0.092
-474.274	116.137	0.194	-0.238
-473.259	556.297	-0.051	0.122
-472.245	96.429	0.295	-0.337
-471.230	-30.064	0.130	0.074
-470.216	800.000	-0.060	-0.256
-469.201	374.943	-0.082	-0.166
-468.186	-86.204	0.053	-0.016
-467.172	499.750	0.115	0.264
-466.157	-40.465	0.146	0.076
-465.143	-200.000	0.002	-0.094
-464.128	32.018	-0.278	-0.240
-463.113	-98.271	0.264	0.068
-462.099	394.726	-0.057	-0.119
-461.084	-56.605	-0.182	0.080
-460.070	-140.156	0.280	-0.029
-459.055	-135.671	-0.094	-0.011
-458.040	133.950	0.174	0.225
-457.026	120.658	-0.174	0.216
-456.011	171.562	0.259	0.371
-454.997	800.000	-0.137	0.436
-453.982	-10.832	-0.220	0.145
-452.968	415.736	0.014	0.030
-451.953	85.983	0.088	-0.096
-450.938	-200.000	0.004	0.239
-449.924	-140.149	0.228	0.024
-448.909	-200.000	0.001	-0.305
-447.895	800.000	0.064	-0.263
-446.880	85.955	0.161	-0.177
-445.865	350.686	-0.115	-0.226
-444.851	800.000	0.047	0.159
-443.836	49.176	-0.294	-0.275
-442.822	-153.280	0.030	0.002
-441.807	-61.188	0.105	-0.044
-440.792	28.375	0.133	-0.112
-439.778	66.089	-0.123	-0.124
-438.763	-177.383	0.041	-0.001
-437.749	-200.000	0.418	-0.000
-436.734	-149.172	0.227	-0.018
-435.719	-33.123	0.237	0.131
-434.705	-200.000	-0.022	-0.223
-433.690	104.177	-0.108	0.126
-432.676	236.765	-0.088	0.145
-431.661	18.936	0.123	-0.098
-430.646	-200.000	-0.003	0.091
-429.632	-62.310	-0.097	-0.040
-428.617	-87.612	0.136	-0.041
-427.603	-96.233	-0.137	0.036
-426.588	82.001	0.056	0.061
-425.573	-128.312	0.172	0.024
-424.559	800.000	0.066	0.245
-423.544	-148.063	0.390	0.032
-422.530	25.784	0.089	-0.074
-421.515	800.000	0.071	0.208
-420.500	-105.239	-0.054	0.012
-419.486	-200.000	-0.027	-0.132
-418.471	-200.000	0.043	-0.215
-417.457	18.063	0.049	0.039
-416.442	800.000	-0.038	-0.131
-415.428	69.721	0.088	-0.090
-414.413	496.990	-0.077	-0.176
-413.398	209.778	0.196	0.307
-412.384	-97.891	0.220	0.057
-411.369	198.827	0.267	-0.407
-410.355	-75.693	-0.301	-0.107
-409.340	209.122	-0.086	0.134
-408.325	-177.436	0.068	0.002
-407.311	800.000	0.058	-0.236
-406.296	201.420	0.089	0.137
-405.282	-17.357	0.214	0.134
-404.267	-4.325	-0.232	-0.160
-403.252	-1.630	-0.080	0.056
-402.238	9.745	0.133	-0.101
-401.223	-122.646	-0.182	-0.029
-400.209	-200.000	-0.014	-0.250
-399.194	800.000	0.043	-0.137
-398.179	-116.159	-0.384	0.071
-397.165	800.000	-0.064	0.195
-396.150	17.390	0.170	-0.134
-395.136	-63.193	-0.326	-0.134
-394.121	-200.000	0.020	0.462
-393.106	136.615	0.073	-0.095
-392.092	127.610	-0.236	-0.299
-391.077	-95.846	-0.295	0.078
-390.063	-124.014	0.114	0.018
-389.048	-88.211	-0.124	-0.037
-388.033	-91.305	-0.163	0.046
-387.019	-149.627	-0.160	-0.013
-386.004	505.676	0.029	0.067
-384.990	-102.824	-0.348	-0.082
-383.975	251.170	-0.131	-0.221
-382.960	-20.562	0.400	-0.244
-381.946	-5.429	0.110	0.075
-380.931	259.471	-0.062	0.107
-379.917	-57.121	-0.122	0.054
-378.902	-83.435	-0.175	0.056
-377.888	274.258	0.057	-0.100
-376.873	-188.326	0.081	-0.001
-375.858	125.750	0.102	-0.129
-374.844	-22.002	-0.152	0.092
-373.829	-139.467	0.200	0.021
-372.815	412.950	0.113	0.239
-371.800	-145.883	-0.243	-0.021
-370.785	-2.202	-0.092	0.064
-369.771	-126.050	-0.283	-0.042
-368.756	-102.785	-0.267	0.063
-367.742	-152.578	0.259	0.018
-366.727	58.245	0.281	0.274
-365.712	91.716	-0.042	-0.047
-364.698	-200.000	0.109	0.536
-363.683	387.290	0.033	0.068
-362.669	142.623	0.127	0.168
-361.654	-200.000	-0.028	-0.129
-360.639	-156.079	0.225	0.014
-359.625	-53.932	0.260	-0.118
-358.610	-113.098	-0.036	-0.007
-357.596	228.425	-0.101	0.163
-356.581	-134.150	-0.155	0.019
-355.566	-200.000	0.036	-0.194
-354.552	307.890	-0.113	0.209
-353.537	-200.000	-0.059	0.274
-352.523	-78.856	-0.238	-0.081
-351.508	364.575	-0.133	-0.266
-350.493	-31.936	0.304	-0.169
-349.479	164.210	0.070	-0.098
-348.464	-25.343	-0.136	0.080
-347.450	-19.993	-0.305	-0.187
-346.435	8.141	0.059	0.044
-345.420	-94.457	-0.234	0.063
-344.406	-94.760	-0.188	-0.051
-343.391	167.890	0.103	0.145
-342.377	-200.000	-0.015	0.209
-341.362	800.000	-0.035	-0.126
-340.348	-200.000	0.053	0.263
-339.333	-200.000	0.016	0.189
-338.318	-200.000	0.042	-0.213
-337.304	-169.651	0.293	0.011
-336.289	156.959	0.076	0.104
-335.275	304.018	-0.094	0.173
-334.260	800.000	0.055	0.158
-333.245	-36.401	0.103	-0.055
-332.231	800.000	0.023	0.102
-331.216	-200.000	0.021	0.161
-330.202	-16.878	0.227	-0.142
-329.187	-191.541	-0.176	-0.002
-328.172	488.894	0.112	-0.253
-327.158	-82.359	0.257	-0.083
-326.143	557.466	0.274	0.657
-325.129	9.457	-0.149	0.112
-324.114	48.968	0.268	0.250
-323.099	40.557	0.181	0.162
-322.085	-80.629	0.178	0.059
-321.070	-20.044	0.288	0.176
-320.056	-74.963	0.301	-0.107
-319.041	-200.000	-0.029	-0.184
-318.026	-40.459	0.071	-0.036
-317.012	-177.664	0.199	0.005
-315.997	800.000	0.061	0.221
-314.983	356.567	-0.090	0.178
-313.968	-101.028	0.170	0.041
-312.953	-86.476	-0.243	-0.074
-311.939	93.103	-0.069	0.077
-310.924	800.000	0.105	-0.380
-309.910	-200.000	-0.016	-0.197
-308.895	-200.000	0.019	-0.221
-307.880	800.000	0.100	-0.419
-306.866	-31.637	0.200	-0.111
-305.851	250.143	0.064	0.108
-304.837	-200.000	0.028	0.181
-303.822	-200.000	-0.011	-0.151
-302.807	-66.755	-0.172	-0.068
-301.793	-30.807	-0.072	-0.040
-300.778	-200.000	-0.000	-0.135
-299.764	165.088	0.197	-0.276
-298.749	-43.076	-0.120	0.060
-297.735	339.230	0.092	0.178
-296.720	419.644	0.087	0.185
-295.705	198.633	0.112	-0.170
-294.691	-200.000	0.014	-0.253
-293.676	-49.870	0.105	-0.049
-292.662	432.023	-0.035	-0.074
-291.647	-13.818	0.217	0.139
-290.632	-123.361	0.172	-0.027
-289.618	-65.017	0.191	-0.076
-288.603	43.078	-0.203	0.184
-287.589	138.752	-0.143	0.186
-286.574	800.000	-0.030	-0.122
-285.559	101.708	-0.315	0.364
-284.545	800.000	0.073	0.205
-283.530	-27.411	0.092	-0.053
-282.516	357.300	0.039	-0.077
-281.501	-25.204	-0.034	0.020
-280.486	767.388	-0.041	-0.109
-279.472	-200.000	-0.058	0.358
-278.457	82.483	0.171	0.184
-277.443	21.792	-0.142	-0.114
-276.428	800.000	0.034	-0.107
-275.413	-27.745	-0.187	-0.108
-274.399	-76.659	-0.220	-0.076
-273.384	-200.000	0.010	-0.181
-272.370	-162.792	-0.236	-0.011
-271.355	349.844	0.108	-0.211
-270.340	-200.000	0.009	0.160
-269.326	-128.809	0.075	-0.011
-268.311	-200.000	0.050	-0.249
-267.297	191.887	0.146	0.218
-266.282	210.691	0.105	0.163
-265.267	-162.863	-0.160	0.008
-264.253	-58.221	-0.271	0.117
-263.238	-87.189	-0.342	0.103
-262.224	-200.000	0.033	-0.146
-261.209	163.120	-0.066	-0.092
-260.195	-122.925	-0.184	-0.029
-259.180	-108.561	-0.179	-0.038
-258.165	89.250	-0.217	-0.239
-257.151	113.403	-0.111	-0.133
-256.136	800.000	-0.159	-0.475
-255.122	800.000	-0.065	-0.196
-254.107	-80.625	0.343	0.113
-253.092	-75.852	0.081	0.028
-252.078	199.893	-0.164	-0.249
-251.063	587.173	-0.046	-0.111
-250.049	-200.000	-0.032	0.187
-249.034	-8.990	-0.108	0.071
-248.019	82.721	0.179	-0.192
-247.005	125.269	-0.104	-0.130
-245.990	-38.738	-0.280	0.146
-244.976	-87.359	0.247	-0.074
-243.961	328.839	-0.049	0.094
-242.946	-97.509	-0.185	-0.048
-241.932	-200.000	0.007	0.097
-240.917	-168.611	0.315	-0.012
-239.903	800.000	0.012	-0.041
-238.888	-81.963	-0.298	0.096
-237.873	800.000	0.048	-0.191
-236.859	800.000	0.022	0.075
-235.844	-58.317	-0.139	-0.060
-234.830	116.231	-0.168	-0.204
-233.815	-40.934	-0.157	0.080
-232.800	-77.911	0.184	0.063
-231.786	-200.000	-0.064	-0.367
-230.771	-200.000	0.027	0.170
-229.757	277.619	0.167	0.294
-228.742	38.205	-0.107	-0.094
-227.727	-123.036	0.116	-0.018
-226.713	76.428	-0.332	0.348
-225.698	-42.564	-0.052	-0.026
-224.684	45.012	-0.093	-0.085
-223.669	268.600	0.174	0.302
-222.655	-110.772	-0.212	-0.043
-221.640	-144.432	-0.097	-0.009
-220.625	165.034	0.072	-0.101
-219.611	-90.358	0.266	-0.076
-218.596	-29.601	0.066	-0.037
-217.582	800.000	-0.044	0.133
-216.567	-123.314	-0.116	0.018
-215.552	800.000	0.085	0.275
-214.538	6.797	0.054	-0.040
-213.523	-200.000	-0.073	-0.358
-212.509	-13.947	0.253	-0.162
-211.494	294.213	0.116	0.210
-210.479	343.248	0.185	0.358
-209.465	-33.434	-0.129	-0.070
-208.450	242.887	-0.097	0.161
-207.436	-31.743	0.183	-0.101
-206.421	-91.112	0.146	0.041
-205.406	-1.079	-0.048	-0.034
-204.392	800.000	-0.050	-0.164
-203.377	-90.326	-0.220	-0.063
-202.363	-200.000	-0.352	0.002
-201.348	600.097	-0.035	0.086
-200.333	356.357	0.046	0.090
-199.319	800.000	-0.028	-0.116
-198.304	-16.002	-0.125	-0.078
-197.290	-133.766	0.439	-0.054
-196.275	-23.606	0.110	-0.065
-195.260	-111.750	-0.020	-0.004
-194.246	-96.634	-0.416	0.108
-193.231	-118.475	0.096	0.017
-192.217	104.956	-0.039	0.045
-191.202	-153.387	-0.272	-0.019
-190.187	111.451	0.080	-0.095
-189.173	-34.667	0.230	0.124
-188.158	-200.000	0.029	-0.128
-187.144	389.775	0.076	-0.155
-186.129	120.900	0.117	0.144
-185.114	130.651	-0.187	0.236
-184.100	-132.498	0.109	-0.014
-183.085	-200.000	0.035	0.219
-182.071	-104.998	-0.359	-0.081
-181.056	-27.153	0.153	-0.088
-180.042	-108.598	0.284	0.060
-179.027	-132.846	-0.096	0.012
-178.012	34.632	-0.178	0.153
-176.998	800.000	0.022	0.062
-175.983	-38.035	0.146	0.077
-174.969	-82.231	0.077	-0.025
-173.954	-91.007	0.423	0.120
-172.939	248.033	-0.087	0.145
-171.925	65.602	0.236	-0.235
-170.910	217.543	0.155	0.243
-169.896	-121.002	0.314	-0.052
-168.881	-196.554	-0.152	-0.001
-167.866	-178.304	-0.095	-0.002
-166.852	61.678	-0.230	0.226
-165.837	51.008	-0.087	-0.082
-164.823	-15.598	-0.373	-0.235
-163.808	1.811	0.129	-0.091
-162.793	-200.000	0.022	-0.137
-161.779	-67.440	-0.190	0.074
-160.764	-16.624	0.353	0.220
-159.750	-101.165	-0.156	0.038
-158.735	281.702	0.133	0.235
-157.720	-32.966	-0.179	0.098
-156.706	384.500	0.136	0.276
-155.691	8.009	0.266	0.197
-154.677	-27.381	-0.209	-0.120
-153.662	-200.000	0.039	0.249
-152.647	117.940	-0.048	-0.059
-151.633	147.528	-0.202	-0.268
-150.618	49.175	0.328	-0.304
-149.604	-200.000	-0.055	0.286
-148.589	-140.341	-0.214	0.022
-147.574	-87.546	0.113	0.034
-146.560	-52.111	-0.157	0.072
-145.545	-200.000	-0.012	0.071
-144.531	800.000	0.020	-0.079
-143.516	-104.214	0.187	0.043
-142.502	11.968	0.078	-0.059
-141.487	46.759	0.084	0.077
-140.472	-148.770	-0.322	0.026
-139.458	-200.000	-0.033	-0.417
-138.443	-200.000	-0.012	0.081
-137.429	-123.159	0.031	-0.005
-136.414	-200.000	0.012	-0.232
-135.399	-200.000	0.034	-0.213
-134.385	-106.533	0.170	0.037
-133.370	800.000	-0.084	-0.344
-132.356	179.422	-0.094	0.136
-131.341	-84.204	-0.390	0.122
-130.326	-51.155	0.414	0.191
-129.312	800.000	0.070	-0.244
-128.297	219.051	0.100	-0.157
-127.283	469.689	-0.061	0.136
-126.268	-200.000	0.025	-0.419
-125.253	566.222	-0.031	0.075
-124.239	610.140	0.046	0.114
-123.224	20.010	0.259	-0.206
-122.210	-66.870	-0.111	0.043
