DTS Sentinel unit serial number:	SN413079Multiplexer serial number:	ORYXHardware model number:	OX4-SRSoftware version number:	ORYX F/W v4.00 Oryx Data Collector v3.7.2.0data status	okinstallation	princeton_trtdifferential loss correction	single-endedforward channel	channel 1reverse channel	N/Adate	2019/09/13time	08:46:35forward acquisition time	60.00reverse acquisition time	0.00gamma	496.2192k internal	0.2328k external	0.2328temperature offset calibration	1.0164default loss term (dB/km)	0.3790temperature slope calibration	1.0000multiplexer offset coefficient	1.0000multiplexer slope coefficient	1.0000fibre end	0.00T internal ref (°C)	27.97T ext. ref 1 (°C)	4.32T ext. ref 2 (°C)	24.88length (m)	temperature (°C)	Stokes	anti-Stokes-747.200	-111.876	0.135	0.027
-746.185	41.871	-0.045	0.041
-745.171	-134.544	0.302	0.037
-744.156	631.592	0.069	0.176
-743.142	51.546	-0.333	-0.319
-742.127	-108.882	-0.128	0.028
-741.112	-14.395	-0.032	0.021
-740.098	38.150	0.322	0.289
-739.083	31.882	-0.047	-0.041
-738.069	-200.000	-0.072	0.513
-737.054	-200.000	0.015	0.263
-736.039	-200.000	0.008	-0.120
-735.025	284.729	0.096	0.174
-734.010	-200.000	-0.007	0.094
-732.996	800.000	-0.041	0.152
-731.981	95.745	0.089	0.102
-730.966	204.048	-0.241	-0.375
-729.952	64.397	-0.090	0.092
-728.937	396.031	-0.101	-0.213
-727.923	-200.000	-0.024	-0.347
-726.908	-112.192	0.166	0.034
-725.894	-138.597	0.250	-0.028
-724.879	-200.000	0.001	-0.483
-723.864	-10.428	-0.224	-0.149
-722.850	113.407	-0.167	-0.204
-721.835	800.000	0.084	-0.267
-720.821	9.313	-0.061	0.047
-719.806	-200.000	-0.015	0.065
-718.791	78.323	-0.367	0.395
-717.777	-148.593	-0.207	0.017
-716.762	196.380	-0.133	-0.203
-715.748	-35.328	-0.068	0.037
-714.733	-179.114	0.243	-0.005
-713.718	-200.000	-0.018	0.186
-712.704	-121.720	-0.427	-0.071
-711.689	65.271	0.115	0.117
-710.675	-82.146	-0.183	-0.060
-709.660	-64.539	0.265	-0.108
-708.645	-200.000	-0.013	0.068
-707.631	-94.045	-0.111	-0.031
-706.616	-53.978	-0.280	-0.128
-705.602	-200.000	-0.030	-0.249
-704.587	154.631	0.139	-0.192
-703.572	-117.172	0.207	0.038
-702.558	4.348	0.185	-0.136
-701.543	13.671	0.166	0.130
-700.529	-142.699	0.058	0.006
-699.514	-16.286	-0.081	0.052
-698.499	-200.000	-0.031	0.197
-697.485	211.249	-0.067	0.106
-696.470	800.000	-0.132	-0.416
-695.456	354.269	-0.050	0.100
-694.441	-182.553	-0.409	-0.008
-693.426	43.475	0.264	0.242
-692.412	-67.687	-0.337	-0.133
-691.397	163.408	0.067	-0.094
-690.383	-41.353	0.046	-0.024
-689.368	57.884	0.227	0.223
-688.354	800.000	-0.057	-0.182
-687.339	-200.000	-0.003	0.028
-686.324	-53.439	0.127	-0.058
-685.310	49.308	-0.231	-0.218
-684.295	-191.888	-0.285	-0.003
-683.281	7.997	-0.157	-0.119
-682.266	267.205	-0.020	0.036
-681.251	26.799	-0.097	-0.081
-680.237	60.310	0.089	0.089
-679.222	49.531	0.426	0.403
-678.208	-200.000	0.011	-0.239
-677.193	-200.000	-0.061	0.000
-676.178	378.082	-0.112	-0.229
-675.164	64.745	0.029	0.030
-674.149	-56.559	-0.232	-0.104
-673.135	-38.313	-0.265	0.141
-672.120	41.243	0.207	-0.188
-671.105	15.358	-0.288	0.227
-670.091	542.326	-0.091	-0.217
-669.076	17.757	-0.379	-0.303
-668.062	530.968	-0.034	0.080
-667.047	483.560	-0.036	-0.082
-666.032	-95.185	0.028	-0.008
-665.018	800.000	-0.039	-0.156
-664.003	-200.000	0.028	-0.342
-662.989	-90.228	0.324	0.095
-661.974	800.000	-0.061	-0.202
-660.959	177.566	-0.169	0.247
-659.945	217.881	0.085	-0.137
-658.930	-200.000	0.024	-0.307
-657.916	24.752	0.201	-0.167
-656.901	-171.620	0.225	0.007
-655.886	-51.460	-0.051	0.024
-654.872	-200.000	0.046	-0.498
-653.857	17.630	0.178	-0.142
-652.843	73.337	0.278	0.292
-651.828	-185.073	0.124	0.002
-650.814	154.918	-0.193	0.267
-649.799	-134.995	0.225	0.027
-648.784	584.308	0.047	0.115
-647.770	-200.000	0.012	-0.083
-646.755	80.071	0.245	-0.264
-645.741	-10.614	0.029	-0.019
-644.726	262.747	0.109	-0.190
-643.711	-75.325	0.215	-0.077
-642.697	-145.581	0.252	-0.023
-641.682	-200.000	-0.035	0.170
-640.668	-158.440	0.040	-0.002
-639.653	-33.461	-0.447	0.248
-638.638	291.135	-0.135	0.245
-637.624	154.242	-0.109	0.150
-636.609	258.611	0.152	-0.262
-635.595	-200.000	-0.015	-0.170
-634.580	456.497	-0.116	-0.259
-633.565	-200.000	0.050	-0.230
-632.551	1.886	0.176	-0.127
-631.536	-200.000	-0.023	-0.182
-630.522	-138.131	-0.359	-0.040
-629.507	33.760	-0.087	0.076
-628.492	-186.215	-0.197	0.003
-627.478	-60.872	-0.219	-0.093
-626.463	-33.357	-0.088	-0.049
-625.449	313.417	0.093	-0.174
-624.434	-200.000	0.046	-0.467
-623.419	69.837	0.240	-0.249
-622.405	-200.000	0.042	0.222
-621.390	-39.083	-0.251	-0.133
-620.376	-110.194	0.175	-0.037
-619.361	-90.832	0.216	-0.062
-618.346	210.680	-0.159	-0.251
-617.332	800.000	-0.079	-0.346
-616.317	-180.196	-0.272	-0.006
-615.303	-104.949	0.523	-0.120
-614.288	-191.908	-0.066	0.001
-613.273	-41.938	-0.272	-0.140
-612.259	-34.388	-0.173	-0.095
-611.244	60.521	0.074	-0.073
-610.230	83.173	-0.062	0.067
-609.215	800.000	-0.057	0.161
-608.201	738.903	-0.052	0.140
-607.186	82.626	0.285	-0.310
-606.171	121.568	-0.238	-0.297
-605.157	-85.110	-0.313	-0.098
-604.142	800.000	-0.094	0.314
-603.128	164.026	-0.076	-0.108
-602.113	98.162	-0.153	-0.177
-601.098	498.596	0.086	0.199
-600.084	70.584	0.126	-0.131
-599.069	1.994	0.154	-0.111
-598.055	-127.675	0.327	0.047
-597.040	-3.590	0.295	-0.205
-596.025	663.969	-0.198	-0.511
-595.011	800.000	-0.124	-0.364
-593.996	-118.157	0.603	0.108
-592.982	-200.000	0.020	0.110
-591.967	-32.368	0.074	-0.041
-590.952	-53.378	-0.118	0.054
-589.938	39.600	-0.244	-0.219
-588.923	800.000	-0.071	-0.217
-587.909	347.453	-0.036	0.070
-586.894	87.431	-0.059	-0.066
-585.879	-146.775	-0.061	-0.005
-584.865	-200.000	-0.001	-0.311
-583.850	-200.000	0.027	-0.133
-582.836	-139.123	0.227	-0.025
-581.821	-88.492	-0.339	-0.101
-580.806	78.959	0.073	-0.078
-579.792	495.987	-0.044	0.100
-578.777	-80.621	-0.060	-0.020
-577.763	486.338	-0.041	-0.093
-576.748	-58.124	0.099	0.043
-575.733	-1.371	0.189	0.134
-574.719	-127.780	0.317	-0.046
-573.704	-157.956	-0.189	0.011
-572.690	594.732	-0.115	-0.285
-571.675	792.463	-0.115	0.316
-570.661	-105.292	-0.250	-0.057
-569.646	107.353	0.107	-0.127
-568.631	-122.894	-0.361	0.058
-567.617	-112.963	-0.134	-0.027
-566.602	-123.889	-0.066	-0.010
-565.588	429.116	-0.081	-0.175
-564.573	-164.010	-0.083	0.004
-563.558	71.642	-0.104	0.109
-562.544	-173.240	0.593	0.018
-561.529	754.475	0.065	0.176
-560.515	100.132	-0.261	-0.302
-559.500	78.844	0.169	-0.180
-558.485	160.224	0.204	-0.284
-557.471	800.000	-0.059	-0.174
-556.456	-5.941	-0.322	-0.221
-555.442	-151.412	-0.290	0.022
-554.427	-81.290	-0.135	0.045
-553.412	640.990	-0.102	-0.259
-552.398	-35.344	-0.276	-0.150
-551.383	-132.276	0.438	-0.057
-550.369	-89.892	0.118	0.034
-549.354	704.316	-0.077	-0.204
-548.339	-40.148	-0.294	0.153
-547.325	-26.473	0.089	-0.052
-546.310	185.527	-0.271	-0.402
-545.296	457.090	0.089	-0.198
-544.281	18.645	0.142	-0.114
-543.266	-51.016	0.236	0.111
-542.252	-82.939	-0.261	-0.084
-541.237	-200.000	0.002	-0.178
-540.223	260.682	0.166	0.287
-539.208	-119.490	-0.348	0.060
-538.193	800.000	0.025	0.087
-537.179	241.671	0.104	-0.173
-536.164	16.538	0.058	0.046
-535.150	144.711	-0.133	-0.178
-534.135	-3.545	-0.087	-0.061
-533.121	475.209	0.070	0.158
-532.106	-73.346	-0.203	-0.074
-531.091	34.917	-0.122	0.107
-530.077	648.738	-0.090	0.231
-529.062	-200.000	-0.007	0.059
-528.048	128.933	0.234	0.298
-527.033	164.036	-0.145	-0.205
-526.018	180.375	-0.055	0.081
-525.004	203.667	-0.048	-0.074
-523.989	-77.269	0.212	-0.074
-522.975	-122.152	-0.261	-0.043
-521.960	800.000	0.105	0.314
-520.945	-100.870	0.322	-0.079
-519.931	772.488	-0.043	-0.117
-518.916	173.943	0.109	-0.157
-517.902	-8.105	-0.313	-0.210
-516.887	-200.000	-0.034	0.183
-515.872	-200.000	-0.014	0.092
-514.858	-177.386	-0.274	0.007
-513.843	15.721	-0.217	0.171
-512.829	-200.000	-0.037	-0.290
-511.814	-140.001	0.167	-0.018
-510.799	-200.000	-0.029	-0.285
-509.785	-105.682	0.171	0.039
-508.770	168.441	-0.090	0.128
-507.756	-100.060	0.289	-0.072
-506.741	-22.697	-0.111	-0.067
-505.726	-100.473	-0.170	-0.042
-504.712	370.075	0.043	-0.087
-503.697	118.398	0.015	0.019
-502.683	208.345	-0.226	-0.353
-501.668	425.734	-0.089	-0.190
-500.653	109.257	0.256	0.306
-499.639	-91.575	0.310	-0.088
-498.624	78.104	0.157	0.168
-497.610	-109.708	0.071	-0.015
-496.595	800.000	-0.064	-0.209
-495.581	-36.288	0.358	-0.193
-494.566	-83.889	0.151	0.048
-493.551	-135.438	-0.192	0.023
-492.537	41.487	0.080	0.072
-491.522	16.649	0.234	0.184
-490.508	-200.000	0.004	-0.163
-489.493	107.900	-0.069	-0.082
-488.478	-64.935	0.056	-0.023
-487.464	33.813	-0.071	-0.061
-486.449	-200.000	-0.009	0.256
-485.435	183.623	-0.065	-0.096
-484.420	214.216	-0.198	-0.313
-483.405	52.956	0.193	0.184
-482.391	-76.140	0.112	-0.039
-481.376	-20.281	0.161	-0.099
-480.362	182.213	-0.211	-0.310
-479.347	488.889	0.063	-0.143
-478.332	63.390	-0.137	-0.138
-477.318	264.344	0.077	0.133
-476.303	-78.874	-0.343	0.117
-475.289	225.275	-0.133	0.215
-474.274	-21.806	0.158	-0.096
-473.259	-200.000	0.015	-0.194
-472.245	800.000	0.091	0.294
-471.230	10.442	0.037	0.028
-470.216	38.358	0.161	0.143
-469.201	-87.661	-0.309	-0.093
-468.186	225.881	-0.137	-0.221
-467.172	49.715	-0.129	-0.121
-466.157	800.000	0.107	0.304
-465.143	-117.723	0.227	-0.041
-464.128	37.705	0.186	-0.164
-463.113	-5.239	-0.233	-0.160
-462.099	-45.627	-0.302	0.149
-461.084	134.683	0.077	0.100
-460.070	-51.425	-0.221	0.103
-459.055	-102.705	-0.206	0.049
-458.040	80.231	0.135	0.145
-457.026	800.000	-0.017	0.065
-456.011	101.417	-0.168	0.195
-454.997	-5.796	-0.102	-0.070
-453.982	-79.798	-0.237	-0.079
-452.968	478.767	0.198	-0.448
-451.953	511.651	0.043	0.100
-450.938	5.285	-0.159	-0.117
-449.924	147.460	-0.181	0.243
-448.909	139.578	-0.073	0.095
-447.895	-117.000	-0.092	-0.017
-446.880	-27.103	0.133	-0.077
-445.865	-166.354	-0.080	-0.003
-444.851	-200.000	-0.006	0.352
-443.836	239.863	0.112	-0.186
-442.822	-200.000	0.021	0.227
-441.807	-48.832	-0.289	-0.138
-440.792	-48.529	0.226	-0.108
-439.778	-119.614	-0.130	0.022
-438.763	-17.520	0.244	-0.153
-437.749	-171.563	0.250	-0.008
-436.734	-200.000	-0.004	-0.198
-435.719	265.466	-0.270	-0.468
-434.705	-161.700	-0.210	-0.011
-433.690	-11.292	0.154	0.101
-432.676	2.519	-0.323	0.233
-431.661	89.150	-0.301	0.334
-430.646	177.354	-0.077	0.112
-429.632	733.762	-0.033	-0.088
-428.617	800.000	-0.037	0.110
-427.603	21.021	-0.077	0.062
-426.588	66.666	0.163	0.165
-425.573	95.996	-0.149	-0.169
-424.559	47.410	-0.208	-0.193
-423.544	-200.000	-0.016	-0.126
-422.530	-28.399	-0.226	0.130
-421.515	20.538	-0.103	0.083
-420.500	-200.000	-0.056	-0.253
-419.486	-53.863	-0.113	0.051
-418.471	-131.512	-0.336	-0.044
-417.457	-157.778	-0.362	0.021
-416.442	58.646	-0.216	0.211
-415.428	223.140	-0.078	0.125
-414.413	85.617	-0.185	-0.202
-413.398	-200.000	0.004	0.071
-412.384	-200.000	0.052	0.434
-411.369	-20.350	0.087	-0.053
-410.355	800.000	0.131	-0.394
-409.340	-31.918	0.267	-0.149
-408.325	136.692	0.091	-0.118
-407.311	-200.000	-0.005	0.045
-406.296	108.234	-0.161	0.191
-405.282	342.824	0.036	0.070
-404.267	55.034	-0.071	-0.068
-403.252	247.897	-0.119	0.201
-402.238	-101.502	-0.137	0.033
-401.223	-17.862	0.235	0.147
-400.209	15.508	-0.175	-0.137
-399.194	-125.170	-0.096	0.015
-398.179	-200.000	0.026	-0.272
-397.165	630.306	-0.129	-0.324
-396.150	-58.121	-0.125	-0.054
-395.136	132.620	0.116	-0.149
-394.121	800.000	-0.106	-0.331
-393.106	-25.329	-0.189	-0.111
-392.092	11.053	0.190	0.144
-391.077	-200.000	0.063	-0.278
-390.063	-44.619	0.153	0.076
-389.048	-155.749	-0.101	0.006
-388.033	300.412	0.105	0.192
-387.019	800.000	0.062	0.182
-386.004	589.335	0.077	-0.188
-384.990	-56.014	0.387	-0.171
-383.975	223.541	0.078	0.126
-382.960	-91.719	-0.057	0.016
-381.946	764.639	0.048	0.129
-380.931	779.727	-0.075	-0.203
-379.917	-200.000	-0.005	-0.112
-378.902	-43.341	0.191	0.096
-377.888	125.599	0.097	0.121
-376.873	15.411	0.182	0.142
-375.858	182.628	0.206	-0.302
-374.844	92.549	-0.056	-0.062
-373.829	127.195	0.053	0.067
-372.815	-125.793	-0.224	0.034
-371.800	-200.000	0.015	0.268
-370.785	81.936	-0.226	-0.243
-369.771	-111.465	0.439	0.089
-368.756	800.000	0.059	0.205
-367.742	-55.982	0.319	-0.141
-366.727	290.568	-0.110	-0.198
-365.712	57.144	0.138	0.133
-364.698	800.000	0.094	-0.283
-363.683	121.036	0.040	-0.049
-362.669	-191.184	-0.213	-0.002
-361.654	-61.746	0.036	-0.015
-360.639	-28.382	0.351	0.201
-359.625	112.892	0.285	0.343
-358.610	-200.000	0.036	0.190
-357.596	-144.884	-0.054	-0.005
-356.581	235.151	-0.056	-0.092
-355.566	-58.031	-0.361	-0.157
-354.552	-30.791	-0.008	-0.005
-353.537	49.855	0.200	-0.187
-352.523	-200.000	0.005	0.101
-351.508	-92.835	-0.157	-0.043
-350.493	-102.749	-0.281	0.066
-349.479	694.982	-0.082	-0.215
-348.464	-116.770	0.137	-0.025
-347.450	-65.716	-0.260	-0.103
-346.435	-122.422	-0.026	-0.004
-345.420	258.952	0.146	0.250
-344.406	800.000	-0.112	-0.473
-343.391	-200.000	-0.034	0.226
-342.377	34.768	-0.180	-0.156
-341.362	78.170	-0.213	-0.226
-340.348	169.785	0.040	0.056
-339.333	-94.222	0.021	-0.006
-338.318	-104.997	0.141	0.032
-337.304	-35.031	0.381	-0.206
-336.289	800.000	0.026	-0.080
-335.275	-102.250	0.344	-0.082
-334.260	-180.931	0.109	-0.002
-333.245	-82.308	0.153	-0.049
-332.231	-146.205	0.440	0.038
-331.216	288.047	-0.100	0.180
-330.202	-167.903	0.193	-0.008
-329.187	-7.871	0.129	0.086
-328.172	-65.285	-0.545	0.218
-327.158	-200.000	-0.040	0.220
-326.143	-75.722	-0.312	-0.110
-325.129	-200.000	-0.031	0.286
-324.114	-150.784	0.162	0.012
-323.099	18.409	0.130	-0.103
-322.085	-65.405	0.513	0.205
-321.070	506.340	0.140	0.322
-320.056	5.672	-0.079	0.058
-319.041	59.328	-0.266	0.259
-318.026	-37.009	0.200	-0.106
-317.012	-24.772	-0.182	0.107
-315.997	-125.363	0.194	-0.029
-314.983	-200.000	-0.064	0.457
-313.968	66.455	-0.088	-0.089
-312.953	-139.423	0.343	0.036
-311.939	-200.000	-0.038	0.218
-310.924	685.857	-0.015	-0.039
-309.910	-200.000	0.012	0.079
-308.895	-200.000	0.005	-0.193
-307.880	-160.436	-0.085	0.004
-306.866	139.206	0.145	0.189
-305.851	-40.744	-0.152	-0.078
-304.837	-192.635	-0.149	0.001
-303.822	333.418	-0.016	-0.031
-302.807	-46.840	0.223	-0.108
-301.793	47.440	0.180	0.166
-300.778	-0.404	0.040	0.028
-299.764	-168.374	0.134	0.005
-298.749	-19.745	0.072	-0.044
-297.735	-60.244	-0.163	-0.069
-296.720	149.184	-0.224	-0.300
-295.705	-45.233	-0.143	0.071
-294.691	140.512	0.093	-0.122
-293.676	443.039	0.185	0.402
-292.662	-200.000	-0.036	0.468
-291.647	-117.443	0.242	-0.043
-290.632	53.689	0.285	0.271
-289.618	800.000	0.017	0.071
-288.603	150.539	0.152	0.205
-287.589	79.555	-0.089	-0.094
-286.574	-22.997	0.257	-0.153
-285.559	-200.000	0.000	0.333
-284.545	70.057	-0.298	-0.304
-283.530	-200.000	0.016	0.140
-282.516	-14.006	-0.164	0.105
-281.501	99.950	0.136	0.156
-280.486	29.011	-0.135	-0.113
-279.472	-200.000	-0.020	0.233
-278.457	26.650	-0.205	0.170
-277.443	800.000	0.087	0.283
-276.428	-24.079	-0.211	0.125
-275.413	-77.461	0.189	0.065
-274.399	-200.000	0.003	-0.035
-273.384	-200.000	0.024	0.128
-272.370	-54.770	0.186	0.083
-271.355	46.116	-0.218	0.199
-270.340	-200.000	0.091	0.478
-269.326	150.288	0.221	0.296
-268.311	-165.315	-0.393	0.017
-267.297	150.024	0.017	-0.022
-266.282	-131.449	0.143	-0.019
-265.267	-200.000	-0.007	-0.115
-264.253	265.339	-0.091	-0.156
-263.238	-200.000	0.040	0.422
-262.224	-184.817	-0.143	0.002
-261.209	-153.447	0.453	0.031
-260.195	-125.520	-0.123	-0.019
-259.180	200.271	-0.047	-0.072
-258.165	-143.522	-0.307	-0.029
-257.151	-200.000	0.018	-0.178
-256.136	-200.000	-0.047	0.405
-255.122	800.000	-0.060	0.249
-254.107	-14.795	0.249	0.158
-253.092	-200.000	-0.011	-0.183
-252.078	-141.728	0.059	0.006
-251.063	-11.791	0.177	-0.115
-250.049	306.324	-0.051	0.094
-249.034	32.877	0.111	0.095
-248.019	-200.000	-0.028	0.138
-247.005	-0.796	0.153	-0.107
-245.990	177.572	-0.178	0.256
-244.976	46.582	-0.348	0.319
-243.961	-10.577	-0.277	0.181
-242.946	488.457	0.169	0.381
-241.932	49.199	0.096	0.089
-240.917	-200.000	0.022	-0.273
-239.903	-200.000	0.001	-0.254
-238.888	-200.000	-0.001	0.333
-237.873	67.515	-0.027	0.027
-236.859	9.154	0.097	0.073
-235.844	-17.192	-0.036	-0.022
-234.830	173.783	0.020	0.029
-233.815	-121.380	-0.280	0.046
-232.800	800.000	-0.082	0.285
-231.786	138.857	-0.028	-0.036
-230.771	136.990	0.185	0.238
-229.757	81.752	0.169	0.181
-228.742	492.813	-0.081	0.183
-227.727	726.237	0.051	-0.134
-226.713	-200.000	0.001	-0.330
-225.698	800.000	-0.056	0.163
-224.684	627.972	-0.090	0.224
-223.669	96.500	0.034	0.038
-222.655	-157.160	0.096	-0.006
-221.640	-158.168	0.313	-0.018
-220.625	-58.175	0.304	0.131
-219.611	-106.258	0.104	0.023
-218.596	-191.082	0.169	-0.002
-217.582	-200.000	0.003	0.547
-216.567	29.558	0.248	-0.208
-215.552	154.565	-0.169	0.229
-214.538	-80.021	0.131	0.043
-213.523	-38.573	-0.154	0.080
-212.509	-200.000	0.015	0.196
-211.494	-35.233	0.198	-0.106
-210.479	-42.492	0.384	-0.193
-209.465	-25.181	0.275	0.161
-208.450	800.000	0.028	-0.076
-207.436	481.929	0.097	-0.218
-206.421	3.375	0.153	0.110
-205.406	-106.809	0.295	-0.065
-204.392	72.434	-0.265	0.272
-203.377	320.285	0.206	0.386
-202.363	-151.773	0.539	0.039
-201.348	105.454	-0.257	0.299
-200.333	800.000	0.034	0.120
-199.319	278.051	0.072	-0.127
-198.304	-131.606	0.400	-0.052
-197.290	72.970	-0.108	-0.112
-196.275	800.000	0.071	-0.234
-195.260	-152.396	0.372	-0.026
-194.246	-146.057	0.396	0.034
-193.231	26.633	-0.264	0.218
-192.217	800.000	-0.024	0.077
-191.202	91.135	-0.016	0.018
-190.187	-94.944	0.102	-0.027
-189.173	18.195	0.103	0.081
-188.158	10.717	0.076	0.057
-187.144	14.766	0.274	0.211
-186.129	-200.000	-0.012	-0.164
-185.114	-2.641	-0.069	-0.047
-184.100	-200.000	0.002	0.205
-183.085	198.026	-0.173	-0.260
-182.071	413.662	-0.114	0.238
-181.056	8.746	0.045	0.034
-180.042	747.220	-0.034	-0.090
-179.027	-29.261	-0.141	-0.080
-178.012	239.423	0.073	-0.119
-176.998	-77.401	0.089	-0.030
-175.983	-66.710	-0.335	0.131
-174.969	-197.009	0.252	-0.002
-173.954	198.101	0.146	0.221
-172.939	-90.643	-0.354	0.101
-171.925	480.764	-0.113	0.253
-170.910	-54.462	0.063	0.028
-169.896	556.857	0.088	0.208
-168.881	779.716	-0.193	-0.521
-167.866	-62.752	-0.452	-0.185
-166.852	81.705	0.136	0.145
-165.837	-200.000	-0.101	-0.618
-164.823	-82.783	0.190	0.060
-163.808	-14.554	-0.153	0.097
-162.793	-113.473	-0.427	-0.082
-161.779	-97.689	0.305	0.078
-160.764	-34.723	0.192	0.104
-159.750	-16.452	-0.165	0.103
-158.735	-200.000	0.010	0.261
-157.720	481.690	-0.009	-0.019
-156.706	133.466	-0.165	0.210
-155.691	-200.000	-0.024	0.202
-154.677	-43.532	0.146	-0.072
-153.662	-29.171	-0.205	-0.116
-152.647	9.923	-0.245	-0.183
-151.633	-6.518	-0.293	0.196
-150.618	497.557	0.069	0.156
-149.604	-38.169	0.275	0.144
-148.589	-111.942	-0.311	-0.062
-147.574	466.008	0.204	-0.449
-146.560	97.440	0.101	0.114
-145.545	-200.000	-0.100	0.465
-144.531	-200.000	0.000	0.283
-143.516	-61.352	0.261	-0.108
-142.502	413.284	0.053	0.111
-141.487	-103.130	-0.443	-0.103
-140.472	-200.000	-0.078	-0.602
-139.458	44.914	-0.052	0.047
-138.443	-134.604	-0.311	-0.037
-137.429	8.084	0.137	0.102
-136.414	-103.758	0.151	-0.035
-135.399	800.000	-0.050	0.202
-134.385	-193.434	0.037	0.000
-133.370	-200.000	-0.006	-0.260
-132.356	-200.000	-0.064	-0.322
-131.341	510.542	-0.031	0.071
-130.326	-79.185	0.220	-0.073
-129.312	358.508	0.006	-0.012
-128.297	-89.565	0.361	-0.104
-127.283	738.601	-0.044	-0.117
-126.268	43.903	0.159	0.144
-125.253	-127.160	-0.251	-0.036
-124.239	82.683	0.036	-0.038
-123.224	71.568	-0.119	-0.121
-122.210	-149.849	0.183	0.014
-121.195	239.847	0.103	-0.169
