DTS Sentinel unit serial number:	SN413079Multiplexer serial number:	ORYXHardware model number:	OX4-SRSoftware version number:	ORYX F/W v4.00 Oryx Data Collector v3.7.2.0data status	okinstallation	princeton_trtdifferential loss correction	single-endedforward channel	channel 1reverse channel	N/Adate	2019/09/17time	22:58:35forward acquisition time	60.00reverse acquisition time	0.00gamma	496.2192k internal	0.2340k external	0.2340temperature offset calibration	0.9980default loss term (dB/km)	0.3790temperature slope calibration	1.0000multiplexer offset coefficient	1.0000multiplexer slope coefficient	1.0000fibre end	0.00T internal ref (°C)	24.81T ext. ref 1 (°C)	0.18T ext. ref 2 (°C)	17.99length (m)	temperature (°C)	Stokes	anti-Stokes-747.200	-173.374	0.205	0.006
-746.185	-155.825	-0.238	0.015
-745.171	-72.203	0.261	0.097
-744.156	-200.000	-0.003	0.395
-743.142	-106.985	0.288	-0.064
-742.127	-200.000	-0.058	0.256
-741.112	-200.000	0.011	0.355
-740.098	217.970	-0.239	0.382
-739.083	-200.000	-0.013	0.118
-738.069	-62.066	-0.046	-0.019
-737.054	268.214	-0.115	0.202
-736.039	41.806	-0.178	-0.162
-735.025	31.878	-0.097	-0.084
-734.010	74.261	-0.244	-0.257
-732.996	-200.000	0.019	-0.126
-731.981	133.985	0.138	0.179
-730.966	-14.444	-0.173	-0.111
-729.952	800.000	-0.030	0.113
-728.937	-104.783	-0.584	-0.135
-727.923	-114.719	-0.564	0.108
-726.908	731.164	0.072	-0.192
-725.894	-109.919	-0.056	0.012
-724.879	-2.781	-0.122	-0.086
-723.864	229.714	-0.071	-0.116
-722.850	6.447	-0.164	-0.122
-721.835	-200.000	-0.001	-0.025
-720.821	-200.000	-0.011	-0.070
-719.806	247.853	-0.105	0.178
-718.791	800.000	-0.077	-0.310
-717.777	4.677	0.051	-0.038
-716.762	800.000	0.067	-0.255
-715.748	-113.278	-0.155	0.031
-714.733	467.294	-0.025	0.056
-713.718	10.727	-0.160	0.122
-712.704	-200.000	0.044	-0.266
-711.689	-200.000	-0.002	-0.046
-710.675	800.000	-0.097	0.292
-709.660	69.883	0.067	0.069
-708.645	251.769	0.167	-0.284
-707.631	-200.000	-0.009	-0.187
-706.616	800.000	-0.125	-0.439
-705.602	800.000	-0.057	-0.215
-704.587	-200.000	0.007	0.209
-703.572	175.588	0.051	-0.073
-702.558	-180.948	0.406	-0.008
-701.543	211.959	-0.065	-0.103
-700.529	32.095	-0.172	0.148
-699.514	-46.864	0.171	-0.084
-698.499	319.065	-0.126	-0.238
-697.485	-24.119	0.192	0.114
-696.470	396.556	0.040	-0.084
-695.456	-29.624	-0.259	0.148
-694.441	144.902	-0.228	0.305
-693.426	-70.614	0.096	0.036
-692.412	800.000	-0.092	0.281
-691.397	-117.644	-0.135	-0.024
-690.383	116.691	0.283	-0.348
-689.368	-57.585	0.054	0.024
-688.354	338.459	-0.009	-0.017
-687.339	55.690	-0.312	-0.302
-686.324	-1.233	-0.110	0.078
-685.310	34.858	-0.134	0.117
-684.295	109.512	0.036	-0.043
-683.281	241.786	0.149	0.250
-682.266	-26.907	-0.187	0.110
-681.251	692.702	0.074	-0.193
-680.237	-37.764	0.262	-0.140
-679.222	-77.434	0.013	0.004
-678.208	17.336	-0.322	-0.255
-677.193	-200.000	-0.073	-0.327
-676.178	-27.277	0.190	0.111
-675.164	800.000	-0.022	0.062
-674.149	-75.818	-0.222	0.079
-673.135	400.122	-0.074	0.155
-672.120	-83.122	-0.052	-0.017
-671.105	-94.048	-0.111	0.030
-670.091	436.673	0.114	0.249
-669.076	800.000	-0.032	0.116
-668.062	-3.471	-0.173	0.120
-667.047	230.265	0.145	-0.238
-666.032	-22.809	0.144	-0.087
-665.018	81.455	0.201	-0.217
-664.003	3.860	-0.135	-0.099
-662.989	-32.192	0.240	0.134
-661.974	-159.383	0.200	-0.011
-660.959	-84.538	0.137	-0.043
-659.945	99.564	-0.093	0.107
-658.930	800.000	-0.038	0.147
-657.916	-200.000	-0.038	0.284
-656.901	-200.000	-0.023	0.176
-655.886	148.834	0.062	-0.083
-654.872	90.778	-0.204	0.228
-653.857	247.092	-0.203	0.343
-652.843	-159.517	0.154	0.009
-651.828	238.895	-0.150	0.249
-650.814	-200.000	-0.015	-0.082
-649.799	-49.926	-0.105	0.050
-648.784	33.840	0.159	0.139
-647.770	6.896	0.220	0.163
-646.755	-11.314	-0.283	0.186
-645.741	-81.649	-0.248	-0.081
-644.726	-200.000	0.015	-0.115
-643.711	-74.159	-0.179	-0.065
-642.697	170.924	-0.116	-0.166
-641.682	214.450	0.092	-0.146
-640.668	-200.000	0.018	-0.105
-639.653	-192.679	-0.241	0.002
-638.638	-71.719	0.137	0.051
-637.624	-137.218	-0.213	0.024
-636.609	364.302	0.234	-0.470
-635.595	58.271	0.156	-0.152
-634.580	405.470	0.069	0.145
-633.565	55.125	0.186	-0.180
-632.551	193.851	-0.062	-0.093
-631.536	-200.000	0.216	0.000
-630.522	800.000	-0.019	-0.054
-629.507	294.516	-0.241	0.439
-628.492	497.186	-0.027	-0.061
-627.478	33.323	-0.086	-0.074
-626.463	16.700	0.122	0.096
-625.449	-21.770	-0.109	0.066
-624.434	420.685	0.083	-0.177
-623.419	-65.891	-0.211	-0.084
-622.405	-200.000	-0.001	-0.075
-621.390	-52.218	-0.257	-0.119
-620.376	-84.397	0.097	-0.031
-619.361	261.680	-0.092	0.159
-618.346	800.000	-0.064	-0.232
-617.332	30.149	0.158	0.135
-616.317	140.870	-0.246	-0.324
-615.303	-81.981	-0.432	0.141
-614.288	-61.652	-0.143	0.060
-613.273	25.510	-0.242	0.201
-612.259	49.780	0.251	0.236
-611.244	133.558	0.281	-0.362
-610.230	7.844	0.022	0.016
-609.215	-200.000	-0.049	0.223
-608.201	163.525	0.141	0.197
-607.186	246.887	0.056	-0.094
-606.171	438.884	0.063	-0.138
-605.157	-121.932	-0.178	0.029
-604.142	-200.000	-0.053	0.250
-603.128	173.466	-0.124	0.178
-602.113	723.498	-0.046	0.122
-601.098	-167.123	-0.227	0.009
-600.084	31.057	0.068	-0.058
-599.069	253.581	0.060	0.102
-598.055	196.889	0.067	-0.102
-597.040	-14.657	0.120	-0.077
-596.025	800.000	0.146	-0.423
-595.011	162.283	-0.081	-0.113
-593.996	194.958	0.159	0.241
-592.982	24.709	0.188	-0.155
-591.967	-146.387	0.093	0.008
-590.952	-200.000	0.006	0.227
-589.938	263.785	-0.156	-0.271
-588.923	-38.393	0.083	0.044
-587.909	-64.617	0.285	0.115
-586.894	120.583	-0.113	-0.140
-585.879	48.346	0.162	0.151
-584.865	774.079	-0.045	0.121
-583.850	-72.981	0.292	-0.107
-582.836	-117.211	-0.180	-0.033
-581.821	-111.317	-0.359	0.073
-580.806	-186.041	-0.052	-0.001
-579.792	-61.733	0.306	-0.128
-578.777	-6.809	-0.073	0.049
-577.763	-27.806	-0.335	-0.193
-576.748	397.564	0.126	0.263
-575.733	-200.000	0.056	0.316
-574.719	270.437	0.015	0.026
-573.704	-165.731	-0.440	0.019
-572.690	-78.379	0.218	-0.074
-571.675	-52.860	0.185	-0.085
-570.661	-30.851	-0.102	-0.058
-569.646	70.432	-0.184	-0.190
-568.631	-119.690	0.192	0.033
-567.617	7.457	-0.221	0.164
-566.602	489.294	0.056	-0.128
-565.588	-38.202	0.099	0.052
-564.573	800.000	-0.022	0.090
-563.558	83.075	-0.152	-0.165
-562.544	-200.000	0.054	0.322
-561.529	800.000	0.027	-0.112
-560.515	-137.161	-0.039	0.004
-559.500	27.771	-0.149	-0.125
-558.485	-200.000	-0.025	-0.136
-557.471	-75.320	-0.202	-0.072
-556.456	454.909	-0.049	0.108
-555.442	-6.217	0.327	0.223
-554.427	113.539	-0.114	0.138
-553.412	-20.647	-0.228	-0.139
-552.398	-122.471	0.047	0.008
-551.383	82.868	-0.237	0.256
-550.369	-93.825	0.096	-0.026
-549.354	800.000	-0.075	0.230
-548.339	58.337	0.198	0.193
-547.325	-150.152	-0.119	-0.009
-546.310	61.947	0.144	-0.143
-545.296	442.550	0.050	-0.109
-544.281	121.502	-0.016	-0.020
-543.266	193.681	0.089	0.134
-542.252	389.484	-0.122	-0.251
-541.237	-16.348	0.161	-0.102
-540.223	14.656	-0.092	0.071
-539.208	168.251	-0.076	0.107
-538.193	558.691	0.172	-0.412
-537.179	-21.252	-0.430	0.261
-536.164	-200.000	0.054	0.298
-535.150	718.966	-0.059	-0.156
-534.135	176.247	0.144	0.208
-533.121	8.083	0.283	-0.211
-532.106	353.681	-0.023	-0.045
-531.091	416.324	-0.110	0.234
-530.077	-79.036	-0.396	0.134
-529.062	-143.472	-0.089	-0.008
-528.048	-200.000	0.016	-0.363
-527.033	-58.060	-0.287	0.124
-526.018	29.077	0.178	0.150
-525.004	-134.347	0.208	0.025
-523.989	-45.447	-0.166	-0.082
-522.975	-92.378	-0.317	-0.089
-521.960	-200.000	0.038	-0.303
-520.945	6.884	-0.080	0.059
-519.931	-53.895	0.118	0.053
-518.916	46.066	0.125	0.115
-517.902	287.828	0.044	0.079
-516.887	-181.840	0.169	-0.003
-515.872	800.000	-0.012	0.043
-514.858	-200.000	0.080	0.428
-513.843	-22.551	0.191	0.115
-512.829	-200.000	0.028	-0.301
-511.814	-99.750	0.263	-0.065
-510.799	355.867	-0.179	-0.354
-509.785	-200.000	-0.062	-0.396
-508.770	-87.459	0.040	0.012
-507.756	-109.718	0.156	-0.033
-506.741	-166.225	0.133	-0.006
-505.726	315.264	0.092	0.172
-504.712	-85.864	-0.177	0.054
-503.697	-200.000	-0.047	-0.272
-502.683	256.954	0.173	-0.295
-501.668	-200.000	0.001	-0.108
-500.653	-183.144	0.173	0.003
-499.639	28.672	0.083	0.070
-498.624	-15.934	-0.038	-0.024
-497.610	-65.470	0.063	0.025
-496.595	-23.897	-0.086	-0.051
-495.581	-200.000	-0.012	0.305
-494.566	348.223	-0.150	0.294
-493.551	-200.000	-0.030	0.209
-492.537	29.300	0.080	0.067
-491.522	800.000	-0.058	-0.178
-490.508	-73.501	0.381	0.138
-489.493	-87.086	-0.087	0.026
-488.478	8.236	-0.173	-0.129
-487.464	303.361	-0.100	-0.183
-486.449	431.760	-0.056	-0.121
-485.435	-142.748	-0.324	-0.031
-484.420	-97.806	0.211	-0.054
-483.405	412.443	-0.102	0.216
-482.391	800.000	-0.080	-0.260
-481.376	656.610	0.025	-0.065
-480.362	661.165	-0.142	0.364
-479.347	-81.328	-0.103	0.034
-478.332	-160.420	0.210	0.011
-477.318	329.110	-0.112	-0.214
-476.303	130.982	0.119	-0.152
-475.289	473.131	-0.099	0.221
-474.274	-200.000	0.015	0.125
-473.259	-57.900	-0.191	-0.083
-472.245	479.186	-0.034	0.077
-471.230	-200.000	0.000	0.183
-470.216	-11.152	0.320	0.209
-469.201	100.713	0.121	0.140
-468.186	-5.194	-0.078	-0.053
-467.172	800.000	0.073	0.216
-466.157	3.842	-0.125	-0.091
-465.143	-28.009	0.198	0.114
-464.128	800.000	0.030	0.084
-463.113	800.000	-0.057	-0.200
-462.099	800.000	0.149	0.438
-461.084	-200.000	0.024	-0.135
-460.070	53.905	0.095	0.091
-459.055	457.778	0.073	0.161
-458.040	555.448	-0.028	0.068
-457.026	162.466	0.063	0.088
-456.011	-200.000	-0.023	-0.212
-454.997	-148.551	0.055	0.004
-453.982	452.961	-0.115	-0.252
-452.968	-21.945	-0.195	0.118
-451.953	104.692	-0.098	0.114
-450.938	-200.000	-0.010	-0.095
-449.924	-200.000	0.078	-0.472
-448.909	89.428	-0.186	0.205
-447.895	-125.303	-0.403	-0.061
-446.880	197.316	-0.155	-0.235
-445.865	400.131	-0.122	0.254
-444.851	-87.675	0.267	0.080
-443.836	-161.540	-0.100	0.005
-442.822	800.000	0.018	0.077
-441.807	218.171	0.131	-0.207
-440.792	-34.296	0.230	0.125
-439.778	5.182	0.207	0.151
-438.763	800.000	0.084	-0.238
-437.749	-200.000	-0.001	0.020
-436.734	78.009	0.015	-0.016
-435.719	146.566	0.173	0.231
-434.705	6.383	-0.074	0.054
-433.690	74.749	0.209	0.218
-432.676	73.437	-0.095	0.098
-431.661	-113.063	0.212	-0.042
-430.646	125.892	-0.173	0.217
-429.632	-200.000	0.001	0.110
-428.617	51.147	0.060	-0.056
-427.603	-68.126	-0.057	0.022
-426.588	588.308	-0.056	0.136
-425.573	16.074	-0.168	-0.131
-424.559	18.672	-0.094	-0.074
-423.544	349.554	0.116	0.228
-422.530	43.168	-0.136	-0.123
-421.515	38.852	-0.118	-0.104
-420.500	-106.051	0.226	0.050
-419.486	50.212	0.167	-0.156
-418.471	-33.112	-0.202	-0.111
-417.457	-200.000	-0.016	0.374
-416.442	-38.276	0.199	0.105
-415.428	-8.241	-0.088	-0.059
-414.413	86.403	-0.264	0.288
-413.398	33.637	0.064	-0.055
-412.384	-153.591	-0.268	-0.018
-411.369	125.211	0.307	-0.383
-410.355	1.025	0.231	-0.164
-409.340	-81.428	-0.152	0.049
-408.325	28.316	0.186	-0.155
-407.311	-200.000	0.045	0.313
-406.296	3.007	-0.079	-0.057
-405.282	519.278	-0.118	-0.275
-404.267	-19.220	0.223	-0.137
-403.252	-200.000	-0.025	-0.247
-402.238	241.323	-0.087	-0.143
-401.223	800.000	-0.097	0.320
-400.209	309.477	0.079	0.146
-399.194	-200.000	-0.056	-0.291
-398.179	194.531	0.266	0.398
-397.165	-200.000	0.015	-0.070
-396.150	-115.502	0.107	-0.020
-395.136	129.461	-0.084	-0.106
-394.121	7.744	-0.185	0.137
-393.106	-48.258	0.281	0.134
-392.092	285.302	0.162	-0.288
-391.077	-49.234	0.160	-0.076
-390.063	171.592	0.020	-0.029
-389.048	800.000	0.033	0.135
-388.033	133.826	0.112	-0.144
-387.019	-133.902	-0.170	-0.021
-386.004	-200.000	0.031	-0.177
-384.990	-9.882	-0.165	-0.108
-383.975	800.000	-0.081	0.243
-382.960	-24.531	-0.334	0.196
-381.946	424.534	0.074	-0.158
-380.931	-80.286	0.279	-0.092
-379.917	-8.960	-0.067	0.044
-378.902	350.804	-0.066	0.129
-377.888	446.723	0.169	0.367
-376.873	-158.641	-0.192	0.011
-375.858	-108.350	-0.180	-0.038
-374.844	800.000	-0.008	-0.030
-373.829	-59.473	0.068	0.029
-372.815	-59.767	0.196	0.083
-371.800	-138.805	0.361	0.039
-370.785	-95.304	-0.261	0.069
-369.771	30.276	-0.374	0.315
-368.756	107.193	0.089	-0.105
-367.742	-123.066	0.259	0.041
-366.727	91.886	-0.301	-0.335
-365.712	2.050	0.127	-0.091
-364.698	88.033	-0.204	-0.224
-363.683	-200.000	-0.068	-0.339
-362.669	-105.542	0.142	0.032
-361.654	-81.326	-0.128	0.042
-360.639	106.934	-0.283	0.332
-359.625	342.338	-0.070	-0.136
-358.610	96.677	-0.147	0.166
-357.596	19.216	0.117	0.093
-356.581	-48.104	0.097	0.046
-355.566	1.520	-0.036	0.025
-354.552	47.235	-0.147	-0.135
-353.537	-18.340	0.160	-0.099
-352.523	-74.501	0.236	-0.084
-351.508	273.833	-0.233	-0.407
-350.493	362.890	0.043	0.086
-349.479	-110.071	-0.188	0.039
-348.464	-69.169	0.161	0.061
-347.450	-189.202	0.280	-0.003
-346.435	47.867	-0.322	-0.297
-345.420	-200.000	0.009	-0.158
-344.406	292.498	-0.176	0.317
-343.391	-200.000	0.013	-0.123
-342.377	-128.582	0.275	0.038
-341.362	289.929	-0.124	0.222
-340.348	800.000	0.064	0.267
-339.333	-162.422	0.143	-0.007
-338.318	-92.775	0.253	-0.070
-337.304	-126.949	-0.091	0.013
-336.289	-200.000	0.027	-0.144
-335.275	-108.998	-0.152	-0.032
-334.260	60.994	-0.098	0.096
-333.245	-200.000	-0.008	0.084
-332.231	-200.000	0.008	0.117
-331.216	31.187	-0.081	-0.068
-330.202	218.637	0.067	0.106
-329.187	-170.973	0.235	-0.008
-328.172	726.518	-0.021	-0.055
-327.158	488.034	-0.112	-0.252
-326.143	-10.283	-0.117	0.077
-325.129	-184.540	0.233	-0.004
-324.114	410.672	-0.055	0.115
-323.099	71.530	0.232	-0.238
-322.085	161.771	-0.033	-0.046
-321.070	-9.038	0.136	0.090
-320.056	-90.286	0.105	-0.030
-319.041	397.785	0.038	0.079
-318.026	-9.222	0.165	0.109
-317.012	240.822	-0.104	-0.171
-315.997	-200.000	-0.062	-0.302
-314.983	-147.844	0.253	-0.021
-313.968	-65.664	0.260	0.103
-312.953	88.612	-0.111	0.121
-311.939	-200.000	-0.090	0.401
-310.924	-200.000	0.050	0.390
-309.910	15.627	0.068	-0.053
-308.895	52.256	0.102	-0.096
-307.880	89.931	-0.190	-0.210
-306.866	83.261	0.068	-0.073
-305.851	427.345	0.078	0.165
-304.837	191.414	0.053	0.078
-303.822	32.987	0.046	-0.039
-302.807	800.000	-0.037	-0.151
-301.793	-140.987	0.299	0.030
-300.778	682.823	0.131	-0.338
-299.764	371.842	0.094	-0.187
-298.749	179.207	0.229	-0.330
-297.735	268.264	0.142	-0.245
-296.720	800.000	-0.082	-0.291
-295.705	120.342	0.164	-0.201
-294.691	-200.000	-0.017	-0.284
-293.676	10.271	-0.181	0.135
-292.662	56.239	-0.167	-0.159
-291.647	70.564	0.118	-0.120
-290.632	193.095	-0.196	0.292
-289.618	174.604	0.089	0.127
-288.603	720.515	0.057	0.148
-287.589	-72.797	-0.210	0.076
-286.574	638.941	0.088	-0.221
-285.559	-103.234	-0.185	0.043
-284.545	210.315	0.092	0.142
-283.530	196.975	-0.075	-0.113
-282.516	800.000	-0.071	0.234
-281.501	-142.222	-0.147	0.014
-280.486	487.765	0.159	0.357
-279.472	-200.000	0.005	-0.251
-278.457	415.805	-0.100	0.210
-277.443	46.093	-0.166	0.151
-276.428	-94.643	0.239	0.064
-275.413	249.020	-0.098	-0.163
-274.399	141.801	-0.088	0.115
-273.384	-35.998	-0.224	0.119
-272.370	-200.000	0.050	-0.235
-271.355	-200.000	-0.018	-0.145
-270.340	-127.044	0.254	0.037
-269.326	-200.000	-0.001	0.132
-268.311	-200.000	-0.006	0.216
-267.297	-200.000	0.017	0.146
-266.282	-57.264	-0.093	-0.040
-265.267	-102.856	0.102	0.024
-264.253	-97.817	-0.248	0.063
-263.238	-200.000	0.017	0.174
-262.224	232.042	-0.073	-0.118
-261.209	800.000	-0.080	-0.304
-260.195	127.431	0.191	-0.239
-259.180	-200.000	0.005	-0.126
-258.165	170.127	0.086	-0.122
-257.151	113.774	0.066	0.079
-256.136	-35.871	0.049	0.026
-255.122	110.098	-0.227	0.268
-254.107	-104.437	0.177	-0.040
-253.092	-30.443	-0.176	0.098
-252.078	54.272	0.372	0.352
-251.063	-113.596	0.192	0.037
-250.049	107.631	-0.126	0.147
-249.034	-15.867	0.360	0.225
-248.019	-99.122	0.059	0.015
-247.005	65.434	0.185	0.184
-245.990	64.582	-0.028	0.028
-244.976	-200.000	0.036	0.201
-243.961	-75.882	-0.375	0.130
-242.946	245.004	0.095	-0.157
-241.932	330.819	-0.012	0.022
-240.917	-200.000	-0.017	0.118
-239.903	800.000	-0.087	-0.321
-238.888	356.399	0.120	-0.235
-237.873	119.313	-0.048	-0.058
-236.859	578.002	-0.163	0.391
-235.844	196.807	0.118	-0.177
-234.830	800.000	0.073	-0.229
-233.815	18.837	-0.261	-0.205
-232.800	800.000	0.075	-0.265
-231.786	800.000	-0.045	-0.177
-230.771	-31.609	-0.110	-0.061
-229.757	18.857	-0.303	0.239
-228.742	-146.825	0.082	-0.007
-227.727	-130.330	0.212	-0.028
-226.713	718.188	-0.019	0.049
-225.698	-199.330	-0.169	0.001
-224.684	-82.215	-0.201	0.064
-223.669	202.905	0.125	-0.190
-222.655	-83.672	-0.106	0.033
-221.640	184.715	0.019	-0.027
-220.625	-80.276	0.265	-0.087
-219.611	50.913	-0.057	0.053
-218.596	183.257	0.104	-0.152
-217.582	-48.301	0.189	-0.089
-216.567	602.234	-0.061	0.149
-215.552	95.043	-0.172	0.192
-214.538	-200.000	-0.002	-0.472
-213.523	104.093	0.273	-0.315
-212.509	-200.000	-0.004	-0.218
-211.494	-35.143	0.491	0.263
-210.479	-21.372	-0.342	-0.205
-209.465	-200.000	0.017	0.340
-208.450	-200.000	-0.008	0.306
-207.436	-183.511	-0.404	-0.007
-206.421	-21.758	0.052	-0.031
-205.406	-200.000	-0.041	-0.281
-204.392	305.779	-0.110	0.200
-203.377	-200.000	-0.011	-0.210
-202.363	-11.769	0.143	-0.092
-201.348	-90.593	-0.209	0.059
-200.333	-112.757	0.175	-0.034
-199.319	650.233	-0.072	0.181
-198.304	-51.566	0.062	0.028
-197.290	259.038	-0.102	0.173
-196.275	-176.315	0.334	0.009
-195.260	77.917	-0.059	0.062
-194.246	208.044	-0.106	0.163
-193.231	800.000	0.078	-0.249
-192.217	800.000	-0.067	0.184
-191.202	-75.386	0.450	0.158
-190.187	143.914	0.029	0.038
-189.173	-200.000	0.007	-0.056
-188.158	258.402	-0.148	-0.251
-187.144	-167.198	-0.075	-0.003
-186.129	174.800	0.272	0.386
-185.114	800.000	0.087	-0.294
-184.100	231.395	-0.070	-0.112
-183.085	-200.000	0.026	0.395
-182.071	-200.000	0.023	0.113
-181.056	1.449	-0.076	0.054
-180.042	-200.000	-0.030	0.261
-179.027	463.442	-0.119	-0.260
-178.012	-200.000	0.045	0.195
-176.998	206.800	-0.148	-0.226
-175.983	29.349	0.097	0.081
-174.969	313.961	-0.101	-0.186
-173.954	102.991	-0.206	0.237
-172.939	800.000	0.031	-0.103
-171.925	8.881	-0.084	0.062
-170.910	201.409	0.174	0.263
-169.896	376.373	-0.020	-0.040
-168.881	-53.535	0.156	0.070
-167.866	-152.514	-0.143	-0.010
-166.852	-200.000	0.053	0.303
-165.837	143.523	0.300	-0.392
-164.823	49.431	0.025	-0.023
-163.808	-30.438	0.079	-0.044
-162.793	-200.000	-0.074	-0.401
-161.779	-125.889	-0.130	-0.019
-160.764	-38.993	-0.095	0.049
-159.750	-49.818	0.171	-0.080
-158.735	-200.000	0.002	0.145
-157.720	-73.111	-0.148	-0.053
-156.706	2.707	-0.271	-0.192
-155.691	-200.000	0.004	-0.142
-154.677	306.142	-0.143	0.260
-153.662	59.636	0.102	-0.099
-152.647	-119.410	-0.014	-0.002
-151.633	15.868	-0.379	-0.292
-150.618	64.969	0.224	-0.222
-149.604	-119.448	-0.083	-0.014
-148.589	74.368	0.023	0.023
-147.574	-200.000	0.046	-0.310
-146.560	215.018	0.095	0.148
-145.545	205.584	-0.161	-0.245
-144.531	25.680	0.243	0.198
-143.516	-200.000	-0.033	0.245
-142.502	-4.980	0.080	-0.054
-141.487	-80.362	0.154	0.050
-140.472	18.069	-0.063	-0.049
-139.458	53.677	0.287	-0.270
-138.443	800.000	-0.037	0.138
-137.429	-166.097	-0.202	-0.008
-136.414	-149.119	0.227	0.018
-135.399	-104.811	0.194	-0.044
-134.385	244.935	0.086	-0.141
-133.370	-169.554	0.256	0.009
-132.356	-117.075	-0.218	0.039
-131.341	-200.000	-0.014	0.260
-130.326	-66.140	-0.365	-0.142
-129.312	-88.068	-0.187	0.055
-128.297	800.000	0.054	-0.208
-127.283	-144.473	-0.202	0.018
-126.268	71.952	0.335	-0.341
-125.253	800.000	0.031	-0.098
-124.239	170.143	0.163	0.229
-123.224	-200.000	-0.047	-0.249
-122.210	-200.000	0.047	-0.386
-121.195	-55.620	0.058	-0.025
-120.180	-60.092	-0.215	0.090
