DTS Sentinel unit serial number:	SN413079Multiplexer serial number:	ORYXHardware model number:	OX4-SRSoftware version number:	ORYX F/W v4.00 Oryx Data Collector v3.7.2.0data status	okinstallation	princeton_trtdifferential loss correction	single-endedforward channel	channel 1reverse channel	N/Adate	2019/09/13time	00:38:35forward acquisition time	60.00reverse acquisition time	0.00gamma	496.2192k internal	0.2328k external	0.2328temperature offset calibration	1.0143default loss term (dB/km)	0.3790temperature slope calibration	1.0000multiplexer offset coefficient	1.0000multiplexer slope coefficient	1.0000fibre end	0.00T internal ref (°C)	28.28T ext. ref 1 (°C)	3.68T ext. ref 2 (°C)	22.85length (m)	temperature (°C)	Stokes	anti-Stokes-747.200	42.828	-0.053	-0.049
-746.185	-15.867	-0.347	0.223
-745.171	-200.000	-0.048	-0.358
-744.156	-168.725	-0.095	-0.004
-743.142	-72.000	0.313	-0.117
-742.127	192.658	-0.191	0.291
-741.112	-173.628	0.124	-0.004
-740.098	40.075	-0.086	-0.078
-739.083	-85.998	0.405	0.126
-738.069	-55.834	-0.450	-0.203
-737.054	-200.000	-0.003	0.179
-736.039	-118.361	-0.256	0.046
-735.025	-49.484	0.171	0.082
-734.010	-153.098	-0.148	-0.010
-732.996	12.881	0.078	0.061
-731.981	194.842	-0.034	0.052
-730.966	800.000	-0.139	0.448
-729.952	667.973	-0.120	-0.313
-728.937	-0.188	0.307	0.220
-727.923	800.000	-0.119	0.347
-726.908	-25.540	-0.147	0.087
-725.894	20.975	-0.297	0.243
-724.879	44.197	-0.271	0.250
-723.864	-38.769	0.243	-0.129
-722.850	-16.743	-0.413	-0.263
-721.835	-14.400	-0.501	-0.325
-720.821	364.935	-0.065	-0.131
-719.806	362.475	-0.087	-0.175
-718.791	-200.000	-0.035	-0.192
-717.777	-4.387	0.226	-0.157
-716.762	187.988	0.147	-0.221
-715.748	45.697	-0.242	-0.225
-714.733	194.430	0.187	-0.285
-713.718	272.511	-0.121	0.215
-712.704	-134.183	0.114	-0.014
-711.689	-96.301	-0.202	0.054
-710.675	-200.000	-0.022	0.289
-709.660	118.999	0.141	0.176
-708.645	-200.000	0.009	-0.228
-707.631	-200.000	0.004	0.287
-706.616	800.000	-0.054	-0.177
-705.602	11.356	-0.157	-0.121
-704.587	-200.000	0.027	-0.221
-703.572	206.529	-0.035	-0.054
-702.558	172.151	0.012	-0.018
-701.543	-200.000	-0.081	-0.390
-700.529	407.740	0.066	0.141
-699.514	800.000	-0.029	0.124
-698.499	431.013	0.079	0.171
-697.485	25.159	-0.099	-0.083
-696.470	102.175	0.039	-0.045
-695.456	-200.000	-0.025	0.153
-694.441	242.399	-0.144	-0.242
-693.426	106.961	0.059	0.070
-692.412	-122.416	0.139	-0.023
-691.397	800.000	-0.075	-0.268
-690.383	-17.768	0.302	-0.190
-689.368	-33.525	-0.149	0.083
-688.354	84.812	-0.282	0.311
-687.339	-191.530	0.416	-0.004
-686.324	305.488	-0.054	0.101
-685.310	20.055	-0.235	-0.191
-684.295	-136.919	-0.237	-0.027
-683.281	-200.000	0.015	0.204
-682.266	800.000	-0.132	0.374
-681.251	-31.377	0.236	0.134
-680.237	72.543	-0.141	-0.148
-679.222	-50.181	0.245	0.117
-678.208	-17.065	0.127	-0.081
-677.193	-109.977	-0.120	-0.025
-676.178	-75.308	0.149	-0.053
-675.164	82.174	-0.202	0.220
-674.149	-145.424	-0.120	-0.011
-673.135	-47.146	0.017	-0.009
-672.120	-118.016	0.395	-0.071
-671.105	-122.059	0.250	-0.041
-670.091	595.831	0.105	-0.261
-669.076	-24.398	-0.169	0.101
-668.062	573.613	-0.079	0.194
-667.047	426.820	0.041	-0.088
-666.032	-200.000	0.004	-0.086
-665.018	461.268	-0.149	0.333
-664.003	-200.000	0.044	0.231
-662.989	-163.920	0.164	0.008
-661.974	98.768	0.154	0.179
-660.959	490.905	0.091	0.208
-659.945	-143.509	-0.137	-0.013
-658.930	-200.000	0.015	0.070
-657.916	-14.887	-0.185	0.119
-656.901	202.611	-0.133	-0.206
-655.886	-63.123	0.222	0.092
-654.872	564.861	0.089	0.217
-653.857	-159.271	0.063	0.004
-652.843	-20.352	-0.262	0.162
-651.828	-17.687	0.170	0.107
-650.814	67.838	0.160	-0.164
-649.799	-55.637	0.278	0.125
-648.784	-200.000	0.030	-0.195
-647.770	121.815	-0.180	0.225
-646.755	176.341	0.176	0.257
-645.741	134.246	0.039	-0.051
-644.726	260.086	0.084	-0.146
-643.711	-200.000	-0.026	0.143
-642.697	-200.000	-0.030	0.174
-641.682	-30.936	-0.300	-0.170
-640.668	-10.442	0.314	0.209
-639.653	-107.292	-0.200	-0.044
-638.638	708.824	-0.047	-0.125
-637.624	5.429	0.175	0.129
-636.609	-150.774	-0.366	0.028
-635.595	-91.929	-0.248	-0.070
-634.580	41.061	0.147	0.134
-633.565	196.390	-0.036	-0.055
-632.551	4.896	-0.105	0.078
-631.536	171.198	-0.154	-0.221
-630.522	800.000	-0.013	-0.052
-629.507	-151.203	-0.182	-0.014
-628.492	-168.455	-0.363	0.014
-627.478	-200.000	-0.029	0.259
-626.463	45.222	0.228	-0.211
-625.449	-30.043	-0.160	-0.091
-624.434	-200.000	-0.030	-0.344
-623.419	33.150	0.038	-0.033
-622.405	-58.878	-0.193	0.084
-621.390	800.000	0.066	-0.274
-620.376	68.731	0.148	0.152
-619.361	199.045	0.101	-0.155
-618.346	-200.000	0.024	-0.174
-617.332	151.041	0.101	0.137
-616.317	0.098	0.035	-0.025
-615.303	55.232	-0.036	0.035
-614.288	-200.000	0.003	-0.136
-613.273	97.048	0.089	0.102
-612.259	-200.000	0.001	-0.042
-611.244	24.940	-0.243	0.202
-610.230	-78.110	-0.285	-0.098
-609.215	172.702	-0.164	0.237
-608.201	102.578	0.156	-0.183
-607.186	-37.253	-0.375	-0.201
-606.171	368.357	0.035	0.070
-605.157	448.156	-0.128	-0.283
-604.142	126.237	-0.100	0.127
-603.128	-200.000	0.018	-0.089
-602.113	-99.863	-0.267	-0.067
-601.098	557.805	-0.113	-0.272
-600.084	-52.286	-0.265	-0.123
-599.069	-200.000	0.033	-0.169
-598.055	-200.000	-0.012	-0.063
-597.040	-200.000	-0.029	-0.437
-596.025	800.000	-0.058	-0.229
-595.011	-165.396	0.217	-0.010
-593.996	-200.000	-0.014	0.154
-592.982	-169.594	-0.155	0.006
-591.967	-94.159	-0.039	0.011
-590.952	-101.721	-0.117	0.028
-589.938	-50.715	0.339	0.160
-588.923	-200.000	-0.029	0.479
-587.909	-63.883	0.204	-0.084
-586.894	-39.274	0.222	0.117
-585.879	800.000	0.038	0.137
-584.865	-152.559	-0.378	-0.027
-583.850	26.505	-0.104	-0.087
-582.836	-119.314	0.230	-0.040
-581.821	-200.000	-0.032	-0.480
-580.806	-50.345	0.171	0.081
-579.792	47.526	0.119	0.111
-578.777	-36.948	0.276	-0.148
-577.763	800.000	-0.050	-0.139
-576.748	-200.000	-0.029	-0.293
-575.733	-87.985	0.278	-0.084
-574.719	-184.360	-0.273	-0.004
-573.704	-156.132	0.031	-0.002
-572.690	800.000	-0.040	0.120
-571.675	28.699	0.330	-0.280
-570.661	800.000	-0.043	-0.169
-569.646	-53.455	-0.170	0.078
-568.631	25.986	0.374	-0.312
-567.617	-147.135	-0.255	0.022
-566.602	795.590	-0.112	-0.310
-565.588	-54.707	0.262	-0.118
-564.573	800.000	-0.040	0.162
-563.558	-40.433	-0.216	-0.112
-562.544	-169.574	-0.123	-0.004
-561.529	-137.146	-0.062	-0.007
-560.515	-101.776	-0.570	0.138
-559.500	33.136	0.215	-0.186
-558.485	-12.503	-0.219	-0.143
-557.471	-49.482	-0.216	0.103
-556.456	-200.000	-0.013	-0.063
-555.442	47.156	-0.200	-0.186
-554.427	-97.955	0.166	0.043
-553.412	800.000	0.076	-0.219
-552.398	-200.000	-0.011	-0.185
-551.383	-200.000	0.007	0.085
-550.369	158.615	-0.113	0.157
-549.354	-200.000	-0.011	-0.125
-548.339	643.213	-0.034	0.086
-547.325	-107.562	-0.266	0.058
-546.310	416.099	0.187	-0.398
-545.296	800.000	-0.066	-0.212
-544.281	-194.444	-0.281	-0.002
-543.266	-200.000	0.016	-0.157
-542.252	800.000	0.072	-0.204
-541.237	-41.241	-0.088	0.045
-540.223	192.998	-0.070	0.106
-539.208	-78.648	-0.483	0.165
-538.193	-100.818	-0.238	-0.059
-537.179	379.868	0.080	0.164
-536.164	800.000	0.047	-0.144
-535.150	800.000	0.078	-0.243
-534.135	609.715	-0.113	-0.282
-533.121	95.970	0.162	-0.185
-532.106	-200.000	-0.061	-0.338
-531.091	104.172	-0.047	0.055
-530.077	317.989	-0.065	-0.122
-529.062	800.000	0.051	-0.159
-528.048	-94.340	0.325	0.089
-527.033	-131.163	-0.313	-0.042
-526.018	-80.136	0.247	0.083
-525.004	8.967	-0.196	0.148
-523.989	792.311	-0.019	-0.051
-522.975	523.370	0.064	0.151
-521.960	685.701	0.094	0.245
-520.945	-34.589	0.193	0.106
-519.931	800.000	0.030	-0.093
-518.916	193.316	-0.143	-0.216
-517.902	800.000	0.070	0.209
-516.887	261.745	0.302	0.523
-515.872	-114.704	0.276	-0.053
-514.858	456.872	0.069	-0.152
-513.843	119.159	-0.238	-0.293
-512.829	800.000	0.090	0.370
-511.814	-117.646	-0.472	0.085
-510.799	183.963	0.046	-0.068
-509.785	-34.010	-0.103	-0.056
-508.770	-30.979	0.233	0.131
-507.756	-111.918	0.112	0.023
-506.741	35.865	0.119	-0.104
-505.726	259.749	-0.246	0.424
-504.712	-118.727	0.082	-0.014
-503.697	-45.684	0.082	0.040
-502.683	-111.795	0.198	0.040
-501.668	-79.075	0.204	0.069
-500.653	-19.770	-0.461	0.285
-499.639	-180.381	-0.121	0.003
-498.624	-200.000	0.013	0.243
-497.610	-200.000	-0.025	0.431
-496.595	-200.000	-0.145	-0.000
-495.581	-65.823	0.241	0.096
-494.566	800.000	0.067	-0.249
-493.551	-5.503	-0.192	-0.132
-492.537	800.000	0.032	0.128
-491.522	192.002	-0.105	0.158
-490.508	149.965	-0.101	-0.137
-489.493	718.421	0.072	0.192
-488.478	-90.666	0.171	0.049
-487.464	-13.068	-0.322	0.209
-486.449	800.000	-0.041	0.172
-485.435	800.000	-0.105	-0.323
-484.420	800.000	0.144	0.431
-483.405	800.000	0.091	0.250
-482.391	-200.000	-0.081	0.468
-481.376	45.212	-0.150	0.138
-480.362	116.122	0.286	-0.350
-479.347	-200.000	0.026	-0.385
-478.332	800.000	0.058	0.174
-477.318	-141.022	-0.279	-0.029
-476.303	259.564	0.076	-0.131
-475.289	800.000	-0.063	0.200
-474.274	-200.000	-0.006	0.243
-473.259	180.464	-0.087	-0.128
-472.245	-68.159	-0.095	-0.037
-471.230	-8.864	0.234	-0.157
-470.216	102.971	0.148	0.173
-469.201	-140.637	0.046	0.005
-468.186	-133.087	0.277	-0.035
-467.172	-200.000	0.059	-0.333
-466.157	-130.245	-0.135	-0.018
-465.143	-57.694	0.074	-0.032
-464.128	52.147	0.317	0.302
-463.113	800.000	-0.083	0.235
-462.099	-200.000	0.011	0.155
-461.084	-126.121	-0.152	0.023
-460.070	-55.840	-0.300	-0.133
-459.055	-23.101	-0.263	-0.158
-458.040	-159.552	0.381	0.021
-457.026	-200.000	0.009	0.198
-456.011	-200.000	0.014	0.172
-454.997	-200.000	-0.010	0.366
-453.982	-200.000	-0.015	0.093
-452.968	-200.000	0.090	0.408
-451.953	207.457	0.138	0.214
-450.938	-172.408	0.479	-0.015
-449.924	-200.000	0.002	-0.268
-448.909	88.044	-0.130	-0.144
-447.895	-70.385	-0.445	-0.168
-446.880	-200.000	0.021	0.106
-445.865	800.000	0.113	-0.385
-444.851	-105.596	-0.236	0.053
-443.836	62.459	-0.151	0.150
-442.822	-111.581	0.219	-0.044
-441.807	-28.470	-0.084	0.048
-440.792	-10.584	0.203	0.134
-439.778	-11.856	-0.453	0.296
-438.763	64.727	-0.055	0.055
-437.749	-31.074	0.326	0.183
-436.734	-93.995	0.082	-0.022
-435.719	264.999	-0.155	-0.269
-434.705	-47.146	0.193	0.094
-433.690	-200.000	-0.026	0.186
-432.676	408.594	-0.125	-0.264
-431.661	-14.475	-0.287	0.184
-430.646	290.330	-0.190	-0.343
-429.632	23.200	0.103	-0.084
-428.617	168.169	-0.097	-0.137
-427.603	-200.000	-0.000	-0.269
-426.588	405.319	-0.075	-0.157
-425.573	-200.000	0.007	-0.195
-424.559	19.074	0.187	-0.149
-423.544	-200.000	-0.013	-0.073
-422.530	-19.064	-0.182	-0.112
-421.515	-200.000	-0.022	0.204
-420.500	800.000	0.048	-0.137
-419.486	-31.188	0.179	-0.101
-418.471	65.778	0.293	0.296
-417.457	800.000	0.059	0.175
-416.442	378.585	-0.060	0.122
-415.428	800.000	-0.104	-0.349
-414.413	-85.501	-0.167	-0.052
-413.398	-108.322	0.152	-0.033
-412.384	31.262	-0.174	-0.148
-411.369	-41.197	-0.235	-0.121
-410.355	-67.313	0.176	-0.069
-409.340	85.897	-0.198	-0.216
-408.325	-200.000	-0.018	0.260
-407.311	800.000	0.126	-0.398
-406.296	-200.000	0.032	-0.146
-405.282	293.019	0.115	0.208
-404.267	-132.825	0.141	-0.018
-403.252	192.581	-0.074	0.111
-402.238	-200.000	-0.041	-0.246
-401.223	31.939	-0.197	-0.168
-400.209	-200.000	0.098	-0.484
-399.194	-136.278	-0.197	0.023
-398.179	94.179	0.175	0.198
-397.165	75.012	-0.142	-0.149
-396.150	-97.001	0.243	0.063
-395.136	-85.179	-0.142	-0.044
-394.121	-39.436	0.030	-0.016
-393.106	-75.338	-0.110	-0.039
-392.092	170.734	-0.081	0.115
-391.077	-38.039	0.163	0.086
-390.063	-41.602	0.149	-0.076
-389.048	-71.540	-0.135	0.050
-388.033	-105.743	0.185	0.042
-387.019	-66.906	0.088	0.035
-386.004	337.504	0.096	-0.186
-384.990	180.176	0.088	-0.128
-383.975	5.636	-0.085	-0.062
-382.960	19.053	-0.100	-0.080
-381.946	7.744	0.146	-0.109
-380.931	211.645	-0.100	0.156
-379.917	-54.430	0.134	0.060
-378.902	336.378	0.171	-0.329
-377.888	-139.955	-0.245	0.026
-376.873	800.000	0.085	0.257
-375.858	-85.746	-0.069	-0.021
-374.844	-76.992	0.048	-0.017
-373.829	118.345	-0.013	-0.016
-372.815	-189.387	0.182	-0.002
-371.800	-200.000	-0.002	0.234
-370.785	-51.420	0.210	0.097
-369.771	607.820	0.170	-0.420
-368.756	195.996	-0.111	-0.168
-367.742	-153.890	-0.168	0.011
-366.727	94.047	0.101	-0.113
-365.712	-200.000	-0.007	0.200
-364.698	139.410	-0.031	-0.041
-363.683	80.272	-0.085	-0.090
-362.669	-66.374	0.241	-0.095
-361.654	360.799	-0.059	0.116
-360.639	74.424	-0.150	0.156
-359.625	18.888	0.260	0.207
-358.610	-200.000	0.062	0.516
-357.596	-4.277	-0.116	0.080
-356.581	116.395	0.160	0.194
-355.566	-174.427	-0.131	-0.004
-354.552	800.000	0.078	0.267
-353.537	558.342	-0.017	-0.040
-352.523	160.464	-0.103	0.143
-351.508	133.393	0.134	0.171
-350.493	106.850	0.217	-0.256
-349.479	-200.000	0.019	0.201
-348.464	174.913	-0.126	-0.181
-347.450	-35.441	0.179	0.097
-346.435	-132.794	-0.186	-0.024
-345.420	-200.000	-0.086	-0.386
-344.406	503.535	-0.084	0.192
-343.391	599.177	-0.049	-0.121
-342.377	96.402	-0.130	0.147
-341.362	-200.000	0.015	0.195
-340.348	-5.277	-0.025	-0.017
-339.333	800.000	0.092	0.261
-338.318	421.529	-0.109	-0.231
-337.304	241.551	0.037	-0.062
-336.289	98.957	0.109	0.125
-335.275	-200.000	-0.056	-0.316
-334.260	800.000	-0.117	0.376
-333.245	-150.304	0.196	0.015
-332.231	-200.000	-0.002	-0.177
-331.216	-145.640	0.178	-0.016
-330.202	-200.000	-0.026	0.172
-329.187	-78.133	0.210	-0.071
-328.172	238.474	0.030	0.049
-327.158	80.565	0.258	0.276
-326.143	103.480	-0.052	0.061
-325.129	-200.000	-0.040	0.228
-324.114	-104.304	0.177	-0.041
-323.099	16.855	0.043	-0.034
-322.085	-55.570	0.169	0.075
-321.070	800.000	0.046	0.131
-320.056	29.494	0.025	0.021
-319.041	-121.878	-0.148	0.024
-318.026	48.408	0.157	0.145
-317.012	142.704	-0.114	-0.150
-315.997	-200.000	0.011	-0.294
-314.983	131.539	0.087	-0.111
-313.968	-200.000	0.007	-0.429
-312.953	800.000	0.074	0.304
-311.939	-200.000	0.016	-0.175
-310.924	-200.000	0.036	-0.240
-309.910	165.242	0.168	0.236
-308.895	-200.000	-0.039	0.269
-307.880	708.786	0.072	0.189
-306.866	59.655	0.056	-0.055
-305.851	800.000	-0.033	-0.117
-304.837	10.950	-0.351	0.265
-303.822	800.000	-0.049	-0.137
-302.807	800.000	0.088	-0.279
-301.793	154.474	0.206	0.281
-300.778	-200.000	-0.031	0.162
-299.764	190.913	0.090	-0.134
-298.749	-200.000	-0.043	0.377
-297.735	47.468	-0.088	0.081
-296.720	-32.346	-0.040	0.022
-295.705	-178.993	-0.132	0.003
-294.691	-19.042	0.108	-0.067
-293.676	800.000	0.074	-0.298
-292.662	800.000	-0.114	-0.323
-291.647	192.222	-0.066	0.098
-290.632	749.375	0.197	0.525
-289.618	-54.864	-0.321	0.143
-288.603	-200.000	0.008	0.072
-287.589	-4.408	0.306	-0.210
-286.574	-148.937	-0.437	0.035
-285.559	-80.787	0.274	0.090
-284.545	-200.000	-0.013	-0.145
-283.530	58.400	-0.083	0.081
-282.516	144.210	-0.202	-0.267
-281.501	800.000	0.077	-0.232
-280.486	-142.002	0.199	0.020
-279.472	135.203	0.117	-0.151
-278.457	-165.400	-0.124	-0.005
-277.443	-121.504	-0.442	-0.073
-276.428	118.483	0.091	-0.111
-275.413	-132.326	-0.222	-0.028
-274.399	-43.948	0.084	0.042
-273.384	53.555	-0.068	0.065
-272.370	199.465	-0.160	0.242
-271.355	354.634	0.138	-0.271
-270.340	112.393	-0.150	-0.180
-269.326	-139.140	0.062	0.007
-268.311	-57.137	0.038	-0.016
-267.297	-45.421	0.133	0.065
-266.282	467.400	-0.194	0.430
-265.267	186.731	0.121	0.178
-264.253	-108.884	-0.135	0.029
-263.238	13.255	-0.283	-0.216
-262.224	27.266	0.093	0.077
-261.209	232.902	0.086	0.139
-260.195	110.501	0.100	-0.118
-259.180	-62.805	0.063	0.026
-258.165	82.762	0.125	-0.134
-257.151	-3.560	0.127	0.088
-256.136	23.362	-0.179	0.146
-255.122	-109.372	-0.168	0.035
-254.107	-158.843	-0.430	-0.024
-253.092	134.305	0.172	0.220
-252.078	-1.448	0.210	-0.147
-251.063	100.989	0.195	0.224
-250.049	-147.538	-0.196	-0.016
-249.034	704.069	-0.031	-0.082
-248.019	400.484	0.060	-0.125
-247.005	-49.007	-0.171	-0.081
-245.990	78.389	0.100	-0.106
-244.976	657.499	-0.088	-0.224
-243.961	493.670	0.080	-0.181
-242.946	-200.000	-0.066	-0.424
-241.932	-84.706	0.167	-0.052
-240.917	800.000	-0.035	0.152
-239.903	-29.662	0.065	0.037
-238.888	145.479	-0.185	-0.245
-237.873	336.390	-0.023	0.044
-236.859	-200.000	-0.182	0.000
-235.844	113.601	-0.080	-0.096
-234.830	52.750	0.146	0.138
-233.815	128.583	-0.241	0.304
-232.800	137.648	-0.222	0.287
-231.786	18.514	0.404	0.319
-230.771	-63.132	0.148	0.060
-229.757	40.017	0.077	-0.069
-228.742	-52.686	0.356	-0.162
-227.727	307.722	-0.058	-0.108
-226.713	152.223	-0.214	0.288
-225.698	52.176	0.120	-0.113
-224.684	181.019	-0.227	-0.330
-223.669	-52.067	-0.452	-0.207
-222.655	-200.000	-0.006	0.207
-221.640	-43.119	0.152	-0.076
-220.625	-18.359	-0.141	0.087
-219.611	-200.000	0.010	-0.301
-218.596	-81.996	-0.041	0.013
-217.582	-168.085	0.235	0.009
-216.567	-96.123	-0.155	0.041
-215.552	236.087	0.027	0.045
-214.538	132.331	-0.172	-0.219
-213.523	-26.379	-0.137	0.079
-212.509	235.243	0.127	0.207
-211.494	25.927	-0.114	-0.094
-210.479	-200.000	0.014	0.277
-209.465	105.670	-0.136	-0.159
-208.450	-129.302	-0.124	-0.017
-207.436	-23.237	0.276	0.164
-206.421	127.734	0.198	-0.248
-205.406	-117.243	-0.126	0.023
-204.392	23.775	-0.159	0.129
-203.377	-24.718	0.032	-0.019
-202.363	-35.128	0.154	0.083
-201.348	-13.474	0.298	0.190
-200.333	299.210	-0.167	-0.304
-199.319	-127.502	0.371	0.053
-198.304	-200.000	-0.014	0.126
-197.290	511.562	0.035	0.081
-196.275	-42.505	-0.095	-0.048
-195.260	72.239	0.259	-0.266
-194.246	800.000	-0.076	-0.227
-193.231	465.595	0.076	-0.169
-192.217	-200.000	0.072	0.341
-191.202	377.955	-0.141	0.284
-190.187	-99.835	0.164	0.041
-189.173	-84.094	0.659	0.206
-188.158	244.547	0.117	0.193
-187.144	-4.654	-0.097	0.066
-186.129	800.000	-0.080	0.237
-185.114	-200.000	-0.032	0.355
-184.100	-200.000	0.002	0.216
-183.085	-200.000	0.018	-0.282
-182.071	-51.053	-0.191	0.088
-181.056	91.109	0.417	0.461
-180.042	-200.000	0.002	0.091
-179.027	192.702	0.366	0.545
-178.012	188.567	0.089	0.132
-176.998	-129.039	-0.201	0.028
-175.983	800.000	0.108	0.466
-174.969	170.947	0.218	0.307
-173.954	-43.233	0.143	0.071
-172.939	92.655	-0.110	-0.122
-171.925	-96.440	-0.342	0.089
-170.910	64.741	0.194	0.193
-169.896	-82.815	-0.097	-0.031
-168.881	-65.722	0.216	0.085
-167.866	57.908	-0.211	-0.204
-166.852	-200.000	-0.015	-0.139
-165.837	-68.405	0.119	-0.045
-164.823	-68.426	0.134	0.051
-163.808	-50.425	0.313	-0.145
-162.793	37.916	0.151	-0.132
-161.779	800.000	0.093	-0.399
-160.764	-64.854	0.137	0.055
-159.750	-50.167	0.334	0.156
-158.735	-158.993	-0.128	-0.007
-157.720	-200.000	0.006	-0.070
-156.706	5.917	-0.212	-0.155
-155.691	51.488	0.110	-0.103
-154.677	73.721	-0.200	-0.206
-153.662	228.528	0.166	-0.266
-152.647	-88.624	-0.178	0.052
-151.633	220.410	0.117	-0.185
-150.618	85.531	0.216	0.233
-149.604	-178.666	0.123	0.003
-148.589	-109.032	0.176	-0.037
-147.574	92.256	0.139	-0.155
-146.560	30.084	-0.180	-0.151
-145.545	104.226	-0.330	0.382
-144.531	-103.367	-0.312	0.072
-143.516	-97.930	0.104	-0.026
-142.502	-19.694	-0.234	-0.143
-141.487	3.241	0.166	0.119
-140.472	73.037	0.331	0.340
-139.458	-63.992	-0.151	0.061
-138.443	277.995	0.184	0.322
-137.429	250.566	-0.046	0.077
-136.414	-71.485	0.130	0.048
-135.399	-22.555	0.181	0.108
-134.385	68.723	-0.225	0.227
-133.370	-200.000	-0.004	-0.231
-132.356	-134.282	0.270	-0.033
-131.341	-68.251	0.248	-0.095
-130.326	50.636	0.208	0.194
-129.312	399.990	0.147	-0.304
-128.297	259.062	-0.101	0.171
-127.283	-140.263	0.088	-0.009
-126.268	287.238	0.129	0.230
-125.253	204.605	-0.112	-0.171
-124.239	-18.782	-0.193	-0.118
-123.224	-104.613	0.234	0.053
-122.210	-200.000	0.034	0.167
-121.195	-200.000	0.038	0.266
