DTS Sentinel unit serial number:	SN413079Multiplexer serial number:	ORYXHardware model number:	OX4-SRSoftware version number:	ORYX F/W v4.00 Oryx Data Collector v3.7.2.0data status	okinstallation	princeton_trtdifferential loss correction	single-endedforward channel	channel 1reverse channel	N/Adate	2019/09/15time	02:58:35forward acquisition time	60.00reverse acquisition time	0.00gamma	496.2192k internal	0.2324k external	0.2324temperature offset calibration	0.9990default loss term (dB/km)	0.3790temperature slope calibration	1.0000multiplexer offset coefficient	1.0000multiplexer slope coefficient	1.0000fibre end	0.00T internal ref (°C)	31.25T ext. ref 1 (°C)	4.57T ext. ref 2 (°C)	25.69length (m)	temperature (°C)	Stokes	anti-Stokes-747.200	121.014	-0.232	0.292
-746.185	800.000	0.078	0.288
-745.171	800.000	-0.104	0.304
-744.156	139.819	-0.092	0.122
-743.142	-161.041	0.367	0.019
-742.127	-81.969	-0.079	-0.026
-741.112	-200.000	0.009	-0.227
-740.098	3.622	-0.495	0.365
-739.083	402.545	0.339	0.719
-738.069	21.492	-0.101	-0.083
-737.054	-200.000	0.006	-0.154
-736.039	-92.096	-0.296	-0.085
-735.025	-87.397	-0.095	0.029
-734.010	-154.777	-0.252	-0.017
-732.996	83.947	-0.137	0.151
-731.981	-100.159	-0.176	-0.044
-730.966	-146.568	-0.445	-0.039
-729.952	603.172	-0.145	-0.363
-728.937	-127.744	-0.371	0.054
-727.923	-134.087	-0.171	-0.021
-726.908	194.934	0.211	-0.323
-725.894	-9.897	-0.173	-0.116
-724.879	144.744	-0.271	0.365
-723.864	-148.704	-0.034	0.003
-722.850	800.000	-0.120	-0.384
-721.835	800.000	0.191	-0.683
-720.821	431.678	-0.116	-0.254
-719.806	314.092	-0.155	-0.294
-718.791	111.100	0.269	0.327
-717.777	-136.433	-0.188	0.022
-716.762	800.000	-0.061	-0.258
-715.748	-86.925	0.184	-0.057
-714.733	210.281	0.047	-0.074
-713.718	-18.187	-0.133	0.084
-712.704	149.006	-0.113	0.154
-711.689	-120.047	-0.165	0.029
-710.675	-200.000	-0.021	-0.135
-709.660	-200.000	-0.014	-0.265
-708.645	364.670	0.061	-0.125
-707.631	-27.514	-0.185	0.108
-706.616	-88.449	0.325	-0.098
-705.602	800.000	0.058	0.237
-704.587	181.004	-0.107	0.158
-703.572	-92.074	0.060	0.017
-702.558	-70.023	0.412	0.158
-701.543	-200.000	0.024	0.412
-700.529	-107.938	0.154	0.034
-699.514	326.225	-0.051	-0.098
-698.499	-58.059	0.213	0.094
-697.485	800.000	0.011	-0.049
-696.470	-57.368	-0.059	-0.026
-695.456	415.707	-0.101	-0.217
-694.441	11.746	0.108	0.084
-693.426	265.168	-0.026	-0.045
-692.412	50.839	-0.269	-0.257
-691.397	-19.340	-0.167	0.104
-690.383	412.907	0.102	-0.218
-689.368	356.560	0.163	-0.327
-688.354	-50.386	0.168	-0.080
-687.339	-4.917	0.134	-0.093
-686.324	585.497	0.075	-0.187
-685.310	-200.000	-0.001	-0.184
-684.295	108.408	-0.063	-0.075
-683.281	547.977	0.072	0.174
-682.266	-87.537	0.297	0.090
-681.251	84.800	0.082	0.091
-680.237	59.588	0.324	-0.321
-679.222	245.755	0.164	0.278
-678.208	12.151	0.117	-0.090
-677.193	-77.389	-0.177	0.062
-676.178	133.160	-0.167	0.217
-675.164	-200.000	0.023	-0.127
-674.149	-200.000	-0.009	-0.192
-673.135	-200.000	0.065	-0.309
-672.120	111.163	-0.315	-0.382
-671.105	426.212	-0.135	0.294
-670.091	-5.504	0.109	0.075
-669.076	636.977	0.044	-0.113
-668.062	-200.000	-0.023	0.166
-667.047	381.207	-0.119	-0.246
-666.032	-115.147	0.077	-0.015
-665.018	83.626	-0.137	-0.150
-664.003	378.388	-0.005	0.010
-662.989	-70.507	-0.233	-0.089
-661.974	330.131	-0.028	0.055
-660.959	-110.560	-0.101	0.021
-659.945	-92.314	-0.426	-0.121
-658.930	800.000	-0.089	-0.262
-657.916	58.697	0.220	0.218
-656.901	-200.000	-0.009	-0.138
-655.886	-98.325	0.214	0.055
-654.872	-200.000	-0.001	0.157
-653.857	91.187	0.132	0.149
-652.843	-18.602	0.407	-0.255
-651.828	94.681	0.184	-0.210
-650.814	800.000	-0.022	0.092
-649.799	-25.779	0.127	0.076
-648.784	525.573	-0.066	-0.156
-647.770	800.000	-0.061	-0.216
-646.755	-177.624	0.331	-0.008
-645.741	800.000	-0.104	-0.308
-644.726	136.332	-0.202	-0.265
-643.711	-200.000	0.060	-0.305
-642.697	77.078	-0.242	-0.259
-641.682	176.887	-0.184	-0.269
-640.668	-200.000	0.064	0.380
-639.653	149.257	0.038	0.051
-638.638	-2.382	-0.087	-0.061
-637.624	800.000	0.102	0.384
-636.609	-38.898	-0.223	-0.118
-635.595	-57.522	0.329	0.145
-634.580	-102.380	0.141	-0.034
-633.565	-128.185	-0.068	0.010
-632.551	45.604	-0.267	-0.247
-631.536	-200.000	-0.004	-0.306
-630.522	-12.343	0.255	-0.168
-629.507	-200.000	-0.009	-0.232
-628.492	268.676	-0.149	-0.262
-627.478	82.301	0.091	-0.099
-626.463	-92.919	-0.208	-0.058
-625.449	-104.396	0.148	-0.034
-624.434	62.757	-0.197	0.198
-623.419	-82.525	0.077	-0.025
-622.405	-200.000	0.101	-0.474
-621.390	40.131	-0.135	0.122
-620.376	800.000	0.038	-0.128
-619.361	33.086	-0.244	-0.213
-618.346	73.812	0.163	0.171
-617.332	800.000	0.062	-0.197
-616.317	451.770	-0.131	0.291
-615.303	-145.029	-0.363	0.033
-614.288	289.862	0.169	0.309
-613.273	-37.823	0.027	-0.014
-612.259	-128.808	-0.124	-0.018
-611.244	-40.527	-0.270	-0.141
-610.230	-200.000	-0.209	-0.001
-609.215	210.179	0.131	0.206
-608.201	800.000	0.090	0.274
-607.186	145.970	-0.073	0.098
-606.171	455.794	-0.046	0.103
-605.157	-7.814	0.285	0.193
-604.142	-42.376	-0.272	0.139
-603.128	-71.477	0.209	-0.078
-602.113	-68.947	-0.091	-0.035
-601.098	800.000	-0.091	0.325
-600.084	-129.669	0.212	-0.029
-599.069	-19.081	0.395	-0.246
-598.055	283.030	0.188	-0.338
-597.040	27.012	-0.282	0.237
-596.025	800.000	0.082	0.242
-595.011	-200.000	-0.011	-0.124
-593.996	106.852	-0.237	0.282
-592.982	758.888	-0.023	0.062
-591.967	69.214	0.061	0.063
-590.952	121.260	-0.177	-0.221
-589.938	578.953	0.035	0.087
-588.923	-200.000	-0.036	-0.166
-587.909	-200.000	0.029	-0.129
-586.894	-183.556	0.118	0.002
-585.879	-200.000	-0.023	-0.239
-584.865	-67.721	-0.121	0.048
-583.850	170.698	-0.055	-0.079
-582.836	-200.000	0.018	-0.138
-581.821	-15.078	-0.019	-0.012
-580.806	-200.000	-0.041	-0.180
-579.792	256.738	-0.136	0.234
-578.777	11.559	-0.184	-0.141
-577.763	188.746	-0.041	-0.061
-576.748	138.826	0.142	-0.187
-575.733	-121.709	-0.387	0.064
-574.719	-61.891	0.214	-0.090
-573.704	-9.838	0.246	0.164
-572.690	588.126	-0.106	-0.262
-571.675	800.000	0.045	0.162
-570.661	800.000	0.078	-0.252
-569.646	226.582	-0.133	-0.216
-568.631	21.314	0.182	-0.149
-567.617	723.480	-0.028	-0.076
-566.602	-96.493	0.128	0.034
-565.588	-7.975	-0.103	-0.070
-564.573	-117.574	-0.249	0.045
-563.558	359.989	0.174	-0.349
-562.544	59.530	0.151	-0.149
-561.529	-43.613	0.064	0.032
-560.515	-105.112	0.270	-0.062
-559.500	-200.000	0.000	-0.094
-558.485	232.622	-0.068	-0.112
-557.471	-72.856	0.434	0.160
-556.456	-148.275	0.142	0.012
-555.442	-161.124	-0.206	-0.011
-554.427	-200.000	0.034	0.162
-553.412	-200.000	-0.054	-0.244
-552.398	-59.982	0.316	0.135
-551.383	-176.243	0.280	-0.007
-550.369	13.527	-0.135	0.105
-549.354	49.668	-0.075	0.071
-548.339	22.926	-0.252	0.207
-547.325	-74.747	-0.362	-0.130
-546.310	389.418	-0.072	0.150
-545.296	91.088	-0.200	-0.224
-544.281	74.722	-0.119	-0.125
-543.266	-21.259	-0.066	-0.041
-542.252	97.804	-0.230	0.265
-541.237	-200.000	0.035	0.402
-540.223	11.650	-0.198	0.152
-539.208	110.971	-0.199	0.240
-538.193	49.911	-0.139	0.132
-537.179	-53.277	0.081	0.037
-536.164	-93.276	-0.148	-0.041
-535.150	-117.534	0.273	-0.049
-534.135	-200.000	-0.027	0.148
-533.121	-102.092	-0.400	-0.096
-532.106	24.844	0.171	-0.142
-531.091	-127.932	-0.193	0.028
-530.077	90.199	-0.107	-0.120
-529.062	265.165	-0.108	0.189
-528.048	157.618	0.031	-0.043
-527.033	-63.249	-0.278	-0.115
-526.018	800.000	0.056	0.164
-525.004	-200.000	-0.045	-0.429
-523.989	-44.525	0.050	-0.025
-522.975	29.647	-0.249	0.212
-521.960	-131.385	-0.578	0.077
-520.945	-41.131	0.124	0.064
-519.931	666.087	0.030	-0.079
-518.916	-37.986	0.253	-0.135
-517.902	-141.086	0.032	-0.003
-516.887	31.425	0.419	-0.360
-515.872	800.000	0.065	0.262
-514.858	-200.000	-0.015	0.230
-513.843	57.439	0.110	-0.107
-512.829	175.354	-0.107	-0.156
-511.814	-40.142	-0.367	-0.191
-510.799	623.742	0.142	-0.359
-509.785	29.633	-0.137	0.116
-508.770	-15.707	0.217	0.139
-507.756	-156.244	0.192	-0.012
-506.741	800.000	-0.029	0.097
-505.726	-23.649	-0.221	-0.133
-504.712	39.002	-0.114	0.102
-503.697	225.472	0.029	0.046
-502.683	-130.225	0.394	0.054
-501.668	698.359	0.080	0.210
-500.653	563.820	0.122	-0.295
-499.639	-28.972	0.362	-0.208
-498.624	-116.459	-0.203	0.037
-497.610	-200.000	-0.067	-0.308
-496.595	-45.793	0.199	0.098
-495.581	-189.306	0.123	0.001
-494.566	8.563	-0.280	0.211
-493.551	219.256	0.186	0.297
-492.537	800.000	0.031	0.113
-491.522	800.000	0.050	0.187
-490.508	87.050	-0.180	-0.199
-489.493	-200.000	0.054	-0.255
-488.478	-165.834	0.209	-0.009
-487.464	-18.411	0.240	0.150
-486.449	44.352	-0.251	-0.230
-485.435	-20.946	0.060	-0.037
-484.420	-131.135	0.238	0.032
-483.405	32.463	-0.085	0.073
-482.391	-200.000	0.005	0.028
-481.376	800.000	-0.069	-0.259
-480.362	-144.440	-0.297	0.028
-479.347	102.586	0.231	-0.270
-478.332	-48.571	-0.182	-0.087
-477.318	-63.554	0.153	0.063
-476.303	-54.348	0.156	0.071
-475.289	-8.245	-0.224	0.151
-474.274	-139.180	-0.116	-0.013
-473.259	-200.000	0.033	-0.336
-472.245	-57.851	-0.393	-0.171
-471.230	-70.781	-0.272	-0.103
-470.216	-200.000	-0.030	-0.156
-469.201	-200.000	-0.012	-0.261
-468.186	800.000	-0.018	-0.051
-467.172	-170.722	-0.337	-0.012
-466.157	168.970	-0.079	-0.112
-465.143	-121.815	-0.277	-0.046
-464.128	18.420	0.126	0.101
-463.113	-42.138	0.198	0.101
-462.099	-42.200	0.142	-0.072
-461.084	-200.000	-0.010	-0.241
-460.070	728.500	0.053	0.142
-459.055	-12.569	-0.076	-0.049
-458.040	-122.149	0.194	0.032
-457.026	-115.015	-0.103	-0.020
-456.011	204.328	0.107	-0.166
-454.997	-78.855	0.341	0.116
-453.982	-120.500	-0.151	-0.026
-452.968	-46.835	0.192	0.094
-451.953	-200.000	-0.022	0.213
-450.938	-108.233	-0.043	0.009
-449.924	94.490	0.301	0.341
-448.909	-120.124	-0.032	-0.006
-447.895	-200.000	0.002	0.212
-446.880	135.729	-0.112	0.146
-445.865	-124.447	0.451	-0.070
-444.851	67.061	0.169	-0.171
-443.836	82.896	-0.080	-0.087
-442.822	-200.000	0.024	-0.144
-441.807	-123.696	0.206	0.033
-440.792	189.274	-0.033	-0.050
-439.778	-167.469	0.299	-0.012
-438.763	513.431	0.156	-0.362
-437.749	-200.000	0.003	-0.111
-436.734	-7.835	-0.128	0.086
-435.719	173.482	0.054	-0.078
-434.705	800.000	0.017	-0.069
-433.690	45.532	0.217	-0.200
-432.676	-99.877	-0.153	0.038
-431.661	-67.758	-0.112	-0.044
-430.646	105.899	0.036	-0.043
-429.632	-200.000	-0.027	-0.118
-428.617	184.992	0.189	-0.279
-427.603	-30.900	0.125	-0.070
-426.588	-107.979	-0.483	-0.105
-425.573	-200.000	-0.006	-0.086
-424.559	-123.138	0.224	0.036
-423.544	-119.051	0.286	0.050
-422.530	98.125	0.311	0.357
-421.515	-106.713	-0.248	0.055
-420.500	36.059	-0.134	-0.118
-419.486	71.133	-0.070	0.072
-418.471	-200.000	0.026	0.237
-417.457	147.166	-0.370	0.497
-416.442	-1.688	-0.047	0.033
-415.428	-185.931	-0.106	0.002
-414.413	-16.495	0.012	-0.008
-413.398	-24.207	0.230	0.137
-412.384	-159.064	0.257	0.015
-411.369	-103.166	0.167	-0.039
-410.355	-52.773	0.202	0.093
-409.340	-200.000	0.000	-0.061
-408.325	0.736	-0.123	-0.088
-407.311	-200.000	-0.012	-0.317
-406.296	42.652	0.208	0.189
-405.282	346.535	-0.130	0.255
-404.267	655.385	-0.180	-0.460
-403.252	-124.759	0.065	0.010
-402.238	-200.000	-0.037	-0.238
-401.223	45.275	-0.227	0.208
-400.209	44.682	0.263	-0.241
-399.194	-200.000	-0.066	0.000
-398.179	567.335	-0.068	0.165
-397.165	-111.777	-0.052	0.010
-396.150	-11.518	-0.166	0.109
-395.136	800.000	-0.098	-0.274
-394.121	83.418	0.139	0.151
-393.106	-123.518	-0.086	-0.014
-392.092	-55.044	-0.264	0.118
-391.077	167.942	0.088	0.125
-390.063	-44.040	-0.186	-0.093
-389.048	-7.939	-0.205	-0.138
-388.033	-45.566	0.249	-0.123
-387.019	23.060	0.203	0.166
-386.004	213.625	-0.148	0.234
-384.990	-200.000	-0.044	0.205
-383.975	57.485	0.174	0.169
-382.960	-59.401	-0.321	0.137
-381.946	309.870	0.045	-0.084
-380.931	142.276	-0.161	0.213
-379.917	103.712	0.195	0.228
-378.902	-200.000	-0.015	0.438
-377.888	161.868	0.074	0.103
-376.873	-200.000	0.084	-0.399
-375.858	-100.238	0.139	-0.034
-374.844	-200.000	0.008	0.096
-373.829	64.423	-0.311	-0.312
-372.815	-66.164	-0.295	-0.117
-371.800	413.032	-0.040	-0.085
-370.785	76.298	-0.123	0.130
-369.771	800.000	-0.100	0.275
-368.756	-27.295	-0.107	0.062
-367.742	-14.492	-0.267	0.171
-366.727	508.372	-0.079	-0.182
-365.712	-117.846	0.076	0.014
-364.698	-116.326	0.162	-0.030
-363.683	-200.000	0.026	0.396
-362.669	-63.528	0.087	-0.036
-361.654	800.000	-0.034	-0.109
-360.639	-51.869	0.106	0.049
-359.625	3.340	0.103	0.075
-358.610	125.153	-0.051	0.064
-357.596	-87.133	0.191	-0.058
-356.581	-161.707	-0.183	0.009
-355.566	-32.382	0.091	0.051
-354.552	-200.000	-0.027	-0.352
-353.537	-195.976	-0.300	-0.002
-352.523	308.970	0.180	-0.334
-351.508	468.002	-0.016	-0.035
-350.493	-27.239	0.199	0.115
-349.479	-80.333	-0.157	0.052
-348.464	-69.576	0.228	0.087
-347.450	800.000	-0.031	0.099
-346.435	-166.334	0.154	0.006
-345.420	-4.711	0.216	-0.148
-344.406	-61.748	0.326	-0.136
-343.391	-200.000	0.004	-0.019
-342.377	197.654	-0.094	0.143
-341.362	-147.818	-0.314	0.026
-340.348	-98.739	-0.384	-0.097
-339.333	800.000	0.100	-0.323
-338.318	66.430	-0.146	0.147
-337.304	-41.890	0.146	-0.074
-336.289	149.751	-0.060	-0.081
-335.275	-69.125	0.066	-0.025
-334.260	-168.690	0.041	0.002
-333.245	92.351	0.204	-0.229
-332.231	-148.087	0.250	0.021
-331.216	-30.275	0.223	-0.126
-330.202	165.383	0.009	0.013
-329.187	309.091	-0.112	0.209
-328.172	8.948	0.201	-0.151
-327.158	-51.852	0.219	0.101
-326.143	71.052	0.087	-0.090
-325.129	-81.297	-0.314	-0.103
-324.114	-146.967	-0.137	0.012
-323.099	170.811	0.097	0.138
-322.085	175.560	0.132	-0.190
-321.070	48.549	-0.190	0.177
-320.056	71.776	0.277	0.286
-319.041	-88.209	-0.158	0.047
-318.026	800.000	0.069	0.207
-317.012	-41.680	0.176	0.090
-315.997	263.382	0.060	0.104
-314.983	-56.903	0.224	0.098
-313.968	411.095	0.028	0.059
-312.953	4.848	-0.239	0.174
-311.939	-200.000	-0.018	0.218
-310.924	-200.000	0.028	0.171
-309.910	-91.360	0.323	0.092
-308.895	17.567	0.242	0.191
-307.880	-158.554	0.248	0.014
-306.866	-200.000	-0.014	0.314
-305.851	-66.162	0.119	-0.047
-304.837	-49.983	-0.244	-0.115
-303.822	229.042	0.155	0.251
-302.807	-200.000	-0.053	-0.392
-301.793	-2.800	0.239	0.166
-300.778	57.598	-0.166	-0.161
-299.764	-200.000	-0.007	-0.079
-298.749	35.281	0.184	-0.160
-297.735	101.279	0.136	0.157
-296.720	14.974	0.241	0.187
-295.705	-103.533	-0.242	0.056
-294.691	24.389	0.369	0.303
-293.676	239.496	0.027	0.044
-292.662	261.022	0.186	-0.320
-291.647	741.276	-0.050	-0.133
-290.632	288.696	-0.058	-0.105
-289.618	234.190	0.074	-0.121
-288.603	-46.414	-0.146	-0.071
-287.589	-164.053	-0.157	0.007
-286.574	37.801	0.326	0.287
-285.559	-132.824	-0.388	0.049
-284.545	581.516	0.073	-0.178
-283.530	-151.060	0.252	-0.019
-282.516	-108.579	0.137	-0.029
-281.501	-58.412	-0.241	0.104
-280.486	800.000	-0.082	-0.224
-279.472	64.308	-0.115	0.115
-278.457	-71.661	0.465	0.172
-277.443	-9.417	-0.335	0.222
-276.428	800.000	0.096	0.296
-275.413	129.318	0.174	-0.220
-274.399	-51.710	-0.369	0.171
-273.384	-200.000	-0.018	-0.148
-272.370	64.238	0.152	0.152
-271.355	145.920	0.205	0.273
-270.340	336.867	0.163	0.314
-269.326	132.988	0.145	-0.186
-268.311	-167.843	0.058	-0.002
-267.297	172.954	-0.052	0.074
-266.282	-100.702	-0.125	-0.030
-265.267	83.857	-0.056	-0.060
-264.253	-200.000	-0.065	-0.306
-263.238	120.861	0.179	0.220
-262.224	-200.000	0.003	-0.118
-261.209	-37.800	0.082	-0.043
-260.195	-200.000	0.040	0.252
-259.180	83.278	0.148	-0.159
-258.165	163.260	-0.254	-0.353
-257.151	-200.000	-0.023	-0.115
-256.136	283.453	0.090	-0.159
-255.122	-41.962	0.250	-0.127
-254.107	306.751	-0.082	-0.151
-253.092	54.923	0.175	-0.168
-252.078	74.509	0.190	0.197
-251.063	457.055	-0.090	0.198
-250.049	74.304	-0.254	0.264
-249.034	-122.114	0.070	0.011
-248.019	-51.869	0.081	-0.037
-247.005	270.645	0.071	-0.124
-245.990	-94.885	-0.063	-0.017
-244.976	-189.384	0.083	0.001
-243.961	800.000	0.071	0.220
-242.946	-139.638	0.236	0.025
-241.932	37.961	0.275	-0.242
-240.917	181.584	0.056	-0.081
-239.903	-87.905	-0.311	0.093
-238.888	55.806	0.421	0.404
-237.873	-20.116	0.377	-0.230
-236.859	-109.530	-0.221	0.046
-235.844	-120.422	0.129	0.022
-234.830	-69.249	0.333	0.127
-233.815	14.478	0.175	-0.135
-232.800	159.209	-0.154	0.212
-231.786	28.366	0.222	0.186
-230.771	-200.000	0.059	0.327
-229.757	56.238	-0.363	0.349
-228.742	-62.426	0.050	0.020
-227.727	-121.341	0.182	0.030
-226.713	130.488	-0.180	0.229
-225.698	800.000	-0.128	0.404
-224.684	8.277	-0.153	0.114
-223.669	25.772	0.253	-0.209
-222.655	-92.157	-0.330	0.092
-221.640	800.000	-0.030	0.122
-220.625	-87.093	0.119	-0.036
-219.611	-200.000	0.015	0.138
-218.596	800.000	-0.034	0.112
-217.582	349.101	-0.087	0.170
-216.567	148.825	-0.099	-0.133
-215.552	-42.465	-0.027	-0.014
-214.538	342.919	0.161	-0.311
-213.523	-80.419	-0.387	0.128
-212.509	-200.000	0.040	-0.337
-211.494	-107.671	0.249	-0.054
-210.479	427.543	-0.076	-0.163
-209.465	-176.724	-0.248	-0.006
-208.450	170.756	-0.173	-0.245
-207.436	-107.613	-0.125	-0.027
-206.421	11.567	-0.199	-0.151
-205.406	105.065	-0.224	0.261
-204.392	-80.375	-0.268	0.088
-203.377	111.237	-0.039	0.046
-202.363	-99.253	0.220	0.055
-201.348	178.551	-0.103	0.149
-200.333	-200.000	-0.025	0.125
-199.319	-19.371	-0.148	0.091
-198.304	-177.793	0.190	0.005
-197.290	-34.760	0.169	0.091
-196.275	172.342	0.079	-0.112
-195.260	-79.555	-0.118	-0.040
-194.246	-61.028	-0.291	-0.121
-193.231	-200.000	-0.020	0.185
-192.217	-200.000	0.042	-0.431
-191.202	286.520	0.021	-0.038
-190.187	-132.217	-0.365	-0.047
-189.173	352.966	0.158	-0.309
-188.158	-163.209	0.117	-0.006
-187.144	87.773	0.181	-0.198
-186.129	139.885	0.170	0.221
-185.114	-22.264	-0.093	-0.056
-184.100	-47.207	-0.329	0.159
-183.085	-200.000	0.003	0.159
-182.071	-200.000	-0.020	0.159
-181.056	800.000	-0.100	0.285
-180.042	-200.000	-0.012	-0.085
-179.027	-13.378	-0.434	0.278
-178.012	800.000	0.077	0.307
-176.998	174.684	-0.063	0.089
-175.983	212.196	-0.134	0.208
-174.969	-200.000	0.033	0.384
-173.954	156.675	-0.157	0.214
-172.939	51.380	-0.214	0.201
-171.925	-200.000	-0.036	-0.356
-170.910	122.016	0.203	0.250
-169.896	254.503	-0.050	0.085
-168.881	800.000	-0.095	-0.363
-167.866	-4.204	-0.047	0.032
-166.852	-200.000	-0.014	-0.110
-165.837	465.470	0.031	-0.068
-164.823	-200.000	-0.032	-0.201
-163.808	168.853	-0.016	0.023
-162.793	-111.294	-0.169	0.034
-161.779	-104.871	-0.196	0.044
-160.764	-26.298	-0.217	-0.126
-159.750	132.764	0.148	-0.188
-158.735	-155.004	0.061	0.004
-157.720	800.000	0.101	-0.286
-156.706	319.901	-0.107	0.201
-155.691	-150.583	0.278	0.021
-154.677	453.691	0.151	-0.329
-153.662	117.680	0.121	0.147
-152.647	-63.811	-0.305	0.123
-151.633	35.581	-0.262	-0.227
-150.618	596.109	-0.053	0.129
-149.604	58.449	0.192	-0.186
-148.589	-200.000	0.017	-0.109
-147.574	-49.722	-0.088	0.041
-146.560	248.365	-0.041	0.068
-145.545	-20.662	-0.120	0.073
-144.531	303.994	0.169	0.310
-143.516	143.966	0.119	0.157
-142.502	-125.392	-0.152	0.023
-141.487	-200.000	0.289	0.001
-140.472	800.000	0.015	-0.049
-139.458	65.538	0.223	-0.222
-138.443	-8.464	-0.378	0.250
-137.429	-10.775	0.123	0.080
-136.414	-117.790	-0.039	-0.007
-135.399	82.372	0.113	-0.121
-134.385	-53.565	-0.254	-0.115
-133.370	-189.769	-0.178	-0.002
-132.356	-99.804	-0.178	0.044
-131.341	284.122	-0.058	-0.102
-130.326	-89.452	0.165	0.048
-129.312	800.000	0.081	0.226
-128.297	-67.014	0.300	-0.117
-127.283	-105.686	-0.256	0.057
-126.268	800.000	-0.028	-0.110
-125.253	-200.000	0.021	0.316
-124.239	51.413	0.229	-0.214
-123.224	-147.330	-0.441	-0.037
-122.210	476.923	-0.103	0.229
-121.195	800.000	0.077	0.239
