DTS Sentinel unit serial number:	SN413079Multiplexer serial number:	ORYXHardware model number:	OX4-SRSoftware version number:	ORYX F/W v4.00 Oryx Data Collector v3.7.2.0data status	okinstallation	princeton_trtdifferential loss correction	single-endedforward channel	channel 1reverse channel	N/Adate	2019/09/13time	05:10:35forward acquisition time	60.00reverse acquisition time	0.00gamma	496.2192k internal	0.2335k external	0.2335temperature offset calibration	1.0156default loss term (dB/km)	0.3790temperature slope calibration	1.0000multiplexer offset coefficient	1.0000multiplexer slope coefficient	1.0000fibre end	0.00T internal ref (°C)	26.39T ext. ref 1 (°C)	4.05T ext. ref 2 (°C)	20.84length (m)	temperature (°C)	Stokes	anti-Stokes-747.200	800.000	-0.018	0.054
-746.185	-200.000	0.033	0.604
-745.171	143.277	-0.137	0.183
-744.156	99.528	-0.212	0.247
-743.142	54.293	0.275	-0.266
-742.127	-200.000	0.036	0.230
-741.112	22.629	-0.210	0.173
-740.098	-200.000	-0.020	0.110
-739.083	140.987	0.184	0.244
-738.069	-14.796	0.372	-0.240
-737.054	-24.819	-0.271	-0.162
-736.039	46.831	-0.153	-0.143
-735.025	-57.305	0.222	0.098
-734.010	47.247	0.225	-0.211
-732.996	-97.749	-0.197	-0.051
-731.981	-1.937	0.158	0.111
-730.966	-153.691	-0.118	0.008
-729.952	-98.274	0.339	-0.087
-728.937	-44.192	0.066	-0.033
-727.923	-200.000	-0.016	-0.099
-726.908	-154.573	-0.189	0.013
-725.894	98.462	-0.185	-0.215
-724.879	-200.000	-0.012	-0.102
-723.864	-179.628	-0.221	-0.005
-722.850	459.689	-0.104	-0.232
-721.835	587.850	-0.023	-0.057
-720.821	361.323	-0.040	-0.081
-719.806	48.759	0.234	0.221
-718.791	-32.922	-0.269	-0.150
-717.777	-200.000	0.044	0.304
-716.762	-135.793	-0.311	0.037
-715.748	800.000	-0.011	0.040
-714.733	159.283	-0.054	-0.076
-713.718	3.433	0.111	-0.081
-712.704	-91.095	-0.176	-0.051
-711.689	-124.840	-0.305	-0.047
-710.675	-92.862	0.152	0.043
-709.660	-144.195	-0.183	-0.017
-708.645	-27.086	0.158	-0.093
-707.631	-58.405	0.145	-0.063
-706.616	-111.797	-0.238	0.048
-705.602	-77.688	0.114	0.039
-704.587	-200.000	0.097	-0.596
-703.572	361.357	-0.155	-0.312
-702.558	-56.658	0.214	-0.095
-701.543	500.887	-0.085	-0.197
-700.529	-133.179	0.453	-0.057
-699.514	-51.357	-0.193	-0.090
-698.499	432.055	0.175	0.381
-697.485	35.782	0.117	-0.103
-696.470	-93.605	-0.108	-0.030
-695.456	800.000	0.064	0.255
-694.441	-140.558	0.141	-0.015
-693.426	800.000	-0.022	0.078
-692.412	-96.661	0.317	-0.084
-691.397	386.491	-0.160	-0.332
-690.383	-200.000	-0.031	-0.296
-689.368	412.721	0.104	0.222
-688.354	-21.349	-0.414	-0.254
-687.339	-20.863	0.217	-0.134
-686.324	162.559	0.025	-0.036
-685.310	39.116	0.032	-0.029
-684.295	173.598	0.082	-0.118
-683.281	800.000	0.043	0.160
-682.266	-122.551	0.419	0.068
-681.251	187.021	-0.138	-0.206
-680.237	-89.516	-0.320	-0.094
-679.222	-7.433	-0.189	-0.128
-678.208	-200.000	-0.016	-0.229
-677.193	336.274	-0.081	0.157
-676.178	31.875	-0.173	-0.149
-675.164	38.645	0.375	-0.335
-674.149	-200.000	0.004	0.091
-673.135	-46.876	-0.082	0.040
-672.120	51.474	0.184	0.175
-671.105	1.038	0.081	-0.058
-670.091	168.011	-0.217	-0.309
-669.076	-200.000	-0.008	0.181
-668.062	8.706	0.119	0.090
-667.047	-200.000	-0.015	-0.090
-666.032	36.533	0.193	0.171
-665.018	370.064	0.122	-0.247
-664.003	-200.000	-0.023	-0.189
-662.989	375.296	-0.036	0.074
-661.974	62.882	0.160	0.160
-660.959	-77.813	0.187	-0.065
-659.945	-151.846	-0.255	-0.019
-658.930	-67.659	0.115	0.045
-657.916	-97.705	0.200	0.052
-656.901	-2.334	0.152	0.107
-655.886	-69.737	0.157	0.060
-654.872	-200.000	-0.008	0.207
-653.857	582.547	0.033	-0.081
-652.843	327.861	0.068	-0.131
-651.828	-200.000	-0.032	0.539
-650.814	-72.516	-0.273	0.101
-649.799	-40.095	-0.211	-0.110
-648.784	-200.000	-0.001	-0.031
-647.770	385.378	-0.086	0.178
-646.755	-62.376	0.200	0.083
-645.741	-105.680	-0.523	0.119
-644.726	-82.367	-0.172	-0.056
-643.711	-200.000	-0.008	-0.293
-642.697	158.114	-0.197	-0.274
-641.682	-200.000	0.031	-0.198
-640.668	-200.000	0.067	-0.350
-639.653	-81.376	0.312	-0.103
-638.638	-17.410	0.030	0.019
-637.624	-200.000	-0.012	-0.135
-636.609	106.449	-0.055	0.065
-635.595	87.991	-0.112	0.124
-634.580	-32.607	-0.161	-0.090
-633.565	42.080	0.245	0.223
-632.551	76.876	0.174	0.185
-631.536	-175.960	-0.330	0.009
-630.522	-114.698	0.247	-0.047
-629.507	-96.284	-0.340	-0.090
-628.492	48.610	-0.230	0.215
-627.478	-18.950	-0.383	-0.238
-626.463	800.000	-0.076	-0.238
-625.449	-24.661	0.079	0.047
-624.434	157.888	-0.203	-0.281
-623.419	135.159	0.155	-0.202
-622.405	-104.894	0.154	-0.035
-621.390	-200.000	0.042	-0.231
-620.376	86.589	-0.226	-0.249
-619.361	-42.928	0.062	-0.031
-618.346	-3.048	-0.157	0.109
-617.332	-200.000	-0.011	0.141
-616.317	-141.794	0.087	-0.009
-615.303	-92.139	-0.419	0.118
-614.288	-200.000	0.054	-0.363
-613.273	-36.666	0.272	0.146
-612.259	-45.466	-0.211	-0.105
-611.244	10.686	0.066	-0.050
-610.230	-95.423	0.151	0.041
-609.215	-200.000	-0.030	-0.203
-608.201	800.000	0.104	0.399
-607.186	-147.901	-0.057	0.005
-606.171	498.281	0.152	-0.350
-605.157	11.996	-0.062	-0.048
-604.142	-40.094	-0.143	0.074
-603.128	9.747	-0.206	-0.156
-602.113	-180.631	0.192	0.004
-601.098	165.507	0.202	-0.285
-600.084	88.283	0.099	-0.110
-599.069	325.432	-0.116	0.221
-598.055	398.595	-0.057	-0.120
-597.040	-119.381	0.101	0.018
-596.025	-200.000	0.035	-0.159
-595.011	67.065	-0.113	-0.115
-593.996	154.740	0.131	-0.179
-592.982	-58.299	0.346	-0.150
-591.967	83.005	0.259	0.281
-590.952	99.588	-0.446	0.515
-589.938	290.732	0.176	-0.319
-588.923	-153.652	-0.205	-0.014
-587.909	800.000	-0.020	0.087
-586.894	-53.905	-0.091	0.042
-585.879	-149.691	-0.139	-0.011
-584.865	-200.000	0.008	-0.215
-583.850	-145.632	-0.252	-0.023
-582.836	-68.662	-0.214	-0.083
-581.821	800.000	-0.092	-0.352
-580.806	-32.827	0.209	0.116
-579.792	-29.041	0.163	-0.094
-578.777	670.452	0.157	-0.405
-577.763	-143.937	0.175	-0.016
-576.748	-160.676	-0.221	-0.012
-575.733	-13.892	0.261	-0.169
-574.719	-200.000	-0.049	-0.262
-573.704	-59.154	0.024	0.010
-572.690	-60.040	0.240	0.102
-571.675	-82.765	0.123	-0.040
-570.661	-59.209	-0.150	-0.064
-569.646	665.343	0.095	-0.246
-568.631	148.374	0.102	0.137
-567.617	-13.238	-0.068	-0.044
-566.602	-36.706	-0.139	0.075
-565.588	-76.189	-0.110	-0.039
-564.573	332.299	0.013	0.024
-563.558	389.222	0.124	0.257
-562.544	-200.000	-0.015	0.319
-561.529	165.596	-0.052	-0.073
-560.515	227.643	-0.100	0.162
-559.500	-145.761	0.083	0.007
-558.485	-200.000	-0.043	0.307
-557.471	83.573	0.110	0.120
-556.456	308.714	0.161	-0.301
-555.442	255.054	0.042	-0.072
-554.427	129.766	-0.133	-0.169
-553.412	163.533	-0.188	-0.264
-552.398	-56.860	0.182	0.080
-551.383	-200.000	0.023	0.214
-550.369	27.125	0.192	0.161
-549.354	-200.000	0.033	0.291
-548.339	-200.000	-0.009	0.103
-547.325	-38.779	-0.172	0.091
-546.310	340.031	0.033	-0.064
-545.296	-200.000	-0.059	-0.278
-544.281	-200.000	0.053	-0.260
-543.266	256.888	0.210	0.360
-542.252	-63.338	0.059	-0.024
-541.237	61.731	-0.308	-0.305
-540.223	98.509	0.138	-0.158
-539.208	-130.682	0.281	0.038
-538.193	-155.455	-0.212	-0.014
-537.179	-45.407	0.075	-0.037
-536.164	427.266	0.180	0.387
-535.150	800.000	-0.030	0.103
-534.135	-84.990	-0.037	-0.011
-533.121	-175.691	0.445	-0.012
-532.106	27.816	-0.324	-0.272
-531.091	-200.000	0.043	0.378
-530.077	39.942	0.288	0.257
-529.062	-112.974	-0.290	0.057
-528.048	6.519	0.062	-0.046
-527.033	556.658	0.096	0.231
-526.018	-68.891	0.100	0.038
-525.004	15.586	-0.285	-0.223
-523.989	-115.183	0.489	0.092
-522.975	469.584	-0.034	-0.076
-521.960	120.359	-0.094	0.116
-520.945	-200.000	0.017	-0.079
-519.931	-98.589	-0.275	0.070
-518.916	-200.000	-0.018	-0.080
-517.902	-12.896	-0.194	-0.126
-516.887	614.023	0.140	0.350
-515.872	-200.000	-0.020	0.337
-514.858	145.070	-0.293	0.391
-513.843	-161.761	0.167	-0.008
-512.829	65.083	-0.281	0.282
-511.814	35.031	0.223	-0.195
-510.799	-33.261	-0.224	0.124
-509.785	-147.848	-0.261	0.022
-508.770	-169.570	0.166	-0.006
-507.756	-26.086	0.315	0.185
-506.741	178.289	0.240	0.348
-505.726	-200.000	-0.003	0.075
-504.712	800.000	-0.071	-0.206
-503.697	-41.583	0.079	0.041
-502.683	253.116	0.229	-0.389
-501.668	800.000	0.058	0.225
-500.653	72.846	-0.198	0.206
-499.639	254.738	0.124	0.212
-498.624	-84.183	0.115	-0.036
-497.610	-148.689	0.250	-0.020
-496.595	-57.843	-0.301	-0.131
-495.581	9.078	0.186	-0.139
-494.566	-4.622	-0.213	0.147
-493.551	142.140	-0.111	-0.147
-492.537	800.000	-0.104	-0.340
-491.522	-99.644	0.267	0.067
-490.508	381.980	0.074	0.151
-489.493	90.075	0.123	-0.136
-488.478	147.565	0.075	-0.101
-487.464	108.902	0.247	-0.294
-486.449	-6.796	0.086	-0.058
-485.435	-200.000	0.011	0.114
-484.420	-39.549	-0.167	0.087
-483.405	800.000	-0.138	-0.446
-482.391	-200.000	-0.006	-0.124
-481.376	800.000	-0.127	0.385
-480.362	-200.000	-0.004	-0.371
-479.347	800.000	0.074	-0.284
-478.332	-26.966	-0.195	-0.113
-477.318	-200.000	0.010	-0.087
-476.303	-80.794	0.195	-0.064
-475.289	288.305	0.190	-0.343
-474.274	-36.050	-0.325	0.174
-473.259	121.729	-0.035	0.044
-472.245	-86.983	-0.076	0.023
-471.230	126.209	-0.248	0.312
-470.216	-177.762	0.177	-0.004
-469.201	196.491	0.095	-0.145
-468.186	-187.120	-0.202	-0.003
-467.172	-31.973	0.262	0.146
-466.157	-200.000	0.029	-0.148
-465.143	77.571	0.206	0.218
-464.128	220.045	0.042	0.067
-463.113	384.689	-0.075	0.154
-462.099	-200.000	-0.007	0.350
-461.084	-58.081	-0.168	-0.073
-460.070	277.606	0.213	-0.377
-459.055	-107.870	-0.539	-0.116
-458.040	372.026	-0.172	0.348
-457.026	120.923	0.209	-0.259
-456.011	-85.061	0.066	0.020
-454.997	-114.350	-0.263	0.050
-453.982	465.412	-0.101	0.225
-452.968	-93.509	0.095	-0.026
-451.953	-86.164	0.158	-0.049
-450.938	-43.104	-0.341	-0.172
-449.924	23.267	-0.095	0.077
-448.909	-130.520	0.328	-0.044
-447.895	-129.487	0.162	0.022
-446.880	652.833	0.130	0.331
-445.865	565.148	-0.104	-0.250
-444.851	-130.833	0.249	-0.033
-443.836	-95.494	-0.299	0.080
-442.822	-193.679	0.282	0.002
-441.807	-200.000	0.005	-0.199
-440.792	-200.000	0.058	-0.270
-439.778	-45.159	0.317	0.157
-438.763	-200.000	0.001	-0.073
-437.749	41.406	0.062	-0.055
-436.734	-40.703	-0.389	-0.200
-435.719	800.000	-0.126	0.347
-434.705	303.594	0.120	0.220
-433.690	-200.000	-0.033	-0.241
-432.676	800.000	-0.061	-0.197
-431.661	66.514	-0.055	0.055
-430.646	-52.645	0.323	-0.148
-429.632	-130.766	0.258	0.034
-428.617	-84.289	0.152	0.048
-427.603	220.703	0.075	0.119
-426.588	-17.960	0.424	-0.264
-425.573	363.619	-0.103	0.205
-424.559	41.551	0.264	-0.237
-423.544	59.740	-0.040	-0.039
-422.530	-32.159	-0.163	0.090
-421.515	194.116	-0.085	-0.127
-420.500	-117.556	0.230	0.041
-419.486	-94.885	0.362	0.097
-418.471	461.670	-0.100	-0.222
-417.457	-200.000	-0.003	-0.078
-416.442	-23.306	-0.134	-0.080
-415.428	120.338	-0.034	0.041
-414.413	-200.000	-0.016	0.315
-413.398	-200.000	-0.017	-0.094
-412.384	-200.000	0.162	0.000
-411.369	-200.000	-0.007	0.032
-410.355	-74.977	0.059	-0.021
-409.340	-106.743	-0.058	0.013
-408.325	33.983	0.077	0.066
-407.311	165.267	-0.048	-0.068
-406.296	-131.250	0.272	0.036
-405.282	-200.000	-0.009	-0.087
-404.267	-66.343	0.210	0.083
-403.252	-152.509	-0.114	-0.008
-402.238	-51.184	-0.415	0.193
-401.223	-54.702	0.257	0.115
-400.209	-101.170	0.122	0.030
-399.194	-200.000	-0.008	0.062
-398.179	-120.734	0.590	0.099
-397.165	-59.953	-0.256	-0.108
-396.150	-200.000	-0.029	0.544
-395.136	-200.000	-0.046	0.506
-394.121	40.171	0.076	0.068
-393.106	106.064	-0.349	0.410
-392.092	-23.671	-0.092	-0.055
-391.077	171.010	-0.163	0.232
-390.063	-200.000	-0.022	-0.222
-389.048	-200.000	0.010	0.290
-388.033	191.608	0.139	0.207
-387.019	-193.803	-0.027	-0.000
-386.004	16.939	0.121	0.095
-384.990	660.891	-0.045	0.114
-383.975	800.000	-0.105	0.293
-382.960	132.619	-0.079	-0.101
-381.946	800.000	-0.009	0.027
-380.931	22.043	0.063	-0.051
-379.917	28.274	0.225	0.188
-378.902	800.000	0.040	0.141
-377.888	800.000	-0.086	-0.339
-376.873	164.329	0.131	-0.183
-375.858	-200.000	-0.001	0.105
-374.844	405.206	-0.073	0.152
-373.829	-77.080	0.208	0.072
-372.815	-131.803	0.233	-0.030
-371.800	-82.963	-0.136	-0.043
-370.785	62.477	-0.186	0.184
-369.771	142.745	-0.161	0.212
-368.756	411.549	0.222	-0.466
-367.742	637.322	0.043	-0.107
-366.727	-200.000	-0.003	0.047
-365.712	-111.171	0.050	0.010
-364.698	141.923	0.214	-0.281
-363.683	31.943	-0.128	0.109
-362.669	-56.482	0.117	-0.051
-361.654	-112.818	0.233	0.046
-360.639	90.515	0.233	-0.258
-359.625	102.425	-0.166	-0.192
-358.610	-95.194	-0.392	0.105
-357.596	-72.804	-0.068	-0.025
-356.581	-63.277	0.416	-0.170
-355.566	410.427	-0.037	-0.077
-354.552	-200.000	0.020	0.138
-353.537	-99.903	0.438	0.108
-352.523	-40.484	-0.441	-0.227
-351.508	140.420	-0.129	0.168
-350.493	-166.281	0.201	0.008
-349.479	42.115	0.188	-0.169
-348.464	-150.867	-0.170	0.013
-347.450	422.707	-0.158	0.336
-346.435	101.263	-0.068	-0.078
-345.420	9.294	-0.171	-0.128
-344.406	800.000	0.066	0.239
-343.391	591.410	0.177	0.432
-342.377	49.111	0.114	-0.106
-341.362	800.000	-0.044	-0.127
-340.348	180.823	0.143	-0.208
-339.333	800.000	-0.028	0.092
-338.318	122.618	0.143	0.177
-337.304	-131.109	0.100	-0.013
-336.289	-106.281	0.091	0.020
-335.275	194.560	0.146	0.219
-334.260	71.851	-0.155	-0.159
-333.245	703.178	0.068	-0.177
-332.231	-77.092	0.619	0.214
-331.216	62.908	-0.132	-0.131
-330.202	-162.696	-0.152	-0.007
-329.187	-34.128	0.062	-0.034
-328.172	217.697	-0.142	0.224
-327.158	800.000	-0.036	-0.127
-326.143	-148.601	-0.023	-0.002
-325.129	-200.000	0.016	-0.236
-324.114	-55.131	0.384	0.171
-323.099	-59.588	0.149	0.063
-322.085	-200.000	-0.008	-0.074
-321.070	-200.000	0.016	-0.217
-320.056	-87.766	-0.224	0.067
-319.041	-137.865	-0.147	0.016
-318.026	-76.884	-0.271	-0.094
-317.012	418.766	0.043	-0.091
-315.997	-70.956	-0.327	-0.122
-314.983	-200.000	0.021	0.099
-313.968	-146.769	-0.252	0.021
-312.953	800.000	0.033	0.127
-311.939	800.000	0.041	-0.161
-310.924	-185.096	-0.144	-0.002
-309.910	74.995	0.171	-0.178
-308.895	303.106	0.119	0.217
-307.880	86.657	-0.164	0.179
-306.866	101.083	-0.107	-0.123
-305.851	654.581	-0.073	0.185
-304.837	216.848	-0.152	-0.239
-303.822	-200.000	0.023	0.225
-302.807	-72.713	-0.111	-0.040
-301.793	800.000	-0.094	-0.372
-300.778	435.053	0.124	0.266
-299.764	265.387	-0.142	0.244
-298.749	-200.000	-0.010	-0.169
-297.735	788.711	-0.016	-0.043
-296.720	-6.230	0.139	0.094
-295.705	67.862	-0.240	-0.243
-294.691	-0.472	-0.394	-0.276
-293.676	-40.408	-0.263	-0.135
-292.662	52.771	-0.280	0.264
-291.647	-200.000	0.044	0.233
-290.632	-200.000	-0.013	0.068
-289.618	800.000	0.078	-0.253
-288.603	-200.000	-0.011	-0.083
-287.589	-200.000	-0.036	0.360
-286.574	133.619	-0.126	-0.161
-285.559	-12.491	-0.097	0.063
-284.545	-17.506	-0.218	0.135
-283.530	800.000	-0.034	0.118
-282.516	70.242	0.320	0.327
-281.501	-64.128	0.150	0.060
-280.486	-13.053	-0.197	0.126
-279.472	294.822	-0.193	0.348
-278.457	800.000	-0.058	-0.219
-277.443	-200.000	0.008	-0.103
-276.428	-200.000	-0.014	-0.275
-275.413	800.000	-0.019	-0.073
-274.399	-89.997	-0.138	0.040
-273.384	-135.416	0.336	0.040
-272.370	-27.446	-0.077	0.044
-271.355	407.775	0.045	-0.094
-270.340	4.267	-0.144	0.104
-269.326	-170.695	0.185	0.006
-268.311	303.441	0.214	-0.391
-267.297	800.000	0.015	0.043
-266.282	-103.592	-0.194	-0.045
-265.267	-74.067	-0.387	-0.138
-264.253	98.055	-0.040	-0.046
-263.238	-25.338	-0.243	0.142
-262.224	-88.789	-0.055	0.016
-261.209	-95.283	-0.239	-0.063
-260.195	-57.724	0.065	0.028
-259.180	500.569	-0.120	-0.273
-258.165	-200.000	0.052	0.344
-257.151	-200.000	0.050	0.252
-256.136	-200.000	0.009	-0.267
-255.122	-171.810	-0.186	-0.006
-254.107	-95.894	-0.124	-0.033
-253.092	383.838	0.024	0.050
-252.078	-125.338	-0.178	-0.027
-251.063	-45.783	-0.348	0.169
-250.049	132.896	-0.055	-0.071
-249.034	-129.230	-0.342	-0.047
-248.019	-129.289	0.039	0.005
-247.005	-200.000	-0.016	0.159
-245.990	-134.570	-0.284	-0.034
-244.976	-84.677	0.190	-0.059
-243.961	-200.000	-0.019	-0.118
-242.946	800.000	0.099	0.272
-241.932	-145.041	0.194	-0.017
-240.917	-93.685	0.274	0.074
-239.903	-24.328	0.059	0.035
-238.888	164.992	0.142	-0.197
-237.873	-111.096	0.236	0.048
-236.859	-45.719	0.307	-0.149
-235.844	800.000	-0.056	0.213
-234.830	-3.770	0.074	0.051
-233.815	358.366	0.118	-0.231
-232.800	15.546	0.037	-0.029
-231.786	-200.000	-0.020	-0.128
-230.771	-107.834	0.149	-0.032
-229.757	-113.400	-0.024	-0.005
-228.742	-56.138	0.114	0.050
-227.727	-40.641	-0.370	-0.189
-226.713	-68.116	-0.290	-0.111
-225.698	557.999	-0.003	-0.007
-224.684	-53.832	-0.254	0.114
-223.669	-41.424	0.070	0.036
-222.655	452.058	0.154	0.336
-221.640	-120.181	-0.070	-0.012
-220.625	-200.000	0.004	0.053
-219.611	-157.563	0.149	0.009
-218.596	800.000	-0.032	0.137
-217.582	76.197	-0.137	-0.142
-216.567	-144.028	-0.075	0.007
-215.552	-200.000	0.045	0.311
-214.538	-42.988	0.300	0.150
-213.523	-53.429	0.121	0.055
-212.509	-85.083	0.205	0.063
-211.494	109.604	-0.183	0.216
-210.479	6.945	-0.136	-0.099
-209.465	-69.652	-0.176	-0.066
-208.450	16.313	0.182	0.141
-207.436	-129.833	-0.290	0.039
-206.421	-200.000	-0.002	0.190
-205.406	-110.267	-0.041	0.008
-204.392	36.870	-0.161	-0.140
-203.377	-200.000	0.054	-0.352
-202.363	800.000	0.140	0.380
-201.348	87.510	0.205	-0.223
-200.333	-115.545	-0.359	-0.066
-199.319	15.842	0.321	-0.249
-198.304	-159.899	-0.090	-0.005
-197.290	-31.291	-0.277	0.153
-196.275	-143.034	0.151	0.014
-195.260	336.605	0.224	0.427
-194.246	-200.000	0.045	-0.271
-193.231	-200.000	-0.025	0.195
-192.217	236.548	0.141	-0.229
-191.202	800.000	0.017	0.067
-190.187	-110.587	0.234	-0.048
-189.173	-200.000	-0.050	0.219
-188.158	800.000	0.011	0.039
-187.144	-49.873	0.126	-0.059
-186.129	35.326	0.146	0.126
-185.114	-97.816	-0.364	-0.093
-184.100	-200.000	-0.051	-0.241
-183.085	725.778	0.117	-0.308
-182.071	573.365	0.078	0.188
-181.056	40.129	-0.108	-0.095
-180.042	-11.342	0.243	-0.157
-179.027	683.594	0.099	0.255
-178.012	92.878	0.248	0.275
-176.998	-46.330	0.103	-0.050
-175.983	800.000	-0.017	-0.057
-174.969	-200.000	-0.038	0.231
-173.954	-125.778	0.154	-0.023
-172.939	294.315	-0.014	0.026
-171.925	206.312	0.087	0.134
-170.910	268.532	-0.170	0.294
-169.896	-30.463	-0.181	-0.101
-168.881	-160.972	-0.230	-0.012
-167.866	692.197	-0.036	-0.093
-166.852	-93.063	0.107	0.029
-165.837	800.000	-0.036	-0.133
-164.823	591.243	-0.087	0.210
-163.808	-200.000	0.010	-0.140
-162.793	-200.000	-0.009	-0.278
-161.779	-144.110	0.335	-0.031
-160.764	-93.545	-0.208	0.056
-159.750	800.000	-0.032	-0.118
-158.735	-134.970	-0.242	0.029
-157.720	-200.000	-0.015	-0.071
-156.706	-105.773	0.227	-0.050
-155.691	-200.000	-0.030	-0.224
-154.677	40.662	-0.184	0.163
-153.662	31.284	-0.177	-0.150
-152.647	328.755	-0.064	-0.120
-151.633	-129.444	0.134	-0.018
-150.618	-200.000	0.026	0.216
-149.604	-143.331	0.339	-0.032
-148.589	-143.542	-0.127	-0.012
-147.574	277.720	-0.157	-0.275
-146.560	79.007	-0.089	-0.094
-145.545	-40.957	0.281	0.143
-144.531	563.228	0.108	0.256
-143.516	92.765	0.156	-0.173
-142.502	132.947	-0.022	-0.028
-141.487	-59.117	0.368	0.156
-140.472	93.025	-0.226	0.251
-139.458	800.000	0.030	0.086
-138.443	800.000	-0.024	0.069
-137.429	-109.033	0.153	0.032
-136.414	-91.839	0.224	-0.062
-135.399	800.000	-0.091	-0.286
-134.385	-48.350	-0.137	0.065
-133.370	-0.722	0.113	0.079
-132.356	91.340	-0.154	-0.170
-131.341	-132.602	-0.123	0.016
-130.326	-36.353	-0.339	0.179
-129.312	578.206	0.077	-0.185
-128.297	650.172	0.102	0.257
-127.283	49.193	-0.218	0.201
-126.268	-63.613	0.300	-0.121
-125.253	355.584	0.087	-0.169
-124.239	413.279	0.034	-0.071
-123.224	-8.039	0.196	0.130
-122.210	34.761	0.266	-0.228
