DTS Sentinel unit serial number:	SN413079Multiplexer serial number:	ORYXHardware model number:	OX4-SRSoftware version number:	ORYX F/W v4.00 Oryx Data Collector v3.7.2.0data status	okinstallation	princeton_trtdifferential loss correction	single-endedforward channel	channel 1reverse channel	N/Adate	2019/09/19time	08:30:35forward acquisition time	60.00reverse acquisition time	0.00gamma	496.2192k internal	0.2343k external	0.2343temperature offset calibration	1.0005default loss term (dB/km)	0.3790temperature slope calibration	1.0000multiplexer offset coefficient	1.0000multiplexer slope coefficient	1.0000fibre end	0.00T internal ref (°C)	20.66T ext. ref 1 (°C)	0.57T ext. ref 2 (°C)	16.35length (m)	temperature (°C)	Stokes	anti-Stokes-747.200	-126.677	0.486	-0.072
-746.185	-58.971	-0.125	0.054
-745.171	800.000	-0.078	-0.246
-744.156	45.101	-0.186	0.172
-743.142	146.055	0.207	0.279
-742.127	-8.620	-0.173	0.117
-741.112	323.206	0.060	0.115
-740.098	-141.836	-0.407	0.041
-739.083	-56.954	-0.316	0.140
-738.069	434.727	-0.062	0.135
-737.054	-200.000	-0.012	-0.192
-736.039	187.263	-0.232	-0.346
-735.025	-14.493	0.176	0.113
-734.010	-92.447	-0.182	0.051
-732.996	-200.000	0.003	-0.122
-731.981	-200.000	-0.006	-0.135
-730.966	800.000	-0.070	-0.219
-729.952	-200.000	-0.031	-0.351
-728.937	-95.397	0.161	-0.043
-727.923	116.138	-0.077	-0.094
-726.908	41.978	-0.260	-0.236
-725.894	-167.795	-0.083	-0.003
-724.879	49.591	-0.258	-0.243
-723.864	-121.456	0.250	-0.042
-722.850	800.000	-0.113	-0.449
-721.835	372.594	-0.182	-0.369
-720.821	-200.000	0.008	0.174
-719.806	774.847	-0.146	-0.397
-718.791	-85.198	-0.227	-0.071
-717.777	-110.633	-0.168	0.035
-716.762	543.074	-0.030	-0.073
-715.748	123.459	-0.166	-0.209
-714.733	-200.000	0.007	-0.126
-713.718	157.158	0.137	0.190
-712.704	327.488	0.066	-0.126
-711.689	-42.059	-0.205	0.105
-710.675	-72.911	0.226	-0.083
-709.660	800.000	0.051	-0.189
-708.645	53.907	-0.199	0.191
-707.631	-76.815	-0.153	0.054
-706.616	152.023	-0.291	-0.397
-705.602	-178.172	0.332	0.008
-704.587	-200.000	-0.006	0.066
-703.572	377.816	-0.108	-0.221
-702.558	447.157	0.097	-0.214
-701.543	-126.170	0.284	-0.042
-700.529	22.479	0.023	0.019
-699.514	52.115	0.245	-0.234
-698.499	50.134	-0.191	-0.180
-697.485	110.257	-0.110	-0.132
-696.470	-105.882	0.211	-0.048
-695.456	25.205	-0.142	0.118
-694.441	-136.779	-0.279	0.032
-693.426	-100.660	0.194	-0.048
-692.412	438.072	-0.098	0.214
-691.397	800.000	0.015	0.055
-690.383	-176.704	-0.079	0.002
-689.368	-80.398	-0.090	-0.030
-688.354	-115.201	0.202	0.038
-687.339	-71.105	-0.282	0.106
-686.324	-115.855	-0.181	-0.034
-685.310	27.110	0.143	-0.120
-684.295	-146.312	-0.313	-0.027
-683.281	-90.637	-0.472	-0.136
-682.266	-102.278	0.242	0.058
-681.251	51.275	-0.249	0.236
-680.237	-43.916	0.030	-0.015
-679.222	800.000	-0.047	-0.175
-678.208	-87.947	-0.121	0.036
-677.193	-93.868	-0.209	-0.057
-676.178	-200.000	0.026	-0.486
-675.164	59.021	-0.295	0.289
-674.149	10.659	0.126	0.096
-673.135	-200.000	0.015	0.106
-672.120	-7.590	-0.149	0.100
-671.105	-200.000	0.048	-0.244
-670.091	176.636	-0.098	-0.143
-669.076	36.901	0.016	-0.014
-668.062	-200.000	0.011	-0.185
-667.047	-107.864	-0.185	-0.040
-666.032	-200.000	-0.059	-0.359
-665.018	6.056	0.325	-0.240
-664.003	-163.141	-0.215	0.010
-662.989	-200.000	0.019	-0.431
-661.974	377.272	-0.092	-0.187
-660.959	-13.127	-0.313	-0.203
-659.945	270.654	0.135	-0.237
-658.930	-2.809	0.242	0.169
-657.916	-114.125	-0.170	0.033
-656.901	84.806	-0.065	-0.072
-655.886	220.365	-0.053	0.084
-654.872	-24.475	-0.107	-0.064
-653.857	356.302	-0.033	-0.065
-652.843	79.125	-0.149	-0.159
-651.828	-200.000	-0.012	-0.178
-650.814	-113.112	-0.379	-0.075
-649.799	-42.523	-0.251	0.128
-648.784	60.999	0.221	0.219
-647.770	49.648	0.280	0.263
-646.755	28.180	-0.168	0.142
-645.741	-76.954	0.185	-0.064
-644.726	-15.330	-0.405	0.258
-643.711	24.801	0.064	-0.053
-642.697	180.741	0.039	0.058
-641.682	-14.180	0.250	-0.161
-640.668	-76.882	0.205	0.072
-639.653	-200.000	-0.005	0.184
-638.638	-200.000	-0.033	0.149
-637.624	86.776	0.156	-0.171
-636.609	227.458	0.070	-0.114
-635.595	-200.000	-0.012	0.247
-634.580	174.117	-0.146	-0.210
-633.565	662.519	0.017	-0.045
-632.551	419.470	-0.071	-0.151
-631.536	-200.000	-0.006	-0.231
-630.522	232.675	-0.088	-0.145
-629.507	241.139	0.106	0.176
-628.492	-135.623	0.210	0.025
-627.478	152.919	0.073	0.100
-626.463	776.584	0.035	-0.095
-625.449	44.227	0.184	0.168
-624.434	218.607	-0.145	-0.231
-623.419	-200.000	0.004	-0.435
-622.405	-127.242	0.061	0.009
-621.390	41.980	0.073	0.066
-620.376	-114.116	0.212	-0.041
-619.361	-117.825	0.157	0.028
-618.346	426.475	0.095	0.205
-617.332	29.271	-0.120	-0.102
-616.317	800.000	-0.022	-0.088
-615.303	-33.781	0.138	0.076
-614.288	-100.505	-0.186	0.046
-613.273	-156.784	-0.168	0.010
-612.259	4.033	-0.095	0.069
-611.244	-200.000	-0.025	0.568
-610.230	-200.000	-0.047	-0.318
-609.215	-200.000	0.009	-0.404
-608.201	71.704	0.197	-0.204
-607.186	-200.000	-0.022	0.113
-606.171	-116.061	0.416	0.077
-605.157	-26.198	-0.212	-0.124
-604.142	0.423	-0.213	-0.152
-603.128	-117.733	-0.533	-0.095
-602.113	38.666	-0.153	-0.136
-601.098	-98.269	-0.212	-0.054
-600.084	-69.606	-0.086	0.033
-599.069	800.000	-0.079	-0.238
-598.055	20.604	0.270	0.217
-597.040	800.000	0.064	0.271
-596.025	128.544	0.121	0.154
-595.011	800.000	-0.102	-0.330
-593.996	-125.701	-0.356	-0.054
-592.982	800.000	-0.063	-0.177
-591.967	-62.950	-0.196	-0.081
-590.952	512.444	-0.093	-0.215
-589.938	25.583	-0.274	0.227
-588.923	-20.703	-0.182	0.111
-587.909	-23.611	-0.195	-0.116
-586.894	73.635	0.103	-0.108
-585.879	800.000	0.018	-0.072
-584.865	10.316	-0.229	-0.173
-583.850	74.506	0.207	-0.217
-582.836	80.882	0.236	0.254
-581.821	-85.204	-0.258	0.080
-580.806	-116.695	-0.197	-0.036
-579.792	-143.389	0.351	-0.033
-578.777	-31.200	0.089	0.050
-577.763	164.594	-0.030	0.043
-576.748	-78.774	-0.092	-0.031
-575.733	543.290	0.046	-0.108
-574.719	-200.000	-0.023	-0.145
-573.704	-11.677	0.048	-0.031
-572.690	9.317	0.204	0.154
-571.675	-92.774	0.023	0.006
-570.661	-200.000	-0.025	-0.187
-569.646	29.651	0.053	0.045
-568.631	800.000	0.071	0.279
-567.617	-99.774	0.203	0.051
-566.602	-67.075	-0.184	-0.072
-565.588	-108.669	-0.132	-0.028
-564.573	-200.000	0.082	-0.397
-563.558	-200.000	0.003	0.313
-562.544	0.878	0.162	-0.115
-561.529	233.650	-0.104	-0.170
-560.515	312.831	0.181	-0.337
-559.500	-125.806	-0.183	0.027
-558.485	-20.200	0.171	-0.105
-557.471	-200.000	0.014	-0.114
-556.456	-3.971	-0.163	0.113
-555.442	-200.000	0.062	-0.440
-554.427	800.000	-0.064	0.184
-553.412	-88.295	0.222	0.066
-552.398	-158.536	0.064	0.004
-551.383	250.371	0.108	-0.182
-550.369	24.482	0.058	0.047
-549.354	-200.000	0.050	-0.219
-548.339	-106.707	0.217	0.048
-547.325	458.272	-0.168	-0.372
-546.310	162.279	0.058	0.080
-545.296	389.258	0.142	-0.292
-544.281	21.150	-0.097	0.078
-543.266	-200.000	0.048	-0.242
-542.252	-200.000	0.014	0.127
-541.237	-97.330	-0.362	0.094
-540.223	112.912	-0.144	0.173
-539.208	-10.366	0.165	-0.109
-538.193	-199.779	-0.519	0.003
-537.179	135.012	-0.071	-0.092
-536.164	-73.224	0.065	0.024
-535.150	-10.464	0.036	0.023
-534.135	-200.000	-0.047	-0.307
-533.121	-192.690	0.420	0.004
-532.106	-32.443	-0.340	-0.188
-531.091	203.924	-0.077	-0.118
-530.077	-119.206	0.063	0.011
-529.062	468.398	0.062	-0.137
-528.048	-89.612	-0.242	-0.071
-527.033	-137.746	0.334	-0.037
-526.018	180.389	0.062	0.090
-525.004	-200.000	0.008	-0.393
-523.989	-125.170	0.168	0.026
-522.975	-147.699	-0.349	0.029
-521.960	-107.724	0.013	0.003
-520.945	-4.346	-0.035	0.024
-519.931	-155.821	-0.219	0.014
-518.916	439.460	0.170	0.369
-517.902	80.286	-0.099	-0.106
-516.887	58.090	0.131	-0.127
-515.872	-145.060	-0.313	0.028
-514.858	72.046	-0.012	0.012
-513.843	-16.259	-0.123	0.078
-512.829	96.716	0.184	-0.209
-511.814	-119.057	0.208	0.036
-510.799	85.040	0.107	-0.116
-509.785	-13.726	0.301	0.193
-508.770	120.724	0.116	0.144
-507.756	97.830	-0.138	-0.158
-506.741	-200.000	0.022	0.210
-505.726	-200.000	-0.050	-0.232
-504.712	-96.729	0.235	0.061
-503.697	-200.000	-0.009	0.265
-502.683	-4.115	-0.293	0.201
-501.668	-174.395	-0.096	-0.003
-500.653	193.405	0.152	0.228
-499.639	22.799	0.374	0.304
-498.624	-27.507	-0.156	0.090
-497.610	83.612	0.036	0.039
-496.595	800.000	0.046	-0.148
-495.581	-104.292	-0.203	-0.047
-494.566	147.553	-0.200	-0.267
-493.551	244.585	-0.151	-0.252
-492.537	510.332	-0.102	0.234
-491.522	-29.874	0.176	-0.099
-490.508	317.307	0.156	0.292
-489.493	-19.086	0.430	0.265
-488.478	-83.000	-0.153	0.049
-487.464	357.584	0.121	-0.239
-486.449	355.931	-0.051	-0.100
-485.435	-70.599	0.353	0.132
-484.420	262.907	-0.142	-0.245
-483.405	6.600	-0.098	-0.072
-482.391	-185.016	0.151	0.002
-481.376	-200.000	0.063	0.286
-480.362	179.273	0.157	-0.228
-479.347	-28.428	0.273	-0.156
-478.332	26.301	0.077	-0.064
-477.318	-200.000	0.006	0.090
-476.303	800.000	0.083	0.252
-475.289	-136.607	-0.255	-0.029
-474.274	19.172	0.190	0.151
-473.259	302.239	-0.098	-0.180
-472.245	800.000	0.045	-0.177
-471.230	141.837	-0.062	0.081
-470.216	169.255	-0.123	0.174
-469.201	714.206	0.084	0.222
-468.186	-31.569	-0.171	-0.095
-467.172	800.000	-0.079	-0.240
-466.157	-122.740	-0.313	-0.050
-465.143	-95.868	-0.072	0.019
-464.128	-84.776	0.132	-0.041
-463.113	75.343	-0.065	0.068
-462.099	-9.218	0.096	-0.064
-461.084	-200.000	0.003	-0.134
-460.070	779.382	0.093	-0.252
-459.055	-35.539	-0.248	0.133
-458.040	-108.349	0.107	-0.023
-457.026	-200.000	-0.003	0.101
-456.011	800.000	-0.058	0.249
-454.997	-127.035	-0.078	0.011
-453.982	-97.276	-0.260	0.067
-452.968	-86.015	-0.047	-0.014
-451.953	-20.862	0.170	-0.103
-450.938	367.366	0.016	0.033
-449.924	134.136	-0.050	0.064
-448.909	85.301	-0.236	-0.257
-447.895	-134.880	-0.156	-0.019
-446.880	267.153	0.100	0.173
-445.865	800.000	0.088	-0.263
-444.851	-156.589	0.216	-0.013
-443.836	245.627	0.108	0.180
-442.822	34.137	-0.352	0.304
-441.807	-200.000	0.220	0.000
-440.792	35.098	-0.194	0.168
-439.778	-200.000	-0.036	-0.167
-438.763	277.064	-0.130	-0.228
-437.749	-95.338	-0.172	-0.046
-436.734	800.000	0.119	0.461
-435.719	-200.000	0.016	-0.071
-434.705	22.067	0.082	-0.066
-433.690	-117.520	-0.188	0.034
-432.676	-127.818	-0.314	-0.045
-431.661	6.607	-0.189	-0.139
-430.646	-56.405	-0.234	0.103
-429.632	-56.274	-0.243	0.107
-428.617	-75.064	0.318	0.112
-427.603	119.959	-0.083	-0.101
-426.588	800.000	-0.062	0.242
-425.573	-200.000	-0.007	0.053
-424.559	199.586	0.074	0.113
-423.544	96.743	-0.110	-0.124
-422.530	-99.652	0.201	0.050
-421.515	264.998	-0.098	0.168
-420.500	355.386	-0.022	-0.043
-419.486	-57.558	0.136	-0.059
-418.471	-200.000	0.043	-0.240
-417.457	-96.018	-0.159	-0.042
-416.442	-180.776	0.277	0.006
-415.428	48.729	-0.156	-0.145
-414.413	-200.000	0.000	-0.032
-413.398	-200.000	0.055	0.317
-412.384	-60.547	0.162	0.068
-411.369	-136.074	-0.221	0.026
-410.355	293.120	-0.112	-0.202
-409.340	800.000	0.049	0.143
-408.325	-83.791	0.164	-0.052
-407.311	-140.976	-0.203	0.021
-406.296	167.939	-0.103	-0.145
-405.282	466.589	-0.065	-0.143
-404.267	-75.534	0.148	-0.052
-403.252	800.000	-0.068	-0.241
-402.238	-28.623	0.156	-0.089
-401.223	-200.000	-0.040	0.181
-400.209	-57.206	0.034	-0.015
-399.194	-79.273	-0.223	-0.074
-398.179	-22.717	0.032	0.019
-397.165	800.000	-0.060	-0.205
-396.150	800.000	0.028	-0.083
-395.136	-200.000	0.015	0.087
-394.121	800.000	0.063	0.239
-393.106	63.298	-0.312	-0.309
-392.092	-39.052	0.247	-0.128
-391.077	-67.268	-0.081	-0.031
-390.063	83.706	-0.145	-0.156
-389.048	-7.866	-0.192	0.128
-388.033	-111.555	0.138	0.028
-387.019	-136.291	0.252	0.029
-386.004	-200.000	-0.185	-0.001
-384.990	-106.048	0.111	0.025
-383.975	-163.930	0.227	-0.010
-382.960	-78.257	0.040	0.013
-381.946	-112.843	-0.209	-0.041
-380.931	-152.848	-0.118	0.008
-379.917	-60.906	0.125	0.052
-378.902	-115.975	-0.269	0.050
-377.888	-47.640	-0.223	-0.107
-376.873	665.324	0.056	0.142
-375.858	40.433	0.027	0.024
-374.844	-76.509	0.335	0.116
-373.829	84.600	0.236	-0.255
-372.815	-165.003	0.311	-0.014
-371.800	163.888	-0.097	0.135
-370.785	245.702	-0.198	0.328
-369.771	86.911	-0.062	-0.067
-368.756	-135.467	0.366	-0.043
-367.742	782.010	0.082	-0.223
-366.727	-128.767	0.180	-0.025
-365.712	800.000	-0.060	-0.221
-364.698	52.960	-0.075	0.071
-363.683	150.945	0.070	0.094
-362.669	17.623	0.244	0.191
-361.654	-200.000	-0.032	0.327
-360.639	-96.442	0.174	-0.045
-359.625	800.000	-0.045	0.131
-358.610	-138.263	-0.195	-0.021
-357.596	-26.338	-0.324	0.188
-356.581	-200.000	0.074	0.343
-355.566	621.895	-0.038	0.095
-354.552	436.357	0.063	-0.136
-353.537	-89.085	-0.167	0.049
-352.523	-145.222	-0.053	0.005
-351.508	-200.000	0.004	0.062
-350.493	-90.602	0.139	-0.039
-349.479	-134.580	-0.094	-0.011
-348.464	-3.190	-0.252	0.173
-347.450	800.000	0.086	0.237
-346.435	-124.986	0.194	0.029
-345.420	-73.228	0.064	0.023
-344.406	144.394	0.153	-0.201
-343.391	-127.160	-0.460	-0.066
-342.377	-66.032	0.191	0.075
-341.362	7.269	-0.144	0.106
-340.348	-145.133	0.123	-0.011
-339.333	800.000	-0.068	0.217
-338.318	-104.328	-0.325	0.074
-337.304	-200.000	-0.008	0.269
-336.289	-200.000	-0.006	0.065
-335.275	-200.000	0.025	0.151
-334.260	-139.026	0.082	0.009
-333.245	25.521	0.211	0.173
-332.231	-200.000	-0.019	0.107
-331.216	-200.000	-0.039	-0.183
-330.202	-98.469	0.313	-0.079
-329.187	-174.197	-0.333	-0.010
-328.172	100.453	0.081	-0.093
-327.158	576.074	0.086	0.207
-326.143	-26.480	-0.170	0.098
-325.129	-115.122	0.051	0.010
-324.114	-200.000	-0.008	-0.108
-323.099	-55.014	0.020	-0.009
-322.085	9.450	-0.297	-0.221
-321.070	-35.055	0.537	-0.289
-320.056	-200.000	0.008	-0.272
-319.041	156.162	0.167	-0.226
-318.026	800.000	0.050	-0.151
-317.012	7.831	0.264	0.195
-315.997	-170.291	-0.193	-0.007
-314.983	-33.811	-0.098	0.053
-313.968	-16.114	0.225	-0.141
-312.953	-173.215	0.367	-0.011
-311.939	-147.144	-0.252	0.021
-310.924	116.914	0.078	-0.094
-309.910	-21.008	0.128	0.077
-308.895	800.000	0.015	0.061
-307.880	-106.371	-0.261	0.058
-306.866	-200.000	0.020	-0.113
-305.851	36.732	-0.056	-0.048
-304.837	800.000	-0.048	0.144
-303.822	107.616	-0.067	0.079
-302.807	800.000	0.073	-0.199
-301.793	-106.003	0.295	0.065
-300.778	-57.910	-0.196	-0.084
-299.764	-200.000	0.006	0.202
-298.749	-77.726	0.256	0.087
-297.735	275.321	0.054	-0.094
-296.720	-98.072	0.163	0.041
-295.705	-6.221	0.155	0.104
-294.691	733.049	-0.105	0.277
-293.676	152.681	0.203	0.273
-292.662	800.000	0.041	-0.168
-291.647	-187.847	0.079	0.001
-290.632	-98.945	0.032	-0.008
-289.618	800.000	-0.130	-0.369
-288.603	800.000	0.041	-0.161
-287.589	-200.000	0.019	0.373
-286.574	-138.981	-0.252	-0.027
-285.559	-142.845	-0.240	0.023
-284.545	-34.352	-0.308	-0.166
-283.530	721.177	0.070	-0.183
-282.516	-90.706	-0.148	0.042
-281.501	-200.000	-0.057	-0.456
-280.486	50.103	0.176	-0.164
-279.472	-143.455	-0.180	0.017
-278.457	221.579	0.154	0.243
-277.443	231.567	-0.138	-0.223
-276.428	-200.000	-0.007	-0.414
-275.413	-132.689	0.292	-0.037
-274.399	-180.390	-0.199	-0.004
-273.384	-62.248	-0.077	0.031
-272.370	-200.000	-0.046	-0.357
-271.355	-11.741	0.076	-0.049
-270.340	-127.024	-0.118	0.017
-269.326	40.791	-0.129	-0.115
-268.311	-125.317	-0.064	-0.010
-267.297	53.346	0.092	0.087
-266.282	-200.000	-0.001	-0.187
-265.267	341.238	0.053	0.102
-264.253	-144.484	0.382	0.035
-263.238	319.029	-0.076	0.141
-262.224	147.290	-0.149	0.197
-261.209	46.500	0.087	0.079
-260.195	-200.000	0.013	0.076
-259.180	-56.072	0.110	0.048
-258.165	-151.927	0.385	0.028
-257.151	96.049	-0.021	0.024
-256.136	-18.209	-0.077	-0.047
-255.122	91.582	-0.233	0.258
-254.107	454.568	-0.102	0.222
-253.092	66.959	-0.012	-0.012
-252.078	800.000	0.075	-0.269
-251.063	-123.149	-0.335	0.053
-250.049	-3.588	-0.236	-0.161
-249.034	67.831	-0.151	-0.151
-248.019	178.514	-0.077	0.110
-247.005	275.207	0.180	0.313
-245.990	-200.000	-0.024	-0.171
-244.976	800.000	-0.105	0.288
-243.961	64.899	0.106	0.105
-242.946	-37.476	0.123	-0.064
-241.932	-165.311	0.191	0.008
-240.917	14.257	-0.093	-0.072
-239.903	800.000	0.023	-0.094
-238.888	-165.844	0.138	-0.006
-237.873	87.206	-0.220	-0.239
-236.859	-28.311	0.174	-0.099
-235.844	-86.168	-0.087	-0.026
-234.830	76.447	-0.132	0.137
-233.815	243.534	-0.060	-0.099
-232.800	459.493	-0.120	0.263
-231.786	-87.673	0.405	-0.120
-230.771	-126.341	0.147	-0.022
-229.757	800.000	-0.099	0.329
-228.742	-90.606	-0.142	0.040
-227.727	537.707	0.082	0.191
-226.713	165.370	-0.077	0.107
-225.698	800.000	0.003	0.012
-224.684	147.954	-0.030	0.039
-223.669	81.428	-0.138	0.147
-222.655	-49.051	-0.128	-0.060
-221.640	58.968	0.149	-0.144
-220.625	-153.256	0.241	-0.016
-219.611	800.000	0.102	-0.353
-218.596	-114.375	0.480	0.091
-217.582	-200.000	0.016	0.117
-216.567	89.040	0.235	-0.256
-215.552	-200.000	0.001	-0.082
-214.538	87.221	-0.069	-0.074
-213.523	-27.627	-0.147	0.083
-212.509	-90.536	0.092	-0.026
-211.494	120.903	0.260	-0.318
-210.479	-200.000	0.005	0.083
-209.465	319.223	0.147	-0.272
-208.450	-106.267	-0.210	0.046
-207.436	-200.000	-0.004	0.280
-206.421	551.463	-0.122	0.288
-205.406	-155.660	-0.145	0.009
-204.392	14.421	-0.250	-0.192
-203.377	-125.719	-0.285	-0.042
-202.363	-200.000	0.052	0.312
-201.348	-78.459	-0.186	-0.062
-200.333	355.246	-0.189	-0.368
-199.319	-61.077	0.271	-0.112
-198.304	-55.043	-0.206	0.091
-197.290	-61.827	0.128	0.052
-196.275	-200.000	0.001	0.309
-195.260	511.486	-0.036	0.082
-194.246	177.327	-0.016	-0.023
-193.231	352.366	-0.053	0.103
-192.217	-137.122	0.349	-0.039
-191.202	-13.853	0.106	-0.067
-190.187	138.033	0.081	0.105
-189.173	-89.863	0.129	-0.037
-188.158	-147.983	0.268	-0.022
-187.144	-101.861	0.157	0.037
-186.129	-127.686	-0.170	-0.024
-185.114	-126.414	-0.440	-0.064
-184.100	42.438	-0.097	0.086
-183.085	-34.330	-0.258	-0.138
-182.071	800.000	0.057	0.189
-181.056	-200.000	-0.004	0.264
-180.042	800.000	-0.062	0.231
-179.027	-200.000	0.032	-0.157
-178.012	112.672	0.025	-0.030
-176.998	800.000	-0.077	0.311
-175.983	-62.156	-0.245	-0.100
-174.969	-9.478	-0.109	0.071
-173.954	-112.872	0.283	-0.055
-172.939	-200.000	-0.012	0.237
-171.925	-126.298	0.200	-0.029
-170.910	-200.000	-0.040	-0.329
-169.896	-97.072	-0.182	0.047
-168.881	800.000	0.098	0.361
-167.866	-200.000	-0.077	-0.349
-166.852	-113.900	0.153	-0.029
-165.837	-200.000	-0.013	0.056
-164.823	252.468	0.183	0.305
-163.808	-61.293	0.174	0.072
-162.793	800.000	0.021	0.080
-161.779	118.709	0.041	0.050
-160.764	-200.000	0.035	-0.329
-159.750	-73.156	0.287	-0.103
-158.735	-200.000	0.054	-0.362
-157.720	-200.000	0.032	0.363
-156.706	345.091	0.046	0.087
-155.691	120.460	0.096	0.116
-154.677	800.000	0.053	0.148
-153.662	-200.000	-0.050	0.235
-152.647	210.189	-0.295	0.453
-151.633	445.425	-0.150	0.323
-150.618	497.097	-0.042	-0.093
-149.604	-14.713	0.080	0.050
-148.589	1.709	0.108	0.076
-147.574	800.000	0.012	0.040
-146.560	-106.035	0.248	0.055
-145.545	-200.000	-0.017	-0.074
-144.531	-45.428	0.103	-0.050
-143.516	21.540	0.438	0.349
-142.502	149.210	-0.108	0.142
-141.487	800.000	-0.152	-0.557
-140.472	83.691	0.258	-0.275
-139.458	800.000	-0.075	0.215
-138.443	-120.004	-0.375	0.063
-137.429	-200.000	-0.016	0.171
-136.414	66.874	-0.180	0.180
-135.399	-131.934	0.344	-0.044
-134.385	-200.000	0.035	-0.296
-133.370	-15.722	-0.085	0.053
-132.356	-59.496	-0.047	-0.020
-131.341	-28.011	-0.187	-0.106
-130.326	16.136	-0.046	-0.035
-129.312	800.000	0.045	-0.132
-128.297	98.407	-0.174	0.196
-127.283	51.289	0.084	0.078
-126.268	137.840	-0.078	-0.100
-125.253	557.089	0.102	-0.241
-124.239	-60.435	0.225	-0.094
-123.224	139.343	0.104	0.133
-122.210	-107.693	0.116	0.025
