DTS Sentinel unit serial number:	SN413079Multiplexer serial number:	ORYXHardware model number:	OX4-SRSoftware version number:	ORYX F/W v4.00 Oryx Data Collector v3.7.2.0data status	okinstallation	princeton_trtdifferential loss correction	single-endedforward channel	channel 1reverse channel	N/Adate	2019/09/19time	04:46:35forward acquisition time	60.00reverse acquisition time	0.00gamma	496.2192k internal	0.2342k external	0.2342temperature offset calibration	1.0021default loss term (dB/km)	0.3790temperature slope calibration	1.0000multiplexer offset coefficient	1.0000multiplexer slope coefficient	1.0000fibre end	0.00T internal ref (°C)	19.91T ext. ref 1 (°C)	0.61T ext. ref 2 (°C)	13.05length (m)	temperature (°C)	Stokes	anti-Stokes-747.200	54.914	-0.095	-0.092
-746.185	-147.903	-0.110	0.009
-745.171	-200.000	-0.027	0.599
-744.156	45.857	-0.329	-0.305
-743.142	-46.200	0.231	-0.114
-742.127	-200.000	-0.025	0.183
-741.112	3.828	0.151	0.110
-740.098	-148.952	0.214	0.017
-739.083	800.000	-0.095	-0.284
-738.069	252.610	-0.140	-0.238
-737.054	-27.571	-0.198	0.115
-736.039	325.159	0.051	-0.097
-735.025	108.320	0.030	-0.036
-734.010	-200.000	-0.023	-0.249
-732.996	22.190	0.044	-0.036
-731.981	-185.323	0.135	0.002
-730.966	405.807	0.060	0.126
-729.952	-4.487	-0.225	0.156
-728.937	771.208	0.037	0.100
-727.923	265.114	0.202	0.353
-726.908	95.420	0.197	-0.225
-725.894	-73.021	-0.442	-0.163
-724.879	294.500	-0.053	0.097
-723.864	42.883	0.391	0.357
-722.850	633.650	-0.064	-0.163
-721.835	-50.621	-0.175	-0.083
-720.821	48.300	0.188	0.176
-719.806	-55.690	-0.159	-0.071
-718.791	1.485	-0.122	-0.088
-717.777	-102.139	-0.248	-0.060
-716.762	-179.276	-0.130	-0.003
-715.748	-181.177	-0.389	0.008
-714.733	33.477	0.128	0.112
-713.718	173.657	0.148	-0.213
-712.704	-70.131	-0.143	-0.054
-711.689	132.231	-0.111	-0.143
-710.675	-200.000	-0.006	0.066
-709.660	800.000	-0.022	-0.078
-708.645	92.865	0.256	-0.289
-707.631	73.156	0.064	-0.067
-706.616	199.285	-0.217	-0.333
-705.602	-141.011	0.261	0.027
-704.587	77.521	-0.032	-0.035
-703.572	14.234	-0.178	-0.139
-702.558	-200.000	0.008	0.039
-701.543	15.722	-0.312	-0.245
-700.529	-56.752	-0.077	-0.034
-699.514	-126.315	0.204	-0.030
-698.499	358.541	0.112	-0.224
-697.485	143.809	0.103	0.137
-696.470	800.000	-0.106	0.345
-695.456	432.870	-0.068	-0.147
-694.441	-150.747	0.072	0.005
-693.426	800.000	-0.022	-0.073
-692.412	335.854	-0.111	-0.214
-691.397	-85.286	0.047	0.015
-690.383	65.525	-0.101	-0.102
-689.368	-200.000	-0.002	0.099
-688.354	-200.000	0.040	-0.202
-687.339	-35.070	0.167	-0.091
-686.324	90.922	-0.186	0.209
-685.310	74.732	-0.196	-0.206
-684.295	503.124	0.147	0.339
-683.281	18.585	-0.101	-0.081
-682.266	200.718	0.085	-0.130
-681.251	-118.806	0.179	0.032
-680.237	-54.402	-0.251	-0.114
-679.222	-200.000	0.060	0.289
-678.208	67.749	0.147	0.150
-677.193	-29.171	0.325	0.186
-676.178	42.925	-0.211	-0.192
-675.164	-55.426	-0.215	0.096
-674.149	800.000	0.050	0.142
-673.135	-37.377	-0.126	-0.067
-672.120	89.178	0.277	0.308
-671.105	294.843	-0.087	0.160
-670.091	-200.000	-0.001	0.048
-669.076	-37.569	-0.042	0.022
-668.062	-125.867	0.267	0.040
-667.047	300.780	0.059	-0.109
-666.032	-154.504	-0.286	-0.019
-665.018	90.959	-0.295	0.331
-664.003	260.165	0.143	-0.248
-662.989	101.708	-0.203	-0.236
-661.974	-200.000	0.035	0.244
-660.959	-13.859	0.127	-0.082
-659.945	800.000	-0.076	-0.315
-658.930	-32.434	0.056	-0.031
-657.916	-200.000	0.015	0.070
-656.901	-200.000	0.000	-0.285
-655.886	120.067	0.168	0.208
-654.872	800.000	0.062	0.234
-653.857	-200.000	0.021	-0.323
-652.843	16.192	0.376	-0.296
-651.828	-16.893	-0.213	-0.134
-650.814	246.696	0.016	-0.026
-649.799	-200.000	0.004	-0.070
-648.784	-66.630	-0.024	0.010
-647.770	1.761	-0.286	0.206
-646.755	80.136	-0.051	-0.055
-645.741	-94.913	-0.135	-0.036
-644.726	441.027	0.113	0.247
-643.711	-200.000	-0.009	-0.166
-642.697	800.000	-0.019	0.057
-641.682	81.081	-0.106	-0.114
-640.668	-89.733	-0.160	-0.047
-639.653	-168.386	-0.010	0.000
-638.638	-200.000	0.009	-0.278
-637.624	-16.560	0.172	0.109
-636.609	347.935	0.106	-0.208
-635.595	568.528	-0.117	-0.283
-634.580	-97.980	-0.317	0.081
-633.565	228.876	-0.042	-0.069
-632.551	-57.332	0.469	-0.205
-631.536	-152.134	-0.081	0.006
-630.522	85.076	-0.149	0.163
-629.507	-165.349	0.179	0.008
-628.492	138.267	-0.087	-0.114
-627.478	508.932	0.130	0.301
-626.463	-20.416	0.438	-0.269
-625.449	-200.000	-0.013	0.342
-624.434	-94.810	-0.201	0.054
-623.419	-200.000	-0.019	-0.141
-622.405	196.443	0.083	-0.126
-621.390	800.000	-0.062	0.183
-620.376	800.000	-0.052	-0.214
-619.361	800.000	0.029	-0.086
-618.346	-94.485	0.062	0.017
-617.332	-165.155	-0.655	0.029
-616.317	-131.089	0.092	-0.012
-615.303	391.815	-0.044	-0.091
-614.288	-83.503	-0.062	-0.020
-613.273	113.661	0.242	-0.293
-612.259	-83.465	-0.321	0.102
-611.244	-200.000	0.052	0.422
-610.230	-133.084	0.049	-0.006
-609.215	-200.000	-0.011	-0.274
-608.201	-141.104	-0.236	-0.024
-607.186	79.200	-0.343	-0.366
-606.171	205.433	-0.052	0.080
-605.157	415.393	-0.058	-0.122
-604.142	-200.000	-0.021	0.147
-603.128	800.000	0.062	0.244
-602.113	-142.237	-0.265	-0.026
-601.098	-43.811	0.401	-0.201
-600.084	85.693	-0.287	0.314
-599.069	-163.583	0.324	0.015
-598.055	-113.975	0.124	-0.024
-597.040	-173.439	0.186	0.006
-596.025	-117.949	-0.146	-0.026
-595.011	36.026	0.229	0.201
-593.996	325.100	-0.018	-0.035
-592.982	595.274	-0.129	0.317
-591.967	-200.000	-0.089	0.501
-590.952	62.915	-0.117	0.116
-589.938	800.000	-0.038	-0.134
-588.923	364.623	0.119	-0.238
-587.909	-131.198	-0.299	0.040
-586.894	-200.000	-0.028	0.261
-585.879	130.034	-0.134	0.171
-584.865	99.942	-0.202	-0.233
-583.850	383.296	-0.072	0.147
-582.836	-27.391	0.115	0.067
-581.821	97.049	-0.071	-0.082
-580.806	-200.000	-0.041	-0.273
-579.792	238.586	0.059	0.097
-578.777	-200.000	-0.034	-0.246
-577.763	16.972	-0.055	0.043
-576.748	-20.944	0.395	-0.241
-575.733	-27.284	-0.231	-0.134
-574.719	324.276	-0.080	0.153
-573.704	-36.489	-0.165	0.088
-572.690	305.452	-0.112	0.208
-571.675	-37.575	-0.229	-0.122
-570.661	-63.941	-0.362	-0.147
-569.646	-93.189	0.132	-0.037
-568.631	-83.311	0.264	0.084
-567.617	-46.200	-0.306	-0.150
-566.602	-22.650	-0.142	-0.085
-565.588	2.750	-0.149	0.108
-564.573	-185.288	-0.373	0.006
-563.558	-62.282	-0.120	-0.050
-562.544	20.180	-0.230	-0.185
-561.529	800.000	0.055	0.219
-560.515	-200.000	-0.021	0.316
-559.500	-65.496	0.154	0.061
-558.485	-124.078	0.487	-0.076
-557.471	66.499	-0.193	0.195
-556.456	462.199	0.076	-0.169
-555.442	-200.000	-0.012	0.063
-554.427	-45.595	-0.067	0.033
-553.412	-200.000	0.273	0.001
-552.398	-92.487	-0.325	0.091
-551.383	-200.000	0.029	-0.134
-550.369	79.986	-0.167	-0.178
-549.354	800.000	0.048	0.175
-548.339	800.000	-0.032	0.093
-547.325	23.933	0.317	0.260
-546.310	55.349	0.194	0.186
-545.296	-4.381	-0.190	0.131
-544.281	-177.712	0.189	0.005
-543.266	106.427	-0.086	0.101
-542.252	143.314	-0.249	-0.329
-541.237	43.704	0.192	-0.175
-540.223	-30.028	-0.211	0.119
-539.208	-200.000	-0.028	-0.206
-538.193	510.092	-0.054	-0.126
-537.179	330.762	0.058	-0.110
-536.164	-15.523	0.263	-0.167
-535.150	800.000	-0.078	0.250
-534.135	-30.158	-0.080	0.045
-533.121	-200.000	0.018	-0.205
-532.106	-153.829	-0.277	0.019
-531.091	-65.039	-0.385	-0.155
-530.077	298.231	-0.123	-0.225
-529.062	204.645	0.203	0.312
-528.048	-200.000	0.047	0.216
-527.033	601.076	0.112	-0.276
-526.018	800.000	0.143	-0.479
-525.004	20.866	-0.218	-0.176
-523.989	-127.732	-0.404	0.058
-522.975	-200.000	-0.094	-0.449
-521.960	-49.869	-0.144	-0.068
-520.945	-200.000	0.004	-0.338
-519.931	28.893	0.272	0.229
-518.916	36.735	-0.111	-0.098
-517.902	-58.038	-0.438	-0.190
-516.887	800.000	-0.111	-0.447
-515.872	116.872	0.163	-0.199
-514.858	-43.744	-0.010	-0.005
-513.843	431.206	-0.157	-0.337
-512.829	104.175	0.065	0.075
-511.814	-51.419	-0.225	0.104
-510.799	489.358	0.096	0.217
-509.785	-200.000	0.002	0.195
-508.770	-200.000	-0.005	0.184
-507.756	188.701	0.061	-0.091
-506.741	-200.000	0.051	-0.459
-505.726	-200.000	-0.020	0.147
-504.712	-115.939	0.099	-0.018
-503.697	447.451	0.117	0.256
-502.683	66.782	0.281	-0.284
-501.668	249.939	-0.263	-0.443
-500.653	-54.017	-0.144	0.065
-499.639	-200.000	0.039	0.298
-498.624	-200.000	0.037	0.382
-497.610	800.000	-0.112	0.338
-496.595	-200.000	-0.001	-0.218
-495.581	800.000	0.058	0.162
-494.566	800.000	0.134	-0.394
-493.551	28.151	0.344	-0.288
-492.537	363.495	-0.132	-0.263
-491.522	-71.109	-0.166	0.062
-490.508	-200.000	-0.014	-0.304
-489.493	-96.465	-0.266	0.070
-488.478	-69.717	-0.049	0.019
-487.464	-157.048	-0.094	-0.006
-486.449	-30.696	0.447	-0.251
-485.435	800.000	-0.093	-0.265
-484.420	-40.274	0.327	0.169
-483.405	235.807	0.187	-0.307
-482.391	-200.000	0.061	-0.340
-481.376	-200.000	0.012	-0.144
-480.362	187.558	-0.089	0.132
-479.347	-75.025	-0.187	0.066
-478.332	97.712	0.248	0.282
-477.318	-200.000	-0.012	-0.228
-476.303	245.753	-0.046	-0.077
-475.289	600.206	0.086	-0.213
-474.274	-200.000	-0.039	-0.206
-473.259	501.109	-0.093	0.213
-472.245	153.858	0.064	-0.087
-471.230	-42.203	-0.153	-0.078
-470.216	-195.941	0.189	-0.001
-469.201	516.011	-0.055	-0.127
-468.186	149.911	0.066	0.088
-467.172	800.000	-0.080	-0.258
-466.157	800.000	0.116	-0.337
-465.143	-200.000	-0.011	-0.073
-464.128	-200.000	0.003	0.032
-463.113	261.325	-0.123	-0.212
-462.099	800.000	-0.041	-0.154
-461.084	61.840	0.148	0.146
-460.070	-200.000	-0.005	0.055
-459.055	156.446	0.299	-0.409
-458.040	27.111	0.211	-0.175
-457.026	42.159	0.071	0.064
-456.011	800.000	-0.074	0.258
-454.997	500.865	0.100	-0.228
-453.982	-117.976	-0.462	-0.082
-452.968	14.830	-0.207	0.161
-451.953	800.000	-0.028	0.104
-450.938	-94.724	0.287	0.077
-449.924	82.447	-0.093	-0.100
-448.909	549.940	-0.096	-0.227
-447.895	113.893	-0.093	0.112
-446.880	153.065	-0.184	0.249
-445.865	112.104	-0.198	0.237
-444.851	-112.150	0.363	-0.072
-443.836	800.000	-0.079	-0.234
-442.822	194.853	0.083	-0.125
-441.807	118.302	-0.086	0.105
-440.792	54.197	-0.090	0.086
-439.778	-82.592	-0.396	0.127
-438.763	-200.000	-0.013	0.116
-437.749	-139.251	0.411	0.044
-436.734	-200.000	-0.009	0.133
-435.719	222.424	-0.186	-0.296
-434.705	-88.404	0.227	0.067
-433.690	-200.000	0.010	0.099
-432.676	175.176	0.161	0.230
-431.661	-200.000	-0.000	-0.123
-430.646	2.360	0.135	-0.096
-429.632	-200.000	0.013	-0.093
-428.617	397.174	0.066	-0.136
-427.603	144.734	0.072	0.096
-426.588	579.358	-0.057	-0.138
-425.573	325.411	0.062	-0.118
-424.559	44.447	0.087	-0.079
-423.544	-130.730	0.208	0.028
-422.530	-105.662	0.150	-0.034
-421.515	800.000	0.062	0.243
-420.500	-30.231	-0.105	0.059
-419.486	-43.066	-0.576	0.289
-418.471	16.309	-0.365	0.284
-417.457	-200.000	-0.013	0.247
-416.442	-200.000	-0.035	-0.212
-415.428	-5.473	-0.075	0.051
-414.413	800.000	-0.076	-0.326
-413.398	-55.475	-0.195	0.086
-412.384	-67.751	-0.372	-0.144
-411.369	100.827	-0.143	0.165
-410.355	-10.059	-0.115	-0.076
-409.340	-200.000	-0.017	-0.178
-408.325	-29.379	-0.084	-0.048
-407.311	223.293	0.114	-0.182
-406.296	-81.190	0.446	0.146
-405.282	800.000	-0.132	0.369
-404.267	91.159	0.107	-0.119
-403.252	800.000	-0.035	0.123
-402.238	800.000	0.054	-0.202
-401.223	800.000	0.080	0.240
-400.209	800.000	-0.092	0.289
-399.194	-200.000	0.023	0.107
-398.179	-26.478	0.170	0.099
-397.165	-200.000	0.000	-0.132
-396.150	65.849	0.144	-0.144
-395.136	-200.000	0.007	-0.230
-394.121	184.035	0.175	0.257
-393.106	800.000	0.070	0.250
-392.092	-200.000	-0.029	0.149
-391.077	-200.000	0.004	-0.078
-390.063	78.362	-0.097	-0.103
-389.048	800.000	0.053	0.197
-388.033	-103.377	0.085	0.020
-387.019	-200.000	-0.020	0.262
-386.004	-30.526	0.158	-0.088
-384.990	-57.641	-0.065	-0.028
-383.975	-55.816	0.177	-0.078
-382.960	62.906	-0.205	-0.203
-381.946	-48.398	0.217	-0.103
-380.931	127.855	-0.183	0.229
-379.917	126.516	-0.199	0.248
-378.902	748.533	0.107	0.286
-377.888	-80.093	0.422	-0.140
-376.873	171.245	0.328	0.465
-375.858	-30.891	0.049	-0.027
-374.844	-70.165	0.239	-0.090
-373.829	-169.341	-0.267	-0.010
-372.815	-128.553	0.282	0.039
-371.800	-172.278	-0.356	0.011
-370.785	98.023	0.133	-0.151
-369.771	-130.550	0.198	0.026
-368.756	800.000	0.086	-0.308
-367.742	73.414	-0.127	0.131
-366.727	52.503	0.374	0.352
-365.712	800.000	-0.049	0.201
-364.698	-122.835	0.082	-0.013
-363.683	-200.000	-0.035	0.258
-362.669	-34.842	0.322	0.174
-361.654	-75.186	-0.280	-0.099
-360.639	574.222	0.095	-0.229
-359.625	143.906	0.242	0.319
-358.610	800.000	-0.141	-0.407
-357.596	93.131	0.063	0.070
-356.581	-8.581	0.280	0.185
-355.566	712.174	-0.172	0.448
-354.552	198.976	0.204	-0.309
-353.537	-181.817	0.506	-0.010
-352.523	800.000	0.009	-0.030
-351.508	-75.831	0.178	-0.062
-350.493	171.286	-0.205	-0.291
-349.479	359.291	0.041	0.082
-348.464	-200.000	-0.025	0.173
-347.450	149.347	0.156	0.209
-346.435	-52.677	-0.314	0.143
-345.420	-200.000	0.039	0.261
-344.406	159.123	0.143	-0.195
-343.391	437.920	0.082	0.177
-342.377	586.669	0.116	0.282
-341.362	-163.038	-0.180	0.009
-340.348	72.712	0.133	0.137
-339.333	196.545	-0.049	0.074
-338.318	-44.216	-0.013	-0.007
-337.304	50.694	0.225	0.210
-336.289	-63.550	-0.049	-0.020
-335.275	-62.102	0.284	-0.117
-334.260	-200.000	-0.005	-0.277
-333.245	-158.588	0.409	-0.023
-332.231	29.518	0.011	-0.009
-331.216	-200.000	0.046	0.234
-330.202	253.530	0.338	0.569
-329.187	-108.710	0.239	0.050
-328.172	52.244	0.259	0.244
-327.158	-51.340	-0.191	0.088
-326.143	67.775	0.099	-0.100
-325.129	601.473	-0.082	0.201
-324.114	-14.646	0.140	-0.089
-323.099	-131.198	-0.043	0.006
-322.085	-16.106	-0.323	-0.202
-321.070	272.180	-0.048	0.083
-320.056	337.826	0.084	-0.161
-319.041	560.242	-0.145	-0.344
-318.026	-200.000	0.015	-0.078
-317.012	-123.363	0.037	0.006
-315.997	-67.653	-0.198	0.077
-314.983	553.028	-0.040	-0.094
-313.968	-200.000	0.025	-0.211
-312.953	335.617	-0.078	0.148
-311.939	-164.762	0.188	0.008
-310.924	800.000	0.023	-0.091
-309.910	266.373	-0.156	-0.268
-308.895	-49.695	-0.170	-0.080
-307.880	179.276	-0.126	0.182
-306.866	46.669	-0.206	-0.189
-305.851	800.000	-0.054	-0.176
-304.837	-146.511	-0.304	0.026
-303.822	145.530	-0.230	-0.304
-302.807	144.308	-0.032	0.042
-301.793	-50.834	-0.192	-0.089
-300.778	62.266	-0.212	-0.208
-299.764	4.555	0.317	0.229
-298.749	-10.316	-0.382	0.249
-297.735	-1.244	-0.240	-0.167
-296.720	-121.300	-0.166	-0.027
-295.705	75.366	-0.167	0.173
-294.691	-200.000	-0.005	-0.196
-293.676	224.469	0.153	0.243
-292.662	609.567	-0.049	-0.120
-291.647	134.957	0.153	0.196
-290.632	221.093	-0.153	-0.242
-289.618	251.876	-0.041	-0.068
-288.603	-68.347	0.066	0.025
-287.589	488.746	0.116	0.261
-286.574	800.000	-0.028	0.115
-285.559	321.632	-0.033	-0.063
-284.545	-108.391	-0.203	-0.043
-283.530	-86.758	-0.102	-0.031
-282.516	-32.443	0.085	0.047
-281.501	-77.638	-0.172	0.059
-280.486	110.523	-0.018	0.021
-279.472	-146.176	-0.153	0.013
-278.457	800.000	0.075	0.225
-277.443	663.553	-0.092	-0.234
-276.428	-35.631	0.295	-0.158
-275.413	-200.000	0.380	0.001
-274.399	-46.350	-0.067	0.032
-273.384	173.028	0.134	0.189
-272.370	-8.957	0.084	0.055
-271.355	-22.742	-0.095	0.056
-270.340	-157.004	-0.091	0.005
-269.326	204.537	0.083	-0.127
-268.311	-12.817	0.135	0.087
-267.297	3.458	0.186	0.133
-266.282	-154.800	0.117	-0.008
-265.267	-20.529	-0.139	0.084
-264.253	13.712	0.206	0.157
-263.238	-136.488	-0.318	0.036
-262.224	84.370	0.160	-0.172
-261.209	-193.396	0.036	0.000
-260.195	7.334	0.063	0.046
-259.180	800.000	-0.050	0.182
-258.165	110.422	-0.122	-0.144
-257.151	7.825	0.111	-0.081
-256.136	209.769	0.234	-0.361
-255.122	21.002	0.100	0.079
-254.107	60.809	0.152	0.148
-253.092	480.047	-0.059	0.131
-252.078	141.022	-0.214	-0.277
-251.063	356.722	0.086	0.168
-250.049	-200.000	-0.012	-0.089
-249.034	-23.774	0.239	0.141
-248.019	645.755	-0.128	0.322
-247.005	800.000	-0.029	-0.110
-245.990	214.854	0.050	-0.078
-244.976	-44.914	0.498	0.244
-243.961	20.106	-0.136	-0.108
-242.946	782.051	-0.066	0.177
-241.932	-200.000	-0.016	0.211
-240.917	-35.031	0.102	0.055
-239.903	-144.020	-0.086	0.008
-238.888	-28.171	0.199	0.113
-237.873	-200.000	0.044	0.257
-236.859	30.811	0.111	-0.094
-235.844	800.000	0.103	0.366
-234.830	800.000	0.020	-0.078
-233.815	72.586	0.239	0.245
-232.800	442.893	0.076	0.164
-231.786	-124.676	0.169	0.026
-230.771	-76.750	0.018	-0.006
-229.757	-54.829	-0.310	0.137
-228.742	-200.000	-0.013	-0.074
-227.727	-163.574	0.142	-0.007
-226.713	-54.460	0.245	0.109
-225.698	7.380	-0.203	0.149
-224.684	357.284	-0.143	-0.280
-223.669	-1.191	0.199	0.138
-222.655	-113.930	-0.422	-0.080
-221.640	-107.950	-0.232	-0.049
-220.625	-23.437	0.110	0.065
-219.611	-126.639	0.424	0.062
-218.596	-56.256	-0.013	0.006
-217.582	129.962	0.087	0.109
-216.567	33.896	-0.112	-0.096
-215.552	-96.120	0.058	0.015
-214.538	15.643	0.168	0.130
-213.523	-113.536	0.312	0.060
-212.509	86.784	0.093	-0.101
-211.494	-40.031	0.084	-0.043
-210.479	270.004	-0.126	-0.218
-209.465	358.737	-0.170	0.334
-208.450	83.026	-0.239	0.255
-207.436	-36.055	0.250	-0.132
-206.421	-128.614	-0.055	0.008
-205.406	627.168	0.094	-0.234
-204.392	-37.254	-0.265	-0.139
-203.377	311.735	0.140	-0.257
-202.363	-200.000	-0.001	-0.023
-201.348	51.662	0.084	0.078
-200.333	-119.723	0.111	-0.019
-199.319	-200.000	0.022	0.372
-198.304	-86.292	0.315	0.095
-197.290	800.000	-0.124	-0.426
-196.275	-172.625	-0.227	0.007
-195.260	-11.467	-0.184	0.119
-194.246	-100.335	0.060	0.015
-193.231	-156.132	0.328	0.020
-192.217	800.000	-0.027	0.110
-191.202	278.927	-0.014	0.024
-190.187	22.725	-0.066	-0.053
-189.173	460.431	0.173	0.379
-188.158	800.000	0.074	-0.240
-187.144	139.050	0.045	0.058
-186.129	31.726	-0.167	0.141
-185.114	85.559	0.046	-0.049
-184.100	-47.272	0.334	0.159
-183.085	-200.000	-0.006	-0.123
-182.071	-62.601	0.142	0.058
-181.056	561.815	-0.144	-0.342
-180.042	-117.960	-0.242	-0.042
-179.027	43.525	-0.187	-0.167
-178.012	333.395	0.206	-0.390
-176.998	-67.520	0.268	-0.103
-175.983	172.519	-0.057	0.081
-174.969	-200.000	-0.075	0.345
-173.954	-34.449	0.117	-0.063
-172.939	43.214	-0.187	-0.167
-171.925	-77.854	0.089	-0.030
-170.910	7.567	0.072	0.053
-169.896	80.002	-0.118	0.125
-168.881	30.735	0.252	0.211
-167.866	-200.000	0.006	0.026
-166.852	-83.334	-0.284	0.089
-165.837	-200.000	-0.002	-0.043
-164.823	800.000	-0.008	0.027
-163.808	800.000	0.032	0.132
-162.793	-200.000	0.043	0.235
-161.779	138.780	-0.108	-0.139
-160.764	5.705	-0.225	-0.163
-159.750	-200.000	0.022	0.299
-158.735	-64.980	0.190	-0.075
-157.720	92.976	0.091	-0.100
-156.706	5.891	-0.126	-0.091
-155.691	-200.000	-0.030	-0.166
-154.677	276.504	-0.022	0.039
-153.662	-102.179	-0.296	-0.070
-152.647	85.939	-0.172	-0.185
-151.633	-110.042	0.081	-0.016
-150.618	-82.505	0.239	0.076
-149.604	33.621	-0.253	-0.215
-148.589	155.267	0.157	0.212
-147.574	2.680	0.288	0.204
-146.560	-167.645	0.269	-0.010
-145.545	-200.000	0.082	0.409
-144.531	800.000	0.090	0.307
-143.516	800.000	-0.031	-0.088
-142.502	800.000	0.081	0.232
-141.487	12.757	0.113	-0.086
-140.472	-129.954	0.042	0.006
-139.458	163.441	0.108	-0.149
-138.443	-168.214	-0.257	0.010
-137.429	120.707	0.222	0.269
-136.414	-200.000	0.003	-0.151
-135.399	11.512	-0.213	-0.160
-134.385	-200.000	-0.049	-0.370
-133.370	18.835	0.113	-0.089
-132.356	75.510	0.183	0.188
-131.341	103.331	-0.167	0.192
-130.326	-5.467	-0.133	0.089
-129.312	-76.020	-0.141	0.049
-128.297	800.000	0.040	0.116
-127.283	420.649	0.149	-0.312
-126.268	800.000	-0.143	-0.438
-125.253	-69.611	-0.253	0.095
-124.239	800.000	-0.050	0.135
-123.224	-95.528	0.219	-0.057
-122.210	-5.006	-0.178	0.120
-121.195	-90.666	0.290	-0.082
-120.180	-142.617	0.332	0.032
