DTS Sentinel unit serial number:	SN413079Multiplexer serial number:	ORYXHardware model number:	OX4-SRSoftware version number:	ORYX F/W v4.00 Oryx Data Collector v3.7.2.0data status	okinstallation	princeton_trtdifferential loss correction	single-endedforward channel	channel 1reverse channel	N/Adate	2019/09/18time	16:42:35forward acquisition time	60.00reverse acquisition time	0.00gamma	496.2192k internal	0.2292k external	0.2292temperature offset calibration	0.9995default loss term (dB/km)	0.3790temperature slope calibration	1.0000multiplexer offset coefficient	1.0000multiplexer slope coefficient	1.0000fibre end	0.00T internal ref (°C)	39.80T ext. ref 1 (°C)	0.86T ext. ref 2 (°C)	36.61length (m)	temperature (°C)	Stokes	anti-Stokes-747.200	386.877	-0.130	0.274
-746.185	-189.470	-0.285	0.003
-745.171	800.000	-0.058	0.220
-744.156	107.496	0.208	0.254
-743.142	-20.186	0.187	-0.118
-742.127	-10.764	0.070	0.047
-741.112	-110.951	0.130	0.027
-740.098	40.763	0.228	-0.210
-739.083	2.218	0.128	-0.095
-738.069	-0.801	-0.107	0.077
-737.054	114.148	-0.118	-0.147
-736.039	-37.060	0.188	0.103
-735.025	-200.000	-0.028	0.189
-734.010	97.721	0.122	0.143
-732.996	596.569	0.125	-0.317
-731.981	-200.000	-0.005	0.054
-730.966	-65.335	-0.102	0.042
-729.952	325.645	-0.224	-0.439
-728.937	-200.000	-0.008	-0.317
-727.923	90.546	-0.110	-0.125
-726.908	174.759	0.092	-0.137
-725.894	-172.262	0.049	0.002
-724.879	-200.000	-0.005	0.169
-723.864	-200.000	0.008	-0.137
-722.850	-200.000	-0.009	0.122
-721.835	390.587	-0.272	0.577
-720.821	6.253	-0.101	-0.077
-719.806	-18.093	0.061	-0.039
-718.791	-103.841	-0.291	0.070
-717.777	69.491	0.151	-0.159
-716.762	115.142	0.096	-0.120
-715.748	-200.000	0.000	0.215
-714.733	157.544	0.103	-0.146
-713.718	-103.118	0.497	-0.120
-712.704	115.792	-0.203	0.254
-711.689	-43.749	-0.421	0.217
-710.675	-147.913	-0.041	-0.003
-709.660	435.096	0.108	-0.241
-708.645	-147.472	0.157	0.014
-707.631	108.628	0.195	-0.239
-706.616	23.855	-0.156	-0.132
-705.602	573.897	0.089	0.222
-704.587	-200.000	0.030	-0.161
-703.572	36.268	0.225	0.203
-702.558	-35.776	-0.167	0.092
-701.543	30.606	-0.315	-0.275
-700.529	800.000	-0.029	0.106
-699.514	-175.202	0.231	0.007
-698.499	-47.972	0.203	0.100
-697.485	279.385	0.102	0.185
-696.470	800.000	0.028	0.088
-695.456	58.438	-0.071	0.071
-694.441	800.000	0.110	0.312
-693.426	485.093	0.069	-0.161
-692.412	179.563	0.008	-0.012
-691.397	509.861	0.187	0.445
-690.383	61.224	0.071	-0.072
-689.368	125.888	-0.119	-0.154
-688.354	-49.362	0.239	0.116
-687.339	-168.682	-0.069	0.003
-686.324	-111.915	-0.162	0.033
-685.310	35.729	-0.433	-0.389
-684.295	-200.000	0.004	-0.029
-683.281	-50.244	-0.033	-0.016
-682.266	-40.493	0.062	0.033
-681.251	-200.000	-0.058	-0.369
-680.237	99.888	0.144	-0.171
-679.222	72.092	-0.256	-0.272
-678.208	121.196	-0.124	-0.158
-677.193	21.573	-0.324	0.269
-676.178	141.036	-0.121	-0.163
-675.164	107.089	-0.100	0.122
-674.149	-200.000	0.060	-0.551
-673.135	135.447	0.326	-0.432
-672.120	184.520	0.276	-0.418
-671.105	-49.978	0.233	-0.113
-670.091	90.445	0.167	-0.191
-669.076	800.000	-0.066	-0.185
-668.062	148.446	-0.108	0.149
-667.047	86.334	0.123	-0.138
-666.032	40.359	0.075	-0.069
-665.018	46.791	-0.157	0.149
-664.003	-200.000	-0.058	-0.291
-662.989	196.084	-0.188	-0.292
-661.974	340.328	0.145	0.289
-660.959	-89.982	-0.069	-0.021
-659.945	-85.746	-0.164	-0.052
-658.930	-63.117	-0.120	-0.050
-657.916	125.867	0.080	-0.103
-656.901	-28.282	0.171	-0.101
-655.886	3.019	-0.156	0.115
-654.872	-200.000	-0.008	-0.189
-653.857	-62.435	-0.137	-0.058
-652.843	-26.628	0.199	-0.119
-651.828	410.829	0.167	-0.361
-650.814	182.969	-0.129	-0.194
-649.799	-105.680	0.307	-0.071
-648.784	-200.000	0.017	0.089
-647.770	538.436	-0.142	0.345
-646.755	-200.000	-0.019	0.298
-645.741	-122.838	0.121	-0.020
-644.726	-200.000	-0.012	-0.107
-643.711	-38.196	0.169	-0.092
-642.697	-94.380	0.207	-0.058
-641.682	-69.518	0.202	0.079
-640.668	121.082	0.163	0.207
-639.653	800.000	-0.051	0.202
-638.638	800.000	-0.040	0.133
-637.624	-71.622	-0.349	-0.133
-636.609	-119.300	0.327	0.058
-635.595	25.946	0.087	-0.074
-634.580	-63.189	0.195	0.082
-633.565	-16.396	0.227	-0.147
-632.551	-59.733	0.097	0.042
-631.536	800.000	0.031	0.134
-630.522	-200.000	0.002	-0.243
-629.507	551.187	0.056	0.136
-628.492	-9.720	0.117	-0.079
-627.478	569.062	-0.101	-0.251
-626.463	-200.000	-0.054	0.315
-625.449	-46.323	-0.056	-0.028
-624.434	180.335	-0.169	-0.252
-623.419	-200.000	0.021	0.202
-622.405	411.291	0.208	-0.449
-621.390	-77.563	-0.221	-0.078
-620.376	-131.605	0.076	0.010
-619.361	1.809	0.135	0.099
-618.346	252.343	0.122	0.212
-617.332	800.000	-0.060	-0.196
-616.317	172.534	-0.121	0.177
-615.303	-200.000	-0.014	-0.066
-614.288	-69.742	-0.036	-0.014
-613.273	800.000	-0.061	-0.214
-612.259	-179.441	-0.166	-0.004
-611.244	-147.179	-0.134	-0.012
-610.230	800.000	0.094	0.409
-609.215	243.356	-0.107	-0.182
-608.201	121.808	-0.138	0.175
-607.186	-147.990	-0.340	-0.029
-606.171	-200.000	-0.018	-0.154
-605.157	-123.299	0.106	-0.017
-604.142	34.273	-0.305	-0.270
-603.128	-200.000	-0.016	0.098
-602.113	-34.239	0.340	-0.190
-601.098	118.486	-0.102	0.128
-600.084	124.244	0.219	0.280
-599.069	247.632	0.085	-0.145
-598.055	-64.487	-0.162	-0.067
-597.040	5.553	-0.158	0.119
-596.025	-200.000	0.004	0.199
-595.011	-141.310	-0.255	0.026
-593.996	-60.842	0.147	-0.063
-592.982	-61.029	0.074	-0.032
-591.967	101.780	-0.061	0.073
-590.952	-160.744	-0.254	0.014
-589.938	-35.530	-0.180	0.099
-588.923	-200.000	0.013	-0.200
-587.909	800.000	0.044	-0.158
-586.894	-200.000	0.023	0.521
-585.879	-67.476	0.176	-0.070
-584.865	289.549	-0.073	-0.136
-583.850	-16.731	0.288	-0.186
-582.836	-91.769	-0.257	-0.074
-581.821	800.000	-0.040	0.115
-580.806	-200.000	0.035	0.164
-579.792	-200.000	-0.010	0.048
-578.777	-146.260	-0.209	0.019
-577.763	800.000	-0.052	0.231
-576.748	263.349	0.069	-0.121
-575.733	542.879	-0.086	-0.208
-574.719	549.721	0.100	0.244
-573.704	-107.258	0.171	-0.038
-572.690	-148.122	0.133	-0.011
-571.675	-161.560	-0.239	0.012
-570.661	-74.225	-0.142	0.052
-569.646	-86.700	-0.197	0.061
-568.631	-135.194	-0.325	0.040
-567.617	-71.300	-0.220	-0.084
-566.602	-68.110	0.160	-0.063
-565.588	32.196	0.205	-0.180
-564.573	800.000	0.010	0.036
-563.558	148.405	0.052	-0.072
-562.544	27.473	-0.188	-0.161
-561.529	204.960	0.222	0.350
-560.515	-121.337	0.235	-0.040
-559.500	800.000	-0.061	-0.191
-558.485	-122.413	0.199	0.033
-557.471	-140.842	-0.223	-0.023
-556.456	-42.149	-0.165	-0.086
-555.442	356.402	0.058	0.117
-554.427	-91.697	-0.181	0.052
-553.412	-47.470	-0.194	0.096
-552.398	114.275	0.181	-0.223
-551.383	151.408	-0.112	-0.155
-550.369	627.375	0.026	0.068
-549.354	-64.285	0.381	0.158
-548.339	-147.214	0.076	0.007
-547.325	174.804	0.096	-0.141
-546.310	-34.345	-0.086	-0.048
-545.296	800.000	0.015	0.054
-544.281	-46.308	-0.367	-0.183
-543.266	78.253	0.307	-0.332
-542.252	-189.636	0.198	-0.002
-541.237	10.284	0.097	-0.075
-540.223	8.578	0.254	0.194
-539.208	114.925	-0.087	0.107
-538.193	224.731	0.149	0.244
-537.179	374.713	0.155	-0.321
-536.164	211.452	-0.096	0.153
-535.150	-160.549	-0.323	-0.018
-534.135	-120.435	0.145	-0.025
-533.121	222.307	-0.039	-0.063
-532.106	136.479	-0.076	-0.100
-531.091	-13.167	-0.274	-0.181
-530.077	-200.000	0.030	0.134
-529.062	-200.000	-0.018	0.128
-528.048	-78.445	0.123	0.043
-527.033	-200.000	-0.037	-0.213
-526.018	-133.220	0.292	-0.038
-525.004	-200.000	-0.022	-0.146
-523.989	800.000	0.018	-0.064
-522.975	-112.550	-0.258	-0.052
-521.960	-200.000	0.020	0.150
-520.945	-200.000	0.053	-0.267
-519.931	82.755	-0.082	-0.091
-518.916	-9.784	0.068	0.046
-517.902	82.299	-0.239	0.263
-516.887	-200.000	0.020	-0.131
-515.872	214.741	0.146	0.235
-514.858	-54.637	-0.189	0.087
-513.843	-200.000	0.021	-0.174
-512.829	8.155	0.082	0.063
-511.814	-60.949	-0.224	0.096
-510.799	800.000	0.018	0.071
-509.785	208.046	0.016	-0.026
-508.770	-20.760	0.192	0.120
-507.756	56.146	0.254	0.251
-506.741	800.000	0.032	-0.102
-505.726	-114.156	0.212	0.041
-504.712	2.359	-0.102	-0.075
-503.697	300.303	0.041	-0.076
-502.683	800.000	0.089	0.258
-501.668	225.239	0.084	0.137
-500.653	407.861	-0.157	0.337
-499.639	-99.735	-0.222	0.056
-498.624	149.925	-0.109	0.150
-497.610	-12.683	-0.120	0.079
-496.595	325.510	0.097	0.187
-495.581	-200.000	-0.022	-0.105
-494.566	800.000	0.084	-0.281
-493.551	-18.582	-0.161	-0.102
-492.537	-200.000	-0.010	0.141
-491.522	-50.655	0.314	-0.150
-490.508	800.000	0.026	0.084
-489.493	-83.396	0.248	0.081
-488.478	-23.845	-0.177	0.107
-487.464	-94.523	-0.055	0.015
-486.449	217.625	0.099	-0.159
-485.435	-73.907	-0.426	0.157
-484.420	800.000	0.081	0.279
-483.405	-200.000	0.056	0.249
-482.391	155.009	0.128	-0.179
-481.376	-57.032	-0.171	0.077
-480.362	-36.191	-0.189	-0.104
-479.347	92.022	0.175	-0.200
-478.332	-88.964	-0.515	0.155
-477.318	111.886	0.090	-0.110
-476.303	468.031	-0.180	-0.408
-475.289	615.030	0.103	-0.261
-474.274	-80.742	-0.164	0.055
-473.259	46.077	0.036	-0.033
-472.245	-200.000	0.005	-0.104
-471.230	-140.332	-0.117	0.012
-470.216	-148.481	-0.077	0.006
-469.201	-102.328	-0.537	0.130
-468.186	31.086	-0.119	0.104
-467.172	428.062	0.147	0.321
-466.157	-97.132	0.109	-0.029
-465.143	-54.975	0.334	-0.152
-464.128	123.480	0.162	-0.206
-463.113	155.657	0.038	-0.052
-462.099	-200.000	-0.043	-0.215
-461.084	36.289	0.150	0.134
-460.070	12.196	0.137	-0.107
-459.055	400.854	-0.100	-0.212
-458.040	-200.000	0.036	-0.181
-457.026	-7.345	-0.190	0.131
-456.011	-200.000	-0.062	0.447
-454.997	1.331	-0.194	-0.141
-453.982	-120.442	-0.141	0.024
-452.968	25.235	0.224	0.188
-451.953	-116.195	-0.189	-0.035
-450.938	-148.834	0.200	0.016
-449.924	-153.743	0.380	-0.026
-448.909	-145.501	-0.254	-0.023
-447.895	-72.942	-0.064	0.024
-446.880	-52.424	0.258	0.121
-445.865	20.212	-0.375	-0.306
-444.851	-106.328	-0.296	-0.067
-443.836	800.000	-0.060	0.226
-442.822	-200.000	0.035	0.368
-441.807	214.510	0.019	-0.031
-440.792	-93.203	0.344	0.097
-439.778	368.925	-0.123	0.252
-438.763	-105.757	0.167	0.038
-437.749	-200.000	0.002	-0.283
-436.734	-200.000	0.030	-0.245
-435.719	647.392	-0.088	-0.227
-434.705	292.957	-0.016	-0.029
-433.690	-3.884	-0.016	0.011
-432.676	-75.652	0.234	-0.084
-431.661	-200.000	0.072	-0.462
-430.646	-46.969	-0.029	-0.014
-429.632	309.356	0.088	-0.167
-428.617	95.358	-0.254	0.293
-427.603	640.563	-0.081	0.207
-426.588	-39.633	0.088	-0.047
-425.573	477.797	0.081	-0.185
-424.559	-200.000	-0.052	-0.255
-423.544	265.536	-0.076	-0.134
-422.530	800.000	0.051	0.201
-421.515	-32.905	0.240	-0.135
-420.500	-200.000	-0.017	0.080
-419.486	-200.000	-0.035	0.244
-418.471	-200.000	-0.015	-0.094
-417.457	-16.305	0.237	0.152
-416.442	177.617	-0.053	-0.078
-415.428	-200.000	0.004	0.026
-414.413	-200.000	0.011	-0.459
-413.398	39.032	-0.192	0.173
-412.384	-73.824	0.111	0.041
-411.369	-99.363	-0.294	-0.075
-410.355	-75.422	0.223	0.080
-409.340	602.967	-0.059	0.148
-408.325	-200.000	0.013	-0.093
-407.311	-47.950	0.466	0.228
-406.296	-77.698	0.233	-0.081
-405.282	270.140	-0.131	-0.233
-404.267	-1.223	0.203	-0.145
-403.252	-200.000	0.045	-0.220
-402.238	371.229	-0.007	0.015
-401.223	-76.795	-0.583	0.206
-400.209	58.681	0.203	-0.202
-399.194	-200.000	0.030	0.190
-398.179	76.978	-0.043	-0.046
-397.165	31.785	0.154	-0.134
-396.150	217.133	0.213	-0.343
-395.136	107.215	-0.469	-0.563
-394.121	-98.105	0.276	0.072
-393.106	126.969	0.130	-0.166
-392.092	-161.356	-0.393	0.021
-391.077	-91.040	0.134	-0.039
-390.063	178.257	-0.235	0.346
-389.048	115.402	-0.160	-0.198
-388.033	45.700	0.237	-0.221
-387.019	-15.362	0.344	0.222
-386.004	-124.477	0.090	0.014
-384.990	298.953	-0.141	0.261
-383.975	-9.573	0.051	-0.035
-382.960	-200.000	0.051	0.226
-381.946	328.216	-0.094	-0.182
-380.931	-192.945	-0.148	-0.001
-379.917	79.122	-0.196	0.212
-378.902	-200.000	-0.021	-0.432
-377.888	-129.349	-0.119	-0.017
-376.873	-18.949	0.064	-0.040
-375.858	-200.000	0.010	-0.106
-374.844	616.793	0.075	0.189
-373.829	-94.994	0.258	-0.070
-372.815	0.377	-0.119	0.086
-371.800	305.979	0.021	-0.039
-370.785	228.249	-0.100	-0.164
-369.771	-120.782	0.188	0.032
-368.756	-161.219	0.433	0.023
-367.742	-6.852	-0.064	-0.044
-366.727	-200.000	0.010	0.160
-365.712	800.000	-0.074	0.221
-364.698	-37.634	0.140	0.075
-363.683	3.510	0.027	0.020
-362.669	-84.881	-0.196	0.062
-361.654	-200.000	-0.000	0.190
-360.639	-200.000	-0.023	-0.367
-359.625	386.655	0.141	-0.293
-358.610	-97.141	0.168	0.044
-357.596	142.935	0.072	-0.097
-356.581	-29.046	0.135	0.078
-355.566	800.000	0.049	-0.160
-354.552	-200.000	-0.008	0.093
-353.537	-0.988	0.155	0.111
-352.523	157.236	-0.134	-0.188
-351.508	-24.473	-0.395	0.237
-350.493	-200.000	0.021	0.147
-349.479	-14.412	0.221	-0.144
-348.464	19.851	0.046	0.037
-347.450	-161.951	0.037	-0.002
-346.435	-109.145	0.283	-0.061
-345.420	-39.027	-0.488	0.259
-344.406	6.061	0.126	0.094
-343.391	800.000	-0.065	-0.216
-342.377	-200.000	0.002	0.048
-341.362	254.904	-0.185	0.319
-340.348	-117.483	0.166	0.030
-339.333	-137.773	-0.119	-0.013
-338.318	-146.043	0.285	0.025
-337.304	-33.682	-0.436	-0.242
-336.289	-108.153	-0.284	0.062
-335.275	-80.898	0.241	0.081
-334.260	107.414	-0.054	-0.065
-333.245	800.000	0.121	-0.421
-332.231	-68.488	-0.246	-0.096
-331.216	733.766	-0.081	0.219
-330.202	-200.000	-0.003	0.184
-329.187	800.000	0.096	0.300
-328.172	-79.365	-0.173	-0.059
-327.158	131.748	-0.100	-0.130
-326.143	-150.468	-0.261	0.020
-325.129	-64.609	-0.395	0.161
-324.114	-30.307	-0.090	-0.052
-323.099	-129.770	0.362	0.050
-322.085	-200.000	0.019	-0.227
-321.070	-200.000	0.061	-0.331
-320.056	-115.515	-0.296	-0.056
-319.041	-142.431	-0.191	-0.019
-318.026	410.542	-0.107	0.229
-317.012	-200.000	0.025	0.329
-315.997	59.330	0.145	-0.143
-314.983	-112.473	0.266	-0.054
-313.968	25.373	-0.056	-0.047
-312.953	-112.892	-0.212	0.042
-311.939	-200.000	0.065	0.298
-310.924	-59.891	-0.131	-0.056
-309.910	-200.000	-0.033	0.259
-308.895	363.528	-0.319	-0.645
-307.880	8.119	0.148	-0.112
-306.866	243.089	-0.066	-0.112
-305.851	-200.000	-0.057	-0.306
-304.837	4.334	-0.255	0.188
-303.822	27.727	-0.180	-0.152
-302.807	602.021	0.147	0.367
-301.793	-79.182	-0.184	0.063
-300.778	109.483	0.044	-0.053
-299.764	31.417	-0.189	0.163
-298.749	63.904	-0.052	0.053
-297.735	7.199	0.125	-0.094
-296.720	121.736	0.089	-0.111
-295.705	-12.782	0.056	0.037
-294.691	-200.000	0.008	0.106
-293.676	-200.000	0.007	-0.037
-292.662	800.000	0.085	0.324
-291.647	699.601	-0.070	0.185
-290.632	-118.093	-0.312	-0.056
-289.618	137.364	-0.116	-0.153
-288.603	-112.911	0.356	0.071
-287.589	-159.798	0.161	0.009
-286.574	800.000	0.076	0.242
-285.559	-200.000	-0.023	-0.374
-284.545	800.000	-0.089	-0.259
-283.530	33.590	-0.315	-0.275
-282.516	-41.205	-0.086	-0.045
-281.501	253.846	0.144	-0.247
-280.486	-149.178	-0.309	-0.025
-279.472	-124.317	0.063	-0.010
-278.457	-72.374	0.167	-0.062
-277.443	-75.023	0.107	0.039
-276.428	-34.366	0.289	0.159
-275.413	175.319	0.087	0.126
-274.399	46.881	-0.196	-0.183
-273.384	-55.744	0.072	0.033
-272.370	-175.299	0.212	0.006
-271.355	-180.002	0.111	0.002
-270.340	-63.704	0.272	0.112
-269.326	800.000	0.128	-0.540
-268.311	-185.216	-0.139	-0.002
-267.297	-76.518	-0.071	0.025
-266.282	-75.648	-0.507	-0.181
-265.267	-133.669	-0.060	0.008
-264.253	307.782	0.016	0.030
-263.238	-200.000	-0.004	-0.198
-262.224	-200.000	0.029	0.184
-261.209	242.155	0.104	0.174
-260.195	481.006	0.082	-0.186
-259.180	-34.887	0.147	0.080
-258.165	55.456	-0.171	0.166
-257.151	-13.370	0.310	0.202
-256.136	800.000	0.035	-0.113
-255.122	626.893	0.094	0.237
-254.107	-73.329	0.257	-0.094
-253.092	-112.304	0.108	0.022
-252.078	-91.570	-0.248	0.071
-251.063	-170.094	0.170	0.006
-250.049	-14.759	0.154	-0.099
-249.034	-144.659	-0.332	0.031
-248.019	120.477	-0.159	0.198
-247.005	-162.241	-0.429	0.022
-245.990	800.000	0.057	-0.172
-244.976	800.000	-0.041	0.174
-243.961	75.769	-0.029	0.031
-242.946	204.855	-0.168	-0.261
-241.932	-89.680	0.090	0.026
-240.917	60.021	-0.283	-0.281
-239.903	800.000	-0.044	-0.182
-238.888	-99.732	0.401	-0.101
-237.873	-19.056	0.223	-0.139
-236.859	-92.117	-0.174	0.049
-235.844	330.255	-0.108	0.209
-234.830	38.864	0.252	0.226
-233.815	-44.456	-0.191	0.096
-232.800	-200.000	-0.039	0.302
-231.786	-103.384	0.481	-0.114
-230.771	341.004	-0.054	0.105
-229.757	-103.748	0.151	-0.035
-228.742	-48.687	-0.094	0.045
-227.727	-200.000	0.016	-0.143
-226.713	-200.000	-0.040	0.236
-225.698	800.000	0.078	-0.240
-224.684	9.478	0.122	0.093
-223.669	-44.571	0.402	0.202
-222.655	-48.174	0.113	-0.055
-221.640	-72.072	0.091	-0.034
-220.625	-127.434	0.297	0.043
-219.611	-200.000	-0.013	0.135
-218.596	260.300	-0.088	0.153
-217.582	800.000	-0.170	-0.477
-216.567	621.114	-0.067	-0.169
-215.552	-78.024	-0.119	-0.041
-214.538	21.341	-0.315	-0.257
-213.523	-200.000	-0.053	0.366
-212.509	-102.847	-0.295	0.070
-211.494	-200.000	0.020	-0.093
-210.479	-39.591	0.381	0.200
-209.465	193.685	0.117	0.178
-208.450	-163.664	-0.122	0.006
-207.436	-200.000	-0.033	0.233
-206.421	274.347	0.157	0.279
-205.406	-175.697	0.229	-0.006
-204.392	-85.626	-0.109	0.034
-203.377	222.585	0.052	-0.085
-202.363	-99.672	0.254	0.064
-201.348	-100.875	0.188	-0.046
-200.333	800.000	-0.137	0.428
-199.319	-119.172	0.093	0.016
-198.304	-117.012	-0.065	-0.012
-197.290	-200.000	-0.019	-0.112
-196.275	-31.781	0.321	0.180
-195.260	-62.762	-0.289	-0.120
-194.246	126.544	-0.126	-0.159
-193.231	-77.588	-0.188	-0.065
-192.217	-200.000	0.038	0.554
-191.202	746.358	0.059	0.159
-190.187	-91.610	0.498	-0.142
-189.173	-96.910	0.200	-0.052
-188.158	-180.577	0.094	-0.002
-187.144	19.301	-0.074	-0.060
-186.129	176.127	0.093	-0.136
-185.114	-91.812	0.160	-0.045
-184.100	-200.000	-0.046	-0.324
-183.085	24.817	-0.184	0.153
-182.071	-200.000	-0.011	0.081
-181.056	615.678	0.095	-0.239
-180.042	800.000	0.078	-0.220
-179.027	-20.678	-0.206	-0.126
-178.012	800.000	-0.043	0.149
-176.998	7.041	-0.197	0.147
-175.983	-17.040	0.159	-0.100
-174.969	-92.382	0.054	0.015
-173.954	-57.519	0.197	-0.086
-172.939	-79.882	-0.399	0.134
-171.925	63.886	-0.225	-0.227
-170.910	-69.458	0.178	-0.068
-169.896	192.611	-0.175	0.264
-168.881	-134.793	0.047	0.006
-167.866	800.000	-0.209	0.612
-166.852	-105.916	0.137	0.031
-165.837	24.563	0.308	0.255
-164.823	-146.737	-0.073	0.006
-163.808	-200.000	0.019	0.280
-162.793	677.892	-0.065	-0.168
-161.779	52.104	0.260	0.248
-160.764	-23.600	0.169	-0.101
-159.750	139.194	-0.144	-0.190
-158.735	85.947	-0.200	0.220
-157.720	603.132	-0.074	-0.184
-156.706	-19.374	-0.166	0.103
-155.691	176.867	0.066	-0.095
-154.677	367.616	-0.055	-0.111
-153.662	122.400	-0.240	-0.300
-152.647	-87.993	0.116	0.035
-151.633	220.747	0.080	0.129
-150.618	214.818	-0.098	-0.156
-149.604	-144.725	0.573	0.053
-148.589	-93.446	0.255	0.071
-147.574	-45.086	0.271	0.135
-146.560	-59.476	-0.255	-0.109
-145.545	20.287	0.076	-0.061
-144.531	159.945	0.251	0.349
-143.516	-182.767	0.262	0.005
-142.502	-200.000	-0.002	0.011
-141.487	-85.212	-0.256	-0.080
-140.472	-37.249	0.364	-0.195
-139.458	-43.709	-0.164	-0.083
-138.443	-85.428	-0.261	0.081
-137.429	-118.521	-0.040	-0.007
-136.414	800.000	0.045	-0.188
-135.399	-114.067	-0.080	-0.015
-134.385	-12.487	0.248	-0.162
-133.370	133.767	-0.061	-0.079
-132.356	15.450	-0.081	0.063
-131.341	-96.257	-0.092	0.024
-130.326	580.928	-0.093	0.228
-129.312	-200.000	-0.080	0.458
-128.297	-53.476	-0.215	-0.098
-127.283	324.326	0.122	-0.233
-126.268	-200.000	-0.017	0.217
-125.253	-26.090	-0.038	-0.022
-124.239	242.765	0.142	0.238
-123.224	156.875	0.091	-0.126
-122.210	544.667	0.107	-0.255
-121.195	-53.460	0.278	0.127
