DTS Sentinel unit serial number:	SN413079Multiplexer serial number:	ORYXHardware model number:	OX4-SRSoftware version number:	ORYX F/W v4.00 Oryx Data Collector v3.7.2.0data status	okinstallation	princeton_trtdifferential loss correction	single-endedforward channel	channel 1reverse channel	N/Adate	2019/09/15time	12:46:35forward acquisition time	60.00reverse acquisition time	0.00gamma	496.2192k internal	0.2296k external	0.2296temperature offset calibration	0.9985default loss term (dB/km)	0.3790temperature slope calibration	1.0000multiplexer offset coefficient	1.0000multiplexer slope coefficient	1.0000fibre end	0.00T internal ref (°C)	35.83T ext. ref 1 (°C)	5.05T ext. ref 2 (°C)	33.71length (m)	temperature (°C)	Stokes	anti-Stokes-747.200	-142.447	-0.249	-0.025
-746.185	134.793	-0.169	0.224
-745.171	166.749	0.146	-0.211
-744.156	511.409	-0.089	0.212
-743.142	-200.000	0.012	-0.181
-742.127	-97.126	-0.154	-0.041
-741.112	508.162	0.026	0.062
-740.098	-103.763	-0.103	0.025
-739.083	211.551	-0.114	0.184
-738.069	-200.000	0.001	0.212
-737.054	68.364	-0.140	-0.147
-736.039	43.990	0.049	-0.046
-735.025	-56.372	0.250	0.114
-734.010	-200.000	-0.400	0.002
-732.996	64.987	-0.331	-0.341
-731.981	-200.000	-0.089	0.420
-730.966	800.000	-0.065	-0.205
-729.952	1.303	0.139	0.102
-728.937	-14.639	-0.118	0.078
-727.923	54.885	0.117	-0.115
-726.908	793.209	-0.065	-0.182
-725.894	82.962	0.160	0.177
-724.879	93.174	-0.238	-0.274
-723.864	47.281	-0.114	-0.108
-722.850	-200.000	0.006	0.093
-721.835	7.639	-0.280	-0.214
-720.821	209.782	0.160	0.255
-719.806	8.107	0.061	-0.047
-718.791	-58.294	0.207	-0.092
-717.777	47.226	0.147	0.140
-716.762	53.362	0.176	-0.172
-715.748	800.000	0.042	-0.132
-714.733	-84.077	-0.271	-0.088
-713.718	-94.853	0.273	-0.075
-712.704	-153.459	-0.164	0.012
-711.689	-200.000	-0.015	-0.517
-710.675	-200.000	0.034	-0.329
-709.660	-127.597	0.085	0.013
-708.645	800.000	-0.047	-0.155
-707.631	181.951	0.084	0.126
-706.616	671.367	-0.063	0.165
-705.602	-75.686	-0.174	-0.063
-704.587	800.000	0.071	0.278
-703.572	-72.299	0.082	-0.031
-702.558	80.647	-0.034	0.037
-701.543	-200.000	0.048	0.369
-700.529	257.285	0.172	-0.301
-699.514	32.632	0.028	-0.025
-698.499	385.180	-0.044	-0.092
-697.485	-92.576	0.116	-0.033
-696.470	-135.348	0.345	0.042
-695.456	-179.324	0.095	-0.002
-694.441	25.606	0.091	-0.077
-693.426	-116.394	-0.549	-0.104
-692.412	-1.470	0.218	-0.157
-691.397	196.642	-0.082	-0.128
-690.383	776.444	0.054	-0.151
-689.368	755.128	-0.093	0.256
-688.354	-200.000	-0.012	-0.111
-687.339	-10.331	-0.210	-0.142
-686.324	703.534	-0.054	0.145
-685.310	800.000	0.080	0.244
-684.295	-42.026	-0.080	-0.042
-683.281	-200.000	-0.049	-0.284
-682.266	-200.000	-0.149	-0.666
-681.251	106.053	-0.220	-0.265
-680.237	-200.000	0.383	0.002
-679.222	109.631	-0.082	-0.100
-678.208	66.904	-0.164	0.171
-677.193	-200.000	-0.019	-0.141
-676.178	-34.950	-0.208	-0.115
-675.164	120.490	0.188	0.238
-674.149	356.992	0.094	-0.191
-673.135	79.951	0.178	-0.194
-672.120	103.083	-0.098	-0.117
-671.105	156.379	0.129	-0.181
-670.091	-200.000	0.061	-0.350
-669.076	283.271	-0.139	-0.253
-668.062	12.760	0.065	0.051
-667.047	-200.000	-0.003	0.043
-666.032	-130.630	-0.270	-0.037
-665.018	800.000	-0.065	-0.290
-664.003	20.320	0.122	-0.100
-662.989	-200.000	-0.053	0.320
-661.974	-92.601	-0.196	-0.056
-660.959	617.154	0.110	-0.281
-659.945	103.635	0.162	-0.193
-658.930	800.000	0.062	-0.230
-657.916	204.462	0.122	0.193
-656.901	-21.912	-0.155	0.096
-655.886	431.210	-0.101	0.223
-654.872	-87.831	-0.155	0.047
-653.857	15.672	-0.158	-0.126
-652.843	-90.576	0.156	0.046
-651.828	-129.739	0.187	0.026
-650.814	-124.574	0.153	-0.024
-649.799	19.550	0.115	0.094
-648.784	-149.078	-0.146	0.012
-647.770	91.387	0.086	0.098
-646.755	800.000	0.022	0.073
-645.741	-142.471	-0.140	0.014
-644.726	-29.910	-0.406	-0.235
-643.711	800.000	-0.023	-0.081
-642.697	-53.154	-0.169	-0.079
-641.682	-39.909	-0.266	-0.141
-640.668	12.387	0.237	-0.186
-639.653	-200.000	0.004	0.376
-638.638	1.492	-0.131	-0.096
-637.624	288.309	-0.059	0.109
-636.609	800.000	-0.097	-0.335
-635.595	-20.756	-0.182	0.114
-634.580	24.713	0.089	-0.075
-633.565	-61.301	-0.102	0.044
-632.551	220.516	0.060	0.098
-631.536	-192.514	-0.226	0.002
-630.522	-23.527	-0.358	0.219
-629.507	-200.000	-0.038	-0.264
-628.492	-5.879	0.190	0.132
-627.478	521.484	0.015	0.036
-626.463	139.535	-0.111	-0.149
-625.449	244.281	0.108	0.185
-624.434	-200.000	0.009	0.173
-623.419	-200.000	0.018	0.193
-622.405	-26.111	-0.173	0.103
-621.390	-3.775	-0.059	-0.041
-620.376	784.372	0.036	-0.100
-619.361	-46.187	0.073	0.036
-618.346	-200.000	0.030	0.394
-617.332	-71.187	0.149	0.057
-616.317	27.764	0.151	-0.129
-615.303	-88.207	-0.188	-0.057
-614.288	437.548	0.180	-0.398
-613.273	411.494	0.207	-0.447
-612.259	14.183	-0.285	-0.226
-611.244	191.225	0.201	0.308
-610.230	-147.911	0.383	0.032
-609.215	800.000	0.051	0.168
-608.201	103.045	0.118	-0.141
-607.186	-14.112	-0.226	-0.148
-606.171	-36.683	-0.304	-0.166
-605.157	42.732	0.213	0.197
-604.142	235.872	0.057	0.095
-603.128	170.586	-0.195	0.284
-602.113	-200.000	0.000	-0.108
-601.098	169.427	-0.307	0.446
-600.084	230.430	-0.115	0.192
-599.069	-134.926	0.037	0.005
-598.055	128.239	0.113	-0.147
-597.040	-123.263	-0.182	0.030
-596.025	167.677	-0.099	-0.143
-595.011	-83.774	0.211	0.068
-593.996	-200.000	0.013	0.177
-592.982	-120.911	-0.057	0.010
-591.967	-69.187	0.104	0.041
-590.952	800.000	0.008	0.029
-589.938	-11.589	0.251	-0.168
-588.923	-37.189	-0.171	-0.093
-587.909	12.280	0.156	-0.122
-586.894	570.176	-0.059	-0.146
-585.879	-200.000	0.098	0.533
-584.865	-26.569	-0.293	-0.174
-583.850	800.000	-0.044	-0.166
-582.836	800.000	0.007	-0.024
-581.821	-200.000	-0.048	-0.271
-580.806	-24.645	0.425	0.256
-579.792	100.604	-0.249	-0.293
-578.777	-200.000	0.014	-0.162
-577.763	212.481	-0.155	-0.248
-576.748	19.410	-0.184	0.150
-575.733	800.000	-0.076	-0.307
-574.719	5.253	-0.208	-0.156
-573.704	-200.000	-0.079	0.000
-572.690	-36.708	0.129	0.070
-571.675	498.066	0.108	-0.251
-570.661	-200.000	-0.066	-0.514
-569.646	518.000	0.061	0.146
-568.631	-46.250	0.380	0.189
-567.617	146.094	0.015	0.021
-566.602	-200.000	-0.040	-0.441
-565.588	-200.000	0.005	-0.094
-564.573	800.000	0.041	-0.124
-563.558	-42.650	-0.071	-0.037
-562.544	-98.316	0.202	0.052
-561.529	10.408	-0.171	0.132
-560.515	390.019	-0.012	0.025
-559.500	-99.777	-0.335	0.085
-558.485	-81.356	-0.312	-0.104
-557.471	-52.422	-0.206	-0.097
-556.456	181.784	-0.021	0.031
-555.442	800.000	-0.057	-0.206
-554.427	-32.060	-0.141	-0.080
-553.412	117.060	0.137	0.171
-552.398	95.677	-0.152	-0.176
-551.383	-80.030	-0.066	-0.022
-550.369	-125.118	0.155	-0.024
-549.354	-15.955	0.176	-0.113
-548.339	-31.965	0.208	0.118
-547.325	-148.660	-0.269	0.022
-546.310	-200.000	0.029	0.223
-545.296	-160.240	0.473	0.026
-544.281	104.124	0.108	-0.128
-543.266	-46.364	0.298	-0.148
-542.252	-13.196	-0.128	-0.084
-541.237	800.000	-0.102	0.361
-540.223	379.331	-0.118	-0.245
-539.208	-200.000	0.074	0.351
-538.193	269.408	-0.132	0.235
-537.179	48.882	-0.102	-0.097
-536.164	-77.388	0.251	0.088
-535.150	576.366	0.088	0.219
-534.135	-65.332	0.085	0.035
-533.121	-22.783	0.257	-0.157
-532.106	-114.882	-0.199	0.038
-531.091	-57.783	0.233	0.103
-530.077	-200.000	-0.020	-0.144
-529.062	800.000	-0.066	0.251
-528.048	388.780	0.117	0.244
-527.033	-38.589	0.081	-0.043
-526.018	-51.551	-0.218	0.103
-525.004	19.792	0.129	0.105
-523.989	-88.599	-0.048	-0.014
-522.975	-162.959	0.141	0.007
-521.960	-94.929	-0.244	0.067
-520.945	-200.000	-0.045	-0.272
-519.931	-200.000	-0.041	-0.187
-518.916	-200.000	0.008	0.045
-517.902	800.000	-0.032	-0.100
-516.887	5.554	-0.191	-0.143
-515.872	-27.403	0.271	-0.159
-514.858	-142.043	-0.088	-0.009
-513.843	-92.107	-0.348	-0.100
-512.829	-2.910	-0.197	0.139
-511.814	-64.408	-0.078	0.032
-510.799	-131.185	-0.163	0.022
-509.785	41.685	-0.287	0.263
-508.770	-176.468	-0.037	0.001
-507.756	224.029	-0.132	-0.216
-506.741	-124.971	0.139	-0.022
-505.726	412.510	-0.143	-0.308
-504.712	-94.632	-0.041	-0.011
-503.697	71.595	0.295	0.310
-502.683	214.895	-0.101	-0.162
-501.668	-200.000	0.007	-0.386
-500.653	-36.128	0.280	-0.153
-499.639	-119.614	0.290	-0.051
-498.624	-20.166	-0.099	-0.062
-497.610	-143.323	-0.152	0.015
-496.595	436.203	0.125	-0.276
-495.581	42.986	0.080	-0.074
-494.566	-119.883	-0.385	-0.067
-493.551	-85.491	0.314	0.099
-492.537	9.647	-0.083	0.064
-491.522	-141.023	-0.261	-0.027
-490.508	37.846	-0.158	-0.142
-489.493	800.000	0.060	-0.217
-488.478	32.972	-0.230	-0.201
-487.464	-122.465	0.236	-0.039
-486.449	-200.000	-0.042	-0.233
-485.435	465.449	-0.177	0.401
-484.420	70.956	-0.159	-0.167
-483.405	-200.000	-0.016	-0.319
-482.391	512.097	0.128	-0.302
-481.376	26.480	-0.047	-0.040
-480.362	800.000	-0.070	0.202
-479.347	-200.000	-0.009	-0.185
-478.332	-67.055	0.204	-0.081
-477.318	-17.442	0.188	0.120
-476.303	178.682	0.271	0.400
-475.289	310.256	0.032	0.061
-474.274	586.312	0.160	0.398
-473.259	618.726	0.149	0.378
-472.245	800.000	0.044	0.182
-471.230	10.530	-0.179	-0.138
-470.216	165.030	0.050	-0.072
-469.201	68.496	0.226	-0.234
-468.186	800.000	-0.041	-0.165
-467.172	13.174	0.066	-0.052
-466.157	-67.897	0.190	0.075
-465.143	-200.000	-0.025	0.486
-464.128	-128.940	0.134	-0.019
-463.113	-200.000	-0.006	-0.169
-462.099	153.936	-0.120	0.166
-461.084	-200.000	0.026	-0.164
-460.070	800.000	0.069	-0.252
-459.055	-111.763	0.115	0.024
-458.040	-200.000	0.002	0.044
-457.026	154.035	-0.117	0.162
-456.011	-132.833	-0.219	0.028
-454.997	-68.266	-0.211	-0.083
-453.982	-200.000	-0.017	0.355
-452.968	-4.670	0.190	-0.132
-451.953	115.386	-0.121	-0.150
-450.938	329.322	-0.196	-0.381
-449.924	131.825	-0.323	-0.420
-448.909	-29.946	0.200	-0.115
-447.895	225.922	0.088	-0.144
-446.880	-200.000	0.007	0.337
-445.865	-20.398	-0.186	0.116
-444.851	-173.011	-0.198	-0.006
-443.836	800.000	0.033	-0.093
-442.822	398.437	0.038	-0.080
-441.807	315.233	-0.088	-0.167
-440.792	-20.024	0.160	-0.100
-439.778	-200.000	-0.003	-0.133
-438.763	667.693	-0.044	-0.115
-437.749	800.000	0.057	0.200
-436.734	-148.390	0.071	0.006
-435.719	77.558	0.189	-0.203
-434.705	-100.122	-0.138	-0.035
-433.690	800.000	-0.073	0.258
-432.676	-200.000	-0.013	-0.135
-431.661	-123.116	0.081	0.013
-430.646	101.390	-0.112	0.132
-429.632	-67.259	-0.070	0.028
-428.617	1.545	-0.144	0.104
-427.603	-102.873	0.193	-0.046
-426.588	121.843	-0.066	0.083
-425.573	-58.877	0.176	-0.077
-424.559	267.851	0.134	-0.237
-423.544	800.000	-0.057	0.177
-422.530	-5.389	0.031	0.021
-421.515	-117.230	0.168	0.031
-420.500	6.664	0.241	0.181
-419.486	286.130	-0.119	0.216
-418.471	163.230	0.113	0.160
-417.457	0.204	0.077	0.055
-416.442	-40.514	-0.302	0.158
-415.428	158.572	-0.125	-0.175
-414.413	401.769	0.026	-0.055
-413.398	363.128	0.085	-0.173
-412.384	800.000	-0.055	-0.223
-411.369	-52.690	0.160	0.074
-410.355	-111.599	-0.145	-0.030
-409.340	156.553	0.073	-0.102
-408.325	154.498	-0.089	0.123
-407.311	-156.195	0.141	-0.009
-406.296	141.058	-0.175	0.233
-405.282	-48.806	0.217	0.105
-404.267	-58.557	-0.219	-0.096
-403.252	-152.225	-0.149	-0.011
-402.238	-154.094	0.594	-0.041
-401.223	-116.034	-0.174	-0.033
-400.209	-200.000	0.042	0.232
-399.194	313.107	-0.041	0.077
-398.179	296.524	-0.074	0.137
-397.165	-50.264	-0.248	0.118
-396.150	-126.935	0.290	0.043
-395.136	-200.000	0.016	-0.386
-394.121	800.000	0.066	0.203
-393.106	396.237	-0.133	0.280
-392.092	800.000	0.082	-0.287
-391.077	17.698	-0.151	-0.121
-390.063	82.559	-0.131	-0.143
-389.048	-84.225	0.191	0.061
-388.033	220.283	0.081	0.131
-387.019	278.203	0.172	0.309
-386.004	-73.863	0.204	0.075
-384.990	-104.576	-0.125	0.029
-383.975	-200.000	0.012	-0.168
-382.960	-200.000	-0.020	0.109
-381.946	-154.428	-0.150	0.010
-380.931	-158.990	-0.084	-0.005
-379.917	9.314	-0.078	-0.059
-378.902	328.807	-0.112	-0.217
-377.888	59.430	-0.139	-0.138
-376.873	74.933	0.175	-0.186
-375.858	384.514	-0.219	-0.454
-374.844	12.825	0.367	0.285
-373.829	91.789	0.083	0.094
-372.815	800.000	-0.081	-0.325
-371.800	-200.000	0.003	0.216
-370.785	-200.000	0.012	0.192
-369.771	-87.092	-0.190	0.058
-368.756	29.471	-0.088	-0.076
-367.742	-65.563	-0.050	0.020
-366.727	-200.000	0.034	-0.345
-365.712	240.097	-0.101	-0.169
-364.698	-149.027	-0.208	0.017
-363.683	-45.149	0.165	-0.083
-362.669	-200.000	0.003	-0.046
-361.654	-146.827	0.220	0.019
-360.639	-91.716	0.323	0.093
-359.625	-159.340	0.415	0.023
-358.610	206.937	0.154	0.242
-357.596	-113.156	0.114	-0.023
-356.581	324.057	-0.071	-0.137
-355.566	-30.234	-0.175	0.100
-354.552	800.000	0.107	0.435
-353.537	-9.307	0.249	-0.168
-352.523	-68.552	-0.262	0.102
-351.508	-45.767	-0.310	0.154
-350.493	-71.757	0.129	0.048
-349.479	800.000	0.079	0.338
-348.464	-200.000	0.020	-0.134
-347.450	-32.485	0.059	0.033
-346.435	-73.744	-0.031	-0.011
-345.420	-145.936	-0.061	-0.005
-344.406	-162.358	-0.408	0.020
-343.391	-200.000	-0.025	-0.208
-342.377	252.422	-0.110	0.188
-341.362	-175.797	0.290	-0.008
-340.348	-169.571	-0.278	0.010
-339.333	-172.497	0.174	0.006
-338.318	-200.000	-0.013	0.168
-337.304	-117.340	0.243	0.044
-336.289	-200.000	0.001	-0.453
-335.275	-17.472	-0.212	-0.134
-334.260	321.272	0.099	0.190
-333.245	-0.094	-0.094	-0.068
-332.231	207.225	0.067	-0.106
-331.216	-87.255	-0.187	0.057
-330.202	33.948	0.109	0.095
-329.187	-110.689	0.269	0.056
-328.172	188.876	0.155	0.233
-327.158	72.803	-0.274	-0.287
-326.143	-172.638	-0.359	0.011
-325.129	21.728	0.099	-0.081
-324.114	-24.222	0.193	0.116
-323.099	-86.155	-0.439	0.136
-322.085	-19.231	-0.256	-0.160
-321.070	-149.544	0.436	0.035
-320.056	-80.951	-0.266	0.089
-319.041	557.163	0.023	0.056
-318.026	-44.409	0.155	0.078
-317.012	-200.000	0.019	0.157
-315.997	303.749	-0.132	0.245
-314.983	594.819	0.165	-0.410
-313.968	-100.571	0.036	0.009
-312.953	272.027	0.008	-0.014
-311.939	210.249	0.130	0.205
-310.924	7.056	-0.232	0.174
-309.910	-200.000	0.175	0.001
-308.895	-151.780	-0.311	0.023
-307.880	24.779	-0.210	-0.175
-306.866	-143.861	-0.104	0.010
-305.851	800.000	-0.094	0.311
-304.837	51.071	0.071	-0.068
-303.822	-200.000	0.001	-0.044
-302.807	-200.000	-0.001	0.154
-301.793	-82.524	-0.385	-0.125
-300.778	-35.365	0.090	0.049
-299.764	42.837	-0.233	-0.213
-298.749	28.304	0.200	0.170
-297.735	800.000	0.078	-0.263
-296.720	700.297	0.083	0.219
-295.705	-96.992	0.140	-0.037
-294.691	364.934	-0.165	-0.334
-293.676	304.806	0.146	-0.272
-292.662	-200.000	-0.022	-0.105
-291.647	-126.515	-0.251	0.037
-290.632	-200.000	0.047	0.223
-289.618	-200.000	-0.048	-0.214
-288.603	-116.868	0.492	-0.090
-287.589	-200.000	0.080	-0.389
-286.574	-117.678	0.155	0.028
-285.559	-200.000	-0.064	-0.374
-284.545	-200.000	-0.015	-0.351
-283.530	-77.462	-0.167	-0.058
-282.516	-43.858	-0.296	-0.149
-281.501	2.079	0.139	-0.101
-280.486	40.860	-0.044	0.040
-279.472	15.330	0.203	0.160
-278.457	193.147	-0.107	0.163
-277.443	-200.000	-0.047	0.360
-276.428	264.748	0.086	-0.151
-275.413	-138.439	-0.253	-0.028
-274.399	-183.694	-0.594	-0.010
-273.384	800.000	-0.021	-0.066
-272.370	-28.133	-0.103	0.060
-271.355	800.000	0.023	-0.079
-270.340	396.583	0.032	0.068
-269.326	122.318	0.241	0.302
-268.311	800.000	-0.046	0.182
-267.297	415.039	0.112	0.239
-266.282	-147.124	0.039	0.003
-265.267	464.341	-0.117	0.263
-264.253	-200.000	0.013	-0.103
-263.238	101.873	-0.080	-0.093
-262.224	-3.220	-0.348	-0.243
-261.209	-112.655	0.271	-0.054
-260.195	23.259	0.142	-0.117
-259.180	207.438	-0.076	0.118
-258.165	333.984	-0.078	-0.151
-257.151	114.151	0.194	-0.237
-256.136	-110.169	0.409	-0.086
-255.122	-57.951	0.363	-0.159
-254.107	-200.000	-0.057	-0.346
-253.092	-87.734	0.144	-0.043
-252.078	-109.354	0.367	0.078
-251.063	77.565	0.037	0.040
-250.049	-200.000	0.190	0.000
-249.034	29.626	0.190	-0.162
-248.019	-19.356	0.321	-0.200
-247.005	-89.341	-0.184	-0.054
-245.990	-52.212	-0.182	0.085
-244.976	-76.920	-0.160	-0.056
-243.961	-200.000	-0.034	0.335
-242.946	-70.077	0.237	0.090
-241.932	40.053	-0.043	0.039
-240.917	267.274	0.024	-0.042
-239.903	48.787	0.288	0.270
-238.888	-0.230	-0.175	0.125
-237.873	293.083	-0.185	0.338
-236.859	106.000	0.155	-0.184
-235.844	53.820	0.156	-0.150
-234.830	28.613	0.191	0.162
-233.815	-58.407	0.215	0.094
-232.800	-115.065	-0.198	-0.038
-231.786	-200.000	0.015	0.128
-230.771	20.994	-0.201	-0.163
-229.757	212.713	0.131	-0.207
-228.742	58.309	-0.161	-0.158
-227.727	449.564	0.130	0.286
-226.713	714.248	0.076	0.202
-225.698	-36.440	0.115	-0.062
-224.684	-100.008	0.218	0.054
-223.669	352.640	0.112	0.222
-222.655	51.351	0.109	-0.104
-221.640	-156.536	0.320	0.020
-220.625	277.105	0.203	0.361
-219.611	-81.482	-0.092	0.030
-218.596	214.701	0.039	-0.063
-217.582	369.242	0.015	0.030
-216.567	800.000	0.087	0.259
-215.552	-67.904	-0.534	0.209
-214.538	-200.000	-0.012	0.244
-213.523	-200.000	-0.001	-0.044
-212.509	-200.000	0.041	-0.240
-211.494	252.057	-0.131	0.224
-210.479	-57.414	0.053	-0.023
-209.465	-200.000	0.082	0.418
-208.450	-200.000	0.004	0.222
-207.436	-200.000	0.003	0.083
-206.421	-200.000	0.040	0.294
-205.406	-200.000	-0.038	-0.291
-204.392	-200.000	-0.075	0.392
-203.377	-85.128	0.303	0.095
-202.363	800.000	-0.058	0.241
-201.348	33.197	0.181	0.157
-200.333	145.098	-0.060	0.081
-199.319	-94.601	0.517	-0.141
-198.304	-71.357	0.143	0.054
-197.290	115.352	-0.084	0.103
-196.275	-200.000	-0.091	0.520
-195.260	-151.845	-0.181	-0.013
-194.246	-4.807	-0.185	0.127
-193.231	424.137	0.104	-0.224
-192.217	800.000	0.100	-0.343
-191.202	800.000	-0.102	-0.295
-190.187	800.000	0.058	0.237
-189.173	66.759	0.138	-0.140
-188.158	-182.962	0.229	0.004
-187.144	-109.892	0.227	-0.048
-186.129	116.517	0.159	0.195
-185.114	-27.580	-0.266	-0.154
-184.100	-200.000	0.019	0.248
-183.085	-81.447	-0.131	0.043
-182.071	-196.983	0.287	0.002
-181.056	800.000	-0.089	0.257
-180.042	800.000	-0.055	-0.214
-179.027	57.126	-0.099	-0.097
-178.012	-172.100	-0.081	0.003
-176.998	-45.358	0.150	0.074
-175.983	-200.000	-0.006	-0.042
-174.969	-108.603	0.156	-0.033
-173.954	339.735	0.035	-0.067
-172.939	-200.000	-0.018	-0.191
-171.925	379.512	-0.074	0.150
-170.910	800.000	-0.077	-0.305
-169.896	800.000	0.058	-0.175
-168.881	763.389	-0.082	0.221
-167.866	-73.955	0.356	-0.129
-166.852	-128.552	-0.154	0.022
-165.837	118.220	0.143	0.176
-164.823	-200.000	0.021	0.125
-163.808	95.196	-0.009	0.010
-162.793	-111.965	-0.540	-0.109
-161.779	-103.492	-0.442	-0.104
-160.764	-200.000	0.018	0.158
-159.750	-153.015	-0.170	-0.012
-158.735	-200.000	-0.034	-0.167
-157.720	457.220	-0.074	0.163
-156.706	-32.822	0.121	0.067
-155.691	-200.000	0.046	0.258
-154.677	309.767	-0.135	0.252
-153.662	466.333	-0.093	0.208
-152.647	-37.115	-0.105	-0.056
-151.633	240.658	0.142	-0.236
-150.618	-200.000	-0.051	0.223
-149.604	-145.425	0.343	-0.031
-148.589	102.594	-0.033	0.039
-147.574	25.296	-0.168	-0.139
-146.560	287.897	0.012	0.021
-145.545	-200.000	0.051	-0.237
-144.531	-200.000	0.004	0.281
-143.516	132.586	0.060	0.078
-142.502	800.000	-0.043	0.153
-141.487	678.280	-0.087	-0.226
-140.472	133.524	0.086	-0.112
-139.458	680.155	-0.049	-0.128
-138.443	306.913	0.113	0.209
-137.429	106.430	-0.181	-0.213
-136.414	-200.000	-0.011	-0.222
-135.399	184.658	0.112	-0.166
-134.385	800.000	-0.048	-0.163
-133.370	-95.877	-0.136	0.036
-132.356	60.650	0.074	-0.073
-131.341	-0.206	0.085	0.061
-130.326	-148.785	0.456	0.037
-129.312	-92.362	-0.044	-0.012
-128.297	-126.888	-0.192	-0.028
-127.283	-200.000	0.017	0.410
-126.268	800.000	0.113	-0.442
-125.253	-163.470	-0.212	0.010
-124.239	213.060	0.138	-0.218
-123.224	-83.028	-0.098	-0.031
-122.210	156.562	-0.223	-0.306
