DTS Sentinel unit serial number:	SN413079Multiplexer serial number:	ORYXHardware model number:	OX4-SRSoftware version number:	ORYX F/W v4.00 Oryx Data Collector v3.7.2.0data status	okinstallation	princeton_trtdifferential loss correction	single-endedforward channel	channel 1reverse channel	N/Adate	2019/09/15time	13:18:35forward acquisition time	60.00reverse acquisition time	0.00gamma	496.2192k internal	0.2294k external	0.2294temperature offset calibration	0.9974default loss term (dB/km)	0.3790temperature slope calibration	1.0000multiplexer offset coefficient	1.0000multiplexer slope coefficient	1.0000fibre end	0.00T internal ref (°C)	37.20T ext. ref 1 (°C)	4.93T ext. ref 2 (°C)	34.55length (m)	temperature (°C)	Stokes	anti-Stokes-747.200	800.000	-0.015	0.064
-746.185	40.773	0.308	0.284
-745.171	-21.601	0.130	0.081
-744.156	-50.275	-0.115	-0.056
-743.142	97.521	0.244	-0.287
-742.127	-35.354	-0.127	-0.070
-741.112	-200.000	0.001	-0.288
-740.098	170.012	0.160	0.234
-739.083	221.163	0.201	-0.330
-738.069	800.000	-0.029	-0.127
-737.054	98.245	0.143	0.169
-736.039	-23.946	0.122	-0.074
-735.025	800.000	-0.052	-0.147
-734.010	-200.000	0.012	-0.167
-732.996	-200.000	-0.054	-0.355
-731.981	168.058	0.062	-0.090
-730.966	-32.872	-0.058	0.033
-729.952	-135.821	-0.150	-0.018
-728.937	19.819	-0.284	0.234
-727.923	70.715	0.146	-0.155
-726.908	52.243	-0.129	-0.126
-725.894	503.648	-0.131	0.311
-724.879	-84.179	0.268	0.087
-723.864	-200.000	-0.040	-0.359
-722.850	10.373	-0.171	-0.133
-721.835	-14.316	0.062	0.041
-720.821	-69.196	-0.433	-0.170
-719.806	-200.000	0.015	-0.090
-718.791	273.697	-0.147	-0.266
-717.777	-138.753	-0.088	0.010
-716.762	-140.535	-0.104	-0.011
-715.748	-2.632	-0.280	-0.200
-714.733	352.455	-0.069	0.140
-713.718	-74.403	0.149	-0.055
-712.704	800.000	-0.086	0.374
-711.689	800.000	0.050	-0.181
-710.675	-30.253	-0.179	0.104
-709.660	140.444	0.094	0.126
-708.645	-132.104	0.106	0.014
-707.631	800.000	0.068	0.210
-706.616	-69.516	0.168	-0.066
-705.602	-200.000	-0.004	-0.230
-704.587	68.890	-0.150	0.157
-703.572	-87.064	0.258	-0.080
-702.558	-106.090	0.333	0.076
-701.543	10.941	0.311	-0.243
-700.529	-78.434	0.159	-0.055
-699.514	-82.889	0.146	-0.048
-698.499	-200.000	-0.032	-0.257
-697.485	-133.039	0.227	0.029
-696.470	187.096	-0.081	0.124
-695.456	325.436	-0.214	0.418
-694.441	-67.573	0.147	0.059
-693.426	-193.180	0.197	0.002
-692.412	-200.000	-0.014	0.269
-691.397	732.544	-0.098	-0.267
-690.383	72.263	0.022	0.023
-689.368	-11.742	0.334	-0.223
-688.354	365.897	0.144	0.297
-687.339	-67.902	-0.142	0.056
-686.324	-200.000	-0.009	0.050
-685.310	206.181	-0.087	0.137
-684.295	117.415	0.207	0.259
-683.281	359.204	0.171	0.350
-682.266	-81.667	0.186	0.062
-681.251	-200.000	0.036	0.271
-680.237	-200.000	0.020	-0.101
-679.222	-200.000	-0.009	-0.106
-678.208	36.746	0.162	-0.146
-677.193	-200.000	-0.033	-0.634
-676.178	624.048	-0.076	-0.195
-675.164	-200.000	0.023	-0.115
-674.149	-121.227	-0.180	-0.031
-673.135	-52.741	-0.166	-0.078
-672.120	88.021	-0.211	-0.238
-671.105	-200.000	0.007	-0.070
-670.091	-56.387	-0.104	0.047
-669.076	-32.667	-0.087	-0.050
-668.062	267.136	0.171	0.305
-667.047	-111.019	0.158	0.033
-666.032	239.614	-0.096	-0.163
-665.018	24.911	0.147	0.124
-664.003	-80.500	-0.200	-0.068
-662.989	495.117	-0.066	-0.155
-661.974	-200.000	-0.028	-0.437
-660.959	443.936	-0.046	-0.103
-659.945	387.949	0.045	-0.094
-658.930	-195.689	0.242	-0.002
-657.916	-50.838	-0.349	-0.167
-656.901	31.597	0.163	0.142
-655.886	493.018	-0.077	0.180
-654.872	-200.000	-0.016	-0.094
-653.857	14.232	-0.382	-0.303
-652.843	-200.000	-0.047	-0.244
-651.828	356.078	0.132	-0.267
-650.814	-104.887	-0.149	-0.035
-649.799	800.000	-0.035	0.141
-648.784	800.000	0.031	-0.089
-647.770	-200.000	-0.004	-0.405
-646.755	-200.000	-0.012	-0.153
-645.741	-130.335	0.188	-0.026
-644.726	-63.841	0.203	-0.085
-643.711	-109.005	0.190	-0.041
-642.697	-200.000	0.027	-0.189
-641.682	-30.616	0.306	0.176
-640.668	-38.057	0.160	-0.087
-639.653	-92.201	-0.186	-0.054
-638.638	-2.305	-0.089	-0.064
-637.624	-113.948	0.208	-0.041
-636.609	800.000	0.084	-0.257
-635.595	-73.767	-0.140	-0.052
-634.580	-165.221	-0.258	-0.012
-633.565	5.440	-0.068	-0.051
-632.551	-200.000	0.008	0.210
-631.536	-64.338	-0.153	-0.063
-630.522	-141.800	0.403	-0.041
-629.507	-200.000	-0.058	0.402
-628.492	-77.892	-0.321	0.113
-627.478	-200.000	-0.045	-0.325
-626.463	-29.780	-0.052	0.030
-625.449	316.113	-0.018	0.035
-624.434	800.000	-0.032	-0.126
-623.419	800.000	0.018	-0.075
-622.405	-105.372	-0.185	0.043
-621.390	41.639	-0.207	-0.191
-620.376	181.951	0.154	0.231
-619.361	800.000	-0.057	0.178
-618.346	-113.480	-0.157	0.031
-617.332	-200.000	-0.027	-0.128
-616.317	-11.179	-0.193	0.130
-615.303	-44.647	-0.234	0.119
-614.288	-200.000	0.043	-0.250
-613.273	-7.607	0.201	-0.139
-612.259	-26.181	0.090	0.054
-611.244	-117.442	0.197	-0.036
-610.230	-30.447	-0.103	-0.059
-609.215	-200.000	-0.019	-0.357
-608.201	211.317	0.078	-0.125
-607.186	-110.434	-0.299	-0.063
-606.171	569.904	0.148	0.367
-605.157	63.748	-0.253	-0.258
-604.142	-54.445	-0.402	0.185
-603.128	6.699	0.105	0.079
-602.113	116.982	-0.077	0.096
-601.098	-19.796	0.120	0.076
-600.084	-200.000	0.013	0.141
-599.069	36.583	0.213	0.191
-598.055	-113.935	-0.212	0.042
-597.040	-130.865	0.210	0.029
-596.025	-137.539	0.177	-0.020
-595.011	-126.787	0.446	-0.067
-593.996	85.611	-0.154	0.172
-592.982	-4.463	-0.171	0.120
-591.967	-67.177	0.206	-0.082
-590.952	30.996	0.215	0.188
-589.938	80.790	0.085	0.093
-588.923	-111.994	0.036	0.007
-587.909	-200.000	-0.041	-0.251
-586.894	800.000	-0.110	0.317
-585.879	800.000	-0.060	-0.223
-584.865	-81.607	0.268	0.090
-583.850	-200.000	0.024	0.114
-582.836	757.204	-0.047	-0.129
-581.821	41.725	-0.269	0.248
-580.806	374.241	-0.050	-0.104
-579.792	-33.463	-0.122	0.069
-578.777	-21.793	-0.120	0.074
-577.763	-99.957	0.088	0.022
-576.748	-29.536	-0.281	-0.163
-575.733	-198.175	-0.150	0.001
-574.719	-200.000	-0.033	0.160
-573.704	143.232	0.224	0.303
-572.690	94.428	0.020	-0.023
-571.675	76.442	0.114	-0.123
-570.661	-130.944	-0.503	0.068
-569.646	619.773	-0.087	-0.222
-568.631	800.000	-0.043	0.126
-567.617	-12.530	0.150	-0.100
-566.602	800.000	0.027	-0.108
-565.588	-160.333	0.201	0.011
-564.573	-1.711	0.019	0.013
-563.558	-89.772	0.507	-0.151
-562.544	99.957	0.176	-0.207
-561.529	-50.014	-0.173	-0.083
-560.515	477.271	-0.042	-0.096
-559.500	-200.000	0.006	0.205
-558.485	34.135	0.232	-0.205
-557.471	-148.686	-0.279	0.023
-556.456	-62.402	0.156	0.066
-555.442	-150.743	-0.439	0.034
-554.427	-200.000	-0.029	0.145
-553.412	-137.365	-0.422	0.049
-552.398	-47.914	0.115	-0.057
-551.383	-200.000	0.023	-0.168
-550.369	432.296	0.203	-0.448
-549.354	-5.997	-0.246	-0.171
-548.339	-200.000	0.033	0.306
-547.325	-200.000	0.050	0.295
-546.310	-200.000	-0.058	-0.263
-545.296	6.069	0.206	-0.155
-544.281	-200.000	0.023	0.251
-543.266	-200.000	-0.019	-0.181
-542.252	-200.000	-0.022	-0.318
-541.237	38.411	0.115	0.104
-540.223	-74.406	-0.132	-0.048
-539.208	800.000	-0.009	-0.034
-538.193	-200.000	-0.030	0.246
-537.179	-107.584	0.130	-0.029
-536.164	-32.660	-0.288	-0.163
-535.150	-41.916	-0.046	0.024
-534.135	380.017	-0.081	-0.169
-533.121	800.000	-0.071	0.198
-532.106	-150.650	-0.318	-0.025
-531.091	-121.142	-0.145	-0.025
-530.077	800.000	0.066	0.260
-529.062	15.345	-0.144	0.115
-528.048	-23.715	0.121	0.073
-527.033	-76.345	-0.135	0.048
-526.018	-57.284	-0.171	0.076
-525.004	-132.306	0.283	0.037
-523.989	269.655	0.109	-0.195
-522.975	59.996	0.163	-0.163
-521.960	425.974	0.126	-0.276
-520.945	-47.491	0.144	0.071
-519.931	167.325	-0.072	0.104
-518.916	-200.000	0.047	0.297
-517.902	700.340	0.061	0.163
-516.887	-61.084	-0.354	0.151
-515.872	68.326	0.168	0.174
-514.858	-129.711	-0.129	-0.018
-513.843	-95.677	0.174	-0.047
-512.829	265.211	-0.078	0.137
-511.814	354.366	-0.149	0.299
-510.799	88.287	0.011	0.013
-509.785	225.707	0.203	-0.333
-508.770	-200.000	0.060	-0.284
-507.756	206.549	0.246	-0.388
-506.741	800.000	0.054	-0.157
-505.726	-64.062	0.059	-0.024
-504.712	31.855	-0.165	0.144
-503.697	393.111	0.096	-0.203
-502.683	-12.638	0.211	0.140
-501.668	-113.991	-0.177	0.035
-500.653	-200.000	-0.038	-0.185
-499.639	-82.468	-0.216	0.071
-498.624	-61.770	-0.099	0.042
-497.610	396.927	-0.083	-0.177
-496.595	462.182	0.093	-0.211
-495.581	44.989	-0.256	-0.239
-494.566	-69.526	-0.308	0.119
-493.551	-52.149	0.155	0.073
-492.537	403.025	-0.074	-0.158
-491.522	-83.214	0.127	0.041
-490.508	-51.758	-0.250	0.118
-489.493	-102.287	-0.203	0.049
-488.478	661.556	-0.140	-0.365
-487.464	-103.338	-0.188	-0.045
-486.449	-133.087	-0.142	-0.018
-485.435	0.026	0.364	-0.262
-484.420	-200.000	-0.027	-0.179
-483.405	800.000	0.067	-0.257
-482.391	-130.731	-0.199	0.027
-481.376	112.461	-0.107	0.131
-480.362	-46.380	0.269	-0.134
-479.347	-183.774	-0.256	0.004
-478.332	-3.593	0.235	0.165
-477.318	-129.573	-0.301	0.042
-476.303	298.169	-0.036	0.068
-475.289	-162.603	-0.333	0.017
-474.274	104.060	0.048	-0.057
-473.259	72.350	0.167	-0.176
-472.245	149.382	0.127	0.174
-471.230	-76.131	0.103	-0.037
-470.216	32.556	0.136	0.119
-469.201	-175.028	0.118	-0.003
-468.186	-62.037	-0.212	-0.090
-467.172	543.369	0.072	-0.175
-466.157	-92.375	-0.269	-0.077
-465.143	-200.000	0.020	-0.219
-464.128	-200.000	-0.001	0.160
-463.113	-35.100	-0.156	-0.086
-462.099	22.069	-0.249	-0.205
-461.084	-170.229	0.311	0.011
-460.070	-8.011	-0.143	-0.097
-459.055	800.000	0.120	0.391
-458.040	800.000	-0.037	-0.121
-457.026	767.755	0.020	-0.055
-456.011	32.068	0.174	0.152
-454.997	-163.011	0.214	0.010
-453.982	-26.919	0.118	0.070
-452.968	-200.000	0.042	0.417
-451.953	-119.068	0.328	0.058
-450.938	800.000	-0.006	0.020
-449.924	51.234	0.089	-0.085
-448.909	63.081	-0.156	0.158
-447.895	800.000	-0.061	0.197
-446.880	654.390	0.097	0.252
-445.865	-200.000	-0.008	0.159
-444.851	-200.000	0.029	-0.208
-443.836	503.405	-0.068	0.159
-442.822	121.539	-0.116	-0.145
-441.807	505.293	-0.132	-0.309
-440.792	678.290	-0.114	0.300
-439.778	28.235	0.296	0.253
-438.763	30.803	-0.245	-0.212
-437.749	-3.661	-0.140	0.099
-436.734	-171.132	0.485	0.017
-435.719	251.273	0.144	0.247
-434.705	-102.827	-0.346	-0.083
-433.690	-200.000	-0.022	0.133
-432.676	800.000	-0.033	0.122
-431.661	14.091	0.052	0.041
-430.646	98.003	0.073	0.085
-429.632	130.891	-0.295	-0.382
-428.617	179.653	-0.155	0.229
-427.603	800.000	0.097	-0.282
-426.588	107.935	-0.079	-0.096
-425.573	-93.782	0.280	-0.078
-424.559	-200.000	0.027	-0.294
-423.544	292.133	-0.075	-0.138
-422.530	-99.326	-0.244	0.062
-421.515	265.471	-0.121	-0.214
-420.500	-147.437	0.234	0.020
-419.486	-65.494	-0.420	-0.170
-418.471	142.079	-0.120	-0.160
-417.457	-86.206	-0.111	-0.034
-416.442	-200.000	0.050	0.317
-415.428	-11.345	0.087	-0.058
-414.413	-200.000	0.039	0.452
-413.398	-200.000	0.048	0.283
-412.384	800.000	0.027	0.081
-411.369	-56.918	0.398	0.178
-410.355	-200.000	0.016	0.331
-409.340	439.502	0.092	-0.203
-408.325	-10.405	-0.300	-0.201
-407.311	800.000	-0.028	0.088
-406.296	549.916	-0.122	-0.296
-405.282	287.854	-0.190	0.347
-404.267	7.306	0.245	0.184
-403.252	800.000	-0.058	-0.200
-402.238	65.378	0.143	-0.146
-401.223	59.854	-0.295	-0.294
-400.209	13.598	-0.360	-0.282
-399.194	-200.000	-0.071	0.391
-398.179	-200.000	-0.030	0.258
-397.165	226.087	0.070	-0.115
-396.150	-200.000	0.070	0.403
-395.136	-200.000	-0.014	0.084
-394.121	-197.811	-0.301	-0.002
-393.106	355.965	0.062	-0.124
-392.092	-171.028	-0.292	-0.010
-391.077	20.199	-0.241	0.196
-390.063	-200.000	-0.038	0.310
-389.048	105.875	0.044	0.052
-388.033	800.000	-0.106	-0.389
-387.019	23.640	0.308	-0.256
-386.004	38.531	-0.033	-0.029
-384.990	800.000	-0.052	0.187
-383.975	657.983	0.128	0.331
-382.960	41.924	-0.078	0.071
-381.946	564.209	-0.085	-0.208
-380.931	261.718	-0.018	-0.032
-379.917	-38.081	0.079	-0.042
-378.902	-169.688	-0.163	-0.006
-377.888	33.461	-0.239	-0.209
-376.873	800.000	0.109	0.327
-375.858	-176.650	-0.267	-0.007
-374.844	-37.392	0.394	0.212
-373.829	-200.000	0.001	0.057
-372.815	-136.855	0.250	0.029
-371.800	164.373	0.037	0.053
-370.785	246.697	0.123	-0.209
-369.771	800.000	-0.118	0.343
-368.756	-11.700	-0.033	-0.022
-367.742	-124.196	-0.105	-0.017
-366.727	14.343	0.138	-0.109
-365.712	-171.889	-0.116	0.004
-364.698	368.271	0.119	0.243
-363.683	49.918	-0.194	0.184
-362.669	782.825	-0.048	0.133
-361.654	-200.000	-0.069	0.392
-360.639	124.597	0.170	0.215
-359.625	-92.048	-0.137	-0.039
-358.610	-76.456	0.302	0.107
-357.596	-37.972	0.268	-0.143
-356.581	-200.000	0.047	0.223
-355.566	-11.742	-0.145	-0.096
-354.552	-130.391	0.138	0.019
-353.537	800.000	-0.083	0.332
-352.523	92.287	-0.128	0.145
-351.508	170.302	0.066	-0.095
-350.493	331.482	-0.080	-0.155
-349.479	-52.588	0.053	-0.024
-348.464	319.662	-0.111	-0.212
-347.450	-68.350	-0.214	0.084
-346.435	-200.000	-0.002	0.242
-345.420	106.029	0.040	0.047
-344.406	-64.560	0.290	-0.118
-343.391	57.303	-0.206	-0.203
-342.377	14.937	0.322	-0.254
-341.362	-153.925	0.332	-0.023
-340.348	19.754	-0.098	-0.080
-339.333	127.277	-0.037	-0.048
-338.318	556.563	0.126	-0.306
-337.304	-24.789	-0.134	-0.080
-336.289	800.000	-0.024	0.068
-335.275	-59.676	-0.097	0.042
-334.260	-114.483	-0.183	-0.035
-333.245	598.621	-0.060	0.149
-332.231	-200.000	-0.025	-0.456
-331.216	-200.000	0.018	0.145
-330.202	56.530	0.058	0.057
-329.187	-135.524	0.104	0.012
-328.172	-42.184	-0.059	-0.030
-327.158	800.000	0.048	-0.205
-326.143	71.244	-0.213	-0.223
-325.129	174.479	-0.057	0.082
-324.114	-187.840	-0.272	0.004
-323.099	455.223	-0.092	-0.206
-322.085	-200.000	0.007	-0.130
-321.070	54.470	0.277	0.268
-320.056	-39.602	-0.181	0.095
-319.041	-32.547	0.179	0.100
-318.026	82.935	-0.177	-0.193
-317.012	73.640	0.215	0.226
-315.997	-18.798	0.047	0.030
-314.983	-200.000	-0.003	0.045
-313.968	366.643	0.111	0.226
-312.953	93.937	0.309	0.352
-311.939	-200.000	0.166	0.733
-310.924	209.355	0.129	-0.203
-309.910	-24.872	-0.125	-0.075
-308.895	-43.670	0.014	-0.007
-307.880	30.127	0.309	-0.265
-306.866	800.000	0.077	-0.309
-305.851	-200.000	-0.292	0.000
-304.837	-200.000	0.011	0.144
-303.822	800.000	-0.034	0.105
-302.807	800.000	0.048	0.202
-301.793	-94.828	-0.386	0.105
-300.778	-200.000	0.009	0.161
-299.764	-30.387	0.182	0.104
-298.749	-29.861	-0.034	0.020
-297.735	642.680	0.050	-0.129
-296.720	-200.000	-0.010	0.077
-295.705	174.378	-0.106	-0.155
-294.691	-40.637	0.442	0.231
-293.676	-34.526	-0.045	0.025
-292.662	-62.861	0.203	0.084
-291.647	-40.303	0.065	0.034
-290.632	90.428	-0.093	-0.104
-289.618	-24.539	0.169	0.101
-288.603	85.796	0.168	0.186
-287.589	-200.000	-0.004	-0.107
-286.574	-200.000	0.005	0.054
-285.559	-200.000	-0.059	-0.304
-284.545	-200.000	0.027	-0.237
-283.530	-137.285	0.279	0.032
-282.516	-75.673	-0.291	-0.104
-281.501	210.935	0.105	0.166
-280.486	800.000	0.053	-0.163
-279.472	76.204	-0.069	-0.074
-278.457	49.363	0.122	0.116
-277.443	254.942	-0.039	0.068
-276.428	-200.000	-0.013	-0.211
-275.413	-48.389	0.151	-0.073
-274.399	-22.512	-0.248	-0.150
-273.384	-70.377	0.339	0.129
-272.370	-183.834	-0.248	-0.004
-271.355	800.000	-0.093	0.306
-270.340	-148.615	-0.206	-0.017
-269.326	800.000	0.053	0.176
-268.311	120.187	-0.274	0.341
-267.297	789.746	0.049	0.135
-266.282	-200.000	-0.012	0.233
-265.267	-4.639	0.164	-0.114
-264.253	288.974	-0.139	0.253
-263.238	62.655	-0.436	0.438
-262.224	-84.230	-0.163	0.052
-261.209	-200.000	0.064	0.318
-260.195	800.000	-0.003	0.008
-259.180	93.607	0.079	0.090
-258.165	-72.224	0.100	-0.037
-257.151	-94.969	0.180	0.049
-256.136	150.445	0.126	-0.171
-255.122	64.217	0.117	0.118
-254.107	-102.940	-0.066	0.016
-253.092	800.000	-0.027	0.090
-252.078	-139.340	-0.038	0.004
-251.063	-45.893	0.184	-0.091
-250.049	-200.000	0.107	-0.503
-249.034	-200.000	-0.045	-0.343
-248.019	-23.371	-0.281	0.169
-247.005	189.312	0.167	0.251
-245.990	28.024	-0.085	0.072
-244.976	-149.584	0.024	-0.002
-243.961	800.000	0.017	-0.052
-242.946	757.460	-0.018	0.049
-241.932	-79.660	0.142	0.048
-240.917	-11.007	-0.114	0.075
-239.903	150.243	-0.211	0.288
-238.888	741.434	-0.107	-0.287
-237.873	24.430	-0.179	-0.148
-236.859	25.933	-0.106	-0.088
-235.844	-200.000	0.056	-0.361
-234.830	-127.992	-0.087	0.012
-233.815	800.000	-0.182	0.505
-232.800	-21.610	0.234	0.143
-231.786	588.689	0.049	-0.120
-230.771	91.408	0.029	-0.033
-229.757	-34.345	0.107	-0.059
-228.742	800.000	0.061	-0.183
-227.727	-128.415	0.093	-0.013
-226.713	-96.007	0.060	-0.016
-225.698	187.679	0.049	0.074
-224.684	-188.996	0.271	-0.003
-223.669	-177.259	0.122	-0.003
-222.655	-200.000	-0.058	-0.295
-221.640	-64.554	-0.148	-0.060
-220.625	-200.000	-0.048	-0.289
-219.611	-200.000	0.032	0.309
-218.596	-171.507	-0.103	0.003
-217.582	-98.786	0.319	0.081
-216.567	36.710	-0.061	-0.054
-215.552	-64.955	-0.090	-0.037
-214.538	800.000	0.110	0.306
-213.523	-200.000	0.042	-0.217
-212.509	-55.504	0.011	-0.005
-211.494	-200.000	-0.003	-0.513
-210.479	-200.000	0.011	-0.164
-209.465	-92.650	0.329	-0.092
-208.450	-89.739	-0.070	-0.021
-207.436	514.331	0.159	-0.372
-206.421	264.778	-0.036	0.062
-205.406	800.000	0.070	0.269
-204.392	208.474	-0.128	-0.200
-203.377	-200.000	-0.057	0.365
-202.363	-84.631	-0.257	-0.081
-201.348	-130.167	0.188	-0.026
-200.333	-99.904	-0.087	0.022
-199.319	644.944	0.163	0.415
-198.304	-200.000	-0.012	-0.118
-197.290	102.587	0.051	-0.060
-196.275	-134.895	-0.113	-0.014
-195.260	800.000	-0.041	0.158
-194.246	28.167	-0.060	-0.051
-193.231	-200.000	0.052	-0.248
-192.217	800.000	0.058	-0.193
-191.202	-200.000	0.012	-0.187
-190.187	423.008	-0.087	-0.187
-189.173	92.891	-0.084	-0.095
-188.158	-26.806	0.015	-0.009
-187.144	155.931	0.025	-0.035
-186.129	-151.458	0.332	0.025
-185.114	-7.891	0.172	-0.116
-184.100	-37.771	0.392	0.208
-183.085	-200.000	-0.010	0.342
-182.071	79.707	-0.173	-0.186
-181.056	-140.826	0.204	0.021
-180.042	-106.652	0.409	-0.091
-179.027	305.965	-0.119	-0.221
-178.012	290.527	-0.054	0.098
-176.998	-200.000	0.024	-0.257
-175.983	17.770	0.069	0.055
-174.969	-112.721	0.207	-0.041
-173.954	-200.000	-0.020	-0.156
-172.939	-157.694	-0.121	-0.007
-171.925	-6.647	0.139	-0.095
-170.910	150.784	-0.163	0.222
-169.896	-200.000	-0.015	-0.130
-168.881	20.564	0.215	-0.174
-167.866	-93.057	-0.196	-0.055
-166.852	5.670	0.370	-0.273
-165.837	-88.655	-0.285	0.085
-164.823	-31.038	-0.110	0.062
-163.808	791.847	-0.083	0.227
-162.793	-101.839	0.248	0.060
-161.779	249.994	0.049	0.083
-160.764	111.624	0.179	-0.216
-159.750	-200.000	-0.093	-0.416
-158.735	-13.116	0.251	-0.163
-157.720	-96.293	0.080	0.021
-156.706	-200.000	-0.024	0.221
-155.691	800.000	0.109	0.340
-154.677	-60.339	-0.136	-0.058
-153.662	-81.402	0.488	0.161
-152.647	-149.679	-0.169	-0.013
-151.633	134.281	-0.322	-0.417
-150.618	800.000	-0.097	0.294
-149.604	-55.189	0.254	0.114
-148.589	-99.212	0.214	0.054
-147.574	-135.718	0.304	-0.036
-146.560	800.000	0.044	-0.159
-145.545	-19.929	0.283	-0.175
-144.531	-39.044	0.307	-0.161
-143.516	-200.000	0.049	-0.274
-142.502	62.630	-0.175	0.175
-141.487	-200.000	-0.004	-0.081
-140.472	-22.526	-0.053	0.032
-139.458	217.327	-0.103	0.164
-138.443	82.470	-0.083	-0.090
-137.429	-137.150	-0.205	0.023
-136.414	-50.085	0.380	0.180
-135.399	86.606	0.203	-0.224
-134.385	102.033	0.104	-0.121
-133.370	105.682	-0.130	0.153
-132.356	-61.170	-0.079	0.033
-131.341	213.194	0.135	0.213
-130.326	489.980	-0.084	0.191
-129.312	89.774	-0.072	-0.080
-128.297	94.485	-0.076	-0.086
-127.283	55.405	0.101	-0.098
-126.268	561.467	-0.088	-0.214
-125.253	84.782	0.129	0.141
-124.239	-45.817	-0.389	-0.192
-123.224	-77.178	0.283	0.098
-122.210	-45.858	-0.244	-0.120
