DTS Sentinel unit serial number:	SN413079Multiplexer serial number:	ORYXHardware model number:	OX4-SRSoftware version number:	ORYX F/W v4.00 Oryx Data Collector v3.7.2.0data status	okinstallation	princeton_trtdifferential loss correction	single-endedforward channel	channel 1reverse channel	N/Adate	2019/09/16time	20:54:35forward acquisition time	60.00reverse acquisition time	0.00gamma	496.2192k internal	0.2326k external	0.2326temperature offset calibration	0.9957default loss term (dB/km)	0.3790temperature slope calibration	1.0000multiplexer offset coefficient	1.0000multiplexer slope coefficient	1.0000fibre end	0.00T internal ref (°C)	32.19T ext. ref 1 (°C)	0.10T ext. ref 2 (°C)	25.52length (m)	temperature (°C)	Stokes	anti-Stokes-747.200	-200.000	0.044	0.227
-746.185	-37.331	-0.133	0.071
-745.171	14.153	-0.241	0.190
-744.156	140.007	0.221	0.294
-743.142	96.490	0.077	0.089
-742.127	-156.538	-0.133	0.008
-741.112	191.632	0.228	-0.346
-740.098	-111.475	-0.125	0.026
-739.083	125.523	0.195	0.248
-738.069	579.367	0.117	0.289
-737.054	-12.753	-0.154	-0.101
-736.039	-151.335	0.133	0.010
-735.025	-41.443	0.041	-0.021
-734.010	-125.363	-0.402	0.062
-732.996	31.678	-0.293	0.254
-731.981	2.082	0.248	-0.180
-730.966	800.000	-0.073	-0.210
-729.952	217.162	-0.112	-0.179
-728.937	111.587	-0.263	-0.319
-727.923	-200.000	-0.005	-0.220
-726.908	800.000	-0.045	0.150
-725.894	169.903	0.221	0.319
-724.879	35.343	-0.248	-0.219
-723.864	-200.000	0.063	0.491
-722.850	-200.000	0.013	-0.072
-721.835	145.560	-0.133	-0.180
-720.821	-177.589	-0.377	-0.009
-719.806	-66.171	0.213	0.086
-718.791	279.341	0.078	-0.139
-717.777	-200.000	-0.060	-0.484
-716.762	-90.397	-0.331	0.097
-715.748	497.095	0.184	0.426
-714.733	800.000	0.023	-0.086
-713.718	800.000	0.016	-0.050
-712.704	414.940	0.142	0.305
-711.689	113.112	-0.045	0.054
-710.675	559.822	-0.055	-0.135
-709.660	260.912	-0.057	0.099
-708.645	35.308	0.224	-0.198
-707.631	-136.785	-0.082	0.010
-706.616	279.913	0.029	-0.052
-705.602	587.040	0.097	0.240
-704.587	-33.579	-0.134	0.075
-703.572	139.452	0.247	0.328
-702.558	-152.954	-0.175	0.012
-701.543	-200.000	-0.072	-0.367
-700.529	6.819	-0.360	-0.270
-699.514	112.241	-0.095	-0.115
-698.499	-159.890	0.174	0.010
-697.485	-139.521	0.142	0.015
-696.470	261.923	0.025	0.044
-695.456	152.730	-0.130	0.179
-694.441	-120.291	-0.414	0.071
-693.426	-200.000	0.002	0.027
-692.412	-200.000	-0.039	-0.250
-691.397	113.661	0.100	-0.123
-690.383	65.283	0.160	0.163
-689.368	528.376	-0.106	-0.251
-688.354	800.000	0.022	0.083
-687.339	57.043	0.059	-0.058
-686.324	-108.587	0.046	0.010
-685.310	318.347	0.076	0.145
-684.295	-200.000	-0.011	0.275
-683.281	800.000	-0.045	0.189
-682.266	-200.000	-0.034	-0.275
-681.251	655.944	0.132	0.341
-680.237	-200.000	0.004	0.122
-679.222	269.908	-0.079	-0.140
-678.208	60.778	-0.025	-0.025
-677.193	-89.741	0.244	-0.072
-676.178	-37.181	-0.110	0.059
-675.164	-200.000	0.020	-0.274
-674.149	186.339	0.178	-0.267
-673.135	-23.904	0.023	0.014
-672.120	-113.775	-0.148	0.029
-671.105	-45.060	0.369	-0.185
-670.091	-91.379	-0.073	0.021
-669.076	-70.905	0.334	0.126
-668.062	213.192	-0.243	0.386
-667.047	-105.200	0.093	0.021
-666.032	294.989	0.050	-0.092
-665.018	30.178	0.176	0.151
-664.003	119.068	-0.176	0.219
-662.989	71.762	-0.203	-0.212
-661.974	-121.288	0.224	-0.038
-660.959	504.542	-0.024	0.056
-659.945	-157.408	0.141	-0.009
-658.930	-83.414	0.025	0.008
-657.916	-46.818	0.272	0.134
-656.901	-200.000	-0.015	-0.431
-655.886	-200.000	-0.026	0.135
-654.872	-31.667	0.183	-0.103
-653.857	-200.000	-0.064	0.336
-652.843	-200.000	-0.024	0.195
-651.828	108.785	0.103	-0.123
-650.814	-175.229	-0.042	-0.001
-649.799	-200.000	-0.001	0.163
-648.784	-143.963	-0.374	0.035
-647.770	108.893	-0.136	0.164
-646.755	19.967	-0.087	-0.070
-645.741	112.480	-0.027	0.033
-644.726	-148.176	0.190	0.016
-643.711	-200.000	0.020	0.272
-642.697	163.127	-0.149	0.210
-641.682	-162.794	0.259	0.013
-640.668	-19.408	0.146	-0.091
-639.653	-186.453	-0.038	0.001
-638.638	78.339	-0.145	-0.155
-637.624	-59.309	0.324	0.140
-636.609	2.178	0.061	0.044
-635.595	-200.000	0.018	-0.171
-634.580	192.441	0.226	-0.343
-633.565	34.803	0.032	-0.028
-632.551	800.000	0.128	0.369
-631.536	100.908	0.248	0.290
-630.522	-200.000	0.005	0.295
-629.507	56.416	-0.214	0.209
-628.492	-200.000	0.019	-0.305
-627.478	-100.135	-0.137	0.034
-626.463	-46.617	0.216	0.106
-625.449	520.530	0.101	-0.239
-624.434	-31.074	0.139	-0.079
-623.419	-200.000	-0.007	0.077
-622.405	439.058	-0.092	-0.202
-621.390	74.919	0.236	-0.250
-620.376	-200.000	0.009	-0.166
-619.361	-9.555	-0.166	-0.111
-618.346	-49.082	-0.091	-0.044
-617.332	29.256	0.135	-0.115
-616.317	139.927	0.178	0.235
-615.303	-132.086	-0.256	0.033
-614.288	-35.948	-0.159	-0.086
-613.273	-171.287	-0.297	-0.010
-612.259	-62.584	0.256	-0.107
-611.244	6.049	0.157	-0.117
-610.230	800.000	-0.087	0.372
-609.215	-200.000	0.011	-0.361
-608.201	-192.258	-0.012	-0.000
-607.186	-86.829	0.104	0.032
-606.171	183.754	-0.152	-0.226
-605.157	-64.442	0.071	0.029
-604.142	-118.491	-0.150	0.027
-603.128	13.512	0.165	-0.128
-602.113	-41.100	-0.057	-0.029
-601.098	7.757	0.163	0.122
-600.084	-146.423	-0.071	-0.006
-599.069	-135.712	0.386	0.046
-598.055	-52.281	0.031	0.014
-597.040	-79.046	-0.138	0.047
-596.025	187.615	0.223	-0.334
-595.011	-134.303	-0.197	0.024
-593.996	-200.000	0.014	0.074
-592.982	178.091	0.248	-0.363
-591.967	-34.822	0.227	0.124
-590.952	28.037	0.185	-0.156
-589.938	18.530	0.079	0.063
-588.923	9.659	-0.106	0.080
-587.909	87.245	-0.239	-0.265
-586.894	116.099	-0.151	-0.185
-585.879	618.201	-0.087	0.219
-584.865	-200.000	0.009	-0.096
-583.850	-6.158	0.187	0.128
-582.836	-47.289	0.369	0.180
-581.821	-8.176	-0.221	-0.149
-580.806	-181.002	0.071	0.001
-579.792	-96.206	0.107	0.028
-578.777	93.681	-0.309	-0.351
-577.763	-57.978	0.070	-0.031
-576.748	-88.458	0.099	0.029
-575.733	-133.157	0.418	-0.053
-574.719	-65.479	-0.182	0.073
-573.704	-139.788	-0.171	0.018
-572.690	580.238	0.131	0.322
-571.675	800.000	0.069	0.286
-570.661	800.000	0.049	0.161
-569.646	-99.746	0.696	-0.175
-568.631	160.919	-0.092	-0.129
-567.617	173.082	0.112	0.162
-566.602	-24.200	-0.171	0.102
-565.588	95.950	-0.075	-0.086
-564.573	-99.845	0.297	0.074
-563.558	-46.963	-0.134	0.066
-562.544	-200.000	0.025	-0.185
-561.529	800.000	-0.115	-0.370
-560.515	105.168	0.179	-0.212
-559.500	53.262	0.141	-0.136
-558.485	326.470	-0.109	-0.209
-557.471	-28.553	-0.278	0.161
-556.456	-74.646	0.191	0.069
-555.442	-8.160	0.069	-0.046
-554.427	800.000	-0.043	0.153
-553.412	-127.631	0.267	0.039
-552.398	-200.000	-0.004	0.038
-551.383	-151.687	-0.314	0.023
-550.369	-55.969	-0.285	-0.127
-549.354	209.903	-0.057	0.090
-548.339	20.971	0.069	0.056
-547.325	-37.020	0.148	0.079
-546.310	800.000	-0.065	0.238
-545.296	114.126	-0.107	0.131
-544.281	-63.784	0.104	0.043
-543.266	-200.000	-0.003	-0.097
-542.252	-35.545	0.208	-0.113
-541.237	69.030	-0.177	-0.182
-540.223	-180.922	-0.385	-0.008
-539.208	-47.230	0.208	-0.101
-538.193	-200.000	0.025	0.261
-537.179	-107.275	-0.147	0.032
-536.164	-200.000	-0.011	0.059
-535.150	21.322	0.109	0.088
-534.135	-18.530	0.180	-0.112
-533.121	121.467	-0.186	-0.232
-532.106	800.000	0.091	-0.271
-531.091	-39.962	-0.333	0.174
-530.077	33.584	0.161	0.140
-529.062	318.505	-0.166	-0.315
-528.048	-200.000	0.006	-0.036
-527.033	-80.256	0.176	0.059
-526.018	-200.000	-0.005	-0.086
-525.004	0.831	-0.095	-0.068
-523.989	-174.339	-0.074	-0.002
-522.975	339.137	-0.090	0.176
-521.960	800.000	0.052	0.170
-520.945	-200.000	0.007	0.286
-519.931	800.000	0.036	0.130
-518.916	135.221	0.217	-0.282
-517.902	-53.273	-0.047	0.022
-516.887	104.077	0.159	-0.187
-515.872	800.000	-0.061	0.178
-514.858	253.203	-0.144	0.245
-513.843	800.000	0.056	0.193
-512.829	-200.000	0.026	0.173
-511.814	-49.041	-0.131	-0.063
-510.799	161.171	-0.189	0.263
-509.785	-85.994	-0.091	-0.028
-508.770	9.543	-0.135	0.102
-507.756	-12.614	-0.093	0.061
-506.741	-120.143	-0.314	0.054
-505.726	-53.794	-0.199	-0.091
-504.712	-41.200	-0.295	-0.152
-503.697	-74.513	0.221	0.080
-502.683	-183.566	0.386	-0.007
-501.668	-123.850	-0.115	-0.018
-500.653	-200.000	-0.010	0.227
-499.639	-117.120	-0.231	-0.042
-498.624	800.000	-0.022	0.094
-497.610	-200.000	0.051	-0.341
-496.595	207.872	-0.118	0.185
-495.581	-40.771	0.162	0.084
-494.566	800.000	0.096	-0.291
-493.551	-88.535	-0.078	0.023
-492.537	107.388	-0.161	0.191
-491.522	452.594	-0.114	-0.251
-490.508	-92.842	-0.398	-0.111
-489.493	-200.000	-0.025	0.132
-488.478	800.000	-0.016	0.066
-487.464	-77.593	0.300	0.104
-486.449	800.000	-0.027	0.096
-485.435	6.518	-0.083	0.062
-484.420	-200.000	-0.020	0.267
-483.405	-6.159	0.062	0.043
-482.391	282.902	-0.059	-0.106
-481.376	351.072	0.054	0.107
-480.362	-11.969	0.178	-0.117
-479.347	316.151	-0.238	-0.449
-478.332	21.927	0.262	-0.213
-477.318	-98.774	-0.251	0.064
-476.303	217.392	-0.106	-0.168
-475.289	-28.227	-0.066	-0.038
-474.274	296.272	-0.152	-0.277
-473.259	800.000	0.045	-0.169
-472.245	-7.960	0.187	-0.126
-471.230	-101.606	0.263	-0.064
-470.216	264.343	0.157	-0.273
-469.201	-142.753	-0.166	0.016
-468.186	-83.622	0.412	-0.131
-467.172	-200.000	0.008	-0.242
-466.157	-36.076	0.075	-0.040
-465.143	-200.000	-0.030	-0.153
-464.128	-174.133	-0.483	-0.014
-463.113	-94.474	0.083	0.023
-462.099	38.119	-0.153	-0.136
-461.084	68.849	0.112	0.114
-460.070	-128.813	-0.198	-0.028
-459.055	574.239	-0.094	0.228
-458.040	515.408	0.091	0.212
-457.026	45.929	0.171	-0.158
-456.011	-9.066	-0.040	-0.027
-454.997	236.242	0.190	-0.313
-453.982	413.188	0.085	0.179
-452.968	-200.000	0.006	-0.204
-451.953	256.799	0.027	-0.046
-450.938	-200.000	0.009	0.087
-449.924	771.564	0.069	-0.187
-448.909	88.762	0.271	0.301
-447.895	64.339	-0.086	0.086
-446.880	214.825	0.139	-0.220
-445.865	-158.589	0.229	-0.013
-444.851	447.410	0.066	-0.146
-443.836	-91.121	0.406	0.116
-442.822	800.000	-0.090	-0.295
-441.807	-200.000	0.020	-0.108
-440.792	533.675	0.120	0.283
-439.778	-98.157	-0.043	-0.011
-438.763	-200.000	-0.026	0.201
-437.749	8.651	-0.086	-0.064
-436.734	800.000	-0.124	-0.472
-435.719	-119.577	-0.301	0.052
-434.705	48.696	-0.236	0.221
-433.690	-145.481	-0.165	-0.015
-432.676	87.440	0.184	0.203
-431.661	800.000	-0.018	0.062
-430.646	-108.326	-0.103	0.022
-429.632	800.000	-0.071	0.272
-428.617	14.126	-0.208	0.162
-427.603	536.447	0.057	-0.135
-426.588	-49.635	-0.030	0.014
-425.573	398.838	0.144	-0.300
-424.559	381.113	-0.054	0.110
-423.544	-46.836	0.301	-0.147
-422.530	800.000	0.034	-0.118
-421.515	-55.769	-0.141	-0.063
-420.500	-200.000	0.001	0.005
-419.486	161.543	-0.207	0.289
-418.471	-200.000	-0.032	-0.297
-417.457	-152.289	-0.494	0.036
-416.442	-52.732	-0.247	-0.113
-415.428	-200.000	-0.001	0.232
-414.413	229.687	0.098	0.159
-413.398	456.544	-0.121	0.268
-412.384	-101.045	0.075	-0.018
-411.369	-20.321	-0.144	0.089
-410.355	-93.640	-0.341	0.094
-409.340	-120.096	-0.050	-0.009
-408.325	-42.468	-0.132	0.067
-407.311	10.505	-0.269	-0.204
-406.296	-96.724	0.178	0.047
-405.282	-159.911	0.303	0.017
-404.267	-200.000	0.018	-0.322
-403.252	-200.000	-0.018	0.177
-402.238	-59.427	0.328	0.140
-401.223	52.471	0.120	-0.114
-400.209	247.067	0.010	-0.017
-399.194	52.030	-0.177	-0.168
-398.179	-148.057	-0.240	0.020
-397.165	-200.000	0.016	0.364
-396.150	164.412	-0.470	0.659
-395.136	800.000	0.121	0.344
-394.121	-106.902	-0.250	0.055
-393.106	-200.000	-0.019	-0.150
-392.092	-168.795	0.228	0.009
-391.077	-68.745	-0.146	0.056
-390.063	0.519	-0.224	-0.160
-389.048	83.250	-0.359	0.389
-388.033	-46.852	0.190	-0.092
-387.019	468.114	0.116	0.259
-386.004	800.000	-0.098	0.281
-384.990	-84.461	0.162	0.051
-383.975	228.576	0.128	-0.208
-382.960	123.442	0.104	-0.129
-381.946	-74.112	-0.295	-0.106
-380.931	800.000	0.063	-0.176
-379.917	-12.735	-0.114	-0.074
-378.902	-200.000	0.020	-0.093
-377.888	149.903	0.122	-0.164
-376.873	58.499	-0.080	-0.078
-375.858	61.866	0.315	-0.312
-374.844	-144.074	-0.340	-0.032
-373.829	-200.000	0.011	0.254
-372.815	800.000	-0.053	0.217
-371.800	-15.790	0.178	-0.113
-370.785	-55.226	0.341	0.152
-369.771	-107.014	-0.344	0.076
-368.756	100.633	0.223	-0.258
-367.742	49.456	0.248	0.232
-366.727	-161.597	-0.425	-0.022
-365.712	-200.000	-0.007	0.137
-364.698	-13.710	-0.249	-0.160
-363.683	-192.232	-0.261	0.002
-362.669	298.429	-0.049	-0.090
-361.654	52.702	-0.307	0.292
-360.639	252.437	-0.219	0.372
-359.625	-200.000	-0.005	-0.025
-358.610	-63.688	0.214	-0.087
-357.596	800.000	-0.082	-0.341
-356.581	99.554	0.117	-0.135
-355.566	82.712	0.143	0.154
-354.552	-200.000	0.017	0.158
-353.537	85.822	0.023	-0.025
-352.523	-200.000	0.026	0.473
-351.508	17.320	-0.314	0.248
-350.493	-200.000	-0.009	-0.048
-349.479	-38.023	-0.123	0.065
-348.464	-101.483	-0.237	-0.057
-347.450	-65.657	-0.192	-0.076
-346.435	98.548	0.116	0.132
-345.420	291.829	-0.138	0.249
-344.406	30.072	0.190	-0.161
-343.391	-200.000	-0.005	-0.141
-342.377	45.601	-0.044	0.040
-341.362	-65.276	-0.227	0.091
-340.348	800.000	0.052	0.177
-339.333	800.000	-0.055	0.202
-338.318	-37.700	0.091	0.048
-337.304	-200.000	-0.066	-0.287
-336.289	-96.894	0.141	-0.037
-335.275	56.592	-0.298	-0.288
-334.260	-82.236	-0.268	0.087
-333.245	-200.000	0.009	0.157
-332.231	166.707	0.049	0.069
-331.216	157.163	0.233	0.320
-330.202	-111.160	-0.365	-0.074
-329.187	-58.535	-0.206	0.089
-328.172	800.000	-0.021	-0.068
-327.158	-200.000	-0.033	-0.265
-326.143	54.248	0.134	-0.128
-325.129	20.243	-0.191	0.153
-324.114	282.164	0.031	0.055
-323.099	329.157	-0.257	-0.491
-322.085	147.611	0.096	0.128
-321.070	-200.000	-0.008	0.154
-320.056	276.703	0.027	-0.047
-319.041	-115.021	0.126	-0.024
-318.026	-200.000	0.048	-0.388
-317.012	-69.522	-0.066	0.025
-315.997	-55.233	0.376	-0.167
-314.983	-50.111	0.247	-0.116
-313.968	-166.577	-0.119	0.005
-312.953	102.500	0.065	0.076
-311.939	-200.000	-0.007	-0.032
-310.924	-200.000	0.014	-0.066
-309.910	220.074	0.057	-0.090
-308.895	47.522	0.138	-0.127
-307.880	-200.000	0.029	0.223
-306.866	-126.007	0.311	0.046
-305.851	302.179	-0.103	-0.188
-304.837	-150.900	0.065	0.005
-303.822	-9.905	0.075	0.050
-302.807	658.182	0.107	0.273
-301.793	-200.000	-0.032	-0.176
-300.778	800.000	0.045	-0.157
-299.764	93.429	0.149	-0.167
-298.749	-183.747	0.032	0.001
-297.735	-25.185	-0.111	0.065
-296.720	402.311	-0.112	0.234
-295.705	800.000	0.123	0.432
-294.691	-180.388	0.132	-0.003
-293.676	102.290	0.076	0.088
-292.662	9.993	-0.178	-0.134
-291.647	271.913	0.062	-0.109
-290.632	-32.559	0.291	0.161
-289.618	-167.113	0.465	0.019
-288.603	-200.000	0.010	-0.240
-287.589	-200.000	-0.030	-0.351
-286.574	34.778	0.214	-0.185
-285.559	6.746	-0.122	-0.090
-284.545	-200.000	0.033	-0.473
-283.530	-139.361	-0.049	-0.005
-282.516	612.651	0.164	0.406
-281.501	-29.317	-0.211	-0.119
-280.486	-200.000	-0.015	0.261
-279.472	-149.762	-0.145	-0.011
-278.457	302.907	-0.055	0.102
-277.443	-17.426	0.176	-0.110
-276.428	307.968	-0.062	-0.114
-275.413	-22.614	-0.189	-0.113
-274.399	586.424	-0.078	-0.191
-273.384	165.795	-0.062	-0.087
-272.370	-36.998	0.221	-0.117
-271.355	-185.625	-0.265	-0.004
-270.340	-49.146	0.072	-0.034
-269.326	148.287	0.058	0.077
-268.311	-69.070	0.272	0.104
-267.297	67.186	-0.171	-0.173
-266.282	80.253	0.112	0.119
-265.267	800.000	-0.033	0.095
-264.253	4.914	0.026	-0.019
-263.238	-200.000	0.018	-0.187
-262.224	800.000	0.011	-0.044
-261.209	-105.070	-0.234	0.053
-260.195	299.269	-0.197	-0.359
-259.180	193.861	-0.050	-0.075
-258.165	330.764	-0.072	0.136
-257.151	40.092	0.206	0.183
-256.136	-129.521	-0.182	0.025
-255.122	93.965	-0.021	0.024
-254.107	-200.000	-0.012	0.151
-253.092	92.435	0.207	-0.231
-252.078	45.236	-0.255	-0.233
-251.063	2.154	0.215	0.153
-250.049	-44.992	0.206	-0.102
-249.034	-59.481	0.170	-0.072
-248.019	479.750	0.110	0.247
-247.005	-80.490	0.159	-0.052
-245.990	-200.000	0.020	-0.109
-244.976	-200.000	-0.003	-0.052
-243.961	-145.835	0.334	0.029
-242.946	70.983	0.173	0.177
-241.932	-62.387	-0.011	-0.005
-240.917	-113.392	-0.055	-0.011
-239.903	-200.000	-0.009	0.300
-238.888	-8.562	-0.318	-0.211
-237.873	61.607	0.343	0.338
-236.859	-81.174	0.218	-0.071
-235.844	-74.201	0.190	0.068
-234.830	-41.112	-0.111	0.056
-233.815	-200.000	-0.010	-0.267
-232.800	800.000	-0.115	0.430
-231.786	588.247	-0.158	0.384
-230.771	476.006	0.096	0.215
-229.757	779.641	0.052	0.140
-228.742	-200.000	0.009	-0.206
-227.727	-79.106	-0.105	0.035
-226.713	260.205	-0.193	0.330
-225.698	50.793	-0.054	-0.051
-224.684	349.405	0.107	-0.209
-223.669	-200.000	0.014	-0.094
-222.655	92.797	0.207	-0.231
-221.640	191.778	0.050	-0.074
-220.625	-131.675	0.316	0.041
-219.611	-9.360	-0.168	0.111
-218.596	265.659	0.115	-0.198
-217.582	74.989	0.244	0.254
-216.567	263.338	0.140	0.241
-215.552	-100.373	-0.260	0.064
-214.538	573.673	-0.024	0.058
-213.523	194.041	-0.058	-0.086
-212.509	-200.000	-0.023	-0.125
-211.494	-131.021	-0.415	0.055
-210.479	351.915	-0.070	0.137
-209.465	261.377	0.117	-0.199
-208.450	800.000	-0.016	-0.062
-207.436	-33.268	-0.207	0.113
-206.421	-25.184	0.102	0.060
-205.406	20.765	-0.127	-0.102
-204.392	267.720	0.143	0.248
-203.377	-200.000	-0.021	0.321
-202.363	87.602	-0.111	-0.121
-201.348	800.000	0.135	0.385
-200.333	18.028	0.136	0.107
-199.319	149.284	-0.045	-0.060
-198.304	800.000	0.029	0.080
-197.290	-37.516	0.043	-0.023
-196.275	97.662	0.088	0.100
-195.260	196.983	0.118	-0.178
-194.246	54.004	-0.167	-0.158
-193.231	-52.787	0.188	0.086
-192.217	-119.336	-0.260	0.045
-191.202	157.643	0.103	-0.141
-190.187	4.246	-0.087	0.063
-189.173	800.000	-0.049	-0.159
-188.158	-200.000	-0.032	-0.191
-187.144	435.211	0.045	0.096
-186.129	-108.227	0.074	-0.016
-185.114	800.000	-0.052	-0.222
-184.100	-200.000	0.068	-0.469
-183.085	-200.000	-0.021	0.153
-182.071	-4.019	-0.164	-0.112
-181.056	-60.385	-0.201	0.084
-180.042	108.741	0.016	0.019
-179.027	-49.200	-0.259	-0.122
-178.012	-134.514	-0.264	-0.032
-176.998	-54.582	0.316	-0.141
-175.983	20.132	0.326	0.260
-174.969	-81.792	-0.176	0.057
-173.954	-36.683	0.190	-0.101
-172.939	104.628	-0.150	-0.174
-171.925	376.343	-0.086	0.173
-170.910	26.339	0.183	-0.150
-169.896	150.788	-0.111	0.149
-168.881	-200.000	0.016	0.501
-167.866	-114.793	0.274	-0.052
-166.852	-200.000	-0.059	-0.395
-165.837	44.996	-0.174	0.158
-164.823	800.000	0.079	-0.240
-163.808	272.962	-0.122	0.213
-162.793	425.143	-0.122	0.259
-161.779	-200.000	0.010	0.081
-160.764	683.652	0.128	0.329
-159.750	-174.057	0.109	0.003
-158.735	91.230	0.328	-0.363
-157.720	-106.079	0.254	-0.056
-156.706	-200.000	0.022	-0.425
-155.691	95.950	0.051	0.057
-154.677	60.859	-0.234	0.229
-153.662	371.583	0.089	-0.178
-152.647	419.090	-0.041	0.087
-151.633	-200.000	-0.011	-0.108
-150.618	-93.780	-0.333	-0.090
-149.604	143.360	0.049	0.064
-148.589	14.512	0.202	-0.156
-147.574	-24.923	-0.196	-0.115
-146.560	800.000	0.085	-0.277
-145.545	141.883	-0.142	-0.186
-144.531	-38.097	-0.135	0.070
-143.516	-7.335	0.180	0.120
-142.502	-94.167	0.055	0.015
-141.487	-200.000	0.034	0.191
-140.472	-136.159	-0.502	0.058
-139.458	-97.389	-0.104	0.027
-138.443	-200.000	-0.017	0.253
-137.429	140.470	-0.070	0.091
-136.414	800.000	0.109	0.398
-135.399	-25.000	-0.046	-0.027
-134.385	-200.000	-0.001	-0.086
-133.370	172.553	-0.082	-0.116
-132.356	225.462	0.124	0.197
-131.341	-200.000	-0.065	-0.315
-130.326	19.845	0.082	-0.065
-129.312	800.000	0.039	-0.146
-128.297	34.441	-0.273	-0.235
-127.283	56.407	0.418	-0.401
-126.268	-200.000	-0.052	0.259
-125.253	364.976	0.086	0.171
-124.239	508.374	0.138	-0.315
-123.224	-111.025	0.223	0.045
-122.210	800.000	0.030	-0.120
-121.195	17.400	-0.066	-0.052
-120.180	94.336	-0.101	0.112
