DTS Sentinel unit serial number:	SN413079Multiplexer serial number:	ORYXHardware model number:	OX4-SRSoftware version number:	ORYX F/W v4.00 Oryx Data Collector v3.7.2.0data status	okinstallation	princeton_trtdifferential loss correction	single-endedforward channel	channel 1reverse channel	N/Adate	2019/09/14time	09:22:35forward acquisition time	60.00reverse acquisition time	0.00gamma	496.2192k internal	0.2323k external	0.2323temperature offset calibration	1.0069default loss term (dB/km)	0.3790temperature slope calibration	1.0000multiplexer offset coefficient	1.0000multiplexer slope coefficient	1.0000fibre end	0.00T internal ref (°C)	31.08T ext. ref 1 (°C)	3.83T ext. ref 2 (°C)	28.93length (m)	temperature (°C)	Stokes	anti-Stokes-747.200	486.030	-0.156	-0.358
-746.185	-200.000	-0.016	0.160
-745.171	-200.000	-0.047	-0.270
-744.156	-78.864	-0.165	-0.057
-743.142	109.385	0.185	-0.224
-742.127	-200.000	-0.008	0.282
-741.112	181.693	0.056	-0.083
-740.098	-200.000	0.041	0.251
-739.083	194.269	0.141	-0.215
-738.069	441.776	-0.121	0.268
-737.054	-106.208	0.196	0.044
-736.039	-66.612	-0.134	0.054
-735.025	51.938	0.214	0.206
-734.010	-95.341	0.184	-0.050
-732.996	-68.459	-0.045	0.017
-731.981	215.791	0.070	0.112
-730.966	-200.000	0.023	-0.219
-729.952	-66.971	-0.114	0.045
-728.937	-200.000	0.045	0.349
-727.923	220.989	-0.199	0.323
-726.908	-64.252	0.043	0.018
-725.894	151.556	-0.335	0.460
-724.879	-200.000	0.044	-0.268
-723.864	800.000	0.015	-0.044
-722.850	-58.737	0.262	-0.114
-721.835	-11.385	-0.067	-0.045
-720.821	-3.979	-0.160	0.112
-719.806	800.000	0.049	-0.151
-718.791	627.855	0.101	-0.258
-717.777	-128.074	0.509	0.074
-716.762	326.227	-0.031	0.060
-715.748	46.841	0.139	0.130
-714.733	57.353	-0.231	-0.227
-713.718	70.950	-0.107	-0.112
-712.704	44.846	0.118	0.109
-711.689	187.138	-0.106	-0.160
-710.675	339.723	0.106	-0.209
-709.660	45.942	-0.218	0.204
-708.645	-160.043	-0.115	-0.006
-707.631	-200.000	0.064	-0.290
-706.616	-33.656	-0.113	0.063
-705.602	-165.500	-0.298	0.013
-704.587	118.675	-0.083	-0.103
-703.572	393.990	0.093	0.196
-702.558	-200.000	-0.165	-0.001
-701.543	156.568	-0.300	-0.417
-700.529	0.788	-0.075	-0.054
-699.514	-200.000	-0.004	-0.207
-698.499	-200.000	-0.043	0.283
-697.485	-137.647	-0.146	-0.017
-696.470	199.928	-0.132	-0.204
-695.456	173.953	-0.112	-0.163
-694.441	-116.807	-0.276	-0.051
-693.426	328.730	-0.117	-0.227
-692.412	-37.333	0.154	-0.083
-691.397	-200.000	-0.001	-0.157
-690.383	464.948	-0.144	-0.325
-689.368	-168.198	-0.130	0.005
-688.354	-194.535	-0.342	0.003
-687.339	47.815	0.255	0.240
-686.324	800.000	0.039	-0.162
-685.310	-47.711	-0.136	-0.067
-684.295	800.000	-0.002	-0.005
-683.281	-200.000	0.045	-0.247
-682.266	-69.414	-0.251	-0.097
-681.251	203.975	-0.115	0.179
-680.237	800.000	0.021	-0.067
-679.222	-163.208	0.120	0.006
-678.208	800.000	0.045	-0.151
-677.193	-142.448	-0.318	-0.031
-676.178	800.000	0.131	-0.495
-675.164	91.047	0.295	-0.333
-674.149	233.289	-0.025	0.042
-673.135	104.381	-0.051	0.061
-672.120	27.212	-0.214	-0.181
-671.105	66.051	0.058	0.059
-670.091	-23.273	-0.172	-0.104
-669.076	-200.000	0.022	-0.241
-668.062	-87.597	-0.118	0.036
-667.047	-77.368	-0.165	-0.058
-666.032	-29.846	0.182	0.104
-665.018	23.179	0.097	-0.080
-664.003	-63.206	-0.092	0.038
-662.989	-200.000	0.008	-0.079
-661.974	-186.682	-0.163	-0.002
-660.959	94.267	0.048	0.055
-659.945	-83.528	-0.059	-0.019
-658.930	28.693	-0.200	0.171
-657.916	-94.721	-0.184	0.050
-656.901	220.248	-0.128	-0.207
-655.886	35.559	-0.270	-0.239
-654.872	-200.000	-0.033	-0.481
-653.857	-140.954	0.212	0.022
-652.843	204.791	-0.182	-0.284
-651.828	120.179	-0.199	-0.249
-650.814	465.524	0.110	-0.249
-649.799	104.110	0.153	0.181
-648.784	-200.000	0.003	0.071
-647.770	-107.127	-0.166	0.037
-646.755	109.575	0.115	0.139
-645.741	45.019	0.204	0.189
-644.726	-61.229	-0.058	0.024
-643.711	-50.953	-0.092	0.043
-642.697	-192.740	-0.326	0.003
-641.682	-200.000	0.004	0.070
-640.668	92.904	-0.075	-0.085
-639.653	-117.110	-0.121	-0.022
-638.638	-200.000	0.036	-0.213
-637.624	611.913	-0.206	-0.517
-636.609	-112.317	0.170	0.034
-635.595	800.000	0.098	0.275
-634.580	-200.000	-0.059	-0.343
-633.565	-71.959	-0.117	0.044
-632.551	192.843	-0.091	0.138
-631.536	-200.000	0.004	-0.031
-630.522	752.327	0.024	0.066
-629.507	236.822	0.155	-0.258
-628.492	416.978	0.123	-0.264
-627.478	-29.427	-0.110	-0.063
-626.463	323.336	0.186	-0.357
-625.449	303.109	-0.125	0.233
-624.434	125.098	0.067	-0.085
-623.419	-200.000	0.080	-0.439
-622.405	7.982	0.311	-0.235
-621.390	-82.236	-0.121	0.040
-620.376	800.000	0.090	-0.306
-619.361	-7.810	-0.209	0.142
-618.346	-200.000	-0.065	-0.334
-617.332	54.356	-0.168	-0.162
-616.317	36.843	-0.216	-0.192
-615.303	-140.609	-0.407	0.042
-614.288	29.163	-0.137	0.117
-613.273	800.000	0.034	0.123
-612.259	-200.000	-0.015	-0.167
-611.244	343.244	-0.123	-0.242
-610.230	-86.036	-0.404	0.125
-609.215	-146.387	0.153	0.013
-608.201	-47.161	0.300	-0.147
-607.186	-129.197	-0.307	-0.043
-606.171	31.110	0.153	0.132
-605.157	800.000	0.038	-0.112
-604.142	-18.301	0.138	0.087
-603.128	800.000	0.045	0.158
-602.113	-80.888	-0.191	0.064
-601.098	-119.626	0.330	0.057
-600.084	-155.653	-0.081	0.005
-599.069	693.608	0.076	-0.200
-598.055	90.534	-0.035	0.039
-597.040	800.000	-0.048	-0.199
-596.025	-144.603	-0.207	0.019
-595.011	-200.000	-0.004	0.098
-593.996	-127.805	-0.498	-0.072
-592.982	-200.000	-0.012	0.195
-591.967	-200.000	-0.013	-0.110
-590.952	-126.637	0.135	-0.020
-589.938	800.000	-0.017	-0.047
-588.923	539.962	0.108	-0.259
-587.909	-67.422	0.297	0.117
-586.894	800.000	0.063	0.228
-585.879	-159.342	-0.268	0.015
-584.865	-200.000	0.011	0.111
-583.850	103.611	0.040	0.047
-582.836	800.000	-0.076	-0.225
-581.821	240.669	0.092	-0.155
-580.806	-2.649	0.078	0.055
-579.792	-200.000	-0.010	0.060
-578.777	-95.869	-0.086	0.023
-577.763	23.328	0.141	-0.117
-576.748	-80.652	-0.239	-0.080
-575.733	-99.798	-0.308	0.077
-574.719	-200.000	-0.010	-0.115
-573.704	44.642	0.112	0.103
-572.690	-200.000	-0.009	0.092
-571.675	-41.235	-0.112	-0.058
-570.661	-58.737	0.334	-0.145
-569.646	-200.000	0.480	-0.001
-568.631	-175.578	0.210	0.006
-567.617	-36.335	-0.086	-0.047
-566.602	-40.198	0.130	0.068
-565.588	-63.195	-0.252	0.104
-564.573	127.567	0.161	-0.206
-563.558	-17.125	0.139	0.088
-562.544	-94.291	-0.317	0.087
-561.529	-200.000	0.041	-0.269
-560.515	279.638	-0.122	0.219
-559.500	-200.000	0.018	0.129
-558.485	13.048	-0.227	-0.176
-557.471	-200.000	-0.046	-0.205
-556.456	-126.217	-0.092	-0.014
-555.442	679.801	0.019	0.050
-554.427	-200.000	0.005	-0.150
-553.412	-65.404	0.153	0.062
-552.398	-109.237	-0.115	0.024
-551.383	210.427	0.173	0.272
-550.369	-91.625	-0.076	-0.022
-549.354	258.388	0.033	-0.057
-548.339	-44.975	-0.227	-0.113
-547.325	90.412	0.152	0.171
-546.310	39.166	-0.097	0.087
-545.296	116.156	-0.123	-0.151
-544.281	-51.262	0.415	0.195
-543.266	26.747	-0.127	-0.107
-542.252	-5.124	-0.148	-0.102
-541.237	135.209	0.058	-0.076
-540.223	24.791	-0.053	0.044
-539.208	11.855	0.139	0.107
-538.193	-161.766	0.063	-0.003
-537.179	-86.362	0.309	-0.095
-536.164	-200.000	-0.014	0.146
-535.150	147.954	-0.110	0.149
-534.135	-200.000	-0.091	-0.488
-533.121	-9.972	0.255	-0.170
-532.106	32.230	-0.137	-0.119
-531.091	-200.000	0.006	-0.269
-530.077	591.787	0.015	-0.037
-529.062	96.923	0.134	-0.153
-528.048	123.760	-0.406	-0.511
-527.033	-156.904	-0.278	-0.017
-526.018	40.829	-0.176	0.159
-525.004	214.385	-0.070	-0.111
-523.989	-21.965	-0.100	0.061
-522.975	-150.050	0.133	-0.010
-521.960	-94.878	-0.233	-0.063
-520.945	-48.645	-0.098	-0.047
-519.931	81.935	-0.133	0.144
-518.916	475.005	-0.004	0.009
-517.902	-103.770	-0.094	-0.022
-516.887	-27.126	0.100	-0.058
-515.872	1.375	-0.222	-0.159
-514.858	-43.166	-0.075	0.038
-513.843	-200.000	-0.019	-0.156
-512.829	100.033	-0.162	0.188
-511.814	-75.546	0.220	-0.078
-510.799	18.316	0.089	0.071
-509.785	88.381	0.100	0.112
-508.770	431.138	0.094	0.203
-507.756	-200.000	0.030	-0.215
-506.741	36.814	-0.114	-0.101
-505.726	716.050	-0.108	-0.287
-504.712	525.342	-0.101	0.238
-503.697	328.432	-0.114	0.219
-502.683	90.754	-0.102	0.114
-501.668	-200.000	0.022	-0.140
-500.653	-88.513	0.238	-0.071
-499.639	-167.030	-0.169	0.007
-498.624	92.855	0.105	-0.119
-497.610	370.869	-0.119	-0.241
-496.595	-200.000	0.009	-0.232
-495.581	800.000	0.036	0.136
-494.566	168.230	-0.184	0.262
-493.551	73.876	-0.130	0.136
-492.537	-63.094	-0.033	-0.014
-491.522	-10.860	-0.280	0.185
-490.508	-115.140	0.350	-0.066
-489.493	-2.594	-0.041	-0.029
-488.478	-155.730	-0.197	-0.013
-487.464	-200.000	0.040	-0.249
-486.449	-177.846	-0.162	0.004
-485.435	9.008	-0.200	-0.151
-484.420	-200.000	-0.040	-0.276
-483.405	-40.686	0.069	-0.036
-482.391	-152.174	0.145	-0.011
-481.376	-200.000	-0.009	-0.039
-480.362	-200.000	0.014	-0.090
-479.347	-200.000	0.335	-0.000
-478.332	-143.426	0.335	0.032
-477.318	667.198	0.090	0.232
-476.303	-200.000	0.004	-0.189
-475.289	-28.583	0.125	-0.072
-474.274	-110.465	-0.153	0.032
-473.259	51.037	0.160	0.152
-472.245	-28.442	0.004	0.002
-471.230	353.838	-0.098	0.194
-470.216	800.000	-0.036	0.137
-469.201	42.864	0.184	0.167
-468.186	-49.551	-0.169	-0.080
-467.172	-82.644	0.279	0.090
-466.157	-114.281	-0.131	-0.025
-465.143	-36.576	0.338	-0.181
-464.128	127.362	-0.052	0.066
-463.113	-171.367	0.247	-0.008
-462.099	347.011	0.095	-0.188
-461.084	-135.448	-0.128	0.015
-460.070	800.000	0.029	0.122
-459.055	488.184	0.069	0.157
-458.040	-7.434	-0.281	0.190
-457.026	-200.000	-0.033	0.277
-456.011	33.185	0.129	-0.111
-454.997	219.208	0.181	-0.289
-453.982	122.771	0.103	0.129
-452.968	-14.901	-0.148	-0.095
-451.953	-64.219	0.113	-0.046
-450.938	800.000	0.058	0.213
-449.924	64.168	-0.106	-0.107
-448.909	75.101	-0.215	-0.226
-447.895	-6.576	0.197	-0.134
-446.880	800.000	-0.013	-0.056
-445.865	800.000	0.081	-0.285
-444.851	-200.000	0.010	-0.074
-443.836	32.182	-0.051	-0.044
-442.822	-14.522	-0.101	0.065
-441.807	454.870	0.011	-0.024
-440.792	-35.307	-0.028	0.015
-439.778	-86.248	0.297	-0.091
-438.763	14.856	-0.078	0.061
-437.749	439.122	0.012	-0.026
-436.734	115.487	0.079	-0.096
-435.719	-57.746	-0.341	0.149
-434.705	-92.515	0.301	-0.084
-433.690	-200.000	0.016	0.418
-432.676	-68.629	0.182	-0.070
-431.661	-200.000	0.025	-0.421
-430.646	-63.401	-0.331	-0.136
-429.632	-58.085	0.171	-0.074
-428.617	281.905	-0.088	0.157
-427.603	800.000	-0.123	0.361
-426.588	-200.000	-0.022	-0.245
-425.573	-46.151	-0.065	-0.032
-424.559	185.446	0.305	-0.452
-423.544	-65.663	0.042	0.017
-422.530	140.754	0.207	0.273
-421.515	-118.509	0.108	-0.019
-420.500	-75.638	0.228	-0.081
-419.486	-83.014	0.275	-0.088
-418.471	344.700	0.086	0.168
-417.457	214.502	-0.045	0.072
-416.442	120.886	-0.126	-0.156
-415.428	387.713	-0.147	-0.302
-414.413	-49.018	0.397	-0.190
-413.398	-200.000	0.017	0.333
-412.384	-27.821	0.097	0.056
-411.369	-98.186	-0.423	-0.108
-410.355	-125.991	-0.096	-0.014
-409.340	-67.630	-0.166	-0.065
-408.325	62.741	-0.066	-0.066
-407.311	-200.000	0.008	0.341
-406.296	-88.653	-0.139	0.041
-405.282	-90.729	-0.064	-0.018
-404.267	800.000	0.027	0.103
-403.252	-193.838	-0.173	-0.001
-402.238	300.848	-0.169	-0.310
-401.223	-76.234	0.329	-0.116
-400.209	-64.099	-0.617	0.251
-399.194	459.394	0.221	-0.491
-398.179	-200.000	-0.047	0.234
-397.165	253.568	-0.262	0.446
-396.150	120.445	0.146	-0.181
-395.136	800.000	0.093	0.294
-394.121	800.000	-0.057	-0.173
-393.106	-71.246	-0.274	-0.102
-392.092	800.000	-0.079	0.232
-391.077	-95.986	0.123	0.033
-390.063	-46.301	0.196	-0.096
-389.048	129.907	-0.071	-0.091
-388.033	22.082	0.216	0.176
-387.019	512.825	-0.069	-0.160
-386.004	-89.530	0.212	-0.062
-384.990	443.943	-0.051	-0.111
-383.975	-28.127	0.289	-0.166
-382.960	-200.000	-0.039	-0.192
-381.946	-62.614	0.373	0.154
-380.931	-24.079	-0.223	-0.133
-379.917	49.103	-0.192	-0.180
-378.902	-200.000	0.028	0.371
-377.888	21.094	-0.044	0.036
-376.873	-31.143	0.127	-0.071
-375.858	-200.000	-0.023	-0.217
-374.844	-200.000	0.017	0.156
-373.829	122.586	-0.096	-0.119
-372.815	-145.589	-0.474	0.042
-371.800	364.219	-0.245	-0.490
-370.785	-47.009	0.298	-0.145
-369.771	218.455	-0.126	0.200
-368.756	19.367	0.271	-0.217
-367.742	-200.000	0.092	-0.407
-366.727	95.062	0.188	-0.213
-365.712	-200.000	-0.044	0.203
-364.698	-157.460	-0.058	0.003
-363.683	98.584	-0.186	0.213
-362.669	-176.680	-0.367	-0.009
-361.654	-129.911	0.286	-0.039
-360.639	544.707	0.087	-0.206
-359.625	-200.000	-0.033	0.360
-358.610	24.207	0.248	0.204
-357.596	-80.451	0.159	-0.053
-356.581	-200.000	0.015	0.298
-355.566	-85.446	-0.151	0.047
-354.552	407.222	0.153	0.322
-353.537	93.839	-0.039	-0.044
-352.523	-121.551	-0.233	-0.038
-351.508	85.977	0.251	-0.274
-350.493	1.047	-0.237	0.169
-349.479	-102.581	0.437	0.104
-348.464	129.287	0.172	-0.218
-347.450	-57.431	-0.119	0.052
-346.435	58.571	0.053	0.052
-345.420	424.963	0.025	-0.053
-344.406	-200.000	0.010	0.089
-343.391	-121.139	-0.181	0.030
-342.377	800.000	0.070	0.198
-341.362	461.467	0.052	-0.114
-340.348	-200.000	0.009	-0.078
-339.333	-0.912	-0.283	0.199
-338.318	154.165	0.032	-0.043
-337.304	-74.170	-0.175	0.063
-336.289	113.535	-0.118	-0.142
-335.275	-200.000	-0.010	0.361
-334.260	30.937	0.175	0.149
-333.245	56.676	-0.275	0.266
-332.231	229.979	-0.068	-0.110
-331.216	-18.852	-0.061	0.038
-330.202	800.000	-0.061	-0.240
-329.187	131.360	0.311	-0.398
-328.172	54.925	0.093	0.089
-327.158	-15.564	-0.298	0.189
-326.143	-81.812	-0.051	-0.016
-325.129	-48.416	0.132	0.063
-324.114	-85.708	-0.641	0.198
-323.099	305.063	-0.153	0.283
-322.085	-113.874	0.127	0.025
-321.070	800.000	-0.075	-0.296
-320.056	-200.000	-0.001	0.172
-319.041	-19.949	0.142	0.087
-318.026	-0.135	0.106	0.075
-317.012	84.451	0.248	0.269
-315.997	162.521	-0.201	-0.280
-314.983	-16.128	-0.164	0.104
-313.968	74.355	0.294	-0.307
-312.953	-200.000	0.067	-0.350
-311.939	-200.000	0.001	0.216
-310.924	-200.000	-0.004	-0.176
-309.910	5.262	-0.070	0.052
-308.895	88.209	-0.240	0.264
-307.880	-62.421	0.100	-0.041
-306.866	239.051	0.202	0.333
-305.851	257.713	0.112	0.192
-304.837	-174.197	0.126	0.004
-303.822	-38.056	0.068	-0.036
-302.807	-55.301	0.066	0.029
-301.793	23.655	-0.155	0.126
-300.778	129.513	0.131	-0.166
-299.764	-200.000	-0.014	-0.148
-298.749	202.244	-0.089	-0.136
-297.735	203.769	0.199	-0.306
-296.720	-95.536	-0.198	0.053
-295.705	-200.000	-0.047	-0.291
-294.691	182.360	-0.100	0.146
-293.676	66.056	-0.074	-0.075
-292.662	3.642	-0.147	0.106
-291.647	-200.000	-0.038	0.457
-290.632	-4.543	0.185	0.127
-289.618	-182.457	0.124	0.002
-288.603	-200.000	-0.031	0.137
-287.589	-11.295	0.135	-0.088
-286.574	-200.000	0.008	0.215
-285.559	-200.000	0.052	0.280
-284.545	605.898	0.051	-0.126
-283.530	800.000	-0.072	0.216
-282.516	65.089	-0.038	0.038
-281.501	26.273	0.117	0.097
-280.486	-177.665	0.096	0.002
-279.472	800.000	-0.005	-0.022
-278.457	800.000	0.042	0.132
-277.443	188.739	0.082	-0.121
-276.428	-20.250	-0.179	-0.109
-275.413	-169.107	0.124	-0.005
-274.399	378.888	-0.103	-0.209
-273.384	28.045	-0.118	-0.098
-272.370	-133.267	0.327	-0.041
-271.355	800.000	-0.042	-0.124
-270.340	-67.433	-0.042	-0.016
-269.326	-189.538	0.294	-0.003
-268.311	576.060	0.110	-0.267
-267.297	142.298	0.132	0.173
-266.282	-33.073	0.064	0.035
-265.267	800.000	-0.096	-0.263
-264.253	-200.000	-0.027	-0.186
-263.238	-200.000	-0.018	0.121
-262.224	-97.255	-0.230	0.059
-261.209	-165.051	-0.281	0.012
-260.195	499.722	-0.071	0.162
-259.180	21.247	-0.251	0.202
-258.165	800.000	0.058	-0.233
-257.151	-200.000	-0.011	0.117
-256.136	-200.000	0.021	0.175
-255.122	-70.192	0.145	-0.055
-254.107	-116.888	-0.133	0.024
-253.092	-200.000	-0.022	0.366
-252.078	-89.672	-0.483	0.140
-251.063	684.073	-0.080	-0.206
-250.049	50.987	0.284	-0.267
-249.034	800.000	-0.060	0.169
-248.019	99.644	0.164	-0.189
-247.005	-41.057	-0.027	-0.014
-245.990	-102.648	0.188	-0.044
-244.976	4.595	0.195	0.141
-243.961	-200.000	0.029	0.389
-242.946	-30.337	-0.147	0.083
-241.932	-122.971	0.171	0.027
-240.917	-46.034	0.113	-0.055
-239.903	-151.052	0.394	-0.029
-238.888	12.490	-0.312	0.238
-237.873	139.016	0.212	-0.277
-236.859	328.424	0.127	0.241
-235.844	-94.889	-0.301	-0.081
-234.830	-149.155	-0.224	-0.018
-233.815	-42.489	-0.274	-0.138
-232.800	-200.000	0.017	0.284
-231.786	51.431	-0.148	-0.139
-230.771	232.400	-0.137	-0.223
-229.757	768.460	-0.061	0.165
-228.742	800.000	0.038	-0.134
-227.727	-182.351	0.174	-0.003
-226.713	-200.000	0.001	0.229
-225.698	-16.878	0.247	-0.155
-224.684	-200.000	-0.044	-0.410
-223.669	71.433	-0.074	-0.076
-222.655	418.311	0.132	0.280
-221.640	-200.000	0.028	0.137
-220.625	800.000	-0.060	-0.172
-219.611	62.658	-0.157	-0.155
-218.596	67.378	-0.130	-0.131
-217.582	-8.096	0.132	0.088
-216.567	585.537	-0.179	0.436
-215.552	78.197	0.137	0.144
-214.538	57.674	-0.157	-0.152
-213.523	-150.817	-0.213	-0.016
-212.509	-127.071	-0.040	0.006
-211.494	69.095	-0.164	0.167
-210.479	-101.598	-0.196	0.047
-209.465	-119.646	0.159	0.027
-208.450	-169.826	0.225	-0.008
-207.436	267.455	0.169	0.292
-206.421	-200.000	0.000	0.023
-205.406	-158.647	0.354	-0.020
-204.392	-200.000	-0.026	0.267
-203.377	721.013	0.082	0.217
-202.363	-126.677	0.204	-0.030
-201.348	195.264	0.247	0.370
-200.333	454.633	0.047	0.102
-199.319	-30.870	-0.053	-0.030
-198.304	556.919	0.136	-0.324
-197.290	-194.928	0.458	0.003
-196.275	285.437	0.013	0.023
-195.260	36.429	0.142	0.124
-194.246	-142.684	-0.160	0.015
-193.231	160.408	0.291	0.401
-192.217	131.737	0.046	0.058
-191.202	465.203	-0.117	0.259
-190.187	28.187	0.225	0.188
-189.173	90.739	-0.048	0.053
-188.158	-200.000	0.048	0.362
-187.144	-126.643	-0.215	-0.031
-186.129	-137.930	0.122	-0.013
-185.114	800.000	0.059	0.169
-184.100	-39.077	0.413	0.215
-183.085	-200.000	-0.003	-0.263
-182.071	31.975	-0.160	0.136
-181.056	-200.000	0.015	-0.185
-180.042	642.058	0.057	-0.143
-179.027	-200.000	0.019	-0.401
-178.012	-115.964	-0.191	0.035
-176.998	121.615	-0.093	-0.114
-175.983	-145.520	-0.374	0.033
-174.969	388.645	0.037	0.076
-173.954	14.381	-0.123	0.095
-172.939	-92.397	-0.212	0.059
-171.925	-200.000	-0.013	0.074
-170.910	-200.000	0.025	0.215
-169.896	-200.000	0.026	-0.271
-168.881	-9.129	0.154	0.102
-167.866	-17.426	0.296	0.184
-166.852	800.000	0.062	0.207
-165.837	-37.558	-0.023	-0.012
-164.823	37.326	-0.087	-0.076
-163.808	800.000	0.035	-0.121
-162.793	-96.904	-0.403	0.105
-161.779	-93.729	-0.236	0.064
-160.764	122.543	0.234	0.288
-159.750	147.902	0.090	0.119
-158.735	800.000	-0.022	0.081
-157.720	-26.745	0.220	0.127
-156.706	-200.000	-0.018	0.375
-155.691	2.501	0.225	-0.161
-154.677	-88.430	-0.075	0.022
-153.662	130.239	0.034	0.042
-152.647	-104.682	0.138	0.031
-151.633	-200.000	0.028	0.133
-150.618	-200.000	0.006	0.062
-149.604	-47.437	0.019	0.009
-148.589	-13.355	-0.139	-0.089
-147.574	141.328	-0.076	-0.099
-146.560	-33.205	0.172	0.094
-145.545	137.389	0.256	0.331
-144.531	-119.984	0.229	0.039
-143.516	22.444	0.023	-0.019
-142.502	134.605	-0.091	-0.117
-141.487	-18.736	0.172	-0.105
-140.472	-35.116	-0.050	-0.027
-139.458	-130.472	0.099	0.013
-138.443	85.962	0.130	-0.141
-137.429	-26.404	-0.146	0.084
-136.414	-140.597	0.287	-0.029
-135.399	677.569	0.093	-0.238
-134.385	9.537	-0.042	-0.032
-133.370	169.595	0.147	0.207
-132.356	-144.153	-0.326	0.030
-131.341	18.439	-0.156	-0.123
-130.326	-108.075	0.154	-0.033
-129.312	-200.000	0.007	0.102
-128.297	552.993	0.118	0.278
-127.283	-80.552	0.195	0.064
-126.268	325.254	-0.052	0.098
-125.253	-200.000	-0.044	0.285
-124.239	-11.867	-0.299	-0.193
-123.224	-13.075	0.357	0.229
-122.210	-120.540	-0.041	0.007
-121.195	254.730	-0.131	0.221
