DTS Sentinel unit serial number:	SN413079Multiplexer serial number:	ORYXHardware model number:	OX4-SRSoftware version number:	ORYX F/W v4.00 Oryx Data Collector v3.7.2.0data status	okinstallation	princeton_trtdifferential loss correction	single-endedforward channel	channel 1reverse channel	N/Adate	2019/09/19time	12:38:35forward acquisition time	60.00reverse acquisition time	0.00gamma	496.2192k internal	0.2331k external	0.2331temperature offset calibration	1.0013default loss term (dB/km)	0.3790temperature slope calibration	1.0000multiplexer offset coefficient	1.0000multiplexer slope coefficient	1.0000fibre end	0.00T internal ref (°C)	27.44T ext. ref 1 (°C)	0.88T ext. ref 2 (°C)	25.32length (m)	temperature (°C)	Stokes	anti-Stokes-747.200	332.040	0.097	0.189
-746.185	299.465	0.034	-0.062
-745.171	-79.135	-0.065	-0.022
-744.156	-32.113	-0.223	-0.125
-743.142	-200.000	-0.030	-0.363
-742.127	140.213	0.184	-0.244
-741.112	-200.000	-0.023	0.153
-740.098	-132.260	0.214	0.028
-739.083	-49.773	0.276	0.132
-738.069	-72.717	0.063	0.023
-737.054	800.000	0.096	-0.409
-736.039	2.927	-0.247	-0.180
-735.025	-200.000	-0.019	0.088
-734.010	795.630	0.020	0.055
-732.996	-83.835	-0.249	0.080
-731.981	-175.713	-0.229	-0.006
-730.966	220.946	-0.150	-0.241
-729.952	-0.018	0.136	-0.097
-728.937	-200.000	0.054	-0.351
-727.923	172.670	-0.138	-0.199
-726.908	-200.000	0.003	0.376
-725.894	39.574	-0.167	0.151
-724.879	800.000	0.084	-0.314
-723.864	800.000	0.071	-0.259
-722.850	-86.818	0.282	-0.087
-721.835	-71.587	-0.182	-0.069
-720.821	696.755	-0.058	-0.153
-719.806	-200.000	0.009	-0.302
-718.791	-76.942	-0.171	-0.060
-717.777	-88.246	-0.438	-0.132
-716.762	7.173	0.093	-0.070
-715.748	-200.000	0.047	0.287
-714.733	20.120	0.253	0.205
-713.718	-47.090	0.050	-0.024
-712.704	-17.556	-0.292	-0.185
-711.689	14.499	-0.155	-0.122
-710.675	360.375	0.087	-0.175
-709.660	-200.000	-0.005	-0.288
-708.645	44.821	-0.114	-0.105
-707.631	-21.371	0.079	-0.048
-706.616	-200.000	-0.049	-0.228
-705.602	-54.281	-0.168	-0.077
-704.587	-200.000	0.036	0.192
-703.572	64.674	0.042	-0.043
-702.558	-200.000	-0.016	-0.102
-701.543	-200.000	-0.020	0.269
-700.529	-200.000	-0.008	-0.155
-699.514	-35.314	-0.459	-0.251
-698.499	-200.000	-0.032	-0.163
-697.485	343.217	0.105	0.207
-696.470	30.379	-0.014	0.012
-695.456	-200.000	0.029	0.186
-694.441	430.897	-0.146	0.317
-693.426	1.953	0.070	-0.051
-692.412	-196.538	-0.134	0.001
-691.397	-200.000	0.122	-0.000
-690.383	16.333	-0.089	0.071
-689.368	-48.581	0.301	-0.145
-688.354	-200.000	0.019	-0.289
-687.339	13.307	0.290	-0.226
-686.324	-125.412	-0.133	-0.020
-685.310	800.000	0.054	0.178
-684.295	59.303	-0.051	-0.050
-683.281	-145.346	-0.103	-0.009
-682.266	-82.724	-0.259	0.084
-681.251	800.000	0.101	-0.283
-680.237	-44.761	0.151	0.076
-679.222	800.000	-0.076	-0.285
-678.208	-127.376	0.268	0.039
-677.193	757.419	-0.051	-0.138
-676.178	183.361	0.141	0.209
-675.164	-5.797	0.276	-0.190
-674.149	15.104	0.156	0.123
-673.135	307.700	-0.032	0.060
-672.120	-82.153	-0.255	0.084
-671.105	-63.581	0.243	0.100
-670.091	234.029	0.094	-0.155
-669.076	-8.384	-0.135	-0.091
-668.062	-200.000	0.037	-0.384
-667.047	-6.674	0.111	0.076
-666.032	-130.402	0.233	0.032
-665.018	175.472	-0.150	0.218
-664.003	800.000	-0.044	-0.158
-662.989	392.366	-0.030	0.062
-661.974	65.952	0.217	-0.221
-660.959	424.591	-0.118	-0.254
-659.945	557.886	-0.200	-0.483
-658.930	-56.666	-0.414	-0.184
-657.916	238.910	0.176	0.294
-656.901	-70.037	0.362	-0.138
-655.886	-49.499	0.039	-0.019
-654.872	376.384	0.118	0.241
-653.857	-87.704	0.197	-0.060
-652.843	-28.658	-0.169	0.098
-651.828	387.245	0.003	0.006
-650.814	-200.000	0.007	-0.084
-649.799	-17.977	-0.206	0.129
-648.784	79.409	-0.147	-0.158
-647.770	697.839	0.086	0.227
-646.755	-200.000	-0.016	0.172
-645.741	800.000	0.050	0.170
-644.726	201.521	0.167	0.257
-643.711	-59.060	-0.059	-0.026
-642.697	-79.228	0.138	-0.047
-641.682	-149.520	-0.391	-0.031
-640.668	-72.706	-0.122	-0.045
-639.653	-15.675	0.195	-0.124
-638.638	-80.758	0.099	-0.033
-637.624	-200.000	0.025	0.131
-636.609	800.000	0.077	-0.285
-635.595	86.518	0.134	0.148
-634.580	-89.978	0.185	-0.054
-633.565	76.275	0.062	-0.066
-632.551	-48.343	-0.133	0.064
-631.536	261.416	-0.276	0.479
-630.522	529.173	-0.076	-0.179
-629.507	-18.513	0.159	-0.100
-628.492	36.282	-0.184	0.162
-627.478	-93.359	0.403	-0.112
-626.463	165.189	-0.056	-0.080
-625.449	-41.635	-0.154	0.079
-624.434	-1.927	-0.436	0.307
-623.419	-42.789	0.214	-0.109
-622.405	-26.842	-0.398	0.233
-621.390	-10.119	0.382	0.254
-620.376	38.162	0.307	0.274
-619.361	-112.364	0.146	-0.029
-618.346	148.517	-0.192	-0.259
-617.332	95.288	0.211	-0.241
-616.317	49.006	0.247	-0.232
-615.303	191.267	-0.063	0.095
-614.288	-17.161	0.259	0.164
-613.273	56.364	-0.092	0.089
-612.259	800.000	0.119	0.429
-611.244	481.711	-0.104	-0.236
-610.230	6.890	0.361	0.269
-609.215	199.617	-0.162	-0.249
-608.201	-44.401	0.223	-0.112
-607.186	-98.187	0.221	-0.057
-606.171	207.858	-0.073	-0.114
-605.157	299.618	-0.263	-0.486
-604.142	727.095	-0.090	-0.241
-603.128	29.533	-0.166	0.141
-602.113	-200.000	0.035	-0.352
-601.098	-180.260	-0.100	0.002
-600.084	-118.761	-0.180	-0.032
-599.069	-3.248	0.130	-0.091
-598.055	800.000	0.075	0.319
-597.040	-154.965	-0.086	0.006
-596.025	229.975	0.043	-0.071
-595.011	-16.767	-0.202	-0.128
-593.996	197.502	-0.176	0.269
-592.982	-200.000	0.005	0.074
-591.967	20.128	0.285	0.230
-590.952	800.000	-0.062	-0.184
-589.938	-200.000	-0.028	-0.172
-588.923	33.946	-0.077	-0.067
-587.909	-200.000	0.046	-0.301
-586.894	122.240	0.141	-0.176
-585.879	335.122	0.077	-0.150
-584.865	109.655	-0.062	-0.074
-583.850	-12.210	0.111	-0.073
-582.836	161.316	-0.142	0.199
-581.821	-42.208	-0.050	-0.026
-580.806	-18.444	-0.408	-0.255
-579.792	8.259	0.119	-0.090
-578.777	-80.904	-0.154	0.051
-577.763	-7.387	0.138	-0.094
-576.748	12.165	0.132	-0.101
-575.733	-22.508	-0.337	-0.204
-574.719	291.436	-0.015	0.027
-573.704	-200.000	-0.023	-0.344
-572.690	-156.424	0.095	-0.006
-571.675	293.325	0.061	0.110
-570.661	25.010	-0.212	0.176
-569.646	-106.493	0.331	-0.074
-568.631	800.000	-0.134	0.409
-567.617	-150.509	0.330	0.025
-566.602	484.766	-0.062	0.141
-565.588	-56.386	0.150	-0.066
-564.573	335.710	0.194	0.376
-563.558	42.563	-0.097	-0.088
-562.544	-95.785	0.099	0.026
-561.529	-46.494	0.120	0.059
-560.515	800.000	0.016	-0.047
-559.500	51.866	-0.247	-0.235
-558.485	-54.320	0.068	-0.031
-557.471	242.748	0.121	0.202
-556.456	-65.449	0.356	-0.143
-555.442	101.392	0.096	0.112
-554.427	-81.586	0.055	-0.018
-553.412	-121.199	-0.425	0.071
-552.398	105.998	0.077	0.091
-551.383	44.848	0.130	0.120
-550.369	-200.000	-0.014	0.244
-549.354	146.261	0.176	0.236
-548.339	290.132	-0.052	0.094
-547.325	28.939	0.389	0.329
-546.310	-72.367	-0.220	-0.081
-545.296	30.826	0.184	0.158
-544.281	-200.000	0.007	0.128
-543.266	-76.051	0.036	-0.013
-542.252	-14.286	0.121	-0.078
-541.237	-181.427	0.305	0.006
-540.223	-126.709	-0.215	0.032
-539.208	295.854	-0.026	-0.048
-538.193	133.066	-0.188	-0.243
-537.179	-69.907	-0.323	-0.123
-536.164	310.060	0.072	-0.134
-535.150	-126.536	-0.179	-0.027
-534.135	142.885	-0.171	-0.227
-533.121	800.000	-0.060	-0.231
-532.106	314.507	-0.179	-0.337
-531.091	74.234	0.043	-0.045
-530.077	-8.771	0.140	0.093
-529.062	-117.836	0.168	-0.030
-528.048	-66.159	-0.277	0.110
-527.033	-200.000	0.023	-0.167
-526.018	-200.000	-0.038	-0.351
-525.004	58.100	-0.058	0.057
-523.989	-16.945	-0.110	0.069
-522.975	-179.484	-0.039	-0.001
-521.960	-99.425	0.320	0.080
-520.945	-20.854	0.149	-0.091
-519.931	-56.018	0.352	0.157
-518.916	-119.755	-0.209	-0.036
-517.902	116.547	0.287	0.351
-516.887	777.510	-0.086	0.234
-515.872	196.616	0.066	-0.101
-514.858	-31.859	0.021	-0.012
-513.843	-14.494	0.231	0.148
-512.829	800.000	-0.099	-0.383
-511.814	-61.230	-0.315	-0.132
-510.799	-27.709	0.195	0.113
-509.785	800.000	0.103	-0.394
-508.770	717.172	0.052	0.137
-507.756	70.232	0.013	-0.013
-506.741	-200.000	0.005	0.075
-505.726	800.000	0.012	-0.048
-504.712	119.183	0.122	0.151
-503.697	10.583	0.187	0.142
-502.683	800.000	0.045	-0.171
-501.668	32.599	-0.215	-0.185
-500.653	-200.000	0.032	-0.145
-499.639	-104.244	0.295	-0.068
-498.624	-90.566	0.189	-0.054
-497.610	-104.830	0.061	-0.014
-496.595	-45.408	0.160	-0.079
-495.581	400.864	-0.058	-0.121
-494.566	800.000	-0.046	0.151
-493.551	-70.479	0.382	-0.144
-492.537	301.548	-0.141	-0.259
-491.522	-24.710	0.228	0.135
-490.508	-70.459	-0.108	0.041
-489.493	20.307	-0.096	0.077
-488.478	225.023	-0.075	0.122
-487.464	-45.065	-0.163	0.081
-486.449	-147.531	-0.305	-0.026
-485.435	-200.000	-0.026	0.239
-484.420	-135.765	0.061	0.007
-483.405	-50.753	0.421	0.198
-482.391	-200.000	-0.042	-0.323
-481.376	66.899	-0.177	-0.180
-480.362	38.979	-0.119	-0.106
-479.347	-200.000	-0.043	0.248
-478.332	-200.000	-0.008	0.210
-477.318	-101.805	0.150	0.036
-476.303	171.295	0.055	0.078
-475.289	-61.627	0.063	-0.026
-474.274	289.142	-0.151	0.272
-473.259	-152.153	0.174	-0.013
-472.245	-200.000	0.008	0.081
-471.230	-172.642	-0.099	-0.003
-470.216	-200.000	0.016	0.314
-469.201	-102.998	0.270	-0.064
-468.186	47.820	-0.295	0.274
-467.172	-61.539	-0.298	-0.125
-466.157	44.368	-0.134	0.123
-465.143	-148.650	-0.177	-0.014
-464.128	-200.000	0.039	0.228
-463.113	-164.257	-0.068	-0.003
-462.099	-76.421	0.084	-0.029
-461.084	198.733	0.075	0.115
-460.070	71.334	-0.225	-0.232
-459.055	388.326	0.098	-0.201
-458.040	-58.389	-0.085	0.037
-457.026	-200.000	-0.037	0.224
-456.011	-177.033	-0.239	0.006
-454.997	-92.715	0.009	0.003
-453.982	291.938	0.066	-0.119
-452.968	-89.654	-0.420	-0.123
-451.953	59.627	0.310	0.304
-450.938	-101.525	0.101	-0.024
-449.924	-200.000	0.065	-0.458
-448.909	-29.372	-0.106	-0.060
-447.895	-200.000	0.002	-0.418
-446.880	-100.207	-0.167	-0.041
-445.865	800.000	-0.111	-0.316
-444.851	157.551	0.021	-0.028
-443.836	-0.426	-0.360	0.255
-442.822	-58.909	-0.253	-0.109
-441.807	-130.288	-0.087	-0.012
-440.792	-25.976	0.122	0.072
-439.778	502.796	0.031	-0.071
-438.763	370.516	-0.121	0.243
-437.749	158.349	0.216	0.298
-436.734	273.392	0.163	0.286
-435.719	-38.250	-0.225	-0.118
-434.705	-51.550	0.146	-0.068
-433.690	-200.000	0.020	-0.421
-432.676	354.062	0.057	0.112
-431.661	-31.609	0.265	0.148
-430.646	-196.806	0.383	-0.003
-429.632	-53.647	0.259	0.118
-428.617	800.000	-0.085	0.306
-427.603	76.168	-0.060	0.063
-426.588	-200.000	0.017	-0.165
-425.573	800.000	-0.120	-0.409
-424.559	-61.437	-0.085	-0.035
-423.544	-68.815	0.076	0.029
-422.530	184.741	-0.059	-0.087
-421.515	-200.000	-0.010	0.422
-420.500	782.705	-0.121	-0.329
-419.486	-23.708	0.182	-0.108
-418.471	103.354	-0.319	0.371
-417.457	-66.464	-0.422	-0.167
-416.442	-38.822	-0.325	0.171
-415.428	359.851	0.082	0.164
-414.413	800.000	0.061	-0.263
-413.398	-200.000	0.040	0.217
-412.384	-40.781	-0.146	0.075
-411.369	-200.000	0.034	-0.297
-410.355	-63.933	0.129	0.052
-409.340	-200.000	-0.112	0.590
-408.325	800.000	-0.062	-0.246
-407.311	60.009	-0.345	-0.339
-406.296	-200.000	-0.004	-0.230
-405.282	268.044	0.072	0.125
-404.267	-123.900	-0.248	-0.039
-403.252	-77.907	0.115	0.039
-402.238	27.952	-0.143	-0.120
-401.223	-55.277	-0.195	-0.087
-400.209	-200.000	-0.012	-0.134
-399.194	-19.750	0.269	-0.165
-398.179	-82.617	0.260	0.084
-397.165	-200.000	-0.025	0.199
-396.150	1.016	0.087	-0.062
-395.136	-200.000	0.057	0.458
-394.121	-85.842	0.155	-0.048
-393.106	-73.444	-0.060	0.022
-392.092	-200.000	0.008	-0.106
-391.077	-50.414	0.366	0.172
-390.063	72.799	0.096	-0.100
-389.048	800.000	0.057	0.237
-388.033	-200.000	-0.041	-0.265
-387.019	-200.000	0.012	-0.171
-386.004	-122.011	-0.057	-0.009
-384.990	-16.589	0.077	0.048
-383.975	415.760	-0.098	0.208
-382.960	22.698	0.293	-0.238
-381.946	-200.000	-0.303	-0.001
-380.931	479.558	-0.098	-0.221
-379.917	-200.000	-0.041	-0.314
-378.902	-126.041	-0.263	-0.039
-377.888	88.046	0.110	-0.121
-376.873	-44.463	0.073	0.036
-375.858	800.000	0.020	0.065
-374.844	120.158	-0.144	-0.177
-373.829	-4.383	-0.412	0.283
-372.815	180.466	-0.073	0.106
-371.800	-55.041	-0.170	-0.076
-370.785	41.241	0.109	0.098
-369.771	-168.452	-0.125	-0.005
-368.756	100.736	0.183	0.211
-367.742	388.944	0.059	0.121
-366.727	486.707	0.158	0.357
-365.712	67.216	-0.350	0.354
-364.698	-200.000	-0.037	0.179
-363.683	-67.754	0.271	0.105
-362.669	-200.000	0.023	-0.105
-361.654	-75.208	0.311	0.110
-360.639	-86.411	-0.082	0.025
-359.625	-98.699	-0.093	0.024
-358.610	495.626	0.096	-0.219
-357.596	-102.618	0.108	-0.026
-356.581	242.794	-0.119	0.197
-355.566	-200.000	0.079	-0.374
-354.552	-132.067	-0.240	0.031
-353.537	-81.213	0.124	0.041
-352.523	616.837	-0.032	0.080
-351.508	-43.872	-0.161	-0.080
-350.493	-51.347	0.192	-0.089
-349.479	800.000	-0.031	0.095
-348.464	-119.394	-0.090	0.015
-347.450	36.239	0.108	-0.095
-346.435	-200.000	-0.003	0.214
-345.420	-22.277	0.199	-0.120
-344.406	800.000	-0.070	-0.192
-343.391	152.123	0.241	-0.325
-342.377	-110.638	-0.291	0.060
-341.362	-200.000	-0.014	0.091
-340.348	431.776	0.109	0.234
-339.333	-200.000	-0.009	0.184
-338.318	22.954	0.181	0.147
-337.304	151.502	0.073	-0.099
-336.289	16.157	-0.142	-0.111
-335.275	140.416	0.189	0.247
-334.260	-70.166	0.116	-0.044
-333.245	800.000	0.027	-0.108
-332.231	713.871	0.051	0.134
-331.216	-23.731	0.274	-0.163
-330.202	159.819	0.249	-0.344
-329.187	-27.262	-0.132	-0.076
-328.172	510.872	-0.070	0.162
-327.158	-62.005	0.082	0.034
-326.143	-123.364	-0.284	0.045
-325.129	-200.000	-0.010	0.047
-324.114	-37.994	-0.343	0.180
-323.099	-31.224	0.272	0.152
-322.085	1.343	0.131	0.093
-321.070	227.458	-0.040	-0.065
-320.056	340.465	-0.070	0.134
-319.041	173.798	-0.037	-0.053
-318.026	42.421	0.234	0.211
-317.012	-51.719	0.109	0.050
-315.997	161.768	0.123	-0.171
-314.983	800.000	-0.028	-0.098
-313.968	267.838	0.088	-0.152
-312.953	345.206	-0.051	-0.099
-311.939	-200.000	0.035	-0.369
-310.924	102.183	0.166	0.192
-309.910	531.707	-0.133	-0.312
-308.895	-200.000	0.086	-0.434
-307.880	152.048	-0.175	-0.236
-306.866	-184.073	0.333	0.006
-305.851	-67.949	-0.328	0.127
-304.837	-120.566	-0.064	-0.011
-303.822	196.186	0.210	0.316
-302.807	-76.901	-0.227	-0.078
-301.793	56.517	0.337	-0.324
-300.778	-168.720	0.194	-0.007
-299.764	114.899	0.033	-0.040
-298.749	24.871	-0.145	-0.119
-297.735	101.020	0.230	-0.264
-296.720	-144.236	0.262	0.024
-295.705	-84.327	-0.247	-0.077
-294.691	-57.851	-0.148	-0.064
-293.676	-116.665	0.209	-0.038
-292.662	-50.739	-0.340	0.158
-291.647	-200.000	-0.063	0.378
-290.632	44.215	-0.253	0.230
-289.618	111.568	-0.115	-0.138
-288.603	-135.631	-0.119	0.014
-287.589	-143.167	0.239	0.023
-286.574	-200.000	0.019	0.125
-285.559	50.117	-0.056	-0.052
-284.545	54.148	-0.181	-0.172
-283.530	669.439	-0.069	0.176
-282.516	800.000	0.029	-0.094
-281.501	57.483	0.352	0.340
-280.486	-38.574	0.319	-0.166
-279.472	222.426	0.105	-0.167
-278.457	-200.000	-0.003	-0.100
-277.443	32.077	-0.152	-0.129
-276.428	-111.854	0.085	-0.017
-275.413	-1.754	-0.032	0.022
-274.399	-101.728	-0.297	0.071
-273.384	-200.000	-0.020	0.196
-272.370	40.061	0.144	-0.127
-271.355	39.289	-0.244	0.215
-270.340	-43.434	0.137	-0.068
-269.326	119.191	-0.106	-0.130
-268.311	-22.855	-0.149	0.089
-267.297	-4.975	-0.211	-0.143
-266.282	-18.885	-0.384	0.236
-265.267	114.337	0.104	-0.125
-264.253	416.176	-0.108	0.227
-263.238	-31.298	-0.219	-0.122
-262.224	25.796	0.093	-0.077
-261.209	-200.000	-0.009	-0.451
-260.195	220.402	-0.133	0.210
-259.180	41.879	-0.395	0.354
-258.165	-60.377	-0.116	0.049
-257.151	-40.713	-0.371	0.190
-256.136	-154.989	0.247	0.016
-255.122	-80.390	0.294	-0.097
-254.107	800.000	-0.059	-0.164
-253.092	236.748	0.070	-0.115
-252.078	82.933	0.183	0.196
-251.063	111.852	0.134	0.160
-250.049	54.553	-0.283	0.269
-249.034	-200.000	-0.051	0.332
-248.019	-31.247	-0.246	0.137
-247.005	36.745	0.026	0.023
-245.990	-200.000	0.017	0.269
-244.976	-115.857	-0.176	0.032
-243.961	800.000	-0.040	0.121
-242.946	-70.404	0.252	0.094
-241.932	110.629	-0.198	0.235
-240.917	367.047	-0.052	0.104
-239.903	-141.618	-0.143	0.014
-238.888	51.064	-0.251	0.235
-237.873	-57.700	0.140	-0.061
-236.859	-68.839	0.376	-0.143
-235.844	251.976	-0.081	-0.136
-234.830	800.000	0.043	-0.130
-233.815	794.431	-0.111	-0.302
-232.800	268.816	-0.096	-0.166
-231.786	-200.000	0.017	0.221
-230.771	-165.968	0.145	0.006
-229.757	-144.496	0.280	0.026
-228.742	65.661	-0.370	-0.370
-227.727	-148.564	0.239	-0.019
-226.713	800.000	-0.017	-0.060
-225.698	56.001	0.070	0.067
-224.684	111.864	0.097	-0.116
-223.669	-200.000	-0.008	0.314
-222.655	-114.084	-0.055	0.011
-221.640	-151.676	-0.277	-0.020
-220.625	-186.494	0.240	-0.003
-219.611	-83.845	0.203	-0.064
-218.596	26.577	-0.079	-0.065
-217.582	-35.840	-0.335	0.179
-216.567	144.828	0.210	-0.276
-215.552	-40.121	-0.215	0.111
-214.538	49.787	0.080	-0.074
-213.523	42.659	-0.187	0.168
-212.509	109.535	0.106	0.125
-211.494	-99.805	0.367	-0.091
-210.479	31.253	-0.095	0.081
-209.465	-195.800	0.191	0.001
-208.450	-200.000	-0.038	0.195
-207.436	-200.000	0.013	0.077
-206.421	4.173	-0.149	-0.108
-205.406	76.909	0.178	-0.186
-204.392	42.009	-0.169	-0.151
-203.377	-79.201	-0.139	0.047
-202.363	-118.574	-0.206	-0.036
-201.348	800.000	0.054	0.229
-200.333	-170.794	-0.308	0.010
-199.319	-9.079	0.188	-0.124
-198.304	511.218	0.102	-0.234
-197.290	395.017	-0.019	0.038
-196.275	-74.583	0.135	-0.048
-195.260	-200.000	-0.017	0.103
-194.246	-36.622	0.077	-0.041
-193.231	-200.000	0.020	-0.144
-192.217	-75.336	-0.236	0.083
-191.202	-1.291	-0.102	-0.071
-190.187	84.120	-0.237	0.254
-189.173	-118.511	-0.386	0.067
-188.158	-200.000	-0.011	-0.193
-187.144	-200.000	-0.077	-0.451
-186.129	543.877	-0.150	0.352
-185.114	-168.349	0.211	-0.008
-184.100	266.203	0.190	-0.327
-183.085	800.000	-0.091	-0.265
-182.071	238.289	-0.052	0.086
-181.056	800.000	-0.103	0.404
-180.042	800.000	-0.048	0.161
-179.027	-147.411	0.301	-0.025
-178.012	698.073	-0.088	-0.228
-176.998	28.432	-0.078	0.065
-175.983	171.626	0.123	0.174
-174.969	-200.000	0.003	0.151
-173.954	-40.674	0.106	-0.054
-172.939	-200.000	0.009	-0.325
-171.925	800.000	-0.016	0.066
-170.910	-90.610	-0.258	0.073
-169.896	800.000	-0.050	0.168
-168.881	126.600	0.163	-0.203
-167.866	-25.053	-0.244	-0.142
-166.852	-34.477	0.324	0.175
-165.837	-10.031	0.189	-0.124
-164.823	547.024	0.063	-0.147
-163.808	193.802	-0.032	-0.048
-162.793	24.262	0.201	0.163
-161.779	224.532	-0.196	-0.312
-160.764	-108.467	-0.312	-0.066
-159.750	-2.523	0.081	0.056
-158.735	3.181	-0.071	-0.051
-157.720	335.172	-0.101	0.193
-156.706	-193.588	0.107	0.001
-155.691	-3.019	0.263	-0.180
-154.677	-92.382	-0.036	-0.010
-153.662	202.888	0.041	-0.062
-152.647	-78.234	0.397	-0.134
-151.633	-46.675	0.319	0.154
-150.618	119.067	0.369	0.449
-149.604	201.841	0.012	0.018
-148.589	-84.848	-0.225	-0.069
-147.574	208.957	-0.075	-0.115
-146.560	-75.624	0.096	0.033
-145.545	800.000	-0.090	-0.309
-144.531	56.016	0.208	-0.198
-143.516	-123.258	0.066	-0.010
-142.502	-148.065	0.065	-0.005
-141.487	76.402	0.178	-0.185
-140.472	-200.000	0.029	-0.207
-139.458	-200.000	-0.019	0.240
-138.443	-117.118	0.072	-0.013
-137.429	576.065	-0.022	0.053
-136.414	800.000	-0.076	-0.254
-135.399	93.203	0.274	-0.305
-134.385	-82.791	-0.218	-0.069
-133.370	13.027	-0.022	-0.017
-132.356	-15.633	-0.218	-0.137
-131.341	646.009	0.036	0.092
-130.326	-44.046	-0.202	0.100
-129.312	3.932	0.376	0.270
-128.297	-51.419	0.285	-0.131
-127.283	-10.607	-0.192	0.125
-126.268	-43.263	0.447	0.222
-125.253	751.405	-0.093	0.248
-124.239	-138.372	0.063	0.007
-123.224	124.329	0.119	0.148
-122.210	-200.000	0.006	0.198
-121.195	70.690	-0.196	-0.200
