DTS Sentinel unit serial number:	SN413079Multiplexer serial number:	ORYXHardware model number:	OX4-SRSoftware version number:	ORYX F/W v4.00 Oryx Data Collector v3.7.2.0data status	okinstallation	princeton_trtdifferential loss correction	single-endedforward channel	channel 1reverse channel	N/Adate	2019/09/12time	17:32:11forward acquisition time	60.00reverse acquisition time	0.00gamma	496.2192k internal	0.2316k external	0.2316temperature offset calibration	1.0108default loss term (dB/km)	0.3790temperature slope calibration	1.0000multiplexer offset coefficient	1.0000multiplexer slope coefficient	1.0000fibre end	0.00T internal ref (°C)	34.53T ext. ref 1 (°C)	2.93T ext. ref 2 (°C)	28.56length (m)	temperature (°C)	Stokes	anti-Stokes-747.200	-34.480	0.119	-0.066
-746.185	-80.039	0.088	0.030
-745.171	-16.990	-0.088	0.056
-744.156	303.150	0.185	0.348
-743.142	15.287	-0.143	-0.113
-742.127	800.000	-0.055	0.178
-741.112	800.000	0.060	-0.205
-740.098	2.585	0.133	0.097
-739.083	402.439	0.048	-0.101
-738.069	268.868	0.084	0.149
-737.054	-55.244	-0.219	0.100
-736.039	-113.531	-0.206	0.041
-735.025	156.880	0.193	0.270
-734.010	-3.751	-0.194	-0.137
-732.996	-200.000	0.000	-0.071
-731.981	117.757	-0.185	-0.230
-730.966	283.008	-0.056	-0.102
-729.952	-200.000	0.003	0.078
-728.937	68.907	-0.135	-0.141
-727.923	28.795	-0.248	0.213
-726.908	-116.940	-0.226	0.042
-725.894	-56.879	-0.215	0.096
-724.879	-84.044	-0.168	0.054
-723.864	-144.245	0.029	0.003
-722.850	800.000	-0.039	0.151
-721.835	-94.651	-0.084	0.023
-720.821	109.586	-0.217	0.263
-719.806	-181.318	0.397	0.008
-718.791	179.146	-0.089	0.132
-717.777	-128.833	0.134	-0.019
-716.762	362.537	-0.117	0.238
-715.748	-118.185	-0.212	-0.038
-714.733	-200.000	-0.029	-0.247
-713.718	-29.106	-0.145	0.084
-712.704	800.000	-0.126	-0.411
-711.689	48.381	0.196	-0.186
-710.675	146.640	-0.151	0.205
-709.660	-9.342	-0.125	0.084
-708.645	-193.085	-0.170	-0.002
-707.631	670.829	0.049	-0.129
-706.616	-197.885	-0.154	-0.001
-705.602	155.084	-0.167	-0.233
-704.587	154.987	-0.103	-0.144
-703.572	-200.000	-0.004	-0.230
-702.558	-18.259	-0.137	0.087
-701.543	-29.362	-0.103	-0.060
-700.529	147.177	0.038	-0.051
-699.514	63.864	0.181	0.184
-698.499	-48.697	-0.138	0.067
-697.485	236.521	0.145	-0.243
-696.470	-86.484	-0.393	-0.122
-695.456	-28.199	0.390	0.228
-694.441	99.027	0.178	0.207
-693.426	-60.561	0.343	0.147
-692.412	151.373	0.170	0.234
-691.397	573.130	-0.130	0.321
-690.383	-107.786	-0.215	-0.047
-689.368	-11.264	0.388	-0.259
-688.354	-200.000	-0.012	-0.154
-687.339	-200.000	0.009	0.218
-686.324	-200.000	-0.016	-0.180
-685.310	399.410	-0.128	-0.271
-684.295	-81.732	-0.284	0.094
-683.281	-75.927	-0.358	-0.128
-682.266	-21.328	-0.227	-0.140
-681.251	95.155	-0.067	0.077
-680.237	127.937	0.153	-0.197
-679.222	265.096	0.074	-0.130
-678.208	22.081	0.073	-0.060
-677.193	-111.698	0.071	0.014
-676.178	19.531	0.231	0.187
-675.164	39.173	-0.159	0.144
-674.149	90.267	0.158	-0.179
-673.135	-193.286	-0.128	-0.001
-672.120	-123.241	-0.439	0.071
-671.105	-116.367	0.377	-0.070
-670.091	38.300	0.269	-0.242
-669.076	-107.219	0.308	-0.069
-668.062	-91.107	0.145	-0.042
-667.047	-133.977	-0.291	-0.036
-666.032	-200.000	-0.028	0.234
-665.018	-200.000	0.001	0.248
-664.003	91.267	-0.014	0.016
-662.989	-83.020	-0.216	0.070
-661.974	-82.197	-0.091	0.030
-660.959	-200.000	-0.003	0.123
-659.945	61.872	-0.218	0.219
-658.930	23.572	0.246	0.204
-657.916	208.825	-0.042	-0.067
-656.901	-151.493	-0.296	0.022
-655.886	-200.000	0.022	-0.158
-654.872	-32.783	-0.136	0.076
-653.857	-68.992	0.418	-0.163
-652.843	-200.000	0.003	-0.051
-651.828	-200.000	0.008	-0.173
-650.814	-200.000	-0.016	-0.158
-649.799	-200.000	0.009	0.044
-648.784	102.186	-0.332	0.391
-647.770	-27.379	0.008	-0.005
-646.755	800.000	0.069	0.219
-645.741	266.625	0.165	-0.291
-644.726	-200.000	-0.004	-0.074
-643.711	-112.729	0.254	0.051
-642.697	117.838	0.102	-0.127
-641.682	-161.955	0.158	-0.008
-640.668	-200.000	0.084	0.404
-639.653	-200.000	-0.041	-0.184
-638.638	-8.140	-0.274	-0.186
-637.624	260.652	0.051	0.089
-636.609	800.000	0.132	0.405
-635.595	243.655	0.088	0.149
-634.580	-101.269	-0.115	0.028
-633.565	173.672	0.274	-0.399
-632.551	-134.441	0.032	0.004
-631.536	-200.000	-0.002	-0.204
-630.522	113.202	0.244	-0.298
-629.507	-94.221	0.105	-0.029
-628.492	-70.113	-0.324	-0.124
-627.478	407.418	-0.056	0.120
-626.463	-17.795	0.427	0.270
-625.449	594.798	-0.072	0.180
-624.434	-200.000	-0.001	0.050
-623.419	-114.896	-0.144	-0.028
-622.405	-125.107	0.249	-0.039
-621.390	-200.000	0.018	-0.235
-620.376	-42.440	-0.161	-0.083
-619.361	7.917	-0.320	0.242
-618.346	800.000	-0.033	0.106
-617.332	-10.655	-0.337	0.225
-616.317	-158.237	0.281	0.017
-615.303	-74.206	-0.269	-0.098
-614.288	245.099	-0.154	0.262
-613.273	106.100	-0.178	0.212
-612.259	-62.484	-0.417	0.175
-611.244	-110.451	0.122	0.025
-610.230	800.000	-0.033	0.093
-609.215	-200.000	-0.006	-0.068
-608.201	-64.477	0.259	-0.106
-607.186	-82.656	-0.142	-0.046
-606.171	255.681	-0.013	-0.022
-605.157	800.000	0.138	-0.436
-604.142	-18.967	0.044	0.028
-603.128	-40.550	-0.144	0.076
-602.113	-101.442	-0.257	0.063
-601.098	-44.146	0.021	-0.011
-600.084	-26.259	0.109	0.064
-599.069	800.000	-0.075	-0.274
-598.055	800.000	-0.031	-0.117
-597.040	-200.000	0.017	-0.092
-596.025	-200.000	-0.003	0.194
-595.011	-49.068	-0.060	0.029
-593.996	-56.539	0.167	0.075
-592.982	133.581	0.121	-0.158
-591.967	387.231	-0.161	0.335
-590.952	-11.372	0.154	0.102
-589.938	240.595	0.086	0.145
-588.923	-200.000	-0.015	-0.236
-587.909	800.000	-0.144	-0.635
-586.894	323.690	-0.051	0.098
-585.879	122.029	0.109	-0.138
-584.865	-39.498	-0.282	0.149
-583.850	-200.000	0.020	-0.242
-582.836	-200.000	-0.042	-0.386
-581.821	-19.561	-0.143	0.089
-580.806	800.000	0.049	0.188
-579.792	-62.266	-0.182	0.076
-578.777	800.000	0.045	-0.145
-577.763	-125.362	-0.145	-0.022
-576.748	-178.853	-0.184	-0.004
-575.733	360.413	-0.141	0.284
-574.719	-118.893	0.430	-0.076
-573.704	-200.000	-0.006	-0.181
-572.690	126.063	0.121	-0.154
-571.675	92.522	0.063	-0.072
-570.661	10.441	-0.039	-0.030
-569.646	-200.000	-0.015	-0.257
-568.631	55.928	0.054	-0.052
-567.617	-110.950	-0.155	-0.032
-566.602	-200.000	0.003	0.039
-565.588	-142.705	-0.067	0.007
-564.573	-7.370	-0.104	-0.071
-563.558	-93.234	0.410	0.115
-562.544	-200.000	-0.005	-0.047
-561.529	-26.685	0.221	0.130
-560.515	53.877	-0.175	-0.169
-559.500	201.001	0.093	0.144
-558.485	68.187	0.071	-0.073
-557.471	800.000	-0.042	-0.158
-556.456	-107.626	0.164	0.036
-555.442	-200.000	-0.008	0.071
-554.427	14.441	0.049	-0.039
-553.412	-47.187	-0.235	-0.115
-552.398	800.000	0.064	-0.200
-551.383	-112.670	-0.539	-0.108
-550.369	-200.000	-0.007	0.231
-549.354	98.921	0.056	0.065
-548.339	214.277	0.294	-0.468
-547.325	-104.579	-0.266	0.062
-546.310	258.925	-0.199	-0.345
-545.296	-64.969	0.217	0.088
-544.281	6.948	-0.137	-0.103
-543.266	-0.313	-0.178	-0.127
-542.252	-77.217	-0.266	0.093
-541.237	-200.000	-0.002	-0.176
-540.223	89.725	0.021	-0.024
-539.208	-36.988	0.108	0.058
-538.193	800.000	0.039	0.139
-537.179	-153.453	-0.257	-0.018
-536.164	800.000	-0.096	-0.381
-535.150	-200.000	0.013	-0.222
-534.135	11.289	-0.029	-0.023
-533.121	130.537	-0.135	-0.174
-532.106	5.581	-0.386	-0.287
-531.091	-61.554	0.242	0.102
-530.077	86.180	-0.238	-0.263
-529.062	-94.917	0.296	0.081
-528.048	800.000	0.069	0.217
-527.033	78.844	-0.087	0.093
-526.018	189.787	0.217	-0.326
-525.004	177.124	-0.080	0.117
-523.989	100.237	0.112	-0.130
-522.975	-200.000	-0.009	0.248
-521.960	-50.756	-0.134	-0.063
-520.945	-133.302	0.282	0.036
-519.931	-200.000	-0.004	0.065
-518.916	-175.432	0.202	0.006
-517.902	-200.000	0.010	0.121
-516.887	371.264	-0.133	0.271
-515.872	800.000	-0.108	0.407
-514.858	149.535	0.092	-0.125
-513.843	-200.000	-0.026	-0.369
-512.829	55.771	-0.176	-0.171
-511.814	-84.528	-0.207	-0.066
-510.799	-95.336	0.186	-0.050
-509.785	168.575	-0.077	0.110
-508.770	-123.920	0.392	-0.062
-507.756	184.933	-0.167	0.249
-506.741	-135.805	0.246	0.029
-505.726	-48.849	-0.208	-0.100
-504.712	203.243	0.066	-0.103
-503.697	189.677	-0.110	0.165
-502.683	800.000	-0.050	0.186
-501.668	3.588	-0.068	0.050
-500.653	393.335	0.117	0.245
-499.639	229.346	0.084	-0.137
-498.624	-200.000	-0.041	-0.233
-497.610	-71.819	-0.136	-0.051
-496.595	-200.000	0.009	0.290
-495.581	-111.154	-0.133	0.027
-494.566	216.626	-0.176	0.280
-493.551	-114.404	-0.251	0.048
-492.537	-17.624	0.076	0.048
-491.522	-200.000	-0.020	-0.329
-490.508	373.582	0.073	-0.149
-489.493	800.000	-0.112	0.430
-488.478	-17.990	-0.214	0.135
-487.464	-96.759	0.102	0.027
-486.449	800.000	-0.054	0.155
-485.435	-92.176	-0.033	-0.009
-484.420	-200.000	0.045	-0.275
-483.405	109.626	-0.127	-0.152
-482.391	-108.568	0.150	0.032
-481.376	-62.738	-0.079	-0.033
-480.362	270.721	0.210	-0.371
-479.347	41.794	0.071	0.064
-478.332	17.896	0.175	0.139
-477.318	112.319	0.097	0.118
-476.303	157.993	0.142	-0.198
-475.289	292.519	-0.076	0.138
-474.274	37.784	0.245	0.218
-473.259	-175.150	0.296	-0.008
-472.245	-94.401	0.317	0.087
-471.230	-11.162	0.227	-0.150
-470.216	-49.425	-0.290	-0.139
-469.201	-93.183	0.061	0.017
-468.186	3.034	-0.086	-0.062
-467.172	-138.278	0.347	0.038
-466.157	-131.032	-0.489	-0.065
-465.143	-73.308	0.219	-0.080
-464.128	-137.142	0.275	0.031
-463.113	-200.000	0.018	-0.272
-462.099	76.817	-0.150	-0.160
-461.084	323.106	-0.105	-0.200
-460.070	800.000	0.064	0.210
-459.055	325.788	0.076	0.145
-458.040	-106.721	-0.069	-0.015
-457.026	-78.255	0.175	-0.060
-456.011	-200.000	0.092	-0.436
-454.997	3.997	-0.133	0.098
-453.982	-184.913	0.250	-0.004
-452.968	93.723	-0.088	-0.100
-451.953	-62.646	0.062	-0.026
-450.938	-123.951	-0.151	0.024
-449.924	333.755	-0.087	-0.168
-448.909	90.263	0.233	0.261
-447.895	-31.740	0.227	-0.128
-446.880	-47.899	-0.240	-0.116
-445.865	94.269	-0.240	0.272
-444.851	-75.225	0.278	0.099
-443.836	56.757	0.069	-0.067
-442.822	30.125	-0.043	0.037
-441.807	67.823	0.057	0.058
-440.792	-87.222	-0.163	-0.049
-439.778	-143.428	0.271	0.026
-438.763	-200.000	-0.018	0.164
-437.749	-85.909	-0.157	0.049
-436.734	-200.000	0.045	0.255
-435.719	56.619	0.055	-0.054
-434.705	620.621	-0.038	-0.095
-433.690	800.000	-0.014	-0.056
-432.676	4.480	0.197	-0.145
-431.661	-98.416	-0.190	0.049
-430.646	-18.805	-0.099	-0.062
-429.632	-200.000	0.012	0.091
-428.617	-52.724	-0.192	0.089
-427.603	-27.346	-0.334	0.194
-426.588	82.222	0.106	0.115
-425.573	456.896	-0.055	0.122
-424.559	800.000	-0.072	-0.264
-423.544	70.128	0.036	0.037
-422.530	-47.315	-0.071	-0.034
-421.515	-79.119	0.168	-0.057
-420.500	-149.557	0.036	-0.003
-419.486	-200.000	0.002	0.018
-418.471	-200.000	0.020	-0.193
-417.457	43.010	-0.061	-0.055
-416.442	90.036	-0.021	0.024
-415.428	-200.000	-0.015	-0.080
-414.413	-168.851	-0.283	0.011
-413.398	485.387	-0.190	-0.434
-412.384	-76.273	0.138	0.049
-411.369	-92.907	-0.333	-0.093
-410.355	-200.000	-0.031	0.161
-409.340	-130.970	0.092	0.012
-408.325	-193.457	0.297	-0.003
-407.311	331.624	0.104	0.201
-406.296	-32.080	0.069	0.039
-405.282	-191.220	-0.164	0.002
-404.267	-184.739	-0.396	0.006
-403.252	-112.846	0.092	0.018
-402.238	-140.621	0.194	-0.020
-401.223	-151.043	0.185	-0.014
-400.209	49.428	0.098	0.092
-399.194	75.898	0.050	0.052
-398.179	206.492	0.091	-0.141
-397.165	147.519	-0.053	0.071
-396.150	26.312	-0.144	-0.120
-395.136	-66.153	-0.307	0.122
-394.121	99.934	0.211	0.245
-393.106	58.318	-0.375	-0.367
-392.092	443.726	-0.171	0.374
-391.077	-200.000	0.036	0.291
-390.063	12.699	-0.137	-0.106
-389.048	-95.088	-0.077	0.021
-388.033	215.653	-0.180	0.285
-387.019	800.000	0.014	-0.054
-386.004	-56.051	0.273	-0.121
-384.990	249.939	0.130	-0.220
-383.975	72.517	-0.105	-0.109
-382.960	-23.029	-0.037	-0.022
-381.946	355.599	0.033	-0.065
-380.931	-200.000	0.025	0.165
-379.917	41.373	-0.183	0.166
-378.902	147.170	-0.031	0.042
-377.888	800.000	-0.042	-0.141
-376.873	-200.000	-0.031	0.237
-375.858	3.463	0.141	0.103
-374.844	-115.881	0.116	0.022
-373.829	-200.000	-0.041	0.235
-372.815	149.827	-0.092	-0.125
-371.800	-51.133	0.166	0.078
-370.785	132.044	-0.245	0.315
-369.771	-200.000	0.000	-0.118
-368.756	800.000	0.051	-0.160
-367.742	100.377	0.116	-0.135
-366.727	-200.000	0.007	-0.055
-365.712	-200.000	-0.027	0.325
-364.698	68.169	0.043	-0.043
-363.683	-35.750	-0.194	0.105
-362.669	776.448	0.071	0.193
-361.654	-200.000	-0.036	-0.213
-360.639	-200.000	-0.023	-0.178
-359.625	182.247	-0.140	-0.206
-358.610	577.330	0.031	-0.077
-357.596	189.030	0.018	-0.027
-356.581	-150.004	0.404	-0.031
-355.566	-80.472	0.357	0.119
-354.552	171.242	-0.248	-0.354
-353.537	-178.782	0.341	-0.008
-352.523	800.000	-0.055	0.170
-351.508	-35.269	-0.185	0.100
-350.493	46.215	0.211	-0.195
-349.479	-200.000	0.004	0.334
-348.464	-120.757	0.124	0.021
-347.450	36.591	-0.193	0.170
-346.435	269.592	0.047	-0.083
-345.420	800.000	-0.088	0.245
-344.406	-81.527	-0.200	-0.066
-343.391	7.685	-0.268	-0.200
-342.377	197.604	0.292	0.445
-341.362	164.612	-0.067	0.094
-340.348	-102.823	-0.361	0.086
-339.333	-68.701	-0.293	-0.113
-338.318	348.612	0.091	0.179
-337.304	-200.000	-0.023	0.163
-336.289	-125.219	-0.244	-0.037
-335.275	354.052	0.148	-0.293
-334.260	26.904	0.083	-0.069
-333.245	258.603	0.200	-0.343
-332.231	800.000	0.024	-0.102
-331.216	800.000	0.126	0.445
-330.202	5.782	0.089	0.066
-329.187	82.532	0.082	-0.089
-328.172	-115.362	-0.161	-0.030
-327.158	-200.000	0.022	-0.118
-326.143	800.000	0.090	0.251
-325.129	36.822	0.075	0.066
-324.114	-200.000	-0.043	-0.231
-323.099	-97.774	-0.451	0.116
-322.085	-100.210	0.194	0.048
-321.070	48.905	0.124	0.116
-320.056	16.438	-0.205	-0.162
-319.041	-69.612	0.273	-0.104
-318.026	-7.130	-0.239	0.162
-317.012	-96.078	0.511	-0.135
-315.997	97.204	0.128	0.146
-314.983	-82.813	0.052	0.017
-313.968	-70.863	-0.111	0.042
-312.953	632.564	-0.103	0.260
-311.939	405.759	0.067	-0.141
-310.924	800.000	-0.073	-0.226
-309.910	-58.714	-0.184	-0.080
-308.895	800.000	-0.031	-0.111
-307.880	634.588	-0.059	0.148
-306.866	197.999	0.072	0.110
-305.851	134.742	-0.132	0.170
-304.837	-200.000	0.020	0.223
-303.822	800.000	-0.031	-0.092
-302.807	-28.501	-0.226	0.130
-301.793	321.794	0.070	0.132
-300.778	215.887	-0.106	0.168
-299.764	-65.227	-0.206	0.082
-298.749	72.281	-0.163	0.169
-297.735	183.080	0.115	0.169
-296.720	-60.608	0.151	-0.064
-295.705	-200.000	-0.011	0.060
-294.691	800.000	-0.037	-0.149
-293.676	800.000	-0.043	0.150
-292.662	330.591	0.145	0.279
-291.647	95.718	-0.144	-0.164
-290.632	11.431	-0.122	-0.093
-289.618	-156.634	0.172	0.011
-288.603	-113.769	0.290	0.056
-287.589	-138.320	0.247	-0.027
-286.574	800.000	0.048	-0.148
-285.559	-63.418	-0.352	-0.144
-284.545	99.434	-0.167	-0.192
-283.530	-200.000	-0.006	-0.309
-282.516	8.701	0.345	0.259
-281.501	-200.000	-0.059	0.281
-280.486	-200.000	0.004	-0.246
-279.472	-118.806	0.049	-0.009
-278.457	321.281	-0.175	0.332
-277.443	43.440	0.183	0.166
-276.428	-200.000	-0.046	0.208
-275.413	-200.000	0.001	-0.200
-274.399	507.671	-0.045	-0.105
-273.384	800.000	0.075	-0.234
-272.370	-200.000	-0.018	0.113
-271.355	-200.000	0.014	-0.160
-270.340	236.870	0.142	0.234
-269.326	-45.111	0.283	-0.140
-268.311	723.272	0.079	0.208
-267.297	800.000	-0.066	0.269
-266.282	90.821	-0.113	0.125
-265.267	684.694	-0.032	0.082
-264.253	-165.185	-0.029	0.001
-263.238	218.050	0.088	0.140
-262.224	138.365	0.034	-0.045
-261.209	708.882	0.027	0.070
-260.195	-118.250	0.118	-0.021
-259.180	-200.000	-0.026	-0.174
-258.165	151.238	-0.156	-0.211
-257.151	320.867	-0.087	0.164
-256.136	20.927	0.029	-0.023
-255.122	26.555	0.151	-0.126
-254.107	289.987	-0.078	0.141
-253.092	-65.857	0.011	0.005
-252.078	285.392	-0.309	-0.554
-251.063	800.000	0.029	-0.100
-250.049	-179.745	-0.085	-0.002
-249.034	123.626	-0.208	-0.260
-248.019	36.573	-0.067	-0.059
-247.005	-200.000	-0.050	-0.279
-245.990	-8.346	0.157	0.105
-244.976	47.282	0.224	0.207
-243.961	-85.006	-0.176	0.055
-242.946	338.184	-0.075	0.145
-241.932	103.490	-0.050	-0.058
-240.917	379.932	-0.122	-0.249
-239.903	494.998	0.082	-0.186
-238.888	75.632	0.098	-0.103
-237.873	-85.887	0.234	-0.072
-236.859	-107.023	0.106	0.023
-235.844	-41.545	-0.212	0.108
-234.830	-152.954	0.232	-0.016
-233.815	-17.604	0.140	-0.087
-232.800	-17.030	-0.051	-0.032
-231.786	8.230	-0.091	0.068
-230.771	72.140	0.145	0.150
-229.757	-28.768	0.108	-0.062
-228.742	-160.209	-0.347	-0.019
-227.727	88.563	0.077	-0.085
-226.713	-133.486	0.096	-0.012
-225.698	-113.304	-0.124	0.024
-224.684	302.291	-0.036	0.066
-223.669	-66.181	-0.354	-0.140
-222.655	-104.006	-0.206	0.048
-221.640	-2.784	0.471	-0.327
-220.625	24.415	-0.270	0.222
-219.611	184.108	-0.131	-0.192
-218.596	-67.327	0.235	-0.092
-217.582	82.502	-0.189	0.204
-216.567	-129.431	0.220	-0.030
-215.552	-79.498	0.174	-0.058
-214.538	-164.628	0.065	-0.003
-213.523	-200.000	-0.036	-0.274
-212.509	-16.714	0.066	0.041
-211.494	-186.677	0.241	0.003
-210.479	2.205	0.206	0.147
-209.465	-200.000	0.017	0.123
-208.450	-54.924	-0.170	0.076
-207.436	55.994	0.034	-0.033
-206.421	118.414	0.208	0.255
-205.406	-200.000	0.037	0.270
-204.392	-7.528	-0.019	-0.013
-203.377	-200.000	-0.061	0.315
-202.363	402.807	-0.120	-0.251
-201.348	-200.000	-0.027	-0.132
-200.333	-133.205	0.190	0.024
-199.319	-47.506	0.301	0.145
-198.304	5.804	-0.220	-0.161
-197.290	-78.196	0.317	0.108
-196.275	-200.000	0.030	-0.353
-195.260	66.147	0.132	0.133
-194.246	800.000	-0.066	-0.284
-193.231	2.586	0.163	-0.117
-192.217	-200.000	-0.020	-0.271
-191.202	-200.000	0.009	0.121
-190.187	-61.927	-0.118	-0.049
-189.173	800.000	0.118	0.411
-188.158	107.345	0.110	0.129
-187.144	800.000	0.087	0.273
-186.129	-96.391	0.440	0.115
-185.114	466.429	-0.017	-0.038
-184.100	-200.000	-0.023	-0.190
-183.085	-122.360	-0.336	-0.054
-182.071	184.722	0.182	-0.267
-181.056	-200.000	-0.010	0.081
-180.042	-135.422	-0.309	0.037
-179.027	-200.000	-0.008	0.543
-178.012	53.941	0.080	-0.076
-176.998	-24.585	0.157	0.092
-175.983	90.887	-0.224	0.248
-174.969	-200.000	0.008	0.046
-173.954	324.995	0.160	0.302
-172.939	261.967	-0.022	0.037
-171.925	-200.000	-0.013	-0.110
-170.910	265.824	0.163	0.281
-169.896	-71.581	-0.201	-0.074
-168.881	-22.261	0.271	0.163
-167.866	108.393	-0.103	0.121
-166.852	-181.005	-0.308	-0.006
-165.837	-200.000	-0.054	-0.267
-164.823	-112.044	-0.327	0.065
-163.808	-200.000	0.053	0.469
-162.793	-76.412	0.106	0.037
-161.779	-66.628	-0.076	-0.030
-160.764	-190.961	0.119	-0.001
-159.750	57.215	0.184	0.177
-158.735	109.491	0.167	-0.198
-157.720	-200.000	-0.017	-0.469
-156.706	-200.000	0.029	-0.160
-155.691	66.013	-0.279	-0.280
-154.677	-159.428	0.197	-0.011
-153.662	-118.858	0.364	-0.063
-152.647	-174.550	-0.035	0.001
-151.633	-200.000	-0.017	-0.187
-150.618	-0.440	0.296	0.208
-149.604	-135.308	0.309	-0.037
-148.589	135.616	0.248	0.319
-147.574	-200.000	-0.192	-0.001
-146.560	89.279	-0.167	-0.184
-145.545	-5.531	-0.222	0.150
-144.531	29.847	-0.087	-0.073
-143.516	800.000	-0.055	0.209
-142.502	-175.963	0.075	-0.002
-141.487	-200.000	-0.016	0.255
-140.472	-200.000	0.019	-0.218
-139.458	-200.000	0.035	0.315
-138.443	82.605	-0.087	0.094
-137.429	24.924	0.142	-0.116
-136.414	-95.926	-0.338	0.089
-135.399	-125.793	-0.361	0.054
-134.385	-106.752	0.396	-0.087
-133.370	-55.505	-0.048	0.021
-132.356	302.625	0.268	0.491
-131.341	-19.752	-0.337	-0.206
-130.326	101.306	0.078	-0.089
-129.312	199.956	-0.016	0.024
-128.297	259.751	-0.117	0.201
-127.283	-145.065	0.096	0.009
-126.268	412.267	0.049	-0.103
-125.253	-113.118	0.401	-0.078
-124.239	-58.653	0.290	0.124
-123.224	-76.379	0.135	0.047
-122.210	228.154	0.146	-0.234
-121.195	-131.748	0.224	0.029
