DTS Sentinel unit serial number:	SN413079Multiplexer serial number:	ORYXHardware model number:	OX4-SRSoftware version number:	ORYX F/W v4.00 Oryx Data Collector v3.7.2.0data status	okinstallation	princeton_trtdifferential loss correction	single-endedforward channel	channel 1reverse channel	N/Adate	2019/09/14time	15:42:35forward acquisition time	60.00reverse acquisition time	0.00gamma	496.2192k internal	0.2295k external	0.2295temperature offset calibration	1.0074default loss term (dB/km)	0.3790temperature slope calibration	1.0000multiplexer offset coefficient	1.0000multiplexer slope coefficient	1.0000fibre end	0.00T internal ref (°C)	38.78T ext. ref 1 (°C)	5.12T ext. ref 2 (°C)	34.44length (m)	temperature (°C)	Stokes	anti-Stokes-747.200	121.169	0.137	-0.174
-746.185	27.267	-0.272	0.233
-745.171	79.906	0.044	-0.049
-744.156	-92.366	-0.194	-0.056
-743.142	195.577	0.155	-0.242
-742.127	-40.634	-0.261	0.138
-741.112	-200.000	0.003	0.036
-740.098	114.483	0.119	0.148
-739.083	95.055	0.119	-0.139
-738.069	60.082	-0.313	0.316
-737.054	-12.251	-0.317	0.212
-736.039	-15.722	-0.312	-0.203
-735.025	-200.000	-0.012	0.077
-734.010	-14.127	-0.337	-0.222
-732.996	800.000	0.045	-0.182
-731.981	-200.000	-0.054	-0.276
-730.966	100.777	-0.162	-0.193
-729.952	188.680	-0.163	0.250
-728.937	1.398	0.060	0.044
-727.923	-114.244	-0.199	-0.039
-726.908	-97.176	0.181	0.048
-725.894	-67.938	-0.120	-0.048
-724.879	289.399	0.103	-0.191
-723.864	-94.755	-0.149	-0.041
-722.850	-150.471	0.293	0.023
-721.835	800.000	-0.061	0.256
-720.821	-173.925	0.297	-0.009
-719.806	800.000	0.064	-0.262
-718.791	-55.300	-0.109	-0.050
-717.777	512.104	-0.092	0.218
-716.762	-59.566	0.312	-0.137
-715.748	45.642	0.210	0.198
-714.733	-10.772	0.130	-0.087
-713.718	-136.520	0.377	-0.045
-712.704	11.428	-0.140	-0.109
-711.689	-200.000	-0.207	0.001
-710.675	110.521	0.041	-0.050
-709.660	-137.994	0.294	-0.033
-708.645	800.000	-0.102	0.309
-707.631	-193.338	0.204	0.002
-706.616	-129.868	-0.200	-0.028
-705.602	-35.743	0.159	-0.088
-704.587	-200.000	-0.030	0.152
-703.572	-16.052	0.238	-0.155
-702.558	-53.203	-0.240	0.112
-701.543	33.895	0.051	-0.046
-700.529	-124.835	0.441	0.069
-699.514	33.089	0.180	-0.159
-698.499	407.824	0.080	0.173
-697.485	290.066	-0.061	-0.113
-696.470	-120.396	0.067	0.012
-695.456	-70.683	0.215	-0.083
-694.441	-200.000	0.007	-0.218
-693.426	-66.986	0.276	-0.111
-692.412	800.000	0.101	-0.318
-691.397	-29.478	0.094	-0.055
-690.383	80.843	-0.052	-0.057
-689.368	-128.990	-0.292	-0.042
-688.354	-15.835	-0.258	-0.167
-687.339	800.000	-0.043	0.168
-686.324	-112.871	0.238	-0.048
-685.310	116.747	0.131	-0.164
-684.295	-18.765	-0.250	-0.159
-683.281	-114.081	-0.372	0.073
-682.266	335.782	-0.155	0.307
-681.251	-111.161	-0.278	0.058
-680.237	22.354	-0.097	0.081
-679.222	-200.000	-0.053	0.254
-678.208	91.686	-0.237	0.272
-677.193	465.826	-0.086	0.196
-676.178	258.170	0.023	-0.041
-675.164	800.000	0.045	-0.183
-674.149	78.359	-0.166	0.181
-673.135	76.620	-0.157	0.169
-672.120	-200.000	-0.003	0.072
-671.105	89.519	0.258	-0.293
-670.091	62.757	0.064	-0.065
-669.076	298.193	0.089	0.166
-668.062	-42.838	-0.126	0.065
-667.047	800.000	0.060	-0.204
-666.032	800.000	0.090	-0.258
-665.018	-200.000	0.022	-0.109
-664.003	-48.235	-0.043	-0.021
-662.989	36.712	0.321	0.289
-661.974	-200.000	0.001	0.033
-660.959	-154.045	-0.306	-0.021
-659.945	-82.892	0.181	-0.060
-658.930	800.000	-0.035	-0.142
-657.916	160.040	0.262	-0.373
-656.901	7.021	-0.135	-0.103
-655.886	241.912	0.095	0.162
-654.872	-200.000	-0.008	0.124
-653.857	-63.767	-0.268	0.112
-652.843	-200.000	0.018	0.181
-651.828	174.316	0.040	0.058
-650.814	190.885	-0.127	0.194
-649.799	96.182	-0.046	0.054
-648.784	-126.465	0.305	-0.046
-647.770	-200.000	-0.014	-0.140
-646.755	-47.234	-0.201	-0.100
-645.741	-178.055	0.400	-0.010
-644.726	-66.357	-0.132	0.053
-643.711	-106.652	-0.328	-0.074
-642.697	-104.753	-0.198	-0.046
-641.682	81.237	0.232	-0.255
-640.668	14.047	0.088	-0.070
-639.653	-29.870	-0.167	-0.097
-638.638	320.217	-0.119	-0.230
-637.624	-94.244	-0.251	-0.070
-636.609	-143.838	-0.424	-0.041
-635.595	800.000	-0.073	-0.219
-634.580	146.493	0.143	-0.195
-633.565	-157.113	-0.064	0.004
-632.551	-37.033	0.105	-0.057
-631.536	-48.899	0.118	-0.058
-630.522	115.700	-0.082	-0.102
-629.507	-69.560	0.192	-0.075
-628.492	246.502	0.067	0.115
-627.478	-89.621	-0.150	-0.045
-626.463	246.132	0.107	0.183
-625.449	-99.986	-0.365	-0.093
-624.434	-153.829	-0.143	0.010
-623.419	398.178	0.114	0.243
-622.405	189.379	0.234	-0.356
-621.390	-149.380	0.073	0.006
-620.376	-96.607	-0.231	0.062
-619.361	318.305	0.155	0.298
-618.346	-200.000	-0.011	-0.196
-617.332	122.191	0.230	-0.292
-616.317	359.224	-0.044	0.089
-615.303	-200.000	0.005	0.186
-614.288	10.074	-0.177	0.137
-613.273	-43.836	-0.095	0.049
-612.259	-200.000	0.013	0.154
-611.244	-43.915	-0.014	-0.007
-610.230	-48.420	0.101	-0.050
-609.215	-200.000	0.011	-0.054
-608.201	-53.720	-0.194	-0.090
-607.186	-105.034	-0.119	0.028
-606.171	-36.919	-0.154	0.084
-605.157	-200.000	-0.004	-0.085
-604.142	-53.705	0.126	0.059
-603.128	65.826	-0.109	0.113
-602.113	242.053	0.020	-0.034
-601.098	800.000	-0.116	0.345
-600.084	117.281	-0.074	-0.092
-599.069	20.424	0.258	-0.212
-598.055	-34.154	-0.312	0.174
-597.040	-115.575	-0.146	-0.028
-596.025	800.000	-0.095	-0.289
-595.011	-140.004	0.218	-0.023
-593.996	705.764	0.094	0.253
-592.982	237.719	0.131	-0.221
-591.967	-200.000	-0.004	0.128
-590.952	-76.709	0.234	-0.083
-589.938	113.462	0.059	-0.072
-588.923	-200.000	-0.041	0.509
-587.909	800.000	-0.049	-0.173
-586.894	-74.545	0.094	-0.034
-585.879	-56.048	0.215	-0.097
-584.865	-5.826	0.232	0.161
-583.850	25.200	-0.092	0.077
-582.836	-90.449	0.268	-0.079
-581.821	-37.673	-0.440	-0.238
-580.806	-112.243	-0.109	-0.022
-579.792	-75.069	-0.130	0.047
-578.777	-50.907	-0.133	-0.064
-577.763	-156.404	-0.123	-0.008
-576.748	-1.975	-0.193	-0.137
-575.733	95.537	0.266	-0.309
-574.719	59.395	0.097	-0.097
-573.704	-65.672	-0.274	0.111
-572.690	256.277	-0.181	0.316
-571.675	-104.336	-0.200	-0.047
-570.661	-58.984	-0.214	-0.094
-569.646	-81.113	0.152	0.051
-568.631	-200.000	-0.007	0.059
-567.617	5.029	-0.228	-0.171
-566.602	-200.000	-0.010	-0.105
-565.588	-151.079	-0.365	-0.028
-564.573	-22.520	-0.326	0.200
-563.558	8.943	-0.063	0.048
-562.544	43.588	-0.130	0.120
-561.529	-200.000	-0.005	0.118
-560.515	-200.000	-0.016	0.160
-559.500	-167.914	-0.249	-0.010
-558.485	77.408	-0.177	-0.191
-557.471	-182.145	0.119	0.002
-556.456	80.086	-0.318	-0.347
-555.442	800.000	0.071	0.285
-554.427	-200.000	-0.007	-0.040
-553.412	285.441	-0.194	0.355
-552.398	664.671	0.016	-0.042
-551.383	244.396	-0.148	0.252
-550.369	48.329	0.192	0.182
-549.354	-17.501	-0.143	0.091
-548.339	-142.814	0.233	0.023
-547.325	455.396	0.068	0.153
-546.310	-200.000	-0.025	-0.172
-545.296	-111.301	-0.152	0.032
-544.281	-44.065	-0.190	0.097
-543.266	-200.000	-0.073	-0.394
-542.252	800.000	-0.065	-0.226
-541.237	325.720	0.122	-0.237
-540.223	-200.000	0.057	-0.259
-539.208	-161.723	-0.234	-0.012
-538.193	-93.041	-0.103	-0.029
-537.179	-182.734	-0.216	-0.004
-536.164	454.093	0.058	0.131
-535.150	-142.770	-0.193	-0.019
-534.135	-49.316	0.043	-0.021
-533.121	12.807	-0.196	-0.154
-532.106	-10.429	0.262	-0.176
-531.091	800.000	0.090	0.381
-530.077	-41.844	0.070	-0.036
-529.062	114.658	-0.138	-0.170
-528.048	20.363	0.130	0.107
-527.033	-88.911	0.181	-0.054
-526.018	-24.343	0.290	0.175
-525.004	-89.167	-0.181	-0.054
-523.989	-37.340	-0.165	-0.089
-522.975	-200.000	-0.006	0.126
-521.960	-200.000	0.028	0.166
-520.945	151.819	0.198	-0.274
-519.931	-93.594	-0.419	0.117
-518.916	599.886	-0.060	0.151
-517.902	-56.247	0.212	-0.096
-516.887	-200.000	-0.024	-0.404
-515.872	299.339	-0.145	-0.271
-514.858	-200.000	-0.005	-0.031
-513.843	-118.578	-0.175	-0.031
-512.829	-200.000	0.032	0.264
-511.814	-92.818	-0.167	0.047
-510.799	800.000	-0.128	0.409
-509.785	17.767	0.085	0.069
-508.770	156.884	0.303	-0.424
-507.756	11.621	-0.247	0.192
-506.741	-200.000	-0.029	0.159
-505.726	-16.039	-0.022	-0.014
-504.712	-0.193	-0.182	0.131
-503.697	800.000	-0.076	-0.236
-502.683	-197.517	0.253	-0.002
-501.668	-176.665	-0.196	-0.005
-500.653	-159.991	-0.202	0.011
-499.639	-11.240	0.170	0.114
-498.624	10.630	-0.151	-0.117
-497.610	-44.558	0.034	0.017
-496.595	743.192	-0.173	-0.471
-495.581	-79.767	-0.088	-0.030
-494.566	800.000	-0.025	-0.080
-493.551	-93.977	0.081	-0.022
-492.537	189.000	-0.106	0.160
-491.522	800.000	0.030	-0.104
-490.508	-200.000	0.025	-0.254
-489.493	-200.000	-0.041	-0.355
-488.478	-200.000	-0.021	0.360
-487.464	-89.498	0.141	-0.042
-486.449	-200.000	0.036	-0.171
-485.435	-97.060	-0.179	-0.047
-484.420	45.545	0.109	0.102
-483.405	-11.459	0.097	-0.065
-482.391	-83.743	-0.325	0.105
-481.376	257.789	0.077	0.135
-480.362	-152.066	0.309	0.023
-479.347	800.000	0.108	0.302
-478.332	-17.625	-0.038	0.024
-477.318	-151.584	-0.062	-0.005
-476.303	141.233	0.084	-0.112
-475.289	267.469	0.066	0.116
-474.274	-127.143	-0.242	-0.036
-473.259	-4.270	0.124	0.087
-472.245	300.223	0.046	0.085
-471.230	-43.198	-0.075	0.038
-470.216	110.654	-0.062	-0.076
-469.201	20.134	0.239	0.195
-468.186	-52.402	0.116	-0.054
-467.172	33.056	0.177	0.155
-466.157	52.433	0.154	0.148
-465.143	-108.157	0.204	0.045
-464.128	-99.367	0.285	0.073
-463.113	78.016	-0.098	0.105
-462.099	221.589	0.156	0.254
-461.084	106.167	-0.200	0.240
-460.070	-181.024	-0.291	-0.006
-459.055	780.056	-0.068	0.187
-458.040	191.976	0.038	-0.058
-457.026	-200.000	-0.041	0.182
-456.011	-34.521	-0.287	-0.159
-454.997	35.760	0.152	0.135
-453.982	139.423	-0.191	-0.254
-452.968	69.048	0.203	0.211
-451.953	111.187	0.130	-0.158
-450.938	-80.813	0.255	0.086
-449.924	-69.967	0.150	-0.058
-448.909	-136.229	-0.506	0.060
-447.895	-200.000	-0.014	0.112
-446.880	49.101	0.220	0.209
-445.865	33.628	-0.102	0.089
-444.851	57.326	0.191	-0.188
-443.836	800.000	-0.047	-0.175
-442.822	-130.909	-0.219	-0.030
-441.807	-112.750	-0.206	-0.041
-440.792	312.181	-0.244	-0.462
-439.778	306.117	0.084	0.158
-438.763	34.066	-0.057	-0.050
-437.749	-158.150	0.091	0.005
-436.734	-69.580	0.144	0.056
-435.719	295.133	-0.191	-0.354
-434.705	54.429	-0.173	0.168
-433.690	201.241	-0.086	0.134
-432.676	-81.511	0.092	-0.031
-431.661	-75.869	0.314	-0.112
-430.646	542.452	0.048	-0.115
-429.632	-147.011	-0.034	-0.003
-428.617	-179.585	-0.318	-0.007
-427.603	-140.244	-0.247	0.026
-426.588	-6.771	-0.213	0.147
-425.573	800.000	-0.103	0.376
-424.559	95.341	0.123	-0.141
-423.544	-200.000	0.003	-0.199
-422.530	206.258	0.092	0.145
-421.515	-95.389	0.120	0.033
-420.500	515.747	0.081	-0.190
-419.486	-61.659	0.106	-0.045
-418.471	88.089	0.087	0.097
-417.457	0.807	-0.046	0.033
-416.442	19.342	0.069	0.056
-415.428	-69.201	0.303	-0.118
-414.413	800.000	0.059	-0.175
-413.398	-146.097	0.236	0.021
-412.384	90.772	-0.127	-0.144
-411.369	-104.135	-0.173	0.041
-410.355	-150.686	0.440	0.034
-409.340	137.683	-0.122	0.161
-408.325	-22.977	-0.277	-0.168
-407.311	-200.000	0.054	-0.317
-406.296	203.291	-0.112	-0.174
-405.282	24.440	-0.103	-0.086
-404.267	67.923	0.133	-0.137
-403.252	-200.000	0.026	0.255
-402.238	-54.292	0.235	0.107
-401.223	-31.575	0.108	0.061
-400.209	73.327	-0.253	0.267
-399.194	-200.000	-0.021	-0.302
-398.179	-127.908	0.112	0.016
-397.165	800.000	-0.146	-0.478
-396.150	163.817	0.133	0.189
-395.136	800.000	0.030	0.127
-394.121	-99.789	0.138	-0.035
-393.106	-142.259	0.134	0.013
-392.092	157.476	-0.033	-0.046
-391.077	127.148	0.187	-0.239
-390.063	-191.293	-0.032	-0.000
-389.048	-58.765	-0.268	0.117
-388.033	-200.000	-0.048	0.260
-387.019	126.257	-0.098	-0.124
-386.004	265.305	0.195	0.342
-384.990	325.563	0.048	0.093
-383.975	-200.000	-0.150	0.001
-382.960	464.333	0.182	-0.410
-381.946	61.562	-0.028	0.028
-380.931	-200.000	-0.010	0.268
-379.917	370.302	0.080	-0.163
-378.902	261.669	0.178	-0.311
-377.888	-200.000	0.004	-0.142
-376.873	-200.000	0.009	0.110
-375.858	-61.261	0.256	-0.109
-374.844	-141.418	0.260	-0.027
-373.829	-64.831	-0.223	-0.091
-372.815	-33.548	-0.118	-0.066
-371.800	-200.000	0.001	-0.102
-370.785	-64.468	0.201	-0.082
-369.771	-171.519	-0.181	0.006
-368.756	62.193	0.069	-0.069
-367.742	-200.000	0.019	0.166
-366.727	-27.002	0.225	-0.132
-365.712	-109.073	-0.299	0.064
-364.698	-7.316	0.359	0.245
-363.683	-77.865	-0.124	0.043
-362.669	-46.223	0.115	-0.057
-361.654	17.473	0.128	0.102
-360.639	770.225	0.075	-0.206
-359.625	-53.981	0.049	-0.022
-358.610	-23.412	0.240	-0.145
-357.596	-130.323	-0.489	0.067
-356.581	-98.645	-0.257	0.066
-355.566	-87.490	0.194	0.059
-354.552	800.000	0.109	0.387
-353.537	613.677	-0.071	0.180
-352.523	-4.080	0.176	0.123
-351.508	800.000	-0.079	-0.306
-350.493	15.348	-0.009	0.007
-349.479	45.926	-0.210	-0.195
-348.464	53.116	-0.067	0.065
-347.450	-107.411	-0.298	-0.066
-346.435	136.573	-0.132	-0.174
-345.420	105.354	-0.121	0.143
-344.406	-52.316	-0.242	0.113
-343.391	45.963	-0.199	-0.185
-342.377	57.958	0.101	0.100
-341.362	-73.647	0.108	0.040
-340.348	-41.784	0.201	0.104
-339.333	10.976	0.305	-0.235
-338.318	122.859	0.104	-0.131
-337.304	800.000	-0.032	-0.118
-336.289	628.257	0.052	0.133
-335.275	77.930	-0.202	-0.217
-334.260	351.953	-0.099	-0.197
-333.245	97.410	-0.008	-0.009
-332.231	141.508	0.162	-0.216
-331.216	21.146	0.265	-0.216
-330.202	333.772	-0.114	-0.222
-329.187	-43.192	-0.207	-0.106
-328.172	-85.351	0.158	0.050
-327.158	800.000	-0.050	0.219
-326.143	4.887	-0.265	0.196
-325.129	-200.000	-0.018	-0.221
-324.114	279.910	0.108	0.194
-323.099	526.432	-0.103	0.245
-322.085	-167.518	-0.193	0.008
-321.070	112.077	-0.095	0.115
-320.056	694.359	0.150	-0.395
-319.041	-41.257	-0.158	-0.082
-318.026	-67.233	0.092	-0.036
-317.012	-200.000	-0.008	0.074
-315.997	194.529	0.303	0.462
-314.983	2.644	-0.155	-0.113
-313.968	41.832	-0.233	-0.212
-312.953	-200.000	-0.035	-0.245
-311.939	-200.000	0.021	0.415
-310.924	454.200	0.037	0.082
-309.910	-43.098	0.214	0.109
-308.895	-200.000	0.024	0.209
-307.880	-66.368	-0.213	-0.085
-306.866	-200.000	0.059	0.265
-305.851	20.209	0.221	0.179
-304.837	157.586	-0.234	-0.325
-303.822	-73.970	-0.045	-0.016
-302.807	411.611	-0.165	-0.351
-301.793	42.674	0.195	-0.178
-300.778	59.942	0.267	-0.265
-299.764	-153.005	0.237	0.017
-298.749	-129.311	0.256	-0.036
-297.735	32.473	0.092	-0.080
-296.720	-101.051	0.155	0.038
-295.705	-56.570	0.191	-0.085
-294.691	-186.935	0.428	-0.006
-293.676	258.080	-0.225	0.389
-292.662	-132.833	0.080	0.010
-291.647	-39.877	-0.136	-0.071
-290.632	-143.882	-0.122	0.012
-289.618	-148.512	0.203	0.017
-288.603	186.903	-0.091	-0.136
-287.589	681.763	-0.029	0.077
-286.574	24.075	0.230	0.191
-285.559	244.534	0.129	-0.218
-284.545	87.657	0.159	-0.177
-283.530	-4.351	0.274	0.190
-282.516	-97.810	-0.084	0.022
-281.501	355.198	0.049	-0.098
-280.486	-200.000	-0.015	-0.144
-279.472	149.817	0.238	0.323
-278.457	-11.066	0.303	-0.201
-277.443	-54.412	0.484	-0.220
-276.428	-60.515	0.442	-0.188
-275.413	81.863	-0.288	0.313
-274.399	-200.000	-0.008	0.357
-273.384	-84.059	0.148	0.047
-272.370	-18.512	0.328	-0.206
-271.355	-200.000	0.024	0.122
-270.340	151.172	0.272	0.372
-269.326	312.612	-0.027	0.051
-268.311	-55.687	-0.203	-0.091
-267.297	-6.988	-0.095	0.065
-266.282	326.925	0.105	0.203
-265.267	-149.750	0.104	0.008
-264.253	800.000	-0.086	0.253
-263.238	-167.577	0.250	0.010
-262.224	800.000	0.096	0.311
-261.209	800.000	0.066	0.228
-260.195	-78.381	0.346	0.119
-259.180	106.633	-0.040	0.048
-258.165	-99.790	-0.029	0.007
-257.151	730.422	0.069	-0.186
-256.136	-200.000	0.047	-0.244
-255.122	-38.069	0.152	-0.081
-254.107	800.000	0.121	0.413
-253.092	3.592	0.054	0.039
-252.078	800.000	-0.071	-0.259
-251.063	15.301	0.102	0.080
-250.049	800.000	0.097	0.348
-249.034	320.802	-0.036	0.069
-248.019	91.168	-0.056	0.063
-247.005	54.172	-0.231	-0.223
-245.990	9.446	-0.281	0.213
-244.976	19.151	0.444	0.357
-243.961	-200.000	0.054	0.270
-242.946	-63.686	-0.248	0.102
-241.932	-46.488	0.160	-0.079
-240.917	1.394	0.164	0.118
-239.903	-11.859	-0.206	0.135
-238.888	-200.000	0.018	0.305
-237.873	5.630	-0.102	0.075
-236.859	194.576	0.113	0.172
-235.844	-200.000	-0.080	0.415
-234.830	771.248	0.043	0.117
-233.815	123.578	-0.104	0.131
-232.800	800.000	0.009	-0.034
-231.786	-122.811	-0.177	0.029
-230.771	150.740	0.131	0.179
-229.757	-123.638	-0.159	-0.025
-228.742	-60.686	-0.168	-0.071
-227.727	-54.178	0.160	0.073
-226.713	-101.619	0.304	0.074
-225.698	-15.955	-0.187	-0.119
-224.684	-23.863	-0.147	0.088
-223.669	421.040	0.033	-0.071
-222.655	-90.884	-0.368	0.106
-221.640	800.000	0.074	-0.314
-220.625	28.867	0.129	-0.110
-219.611	-19.188	0.249	-0.155
-218.596	-43.928	0.369	0.186
-217.582	224.560	0.169	-0.273
-216.567	119.364	-0.138	0.171
-215.552	456.409	-0.124	0.274
-214.538	61.232	-0.040	0.039
-213.523	-56.362	0.148	-0.066
-212.509	25.158	-0.137	-0.114
-211.494	64.507	-0.162	-0.163
-210.479	-14.226	-0.181	0.117
-209.465	107.065	0.190	0.226
-208.450	-54.329	0.216	-0.098
-207.436	-69.608	0.207	-0.079
-206.421	-136.328	0.225	0.026
-205.406	39.603	0.033	-0.029
-204.392	-79.051	-0.340	-0.116
-203.377	-64.521	-0.197	0.080
-202.363	-200.000	-0.060	-0.348
-201.348	-200.000	-0.021	0.169
-200.333	415.604	-0.087	0.185
-199.319	41.601	0.207	-0.187
-198.304	192.919	0.015	-0.023
-197.290	-200.000	0.015	-0.127
-196.275	-200.000	0.013	-0.255
-195.260	-200.000	-0.010	-0.312
-194.246	204.519	-0.099	0.153
-193.231	-29.509	0.307	-0.176
-192.217	12.206	0.366	0.282
-191.202	-79.198	-0.166	-0.056
-190.187	45.285	0.143	-0.132
-189.173	289.161	0.040	0.072
-188.158	-180.074	-0.313	-0.007
-187.144	17.951	0.149	0.119
-186.129	-4.962	0.120	0.083
-185.114	-101.687	-0.242	-0.059
-184.100	-200.000	-0.001	0.067
-183.085	-96.656	0.238	-0.063
-182.071	648.591	-0.100	0.256
-181.056	282.715	-0.184	-0.330
-180.042	260.979	-0.258	0.447
-179.027	800.000	0.046	-0.136
-178.012	589.353	-0.115	0.283
-176.998	-44.479	-0.099	0.049
-175.983	-23.598	0.087	0.052
-174.969	-46.493	0.184	0.090
-173.954	-97.647	-0.194	-0.050
-172.939	501.952	-0.098	0.226
-171.925	-123.847	0.123	-0.019
-170.910	167.928	-0.097	-0.138
-169.896	-57.217	-0.380	-0.167
-168.881	-144.696	0.144	-0.013
-167.866	-45.174	0.155	0.077
-166.852	-200.000	0.017	-0.171
-165.837	-2.587	0.152	-0.106
-164.823	19.282	0.226	-0.181
-163.808	358.115	0.123	-0.245
-162.793	800.000	-0.082	0.290
-161.779	-16.970	0.026	0.017
-160.764	202.282	-0.115	0.177
-159.750	14.807	0.229	0.179
-158.735	31.197	0.076	0.065
-157.720	-159.887	-0.058	0.003
-156.706	222.125	-0.155	0.250
-155.691	-200.000	-0.021	-0.335
-154.677	686.982	-0.168	-0.438
-153.662	800.000	0.159	-0.496
-152.647	-63.676	-0.574	0.235
-151.633	45.270	-0.241	-0.222
-150.618	-109.271	0.267	0.057
-149.604	110.989	-0.130	0.156
-148.589	-168.957	0.156	-0.006
-147.574	134.273	0.157	0.203
-146.560	-131.067	0.090	0.012
-145.545	-33.710	-0.356	0.196
-144.531	-77.563	0.382	0.132
-143.516	-20.052	-0.096	-0.059
-142.502	-200.000	-0.020	0.189
-141.487	77.181	0.136	-0.145
-140.472	584.900	-0.117	0.286
-139.458	-200.000	-0.032	0.195
-138.443	-200.000	-0.027	0.179
-137.429	268.790	-0.204	-0.356
-136.414	-151.094	-0.281	-0.021
-135.399	-200.000	0.019	0.120
-134.385	30.863	0.061	0.052
-133.370	800.000	-0.040	0.145
-132.356	-200.000	0.008	0.067
-131.341	-65.948	0.052	-0.021
-130.326	-200.000	0.013	0.111
-129.312	-5.586	-0.086	-0.059
-128.297	-121.728	0.113	-0.019
-127.283	61.037	0.278	-0.275
-126.268	-44.006	0.291	0.146
-125.253	-200.000	-0.004	0.132
-124.239	-200.000	-0.008	-0.044
-123.224	34.999	0.199	-0.174
-122.210	-152.885	0.111	0.008
-121.195	225.637	-0.167	-0.270
-120.180	48.748	-0.153	0.144
