DTS Sentinel unit serial number:	SN413079Multiplexer serial number:	ORYXHardware model number:	OX4-SRSoftware version number:	ORYX F/W v4.00 Oryx Data Collector v3.7.2.0data status	okinstallation	princeton_trtdifferential loss correction	single-endedforward channel	channel 1reverse channel	N/Adate	2019/09/17time	02:02:35forward acquisition time	60.00reverse acquisition time	0.00gamma	496.2192k internal	0.2324k external	0.2324temperature offset calibration	0.9959default loss term (dB/km)	0.3790temperature slope calibration	1.0000multiplexer offset coefficient	1.0000multiplexer slope coefficient	1.0000fibre end	0.00T internal ref (°C)	29.69T ext. ref 1 (°C)	0.12T ext. ref 2 (°C)	24.52length (m)	temperature (°C)	Stokes	anti-Stokes-747.200	800.000	0.055	0.191
-746.185	20.545	0.199	0.163
-745.171	800.000	-0.054	0.210
-744.156	192.055	0.124	0.189
-743.142	219.602	0.063	-0.102
-742.127	800.000	-0.098	-0.287
-741.112	800.000	0.067	0.196
-740.098	800.000	0.149	0.486
-739.083	-104.033	-0.053	0.013
-738.069	60.383	-0.218	0.218
-737.054	-3.369	-0.112	-0.079
-736.039	-200.000	0.001	0.297
-735.025	-139.800	0.224	-0.024
-734.010	202.672	-0.187	-0.292
-732.996	15.409	-0.351	-0.278
-731.981	-200.000	-0.043	-0.469
-730.966	-200.000	-0.070	0.317
-729.952	597.664	0.081	0.204
-728.937	-0.545	0.153	-0.109
-727.923	32.530	0.281	0.245
-726.908	800.000	0.044	0.134
-725.894	17.584	-0.187	-0.150
-724.879	-86.160	-0.119	0.037
-723.864	85.068	-0.119	-0.131
-722.850	-27.030	-0.114	-0.067
-721.835	-200.000	-0.021	0.208
-720.821	-128.297	-0.121	0.017
-719.806	61.521	0.097	-0.097
-718.791	155.130	-0.086	-0.119
-717.777	-99.965	-0.079	0.020
-716.762	-57.550	-0.071	0.031
-715.748	-200.000	0.001	0.387
-714.733	430.591	0.128	0.280
-713.718	800.000	0.035	-0.101
-712.704	-183.645	-0.374	-0.006
-711.689	489.084	-0.058	-0.135
-710.675	-200.000	-0.036	0.229
-709.660	89.760	-0.183	0.205
-708.645	651.241	0.040	-0.103
-707.631	-96.828	0.327	0.087
-706.616	-4.999	0.061	0.042
-705.602	119.065	-0.132	0.164
-704.587	-119.206	-0.228	-0.040
-703.572	-200.000	-0.035	-0.188
-702.558	418.668	-0.102	0.219
-701.543	386.926	-0.050	-0.104
-700.529	97.289	0.221	0.255
-699.514	79.741	-0.185	0.200
-698.499	-31.151	0.245	-0.139
-697.485	-86.317	-0.337	0.104
-696.470	203.244	-0.110	0.171
-695.456	800.000	-0.050	-0.148
-694.441	-169.028	0.054	-0.002
-693.426	-27.964	0.137	-0.080
-692.412	373.038	-0.156	-0.320
-691.397	-61.205	0.220	0.093
-690.383	103.754	-0.182	0.215
-689.368	-130.766	-0.166	-0.022
-688.354	-19.646	-0.172	-0.107
-687.339	-40.072	0.193	-0.101
-686.324	542.928	-0.073	-0.176
-685.310	-74.451	0.099	0.036
-684.295	-59.422	-0.302	0.131
-683.281	-102.046	-0.288	0.070
-682.266	233.869	0.017	0.028
-681.251	81.791	-0.201	0.219
-680.237	112.107	0.124	-0.151
-679.222	-200.000	0.011	0.075
-678.208	-58.589	0.195	-0.085
-677.193	-200.000	0.011	-0.335
-676.178	329.733	-0.093	-0.180
-675.164	358.491	-0.164	-0.330
-674.149	-154.370	-0.168	-0.011
-673.135	78.889	0.173	-0.186
-672.120	68.341	0.103	-0.106
-671.105	312.175	-0.060	0.114
-670.091	-200.000	0.026	-0.165
-669.076	800.000	-0.026	-0.101
-668.062	-99.447	-0.029	0.007
-667.047	-43.754	0.052	-0.026
-666.032	269.636	-0.200	0.354
-665.018	800.000	-0.044	0.176
-664.003	27.293	0.261	-0.221
-662.989	-131.353	0.083	0.011
-661.974	-70.405	-0.301	-0.115
-660.959	-200.000	-0.078	-0.429
-659.945	-152.318	0.103	-0.008
-658.930	-200.000	0.023	-0.210
-657.916	160.921	0.179	-0.251
-656.901	0.056	-0.260	-0.186
-655.886	-200.000	-0.030	0.334
-654.872	216.217	-0.071	0.113
-653.857	67.855	-0.081	-0.083
-652.843	-200.000	0.010	-0.288
-651.828	197.356	-0.050	0.077
-650.814	68.805	0.160	-0.165
-649.799	126.765	-0.020	0.026
-648.784	-57.885	-0.089	0.039
-647.770	-200.000	0.051	0.296
-646.755	137.817	0.055	-0.072
-645.741	6.362	-0.172	0.128
-644.726	-130.521	-0.333	-0.045
-643.711	108.183	-0.172	-0.206
-642.697	24.701	0.072	-0.060
-641.682	-200.000	0.006	0.123
-640.668	-92.702	0.272	-0.077
-639.653	456.075	0.016	-0.036
-638.638	129.626	0.164	0.210
-637.624	123.115	-0.136	-0.171
-636.609	-200.000	0.016	0.138
-635.595	800.000	0.056	-0.201
-634.580	-72.087	-0.219	0.082
-633.565	-99.781	-0.198	0.050
-632.551	-200.000	0.042	0.298
-631.536	141.131	0.060	0.079
-630.522	-200.000	0.069	-0.388
-629.507	-151.871	-0.295	0.022
-628.492	-103.163	-0.293	-0.070
-627.478	7.831	-0.346	0.261
-626.463	-94.530	0.386	-0.105
-625.449	71.105	-0.177	0.184
-624.434	-162.866	-0.468	0.023
-623.419	800.000	0.008	-0.029
-622.405	678.603	0.113	-0.295
-621.390	-91.595	0.167	0.048
-620.376	-98.433	0.233	-0.060
-619.361	-45.594	0.254	-0.126
-618.346	-200.000	0.030	0.283
-617.332	349.980	-0.074	-0.146
-616.317	9.369	0.388	0.295
-615.303	-26.338	0.211	0.124
-614.288	-121.144	-0.048	0.008
-613.273	-200.000	0.009	-0.255
-612.259	17.963	-0.137	0.109
-611.244	211.870	-0.212	0.335
-610.230	-200.000	0.021	-0.175
-609.215	124.939	-0.275	-0.348
-608.201	-125.317	-0.202	-0.031
-607.186	-23.630	0.319	-0.192
-606.171	-200.000	-0.018	0.103
-605.157	-136.472	-0.415	-0.048
-604.142	-200.000	0.016	-0.295
-603.128	761.930	-0.098	-0.267
-602.113	40.032	-0.156	-0.141
-601.098	60.813	-0.391	-0.389
-600.084	-200.000	-0.004	-0.102
-599.069	800.000	-0.060	-0.176
-598.055	-41.014	0.230	0.119
-597.040	320.313	0.084	-0.159
-596.025	117.933	0.057	-0.070
-595.011	-120.724	0.082	-0.014
-593.996	662.739	0.048	0.123
-592.982	-117.674	0.165	-0.030
-591.967	-200.000	0.011	0.076
-590.952	446.836	0.146	0.323
-589.938	339.951	0.123	-0.241
-588.923	-64.793	-0.200	-0.081
-587.909	42.537	-0.070	-0.064
-586.894	201.730	0.070	0.108
-585.879	228.093	-0.075	-0.123
-584.865	-200.000	0.046	0.228
-583.850	-36.098	-0.241	-0.130
-582.836	-68.324	0.192	0.075
-581.821	800.000	0.085	0.347
-580.806	193.552	-0.063	-0.095
-579.792	236.270	-0.058	-0.096
-578.777	7.200	0.218	-0.163
-577.763	-166.719	0.319	0.013
-576.748	-200.000	-0.036	-0.189
-575.733	800.000	0.101	-0.355
-574.719	714.449	0.089	0.238
-573.704	75.506	0.218	-0.231
-572.690	298.861	-0.008	-0.015
-571.675	-200.000	-0.131	0.000
-570.661	-69.409	-0.400	0.154
-569.646	-66.933	0.190	0.075
-568.631	225.680	-0.102	0.165
-567.617	800.000	0.031	0.090
-566.602	113.901	0.209	-0.255
-565.588	-56.557	0.270	0.120
-564.573	31.829	-0.067	0.058
-563.558	-89.466	0.232	-0.068
-562.544	-110.078	-0.141	-0.029
-561.529	55.447	-0.039	0.038
-560.515	-200.000	0.057	0.315
-559.500	76.136	-0.177	0.187
-558.485	-141.976	0.194	-0.019
-557.471	-44.361	0.142	0.071
-556.456	-94.033	-0.190	-0.052
-555.442	-5.480	0.075	-0.052
-554.427	27.543	-0.106	-0.090
-553.412	-23.082	-0.082	0.049
-552.398	60.990	0.058	-0.058
-551.383	800.000	0.107	0.355
-550.369	-200.000	0.037	-0.333
-549.354	168.519	0.246	-0.351
-548.339	-68.265	-0.142	-0.055
-547.325	766.937	0.059	-0.160
-546.310	-49.972	-0.303	0.144
-545.296	44.277	0.150	0.138
-544.281	648.371	0.126	0.323
-543.266	-26.793	-0.285	-0.167
-542.252	-20.661	0.112	0.069
-541.237	-200.000	-0.048	0.325
-540.223	800.000	0.036	0.155
-539.208	475.939	0.207	-0.468
-538.193	-123.043	-0.105	0.017
-537.179	800.000	-0.009	-0.026
-536.164	-96.265	-0.229	0.061
-535.150	-118.372	0.217	0.039
-534.135	32.047	0.202	0.174
-533.121	-152.006	0.141	0.010
-532.106	-107.870	0.414	-0.090
-531.091	3.270	-0.036	-0.026
-530.077	97.203	-0.052	-0.060
-529.062	-62.880	-0.109	0.045
-528.048	543.968	-0.037	0.088
-527.033	101.312	0.133	0.155
-526.018	-200.000	0.039	0.366
-525.004	-31.495	-0.094	-0.053
-523.989	-200.000	0.038	-0.197
-522.975	-200.000	-0.011	0.083
-521.960	800.000	0.083	0.310
-520.945	51.002	0.094	0.089
-519.931	-79.697	-0.105	0.036
-518.916	-200.000	0.026	0.188
-517.902	-109.952	-0.243	0.051
-516.887	-98.801	-0.240	-0.061
-515.872	-140.846	-0.190	-0.020
-514.858	-11.835	0.205	-0.135
-513.843	-136.649	-0.396	0.046
-512.829	396.387	-0.104	0.217
-511.814	552.143	0.065	-0.157
-510.799	-200.000	0.013	0.143
-509.785	-200.000	-0.030	0.235
-508.770	569.172	0.128	0.312
-507.756	-200.000	0.029	0.364
-506.741	532.023	0.074	-0.175
-505.726	-76.734	0.195	-0.068
-504.712	-147.523	-0.287	0.024
-503.697	136.262	0.072	0.094
-502.683	-29.373	0.193	0.110
-501.668	-200.000	0.077	-0.352
-500.653	-130.593	-0.476	-0.064
-499.639	36.152	0.122	-0.108
-498.624	-200.000	0.018	-0.155
-497.610	-33.628	-0.119	-0.066
-496.595	343.855	0.088	-0.172
-495.581	-200.000	0.014	0.080
-494.566	350.382	-0.009	-0.017
-493.551	-85.883	0.348	-0.108
-492.537	-200.000	0.041	0.207
-491.522	-48.878	0.220	0.106
-490.508	177.764	0.237	-0.345
-489.493	495.907	0.043	0.098
-488.478	42.297	-0.019	0.018
-487.464	96.910	-0.111	0.127
-486.449	-200.000	-0.026	0.213
-485.435	262.279	0.229	-0.397
-484.420	181.539	0.190	0.280
-483.405	92.932	-0.167	0.188
-482.391	-200.000	0.010	0.073
-481.376	-200.000	-0.052	0.229
-480.362	123.614	-0.219	-0.275
-479.347	471.732	0.073	-0.164
-478.332	268.885	-0.225	-0.395
-477.318	-126.367	-0.318	0.047
-476.303	-117.228	0.236	0.043
-475.289	83.046	-0.057	-0.062
-474.274	81.769	-0.126	-0.136
-473.259	389.021	-0.092	-0.190
-472.245	-62.425	-0.149	0.062
-471.230	800.000	0.047	-0.150
-470.216	-200.000	0.020	-0.185
-469.201	102.685	-0.139	-0.162
-468.186	-200.000	0.035	0.162
-467.172	252.811	-0.055	0.094
-466.157	156.471	-0.110	0.152
-465.143	-82.763	0.111	0.036
-464.128	91.454	-0.138	-0.154
-463.113	-200.000	0.053	-0.267
-462.099	-39.984	-0.029	0.015
-461.084	-95.711	-0.283	0.075
-460.070	-151.433	-0.274	0.020
-459.055	-2.507	0.256	0.179
-458.040	-200.000	-0.055	0.269
-457.026	-83.649	0.206	0.066
-456.011	-84.261	0.142	0.045
-454.997	-119.848	0.283	-0.049
-453.982	103.595	-0.095	-0.111
-452.968	-107.968	-0.180	-0.039
-451.953	298.926	-0.124	0.228
-450.938	-75.925	0.132	-0.047
-449.924	443.995	0.113	0.247
-448.909	58.951	-0.225	0.221
-447.895	33.993	-0.159	-0.138
-446.880	-165.601	-0.228	-0.010
-445.865	-48.055	0.198	0.095
-444.851	800.000	0.054	-0.170
-443.836	467.896	0.157	-0.351
-442.822	24.772	0.205	-0.170
-441.807	125.149	0.157	-0.197
-440.792	800.000	-0.065	0.213
-439.778	60.493	0.080	0.079
-438.763	-165.739	0.153	0.007
-437.749	-80.637	-0.160	-0.053
-436.734	172.677	-0.035	-0.050
-435.719	-164.039	-0.192	-0.009
-434.705	65.086	0.053	-0.054
-433.690	-127.501	-0.077	0.011
-432.676	120.529	0.035	0.043
-431.661	136.466	0.123	-0.160
-430.646	-200.000	-0.091	-0.477
-429.632	-43.979	-0.236	-0.118
-428.617	398.587	0.109	-0.228
-427.603	660.147	-0.084	0.216
-426.588	-200.000	-0.073	-0.341
-425.573	800.000	0.024	-0.099
-424.559	-131.882	-0.076	0.010
-423.544	-95.001	-0.403	-0.108
-422.530	247.109	-0.044	-0.074
-421.515	-1.676	0.180	-0.127
-420.500	-11.723	-0.267	-0.175
-419.486	30.119	0.089	0.076
-418.471	-13.911	-0.193	0.124
-417.457	197.267	-0.090	0.137
-416.442	38.116	-0.065	-0.058
-415.428	-72.920	0.184	-0.068
-414.413	-2.536	-0.272	0.190
-413.398	184.438	-0.040	0.059
-412.384	-103.304	-0.157	0.037
-411.369	-51.502	0.082	0.038
-410.355	-120.075	-0.207	0.035
-409.340	800.000	0.133	-0.400
-408.325	324.308	0.050	-0.096
-407.311	-68.322	-0.323	0.125
-406.296	302.334	-0.056	0.104
-405.282	17.202	-0.453	-0.358
-404.267	168.056	-0.012	-0.017
-403.252	-53.453	-0.166	-0.076
-402.238	223.478	-0.039	-0.063
-401.223	375.241	0.080	-0.163
-400.209	-11.845	-0.072	-0.047
-399.194	-127.608	-0.246	0.035
-398.179	-200.000	-0.038	-0.403
-397.165	177.566	0.021	-0.031
-396.150	-25.392	0.123	-0.073
-395.136	800.000	-0.035	-0.150
-394.121	435.996	0.045	-0.098
-393.106	800.000	-0.081	0.270
-392.092	-128.671	0.122	0.017
-391.077	133.797	0.178	0.229
-390.063	-200.000	0.030	0.420
-389.048	-200.000	-0.019	0.224
-388.033	-200.000	-0.012	-0.206
-387.019	77.991	-0.131	0.139
-386.004	365.571	-0.147	0.295
-384.990	-86.024	-0.237	0.073
-383.975	163.544	0.123	-0.172
-382.960	-123.320	0.108	-0.017
-381.946	-109.960	-0.233	0.049
-380.931	-200.000	-0.021	0.153
-379.917	150.018	0.131	0.176
-378.902	-94.836	0.261	0.071
-377.888	-40.962	0.186	0.096
-376.873	47.890	-0.166	0.154
-375.858	145.725	-0.110	0.147
-374.844	-21.245	0.218	-0.133
-373.829	-103.148	0.406	-0.096
-372.815	-44.722	-0.327	-0.162
-371.800	10.218	0.264	0.199
-370.785	-1.920	0.066	0.046
-369.771	-188.609	-0.186	0.002
-368.756	13.527	0.096	-0.074
-367.742	-97.799	0.343	-0.088
-366.727	163.729	-0.212	0.296
-365.712	-45.448	-0.105	-0.052
-364.698	-37.764	0.164	0.087
-363.683	-27.492	0.150	0.087
-362.669	212.648	-0.258	-0.405
-361.654	-105.781	0.116	0.026
-360.639	110.851	-0.116	-0.139
-359.625	-70.250	0.188	-0.071
-358.610	-200.000	0.063	-0.280
-357.596	-49.182	-0.081	-0.038
-356.581	-200.000	-0.029	-0.250
-355.566	-80.555	0.059	0.020
-354.552	215.402	0.174	-0.274
-353.537	782.197	0.064	0.173
-352.523	-28.777	-0.369	0.211
-351.508	74.608	-0.151	0.158
-350.493	532.945	0.097	-0.228
-349.479	800.000	-0.052	-0.180
-348.464	-103.378	0.099	0.023
-347.450	-200.000	-0.044	-0.250
-346.435	85.313	-0.100	0.109
-345.420	-81.580	0.244	0.080
-344.406	36.018	0.081	0.071
-343.391	-200.000	-0.003	0.468
-342.377	297.020	0.105	-0.191
-341.362	-111.540	0.169	0.034
-340.348	-4.730	-0.083	-0.057
-339.333	85.970	-0.288	-0.314
-338.318	0.708	-0.066	0.047
-337.304	-62.819	0.008	-0.003
-336.289	370.640	0.034	-0.068
-335.275	66.303	-0.024	-0.024
-334.260	-160.149	0.179	-0.010
-333.245	800.000	0.016	-0.062
-332.231	800.000	0.023	0.092
-331.216	60.185	-0.064	0.062
-330.202	-102.807	-0.306	-0.072
-329.187	-130.628	0.117	-0.016
-328.172	800.000	-0.059	0.171
-327.158	5.947	-0.206	-0.151
-326.143	-93.689	0.224	-0.061
-325.129	800.000	0.144	0.536
-324.114	88.018	-0.250	0.275
-323.099	398.392	0.181	0.376
-322.085	93.402	-0.141	0.158
-321.070	800.000	0.083	-0.237
-320.056	-51.708	0.181	-0.084
-319.041	800.000	0.085	-0.366
-318.026	-51.020	-0.219	0.102
-317.012	-28.143	-0.109	-0.062
-315.997	-143.263	0.226	0.022
-314.983	-200.000	0.002	0.175
-313.968	-107.615	-0.347	0.075
-312.953	800.000	0.096	-0.327
-311.939	-39.312	0.152	-0.079
-310.924	-125.040	0.172	-0.026
-309.910	-8.847	-0.056	-0.037
-308.895	54.136	-0.136	0.130
-307.880	35.289	0.182	0.159
-306.866	-200.000	0.039	0.252
-305.851	-51.198	0.176	0.082
-304.837	-194.627	0.106	-0.001
-303.822	-200.000	-0.001	-0.165
-302.807	-56.786	0.007	0.003
-301.793	-115.748	-0.203	0.038
-300.778	800.000	-0.049	-0.158
-299.764	212.728	0.145	-0.226
-298.749	43.899	-0.132	-0.120
-297.735	399.180	0.146	0.304
-296.720	-133.948	-0.302	-0.037
-295.705	-40.717	-0.094	-0.048
-294.691	80.342	0.092	-0.098
-293.676	-200.000	0.069	0.415
-292.662	800.000	-0.038	-0.148
-291.647	273.806	0.066	0.116
-290.632	163.350	0.048	0.067
-289.618	-200.000	0.036	0.167
-288.603	39.738	-0.131	0.117
-287.589	-32.343	0.204	0.113
-286.574	-121.078	0.074	0.012
-285.559	-200.000	-0.013	-0.091
-284.545	-106.680	-0.094	-0.021
-283.530	510.299	0.100	0.231
-282.516	-200.000	0.002	-0.347
-281.501	283.193	0.070	0.124
-280.486	-13.594	-0.138	0.089
-279.472	-200.000	-0.046	-0.216
-278.457	800.000	0.067	0.256
-277.443	403.133	-0.120	-0.250
-276.428	800.000	-0.031	-0.110
-275.413	317.659	-0.064	-0.121
-274.399	187.157	-0.112	-0.166
-273.384	-0.297	-0.164	0.116
-272.370	-200.000	-0.046	0.217
-271.355	5.422	0.091	-0.067
-270.340	288.115	0.061	-0.110
-269.326	60.897	0.084	0.082
-268.311	-117.945	-0.208	0.037
-267.297	-180.803	0.220	-0.004
-266.282	69.767	0.152	0.155
-265.267	-147.947	0.169	-0.014
-264.253	79.302	0.117	-0.124
-263.238	110.044	0.005	-0.007
-262.224	-200.000	0.005	-0.111
-261.209	226.714	0.089	-0.142
-260.195	-200.000	0.018	0.266
-259.180	-200.000	-0.045	0.241
-258.165	189.047	0.090	0.134
-257.151	-200.000	-0.024	0.162
-256.136	-105.810	0.272	0.061
-255.122	-23.971	0.209	0.124
-254.107	90.252	0.379	0.420
-253.092	397.682	-0.187	0.388
-252.078	-200.000	-0.024	0.224
-251.063	95.571	0.216	-0.244
-250.049	256.264	0.107	0.182
-249.034	-179.989	-0.330	-0.007
-248.019	-41.643	0.228	-0.116
-247.005	-115.593	-0.192	-0.036
-245.990	70.750	-0.099	0.101
-244.976	-200.000	-0.068	0.305
-243.961	-200.000	0.047	-0.268
-242.946	479.833	0.098	0.221
-241.932	749.753	0.024	0.064
-240.917	-200.000	0.061	0.295
-239.903	-90.327	0.179	-0.051
-238.888	-160.122	0.141	0.008
-237.873	191.279	-0.369	0.550
-236.859	261.318	-0.047	0.080
-235.844	-33.884	-0.281	-0.153
-234.830	-200.000	0.019	-0.185
-233.815	800.000	0.092	-0.308
-232.800	369.055	0.098	-0.196
-231.786	762.373	0.165	-0.443
-230.771	800.000	0.053	0.189
-229.757	115.554	-0.212	0.256
-228.742	-137.366	0.154	0.017
-227.727	-107.388	-0.245	-0.053
-226.713	800.000	0.093	-0.376
-225.698	-165.198	0.175	0.008
-224.684	56.612	0.228	-0.220
-223.669	160.306	-0.115	0.159
-222.655	-1.313	-0.104	0.072
-221.640	83.871	-0.169	-0.183
-220.625	-123.868	0.202	-0.031
-219.611	111.145	0.312	-0.372
-218.596	-113.177	-0.201	0.039
-217.582	-127.644	-0.261	0.037
-216.567	198.807	-0.215	0.326
-215.552	-168.737	0.077	0.003
-214.538	-79.462	0.207	0.069
-213.523	800.000	0.084	-0.289
-212.509	-86.164	0.332	-0.101
-211.494	113.215	0.041	-0.049
-210.479	-32.033	-0.115	0.064
-209.465	91.907	-0.063	0.070
-208.450	-191.835	0.202	0.002
-207.436	28.426	0.235	0.196
-206.421	130.642	0.092	0.116
-205.406	-200.000	0.050	-0.287
-204.392	-106.829	0.200	-0.044
-203.377	-27.024	-0.166	0.096
-202.363	-94.176	-0.362	-0.098
-201.348	-88.692	-0.064	-0.019
-200.333	-142.518	-0.110	0.011
-199.319	326.406	0.062	0.118
-198.304	623.477	-0.128	-0.318
-197.290	-27.927	0.069	-0.040
-196.275	88.739	0.129	-0.142
-195.260	795.152	-0.107	0.290
-194.246	191.074	0.109	0.162
-193.231	236.077	-0.050	-0.082
-192.217	-3.144	-0.092	0.063
-191.202	-200.000	-0.079	0.374
-190.187	149.271	-0.114	-0.152
-189.173	-27.228	0.101	0.058
-188.158	-200.000	0.026	-0.203
-187.144	-45.018	0.201	0.099
-186.129	9.047	-0.185	-0.138
-185.114	-98.005	0.180	0.046
-184.100	70.831	0.247	0.252
-183.085	-200.000	0.041	-0.298
-182.071	-69.206	0.135	-0.051
-181.056	-81.338	0.105	0.034
-180.042	442.312	0.065	-0.141
-179.027	180.348	0.086	0.124
-178.012	25.169	-0.175	-0.143
-176.998	-27.076	-0.199	0.114
-175.983	586.507	0.057	0.138
-174.969	-200.000	0.068	0.342
-173.954	-65.389	-0.167	0.066
-172.939	83.985	0.297	-0.320
-171.925	-77.852	-0.076	-0.026
-170.910	-118.168	0.338	0.059
-169.896	800.000	-0.064	0.176
-168.881	800.000	-0.031	-0.091
-167.866	800.000	-0.051	0.164
-166.852	-200.000	0.060	-0.359
-165.837	-101.446	-0.303	0.073
-164.823	301.163	0.073	-0.132
-163.808	-200.000	0.003	-0.028
-162.793	92.219	0.192	-0.214
-161.779	349.376	-0.087	-0.169
-160.764	534.646	-0.192	0.449
-159.750	507.195	-0.029	-0.067
-158.735	-200.000	-0.033	-0.196
-157.720	-200.000	0.061	-0.297
-156.706	-16.362	-0.206	0.129
-155.691	-200.000	-0.019	-0.398
-154.677	800.000	-0.068	-0.224
-153.662	-200.000	-0.089	0.447
-152.647	49.263	0.268	0.249
-151.633	-42.723	0.022	0.011
-150.618	-60.770	0.420	-0.175
-149.604	-13.089	-0.432	0.277
-148.589	800.000	0.011	-0.033
-147.574	-108.339	-0.232	0.049
-146.560	800.000	0.010	-0.039
-145.545	-200.000	-0.046	0.271
-144.531	209.609	-0.153	-0.237
-143.516	479.576	-0.070	0.156
-142.502	800.000	0.063	0.215
-141.487	-165.496	-0.101	0.004
-140.472	176.866	0.101	-0.146
-139.458	-4.420	-0.064	-0.044
-138.443	253.701	0.244	0.411
-137.429	-200.000	-0.005	0.132
-136.414	52.036	-0.142	-0.134
-135.399	-56.638	-0.110	0.048
-134.385	432.812	-0.088	0.189
-133.370	48.460	0.068	-0.062
-132.356	65.269	-0.107	-0.107
-131.341	-28.821	0.274	-0.155
-130.326	800.000	0.015	0.063
-129.312	16.389	0.089	-0.069
-128.297	157.816	0.132	-0.180
-127.283	-39.764	0.057	0.029
-126.268	-43.928	0.260	0.129
-125.253	-200.000	0.008	0.172
-124.239	-68.367	0.214	0.082
-123.224	-115.254	0.244	-0.046
-122.210	-200.000	0.015	0.080
-121.195	474.616	-0.171	0.381
-120.180	-30.398	0.134	0.075
