DTS Sentinel unit serial number:	SN413079Multiplexer serial number:	ORYXHardware model number:	OX4-SRSoftware version number:	ORYX F/W v4.00 Oryx Data Collector v3.7.2.0data status	okinstallation	princeton_trtdifferential loss correction	single-endedforward channel	channel 1reverse channel	N/Adate	2019/09/11time	21:04:11forward acquisition time	60.00reverse acquisition time	0.00gamma	496.2192k internal	0.2307k external	0.2307temperature offset calibration	1.0052default loss term (dB/km)	0.3790temperature slope calibration	1.0000multiplexer offset coefficient	1.0000multiplexer slope coefficient	1.0000fibre end	0.00T internal ref (°C)	36.58T ext. ref 1 (°C)	1.68T ext. ref 2 (°C)	30.62length (m)	temperature (°C)	Stokes	anti-Stokes-747.200	-13.945	-0.408	0.268
-746.185	46.362	0.208	-0.196
-745.171	226.343	-0.060	-0.099
-744.156	-36.448	-0.212	0.116
-743.142	614.657	-0.107	0.272
-742.127	236.218	-0.311	0.523
-741.112	411.170	0.038	0.082
-740.098	-200.000	0.018	0.905
-739.083	-200.000	-0.031	0.320
-738.069	135.233	0.194	0.256
-737.054	-128.738	-0.166	0.024
-736.039	-136.477	-0.170	0.020
-735.025	-98.307	-0.175	0.046
-734.010	32.617	-0.345	-0.303
-732.996	17.810	-0.154	-0.124
-731.981	-28.599	-0.287	0.168
-730.966	-168.890	-0.495	0.019
-729.952	42.056	-0.127	-0.117
-728.937	800.000	-0.101	0.417
-727.923	800.000	0.034	-0.150
-726.908	-200.000	-0.023	-0.355
-725.894	-3.045	-0.185	0.131
-724.879	190.082	-0.044	0.067
-723.864	-125.192	0.391	0.061
-722.850	75.211	-0.173	0.185
-721.835	255.880	-0.004	-0.008
-720.821	-200.000	0.066	-0.366
-719.806	152.943	-0.196	-0.272
-718.791	243.094	-0.185	0.314
-717.777	132.373	-0.299	0.391
-716.762	256.314	0.176	-0.307
-715.748	800.000	-0.039	-0.135
-714.733	-200.000	0.023	0.226
-713.718	800.000	-0.075	0.302
-712.704	-33.143	-0.386	0.217
-711.689	-49.090	-0.334	-0.162
-710.675	-113.195	0.074	0.015
-709.660	800.000	0.090	-0.297
-708.645	-200.000	0.070	-0.315
-707.631	-56.416	-0.169	0.076
-706.616	25.296	-0.154	0.130
-705.602	-183.060	-0.114	-0.002
-704.587	543.647	0.098	0.237
-703.572	-200.000	0.032	0.372
-702.558	-38.627	0.118	0.063
-701.543	-14.365	0.289	-0.189
-700.529	-51.981	-0.296	-0.140
-699.514	58.508	-0.120	0.119
-698.499	800.000	0.102	-0.336
-697.485	62.400	0.207	-0.210
-696.470	709.727	0.058	0.155
-695.456	-200.000	-0.010	-0.173
-694.441	-200.000	-0.044	0.262
-693.426	-126.087	-0.238	-0.036
-692.412	460.607	0.066	0.150
-691.397	-26.779	-0.206	-0.122
-690.383	-200.000	0.047	-0.246
-689.368	-10.673	-0.288	-0.193
-688.354	-64.263	0.028	-0.011
-687.339	-72.612	0.214	0.080
-686.324	-102.473	-0.261	0.063
-685.310	800.000	0.098	0.323
-684.295	-134.297	-0.350	0.044
-683.281	-11.202	-0.233	-0.156
-682.266	253.266	0.141	0.244
-681.251	455.715	0.055	-0.125
-680.237	50.213	-0.117	0.112
-679.222	-67.618	-0.095	-0.038
-678.208	-200.000	-0.035	0.228
-677.193	-200.000	0.044	-0.242
-676.178	-200.000	0.028	-0.194
-675.164	-200.000	0.025	0.182
-674.149	11.919	-0.059	0.046
-673.135	-200.000	-0.053	0.328
-672.120	81.017	-0.077	0.084
-671.105	-54.073	-0.467	-0.215
-670.091	-150.490	0.011	-0.001
-669.076	-50.965	-0.179	-0.085
-668.062	191.056	-0.077	-0.117
-667.047	144.066	0.037	-0.050
-666.032	800.000	0.055	0.193
-665.018	-21.077	-0.420	-0.260
-664.003	238.132	-0.109	-0.184
-662.989	337.868	0.230	-0.453
-661.974	-103.590	-0.092	-0.022
-660.959	518.688	-0.091	-0.216
-659.945	-173.943	-0.094	-0.003
-658.930	381.284	0.159	-0.331
-657.916	-14.699	-0.288	-0.187
-656.901	800.000	0.084	0.326
-655.886	-162.291	-0.290	-0.015
-654.872	109.450	-0.145	-0.176
-653.857	-54.677	-0.396	-0.181
-652.843	56.107	-0.227	0.223
-651.828	800.000	-0.003	-0.010
-650.814	-68.226	0.206	-0.081
-649.799	-138.464	0.248	0.028
-648.784	-20.050	0.212	0.133
-647.770	540.236	0.111	-0.267
-646.755	-200.000	-0.012	0.191
-645.741	5.762	-0.208	0.156
-644.726	104.052	-0.164	-0.195
-643.711	-107.488	0.450	-0.100
-642.697	132.767	0.137	-0.179
-641.682	218.955	-0.115	0.187
-640.668	-170.075	-0.170	0.006
-639.653	54.051	-0.176	0.171
-638.638	-171.493	-0.279	0.009
-637.624	800.000	-0.034	0.143
-636.609	-108.589	-0.137	0.030
-635.595	-200.000	0.025	-0.236
-634.580	-54.077	0.122	0.056
-633.565	-13.141	-0.181	-0.119
-632.551	125.120	-0.093	-0.118
-631.536	495.001	-0.045	0.104
-630.522	27.721	0.231	-0.197
-629.507	304.727	-0.044	-0.082
-628.492	-25.575	-0.203	0.121
-627.478	-200.000	0.017	0.353
-626.463	-174.205	-0.226	-0.007
-625.449	101.727	-0.159	0.188
-624.434	-200.000	-0.052	0.230
-623.419	-52.053	0.212	0.100
-622.405	123.480	0.209	0.265
-621.390	-200.000	-0.110	-0.518
-620.376	-92.104	-0.267	-0.076
-619.361	800.000	0.051	-0.203
-618.346	104.088	-0.187	-0.223
-617.332	255.963	-0.097	-0.169
-616.317	-57.812	-0.158	-0.070
-615.303	71.121	-0.045	-0.047
-614.288	71.553	-0.137	0.144
-613.273	-200.000	-0.002	0.305
-612.259	-200.000	0.002	-0.421
-611.244	35.259	-0.166	-0.147
-610.230	112.590	-0.251	0.307
-609.215	-6.511	0.317	-0.218
-608.201	-145.219	0.342	-0.031
-607.186	-176.391	-0.250	0.007
-606.171	280.279	0.077	0.139
-605.157	36.919	0.302	0.270
-604.142	-32.697	0.224	0.126
-603.128	-96.721	0.243	-0.065
-602.113	127.730	-0.086	-0.111
-601.098	-102.152	-0.197	0.048
-600.084	-23.231	0.084	-0.051
-599.069	800.000	-0.020	0.075
-598.055	-128.445	0.172	-0.025
-597.040	-19.054	0.193	-0.122
-596.025	246.723	-0.047	-0.080
-595.011	800.000	-0.021	0.066
-593.996	-193.888	-0.196	0.002
-592.982	-154.234	-0.322	0.022
-591.967	99.410	-0.087	-0.101
-590.952	800.000	0.052	-0.173
-589.938	-200.000	0.005	-0.123
-588.923	59.553	0.163	0.162
-587.909	408.657	0.144	0.308
-586.894	303.544	0.072	0.135
-585.879	474.405	-0.145	0.330
-584.865	86.316	0.433	-0.482
-583.850	-200.000	-0.012	-0.134
-582.836	-125.487	-0.363	0.056
-581.821	-25.526	0.182	-0.108
-580.806	-86.987	0.233	0.072
-579.792	114.067	0.107	0.132
-578.777	-38.132	0.152	-0.082
-577.763	-42.336	0.083	0.043
-576.748	-141.329	0.368	0.038
-575.733	800.000	-0.054	0.212
-574.719	800.000	-0.118	-0.399
-573.704	-152.860	-0.496	-0.035
-572.690	-200.000	-0.038	0.171
-571.675	-200.000	-0.024	-0.147
-570.661	-200.000	0.002	-0.185
-569.646	-103.213	-0.362	0.086
-568.631	-58.039	0.618	-0.272
-567.617	5.582	-0.176	0.131
-566.602	-119.869	-0.185	0.032
-565.588	191.433	-0.086	0.131
-564.573	800.000	-0.070	-0.229
-563.558	-200.000	-0.067	0.337
-562.544	553.413	-0.046	0.112
-561.529	-150.144	-0.082	0.006
-560.515	-152.813	-0.141	0.010
-559.500	263.584	0.094	-0.166
-558.485	332.379	-0.073	0.143
-557.471	-140.190	0.115	0.012
-556.456	148.990	-0.124	0.169
-555.442	-200.000	-0.068	0.472
-554.427	-76.511	-0.205	-0.073
-553.412	-200.000	0.040	-0.359
-552.398	-33.992	0.127	0.070
-551.383	122.715	0.152	-0.191
-550.369	-200.000	-0.023	0.180
-549.354	-76.815	-0.405	0.143
-548.339	284.206	-0.140	0.254
-547.325	79.109	-0.113	-0.122
-546.310	181.971	-0.171	0.254
-545.296	62.722	-0.142	-0.144
-544.281	17.720	-0.088	0.071
-543.266	123.045	-0.049	0.062
-542.252	-200.000	0.041	0.330
-541.237	-94.175	0.233	0.064
-540.223	-44.616	-0.230	-0.116
-539.208	-97.145	0.310	0.082
-538.193	41.839	0.118	0.108
-537.179	-200.000	0.028	-0.497
-536.164	148.048	-0.258	-0.350
-535.150	-200.000	0.026	-0.373
-534.135	-75.629	0.090	-0.032
-533.121	-200.000	-0.074	-0.443
-532.106	45.626	-0.169	0.158
-531.091	-200.000	0.001	-0.058
-530.077	136.426	0.200	-0.264
-529.062	800.000	0.013	-0.049
-528.048	171.967	0.337	-0.488
-527.033	592.399	0.029	0.072
-526.018	30.278	-0.159	0.137
-525.004	-78.936	0.189	0.065
-523.989	-200.000	0.005	0.065
-522.975	-103.462	-0.211	-0.050
-521.960	-200.000	0.005	-0.170
-520.945	-46.884	-0.201	-0.099
-519.931	651.294	-0.085	0.219
-518.916	-53.436	-0.021	0.010
-517.902	-200.000	-0.017	0.151
-516.887	800.000	0.033	-0.125
-515.872	93.377	0.185	-0.211
-514.858	-32.849	-0.198	0.111
-513.843	0.667	0.251	0.181
-512.829	577.085	0.050	0.124
-511.814	14.304	0.036	-0.028
-510.799	800.000	0.096	-0.344
-509.785	-200.000	0.034	-0.217
-508.770	-48.193	-0.258	-0.125
-507.756	160.845	-0.038	-0.054
-506.741	-38.673	0.148	0.079
-505.726	723.355	-0.136	-0.364
-504.712	-125.686	-0.128	-0.020
-503.697	-58.155	-0.076	-0.033
-502.683	21.017	-0.133	0.109
-501.668	199.619	-0.084	-0.130
-500.653	156.994	0.139	-0.194
-499.639	-59.742	0.495	-0.214
-498.624	385.684	-0.146	0.304
-497.610	-157.911	0.114	-0.007
-496.595	-114.975	-0.250	0.048
-495.581	-114.386	-0.311	0.060
-494.566	213.575	-0.165	-0.263
-493.551	-76.380	0.110	-0.039
-492.537	14.034	-0.139	0.109
-491.522	-59.917	0.162	0.070
-490.508	-92.960	-0.087	-0.024
-489.493	-162.687	0.201	-0.010
-488.478	-200.000	-0.023	-0.288
-487.464	800.000	-0.075	-0.237
-486.449	368.973	-0.003	0.007
-485.435	-105.716	0.191	-0.043
-484.420	462.367	-0.073	0.163
-483.405	-150.349	-0.423	0.033
-482.391	-123.329	-0.304	0.049
-481.376	632.654	-0.058	-0.148
-480.362	-79.443	0.444	-0.151
-479.347	-138.312	-0.236	0.026
-478.332	5.481	0.067	0.050
-477.318	-71.082	0.583	-0.221
-476.303	480.259	-0.176	0.402
-475.289	-200.000	-0.006	0.240
-474.274	-149.132	-0.260	0.021
-473.259	-32.105	0.105	0.059
-472.245	-67.060	-0.170	-0.068
-471.230	800.000	0.095	0.269
-470.216	33.206	0.212	0.185
-469.201	-61.206	0.343	-0.146
-468.186	-200.000	0.036	-0.189
-467.172	-130.849	0.077	-0.010
-466.157	312.776	-0.159	0.300
-465.143	317.433	0.101	0.192
-464.128	-193.425	0.456	-0.004
-463.113	-200.000	0.015	-0.161
-462.099	800.000	0.068	0.207
-461.084	-200.000	0.002	0.030
-460.070	-200.000	-0.044	0.224
-459.055	-200.000	0.003	-0.066
-458.040	-200.000	-0.012	-0.236
-457.026	-200.000	0.043	-0.302
-456.011	65.007	-0.063	-0.064
-454.997	127.280	-0.154	-0.197
-453.982	24.337	-0.307	0.255
-452.968	115.454	0.138	0.169
-451.953	800.000	-0.020	-0.059
-450.938	800.000	0.067	0.206
-449.924	800.000	0.026	0.080
-448.909	-200.000	0.034	0.223
-447.895	-200.000	0.041	-0.195
-446.880	-150.930	-0.188	0.014
-445.865	26.992	0.207	0.174
-444.851	115.947	0.125	0.153
-443.836	-52.733	0.223	0.103
-442.822	-5.012	-0.094	0.065
-441.807	50.737	0.143	0.136
-440.792	-91.506	0.319	-0.092
-439.778	-121.556	0.033	0.006
-438.763	-88.319	-0.312	0.094
-437.749	400.687	-0.091	-0.193
-436.734	-200.000	0.019	0.113
-435.719	-115.568	0.262	-0.050
-434.705	14.044	0.177	0.138
-433.690	800.000	-0.057	0.235
-432.676	800.000	0.019	-0.069
-431.661	-138.793	0.194	-0.021
-430.646	-60.798	0.111	-0.047
-429.632	251.218	-0.194	0.332
-428.617	-82.095	-0.255	0.083
-427.603	-200.000	0.040	0.247
-426.588	23.254	-0.293	-0.242
-425.573	-181.050	-0.274	0.006
-424.559	644.953	-0.065	-0.166
-423.544	-200.000	-0.019	-0.244
-422.530	39.599	-0.209	-0.188
-421.515	519.324	-0.090	-0.211
-420.500	74.343	0.074	0.078
-419.486	800.000	0.072	-0.228
-418.471	800.000	-0.041	0.169
-417.457	-59.444	0.245	-0.106
-416.442	-62.119	-0.373	-0.156
-415.428	-163.815	0.262	-0.012
-414.413	37.858	-0.228	0.204
-413.398	-10.118	-0.073	-0.049
-412.384	171.516	0.170	0.245
-411.369	-14.533	0.139	0.090
-410.355	-200.000	-0.052	0.375
-409.340	-167.825	0.076	0.003
-408.325	-118.194	-0.128	-0.023
-407.311	-200.000	0.020	-0.230
-406.296	355.840	0.104	0.208
-405.282	181.960	-0.167	-0.247
-404.267	48.563	0.209	-0.197
-403.252	93.173	0.150	-0.170
-402.238	552.377	0.069	-0.167
-401.223	-200.000	0.027	-0.266
-400.209	20.680	0.236	-0.192
-399.194	282.458	-0.254	-0.458
-398.179	450.231	0.097	-0.214
-397.165	15.444	-0.136	0.107
-396.150	-106.346	-0.371	-0.083
-395.136	800.000	-0.013	-0.049
-394.121	-200.000	-0.003	0.021
-393.106	6.016	0.407	0.302
-392.092	-136.728	0.100	0.012
-391.077	46.536	-0.133	-0.124
-390.063	281.917	-0.152	0.273
-389.048	14.642	-0.187	0.147
-388.033	-200.000	-0.015	-0.145
-387.019	-200.000	-0.006	0.425
-386.004	-102.955	-0.333	0.079
-384.990	-200.000	0.008	-0.106
-383.975	-25.909	-0.172	0.101
-382.960	-200.000	0.046	-0.229
-381.946	-75.760	0.284	0.101
-380.931	-200.000	-0.008	0.202
-379.917	-55.979	-0.099	-0.044
-378.902	228.605	0.222	0.363
-377.888	-30.384	-0.092	0.052
-376.873	415.747	-0.036	0.076
-375.858	800.000	0.076	0.244
-374.844	-200.000	0.046	-0.238
-373.829	-98.317	-0.299	0.077
-372.815	67.944	-0.051	-0.052
-371.800	-200.000	-0.065	-0.375
-370.785	-166.114	-0.175	0.007
-369.771	23.500	-0.092	0.076
-368.756	662.792	0.029	0.076
-367.742	-28.541	0.220	-0.127
-366.727	2.163	0.509	0.369
-365.712	-169.233	-0.103	-0.004
-364.698	93.441	0.102	-0.116
-363.683	331.319	-0.138	-0.266
-362.669	180.955	0.282	0.416
-361.654	-119.404	-0.357	0.062
-360.639	63.420	0.194	0.195
-359.625	-135.915	-0.349	0.041
-358.610	800.000	0.137	-0.523
-357.596	74.859	-0.233	-0.246
-356.581	113.759	0.186	-0.226
-355.566	-97.958	-0.437	-0.113
-354.552	-1.632	0.136	-0.096
-353.537	-132.519	-0.174	-0.022
-352.523	574.021	0.170	0.414
-351.508	28.794	-0.205	-0.174
-350.493	-88.348	-0.101	0.030
-349.479	157.337	-0.186	0.258
-348.464	20.014	0.155	0.125
-347.450	154.145	0.182	-0.251
-346.435	-78.153	-0.046	-0.016
-345.420	-158.669	-0.160	-0.009
-344.406	-47.281	0.312	0.152
-343.391	659.459	-0.029	0.074
-342.377	-169.098	-0.284	0.011
-341.362	8.832	0.153	-0.116
-340.348	-123.846	-0.275	0.043
-339.333	56.275	-0.088	-0.085
-338.318	18.942	0.213	-0.171
-337.304	-36.701	-0.115	-0.062
-336.289	40.654	0.146	0.132
-335.275	-128.319	0.359	-0.051
-334.260	-200.000	0.013	-0.172
-333.245	-71.808	0.116	0.043
-332.231	215.871	-0.143	-0.227
-331.216	279.895	-0.038	0.069
-330.202	-200.000	-0.009	0.174
-329.187	205.498	-0.075	0.116
-328.172	-200.000	-0.041	0.225
-327.158	-18.448	-0.340	0.212
-326.143	479.409	0.050	-0.114
-325.129	-200.000	-0.048	-0.397
-324.114	-111.248	-0.169	0.035
-323.099	129.450	0.209	0.266
-322.085	-113.487	-0.310	-0.061
-321.070	164.593	0.220	0.311
-320.056	-170.269	-0.207	0.007
-319.041	26.164	-0.181	-0.151
-318.026	385.746	0.087	-0.179
-317.012	-142.548	0.044	-0.004
-315.997	800.000	0.029	-0.088
-314.983	-26.128	-0.229	0.135
-313.968	-95.433	0.151	-0.041
-312.953	800.000	-0.014	0.058
-311.939	800.000	0.003	-0.011
-310.924	-61.935	-0.171	-0.071
-309.910	-140.728	-0.137	0.014
-308.895	478.030	-0.192	0.433
-307.880	-200.000	-0.049	0.285
-306.866	-166.223	-0.155	0.007
-305.851	-3.524	0.255	-0.178
-304.837	226.604	0.068	-0.111
-303.822	-133.396	0.255	-0.032
-302.807	-27.792	-0.147	-0.085
-301.793	118.157	-0.086	0.106
-300.778	-58.950	-0.124	0.053
-299.764	88.969	0.098	-0.109
-298.749	800.000	0.079	-0.323
-297.735	-92.276	0.297	0.084
-296.720	644.836	0.038	-0.096
-295.705	-71.293	0.534	-0.200
-294.691	5.072	-0.030	0.022
-293.676	-121.754	-0.434	-0.072
-292.662	-122.806	0.368	0.059
-291.647	-200.000	-0.040	0.215
-290.632	-137.359	-0.139	-0.016
-289.618	-60.295	0.147	0.062
-288.603	179.413	0.143	-0.209
-287.589	90.964	-0.096	-0.107
-286.574	189.493	-0.085	0.127
-285.559	800.000	0.090	0.341
-284.545	65.923	0.266	-0.269
-283.530	-26.520	-0.281	-0.164
-282.516	-132.428	0.212	0.027
-281.501	-89.475	0.200	-0.059
-280.486	-84.178	0.275	-0.087
-279.472	220.895	0.108	0.173
-278.457	-4.373	-0.297	-0.205
-277.443	-18.600	0.067	0.042
-276.428	18.598	0.255	0.203
-275.413	-134.535	0.119	0.015
-274.399	-79.127	0.023	0.008
-273.384	800.000	0.011	0.035
-272.370	618.453	0.062	0.156
-271.355	259.061	-0.083	0.143
-270.340	91.129	0.108	0.121
-269.326	-188.940	-0.195	-0.002
-268.311	-142.396	-0.251	0.025
-267.297	-87.709	0.277	0.083
-266.282	236.319	0.261	0.431
-265.267	751.069	0.031	-0.083
-264.253	-55.558	0.279	-0.125
-263.238	467.525	-0.177	-0.396
-262.224	-136.637	-0.016	-0.002
-261.209	800.000	0.052	-0.192
-260.195	33.718	0.233	0.202
-259.180	-200.000	-0.021	-0.221
-258.165	18.695	0.044	-0.035
-257.151	-133.263	-0.389	0.049
-256.136	-26.656	0.243	0.142
-255.122	52.015	-0.097	-0.092
-254.107	382.095	-0.151	-0.309
-253.092	197.393	-0.096	-0.146
-252.078	111.364	0.304	0.366
-251.063	800.000	0.093	0.267
-250.049	157.507	0.188	0.260
-249.034	262.519	0.107	0.185
-248.019	-27.497	0.092	0.053
-247.005	-200.000	-0.009	0.095
-245.990	304.522	0.085	0.158
-244.976	633.315	-0.134	0.338
-243.961	-200.000	0.003	-0.170
-242.946	-34.374	0.234	0.128
-241.932	187.182	-0.207	0.307
-240.917	142.928	0.261	-0.346
-239.903	800.000	-0.037	-0.134
-238.888	-64.666	0.164	-0.066
-237.873	-23.098	0.309	-0.185
-236.859	563.244	-0.099	0.239
-235.844	6.228	0.266	0.197
-234.830	-27.289	-0.136	0.079
-233.815	800.000	-0.108	0.353
-232.800	-200.000	0.007	-0.171
-231.786	-134.638	-0.253	-0.031
-230.771	-111.446	-0.249	-0.050
-229.757	388.210	0.062	-0.129
-228.742	337.660	-0.072	0.140
-227.727	418.625	0.060	-0.128
-226.713	-36.143	0.202	-0.109
-225.698	258.429	-0.067	0.115
-224.684	-118.839	-0.197	0.034
-223.669	18.467	0.084	0.067
-222.655	-152.597	-0.128	0.009
-221.640	53.593	-0.214	-0.204
-220.625	14.799	-0.140	-0.109
-219.611	769.298	0.032	-0.088
-218.596	310.768	-0.155	0.290
-217.582	3.946	-0.268	0.195
-216.567	100.075	0.174	-0.200
-215.552	-2.763	0.205	-0.143
-214.538	-151.441	0.097	0.007
-213.523	-200.000	0.002	-0.084
-212.509	608.782	0.010	0.024
-211.494	-138.430	-0.090	-0.010
-210.479	-200.000	0.002	0.048
-209.465	5.759	-0.047	-0.035
-208.450	800.000	-0.057	-0.249
-207.436	190.066	-0.155	0.231
-206.421	-200.000	-0.000	-0.008
-205.406	28.906	0.238	-0.201
-204.392	-200.000	0.031	0.167
-203.377	-7.143	0.129	-0.087
-202.363	336.995	0.132	0.255
-201.348	800.000	-0.073	0.307
-200.333	144.627	0.201	0.268
-199.319	191.136	0.080	0.119
-198.304	-200.000	0.005	0.116
-197.290	413.074	0.109	0.231
-196.275	-43.094	0.146	-0.074
-195.260	800.000	-0.059	-0.193
-194.246	163.515	0.273	-0.382
-193.231	-7.690	-0.287	-0.193
-192.217	64.301	0.072	-0.072
-191.202	105.762	-0.074	-0.088
-190.187	11.406	-0.136	0.103
-189.173	317.064	-0.059	-0.111
-188.158	771.965	0.022	0.059
-187.144	-50.647	-0.213	0.100
-186.129	94.002	0.340	-0.384
-185.114	-111.496	0.076	-0.015
-184.100	-103.876	0.108	0.025
-183.085	-101.809	-0.287	0.069
-182.071	-105.802	-0.281	0.063
-181.056	186.609	-0.260	0.386
-180.042	800.000	0.057	-0.176
-179.027	-108.476	0.125	-0.027
-178.012	-100.821	-0.091	-0.022
-176.998	-30.175	-0.190	0.107
-175.983	-132.456	-0.253	0.032
-174.969	-200.000	0.021	-0.292
-173.954	-43.369	-0.193	0.097
-172.939	-45.384	0.352	-0.174
-171.925	-16.320	0.156	0.098
-170.910	738.709	0.059	0.157
-169.896	-200.000	0.013	-0.162
-168.881	139.071	0.197	0.257
-167.866	-74.796	-0.107	0.038
-166.852	236.718	-0.072	0.119
-165.837	-65.166	0.320	-0.128
-164.823	-128.280	0.154	-0.022
-163.808	73.334	-0.162	-0.168
-162.793	-200.000	-0.022	-0.250
-161.779	210.883	-0.203	0.318
-160.764	-26.779	-0.186	-0.108
-159.750	380.958	0.035	-0.070
-158.735	-109.721	0.302	-0.063
-157.720	23.090	-0.237	-0.193
-156.706	26.475	0.252	0.209
-155.691	-69.369	0.143	-0.054
-154.677	71.482	0.058	0.059
-153.662	-125.751	0.259	0.039
-152.647	-3.213	-0.155	-0.107
-151.633	-62.206	0.122	0.050
-150.618	-144.469	-0.383	-0.035
-149.604	-53.272	0.151	-0.069
-148.589	155.758	0.102	0.140
-147.574	45.702	0.094	-0.087
-146.560	18.742	0.180	-0.143
-145.545	-21.690	0.086	0.052
-144.531	-200.000	-0.011	0.165
-143.516	-8.992	0.225	-0.149
-142.502	481.854	0.066	0.150
-141.487	800.000	-0.052	-0.144
-140.472	-170.675	-0.341	-0.012
-139.458	-200.000	-0.033	-0.292
-138.443	147.325	-0.055	-0.073
-137.429	-200.000	-0.010	0.049
-136.414	-200.000	-0.020	0.090
-135.399	507.834	-0.039	0.091
-134.385	-200.000	0.003	0.113
-133.370	-84.863	-0.255	0.080
-132.356	669.968	-0.069	0.178
-131.341	-200.000	-0.014	-0.090
-130.326	299.111	0.176	0.322
-129.312	267.747	0.167	0.290
-128.297	686.567	0.094	0.243
-127.283	-116.216	-0.169	0.031
-126.268	-7.865	-0.332	-0.222
-125.253	-111.083	-0.089	0.018
-124.239	-172.847	-0.380	0.012
-123.224	-185.930	0.160	-0.002
-122.210	-60.565	-0.129	0.054
