DTS Sentinel unit serial number:	SN413079Multiplexer serial number:	ORYXHardware model number:	OX4-SRSoftware version number:	ORYX F/W v4.00 Oryx Data Collector v3.7.2.0data status	okinstallation	princeton_trtdifferential loss correction	single-endedforward channel	channel 1reverse channel	N/Adate	2019/09/18time	02:58:35forward acquisition time	60.00reverse acquisition time	0.00gamma	496.2192k internal	0.2341k external	0.2341temperature offset calibration	0.9978default loss term (dB/km)	0.3790temperature slope calibration	1.0000multiplexer offset coefficient	1.0000multiplexer slope coefficient	1.0000fibre end	0.00T internal ref (°C)	22.75T ext. ref 1 (°C)	0.16T ext. ref 2 (°C)	16.68length (m)	temperature (°C)	Stokes	anti-Stokes-747.200	310.045	0.145	0.271
-746.185	-0.874	0.341	0.242
-745.171	-113.875	-0.221	0.043
-744.156	800.000	0.069	-0.293
-743.142	216.078	-0.146	0.233
-742.127	-38.600	-0.250	0.132
-741.112	135.141	-0.101	0.131
-740.098	-46.445	-0.259	-0.128
-739.083	-45.438	-0.071	0.035
-738.069	16.731	0.231	-0.183
-737.054	-124.380	0.050	-0.008
-736.039	144.318	-0.139	0.185
-735.025	-178.677	0.184	-0.004
-734.010	82.458	-0.059	-0.064
-732.996	9.153	-0.282	-0.213
-731.981	532.253	0.075	0.178
-730.966	-182.612	-0.410	0.007
-729.952	800.000	0.102	-0.335
-728.937	161.441	-0.117	-0.165
-727.923	292.307	-0.031	0.056
-726.908	-200.000	-0.232	0.000
-725.894	-94.428	-0.202	-0.055
-724.879	184.848	0.183	-0.271
-723.864	226.964	0.165	0.268
-722.850	-113.479	-0.289	0.057
-721.835	-200.000	0.006	-0.210
-720.821	137.953	0.087	-0.114
-719.806	-40.368	0.199	-0.103
-718.791	-77.814	0.121	0.042
-717.777	-36.346	-0.228	-0.123
-716.762	-160.523	-0.184	0.010
-715.748	800.000	0.081	-0.325
-714.733	44.031	0.177	-0.163
-713.718	800.000	0.106	-0.315
-712.704	526.691	-0.048	-0.113
-711.689	391.067	0.054	-0.111
-710.675	-200.000	0.008	-0.037
-709.660	-96.797	0.084	0.022
-708.645	-200.000	-0.008	-0.173
-707.631	513.734	0.030	0.069
-706.616	800.000	-0.059	0.188
-705.602	-1.309	0.108	-0.077
-704.587	-111.491	-0.085	0.017
-703.572	7.410	-0.212	0.158
-702.558	192.852	0.104	-0.157
-701.543	-200.000	0.020	-0.147
-700.529	417.627	-0.105	-0.224
-699.514	28.808	0.210	0.178
-698.499	-48.297	0.400	-0.193
-697.485	578.827	0.064	-0.156
-696.470	66.663	0.223	-0.227
-695.456	-200.000	-0.027	0.248
-694.441	452.284	-0.238	-0.526
-693.426	642.233	0.091	-0.232
-692.412	165.079	-0.266	0.375
-691.397	-48.818	0.143	0.069
-690.383	-200.000	-0.033	0.379
-689.368	-150.260	-0.216	-0.017
-688.354	89.860	0.173	0.194
-687.339	17.806	0.293	0.233
-686.324	800.000	0.072	-0.270
-685.310	-87.004	-0.352	-0.107
-684.295	-200.000	-0.001	0.284
-683.281	-200.000	-0.093	-0.534
-682.266	-100.845	0.044	0.011
-681.251	800.000	-0.066	-0.201
-680.237	800.000	0.091	0.254
-679.222	-63.057	-0.296	0.122
-678.208	-105.498	0.085	0.019
-677.193	-183.391	-0.075	0.001
-676.178	-85.487	0.196	-0.061
-675.164	-178.210	0.245	0.006
-674.149	-29.585	0.246	0.140
-673.135	-57.797	-0.242	0.106
-672.120	-200.000	-0.007	0.316
-671.105	-6.289	-0.202	-0.138
-670.091	-174.247	-0.366	-0.011
-669.076	-56.956	-0.108	0.048
-668.062	800.000	0.065	0.182
-667.047	-43.802	-0.096	-0.048
-666.032	117.076	0.238	0.293
-665.018	-200.000	0.074	-0.428
-664.003	-14.719	-0.125	0.080
-662.989	800.000	-0.102	0.295
-661.974	-200.000	-0.014	0.295
-660.959	-167.529	-0.131	-0.005
-659.945	-32.847	-0.153	0.085
-658.930	-200.000	0.014	0.181
-657.916	-200.000	-0.003	-0.132
-656.901	-122.168	-0.145	-0.024
-655.886	219.957	0.104	0.166
-654.872	-181.136	-0.460	0.009
-653.857	-200.000	-0.035	-0.205
-652.843	13.804	0.298	-0.231
-651.828	-4.503	0.177	-0.122
-650.814	66.241	-0.072	-0.073
-649.799	-71.950	-0.122	0.045
-648.784	-178.022	-0.077	-0.002
-647.770	178.705	-0.044	0.064
-646.755	-200.000	0.078	-0.455
-645.741	-42.708	-0.102	-0.052
-644.726	-6.633	0.048	-0.033
-643.711	229.701	-0.054	-0.088
-642.697	-200.000	-0.051	-0.440
-641.682	-136.561	0.035	0.004
-640.668	195.094	-0.109	0.165
-639.653	800.000	-0.073	0.246
-638.638	-30.107	0.334	-0.190
-637.624	57.658	0.057	0.056
-636.609	-200.000	-0.052	-0.320
-635.595	-77.702	-0.453	-0.157
-634.580	67.539	-0.208	-0.212
-633.565	50.204	0.096	-0.091
-632.551	141.024	0.167	0.221
-631.536	3.006	-0.039	-0.028
-630.522	-73.167	0.023	-0.008
-629.507	166.477	0.180	0.255
-628.492	-8.729	0.123	-0.082
-627.478	-33.128	0.199	-0.110
-626.463	54.117	-0.200	-0.191
-625.449	698.749	-0.031	0.083
-624.434	-170.607	0.160	-0.006
-623.419	-127.007	-0.486	-0.071
-622.405	-200.000	0.000	-0.053
-621.390	58.521	-0.153	-0.150
-620.376	-1.216	-0.179	-0.126
-619.361	389.024	-0.129	-0.267
-618.346	-148.186	-0.141	-0.012
-617.332	-78.912	-0.287	0.097
-616.317	-23.599	0.082	0.049
-615.303	-3.788	0.247	-0.171
-614.288	13.584	0.186	0.144
-613.273	-197.396	0.131	0.001
-612.259	-139.379	-0.223	0.024
-611.244	-126.416	0.160	-0.024
-610.230	-90.613	-0.226	-0.065
-609.215	656.458	-0.144	-0.368
-608.201	40.404	0.142	0.127
-607.186	117.640	0.118	0.145
-606.171	-200.000	0.003	-0.227
-605.157	479.886	-0.060	-0.135
-604.142	-74.799	-0.226	-0.081
-603.128	-137.147	-0.151	0.017
-602.113	-200.000	0.018	0.140
-601.098	-37.211	0.144	-0.077
-600.084	94.315	0.098	0.111
-599.069	108.209	-0.045	0.054
-598.055	14.544	-0.117	0.091
-597.040	-41.736	-0.070	0.036
-596.025	-23.566	-0.266	0.159
-595.011	374.124	-0.069	0.141
-593.996	-200.000	-0.049	-0.323
-592.982	800.000	-0.030	0.102
-591.967	-200.000	-0.009	-0.077
-590.952	1.348	0.197	0.141
-589.938	233.322	-0.118	-0.193
-588.923	101.950	-0.068	-0.079
-587.909	56.423	-0.196	0.190
-586.894	166.676	0.087	0.123
-585.879	-101.553	-0.304	-0.074
-584.865	-155.116	0.263	-0.017
-583.850	445.313	-0.161	-0.352
-582.836	79.800	0.142	0.152
-581.821	-200.000	-0.212	-0.000
-580.806	-44.261	-0.213	-0.106
-579.792	661.939	-0.029	-0.075
-578.777	-136.626	-0.445	-0.051
-577.763	-64.371	0.468	0.190
-576.748	-4.279	-0.210	-0.145
-575.733	53.325	0.084	0.080
-574.719	-200.000	0.015	-0.122
-573.704	73.007	0.097	0.100
-572.690	-143.366	0.152	0.014
-571.675	404.206	0.093	0.195
-570.661	98.788	0.065	-0.075
-569.646	-50.739	-0.212	0.099
-568.631	-119.660	0.240	-0.041
-567.617	519.084	0.026	-0.061
-566.602	-115.736	-0.297	-0.055
-565.588	190.105	-0.189	-0.282
-564.573	-127.783	-0.157	-0.022
-563.558	800.000	0.021	0.083
-562.544	-45.492	-0.194	0.096
-561.529	800.000	-0.051	0.172
-560.515	-27.728	0.109	0.063
-559.500	-4.339	-0.287	0.197
-558.485	-200.000	0.025	-0.342
-557.471	185.331	-0.084	0.124
-556.456	-200.000	0.007	-0.199
-555.442	-197.767	0.375	-0.002
-554.427	338.234	0.049	0.095
-553.412	-43.013	0.176	-0.089
-552.398	800.000	0.036	-0.101
-551.383	800.000	-0.078	-0.230
-550.369	-200.000	-0.047	0.286
-549.354	-200.000	-0.010	0.068
-548.339	-200.000	0.012	0.238
-547.325	-71.039	-0.198	-0.074
-546.310	-200.000	-0.008	0.129
-545.296	-157.834	0.176	0.010
-544.281	-45.701	-0.199	-0.098
-543.266	72.740	-0.123	0.127
-542.252	33.470	0.111	0.096
-541.237	-157.628	0.332	0.020
-540.223	-200.000	0.024	-0.185
-539.208	144.141	0.083	-0.110
-538.193	182.618	0.223	-0.327
-537.179	95.663	0.075	-0.085
-536.164	377.635	-0.242	-0.491
-535.150	108.115	-0.079	0.093
-534.135	-200.000	-0.008	-0.062
-533.121	-90.566	0.198	0.057
-532.106	-200.000	0.019	0.126
-531.091	691.559	-0.045	0.118
-530.077	-94.271	-0.129	-0.035
-529.062	-35.362	0.248	0.134
-528.048	-79.772	-0.365	-0.122
-527.033	-91.845	0.062	0.017
-526.018	319.606	0.161	0.303
-525.004	-39.228	0.091	0.048
-523.989	-200.000	-0.009	0.067
-522.975	-200.000	-0.055	0.292
-521.960	-98.620	-0.302	0.077
-520.945	-200.000	-0.044	-0.301
-519.931	-107.880	-0.265	0.057
-518.916	129.579	0.074	-0.094
-517.902	-139.009	0.278	-0.030
-516.887	-124.602	0.202	0.031
-515.872	-18.828	-0.258	-0.159
-514.858	-200.000	-0.038	-0.302
-513.843	265.677	0.020	0.034
-512.829	-118.148	0.363	-0.064
-511.814	93.248	0.208	-0.233
-510.799	692.735	-0.104	0.269
-509.785	-16.237	-0.305	0.192
-508.770	800.000	-0.119	-0.426
-507.756	156.341	-0.065	0.090
-506.741	-84.992	-0.234	0.073
-505.726	-103.530	-0.105	-0.025
-504.712	82.696	-0.076	0.082
-503.697	800.000	0.038	-0.129
-502.683	-115.714	-0.151	0.028
-501.668	-200.000	-0.064	0.372
-500.653	648.341	0.093	-0.237
-499.639	317.114	0.047	0.089
-498.624	423.231	0.079	0.168
-497.610	125.708	-0.205	-0.256
-496.595	-200.000	0.001	-0.049
-495.581	-96.075	-0.131	-0.035
-494.566	-200.000	-0.001	0.040
-493.551	144.528	0.166	-0.220
-492.537	-63.994	0.384	-0.156
-491.522	-200.000	-0.026	-0.170
-490.508	-200.000	0.004	-0.417
-489.493	-12.635	-0.251	0.163
-488.478	-200.000	-0.007	-0.038
-487.464	30.167	0.071	-0.060
-486.449	-157.619	0.200	0.012
-485.435	-200.000	0.009	-0.103
-484.420	196.287	-0.219	0.331
-483.405	-94.899	-0.195	0.052
-482.391	125.670	-0.110	0.138
-481.376	-9.686	0.184	0.122
-480.362	-7.344	-0.235	0.158
-479.347	-160.407	-0.338	0.018
-478.332	217.945	0.059	0.094
-477.318	597.433	-0.121	0.297
-476.303	-96.842	-0.147	0.038
-475.289	800.000	0.027	0.098
-474.274	333.407	-0.161	-0.309
-473.259	-170.344	0.313	-0.011
-472.245	131.708	0.243	-0.310
-471.230	228.608	-0.039	-0.064
-470.216	-200.000	0.052	0.228
-469.201	334.568	-0.018	0.035
-468.186	-38.548	-0.182	-0.096
-467.172	-125.676	0.219	-0.033
-466.157	449.016	0.079	-0.174
-465.143	-200.000	0.034	0.331
-464.128	49.365	0.183	-0.171
-463.113	91.477	0.089	-0.100
-462.099	-21.726	0.044	0.026
-461.084	-200.000	-0.006	0.354
-460.070	-56.899	-0.138	0.061
-459.055	-89.730	-0.394	-0.114
-458.040	800.000	-0.038	0.138
-457.026	2.157	-0.176	0.126
-456.011	-33.164	0.336	-0.185
-454.997	-110.868	-0.398	-0.081
-453.982	800.000	0.073	-0.240
-452.968	6.592	0.116	-0.086
-451.953	-83.547	-0.285	0.090
-450.938	2.759	0.354	0.255
-449.924	728.787	0.089	-0.234
-448.909	23.708	0.050	-0.041
-447.895	800.000	0.053	-0.194
-446.880	800.000	0.106	-0.367
-445.865	-102.009	0.076	0.018
-444.851	-77.046	-0.151	0.052
-443.836	-109.554	-0.290	0.061
-442.822	-28.523	-0.042	-0.024
-441.807	-90.838	-0.140	-0.040
-440.792	64.447	-0.118	0.118
-439.778	269.821	0.252	-0.438
-438.763	187.819	-0.100	0.147
-437.749	-188.094	0.353	-0.004
-436.734	-3.489	-0.304	-0.209
-435.719	-8.502	0.185	0.123
-434.705	-59.636	0.434	-0.184
-433.690	245.957	0.168	0.281
-432.676	316.817	-0.068	-0.126
-431.661	236.973	0.138	0.227
-430.646	-55.626	0.117	-0.052
-429.632	-200.000	0.021	-0.372
-428.617	-200.000	-0.021	-0.330
-427.603	169.138	0.025	-0.035
-426.588	-162.115	0.190	0.009
-425.573	37.417	-0.028	0.024
-424.559	-200.000	0.036	0.185
-423.544	-83.780	0.078	-0.025
-422.530	26.114	-0.060	0.050
-421.515	319.931	0.066	-0.123
-420.500	139.145	-0.239	-0.311
-419.486	158.431	0.151	0.208
-418.471	-47.328	-0.220	-0.106
-417.457	-78.526	0.215	-0.073
-416.442	79.963	-0.017	0.018
-415.428	-105.974	-0.174	-0.039
-414.413	-41.956	-0.334	-0.169
-413.398	800.000	-0.163	0.464
-412.384	800.000	-0.073	-0.256
-411.369	389.041	-0.154	0.316
-410.355	-39.290	0.285	0.148
-409.340	-173.590	-0.124	0.004
-408.325	-200.000	-0.049	0.412
-407.311	-114.669	-0.181	-0.034
-406.296	160.982	-0.074	0.103
-405.282	-97.089	0.125	-0.032
-404.267	170.805	0.270	-0.383
-403.252	800.000	0.080	0.238
-402.238	-154.613	0.319	0.021
-401.223	614.808	-0.060	0.148
-400.209	-138.360	0.254	-0.028
-399.194	49.645	0.062	0.058
-398.179	-68.222	0.295	0.114
-397.165	34.890	-0.086	0.074
-396.150	6.051	0.284	-0.208
-395.136	116.785	-0.144	-0.175
-394.121	-73.977	0.335	0.120
-393.106	-103.692	0.129	-0.030
-392.092	800.000	0.106	0.435
-391.077	191.164	0.037	-0.055
-390.063	-47.440	0.283	0.136
-389.048	-72.260	0.104	-0.038
-388.033	-9.318	0.088	-0.058
-387.019	113.204	-0.152	0.182
-386.004	-200.000	0.007	0.250
-384.990	53.085	0.087	0.083
-383.975	800.000	-0.117	-0.437
-382.960	-27.475	0.139	0.080
-381.946	-104.725	0.364	0.083
-380.931	-200.000	0.030	-0.191
-379.917	214.424	0.073	0.114
-378.902	-0.232	0.271	-0.191
-377.888	-27.805	-0.259	0.148
-376.873	-10.458	0.090	0.059
-375.858	17.425	0.365	0.286
-374.844	-56.112	-0.257	0.113
-373.829	-32.696	0.072	0.040
-372.815	449.771	-0.081	-0.176
-371.800	90.483	-0.027	-0.030
-370.785	-31.444	-0.285	-0.158
-369.771	800.000	-0.062	-0.202
-368.756	390.802	-0.121	-0.247
-367.742	128.346	0.114	0.143
-366.727	92.519	-0.056	-0.062
-365.712	-200.000	0.015	0.145
-364.698	800.000	-0.010	0.028
-363.683	421.831	-0.098	-0.207
-362.669	800.000	0.026	-0.077
-361.654	-20.431	-0.225	0.137
-360.639	-2.802	-0.270	0.186
-359.625	-71.578	-0.201	-0.074
-358.610	288.316	0.228	0.407
-357.596	-200.000	0.069	0.330
-356.581	-91.337	-0.203	0.057
-355.566	188.126	-0.070	-0.103
-354.552	800.000	0.013	0.045
-353.537	7.938	-0.441	0.326
-352.523	-11.923	0.133	-0.086
-351.508	-27.641	0.201	-0.115
-350.493	-145.436	-0.348	-0.031
-349.479	215.810	0.157	0.246
-348.464	111.787	-0.176	0.209
-347.450	-200.000	0.012	0.254
-346.435	-86.845	0.149	0.045
-345.420	-200.000	0.028	0.133
-344.406	-139.584	-0.220	0.023
-343.391	-111.181	0.100	-0.020
-342.377	324.456	-0.098	-0.186
-341.362	-200.000	0.045	0.202
-340.348	145.857	0.180	0.237
-339.333	69.165	0.120	0.122
-338.318	246.346	0.255	-0.425
-337.304	-53.512	-0.076	0.035
-336.289	-54.865	-0.080	0.035
-335.275	-120.276	-0.154	0.026
-334.260	-50.067	0.220	-0.103
-333.245	18.406	-0.089	-0.070
-332.231	800.000	-0.081	-0.259
-331.216	122.308	0.156	-0.193
-330.202	113.262	0.083	-0.099
-329.187	-33.800	0.183	0.099
-328.172	-110.117	-0.224	-0.046
-327.158	113.558	-0.154	-0.185
-326.143	-21.202	0.262	-0.158
-325.129	-171.064	-0.663	-0.022
-324.114	-200.000	-0.025	-0.167
-323.099	537.622	0.024	0.057
-322.085	27.614	-0.169	-0.140
-321.070	-38.561	-0.159	0.083
-320.056	800.000	0.059	0.200
-319.041	58.701	0.264	0.255
-318.026	-200.000	0.014	-0.238
-317.012	112.032	0.247	-0.294
-315.997	-200.000	-0.002	-0.227
-314.983	-200.000	0.023	-0.125
-313.968	-95.710	0.290	0.076
-312.953	-200.000	-0.042	-0.439
-311.939	-127.582	-0.133	0.019
-310.924	-92.703	0.195	0.054
-309.910	-165.842	0.144	-0.006
-308.895	-200.000	-0.044	0.267
-307.880	20.034	-0.130	-0.103
-306.866	-161.396	-0.351	0.018
-305.851	283.794	-0.209	0.371
-304.837	59.097	0.148	0.143
-303.822	800.000	-0.005	-0.015
-302.807	-169.625	-0.068	-0.002
-301.793	-144.535	-0.225	-0.021
-300.778	258.854	-0.197	0.335
-299.764	-72.182	0.487	-0.178
-298.749	800.000	-0.057	0.233
-297.735	120.327	0.089	0.109
-296.720	800.000	-0.115	0.360
-295.705	-154.611	0.093	-0.006
-294.691	-200.000	-0.003	0.051
-293.676	800.000	0.008	-0.026
-292.662	-102.211	0.349	-0.083
-291.647	-200.000	-0.022	0.130
-290.632	-57.330	0.225	-0.098
-289.618	-60.052	-0.056	-0.023
-288.603	-90.435	0.332	-0.095
-287.589	74.447	0.067	-0.069
-286.574	-154.001	-0.187	0.013
-285.559	100.525	0.276	0.316
-284.545	-200.000	0.000	-0.291
-283.530	550.698	-0.062	-0.147
-282.516	-92.047	-0.325	-0.091
-281.501	354.009	0.189	0.369
-280.486	236.034	-0.162	-0.263
-279.472	-14.922	-0.166	-0.105
-278.457	320.716	-0.069	-0.130
-277.443	34.802	-0.432	-0.372
-276.428	484.661	0.015	-0.033
-275.413	152.717	-0.224	0.302
-274.399	-101.532	0.173	-0.041
-273.384	-118.446	0.080	0.014
-272.370	57.827	0.125	-0.120
-271.355	-69.668	-0.332	0.125
-270.340	-76.967	0.263	0.090
-269.326	-33.758	0.327	-0.177
-268.311	51.240	-0.198	0.185
-267.297	-62.959	0.239	0.097
-266.282	-106.073	-0.221	0.049
-265.267	248.465	-0.075	0.125
-264.253	-200.000	0.078	0.437
-263.238	352.511	-0.092	0.180
-262.224	-200.000	0.015	0.393
-261.209	-23.276	0.132	0.078
-260.195	-17.546	-0.092	-0.057
-259.180	120.638	-0.155	-0.189
-258.165	-200.000	-0.052	-0.435
-257.151	-44.353	-0.168	0.083
-256.136	-60.258	-0.070	-0.029
-255.122	163.278	-0.063	0.088
-254.107	12.871	-0.228	0.173
-253.092	-157.894	-0.250	0.015
-252.078	-166.725	0.498	-0.020
-251.063	-76.207	-0.284	0.098
-250.049	-11.367	-0.324	0.209
-249.034	-17.794	0.249	0.153
-248.019	-200.000	-0.014	-0.257
-247.005	69.244	-0.112	0.113
-245.990	514.318	-0.133	0.305
-244.976	800.000	0.071	-0.212
-243.961	227.815	-0.160	-0.256
-242.946	-164.223	0.076	-0.003
-241.932	171.417	-0.173	-0.245
-240.917	250.790	-0.157	0.262
-239.903	118.185	0.121	0.147
-238.888	-197.834	-0.231	-0.001
-237.873	-200.000	0.018	-0.257
-236.859	800.000	0.048	0.195
-235.844	-80.766	0.354	-0.116
-234.830	-122.339	-0.319	0.051
-233.815	-89.541	-0.413	0.119
-232.800	20.863	0.294	-0.234
-231.786	86.932	0.141	0.153
-230.771	-30.607	-0.097	-0.054
-229.757	800.000	-0.033	-0.134
-228.742	37.880	-0.102	-0.089
-227.727	69.080	-0.316	-0.319
-226.713	-200.000	-0.021	-0.101
-225.698	-127.388	0.086	-0.012
-224.684	800.000	0.022	0.064
-223.669	238.118	0.213	0.348
-222.655	-200.000	0.055	-0.341
-221.640	-92.855	0.172	-0.047
-220.625	-9.295	-0.312	0.205
-219.611	84.762	-0.243	-0.261
-218.596	63.604	-0.085	-0.084
-217.582	-39.318	0.117	-0.060
-216.567	-119.456	-0.100	0.017
-215.552	-200.000	0.044	-0.263
-214.538	-41.229	-0.118	-0.060
-213.523	-49.591	0.034	-0.016
-212.509	800.000	0.056	-0.183
-211.494	-200.000	-0.011	-0.082
-210.479	506.505	0.104	0.236
-209.465	105.380	-0.236	0.274
-208.450	-200.000	-0.008	0.108
-207.436	207.786	0.056	-0.085
-206.421	-200.000	0.003	0.287
-205.406	171.882	0.141	-0.198
-204.392	578.116	-0.020	0.048
-203.377	-39.894	0.146	0.075
-202.363	116.361	-0.094	-0.113
-201.348	5.194	0.039	0.028
-200.333	-200.000	0.010	-0.072
-199.319	-123.538	0.394	0.061
-198.304	-78.418	-0.251	0.084
-197.290	-93.076	0.302	-0.082
-196.275	-83.600	-0.122	-0.038
-195.260	167.552	-0.057	0.079
-194.246	56.235	-0.095	-0.091
-193.231	102.768	-0.152	0.174
-192.217	-200.000	-0.033	0.165
-191.202	60.285	0.357	-0.346
-190.187	-120.564	0.324	0.054
-189.173	239.147	0.114	-0.187
-188.158	267.409	0.088	0.151
-187.144	-111.587	-0.058	0.012
-186.129	-200.000	0.090	0.464
-185.114	-200.000	0.029	0.148
-184.100	63.094	-0.039	0.038
-183.085	37.795	-0.032	0.028
-182.071	800.000	0.129	0.389
-181.056	-76.710	0.173	0.059
-180.042	148.105	0.213	0.282
-179.027	198.655	-0.085	0.128
-178.012	-74.277	0.102	-0.036
-176.998	-200.000	0.018	0.105
-175.983	-129.351	0.291	-0.040
-174.969	47.873	0.110	-0.100
-173.954	-149.498	0.232	-0.018
-172.939	187.505	0.120	-0.175
-171.925	237.623	-0.085	0.139
-170.910	-124.732	-0.083	-0.013
-169.896	-25.064	0.213	-0.124
-168.881	139.902	-0.103	-0.133
-167.866	-125.258	-0.271	-0.041
-166.852	62.958	-0.114	0.112
-165.837	27.089	0.239	0.197
-164.823	-1.371	0.401	0.277
-163.808	-161.413	0.191	-0.010
-162.793	-200.000	0.028	-0.123
-161.779	-139.214	0.235	-0.025
-160.764	403.590	0.187	-0.385
-159.750	42.093	0.306	0.272
-158.735	-76.751	0.400	0.137
-157.720	275.200	0.057	-0.099
-156.706	-200.000	0.009	-0.107
-155.691	-200.000	-0.004	0.035
-154.677	13.195	0.352	0.267
-153.662	275.858	-0.022	0.039
-152.647	-200.000	0.025	0.125
-151.633	86.267	-0.266	0.287
-150.618	-200.000	0.014	-0.074
-149.604	-119.367	0.342	-0.058
-148.589	-189.588	-0.125	-0.001
-147.574	678.684	0.026	-0.067
-146.560	-96.057	-0.150	0.039
-145.545	14.813	0.147	-0.113
-144.531	-200.000	-0.011	-0.206
-143.516	-100.295	0.254	-0.062
-142.502	-200.000	-0.006	-0.236
-141.487	84.463	0.223	-0.239
-140.472	26.436	-0.096	-0.079
-139.458	29.876	0.217	0.181
-138.443	-77.715	-0.240	0.081
-137.429	-200.000	-0.020	0.100
-136.414	318.471	-0.141	0.261
-135.399	-200.000	-0.019	0.282
-134.385	79.924	0.217	-0.228
-133.370	168.891	0.121	-0.170
-132.356	-67.609	0.309	0.119
-131.341	-57.778	0.163	0.070
-130.326	-173.712	0.130	-0.004
-129.312	82.120	-0.337	-0.358
-128.297	-58.223	-0.142	0.060
-127.283	326.016	-0.070	0.131
-126.268	-200.000	-0.012	-0.183
-125.253	-139.377	0.071	-0.007
-124.239	40.133	-0.203	0.178
-123.224	325.338	-0.164	0.307
-122.210	800.000	0.076	-0.308
-121.195	101.182	0.279	-0.318
