DTS Sentinel unit serial number:	SN413079Multiplexer serial number:	ORYXHardware model number:	OX4-SRSoftware version number:	ORYX F/W v4.00 Oryx Data Collector v3.7.2.0data status	okinstallation	princeton_trtdifferential loss correction	single-endedforward channel	channel 1reverse channel	N/Adate	2019/09/13time	15:34:35forward acquisition time	60.00reverse acquisition time	0.00gamma	496.2192k internal	0.2306k external	0.2306temperature offset calibration	1.0162default loss term (dB/km)	0.3790temperature slope calibration	1.0000multiplexer offset coefficient	1.0000multiplexer slope coefficient	1.0000fibre end	0.00T internal ref (°C)	35.02T ext. ref 1 (°C)	4.75T ext. ref 2 (°C)	29.55length (m)	temperature (°C)	Stokes	anti-Stokes-747.200	-30.598	0.419	0.241
-746.185	68.771	0.187	0.195
-745.171	-65.261	-0.215	0.088
-744.156	-135.672	0.370	-0.045
-743.142	134.343	-0.219	0.288
-742.127	-15.724	-0.362	-0.235
-741.112	-94.269	0.369	-0.103
-740.098	-68.521	0.400	0.158
-739.083	54.749	0.085	0.083
-738.069	317.023	0.039	0.076
-737.054	-86.353	-0.027	-0.008
-736.039	-110.988	0.092	0.019
-735.025	800.000	0.024	0.085
-734.010	499.008	-0.038	-0.089
-732.996	-13.922	0.214	-0.140
-731.981	99.750	-0.136	-0.160
-730.966	80.365	-0.069	-0.075
-729.952	101.797	0.071	-0.084
-728.937	-32.955	0.402	-0.227
-727.923	-137.388	-0.389	0.045
-726.908	-61.750	-0.100	-0.043
-725.894	800.000	0.026	-0.117
-724.879	-139.437	-0.152	0.017
-723.864	-61.845	-0.265	0.113
-722.850	304.100	-0.021	0.039
-721.835	-200.000	-0.005	0.385
-720.821	-200.000	0.022	-0.117
-719.806	800.000	-0.018	0.077
-718.791	-132.577	-0.235	-0.031
-717.777	-9.506	-0.093	-0.063
-716.762	-41.133	-0.198	0.104
-715.748	800.000	-0.053	-0.236
-714.733	129.995	-0.202	0.262
-713.718	-200.000	-0.007	0.211
-712.704	-200.000	-0.063	-0.289
-711.689	-170.553	-0.440	-0.016
-710.675	-101.322	-0.085	0.021
-709.660	175.485	-0.267	0.393
-708.645	228.391	-0.175	-0.290
-707.631	198.871	0.060	0.094
-706.616	11.840	0.136	0.106
-705.602	-100.591	0.301	0.076
-704.587	-6.080	0.246	0.171
-703.572	-49.696	0.061	0.030
-702.558	-200.000	0.021	0.295
-701.543	34.469	0.195	-0.173
-700.529	36.818	-0.139	-0.125
-699.514	519.706	-0.224	-0.532
-698.499	-95.613	0.247	-0.067
-697.485	-159.390	0.189	0.011
-696.470	57.949	-0.103	0.103
-695.456	-200.000	0.001	0.191
-694.441	193.084	0.174	-0.268
-693.426	-33.912	0.235	0.131
-692.412	-200.000	-0.014	0.119
-691.397	140.423	0.052	0.069
-690.383	-95.458	-0.314	0.086
-689.368	555.179	-0.115	-0.281
-688.354	800.000	0.050	-0.218
-687.339	-62.310	-0.342	-0.145
-686.324	-96.320	-0.206	0.055
-685.310	-200.000	0.028	-0.149
-684.295	-89.337	-0.284	-0.085
-683.281	800.000	0.051	-0.144
-682.266	-15.135	-0.052	-0.034
-681.251	-139.913	0.085	0.009
-680.237	443.081	0.168	-0.375
-679.222	244.977	-0.105	0.179
-678.208	56.584	-0.174	-0.172
-677.193	800.000	0.060	0.174
-676.178	800.000	0.055	-0.201
-675.164	800.000	0.063	-0.263
-674.149	800.000	0.112	0.322
-673.135	-15.776	0.028	-0.018
-672.120	343.120	-0.044	0.087
-671.105	550.238	0.023	-0.055
-670.091	-64.782	-0.330	-0.136
-669.076	405.998	-0.055	-0.117
-668.062	-200.000	0.006	-0.239
-667.047	229.443	0.217	-0.359
-666.032	-166.363	0.176	-0.007
-665.018	5.229	0.315	-0.236
-664.003	583.888	-0.080	0.198
-662.989	-200.000	-0.054	0.356
-661.974	-116.770	-0.247	0.046
-660.959	-200.000	-0.025	-0.168
-659.945	64.469	0.152	-0.156
-658.930	-70.248	0.237	0.091
-657.916	-127.232	0.142	-0.021
-656.901	-33.853	-0.142	0.079
-655.886	-200.000	-0.005	-0.078
-654.872	-42.040	-0.272	-0.141
-653.857	-200.000	0.014	0.343
-652.843	-98.181	0.476	-0.124
-651.828	-140.673	0.015	-0.002
-650.814	137.297	0.072	-0.096
-649.799	193.973	0.147	-0.225
-648.784	305.150	0.056	-0.105
-647.770	-34.304	0.168	-0.093
-646.755	128.842	-0.174	0.224
-645.741	263.717	-0.151	-0.267
-644.726	-108.693	-0.326	0.071
-643.711	-200.000	0.003	-0.022
-642.697	-200.000	0.003	0.049
-641.682	-136.104	0.187	0.022
-640.668	41.720	-0.182	0.167
-639.653	800.000	0.046	0.189
-638.638	40.944	0.160	0.146
-637.624	165.677	0.075	0.107
-636.609	-82.208	0.181	-0.060
-635.595	-72.237	-0.149	0.056
-634.580	134.657	0.077	-0.101
-633.565	-23.687	-0.297	-0.180
-632.551	638.287	0.079	0.203
-631.536	55.887	0.173	0.170
-630.522	541.297	-0.084	-0.204
-629.507	157.930	0.022	-0.031
-628.492	-200.000	0.012	-0.277
-627.478	800.000	-0.060	0.181
-626.463	-123.865	-0.059	0.009
-625.449	-76.862	-0.133	-0.047
-624.434	-120.475	-0.180	0.031
-623.419	-200.000	0.058	0.318
-622.405	8.557	0.209	-0.159
-621.390	218.806	0.153	0.247
-620.376	215.843	0.116	0.187
-619.361	-200.000	0.069	-0.346
-618.346	-62.303	-0.238	0.100
-617.332	-90.681	0.372	0.109
-616.317	169.755	0.105	-0.152
-615.303	-51.479	-0.187	-0.089
-614.288	-144.758	-0.172	-0.016
-613.273	268.701	-0.170	0.302
-612.259	-88.030	-0.032	-0.010
-611.244	127.415	-0.270	-0.347
-610.230	-5.874	-0.230	-0.159
-609.215	-21.742	0.233	0.144
-608.201	-34.558	0.119	0.066
-607.186	96.834	0.287	-0.333
-606.171	-158.206	-0.060	-0.004
-605.157	35.029	0.365	-0.324
-604.142	-173.731	0.262	0.008
-603.128	351.184	-0.078	0.157
-602.113	-99.070	-0.167	0.043
-601.098	-1.692	0.137	0.098
-600.084	-119.457	0.101	-0.018
-599.069	309.059	-0.047	-0.089
-598.055	-172.277	0.233	-0.008
-597.040	18.039	0.069	-0.055
-596.025	183.265	0.182	-0.272
-595.011	-32.936	-0.172	-0.096
-593.996	1.581	0.096	-0.070
-592.982	-36.691	0.232	-0.126
-591.967	237.086	-0.033	0.055
-590.952	-49.898	-0.290	-0.139
-589.938	631.431	0.081	-0.208
-588.923	-14.853	0.067	0.043
-587.909	39.736	-0.076	0.069
-586.894	0.067	-0.152	-0.109
-585.879	-200.000	0.037	-0.528
-584.865	306.501	0.063	-0.118
-583.850	-75.194	0.290	-0.105
-582.836	-200.000	-0.043	0.266
-581.821	-129.253	0.288	-0.041
-580.806	24.953	0.119	0.100
-579.792	577.582	0.076	-0.189
-578.777	559.300	0.171	0.416
-577.763	800.000	0.099	0.294
-576.748	19.163	0.255	-0.207
-575.733	-196.301	-0.081	-0.001
-574.719	-134.756	0.091	-0.011
-573.704	-101.753	0.194	-0.047
-572.690	800.000	0.149	0.420
-571.675	-32.810	0.241	0.135
-570.661	-192.463	-0.055	-0.001
-569.646	452.723	0.088	-0.196
-568.631	47.657	-0.127	0.120
-567.617	417.922	-0.151	0.325
-566.602	254.234	-0.090	0.156
-565.588	-77.724	0.093	0.033
-564.573	7.482	0.137	-0.103
-563.558	-86.025	-0.231	0.072
-562.544	800.000	-0.048	0.175
-561.529	-200.000	0.053	0.465
-560.515	-200.000	-0.007	-0.364
-559.500	65.096	0.231	0.235
-558.485	354.153	0.096	-0.193
-557.471	235.780	0.032	0.054
-556.456	-200.000	0.214	-0.001
-555.442	136.935	0.078	-0.103
-554.427	-39.539	0.099	0.053
-553.412	25.036	0.136	0.114
-552.398	45.993	0.291	-0.272
-551.383	-127.140	-0.343	0.051
-550.369	75.206	0.258	0.275
-549.354	122.672	0.323	-0.408
-548.339	355.637	-0.067	0.135
-547.325	182.741	-0.106	0.158
-546.310	-200.000	-0.024	0.292
-545.296	-200.000	-0.013	-0.165
-544.281	-140.011	-0.303	0.032
-543.266	-94.932	0.313	0.085
-542.252	800.000	-0.017	0.051
-541.237	-200.000	0.023	-0.217
-540.223	270.794	-0.177	-0.315
-539.208	180.160	0.051	0.075
-538.193	1.978	-0.242	0.176
-537.179	-98.833	-0.223	-0.057
-536.164	451.710	0.043	-0.095
-535.150	78.513	-0.052	-0.056
-534.135	-50.532	0.160	0.076
-533.121	221.257	0.070	0.113
-532.106	-121.449	-0.244	-0.041
-531.091	-200.000	-0.020	-0.383
-530.077	-22.522	0.233	-0.142
-529.062	281.010	-0.162	0.293
-528.048	-200.000	-0.008	-0.047
-527.033	34.223	-0.146	-0.129
-526.018	-35.928	0.131	0.072
-525.004	404.424	0.071	0.150
-523.989	-3.893	-0.317	-0.222
-522.975	-81.710	0.059	-0.020
-521.960	-200.000	-0.066	0.364
-520.945	534.052	-0.080	0.191
-519.931	800.000	0.054	-0.153
-518.916	-39.930	-0.291	-0.153
-517.902	800.000	0.068	-0.199
-516.887	-90.344	-0.289	0.085
-515.872	-87.272	-0.107	0.033
-514.858	-200.000	-0.056	-0.281
-513.843	239.441	-0.167	-0.279
-512.829	-118.586	-0.322	0.057
-511.814	-46.152	0.224	-0.111
-510.799	-42.473	-0.085	0.043
-509.785	-100.316	0.178	0.045
-508.770	-108.132	-0.185	-0.040
-507.756	-88.202	0.135	0.041
-506.741	-89.550	-0.127	-0.038
-505.726	97.958	0.084	0.097
-504.712	786.333	0.077	-0.213
-503.697	586.949	-0.108	-0.267
-502.683	166.017	0.054	-0.077
-501.668	149.057	0.249	-0.339
-500.653	55.914	-0.103	-0.100
-499.639	180.838	0.128	-0.189
-498.624	-200.000	0.065	-0.396
-497.610	19.675	-0.040	0.033
-496.595	330.166	0.068	0.131
-495.581	418.831	0.093	0.200
-494.566	-112.558	-0.155	0.031
-493.551	228.252	-0.142	0.233
-492.537	120.675	-0.138	0.173
-491.522	-96.138	0.220	0.059
-490.508	-200.000	-0.068	0.310
-489.493	66.598	0.227	0.233
-488.478	671.283	-0.124	0.323
-487.464	-200.000	0.006	0.093
-486.449	-79.883	-0.305	0.103
-485.435	800.000	-0.086	-0.344
-484.420	-134.362	-0.039	0.005
-483.405	22.927	-0.351	0.290
-482.391	-10.729	-0.104	-0.069
-481.376	-200.000	0.022	0.239
-480.362	639.358	0.055	0.141
-479.347	-71.975	-0.097	0.036
-478.332	-153.077	0.340	0.024
-477.318	-200.000	-0.006	0.067
-476.303	-200.000	0.018	-0.153
-475.289	-169.350	-0.347	0.013
-474.274	-34.234	-0.207	-0.115
-473.259	131.639	-0.092	-0.119
-472.245	-200.000	-0.045	-0.360
-471.230	-200.000	0.034	-0.208
-470.216	800.000	-0.062	0.238
-469.201	-139.523	-0.135	-0.014
-468.186	-62.731	0.214	-0.089
-467.172	-106.990	-0.240	-0.053
-466.157	-148.493	-0.097	-0.008
-465.143	-200.000	-0.019	-0.092
-464.128	108.716	0.162	0.195
-463.113	206.580	0.131	0.205
-462.099	-59.317	-0.179	-0.078
-461.084	-13.088	-0.199	0.130
-460.070	-176.189	-0.130	0.003
-459.055	-200.000	-0.060	0.451
-458.040	277.102	-0.118	-0.211
-457.026	103.371	-0.105	0.124
-456.011	-200.000	0.012	-0.146
-454.997	22.448	-0.336	0.276
-453.982	800.000	0.064	-0.198
-452.968	-156.164	-0.158	0.010
-451.953	-200.000	-0.003	0.458
-450.938	-95.172	-0.234	-0.063
-449.924	628.941	0.052	0.132
-448.909	125.856	-0.099	0.126
-447.895	800.000	0.099	0.285
-446.880	-142.225	0.290	-0.029
-445.865	-19.368	-0.100	-0.063
-444.851	-161.949	0.165	-0.008
-443.836	78.736	0.113	-0.122
-442.822	168.259	-0.215	-0.307
-441.807	-35.934	0.076	0.041
-440.792	-99.675	-0.425	0.107
-439.778	-67.927	0.152	-0.060
-438.763	85.179	-0.163	0.180
-437.749	311.636	-0.230	0.433
-436.734	31.324	-0.119	0.103
-435.719	-181.112	-0.356	0.007
-434.705	-140.066	0.242	0.026
-433.690	193.458	-0.088	-0.133
-432.676	-127.687	-0.165	-0.024
-431.661	-91.068	-0.125	-0.036
-430.646	-137.276	0.093	-0.011
-429.632	-84.638	-0.313	0.099
-428.617	800.000	0.041	0.149
-427.603	-151.859	0.148	0.011
-426.588	-65.860	-0.230	0.093
-425.573	24.515	0.121	0.100
-424.559	570.347	0.091	-0.222
-423.544	-116.167	-0.339	0.063
-422.530	493.170	0.080	0.185
-421.515	800.000	0.069	0.202
-420.500	-48.665	-0.097	0.047
-419.486	-26.974	0.120	-0.070
-418.471	353.782	-0.124	-0.248
-417.457	-118.719	0.081	0.014
-416.442	800.000	-0.010	-0.029
-415.428	-26.749	-0.258	0.152
-414.413	77.196	0.406	-0.433
-413.398	-200.000	-0.014	0.086
-412.384	3.173	0.256	-0.187
-411.369	2.536	-0.220	0.160
-410.355	-110.188	0.029	-0.006
-409.340	5.923	-0.091	-0.067
-408.325	800.000	0.032	0.138
-407.311	234.455	0.091	-0.151
-406.296	-140.727	-0.088	0.009
-405.282	-13.733	0.338	-0.219
-404.267	418.928	0.043	0.093
-403.252	7.747	0.282	-0.212
-402.238	7.054	0.138	0.103
-401.223	-66.803	0.239	0.095
-400.209	139.487	-0.118	-0.156
-399.194	151.867	0.079	-0.108
-398.179	-1.286	0.107	0.076
-397.165	-2.926	0.101	0.071
-396.150	4.922	0.231	0.171
-395.136	8.180	-0.265	0.200
-394.121	800.000	-0.021	0.069
-393.106	-15.550	0.290	-0.185
-392.092	249.084	-0.164	0.279
-391.077	-17.472	0.193	0.122
-390.063	79.441	0.176	0.189
-389.048	15.167	-0.145	-0.114
-388.033	-200.000	0.045	-0.214
-387.019	-109.312	0.102	-0.022
-386.004	-52.027	0.219	-0.102
-384.990	150.954	0.294	0.401
-383.975	-98.786	0.146	0.037
-382.960	-200.000	0.016	0.233
-381.946	252.772	0.208	0.355
-380.931	-86.811	-0.180	-0.055
-379.917	-72.905	0.301	-0.111
-378.902	-200.000	-0.011	-0.066
-377.888	-105.220	-0.273	-0.062
-376.873	-72.954	-0.147	0.054
-375.858	800.000	0.058	-0.186
-374.844	14.422	0.249	-0.195
-373.829	-38.808	-0.543	0.287
-372.815	-82.922	0.337	-0.109
-371.800	28.421	0.236	-0.200
-370.785	55.316	0.355	-0.344
-369.771	-60.228	-0.429	-0.183
-368.756	-200.000	0.035	-0.192
-367.742	-88.968	0.072	0.021
-366.727	800.000	-0.020	0.064
-365.712	0.625	-0.091	-0.065
-364.698	39.278	-0.312	-0.280
-363.683	-88.595	-0.363	-0.108
-362.669	-200.000	0.020	0.241
-361.654	-134.093	0.190	-0.024
-360.639	214.855	-0.150	-0.239
-359.625	-178.217	-0.192	-0.005
-358.610	-85.551	-0.231	-0.072
-357.596	-200.000	-0.011	-0.177
-356.581	-22.824	0.067	-0.041
-355.566	-82.422	-0.328	-0.107
-354.552	336.157	-0.099	-0.193
-353.537	87.924	-0.108	-0.120
-352.523	47.542	-0.039	0.037
-351.508	783.847	-0.082	0.224
-350.493	-200.000	0.006	0.417
-349.479	315.873	-0.186	-0.352
-348.464	-145.286	-0.166	0.015
-347.450	100.945	0.067	0.078
-346.435	260.661	0.041	-0.071
-345.420	-19.519	-0.270	0.167
-344.406	-19.869	-0.203	-0.126
-343.391	399.683	-0.114	-0.240
-342.377	-200.000	-0.006	0.186
-341.362	67.126	-0.070	0.072
-340.348	230.996	0.311	0.509
-339.333	405.113	0.056	0.118
-338.318	458.857	-0.131	-0.292
-337.304	-74.347	0.771	0.279
-336.289	205.647	0.297	-0.462
-335.275	531.790	0.114	-0.269
-334.260	261.735	0.065	0.113
-333.245	104.932	0.184	-0.218
-332.231	-107.835	-0.233	-0.051
-331.216	-3.673	-0.249	0.173
-330.202	455.871	0.090	0.199
-329.187	-200.000	0.023	0.261
-328.172	-30.253	0.119	0.068
-327.158	800.000	0.019	0.082
-326.143	800.000	0.064	-0.237
-325.129	-116.289	0.217	-0.040
-324.114	-46.513	0.072	-0.035
-323.099	41.091	0.273	-0.247
-322.085	-19.425	0.256	-0.159
-321.070	8.350	0.140	0.105
-320.056	516.139	-0.151	-0.352
-319.041	69.585	-0.087	-0.089
-318.026	800.000	0.030	0.090
-317.012	-141.545	0.353	0.036
-315.997	-142.605	-0.170	0.017
-314.983	-87.001	-0.165	0.050
-313.968	-200.000	-0.063	-0.336
-312.953	-78.056	-0.115	0.040
-311.939	-83.841	0.148	0.047
-310.924	-93.273	-0.271	0.075
-309.910	17.342	0.259	-0.206
-308.895	-114.888	-0.326	-0.062
-307.880	193.045	-0.078	-0.118
-306.866	69.541	-0.094	-0.097
-305.851	-200.000	0.011	-0.144
-304.837	-21.653	0.094	-0.057
-303.822	39.606	0.210	-0.188
-302.807	-65.214	0.229	-0.092
-301.793	294.263	-0.074	0.135
-300.778	-200.000	0.038	0.214
-299.764	-7.902	0.097	-0.066
-298.749	-200.000	0.006	0.082
-297.735	90.315	-0.189	-0.211
-296.720	92.484	0.198	-0.224
-295.705	-200.000	0.023	0.287
-294.691	470.002	-0.191	0.428
-293.676	280.213	0.222	0.396
-292.662	64.801	-0.188	-0.190
-291.647	96.422	0.074	-0.084
-290.632	-172.381	0.068	-0.002
-289.618	-39.799	-0.137	0.071
-288.603	-83.619	-0.230	-0.074
-287.589	12.850	0.053	-0.041
-286.574	-200.000	-0.021	0.155
-285.559	-45.634	-0.042	0.021
-284.545	114.614	-0.018	-0.021
-283.530	20.880	0.205	-0.166
-282.516	219.981	0.133	0.213
-281.501	-1.641	-0.027	0.019
-280.486	-139.746	-0.192	0.020
-279.472	-74.659	0.463	-0.166
-278.457	89.719	0.234	-0.261
-277.443	-106.815	0.191	-0.042
-276.428	1.472	-0.264	-0.190
-275.413	-190.558	-0.066	-0.001
-274.399	-147.943	0.274	-0.023
-273.384	-59.537	0.181	-0.078
-272.370	-105.671	0.193	-0.044
-271.355	-77.439	0.145	-0.050
-270.340	-200.000	0.018	-0.230
-269.326	-61.234	-0.141	-0.059
-268.311	-200.000	-0.044	-0.204
-267.297	-21.242	-0.389	0.237
-266.282	391.040	-0.070	-0.145
-265.267	7.093	0.147	0.110
-264.253	-82.575	0.076	0.025
-263.238	522.181	0.088	-0.205
-262.224	-128.710	-0.196	0.028
-261.209	-37.015	-0.205	-0.109
-260.195	10.646	-0.280	-0.213
-259.180	-63.475	0.353	-0.145
-258.165	245.136	0.058	-0.097
-257.151	-112.778	0.102	-0.020
-256.136	0.344	-0.096	0.068
-255.122	59.976	-0.098	0.097
-254.107	-56.076	-0.325	0.144
-253.092	800.000	-0.037	0.119
-252.078	-200.000	0.009	0.314
-251.063	143.598	-0.113	0.150
-250.049	-179.156	0.123	-0.003
-249.034	-200.000	0.011	-0.058
-248.019	-54.804	0.226	0.102
-247.005	800.000	-0.081	-0.271
-245.990	800.000	0.140	-0.441
-244.976	296.124	0.111	0.203
-243.961	-4.486	-0.267	-0.184
-242.946	-200.000	-0.052	-0.252
-241.932	-30.524	-0.198	-0.112
-240.917	67.503	0.149	-0.152
-239.903	77.854	0.180	-0.191
-238.888	22.145	0.235	0.191
-237.873	172.619	0.221	-0.317
-236.859	-143.757	-0.110	-0.010
-235.844	57.247	-0.062	0.060
-234.830	-77.210	0.029	-0.010
-233.815	-141.808	0.167	-0.017
-232.800	109.094	0.093	0.111
-231.786	-167.268	-0.072	0.003
-230.771	9.636	0.094	-0.071
-229.757	-36.613	-0.243	-0.130
-228.742	140.565	-0.113	0.149
-227.727	-142.935	0.121	-0.012
-226.713	-47.702	-0.288	0.139
-225.698	2.109	-0.112	-0.081
-224.684	-200.000	0.033	-0.274
-223.669	-56.771	0.133	-0.059
-222.655	-112.206	-0.213	-0.043
-221.640	-200.000	-0.040	0.334
-220.625	-159.873	-0.231	0.013
-219.611	-59.461	-0.150	0.064
-218.596	158.314	0.295	0.408
-217.582	-63.972	0.135	-0.055
-216.567	132.344	-0.104	0.134
-215.552	36.537	-0.072	0.063
-214.538	82.116	0.247	-0.267
-213.523	81.071	0.128	-0.138
-212.509	-136.182	-0.308	0.036
-211.494	30.208	0.231	-0.196
-210.479	-171.235	-0.134	0.004
-209.465	800.000	-0.049	0.174
-208.450	800.000	-0.064	-0.225
-207.436	-200.000	0.051	0.246
-206.421	-142.081	0.158	0.016
-205.406	505.435	-0.100	0.230
-204.392	-141.146	0.408	-0.042
-203.377	-200.000	-0.031	-0.166
-202.363	-77.584	-0.448	0.154
-201.348	-87.032	-0.056	0.017
-200.333	-163.276	-0.034	-0.002
-199.319	800.000	0.075	-0.320
-198.304	236.030	0.080	-0.131
-197.290	-92.744	0.268	0.075
-196.275	-65.342	-0.248	0.099
-195.260	-152.388	-0.279	-0.020
-194.246	-89.623	0.264	-0.077
-193.231	116.931	-0.141	0.172
-192.217	55.745	-0.233	0.225
-191.202	-122.453	0.354	0.057
-190.187	-123.326	0.167	0.027
-189.173	296.453	-0.106	-0.193
-188.158	442.082	-0.214	0.466
-187.144	-200.000	-0.027	-0.120
-186.129	-78.648	-0.169	0.057
-185.114	149.626	-0.065	0.087
-184.100	-38.777	0.098	0.052
-183.085	-92.608	0.043	0.012
-182.071	477.851	-0.116	0.261
-181.056	-27.615	0.373	0.216
-180.042	29.819	0.099	0.084
-179.027	43.235	-0.096	0.087
-178.012	242.744	-0.182	0.303
-176.998	-82.001	-0.234	-0.076
-175.983	-200.000	0.006	-0.142
-174.969	660.000	-0.082	-0.210
-173.954	497.169	-0.025	-0.057
-172.939	157.425	-0.068	0.094
-171.925	12.765	0.158	0.122
-170.910	249.975	0.065	0.110
-169.896	-177.382	-0.447	-0.011
-168.881	-78.768	0.134	0.045
-167.866	80.193	0.067	0.072
-166.852	800.000	0.038	0.127
-165.837	-200.000	-0.014	0.195
-164.823	-20.014	-0.165	0.101
-163.808	800.000	-0.076	0.236
-162.793	76.245	0.186	0.196
-161.779	158.160	-0.183	-0.252
-160.764	-33.825	-0.062	0.034
-159.750	47.425	0.067	0.062
-158.735	49.103	-0.317	0.296
-157.720	-88.245	0.112	0.033
-156.706	-97.873	0.130	-0.033
-155.691	55.395	0.022	-0.021
-154.677	-37.820	0.211	0.111
-153.662	-84.041	-0.133	0.042
-152.647	114.463	-0.060	-0.072
-151.633	70.142	0.033	0.034
-150.618	-80.240	-0.261	0.087
-149.604	-92.082	0.242	0.068
-148.589	-110.663	0.351	0.072
-147.574	116.749	0.157	0.192
-146.560	336.330	0.050	-0.097
-145.545	485.435	0.158	-0.357
-144.531	-200.000	-0.055	-0.350
-143.516	-82.112	-0.098	-0.032
-142.502	-200.000	-0.004	-0.323
-141.487	631.159	0.097	0.244
-140.472	-119.684	0.218	0.037
-139.458	-90.050	-0.105	0.030
-138.443	800.000	-0.013	-0.051
-137.429	-159.682	-0.272	-0.015
-136.414	-200.000	0.014	-0.063
-135.399	-16.600	0.245	0.154
-134.385	281.759	-0.046	0.083
-133.370	-162.954	0.079	-0.004
-132.356	79.802	0.165	0.176
-131.341	-34.798	0.197	-0.107
-130.326	-200.000	-0.002	-0.052
-129.312	-84.537	0.331	0.104
-128.297	-58.901	-0.070	0.030
-127.283	620.760	0.071	-0.177
-126.268	502.537	-0.045	0.104
-125.253	800.000	-0.058	-0.248
-124.239	-154.751	0.402	-0.026
-123.224	743.444	0.105	-0.281
-122.210	-107.062	-0.193	-0.042
-121.195	144.167	0.287	-0.380
-120.180	-200.000	-0.004	0.019
