DTS Sentinel unit serial number:	SN413079Multiplexer serial number:	ORYXHardware model number:	OX4-SRSoftware version number:	ORYX F/W v4.00 Oryx Data Collector v3.7.2.0data status	okinstallation	princeton_trtdifferential loss correction	single-endedforward channel	channel 1reverse channel	N/Adate	2019/09/16time	12:22:35forward acquisition time	60.00reverse acquisition time	0.00gamma	496.2192k internal	0.2296k external	0.2296temperature offset calibration	0.9955default loss term (dB/km)	0.3790temperature slope calibration	1.0000multiplexer offset coefficient	1.0000multiplexer slope coefficient	1.0000fibre end	0.00T internal ref (°C)	39.37T ext. ref 1 (°C)	13.31T ext. ref 2 (°C)	36.59length (m)	temperature (°C)	Stokes	anti-Stokes-747.200	168.789	-0.142	-0.207
-746.185	232.355	0.170	0.285
-745.171	-95.610	0.135	0.037
-744.156	3.150	-0.179	0.133
-743.142	93.185	0.071	0.082
-742.127	599.232	0.152	0.385
-741.112	-200.000	0.029	0.364
-740.098	248.949	-0.091	0.157
-739.083	25.123	-0.077	-0.066
-738.069	-200.000	-0.000	-0.082
-737.054	-99.085	0.055	0.014
-736.039	132.060	0.033	0.044
-735.025	-28.459	0.192	0.113
-734.010	800.000	-0.036	0.142
-732.996	-3.456	-0.173	-0.123
-731.981	-44.309	-0.074	0.038
-730.966	481.433	-0.145	0.337
-729.952	794.138	-0.094	-0.263
-728.937	-28.055	-0.274	0.162
-727.923	261.091	0.223	-0.394
-726.908	103.180	-0.184	0.220
-725.894	76.850	-0.195	0.211
-724.879	-59.513	-0.190	0.083
-723.864	199.665	0.117	-0.183
-722.850	-35.688	-0.220	-0.122
-721.835	-77.728	-0.379	-0.134
-720.821	36.577	-0.107	-0.096
-719.806	49.233	0.334	-0.321
-718.791	-23.201	-0.203	-0.125
-717.777	-94.714	-0.414	0.115
-716.762	-145.590	0.178	0.016
-715.748	-89.232	0.256	0.077
-714.733	800.000	-0.116	-0.347
-713.718	325.077	-0.144	-0.280
-712.704	214.295	0.126	0.204
-711.689	-71.079	0.093	-0.036
-710.675	230.192	0.160	-0.268
-709.660	46.847	0.181	-0.171
-708.645	50.724	-0.101	-0.098
-707.631	29.743	-0.123	0.107
-706.616	179.062	-0.127	0.189
-705.602	53.037	-0.227	0.222
-704.587	-200.000	-0.007	-0.226
-703.572	392.764	0.205	-0.435
-702.558	72.207	0.191	0.203
-701.543	-200.000	0.057	-0.296
-700.529	-200.000	-0.005	0.249
-699.514	-141.875	-0.114	-0.012
-698.499	111.033	-0.293	-0.359
-697.485	36.834	0.069	-0.062
-696.470	-8.583	0.113	-0.077
-695.456	99.060	0.115	0.135
-694.441	142.102	0.156	-0.211
-693.426	-50.697	-0.102	0.049
-692.412	-64.584	-0.187	-0.077
-691.397	-143.688	0.324	-0.031
-690.383	85.796	0.241	-0.271
-689.368	-67.576	0.116	-0.046
-688.354	150.807	0.053	0.073
-687.339	-139.698	-0.079	0.009
-686.324	107.063	0.163	0.198
-685.310	15.766	0.076	-0.061
-684.295	-200.000	-0.003	0.132
-683.281	-86.296	0.219	-0.069
-682.266	800.000	-0.019	0.068
-681.251	-25.878	0.049	0.030
-680.237	-33.646	-0.273	0.153
-679.222	-200.000	-0.042	-0.479
-678.208	280.553	0.048	-0.087
-677.193	-26.421	0.275	0.164
-676.178	414.624	0.091	0.198
-675.164	-200.000	0.035	0.266
-674.149	-64.260	0.165	0.069
-673.135	37.597	-0.205	0.185
-672.120	47.276	-0.195	-0.185
-671.105	-200.000	-0.006	0.089
-670.091	37.582	-0.142	0.129
-669.076	473.819	0.099	-0.227
-668.062	-87.787	-0.257	-0.079
-667.047	-200.000	0.031	-0.376
-666.032	-119.805	-0.263	0.046
-665.018	-86.321	-0.091	0.028
-664.003	-101.496	-0.288	-0.071
-662.989	80.043	-0.303	0.332
-661.974	-73.734	-0.089	0.033
-660.959	330.137	0.092	0.180
-659.945	332.618	0.064	0.126
-658.930	800.000	0.029	0.085
-657.916	-200.000	-0.000	-0.139
-656.901	-5.537	-0.051	-0.036
-655.886	800.000	0.083	-0.359
-654.872	-113.739	-0.262	0.052
-653.857	800.000	-0.016	-0.057
-652.843	159.566	0.101	-0.143
-651.828	-72.654	-0.197	-0.074
-650.814	67.293	-0.191	-0.198
-649.799	220.507	0.128	0.209
-648.784	800.000	-0.014	0.060
-647.770	-99.515	-0.429	-0.110
-646.755	-200.000	-0.057	-0.487
-645.741	-200.000	0.087	-0.430
-644.726	800.000	-0.095	-0.324
-643.711	-124.710	0.242	-0.038
-642.697	-87.359	0.155	0.048
-641.682	-42.695	0.208	0.108
-640.668	-36.642	0.075	0.041
-639.653	-115.860	-0.373	0.071
-638.638	-200.000	-0.016	-0.110
-637.624	-106.797	0.153	-0.035
-636.609	-94.444	-0.258	0.072
-635.595	19.917	-0.054	0.045
-634.580	28.034	-0.226	-0.194
-633.565	110.882	0.091	-0.111
-632.551	-200.000	-0.018	0.377
-631.536	87.627	-0.078	-0.088
-630.522	8.630	0.073	-0.056
-629.507	-200.000	-0.015	-0.156
-628.492	-200.000	0.056	-0.293
-627.478	-75.267	-0.301	-0.109
-626.463	91.533	-0.078	0.089
-625.449	-26.615	-0.153	-0.091
-624.434	800.000	-0.072	-0.292
-623.419	175.051	0.183	-0.270
-622.405	-34.186	-0.403	0.225
-621.390	-24.967	-0.164	-0.099
-620.376	-97.452	0.136	0.036
-619.361	-200.000	-0.016	-0.092
-618.346	39.035	-0.273	-0.248
-617.332	-200.000	-0.011	0.182
-616.317	-200.000	-0.038	-0.357
-615.303	161.928	0.069	-0.098
-614.288	-90.600	0.202	0.059
-613.273	800.000	-0.077	0.260
-612.259	693.373	0.054	-0.144
-611.244	129.567	-0.142	-0.185
-610.230	-138.002	-0.139	0.016
-609.215	-52.875	0.052	0.024
-608.201	102.743	0.048	0.057
-607.186	-85.132	0.232	0.074
-606.171	800.000	-0.079	-0.226
-605.157	-60.254	0.147	-0.063
-604.142	15.447	-0.177	-0.141
-603.128	16.211	-0.284	-0.228
-602.113	-200.000	0.023	0.191
-601.098	-89.148	0.141	0.042
-600.084	97.823	-0.340	0.397
-599.069	-89.262	0.078	-0.023
-598.055	189.972	0.039	-0.060
-597.040	-200.000	-0.021	-0.260
-596.025	405.579	0.034	-0.074
-595.011	275.894	-0.065	-0.118
-593.996	-34.691	0.198	-0.110
-592.982	-156.746	0.408	-0.026
-591.967	-109.192	0.146	0.032
-590.952	-200.000	-0.045	-0.210
-589.938	109.344	0.054	0.066
-588.923	-21.257	-0.035	-0.022
-587.909	109.917	-0.069	0.084
-586.894	-200.000	-0.019	0.264
-585.879	71.190	-0.087	0.091
-584.865	32.183	-0.049	-0.043
-583.850	800.000	-0.136	0.386
-582.836	5.144	-0.125	-0.093
-581.821	96.748	0.059	-0.069
-580.806	-13.422	-0.142	-0.094
-579.792	44.335	0.277	-0.258
-578.777	284.842	-0.200	0.365
-577.763	-110.206	-0.246	-0.052
-576.748	800.000	-0.039	-0.163
-575.733	61.002	0.083	-0.083
-574.719	111.810	0.140	-0.171
-573.704	-88.173	-0.285	0.087
-572.690	-10.464	-0.082	0.055
-571.675	190.682	0.087	-0.133
-570.661	671.600	0.091	0.239
-569.646	-200.000	0.068	0.320
-568.631	-0.444	0.387	-0.279
-567.617	5.722	0.265	0.199
-566.602	-200.000	0.022	0.325
-565.588	-18.510	-0.217	-0.137
-564.573	-134.763	-0.157	-0.019
-563.558	59.344	-0.178	-0.178
-562.544	318.197	-0.138	-0.265
-561.529	-84.667	0.257	0.082
-560.515	32.744	-0.107	0.094
-559.500	378.724	-0.144	0.300
-558.485	-118.450	-0.136	-0.024
-557.471	179.610	0.171	0.254
-556.456	-161.442	-0.132	-0.007
-555.442	-200.000	0.016	0.099
-554.427	800.000	0.053	0.182
-553.412	61.644	0.192	-0.194
-552.398	177.115	-0.135	0.199
-551.383	128.241	-0.132	-0.170
-550.369	-200.000	0.050	0.426
-549.354	-200.000	0.001	0.103
-548.339	110.834	0.189	0.230
-547.325	-104.949	-0.103	0.024
-546.310	111.046	-0.273	-0.334
-545.296	87.811	0.152	-0.170
-544.281	-200.000	-0.002	-0.016
-543.266	-57.147	-0.121	-0.054
-542.252	-200.000	0.005	0.320
-541.237	800.000	-0.155	-0.489
-540.223	-146.371	0.374	-0.033
-539.208	42.088	0.092	0.084
-538.193	27.639	0.140	0.120
-537.179	-76.575	0.144	0.051
-536.164	-47.114	-0.219	-0.108
-535.150	710.368	-0.126	-0.337
-534.135	66.106	-0.151	0.156
-533.121	164.131	-0.156	-0.222
-532.106	800.000	-0.102	-0.301
-531.091	-107.304	0.333	0.074
-530.077	-78.797	-0.234	-0.081
-529.062	-176.107	0.116	0.003
-528.048	-68.223	-0.229	-0.090
-527.033	-99.948	0.163	0.041
-526.018	-57.512	0.275	-0.122
-525.004	3.561	-0.273	0.202
-523.989	-145.744	-0.359	-0.032
-522.975	-124.081	-0.257	0.041
-521.960	-30.263	-0.198	-0.114
-520.945	-200.000	0.045	0.417
-519.931	424.976	-0.098	0.213
-518.916	-200.000	0.003	-0.022
-517.902	-50.705	-0.169	-0.080
-516.887	45.775	0.085	0.079
-515.872	7.193	0.232	0.175
-514.858	-161.331	0.104	0.005
-513.843	-200.000	-0.011	-0.255
-512.829	386.230	0.007	0.016
-511.814	158.626	0.169	0.237
-510.799	192.435	-0.114	0.174
-509.785	331.196	0.124	0.241
-508.770	48.394	0.203	0.193
-507.756	800.000	-0.024	-0.103
-506.741	-200.000	0.056	-0.275
-505.726	-74.664	-0.140	-0.051
-504.712	53.941	0.136	-0.133
-503.697	-135.033	-0.114	0.014
-502.683	-114.366	0.086	-0.017
-501.668	459.334	0.214	-0.482
-500.653	-48.964	-0.485	0.235
-499.639	-200.000	0.016	-0.107
-498.624	-102.731	-0.091	0.022
-497.610	-171.591	-0.343	-0.011
-496.595	15.337	-0.269	0.214
-495.581	800.000	-0.066	0.290
-494.566	-62.035	-0.367	-0.155
-493.551	-29.128	-0.173	-0.101
-492.537	-59.520	0.431	0.187
-491.522	-200.000	0.005	0.165
-490.508	-20.155	-0.416	0.259
-489.493	-150.924	0.372	-0.028
-488.478	-12.532	-0.368	0.243
-487.464	465.544	0.030	0.068
-486.449	800.000	0.015	0.047
-485.435	-139.876	0.067	-0.007
-484.420	800.000	0.062	-0.185
-483.405	800.000	0.030	0.107
-482.391	-200.000	-0.035	0.380
-481.376	85.625	0.136	0.151
-480.362	-98.478	0.192	-0.050
-479.347	184.726	-0.122	0.183
-478.332	-157.098	0.291	0.018
-477.318	-98.898	-0.152	-0.039
-476.303	-136.711	0.315	-0.037
-475.289	-113.362	0.415	-0.082
-474.274	4.289	0.284	-0.211
-473.259	-79.361	0.122	-0.042
-472.245	496.568	0.076	-0.177
-471.230	129.049	0.265	-0.342
-470.216	800.000	0.029	-0.089
-469.201	-200.000	0.027	0.240
-468.186	-52.179	-0.303	0.142
-467.172	-200.000	0.004	-0.137
-466.157	-47.102	0.157	-0.077
-465.143	244.857	-0.047	0.080
-464.128	-200.000	-0.018	0.095
-463.113	253.507	0.047	0.082
-462.099	-111.931	0.295	-0.060
-461.084	171.315	-0.134	-0.195
-460.070	176.455	0.080	-0.117
-459.055	-139.798	0.567	-0.061
-458.040	-151.172	0.233	0.018
-457.026	76.383	-0.089	0.095
-456.011	-86.395	0.177	-0.055
-454.997	2.681	0.401	-0.293
-453.982	-24.287	-0.149	-0.090
-452.968	-200.000	-0.064	0.489
-451.953	115.287	-0.094	0.116
-450.938	106.840	0.092	0.110
-449.924	197.469	-0.035	0.054
-448.909	49.985	0.104	-0.099
-447.895	1.652	-0.137	-0.100
-446.880	-15.662	0.093	0.060
-445.865	547.224	-0.065	0.157
-444.851	-136.259	-0.069	-0.008
-443.836	-63.186	-0.115	-0.048
-442.822	-81.420	-0.206	-0.068
-441.807	2.923	-0.110	-0.081
-440.792	-20.006	-0.003	0.002
-439.778	-200.000	0.015	-0.074
-438.763	-37.554	0.168	0.090
-437.749	-200.000	-0.023	0.166
-436.734	-6.416	-0.181	-0.124
-435.719	-91.918	-0.083	-0.024
-434.705	-200.000	-0.020	0.194
-433.690	-38.994	0.273	-0.145
-432.676	475.753	0.132	0.301
-431.661	-200.000	-0.012	-0.172
-430.646	800.000	0.037	-0.103
-429.632	-30.835	-0.118	0.067
-428.617	-129.439	0.172	0.024
-427.603	485.860	0.081	-0.187
-426.588	3.037	0.169	0.124
-425.573	112.378	0.177	0.217
-424.559	-200.000	0.047	0.233
-423.544	-119.562	0.145	-0.025
-422.530	25.454	-0.231	0.194
-421.515	773.428	0.041	0.113
-420.500	-53.956	-0.084	-0.039
-419.486	13.571	-0.233	-0.183
-418.471	0.017	0.212	0.152
-417.457	-34.265	0.177	-0.098
-416.442	800.000	0.009	-0.028
-415.428	-80.153	0.049	-0.017
-414.413	440.337	0.145	-0.319
-413.398	-200.000	0.021	-0.211
-412.384	37.621	0.049	0.044
-411.369	-107.071	-0.182	-0.041
-410.355	-105.172	0.311	-0.072
-409.340	-200.000	0.043	-0.215
-408.325	-14.298	0.033	0.021
-407.311	54.547	0.279	-0.272
-406.296	-38.893	0.353	-0.187
-405.282	-120.698	-0.188	0.032
-404.267	1.048	-0.122	-0.088
-403.252	-200.000	0.029	-0.243
-402.238	-200.000	-0.075	-0.387
-401.223	184.592	0.183	0.274
-400.209	800.000	-0.154	0.583
-399.194	-134.519	-0.150	0.019
-398.179	125.747	-0.179	0.228
-397.165	-17.828	0.033	-0.021
-396.150	-151.342	-0.167	0.013
-395.136	2.622	0.279	0.204
-394.121	800.000	-0.061	-0.214
-393.106	-54.455	-0.326	0.149
-392.092	-19.912	0.073	0.045
-391.077	1.208	-0.415	-0.301
-390.063	505.433	-0.083	0.193
-389.048	-21.141	0.234	-0.144
-388.033	-136.683	0.231	-0.027
-387.019	-200.000	0.022	0.495
-386.004	-200.000	-0.023	0.155
-384.990	800.000	0.090	0.283
-383.975	-136.930	-0.209	-0.024
-382.960	58.283	0.149	0.147
-381.946	35.973	0.114	-0.101
-380.931	-25.466	-0.156	0.093
-379.917	-70.845	0.276	0.105
-378.902	-17.947	0.244	0.154
-377.888	269.757	-0.195	-0.346
-376.873	63.366	-0.087	0.088
-375.858	91.465	-0.089	0.101
-374.844	199.843	-0.112	0.174
-373.829	119.683	0.124	0.155
-372.815	800.000	0.046	0.169
-371.800	-200.000	-0.031	0.196
-370.785	17.083	-0.141	0.113
-369.771	85.000	0.120	0.133
-368.756	-61.404	-0.092	0.039
-367.742	186.615	-0.410	0.615
-366.727	158.051	0.233	0.326
-365.712	-200.000	-0.026	0.278
-364.698	-123.100	-0.303	-0.049
-363.683	702.108	-0.064	-0.170
-362.669	108.891	-0.051	-0.062
-361.654	-200.000	-0.050	-0.235
-360.639	-143.017	0.199	0.019
-359.625	28.538	-0.185	0.157
-358.610	-143.729	-0.045	0.004
-357.596	-80.487	-0.328	0.110
-356.581	180.434	-0.118	-0.174
-355.566	149.481	0.103	-0.140
-354.552	-83.344	0.258	0.083
-353.537	-13.302	-0.354	-0.231
-352.523	36.070	-0.271	-0.241
-351.508	48.233	-0.167	-0.158
-350.493	-200.000	0.002	0.149
-349.479	20.212	-0.172	-0.140
-348.464	-50.637	-0.249	0.118
-347.450	800.000	-0.043	-0.129
-346.435	-200.000	0.003	-0.070
-345.420	-200.000	-0.081	0.361
-344.406	-117.860	0.117	0.021
-343.391	-80.603	-0.161	0.054
-342.377	83.891	0.068	0.074
-341.362	-14.876	0.098	-0.063
-340.348	12.098	-0.071	-0.055
-339.333	-75.230	-0.230	0.083
-338.318	105.872	-0.188	-0.224
-337.304	-131.490	0.274	0.036
-336.289	-21.507	-0.055	-0.034
-335.275	-87.805	0.251	-0.076
-334.260	267.789	-0.109	-0.193
-333.245	-175.539	-0.122	-0.003
-332.231	-200.000	0.005	-0.100
-331.216	37.671	-0.162	0.144
-330.202	-200.000	0.008	-0.172
-329.187	729.797	0.063	0.170
-328.172	-101.988	0.549	0.133
-327.158	-60.998	0.479	-0.203
-326.143	-85.664	-0.026	-0.008
-325.129	-200.000	-0.004	-0.048
-324.114	183.338	-0.249	0.369
-323.099	-78.088	0.160	-0.055
-322.085	500.851	0.116	0.268
-321.070	-67.590	0.077	-0.030
-320.056	119.748	0.067	0.083
-319.041	-21.230	-0.249	0.153
-318.026	-108.797	0.209	-0.045
-317.012	298.100	0.058	-0.107
-315.997	355.702	0.042	-0.084
-314.983	-200.000	0.017	0.357
-313.968	-74.565	-0.118	-0.043
-312.953	-65.193	-0.157	-0.064
-311.939	-167.386	-0.172	0.007
-310.924	800.000	-0.081	-0.345
-309.910	-200.000	-0.014	0.123
-308.895	63.110	-0.140	-0.141
-307.880	-200.000	0.055	-0.267
-306.866	56.541	0.193	0.188
-305.851	-157.283	-0.300	0.018
-304.837	55.769	-0.012	-0.012
-303.822	132.653	0.098	0.127
-302.807	83.145	-0.083	-0.090
-301.793	118.574	0.258	-0.320
-300.778	165.692	0.116	0.164
-299.764	-200.000	0.027	-0.132
-298.749	134.478	-0.107	-0.139
-297.735	-58.084	-0.209	0.092
-296.720	210.230	-0.210	0.330
-295.705	109.409	-0.099	-0.119
-294.691	-200.000	-0.051	-0.417
-293.676	31.101	-0.089	-0.077
-292.662	-133.123	0.175	0.022
-291.647	-200.000	-0.048	0.214
-290.632	-122.095	0.283	-0.047
-289.618	800.000	0.125	-0.419
-288.603	-90.612	0.044	-0.013
-287.589	-200.000	-0.037	0.188
-286.574	130.758	-0.168	-0.217
-285.559	-132.039	0.062	-0.008
-284.545	-200.000	0.045	-0.248
-283.530	186.756	-0.200	-0.299
-282.516	-200.000	0.059	-0.301
-281.501	-16.948	0.167	-0.106
-280.486	48.630	0.127	-0.120
-279.472	-187.085	0.235	0.003
-278.457	131.142	-0.032	-0.041
-277.443	38.531	-0.276	-0.246
-276.428	-34.520	0.166	-0.091
-275.413	148.236	0.021	0.029
-274.399	-200.000	0.017	-0.288
-273.384	-68.574	-0.274	0.107
-272.370	-200.000	-0.011	-0.151
-271.355	160.975	0.207	0.290
-270.340	-88.500	0.209	0.063
-269.326	-55.301	0.004	-0.002
-268.311	-200.000	0.007	0.399
-267.297	46.552	-0.191	0.178
-266.282	-200.000	0.032	0.406
-265.267	619.998	-0.050	0.127
-264.253	-200.000	-0.028	-0.204
-263.238	-200.000	-0.017	0.151
-262.224	-6.516	-0.216	-0.148
-261.209	170.390	0.304	-0.437
-260.195	38.143	-0.146	-0.130
-259.180	-200.000	-0.006	0.217
-258.165	392.345	0.086	-0.179
-257.151	-69.989	0.124	0.047
-256.136	37.118	-0.070	0.062
-255.122	-42.424	-0.228	-0.117
-254.107	590.973	0.180	0.445
-253.092	-200.000	-0.018	-0.196
-252.078	226.253	-0.043	-0.070
-251.063	-41.843	-0.153	0.078
-250.049	0.345	0.154	-0.111
-249.034	75.481	0.154	-0.163
-248.019	56.508	-0.118	-0.115
-247.005	-122.227	0.426	0.070
-245.990	800.000	-0.072	-0.217
-244.976	-136.018	-0.328	-0.039
-243.961	800.000	0.102	0.424
-242.946	414.071	-0.050	-0.106
-241.932	-82.005	0.221	0.072
-240.917	218.276	-0.039	0.062
-239.903	-200.000	-0.003	0.154
-238.888	-138.091	0.058	0.006
-237.873	-64.942	0.049	0.020
-236.859	-200.000	0.009	-0.109
-235.844	50.515	-0.166	0.158
-234.830	270.171	0.097	-0.171
-233.815	-200.000	-0.013	0.170
-232.800	-200.000	-0.006	0.137
-231.786	96.471	0.030	0.034
-230.771	-168.746	0.389	-0.015
-229.757	-200.000	-0.017	0.499
-228.742	346.534	0.173	-0.341
-227.727	-200.000	-0.044	-0.278
-226.713	-104.043	-0.144	-0.034
-225.698	-162.634	0.056	-0.003
-224.684	-200.000	0.011	0.097
-223.669	-49.873	0.202	0.096
-222.655	-200.000	0.033	0.158
-221.640	-34.144	0.082	-0.045
-220.625	706.773	-0.012	0.032
-219.611	800.000	-0.109	-0.390
-218.596	-150.914	-0.250	-0.019
-217.582	-20.649	-0.029	0.018
-216.567	496.422	0.149	-0.342
-215.552	183.334	-0.073	-0.108
-214.538	-124.408	0.422	-0.066
-213.523	-3.545	0.091	0.063
-212.509	-200.000	0.007	0.190
-211.494	46.998	-0.116	0.108
-210.479	61.658	-0.097	-0.097
-209.465	53.074	-0.166	-0.159
-208.450	-129.316	0.130	-0.018
-207.436	246.180	-0.037	-0.062
-206.421	536.028	-0.031	0.073
-205.406	147.399	-0.206	-0.277
-204.392	67.862	0.117	-0.120
-203.377	112.431	-0.065	0.079
-202.363	-150.140	0.046	-0.004
-201.348	-51.292	-0.176	-0.083
-200.333	800.000	-0.088	0.299
-199.319	185.360	-0.019	-0.028
-198.304	309.950	0.066	0.124
-197.290	-50.565	0.173	0.081
-196.275	-112.568	-0.315	-0.063
-195.260	-200.000	0.001	0.105
-194.246	471.382	0.055	0.124
-193.231	87.691	-0.074	-0.082
-192.217	-133.688	0.100	0.012
-191.202	-122.846	0.182	0.029
-190.187	800.000	0.145	0.406
-189.173	-36.401	-0.330	0.178
-188.158	800.000	-0.126	-0.378
-187.144	-51.571	-0.156	0.073
-186.129	57.548	-0.126	-0.123
-185.114	-134.852	0.238	0.029
-184.100	-125.689	0.230	0.035
-183.085	-200.000	-0.034	-0.177
-182.071	-200.000	0.020	-0.105
-181.056	-200.000	-0.011	-0.229
-180.042	199.064	-0.131	-0.200
-179.027	-200.000	0.015	-0.091
-178.012	231.986	-0.058	0.096
-176.998	-14.522	0.160	0.103
-175.983	-136.864	0.150	-0.017
-174.969	-200.000	-0.051	0.246
-173.954	199.411	0.154	0.235
-172.939	-200.000	-0.038	-0.494
-171.925	-106.727	0.367	0.081
-170.910	-200.000	-0.041	0.259
-169.896	-131.053	-0.142	-0.019
-168.881	41.172	-0.049	-0.044
-167.866	60.980	-0.387	-0.384
-166.852	800.000	0.036	-0.106
-165.837	-88.466	-0.199	-0.059
-164.823	609.931	0.107	0.267
-163.808	800.000	-0.100	0.278
-162.793	-8.254	-0.098	-0.066
-161.779	-200.000	0.009	-0.168
-160.764	-162.202	0.435	0.022
-159.750	-16.403	0.089	-0.056
-158.735	294.022	0.087	0.159
-157.720	63.325	0.200	0.201
-156.706	-81.260	0.402	0.133
-155.691	-99.060	0.100	0.025
-154.677	-68.060	-0.099	-0.039
-153.662	-200.000	0.020	0.257
-152.647	-39.352	-0.194	-0.102
-151.633	-200.000	0.087	0.527
-150.618	17.734	-0.219	0.174
-149.604	92.751	0.274	-0.309
-148.589	-200.000	-0.043	-0.459
-147.574	800.000	0.125	0.358
-146.560	-200.000	-0.030	0.167
-145.545	213.349	-0.064	-0.102
-144.531	-200.000	-0.001	0.181
-143.516	-200.000	-0.035	0.205
-142.502	-59.013	-0.021	0.009
-141.487	113.961	0.095	0.115
-140.472	-113.700	-0.112	-0.022
-139.458	-45.045	0.183	0.091
-138.443	-200.000	-0.043	0.541
-137.429	-125.203	0.247	-0.038
-136.414	-90.838	0.220	-0.063
-135.399	-120.405	-0.141	-0.024
-134.385	120.700	-0.077	0.095
-133.370	304.157	0.039	0.073
-132.356	-200.000	0.003	0.013
-131.341	545.913	-0.050	-0.118
-130.326	-60.086	-0.203	-0.087
-129.312	458.295	0.125	0.278
-128.297	-5.648	0.229	0.156
-127.283	184.132	0.236	-0.349
-126.268	280.060	-0.108	0.192
-125.253	223.798	0.135	-0.218
-124.239	48.803	-0.069	0.065
-123.224	-103.817	-0.104	-0.024
-122.210	-50.546	0.191	-0.090
-121.195	800.000	-0.056	0.198
