DTS Sentinel unit serial number:	SN413079Multiplexer serial number:	ORYXHardware model number:	OX4-SRSoftware version number:	ORYX F/W v4.00 Oryx Data Collector v3.7.2.0data status	okinstallation	princeton_trtdifferential loss correction	single-endedforward channel	channel 1reverse channel	N/Adate	2019/09/17time	05:58:35forward acquisition time	60.00reverse acquisition time	0.00gamma	496.2192k internal	0.2326k external	0.2326temperature offset calibration	0.9965default loss term (dB/km)	0.3790temperature slope calibration	1.0000multiplexer offset coefficient	1.0000multiplexer slope coefficient	1.0000fibre end	0.00T internal ref (°C)	28.81T ext. ref 1 (°C)	0.14T ext. ref 2 (°C)	22.41length (m)	temperature (°C)	Stokes	anti-Stokes-747.200	38.842	0.119	0.107
-746.185	57.516	0.277	0.273
-745.171	682.475	-0.112	0.295
-744.156	31.837	-0.315	0.273
-743.142	-105.872	-0.293	0.067
-742.127	401.036	-0.121	-0.257
-741.112	-140.389	-0.253	-0.027
-740.098	-200.000	-0.019	-0.160
-739.083	-126.564	0.259	-0.039
-738.069	61.219	0.345	0.345
-737.054	-200.000	0.012	0.334
-736.039	177.468	-0.051	-0.075
-735.025	48.998	-0.059	-0.056
-734.010	-145.930	-0.329	-0.029
-732.996	-2.504	-0.099	-0.070
-731.981	-200.000	0.041	-0.234
-730.966	-178.680	0.323	0.007
-729.952	217.668	-0.143	0.229
-728.937	-200.000	-0.058	0.401
-727.923	-164.088	-0.354	-0.017
-726.908	234.519	-0.069	0.115
-725.894	800.000	-0.108	-0.361
-724.879	158.094	0.143	-0.199
-723.864	-200.000	-0.062	0.340
-722.850	-116.571	-0.059	0.011
-721.835	-80.650	-0.439	0.147
-720.821	608.207	-0.090	-0.227
-719.806	800.000	-0.156	-0.479
-718.791	-200.000	0.010	0.203
-717.777	-131.006	-0.268	0.036
-716.762	-43.291	-0.110	-0.056
-715.748	-53.941	-0.176	0.081
-714.733	23.135	-0.143	0.118
-713.718	-91.248	0.283	-0.082
-712.704	657.171	0.025	0.064
-711.689	-41.877	-0.325	-0.168
-710.675	443.257	-0.141	-0.310
-709.660	-34.727	0.335	-0.184
-708.645	-69.163	0.255	-0.099
-707.631	-67.596	-0.224	0.089
-706.616	-200.000	-0.006	0.069
-705.602	-200.000	-0.032	-0.182
-704.587	800.000	0.104	-0.312
-703.572	-22.624	0.078	-0.048
-702.558	800.000	0.053	0.188
-701.543	86.461	-0.123	0.136
-700.529	137.199	0.102	-0.134
-699.514	364.957	-0.112	-0.227
-698.499	126.036	-0.291	-0.370
-697.485	-200.000	-0.068	-0.387
-696.470	27.958	0.093	0.079
-695.456	-200.000	0.017	0.094
-694.441	236.622	-0.111	0.186
-693.426	800.000	0.029	0.126
-692.412	448.774	-0.042	0.094
-691.397	695.504	-0.064	-0.169
-690.383	-123.225	-0.185	0.030
-689.368	-183.687	0.338	-0.006
-688.354	-113.080	-0.269	0.053
-687.339	58.546	-0.178	-0.176
-686.324	112.666	-0.132	0.161
-685.310	-87.680	0.041	-0.012
-684.295	800.000	-0.050	0.160
-683.281	-200.000	0.008	0.077
-682.266	800.000	-0.061	0.242
-681.251	-35.686	-0.081	-0.044
-680.237	-86.966	0.048	-0.015
-679.222	-200.000	-0.001	-0.175
-678.208	507.456	0.070	0.164
-677.193	-155.054	-0.223	-0.015
-676.178	-132.502	0.395	0.051
-675.164	34.593	0.173	0.152
-674.149	-200.000	-0.020	-0.326
-673.135	51.867	0.323	-0.309
-672.120	136.544	0.094	-0.124
-671.105	-50.872	-0.102	-0.048
-670.091	-100.221	-0.211	-0.053
-669.076	41.025	-0.203	-0.184
-668.062	-136.386	-0.413	-0.048
-667.047	-20.407	0.080	0.049
-666.032	14.431	-0.204	0.160
-665.018	-166.395	0.277	0.012
-664.003	166.848	0.058	0.082
-662.989	-9.184	0.351	-0.236
-661.974	-110.174	0.209	-0.044
-660.959	-74.603	-0.114	-0.041
-659.945	679.448	-0.021	-0.054
-658.930	-106.685	-0.067	0.015
-657.916	220.801	0.055	-0.089
-656.901	-119.896	0.139	0.024
-655.886	35.560	0.038	-0.034
-654.872	344.909	-0.143	0.283
-653.857	80.978	-0.210	0.227
-652.843	-78.621	0.125	-0.043
-651.828	143.264	-0.188	0.251
-650.814	305.883	-0.059	0.110
-649.799	76.371	0.170	-0.181
-648.784	371.468	-0.068	0.139
-647.770	73.273	0.200	-0.210
-646.755	-74.768	0.082	-0.030
-645.741	79.345	-0.106	0.115
-644.726	-74.813	-0.086	0.031
-643.711	553.614	-0.144	0.347
-642.697	-200.000	-0.014	-0.095
-641.682	-200.000	-0.014	-0.139
-640.668	117.704	0.108	-0.134
-639.653	-144.142	-0.103	0.010
-638.638	267.837	0.067	-0.118
-637.624	-123.146	-0.555	-0.089
-636.609	800.000	-0.063	0.217
-635.595	-200.000	0.030	-0.145
-634.580	-37.873	0.211	-0.113
-633.565	-133.747	0.272	0.034
-632.551	-200.000	-0.020	-0.320
-631.536	472.212	-0.057	-0.128
-630.522	95.721	-0.214	0.246
-629.507	218.508	0.138	0.221
-628.492	800.000	0.110	-0.356
-627.478	99.152	0.041	0.048
-626.463	-200.000	0.013	0.063
-625.449	-185.529	0.217	0.003
-624.434	-80.048	-0.142	-0.048
-623.419	-200.000	0.031	-0.523
-622.405	154.459	-0.090	0.124
-621.390	556.275	-0.032	-0.078
-620.376	11.807	-0.100	0.077
-619.361	-5.727	-0.165	-0.114
-618.346	-84.514	-0.178	0.056
-617.332	85.691	0.102	-0.112
-616.317	-34.284	-0.314	-0.173
-615.303	288.095	-0.078	-0.141
-614.288	-200.000	-0.024	-0.117
-613.273	555.034	0.041	-0.100
-612.259	-200.000	0.012	0.182
-611.244	-52.983	-0.039	0.018
-610.230	102.471	-0.207	0.242
-609.215	-55.610	-0.158	-0.071
-608.201	105.729	0.185	0.220
-607.186	-51.328	0.276	0.130
-606.171	247.285	-0.105	0.177
-605.157	269.951	0.073	-0.129
-604.142	70.506	0.073	-0.075
-603.128	37.827	-0.187	-0.167
-602.113	-145.974	-0.275	0.024
-601.098	-133.383	0.450	0.057
-600.084	800.000	-0.053	0.231
-599.069	-119.374	-0.319	-0.056
-598.055	-151.718	0.405	-0.030
-597.040	237.038	-0.064	0.106
-596.025	-200.000	0.001	-0.154
-595.011	628.849	0.059	-0.150
-593.996	284.592	0.146	0.264
-592.982	78.600	0.142	-0.152
-591.967	391.084	0.173	0.361
-590.952	259.451	-0.058	0.100
-589.938	767.320	-0.027	-0.075
-588.923	7.775	0.324	0.243
-587.909	150.842	0.222	-0.302
-586.894	-200.000	-0.007	0.059
-585.879	-138.448	-0.194	-0.021
-584.865	58.896	0.185	-0.182
-583.850	-77.767	0.322	0.112
-582.836	-104.547	-0.084	-0.020
-581.821	624.114	-0.051	-0.129
-580.806	234.722	-0.178	0.294
-579.792	391.354	0.084	0.175
-578.777	800.000	-0.069	-0.285
-577.763	-183.717	0.319	0.005
-576.748	10.845	0.095	0.073
-575.733	325.206	0.072	-0.138
-574.719	-119.100	-0.337	-0.059
-573.704	800.000	-0.087	0.367
-572.690	-24.981	0.169	0.100
-571.675	209.375	-0.131	-0.205
-570.661	621.133	0.058	-0.145
-569.646	-23.663	-0.111	0.067
-568.631	-69.287	-0.313	-0.121
-567.617	-200.000	0.026	-0.290
-566.602	201.597	-0.276	0.425
-565.588	92.272	-0.413	0.466
-564.573	0.263	-0.221	0.158
-563.558	-118.239	-0.031	0.006
-562.544	101.581	-0.040	0.047
-561.529	233.565	-0.299	-0.493
-560.515	-30.259	0.217	-0.124
-559.500	-200.000	0.016	-0.278
-558.485	-54.898	0.157	0.071
-557.471	-21.125	0.198	-0.121
-556.456	249.281	0.071	0.120
-555.442	50.103	0.079	0.075
-554.427	-200.000	0.014	0.218
-553.412	229.513	0.122	0.200
-552.398	800.000	0.062	0.176
-551.383	800.000	-0.023	0.101
-550.369	154.082	-0.114	-0.157
-549.354	114.949	-0.210	-0.256
-548.339	-97.580	-0.258	-0.067
-547.325	-2.718	-0.185	-0.130
-546.310	-12.836	-0.226	-0.147
-545.296	-76.877	-0.147	0.052
-544.281	-200.000	0.018	-0.264
-543.266	-180.327	0.247	0.005
-542.252	800.000	-0.114	0.436
-541.237	364.575	0.063	0.126
-540.223	-200.000	-0.031	0.138
-539.208	-9.688	-0.144	-0.096
-538.193	-124.008	-0.098	0.015
-537.179	800.000	0.041	-0.126
-536.164	176.113	-0.049	0.071
-535.150	-129.544	0.102	-0.014
-534.135	-57.732	-0.306	0.134
-533.121	32.053	-0.116	-0.100
-532.106	201.939	0.128	-0.197
-531.091	-200.000	-0.023	-0.262
-530.077	355.539	0.110	-0.219
-529.062	3.988	-0.160	-0.117
-528.048	-156.222	0.188	-0.012
-527.033	4.647	0.318	0.234
-526.018	800.000	0.109	0.397
-525.004	98.523	0.234	-0.270
-523.989	800.000	0.043	-0.183
-522.975	254.120	0.078	-0.133
-521.960	-136.599	-0.065	-0.008
-520.945	-200.000	0.005	-0.232
-519.931	112.437	-0.064	-0.077
-518.916	249.376	-0.193	-0.327
-517.902	-175.504	-0.165	0.004
-516.887	-31.839	0.037	-0.021
-515.872	289.167	0.065	-0.118
-514.858	-75.485	0.232	0.083
-513.843	87.635	-0.088	-0.098
-512.829	-73.183	0.178	0.065
-511.814	-134.995	-0.419	0.051
-510.799	-154.232	0.113	-0.008
-509.785	-27.217	0.327	-0.190
-508.770	800.000	0.032	-0.113
-507.756	-3.516	0.024	-0.017
-506.741	23.983	0.125	0.103
-505.726	-200.000	0.034	0.171
-504.712	800.000	-0.134	-0.433
-503.697	-135.410	0.008	-0.001
-502.683	114.973	0.190	0.231
-501.668	691.724	-0.126	-0.330
-500.653	118.625	-0.134	-0.165
-499.639	800.000	0.016	-0.060
-498.624	-127.331	-0.349	-0.051
-497.610	59.644	-0.124	-0.123
-496.595	409.774	-0.056	0.119
-495.581	72.245	-0.207	0.216
-494.566	66.306	-0.142	0.145
-493.551	-26.384	-0.120	0.070
-492.537	-200.000	0.015	-0.079
-491.522	28.870	0.096	0.081
-490.508	800.000	-0.059	0.166
-489.493	-200.000	0.046	-0.248
-488.478	800.000	-0.009	0.033
-487.464	26.123	0.059	-0.049
-486.449	63.384	-0.096	0.096
-485.435	-68.402	0.223	0.087
-484.420	-78.682	0.464	-0.158
-483.405	161.953	0.025	-0.035
-482.391	51.321	-0.208	0.197
-481.376	-199.380	-0.151	0.001
-480.362	356.463	-0.074	-0.147
-479.347	29.522	-0.104	0.088
-478.332	280.737	-0.046	0.082
-477.318	-92.345	-0.259	-0.073
-476.303	-200.000	0.047	0.388
-475.289	383.437	-0.051	0.104
-474.274	158.669	0.121	0.168
-473.259	-200.000	-0.027	0.150
-472.245	-200.000	0.001	0.057
-471.230	60.393	-0.207	-0.204
-470.216	800.000	0.045	-0.173
-469.201	72.412	-0.036	-0.037
-468.186	-144.985	-0.080	0.007
-467.172	88.079	0.259	0.287
-466.157	-20.727	-0.304	-0.186
-465.143	-178.373	-0.355	-0.008
-464.128	20.523	0.246	0.198
-463.113	18.924	0.223	-0.179
-462.099	-25.553	-0.102	-0.060
-461.084	1.222	-0.166	0.119
-460.070	800.000	0.047	0.203
-459.055	89.936	-0.059	0.066
-458.040	-131.991	0.320	0.042
-457.026	-200.000	0.013	0.209
-456.011	263.574	-0.118	-0.204
-454.997	-38.352	-0.068	0.036
-453.982	-200.000	-0.071	0.334
-452.968	22.842	-0.414	0.338
-451.953	-135.941	-0.379	-0.045
-450.938	800.000	-0.065	-0.253
-449.924	-164.326	-0.379	0.017
-448.909	148.333	0.091	0.123
-447.895	-200.000	-0.051	-0.324
-446.880	-130.531	-0.016	-0.002
-445.865	-200.000	0.014	0.191
-444.851	195.238	0.131	0.198
-443.836	-85.896	-0.111	0.034
-442.822	751.651	-0.077	0.208
-441.807	257.767	0.206	0.353
-440.792	186.607	-0.076	0.113
-439.778	-155.093	0.423	-0.028
-438.763	-200.000	0.028	-0.158
-437.749	-200.000	-0.020	0.134
-436.734	-21.455	-0.214	-0.130
-435.719	-110.959	-0.253	0.052
-434.705	-52.239	-0.229	-0.106
-433.690	-28.017	0.066	0.038
-432.676	-15.629	-0.045	0.028
-431.661	-58.675	-0.308	0.133
-430.646	-74.597	0.063	0.022
-429.632	-98.086	-0.265	-0.068
-428.617	-200.000	-0.255	0.000
-427.603	30.016	-0.077	-0.065
-426.588	560.660	-0.015	0.035
-425.573	294.645	-0.148	0.269
-424.559	8.546	-0.078	0.059
-423.544	81.586	-0.161	0.173
-422.530	-84.109	-0.089	-0.028
-421.515	438.974	0.058	-0.126
-420.500	-47.639	0.326	-0.158
-419.486	152.296	-0.119	-0.161
-418.471	167.962	-0.132	0.187
-417.457	-10.318	-0.200	-0.132
-416.442	-95.056	0.155	0.042
-415.428	104.610	0.356	-0.417
-414.413	800.000	0.049	0.166
-413.398	514.627	0.079	-0.182
-412.384	-95.792	0.294	0.078
-411.369	-66.238	0.108	0.043
-410.355	-200.000	-0.065	-0.340
-409.340	-118.649	0.111	0.020
-408.325	104.531	-0.241	-0.282
-407.311	-126.237	0.158	-0.023
-406.296	-78.060	-0.142	0.049
-405.282	9.064	0.116	-0.087
-404.267	-110.775	0.340	-0.070
-403.252	-200.000	0.001	-0.004
-402.238	-96.857	0.189	0.049
-401.223	-101.722	-0.412	0.099
-400.209	210.575	-0.168	0.263
-399.194	-82.823	0.049	0.016
-398.179	-21.629	0.442	-0.268
-397.165	460.675	0.071	-0.158
-396.150	125.381	-0.093	-0.117
-395.136	-62.802	0.042	0.017
-394.121	31.075	0.147	-0.125
-393.106	105.426	-0.154	-0.180
-392.092	46.548	0.132	-0.122
-391.077	-128.881	-0.107	-0.015
-390.063	143.210	0.100	0.132
-389.048	130.664	-0.331	0.422
-388.033	-52.639	0.157	0.072
-387.019	800.000	-0.108	0.456
-386.004	-67.840	-0.138	-0.054
-384.990	-200.000	0.007	0.050
-383.975	-136.658	0.353	-0.041
-382.960	-160.424	-0.280	0.015
-381.946	27.325	-0.023	-0.019
-380.931	-200.000	0.008	-0.154
-379.917	-200.000	0.024	-0.217
-378.902	-90.789	0.326	0.093
-377.888	-113.667	0.389	-0.075
-376.873	-97.024	-0.213	0.055
-375.858	132.040	0.142	0.181
-374.844	-200.000	0.436	-0.001
-373.829	140.639	-0.128	-0.168
-372.815	-122.773	-0.306	0.049
-371.800	-80.917	0.234	-0.077
-370.785	100.930	-0.205	-0.237
-369.771	128.917	-0.041	0.052
-368.756	800.000	-0.085	-0.264
-367.742	110.758	0.183	-0.219
-366.727	211.160	-0.047	0.073
-365.712	-200.000	-0.038	0.252
-364.698	-200.000	0.004	0.168
-363.683	800.000	-0.014	-0.056
-362.669	-150.627	0.225	-0.017
-361.654	774.819	-0.105	0.285
-360.639	-200.000	0.008	-0.137
-359.625	-9.157	0.043	-0.028
-358.610	132.602	0.147	0.188
-357.596	-200.000	0.075	0.424
-356.581	142.952	0.223	0.294
-355.566	-74.143	0.042	-0.015
-354.552	-122.846	0.319	0.051
-353.537	-195.199	-0.225	0.002
-352.523	-200.000	0.040	-0.179
-351.508	774.873	-0.047	0.129
-350.493	165.674	0.030	0.042
-349.479	35.642	-0.097	-0.085
-348.464	79.023	-0.086	0.092
-347.450	-76.763	-0.385	0.134
-346.435	-121.577	0.502	0.083
-345.420	-92.289	-0.374	0.105
-344.406	207.562	-0.210	-0.326
-343.391	304.399	0.094	-0.174
-342.377	332.894	-0.121	-0.232
-341.362	5.379	-0.157	-0.115
-340.348	-25.451	0.286	0.168
-339.333	-87.094	-0.234	0.071
-338.318	34.034	0.088	-0.076
-337.304	-101.838	-0.145	0.035
-336.289	-36.958	-0.193	0.103
-335.275	-63.706	-0.402	0.163
-334.260	-53.418	0.421	-0.191
-333.245	-0.357	0.125	-0.088
-332.231	-110.963	-0.404	0.082
-331.216	29.746	-0.147	0.124
-330.202	83.030	-0.171	0.185
-329.187	-15.104	0.256	0.162
-328.172	-57.338	-0.267	0.116
-327.158	638.106	0.118	0.296
-326.143	-200.000	0.004	0.323
-325.129	-108.939	0.612	-0.130
-324.114	-98.676	0.162	-0.041
-323.099	-137.194	-0.104	0.012
-322.085	399.642	-0.081	0.168
-321.070	88.541	0.256	0.282
-320.056	-200.000	-0.044	-0.398
-319.041	279.526	0.110	0.194
-318.026	17.054	0.126	-0.099
-317.012	-200.000	-0.053	0.293
-315.997	-103.903	0.399	-0.092
-314.983	181.332	-0.200	0.291
-313.968	-154.726	-0.162	0.011
-312.953	-200.000	-0.016	-0.202
-311.939	117.084	0.219	0.267
-310.924	800.000	-0.060	0.169
-309.910	-58.796	0.094	-0.040
-308.895	281.486	-0.104	0.185
-307.880	-49.850	0.242	0.114
-306.866	-155.505	-0.063	0.004
-305.851	79.424	0.198	-0.210
-304.837	397.329	0.057	-0.118
-303.822	51.929	-0.071	-0.067
-302.807	124.070	0.124	0.154
-301.793	6.361	-0.151	0.111
-300.778	-200.000	-0.053	-0.264
-299.764	175.878	0.174	-0.250
-298.749	800.000	-0.117	-0.396
-297.735	132.933	-0.404	-0.517
-296.720	-40.993	-0.119	0.061
-295.705	231.244	0.035	-0.057
-294.691	-9.742	-0.067	0.044
-293.676	30.857	-0.149	0.127
-292.662	118.414	0.214	-0.261
-291.647	-200.000	-0.057	-0.342
-290.632	124.264	0.207	-0.257
-289.618	-170.360	0.210	-0.007
-288.603	-200.000	-0.038	-0.501
-287.589	65.543	0.161	-0.161
-286.574	227.387	-0.068	-0.109
-285.559	-200.000	0.019	-0.245
-284.545	-200.000	-0.019	-0.212
-283.530	-200.000	0.008	-0.044
-282.516	76.561	-0.090	0.094
-281.501	334.779	-0.011	0.021
-280.486	-104.638	-0.537	0.123
-279.472	78.126	0.225	0.237
-278.457	38.208	-0.064	0.056
-277.443	159.618	-0.113	-0.155
-276.428	141.703	-0.007	-0.009
-275.413	800.000	-0.060	0.216
-274.399	-4.684	-0.179	-0.122
-273.384	-185.882	-0.250	0.004
-272.370	-97.224	0.398	0.103
-271.355	-200.000	0.036	-0.291
-270.340	800.000	-0.089	-0.272
-269.326	-200.000	0.061	0.324
-268.311	-170.534	0.296	-0.010
-267.297	-200.000	-0.033	-0.175
-266.282	-133.922	0.159	-0.020
-265.267	479.492	-0.078	-0.176
-264.253	-200.000	0.020	-0.195
-263.238	-35.713	-0.148	0.079
-262.224	223.216	0.064	0.102
-261.209	-86.567	0.133	-0.040
-260.195	-98.003	0.236	0.060
-259.180	15.850	0.081	-0.063
-258.165	758.629	-0.116	-0.310
-257.151	186.051	-0.162	-0.238
-256.136	-67.675	-0.545	-0.211
-255.122	-54.958	0.214	0.095
-254.107	117.789	0.083	0.101
-253.092	-25.399	-0.014	0.008
-252.078	107.766	0.041	-0.049
-251.063	-186.030	0.298	-0.004
-250.049	-197.388	0.271	0.002
-249.034	163.713	-0.243	0.338
-248.019	800.000	-0.074	-0.206
-247.005	-17.134	0.197	0.123
-245.990	-25.216	0.245	0.143
-244.976	-200.000	-0.007	-0.265
-243.961	-63.046	0.267	0.109
-242.946	20.830	-0.104	0.083
-241.932	94.614	0.047	-0.053
-240.917	-71.185	0.127	-0.047
-239.903	-138.795	-0.316	-0.034
-238.888	-64.634	0.337	-0.135
-237.873	-129.059	0.435	0.060
-236.859	21.075	0.166	-0.133
-235.844	-200.000	0.038	-0.258
-234.830	438.554	0.080	-0.174
-233.815	-97.808	0.197	-0.050
-232.800	199.232	-0.092	-0.139
-231.786	-118.838	-0.322	0.056
-230.771	-8.926	-0.146	-0.096
-229.757	-177.067	0.058	-0.001
-228.742	-65.994	-0.379	0.150
-227.727	-61.353	0.254	0.106
-226.713	468.574	-0.047	0.104
-225.698	-126.492	0.506	-0.074
-224.684	166.748	0.031	0.044
-223.669	-192.241	0.289	0.003
-222.655	-200.000	-0.027	0.139
-221.640	101.114	-0.141	0.162
-220.625	165.817	-0.123	0.172
-219.611	-200.000	0.048	0.279
-218.596	-200.000	0.083	0.417
-217.582	800.000	0.028	0.116
-216.567	-85.374	-0.202	-0.062
-215.552	-197.100	0.241	0.002
-214.538	-197.366	0.091	0.001
-213.523	800.000	0.073	0.274
-212.509	600.190	0.125	0.306
-211.494	18.872	0.096	-0.076
-210.479	426.620	0.065	-0.139
-209.465	-112.352	0.147	0.029
-208.450	-113.168	-0.149	0.029
-207.436	-200.000	-0.007	0.112
-206.421	800.000	0.029	-0.088
-205.406	188.854	-0.076	0.112
-204.392	800.000	0.096	0.383
-203.377	43.237	0.355	0.320
-202.363	-88.875	0.168	-0.049
-201.348	378.887	-0.073	0.147
-200.333	-159.313	-0.076	-0.004
-199.319	-67.650	0.115	-0.044
-198.304	-51.424	0.101	0.047
-197.290	-107.470	-0.306	-0.066
-196.275	-35.406	-0.168	0.090
-195.260	-88.827	-0.065	0.019
-194.246	111.535	0.262	0.312
-193.231	80.455	-0.082	-0.087
-192.217	800.000	0.095	-0.313
-191.202	142.653	-0.040	0.053
-190.187	800.000	0.019	0.057
-189.173	-71.692	-0.106	-0.039
-188.158	-200.000	0.026	-0.265
-187.144	190.522	0.255	0.378
-186.129	-200.000	-0.018	-0.165
-185.114	-90.393	0.153	0.044
-184.100	-6.841	-0.130	-0.087
-183.085	-56.138	-0.344	0.151
-182.071	800.000	0.142	0.403
-181.056	-200.000	0.002	0.094
-180.042	-51.997	-0.434	-0.199
-179.027	-8.228	0.192	-0.127
-178.012	249.992	0.199	-0.334
-176.998	800.000	0.142	-0.399
-175.983	-14.652	0.116	0.073
-174.969	-23.772	0.076	-0.045
-173.954	-36.252	-0.145	-0.077
-172.939	6.112	0.188	-0.137
-171.925	-124.470	-0.240	-0.037
-170.910	-93.852	-0.097	0.026
-169.896	-132.943	-0.233	-0.029
-168.881	-63.378	-0.189	-0.077
-167.866	800.000	-0.063	0.255
-166.852	115.260	0.062	-0.074
-165.837	-71.206	-0.118	-0.044
-164.823	-106.547	-0.375	0.082
-163.808	-59.648	-0.146	-0.062
-162.793	39.419	0.117	-0.103
-161.779	45.774	0.329	0.299
-160.764	800.000	-0.067	-0.234
-159.750	-115.728	0.196	0.036
-158.735	299.374	0.085	0.154
-157.720	-16.699	0.162	0.101
-156.706	-85.956	-0.226	-0.069
-155.691	-105.175	0.299	0.067
-154.677	192.422	-0.014	0.021
-153.662	-170.119	0.114	0.004
-152.647	4.502	0.215	0.155
-151.633	800.000	-0.099	0.291
-150.618	-183.696	0.253	-0.004
-149.604	55.986	-0.151	-0.144
-148.589	-33.112	0.333	0.182
-147.574	800.000	-0.085	0.235
-146.560	248.257	-0.162	0.271
-145.545	-200.000	-0.016	-0.212
-144.531	-72.059	0.102	-0.037
-143.516	-130.644	-0.172	0.023
-142.502	384.040	0.077	-0.156
-141.487	-200.000	0.011	-0.189
-140.472	-64.667	0.166	-0.066
-139.458	27.628	-0.148	0.122
-138.443	-200.000	-0.032	0.216
-137.429	-45.020	0.118	-0.058
-136.414	41.654	-0.240	0.214
-135.399	312.332	-0.053	-0.097
-134.385	-200.000	0.085	-0.366
-133.370	125.317	0.065	0.081
-132.356	-200.000	0.013	0.173
-131.341	-200.000	-0.020	0.130
-130.326	-99.990	0.032	0.008
-129.312	-181.392	-0.167	0.003
-128.297	-131.628	-0.173	0.022
-127.283	-83.299	0.307	0.097
-126.268	441.005	-0.091	-0.196
-125.253	-104.591	-0.282	-0.064
-124.239	7.225	0.208	0.153
-123.224	-200.000	-0.045	0.211
-122.210	-200.000	-0.008	0.114
-121.195	-112.871	-0.570	0.111
