DTS Sentinel unit serial number:	SN413079Multiplexer serial number:	ORYXHardware model number:	OX4-SRSoftware version number:	ORYX F/W v4.00 Oryx Data Collector v3.7.2.0data status	okinstallation	princeton_trtdifferential loss correction	single-endedforward channel	channel 1reverse channel	N/Adate	2019/09/13time	01:26:35forward acquisition time	60.00reverse acquisition time	0.00gamma	496.2192k internal	0.2330k external	0.2330temperature offset calibration	1.0147default loss term (dB/km)	0.3790temperature slope calibration	1.0000multiplexer offset coefficient	1.0000multiplexer slope coefficient	1.0000fibre end	0.00T internal ref (°C)	27.81T ext. ref 1 (°C)	3.72T ext. ref 2 (°C)	22.40length (m)	temperature (°C)	Stokes	anti-Stokes-747.200	-161.943	-0.430	0.022
-746.185	-105.517	-0.183	0.042
-745.171	-200.000	0.101	0.548
-744.156	-88.479	-0.148	0.045
-743.142	-82.033	0.141	0.046
-742.127	120.403	-0.218	0.272
-741.112	-140.726	-0.318	0.033
-740.098	-200.000	-0.016	0.309
-739.083	135.365	0.109	0.142
-738.069	35.627	-0.054	0.048
-737.054	35.819	0.126	-0.112
-736.039	-158.415	-0.275	0.016
-735.025	86.919	-0.224	0.249
-734.010	42.041	-0.032	-0.029
-732.996	800.000	-0.100	-0.433
-731.981	800.000	0.039	-0.136
-730.966	-115.758	0.185	0.035
-729.952	-55.324	-0.080	0.036
-728.937	-97.901	-0.443	-0.115
-727.923	800.000	-0.082	-0.251
-726.908	405.673	-0.074	0.158
-725.894	39.479	-0.305	0.275
-724.879	-200.000	-0.011	0.084
-723.864	-200.000	0.010	0.101
-722.850	18.279	-0.250	-0.201
-721.835	-67.062	0.301	-0.119
-720.821	-200.000	-0.029	-0.160
-719.806	-78.275	0.122	0.042
-718.791	-60.327	0.323	0.138
-717.777	421.332	-0.109	-0.235
-716.762	-136.255	0.389	0.046
-715.748	132.598	-0.067	-0.087
-714.733	800.000	0.031	-0.089
-713.718	-61.296	-0.256	0.109
-712.704	-121.911	-0.154	0.025
-711.689	489.272	-0.086	0.198
-710.675	193.555	-0.212	0.323
-709.660	800.000	0.053	0.212
-708.645	-200.000	0.022	-0.102
-707.631	-64.637	-0.168	0.068
-706.616	-95.513	0.350	-0.094
-705.602	-8.928	-0.229	0.154
-704.587	-187.821	-0.300	-0.004
-703.572	-19.246	0.266	-0.166
-702.558	-31.101	0.083	-0.047
-701.543	800.000	0.077	-0.317
-700.529	-200.000	0.025	0.406
-699.514	-56.588	-0.183	-0.082
-698.499	143.600	-0.173	-0.232
-697.485	22.384	-0.099	-0.081
-696.470	-17.593	-0.174	0.110
-695.456	-200.000	-0.001	0.225
-694.441	800.000	0.086	-0.261
-693.426	-105.130	-0.189	-0.043
-692.412	-109.766	0.191	0.040
-691.397	712.592	-0.109	-0.290
-690.383	96.008	0.202	-0.232
-689.368	203.232	-0.123	-0.191
-688.354	-200.000	-0.066	-0.414
-687.339	-41.056	0.214	0.111
-686.324	72.037	-0.139	-0.145
-685.310	278.633	-0.185	-0.331
-684.295	-66.261	-0.085	-0.034
-683.281	800.000	0.065	-0.211
-682.266	-76.034	0.030	0.011
-681.251	127.046	-0.033	0.042
-680.237	-73.537	-0.392	-0.144
-679.222	-56.451	-0.186	0.083
-678.208	-131.245	-0.307	-0.041
-677.193	-200.000	0.040	-0.352
-676.178	-46.991	0.210	-0.103
-675.164	82.686	-0.237	-0.259
-674.149	133.512	0.094	-0.122
-673.135	800.000	-0.015	-0.048
-672.120	-200.000	0.012	0.084
-671.105	39.252	0.155	0.139
-670.091	27.790	0.265	-0.225
-669.076	-200.000	0.015	0.333
-668.062	-120.394	-0.319	0.054
-667.047	143.582	0.122	-0.164
-666.032	-6.391	-0.159	-0.109
-665.018	389.546	0.025	-0.052
-664.003	-77.625	-0.306	0.106
-662.989	119.696	-0.178	-0.222
-661.974	-52.724	0.156	-0.072
-660.959	774.475	0.053	-0.145
-659.945	50.100	0.154	-0.146
-658.930	642.443	-0.168	0.431
-657.916	41.984	0.076	0.069
-656.901	-200.000	-0.030	0.260
-655.886	124.920	0.139	0.175
-654.872	126.756	-0.215	0.273
-653.857	20.088	-0.239	0.193
-652.843	-178.196	-0.168	-0.004
-651.828	-88.478	0.231	0.069
-650.814	-73.658	-0.119	0.044
-649.799	95.781	0.179	-0.206
-648.784	565.183	-0.078	0.189
-647.770	47.092	-0.115	0.107
-646.755	-92.883	-0.174	-0.049
-645.741	-86.763	-0.068	-0.021
-644.726	800.000	-0.125	-0.424
-643.711	800.000	0.044	-0.174
-642.697	-194.272	0.259	0.002
-641.682	51.253	0.122	-0.116
-640.668	-200.000	0.092	-0.493
-639.653	-147.810	-0.509	0.043
-638.638	317.605	0.139	0.263
-637.624	800.000	0.031	-0.128
-636.609	-62.434	0.449	0.187
-635.595	796.473	-0.041	0.113
-634.580	-153.858	0.162	-0.011
-633.565	-200.000	0.000	-0.094
-632.551	-200.000	-0.044	0.411
-631.536	-54.211	0.072	0.033
-630.522	88.584	-0.164	-0.183
-629.507	-60.065	0.199	-0.085
-628.492	75.024	-0.111	0.117
-627.478	-65.668	0.029	-0.012
-626.463	-32.718	-0.129	0.072
-625.449	52.444	-0.125	0.120
-624.434	-200.000	-0.011	-0.060
-623.419	-85.364	-0.197	0.062
-622.405	-200.000	0.032	-0.300
-621.390	29.122	0.145	-0.124
-620.376	388.604	-0.088	-0.183
-619.361	-95.170	-0.074	-0.020
-618.346	4.668	0.223	-0.164
-617.332	191.464	0.090	0.136
-616.317	800.000	0.110	-0.370
-615.303	-200.000	-0.013	-0.154
-614.288	-59.130	-0.051	0.022
-613.273	329.859	-0.028	0.054
-612.259	-78.217	0.470	-0.162
-611.244	149.606	0.090	-0.123
-610.230	578.786	0.132	0.323
-609.215	4.034	0.135	0.099
-608.201	-200.000	0.023	-0.135
-607.186	92.835	0.141	-0.160
-606.171	-200.000	0.002	-0.073
-605.157	-200.000	-0.004	-0.246
-604.142	231.852	-0.128	0.210
-603.128	-46.941	-0.187	-0.091
-602.113	-200.000	0.012	-0.287
-601.098	281.106	0.085	0.152
-600.084	310.140	0.146	-0.273
-599.069	-200.000	-0.102	0.000
-598.055	775.673	0.072	-0.197
-597.040	-5.919	0.216	0.148
-596.025	-106.735	0.207	0.046
-595.011	276.903	0.173	-0.308
-593.996	-2.652	-0.437	-0.306
-592.982	61.523	-0.155	-0.155
-591.967	-70.647	-0.047	-0.018
-590.952	219.636	-0.189	0.302
-589.938	-200.000	0.012	-0.146
-588.923	-92.189	0.062	-0.017
-587.909	-107.180	0.236	0.052
-586.894	217.068	0.183	-0.291
-585.879	68.593	0.029	-0.030
-584.865	175.084	0.094	-0.136
-583.850	-160.453	-0.326	-0.017
-582.836	36.886	-0.087	-0.077
-581.821	-77.474	-0.161	-0.056
-580.806	-27.102	-0.044	0.026
-579.792	253.441	-0.142	0.242
-578.777	800.000	0.224	-0.630
-577.763	24.187	-0.191	0.157
-576.748	-200.000	-0.026	-0.119
-575.733	-200.000	-0.007	-0.069
-574.719	-116.315	-0.170	0.032
-573.704	-148.424	0.179	-0.015
-572.690	-200.000	0.023	-0.160
-571.675	221.734	-0.046	0.075
-570.661	31.748	0.180	0.155
-569.646	137.457	0.045	0.058
-568.631	-200.000	-0.004	0.368
-567.617	-153.740	-0.115	0.008
-566.602	20.180	-0.350	0.283
-565.588	73.700	0.241	0.252
-564.573	-70.797	0.045	-0.017
-563.558	76.964	-0.261	0.278
-562.544	375.727	0.108	0.220
-561.529	-200.000	-0.010	0.054
-560.515	-128.828	0.070	-0.010
-559.500	123.639	0.085	-0.107
-558.485	-55.832	-0.294	-0.131
-557.471	-51.531	-0.122	-0.057
-556.456	-30.561	0.030	-0.017
-555.442	800.000	0.039	-0.153
-554.427	2.904	0.244	-0.177
-553.412	-138.663	-0.112	0.012
-552.398	143.002	-0.188	-0.251
-551.383	-42.225	0.229	-0.117
-550.369	800.000	0.073	0.242
-549.354	144.023	0.288	0.383
-548.339	180.300	-0.149	-0.219
-547.325	800.000	-0.028	0.088
-546.310	-181.089	-0.220	-0.004
-545.296	272.957	0.152	0.269
-544.281	800.000	0.044	0.166
-543.266	800.000	0.050	0.165
-542.252	122.693	-0.263	0.328
-541.237	-56.833	0.297	-0.131
-540.223	-200.000	0.050	-0.232
-539.208	541.947	-0.186	-0.442
-538.193	62.318	-0.334	-0.333
-537.179	79.091	-0.207	-0.222
-536.164	-200.000	0.001	0.308
-535.150	430.450	0.136	0.293
-534.135	53.258	-0.243	-0.232
-533.121	-68.306	-0.298	0.116
-532.106	800.000	0.042	0.138
-531.091	-200.000	0.011	0.210
-530.077	65.548	-0.075	-0.076
-529.062	637.154	-0.103	-0.262
-528.048	167.520	-0.068	-0.096
-527.033	800.000	-0.148	0.441
-526.018	-77.916	0.086	0.030
-525.004	239.587	0.072	0.120
-523.989	-6.103	-0.170	0.116
-522.975	-200.000	0.009	-0.477
-521.960	-93.558	0.358	0.099
-520.945	-200.000	0.024	-0.296
-519.931	398.081	0.132	0.275
-518.916	70.566	0.088	-0.091
-517.902	-52.175	0.163	0.075
-516.887	-11.298	-0.208	-0.137
-515.872	-64.784	-0.067	0.027
-514.858	800.000	-0.046	-0.185
-513.843	800.000	0.050	0.172
-512.829	-86.602	-0.475	0.145
-511.814	800.000	-0.068	-0.207
-510.799	439.961	-0.130	-0.282
-509.785	27.738	-0.324	-0.272
-508.770	-200.000	0.034	0.389
-507.756	-15.179	-0.190	0.121
-506.741	-200.000	0.059	0.328
-505.726	-89.535	-0.360	0.105
-504.712	-187.984	0.486	0.006
-503.697	-115.309	0.248	-0.047
-502.683	-200.000	0.022	-0.170
-501.668	145.805	0.194	-0.259
-500.653	-6.338	0.090	0.062
-499.639	54.134	0.284	-0.273
-498.624	800.000	0.071	-0.296
-497.610	426.608	0.053	-0.114
-496.595	-200.000	-0.022	0.243
-495.581	-61.452	0.175	0.073
-494.566	-34.750	-0.277	0.151
-493.551	105.964	-0.173	0.205
-492.537	-79.112	-0.103	-0.035
-491.522	193.898	0.059	0.089
-490.508	-39.826	-0.136	0.071
-489.493	-14.353	0.143	0.092
-488.478	236.991	-0.091	0.151
-487.464	102.505	-0.117	0.136
-486.449	-80.899	-0.342	0.113
-485.435	-157.965	0.411	-0.024
-484.420	-78.814	-0.433	-0.147
-483.405	-114.972	-0.076	0.014
-482.391	800.000	0.042	0.144
-481.376	-174.536	-0.149	-0.004
-480.362	-103.589	-0.193	-0.045
-479.347	90.841	-0.146	0.164
-478.332	800.000	0.035	0.137
-477.318	505.472	-0.083	0.192
-476.303	490.921	0.132	0.300
-475.289	-20.844	-0.025	0.016
-474.274	-200.000	0.024	0.189
-473.259	800.000	0.049	0.171
-472.245	-200.000	-0.067	0.417
-471.230	68.760	0.062	0.063
-470.216	520.713	0.063	0.147
-469.201	-200.000	-0.002	-0.204
-468.186	276.069	-0.167	-0.296
-467.172	149.230	0.166	-0.223
-466.157	15.549	0.111	-0.087
-465.143	-89.309	-0.144	0.042
-464.128	-200.000	-0.012	-0.212
-463.113	13.507	0.299	0.231
-462.099	-86.975	0.188	0.057
-461.084	209.939	0.098	-0.153
-460.070	263.630	0.045	0.079
-459.055	261.964	0.180	0.311
-458.040	-69.997	-0.239	0.091
-457.026	367.775	-0.072	-0.145
-456.011	-50.222	-0.099	-0.047
-454.997	-200.000	0.013	-0.231
-453.982	800.000	0.069	0.296
-452.968	-94.285	0.351	0.096
-451.953	800.000	0.025	-0.107
-450.938	469.228	0.089	0.198
-449.924	-118.957	0.094	-0.016
-448.909	-100.575	-0.375	-0.092
-447.895	-105.994	0.313	-0.070
-446.880	28.734	0.445	0.375
-445.865	-200.000	-0.050	0.253
-444.851	-83.112	-0.218	-0.070
-443.836	-63.705	0.223	-0.091
-442.822	340.940	0.104	0.203
-441.807	-10.758	-0.417	-0.274
-440.792	-119.004	-0.374	-0.065
-439.778	-200.000	-0.048	0.233
-438.763	648.881	-0.128	0.326
-437.749	-142.436	-0.277	-0.027
-436.734	-50.426	-0.267	-0.125
-435.719	12.700	0.108	-0.083
-434.705	800.000	0.011	-0.039
-433.690	-5.466	0.313	-0.214
-432.676	124.042	-0.122	0.152
-431.661	-200.000	0.011	-0.176
-430.646	112.421	-0.073	0.088
-429.632	506.956	0.144	0.331
-428.617	96.456	-0.081	0.092
-427.603	800.000	0.047	0.155
-426.588	-133.365	-0.346	0.043
-425.573	585.870	0.053	-0.129
-424.559	-200.000	0.063	-0.454
-423.544	-41.000	0.078	0.040
-422.530	-114.574	-0.223	-0.042
-421.515	76.723	0.200	-0.211
-420.500	-99.044	0.332	0.084
-419.486	-200.000	0.072	0.404
-418.471	-35.469	-0.199	-0.107
-417.457	-200.000	0.047	0.248
-416.442	307.339	0.131	-0.242
-415.428	-200.000	-0.022	-0.172
-414.413	-200.000	0.004	0.043
-413.398	-200.000	0.031	-0.204
-412.384	800.000	0.036	-0.133
-411.369	-14.701	-0.327	0.209
-410.355	-200.000	0.054	0.336
-409.340	189.454	0.070	0.104
-408.325	-200.000	0.005	-0.062
-407.311	448.891	0.040	-0.088
-406.296	768.428	-0.078	-0.211
-405.282	420.041	0.111	-0.235
-404.267	89.548	-0.103	0.115
-403.252	63.396	-0.110	-0.110
-402.238	52.406	-0.047	0.045
-401.223	800.000	0.051	0.201
-400.209	-18.637	-0.093	0.058
-399.194	-144.668	-0.174	0.016
-398.179	65.194	-0.157	0.157
-397.165	-200.000	0.091	0.448
-396.150	-86.671	-0.217	0.066
-395.136	-200.000	-0.022	-0.195
-394.121	64.965	-0.076	-0.076
-393.106	-27.400	0.079	0.046
-392.092	-110.868	0.064	-0.013
-391.077	-97.028	-0.090	0.023
-390.063	550.116	-0.112	0.267
-389.048	435.286	-0.073	0.158
-388.033	0.608	0.006	-0.005
-387.019	-74.807	0.348	-0.124
-386.004	25.790	0.180	-0.149
-384.990	721.736	-0.070	0.186
-383.975	93.441	0.131	-0.148
-382.960	252.879	-0.126	-0.213
-381.946	-125.027	0.346	0.053
-380.931	-59.521	0.211	0.090
-379.917	-167.046	0.167	-0.007
-378.902	-37.180	-0.105	0.056
-377.888	263.261	0.068	0.117
-376.873	-84.184	-0.224	-0.070
-375.858	-157.514	-0.081	0.005
-374.844	657.473	0.091	0.231
-373.829	-55.046	0.065	0.029
-372.815	50.854	0.169	-0.158
-371.800	-200.000	0.023	0.321
-370.785	178.658	0.097	0.141
-369.771	-114.909	0.068	-0.013
-368.756	800.000	-0.053	0.206
-367.742	-200.000	0.020	-0.249
-366.727	452.677	-0.213	-0.468
-365.712	-200.000	0.049	0.236
-364.698	50.141	0.025	0.023
-363.683	-90.865	-0.335	0.096
-362.669	-36.447	-0.194	-0.104
-361.654	-90.924	-0.149	0.042
-360.639	-82.614	-0.324	0.104
-359.625	-100.126	-0.216	-0.053
-358.610	466.684	-0.084	-0.187
-357.596	733.307	0.040	0.106
-356.581	191.168	-0.034	-0.050
-355.566	30.977	0.165	0.140
-354.552	800.000	-0.055	-0.163
-353.537	252.062	0.054	-0.091
-352.523	-132.304	0.103	-0.013
-351.508	-36.538	-0.193	-0.103
-350.493	-200.000	-0.041	0.265
-349.479	-172.132	0.230	0.007
-348.464	-200.000	-0.014	-0.228
-347.450	-159.516	0.236	-0.013
-346.435	5.798	-0.229	0.168
-345.420	147.017	0.097	0.129
-344.406	-159.959	-0.235	-0.013
-343.391	800.000	0.092	-0.320
-342.377	376.670	0.129	0.262
-341.362	-200.000	-0.007	0.171
-340.348	290.402	-0.129	-0.233
-339.333	-31.654	-0.155	0.086
-338.318	-200.000	-0.043	0.461
-337.304	-155.494	-0.187	-0.012
-336.289	167.071	-0.164	-0.231
-335.275	-10.442	-0.275	-0.181
-334.260	2.541	0.109	0.078
-333.245	124.258	0.136	-0.169
-332.231	334.915	0.101	-0.194
-331.216	-57.009	0.212	0.092
-330.202	800.000	0.097	-0.302
-329.187	585.759	0.033	0.080
-328.172	-30.729	0.186	0.104
-327.158	-200.000	0.032	-0.293
-326.143	-60.386	0.169	-0.071
-325.129	482.071	0.213	-0.479
-324.114	16.712	0.109	0.086
-323.099	-87.805	0.281	0.084
-322.085	30.459	-0.129	-0.109
-321.070	-200.000	0.017	0.255
-320.056	-137.189	0.411	-0.046
-319.041	-22.133	0.135	-0.081
-318.026	-118.469	-0.359	-0.063
-317.012	-58.096	-0.216	-0.093
-315.997	59.268	-0.075	-0.073
-314.983	-125.842	0.229	-0.034
-313.968	364.753	0.110	0.219
-312.953	-67.383	-0.317	0.123
-311.939	-200.000	0.027	-0.157
-310.924	217.296	0.131	-0.206
-309.910	-200.000	-0.066	0.306
-308.895	-91.358	-0.197	-0.056
-307.880	-121.488	0.263	0.043
-306.866	-200.000	0.080	-0.382
-305.851	110.942	0.089	0.106
-304.837	191.436	-0.117	0.175
-303.822	14.415	-0.005	0.004
-302.807	-0.592	-0.051	0.036
-301.793	-33.998	-0.321	-0.175
-300.778	182.685	-0.087	0.128
-299.764	-200.000	0.034	0.163
-298.749	26.545	-0.274	-0.227
-297.735	-63.694	-0.075	0.030
-296.720	-200.000	-0.021	0.143
-295.705	77.185	0.196	-0.206
-294.691	-23.221	0.237	-0.141
-293.676	89.375	0.079	0.087
-292.662	800.000	-0.052	0.221
-291.647	647.708	0.072	0.182
-290.632	-58.602	-0.147	0.063
-289.618	-200.000	0.015	-0.086
-288.603	-200.000	0.026	-0.292
-287.589	425.186	-0.012	0.026
-286.574	135.974	-0.089	0.115
-285.559	287.008	0.090	-0.160
-284.545	800.000	-0.074	0.212
-283.530	543.232	-0.111	-0.262
-282.516	56.672	0.109	-0.105
-281.501	-9.480	-0.206	-0.136
-280.486	137.417	-0.063	-0.081
-279.472	-45.832	-0.138	-0.068
-278.457	800.000	0.097	-0.321
-277.443	-75.972	0.177	-0.062
-276.428	-122.757	0.188	-0.030
-275.413	-51.466	-0.169	-0.078
-274.399	-55.636	0.475	-0.210
-273.384	-200.000	0.053	0.329
-272.370	800.000	-0.033	0.132
-271.355	-36.284	-0.321	0.171
-270.340	-126.383	-0.443	0.065
-269.326	-78.985	0.066	0.022
-268.311	103.039	0.082	-0.095
-267.297	62.035	-0.073	0.071
-266.282	-94.850	-0.198	-0.053
-265.267	-9.681	-0.117	-0.077
-264.253	-103.254	0.143	0.033
-263.238	-120.821	0.352	0.059
-262.224	-200.000	-0.075	-0.577
-261.209	17.343	-0.060	0.047
-260.195	296.587	0.063	-0.114
-259.180	-105.956	0.187	-0.042
-258.165	307.551	-0.102	-0.188
-257.151	-200.000	0.605	0.003
-256.136	148.192	0.143	-0.191
-255.122	234.599	-0.235	0.383
-254.107	-17.114	-0.076	0.047
-253.092	683.411	-0.116	0.300
-252.078	-27.869	-0.044	-0.025
-251.063	-82.988	-0.275	0.088
-250.049	5.634	-0.247	-0.180
-249.034	503.750	0.027	-0.061
-248.019	-100.117	-0.270	-0.066
-247.005	-200.000	-0.013	0.220
-245.990	-35.206	0.160	0.086
-244.976	216.858	0.164	-0.258
-243.961	-65.778	0.128	-0.051
-242.946	800.000	0.053	-0.212
-241.932	-161.549	-0.051	0.003
-240.917	-200.000	0.048	0.217
-239.903	500.387	0.077	0.176
-238.888	-166.005	0.087	-0.004
-237.873	800.000	-0.126	0.390
-236.859	373.597	-0.028	0.056
-235.844	-154.474	0.114	-0.008
-234.830	800.000	-0.056	-0.225
-233.815	-81.174	0.101	0.033
-232.800	-136.166	-0.176	0.020
-231.786	-156.963	-0.124	0.007
-230.771	171.217	-0.208	-0.295
-229.757	-45.675	0.220	0.107
-228.742	-200.000	0.004	0.376
-227.727	35.165	0.061	0.053
-226.713	132.737	0.115	-0.146
-225.698	631.195	0.099	-0.246
-224.684	10.966	0.235	0.177
-223.669	-133.406	-0.228	0.028
-222.655	79.950	-0.104	-0.111
-221.640	508.728	0.045	-0.102
-220.625	-15.832	0.153	0.096
-219.611	-200.000	-0.079	0.393
-218.596	175.465	0.100	-0.143
-217.582	9.807	0.184	0.138
-216.567	-200.000	0.047	-0.367
-215.552	-173.138	0.175	-0.005
-214.538	207.515	0.073	0.112
-213.523	103.230	-0.132	0.152
-212.509	800.000	-0.072	0.219
-211.494	800.000	-0.063	-0.210
-210.479	256.279	-0.176	-0.297
-209.465	-200.000	0.063	-0.301
-208.450	-46.016	0.359	-0.175
-207.436	-200.000	0.006	-0.085
-206.421	-108.705	0.242	-0.051
-205.406	-54.797	-0.202	0.090
-204.392	33.689	0.311	-0.267
-203.377	-56.808	-0.251	0.110
-202.363	57.702	-0.087	0.084
-201.348	98.526	0.112	0.128
-200.333	-200.000	0.002	-0.120
-199.319	209.712	-0.033	0.050
-198.304	-200.000	-0.035	0.195
-197.290	-200.000	0.071	0.480
-196.275	63.475	-0.154	-0.152
-195.260	-59.805	0.115	-0.049
-194.246	-193.117	-0.149	-0.001
-193.231	214.360	-0.069	-0.108
-192.217	800.000	-0.072	-0.209
-191.202	-166.886	0.273	0.011
-190.187	800.000	-0.042	-0.176
-189.173	-200.000	0.034	0.181
-188.158	-106.721	-0.141	0.031
-187.144	495.247	-0.063	-0.143
-186.129	182.545	0.154	-0.224
-185.114	-17.815	0.418	-0.259
-184.100	-200.000	-0.067	0.293
-183.085	226.792	-0.140	-0.224
-182.071	521.234	-0.059	0.137
-181.056	-117.711	0.048	0.009
-180.042	321.466	0.127	0.238
-179.027	-200.000	-0.087	0.400
-178.012	-140.700	0.060	-0.006
-176.998	-144.370	-0.192	0.018
-175.983	-102.610	0.202	0.048
-174.969	-200.000	0.043	0.386
-173.954	-200.000	-0.010	-0.356
-172.939	457.628	0.112	0.244
-171.925	-70.912	0.264	0.098
-170.910	596.809	0.040	0.099
-169.896	-200.000	0.026	0.244
-168.881	524.198	0.071	0.164
-167.866	-90.475	-0.287	-0.082
-166.852	-80.898	-0.128	0.042
-165.837	-141.554	0.267	-0.027
-164.823	-141.807	0.300	0.030
-163.808	-132.900	-0.257	0.032
-162.793	-8.856	0.019	0.013
-161.779	78.146	-0.365	-0.383
-160.764	-200.000	0.006	-0.136
-159.750	-200.000	0.012	-0.062
-158.735	800.000	0.048	0.167
-157.720	-94.957	-0.131	0.035
-156.706	562.045	-0.066	0.157
-155.691	449.569	-0.080	0.174
-154.677	5.677	0.127	0.092
-153.662	3.536	0.186	0.133
-152.647	117.578	0.097	0.117
-151.633	-43.672	0.168	-0.083
-150.618	-200.000	-0.017	0.098
-149.604	-200.000	-0.019	0.237
-148.589	-7.826	-0.086	-0.057
-147.574	-147.449	0.211	0.018
-146.560	-77.010	0.018	-0.006
-145.545	61.562	0.101	0.099
-144.531	745.610	0.056	0.147
-143.516	-200.000	0.022	-0.270
-142.502	80.143	-0.178	0.189
-141.487	-200.000	0.024	0.173
-140.472	-104.150	-0.151	-0.035
-139.458	-89.811	0.310	0.089
-138.443	163.179	-0.160	0.221
-137.429	-41.740	0.327	-0.165
-136.414	498.007	0.023	0.051
-135.399	800.000	0.010	-0.027
-134.385	49.247	0.084	0.077
-133.370	-80.804	0.096	-0.031
-132.356	15.307	0.111	-0.085
-131.341	-26.986	0.317	-0.182
-130.326	-28.384	0.173	-0.098
-129.312	-4.366	0.080	0.054
-128.297	-149.741	-0.286	-0.022
-127.283	69.845	0.257	0.260
-126.268	4.388	-0.058	-0.042
-125.253	379.855	0.102	0.206
-124.239	800.000	0.052	-0.218
-123.224	205.198	-0.224	-0.341
-122.210	-200.000	0.014	0.222
-121.195	-200.000	-0.024	-0.147
-120.180	-58.979	0.268	-0.114
