DTS Sentinel unit serial number:	SN413079Multiplexer serial number:	ORYXHardware model number:	OX4-SRSoftware version number:	ORYX F/W v4.00 Oryx Data Collector v3.7.2.0data status	okinstallation	princeton_trtdifferential loss correction	single-endedforward channel	channel 1reverse channel	N/Adate	2019/09/13time	04:22:35forward acquisition time	60.00reverse acquisition time	0.00gamma	496.2192k internal	0.2334k external	0.2334temperature offset calibration	1.0157default loss term (dB/km)	0.3790temperature slope calibration	1.0000multiplexer offset coefficient	1.0000multiplexer slope coefficient	1.0000fibre end	0.00T internal ref (°C)	26.78T ext. ref 1 (°C)	4.04T ext. ref 2 (°C)	21.18length (m)	temperature (°C)	Stokes	anti-Stokes-747.200	292.047	0.042	0.077
-746.185	-200.000	0.017	0.147
-745.171	355.855	-0.050	0.099
-744.156	20.183	0.079	0.064
-743.142	-144.890	-0.235	0.022
-742.127	335.761	-0.144	0.281
-741.112	800.000	-0.059	0.164
-740.098	-4.048	-0.306	-0.213
-739.083	800.000	-0.031	0.114
-738.069	235.573	-0.136	0.226
-737.054	-97.986	0.265	0.069
-736.039	800.000	0.038	0.158
-735.025	-200.000	0.027	0.413
-734.010	-200.000	-0.037	0.184
-732.996	-9.909	-0.216	0.144
-731.981	257.460	-0.089	-0.154
-730.966	6.018	-0.129	-0.096
-729.952	22.560	0.112	0.092
-728.937	-93.053	-0.105	0.029
-727.923	-200.000	-0.056	-0.347
-726.908	15.696	-0.197	-0.156
-725.894	738.611	-0.128	-0.344
-724.879	-35.529	-0.146	0.080
-723.864	221.029	-0.138	0.223
-722.850	2.189	0.177	-0.128
-721.835	491.575	-0.126	-0.291
-720.821	800.000	-0.038	0.159
-719.806	304.613	0.094	-0.176
-718.791	282.895	-0.120	-0.216
-717.777	109.501	-0.101	-0.121
-716.762	800.000	-0.089	0.346
-715.748	-79.633	-0.219	-0.074
-714.733	31.248	-0.112	0.097
-713.718	-109.628	-0.264	0.056
-712.704	488.781	0.149	-0.342
-711.689	558.933	-0.106	0.257
-710.675	19.947	0.307	-0.248
-709.660	124.015	-0.211	-0.267
-708.645	224.772	-0.117	-0.190
-707.631	413.350	-0.052	-0.111
-706.616	72.294	0.151	0.158
-705.602	278.873	-0.120	-0.215
-704.587	-77.658	-0.081	-0.028
-703.572	-200.000	-0.011	-0.411
-702.558	54.823	-0.341	0.331
-701.543	-36.659	0.266	-0.144
-700.529	63.573	-0.131	-0.132
-699.514	318.996	0.052	-0.099
-698.499	-42.521	-0.183	0.094
-697.485	-200.000	-0.021	-0.182
-696.470	-97.752	-0.268	-0.070
-695.456	-153.909	-0.246	-0.017
-694.441	-104.570	-0.211	0.049
-693.426	236.858	0.170	-0.282
-692.412	800.000	-0.013	0.051
-691.397	-200.000	-0.004	0.180
-690.383	-66.815	-0.293	-0.116
-689.368	485.413	0.127	-0.289
-688.354	-140.416	-0.224	-0.023
-687.339	235.607	0.064	0.106
-686.324	-200.000	-0.040	0.336
-685.310	446.173	-0.231	-0.510
-684.295	800.000	-0.121	-0.391
-683.281	252.448	-0.285	-0.487
-682.266	-200.000	-0.057	0.401
-681.251	-125.951	0.295	-0.045
-680.237	43.821	0.031	-0.028
-679.222	17.905	0.220	-0.176
-678.208	349.168	-0.092	-0.183
-677.193	18.784	0.102	-0.082
-676.178	-168.257	0.157	-0.006
-675.164	-23.761	-0.491	0.295
-674.149	35.004	-0.267	-0.234
-673.135	-200.000	-0.025	0.122
-672.120	3.426	-0.054	-0.040
-671.105	-200.000	0.034	-0.211
-670.091	-59.447	-0.303	0.130
-669.076	-200.000	0.004	-0.072
-668.062	-183.920	-0.345	0.006
-667.047	-200.000	-0.006	-0.341
-666.032	-137.881	-0.315	-0.035
-665.018	-200.000	0.065	0.293
-664.003	-200.000	0.045	0.203
-662.989	-39.286	-0.281	0.148
-661.974	5.949	-0.034	0.025
-660.959	-52.132	-0.367	-0.171
-659.945	9.676	-0.259	-0.197
-658.930	800.000	-0.036	0.118
-657.916	86.300	0.139	-0.153
-656.901	800.000	0.050	-0.160
-655.886	-200.000	-0.010	0.083
-654.872	59.969	0.233	-0.231
-653.857	35.203	-0.061	0.054
-652.843	800.000	0.021	0.085
-651.828	176.048	-0.179	-0.260
-650.814	800.000	0.053	0.163
-649.799	393.058	-0.030	-0.063
-648.784	8.974	0.068	-0.052
-647.770	8.654	0.503	-0.379
-646.755	-114.717	-0.177	-0.034
-645.741	800.000	-0.148	0.499
-644.726	118.283	0.233	0.288
-643.711	200.929	0.174	-0.268
-642.697	-170.286	-0.230	-0.008
-641.682	-200.000	0.055	-0.383
-640.668	-200.000	0.076	-0.498
-639.653	250.518	-0.037	0.064
-638.638	-200.000	0.079	0.371
-637.624	-184.435	-0.174	0.003
-636.609	-200.000	0.029	0.274
-635.595	-196.953	-0.027	0.000
-634.580	53.005	0.209	-0.200
-633.565	-200.000	-0.013	0.462
-632.551	-200.000	-0.028	-0.304
-631.536	-34.586	0.102	-0.056
-630.522	208.189	-0.238	-0.373
-629.507	-81.843	-0.210	-0.069
-628.492	-114.765	0.100	-0.019
-627.478	-200.000	-0.021	0.149
-626.463	4.421	-0.200	0.147
-625.449	-11.174	-0.149	0.098
-624.434	-200.000	-0.004	0.385
-623.419	-44.011	0.429	-0.216
-622.405	79.373	0.205	-0.220
-621.390	-121.708	-0.135	0.022
-620.376	-200.000	-0.008	-0.213
-619.361	22.892	-0.164	-0.134
-618.346	-200.000	0.006	-0.147
-617.332	-22.875	-0.211	-0.127
-616.317	133.134	0.122	-0.158
-615.303	-94.076	-0.326	-0.090
-614.288	-26.019	0.133	0.078
-613.273	-43.879	-0.139	0.070
-612.259	-200.000	-0.012	-0.150
-611.244	-175.014	-0.225	0.006
-610.230	348.492	0.081	-0.161
-609.215	-60.582	-0.318	0.135
-608.201	-200.000	-0.002	-0.201
-607.186	40.241	0.226	-0.203
-606.171	-8.150	0.195	-0.132
-605.157	61.501	-0.176	-0.175
-604.142	674.218	-0.112	-0.291
-603.128	-155.704	-0.296	-0.019
-602.113	800.000	0.100	-0.353
-601.098	800.000	-0.047	-0.136
-600.084	800.000	0.064	0.208
-599.069	-200.000	0.029	-0.170
-598.055	-32.544	-0.137	0.076
-597.040	-86.568	0.201	0.062
-596.025	-151.966	0.316	0.023
-595.011	-173.373	0.226	0.007
-593.996	258.468	-0.059	-0.101
-592.982	135.008	-0.148	-0.192
-591.967	82.096	-0.097	-0.105
-590.952	64.487	0.152	-0.153
-589.938	-113.610	0.229	-0.045
-588.923	-200.000	0.000	0.148
-587.909	457.778	-0.016	0.035
-586.894	-66.761	0.060	-0.024
-585.879	435.738	0.138	-0.301
-584.865	353.918	-0.144	0.287
-583.850	84.586	0.187	0.204
-582.836	-10.120	0.328	0.218
-581.821	-4.464	0.291	0.201
-580.806	-123.355	-0.097	-0.015
-579.792	210.749	0.057	0.089
-578.777	-33.172	-0.074	-0.041
-577.763	122.644	-0.006	-0.008
-576.748	145.446	-0.198	0.264
-575.733	800.000	-0.049	0.171
-574.719	-148.001	-0.274	-0.023
-573.704	-47.111	-0.138	-0.067
-572.690	31.267	-0.234	-0.200
-571.675	-109.004	-0.268	0.057
-570.661	137.396	-0.187	-0.244
-569.646	-28.641	0.081	0.047
-568.631	-182.055	0.117	-0.002
-567.617	25.117	0.111	-0.092
-566.602	-37.980	0.101	-0.053
-565.588	-2.639	-0.211	0.147
-564.573	-166.666	-0.319	-0.013
-563.558	-177.762	0.337	-0.008
-562.544	-163.306	0.343	0.016
-561.529	75.029	0.073	0.077
-560.515	98.455	0.189	-0.217
-559.500	199.912	0.086	0.132
-558.485	117.270	-0.257	0.315
-557.471	95.210	0.100	0.114
-556.456	111.172	0.080	0.096
-555.442	50.127	-0.245	-0.231
-554.427	112.550	-0.149	0.180
-553.412	59.321	-0.126	-0.124
-552.398	383.377	0.139	-0.285
-551.383	-152.831	-0.279	-0.020
-550.369	-81.559	-0.100	0.033
-549.354	-200.000	-0.023	-0.212
-548.339	-13.388	-0.438	0.284
-547.325	-17.587	0.263	-0.165
-546.310	110.241	-0.064	0.076
-545.296	800.000	-0.024	-0.077
-544.281	-21.787	-0.212	0.129
-543.266	-57.194	-0.140	0.061
-542.252	-200.000	0.054	-0.261
-541.237	-125.000	-0.182	0.028
-540.223	62.133	-0.230	0.229
-539.208	169.328	0.168	0.239
-538.193	139.874	0.119	0.156
-537.179	800.000	0.036	-0.143
-536.164	-200.000	-0.073	0.502
-535.150	3.378	0.282	0.205
-534.135	9.773	0.152	-0.115
-533.121	338.715	-0.240	-0.466
-532.106	-40.466	0.050	-0.026
-531.091	-157.054	-0.080	-0.005
-530.077	-35.678	-0.125	-0.068
-529.062	-11.516	-0.175	-0.115
-528.048	14.587	-0.106	-0.082
-527.033	-75.447	-0.166	-0.059
-526.018	-200.000	-0.022	-0.284
-525.004	-110.928	0.048	0.010
-523.989	356.809	0.137	-0.272
-522.975	55.622	0.011	0.010
-521.960	-96.613	-0.136	0.036
-520.945	-160.688	0.088	0.005
-519.931	-150.787	0.067	0.005
-518.916	549.050	0.086	0.206
-517.902	58.917	0.172	0.168
-516.887	-95.215	0.210	-0.056
-515.872	534.298	0.142	0.335
-514.858	-200.000	0.007	0.173
-513.843	-7.913	-0.141	0.095
-512.829	800.000	-0.078	-0.255
-511.814	800.000	-0.071	-0.285
-510.799	92.736	-0.120	-0.135
-509.785	-97.203	0.106	-0.027
-508.770	365.967	-0.041	0.082
-507.756	96.478	-0.236	0.269
-506.741	-200.000	0.015	0.150
-505.726	-200.000	0.012	-0.102
-504.712	-56.146	-0.213	0.094
-503.697	164.189	0.104	-0.145
-502.683	85.629	0.212	-0.232
-501.668	800.000	0.083	0.274
-500.653	-195.909	-0.155	0.001
-499.639	-200.000	-0.013	-0.131
-498.624	175.861	-0.108	0.157
-497.610	177.614	0.176	-0.255
-496.595	-107.806	-0.224	-0.049
-495.581	-74.172	0.204	0.073
-494.566	-62.701	-0.224	-0.092
-493.551	-78.210	0.152	0.052
-492.537	-5.538	-0.185	-0.126
-491.522	-200.000	0.008	0.464
-490.508	-182.939	-0.130	-0.002
-489.493	118.220	-0.041	0.050
-488.478	-34.725	-0.281	0.153
-487.464	28.965	-0.091	0.076
-486.449	157.903	-0.116	-0.160
-485.435	636.885	-0.071	0.180
-484.420	41.354	0.160	0.144
-483.405	-176.599	-0.111	0.003
-482.391	-156.089	0.313	-0.020
-481.376	-200.000	0.097	-0.511
-480.362	365.131	-0.048	0.097
-479.347	550.702	-0.060	0.143
-478.332	-200.000	-0.023	-0.155
-477.318	53.190	-0.149	0.142
-476.303	674.297	0.107	0.275
-475.289	-16.726	0.259	-0.163
-474.274	-88.531	0.109	-0.032
-473.259	269.067	0.211	0.369
-472.245	-96.405	-0.303	-0.080
-471.230	204.349	-0.136	0.210
-470.216	-45.691	0.179	-0.088
-469.201	-12.441	-0.218	-0.142
-468.186	800.000	-0.072	-0.241
-467.172	71.392	0.107	-0.111
-466.157	315.675	-0.135	0.253
-465.143	74.512	0.034	0.036
-464.128	-119.024	0.092	-0.016
-463.113	-91.197	-0.259	0.074
-462.099	106.499	-0.169	0.199
-461.084	-40.043	-0.349	-0.181
-460.070	-189.705	0.318	0.004
-459.055	-5.801	0.159	0.108
-458.040	62.317	-0.324	0.321
-457.026	-200.000	-0.011	0.385
-456.011	-200.000	-0.025	0.437
-454.997	-109.373	-0.195	-0.041
-453.982	12.937	-0.294	0.226
-452.968	-200.000	0.023	-0.303
-451.953	241.259	-0.059	0.098
-450.938	-169.002	0.065	0.002
-449.924	64.951	-0.105	-0.106
-448.909	56.451	0.052	-0.050
-447.895	-67.635	0.160	0.062
-446.880	-200.000	-0.036	0.264
-445.865	-84.937	0.066	0.021
-444.851	-118.896	0.119	0.021
-443.836	-200.000	0.007	-0.257
-442.822	383.632	-0.081	0.165
-441.807	800.000	0.033	0.107
-440.792	-34.882	-0.246	-0.133
-439.778	-10.449	-0.331	0.218
-438.763	-83.114	-0.083	0.026
-437.749	-200.000	-0.002	0.350
-436.734	7.238	0.206	0.153
-435.719	69.392	0.110	0.113
-434.705	-21.886	-0.264	0.159
-433.690	207.052	-0.069	-0.107
-432.676	278.059	0.125	0.222
-431.661	37.436	-0.293	0.258
-430.646	-15.137	-0.066	0.042
-429.632	-200.000	-0.010	-0.554
-428.617	-51.990	0.287	-0.133
-427.603	-64.495	0.195	0.079
-426.588	362.305	0.029	-0.057
-425.573	-119.818	-0.362	-0.062
-424.559	676.158	-0.042	-0.109
-423.544	-50.443	0.163	-0.076
-422.530	-200.000	0.000	-0.361
-421.515	191.871	0.108	-0.162
-420.500	54.186	-0.217	-0.207
-419.486	0.231	0.221	-0.157
-418.471	-80.275	0.255	-0.085
-417.457	-200.000	0.003	0.149
-416.442	-200.000	-0.036	-0.205
-415.428	-10.077	0.018	0.012
-414.413	643.528	0.097	0.247
-413.398	123.044	0.112	-0.139
-412.384	14.901	-0.142	-0.110
-411.369	-200.000	0.028	-0.312
-410.355	157.259	-0.159	-0.218
-409.340	-173.430	-0.255	0.008
-408.325	20.647	0.296	-0.238
-407.311	139.721	0.178	0.233
-406.296	-167.093	0.448	-0.018
-405.282	-200.000	-0.017	-0.160
-404.267	382.395	0.209	0.427
-403.252	-200.000	0.033	0.177
-402.238	-67.634	0.212	0.082
-401.223	29.222	-0.213	0.180
-400.209	-120.004	-0.210	0.036
-399.194	694.517	-0.046	-0.120
-398.179	268.524	0.043	-0.075
-397.165	800.000	-0.049	0.202
-396.150	680.949	0.176	0.455
-395.136	-200.000	-0.030	0.185
-394.121	-200.000	0.069	-0.379
-393.106	-148.645	0.246	-0.020
-392.092	-200.000	-0.054	0.397
-391.077	20.989	-0.085	0.069
-390.063	167.220	-0.102	-0.143
-389.048	-100.397	-0.229	0.056
-388.033	-114.212	-0.275	0.053
-387.019	-186.664	-0.389	-0.005
-386.004	-59.768	0.166	0.070
-384.990	-144.006	0.205	-0.019
-383.975	188.415	-0.039	-0.058
-382.960	121.810	-0.272	0.337
-381.946	447.284	0.034	-0.074
-380.931	32.612	0.191	-0.164
-379.917	145.563	-0.145	-0.192
-378.902	633.626	-0.083	-0.209
-377.888	-28.537	0.200	0.114
-376.873	-19.350	0.156	-0.096
-375.858	-121.589	-0.131	0.022
-374.844	37.185	0.296	0.260
-373.829	-77.957	-0.305	-0.104
-372.815	-32.215	0.197	0.109
-371.800	-126.690	0.246	0.036
-370.785	-200.000	-0.081	-0.685
-369.771	-6.668	-0.323	0.218
-368.756	-110.167	-0.187	-0.039
-367.742	260.150	0.049	-0.083
-366.727	199.011	0.075	-0.114
-365.712	-9.760	-0.269	-0.177
-364.698	-200.000	0.023	-0.272
-363.683	33.534	0.106	-0.091
-362.669	-55.047	-0.159	0.071
-361.654	288.079	-0.063	-0.113
-360.639	295.785	0.115	0.209
-359.625	-135.603	-0.260	0.031
-358.610	-156.409	0.218	-0.013
-357.596	-68.949	0.025	0.010
-356.581	726.138	0.103	-0.271
-355.566	-115.102	0.119	-0.022
-354.552	336.908	0.049	0.095
-353.537	-100.472	-0.271	-0.066
-352.523	12.925	-0.326	-0.250
-351.508	100.477	-0.044	0.050
-350.493	800.000	0.007	0.022
-349.479	-200.000	0.066	0.311
-348.464	13.473	-0.187	-0.143
-347.450	-127.800	0.239	0.034
-346.435	-200.000	0.006	0.283
-345.420	-16.141	0.211	0.133
-344.406	110.409	-0.099	-0.117
-343.391	40.352	-0.186	0.166
-342.377	-109.476	0.241	0.050
-341.362	-155.208	-0.317	-0.020
-340.348	380.416	0.050	-0.102
-339.333	-165.043	-0.128	-0.006
-338.318	259.220	0.152	-0.259
-337.304	274.060	0.141	0.246
-336.289	-146.586	0.243	-0.021
-335.275	-58.450	-0.102	-0.044
-334.260	800.000	-0.043	0.151
-333.245	-101.591	-0.137	0.033
-332.231	131.864	0.161	-0.206
-331.216	143.238	0.166	0.218
-330.202	347.965	-0.126	0.246
-329.187	412.059	0.115	0.241
-328.172	-65.497	-0.238	-0.094
-327.158	28.600	-0.220	0.184
-326.143	-116.799	0.366	-0.066
-325.129	-200.000	0.004	-0.170
-324.114	34.049	-0.332	-0.286
-323.099	-22.199	0.278	-0.167
-322.085	63.306	0.160	-0.158
-321.070	372.855	-0.160	0.321
-320.056	-16.712	0.106	0.066
-319.041	-113.630	-0.190	-0.037
-318.026	-200.000	-0.060	0.329
-317.012	-122.101	0.234	-0.038
-315.997	535.314	0.065	0.153
-314.983	-6.686	-0.241	-0.162
-313.968	5.991	-0.197	-0.144
-312.953	410.994	0.159	-0.333
-311.939	284.538	-0.144	0.256
-310.924	-154.309	0.111	-0.007
-309.910	-76.213	-0.127	0.044
-308.895	401.289	-0.111	-0.231
-307.880	170.630	0.003	0.005
-306.866	111.362	0.112	-0.133
-305.851	-45.865	-0.235	0.114
-304.837	208.053	0.179	0.276
-303.822	-49.618	0.022	-0.010
-302.807	-35.973	0.116	0.062
-301.793	416.106	0.041	0.086
-300.778	118.152	-0.158	-0.193
-299.764	406.264	0.090	0.187
-298.749	78.543	0.190	0.201
-297.735	-83.680	0.064	-0.020
-296.720	-76.951	0.092	-0.032
-295.705	-200.000	0.264	0.001
-294.691	-68.831	-0.212	-0.081
-293.676	-20.875	0.284	0.172
-292.662	202.983	0.200	-0.305
-291.647	-81.297	0.296	-0.097
-290.632	712.313	0.040	-0.105
-289.618	32.963	0.101	-0.086
-288.603	-183.450	0.285	-0.005
-287.589	-200.000	-0.017	0.134
-286.574	315.988	-0.098	0.182
-285.559	-159.622	-0.116	-0.006
-284.545	-44.805	0.461	-0.227
-283.530	-92.891	-0.085	-0.024
-282.516	-146.639	-0.252	0.022
-281.501	230.025	0.088	0.142
-280.486	106.578	-0.273	0.319
-279.472	13.596	-0.009	-0.007
-278.457	-200.000	0.015	0.221
-277.443	122.076	-0.099	0.122
-276.428	-50.839	-0.088	-0.041
-275.413	-41.976	0.233	-0.118
-274.399	-37.157	0.095	-0.050
-273.384	-200.000	0.009	0.131
-272.370	481.414	-0.034	-0.076
-271.355	153.712	0.041	0.056
-270.340	-200.000	-0.017	-0.445
-269.326	296.754	0.094	-0.170
-268.311	597.391	0.124	-0.302
-267.297	-4.791	0.177	-0.120
-266.282	422.079	-0.229	-0.485
-265.267	-200.000	-0.061	-0.487
-264.253	33.115	-0.050	-0.043
-263.238	-69.381	0.287	-0.109
-262.224	-200.000	-0.020	-0.179
-261.209	321.571	-0.190	0.356
-260.195	800.000	-0.197	-0.545
-259.180	-185.164	-0.400	0.006
-258.165	66.099	0.082	0.082
-257.151	-200.000	0.054	0.416
-256.136	-55.931	-0.214	0.094
-255.122	-98.114	-0.163	0.041
-254.107	800.000	0.087	-0.248
-253.092	-200.000	-0.004	-0.281
-252.078	-20.634	0.055	-0.033
-251.063	-48.281	0.353	0.168
-250.049	-72.842	0.234	0.085
-249.034	-200.000	-0.008	-0.213
-248.019	-116.581	0.077	0.014
-247.005	53.788	0.094	0.089
-245.990	-39.135	-0.114	0.059
-244.976	-33.677	0.224	-0.122
-243.961	11.074	0.158	0.119
-242.946	374.841	-0.114	-0.229
-241.932	800.000	0.116	-0.482
-240.917	-41.620	-0.035	-0.018
-239.903	193.727	0.154	0.229
-238.888	800.000	-0.033	-0.140
-237.873	213.603	-0.083	-0.129
-236.859	358.146	0.065	-0.128
-235.844	800.000	0.055	0.181
-234.830	-200.000	-0.101	0.457
-233.815	-119.676	0.121	0.021
-232.800	-106.490	0.226	-0.050
-231.786	-134.007	0.206	-0.025
-230.771	-200.000	0.058	0.347
-229.757	360.838	0.087	-0.172
-228.742	-100.996	-0.052	0.013
-227.727	800.000	0.052	-0.199
-226.713	-175.287	-0.238	0.006
-225.698	-146.474	-0.262	0.022
-224.684	45.584	-0.184	0.168
-223.669	-117.340	-0.304	0.054
-222.655	502.034	-0.043	0.098
-221.640	-200.000	0.009	-0.044
-220.625	184.587	0.069	-0.100
-219.611	-120.727	0.423	0.070
-218.596	33.772	-0.274	-0.235
-217.582	-135.981	0.157	0.018
-216.567	240.195	0.056	-0.091
-215.552	462.020	0.113	-0.248
-214.538	136.487	-0.144	0.185
-213.523	207.858	-0.190	-0.293
-212.509	298.870	0.105	0.189
-211.494	-104.632	0.418	0.095
-210.479	-38.077	-0.373	-0.195
-209.465	53.646	0.107	-0.101
-208.450	-81.003	0.129	-0.042
-207.436	-200.000	0.011	-0.197
-206.421	-98.985	0.411	0.103
-205.406	800.000	0.024	-0.101
-204.392	14.644	-0.255	0.196
-203.377	-200.000	-0.007	0.107
-202.363	278.634	-0.138	0.243
-201.348	-124.721	0.113	0.017
-200.333	-15.550	-0.281	-0.177
-199.319	-119.761	-0.420	-0.071
-198.304	-64.077	0.340	0.137
-197.290	224.271	0.075	0.119
-196.275	182.750	-0.254	0.368
-195.260	623.633	-0.055	0.136
-194.246	-144.257	-0.153	-0.014
-193.231	206.195	0.111	0.170
-192.217	-108.205	-0.201	0.043
-191.202	-59.566	0.333	0.140
-190.187	-200.000	0.028	-0.236
-189.173	-84.760	-0.252	-0.078
-188.158	-80.708	-0.286	-0.094
-187.144	-103.799	0.243	-0.056
-186.129	-200.000	-0.029	-0.167
-185.114	9.732	0.125	0.093
-184.100	316.042	0.200	-0.371
-183.085	9.075	0.254	0.189
-182.071	-200.000	-0.033	0.333
-181.056	-200.000	-0.013	0.074
-180.042	23.007	0.394	-0.317
-179.027	800.000	0.037	0.128
-178.012	-33.487	-0.399	0.217
-176.998	90.326	-0.099	0.109
-175.983	754.496	-0.079	0.209
-174.969	10.189	-0.196	-0.146
-173.954	-200.000	-0.021	0.107
-172.939	15.341	-0.152	-0.117
-171.925	-82.829	0.113	-0.036
-170.910	-93.771	-0.045	0.012
-169.896	-76.954	0.356	-0.122
-168.881	-106.485	-0.121	0.026
-167.866	800.000	0.150	0.505
-166.852	740.294	0.147	0.388
-165.837	-49.426	0.291	0.137
-164.823	6.511	0.450	0.329
-163.808	-131.447	0.147	-0.019
-162.793	-28.108	-0.235	-0.134
-161.779	-87.758	-0.342	-0.101
-160.764	761.851	0.030	-0.079
-159.750	-58.205	0.182	-0.078
-158.735	-64.279	0.341	0.136
-157.720	-200.000	-0.008	0.038
-156.706	800.000	0.119	0.474
-155.691	409.575	0.097	0.201
-154.677	-89.829	0.253	0.073
-153.662	-200.000	0.005	-0.249
-152.647	-110.700	-0.090	-0.018
-151.633	574.851	0.084	0.200
-150.618	-57.691	0.273	0.117
-149.604	-67.921	0.116	-0.045
-148.589	-152.135	-0.428	0.030
-147.574	-103.938	0.369	-0.084
-146.560	-192.650	0.096	-0.001
-145.545	164.109	0.089	0.123
-144.531	-81.223	-0.098	-0.032
-143.516	-15.613	0.464	-0.290
-142.502	-5.256	-0.227	0.153
-141.487	-118.258	-0.268	0.047
-140.472	-90.175	0.287	-0.082
-139.458	98.994	0.248	0.281
-138.443	-35.058	-0.063	0.034
-137.429	-162.894	-0.216	0.010
-136.414	-13.348	-0.247	0.157
-135.399	145.716	0.040	0.052
-134.385	133.563	0.124	0.157
-133.370	-200.000	0.051	-0.311
-132.356	-125.502	-0.296	-0.044
-131.341	604.055	-0.076	0.185
-130.326	329.625	0.117	0.220
-129.312	38.879	-0.084	0.074
-128.297	4.756	0.178	0.128
-127.283	177.622	0.225	0.322
-126.268	-3.129	-0.066	0.045
-125.253	-200.000	-0.013	-0.063
-124.239	150.679	0.062	-0.082
-123.224	292.296	0.062	-0.110
-122.210	-120.865	-0.025	-0.004
-121.195	39.769	0.063	0.055
