DTS Sentinel unit serial number:	SN413079Multiplexer serial number:	ORYXHardware model number:	OX4-SRSoftware version number:	ORYX F/W v4.00 Oryx Data Collector v3.7.2.0data status	okinstallation	princeton_trtdifferential loss correction	single-endedforward channel	channel 1reverse channel	N/Adate	2019/09/14time	06:18:35forward acquisition time	60.00reverse acquisition time	0.00gamma	496.2192k internal	0.2335k external	0.2335temperature offset calibration	1.0079default loss term (dB/km)	0.3790temperature slope calibration	1.0000multiplexer offset coefficient	1.0000multiplexer slope coefficient	1.0000fibre end	0.00T internal ref (°C)	26.62T ext. ref 1 (°C)	3.41T ext. ref 2 (°C)	20.62length (m)	temperature (°C)	Stokes	anti-Stokes-747.200	-82.099	-0.148	-0.048
-746.185	-128.556	-0.189	-0.027
-745.171	417.444	-0.087	0.187
-744.156	-200.000	-0.007	0.213
-743.142	800.000	0.035	0.127
-742.127	23.060	0.241	0.198
-741.112	402.697	0.095	-0.200
-740.098	73.196	-0.139	-0.146
-739.083	-38.950	0.227	-0.120
-738.069	-23.998	0.151	0.091
-737.054	-54.505	0.260	0.118
-736.039	-62.123	0.220	-0.092
-735.025	-190.456	0.403	0.004
-734.010	-200.000	-0.020	0.256
-732.996	-81.148	0.220	-0.073
-731.981	-200.000	-0.032	0.166
-730.966	384.258	0.234	-0.484
-729.952	19.684	0.134	-0.108
-728.937	-10.609	0.181	-0.120
-727.923	58.081	-0.214	-0.210
-726.908	-129.650	-0.182	0.025
-725.894	23.064	0.241	0.198
-724.879	-0.554	-0.480	-0.342
-723.864	121.027	-0.253	-0.316
-722.850	800.000	0.022	0.073
-721.835	-109.991	0.029	-0.006
-720.821	-99.108	0.172	-0.044
-719.806	-200.000	0.050	-0.233
-718.791	-47.995	-0.075	-0.036
-717.777	-200.000	0.014	-0.201
-716.762	77.418	0.174	0.185
-715.748	51.254	0.268	-0.255
-714.733	-41.510	-0.139	-0.072
-713.718	-56.819	0.120	0.053
-712.704	369.837	0.082	0.167
-711.689	584.915	-0.041	-0.102
-710.675	-144.989	-0.255	-0.023
-709.660	63.195	0.054	0.055
-708.645	23.543	-0.119	-0.098
-707.631	800.000	0.041	0.164
-706.616	-8.918	-0.185	-0.125
-705.602	5.031	-0.141	0.104
-704.587	-103.306	-0.250	0.059
-703.572	96.698	0.126	-0.144
-702.558	-200.000	0.077	0.413
-701.543	-200.000	-0.013	0.242
-700.529	479.282	-0.111	0.253
-699.514	-27.022	-0.034	-0.020
-698.499	-135.891	-0.171	0.020
-697.485	-200.000	-0.001	0.127
-696.470	36.839	0.191	-0.169
-695.456	1.282	-0.050	0.036
-694.441	800.000	-0.056	-0.233
-693.426	9.871	-0.306	-0.233
-692.412	-75.804	0.250	-0.089
-691.397	330.736	-0.225	-0.435
-690.383	-46.079	0.015	0.007
-689.368	32.842	0.230	0.200
-688.354	59.438	0.197	-0.195
-687.339	800.000	-0.102	0.350
-686.324	-84.318	-0.152	-0.048
-685.310	-21.307	-0.151	0.092
-684.295	-200.000	-0.091	-0.411
-683.281	-95.651	0.131	-0.035
-682.266	-54.765	0.412	0.187
-681.251	-200.000	-0.072	-0.369
-680.237	-200.000	-0.052	-0.353
-679.222	603.095	-0.077	-0.192
-678.208	2.290	0.070	0.051
-677.193	90.634	0.126	-0.142
-676.178	-35.370	0.224	0.122
-675.164	171.687	-0.067	-0.096
-674.149	-137.418	0.215	0.024
-673.135	-90.023	-0.114	0.033
-672.120	-89.389	-0.043	-0.013
-671.105	-200.000	-0.070	0.312
-670.091	84.021	0.359	0.392
-669.076	-7.043	-0.251	0.171
-668.062	-173.850	-0.327	-0.010
-667.047	-154.759	-0.377	0.025
-666.032	-142.314	-0.163	0.016
-665.018	310.439	0.124	-0.233
-664.003	-200.000	-0.008	0.304
-662.989	53.249	-0.138	-0.133
-661.974	-114.179	0.287	0.056
-660.959	-162.016	-0.104	-0.005
-659.945	-107.265	0.214	-0.047
-658.930	116.067	-0.224	-0.274
-657.916	-200.000	-0.026	-0.127
-656.901	-41.542	0.257	0.133
-655.886	101.611	0.143	-0.167
-654.872	-200.000	0.010	-0.128
-653.857	-200.000	-0.030	-0.270
-652.843	157.756	0.056	-0.078
-651.828	-170.417	0.197	0.007
-650.814	356.251	0.106	-0.211
-649.799	-21.432	-0.186	-0.113
-648.784	80.407	-0.142	-0.153
-647.770	323.137	-0.183	0.349
-646.755	-200.000	0.034	-0.160
-645.741	-200.000	0.001	-0.128
-644.726	-56.935	-0.156	-0.069
-643.711	-0.584	0.261	0.185
-642.697	75.712	-0.119	0.126
-641.682	-109.393	-0.113	0.024
-640.668	-4.356	0.235	-0.163
-639.653	720.435	-0.072	0.192
-638.638	358.017	-0.118	0.236
-637.624	-37.144	0.143	-0.077
-636.609	98.142	-0.154	0.178
-635.595	-71.007	0.125	-0.047
-634.580	723.698	0.039	0.104
-633.565	-200.000	0.009	0.148
-632.551	356.461	0.275	-0.547
-631.536	529.960	-0.060	0.142
-630.522	213.805	-0.222	0.351
-629.507	-37.534	-0.171	0.091
-628.492	-86.502	0.056	0.017
-627.478	-200.000	-0.005	-0.230
-626.463	-164.521	-0.236	-0.011
-625.449	-200.000	-0.061	0.388
-624.434	-170.412	-0.612	0.021
-623.419	-58.291	-0.146	0.064
-622.405	-99.892	0.148	-0.037
-621.390	766.891	0.022	-0.060
-620.376	-121.965	-0.375	-0.062
-619.361	747.722	-0.020	-0.054
-618.346	-160.208	-0.147	0.008
-617.332	-200.000	0.014	0.382
-616.317	-69.551	0.089	-0.034
-615.303	-137.393	0.162	-0.018
-614.288	431.172	-0.092	0.200
-613.273	128.344	0.124	0.158
-612.259	181.159	-0.218	0.321
-611.244	-200.000	0.029	-0.147
-610.230	26.662	0.062	-0.052
-609.215	-50.661	-0.074	0.035
-608.201	133.328	-0.125	-0.161
-607.186	-200.000	-0.059	0.266
-606.171	-158.422	0.273	0.016
-605.157	-200.000	-0.027	0.206
-604.142	315.588	0.048	0.091
-603.128	-153.870	0.162	0.011
-602.113	258.835	-0.067	-0.115
-601.098	98.806	-0.206	-0.237
-600.084	16.128	-0.407	-0.321
-599.069	-200.000	0.107	0.488
-598.055	-200.000	-0.001	-0.082
-597.040	173.685	-0.255	-0.367
-596.025	800.000	-0.017	-0.057
-595.011	3.897	-0.186	-0.135
-593.996	-49.657	0.216	-0.103
-592.982	37.114	-0.153	0.136
-591.967	-99.631	-0.091	-0.023
-590.952	-44.964	-0.345	-0.172
-589.938	-44.463	-0.086	0.043
-588.923	23.826	-0.184	-0.152
-587.909	-200.000	-0.017	0.080
-586.894	71.022	0.061	0.063
-585.879	230.819	0.233	-0.381
-584.865	-42.003	0.267	-0.137
-583.850	-134.268	-0.155	0.019
-582.836	-200.000	-0.000	0.057
-581.821	-94.382	-0.106	0.029
-580.806	-131.677	-0.279	-0.037
-579.792	313.135	0.083	0.156
-578.777	-125.242	0.158	-0.024
-577.763	800.000	0.035	0.110
-576.748	114.964	-0.132	0.160
-575.733	-157.553	-0.212	0.013
-574.719	25.079	0.125	-0.104
-573.704	-200.000	0.018	0.167
-572.690	-200.000	-0.054	-0.325
-571.675	-12.866	0.206	-0.134
-570.661	618.656	0.010	0.025
-569.646	-78.474	0.189	0.064
-568.631	-200.000	-0.011	-0.245
-567.617	-16.160	0.190	-0.120
-566.602	-75.529	0.285	0.101
-565.588	39.414	-0.057	-0.051
-564.573	-69.968	0.143	-0.054
-563.558	295.480	0.063	-0.115
-562.544	800.000	-0.031	0.119
-561.529	800.000	-0.069	-0.227
-560.515	-200.000	0.024	0.239
-559.500	81.246	-0.242	0.260
-558.485	800.000	0.043	-0.169
-557.471	175.014	-0.166	-0.240
-556.456	376.315	0.167	0.340
-555.442	-200.000	0.062	-0.426
-554.427	-200.000	0.056	-0.249
-553.412	-172.547	0.106	-0.003
-552.398	-187.973	-0.200	-0.003
-551.383	800.000	0.064	-0.220
-550.369	175.354	0.168	-0.242
-549.354	12.771	0.210	-0.162
-548.339	120.097	-0.324	-0.401
-547.325	41.773	-0.088	0.079
-546.310	-179.325	0.381	0.008
-545.296	-200.000	0.010	0.482
-544.281	192.767	-0.192	-0.290
-543.266	102.855	0.183	0.214
-542.252	20.130	-0.182	-0.146
-541.237	-106.469	0.238	0.053
-540.223	-104.444	0.032	-0.007
-539.208	-200.000	0.025	-0.114
-538.193	-111.898	-0.033	-0.007
-537.179	212.558	0.130	0.205
-536.164	119.799	0.170	-0.210
-535.150	-30.713	0.063	-0.036
-534.135	-200.000	-0.024	0.141
-533.121	-157.383	0.229	-0.014
-532.106	14.502	-0.237	0.184
-531.091	45.354	-0.112	-0.103
-530.077	-200.000	-0.219	-0.001
-529.062	-124.623	0.074	-0.011
-528.048	800.000	-0.030	0.109
-527.033	800.000	0.034	-0.135
-526.018	133.531	0.152	0.196
-525.004	-200.000	-0.083	0.364
-523.989	-200.000	0.056	-0.279
-522.975	800.000	0.060	0.185
-521.960	-74.099	-0.232	0.084
-520.945	80.977	0.131	-0.141
-519.931	-200.000	0.075	-0.373
-518.916	-123.162	-0.089	0.014
-517.902	-200.000	0.008	-0.059
-516.887	-200.000	-0.003	0.370
-515.872	-31.044	0.199	-0.112
-514.858	549.762	0.082	-0.195
-513.843	-45.217	-0.399	0.197
-512.829	-200.000	0.079	0.349
-511.814	-104.539	-0.162	0.037
-510.799	-99.922	0.071	0.018
-509.785	-200.000	-0.022	-0.150
-508.770	-200.000	0.020	0.183
-507.756	-200.000	0.020	0.210
-506.741	86.573	0.079	0.087
-505.726	800.000	-0.047	-0.164
-504.712	354.293	-0.114	0.225
-503.697	25.438	0.100	0.083
-502.683	-200.000	-0.039	-0.213
-501.668	800.000	-0.057	-0.192
-500.653	-8.094	0.210	0.141
-499.639	-200.000	-0.026	-0.150
-498.624	-57.491	0.277	-0.121
-497.610	-98.196	-0.217	-0.055
-496.595	-200.000	0.010	-0.183
-495.581	53.218	-0.186	0.177
-494.566	-175.875	0.640	0.017
-493.551	61.880	-0.081	0.080
-492.537	800.000	0.082	0.268
-491.522	238.894	0.192	0.318
-490.508	-67.184	-0.174	0.068
-489.493	-90.305	-0.226	0.065
-488.478	38.202	-0.037	0.033
-487.464	-200.000	-0.014	-0.090
-486.449	320.713	-0.056	-0.105
-485.435	-48.089	0.210	0.101
-484.420	-13.403	-0.071	-0.046
-483.405	-7.527	0.056	0.038
-482.391	326.874	-0.118	0.225
-481.376	-80.431	-0.308	-0.102
-480.362	103.534	0.145	0.169
-479.347	12.467	-0.089	-0.068
-478.332	-123.621	-0.161	-0.025
-477.318	141.451	0.126	-0.165
-476.303	800.000	-0.060	0.233
-475.289	-38.218	-0.303	0.159
-474.274	-27.113	-0.178	0.103
-473.259	-102.915	0.315	0.074
-472.245	-62.610	0.457	0.189
-471.230	-200.000	-0.053	-0.286
-470.216	-13.953	-0.109	0.070
-469.201	90.347	0.161	0.179
-468.186	6.735	-0.135	0.100
-467.172	13.670	0.268	-0.207
-466.157	40.159	-0.164	-0.147
-465.143	72.781	-0.262	-0.272
-464.128	90.677	0.311	0.346
-463.113	800.000	0.155	-0.659
-462.099	35.244	0.254	-0.221
-461.084	31.381	0.177	0.151
-460.070	341.803	-0.148	0.287
-459.055	80.120	0.312	-0.333
-458.040	-200.000	0.001	-0.138
-457.026	565.058	0.042	-0.100
-456.011	123.192	0.166	0.206
-454.997	224.141	-0.117	-0.188
-453.982	800.000	0.120	-0.479
-452.968	550.472	-0.089	0.212
-451.953	451.705	-0.083	-0.182
-450.938	-45.759	0.058	0.029
-449.924	554.146	0.075	0.179
-448.909	800.000	-0.032	-0.118
-447.895	-200.000	0.000	0.300
-446.880	-146.821	-0.349	-0.030
-445.865	-139.713	-0.228	-0.024
-444.851	753.874	0.077	-0.208
-443.836	-200.000	-0.003	0.058
-442.822	109.882	0.113	0.134
-441.807	-122.779	-0.307	-0.049
-440.792	-114.685	-0.172	-0.033
-439.778	-38.812	0.249	0.130
-438.763	-43.551	0.215	0.107
-437.749	800.000	0.046	-0.141
-436.734	-200.000	-0.030	-0.131
-435.719	-200.000	0.008	0.090
-434.705	46.914	-0.345	-0.319
-433.690	50.997	0.193	0.182
-432.676	58.776	0.190	0.185
-431.661	800.000	0.068	0.199
-430.646	-103.982	0.157	0.036
-429.632	200.830	-0.147	0.224
-428.617	204.330	0.064	0.099
-427.603	191.431	-0.240	0.359
-426.588	-200.000	0.004	0.075
-425.573	-59.358	-0.185	-0.079
-424.559	121.202	-0.045	0.055
-423.544	-32.514	0.280	-0.155
-422.530	-200.000	0.007	0.171
-421.515	-18.581	0.123	-0.076
-420.500	-65.039	0.304	-0.122
-419.486	-40.666	0.211	0.109
-418.471	74.159	-0.212	0.221
-417.457	-200.000	-0.032	-0.264
-416.442	34.644	0.039	-0.034
-415.428	-96.426	-0.328	-0.086
-414.413	606.819	-0.046	0.115
-413.398	800.000	0.038	0.124
-412.384	6.993	0.166	0.123
-411.369	-10.152	-0.177	-0.117
-410.355	-110.659	0.516	-0.106
-409.340	-164.108	0.183	0.008
-408.325	-71.499	-0.445	0.165
-407.311	138.817	-0.085	-0.111
-406.296	-200.000	-0.018	0.117
-405.282	-172.261	-0.320	-0.010
-404.267	-31.652	0.109	0.060
-403.252	-20.465	-0.210	-0.128
-402.238	-125.818	0.256	-0.038
-401.223	800.000	-0.066	0.252
-400.209	86.805	-0.155	0.169
-399.194	-93.484	-0.406	-0.111
-398.179	-75.550	0.030	-0.011
-397.165	800.000	-0.078	-0.255
-396.150	-200.000	0.008	0.084
-395.136	800.000	-0.018	0.076
-394.121	-49.911	-0.258	-0.122
-393.106	147.340	0.188	-0.251
-392.092	800.000	0.058	-0.187
-391.077	-200.000	-0.027	-0.152
-390.063	256.787	-0.005	0.008
-389.048	-200.000	0.005	-0.076
-388.033	208.761	-0.153	0.238
-387.019	-200.000	0.013	-0.093
-386.004	-55.292	0.087	0.039
-384.990	-4.608	-0.085	-0.058
-383.975	-44.875	-0.149	-0.074
-382.960	-20.172	-0.266	-0.163
-381.946	-200.000	-0.065	0.321
-380.931	-51.814	-0.281	0.130
-379.917	56.281	-0.091	-0.087
-378.902	-95.059	0.207	-0.055
-377.888	42.815	0.321	0.290
-376.873	-17.874	-0.319	-0.198
-375.858	-118.522	-0.109	-0.019
-374.844	-32.313	-0.326	0.180
-373.829	389.674	0.104	-0.213
-372.815	151.401	0.122	-0.165
-371.800	-118.739	-0.181	-0.031
-370.785	-19.778	0.305	-0.187
-369.771	17.081	-0.330	0.259
-368.756	-155.974	0.129	0.008
-367.742	22.069	0.148	0.119
-366.727	-200.000	-0.009	0.155
-365.712	-26.179	-0.070	-0.041
-364.698	800.000	-0.117	0.407
-363.683	-55.358	-0.431	-0.191
-362.669	210.279	0.129	-0.201
-361.654	-95.119	-0.211	-0.056
-360.639	181.758	0.138	-0.201
-359.625	-78.305	0.224	-0.076
-358.610	800.000	-0.007	-0.025
-357.596	483.773	-0.094	0.212
-356.581	12.940	0.260	0.199
-355.566	393.609	0.081	0.167
-354.552	800.000	0.069	0.212
-353.537	-200.000	-0.044	-0.223
-352.523	165.461	-0.083	-0.116
-351.508	75.844	0.036	0.038
-350.493	-113.193	-0.108	-0.021
-349.479	-89.989	-0.107	-0.031
-348.464	-149.240	0.202	0.016
-347.450	295.964	0.091	-0.165
-346.435	709.765	-0.015	-0.038
-345.420	-130.895	0.111	-0.015
-344.406	800.000	-0.077	-0.291
-343.391	109.793	0.292	-0.346
-342.377	-128.118	0.113	-0.016
-341.362	20.563	-0.269	0.215
-340.348	548.505	0.132	-0.312
-339.333	-19.510	-0.078	0.048
-338.318	-53.991	-0.045	-0.020
-337.304	211.817	-0.127	-0.199
-336.289	-0.324	-0.054	-0.038
-335.275	75.369	-0.123	-0.129
-334.260	290.914	-0.099	0.178
-333.245	-85.444	0.034	-0.010
-332.231	364.934	0.144	-0.286
-331.216	-200.000	0.003	0.157
-330.202	-149.753	0.093	0.007
-329.187	164.495	0.048	0.066
-328.172	266.399	0.128	-0.221
-327.158	-200.000	0.072	-0.321
-326.143	251.272	0.037	-0.062
-325.129	-136.408	0.283	-0.033
-324.114	-8.884	0.029	0.019
-323.099	-200.000	-0.010	0.250
-322.085	42.374	0.053	-0.047
-321.070	126.690	-0.192	-0.240
-320.056	-200.000	-0.006	0.146
-319.041	-65.037	0.354	-0.141
-318.026	141.540	0.126	-0.164
-317.012	-67.715	-0.029	-0.011
-315.997	-76.799	0.266	0.092
-314.983	-200.000	0.032	0.172
-313.968	462.286	-0.088	-0.193
-312.953	-200.000	-0.009	0.041
-311.939	-16.548	0.101	-0.063
-310.924	-59.130	0.221	-0.094
-309.910	-200.000	-0.030	-0.318
-308.895	-200.000	-0.010	-0.180
-307.880	223.415	-0.143	0.228
-306.866	800.000	0.037	-0.138
-305.851	-200.000	-0.054	-0.297
-304.837	-44.442	0.238	-0.118
-303.822	800.000	-0.075	-0.326
-302.807	-10.606	0.204	0.133
-301.793	520.341	0.089	0.206
-300.778	800.000	0.037	-0.148
-299.764	-28.933	0.018	0.010
-298.749	50.226	0.092	0.086
-297.735	27.811	-0.109	0.091
-296.720	800.000	-0.030	0.101
-295.705	52.389	0.207	0.195
-294.691	-59.661	-0.260	0.110
-293.676	-200.000	-0.045	-0.383
-292.662	-200.000	0.013	-0.245
-291.647	800.000	0.035	0.108
-290.632	-100.142	-0.389	0.096
-289.618	-200.000	0.008	0.158
-288.603	-100.088	-0.151	-0.037
-287.589	-118.646	0.146	-0.025
-286.574	-200.000	-0.009	-0.077
-285.559	110.192	0.197	-0.233
-284.545	-200.000	-0.053	0.290
-283.530	-12.034	0.225	0.146
-282.516	307.991	0.077	0.143
-281.501	-37.294	0.295	-0.156
-280.486	-200.000	0.048	0.219
-279.472	-120.483	0.184	-0.031
-278.457	-13.871	0.289	-0.184
-277.443	-200.000	-0.008	0.183
-276.428	-59.846	-0.152	-0.064
-275.413	-200.000	-0.007	0.062
-274.399	530.571	-0.032	0.075
-273.384	475.627	-0.072	-0.161
-272.370	-63.087	-0.112	-0.046
-271.355	132.432	-0.323	0.410
-270.340	1.489	-0.134	0.095
-269.326	-147.731	0.065	0.005
-268.311	52.586	0.234	0.220
-267.297	-47.114	-0.126	0.061
-266.282	-200.000	-0.010	0.336
-265.267	-117.880	-0.228	0.040
-264.253	34.161	0.242	-0.208
-263.238	800.000	0.045	0.155
-262.224	-200.000	0.022	-0.122
-261.209	25.648	-0.242	0.199
-260.195	-200.000	0.008	-0.134
-259.180	-107.163	0.153	0.033
-258.165	-79.090	-0.216	-0.072
-257.151	181.801	0.024	-0.034
-256.136	25.085	-0.139	0.114
-255.122	1.318	-0.244	-0.173
-254.107	117.502	0.115	-0.140
-253.092	800.000	0.035	0.119
-252.078	800.000	0.044	0.168
-251.063	-99.567	0.055	0.014
-250.049	-22.170	0.058	0.035
-249.034	-26.625	-0.350	0.202
-248.019	229.992	-0.093	-0.150
-247.005	255.784	-0.149	-0.251
-245.990	-84.439	0.414	0.129
-244.976	-131.649	-0.277	0.036
-243.961	-28.257	0.196	0.112
-242.946	7.666	0.028	-0.021
-241.932	-25.953	0.308	-0.178
-240.917	-6.561	-0.286	-0.192
-239.903	-148.689	0.164	-0.013
-238.888	-160.112	-0.193	0.010
-237.873	-200.000	-0.014	0.258
-236.859	311.173	0.143	0.264
-235.844	-150.020	0.212	0.016
-234.830	132.532	0.158	-0.200
-233.815	-157.095	0.315	-0.019
-232.800	800.000	0.005	0.016
-231.786	-6.229	0.052	0.035
-230.771	-93.990	-0.179	-0.048
-229.757	-96.286	-0.174	0.045
-228.742	-55.013	0.353	0.156
-227.727	73.217	0.085	-0.087
-226.713	112.906	-0.167	-0.199
-225.698	800.000	0.048	0.145
-224.684	19.267	-0.166	-0.131
-223.669	0.932	0.284	0.200
-222.655	297.401	0.063	0.114
-221.640	10.360	0.136	0.102
-220.625	-56.282	0.018	0.008
-219.611	-200.000	-0.029	0.130
-218.596	298.179	0.170	0.307
-217.582	34.737	0.074	0.064
-216.567	-84.825	-0.166	-0.051
-215.552	-50.372	0.228	0.106
-214.538	257.351	0.052	0.088
-213.523	800.000	0.075	-0.240
-212.509	-50.756	-0.151	-0.070
-211.494	-26.925	-0.072	-0.041
-210.479	16.048	0.113	-0.087
-209.465	262.600	-0.210	-0.358
-208.450	-200.000	-0.035	0.227
-207.436	7.536	-0.174	0.128
-206.421	120.422	0.040	0.049
-205.406	533.220	0.172	0.401
-204.392	10.550	-0.199	-0.149
-203.377	-146.701	0.261	0.022
-202.363	-200.000	0.003	-0.154
-201.348	800.000	-0.087	-0.299
-200.333	-137.547	-0.101	0.011
-199.319	-200.000	-0.033	-0.233
-198.304	198.118	0.075	0.113
-197.290	800.000	-0.090	0.321
-196.275	800.000	0.039	0.110
-195.260	-31.284	-0.141	0.078
-194.246	93.138	0.122	-0.136
-193.231	99.506	-0.090	0.102
-192.217	800.000	0.087	0.264
-191.202	7.442	-0.127	-0.093
-190.187	-200.000	0.037	-0.180
-189.173	-123.769	-0.081	0.013
-188.158	-160.835	-0.276	-0.014
-187.144	362.158	-0.067	-0.133
-186.129	-200.000	0.023	0.100
-185.114	-141.865	0.265	0.026
-184.100	72.891	0.067	-0.069
-183.085	-200.000	0.015	-0.165
-182.071	-36.880	-0.250	0.132
-181.056	-200.000	-0.042	-0.212
-180.042	-98.772	-0.153	0.038
-179.027	-18.788	0.308	0.188
-178.012	-200.000	0.021	0.202
-176.998	-59.394	0.323	0.136
-175.983	-65.902	0.199	0.078
-174.969	-166.384	-0.264	-0.011
-173.954	-47.817	0.187	0.089
-172.939	-74.542	-0.350	0.124
-171.925	273.186	-0.054	0.094
-170.910	-133.978	0.269	0.033
-169.896	-55.156	-0.305	-0.135
-168.881	39.428	0.137	-0.121
-167.866	-200.000	-0.016	0.141
-166.852	-200.000	-0.021	0.118
-165.837	19.057	0.237	0.187
-164.823	19.701	-0.146	0.115
-163.808	773.998	-0.041	-0.109
-162.793	-157.200	-0.278	0.017
-161.779	-80.295	0.187	-0.061
-160.764	-106.969	-0.251	0.055
-159.750	-200.000	0.072	-0.360
-158.735	9.143	-0.103	-0.077
-157.720	186.835	0.176	-0.257
-156.706	632.887	-0.082	-0.205
-155.691	560.571	0.029	0.068
-154.677	800.000	-0.124	0.366
-153.662	142.407	0.224	-0.291
-152.647	15.813	0.281	-0.217
-151.633	-176.594	0.215	0.005
-150.618	-200.000	0.036	0.268
-149.604	-90.342	0.190	-0.054
-148.589	321.010	-0.191	-0.357
-147.574	-4.764	-0.129	0.087
-146.560	-134.126	0.335	-0.041
-145.545	-138.572	0.206	-0.022
-144.531	178.743	0.027	-0.038
-143.516	-183.181	0.116	-0.002
-142.502	581.036	0.153	-0.367
-141.487	-110.224	0.457	0.093
-140.472	-186.750	0.201	0.003
-139.458	-119.632	0.335	-0.057
-138.443	-137.397	-0.140	0.016
-137.429	45.511	0.255	-0.231
-136.414	-200.000	0.011	0.122
-135.399	31.550	-0.299	-0.252
-134.385	102.988	-0.123	-0.142
-133.370	-95.844	0.315	0.083
-132.356	-200.000	0.023	0.188
-131.341	-49.543	0.080	-0.037
-130.326	250.975	-0.110	0.183
-129.312	541.423	0.068	-0.160
-128.297	-19.116	0.276	-0.168
-127.283	0.894	-0.320	-0.225
-126.268	-168.220	0.307	0.012
-125.253	251.972	-0.171	-0.285
-124.239	-200.000	-0.014	0.221
-123.224	749.314	-0.088	-0.232
-122.210	-85.047	0.016	0.005
-121.195	-129.909	-0.194	-0.026
