DTS Sentinel unit serial number:	SN413079Multiplexer serial number:	ORYXHardware model number:	OX4-SRSoftware version number:	ORYX F/W v4.00 Oryx Data Collector v3.7.2.0data status	okinstallation	princeton_trtdifferential loss correction	single-endedforward channel	channel 1reverse channel	N/Adate	2019/09/12time	20:54:35forward acquisition time	60.00reverse acquisition time	0.00gamma	496.2192k internal	0.2324k external	0.2324temperature offset calibration	1.0143default loss term (dB/km)	0.3790temperature slope calibration	1.0000multiplexer offset coefficient	1.0000multiplexer slope coefficient	1.0000fibre end	0.00T internal ref (°C)	30.92T ext. ref 1 (°C)	3.56T ext. ref 2 (°C)	25.52length (m)	temperature (°C)	Stokes	anti-Stokes-747.200	-138.942	0.302	-0.033
-746.185	-200.000	-0.048	0.424
-745.171	698.217	-0.039	-0.104
-744.156	30.807	0.141	0.122
-743.142	-172.291	0.496	-0.016
-742.127	-33.434	0.102	0.057
-741.112	-83.836	0.142	0.046
-740.098	-125.693	-0.082	0.013
-739.083	-200.000	-0.071	-0.320
-738.069	25.302	-0.224	0.188
-737.054	-200.000	-0.028	-0.313
-736.039	-113.439	-0.163	-0.032
-735.025	190.119	0.165	0.250
-734.010	57.796	-0.164	-0.162
-732.996	-65.166	0.161	-0.065
-731.981	-200.000	0.069	-0.335
-730.966	782.995	0.056	-0.154
-729.952	-8.184	-0.251	0.171
-728.937	-34.280	0.144	0.080
-727.923	425.506	-0.046	-0.100
-726.908	-200.000	-0.002	0.276
-725.894	49.159	0.065	0.061
-724.879	800.000	0.118	0.502
-723.864	-34.768	-0.188	0.103
-722.850	145.569	-0.205	0.277
-721.835	209.816	-0.171	-0.270
-720.821	225.105	-0.019	-0.030
-719.806	-200.000	0.030	0.162
-718.791	-83.837	-0.155	0.050
-717.777	-17.007	-0.187	0.119
-716.762	-200.000	-0.029	-0.388
-715.748	8.023	0.043	-0.032
-714.733	-86.757	-0.163	-0.050
-713.718	800.000	0.133	0.420
-712.704	-200.000	0.049	-0.337
-711.689	-28.553	-0.221	0.128
-710.675	-116.637	-0.272	0.050
-709.660	-68.030	0.197	-0.077
-708.645	246.015	0.082	0.139
-707.631	-200.000	0.008	0.115
-706.616	-180.490	-0.055	-0.001
-705.602	-15.015	0.152	-0.098
-704.587	14.771	0.224	-0.177
-703.572	-200.000	0.027	0.427
-702.558	-200.000	0.015	0.275
-701.543	21.780	0.315	-0.259
-700.529	-103.960	-0.257	0.061
-699.514	164.386	-0.181	-0.256
-698.499	-177.176	-0.147	-0.004
-697.485	43.429	0.073	0.067
-696.470	-140.028	0.349	0.037
-695.456	800.000	-0.034	-0.115
-694.441	-200.000	0.025	-0.147
-693.426	-116.196	0.378	0.071
-692.412	-200.000	0.023	0.107
-691.397	-124.981	-0.312	0.048
-690.383	-63.138	0.152	-0.063
-689.368	481.751	-0.069	-0.157
-688.354	-200.000	-0.107	-0.512
-687.339	-66.155	-0.247	0.099
-686.324	-16.878	-0.260	-0.166
-685.310	612.640	-0.056	0.141
-684.295	800.000	-0.074	0.279
-683.281	-200.000	-0.037	0.215
-682.266	48.030	-0.110	-0.104
-681.251	84.905	-0.040	0.045
-680.237	25.747	-0.177	0.148
-679.222	-98.568	-0.136	-0.035
-678.208	-141.952	0.031	0.003
-677.193	-126.710	-0.152	-0.023
-676.178	-147.489	-0.238	0.020
-675.164	14.960	-0.179	-0.141
-674.149	74.196	0.087	-0.091
-673.135	-152.238	-0.323	0.024
-672.120	105.711	-0.140	-0.167
-671.105	472.871	0.023	-0.052
-670.091	249.930	0.219	0.374
-669.076	13.963	0.131	0.103
-668.062	-174.789	0.140	-0.004
-667.047	-46.193	-0.245	0.122
-666.032	481.333	0.105	-0.241
-665.018	60.071	0.274	-0.273
-664.003	293.125	0.027	0.050
-662.989	-200.000	0.012	0.165
-661.974	3.741	0.112	-0.082
-660.959	-176.615	-0.281	-0.007
-659.945	-200.000	-0.077	0.459
-658.930	-200.000	0.004	-0.073
-657.916	-200.000	0.111	0.000
-656.901	-174.014	0.210	-0.006
-655.886	53.000	0.202	-0.194
-654.872	377.940	-0.050	0.103
-653.857	286.669	-0.133	0.242
-652.843	-200.000	-0.008	0.073
-651.828	-96.801	0.269	0.071
-650.814	181.187	-0.163	-0.241
-649.799	-69.635	0.086	-0.033
-648.784	800.000	0.017	-0.047
-647.770	-200.000	0.002	0.122
-646.755	-108.181	-0.111	-0.024
-645.741	-200.000	-0.058	-0.283
-644.726	-95.546	0.510	-0.138
-643.711	-3.710	-0.152	0.106
-642.697	-35.266	0.107	0.058
-641.682	205.129	-0.142	-0.221
-640.668	676.682	0.136	-0.355
-639.653	800.000	-0.064	0.229
-638.638	55.835	-0.166	-0.161
-637.624	800.000	-0.087	0.298
-636.609	37.235	-0.250	-0.222
-635.595	579.623	-0.040	-0.097
-634.580	-200.000	0.001	0.110
-633.565	-200.000	0.019	-0.338
-632.551	54.651	-0.047	0.046
-631.536	133.447	-0.085	0.110
-630.522	-178.637	-0.044	-0.001
-629.507	4.947	0.321	-0.238
-628.492	-43.115	0.359	0.183
-627.478	-9.094	0.304	0.204
-626.463	800.000	-0.041	-0.131
-625.449	253.892	0.066	-0.114
-624.434	-200.000	-0.017	-0.335
-623.419	366.345	0.072	-0.146
-622.405	-200.000	-0.096	0.468
-621.390	674.369	-0.088	-0.228
-620.376	-200.000	0.044	0.328
-619.361	-57.479	0.279	0.123
-618.346	-149.373	0.088	0.007
-617.332	-192.695	0.133	0.001
-616.317	300.478	-0.071	0.131
-615.303	21.544	0.194	0.159
-614.288	-135.028	-0.122	0.015
-613.273	800.000	-0.029	0.113
-612.259	-30.154	-0.035	0.020
-611.244	652.222	0.079	-0.204
-610.230	257.176	-0.104	-0.180
-609.215	-200.000	-0.035	0.324
-608.201	-134.832	-0.104	0.013
-607.186	-177.490	0.267	0.007
-606.171	392.418	0.089	-0.185
-605.157	7.710	0.119	-0.089
-604.142	-45.899	0.348	-0.172
-603.128	800.000	-0.020	-0.062
-602.113	-83.072	-0.253	-0.082
-601.098	-67.013	0.072	-0.028
-600.084	377.641	-0.029	0.059
-599.069	154.619	-0.053	0.072
-598.055	58.413	-0.143	0.141
-597.040	-160.049	-0.103	-0.006
-596.025	70.813	-0.125	-0.129
-595.011	-166.350	0.504	0.021
-593.996	-148.797	-0.217	-0.018
-592.982	66.202	-0.256	-0.261
-591.967	-50.844	-0.114	-0.054
-590.952	-200.000	-0.023	-0.174
-589.938	800.000	0.011	0.042
-588.923	-200.000	0.018	0.163
-587.909	69.149	0.354	-0.365
-586.894	183.032	-0.157	0.233
-585.879	-200.000	0.033	0.209
-584.865	255.605	0.199	0.341
-583.850	171.863	-0.084	0.121
-582.836	-200.000	-0.044	-0.382
-581.821	-131.776	0.121	0.016
-580.806	20.051	-0.225	0.182
-579.792	-73.023	0.205	-0.076
-578.777	176.844	-0.072	-0.105
-577.763	195.804	-0.184	0.280
-576.748	-165.037	0.276	-0.012
-575.733	-200.000	-0.046	0.244
-574.719	-140.783	-0.069	0.007
-573.704	255.537	-0.142	-0.244
-572.690	-11.875	0.384	0.252
-571.675	314.025	-0.057	-0.107
-570.661	800.000	0.022	-0.081
-569.646	-96.390	0.269	0.071
-568.631	19.143	0.121	-0.098
-567.617	346.794	-0.078	-0.154
-566.602	-104.944	0.195	0.045
-565.588	-183.967	-0.228	-0.004
-564.573	-200.000	-0.006	-0.149
-563.558	800.000	0.075	-0.278
-562.544	95.196	-0.211	0.240
-561.529	-200.000	-0.002	-0.153
-560.515	168.079	-0.139	-0.198
-559.500	-24.180	-0.148	0.089
-558.485	108.683	-0.117	0.141
-557.471	229.257	0.121	0.198
-556.456	-68.453	-0.333	0.129
-555.442	17.736	0.272	0.217
-554.427	51.330	0.176	-0.168
-553.412	-21.124	0.294	-0.180
-552.398	11.036	0.130	0.100
-551.383	-102.477	-0.304	-0.073
-550.369	158.014	-0.205	0.285
-549.354	-200.000	-0.005	0.022
-548.339	41.895	0.162	-0.147
-547.325	-194.050	0.111	0.001
-546.310	-200.000	-0.026	0.294
-545.296	-97.384	-0.245	0.064
-544.281	178.472	-0.123	0.179
-543.266	32.132	0.273	-0.235
-542.252	-87.420	-0.245	-0.074
-541.237	-96.107	0.076	0.020
-540.223	-172.717	-0.340	-0.011
-539.208	-200.000	0.015	0.200
-538.193	800.000	0.044	-0.182
-537.179	-69.656	-0.066	0.025
-536.164	111.707	-0.109	0.132
-535.150	800.000	-0.030	0.122
-534.135	-200.000	0.021	-0.421
-533.121	91.852	0.344	0.387
-532.106	-42.241	-0.065	-0.033
-531.091	-200.000	0.013	-0.228
-530.077	156.489	0.187	0.259
-529.062	800.000	-0.197	-0.592
-528.048	-54.606	0.195	0.088
-527.033	295.874	-0.200	-0.367
-526.018	465.770	0.117	-0.261
-525.004	-188.042	-0.159	-0.002
-523.989	-200.000	0.006	-0.078
-522.975	-144.003	0.131	0.012
-521.960	-23.555	-0.122	0.073
-520.945	-25.495	0.114	-0.067
-519.931	-81.264	-0.090	0.030
-518.916	100.748	0.134	0.156
-517.902	-200.000	-0.026	-0.250
-516.887	-87.038	-0.182	0.056
-515.872	29.886	-0.247	0.210
-514.858	180.714	0.255	-0.375
-513.843	-154.475	-0.245	0.016
-512.829	-23.278	0.229	-0.138
-511.814	438.613	0.035	-0.076
-510.799	-200.000	-0.023	-0.400
-509.785	7.759	-0.177	0.132
-508.770	-145.872	-0.186	0.017
-507.756	116.543	0.105	0.129
-506.741	-95.483	-0.235	-0.063
-505.726	-168.112	0.196	0.008
-504.712	188.311	-0.053	-0.079
-503.697	-52.758	0.101	0.047
-502.683	398.660	-0.049	-0.102
-501.668	-55.555	0.144	0.065
-500.653	13.876	-0.335	0.261
-499.639	-42.653	-0.068	0.035
-498.624	-200.000	-0.071	-0.343
-497.610	162.748	-0.124	0.174
-496.595	-200.000	-0.049	0.348
-495.581	110.295	0.121	0.145
-494.566	10.941	-0.463	0.354
-493.551	-200.000	0.011	0.476
-492.537	112.280	0.070	-0.085
-491.522	591.028	0.064	-0.158
-490.508	-200.000	0.011	-0.348
-489.493	506.121	-0.068	0.158
-488.478	-38.080	-0.072	-0.038
-487.464	67.621	-0.145	-0.148
-486.449	-148.411	-0.278	0.023
-485.435	130.359	-0.090	0.115
-484.420	-200.000	-0.042	-0.321
-483.405	97.306	0.203	-0.233
-482.391	-15.059	-0.133	0.085
-481.376	-180.337	-0.080	0.002
-480.362	205.480	0.128	-0.198
-479.347	-74.817	0.056	-0.020
-478.332	257.516	-0.042	0.071
-477.318	2.147	0.466	-0.337
-476.303	-5.865	-0.239	-0.164
-475.289	-35.792	0.212	-0.115
-474.274	800.000	0.005	0.019
-473.259	-62.162	-0.133	0.056
-472.245	-116.146	0.224	-0.042
-471.230	-124.309	0.054	0.008
-470.216	447.818	0.043	0.094
-469.201	-200.000	0.016	-0.238
-468.186	-121.695	0.167	0.028
-467.172	800.000	0.066	0.219
-466.157	800.000	-0.024	0.080
-465.143	-159.464	-0.118	0.007
-464.128	-38.236	0.231	-0.122
-463.113	-26.619	0.121	0.071
-462.099	800.000	-0.129	-0.490
-461.084	2.156	0.239	-0.172
-460.070	800.000	-0.016	0.059
-459.055	-6.364	-0.235	-0.160
-458.040	-167.595	-0.209	-0.008
-457.026	88.407	-0.102	-0.113
-456.011	-162.412	0.271	0.013
-454.997	-88.841	0.286	0.085
-453.982	-38.233	-0.250	0.132
-452.968	107.566	0.029	0.035
-451.953	-142.870	0.156	-0.015
-450.938	327.629	-0.042	-0.080
-449.924	-154.411	0.246	-0.016
-448.909	3.428	0.178	0.129
-447.895	-149.898	0.292	0.023
-446.880	411.414	0.098	-0.208
-445.865	-200.000	-0.020	-0.247
-444.851	31.156	-0.091	-0.078
-443.836	91.137	0.223	0.250
-442.822	-62.104	-0.265	0.110
-441.807	-39.514	-0.173	-0.090
-440.792	594.212	0.127	0.313
-439.778	-200.000	0.000	0.251
-438.763	212.898	-0.124	-0.195
-437.749	0.497	0.057	-0.041
-436.734	-88.969	-0.093	-0.027
-435.719	424.710	-0.090	-0.194
-434.705	-125.179	-0.160	-0.024
-433.690	166.309	0.310	-0.437
-432.676	-200.000	0.018	0.083
-431.661	11.867	0.144	-0.110
-430.646	800.000	-0.092	-0.320
-429.632	501.020	0.122	0.281
-428.617	-129.307	-0.150	-0.021
-427.603	-134.674	-0.246	0.030
-426.588	-6.334	-0.033	0.022
-425.573	-200.000	-0.030	0.261
-424.559	-22.591	-0.058	-0.035
-423.544	-200.000	-0.016	0.153
-422.530	683.306	0.071	0.186
-421.515	-78.947	-0.256	0.087
-420.500	-58.112	0.034	-0.015
-419.486	-66.543	-0.492	-0.195
-418.471	-114.834	-0.262	-0.050
-417.457	-57.908	-0.394	0.172
-416.442	-40.036	0.114	0.059
-415.428	800.000	0.121	0.351
-414.413	-200.000	0.028	-0.191
-413.398	-138.441	-0.180	0.020
-412.384	-60.731	0.036	0.015
-411.369	800.000	0.048	0.188
-410.355	-170.433	-0.165	-0.006
-409.340	7.645	0.186	0.139
-408.325	426.086	0.180	-0.386
-407.311	-39.455	-0.015	0.008
-406.296	-26.658	0.209	0.122
-405.282	-200.000	0.056	0.511
-404.267	-200.000	-0.037	-0.247
-403.252	59.123	-0.059	0.058
-402.238	222.871	0.227	-0.364
-401.223	-110.704	0.272	0.056
-400.209	-200.000	0.008	0.250
-399.194	439.034	-0.060	0.130
-398.179	413.894	-0.191	0.406
-397.165	-48.910	-0.220	-0.105
-396.150	-23.447	0.158	0.094
-395.136	-200.000	0.005	-0.330
-394.121	-13.627	0.235	0.152
-393.106	800.000	-0.079	0.266
-392.092	-200.000	0.001	-0.035
-391.077	-93.556	0.340	0.093
-390.063	-35.357	-0.099	0.054
-389.048	738.674	-0.024	0.064
-388.033	144.327	-0.305	-0.405
-387.019	-13.202	-0.282	-0.182
-386.004	40.928	0.258	0.231
-384.990	-155.357	-0.289	-0.019
-383.975	-58.509	0.165	0.071
-382.960	-74.628	0.325	0.117
-381.946	-20.593	0.266	-0.163
-380.931	42.325	-0.101	0.091
-379.917	800.000	0.033	0.140
-378.902	-160.432	-0.343	0.018
-377.888	394.756	0.022	0.046
-376.873	-126.580	-0.337	-0.050
-375.858	24.336	-0.205	0.169
-374.844	-95.040	-0.109	-0.029
-373.829	112.762	-0.251	0.302
-372.815	-21.684	-0.085	0.052
-371.800	162.830	-0.202	-0.282
-370.785	-66.693	-0.517	0.204
-369.771	-105.856	-0.228	-0.051
-368.756	407.559	0.133	0.279
-367.742	-200.000	-0.037	0.240
-366.727	210.867	-0.123	-0.192
-365.712	-35.727	-0.225	0.121
-364.698	800.000	-0.094	-0.266
-363.683	-40.864	0.071	-0.037
-362.669	-200.000	0.015	0.097
-361.654	-102.590	-0.162	-0.038
-360.639	406.830	0.075	0.157
-359.625	377.714	-0.075	0.152
-358.610	303.405	-0.071	0.130
-357.596	-111.585	-0.065	-0.013
-356.581	-200.000	0.071	-0.368
-355.566	181.592	0.034	0.050
-354.552	800.000	0.067	-0.227
-353.537	-40.880	0.327	-0.168
-352.523	778.235	-0.128	-0.348
-351.508	-71.394	0.318	0.118
-350.493	-36.792	0.234	-0.125
-349.479	147.580	0.177	-0.237
-348.464	28.330	-0.079	-0.066
-347.450	800.000	0.045	-0.160
-346.435	382.123	0.131	-0.267
-345.420	-99.260	-0.333	0.084
-344.406	3.035	-0.044	-0.032
-343.391	-102.553	-0.265	0.063
-342.377	-9.599	-0.162	-0.107
-341.362	-200.000	-0.050	0.304
-340.348	632.690	-0.134	0.338
-339.333	-37.344	-0.044	-0.023
-338.318	-69.618	0.344	-0.131
-337.304	200.182	-0.081	0.124
-336.289	-6.269	-0.107	0.072
-335.275	458.062	0.160	-0.354
-334.260	-200.000	0.044	0.240
-333.245	159.867	-0.084	-0.116
-332.231	-83.466	-0.073	0.023
-331.216	126.144	-0.093	-0.117
-330.202	-43.572	0.361	0.181
-329.187	304.098	0.044	-0.080
-328.172	-73.547	-0.109	-0.039
-327.158	8.607	-0.217	0.162
-326.143	-41.215	0.204	0.105
-325.129	131.798	0.092	0.117
-324.114	226.565	0.143	0.231
-323.099	-12.558	-0.192	-0.125
-322.085	-121.454	-0.258	0.043
-321.070	-46.251	-0.038	0.018
-320.056	-99.442	0.084	0.021
-319.041	-162.111	0.273	-0.014
-318.026	-90.795	-0.063	-0.018
-317.012	-200.000	-0.015	-0.263
-315.997	-200.000	0.040	0.221
-314.983	206.263	-0.236	-0.364
-313.968	-34.980	0.053	-0.029
-312.953	-128.648	-0.261	0.037
-311.939	176.747	0.151	0.218
-310.924	-24.213	-0.296	-0.175
-309.910	75.761	-0.078	-0.082
-308.895	32.250	0.275	0.236
-307.880	-200.000	0.019	-0.169
-306.866	-178.663	-0.184	0.004
-305.851	-32.557	-0.096	0.053
-304.837	800.000	0.105	-0.349
-303.822	-200.000	-0.033	-0.233
-302.807	-63.225	-0.150	-0.061
-301.793	60.460	0.185	-0.181
-300.778	-113.303	-0.143	0.028
-299.764	-124.141	-0.151	0.024
-298.749	314.188	0.125	0.234
-297.735	7.572	0.056	0.041
-296.720	691.968	0.175	-0.454
-295.705	-47.657	-0.165	0.079
-294.691	-113.263	0.258	-0.050
-293.676	259.957	-0.096	-0.164
-292.662	-200.000	0.062	0.322
-291.647	800.000	0.037	-0.118
-290.632	145.271	-0.089	0.118
-289.618	-106.120	0.135	0.030
-288.603	-22.229	-0.182	0.109
-287.589	797.095	-0.047	0.127
-286.574	556.702	-0.091	-0.217
-285.559	-200.000	0.069	-0.491
-284.545	17.828	-0.143	0.113
-283.530	800.000	0.069	-0.225
-282.516	246.282	0.081	0.136
-281.501	-166.434	0.137	0.006
-280.486	800.000	-0.056	-0.192
-279.472	-198.349	-0.099	-0.001
-278.457	-13.999	0.159	0.102
-277.443	-36.033	0.020	0.011
-276.428	-36.305	-0.089	0.047
-275.413	104.165	0.103	0.121
-274.399	-117.949	0.378	0.067
-273.384	-24.587	-0.221	0.130
-272.370	448.516	-0.183	-0.400
-271.355	-11.746	0.138	0.090
-270.340	-200.000	-0.009	-0.236
-269.326	-19.401	-0.018	0.011
-268.311	-70.854	-0.341	0.127
-267.297	-69.051	0.400	0.153
-266.282	-49.401	-0.092	-0.043
-265.267	-200.000	0.007	-0.050
-264.253	-114.587	-0.228	-0.043
-263.238	177.587	0.260	-0.376
-262.224	212.667	0.157	-0.246
-261.209	-200.000	0.043	0.268
-260.195	204.812	0.028	-0.043
-259.180	-200.000	-0.011	0.470
-258.165	-200.000	-0.010	0.169
-257.151	-115.073	-0.252	0.047
-256.136	-76.319	0.184	0.064
-255.122	-85.368	-0.183	0.056
-254.107	-139.827	0.105	0.011
-253.092	126.106	0.198	0.248
-252.078	-70.246	-0.374	0.141
-251.063	-18.031	0.194	-0.120
-250.049	800.000	0.017	-0.069
-249.034	-33.298	0.102	-0.056
-248.019	-200.000	-0.020	0.173
-247.005	-175.907	0.221	0.006
-245.990	69.735	-0.098	-0.099
-244.976	-200.000	-0.017	-0.121
-243.961	518.451	0.081	-0.188
-242.946	-200.000	0.010	-0.145
-241.932	-200.000	0.017	-0.149
-240.917	-200.000	-0.055	-0.361
-239.903	-127.864	0.222	0.032
-238.888	-200.000	0.019	0.234
-237.873	800.000	-0.107	0.325
-236.859	557.359	-0.020	0.048
-235.844	-200.000	-0.012	-0.052
-234.830	-51.747	0.065	-0.030
-233.815	-113.184	-0.421	0.082
-232.800	-43.433	0.307	0.153
-231.786	121.862	-0.074	-0.091
-230.771	-155.334	-0.151	0.010
-229.757	684.243	-0.099	-0.255
-228.742	194.297	0.250	-0.374
-227.727	134.734	-0.064	0.082
-226.713	800.000	-0.106	0.338
-225.698	-22.114	-0.077	0.046
-224.684	204.838	0.081	-0.124
-223.669	224.680	0.057	0.092
-222.655	-69.374	-0.221	-0.084
-221.640	160.565	-0.080	-0.110
-220.625	180.652	0.189	0.274
-219.611	244.628	0.111	0.184
-218.596	-106.766	-0.193	0.042
-217.582	370.252	-0.248	-0.497
-216.567	168.085	0.015	-0.020
-215.552	-113.525	0.218	-0.042
-214.538	-82.960	0.275	0.088
-213.523	800.000	-0.034	-0.101
-212.509	-200.000	-0.021	-0.101
-211.494	-200.000	-0.011	-0.306
-210.479	-113.609	-0.056	0.011
-209.465	81.594	-0.171	0.183
-208.450	-80.535	-0.186	-0.061
-207.436	-3.067	-0.137	0.095
-206.421	187.810	0.157	-0.232
-205.406	-200.000	-0.004	0.224
-204.392	88.730	-0.114	0.126
-203.377	95.019	0.192	0.216
-202.363	-69.957	0.423	-0.159
-201.348	312.351	0.055	-0.102
-200.333	-54.892	-0.454	-0.202
-199.319	218.898	0.220	-0.348
-198.304	-200.000	0.037	0.280
-197.290	-3.727	0.133	0.091
-196.275	-10.307	-0.135	-0.088
-195.260	-169.832	-0.208	-0.007
-194.246	86.610	0.078	0.085
-193.231	414.218	-0.149	-0.313
-192.217	800.000	0.066	0.189
-191.202	-135.320	0.152	0.018
-190.187	-53.101	-0.178	0.081
-189.173	-200.000	-0.011	0.109
-188.158	-108.356	0.173	0.037
-187.144	19.658	-0.130	-0.103
-186.129	-156.479	-0.208	0.013
-185.114	-147.117	0.147	0.012
-184.100	-58.657	0.201	0.086
-183.085	-158.712	0.255	0.014
-182.071	-96.789	-0.207	-0.054
-181.056	-200.000	0.055	0.512
-180.042	800.000	0.052	0.198
-179.027	166.478	0.249	0.349
-178.012	-200.000	0.028	0.393
-176.998	-163.549	0.433	0.020
-175.983	800.000	0.035	0.134
-174.969	-200.000	0.075	0.501
-173.954	-200.000	-0.009	0.213
-172.939	11.741	0.069	-0.052
-171.925	95.462	-0.087	0.097
-170.910	-127.541	-0.210	0.030
-169.896	75.872	-0.108	-0.113
-168.881	452.482	0.049	-0.108
-167.866	-133.610	0.411	0.051
-166.852	244.553	-0.011	-0.019
-165.837	-88.817	-0.284	-0.083
-164.823	-64.055	0.424	0.171
-163.808	-45.821	-0.133	0.065
-162.793	361.076	-0.062	0.123
-161.779	-64.436	0.437	0.175
-160.764	-200.000	-0.006	0.266
-159.750	800.000	0.110	-0.346
-158.735	230.907	0.075	-0.122
-157.720	800.000	0.103	0.325
-156.706	-2.492	0.085	0.059
-155.691	-200.000	-0.001	-0.175
-154.677	-87.162	-0.244	0.073
-153.662	-164.511	0.330	-0.015
-152.647	-101.640	-0.128	-0.031
-151.633	-200.000	0.001	0.452
-150.618	-155.642	-0.396	-0.025
-149.604	176.687	-0.204	-0.292
-148.589	469.363	0.051	0.112
-147.574	-49.072	-0.096	-0.045
-146.560	-24.417	0.198	0.117
-145.545	-60.074	0.157	-0.066
-144.531	-103.579	0.174	0.040
-143.516	126.365	0.073	0.092
-142.502	-200.000	0.011	-0.354
-141.487	-13.506	-0.367	-0.235
-140.472	-121.306	0.184	0.030
-139.458	-181.594	0.328	0.006
-138.443	800.000	-0.049	0.174
-137.429	93.206	-0.305	0.340
-136.414	-200.000	0.009	-0.062
-135.399	14.173	0.378	0.290
-134.385	259.708	-0.034	-0.058
-133.370	-47.415	0.052	0.025
-132.356	383.080	-0.144	0.292
-131.341	-128.372	-0.180	-0.025
-130.326	66.944	0.109	0.110
-129.312	-11.511	0.221	0.143
-128.297	-16.081	-0.236	-0.148
-127.283	-31.798	-0.077	0.043
-126.268	81.250	0.248	0.264
-125.253	32.723	-0.123	-0.105
-124.239	24.887	-0.228	-0.186
-123.224	216.597	0.190	-0.298
-122.210	16.579	0.017	-0.013
