DTS Sentinel unit serial number:	SN413079Multiplexer serial number:	ORYXHardware model number:	OX4-SRSoftware version number:	ORYX F/W v4.00 Oryx Data Collector v3.7.2.0data status	okinstallation	princeton_trtdifferential loss correction	single-endedforward channel	channel 1reverse channel	N/Adate	2019/09/12time	18:27:34forward acquisition time	15.00reverse acquisition time	0.00gamma	496.2192k internal	0.2317k external	0.2317temperature offset calibration	1.0104default loss term (dB/km)	0.3790temperature slope calibration	1.0000multiplexer offset coefficient	1.0000multiplexer slope coefficient	1.0000fibre end	0.00T internal ref (°C)	33.31T ext. ref 1 (°C)	2.92T ext. ref 2 (°C)	27.93length (m)	temperature (°C)	Stokes	anti-Stokes-747.200	170.987	-0.209	0.303
-746.185	580.482	-0.304	0.754
-745.171	-200.000	-0.006	-0.365
-744.156	-115.499	0.220	-0.042
-743.142	-200.000	0.024	0.471
-742.127	800.000	0.124	0.372
-741.112	-104.495	0.429	-0.100
-740.098	309.927	0.295	0.558
-739.083	-200.000	-0.103	0.461
-738.069	-200.000	-0.161	-0.835
-737.054	374.086	0.157	0.324
-736.039	-105.653	-0.937	0.215
-735.025	68.649	0.389	-0.404
-734.010	145.282	0.401	0.543
-732.996	-67.973	-0.485	-0.192
-731.981	-149.040	-0.522	-0.042
-730.966	152.262	0.402	-0.555
-729.952	299.161	-0.307	-0.573
-728.937	-13.607	-0.214	0.140
-727.923	-200.000	-0.016	-0.878
-726.908	58.175	0.188	-0.186
-725.894	128.832	-0.675	0.871
-724.879	-200.000	0.094	0.838
-723.864	-100.605	0.894	-0.223
-722.850	114.537	-0.188	0.232
-721.835	683.434	0.026	0.068
-720.821	-141.598	0.273	-0.028
-719.806	-60.904	-0.617	-0.264
-718.791	-34.630	0.542	0.300
-717.777	-200.000	-0.052	-0.318
-716.762	-52.490	-0.343	0.160
-715.748	-37.297	0.136	-0.074
-714.733	368.381	0.151	0.309
-713.718	-78.549	-0.476	-0.165
-712.704	-26.964	-0.257	0.152
-711.689	151.246	-0.283	0.389
-710.675	800.000	0.174	-0.539
-709.660	-24.176	-0.981	0.593
-708.645	48.907	-0.526	0.499
-707.631	-171.213	-0.707	0.024
-706.616	51.082	0.171	-0.164
-705.602	800.000	0.082	-0.332
-704.587	-200.000	0.045	-0.431
-703.572	-200.000	0.010	0.174
-702.558	74.128	-0.038	-0.040
-701.543	-200.000	0.034	-0.377
-700.529	-69.067	-1.353	0.527
-699.514	800.000	-0.113	0.356
-698.499	-70.617	-0.661	0.252
-697.485	522.866	-0.178	0.423
-696.470	-27.374	0.110	-0.065
-695.456	-86.593	0.637	-0.197
-694.441	-58.488	-0.570	0.250
-693.426	-87.598	-0.465	0.142
-692.412	-59.589	-0.738	-0.320
-691.397	-200.000	0.017	-1.073
-690.383	49.553	0.584	-0.555
-689.368	57.713	-0.664	0.656
-688.354	-117.774	1.006	0.183
-687.339	160.244	-0.315	-0.444
-686.324	-114.318	-0.566	0.110
-685.310	782.617	0.070	0.194
-684.295	-200.000	-0.129	0.760
-683.281	-200.000	0.044	0.275
-682.266	147.738	-0.335	-0.456
-681.251	-36.730	0.240	0.130
-680.237	18.615	0.639	-0.516
-679.222	-5.252	-0.644	-0.447
-678.208	22.558	-0.704	-0.582
-677.193	-13.838	1.138	-0.743
-676.178	15.608	-0.746	0.592
-675.164	-112.023	-0.503	0.102
-674.149	-200.000	0.020	0.726
-673.135	-113.463	-0.794	0.157
-672.120	-200.000	0.025	0.199
-671.105	-125.566	0.539	0.083
-670.091	255.954	0.241	-0.417
-669.076	-111.010	0.892	0.185
-668.062	-120.703	-0.416	-0.071
-667.047	13.052	-0.850	0.664
-666.032	644.247	-0.104	0.268
-665.018	-17.330	-0.426	0.271
-664.003	179.068	-0.709	-1.047
-662.989	-83.652	0.931	-0.300
-661.974	800.000	0.300	0.991
-660.959	800.000	0.109	0.326
-659.945	-73.183	0.893	-0.330
-658.930	196.343	0.347	-0.533
-657.916	-82.937	0.223	-0.072
-656.901	-142.413	0.559	-0.056
-655.886	-40.175	-0.519	-0.272
-654.872	352.265	0.387	-0.775
-653.857	505.610	0.172	-0.403
-652.843	-200.000	0.095	1.133
-651.828	147.173	-0.352	0.477
-650.814	-101.692	0.857	-0.210
-649.799	52.579	-0.139	0.134
-648.784	-200.000	0.038	0.527
-647.770	-200.000	-0.078	0.850
-646.755	1.317	0.540	-0.392
-645.741	20.124	-0.352	-0.287
-644.726	-45.481	-0.127	-0.064
-643.711	-60.002	0.426	-0.183
-642.697	800.000	-0.028	-0.102
-641.682	-60.807	-0.529	-0.226
-640.668	57.399	0.485	0.478
-639.653	800.000	-0.335	-1.005
-638.638	-200.000	0.026	-0.265
-637.624	800.000	0.186	-0.739
-636.609	-73.867	-1.099	-0.403
-635.595	-132.787	0.561	0.072
-634.580	800.000	0.156	-0.460
-633.565	-3.051	0.481	-0.338
-632.551	-44.079	0.785	0.397
-631.536	-133.669	0.760	-0.096
-630.522	69.575	-0.586	0.609
-629.507	2.527	-0.596	-0.435
-628.492	800.000	-0.107	-0.411
-627.478	-132.348	0.650	-0.085
-626.463	30.249	-0.433	0.373
-625.449	-96.142	-0.644	-0.172
-624.434	-56.226	0.673	0.302
-623.419	-200.000	0.012	-0.419
-622.405	-70.882	0.282	0.107
-621.390	-200.000	0.018	-0.279
-620.376	107.408	-0.416	0.499
-619.361	203.297	0.296	-0.461
-618.346	-93.146	0.250	-0.070
-617.332	-63.882	-0.333	0.137
-616.317	16.785	-0.588	0.469
-615.303	800.000	0.160	-0.528
-614.288	117.166	0.452	-0.560
-613.273	536.449	0.038	0.091
-612.259	22.214	0.403	0.332
-611.244	800.000	0.148	0.415
-610.230	189.860	-0.290	0.439
-609.215	-36.355	-0.438	0.238
-608.201	225.236	-0.268	0.437
-607.186	130.834	-0.400	0.517
-606.171	36.129	0.532	-0.472
-605.157	-172.469	0.107	0.003
-604.142	-6.171	-0.440	-0.302
-603.128	-145.075	1.142	-0.105
-602.113	12.134	-0.335	0.259
-601.098	-43.535	0.923	-0.469
-600.084	183.473	0.540	-0.804
-599.069	66.431	-0.748	0.765
-598.055	97.397	0.431	-0.499
-597.040	46.925	-0.290	-0.271
-596.025	42.575	-0.685	0.627
-595.011	-54.451	1.318	0.601
-593.996	364.480	0.020	-0.041
-592.982	72.662	-0.130	-0.136
-591.967	78.751	-0.209	0.225
-590.952	-98.295	-0.535	-0.138
-589.938	117.201	0.730	-0.903
-588.923	-72.523	-0.349	-0.130
-587.909	-108.503	-0.586	-0.127
-586.894	-135.343	-0.930	-0.112
-585.879	-90.229	0.125	-0.037
-584.865	104.924	-0.068	-0.081
-583.850	39.766	-0.423	0.382
-582.836	800.000	0.119	0.412
-581.821	90.965	0.365	0.412
-580.806	800.000	0.115	-0.345
-579.792	-120.514	0.708	-0.121
-578.777	-108.763	0.368	-0.079
-577.763	88.609	-0.199	0.223
-576.748	-69.226	-0.094	-0.036
-575.733	-78.604	-0.557	-0.191
-574.719	-106.529	0.714	-0.160
-573.704	227.465	-0.065	-0.106
-572.690	-132.335	-0.622	-0.081
-571.675	16.733	-0.375	0.298
-570.661	-200.000	-0.084	-0.492
-569.646	-106.583	-0.182	0.041
-568.631	-99.146	0.958	0.244
-567.617	-3.003	0.437	-0.307
-566.602	14.862	0.115	-0.090
-565.588	31.567	-0.209	-0.181
-564.573	800.000	0.114	0.437
-563.558	800.000	0.068	0.198
-562.544	310.610	-0.334	-0.628
-561.529	33.289	-0.772	0.674
-560.515	281.443	-0.039	0.070
-559.500	-200.000	0.035	0.176
-558.485	-200.000	-0.027	0.368
-557.471	138.929	-0.559	-0.738
-556.456	305.917	0.335	0.626
-555.442	-25.437	-0.216	0.128
-554.427	115.977	-0.264	-0.325
-553.412	449.046	-0.208	0.461
-552.398	800.000	-0.049	-0.136
-551.383	219.102	-0.425	-0.683
-550.369	-200.000	-0.054	0.628
-549.354	-80.179	-0.786	0.264
-548.339	-90.393	0.634	0.185
-547.325	98.284	-0.145	-0.168
-546.310	-173.940	0.821	-0.024
-545.296	60.188	-0.191	-0.190
-544.281	24.366	0.531	0.441
-543.266	-200.000	-0.128	-0.634
-542.252	-44.514	-0.489	0.246
-541.237	800.000	0.335	-1.002
-540.223	-46.940	-0.555	-0.272
-539.208	-36.202	-0.574	-0.311
-538.193	-21.325	0.414	0.254
-537.179	-200.000	-0.053	-0.364
-536.164	12.073	-1.009	0.780
-535.150	-200.000	-0.124	-0.592
-534.135	12.408	-0.059	-0.046
-533.121	-180.044	-0.704	0.015
-532.106	221.462	-0.596	-0.961
-531.091	-200.000	0.144	-0.782
-530.077	-126.508	0.230	0.034
-529.062	800.000	-0.173	-0.565
-528.048	777.438	0.067	-0.184
-527.033	-78.465	0.921	0.317
-526.018	50.822	-0.629	-0.598
-525.004	-4.401	-0.126	0.088
-523.989	-58.150	-0.060	-0.026
-522.975	-163.579	0.568	0.027
-521.960	-122.862	-0.945	-0.153
-520.945	-138.668	0.286	-0.031
-519.931	746.457	-0.157	-0.424
-518.916	17.657	0.500	0.399
-517.902	41.264	0.516	-0.469
-516.887	501.507	0.344	-0.798
-515.872	800.000	-0.225	0.814
-514.858	-200.000	0.149	0.893
-513.843	135.271	-0.593	-0.774
-512.829	65.088	0.370	0.376
-511.814	-58.035	0.764	0.335
-510.799	32.265	-0.328	0.284
-509.785	40.569	0.189	0.171
-508.770	104.856	0.199	0.236
-507.756	139.421	0.431	0.568
-506.741	-71.677	-0.305	0.114
-505.726	141.983	0.221	0.293
-504.712	126.714	0.386	-0.491
-503.697	800.000	0.097	0.344
-502.683	636.266	0.143	0.364
-501.668	433.065	-0.201	0.437
-500.653	800.000	0.070	0.229
-499.639	227.216	0.262	0.428
-498.624	171.179	-0.860	1.237
-497.610	-200.000	0.040	-0.656
-496.595	-39.501	-0.807	-0.424
-495.581	0.453	-0.456	0.327
-494.566	-82.528	0.690	0.225
-493.551	-115.825	0.389	0.073
-492.537	383.561	0.214	-0.442
-491.522	-200.000	-0.013	-0.334
-490.508	-89.932	0.425	-0.125
-489.493	8.794	0.399	-0.302
-488.478	-197.799	0.745	-0.005
-487.464	-200.000	-0.050	-0.244
-486.449	-92.560	-0.583	-0.164
-485.435	38.843	-0.489	0.437
-484.420	-34.458	-0.561	0.308
-483.405	-200.000	-0.060	-0.323
-482.391	33.453	-0.152	0.132
-481.376	-109.118	-0.324	-0.069
-480.362	138.756	0.160	0.210
-479.347	11.168	-0.348	-0.267
-478.332	-33.219	0.450	-0.250
-477.318	-105.045	0.623	0.143
-476.303	268.656	0.311	0.546
-475.289	45.810	-0.476	0.441
-474.274	11.174	-0.712	0.546
-473.259	357.772	0.177	0.354
-472.245	-106.380	-0.160	-0.036
-471.230	-200.000	0.072	0.382
-470.216	-61.469	0.181	-0.076
-469.201	77.756	0.449	-0.479
-468.186	514.038	-0.283	0.662
-467.172	-124.539	-0.395	0.061
-466.157	26.938	0.516	0.433
-465.143	-200.000	-0.224	-1.284
-464.128	-200.000	0.053	-0.680
-463.113	800.000	-0.264	0.772
-462.099	105.322	-0.072	-0.085
-461.084	800.000	-0.300	1.232
-460.070	-161.613	-0.564	-0.029
-459.055	109.125	0.243	0.291
-458.040	173.683	-0.124	-0.179
-457.026	15.038	0.989	0.775
-456.011	800.000	0.147	-0.589
-454.997	422.003	-0.103	0.221
-453.982	-75.497	0.430	-0.153
-452.968	43.921	-0.232	-0.213
-451.953	72.367	-0.286	0.298
-450.938	-101.198	0.439	-0.108
-449.924	-176.614	0.426	-0.011
-448.909	-70.015	-0.285	-0.109
-447.895	-65.487	-0.291	0.117
-446.880	147.286	0.762	-1.027
-445.865	-105.447	0.343	0.078
-444.851	133.621	0.415	-0.538
-443.836	207.766	0.365	-0.570
-442.822	-200.000	-0.027	-0.148
-441.807	72.504	-0.615	0.641
-440.792	307.983	0.317	0.592
-439.778	800.000	0.105	-0.385
-438.763	-142.157	-0.431	-0.043
-437.749	-66.226	0.908	0.362
-436.734	-56.330	-0.593	0.263
-435.719	163.508	0.565	0.795
-434.705	-76.638	0.261	0.092
-433.690	22.110	-0.292	0.239
-432.676	51.587	-0.105	0.100
-431.661	-200.000	-0.056	0.264
-430.646	-200.000	0.090	0.643
-429.632	62.721	-0.226	0.226
-428.617	-162.350	-0.414	0.021
-427.603	800.000	0.159	0.463
-426.588	-200.000	0.080	0.422
-425.573	800.000	-0.092	0.255
-424.559	23.394	-0.433	0.356
-423.544	-200.000	0.059	0.314
-422.530	-54.052	0.430	-0.196
-421.515	-84.954	0.334	-0.105
-420.500	-110.760	0.458	0.094
-419.486	10.850	-0.817	-0.623
-418.471	-116.394	0.405	-0.075
-417.457	-8.727	-0.235	-0.158
-416.442	800.000	0.247	-0.982
-415.428	800.000	-0.052	0.178
-414.413	19.681	-0.229	0.184
-413.398	-93.166	0.339	-0.094
-412.384	-116.899	0.409	-0.075
-411.369	-200.000	-0.061	-0.334
-410.355	420.820	0.432	-0.925
-409.340	-35.333	-0.247	-0.134
-408.325	707.887	-0.135	-0.358
-407.311	166.492	0.167	-0.237
-406.296	-130.607	-0.442	0.060
-405.282	11.683	-0.053	-0.041
-404.267	-60.690	0.451	-0.191
-403.252	491.893	-0.167	-0.383
-402.238	234.053	-0.269	-0.443
-401.223	-200.000	-0.048	0.211
-400.209	800.000	0.161	0.576
-399.194	-55.679	0.437	-0.195
-398.179	-113.614	-0.135	0.026
-397.165	-67.402	-0.470	-0.185
-396.150	188.869	-0.253	-0.378
-395.136	195.875	0.214	-0.325
-394.121	176.008	-0.217	0.315
-393.106	-94.191	-0.698	-0.191
-392.092	-52.833	-0.039	-0.018
-391.077	34.584	0.202	0.177
-390.063	-23.032	1.078	0.649
-389.048	800.000	-0.096	-0.292
-388.033	-45.118	-0.493	-0.245
-387.019	-71.229	0.254	-0.095
-386.004	36.361	-0.293	-0.258
-384.990	43.942	-0.225	0.206
-383.975	-9.297	-0.717	0.478
-382.960	483.660	-0.189	0.428
-381.946	89.792	-0.070	-0.078
-380.931	-15.740	-0.753	0.479
-379.917	261.874	-0.180	0.311
-378.902	-71.333	-0.624	0.233
-377.888	85.565	0.331	0.363
-376.873	800.000	-0.100	0.313
-375.858	800.000	0.055	-0.228
-374.844	27.260	-0.287	0.240
-373.829	33.580	0.248	0.215
-372.815	9.188	0.813	-0.613
-371.800	-143.034	0.895	-0.086
-370.785	-50.027	0.446	-0.211
-369.771	-41.353	0.801	0.412
-368.756	-117.236	0.205	-0.037
-367.742	127.649	-0.618	-0.783
-366.727	-65.005	0.708	-0.285
-365.712	-137.666	-0.360	0.040
-364.698	800.000	-0.029	0.096
-363.683	-110.525	-0.934	-0.193
-362.669	-20.584	0.404	0.247
-361.654	-103.773	-0.325	-0.076
-360.639	800.000	0.275	-0.815
-359.625	-147.186	0.135	-0.011
-358.610	278.132	-0.245	-0.435
-357.596	-1.495	0.251	-0.176
-356.581	337.066	-0.091	-0.177
-355.566	-200.000	-0.108	-0.996
-354.552	370.331	0.185	-0.374
-353.537	38.901	0.841	0.749
-352.523	-150.105	0.124	-0.010
-351.508	58.198	-0.473	-0.462
-350.493	-3.565	1.012	-0.701
-349.479	-16.556	0.615	-0.388
-348.464	800.000	0.203	-0.714
-347.450	33.894	0.446	0.387
-346.435	-166.046	-0.327	0.014
-345.420	49.969	0.474	0.446
-344.406	126.259	0.378	0.477
-343.391	73.955	0.699	0.731
-342.377	-200.000	-0.067	0.466
-341.362	5.935	-0.666	0.492
-340.348	94.887	0.342	0.388
-339.333	306.516	-0.203	-0.376
-338.318	-200.000	0.005	-0.027
-337.304	26.851	-0.328	-0.274
-336.289	-7.027	0.137	0.093
-335.275	800.000	-0.179	0.494
-334.260	627.164	-0.155	-0.390
-333.245	-34.658	0.414	0.225
-332.231	-90.352	0.314	-0.091
-331.216	176.958	-0.261	-0.378
-330.202	-200.000	0.130	-0.749
-329.187	117.290	0.439	0.538
-328.172	534.391	0.379	-0.894
-327.158	36.674	-0.711	0.626
-326.143	-46.077	0.574	0.282
-325.129	-73.425	0.701	-0.255
-324.114	800.000	-0.125	-0.443
-323.099	-200.000	0.100	-0.902
-322.085	-35.070	-1.022	0.555
-321.070	-91.036	0.487	-0.139
-320.056	-118.374	-0.455	-0.081
-319.041	165.232	0.159	0.223
-318.026	25.271	0.286	-0.237
-317.012	235.270	-0.421	-0.693
-315.997	-200.000	0.115	-0.742
-314.983	-178.801	-0.960	-0.022
-313.968	-200.000	0.013	0.281
-312.953	-171.384	-1.198	-0.040
-311.939	800.000	-0.253	-0.749
-310.924	-26.217	-0.493	0.288
-309.910	-60.104	-0.292	-0.124
-308.895	800.000	-0.093	0.269
-307.880	42.774	0.199	-0.180
-306.866	175.506	-0.377	0.544
-305.851	4.467	-0.390	-0.284
-304.837	-70.664	-0.337	-0.127
-303.822	-21.337	0.293	-0.178
-302.807	-65.013	-0.763	-0.307
-301.793	-200.000	0.025	-0.354
-300.778	-83.509	0.553	-0.176
-299.764	-92.557	-0.394	-0.110
-298.749	-116.977	0.377	0.069
-297.735	429.183	-0.284	0.611
-296.720	-51.550	0.573	-0.266
-295.705	800.000	-0.137	0.518
-294.691	93.302	0.297	-0.334
-293.676	242.347	-0.093	0.155
-292.662	-200.000	0.118	0.732
-291.647	169.308	0.156	-0.221
-290.632	-70.976	-0.606	0.227
-289.618	-56.142	0.524	-0.232
-288.603	30.476	-0.456	-0.388
-287.589	96.286	-0.193	-0.220
-286.574	-200.000	-0.204	0.931
-285.559	80.506	0.519	0.556
-284.545	95.464	-0.390	0.443
-283.530	90.392	0.139	-0.155
-282.516	299.060	0.301	0.551
-281.501	-41.430	-0.334	-0.171
-280.486	55.913	0.276	0.267
-279.472	-92.770	0.746	0.208
-278.457	52.178	-0.148	0.140
-277.443	269.563	0.326	0.570
-276.428	150.482	-0.051	0.069
-275.413	70.856	0.274	-0.282
-274.399	-49.444	1.000	0.474
-273.384	-76.634	0.432	-0.151
-272.370	63.544	0.246	-0.245
-271.355	800.000	-0.233	-0.892
-270.340	-200.000	-0.140	0.965
-269.326	-68.761	-0.656	0.252
-268.311	52.116	0.630	-0.597
-267.297	-200.000	-0.103	-0.586
-266.282	197.230	0.263	0.399
-265.267	-115.096	-0.660	0.124
-264.253	625.567	0.385	0.964
-263.238	-73.387	-0.276	-0.100
-262.224	-80.996	-0.261	-0.086
-261.209	-200.000	0.022	-0.347
-260.195	-72.439	-0.347	0.128
-259.180	-2.884	-0.468	-0.325
-258.165	800.000	-0.155	-0.647
-257.151	147.839	-0.115	-0.154
-256.136	-200.000	0.001	0.106
-255.122	-126.310	-0.114	-0.017
-254.107	-84.106	0.736	-0.232
-253.092	-200.000	-0.100	0.467
-252.078	-157.982	0.322	0.019
-251.063	800.000	-0.203	0.692
-250.049	-45.100	-0.785	-0.387
-249.034	86.873	-0.286	-0.313
-248.019	387.580	0.240	-0.493
-247.005	800.000	-0.311	1.041
-245.990	64.651	-0.767	-0.768
-244.976	800.000	-0.052	0.156
-243.961	-133.158	-0.257	0.032
-242.946	-108.380	0.350	0.075
-241.932	-4.512	-0.475	-0.326
-240.917	-120.822	-0.619	-0.104
-239.903	-30.818	0.814	-0.457
-238.888	-29.832	0.646	0.365
-237.873	-23.737	-0.962	0.572
-236.859	-34.616	0.337	-0.183
-235.844	295.065	-0.198	0.359
-234.830	-14.882	0.370	0.235
-233.815	74.725	0.569	-0.594
-232.800	-116.842	0.319	0.058
-231.786	-4.277	0.403	0.277
-230.771	-86.163	0.457	0.140
-229.757	-63.910	-0.315	-0.128
-228.742	502.432	-0.451	-1.035
-227.727	-46.389	-0.458	0.223
-226.713	-200.000	0.072	0.370
-225.698	93.448	0.131	-0.147
-224.684	-200.000	-0.030	-0.879
-223.669	-84.293	0.331	0.104
-222.655	59.341	0.065	-0.064
-221.640	222.046	-0.335	0.535
-220.625	-57.786	0.770	0.334
-219.611	-163.189	-0.547	-0.026
-218.596	-130.443	0.441	-0.059
-217.582	5.752	-0.732	0.537
-216.567	356.868	0.467	0.924
-215.552	-200.000	-0.180	-0.001
-214.538	-35.822	0.502	-0.270
-213.523	-89.750	-0.331	0.096
-212.509	87.609	-0.243	0.267
-211.494	100.100	-0.455	-0.523
-210.479	-200.000	-0.059	0.568
-209.465	800.000	0.119	0.450
-208.450	-3.703	0.539	0.372
-207.436	-31.281	0.212	-0.118
-206.421	-200.000	-0.014	-0.327
-205.406	-18.209	0.239	-0.148
-204.392	-57.850	0.623	0.270
-203.377	32.045	-0.548	0.468
-202.363	-200.000	0.093	0.520
-201.348	-64.484	-0.217	0.087
-200.333	-200.000	-0.037	0.674
-199.319	-25.051	-0.288	-0.169
-198.304	-116.443	-0.849	0.155
-197.290	-92.575	-0.335	-0.093
-196.275	-200.000	0.033	-0.149
-195.260	75.845	0.435	-0.455
-194.246	191.864	0.338	0.506
-193.231	461.884	0.412	-0.910
-192.217	-148.234	-0.511	0.042
-191.202	-67.850	-0.255	-0.099
-190.187	-186.151	-0.562	0.008
-189.173	128.195	0.409	-0.515
-188.158	-34.512	0.571	-0.310
-187.144	97.606	0.901	1.025
-186.129	39.205	-0.674	-0.597
-185.114	800.000	-0.204	-0.829
-184.100	-64.566	-0.693	-0.279
-183.085	440.329	0.273	0.592
-182.071	47.460	-0.255	0.236
-181.056	800.000	0.108	-0.352
-180.042	-38.865	0.836	0.436
-179.027	149.402	0.365	-0.489
-178.012	-81.643	-0.286	0.093
-176.998	-123.325	0.504	0.080
-175.983	167.763	-0.386	-0.544
-174.969	207.688	-0.267	-0.413
-173.954	-127.861	-0.741	-0.106
-172.939	-26.469	0.567	-0.329
-171.925	227.019	-0.265	-0.427
-170.910	-65.948	-0.330	-0.131
-169.896	-91.660	0.551	-0.155
-168.881	-144.646	-0.911	-0.083
-167.866	800.000	0.360	1.434
-166.852	-200.000	-0.016	0.303
-165.837	-73.057	0.403	-0.146
-164.823	-200.000	-0.006	-0.643
-163.808	-200.000	0.011	0.515
-162.793	38.023	-0.127	0.111
-161.779	-68.218	-0.639	0.246
-160.764	-178.477	-0.218	-0.005
-159.750	-200.000	0.070	0.830
-158.735	-200.000	0.049	0.331
-157.720	607.939	0.113	0.279
-156.706	4.047	0.662	-0.479
-155.691	255.360	-0.206	-0.350
-154.677	800.000	-0.211	0.687
-153.662	0.392	-0.255	-0.180
-152.647	258.151	-0.192	0.327
-151.633	76.254	0.378	0.396
-150.618	-67.064	1.112	0.434
-149.604	28.657	0.383	0.321
-148.589	287.238	0.452	-0.808
-147.574	283.350	0.094	-0.166
-146.560	-200.000	-0.030	-0.265
-145.545	115.348	0.079	-0.096
-144.531	-4.920	0.404	0.276
-143.516	-200.000	0.153	-1.651
-142.502	-200.000	0.029	-0.382
-141.487	-107.399	0.560	0.122
-140.472	-91.335	0.318	0.090
-139.458	-38.793	-0.358	0.187
-138.443	159.431	0.340	-0.468
-137.429	-21.310	0.266	-0.161
-136.414	-132.865	-0.520	-0.066
-135.399	-103.368	-0.758	-0.177
-134.385	53.198	-0.244	0.231
-133.370	-114.249	-0.320	0.061
-132.356	-14.666	0.429	-0.273
-131.341	800.000	0.094	0.298
-130.326	390.499	0.125	0.255
-129.312	-44.405	0.167	0.083
-128.297	-53.772	0.666	0.300
-127.283	-200.000	-0.096	-0.493
-126.268	800.000	0.066	-0.218
-125.253	800.000	-0.140	-0.519
-124.239	13.231	-0.186	-0.142
-123.224	-139.985	0.289	-0.030
-122.210	-107.004	-0.624	-0.136
-121.195	135.691	0.975	-1.254
-120.180	-83.042	0.703	-0.224
