DTS Sentinel unit serial number:	SN413079Multiplexer serial number:	ORYXHardware model number:	OX4-SRSoftware version number:	ORYX F/W v4.00 Oryx Data Collector v3.7.2.0data status	okinstallation	princeton_trtdifferential loss correction	single-endedforward channel	channel 1reverse channel	N/Adate	2019/09/18time	17:30:35forward acquisition time	60.00reverse acquisition time	0.00gamma	496.2192k internal	0.2291k external	0.2291temperature offset calibration	0.9993default loss term (dB/km)	0.3790temperature slope calibration	1.0000multiplexer offset coefficient	1.0000multiplexer slope coefficient	1.0000fibre end	0.00T internal ref (°C)	40.14T ext. ref 1 (°C)	0.89T ext. ref 2 (°C)	36.40length (m)	temperature (°C)	Stokes	anti-Stokes-747.200	247.498	0.155	0.268
-746.185	-200.000	-0.030	0.303
-745.171	78.462	0.143	0.157
-744.156	-70.235	0.116	0.045
-743.142	-94.140	-0.183	-0.051
-742.127	-105.861	-0.103	-0.024
-741.112	-84.408	-0.146	0.047
-740.098	26.636	-0.053	-0.046
-739.083	33.059	-0.119	-0.106
-738.069	161.695	-0.251	0.360
-737.054	-150.442	-0.354	0.028
-736.039	20.485	0.195	0.162
-735.025	25.273	-0.210	0.179
-734.010	-171.295	-0.050	-0.002
-732.996	412.662	0.079	-0.173
-731.981	-33.365	-0.092	-0.052
-730.966	-117.345	0.076	0.014
-729.952	-75.771	0.119	-0.043
-728.937	-166.039	-0.277	-0.012
-727.923	53.327	-0.088	0.086
-726.908	8.131	-0.089	0.068
-725.894	-175.210	-0.528	-0.015
-724.879	-66.324	0.015	-0.006
-723.864	235.742	0.203	-0.343
-722.850	-10.482	0.250	-0.170
-721.835	-49.406	-0.184	0.090
-720.821	9.749	-0.355	0.276
-719.806	-184.000	0.091	0.002
-718.791	55.058	0.029	0.029
-717.777	473.399	-0.035	0.080
-716.762	190.569	-0.258	0.396
-715.748	-200.000	0.022	0.179
-714.733	800.000	-0.072	-0.256
-713.718	480.169	0.063	0.147
-712.704	-19.707	0.249	-0.157
-711.689	-58.441	-0.278	0.124
-710.675	422.193	-0.044	0.096
-709.660	17.317	-0.134	0.108
-708.645	-68.475	-0.121	0.048
-707.631	-163.187	-0.101	0.005
-706.616	-200.000	0.016	-0.157
-705.602	-86.979	-0.133	-0.041
-704.587	-200.000	0.042	-0.319
-703.572	-200.000	0.027	-0.223
-702.558	149.323	-0.160	-0.221
-701.543	220.678	-0.151	0.248
-700.529	1.953	0.085	0.063
-699.514	141.724	-0.174	-0.236
-698.499	290.752	0.100	-0.187
-697.485	-7.857	-0.178	0.123
-696.470	-181.171	-0.120	-0.002
-695.456	408.345	0.026	0.056
-694.441	52.974	0.110	-0.108
-693.426	-124.263	-0.064	-0.010
-692.412	-7.441	0.214	0.148
-691.397	8.909	0.109	0.084
-690.383	-128.266	0.340	-0.049
-689.368	-200.000	-0.035	-0.292
-688.354	-154.292	-0.273	0.019
-687.339	-83.715	0.184	0.060
-686.324	67.750	0.023	0.024
-685.310	-141.529	0.221	0.023
-684.295	-44.727	-0.073	-0.037
-683.281	800.000	0.068	-0.226
-682.266	800.000	0.067	-0.195
-681.251	-76.607	-0.234	0.084
-680.237	727.015	0.117	-0.319
-679.222	275.786	-0.050	0.091
-678.208	199.017	0.117	0.182
-677.193	-200.000	-0.017	0.142
-676.178	800.000	-0.088	-0.289
-675.164	800.000	0.057	-0.213
-674.149	42.437	0.057	0.053
-673.135	-44.586	0.014	-0.007
-672.120	-200.000	0.011	0.239
-671.105	800.000	-0.078	-0.238
-670.091	-80.349	-0.248	-0.085
-669.076	-68.532	0.269	0.106
-668.062	-66.725	-0.187	-0.076
-667.047	-13.089	0.233	0.155
-666.032	236.030	0.162	-0.274
-665.018	-40.028	-0.221	-0.118
-664.003	-0.202	-0.066	0.048
-662.989	-118.482	-0.413	-0.075
-661.974	800.000	-0.073	-0.222
-660.959	-21.768	0.225	-0.140
-659.945	-136.593	0.296	0.035
-658.930	169.826	-0.347	0.507
-657.916	228.939	0.085	-0.141
-656.901	-200.000	0.034	0.362
-655.886	-16.956	0.340	0.219
-654.872	-31.587	-0.137	-0.079
-653.857	141.286	-0.063	-0.085
-652.843	66.275	-0.170	-0.177
-651.828	3.508	0.153	-0.113
-650.814	-129.149	0.144	-0.021
-649.799	179.287	-0.080	-0.119
-648.784	52.236	0.287	-0.280
-647.770	800.000	-0.007	0.025
-646.755	152.817	0.153	0.213
-645.741	-61.764	0.344	0.147
-644.726	11.474	-0.225	-0.176
-643.711	49.798	-0.057	-0.055
-642.697	79.382	-0.161	-0.176
-641.682	-41.971	-0.281	-0.147
-640.668	198.616	-0.066	0.104
-639.653	421.277	-0.120	-0.262
-638.638	28.080	-0.268	0.231
-637.624	-149.160	0.046	0.004
-636.609	-113.326	-0.354	-0.071
-635.595	-107.108	0.108	0.024
-634.580	-55.418	-0.055	-0.025
-633.565	600.735	0.079	0.199
-632.551	-200.000	0.064	-0.295
-631.536	145.300	0.084	-0.114
-630.522	-200.000	-0.002	-0.146
-629.507	53.009	0.179	-0.174
-628.492	-200.000	-0.000	0.092
-627.478	-72.324	0.136	-0.051
-626.463	-29.699	0.210	0.122
-625.449	-60.457	-0.221	-0.096
-624.434	-200.000	-0.014	0.217
-623.419	-200.000	0.041	-0.205
-622.405	134.459	0.156	-0.206
-621.390	231.094	-0.097	0.162
-620.376	368.054	-0.017	0.035
-619.361	-90.779	-0.353	-0.104
-618.346	-200.000	0.022	-0.166
-617.332	-142.049	0.200	-0.020
-616.317	-91.545	0.209	0.061
-615.303	-32.305	0.237	-0.135
-614.288	-57.338	0.077	-0.035
-613.273	65.603	-0.109	0.113
-612.259	95.228	-0.226	0.262
-611.244	93.909	-0.085	0.098
-610.230	24.822	-0.012	-0.010
-609.215	396.498	-0.168	0.357
-608.201	-111.101	-0.151	-0.032
-607.186	800.000	0.036	-0.128
-606.171	158.054	0.248	-0.351
-605.157	575.861	-0.034	0.085
-604.142	-48.839	0.123	-0.060
-603.128	290.630	-0.162	-0.299
-602.113	-160.011	0.348	0.019
-601.098	266.078	0.099	-0.176
-600.084	800.000	-0.074	-0.230
-599.069	-137.762	0.309	0.035
-598.055	800.000	0.108	0.311
-597.040	212.477	0.183	-0.293
-596.025	-58.578	-0.180	-0.080
-595.011	465.497	0.153	0.348
-593.996	-81.446	0.229	-0.077
-592.982	-140.995	0.137	0.014
-591.967	-156.590	0.170	0.011
-590.952	22.463	0.120	-0.100
-589.938	-200.000	-0.041	0.255
-588.923	-140.809	-0.136	-0.014
-587.909	211.528	0.101	0.162
-586.894	118.276	-0.057	-0.071
-585.879	800.000	-0.041	-0.151
-584.865	-200.000	0.017	-0.261
-583.850	69.799	-0.274	0.287
-582.836	388.134	0.022	0.047
-581.821	23.505	-0.128	-0.107
-580.806	704.995	-0.056	-0.149
-579.792	-200.000	-0.039	0.226
-578.777	0.322	-0.184	0.133
-577.763	-181.864	0.072	0.001
-576.748	800.000	-0.025	0.075
-575.733	88.977	-0.203	0.229
-574.719	33.836	0.094	-0.083
-573.704	-200.000	0.018	-0.152
-572.690	-178.814	0.048	-0.001
-571.675	-70.456	0.115	0.044
-570.661	98.499	-0.122	0.143
-569.646	124.033	0.161	0.206
-568.631	468.538	0.166	-0.379
-567.617	-34.729	-0.216	-0.120
-566.602	-159.437	-0.289	-0.016
-565.588	-91.258	-0.203	-0.059
-564.573	-110.844	0.236	-0.049
-563.558	-110.050	-0.126	0.027
-562.544	152.173	0.280	-0.389
-561.529	-200.000	0.016	-0.230
-560.515	-117.711	-0.309	-0.056
-559.500	-160.131	-0.154	0.009
-558.485	800.000	-0.093	0.388
-557.471	-50.952	0.103	0.049
-556.456	138.010	-0.260	0.346
-555.442	760.352	0.136	0.375
-554.427	-26.793	-0.305	-0.181
-553.412	-200.000	-0.000	0.027
-552.398	-200.000	-0.020	-0.181
-551.383	-200.000	-0.017	-0.197
-550.369	36.378	-0.170	-0.152
-549.354	-111.540	-0.385	-0.080
-548.339	-200.000	-0.010	-0.061
-547.325	315.017	-0.160	0.305
-546.310	-178.222	0.239	-0.006
-545.296	287.370	0.094	0.172
-544.281	-64.189	-0.165	-0.068
-543.266	142.637	-0.176	-0.238
-542.252	-121.036	0.249	-0.043
-541.237	-41.777	-0.223	0.116
-540.223	-200.000	0.018	-0.126
-539.208	170.812	-0.110	0.160
-538.193	-8.284	-0.274	-0.188
-537.179	-146.595	0.282	0.025
-536.164	-147.107	-0.281	0.024
-535.150	96.670	-0.166	0.193
-534.135	-62.789	-0.219	0.092
-533.121	-187.103	0.293	-0.004
-532.106	83.614	-0.166	-0.184
-531.091	800.000	-0.009	-0.029
-530.077	424.744	0.153	0.334
-529.062	-200.000	-0.004	0.143
-528.048	800.000	0.115	0.387
-527.033	322.843	-0.128	0.248
-526.018	-16.688	-0.222	-0.143
-525.004	36.508	0.139	0.125
-523.989	-81.829	0.149	-0.050
-522.975	-118.246	-0.213	0.039
-521.960	642.910	-0.118	0.305
-520.945	302.010	-0.104	0.195
-519.931	285.105	-0.188	-0.343
-518.916	650.331	0.097	0.252
-517.902	-200.000	0.015	-0.073
-516.887	-51.926	-0.331	-0.156
-515.872	-200.000	0.010	-0.289
-514.858	176.361	0.030	-0.045
-513.843	155.731	-0.201	0.282
-512.829	77.908	0.104	0.112
-511.814	-200.000	0.042	0.272
-510.799	-106.003	0.108	-0.025
-509.785	749.290	-0.077	-0.211
-508.770	-90.132	-0.372	0.110
-507.756	-200.000	-0.028	0.323
-506.741	2.597	0.189	-0.139
-505.726	-22.963	0.101	-0.062
-504.712	-142.755	-0.140	-0.014
-503.697	-120.142	0.117	0.020
-502.683	61.357	0.220	-0.222
-501.668	226.527	-0.076	0.126
-500.653	-146.030	-0.095	-0.009
-499.639	800.000	-0.070	-0.226
-498.624	-200.000	-0.059	-0.333
-497.610	-102.806	-0.416	0.100
-496.595	164.121	-0.096	0.137
-495.581	27.720	-0.048	0.041
-494.566	-200.000	0.022	-0.111
-493.551	-81.402	0.057	0.019
-492.537	-39.524	0.223	0.118
-491.522	-4.480	0.305	-0.213
-490.508	-108.343	0.323	0.071
-489.493	212.593	-0.033	0.052
-488.478	-47.211	-0.074	0.036
-487.464	-160.865	0.096	0.005
-486.449	-4.556	-0.135	0.095
-485.435	-200.000	0.017	0.101
-484.420	-200.000	0.051	-0.278
-483.405	61.124	0.130	0.131
-482.391	56.104	-0.124	0.122
-481.376	-36.842	0.235	-0.128
-480.362	269.412	-0.201	-0.358
-479.347	97.078	-0.230	-0.268
-478.332	472.768	0.087	0.198
-477.318	-159.192	0.194	-0.011
-476.303	800.000	-0.025	0.079
-475.289	800.000	0.033	0.129
-474.274	-98.771	0.033	-0.008
-473.259	64.252	-0.113	-0.115
-472.245	800.000	0.101	-0.291
-471.230	-200.000	-0.107	0.000
-470.216	800.000	0.034	-0.105
-469.201	-200.000	-0.027	0.172
-468.186	800.000	-0.056	0.176
-467.172	800.000	-0.066	-0.202
-466.157	554.107	0.109	-0.266
-465.143	7.290	0.112	-0.085
-464.128	-200.000	-0.065	0.000
-463.113	-75.325	0.104	-0.037
-462.099	-172.024	-0.170	-0.006
-461.084	-200.000	-0.011	0.395
-460.070	211.722	-0.038	-0.061
-459.055	278.674	-0.114	-0.205
-458.040	34.974	0.147	0.131
-457.026	55.489	-0.043	-0.042
-456.011	-104.932	0.397	-0.092
-454.997	-79.068	-0.122	0.042
-453.982	36.447	-0.059	-0.052
-452.968	200.541	0.039	-0.060
-451.953	94.561	-0.147	0.170
-450.938	129.810	0.174	-0.225
-449.924	-126.342	0.122	0.018
-448.909	-123.725	0.175	0.028
-447.895	595.585	-0.099	-0.247
-446.880	5.609	-0.305	-0.228
-445.865	-63.555	0.252	-0.105
-444.851	800.000	-0.104	-0.399
-443.836	-200.000	-0.004	0.198
-442.822	-200.000	-0.062	0.316
-441.807	-147.666	0.299	0.025
-440.792	-0.838	-0.142	0.102
-439.778	800.000	0.065	-0.223
-438.763	800.000	0.045	-0.162
-437.749	-28.838	-0.148	-0.086
-436.734	275.414	-0.037	-0.067
-435.719	-40.222	0.203	-0.107
-434.705	78.944	0.082	0.089
-433.690	10.058	-0.264	-0.203
-432.676	-66.337	0.207	-0.083
-431.661	228.380	0.096	-0.158
-430.646	-68.803	-0.221	-0.086
-429.632	-16.630	-0.093	-0.059
-428.617	111.620	0.155	-0.189
-427.603	-64.157	0.022	-0.009
-426.588	-200.000	0.027	-0.335
-425.573	-200.000	0.040	-0.201
-424.559	-108.077	-0.176	-0.039
-423.544	48.150	0.172	0.162
-422.530	-200.000	-0.013	-0.199
-421.515	38.811	-0.211	-0.191
-420.500	734.734	0.173	0.468
-419.486	-123.466	-0.095	0.015
-418.471	-200.000	0.034	0.165
-417.457	800.000	-0.017	-0.073
-416.442	555.156	0.115	-0.280
-415.428	800.000	0.067	-0.195
-414.413	800.000	0.035	-0.106
-413.398	800.000	0.075	-0.323
-412.384	800.000	-0.029	-0.084
-411.369	-73.915	0.098	-0.036
-410.355	4.735	0.134	-0.099
-409.340	-141.372	0.130	-0.013
-408.325	-95.307	0.094	0.025
-407.311	800.000	0.105	-0.333
-406.296	800.000	0.063	0.256
-405.282	210.102	-0.150	-0.238
-404.267	-94.917	0.298	-0.081
-403.252	-17.542	-0.080	0.051
-402.238	108.054	-0.149	0.180
-401.223	800.000	0.058	0.183
-400.209	-200.000	-0.063	0.302
-399.194	800.000	-0.114	-0.354
-398.179	-29.999	0.348	-0.200
-397.165	11.659	-0.188	-0.146
-396.150	10.512	-0.153	-0.118
-395.136	-155.179	-0.096	0.006
-394.121	732.298	0.150	-0.405
-393.106	-60.346	-0.283	0.122
-392.092	154.740	0.140	-0.194
-391.077	-117.746	0.187	-0.034
-390.063	-66.739	-0.194	-0.077
-389.048	-200.000	0.022	0.312
-388.033	-57.570	0.147	-0.065
-387.019	-12.112	-0.189	-0.125
-386.004	577.208	-0.084	0.208
-384.990	-73.880	0.279	0.102
-383.975	-181.015	0.128	0.003
-382.960	-158.354	-0.419	-0.025
-381.946	48.978	0.087	-0.082
-380.931	-200.000	-0.008	0.270
-379.917	261.797	0.117	0.204
-378.902	169.717	-0.135	0.195
-377.888	-200.000	0.040	-0.200
-376.873	799.932	0.146	-0.406
-375.858	402.847	0.097	0.205
-374.844	109.912	0.085	0.103
-373.829	228.886	-0.075	-0.123
-372.815	123.654	0.012	-0.015
-371.800	-145.347	0.255	-0.023
-370.785	264.178	-0.099	0.173
-369.771	172.475	0.111	0.161
-368.756	537.881	-0.098	0.236
-367.742	-16.815	-0.193	0.123
-366.727	28.562	-0.058	0.050
-365.712	337.242	-0.155	0.304
-364.698	800.000	-0.087	0.243
-363.683	-200.000	0.032	0.198
-362.669	632.317	0.056	-0.144
-361.654	344.941	-0.060	0.118
-360.639	-15.956	0.136	0.087
-359.625	60.683	-0.312	0.312
-358.610	-10.558	0.280	0.187
-357.596	-50.884	-0.249	0.118
-356.581	387.351	0.123	-0.256
-355.566	342.278	-0.165	0.326
-354.552	-109.070	-0.047	0.010
-353.537	-200.000	0.004	0.262
-352.523	-123.992	-0.186	0.029
-351.508	-58.539	0.473	0.207
-350.493	-168.708	0.064	0.002
-349.479	-61.746	-0.139	0.059
-348.464	-200.000	-0.045	-0.285
-347.450	-200.000	-0.001	-0.304
-346.435	-82.736	0.286	-0.093
-345.420	800.000	0.056	0.203
-344.406	150.593	-0.101	-0.139
-343.391	46.425	-0.257	-0.240
-342.377	106.003	-0.258	0.308
-341.362	-200.000	-0.014	-0.386
-340.348	-130.966	0.334	-0.045
-339.333	-25.412	0.205	-0.122
-338.318	-80.220	-0.159	-0.054
-337.304	-200.000	-0.010	-0.177
-336.289	68.338	-0.271	0.280
-335.275	206.293	-0.269	-0.421
-334.260	-41.640	0.301	-0.156
-333.245	12.796	0.226	-0.176
-332.231	-82.061	-0.458	-0.151
-331.216	602.260	0.028	-0.069
-330.202	-200.000	-0.039	-0.416
-329.187	-200.000	0.020	-0.268
-328.172	-124.099	-0.440	-0.070
-327.158	68.843	-0.230	0.238
-326.143	165.967	-0.047	0.066
-325.129	-28.945	-0.212	-0.123
-324.114	422.874	0.051	-0.110
-323.099	-74.271	-0.282	-0.103
-322.085	626.058	-0.028	-0.072
-321.070	-17.616	0.204	0.129
-320.056	168.435	0.109	-0.157
-319.041	-200.000	-0.017	-0.121
-318.026	442.232	-0.086	0.189
-317.012	305.040	0.083	-0.155
-315.997	-62.202	-0.389	0.163
-314.983	91.679	-0.101	0.115
-313.968	800.000	-0.112	0.354
-312.953	-101.875	0.247	0.060
-311.939	-200.000	-0.023	0.161
-310.924	12.730	0.263	-0.204
-309.910	-95.325	-0.087	0.024
-308.895	-73.727	-0.170	0.062
-307.880	-91.165	-0.230	0.066
-306.866	104.470	-0.348	0.412
-305.851	-92.504	0.358	-0.101
-304.837	-54.853	0.264	0.120
-303.822	149.585	0.221	-0.301
-302.807	751.322	0.119	-0.322
-301.793	28.216	0.189	0.160
-300.778	-92.937	-0.408	-0.114
-299.764	246.677	0.126	0.213
-298.749	147.125	-0.129	0.175
-297.735	-200.000	-0.000	0.054
-296.720	-190.051	0.375	-0.004
-295.705	-200.000	0.007	0.085
-294.691	-200.000	-0.011	-0.140
-293.676	-200.000	-0.019	-0.181
-292.662	800.000	0.089	0.314
-291.647	-85.182	-0.236	-0.074
-290.632	426.909	-0.028	-0.061
-289.618	-3.152	0.145	-0.102
-288.603	800.000	-0.088	-0.285
-287.589	-132.641	0.537	0.069
-286.574	143.605	0.198	0.265
-285.559	800.000	0.098	-0.408
-284.545	800.000	0.040	-0.169
-283.530	135.012	-0.101	0.133
-282.516	17.180	-0.204	0.163
-281.501	475.298	-0.074	0.169
-280.486	800.000	0.028	0.098
-279.472	-76.584	0.115	-0.040
-278.457	-79.529	0.556	0.189
-277.443	-106.085	0.226	-0.051
-276.428	4.094	-0.338	0.249
-275.413	-124.645	-0.315	0.049
-274.399	-200.000	0.026	0.225
-273.384	149.229	-0.095	0.129
-272.370	127.013	-0.137	0.175
-271.355	226.317	-0.210	-0.342
-270.340	241.275	0.014	0.024
-269.326	800.000	0.082	0.239
-268.311	800.000	-0.136	0.486
-267.297	800.000	0.036	-0.155
-266.282	190.472	0.093	0.140
-265.267	800.000	0.028	-0.099
-264.253	202.419	0.181	-0.280
-263.238	800.000	-0.010	0.041
-262.224	-200.000	0.012	-0.226
-261.209	-69.035	0.062	-0.024
-260.195	-8.393	-0.214	-0.144
-259.180	-200.000	0.015	0.143
-258.165	-171.762	0.169	0.006
-257.151	-200.000	0.033	0.347
-256.136	-68.159	-0.194	0.076
-255.122	234.719	-0.262	-0.434
-254.107	15.351	-0.063	0.050
-253.092	310.011	0.186	0.350
-252.078	-200.000	-0.002	-0.054
-251.063	800.000	-0.042	-0.178
-250.049	-128.539	0.162	0.023
-249.034	-11.545	0.101	0.067
-248.019	149.188	0.097	0.131
-247.005	-135.335	0.502	-0.060
-245.990	-45.210	0.120	0.060
-244.976	37.030	-0.284	0.253
-243.961	69.372	-0.214	-0.221
-242.946	-12.656	0.159	0.104
-241.932	118.865	0.072	0.089
-240.917	-41.530	0.139	0.072
-239.903	-2.871	-0.540	0.379
-238.888	-2.748	-0.271	0.190
-237.873	64.473	0.071	-0.072
-236.859	-170.958	-0.301	0.010
-235.844	7.170	0.174	0.130
-234.830	202.343	-0.190	-0.294
-233.815	23.668	0.165	0.137
-232.800	-50.476	-0.129	0.061
-231.786	-200.000	0.051	-0.419
-230.771	24.649	-0.013	0.011
-229.757	-142.895	-0.299	0.029
-228.742	-20.699	0.154	0.095
-227.727	402.707	0.083	0.176
-226.713	800.000	-0.048	0.199
-225.698	-35.997	0.253	0.138
-224.684	5.283	0.364	0.269
-223.669	-200.000	0.024	-0.118
-222.655	301.823	0.142	0.263
-221.640	84.253	-0.083	-0.091
-220.625	-200.000	0.003	0.345
-219.611	-117.490	0.140	0.025
-218.596	800.000	-0.084	-0.238
-217.582	-8.748	-0.194	0.130
-216.567	-200.000	-0.001	-0.104
-215.552	-200.000	-0.022	-0.116
-214.538	-162.391	0.165	-0.008
-213.523	-37.331	0.207	0.111
-212.509	-200.000	0.026	-0.177
-211.494	-200.000	-0.041	0.265
-210.479	-200.000	0.022	-0.397
-209.465	103.417	0.196	0.230
-208.450	-20.234	0.221	0.137
-207.436	800.000	-0.096	0.269
-206.421	131.616	0.106	0.137
-205.406	-200.000	0.027	0.275
-204.392	298.745	-0.159	0.293
-203.377	800.000	0.070	0.237
-202.363	174.220	0.076	-0.110
-201.348	72.547	0.188	0.197
-200.333	800.000	-0.083	-0.249
-199.319	227.263	-0.219	-0.356
-198.304	29.104	-0.034	0.029
-197.290	-91.125	-0.285	-0.082
-196.275	-168.451	0.377	-0.014
-195.260	-5.090	-0.161	0.111
-194.246	174.784	-0.112	0.162
-193.231	800.000	0.100	0.325
-192.217	50.953	-0.184	0.175
-191.202	-149.897	0.170	0.013
-190.187	-163.755	0.024	-0.001
-189.173	-65.932	0.317	-0.127
-188.158	75.993	0.191	0.203
-187.144	-12.795	0.213	0.139
-186.129	155.150	-0.051	0.070
-185.114	-69.978	0.246	-0.094
-184.100	-200.000	-0.040	0.313
-183.085	176.982	-0.131	-0.191
-182.071	24.764	0.336	-0.278
-181.056	-181.911	0.292	0.006
-180.042	589.688	0.022	0.054
-179.027	46.868	-0.126	0.117
-178.012	227.588	0.172	0.280
-176.998	-121.562	0.007	-0.001
-175.983	-118.347	0.204	0.036
-174.969	255.804	-0.083	-0.143
-173.954	60.912	-0.075	-0.074
-172.939	264.131	-0.019	0.034
-171.925	183.827	0.109	-0.161
-170.910	-5.354	-0.113	0.078
-169.896	45.953	-0.190	-0.176
-168.881	329.755	-0.066	0.127
-167.866	-200.000	0.025	-0.170
-166.852	428.543	-0.083	0.180
-165.837	288.466	0.038	0.069
-164.823	-125.718	0.337	0.051
-163.808	-57.764	0.381	0.167
-162.793	-126.218	-0.196	0.029
-161.779	273.789	-0.036	-0.063
-160.764	101.163	0.079	0.092
-159.750	-131.676	-0.072	0.009
-158.735	79.860	-0.164	-0.177
-157.720	41.414	-0.223	-0.202
-156.706	-114.408	0.444	-0.086
-155.691	772.567	0.083	-0.226
-154.677	-145.575	-0.221	0.020
-153.662	-143.545	-0.209	0.020
-152.647	192.018	-0.097	-0.146
-151.633	79.023	0.119	0.128
-150.618	-200.000	-0.032	-0.238
-149.604	72.933	-0.127	-0.133
-148.589	-71.364	-0.329	-0.123
-147.574	198.152	-0.062	-0.095
-146.560	432.761	-0.104	0.226
-145.545	65.112	-0.146	0.147
-144.531	-128.371	0.156	0.022
-143.516	-6.220	-0.105	0.072
-142.502	-200.000	-0.026	0.153
-141.487	240.697	-0.125	-0.208
-140.472	1.579	0.275	0.198
-139.458	268.685	0.057	0.099
-138.443	-23.103	-0.042	0.025
-137.429	126.555	-0.124	0.156
-136.414	171.308	0.173	-0.249
-135.399	-79.307	0.194	0.066
-134.385	222.162	-0.071	-0.113
-133.370	-200.000	-0.055	0.304
-132.356	337.765	0.091	-0.178
-131.341	-24.340	0.307	0.183
-130.326	23.196	0.149	0.123
-129.312	334.345	-0.060	0.116
-128.297	-200.000	-0.021	0.217
-127.283	246.827	0.088	-0.149
-126.268	101.756	0.089	-0.104
-125.253	101.422	0.201	0.234
-124.239	37.391	0.067	-0.059
-123.224	-83.259	-0.266	-0.085
-122.210	524.326	0.017	0.040
-121.195	-2.488	-0.161	0.113
