DTS Sentinel unit serial number:	SN413079Multiplexer serial number:	ORYXHardware model number:	OX4-SRSoftware version number:	ORYX F/W v4.00 Oryx Data Collector v3.7.2.0data status	okinstallation	princeton_trtdifferential loss correction	single-endedforward channel	channel 1reverse channel	N/Adate	2019/09/16time	23:42:35forward acquisition time	60.00reverse acquisition time	0.00gamma	496.2192k internal	0.2325k external	0.2325temperature offset calibration	0.9956default loss term (dB/km)	0.3790temperature slope calibration	1.0000multiplexer offset coefficient	1.0000multiplexer slope coefficient	1.0000fibre end	0.00T internal ref (°C)	29.73T ext. ref 1 (°C)	0.09T ext. ref 2 (°C)	23.76length (m)	temperature (°C)	Stokes	anti-Stokes-747.200	111.046	0.085	0.103
-746.185	51.654	-0.038	0.037
-745.171	-58.919	-0.176	0.077
-744.156	253.376	-0.141	0.243
-743.142	-200.000	-0.037	0.193
-742.127	295.274	-0.069	0.128
-741.112	800.000	-0.061	0.169
-740.098	-84.578	-0.177	0.056
-739.083	-89.367	-0.224	0.066
-738.069	391.465	0.055	0.115
-737.054	-148.424	0.096	-0.008
-736.039	-39.539	-0.269	0.142
-735.025	-88.137	-0.067	-0.020
-734.010	263.087	-0.057	-0.099
-732.996	316.872	-0.029	0.055
-731.981	588.908	-0.143	0.355
-730.966	80.014	-0.232	-0.252
-729.952	49.025	0.180	-0.171
-728.937	-200.000	-0.007	0.040
-727.923	-47.848	0.161	0.079
-726.908	278.298	-0.156	-0.281
-725.894	-95.511	-0.325	0.088
-724.879	-87.980	-0.142	0.043
-723.864	-133.338	0.100	0.013
-722.850	-38.431	-0.228	-0.121
-721.835	-98.267	-0.207	0.054
-720.821	800.000	-0.065	-0.265
-719.806	30.673	0.067	-0.058
-718.791	164.572	-0.080	-0.114
-717.777	800.000	0.165	-0.472
-716.762	51.190	-0.208	-0.199
-715.748	-22.481	-0.125	0.076
-714.733	800.000	-0.032	0.116
-713.718	-21.328	-0.532	0.328
-712.704	-119.395	0.107	-0.019
-711.689	-158.890	0.067	0.004
-710.675	-97.841	0.351	-0.091
-709.660	80.275	0.188	-0.203
-708.645	19.493	0.202	-0.164
-707.631	-200.000	-0.010	-0.401
-706.616	-105.958	-0.095	-0.022
-705.602	-23.081	0.441	0.267
-704.587	542.634	0.205	-0.493
-703.572	-200.000	0.010	0.263
-702.558	-157.004	-0.128	0.008
-701.543	-187.488	-0.264	-0.004
-700.529	112.555	-0.240	0.293
-699.514	-8.094	0.215	0.146
-698.499	-179.027	-0.159	0.004
-697.485	-100.608	0.102	-0.025
-696.470	12.290	0.153	0.119
-695.456	225.155	-0.156	-0.254
-694.441	-200.000	0.010	-0.106
-693.426	-90.758	-0.252	0.073
-692.412	366.788	-0.203	-0.413
-691.397	-200.000	0.039	-0.197
-690.383	65.965	0.225	-0.230
-689.368	-132.342	-0.176	0.023
-688.354	-37.817	-0.118	0.063
-687.339	-200.000	-0.039	0.175
-686.324	-200.000	0.023	0.193
-685.310	800.000	-0.052	-0.149
-684.295	57.646	-0.060	-0.059
-683.281	351.935	-0.072	-0.144
-682.266	510.481	-0.039	0.090
-681.251	102.352	-0.091	-0.107
-680.237	147.066	-0.072	0.098
-679.222	-77.617	-0.060	0.021
-678.208	293.341	0.192	0.353
-677.193	-154.525	-0.238	0.016
-676.178	304.806	0.157	-0.294
-675.164	800.000	0.100	-0.382
-674.149	-37.455	-0.101	0.054
-673.135	-168.608	-0.182	-0.007
-672.120	195.961	-0.121	-0.185
-671.105	-67.951	-0.149	0.058
-670.091	-164.331	-0.102	-0.005
-669.076	-200.000	0.003	-0.126
-668.062	-106.443	-0.184	0.041
-667.047	-200.000	-0.042	0.209
-666.032	381.097	0.158	-0.326
-665.018	491.301	-0.072	0.165
-664.003	-200.000	0.032	-0.209
-662.989	800.000	0.050	0.189
-661.974	75.388	0.115	0.122
-660.959	-200.000	0.004	-0.040
-659.945	389.679	-0.067	0.139
-658.930	-86.160	-0.152	0.047
-657.916	-200.000	-0.007	0.051
-656.901	-118.307	-0.119	-0.021
-655.886	279.397	0.076	-0.136
-654.872	-157.184	-0.241	-0.015
-653.857	353.018	-0.122	-0.243
-652.843	-200.000	-0.026	-0.144
-651.828	-200.000	-0.005	-0.233
-650.814	-121.431	-0.145	0.024
-649.799	-120.423	-0.117	-0.020
-648.784	77.301	-0.234	0.250
-647.770	-144.661	-0.302	-0.028
-646.755	-200.000	0.013	0.103
-645.741	149.630	-0.207	-0.281
-644.726	800.000	0.101	-0.385
-643.711	800.000	0.050	-0.175
-642.697	800.000	-0.107	-0.370
-641.682	-79.509	0.084	-0.029
-640.668	149.306	0.129	-0.176
-639.653	-200.000	0.062	-0.439
-638.638	-200.000	-0.009	0.049
-637.624	-200.000	0.014	0.329
-636.609	-100.234	0.276	-0.069
-635.595	524.558	0.133	-0.315
-634.580	-110.421	-0.244	0.051
-633.565	-66.611	0.236	-0.094
-632.551	-157.899	-0.215	0.013
-631.536	297.405	0.084	0.155
-630.522	-200.000	-0.009	0.052
-629.507	127.928	-0.096	-0.122
-628.492	6.058	0.276	-0.205
-627.478	-43.781	0.384	-0.194
-626.463	-200.000	0.029	-0.250
-625.449	93.697	0.100	-0.114
-624.434	-47.561	-0.148	-0.072
-623.419	0.276	-0.186	-0.133
-622.405	-42.796	-0.076	0.039
-621.390	12.968	-0.127	0.099
-620.376	-81.358	0.049	0.016
-619.361	-124.391	0.135	0.021
-618.346	182.980	0.126	-0.187
-617.332	196.446	-0.079	0.120
-616.317	-84.270	0.210	0.067
-615.303	-200.000	0.001	-0.073
-614.288	-200.000	-0.004	-0.261
-613.273	148.468	0.018	-0.025
-612.259	-162.891	-0.070	-0.003
-611.244	261.369	-0.236	0.409
-610.230	89.796	0.077	-0.086
-609.215	515.104	-0.125	-0.292
-608.201	-4.931	0.160	-0.111
-607.186	-200.000	0.019	0.212
-606.171	273.756	-0.322	0.571
-605.157	800.000	0.028	0.113
-604.142	-117.009	-0.121	0.022
-603.128	-143.674	0.164	0.016
-602.113	186.743	-0.177	0.265
-601.098	-11.466	0.171	-0.113
-600.084	800.000	0.132	0.390
-599.069	-172.818	-0.343	0.011
-598.055	209.788	-0.072	0.113
-597.040	-72.876	-0.100	-0.037
-596.025	-87.131	-0.258	0.079
-595.011	-200.000	0.005	-0.100
-593.996	469.747	-0.114	-0.257
-592.982	-8.015	-0.200	-0.136
-591.967	-92.144	-0.362	0.103
-590.952	130.410	-0.157	0.202
-589.938	42.532	0.163	-0.149
-588.923	7.154	-0.197	0.147
-587.909	409.623	-0.054	0.114
-586.894	-200.000	-0.042	-0.378
-585.879	-60.659	0.092	-0.039
-584.865	547.588	0.113	0.272
-583.850	-200.000	-0.006	0.089
-582.836	-123.212	-0.155	0.025
-581.821	-59.211	0.119	0.051
-580.806	143.424	-0.121	-0.162
-579.792	-200.000	-0.022	-0.108
-578.777	51.142	0.127	-0.121
-577.763	-200.000	0.055	0.281
-576.748	-94.101	-0.133	-0.036
-575.733	800.000	0.020	0.074
-574.719	-200.000	0.008	-0.177
-573.704	218.911	0.021	0.033
-572.690	475.223	-0.058	-0.132
-571.675	800.000	-0.039	0.161
-570.661	800.000	0.049	-0.184
-569.646	800.000	0.106	-0.309
-568.631	186.083	-0.099	0.147
-567.617	-200.000	-0.021	-0.377
-566.602	-200.000	-0.039	0.201
-565.588	-200.000	0.005	0.171
-564.573	-46.489	-0.272	0.134
-563.558	-200.000	-0.016	-0.094
-562.544	-92.675	0.134	0.038
-561.529	55.661	0.218	0.211
-560.515	128.959	-0.177	0.226
-559.500	-200.000	0.040	0.520
-558.485	161.788	-0.205	0.288
-557.471	-200.000	0.098	-0.439
-556.456	-125.106	0.265	0.041
-555.442	184.047	0.073	-0.108
-554.427	800.000	0.039	0.148
-553.412	65.465	0.116	-0.117
-552.398	-154.056	0.336	0.023
-551.383	335.288	-0.095	-0.185
-550.369	-200.000	-0.009	-0.405
-549.354	385.354	0.018	-0.038
-548.339	800.000	0.124	0.420
-547.325	-67.202	-0.236	-0.093
-546.310	487.526	-0.052	-0.119
-545.296	161.499	-0.082	-0.114
-544.281	-74.556	0.268	0.096
-543.266	99.546	0.036	0.042
-542.252	-45.826	0.121	0.060
-541.237	-47.540	0.035	-0.017
-540.223	-200.000	0.017	-0.229
-539.208	-36.290	0.292	-0.158
-538.193	-136.996	-0.086	0.010
-537.179	26.819	-0.074	0.062
-536.164	-37.822	-0.242	-0.129
-535.150	-187.186	0.087	-0.001
-534.135	727.583	0.059	-0.158
-533.121	282.698	0.160	-0.286
-532.106	-27.506	0.332	0.193
-531.091	125.605	-0.041	0.052
-530.077	3.276	0.046	0.034
-529.062	-131.151	0.262	-0.035
-528.048	-136.065	-0.304	-0.036
-527.033	-170.946	0.326	-0.011
-526.018	242.145	0.061	0.103
-525.004	654.431	0.084	-0.215
-523.989	-200.000	-0.002	-0.063
-522.975	458.091	-0.045	0.100
-521.960	-13.611	-0.343	0.222
-520.945	139.794	-0.154	0.203
-519.931	-92.197	-0.275	-0.078
-518.916	596.556	0.027	-0.066
-517.902	-200.000	0.009	0.091
-516.887	741.221	0.033	0.089
-515.872	-34.087	0.221	0.121
-514.858	267.117	-0.122	-0.213
-513.843	52.396	0.228	0.217
-512.829	386.763	0.100	0.207
-511.814	9.629	-0.040	-0.030
-510.799	800.000	0.067	-0.281
-509.785	-200.000	0.009	0.000
-508.770	77.027	-0.059	0.062
-507.756	-200.000	-0.056	-0.332
-506.741	122.513	0.130	-0.163
-505.726	-200.000	0.029	0.167
-504.712	-200.000	-0.087	0.450
-503.697	-19.087	0.390	0.242
-502.683	-34.863	0.071	0.039
-501.668	681.185	-0.063	0.163
-500.653	-0.014	0.160	0.114
-499.639	-76.217	0.045	-0.016
-498.624	436.076	-0.080	0.173
-497.610	731.630	0.057	0.152
-496.595	800.000	0.056	0.189
-495.581	4.700	0.217	-0.159
-494.566	-200.000	0.040	-0.321
-493.551	-94.566	-0.133	0.036
-492.537	-105.446	0.129	-0.029
-491.522	682.927	-0.025	0.065
-490.508	-61.257	-0.125	-0.053
-489.493	-124.935	0.057	-0.009
-488.478	546.574	-0.087	-0.209
-487.464	753.453	0.088	-0.237
-486.449	-200.000	0.001	0.011
-485.435	569.405	0.051	0.123
-484.420	-200.000	-0.006	0.061
-483.405	-102.977	0.289	0.068
-482.391	407.521	-0.067	-0.141
-481.376	233.275	0.210	-0.345
-480.362	-93.778	-0.299	-0.082
-479.347	126.384	0.144	0.182
-478.332	-200.000	0.038	-0.193
-477.318	-169.775	0.073	-0.003
-476.303	-46.407	0.318	-0.156
-475.289	-54.763	-0.057	0.026
-474.274	-70.348	0.299	0.113
-473.259	-29.223	0.123	-0.071
-472.245	139.232	0.024	0.031
-471.230	800.000	-0.029	0.099
-470.216	-200.000	-0.009	-0.209
-469.201	567.185	0.112	0.271
-468.186	800.000	0.054	0.185
-467.172	-200.000	0.005	-0.036
-466.157	-65.124	0.093	-0.038
-465.143	-134.190	-0.131	0.016
-464.128	124.404	-0.100	-0.125
-463.113	165.570	0.171	-0.241
-462.099	508.666	0.154	0.357
-461.084	-42.025	-0.098	-0.050
-460.070	-113.698	-0.221	0.043
-459.055	-140.026	0.100	-0.010
-458.040	800.000	-0.076	0.282
-457.026	-18.624	0.200	-0.125
-456.011	303.083	0.165	-0.305
-454.997	-200.000	0.015	-0.218
-453.982	-83.753	0.171	0.054
-452.968	-6.650	-0.300	-0.203
-451.953	-200.000	-0.016	0.106
-450.938	696.960	0.162	-0.423
-449.924	-121.762	-0.299	-0.049
-448.909	-63.669	0.102	0.042
-447.895	-200.000	0.048	0.245
-446.880	514.873	-0.106	0.247
-445.865	-99.079	0.270	0.068
-444.851	-133.972	-0.175	-0.022
-443.836	431.786	-0.160	-0.346
-442.822	-200.000	-0.014	0.212
-441.807	-96.995	0.055	0.014
-440.792	222.094	0.083	-0.133
-439.778	-53.340	0.111	0.051
-438.763	140.852	-0.130	-0.171
-437.749	-51.105	-0.206	0.096
-436.734	4.782	-0.206	0.151
-435.719	-90.413	0.278	0.080
-434.705	-35.364	-0.199	0.108
-433.690	-200.000	0.026	0.176
-432.676	-71.875	0.196	-0.073
-431.661	16.495	0.137	0.108
-430.646	-83.809	-0.325	-0.103
-429.632	739.236	-0.043	-0.114
-428.617	-92.472	-0.188	0.053
-427.603	739.132	-0.052	0.139
-426.588	800.000	0.112	0.324
-425.573	135.579	0.078	0.101
-424.559	114.860	0.127	0.155
-423.544	54.020	-0.076	0.073
-422.530	680.727	-0.044	0.114
-421.515	70.690	-0.098	0.101
-420.500	-164.127	-0.152	0.007
-419.486	91.324	-0.063	-0.071
-418.471	142.444	-0.104	-0.137
-417.457	-200.000	0.015	0.390
-416.442	-90.357	-0.042	-0.012
-415.428	-27.704	-0.258	0.149
-414.413	545.443	0.072	0.173
-413.398	-200.000	0.006	0.382
-412.384	-89.677	0.214	0.062
-411.369	521.947	0.065	-0.151
-410.355	800.000	-0.028	0.087
-409.340	-75.476	-0.209	-0.074
-408.325	-16.213	0.296	0.187
-407.311	800.000	0.058	-0.170
-406.296	-147.223	0.147	0.012
-405.282	-65.749	-0.161	-0.064
-404.267	800.000	0.070	0.207
-403.252	122.849	-0.113	-0.141
-402.238	-65.988	-0.352	0.140
-401.223	-135.298	0.076	-0.009
-400.209	-183.771	0.322	-0.005
-399.194	-200.000	-0.055	-0.305
-398.179	-8.784	0.370	-0.247
-397.165	-54.146	0.068	-0.031
-396.150	-115.046	-0.456	0.086
-395.136	-91.485	-0.324	0.092
-394.121	-32.551	0.170	-0.094
-393.106	800.000	0.077	-0.283
-392.092	157.732	-0.063	-0.087
-391.077	166.992	-0.145	0.204
-390.063	-200.000	-0.028	-0.160
-389.048	800.000	-0.112	-0.353
-388.033	266.154	-0.171	0.297
-387.019	800.000	0.042	0.166
-386.004	-36.300	0.238	0.128
-384.990	523.786	0.140	0.327
-383.975	139.637	0.158	-0.207
-382.960	800.000	0.081	0.319
-381.946	-15.746	0.246	0.156
-380.931	18.028	-0.058	0.046
-379.917	-138.986	-0.126	-0.014
-378.902	-124.702	0.485	-0.075
-377.888	-79.947	0.032	-0.011
-376.873	171.806	-0.231	-0.330
-375.858	-28.241	-0.259	-0.149
-374.844	-54.654	0.061	0.027
-373.829	-172.601	0.044	0.001
-372.815	-109.848	0.200	0.042
-371.800	34.821	-0.165	-0.143
-370.785	-102.850	-0.034	0.008
-369.771	671.848	-0.143	0.370
-368.756	-160.116	-0.231	0.012
-367.742	364.943	-0.130	-0.260
-366.727	-130.947	0.180	0.024
-365.712	-165.734	0.210	-0.009
-364.698	-61.787	0.129	-0.054
-363.683	-74.974	-0.386	0.137
-362.669	-200.000	-0.004	0.059
-361.654	39.553	0.099	-0.088
-360.639	146.476	-0.141	-0.188
-359.625	-132.066	0.393	-0.051
-358.610	5.696	-0.207	-0.152
-357.596	-111.063	0.197	0.040
-356.581	800.000	-0.045	-0.180
-355.566	146.539	-0.103	0.137
-354.552	-50.821	0.139	0.065
-353.537	22.139	-0.025	0.020
-352.523	-56.027	0.100	0.045
-351.508	-72.564	-0.047	0.017
-350.493	20.280	0.337	0.271
-349.479	-82.271	-0.296	0.096
-348.464	-77.686	-0.298	0.102
-347.450	57.009	0.089	-0.086
-346.435	120.495	0.196	-0.241
-345.420	-175.823	0.155	-0.004
-344.406	-11.773	-0.117	-0.077
-343.391	-120.304	-0.218	0.037
-342.377	530.542	-0.030	-0.071
-341.362	-100.048	0.146	0.036
-340.348	-113.587	-0.355	-0.069
-339.333	800.000	-0.051	-0.176
-338.318	-10.664	0.230	-0.151
-337.304	-0.869	0.305	0.215
-336.289	-11.289	-0.074	-0.049
-335.275	-200.000	0.029	0.209
-334.260	-34.067	-0.049	-0.027
-333.245	-84.916	-0.077	-0.024
-332.231	235.139	-0.041	0.068
-331.216	-15.579	0.305	0.193
-330.202	34.002	-0.148	0.128
-329.187	8.860	0.187	0.140
-328.172	-128.324	0.152	-0.022
-327.158	371.249	-0.123	-0.249
-326.143	800.000	-0.085	0.298
-325.129	-80.457	-0.222	-0.074
-324.114	208.736	-0.187	-0.291
-323.099	-95.724	0.205	-0.054
-322.085	293.200	-0.056	0.101
-321.070	48.445	-0.250	0.232
-320.056	-28.076	-0.221	-0.127
-319.041	245.335	0.008	-0.014
-318.026	-135.649	0.042	0.005
-317.012	310.481	0.053	0.099
-315.997	443.485	0.075	-0.164
-314.983	-119.597	0.245	-0.042
-313.968	636.442	0.159	0.400
-312.953	-87.071	-0.051	0.015
-311.939	-94.989	-0.331	0.089
-310.924	517.842	0.179	-0.414
-309.910	-131.254	-0.309	-0.041
-308.895	81.794	-0.135	0.145
-307.880	800.000	-0.052	-0.166
-306.866	54.587	-0.238	-0.228
-305.851	800.000	0.015	0.047
-304.837	533.892	0.131	0.307
-303.822	197.163	0.114	-0.172
-302.807	22.153	0.268	0.217
-301.793	-56.299	0.084	-0.037
-300.778	800.000	0.099	0.378
-299.764	340.073	0.081	0.157
-298.749	258.864	-0.107	0.183
-297.735	-168.712	0.257	0.010
-296.720	-138.866	-0.111	-0.012
-295.705	-49.454	0.117	0.055
-294.691	-34.925	-0.237	-0.128
-293.676	-86.377	0.202	0.061
-292.662	-200.000	0.003	0.590
-291.647	-136.638	-0.087	-0.010
-290.632	800.000	0.040	0.118
-289.618	41.435	0.278	0.249
-288.603	354.347	-0.069	0.135
-287.589	-29.983	0.215	-0.121
-286.574	-78.277	-0.032	0.011
-285.559	-1.824	-0.133	0.092
-284.545	-200.000	-0.039	-0.294
-283.530	239.132	-0.232	-0.383
-282.516	-53.404	-0.413	-0.187
-281.501	79.632	-0.130	0.138
-280.486	517.928	0.020	-0.046
-279.472	31.458	-0.164	-0.140
-278.457	-186.673	-0.268	0.004
-277.443	114.365	-0.130	0.157
-276.428	15.834	-0.148	-0.115
-275.413	-10.697	0.324	-0.212
-274.399	-96.149	0.269	0.071
-273.384	-150.904	-0.297	0.022
-272.370	-6.112	-0.178	0.120
-271.355	-127.246	0.171	0.025
-270.340	72.884	0.108	-0.112
-269.326	138.749	0.217	0.282
-268.311	800.000	-0.031	-0.096
-267.297	-149.354	-0.290	0.023
-266.282	-67.710	-0.078	-0.030
-265.267	800.000	-0.047	0.167
-264.253	-179.837	0.145	-0.003
-263.238	-28.471	0.174	0.100
-262.224	-200.000	0.031	-0.313
-261.209	97.138	0.178	-0.202
-260.195	-200.000	0.010	0.321
-259.180	-119.461	-0.373	-0.064
-258.165	72.546	-0.096	0.100
-257.151	-200.000	0.002	-0.144
-256.136	-200.000	0.031	-0.180
-255.122	-200.000	-0.009	0.248
-254.107	-25.056	0.066	-0.039
-253.092	386.274	0.117	0.239
-252.078	34.288	0.189	0.163
-251.063	-102.648	0.376	-0.089
-250.049	-200.000	-0.017	-0.324
-249.034	-132.216	0.397	0.051
-248.019	52.766	0.052	-0.049
-247.005	-35.076	-0.248	0.134
-245.990	-84.197	-0.337	-0.106
-244.976	775.883	-0.089	-0.239
-243.961	57.542	-0.174	0.168
-242.946	-46.810	0.150	-0.073
-241.932	-104.954	-0.035	0.008
-240.917	-200.000	0.028	0.281
-239.903	222.087	-0.077	0.123
-238.888	-200.000	0.040	-0.332
-237.873	-153.962	-0.593	0.040
-236.859	31.102	-0.265	-0.225
-235.844	73.721	-0.112	-0.116
-234.830	37.404	0.147	0.129
-233.815	-30.563	-0.286	-0.160
-232.800	-66.802	0.293	-0.115
-231.786	-45.879	-0.054	0.027
-230.771	-118.756	-0.146	-0.026
-229.757	34.463	-0.278	0.240
-228.742	-132.299	0.172	-0.022
-227.727	465.637	-0.161	0.356
-226.713	-99.096	-0.065	0.016
-225.698	-6.138	0.178	0.120
-224.684	-139.085	0.128	0.014
-223.669	37.674	0.149	-0.131
-222.655	246.488	-0.216	0.360
-221.640	101.172	0.414	0.476
-220.625	129.812	0.255	-0.322
-219.611	124.932	0.051	-0.063
-218.596	-38.169	-0.214	-0.112
-217.582	-165.714	-0.173	-0.007
-216.567	-113.468	-0.150	0.029
-215.552	390.832	0.125	0.256
-214.538	-200.000	-0.017	-0.262
-213.523	17.367	-0.261	-0.205
-212.509	-128.915	-0.190	-0.026
-211.494	-61.845	0.099	-0.041
-210.479	327.930	0.103	0.195
-209.465	391.458	-0.034	0.069
-208.450	245.806	0.094	-0.156
-207.436	-49.645	0.023	-0.011
-206.421	390.994	-0.229	-0.470
-205.406	73.359	0.172	-0.178
-204.392	-98.744	-0.228	0.057
-203.377	674.333	0.112	-0.287
-202.363	-200.000	-0.022	-0.324
-201.348	50.884	0.072	-0.067
-200.333	800.000	-0.077	0.312
-199.319	-102.418	-0.277	-0.066
-198.304	-41.687	-0.130	0.066
-197.290	-125.623	-0.076	0.011
-196.275	-200.000	-0.002	0.103
-195.260	140.461	0.208	-0.271
-194.246	513.603	0.042	0.097
-193.231	-121.310	0.236	-0.039
-192.217	-61.453	-0.428	0.178
-191.202	800.000	0.037	-0.105
-190.187	-138.040	-0.223	0.024
-189.173	-31.970	-0.224	0.124
-188.158	474.544	0.079	0.176
-187.144	800.000	0.076	-0.232
-186.129	-200.000	0.012	0.311
-185.114	52.788	0.137	-0.129
-184.100	66.263	-0.096	0.096
-183.085	-91.224	0.075	0.021
-182.071	-97.080	-0.160	-0.041
-181.056	-45.323	-0.345	0.169
-180.042	173.530	0.081	0.115
-179.027	-72.854	0.366	-0.133
-178.012	800.000	0.030	0.119
-176.998	12.772	-0.106	-0.081
-175.983	-126.300	-0.344	0.051
-174.969	-200.000	0.058	-0.283
-173.954	-106.065	0.268	0.059
-172.939	-200.000	-0.002	-0.068
-171.925	73.770	-0.115	0.119
-170.910	800.000	0.086	-0.237
-169.896	43.256	-0.102	-0.092
-168.881	-43.653	-0.187	0.093
-167.866	-23.538	-0.080	-0.047
-166.852	189.579	-0.068	-0.100
-165.837	10.468	-0.046	0.034
-164.823	199.708	-0.146	-0.220
-163.808	-5.674	0.224	-0.151
-162.793	-98.367	0.156	0.039
-161.779	-73.769	0.196	-0.070
-160.764	71.755	0.225	-0.231
-159.750	220.833	0.190	0.301
-158.735	-137.361	0.116	-0.013
-157.720	800.000	0.030	0.120
-156.706	374.358	0.035	0.071
-155.691	370.379	0.143	-0.286
-154.677	-174.080	0.395	-0.011
-153.662	-24.948	0.036	0.021
-152.647	-200.000	0.012	-0.076
-151.633	240.631	-0.072	-0.118
-150.618	-110.993	-0.184	-0.037
-149.604	149.940	-0.074	-0.099
-148.589	-200.000	-0.014	0.086
-147.574	-125.910	0.093	0.014
-146.560	-200.000	-0.006	-0.325
-145.545	-76.001	0.312	0.109
-144.531	800.000	-0.125	0.421
-143.516	-84.990	0.202	-0.062
-142.502	-200.000	-0.041	0.223
-141.487	536.116	-0.111	0.260
-140.472	-200.000	0.045	0.226
-139.458	32.669	-0.149	-0.127
-138.443	290.893	0.136	0.244
-137.429	83.059	-0.193	0.207
-136.414	-78.654	0.128	-0.043
-135.399	800.000	-0.039	0.156
-134.385	514.109	-0.072	-0.166
-133.370	-125.257	0.212	0.032
-132.356	-200.000	0.064	0.329
-131.341	-155.976	0.245	0.015
-130.326	-48.877	0.187	-0.089
-129.312	47.459	0.261	0.240
-128.297	-82.209	0.419	-0.135
-127.283	-59.337	-0.269	-0.114
-126.268	-75.359	-0.103	-0.036
-125.253	101.845	-0.256	0.294
-124.239	-74.860	-0.052	-0.018
-123.224	-57.503	0.252	0.109
-122.210	-149.347	-0.128	-0.010
