DTS Sentinel unit serial number:	SN413079Multiplexer serial number:	ORYXHardware model number:	OX4-SRSoftware version number:	ORYX F/W v4.00 Oryx Data Collector v3.7.2.0data status	okinstallation	princeton_trtdifferential loss correction	single-endedforward channel	channel 1reverse channel	N/Adate	2019/09/18time	18:14:35forward acquisition time	60.00reverse acquisition time	0.00gamma	496.2192k internal	0.2294k external	0.2294temperature offset calibration	1.0012default loss term (dB/km)	0.3790temperature slope calibration	1.0000multiplexer offset coefficient	1.0000multiplexer slope coefficient	1.0000fibre end	0.00T internal ref (°C)	38.97T ext. ref 1 (°C)	0.93T ext. ref 2 (°C)	32.22length (m)	temperature (°C)	Stokes	anti-Stokes-747.200	-35.004	0.396	0.221
-746.185	-200.000	0.016	-0.252
-745.171	216.851	0.080	-0.131
-744.156	-200.000	-0.016	-0.075
-743.142	800.000	0.061	0.182
-742.127	112.872	-0.088	0.109
-741.112	-200.000	0.001	0.025
-740.098	156.879	-0.239	0.338
-739.083	61.849	0.190	-0.194
-738.069	-138.478	0.283	0.032
-737.054	-16.216	-0.104	0.068
-736.039	-25.155	0.099	0.060
-735.025	-200.000	0.061	0.284
-734.010	-165.170	0.311	0.014
-732.996	-35.845	-0.145	0.080
-731.981	800.000	-0.095	-0.322
-730.966	10.428	0.281	-0.219
-729.952	-128.499	-0.393	0.057
-728.937	-30.261	-0.067	-0.039
-727.923	45.756	0.162	-0.153
-726.908	-17.697	-0.235	0.151
-725.894	-85.707	0.185	-0.059
-724.879	-200.000	-0.020	0.102
-723.864	-119.049	-0.456	0.082
-722.850	171.519	-0.206	0.303
-721.835	-78.971	0.214	0.075
-720.821	115.398	0.024	0.030
-719.806	-89.054	-0.225	-0.068
-718.791	-200.000	-0.087	0.439
-717.777	-159.878	-0.238	0.013
-716.762	-186.919	0.300	-0.004
-715.748	-200.000	-0.014	-0.282
-714.733	55.350	0.242	-0.239
-713.718	800.000	-0.067	0.247
-712.704	-33.317	0.062	-0.035
-711.689	-200.000	-0.010	-0.165
-710.675	-48.642	-0.247	0.121
-709.660	-200.000	-0.002	-0.058
-708.645	33.284	-0.164	-0.145
-707.631	-29.414	0.208	-0.122
-706.616	-200.000	-0.011	-0.132
-705.602	-200.000	-0.007	0.265
-704.587	-30.836	-0.153	0.088
-703.572	-125.628	0.123	-0.019
-702.558	-77.451	-0.238	0.084
-701.543	-25.973	0.315	-0.189
-700.529	-179.126	-0.206	-0.005
-699.514	473.877	0.019	0.045
-698.499	-132.561	-0.107	-0.014
-697.485	-200.000	-0.035	-0.201
-696.470	-0.844	0.136	0.098
-695.456	-200.000	-0.016	0.293
-694.441	151.026	0.298	0.414
-693.426	82.405	0.119	0.131
-692.412	22.805	0.159	-0.133
-691.397	2.732	-0.061	0.045
-690.383	-61.208	-0.069	-0.030
-689.368	800.000	0.016	-0.071
-688.354	800.000	-0.028	-0.093
-687.339	-105.009	-0.075	-0.017
-686.324	-105.460	-0.046	0.011
-685.310	-9.361	-0.177	0.120
-684.295	-200.000	0.004	-0.027
-683.281	618.418	-0.038	-0.097
-682.266	-200.000	-0.002	-0.142
-681.251	-186.002	0.450	0.007
-680.237	137.912	-0.133	0.178
-679.222	-200.000	0.024	-0.264
-678.208	-200.000	0.018	0.086
-677.193	-58.690	-0.118	0.052
-676.178	-97.622	0.168	-0.044
-675.164	85.586	0.261	-0.292
-674.149	-200.000	0.030	-0.243
-673.135	-100.433	-0.147	-0.037
-672.120	-200.000	0.016	0.149
-671.105	-60.075	-0.370	0.161
-670.091	21.067	-0.246	-0.203
-669.076	22.572	0.067	-0.056
-668.062	16.023	-0.264	0.212
-667.047	800.000	0.023	0.093
-666.032	-200.000	-0.022	-0.112
-665.018	-104.917	-0.129	-0.030
-664.003	-138.391	-0.434	0.049
-662.989	-19.084	0.082	-0.052
-661.974	119.899	-0.136	-0.172
-660.959	207.771	0.049	0.078
-659.945	21.115	0.211	0.175
-658.930	483.085	0.087	0.201
-657.916	-200.000	0.033	0.163
-656.901	-90.385	0.352	0.104
-655.886	-24.943	-0.204	0.123
-654.872	-200.000	0.001	0.255
-653.857	-200.000	0.037	0.310
-652.843	-200.000	-0.009	-0.082
-651.828	-200.000	0.011	-0.125
-650.814	-117.482	-0.256	0.047
-649.799	-149.674	-0.319	0.026
-648.784	-57.724	0.180	-0.080
-647.770	447.188	-0.009	-0.021
-646.755	-200.000	-0.013	-0.362
-645.741	-111.471	-0.240	-0.050
-644.726	82.049	0.181	-0.200
-643.711	373.620	-0.195	0.403
-642.697	254.832	-0.105	-0.183
-641.682	200.269	0.150	0.235
-640.668	-71.789	-0.164	0.062
-639.653	33.009	0.055	0.048
-638.638	800.000	-0.042	0.156
-637.624	-7.060	0.199	-0.138
-636.609	56.878	-0.019	-0.019
-635.595	246.506	0.029	0.050
-634.580	-82.865	0.164	0.054
-633.565	132.440	-0.224	-0.295
-632.551	-136.938	-0.267	0.031
-631.536	800.000	0.016	0.054
-630.522	-200.000	0.006	-0.320
-629.507	-1.362	-0.197	-0.142
-628.492	-117.941	0.370	0.068
-627.478	55.598	-0.251	-0.248
-626.463	419.391	-0.124	0.269
-625.449	198.864	0.087	0.135
-624.434	-200.000	-0.058	0.273
-623.419	704.768	-0.020	-0.055
-622.405	-102.018	-0.241	0.059
-621.390	-139.206	0.170	0.019
-620.376	800.000	0.117	0.338
-619.361	-200.000	0.004	-0.230
-618.346	-56.076	0.350	0.159
-617.332	68.768	-0.074	-0.078
-616.317	416.670	0.046	-0.100
-615.303	-51.621	0.336	-0.160
-614.288	-166.031	0.194	0.008
-613.273	78.580	0.063	-0.068
-612.259	7.923	0.363	0.277
-611.244	215.356	0.117	0.188
-610.230	6.948	0.179	-0.136
-609.215	-200.000	0.000	0.075
-608.201	-46.283	0.186	0.093
-607.186	-122.470	-0.039	0.006
-606.171	94.923	0.017	-0.020
-605.157	-133.274	-0.370	-0.047
-604.142	800.000	-0.097	-0.311
-603.128	233.862	-0.067	0.112
-602.113	59.777	-0.158	0.158
-601.098	-167.756	0.120	-0.005
-600.084	101.810	-0.061	0.072
-599.069	-125.536	-0.454	-0.070
-598.055	-163.973	0.206	0.010
-597.040	302.332	-0.154	-0.289
-596.025	-176.841	-0.343	0.009
-595.011	136.143	-0.173	0.229
-593.996	-127.641	0.096	-0.014
-592.982	800.000	-0.075	-0.327
-591.967	-200.000	0.011	-0.117
-590.952	324.344	-0.094	-0.182
-589.938	526.413	-0.054	0.129
-588.923	-94.641	0.179	0.049
-587.909	-116.428	-0.247	0.046
-586.894	-200.000	-0.047	0.217
-585.879	45.707	-0.130	0.122
-584.865	46.807	0.249	0.235
-583.850	315.676	-0.090	0.173
-582.836	-96.279	-0.261	0.070
-581.821	56.499	-0.153	-0.151
-580.806	-164.469	-0.155	0.007
-579.792	-13.289	0.195	-0.129
-578.777	-83.948	-0.234	-0.076
-577.763	-176.466	-0.274	-0.007
-576.748	-162.042	0.461	-0.024
-575.733	-174.426	-0.257	0.008
-574.719	-200.000	-0.019	0.127
-573.704	-60.688	0.284	-0.122
-572.690	472.163	0.054	0.123
-571.675	800.000	-0.102	0.415
-570.661	-200.000	-0.008	-0.074
-569.646	109.454	0.357	-0.434
-568.631	284.081	0.092	-0.167
-567.617	-71.680	-0.092	-0.035
-566.602	-200.000	-0.016	-0.090
-565.588	-198.288	0.065	0.000
-564.573	800.000	-0.015	0.058
-563.558	-200.000	0.082	0.000
-562.544	14.347	-0.111	0.088
-561.529	297.541	0.144	-0.268
-560.515	72.344	0.071	-0.075
-559.500	-127.725	0.042	-0.006
-558.485	-89.198	-0.246	0.074
-557.471	-133.374	-0.369	-0.047
-556.456	-47.789	-0.232	-0.114
-555.442	800.000	0.038	-0.139
-554.427	-200.000	0.059	0.318
-553.412	173.469	0.086	0.127
-552.398	125.723	-0.179	-0.230
-551.383	-200.000	0.030	-0.239
-550.369	65.290	0.106	-0.109
-549.354	705.322	0.100	0.268
-548.339	-127.417	0.081	-0.012
-547.325	-200.000	-0.003	-0.285
-546.310	-39.285	-0.340	-0.181
-545.296	800.000	0.075	-0.234
-544.281	-33.259	0.123	0.069
-543.266	185.870	-0.051	0.078
-542.252	800.000	0.037	-0.142
-541.237	106.583	-0.113	0.135
-540.223	-200.000	-0.017	-0.313
-539.208	-29.286	-0.231	-0.134
-538.193	-37.461	0.354	-0.192
-537.179	152.205	-0.049	-0.068
-536.164	130.918	-0.115	-0.150
-535.150	96.027	0.166	-0.193
-534.135	70.480	0.313	-0.329
-533.121	800.000	-0.068	-0.259
-532.106	-200.000	-0.004	-0.253
-531.091	149.059	-0.120	-0.164
-530.077	156.243	0.188	-0.263
-529.062	800.000	0.113	0.400
-528.048	800.000	-0.063	-0.232
-527.033	-121.981	0.267	-0.044
-526.018	17.530	-0.160	0.129
-525.004	-176.549	-0.276	-0.007
-523.989	-106.440	-0.426	-0.096
-522.975	656.921	-0.072	0.188
-521.960	83.172	-0.144	-0.159
-520.945	59.662	0.007	0.007
-519.931	800.000	-0.082	-0.275
-518.916	41.773	-0.170	-0.157
-517.902	14.186	-0.038	0.030
-516.887	75.240	0.073	-0.078
-515.872	-90.250	-0.242	-0.071
-514.858	20.520	-0.025	-0.020
-513.843	-200.000	0.044	-0.337
-512.829	-200.000	0.020	-0.447
-511.814	-73.727	-0.320	0.118
-510.799	-66.346	-0.399	0.161
-509.785	-200.000	0.011	0.241
-508.770	-22.054	0.124	0.076
-507.756	-200.000	-0.018	0.479
-506.741	79.787	-0.076	-0.082
-505.726	159.094	0.083	-0.117
-504.712	-147.702	0.157	0.013
-503.697	-200.000	-0.000	-0.109
-502.683	29.395	-0.162	0.140
-501.668	-88.542	-0.062	-0.019
-500.653	-89.463	0.246	0.073
-499.639	-101.027	0.214	0.053
-498.624	-83.413	0.269	-0.087
-497.610	-200.000	0.012	0.121
-496.595	-63.692	-0.377	-0.156
-495.581	240.232	-0.115	0.195
-494.566	-6.120	-0.330	0.228
-493.551	800.000	0.037	-0.116
-492.537	800.000	-0.063	-0.248
-491.522	-41.558	0.171	-0.089
-490.508	-72.968	0.310	0.115
-489.493	-200.000	0.023	-0.370
-488.478	-93.232	-0.228	-0.064
-487.464	19.743	0.257	-0.209
-486.449	-200.000	0.010	-0.063
-485.435	153.400	-0.161	-0.224
-484.420	-200.000	0.064	0.304
-483.405	-8.121	-0.136	-0.093
-482.391	57.615	-0.071	-0.070
-481.376	-165.503	0.362	-0.016
-480.362	-200.000	0.002	0.087
-479.347	-13.183	0.199	-0.131
-478.332	800.000	0.107	0.326
-477.318	119.457	-0.198	-0.248
-476.303	-53.824	0.094	-0.043
-475.289	-200.000	-0.003	-0.073
-474.274	156.023	-0.217	0.303
-473.259	-200.000	0.052	0.336
-472.245	26.126	-0.029	0.024
-471.230	175.739	0.162	-0.237
-470.216	362.392	-0.066	0.134
-469.201	61.302	-0.085	0.086
-468.186	-104.090	0.101	0.024
-467.172	-73.009	-0.208	0.077
-466.157	-200.000	-0.037	0.340
-465.143	-200.000	-0.005	0.103
-464.128	-13.056	-0.213	0.140
-463.113	562.844	-0.145	-0.355
-462.099	154.666	-0.176	-0.244
-461.084	9.303	-0.246	-0.188
-460.070	140.279	-0.171	0.228
-459.055	10.845	0.225	0.174
-458.040	66.892	0.179	0.185
-457.026	69.225	-0.235	-0.244
-456.011	27.531	-0.130	-0.111
-454.997	-66.799	0.265	-0.106
-453.982	6.179	-0.025	0.019
-452.968	403.992	-0.145	0.309
-451.953	-200.000	0.034	0.306
-450.938	54.742	-0.052	-0.051
-449.924	25.449	-0.097	0.082
-448.909	800.000	0.068	0.233
-447.895	800.000	0.099	0.316
-446.880	252.506	0.176	0.304
-445.865	-82.678	-0.287	-0.094
-444.851	565.789	0.112	0.273
-443.836	-111.894	-0.107	-0.022
-442.822	110.664	-0.216	-0.263
-441.807	-200.000	-0.009	-0.201
-440.792	-47.375	0.197	0.097
-439.778	-54.530	-0.195	0.089
-438.763	-200.000	-0.009	0.139
-437.749	-76.383	0.178	0.063
-436.734	159.569	0.178	0.250
-435.719	-69.435	-0.221	0.086
-434.705	-172.447	0.526	-0.017
-433.690	121.361	0.183	-0.231
-432.676	-200.000	-0.005	0.152
-431.661	192.728	-0.122	-0.187
-430.646	800.000	-0.017	0.064
-429.632	15.734	0.059	-0.047
-428.617	398.068	-0.064	0.135
-427.603	142.271	-0.150	-0.201
-426.588	146.048	0.223	0.303
-425.573	-200.000	-0.037	0.194
-424.559	800.000	0.149	-0.490
-423.544	239.220	0.098	-0.164
-422.530	-32.793	0.333	0.187
-421.515	-127.713	0.030	0.004
-420.500	29.827	0.102	-0.088
-419.486	-200.000	0.000	-0.090
-418.471	-38.784	-0.170	0.091
-417.457	800.000	0.066	0.196
-416.442	-200.000	-0.003	0.223
-415.428	-39.773	-0.187	0.099
-414.413	170.109	0.257	0.371
-413.398	-200.000	-0.024	-0.115
-412.384	-35.517	0.092	-0.050
-411.369	24.361	-0.187	0.156
-410.355	-149.094	0.239	0.019
-409.340	-5.024	-0.344	-0.239
-408.325	-99.603	0.200	-0.051
-407.311	800.000	-0.028	0.085
-406.296	-80.884	-0.457	-0.153
-405.282	-87.506	0.386	-0.118
-404.267	-31.890	0.191	0.108
-403.252	47.043	-0.075	0.070
-402.238	-200.000	0.031	-0.245
-401.223	33.031	-0.177	-0.155
-400.209	-200.000	-0.005	0.202
-399.194	-200.000	0.014	0.176
-398.179	-151.300	-0.228	0.017
-397.165	134.100	0.096	-0.126
-396.150	800.000	0.061	-0.182
-395.136	-200.000	0.004	-0.046
-394.121	-128.803	-0.171	0.024
-393.106	-86.484	0.135	-0.042
-392.092	-117.606	-0.109	-0.020
-391.077	-200.000	0.006	-0.142
-390.063	368.913	-0.125	-0.255
-389.048	-200.000	-0.056	0.316
-388.033	-97.796	-0.203	-0.053
-387.019	228.506	-0.119	-0.195
-386.004	-31.778	0.152	0.086
-384.990	494.343	-0.077	-0.178
-383.975	28.854	-0.280	-0.240
-382.960	209.482	-0.158	0.250
-381.946	-36.679	0.136	-0.073
-380.931	-113.689	-0.149	0.029
-379.917	-15.677	0.054	-0.035
-378.902	-98.170	-0.139	-0.036
-377.888	-125.115	-0.224	-0.035
-376.873	800.000	-0.064	0.258
-375.858	85.330	0.154	0.171
-374.844	-137.680	0.220	-0.025
-373.829	800.000	-0.008	-0.031
-372.815	387.063	0.123	-0.255
-371.800	-49.948	0.230	-0.110
-370.785	-200.000	-0.024	-0.247
-369.771	800.000	-0.057	-0.205
-368.756	-60.296	0.098	-0.042
-367.742	-70.098	0.229	-0.088
-366.727	-101.195	0.301	-0.074
-365.712	148.711	0.234	0.318
-364.698	279.684	-0.112	0.202
-363.683	-200.000	0.044	-0.199
-362.669	-101.100	0.403	-0.099
-361.654	179.871	-0.154	0.227
-360.639	32.586	-0.151	0.131
-359.625	-138.502	-0.164	0.018
-358.610	800.000	-0.040	0.155
-357.596	268.117	0.022	0.038
-356.581	-128.383	0.220	0.032
-355.566	-154.840	0.255	0.017
-354.552	76.831	0.127	-0.135
-353.537	103.030	-0.103	-0.122
-352.523	254.635	-0.132	-0.228
-351.508	-200.000	0.008	0.456
-350.493	736.802	0.081	-0.218
-349.479	800.000	-0.073	-0.311
-348.464	360.851	0.201	-0.406
-347.450	172.392	0.115	0.166
-346.435	-200.000	0.014	0.124
-345.420	-137.454	0.343	-0.039
-344.406	233.891	0.086	0.142
-343.391	366.484	-0.183	0.371
-342.377	13.383	0.099	0.077
-341.362	135.429	0.242	0.317
-340.348	38.208	-0.103	-0.092
-339.333	181.583	-0.276	0.409
-338.318	-200.000	-0.001	0.131
-337.304	-167.241	0.320	-0.013
-336.289	359.591	0.106	-0.213
-335.275	-200.000	0.072	-0.413
-334.260	-82.990	-0.224	-0.073
-333.245	-52.528	0.303	0.141
-332.231	-152.286	-0.148	0.011
-331.216	-60.402	-0.237	-0.102
-330.202	139.376	-0.153	0.202
-329.187	147.074	0.186	0.252
-328.172	-30.970	0.033	-0.019
-327.158	53.310	0.118	0.113
-326.143	-51.627	-0.246	-0.115
-325.129	-66.072	-0.117	0.047
-324.114	76.713	-0.159	0.170
-323.099	-78.276	0.207	0.071
-322.085	89.544	0.080	-0.090
-321.070	-35.511	-0.237	0.130
-320.056	356.099	0.117	0.235
-319.041	-94.535	0.116	-0.032
-318.026	19.672	0.275	0.223
-317.012	-200.000	0.004	0.050
-315.997	64.494	-0.176	0.179
-314.983	-11.993	0.183	0.121
-313.968	720.602	-0.165	-0.442
-312.953	-89.464	-0.065	0.019
-311.939	-200.000	-0.021	-0.228
-310.924	216.996	0.178	0.285
-309.910	-200.000	-0.039	0.248
-308.895	40.911	-0.244	0.221
-307.880	-200.000	-0.029	0.231
-306.866	-169.704	-0.051	0.002
-305.851	-34.987	-0.224	0.123
-304.837	800.000	-0.036	0.104
-303.822	-82.698	0.136	0.044
-302.807	-134.993	0.483	-0.059
-301.793	-92.954	0.122	-0.034
-300.778	-200.000	-0.016	0.246
-299.764	800.000	0.048	-0.149
-298.749	6.820	0.210	0.157
-297.735	-103.810	-0.203	-0.048
-296.720	722.841	-0.056	0.150
-295.705	-91.940	0.296	-0.084
-294.691	-200.000	0.048	-0.371
-293.676	-200.000	0.013	-0.172
-292.662	-15.424	0.173	0.111
-291.647	606.824	-0.102	0.256
-290.632	184.291	0.291	0.433
-289.618	-200.000	-0.005	-0.104
-288.603	-200.000	-0.015	-0.214
-287.589	-200.000	0.006	0.261
-286.574	-63.763	-0.470	-0.194
-285.559	800.000	0.082	0.328
-284.545	-129.337	-0.320	-0.045
-283.530	208.274	-0.064	0.101
-282.516	347.134	-0.067	0.132
-281.501	800.000	-0.039	0.158
-280.486	-87.770	-0.568	-0.172
-279.472	-24.519	0.362	0.216
-278.457	35.729	0.159	0.140
-277.443	654.259	-0.133	-0.343
-276.428	800.000	-0.141	-0.393
-275.413	564.410	-0.090	-0.219
-274.399	800.000	0.059	0.167
-273.384	-66.663	-0.250	0.100
-272.370	-79.279	-0.258	0.088
-271.355	37.981	-0.058	0.052
-270.340	-0.796	-0.073	-0.052
-269.326	190.757	0.153	-0.232
-268.311	-50.186	-0.216	0.103
-267.297	-6.723	0.204	-0.139
-266.282	-120.863	-0.064	-0.011
-265.267	353.453	0.050	-0.101
-264.253	103.354	0.135	-0.159
-263.238	-86.173	-0.025	-0.008
-262.224	345.910	-0.098	-0.194
-261.209	667.774	0.072	-0.187
-260.195	800.000	0.061	0.215
-259.180	-32.421	0.065	-0.036
-258.165	-9.189	-0.221	-0.148
-257.151	-13.593	-0.302	0.196
-256.136	-0.548	0.260	-0.185
-255.122	67.556	0.271	-0.278
-254.107	100.832	0.190	-0.222
-253.092	80.488	-0.124	-0.134
-252.078	-74.779	-0.200	0.072
-251.063	-200.000	0.047	-0.250
-250.049	-66.333	-0.105	0.042
-249.034	32.255	0.014	-0.013
-248.019	-161.134	0.195	-0.010
-247.005	800.000	-0.030	0.131
-245.990	264.369	0.016	-0.027
-244.976	-200.000	-0.029	-0.129
-243.961	342.866	0.077	-0.151
-242.946	-173.506	0.140	-0.004
-241.932	-98.457	-0.436	0.112
-240.917	-20.457	0.242	0.149
-239.903	800.000	-0.110	0.445
-238.888	-9.818	0.408	0.272
-237.873	-72.322	0.384	0.143
-236.859	344.143	-0.183	0.359
-235.844	-200.000	0.026	0.243
-234.830	-27.122	0.245	-0.143
-233.815	126.001	0.119	0.151
-232.800	226.043	-0.125	0.203
-231.786	765.676	0.037	-0.101
-230.771	543.588	-0.068	0.162
-229.757	325.899	0.126	0.241
-228.742	517.413	0.080	0.187
-227.727	362.946	0.024	-0.049
-226.713	-111.785	0.240	-0.049
-225.698	96.643	0.151	0.173
-224.684	-28.552	-0.262	-0.151
-223.669	111.158	-0.154	-0.186
-222.655	-101.869	0.158	-0.038
-221.640	-79.800	-0.337	-0.114
-220.625	800.000	-0.045	0.139
-219.611	280.984	0.121	-0.217
-218.596	-111.639	-0.111	0.023
-217.582	-139.332	-0.165	0.018
-216.567	-130.325	0.120	0.016
-215.552	105.021	0.082	-0.097
-214.538	-116.493	0.086	0.016
-213.523	-38.697	0.221	-0.117
-212.509	-200.000	0.025	0.406
-211.494	-52.506	0.387	-0.179
-210.479	-200.000	0.210	0.001
-209.465	-200.000	0.009	0.224
-208.450	-179.024	-0.102	-0.002
-207.436	-18.417	0.335	-0.209
-206.421	12.159	0.310	-0.239
-205.406	-90.036	0.121	-0.035
-204.392	800.000	-0.071	0.260
-203.377	68.089	0.124	0.127
-202.363	34.253	0.172	-0.151
-201.348	42.379	-0.203	0.185
-200.333	-148.273	-0.194	-0.016
-199.319	800.000	-0.065	-0.279
-198.304	-200.000	-0.012	-0.206
-197.290	-200.000	0.010	0.083
-196.275	-68.165	0.208	-0.081
-195.260	-37.012	-0.148	0.080
-194.246	-159.349	0.381	-0.021
-193.231	245.307	-0.113	0.191
-192.217	-66.098	0.180	-0.072
-191.202	206.730	-0.132	-0.206
-190.187	358.395	-0.152	0.304
-189.173	-134.249	-0.161	0.020
-188.158	-76.179	0.088	0.031
-187.144	-0.631	-0.149	0.106
-186.129	-200.000	-0.017	0.189
-185.114	-200.000	-0.015	0.249
-184.100	-90.388	0.075	0.022
-183.085	43.539	0.152	-0.139
-182.071	-30.031	-0.196	-0.112
-181.056	800.000	0.064	0.204
-180.042	49.280	-0.178	-0.167
-179.027	74.922	0.227	0.239
-178.012	800.000	-0.056	-0.156
-176.998	-124.378	0.094	0.015
-175.983	-28.142	-0.065	0.038
-174.969	461.009	-0.042	-0.093
-173.954	-200.000	0.002	0.213
-172.939	141.621	-0.191	-0.252
-171.925	20.453	0.189	-0.153
-170.910	8.321	-0.177	0.133
-169.896	286.680	0.136	0.245
-168.881	-126.873	0.276	-0.041
-167.866	-200.000	0.019	-0.186
-166.852	-100.383	-0.485	-0.120
-165.837	114.159	0.135	0.164
-164.823	-200.000	0.009	0.044
-163.808	27.475	-0.325	-0.273
-162.793	788.111	0.111	-0.304
-161.779	117.254	-0.135	0.166
-160.764	85.495	-0.094	0.103
-159.750	155.597	0.175	-0.241
-158.735	128.456	-0.079	-0.101
-157.720	170.961	-0.220	-0.316
-156.706	728.597	0.165	0.440
-155.691	13.895	0.111	0.086
-154.677	-77.446	0.106	-0.037
-153.662	-9.050	0.205	-0.137
-152.647	800.000	-0.020	-0.078
-151.633	-48.093	-0.197	-0.095
-150.618	-100.368	-0.127	0.031
-149.604	-200.000	0.029	0.174
-148.589	-132.586	0.202	0.026
-147.574	-71.671	-0.260	0.097
-146.560	800.000	0.081	0.319
-145.545	743.388	-0.145	-0.390
-144.531	800.000	-0.051	0.160
-143.516	800.000	0.044	0.158
-142.502	-111.491	0.238	-0.048
-141.487	500.803	-0.069	0.160
-140.472	56.424	0.093	-0.090
-139.458	104.011	-0.146	0.171
-138.443	-28.767	-0.243	0.140
-137.429	116.482	0.289	0.353
-136.414	-94.170	-0.182	0.050
-135.399	-142.949	-0.171	0.017
-134.385	90.370	-0.102	-0.114
-133.370	151.981	-0.141	0.192
-132.356	-200.000	0.035	0.212
-131.341	-57.264	-0.066	0.029
-130.326	-200.000	0.066	-0.287
-129.312	-173.953	0.427	-0.013
-128.297	-122.103	0.070	0.012
-127.283	480.766	-0.070	0.158
-126.268	11.476	0.170	0.130
-125.253	-76.755	0.167	-0.058
-124.239	18.575	-0.171	-0.136
-123.224	69.908	0.111	0.114
-122.210	-133.019	-0.362	0.046
