DTS Sentinel unit serial number:	SN413079Multiplexer serial number:	ORYXHardware model number:	OX4-SRSoftware version number:	ORYX F/W v4.00 Oryx Data Collector v3.7.2.0data status	okinstallation	princeton_trtdifferential loss correction	single-endedforward channel	channel 1reverse channel	N/Adate	2019/09/19time	08:34:35forward acquisition time	60.00reverse acquisition time	0.00gamma	496.2192k internal	0.2344k external	0.2344temperature offset calibration	1.0005default loss term (dB/km)	0.3790temperature slope calibration	1.0000multiplexer offset coefficient	1.0000multiplexer slope coefficient	1.0000fibre end	0.00T internal ref (°C)	20.80T ext. ref 1 (°C)	0.58T ext. ref 2 (°C)	16.34length (m)	temperature (°C)	Stokes	anti-Stokes-747.200	-132.220	0.048	0.006
-746.185	105.987	-0.150	0.178
-745.171	-149.097	0.297	0.024
-744.156	-55.206	0.187	0.084
-743.142	27.898	0.316	0.267
-742.127	-41.688	-0.295	-0.152
-741.112	-82.457	-0.301	0.098
-740.098	-14.791	-0.303	0.194
-739.083	-200.000	0.069	0.350
-738.069	-77.127	-0.218	0.076
-737.054	247.066	-0.161	0.272
-736.039	250.892	-0.203	-0.345
-735.025	-154.786	0.346	-0.023
-734.010	-168.500	-0.295	-0.011
-732.996	102.468	0.007	0.009
-731.981	31.664	-0.081	0.070
-730.966	-33.928	-0.028	-0.015
-729.952	240.115	-0.156	-0.261
-728.937	257.102	-0.122	-0.210
-727.923	169.747	-0.263	-0.376
-726.908	-89.718	-0.203	-0.060
-725.894	-200.000	-0.004	-0.120
-724.879	-200.000	0.022	0.375
-723.864	448.910	-0.049	-0.109
-722.850	-200.000	-0.053	-0.472
-721.835	800.000	0.043	0.150
-720.821	800.000	0.042	0.137
-719.806	240.161	0.143	-0.238
-718.791	212.277	0.044	-0.070
-717.777	736.878	-0.004	-0.011
-716.762	345.357	0.052	0.102
-715.748	-85.303	-0.114	-0.035
-714.733	-200.000	0.033	0.185
-713.718	2.498	-0.101	0.073
-712.704	273.966	0.088	0.156
-711.689	54.269	-0.052	0.050
-710.675	120.837	0.101	-0.125
-709.660	800.000	0.025	-0.095
-708.645	19.739	-0.258	-0.208
-707.631	186.051	-0.162	0.240
-706.616	800.000	0.117	0.359
-705.602	-200.000	-0.001	0.013
-704.587	-3.153	-0.149	0.104
-703.572	-157.343	0.067	0.004
-702.558	-163.302	0.639	0.031
-701.543	-200.000	-0.008	-0.157
-700.529	-132.808	0.306	0.039
-699.514	104.653	-0.270	-0.318
-698.499	-143.047	0.167	-0.016
-697.485	12.606	-0.248	0.191
-696.470	-11.885	0.126	0.082
-695.456	800.000	0.070	0.275
-694.441	-200.000	0.075	-0.341
-693.426	455.766	-0.030	-0.066
-692.412	-200.000	0.023	-0.211
-691.397	800.000	-0.129	-0.394
-690.383	-128.845	0.168	0.024
-689.368	17.255	0.211	0.167
-688.354	-136.112	-0.117	-0.014
-687.339	-4.433	-0.319	-0.221
-686.324	365.906	0.086	0.173
-685.310	800.000	-0.080	0.254
-684.295	800.000	-0.087	-0.335
-683.281	112.366	0.240	-0.289
-682.266	79.375	-0.127	-0.136
-681.251	221.359	0.127	-0.204
-680.237	-21.102	-0.314	-0.192
-679.222	548.957	0.019	-0.046
-678.208	-119.806	-0.182	-0.031
-677.193	800.000	-0.037	0.143
-676.178	-179.081	0.163	0.004
-675.164	-142.376	0.235	-0.023
-674.149	-57.602	-0.215	-0.094
-673.135	-200.000	0.015	0.082
-672.120	-114.931	-0.311	-0.059
-671.105	-69.865	0.169	-0.064
-670.091	-200.000	0.007	0.085
-669.076	-200.000	-0.016	-0.253
-668.062	800.000	0.017	0.066
-667.047	-200.000	-0.003	-0.123
-666.032	-200.000	-0.004	-0.191
-665.018	-128.339	0.365	0.052
-664.003	22.474	0.210	0.171
-662.989	46.208	0.215	-0.199
-661.974	-115.078	0.225	0.043
-660.959	110.089	-0.048	0.057
-659.945	-157.966	-0.143	0.008
-658.930	-200.000	-0.064	-0.290
-657.916	800.000	0.012	-0.037
-656.901	-8.785	0.163	0.109
-655.886	54.443	0.063	0.060
-654.872	-200.000	0.004	0.113
-653.857	37.721	0.326	0.289
-652.843	-98.304	0.268	0.069
-651.828	197.991	-0.165	0.252
-650.814	39.330	-0.260	-0.232
-649.799	-97.424	0.372	0.096
-648.784	800.000	-0.080	-0.263
-647.770	-200.000	-0.030	0.150
-646.755	405.745	-0.105	-0.221
-645.741	222.984	0.145	0.233
-644.726	-24.289	0.125	0.074
-643.711	-60.999	0.034	-0.014
-642.697	-154.192	-0.213	-0.014
-641.682	-200.000	0.031	-0.246
-640.668	-200.000	-0.010	-0.122
-639.653	-108.993	-0.173	-0.037
-638.638	-200.000	-0.006	0.333
-637.624	-200.000	-0.020	-0.333
-636.609	41.506	0.138	-0.124
-635.595	11.592	-0.243	0.185
-634.580	-188.755	-0.135	0.002
-633.565	-200.000	-0.062	-0.276
-632.551	-71.307	0.286	-0.107
-631.536	150.891	-0.010	0.014
-630.522	-16.307	0.328	0.207
-629.507	-200.000	-0.022	-0.110
-628.492	106.812	0.131	0.155
-627.478	-200.000	-0.001	0.132
-626.463	33.089	0.201	0.173
-625.449	7.305	0.184	0.137
-624.434	70.781	0.082	-0.085
-623.419	46.188	0.190	-0.175
-622.405	167.196	0.051	0.073
-621.390	-56.994	-0.158	0.069
-620.376	8.790	0.180	-0.135
-619.361	-200.000	-0.003	-0.062
-618.346	-119.359	-0.534	0.092
-617.332	161.078	0.369	-0.514
-616.317	21.871	-0.247	-0.201
-615.303	800.000	-0.130	0.386
-614.288	-200.000	0.032	-0.173
-613.273	-10.822	-0.147	-0.097
-612.259	-92.526	-0.344	0.096
-611.244	-200.000	0.075	0.397
-610.230	66.422	0.206	-0.208
-609.215	800.000	0.012	-0.047
-608.201	88.150	0.144	-0.159
-607.186	-137.986	-0.403	0.045
-606.171	800.000	0.065	0.198
-605.157	162.307	-0.028	-0.040
-604.142	-73.637	0.086	-0.031
-603.128	-98.422	-0.174	-0.044
-602.113	-200.000	-0.005	-0.319
-601.098	398.189	-0.061	0.127
-600.084	-104.959	-0.323	0.074
-599.069	800.000	0.046	0.188
-598.055	-168.081	-0.275	-0.011
-597.040	-200.000	-0.242	-0.001
-596.025	511.445	0.092	0.213
-595.011	-104.609	0.244	-0.056
-593.996	-50.679	-0.169	-0.079
-592.982	-173.027	0.480	-0.015
-591.967	-200.000	0.009	0.069
-590.952	-200.000	-0.062	0.299
-589.938	-56.733	-0.267	-0.118
-588.923	369.962	-0.135	-0.273
-587.909	88.442	0.047	-0.052
-586.894	144.041	-0.108	0.143
-585.879	-99.498	-0.202	-0.051
-584.865	-84.868	-0.425	0.133
-583.850	800.000	-0.148	0.435
-582.836	207.395	-0.212	0.329
-581.821	-108.822	-0.140	0.030
-580.806	429.372	-0.069	-0.148
-579.792	304.545	0.018	-0.034
-578.777	53.502	-0.235	0.224
-577.763	234.252	-0.131	-0.215
-576.748	-200.000	-0.027	-0.207
-575.733	800.000	-0.035	0.098
-574.719	-25.303	-0.045	-0.027
-573.704	615.727	0.156	0.388
-572.690	101.060	-0.275	-0.318
-571.675	-95.830	0.330	-0.088
-570.661	800.000	0.080	0.328
-569.646	795.317	-0.087	0.237
-568.631	-123.073	0.161	-0.026
-567.617	-43.734	-0.174	0.087
-566.602	413.449	-0.050	-0.106
-565.588	800.000	0.099	-0.290
-564.573	-114.885	-0.119	0.023
-563.558	-87.548	-0.141	-0.042
-562.544	-97.085	-0.382	-0.099
-561.529	-56.553	0.147	-0.065
-560.515	-80.126	-0.109	-0.036
-559.500	-200.000	-0.004	-0.258
-558.485	-125.246	0.268	0.041
-557.471	800.000	-0.104	-0.312
-556.456	-200.000	0.001	0.012
-555.442	413.063	0.141	-0.298
-554.427	-56.291	0.223	0.099
-553.412	21.035	0.161	-0.130
-552.398	800.000	0.010	-0.032
-551.383	35.747	0.241	-0.210
-550.369	800.000	-0.076	0.267
-549.354	18.506	0.233	0.185
-548.339	-5.322	-0.410	0.280
-547.325	800.000	0.030	-0.097
-546.310	16.578	0.137	-0.108
-545.296	121.519	-0.056	-0.069
-544.281	234.684	0.134	-0.220
-543.266	14.038	-0.190	0.147
-542.252	-200.000	-0.010	-0.132
-541.237	30.710	-0.152	-0.129
-540.223	800.000	-0.071	-0.300
-539.208	208.193	0.168	-0.261
-538.193	-26.837	0.302	-0.175
-537.179	-49.721	0.245	0.115
-536.164	295.507	0.106	-0.192
-535.150	800.000	0.032	0.099
-534.135	8.408	-0.266	-0.199
-533.121	70.951	-0.296	-0.304
-532.106	-103.728	0.027	0.006
-531.091	137.444	-0.126	-0.164
-530.077	-83.047	0.385	0.123
-529.062	-32.108	-0.239	-0.133
-528.048	445.625	-0.133	-0.290
-527.033	-200.000	0.052	-0.340
-526.018	73.394	-0.126	0.131
-525.004	270.915	0.120	-0.210
-523.989	43.597	-0.468	0.424
-522.975	-200.000	0.006	0.074
-521.960	-130.499	0.043	0.006
-520.945	-124.226	-0.148	-0.023
-519.931	800.000	0.125	-0.356
-518.916	-36.840	-0.213	0.113
-517.902	-4.857	-0.310	0.212
-516.887	-200.000	-0.015	0.309
-515.872	-81.732	0.063	0.020
-514.858	-16.609	-0.205	0.129
-513.843	-200.000	0.082	-0.355
-512.829	-91.473	0.143	-0.040
-511.814	-153.635	-0.121	0.008
-510.799	-54.802	0.079	0.035
-509.785	37.844	-0.117	-0.103
-508.770	93.521	0.153	0.172
-507.756	800.000	0.051	-0.170
-506.741	231.266	0.240	0.390
-505.726	-55.384	-0.278	-0.124
-504.712	800.000	-0.054	0.208
-503.697	-200.000	0.016	0.181
-502.683	26.726	-0.180	-0.149
-501.668	-156.350	-0.235	-0.015
-500.653	800.000	-0.021	0.064
-499.639	304.505	0.255	-0.469
-498.624	-93.052	0.255	0.070
-497.610	77.970	-0.121	-0.128
-496.595	737.315	-0.079	0.210
-495.581	67.279	0.152	-0.154
-494.566	800.000	0.055	0.212
-493.551	358.630	-0.177	0.351
-492.537	-98.531	0.056	0.014
-491.522	-106.473	-0.357	-0.079
-490.508	224.778	-0.063	0.102
-489.493	-200.000	-0.000	0.069
-488.478	398.390	0.079	0.163
-487.464	50.581	-0.226	0.212
-486.449	93.023	0.146	0.163
-485.435	-2.011	-0.209	-0.146
-484.420	69.424	0.145	-0.148
-483.405	-195.760	-0.424	-0.003
-482.391	-64.620	0.197	0.079
-481.376	-200.000	-0.045	-0.218
-480.362	206.407	-0.098	-0.150
-479.347	39.779	-0.027	0.024
-478.332	182.572	0.247	0.361
-477.318	17.106	-0.142	-0.112
-476.303	36.761	-0.124	0.109
-475.289	699.090	-0.137	0.358
-474.274	800.000	0.122	0.416
-473.259	278.599	0.191	-0.337
-472.245	-57.884	-0.206	-0.089
-471.230	800.000	0.053	0.176
-470.216	604.229	-0.088	0.216
-469.201	-200.000	-0.008	0.057
-468.186	800.000	-0.020	-0.083
-467.172	594.463	-0.188	-0.461
-466.157	193.913	0.085	-0.127
-465.143	10.890	-0.116	-0.088
-464.128	-200.000	0.020	0.254
-463.113	-78.289	0.258	-0.088
-462.099	-200.000	-0.005	0.150
-461.084	-144.475	-0.276	0.025
-460.070	800.000	0.039	0.144
-459.055	1.251	-0.191	0.135
-458.040	-125.750	0.222	0.033
-457.026	670.523	0.038	-0.097
-456.011	-126.323	0.183	-0.027
-454.997	800.000	0.018	0.067
-453.982	-11.491	0.226	-0.147
-452.968	4.445	0.323	-0.234
-451.953	800.000	-0.035	-0.101
-450.938	-200.000	-0.003	-0.151
-449.924	197.547	-0.153	0.231
-448.909	-132.114	-0.302	0.039
-447.895	26.149	-0.305	0.252
-446.880	-68.882	0.406	-0.155
-445.865	519.882	-0.072	0.167
-444.851	800.000	0.213	0.596
-443.836	513.560	0.119	-0.273
-442.822	800.000	0.082	-0.229
-441.807	-123.454	-0.231	0.036
-440.792	800.000	0.078	0.245
-439.778	268.842	-0.062	0.107
-438.763	21.699	-0.124	0.100
-437.749	-50.880	-0.152	0.071
-436.734	-32.542	0.217	0.120
-435.719	-134.785	-0.284	-0.034
-434.705	6.890	-0.165	0.122
-433.690	-87.183	0.259	-0.078
-432.676	157.814	0.079	0.109
-431.661	202.298	-0.096	0.146
-430.646	-50.525	-0.121	-0.057
-429.632	800.000	-0.105	0.319
-428.617	-21.719	-0.207	-0.124
-427.603	57.538	-0.176	0.170
-426.588	28.548	0.185	0.155
-425.573	800.000	0.076	-0.231
-424.559	-101.940	-0.191	0.046
-423.544	347.461	-0.067	-0.130
-422.530	-56.506	-0.087	-0.038
-421.515	-31.592	-0.292	0.162
-420.500	65.259	-0.300	-0.300
-419.486	-79.905	-0.517	-0.172
-418.471	-200.000	0.028	0.171
-417.457	572.870	0.121	0.292
-416.442	105.625	-0.124	-0.145
-415.428	508.529	0.040	0.092
-414.413	-200.000	-0.024	0.127
-413.398	-200.000	-0.002	-0.086
-412.384	336.795	0.089	0.171
-411.369	98.838	-0.047	0.054
-410.355	0.432	0.153	0.108
-409.340	-200.000	-0.002	-0.526
-408.325	-143.560	0.276	0.026
-407.311	-200.000	-0.012	-0.269
-406.296	-66.903	-0.368	0.143
-405.282	221.170	0.044	-0.070
-404.267	520.386	0.113	-0.263
-403.252	-109.686	0.146	-0.030
-402.238	-110.044	-0.239	0.049
-401.223	-32.974	0.357	0.196
-400.209	145.736	-0.096	-0.127
-399.194	343.429	0.226	-0.436
-398.179	317.815	0.113	0.212
-397.165	-20.971	0.322	-0.195
-396.150	-135.054	0.199	-0.024
-395.136	-102.521	0.197	0.047
-394.121	-6.835	0.150	0.101
-393.106	800.000	0.034	0.111
-392.092	530.169	-0.038	-0.089
-391.077	-55.358	-0.155	0.069
-390.063	800.000	0.030	0.093
-389.048	-200.000	0.002	0.046
-388.033	69.489	0.176	-0.179
-387.019	-24.133	0.145	0.085
-386.004	-200.000	-0.013	0.234
-384.990	62.276	0.241	0.237
-383.975	161.881	0.194	0.268
-382.960	16.776	-0.331	0.259
-381.946	95.803	0.166	-0.187
-380.931	-200.000	0.006	-0.193
-379.917	252.621	-0.103	0.173
-378.902	360.250	0.066	-0.131
-377.888	4.332	0.151	0.109
-376.873	-103.564	0.331	-0.077
-375.858	-43.580	-0.300	-0.150
-374.844	800.000	0.039	-0.112
-373.829	63.908	0.150	0.149
-372.815	110.795	0.173	-0.206
-371.800	-125.137	-0.217	0.033
-370.785	290.302	0.056	0.101
-369.771	-166.611	-0.266	-0.011
-368.756	-200.000	0.020	0.223
-367.742	-200.000	0.060	0.393
-366.727	-35.615	-0.116	0.062
-365.712	-200.000	-0.020	0.123
-364.698	9.844	0.044	-0.033
-363.683	25.998	-0.160	-0.132
-362.669	-184.732	0.114	0.002
-361.654	-200.000	0.024	-0.316
-360.639	-3.113	-0.291	-0.200
-359.625	439.956	-0.016	0.035
-358.610	-30.829	0.077	-0.043
-357.596	202.366	-0.032	-0.048
-356.581	602.719	-0.107	-0.262
-355.566	-200.000	-0.050	-0.350
-354.552	496.693	-0.128	0.290
-353.537	-48.226	-0.236	0.112
-352.523	113.648	-0.088	0.105
-351.508	-200.000	0.017	0.177
-350.493	306.710	-0.148	-0.271
-349.479	-48.238	0.124	0.059
-348.464	5.779	-0.258	0.188
-347.450	-65.759	0.254	-0.100
-346.435	-94.693	0.359	-0.096
-345.420	297.443	0.088	0.160
-344.406	-105.891	0.100	-0.022
-343.391	591.700	-0.191	-0.465
-342.377	61.184	0.135	0.132
-341.362	-38.421	0.152	-0.079
-340.348	51.207	0.211	-0.197
-339.333	237.521	0.031	-0.050
-338.318	-200.000	0.013	0.134
-337.304	800.000	-0.034	-0.122
-336.289	-115.752	-0.212	0.039
-335.275	204.138	-0.125	0.191
-334.260	-200.000	0.172	0.000
-333.245	-200.000	-0.016	0.077
-332.231	-200.000	-0.011	0.136
-331.216	77.167	-0.033	-0.035
-330.202	61.792	-0.465	0.456
-329.187	-104.779	0.233	-0.053
-328.172	-200.000	-0.009	-0.107
-327.158	-141.872	-0.227	-0.022
-326.143	-87.672	-0.186	-0.055
-325.129	65.235	0.113	0.113
-324.114	-36.644	0.145	-0.077
-323.099	175.143	0.212	-0.303
-322.085	359.872	-0.136	0.267
-321.070	-67.734	0.461	0.178
-320.056	437.394	-0.039	-0.083
-319.041	-108.840	-0.163	0.034
-318.026	380.562	-0.025	0.051
-317.012	-154.502	-0.155	0.010
-315.997	800.000	-0.040	0.133
-314.983	-86.338	0.086	0.026
-313.968	75.014	0.196	0.203
-312.953	-153.295	0.218	0.015
-311.939	-131.754	-0.124	-0.016
-310.924	647.744	0.075	0.189
-309.910	-200.000	0.046	-0.286
-308.895	50.065	0.399	-0.370
-307.880	241.714	-0.164	-0.269
-306.866	-69.529	-0.075	0.028
-305.851	739.742	0.029	0.077
-304.837	-159.975	0.435	0.023
-303.822	-200.000	0.018	-0.099
-302.807	-200.000	0.016	-0.127
-301.793	406.111	-0.029	-0.061
-300.778	800.000	0.082	-0.265
-299.764	-130.902	0.274	0.036
-298.749	-32.324	-0.248	0.136
-297.735	62.922	0.111	-0.109
-296.720	566.296	0.053	-0.126
-295.705	47.191	-0.250	0.229
-294.691	-19.943	0.148	-0.090
-293.676	-49.423	-0.144	0.067
-292.662	-83.536	-0.235	-0.074
-291.647	-200.000	-0.023	0.185
-290.632	-163.828	0.149	-0.007
-289.618	28.802	-0.028	0.023
-288.603	93.509	-0.176	0.196
-287.589	227.676	-0.094	-0.150
-286.574	-36.700	-0.135	0.071
-285.559	-64.314	-0.263	0.105
-284.545	800.000	0.076	0.226
-283.530	-69.782	0.154	0.058
-282.516	-65.960	-0.091	0.036
-281.501	800.000	-0.062	0.256
-280.486	230.689	-0.061	0.099
-279.472	-97.115	-0.170	0.044
-278.457	-13.659	-0.151	0.096
-277.443	-11.580	-0.151	0.098
-276.428	112.083	-0.035	0.042
-275.413	-54.301	0.355	0.158
-274.399	171.071	0.144	0.203
-273.384	117.258	0.153	0.185
-272.370	-8.146	0.117	0.077
-271.355	-150.559	0.150	-0.011
-270.340	118.057	-0.114	-0.139
-269.326	-200.000	0.003	-0.049
-268.311	-90.713	0.323	-0.092
-267.297	-157.276	-0.264	-0.016
-266.282	-200.000	-0.004	-0.085
-265.267	128.505	0.153	-0.192
-264.253	356.767	-0.091	0.179
-263.238	-115.166	0.128	-0.024
-262.224	7.278	-0.085	0.062
-261.209	-144.493	0.328	0.030
-260.195	-136.902	0.281	0.032
-259.180	-200.000	-0.046	-0.377
-258.165	715.527	0.160	0.416
-257.151	722.197	-0.062	0.161
-256.136	-11.228	0.109	-0.070
-255.122	-182.882	-0.388	0.007
-254.107	-200.000	-0.003	-0.029
-253.092	-17.363	0.057	0.035
-252.078	-62.191	0.137	0.056
-251.063	-1.113	0.487	0.338
-250.049	-138.852	-0.215	0.023
-249.034	-56.788	0.107	-0.046
-248.019	-22.922	0.288	-0.171
-247.005	-200.000	0.074	-0.356
-245.990	296.388	-0.109	-0.196
-244.976	1.162	-0.295	-0.208
-243.961	137.426	-0.164	-0.211
-242.946	-89.647	0.052	-0.015
-241.932	-85.091	0.192	0.059
-240.917	-200.000	0.023	-0.319
-239.903	-141.517	-0.057	-0.006
-238.888	107.819	-0.237	-0.277
-237.873	-200.000	0.006	0.175
-236.859	-164.341	0.380	0.017
-235.844	214.951	-0.120	0.187
-234.830	5.877	0.202	-0.147
-233.815	228.072	-0.086	-0.138
-232.800	-169.924	-0.326	0.011
-231.786	22.871	0.104	-0.084
-230.771	800.000	-0.046	-0.126
-229.757	-53.277	0.176	0.079
-228.742	800.000	-0.033	-0.095
-227.727	638.559	0.070	-0.175
-226.713	-200.000	0.053	0.426
-225.698	-96.074	0.316	-0.082
-224.684	800.000	-0.023	0.065
-223.669	394.116	0.032	-0.065
-222.655	103.044	0.135	0.155
-221.640	-82.594	0.297	0.094
-220.625	12.562	0.022	0.016
-219.611	88.746	-0.303	0.331
-218.596	703.002	-0.084	0.217
-217.582	307.661	0.116	-0.211
-216.567	-172.429	0.220	0.007
-215.552	-200.000	-0.032	0.174
-214.538	-200.000	0.028	-0.496
-213.523	-200.000	-0.015	-0.136
-212.509	-200.000	-0.000	0.051
-211.494	317.310	0.114	0.211
-210.479	97.432	-0.091	-0.103
-209.465	164.484	0.147	0.203
-208.450	-46.169	-0.320	-0.154
-207.436	-200.000	0.004	-0.184
-206.421	-200.000	-0.029	-0.371
-205.406	665.943	0.121	-0.306
-204.392	49.442	0.048	0.045
-203.377	-200.000	0.055	0.512
-202.363	392.474	-0.229	0.466
-201.348	415.530	-0.068	-0.142
-200.333	-64.044	-0.196	-0.078
-199.319	175.013	0.040	0.057
-198.304	-200.000	0.073	-0.367
-197.290	-200.000	-0.070	-0.374
-196.275	40.693	0.193	-0.170
-195.260	102.489	-0.121	0.139
-194.246	-103.933	0.054	0.012
-193.231	-21.330	0.052	0.031
-192.217	-41.082	0.143	-0.073
-191.202	1.583	0.278	0.196
-190.187	-43.989	-0.270	0.133
-189.173	-42.240	-0.178	-0.089
-188.158	-200.000	0.025	-0.181
-187.144	9.503	0.135	-0.100
-186.129	-124.975	0.028	0.004
-185.114	465.878	0.053	-0.115
-184.100	352.686	0.056	-0.109
-183.085	-66.819	0.437	-0.169
-182.071	171.978	0.142	-0.200
-181.056	-17.806	0.214	0.132
-180.042	135.135	-0.145	0.185
-179.027	44.819	-0.088	-0.079
-178.012	-200.000	0.020	0.169
-176.998	225.681	-0.215	0.341
-175.983	539.371	-0.047	-0.110
-174.969	729.410	0.124	-0.324
-173.954	640.121	-0.084	-0.209
-172.939	-120.791	0.258	-0.043
-171.925	585.225	0.139	-0.334
-170.910	340.989	0.089	-0.169
-169.896	-108.821	0.175	0.037
-168.881	112.211	0.058	-0.068
-167.866	-161.227	0.146	0.007
-166.852	-200.000	-0.025	0.182
-165.837	-50.365	-0.235	-0.109
-164.823	800.000	-0.062	0.191
-163.808	168.011	-0.306	0.426
-162.793	15.036	0.044	-0.033
-161.779	44.940	-0.123	0.111
-160.764	-168.459	0.224	0.008
-159.750	17.679	0.052	0.041
-158.735	-200.000	0.004	0.505
-157.720	-200.000	-0.009	0.128
-156.706	-200.000	0.010	-0.115
-155.691	-200.000	0.012	0.090
-154.677	433.039	0.045	-0.095
-153.662	-61.509	0.310	0.127
-152.647	-140.954	-0.206	0.021
-151.633	179.465	0.186	-0.267
-150.618	800.000	0.084	0.229
-149.604	-83.077	-0.324	0.102
-148.589	105.674	-0.075	-0.086
-147.574	-43.280	0.473	-0.234
-146.560	-126.081	-0.267	0.039
-145.545	460.357	0.082	-0.180
-144.531	-168.923	-0.062	-0.002
-143.516	-29.364	0.252	-0.141
-142.502	800.000	-0.108	-0.390
-141.487	-47.553	-0.130	0.062
-140.472	800.000	0.045	0.149
-139.458	-14.938	-0.028	0.018
-138.443	70.609	0.257	-0.260
-137.429	-142.005	0.313	0.030
-136.414	643.831	-0.020	0.050
-135.399	-22.525	-0.206	0.122
-134.385	428.560	0.130	0.275
-133.370	296.889	-0.015	-0.027
-132.356	93.802	-0.100	-0.111
-131.341	-29.364	-0.201	0.113
-130.326	694.568	0.044	0.112
-129.312	348.674	0.060	-0.115
-128.297	18.591	-0.212	0.166
-127.283	-172.017	-0.169	0.005
-126.268	-69.328	0.270	0.101
-125.253	800.000	-0.037	-0.143
-124.239	-166.484	-0.212	-0.009
-123.224	18.366	0.077	0.060
-122.210	26.387	-0.102	0.083
-121.195	-200.000	0.002	-0.137
-120.180	413.502	0.173	0.360
