DTS Sentinel unit serial number:	SN413079Multiplexer serial number:	ORYXHardware model number:	OX4-SRSoftware version number:	ORYX F/W v4.00 Oryx Data Collector v3.7.2.0data status	okinstallation	princeton_trtdifferential loss correction	single-endedforward channel	channel 1reverse channel	N/Adate	2019/09/11time	00:52:11forward acquisition time	60.00reverse acquisition time	0.00gamma	496.2192k internal	0.2332k external	0.2332temperature offset calibration	0.9926default loss term (dB/km)	0.3790temperature slope calibration	1.0000multiplexer offset coefficient	1.0000multiplexer slope coefficient	1.0000fibre end	0.00T internal ref (°C)	29.19T ext. ref 1 (°C)	-0.32T ext. ref 2 (°C)	22.86length (m)	temperature (°C)	Stokes	anti-Stokes-747.200	-200.000	-0.022	-0.182
-746.185	272.993	-0.180	0.320
-745.171	-26.119	-0.179	-0.106
-744.156	-45.373	-0.193	0.096
-743.142	58.113	-0.071	0.070
-742.127	108.879	-0.116	0.139
-741.112	-200.000	0.041	0.194
-740.098	-85.541	-0.168	0.053
-739.083	-39.168	-0.039	0.021
-738.069	-200.000	-0.062	0.517
-737.054	-144.052	-0.031	-0.003
-736.039	76.098	-0.108	-0.115
-735.025	8.883	0.049	-0.037
-734.010	-50.790	-0.202	0.096
-732.996	25.116	0.324	0.271
-731.981	-200.000	0.057	-0.302
-730.966	-200.000	0.082	-0.385
-729.952	-81.151	0.151	-0.050
-728.937	363.613	0.068	0.137
-727.923	671.395	-0.036	0.095
-726.908	-39.226	-0.180	0.095
-725.894	-57.136	-0.217	-0.096
-724.879	688.002	-0.091	0.239
-723.864	-200.000	0.006	-0.089
-722.850	-140.555	0.067	-0.007
-721.835	-200.000	-0.034	0.189
-720.821	-200.000	-0.001	-0.372
-719.806	350.192	-0.049	-0.096
-718.791	720.330	-0.126	-0.336
-717.777	5.462	0.095	0.071
-716.762	56.332	-0.101	-0.099
-715.748	140.272	-0.121	-0.160
-714.733	29.060	-0.280	-0.238
-713.718	-73.552	-0.228	-0.084
-712.704	-16.850	0.278	-0.176
-711.689	-54.165	-0.127	0.058
-710.675	261.021	0.149	-0.258
-709.660	-200.000	0.053	-0.263
-708.645	-2.633	0.442	0.310
-707.631	-42.209	-0.129	-0.066
-706.616	800.000	0.046	-0.158
-705.602	-200.000	-0.018	-0.098
-704.587	70.471	0.022	0.023
-703.572	79.364	-0.054	0.059
-702.558	800.000	-0.046	0.141
-701.543	-101.682	0.226	0.055
-700.529	-89.334	0.245	0.072
-699.514	-165.379	-0.058	0.003
-698.499	-27.735	0.090	0.052
-697.485	-107.769	-0.060	-0.013
-696.470	42.341	0.087	0.080
-695.456	-200.000	0.016	-0.107
-694.441	219.687	0.124	0.199
-693.426	-6.717	-0.170	-0.116
-692.412	-104.338	0.215	0.050
-691.397	-200.000	0.009	-0.117
-690.383	-124.317	-0.258	0.041
-689.368	-60.156	0.282	0.121
-688.354	111.535	0.006	0.007
-687.339	-93.270	-0.166	-0.046
-686.324	98.313	0.103	-0.119
-685.310	53.016	-0.033	0.032
-684.295	56.354	0.268	-0.262
-683.281	300.617	0.050	0.092
-682.266	-200.000	0.009	-0.162
-681.251	-3.378	-0.195	-0.137
-680.237	-10.211	-0.289	-0.193
-679.222	-125.021	-0.102	0.016
-678.208	19.823	0.108	-0.087
-677.193	-168.800	-0.146	0.006
-676.178	-200.000	0.027	-0.137
-675.164	271.696	0.175	-0.309
-674.149	-200.000	0.070	-0.384
-673.135	-38.942	0.159	0.084
-672.120	-147.748	-0.159	0.013
-671.105	-200.000	0.052	0.263
-670.091	-113.368	0.262	-0.052
-669.076	-180.462	-0.312	-0.006
-668.062	188.519	0.089	-0.133
-667.047	9.784	0.180	-0.137
-666.032	-34.301	0.154	-0.085
-665.018	-48.511	-0.118	-0.057
-664.003	800.000	0.016	0.071
-662.989	54.994	0.070	0.067
-661.974	-84.927	-0.290	0.091
-660.959	-110.903	-0.297	0.061
-659.945	800.000	0.070	0.211
-658.930	800.000	0.018	-0.050
-657.916	-93.042	-0.097	-0.027
-656.901	305.215	-0.138	-0.257
-655.886	428.121	0.037	-0.079
-654.872	337.264	-0.111	-0.216
-653.857	470.584	0.057	0.129
-652.843	-136.323	0.065	0.008
-651.828	3.760	0.299	-0.219
-650.814	-200.000	-0.002	-0.101
-649.799	-54.943	-0.358	-0.162
-648.784	-10.988	0.199	0.132
-647.770	-156.272	-0.198	-0.012
-646.755	-70.053	-0.160	0.061
-645.741	92.081	0.174	0.196
-644.726	-154.075	-0.233	-0.016
-643.711	99.766	0.313	-0.363
-642.697	-39.241	-0.184	-0.097
-641.682	800.000	0.154	-0.450
-640.668	31.083	0.245	-0.211
-639.653	399.392	0.221	0.463
-638.638	-65.047	-0.345	0.140
-637.624	-125.203	-0.067	0.010
-636.609	-76.626	0.464	-0.163
-635.595	115.307	0.124	0.152
-634.580	-200.000	-0.037	-0.246
-633.565	-200.000	0.066	-0.349
-632.551	-73.708	-0.141	0.051
-631.536	-126.553	-0.113	-0.017
-630.522	-67.329	0.354	-0.139
-629.507	-200.000	0.028	0.129
-628.492	90.510	0.073	-0.082
-627.478	127.578	0.051	0.064
-626.463	93.564	0.161	0.182
-625.449	-200.000	0.011	-0.281
-624.434	55.302	0.060	0.058
-623.419	-200.000	0.048	-0.376
-622.405	800.000	0.056	-0.229
-621.390	-42.044	0.195	0.100
-620.376	271.045	-0.090	-0.158
-619.361	59.636	-0.034	-0.034
-618.346	153.750	0.077	0.105
-617.332	-88.306	0.111	0.033
-616.317	133.622	-0.117	0.151
-615.303	-200.000	-0.082	0.399
-614.288	74.168	-0.111	0.117
-613.273	-62.771	0.222	0.092
-612.259	361.823	0.065	0.131
-611.244	-32.337	-0.239	-0.134
-610.230	-29.014	0.206	-0.118
-609.215	219.299	-0.103	0.164
-608.201	-127.729	0.148	-0.021
-607.186	-69.574	0.334	0.128
-606.171	99.766	-0.186	0.216
-605.157	-110.030	-0.323	0.068
-604.142	386.762	-0.016	0.033
-603.128	76.412	0.049	-0.052
-602.113	800.000	-0.047	-0.143
-601.098	307.861	0.016	-0.030
-600.084	431.602	-0.077	-0.166
-599.069	-3.157	-0.095	-0.066
-598.055	-200.000	-0.007	-0.152
-597.040	408.489	0.110	-0.233
-596.025	39.991	0.216	-0.194
-595.011	154.842	-0.109	-0.150
-593.996	-200.000	-0.007	-0.069
-592.982	1.440	-0.160	-0.115
-591.967	-128.861	0.203	-0.029
-590.952	800.000	-0.035	-0.118
-589.938	76.290	0.228	-0.241
-588.923	-66.952	-0.437	0.173
-587.909	48.759	-0.163	-0.153
-586.894	71.728	-0.174	-0.181
-585.879	-96.936	-0.132	0.034
-584.865	60.176	-0.116	-0.115
-583.850	-62.374	0.212	-0.088
-582.836	-65.530	-0.176	-0.071
-581.821	-71.812	-0.102	0.038
-580.806	428.645	0.027	-0.057
-579.792	800.000	0.071	-0.253
-578.777	-60.423	-0.333	-0.142
-577.763	91.853	-0.313	-0.352
-576.748	-101.628	0.204	-0.049
-575.733	199.680	0.081	0.125
-574.719	-137.671	0.115	0.013
-573.704	71.821	-0.141	0.147
-572.690	28.223	0.178	0.150
-571.675	-200.000	0.010	0.097
-570.661	157.563	0.210	-0.291
-569.646	-191.836	-0.277	0.003
-568.631	170.776	0.164	0.234
-567.617	-200.000	0.055	-0.275
-566.602	-35.836	-0.274	0.148
-565.588	800.000	-0.050	-0.217
-564.573	28.563	-0.075	0.063
-563.558	646.673	0.050	-0.128
-562.544	-62.823	0.246	0.102
-561.529	313.117	-0.060	0.113
-560.515	-200.000	0.019	0.261
-559.500	-200.000	-0.039	0.286
-558.485	1.848	-0.245	0.176
-557.471	318.332	0.058	0.110
-556.456	5.055	-0.118	-0.087
-555.442	-81.043	0.236	0.078
-554.427	-11.951	0.088	0.057
-553.412	-76.991	-0.151	0.053
-552.398	151.675	-0.236	-0.321
-551.383	-22.272	0.318	-0.192
-550.369	90.950	-0.143	0.160
-549.354	-38.056	-0.038	-0.020
-548.339	98.743	-0.063	-0.072
-547.325	-200.000	-0.075	0.336
-546.310	800.000	0.154	0.443
-545.296	11.249	-0.100	0.077
-544.281	245.570	0.179	-0.301
-543.266	-36.241	0.246	0.132
-542.252	-5.963	0.039	0.027
-541.237	800.000	0.023	-0.066
-540.223	-7.928	0.115	-0.077
-539.208	-27.208	0.084	0.049
-538.193	-200.000	0.008	0.081
-537.179	2.289	0.057	0.041
-536.164	124.214	0.155	0.194
-535.150	-200.000	-0.004	-0.091
-534.135	0.206	-0.275	-0.196
-533.121	146.500	0.159	-0.213
-532.106	-120.024	0.265	0.045
-531.091	-200.000	0.107	0.583
-530.077	-140.799	-0.140	0.014
-529.062	-200.000	0.030	0.299
-528.048	535.302	-0.163	0.385
-527.033	102.296	-0.141	0.164
-526.018	215.663	0.140	0.222
-525.004	-200.000	0.005	-0.262
-523.989	185.409	0.092	-0.137
-522.975	-120.545	-0.401	0.068
-521.960	-96.229	-0.221	0.058
-520.945	-75.828	-0.103	0.036
-519.931	-102.197	0.230	-0.055
-518.916	800.000	-0.058	0.204
-517.902	387.504	-0.102	0.210
-516.887	-124.198	-0.073	0.011
-515.872	-200.000	-0.039	-0.332
-514.858	-25.778	-0.181	-0.107
-513.843	119.731	0.197	0.244
-512.829	-167.066	0.255	-0.010
-511.814	-129.391	0.150	-0.021
-510.799	-200.000	-0.080	0.392
-509.785	141.347	0.145	0.191
-508.770	-89.244	-0.211	0.062
-507.756	-54.961	-0.083	0.037
-506.741	-48.924	0.194	0.093
-505.726	-51.139	-0.158	0.074
-504.712	800.000	-0.119	-0.353
-503.697	800.000	0.057	-0.191
-502.683	-184.664	0.086	0.001
-501.668	694.934	-0.035	-0.090
-500.653	-200.000	0.010	0.331
-499.639	-191.466	-0.104	0.001
-498.624	355.701	0.093	-0.184
-497.610	-107.680	0.451	-0.098
-496.595	-97.578	-0.171	-0.044
-495.581	800.000	-0.073	0.286
-494.566	-103.879	0.246	-0.057
-493.551	-41.566	0.181	0.093
-492.537	21.885	-0.226	0.183
-491.522	-19.536	-0.102	-0.063
-490.508	-100.397	0.308	0.076
-489.493	62.809	-0.165	0.165
-488.478	-64.583	-0.059	0.024
-487.464	-17.159	0.147	0.092
-486.449	730.067	-0.075	0.200
-485.435	-200.000	0.020	-0.204
-484.420	238.537	0.075	0.124
-483.405	-22.703	-0.356	-0.214
-482.391	-16.135	0.371	-0.235
-481.376	100.986	-0.236	-0.274
-480.362	703.542	-0.123	0.323
-479.347	-89.156	0.322	0.095
-478.332	119.278	0.054	-0.067
-477.318	-65.666	-0.192	-0.077
-476.303	-200.000	0.023	-0.298
-475.289	-11.270	-0.163	-0.107
-474.274	-83.980	0.234	0.074
-473.259	62.415	0.235	0.233
-472.245	-200.000	-0.018	0.376
-471.230	800.000	-0.046	-0.191
-470.216	55.654	-0.107	0.103
-469.201	-200.000	0.091	0.474
-468.186	800.000	-0.034	0.110
-467.172	-192.475	0.064	0.001
-466.157	61.039	-0.188	-0.185
-465.143	219.386	-0.083	-0.133
-464.128	11.315	0.035	0.026
-463.113	-128.999	-0.370	-0.052
-462.099	693.554	0.042	-0.108
-461.084	800.000	0.075	-0.305
-460.070	119.750	0.137	0.169
-459.055	-85.516	-0.102	0.032
-458.040	70.902	0.123	0.127
-457.026	147.974	0.131	0.176
-456.011	137.672	0.279	-0.363
-454.997	-200.000	0.018	0.085
-453.982	3.436	-0.176	0.128
-452.968	-200.000	0.081	-0.427
-451.953	-20.936	-0.192	-0.117
-450.938	62.463	-0.203	-0.202
-449.924	51.976	-0.113	-0.107
-448.909	-1.036	0.215	0.152
-447.895	-200.000	0.010	0.374
-446.880	-200.000	-0.045	0.252
-445.865	-200.000	0.007	0.044
-444.851	-115.800	-0.310	-0.058
-443.836	-200.000	-0.042	-0.362
-442.822	-46.655	0.262	-0.127
-441.807	53.222	0.191	-0.182
-440.792	718.898	-0.105	-0.278
-439.778	-30.230	0.108	-0.061
-438.763	-98.812	-0.232	0.059
-437.749	440.809	-0.068	0.147
-436.734	27.254	-0.130	-0.109
-435.719	8.470	0.204	0.153
-434.705	-156.002	0.090	0.006
-433.690	-161.434	0.203	0.010
-432.676	-200.000	0.002	-0.203
-431.661	-105.435	0.318	-0.072
-430.646	643.015	-0.114	0.290
-429.632	-125.608	-0.538	-0.081
-428.617	-126.414	-0.347	0.051
-427.603	10.907	-0.092	0.070
-426.588	-42.142	0.225	-0.115
-425.573	105.824	0.213	-0.250
-424.559	589.692	-0.021	-0.051
-423.544	-200.000	0.074	0.386
-422.530	-200.000	-0.045	-0.210
-421.515	21.245	-0.094	0.075
-420.500	29.505	0.106	0.090
-419.486	124.453	0.250	0.312
-418.471	800.000	-0.081	-0.260
-417.457	25.323	-0.098	0.081
-416.442	-3.681	-0.331	0.228
-415.428	31.302	0.020	-0.017
-414.413	-45.378	0.052	-0.026
-413.398	1.157	-0.111	-0.079
-412.384	-200.000	0.002	0.100
-411.369	-63.838	0.190	0.077
-410.355	-79.684	-0.146	-0.049
-409.340	35.005	-0.174	0.151
-408.325	-200.000	-0.082	0.532
-407.311	-66.141	-0.412	-0.163
-406.296	19.077	-0.108	0.086
-405.282	-49.451	-0.219	-0.104
-404.267	-86.848	0.186	-0.056
-403.252	183.270	-0.262	0.384
-402.238	449.339	0.103	0.225
-401.223	29.588	-0.162	-0.137
-400.209	-200.000	0.016	0.245
-399.194	242.119	-0.110	0.183
-398.179	421.701	0.080	0.170
-397.165	86.596	-0.115	-0.126
-396.150	29.525	-0.089	-0.075
-395.136	16.734	-0.253	0.198
-394.121	-154.561	0.099	-0.007
-393.106	21.432	-0.090	0.072
-392.092	180.629	-0.178	0.259
-391.077	-45.482	-0.326	0.160
-390.063	800.000	0.060	0.182
-389.048	-128.187	-0.281	-0.040
-388.033	759.275	0.113	0.303
-387.019	421.089	0.216	-0.458
-386.004	-67.179	0.275	-0.107
-384.990	106.376	-0.190	0.224
-383.975	77.446	-0.094	0.099
-382.960	-121.390	-0.084	-0.014
-381.946	800.000	0.065	0.271
-380.931	456.414	0.104	0.229
-379.917	800.000	-0.035	-0.147
-378.902	158.214	0.165	-0.227
-377.888	149.367	0.168	-0.226
-376.873	-10.510	-0.361	-0.237
-375.858	84.021	0.176	-0.191
-374.844	63.864	-0.059	-0.059
-373.829	-198.903	-0.164	0.001
-372.815	26.950	0.194	0.161
-371.800	800.000	0.148	-0.431
-370.785	633.834	-0.072	-0.180
-369.771	-48.486	0.359	-0.171
-368.756	7.055	-0.230	-0.170
-367.742	24.094	0.079	-0.064
-366.727	492.136	0.130	-0.295
-365.712	111.847	-0.060	0.071
-364.698	589.951	0.182	0.444
-363.683	116.676	0.057	0.069
-362.669	800.000	0.060	0.224
-361.654	76.361	0.062	-0.065
-360.639	23.019	-0.158	0.128
-359.625	-68.012	0.341	0.132
-358.610	-144.249	0.118	0.011
-357.596	-110.614	0.111	-0.023
-356.581	-53.678	-0.061	-0.027
-355.566	490.933	-0.057	0.129
-354.552	-108.668	-0.365	0.078
-353.537	188.207	-0.131	0.193
-352.523	42.396	-0.096	-0.087
-351.508	-32.460	-0.247	0.136
-350.493	-173.807	-0.148	0.004
-349.479	-200.000	-0.040	-0.183
-348.464	549.008	-0.024	0.058
-347.450	-3.662	-0.046	-0.032
-346.435	-52.916	-0.121	0.055
-345.420	458.741	0.074	0.164
-344.406	564.631	-0.050	0.120
-343.391	-113.465	0.230	0.045
-342.377	-69.435	0.148	-0.056
-341.362	-44.820	0.075	0.037
-340.348	378.977	-0.138	-0.281
-339.333	20.093	-0.206	-0.164
-338.318	800.000	-0.035	-0.113
-337.304	300.642	0.065	-0.118
-336.289	800.000	0.082	-0.328
-335.275	800.000	-0.127	-0.351
-334.260	-200.000	0.037	0.175
-333.245	-40.114	-0.281	0.145
-332.231	-104.679	0.149	-0.034
-331.216	-200.000	-0.013	0.264
-330.202	-44.304	-0.220	-0.109
-329.187	96.767	0.285	0.324
-328.172	-19.157	0.103	0.063
-327.158	-200.000	-0.048	-0.392
-326.143	235.328	0.095	0.156
-325.129	218.444	0.096	0.152
-324.114	-31.904	0.234	-0.130
-323.099	-98.742	0.088	0.022
-322.085	-43.844	-0.248	0.124
-321.070	800.000	0.055	0.166
-320.056	15.931	0.187	-0.146
-319.041	-103.328	0.063	-0.015
-318.026	-200.000	-0.009	-0.207
-317.012	800.000	-0.039	-0.108
-315.997	-200.000	0.066	0.421
-314.983	-69.289	-0.225	0.085
-313.968	116.048	0.229	-0.277
-312.953	-200.000	-0.004	0.104
-311.939	-110.622	0.329	-0.067
-310.924	-200.000	0.063	0.274
-309.910	-171.193	-0.050	0.002
-308.895	-200.000	-0.032	-0.326
-307.880	-9.791	0.189	0.125
-306.866	148.792	0.236	-0.316
-305.851	113.722	-0.181	-0.217
-304.837	-200.000	0.016	-0.226
-303.822	-37.516	0.110	0.058
-302.807	434.761	0.120	-0.257
-301.793	800.000	-0.053	0.165
-300.778	621.859	0.025	0.062
-299.764	38.808	0.071	-0.063
-298.749	259.187	0.086	-0.147
-297.735	142.320	-0.098	-0.129
-296.720	-174.219	-0.171	0.005
-295.705	19.762	0.184	0.146
-294.691	-83.327	-0.285	0.090
-293.676	-200.000	0.018	-0.181
-292.662	-166.066	-0.123	0.005
-291.647	225.563	0.121	-0.194
-290.632	4.195	0.417	-0.302
-289.618	-200.000	-0.007	0.218
-288.603	628.558	0.095	0.237
-287.589	57.417	-0.108	-0.104
-286.574	-200.000	-0.034	0.184
-285.559	-200.000	0.040	-0.182
-284.545	267.097	-0.125	0.217
-283.530	800.000	-0.112	-0.349
-282.516	220.478	-0.148	0.235
-281.501	334.431	0.109	0.208
-280.486	-200.000	0.015	0.367
-279.472	-118.748	-0.103	0.018
-278.457	709.086	0.054	-0.140
-277.443	-200.000	0.002	0.166
-276.428	574.795	0.111	0.267
-275.413	800.000	0.046	0.177
-274.399	-200.000	0.064	0.342
-273.384	800.000	0.009	0.029
-272.370	-200.000	0.003	-0.230
-271.355	-7.790	0.152	-0.101
-270.340	224.020	0.075	-0.119
-269.326	-37.624	-0.055	0.029
-268.311	-200.000	-0.443	0.001
-267.297	-200.000	-0.008	0.208
-266.282	223.727	-0.081	-0.129
-265.267	-156.687	-0.142	0.009
-264.253	-121.363	0.072	0.012
-263.238	479.229	-0.099	-0.221
-262.224	800.000	-0.048	-0.199
-261.209	35.941	-0.319	-0.277
-260.195	-110.334	-0.056	-0.012
-259.180	800.000	0.077	0.226
-258.165	84.591	-0.210	-0.227
-257.151	43.450	-0.132	0.119
-256.136	-102.416	0.159	0.038
-255.122	-200.000	0.003	-0.168
-254.107	633.494	-0.070	-0.176
-253.092	-140.946	0.274	0.028
-252.078	-4.536	-0.063	0.043
-251.063	504.995	0.012	-0.028
-250.049	78.669	0.053	0.056
-249.034	566.615	0.098	0.235
-248.019	-34.579	-0.107	0.058
-247.005	-200.000	-0.012	-0.245
-245.990	-200.000	-0.043	-0.345
-244.976	235.823	-0.081	0.133
-243.961	-187.370	0.257	-0.003
-242.946	-200.000	-0.010	0.211
-241.932	-49.440	0.166	0.078
-240.917	81.934	0.092	-0.099
-239.903	70.371	-0.146	-0.149
-238.888	-76.273	-0.173	0.060
-237.873	275.556	0.201	0.351
-236.859	-89.713	-0.320	0.093
-235.844	800.000	-0.034	0.135
-234.830	-98.319	-0.137	-0.035
-233.815	-200.000	0.022	-0.289
-232.800	-200.000	-0.054	0.335
-231.786	-20.414	0.209	0.127
-230.771	369.452	0.106	0.211
-229.757	-66.336	0.291	-0.114
-228.742	-200.000	-0.002	-0.075
-227.727	-200.000	0.052	0.272
-226.713	-200.000	-0.017	-0.187
-225.698	-200.000	0.023	-0.125
-224.684	-19.434	0.187	-0.114
-223.669	-200.000	0.023	0.414
-222.655	471.582	0.168	-0.372
-221.640	28.186	0.269	-0.224
-220.625	-45.396	0.257	-0.126
-219.611	-142.106	-0.276	0.027
-218.596	50.842	-0.117	-0.109
-217.582	53.195	0.194	0.183
-216.567	-200.000	-0.003	-0.145
-215.552	738.416	-0.142	-0.374
-214.538	415.429	-0.085	-0.179
-213.523	-47.966	0.195	0.093
-212.509	-200.000	0.045	0.327
-211.494	-18.132	0.293	0.181
-210.479	58.609	0.209	0.202
-209.465	28.148	0.236	-0.197
-208.450	800.000	-0.082	-0.275
-207.436	800.000	0.038	0.123
-206.421	642.474	-0.030	-0.076
-205.406	37.520	-0.133	-0.116
-204.392	59.867	0.339	-0.330
-203.377	-22.608	0.151	0.090
-202.363	-67.848	0.247	-0.095
-201.348	261.869	-0.172	0.294
-200.333	19.983	-0.123	0.098
-199.319	-200.000	-0.007	-0.169
-198.304	157.313	0.022	0.030
-197.290	-137.966	0.188	-0.021
-196.275	-200.000	-0.009	0.213
-195.260	-102.980	-0.388	0.091
-194.246	67.562	0.124	-0.124
-193.231	-25.261	-0.131	-0.076
-192.217	-106.735	-0.048	0.011
-191.202	-102.764	0.187	0.044
-190.187	-200.000	-0.044	0.284
-189.173	-200.000	-0.017	-0.300
-188.158	-65.785	0.128	0.050
-187.144	-127.516	-0.095	0.014
-186.129	800.000	0.037	-0.136
-185.114	-200.000	-0.003	0.044
-184.100	-187.693	-0.026	0.000
-183.085	139.586	0.181	-0.235
-182.071	72.589	-0.213	0.219
-181.056	-6.745	0.132	0.088
-180.042	63.437	0.272	-0.269
-179.027	-92.564	-0.116	-0.032
-178.012	307.662	0.073	0.133
-176.998	-25.542	-0.441	-0.256
-175.983	-51.353	0.197	-0.091
-174.969	-150.403	-0.337	-0.026
-173.954	118.733	-0.077	0.093
-172.939	-27.142	-0.226	0.130
-171.925	18.089	-0.084	-0.066
-170.910	-200.000	-0.011	-0.285
-169.896	246.292	-0.206	-0.342
-168.881	-153.888	-0.289	0.019
-167.866	178.388	-0.201	-0.289
-166.852	-55.531	0.164	-0.072
-165.837	-200.000	-0.002	-0.030
-164.823	-200.000	-0.037	-0.247
-163.808	330.957	0.022	0.042
-162.793	382.297	0.088	-0.179
-161.779	-200.000	-0.002	0.103
-160.764	85.716	0.194	0.209
-159.750	-16.748	-0.234	0.146
-158.735	180.728	-0.054	0.077
-157.720	73.007	0.180	0.185
-156.706	-58.123	-0.192	0.082
-155.691	-200.000	-0.003	0.062
-154.677	-200.000	0.008	0.253
-153.662	65.787	0.178	-0.177
-152.647	340.242	0.062	-0.120
-151.633	-29.795	0.094	0.053
-150.618	264.507	0.224	-0.383
-149.604	-67.149	0.127	0.049
-148.589	-76.099	0.178	-0.062
-147.574	59.495	-0.116	-0.113
-146.560	-200.000	-0.035	-0.230
-145.545	-69.075	0.186	0.070
-144.531	387.971	-0.073	-0.149
-143.516	206.978	-0.117	-0.179
-142.502	82.987	0.224	-0.239
-141.487	-43.393	0.233	0.116
-140.472	-123.463	0.162	0.025
-139.458	-82.347	-0.388	-0.124
-138.443	-63.139	0.281	0.114
-137.429	-200.000	-0.012	-0.148
-136.414	13.790	0.202	-0.154
-135.399	-40.318	-0.132	-0.067
-134.385	-200.000	-0.004	0.057
-133.370	-200.000	-0.001	0.029
-132.356	23.324	-0.130	0.105
-131.341	303.524	-0.057	-0.104
-130.326	-60.312	0.292	-0.122
-129.312	29.739	0.285	0.239
-128.297	115.951	0.095	0.115
-127.283	-186.966	0.123	0.002
-126.268	-200.000	0.008	0.131
-125.253	-80.649	-0.310	-0.101
-124.239	176.796	0.111	-0.159
-123.224	-138.003	0.175	-0.019
-122.210	800.000	-0.045	-0.166
-121.195	-27.403	-0.237	0.136
-120.180	44.728	0.121	-0.110
