DTS Sentinel unit serial number:	SN413079Multiplexer serial number:	ORYXHardware model number:	OX4-SRSoftware version number:	ORYX F/W v4.00 Oryx Data Collector v3.7.2.0data status	okinstallation	princeton_trtdifferential loss correction	single-endedforward channel	channel 1reverse channel	N/Adate	2019/09/13time	07:58:36forward acquisition time	60.00reverse acquisition time	0.00gamma	496.2192k internal	0.2332k external	0.2332temperature offset calibration	1.0159default loss term (dB/km)	0.3790temperature slope calibration	1.0000multiplexer offset coefficient	1.0000multiplexer slope coefficient	1.0000fibre end	0.00T internal ref (°C)	26.81T ext. ref 1 (°C)	4.22T ext. ref 2 (°C)	23.08length (m)	temperature (°C)	Stokes	anti-Stokes-747.200	257.144	0.077	0.132
-746.185	10.676	0.217	0.166
-745.171	-79.123	0.118	0.040
-744.156	68.326	0.215	0.221
-743.142	-200.000	0.010	-0.142
-742.127	27.043	-0.091	0.077
-741.112	451.741	-0.086	0.192
-740.098	215.143	-0.115	0.184
-739.083	18.721	0.362	-0.291
-738.069	25.642	-0.166	0.139
-737.054	-200.000	-0.014	-0.320
-736.039	-153.572	-0.072	-0.005
-735.025	-0.508	0.108	0.077
-734.010	800.000	-0.098	-0.281
-732.996	-23.401	0.132	-0.080
-731.981	-73.934	0.053	-0.019
-730.966	96.147	-0.089	0.102
-729.952	-90.455	-0.193	0.056
-728.937	-128.669	0.285	-0.041
-727.923	13.939	0.062	0.048
-726.908	70.861	0.228	-0.237
-725.894	-27.217	-0.162	0.095
-724.879	-200.000	0.042	0.269
-723.864	800.000	-0.034	0.124
-722.850	-200.000	-0.008	0.057
-721.835	800.000	-0.056	-0.174
-720.821	-132.678	-0.347	-0.045
-719.806	-200.000	-0.064	0.423
-718.791	777.980	0.091	-0.249
-717.777	-62.498	0.218	-0.091
-716.762	-200.000	0.088	-0.446
-715.748	-92.340	-0.217	-0.061
-714.733	-46.853	-0.302	-0.148
-713.718	37.642	0.030	-0.027
-712.704	800.000	-0.031	0.126
-711.689	-92.927	0.063	-0.018
-710.675	-200.000	0.036	0.231
-709.660	-140.998	0.203	-0.021
-708.645	99.168	-0.247	-0.287
-707.631	-109.998	0.348	0.073
-706.616	-12.495	-0.478	0.313
-705.602	-200.000	-0.018	0.114
-704.587	261.155	-0.023	0.040
-703.572	-77.014	-0.057	-0.020
-702.558	-110.565	-0.063	-0.013
-701.543	-48.433	0.166	0.080
-700.529	-200.000	0.005	0.268
-699.514	-26.380	0.437	0.258
-698.499	-154.424	0.163	-0.011
-697.485	800.000	0.118	-0.479
-696.470	4.713	-0.481	-0.355
-695.456	800.000	-0.015	-0.058
-694.441	-136.514	0.278	0.032
-693.426	-67.753	-0.186	-0.073
-692.412	-200.000	-0.003	-0.114
-691.397	84.363	0.018	0.020
-690.383	511.336	0.193	0.450
-689.368	285.397	-0.035	-0.063
-688.354	29.892	0.091	-0.078
-687.339	-67.234	0.444	-0.175
-686.324	617.898	-0.093	0.233
-685.310	77.647	0.210	0.224
-684.295	416.466	0.091	0.194
-683.281	-166.539	0.393	-0.016
-682.266	-116.080	-0.154	0.029
-681.251	-48.172	-0.175	0.085
-680.237	-200.000	0.035	-0.441
-679.222	-200.000	0.001	-0.070
-678.208	729.024	0.053	-0.143
-677.193	-45.803	0.288	-0.143
-676.178	149.436	0.243	-0.331
-675.164	-83.144	0.224	-0.072
-674.149	1.421	-0.080	0.058
-673.135	-65.677	-0.170	0.068
-672.120	800.000	-0.066	-0.227
-671.105	50.430	0.146	0.138
-670.091	-5.712	-0.105	-0.072
-669.076	73.740	0.168	-0.177
-668.062	7.753	0.252	-0.189
-667.047	800.000	0.083	-0.250
-666.032	-44.017	-0.162	0.082
-665.018	15.944	0.191	0.151
-664.003	-141.972	-0.049	-0.005
-662.989	-69.173	0.155	-0.060
-661.974	152.967	-0.098	0.135
-660.959	-96.521	0.303	-0.080
-659.945	182.189	0.216	-0.319
-658.930	48.667	0.395	0.371
-657.916	-94.766	-0.518	-0.141
-656.901	-59.911	0.359	-0.154
-655.886	43.541	-0.203	-0.186
-654.872	800.000	-0.087	-0.243
-653.857	150.418	-0.119	0.162
-652.843	307.533	-0.112	0.209
-651.828	744.803	-0.056	-0.151
-650.814	112.806	-0.339	-0.412
-649.799	-72.292	0.283	-0.105
-648.784	121.661	-0.027	-0.033
-647.770	-103.224	-0.075	-0.018
-646.755	-184.626	0.275	-0.004
-645.741	-200.000	-0.007	-0.215
-644.726	631.628	-0.072	-0.183
-643.711	135.366	0.097	-0.126
-642.697	800.000	-0.118	0.333
-641.682	-147.126	0.569	0.049
-640.668	384.456	0.147	0.303
-639.653	-200.000	-0.027	-0.144
-638.638	61.824	0.137	-0.136
-637.624	-65.926	-0.199	0.080
-636.609	-118.381	0.295	-0.052
-635.595	-200.000	0.033	-0.384
-634.580	249.518	0.127	-0.216
-633.565	211.519	-0.071	0.113
-632.551	-60.073	-0.248	0.106
-631.536	-41.319	0.049	-0.025
-630.522	-200.000	0.008	0.127
-629.507	-14.820	0.114	0.073
-628.492	-200.000	-0.076	0.430
-627.478	-200.000	-0.010	0.269
-626.463	82.072	-0.159	0.172
-625.449	566.304	-0.072	0.174
-624.434	-30.807	-0.092	0.052
-623.419	-125.006	0.169	0.026
-622.405	-18.299	-0.068	-0.043
-621.390	56.413	0.181	0.176
-620.376	-19.649	0.213	-0.132
-619.361	186.861	0.124	0.185
-618.346	-189.020	0.260	0.003
-617.332	-99.886	0.198	0.050
-616.317	-19.662	-0.089	-0.055
-615.303	-200.000	-0.033	-0.236
-614.288	34.469	-0.162	-0.142
-613.273	-200.000	0.004	0.134
-612.259	800.000	-0.128	-0.364
-611.244	-17.464	-0.164	-0.103
-610.230	150.502	0.211	0.287
-609.215	-81.301	-0.384	-0.127
-608.201	212.645	-0.056	0.088
-607.186	-200.000	-0.005	0.106
-606.171	800.000	-0.042	-0.160
-605.157	45.857	-0.099	0.091
-604.142	524.921	-0.167	-0.393
-603.128	-200.000	-0.005	-0.319
-602.113	21.837	0.108	-0.088
-601.098	130.588	-0.100	0.128
-600.084	-179.012	0.210	-0.005
-599.069	43.174	-0.283	0.258
-598.055	457.126	-0.047	-0.104
-597.040	-78.373	0.096	0.033
-596.025	-88.834	-0.203	0.060
-595.011	116.199	0.120	0.147
-593.996	-165.943	0.173	-0.007
-592.982	-200.000	0.085	0.399
-591.967	327.399	-0.072	-0.138
-590.952	-123.514	-0.287	-0.046
-589.938	76.256	-0.271	-0.286
-588.923	134.626	0.157	-0.204
-587.909	-200.000	-0.029	-0.202
-586.894	373.420	0.057	-0.117
-585.879	800.000	-0.108	0.303
-584.865	193.822	0.146	0.222
-583.850	420.974	-0.068	0.145
-582.836	237.391	-0.130	-0.216
-581.821	-200.000	0.061	-0.348
-580.806	-200.000	-0.001	-0.122
-579.792	-200.000	0.059	0.352
-578.777	766.208	-0.063	-0.171
-577.763	-24.495	-0.305	0.182
-576.748	-135.941	-0.171	-0.020
-575.733	122.530	-0.121	-0.152
-574.719	-200.000	-0.015	0.191
-573.704	246.121	0.046	-0.077
-572.690	800.000	0.103	-0.337
-571.675	-29.350	-0.064	-0.037
-570.661	243.412	0.186	-0.312
-569.646	370.471	0.061	0.123
-568.631	-173.858	0.257	0.008
-567.617	88.399	-0.129	0.143
-566.602	411.187	-0.106	0.224
-565.588	-86.530	-0.221	-0.068
-564.573	17.713	0.145	-0.115
-563.558	-30.444	-0.297	-0.168
-562.544	-65.498	-0.350	-0.140
-561.529	800.000	-0.033	-0.118
-560.515	-95.483	0.392	0.105
-559.500	174.734	0.162	0.233
-558.485	-200.000	0.024	-0.270
-557.471	-200.000	0.014	-0.173
-556.456	-11.185	-0.153	0.101
-555.442	167.445	0.075	-0.106
-554.427	-66.268	-0.414	0.165
-553.412	800.000	-0.119	-0.403
-552.398	-145.080	0.189	-0.017
-551.383	-105.011	-0.338	0.077
-550.369	311.538	0.133	0.249
-549.354	48.660	-0.150	0.140
-548.339	800.000	-0.027	-0.079
-547.325	800.000	-0.101	0.371
-546.310	115.668	-0.133	-0.163
-545.296	194.891	0.050	-0.075
-544.281	17.655	0.071	-0.057
-543.266	-47.948	-0.311	0.150
-542.252	-0.713	0.104	-0.073
-541.237	6.555	-0.240	0.178
-540.223	-49.385	0.240	0.114
-539.208	146.378	-0.198	0.265
-538.193	239.921	-0.144	-0.240
-537.179	88.770	-0.184	0.204
-536.164	37.281	-0.170	0.150
-535.150	70.710	-0.164	-0.169
-534.135	-129.395	0.197	-0.027
-533.121	-25.967	0.238	-0.140
-532.106	85.601	-0.156	-0.171
-531.091	-33.761	0.296	-0.163
-530.077	-137.307	0.316	-0.036
-529.062	10.530	-0.079	0.060
-528.048	710.055	0.087	0.230
-527.033	-3.581	-0.180	0.125
-526.018	-181.481	0.284	0.006
-525.004	-6.658	0.062	0.042
-523.989	210.579	-0.146	-0.229
-522.975	-200.000	0.224	0.001
-521.960	290.244	0.179	-0.324
-520.945	-200.000	-0.021	-0.300
-519.931	70.493	0.246	0.253
-518.916	-162.329	0.236	-0.012
-517.902	282.020	0.107	-0.192
-516.887	-48.962	0.042	0.020
-515.872	-46.631	0.009	-0.004
-514.858	130.772	0.088	-0.112
-513.843	-132.949	-0.429	0.054
-512.829	-108.903	0.441	-0.094
-511.814	61.910	0.104	0.103
-510.799	135.598	0.030	0.038
-509.785	85.531	-0.328	0.359
-508.770	-111.439	-0.203	0.041
-507.756	-165.630	-0.245	0.011
-506.741	800.000	0.100	0.307
-505.726	43.286	0.251	-0.229
-504.712	59.803	0.171	0.169
-503.697	800.000	0.151	-0.424
-502.683	-48.854	-0.061	-0.029
-501.668	-131.044	0.501	-0.067
-500.653	-200.000	-0.042	-0.363
-499.639	-15.620	-0.209	0.133
-498.624	-84.105	-0.175	-0.055
-497.610	570.742	-0.108	-0.263
-496.595	-78.919	-0.175	-0.060
-495.581	293.009	0.052	0.094
-494.566	-68.639	0.055	-0.021
-493.551	-200.000	-0.019	0.148
-492.537	-142.928	0.328	0.032
-491.522	-59.530	0.140	-0.060
-490.508	31.612	0.148	-0.127
-489.493	-15.905	-0.141	0.090
-488.478	125.113	-0.082	0.102
-487.464	-141.311	0.371	0.038
-486.449	800.000	-0.027	-0.075
-485.435	-200.000	-0.025	0.271
-484.420	20.317	-0.281	0.226
-483.405	-200.000	0.021	0.207
-482.391	687.779	-0.057	-0.148
-481.376	-58.841	0.016	-0.007
-480.362	-153.818	0.087	0.006
-479.347	800.000	-0.068	-0.218
-478.332	75.440	-0.064	-0.068
-477.318	-200.000	-0.018	-0.077
-476.303	-132.449	-0.042	-0.005
-475.289	-116.930	0.089	0.016
-474.274	-200.000	-0.006	0.061
-473.259	276.648	-0.053	-0.093
-472.245	96.511	0.130	0.148
-471.230	299.252	-0.078	0.143
-470.216	-54.406	0.099	-0.045
-469.201	800.000	-0.074	0.263
-468.186	-135.253	0.355	-0.042
-467.172	-200.000	0.017	0.178
-466.157	800.000	-0.110	0.321
-465.143	-85.308	-0.209	0.065
-464.128	-146.906	0.314	-0.027
-463.113	-162.874	-0.275	-0.013
-462.099	2.477	-0.303	-0.218
-461.084	201.466	-0.089	-0.137
-460.070	143.974	0.098	0.130
-459.055	-200.000	0.035	-0.216
-458.040	-47.515	-0.430	0.208
-457.026	226.743	-0.174	-0.281
-456.011	11.778	0.256	0.196
-454.997	-200.000	-0.029	-0.173
-453.982	40.045	-0.241	0.216
-452.968	-75.574	-0.119	0.042
-451.953	-66.794	-0.295	-0.116
-450.938	284.672	-0.048	-0.085
-449.924	13.012	0.242	0.186
-448.909	-91.549	-0.080	0.023
-447.895	765.200	0.116	0.314
-446.880	33.388	0.243	0.210
-445.865	-177.500	-0.219	-0.005
-444.851	800.000	0.051	0.172
-443.836	188.733	-0.184	0.274
-442.822	241.476	0.093	0.155
-441.807	-200.000	0.043	0.188
-440.792	800.000	-0.121	0.356
-439.778	-71.035	0.145	-0.054
-438.763	-114.856	0.065	-0.012
-437.749	467.173	-0.154	-0.343
-436.734	36.493	0.082	-0.072
-435.719	-130.165	-0.275	0.037
-434.705	292.218	0.164	-0.296
-433.690	-83.006	0.175	-0.056
-432.676	-145.747	0.062	0.006
-431.661	556.742	-0.065	0.156
-430.646	-200.000	0.001	0.101
-429.632	-111.439	0.269	-0.054
-428.617	-140.057	0.106	-0.011
-427.603	-200.000	-0.023	0.104
-426.588	-200.000	-0.003	0.077
-425.573	-200.000	0.012	0.092
-424.559	800.000	-0.019	-0.070
-423.544	-119.501	-0.180	0.031
-422.530	41.793	-0.115	-0.104
-421.515	-58.546	-0.250	0.108
-420.500	274.359	-0.214	0.376
-419.486	37.545	0.147	-0.130
-418.471	147.783	0.107	-0.144
-417.457	185.175	-0.167	-0.246
-416.442	336.034	0.126	-0.243
-415.428	800.000	-0.083	-0.304
-414.413	186.103	0.046	0.069
-413.398	-13.347	0.035	0.022
-412.384	410.409	-0.068	0.143
-411.369	-120.600	-0.266	-0.045
-410.355	-200.000	-0.050	-0.225
-409.340	166.828	0.180	0.254
-408.325	800.000	-0.142	0.417
-407.311	800.000	0.045	-0.150
-406.296	-123.697	0.159	0.025
-405.282	627.032	0.052	0.130
-404.267	-3.397	-0.337	0.233
-403.252	331.216	0.072	0.137
-402.238	-177.339	0.322	0.008
-401.223	107.023	0.196	0.231
-400.209	-42.158	0.044	0.022
-399.194	-176.467	0.139	0.004
-398.179	143.807	0.053	-0.070
-397.165	-4.267	-0.044	-0.030
-396.150	-200.000	0.022	0.344
-395.136	-88.945	-0.101	-0.030
-394.121	-16.685	0.306	-0.192
-393.106	-200.000	0.360	-0.002
-392.092	217.779	-0.115	0.182
-391.077	362.670	0.108	-0.215
-390.063	-33.189	0.355	0.195
-389.048	-200.000	-0.038	0.368
-388.033	800.000	0.063	0.244
-387.019	-125.381	-0.446	-0.067
-386.004	159.711	0.158	-0.218
-384.990	800.000	-0.113	-0.405
-383.975	141.781	-0.236	0.311
-382.960	-122.154	-0.197	0.032
-381.946	-200.000	0.027	-0.249
-380.931	24.430	0.228	-0.187
-379.917	-68.452	0.331	0.127
-378.902	-200.000	-0.026	-0.145
-377.888	229.821	-0.073	0.119
-376.873	168.103	-0.107	0.150
-375.858	30.008	-0.215	0.182
-374.844	-58.931	0.240	-0.103
-373.829	-47.601	-0.382	-0.184
-372.815	66.871	0.256	0.258
-371.800	800.000	0.048	0.162
-370.785	32.674	-0.200	0.171
-369.771	-200.000	-0.050	0.230
-368.756	154.946	0.036	0.049
-367.742	-200.000	-0.016	-0.152
-366.727	-200.000	0.051	-0.367
-365.712	-93.538	0.231	0.063
-364.698	-160.598	-0.042	-0.002
-363.683	-200.000	-0.037	0.207
-362.669	233.761	0.111	0.182
-361.654	-139.339	-0.120	-0.013
-360.639	-124.221	0.053	-0.008
-359.625	-200.000	0.020	-0.179
-358.610	800.000	-0.057	0.224
-357.596	265.207	0.071	0.123
-356.581	-53.290	0.194	-0.088
-355.566	292.964	-0.142	-0.257
-354.552	7.194	0.234	-0.173
-353.537	-65.114	-0.145	0.058
-352.523	93.828	-0.175	-0.197
-351.508	-52.269	-0.255	0.117
-350.493	533.115	-0.149	-0.349
-349.479	18.321	0.071	-0.056
-348.464	-49.457	0.316	0.149
-347.450	40.833	-0.232	0.208
-346.435	559.547	-0.109	-0.260
-345.420	-200.000	0.002	-0.074
-344.406	-23.323	-0.282	0.168
-343.391	130.141	-0.019	-0.024
-342.377	-98.656	0.098	-0.025
-341.362	-47.569	-0.087	0.042
-340.348	-58.176	-0.028	0.012
-339.333	-78.299	0.050	0.017
-338.318	-140.018	0.303	0.032
-337.304	-161.455	0.165	-0.008
-336.289	231.379	-0.103	-0.166
-335.275	-51.479	-0.272	0.126
-334.260	-134.758	0.253	0.030
-333.245	-200.000	0.012	-0.106
-332.231	-88.301	-0.384	-0.114
-331.216	-57.640	-0.202	-0.088
-330.202	683.358	0.083	0.213
-329.187	548.064	-0.089	-0.211
-328.172	-103.604	-0.123	0.029
-327.158	494.329	-0.122	0.276
-326.143	40.615	0.166	-0.148
-325.129	-200.000	-0.034	0.292
-324.114	-26.984	-0.287	0.166
-323.099	-51.968	-0.166	-0.076
-322.085	-200.000	0.027	0.307
-321.070	55.439	0.118	0.113
-320.056	800.000	0.114	0.353
-319.041	-49.686	-0.044	-0.021
-318.026	136.553	0.149	0.192
-317.012	100.847	-0.148	-0.171
-315.997	639.988	-0.047	-0.118
-314.983	254.361	-0.192	-0.325
-313.968	-200.000	-0.019	0.140
-312.953	-98.047	-0.526	-0.134
-311.939	116.427	-0.164	0.199
-310.924	-200.000	0.032	0.159
-309.910	145.835	-0.189	-0.250
-308.895	-200.000	0.008	-0.292
-307.880	-200.000	0.029	-0.155
-306.866	-121.345	-0.194	-0.032
-305.851	40.809	0.111	0.099
-304.837	619.903	-0.048	-0.118
-303.822	-36.086	-0.058	-0.031
-302.807	276.733	-0.060	-0.105
-301.793	686.056	0.037	-0.095
-300.778	-109.507	0.247	0.052
-299.764	2.353	-0.194	0.139
-298.749	-200.000	0.012	-0.248
-297.735	-42.363	0.138	0.070
-296.720	-85.597	0.249	0.077
-295.705	-115.072	0.126	-0.024
-294.691	287.521	0.170	0.304
-293.676	-55.432	-0.265	-0.117
-292.662	-90.413	-0.458	-0.131
-291.647	0.970	-0.162	-0.115
-290.632	-136.921	0.191	-0.022
-289.618	107.662	0.291	-0.343
-288.603	-200.000	-0.019	0.121
-287.589	-200.000	0.040	0.229
-286.574	58.973	-0.057	0.055
-285.559	-23.985	-0.212	0.125
-284.545	35.331	0.088	-0.076
-283.530	264.195	0.110	-0.190
-282.516	-62.952	0.174	-0.071
-281.501	-29.833	-0.111	-0.063
-280.486	118.998	-0.086	0.105
-279.472	62.057	0.136	0.134
-278.457	-50.566	-0.057	0.027
-277.443	-11.491	0.280	0.182
-276.428	-144.856	-0.156	-0.014
-275.413	209.231	0.053	0.082
-274.399	-88.417	0.294	0.087
-273.384	-200.000	-0.029	0.180
-272.370	-200.000	-0.004	0.169
-271.355	-108.700	-0.192	-0.041
-270.340	-200.000	0.001	0.224
-269.326	-123.336	-0.173	0.027
-268.311	-112.120	0.020	-0.004
-267.297	55.238	0.108	-0.103
-266.282	800.000	-0.056	0.175
-265.267	-35.900	0.198	0.106
-264.253	-200.000	0.028	-0.271
-263.238	-25.875	0.248	-0.144
-262.224	800.000	-0.054	0.171
-261.209	-78.127	0.320	0.109
-260.195	-127.763	-0.184	0.026
-259.180	-115.469	0.117	-0.022
-258.165	272.182	-0.059	-0.103
-257.151	-200.000	0.228	0.001
-256.136	-200.000	-0.052	-0.376
-255.122	-9.076	0.049	-0.032
-254.107	-88.436	-0.157	0.046
-253.092	22.837	0.095	-0.077
-252.078	800.000	0.067	-0.271
-251.063	-200.000	0.054	-0.437
-250.049	98.143	0.220	-0.250
-249.034	91.402	0.022	0.025
-248.019	-84.842	0.219	-0.068
-247.005	361.244	0.026	-0.052
-245.990	-108.840	0.296	0.063
-244.976	369.709	-0.106	0.211
-243.961	-47.865	0.443	0.211
-242.946	-103.046	-0.195	-0.046
-241.932	70.330	-0.053	-0.054
-240.917	-200.000	0.211	-0.001
-239.903	-200.000	0.006	0.079
-238.888	255.661	-0.030	-0.051
-237.873	-200.000	0.017	-0.142
-236.859	107.137	0.138	-0.162
-235.844	-200.000	0.009	0.292
-234.830	800.000	0.044	0.170
-233.815	-61.181	-0.359	-0.149
-232.800	-200.000	-0.061	-0.339
-231.786	-74.385	0.193	0.069
-230.771	-73.828	0.022	0.008
-229.757	-108.928	-0.082	-0.017
-228.742	800.000	0.109	0.367
-227.727	30.689	-0.190	0.160
-226.713	-114.291	-0.227	0.043
-225.698	-28.650	0.157	-0.089
-224.684	116.400	0.214	0.259
-223.669	800.000	0.042	-0.150
-222.655	25.421	0.079	0.065
-221.640	-86.098	-0.208	-0.063
-220.625	6.510	0.122	0.090
-219.611	399.467	-0.133	-0.274
-218.596	-200.000	0.043	0.215
-217.582	91.031	-0.008	-0.009
-216.567	95.251	0.184	0.207
-215.552	114.461	0.096	0.115
-214.538	800.000	0.043	0.153
-213.523	147.079	0.200	-0.265
-212.509	68.492	-0.164	0.166
-211.494	-41.831	0.051	-0.026
-210.479	30.524	0.141	0.119
-209.465	148.548	0.059	0.079
-208.450	-72.210	-0.094	0.034
-207.436	319.752	0.189	0.353
-206.421	-158.386	-0.205	-0.012
-205.406	-146.015	0.177	-0.015
-204.392	-81.076	-0.196	0.064
-203.377	224.968	-0.252	0.402
-202.363	-200.000	0.037	0.179
-201.348	-52.509	0.160	-0.073
-200.333	800.000	-0.030	-0.102
-199.319	-120.989	0.135	0.022
-198.304	-90.739	-0.335	-0.095
-197.290	-173.628	0.203	0.006
-196.275	800.000	-0.112	-0.333
-195.260	-200.000	0.019	-0.092
-194.246	-38.775	0.220	-0.114
-193.231	90.679	-0.212	-0.234
-192.217	800.000	0.154	-0.422
-191.202	22.520	-0.080	-0.065
-190.187	800.000	0.017	-0.059
-189.173	-68.117	-0.306	-0.117
-188.158	38.403	0.199	-0.175
-187.144	76.611	0.236	0.246
-186.129	800.000	0.052	-0.180
-185.114	201.521	-0.205	-0.310
-184.100	-200.000	0.007	-0.084
-183.085	-72.016	0.037	-0.014
-182.071	-24.996	-0.101	-0.059
-181.056	283.418	0.163	-0.288
-180.042	800.000	-0.083	-0.324
-179.027	245.408	-0.052	-0.087
-178.012	800.000	0.062	-0.215
-176.998	124.832	0.222	-0.276
-175.983	-51.065	0.287	-0.133
-174.969	800.000	0.010	-0.029
-173.954	33.909	-0.262	0.225
-172.939	239.664	-0.073	-0.119
-171.925	89.189	0.197	-0.216
-170.910	-51.194	-0.069	-0.032
-169.896	-59.228	-0.218	-0.092
-168.881	-62.424	-0.265	-0.108
-167.866	-27.460	-0.104	0.059
-166.852	-200.000	-0.018	0.150
-165.837	389.290	0.053	0.107
-164.823	205.256	0.026	-0.040
-163.808	418.305	0.032	0.068
-162.793	22.955	-0.061	-0.050
-161.779	155.016	0.156	0.211
-160.764	189.045	-0.151	-0.222
-159.750	-96.663	0.319	-0.083
-158.735	57.170	0.184	0.176
-157.720	-129.005	-0.207	-0.028
-156.706	-200.000	0.006	0.124
-155.691	54.406	-0.115	-0.109
-154.677	316.296	-0.089	0.166
-153.662	-76.823	0.186	-0.064
-152.647	114.653	-0.260	0.311
-151.633	156.465	-0.197	-0.267
-150.618	800.000	0.094	-0.287
-149.604	62.416	0.135	0.132
-148.589	334.820	-0.141	0.269
-147.574	177.422	-0.056	-0.081
-146.560	14.682	-0.212	0.162
-145.545	-50.826	0.190	-0.088
-144.531	800.000	-0.069	-0.193
-143.516	110.057	-0.098	-0.115
-142.502	96.284	0.068	0.076
-141.487	189.345	0.150	-0.220
-140.472	-38.024	0.108	0.056
-139.458	104.805	-0.217	0.252
-138.443	91.139	0.257	0.284
-137.429	13.972	-0.079	0.060
-136.414	775.531	-0.084	0.225
-135.399	223.557	-0.088	-0.140
-134.385	-200.000	-0.008	-0.118
-133.370	361.434	-0.156	0.307
-132.356	-20.733	-0.023	-0.014
-131.341	431.807	0.083	0.178
-130.326	-75.499	-0.327	0.114
-129.312	-111.085	0.231	-0.046
-128.297	572.327	-0.031	0.074
-127.283	195.465	0.139	0.207
-126.268	146.886	0.042	0.056
-125.253	-17.902	0.244	-0.150
-124.239	226.597	-0.122	0.194
-123.224	792.496	0.088	0.238
-122.210	-200.000	0.017	0.094
-121.195	-111.775	0.167	0.033
