DTS Sentinel unit serial number:	SN413079Multiplexer serial number:	ORYXHardware model number:	OX4-SRSoftware version number:	ORYX F/W v4.00 Oryx Data Collector v3.7.2.0data status	okinstallation	princeton_trtdifferential loss correction	single-endedforward channel	channel 1reverse channel	N/Adate	2019/09/17time	02:30:35forward acquisition time	60.00reverse acquisition time	0.00gamma	496.2192k internal	0.2323k external	0.2323temperature offset calibration	0.9954default loss term (dB/km)	0.3790temperature slope calibration	1.0000multiplexer offset coefficient	1.0000multiplexer slope coefficient	1.0000fibre end	0.00T internal ref (°C)	29.80T ext. ref 1 (°C)	0.12T ext. ref 2 (°C)	24.76length (m)	temperature (°C)	Stokes	anti-Stokes-747.200	-200.000	0.004	0.192
-746.185	1.390	-0.277	0.201
-745.171	800.000	-0.109	-0.361
-744.156	345.146	0.005	-0.010
-743.142	-185.946	-0.416	-0.006
-742.127	-200.000	-0.056	0.307
-741.112	93.582	0.100	0.115
-740.098	800.000	-0.071	0.226
-739.083	-66.850	-0.146	0.058
-738.069	690.112	0.116	0.307
-737.054	186.486	0.024	-0.037
-736.039	-8.371	-0.109	0.074
-735.025	105.443	0.048	0.057
-734.010	-66.228	0.262	0.105
-732.996	-200.000	-0.032	-0.418
-731.981	-21.287	-0.144	0.089
-730.966	-200.000	0.026	-0.286
-729.952	484.018	0.037	0.084
-728.937	6.171	-0.211	-0.158
-727.923	-200.000	0.013	-0.272
-726.908	-61.862	-0.166	-0.070
-725.894	800.000	-0.136	-0.564
-724.879	-17.541	0.520	-0.330
-723.864	-128.775	0.070	-0.010
-722.850	284.387	-0.116	-0.210
-721.835	16.547	-0.236	-0.188
-720.821	653.259	-0.073	0.189
-719.806	-144.155	-0.253	-0.024
-718.791	-54.912	0.173	-0.079
-717.777	800.000	0.072	-0.296
-716.762	-112.602	0.029	-0.006
-715.748	46.787	0.292	-0.274
-714.733	-41.073	-0.364	-0.189
-713.718	18.579	-0.214	-0.172
-712.704	-86.714	0.084	0.026
-711.689	648.377	-0.020	0.051
-710.675	-200.000	-0.002	-0.114
-709.660	-96.679	0.227	0.060
-708.645	-200.000	0.009	-0.213
-707.631	-200.000	-0.015	-0.289
-706.616	-21.895	0.129	0.079
-705.602	800.000	-0.033	-0.110
-704.587	-40.842	-0.198	0.104
-703.572	46.098	0.046	-0.043
-702.558	29.970	-0.239	-0.205
-701.543	196.783	0.046	-0.071
-700.529	77.003	-0.111	-0.119
-699.514	145.077	0.095	0.128
-698.499	800.000	0.046	-0.132
-697.485	625.610	0.051	0.131
-696.470	800.000	-0.017	-0.051
-695.456	-83.342	-0.098	-0.032
-694.441	7.637	0.183	-0.138
-693.426	765.613	-0.135	0.368
-692.412	-200.000	-0.007	0.136
-691.397	-153.787	-0.490	0.034
-690.383	-200.000	0.010	-0.065
-689.368	45.256	-0.145	-0.135
-688.354	-68.898	0.323	-0.126
-687.339	-200.000	-0.015	0.098
-686.324	121.900	-0.187	0.235
-685.310	800.000	-0.083	0.339
-684.295	-61.882	0.153	0.065
-683.281	-35.350	0.255	0.140
-682.266	89.921	0.067	-0.075
-681.251	297.342	0.066	-0.122
-680.237	-105.681	0.204	-0.047
-679.222	-200.000	0.043	0.205
-678.208	74.645	-0.225	0.238
-677.193	-200.000	-0.013	0.126
-676.178	-42.233	0.235	-0.121
-675.164	-145.880	-0.253	0.023
-674.149	183.143	-0.075	-0.111
-673.135	-152.196	-0.113	0.008
-672.120	-4.609	-0.202	-0.140
-671.105	800.000	0.155	-0.503
-670.091	292.188	-0.038	-0.070
-669.076	800.000	-0.075	-0.315
-668.062	14.267	-0.193	-0.152
-667.047	-149.425	-0.224	-0.018
-666.032	-200.000	0.011	-0.111
-665.018	-41.220	-0.322	-0.167
-664.003	-23.787	0.273	0.165
-662.989	138.256	-0.118	0.156
-661.974	-121.983	-0.216	-0.036
-660.959	38.703	0.070	0.063
-659.945	-200.000	0.074	0.420
-658.930	800.000	-0.047	0.178
-657.916	-80.363	-0.201	-0.068
-656.901	769.542	-0.065	0.179
-655.886	-88.275	0.101	-0.030
-654.872	52.077	0.059	-0.057
-653.857	-200.000	0.006	-0.159
-652.843	61.527	0.079	-0.079
-651.828	-51.119	-0.183	0.086
-650.814	-66.454	0.185	0.074
-649.799	-200.000	0.011	-0.192
-648.784	67.772	-0.091	0.093
-647.770	9.059	-0.177	0.134
-646.755	-51.334	-0.272	-0.128
-645.741	-200.000	0.025	-0.297
-644.726	143.107	0.245	0.328
-643.711	3.211	-0.157	0.115
-642.697	-56.897	-0.226	-0.100
-641.682	-102.971	-0.286	0.068
-640.668	-143.680	-0.126	-0.012
-639.653	6.475	-0.067	-0.050
-638.638	-61.748	-0.136	-0.057
-637.624	-39.840	-0.199	-0.105
-636.609	757.492	0.056	-0.151
-635.595	-110.121	0.014	0.003
-634.580	-27.046	-0.373	0.219
-633.565	-200.000	0.019	0.153
-632.551	-63.897	-0.041	0.017
-631.536	-72.934	-0.116	0.043
-630.522	-200.000	0.031	-0.174
-629.507	-141.706	0.149	0.015
-628.492	-161.822	-0.158	0.008
-627.478	-99.426	-0.126	0.032
-626.463	-144.419	-0.148	0.014
-625.449	-161.949	-0.111	-0.006
-624.434	-200.000	-0.019	-0.351
-623.419	-41.320	-0.272	-0.141
-622.405	-134.315	-0.241	0.030
-621.390	-62.335	-0.193	-0.081
-620.376	526.309	-0.070	-0.166
-619.361	800.000	0.115	-0.368
-618.346	-7.618	0.279	0.190
-617.332	654.332	-0.077	-0.199
-616.317	70.245	-0.232	0.241
-615.303	-147.821	0.242	-0.020
-614.288	110.806	-0.252	0.305
-613.273	-75.897	-0.231	0.082
-612.259	-68.076	-0.174	-0.068
-611.244	59.215	-0.109	-0.108
-610.230	800.000	0.025	0.071
-609.215	-151.041	-0.267	-0.020
-608.201	390.653	0.104	0.216
-607.186	4.072	-0.312	0.229
-606.171	634.774	0.040	0.101
-605.157	-200.000	-0.007	0.062
-604.142	-5.755	-0.273	0.188
-603.128	176.569	-0.019	0.027
-602.113	-200.000	-0.007	0.070
-601.098	-41.722	-0.247	-0.127
-600.084	-200.000	-0.009	0.244
-599.069	-44.134	0.057	0.029
-598.055	-95.544	0.276	0.074
-597.040	174.933	-0.189	-0.275
-596.025	-72.042	-0.121	0.045
-595.011	298.135	0.079	-0.145
-593.996	240.421	-0.071	0.119
-592.982	-52.110	0.108	-0.050
-591.967	96.608	0.180	-0.207
-590.952	-168.340	0.168	-0.007
-589.938	-37.175	0.091	-0.049
-588.923	-156.600	0.031	-0.002
-587.909	97.050	0.162	0.187
-586.894	-128.782	0.168	-0.024
-585.879	-200.000	0.016	-0.234
-584.865	559.578	0.046	-0.112
-583.850	-132.407	-0.180	-0.023
-582.836	-154.937	-0.059	0.004
-581.821	-170.482	0.128	0.004
-580.806	-133.534	0.203	-0.026
-579.792	-136.384	0.312	0.036
-578.777	-91.101	-0.022	-0.006
-577.763	-84.372	-0.188	-0.060
-576.748	21.217	0.116	-0.094
-575.733	-26.666	-0.137	0.080
-574.719	-200.000	0.032	-0.234
-573.704	-200.000	-0.003	0.093
-572.690	520.263	-0.107	-0.252
-571.675	-19.937	-0.071	-0.044
-570.661	-200.000	0.077	0.407
-569.646	-85.969	-0.392	0.121
-568.631	-200.000	-0.078	0.386
-567.617	-142.988	-0.288	0.028
-566.602	40.413	0.191	0.173
-565.588	-200.000	0.018	-0.115
-564.573	461.840	-0.144	0.323
-563.558	-131.157	0.218	-0.029
-562.544	-91.465	-0.139	-0.040
-561.529	-94.256	0.067	0.018
-560.515	-200.000	-0.027	-0.205
-559.500	-158.485	0.189	-0.011
-558.485	26.881	-0.251	-0.211
-557.471	-12.283	-0.134	0.088
-556.456	-200.000	0.044	0.376
-555.442	-96.638	-0.153	0.040
-554.427	-200.000	0.031	-0.415
-553.412	-117.588	0.102	0.018
-552.398	800.000	0.068	-0.277
-551.383	148.996	-0.120	0.163
-550.369	800.000	-0.028	0.116
-549.354	800.000	-0.122	0.357
-548.339	257.077	-0.025	0.044
-547.325	296.893	0.131	0.241
-546.310	94.100	-0.277	-0.315
-545.296	115.182	0.139	-0.170
-544.281	-149.972	-0.186	-0.015
-543.266	146.512	-0.096	0.130
-542.252	-109.823	-0.127	-0.027
-541.237	800.000	-0.068	-0.256
-540.223	-134.741	-0.362	0.044
-539.208	-114.536	0.323	0.062
-538.193	-200.000	0.023	0.231
-537.179	-94.842	-0.207	0.056
-536.164	800.000	-0.092	0.272
-535.150	-200.000	0.034	-0.165
-534.135	-43.793	0.154	0.078
-533.121	160.170	0.021	0.030
-532.106	61.423	-0.179	-0.178
-531.091	247.681	-0.061	-0.103
-530.077	358.731	-0.091	0.183
-529.062	800.000	0.080	-0.279
-528.048	800.000	0.140	0.401
-527.033	-111.046	0.148	-0.030
-526.018	780.704	-0.121	0.332
-525.004	-200.000	-0.038	0.303
-523.989	13.483	-0.090	0.070
-522.975	-125.888	-0.174	-0.026
-521.960	-31.292	0.439	0.247
-520.945	-200.000	-0.003	0.164
-519.931	47.093	-0.158	-0.147
-518.916	-87.038	0.141	-0.043
-517.902	39.827	-0.134	0.120
-516.887	28.585	-0.198	-0.168
-515.872	800.000	-0.064	-0.192
-514.858	388.067	-0.088	-0.183
-513.843	217.310	0.155	-0.248
-512.829	403.757	-0.054	-0.114
-511.814	0.954	0.296	-0.212
-510.799	-18.318	-0.044	-0.028
-509.785	6.571	0.245	0.182
-508.770	800.000	-0.158	-0.561
-507.756	-31.543	0.200	-0.112
-506.741	248.593	0.059	0.099
-505.726	-79.071	-0.354	-0.120
-504.712	336.251	-0.248	-0.482
-503.697	-200.000	-0.048	-0.276
-502.683	-200.000	-0.016	-0.287
-501.668	40.836	0.417	-0.376
-500.653	61.993	-0.083	0.083
-499.639	-161.112	-0.301	-0.016
-498.624	68.029	0.016	-0.017
-497.610	193.157	0.195	-0.295
-496.595	15.529	-0.050	0.039
-495.581	-35.870	-0.322	0.174
-494.566	-42.379	0.110	-0.056
-493.551	401.153	-0.104	0.218
-492.537	800.000	0.032	0.108
-491.522	-89.360	-0.170	-0.050
-490.508	800.000	-0.054	-0.201
-489.493	102.645	-0.058	0.068
-488.478	-46.445	-0.402	0.198
-487.464	800.000	0.085	0.316
-486.449	-200.000	-0.006	0.269
-485.435	22.318	0.253	-0.207
-484.420	-200.000	0.005	0.193
-483.405	-113.719	0.212	0.041
-482.391	-132.206	0.222	-0.029
-481.376	-42.937	-0.246	0.125
-480.362	-38.044	0.262	-0.139
-479.347	-52.332	0.172	0.080
-478.332	-91.658	-0.197	0.056
-477.318	60.335	-0.201	-0.199
-476.303	-115.600	0.205	0.038
-475.289	-200.000	0.048	0.222
-474.274	72.335	0.110	-0.114
-473.259	-200.000	-0.057	-0.307
-472.245	458.110	0.080	0.179
-471.230	777.606	0.042	-0.114
-470.216	101.198	-0.194	0.226
-469.201	-77.035	0.120	-0.042
-468.186	107.709	0.130	-0.154
-467.172	-47.835	-0.145	0.070
-466.157	52.174	0.218	0.207
-465.143	78.047	-0.218	0.233
-464.128	-2.550	0.200	-0.140
-463.113	800.000	0.029	-0.113
-462.099	-79.278	-0.194	-0.066
-461.084	-97.469	0.326	-0.085
-460.070	-175.753	-0.201	0.005
-459.055	-26.998	0.108	0.063
-458.040	-111.611	0.089	0.018
-457.026	-27.973	0.279	0.161
-456.011	38.809	-0.044	-0.039
-454.997	800.000	0.042	-0.118
-453.982	3.188	0.220	0.160
-452.968	-48.685	0.093	-0.045
-451.953	-74.974	-0.145	-0.052
-450.938	-56.743	-0.051	-0.023
-449.924	-200.000	0.045	-0.294
-448.909	431.210	0.162	0.351
-447.895	-169.882	0.260	-0.009
-446.880	-102.332	-0.226	0.054
-445.865	-200.000	0.032	-0.000
-444.851	-126.795	-0.228	0.034
-443.836	-92.494	0.213	-0.060
-442.822	413.848	0.110	0.233
-441.807	-144.408	0.294	0.027
-440.792	-47.190	0.433	0.211
-439.778	41.883	-0.141	-0.128
-438.763	-114.883	0.357	0.068
-437.749	-200.000	-0.022	0.192
-436.734	-71.833	-0.199	0.074
-435.719	-16.080	0.216	0.137
-434.705	-78.669	0.508	0.173
-433.690	-118.090	0.064	0.011
-432.676	-200.000	0.039	-0.288
-431.661	-18.895	-0.207	-0.129
-430.646	-146.794	0.221	0.019
-429.632	-52.085	-0.120	-0.055
-428.617	-181.140	0.278	0.006
-427.603	-200.000	0.001	-0.032
-426.588	-75.874	-0.225	0.079
-425.573	-159.787	-0.196	0.011
-424.559	-161.811	-0.366	-0.019
-423.544	-7.178	0.242	-0.164
-422.530	503.365	-0.084	-0.195
-421.515	-119.371	-0.178	-0.031
-420.500	-129.248	0.370	0.051
-419.486	402.008	0.133	-0.279
-418.471	-54.239	0.083	0.038
-417.457	-4.804	-0.212	-0.146
-416.442	58.117	0.163	-0.159
-415.428	-64.993	-0.276	0.111
-414.413	85.958	-0.050	0.054
-413.398	-81.194	0.301	0.099
-412.384	33.355	-0.094	-0.081
-411.369	79.396	0.099	0.106
-410.355	233.831	0.066	-0.108
-409.340	14.524	-0.190	-0.148
-408.325	-46.537	0.228	0.111
-407.311	800.000	0.067	0.198
-406.296	-200.000	-0.019	0.084
-405.282	-200.000	0.004	0.143
-404.267	363.453	0.125	-0.251
-403.252	800.000	-0.019	-0.074
-402.238	36.250	-0.103	0.091
-401.223	-30.385	0.151	0.086
-400.209	-73.922	-0.223	0.080
-399.194	-135.389	0.196	0.023
-398.179	74.970	0.185	-0.194
-397.165	-92.517	-0.061	-0.017
-396.150	672.858	0.037	0.094
-395.136	140.274	0.180	0.237
-394.121	20.625	-0.375	0.302
-393.106	-200.000	-0.043	-0.221
-392.092	-200.000	0.008	-0.192
-391.077	-75.472	-0.156	-0.055
-390.063	39.584	0.108	0.097
-389.048	174.221	-0.321	0.462
-388.033	-160.046	-0.240	-0.013
-387.019	-51.922	0.417	-0.193
-386.004	-114.779	-0.333	-0.063
-384.990	-97.194	0.074	0.019
-383.975	-200.000	-0.057	-0.258
-382.960	-159.107	-0.155	-0.009
-381.946	-200.000	0.024	-0.148
-380.931	-161.784	-0.279	0.014
-379.917	137.659	-0.128	-0.166
-378.902	-186.484	-0.285	0.004
-377.888	-37.172	0.142	-0.076
-376.873	22.606	0.414	-0.337
-375.858	-92.017	0.337	0.095
-374.844	12.010	0.227	0.174
-373.829	-25.561	-0.201	0.118
-372.815	-93.085	-0.136	-0.038
-371.800	19.954	-0.250	0.200
-370.785	219.191	-0.175	0.278
-369.771	-131.760	0.243	0.032
-368.756	-123.862	-0.127	-0.020
-367.742	-35.117	-0.341	-0.185
-366.727	-64.530	-0.243	-0.098
-365.712	-200.000	0.018	-0.154
-364.698	-200.000	-0.001	0.253
-363.683	-9.963	-0.189	0.125
-362.669	800.000	0.020	-0.088
-361.654	-27.328	0.157	-0.091
-360.639	46.245	0.320	-0.295
-359.625	-172.646	-0.032	-0.001
-358.610	21.551	0.015	0.013
-357.596	-20.153	0.050	0.031
-356.581	257.429	-0.193	-0.330
-355.566	100.134	-0.115	-0.133
-354.552	481.520	0.280	-0.632
-353.537	-77.408	-0.245	0.085
-352.523	800.000	0.092	0.304
-351.508	-170.183	0.126	-0.004
-350.493	51.023	0.035	-0.033
-349.479	148.309	0.057	0.077
-348.464	240.351	0.143	-0.237
-347.450	-200.000	0.048	0.263
-346.435	-200.000	-0.030	0.192
-345.420	800.000	0.085	-0.235
-344.406	800.000	-0.039	0.124
-343.391	48.621	-0.198	-0.185
-342.377	-145.612	0.127	0.011
-341.362	-200.000	0.021	0.101
-340.348	38.709	-0.084	-0.075
-339.333	39.207	0.078	-0.070
-338.318	-8.937	-0.160	-0.107
-337.304	-200.000	-0.001	-0.143
-336.289	17.501	0.085	0.067
-335.275	162.122	-0.034	-0.047
-334.260	27.068	-0.017	0.014
-333.245	800.000	0.041	-0.133
-332.231	-16.181	0.378	-0.238
-331.216	292.362	0.170	-0.308
-330.202	-10.544	-0.057	0.037
-329.187	-150.500	0.249	-0.019
-328.172	-200.000	0.003	-0.290
-327.158	-200.000	-0.002	0.057
-326.143	273.850	-0.186	-0.327
-325.129	154.727	-0.072	-0.099
-324.114	-58.422	0.146	0.063
-323.099	-200.000	0.010	0.246
-322.085	-58.897	0.158	-0.068
-321.070	800.000	0.009	0.037
-320.056	318.135	0.016	-0.029
-319.041	198.002	0.138	0.209
-318.026	327.025	0.134	-0.254
-317.012	4.466	0.038	-0.028
-315.997	-127.619	0.062	0.009
-314.983	456.774	0.076	-0.167
-313.968	-41.195	0.231	-0.118
-312.953	-52.933	-0.243	0.111
-311.939	800.000	-0.028	-0.111
-310.924	240.419	0.151	0.249
-309.910	21.870	0.218	0.176
-308.895	-200.000	0.051	-0.254
-307.880	-143.176	0.268	0.026
-306.866	-122.540	-0.197	-0.032
-305.851	-200.000	-0.032	0.238
-304.837	188.165	0.124	0.184
-303.822	77.827	0.135	-0.143
-302.807	43.483	-0.173	0.157
-301.793	24.595	-0.198	0.163
-300.778	-200.000	0.017	-0.220
-299.764	-200.000	0.018	0.195
-298.749	-133.694	0.142	-0.018
-297.735	421.838	0.168	-0.358
-296.720	-200.000	-0.036	-0.196
-295.705	133.968	-0.116	0.149
-294.691	22.829	0.208	-0.169
-293.676	-200.000	0.010	-0.257
-292.662	1.383	-0.086	-0.061
-291.647	27.494	0.083	0.070
-290.632	-200.000	0.015	0.155
-289.618	-71.022	-0.197	0.074
-288.603	98.057	-0.052	-0.060
-287.589	15.192	-0.190	0.148
-286.574	-200.000	0.015	-0.092
-285.559	-200.000	0.028	0.167
-284.545	479.431	0.096	0.215
-283.530	4.213	-0.114	-0.083
-282.516	800.000	0.045	-0.189
-281.501	-79.054	-0.148	-0.050
-280.486	800.000	-0.112	0.379
-279.472	23.046	-0.204	0.166
-278.457	-8.265	0.241	0.161
-277.443	620.318	-0.067	-0.167
-276.428	-115.774	0.184	-0.034
-275.413	-139.154	0.342	0.037
-274.399	-200.000	0.001	0.102
-273.384	33.204	-0.223	0.192
-272.370	800.000	0.051	-0.152
-271.355	610.335	-0.130	0.322
-270.340	-90.550	-0.250	0.072
-269.326	119.201	-0.077	0.094
-268.311	-46.411	0.107	0.052
-267.297	-200.000	0.028	-0.147
-266.282	-200.000	0.026	0.240
-265.267	-81.242	0.197	0.064
-264.253	800.000	-0.042	0.127
-263.238	-10.290	-0.101	-0.066
-262.224	-124.649	-0.036	-0.005
-261.209	-200.000	0.032	-0.306
-260.195	-200.000	-0.009	0.102
-259.180	-36.071	-0.253	0.135
-258.165	-25.204	-0.281	0.165
-257.151	271.293	-0.053	0.092
-256.136	225.766	0.117	0.188
-255.122	152.134	0.074	-0.100
-254.107	-145.288	0.484	-0.043
-253.092	58.851	0.175	0.170
-252.078	-200.000	-0.048	-0.302
-251.063	4.391	-0.140	0.101
-250.049	-53.808	-0.174	0.078
-249.034	800.000	0.020	0.081
-248.019	770.277	-0.105	0.282
-247.005	-151.387	-0.148	-0.011
-245.990	-73.311	0.185	0.067
-244.976	-200.000	0.050	0.304
-243.961	-112.328	0.330	0.066
-242.946	-50.613	-0.170	0.079
-241.932	-200.000	0.012	0.134
-240.917	-63.902	0.303	-0.123
-239.903	6.709	0.367	0.271
-238.888	-107.873	0.346	-0.074
-237.873	166.535	0.079	0.110
-236.859	730.421	0.095	-0.253
-235.844	47.165	-0.075	0.069
-234.830	800.000	-0.031	-0.101
-233.815	800.000	-0.073	-0.231
-232.800	164.730	0.022	-0.030
-231.786	-21.748	-0.212	0.128
-230.771	677.050	-0.053	-0.137
-229.757	-128.883	0.161	-0.022
-228.742	329.950	-0.108	-0.205
-227.727	49.942	0.123	0.115
-226.713	-170.261	-0.235	0.008
-225.698	800.000	0.024	0.100
-224.684	-73.918	0.364	-0.131
-223.669	385.820	-0.079	-0.161
-222.655	-56.099	0.426	-0.188
-221.640	32.893	0.371	-0.318
-220.625	172.801	-0.120	-0.171
-219.611	119.429	-0.133	-0.163
-218.596	-200.000	-0.001	-0.013
-217.582	-200.000	-0.024	-0.355
-216.567	133.331	-0.155	-0.199
-215.552	17.358	-0.146	0.115
-214.538	800.000	-0.037	-0.144
-213.523	800.000	-0.098	0.316
-212.509	598.033	0.031	0.077
-211.494	-200.000	0.000	0.035
-210.479	196.617	0.118	0.177
-209.465	-189.390	0.203	-0.002
-208.450	-200.000	0.014	-0.207
-207.436	-182.526	-0.195	-0.004
-206.421	-33.430	-0.079	-0.043
-205.406	131.238	-0.045	-0.057
-204.392	175.572	-0.026	0.037
-203.377	159.486	0.157	0.216
-202.363	80.815	0.249	0.265
-201.348	800.000	0.039	-0.158
-200.333	189.247	0.027	0.040
-199.319	800.000	-0.042	0.131
-198.304	-103.974	-0.371	-0.085
-197.290	718.748	-0.112	0.294
-196.275	-20.695	0.182	-0.110
-195.260	-168.212	0.387	-0.015
-194.246	52.516	0.039	0.037
-193.231	439.252	-0.058	0.125
-192.217	461.978	0.112	0.248
-191.202	24.943	-0.090	-0.073
-190.187	-117.058	0.168	-0.030
-189.173	135.782	-0.058	-0.075
-188.158	33.027	-0.259	0.222
-187.144	800.000	0.061	-0.203
-186.129	322.864	0.105	0.199
-185.114	9.060	-0.057	-0.042
-184.100	-200.000	-0.055	-0.312
-183.085	800.000	0.052	-0.161
-182.071	270.114	-0.194	0.336
-181.056	333.742	0.047	0.090
-180.042	65.115	-0.313	0.312
-179.027	-5.706	-0.203	-0.137
-178.012	800.000	-0.018	-0.062
-176.998	-70.013	0.133	0.050
-175.983	158.417	-0.050	-0.069
-174.969	-58.571	0.234	-0.100
-173.954	-150.856	-0.241	0.018
-172.939	-200.000	0.006	-0.175
-171.925	36.136	0.092	0.080
-170.910	800.000	0.053	0.230
-169.896	800.000	-0.038	0.149
-168.881	-97.055	0.269	-0.069
-167.866	499.782	-0.131	0.297
-166.852	800.000	-0.038	0.162
-165.837	39.883	-0.118	0.105
-164.823	-106.395	-0.214	0.047
-163.808	-81.995	0.426	0.138
-162.793	-38.452	-0.132	0.069
-161.779	428.345	0.074	0.158
-160.764	738.570	0.045	-0.118
-159.750	-200.000	0.029	-0.140
-158.735	-94.290	0.089	0.024
-157.720	-200.000	-0.020	-0.295
-156.706	-104.187	-0.308	0.071
-155.691	48.804	0.423	0.391
-154.677	182.242	0.108	0.157
-153.662	21.617	0.226	-0.181
-152.647	239.138	-0.210	-0.345
-151.633	-183.457	0.298	0.005
-150.618	96.259	0.350	-0.395
-149.604	-105.929	0.241	0.053
-148.589	-200.000	0.057	-0.331
-147.574	72.509	-0.157	0.161
-146.560	-73.232	0.245	0.089
-145.545	-79.816	-0.217	0.072
-144.531	-200.000	0.009	0.053
-143.516	-200.000	-0.013	0.082
-142.502	245.554	0.038	0.063
-141.487	-200.000	-0.012	0.165
-140.472	-72.168	0.192	0.070
-139.458	226.276	0.062	0.100
-138.443	185.543	-0.032	0.046
-137.429	800.000	-0.026	0.071
-136.414	-5.625	-0.182	0.123
-135.399	-33.932	0.025	0.014
-134.385	-18.686	-0.088	0.054
-133.370	380.897	0.079	-0.160
-132.356	800.000	0.064	-0.219
-131.341	-65.161	-0.231	-0.092
-130.326	-3.359	-0.084	0.058
-129.312	800.000	0.009	0.029
-128.297	31.587	0.198	-0.168
-127.283	-141.397	0.291	-0.029
-126.268	13.347	-0.276	-0.211
-125.253	228.775	0.088	0.142
-124.239	-45.936	-0.448	0.218
-123.224	-66.746	-0.189	0.074
-122.210	-97.468	0.273	-0.070
-121.195	40.832	0.024	0.021
