DTS Sentinel unit serial number:	SN413079Multiplexer serial number:	ORYXHardware model number:	OX4-SRSoftware version number:	ORYX F/W v4.00 Oryx Data Collector v3.7.2.0data status	okinstallation	princeton_trtdifferential loss correction	single-endedforward channel	channel 1reverse channel	N/Adate	2019/09/18time	00:10:35forward acquisition time	60.00reverse acquisition time	0.00gamma	496.2192k internal	0.2341k external	0.2341temperature offset calibration	0.9976default loss term (dB/km)	0.3790temperature slope calibration	1.0000multiplexer offset coefficient	1.0000multiplexer slope coefficient	1.0000fibre end	0.00T internal ref (°C)	23.75T ext. ref 1 (°C)	0.16T ext. ref 2 (°C)	17.28length (m)	temperature (°C)	Stokes	anti-Stokes-747.200	206.352	-0.093	0.145
-746.185	800.000	-0.046	-0.177
-745.171	-200.000	0.026	0.153
-744.156	19.407	0.210	-0.169
-743.142	800.000	-0.066	0.227
-742.127	800.000	0.100	0.311
-741.112	-79.728	0.201	0.068
-740.098	-200.000	-0.005	0.312
-739.083	33.983	0.133	0.116
-738.069	800.000	-0.076	0.270
-737.054	244.960	-0.099	0.168
-736.039	-33.588	-0.124	-0.069
-735.025	23.613	0.309	0.255
-734.010	-141.842	-0.232	-0.023
-732.996	-104.746	-0.265	-0.061
-731.981	102.664	-0.100	-0.118
-730.966	-63.815	-0.305	0.125
-729.952	-14.675	-0.238	-0.153
-728.937	195.939	-0.281	-0.428
-727.923	-200.000	-0.053	-0.248
-726.908	145.481	0.231	-0.310
-725.894	-83.515	-0.204	-0.065
-724.879	-200.000	-0.047	-0.219
-723.864	-200.000	-0.069	-0.373
-722.850	416.472	0.111	0.237
-721.835	-47.891	-0.325	0.157
-720.821	-92.851	0.410	0.115
-719.806	-200.000	-0.015	0.288
-718.791	196.204	0.093	0.142
-717.777	-7.869	-0.407	-0.275
-716.762	-52.746	0.517	-0.239
-715.748	321.296	0.079	0.150
-714.733	-35.083	-0.108	-0.059
-713.718	-157.876	-0.187	0.011
-712.704	-104.209	-0.152	0.035
-711.689	-98.392	-0.194	0.050
-710.675	130.801	0.252	0.324
-709.660	-148.672	-0.236	-0.019
-708.645	-129.620	0.374	-0.052
-707.631	-200.000	-0.031	0.193
-706.616	-200.000	-0.012	0.158
-705.602	-131.288	-0.092	-0.012
-704.587	-200.000	-0.007	-0.233
-703.572	-70.548	0.246	-0.093
-702.558	-126.163	-0.198	-0.030
-701.543	-158.404	-0.288	-0.017
-700.529	-200.000	-0.053	-0.249
-699.514	-89.591	0.087	-0.026
-698.499	256.080	-0.067	0.115
-697.485	800.000	0.074	-0.254
-696.470	96.997	-0.159	-0.183
-695.456	-76.339	0.089	-0.031
-694.441	642.194	0.147	-0.375
-693.426	135.248	0.027	-0.035
-692.412	-55.288	0.428	0.192
-691.397	-112.365	-0.140	0.028
-690.383	800.000	0.046	0.174
-689.368	-34.980	-0.251	-0.137
-688.354	0.232	0.153	-0.109
-687.339	-200.000	0.028	0.204
-686.324	-66.493	0.209	0.083
-685.310	-76.326	0.113	-0.040
-684.295	-71.335	0.243	-0.091
-683.281	800.000	0.124	-0.359
-682.266	-200.000	-0.083	0.405
-681.251	-76.322	0.119	-0.042
-680.237	-200.000	-0.084	-0.659
-679.222	173.443	-0.118	0.170
-678.208	430.659	-0.096	0.207
-677.193	89.217	0.062	0.069
-676.178	17.831	0.351	-0.280
-675.164	176.337	-0.298	-0.432
-674.149	-68.296	0.192	-0.075
-673.135	-200.000	0.038	-0.167
-672.120	249.096	0.092	-0.155
-671.105	-200.000	-0.009	-0.156
-670.091	800.000	-0.034	0.104
-669.076	190.443	0.162	-0.244
-668.062	-166.111	0.072	-0.003
-667.047	104.444	-0.233	-0.274
-666.032	-38.500	0.102	-0.054
-665.018	800.000	0.110	0.322
-664.003	-200.000	0.006	0.082
-662.989	369.065	-0.117	-0.236
-661.974	261.892	-0.096	-0.167
-660.959	123.322	0.227	0.284
-659.945	441.850	0.057	0.125
-658.930	-65.607	0.201	0.081
-657.916	-93.153	-0.353	0.098
-656.901	147.980	-0.217	-0.292
-655.886	-200.000	0.014	0.165
-654.872	-127.112	-0.222	0.032
-653.857	35.058	0.115	-0.100
-652.843	95.083	-0.085	0.096
-651.828	-200.000	0.006	-0.334
-650.814	30.247	-0.153	-0.130
-649.799	-30.558	0.119	-0.068
-648.784	-168.548	0.056	0.002
-647.770	64.090	0.074	-0.075
-646.755	800.000	0.042	-0.182
-645.741	0.974	-0.232	0.166
-644.726	90.847	0.120	-0.134
-643.711	-16.665	0.384	0.242
-642.697	-17.188	-0.309	-0.194
-641.682	-200.000	-0.045	0.227
-640.668	466.357	0.063	-0.141
-639.653	-133.036	0.181	-0.023
-638.638	4.625	-0.226	0.165
-637.624	800.000	0.002	0.007
-636.609	-200.000	-0.011	-0.106
-635.595	-200.000	-0.015	-0.140
-634.580	-200.000	-0.026	-0.145
-633.565	-172.439	-0.152	-0.005
-632.551	-182.711	0.070	-0.001
-631.536	129.482	0.055	0.070
-630.522	-200.000	-0.041	0.226
-629.507	-53.904	-0.060	0.027
-628.492	169.310	-0.090	0.129
-627.478	-120.092	0.222	-0.038
-626.463	212.848	0.144	0.227
-625.449	356.381	0.141	-0.280
-624.434	-188.617	0.101	0.001
-623.419	-40.037	0.147	-0.076
-622.405	-26.728	0.270	0.157
-621.390	-12.921	-0.009	0.006
-620.376	-200.000	-0.021	0.132
-619.361	188.482	-0.164	0.245
-618.346	-93.113	-0.325	-0.090
-617.332	28.877	-0.194	-0.164
-616.317	-200.000	-0.007	-0.068
-615.303	151.823	-0.097	-0.132
-614.288	800.000	-0.032	-0.097
-613.273	319.718	-0.047	-0.089
-612.259	-200.000	-0.020	-0.108
-611.244	800.000	-0.080	0.313
-610.230	-103.473	-0.233	-0.055
-609.215	800.000	-0.052	-0.154
-608.201	341.872	-0.124	0.242
-607.186	186.566	0.225	0.334
-606.171	-10.052	-0.082	-0.054
-605.157	129.933	0.167	-0.213
-604.142	-200.000	-0.098	-0.000
-603.128	-9.014	0.295	-0.197
-602.113	71.604	0.259	-0.269
-601.098	-200.000	-0.002	0.106
-600.084	12.034	-0.132	0.101
-599.069	-200.000	0.090	-0.596
-598.055	-102.915	0.095	0.022
-597.040	280.117	-0.081	0.145
-596.025	-32.314	-0.083	-0.046
-595.011	86.901	0.036	0.040
-593.996	95.161	-0.140	-0.159
-592.982	-65.352	0.043	0.017
-591.967	-151.427	-0.083	0.006
-590.952	730.038	0.107	0.284
-589.938	-200.000	-0.005	0.038
-588.923	-200.000	-0.038	0.271
-587.909	-200.000	0.017	-0.180
-586.894	77.339	0.071	0.075
-585.879	-38.728	0.074	-0.039
-584.865	-49.602	0.038	-0.018
-583.850	169.376	0.133	-0.190
-582.836	-11.621	0.271	0.177
-581.821	-0.172	0.238	-0.168
-580.806	-200.000	0.007	0.135
-579.792	192.330	-0.034	-0.051
-578.777	-200.000	0.016	-0.116
-577.763	-72.894	0.220	0.080
-576.748	-200.000	0.015	-0.102
-575.733	297.341	0.111	0.202
-574.719	-109.209	-0.385	-0.081
-573.704	-109.034	-0.393	-0.083
-572.690	-46.266	0.209	0.102
-571.675	76.772	-0.103	0.109
-570.661	800.000	-0.031	0.106
-569.646	-68.602	-0.228	-0.088
-568.631	509.121	-0.019	0.045
-567.617	-200.000	-0.040	-0.252
-566.602	-148.017	-0.085	0.007
-565.588	12.324	-0.145	0.111
-564.573	-200.000	-0.007	0.359
-563.558	800.000	-0.003	-0.012
-562.544	-91.396	-0.061	0.017
-561.529	-200.000	-0.005	0.085
-560.515	111.268	-0.165	0.198
-559.500	198.232	0.116	0.176
-558.485	-120.744	-0.321	-0.054
-557.471	-46.247	-0.298	0.146
-556.456	-145.405	0.105	-0.009
-555.442	-38.632	-0.105	-0.055
-554.427	134.981	0.110	-0.143
-553.412	-200.000	-0.003	-0.124
-552.398	69.666	0.144	0.148
-551.383	54.350	-0.176	0.169
-550.369	-100.586	0.230	-0.057
-549.354	800.000	0.097	-0.356
-548.339	368.527	0.055	0.110
-547.325	-93.538	0.262	0.072
-546.310	-200.000	0.015	0.093
-545.296	-120.191	-0.069	0.012
-544.281	50.553	0.265	-0.249
-543.266	-94.645	-0.298	0.081
-542.252	33.154	-0.052	-0.045
-541.237	800.000	0.102	0.369
-540.223	-122.628	0.430	-0.069
-539.208	99.606	-0.057	0.066
-538.193	253.892	-0.077	0.131
-537.179	-29.807	0.257	-0.146
-536.164	800.000	0.030	0.106
-535.150	22.662	0.335	0.272
-534.135	119.340	0.089	-0.109
-533.121	-37.700	0.272	-0.144
-532.106	382.591	0.034	-0.070
-531.091	-58.106	-0.291	0.126
-530.077	-72.297	-0.352	-0.130
-529.062	-162.803	0.470	-0.023
-528.048	242.212	-0.054	0.090
-527.033	-69.517	-0.231	0.088
-526.018	800.000	0.041	-0.113
-525.004	800.000	-0.030	-0.094
-523.989	-6.138	-0.364	-0.247
-522.975	-146.773	0.181	0.016
-521.960	-200.000	0.110	-0.485
-520.945	-96.319	0.062	0.016
-519.931	17.478	-0.136	0.108
-518.916	-200.000	0.009	0.116
-517.902	94.670	-0.110	-0.124
-516.887	369.822	0.015	-0.030
-515.872	225.767	-0.185	-0.299
-514.858	800.000	-0.031	-0.114
-513.843	296.301	0.034	0.062
-512.829	-200.000	-0.036	-0.192
-511.814	-121.404	0.040	0.007
-510.799	-151.002	-0.273	-0.020
-509.785	-149.796	-0.070	0.005
-508.770	-85.787	0.140	-0.043
-507.756	-108.391	-0.265	-0.057
-506.741	154.380	0.169	0.230
-505.726	800.000	0.066	-0.271
-504.712	-89.866	-0.100	0.029
-503.697	-101.056	0.354	0.086
-502.683	-139.349	-0.157	0.017
-501.668	-108.424	-0.311	-0.066
-500.653	260.833	0.147	-0.253
-499.639	-101.304	0.302	-0.073
-498.624	-143.702	-0.236	-0.022
-497.610	-31.711	-0.129	-0.072
-496.595	-200.000	-0.034	0.220
-495.581	-200.000	-0.010	0.070
-494.566	800.000	0.026	-0.098
-493.551	-15.989	-0.270	0.171
-492.537	-58.574	-0.377	-0.162
-491.522	-76.156	0.217	-0.076
-490.508	-124.746	-0.075	0.012
-489.493	-200.000	-0.032	0.165
-488.478	-200.000	-0.007	0.062
-487.464	-181.658	-0.058	-0.001
-486.449	-76.968	-0.195	0.067
-485.435	52.878	-0.129	-0.122
-484.420	-200.000	-0.054	-0.253
-483.405	-52.539	-0.130	-0.060
-482.391	121.041	0.131	0.162
-481.376	-39.440	-0.064	0.033
-480.362	800.000	0.102	-0.328
-479.347	9.841	-0.049	-0.037
-478.332	339.239	0.097	-0.187
-477.318	410.187	-0.194	-0.408
-476.303	800.000	-0.058	-0.243
-475.289	54.367	-0.339	-0.324
-474.274	478.652	-0.114	-0.255
-473.259	311.917	-0.073	0.135
-472.245	50.266	-0.291	-0.273
-471.230	-200.000	-0.011	-0.082
-470.216	-200.000	-0.002	0.085
-469.201	-72.717	0.115	0.042
-468.186	615.435	-0.099	-0.247
-467.172	-200.000	-0.021	-0.240
-466.157	-93.845	0.244	-0.067
-465.143	-61.836	0.301	-0.125
-464.128	-93.253	0.110	0.030
-463.113	-200.000	-0.007	-0.078
-462.099	800.000	-0.029	0.111
-461.084	-139.746	0.178	-0.019
-460.070	800.000	-0.124	-0.344
-459.055	211.609	0.163	-0.254
-458.040	-174.986	-0.126	-0.004
-457.026	41.420	-0.052	-0.047
-456.011	225.058	0.088	0.142
-454.997	27.918	-0.233	-0.195
-453.982	-200.000	-0.036	0.220
-452.968	-190.398	0.034	-0.000
-451.953	-70.834	0.106	0.040
-450.938	11.509	0.219	0.166
-449.924	-139.597	0.366	-0.039
-448.909	-128.758	-0.421	0.059
-447.895	361.157	-0.072	-0.142
-446.880	-123.566	-0.194	-0.031
-445.865	325.778	0.148	0.280
-444.851	-9.534	0.101	-0.066
-443.836	-138.260	0.209	0.023
-442.822	-117.961	-0.459	0.081
-441.807	800.000	-0.078	-0.299
-440.792	402.966	-0.073	0.152
-439.778	-26.428	0.119	-0.069
-438.763	-200.000	0.016	0.452
-437.749	-13.859	-0.130	0.083
-436.734	-122.077	-0.346	-0.056
-435.719	-188.762	-0.042	0.001
-434.705	-82.784	0.254	-0.081
-433.690	-93.916	0.128	0.035
-432.676	346.109	-0.084	0.164
-431.661	-15.552	0.122	0.077
-430.646	800.000	-0.070	-0.204
-429.632	-200.000	0.026	-0.182
-428.617	800.000	-0.086	0.333
-427.603	73.335	0.165	0.171
-426.588	-89.240	-0.151	0.044
-425.573	-40.726	0.124	-0.064
-424.559	-10.162	0.090	-0.059
-423.544	725.153	-0.020	0.051
-422.530	202.372	0.055	0.084
-421.515	28.218	0.260	-0.217
-420.500	3.490	-0.126	0.091
-419.486	356.710	0.177	0.348
-418.471	-146.888	-0.154	-0.013
-417.457	-177.642	0.189	-0.005
-416.442	3.687	0.161	-0.116
-415.428	-88.166	0.125	-0.037
-414.413	-0.217	-0.189	-0.133
-413.398	-64.385	-0.257	-0.103
-412.384	148.567	-0.084	0.112
-411.369	800.000	-0.073	-0.255
-410.355	88.103	0.051	-0.056
-409.340	-114.473	0.201	0.038
-408.325	20.953	-0.152	-0.122
-407.311	-75.019	0.298	0.106
-406.296	-200.000	-0.092	0.468
-405.282	-124.323	0.185	0.029
-404.267	-200.000	-0.011	0.488
-403.252	-109.858	0.174	-0.036
-402.238	-96.044	0.065	0.017
-401.223	81.370	-0.285	0.305
-400.209	-138.234	0.422	-0.046
-399.194	87.122	-0.237	-0.259
-398.179	-138.119	-0.424	-0.047
-397.165	95.107	0.116	0.131
-396.150	391.435	-0.036	-0.074
-395.136	-19.568	-0.169	0.104
-394.121	228.390	0.075	-0.120
-393.106	7.864	0.077	-0.057
-392.092	122.840	-0.067	-0.083
-391.077	19.639	-0.149	0.119
-390.063	-53.091	0.134	-0.061
-389.048	-6.617	0.022	0.015
-388.033	446.521	0.153	-0.332
-387.019	-164.571	-0.343	-0.015
-386.004	-132.682	-0.141	-0.018
-384.990	18.982	-0.415	0.329
-383.975	-200.000	0.073	0.412
-382.960	800.000	0.019	-0.053
-381.946	-4.276	-0.118	-0.080
-380.931	180.400	-0.055	0.080
-379.917	-200.000	-0.005	0.191
-378.902	16.103	-0.221	0.172
-377.888	-200.000	-0.011	-0.074
-376.873	-200.000	-0.024	0.144
-375.858	-96.316	-0.460	-0.120
-374.844	35.115	-0.282	-0.244
-373.829	-89.364	0.177	0.051
-372.815	-1.579	-0.222	0.155
-371.800	-87.874	0.363	-0.108
-370.785	124.856	-0.063	-0.079
-369.771	16.782	-0.096	0.075
-368.756	800.000	-0.076	0.222
-367.742	-168.540	-0.128	-0.005
-366.727	-200.000	0.016	0.183
-365.712	48.307	-0.236	-0.218
-364.698	-100.017	-0.076	0.019
-363.683	698.359	-0.171	0.443
-362.669	-117.811	0.081	0.014
-361.654	-200.000	0.036	0.158
-360.639	-200.000	0.061	0.297
-359.625	-75.607	0.576	0.202
-358.610	82.932	0.088	0.095
-357.596	-200.000	0.010	-0.254
-356.581	-89.667	-0.306	-0.089
-355.566	-114.902	0.103	0.019
-354.552	353.809	-0.079	0.155
-353.537	-92.937	0.097	0.027
-352.523	222.341	0.244	-0.387
-351.508	-4.708	0.207	-0.141
-350.493	-77.591	-0.138	0.047
-349.479	374.837	0.071	0.143
-348.464	187.574	0.132	0.194
-347.450	800.000	-0.068	-0.219
-346.435	147.224	-0.188	0.250
-345.420	23.669	0.297	-0.241
-344.406	55.935	-0.083	0.079
-343.391	-20.383	0.324	0.197
-342.377	-18.971	-0.122	0.075
-341.362	-90.549	-0.307	-0.088
-340.348	161.381	-0.050	0.069
-339.333	731.041	-0.034	-0.088
-338.318	-200.000	0.026	-0.150
-337.304	-107.025	0.116	0.025
-336.289	331.243	0.077	-0.146
-335.275	-29.196	-0.162	0.091
-334.260	621.678	0.026	-0.065
-333.245	-46.267	0.279	0.135
-332.231	442.990	-0.099	-0.213
-331.216	307.274	-0.076	-0.140
-330.202	198.413	0.172	-0.259
-329.187	-200.000	0.016	-0.413
-328.172	-119.210	-0.176	-0.030
-327.158	800.000	0.039	-0.127
-326.143	-78.214	0.171	-0.058
-325.129	284.314	-0.164	-0.290
-324.114	800.000	-0.021	0.092
-323.099	-16.955	-0.113	0.070
-322.085	-140.886	-0.267	-0.027
-321.070	10.038	0.228	0.170
-320.056	-200.000	0.039	0.256
-319.041	-84.649	0.151	0.047
-318.026	-155.258	0.235	-0.015
-317.012	-46.221	-0.226	-0.110
-315.997	84.105	0.100	0.108
-314.983	-94.398	-0.114	0.031
-313.968	42.713	-0.114	-0.102
-312.953	-19.773	0.138	-0.084
-311.939	-8.630	0.264	0.175
-310.924	-121.404	0.135	0.022
-309.910	-200.000	-0.000	-0.148
-308.895	-200.000	0.019	0.130
-307.880	-163.107	-0.098	0.005
-306.866	25.784	0.139	0.114
-305.851	8.330	-0.345	-0.256
-304.837	21.779	0.065	-0.052
-303.822	154.358	-0.246	0.333
-302.807	175.289	0.274	0.391
-301.793	-200.000	-0.007	-0.121
-300.778	-106.268	0.379	0.084
-299.764	800.000	-0.053	0.209
-298.749	-35.726	-0.249	-0.133
-297.735	-200.000	-0.034	0.149
-296.720	-173.724	0.068	-0.002
-295.705	194.435	-0.052	-0.078
-294.691	-107.626	0.271	0.058
-293.676	-119.198	0.147	0.025
-292.662	-200.000	0.012	0.085
-291.647	139.058	0.102	-0.132
-290.632	236.372	0.099	-0.160
-289.618	-90.114	0.299	-0.086
-288.603	198.216	-0.195	-0.293
-287.589	288.864	0.159	-0.285
-286.574	-29.461	-0.339	0.191
-285.559	800.000	0.104	0.361
-284.545	-200.000	0.028	0.152
-283.530	-200.000	-0.017	-0.144
-282.516	-200.000	-0.036	0.554
-281.501	-200.000	0.185	-0.000
-280.486	-200.000	0.046	-0.255
-279.472	-14.431	-0.089	-0.057
-278.457	-123.287	0.320	0.050
-277.443	-117.136	0.260	-0.047
-276.428	244.284	0.052	-0.085
-275.413	-200.000	0.023	0.100
-274.399	800.000	-0.021	-0.072
-273.384	153.713	-0.161	-0.217
-272.370	-137.815	-0.174	-0.019
-271.355	800.000	0.112	-0.366
-270.340	800.000	-0.132	-0.469
-269.326	800.000	0.048	0.186
-268.311	-109.597	-0.122	-0.025
-267.297	133.519	0.113	-0.144
-266.282	111.729	-0.111	0.132
-265.267	-48.468	0.153	-0.072
-264.253	-200.000	-0.018	0.233
-263.238	-200.000	0.005	-0.126
-262.224	-4.967	-0.225	0.153
-261.209	-84.021	0.203	-0.063
-260.195	-169.421	0.072	0.003
-259.180	392.158	0.085	0.173
-258.165	137.640	0.099	-0.127
-257.151	-38.909	0.262	-0.136
-256.136	-17.331	-0.335	-0.207
-255.122	247.300	-0.216	-0.359
-254.107	-101.017	0.106	0.025
-253.092	-165.794	0.040	0.002
-252.078	-200.000	0.000	0.194
-251.063	-27.494	0.124	0.071
-250.049	-32.871	0.093	-0.051
-249.034	-146.402	0.162	0.014
-248.019	800.000	-0.060	-0.177
-247.005	167.263	0.121	0.170
-245.990	-157.217	-0.193	-0.012
-244.976	-200.000	-0.011	0.231
-243.961	800.000	0.060	0.233
-242.946	661.450	-0.097	0.246
-241.932	-66.160	-0.126	-0.049
-240.917	35.944	0.208	-0.180
-239.903	-200.000	0.049	0.215
-238.888	-200.000	-0.035	0.182
-237.873	-200.000	0.007	0.370
-236.859	281.405	-0.053	0.093
-235.844	-113.661	0.133	-0.025
-234.830	216.668	0.007	0.011
-233.815	-78.495	0.152	0.051
-232.800	373.340	-0.089	0.177
-231.786	339.308	-0.080	0.153
-230.771	-44.597	0.121	0.059
-229.757	800.000	0.016	-0.047
-228.742	16.152	0.263	0.204
-227.727	-184.791	-0.166	0.003
-226.713	477.304	0.128	-0.285
-225.698	-158.492	0.357	-0.020
-224.684	284.739	-0.111	-0.196
-223.669	-160.833	-0.082	-0.004
-222.655	-117.302	-0.350	0.062
-221.640	-200.000	-0.074	0.404
-220.625	-200.000	0.034	0.336
-219.611	-4.810	0.125	0.085
-218.596	-16.800	-0.355	0.221
-217.582	800.000	0.159	0.443
-216.567	-134.904	0.264	0.031
-215.552	567.585	0.072	0.173
-214.538	-60.147	0.035	0.014
-213.523	-69.391	-0.282	-0.106
-212.509	-110.824	-0.202	-0.041
-211.494	800.000	-0.081	-0.234
-210.479	464.154	0.054	0.118
-209.465	800.000	0.044	-0.190
-208.450	-77.674	0.008	-0.003
-207.436	-113.995	-0.298	0.057
-206.421	47.848	-0.098	0.089
-205.406	-62.570	0.096	0.039
-204.392	-30.005	0.162	0.091
-203.377	217.912	-0.211	-0.331
-202.363	92.322	-0.234	0.259
-201.348	230.346	0.063	0.102
-200.333	129.395	-0.105	0.132
-199.319	-81.805	0.153	-0.049
-198.304	-69.830	0.335	-0.125
-197.290	-200.000	-0.006	-0.238
-196.275	22.417	-0.155	-0.124
-195.260	379.409	0.208	-0.417
-194.246	60.537	-0.312	0.304
-193.231	-118.014	-0.113	-0.020
-192.217	-84.873	-0.196	0.060
-191.202	-125.114	-0.142	0.021
-190.187	-200.000	-0.006	-0.166
-189.173	302.767	-0.044	-0.081
-188.158	597.989	-0.117	-0.284
-187.144	22.589	0.338	0.271
-186.129	-140.717	-0.180	-0.018
-185.114	-200.000	-0.003	-0.052
-184.100	-200.000	0.008	-0.072
-183.085	59.627	-0.191	-0.185
-182.071	-78.713	0.141	-0.047
-181.056	-138.924	0.285	-0.030
-180.042	407.164	0.096	-0.199
-179.027	10.300	0.144	0.107
-178.012	800.000	-0.009	0.030
-176.998	800.000	0.063	0.214
-175.983	-2.946	0.271	0.185
-174.969	-50.142	-0.153	0.071
-173.954	-41.601	-0.135	-0.068
-172.939	-32.416	0.240	0.131
-171.925	-125.262	0.195	0.029
-170.910	615.914	0.010	0.026
-169.896	-131.651	0.265	-0.034
-168.881	-200.000	-0.031	-0.239
-167.866	-1.372	0.101	0.070
-166.852	161.345	-0.066	0.091
-165.837	53.404	0.064	0.061
-164.823	800.000	-0.049	0.167
-163.808	-200.000	0.030	-0.204
-162.793	-200.000	-0.029	-0.231
-161.779	0.671	0.173	0.121
-160.764	-85.443	0.167	0.051
-159.750	-122.565	-0.208	0.033
-158.735	240.291	-0.194	-0.317
-157.720	800.000	-0.032	-0.132
-156.706	-113.994	-0.145	0.028
-155.691	-52.835	0.179	-0.081
-154.677	800.000	-0.044	0.155
-153.662	40.124	-0.114	0.100
-152.647	306.105	0.103	0.187
-151.633	64.071	0.123	0.121
-150.618	-134.486	-0.231	-0.028
-149.604	-200.000	0.024	0.545
-148.589	656.435	-0.084	-0.212
-147.574	800.000	-0.059	0.210
-146.560	-176.956	-0.346	0.009
-145.545	-96.358	-0.136	0.035
-144.531	-9.636	-0.067	0.044
-143.516	-200.000	0.012	0.190
-142.502	-200.000	-0.082	0.000
-141.487	255.287	-0.039	-0.065
-140.472	100.650	0.223	-0.254
-139.458	-124.485	0.238	0.036
-138.443	72.211	0.171	-0.174
-137.429	204.545	0.180	0.272
-136.414	-200.000	-0.083	0.429
-135.399	800.000	0.039	0.137
-134.385	-129.541	0.219	-0.030
-133.370	-30.452	-0.141	0.078
-132.356	51.332	0.125	0.116
-131.341	800.000	0.120	0.328
-130.326	124.817	0.100	0.123
-129.312	-96.000	0.264	0.069
-128.297	563.446	0.064	0.152
-127.283	-124.615	0.167	-0.025
-126.268	-37.198	0.321	-0.168
-125.253	800.000	-0.092	-0.276
-124.239	-22.607	-0.084	-0.050
-123.224	223.371	-0.022	-0.035
