DTS Sentinel unit serial number:	SN413079Multiplexer serial number:	ORYXHardware model number:	OX4-SRSoftware version number:	ORYX F/W v4.00 Oryx Data Collector v3.7.2.0data status	okinstallation	princeton_trtdifferential loss correction	single-endedforward channel	channel 1reverse channel	N/Adate	2019/09/16time	16:18:35forward acquisition time	60.00reverse acquisition time	0.00gamma	496.2192k internal	0.2293k external	0.2293temperature offset calibration	0.9961default loss term (dB/km)	0.3790temperature slope calibration	1.0000multiplexer offset coefficient	1.0000multiplexer slope coefficient	1.0000fibre end	0.00T internal ref (°C)	40.56T ext. ref 1 (°C)	15.01T ext. ref 2 (°C)	34.56length (m)	temperature (°C)	Stokes	anti-Stokes-747.200	-40.564	-0.263	-0.140
-746.185	474.358	-0.088	0.204
-745.171	-80.291	0.233	-0.080
-744.156	-35.321	-0.137	0.076
-743.142	-2.173	-0.227	-0.163
-742.127	-34.596	0.182	0.102
-741.112	800.000	-0.044	-0.131
-740.098	-96.174	0.333	-0.090
-739.083	192.827	-0.083	-0.128
-738.069	800.000	0.076	0.253
-737.054	-200.000	-0.004	0.030
-736.039	46.669	-0.124	0.118
-735.025	-125.289	0.321	0.050
-734.010	44.892	0.091	-0.086
-732.996	80.937	0.131	-0.144
-731.981	-200.000	-0.035	0.160
-730.966	-119.334	-0.186	-0.033
-729.952	71.446	-0.056	0.059
-728.937	60.163	-0.132	-0.134
-727.923	-200.000	0.024	-0.140
-726.908	123.844	0.219	-0.281
-725.894	-31.354	-0.378	-0.217
-724.879	205.400	0.197	-0.312
-723.864	629.229	0.102	0.263
-722.850	-200.000	-0.025	-0.226
-721.835	-124.890	-0.299	-0.047
-720.821	800.000	-0.070	0.272
-719.806	-101.529	-0.172	0.043
-718.791	3.067	-0.206	0.153
-717.777	-28.410	0.154	0.091
-716.762	102.593	-0.179	-0.214
-715.748	489.095	0.168	-0.392
-714.733	-45.094	-0.205	0.104
-713.718	53.782	0.180	0.177
-712.704	-200.000	0.001	0.241
-711.689	769.580	0.056	0.155
-710.675	-200.000	0.023	-0.146
-709.660	251.189	-0.117	-0.204
-708.645	-156.482	-0.177	0.011
-707.631	-166.410	-0.280	0.012
-706.616	104.959	-0.161	-0.195
-705.602	-1.006	-0.230	-0.166
-704.587	-66.154	0.172	0.070
-703.572	800.000	-0.084	-0.300
-702.558	-200.000	0.022	-0.156
-701.543	800.000	-0.001	-0.003
-700.529	-154.663	-0.424	-0.029
-699.514	-137.002	-0.139	0.016
-698.499	-96.332	-0.269	-0.073
-697.485	-200.000	-0.049	-0.239
-696.470	174.698	0.074	-0.109
-695.456	-104.775	-0.119	0.028
-694.441	316.099	-0.052	-0.100
-693.426	800.000	0.048	0.164
-692.412	-36.421	0.271	0.149
-691.397	-99.474	-0.350	-0.090
-690.383	71.270	-0.040	-0.042
-689.368	-84.565	-0.293	-0.094
-688.354	323.020	0.057	-0.110
-687.339	-134.234	0.319	-0.040
-686.324	-131.156	-0.358	0.049
-685.310	12.321	-0.102	-0.080
-684.295	-62.040	0.135	-0.057
-683.281	-79.964	0.128	-0.044
-682.266	-200.000	-0.018	-0.208
-681.251	224.803	-0.151	0.249
-680.237	800.000	-0.112	0.389
-679.222	39.733	-0.325	0.298
-678.208	677.171	-0.135	-0.359
-677.193	33.514	0.090	-0.080
-676.178	-77.930	-0.127	-0.045
-675.164	19.338	-0.042	-0.034
-674.149	134.627	-0.210	-0.278
-673.135	36.772	-0.153	-0.138
-672.120	18.867	-0.168	-0.137
-671.105	97.305	0.143	-0.168
-670.091	800.000	0.134	-0.452
-669.076	-200.000	0.014	-0.064
-668.062	-200.000	-0.074	-0.335
-667.047	800.000	-0.057	-0.161
-666.032	-200.000	0.008	-0.133
-665.018	338.841	-0.138	0.275
-664.003	-115.588	-0.043	-0.008
-662.989	-82.261	-0.272	-0.090
-661.974	-200.000	0.015	0.146
-660.959	-73.276	0.029	0.011
-659.945	-19.935	-0.247	-0.156
-658.930	481.783	-0.121	0.280
-657.916	95.641	0.179	-0.208
-656.901	264.805	0.034	-0.060
-655.886	-51.701	-0.219	-0.104
-654.872	-200.000	0.022	0.147
-653.857	619.682	0.064	-0.165
-652.843	800.000	-0.163	-0.498
-651.828	-177.502	-0.333	-0.008
-650.814	223.404	-0.170	-0.279
-649.799	-200.000	-0.062	0.297
-648.784	-84.387	-0.063	-0.020
-647.770	800.000	0.125	0.361
-646.755	-131.146	-0.196	-0.027
-645.741	-48.446	-0.345	-0.169
-644.726	37.550	0.185	0.167
-643.711	800.000	-0.060	-0.170
-642.697	-49.340	0.080	0.039
-641.682	70.556	-0.134	0.142
-640.668	-69.753	0.182	0.071
-639.653	437.923	-0.045	-0.099
-638.638	-64.341	0.305	-0.127
-637.624	-121.619	-0.189	0.032
-636.609	-119.753	-0.059	-0.010
-635.595	-89.688	-0.049	-0.015
-634.580	-138.285	-0.076	0.009
-633.565	-200.000	0.003	-0.038
-632.551	129.772	0.022	0.029
-631.536	-65.903	-0.358	-0.146
-630.522	220.021	-0.149	0.243
-629.507	-200.000	-0.026	0.283
-628.492	35.846	0.281	0.252
-627.478	-200.000	-0.023	-0.281
-626.463	161.142	-0.240	-0.342
-625.449	40.668	-0.123	-0.113
-624.434	-200.000	-0.019	0.212
-623.419	-165.286	0.212	0.010
-622.405	726.497	0.017	-0.045
-621.390	-124.548	0.190	0.030
-620.376	-165.577	-0.080	0.004
-619.361	253.982	0.219	-0.381
-618.346	80.766	-0.121	-0.133
-617.332	60.579	0.109	0.110
-616.317	-200.000	0.004	0.055
-615.303	-66.654	-0.119	0.048
-614.288	-200.000	-0.010	-0.144
-613.273	-26.367	0.408	-0.244
-612.259	-200.000	-0.022	0.143
-611.244	800.000	-0.133	0.404
-610.230	-200.000	0.019	0.097
-609.215	-56.924	0.154	-0.069
-608.201	230.225	-0.111	0.185
-607.186	366.268	-0.056	-0.115
-606.171	-17.383	0.213	-0.136
-605.157	-73.282	-0.019	-0.007
-604.142	50.542	0.188	0.181
-603.128	81.964	-0.135	-0.148
-602.113	-91.357	-0.141	-0.041
-601.098	371.195	-0.074	-0.152
-600.084	-56.867	0.229	0.103
-599.069	-114.297	0.151	-0.030
-598.055	-104.410	0.151	-0.036
-597.040	353.563	0.073	-0.147
-596.025	-34.150	0.146	-0.082
-595.011	-71.297	0.274	-0.105
-593.996	800.000	-0.013	-0.058
-592.982	-57.414	0.596	0.266
-591.967	112.735	-0.121	0.148
-590.952	-158.815	-0.455	-0.026
-589.938	-200.000	-0.017	0.223
-588.923	44.000	-0.188	0.175
-587.909	16.616	-0.285	0.229
-586.894	-49.569	-0.245	0.118
-585.879	-200.000	-0.016	0.244
-584.865	-151.789	0.151	-0.011
-583.850	-200.000	-0.003	-0.022
-582.836	131.563	-0.175	-0.229
-581.821	27.719	-0.199	0.170
-580.806	-52.310	-0.202	-0.095
-579.792	279.095	-0.065	-0.119
-578.777	-126.787	-0.220	0.033
-577.763	-158.835	-0.136	-0.008
-576.748	-74.635	0.406	0.148
-575.733	-32.310	-0.137	-0.078
-574.719	800.000	0.099	0.280
-573.704	211.682	-0.226	0.362
-572.690	-106.257	-0.113	0.026
-571.675	-200.000	-0.033	-0.176
-570.661	-5.288	0.112	0.078
-569.646	197.259	0.061	-0.095
-568.631	-31.905	0.334	0.190
-567.617	188.974	-0.183	0.278
-566.602	433.900	0.099	-0.218
-565.588	83.651	0.204	0.226
-564.573	800.000	-0.090	-0.372
-563.558	-75.427	-0.215	-0.078
-562.544	-127.022	0.380	0.057
-561.529	532.066	-0.083	0.199
-560.515	355.281	0.168	-0.339
-559.500	281.194	-0.071	-0.130
-558.485	-56.293	0.382	-0.173
-557.471	-33.009	-0.122	-0.069
-556.456	-111.831	-0.121	0.025
-555.442	800.000	0.093	0.291
-554.427	-174.185	-0.060	0.002
-553.412	-200.000	-0.016	-0.364
-552.398	-35.248	-0.276	0.153
-551.383	182.997	0.032	-0.047
-550.369	-19.549	0.148	-0.093
-549.354	-117.000	-0.196	-0.036
-548.339	620.390	-0.062	-0.157
-547.325	85.327	-0.240	0.268
-546.310	-200.000	0.027	-0.155
-545.296	-63.827	0.276	-0.115
-544.281	-78.941	-0.214	-0.074
-543.266	127.271	0.313	0.403
-542.252	800.000	-0.058	0.169
-541.237	-200.000	0.017	-0.140
-540.223	528.329	-0.077	0.184
-539.208	-101.970	-0.101	0.025
-538.193	-157.582	0.232	0.014
-537.179	57.825	-0.073	-0.072
-536.164	146.249	0.171	0.233
-535.150	-147.519	0.258	0.022
-534.135	500.581	-0.078	-0.183
-533.121	-107.163	-0.166	-0.037
-532.106	-200.000	0.007	-0.144
-531.091	-200.000	0.023	-0.143
-530.077	499.226	-0.106	0.248
-529.062	-130.595	-0.281	-0.038
-528.048	259.827	0.081	-0.142
-527.033	-200.000	-0.028	-0.199
-526.018	-96.912	-0.168	0.045
-525.004	5.233	0.186	0.139
-523.989	-200.000	-0.003	-0.217
-522.975	800.000	-0.030	0.105
-521.960	-170.805	0.192	0.007
-520.945	800.000	0.031	-0.116
-519.931	-17.923	-0.536	0.341
-518.916	-17.869	0.397	-0.252
-517.902	800.000	0.113	-0.326
-516.887	114.561	-0.163	-0.201
-515.872	-134.072	0.163	-0.020
-514.858	-66.175	0.144	-0.058
-513.843	-89.092	-0.289	0.087
-512.829	-59.936	0.311	0.135
-511.814	396.838	0.182	0.385
-510.799	-23.484	-0.272	0.165
-509.785	-200.000	-0.008	-0.197
-508.770	-104.955	-0.479	-0.111
-507.756	-83.300	-0.182	-0.059
-506.741	-141.423	0.140	0.014
-505.726	3.866	0.139	-0.103
-504.712	-38.327	0.150	-0.081
-503.697	-200.000	0.010	0.241
-502.683	-49.016	0.074	-0.036
-501.668	289.311	0.057	-0.105
-500.653	-25.750	0.202	0.121
-499.639	100.014	-0.130	0.153
-498.624	-156.971	0.046	-0.003
-497.610	-200.000	0.007	0.139
-496.595	262.856	-0.086	0.151
-495.581	265.424	-0.096	0.170
-494.566	92.320	-0.093	-0.106
-493.551	-94.953	0.200	-0.055
-492.537	114.741	-0.074	-0.091
-491.522	-47.381	0.414	-0.204
-490.508	377.189	0.044	-0.091
-489.493	38.275	0.253	-0.228
-488.478	205.828	-0.158	0.249
-487.464	-89.937	0.347	0.103
-486.449	101.751	0.213	-0.252
-485.435	391.160	0.228	0.479
-484.420	-8.542	-0.270	-0.183
-483.405	409.063	0.036	-0.078
-482.391	-34.947	-0.070	0.039
-481.376	3.795	0.291	-0.215
-480.362	144.235	-0.081	0.110
-479.347	238.520	-0.128	0.215
-478.332	800.000	-0.028	0.100
-477.318	-160.641	-0.171	-0.009
-476.303	-200.000	0.054	-0.299
-475.289	77.427	-0.244	0.263
-474.274	-44.012	0.241	-0.122
-473.259	-13.832	-0.083	-0.054
-472.245	-17.142	-0.331	-0.211
-471.230	70.526	-0.139	-0.146
-470.216	41.843	-0.305	0.280
-469.201	71.143	0.148	-0.155
-468.186	346.504	-0.086	-0.171
-467.172	-33.176	-0.151	0.085
-466.157	-50.113	-0.030	-0.014
-465.143	-152.139	0.402	0.030
-464.128	621.836	0.035	-0.089
-463.113	377.295	0.106	0.220
-462.099	-7.703	0.483	0.330
-461.084	225.896	-0.099	0.163
-460.070	-41.783	-0.077	0.040
-459.055	800.000	-0.006	-0.019
-458.040	-200.000	-0.050	0.255
-457.026	-32.979	-0.083	0.047
-456.011	-67.601	0.231	-0.091
-454.997	-95.023	-0.247	-0.068
-453.982	800.000	0.039	-0.118
-452.968	492.418	0.073	0.168
-451.953	261.779	-0.082	0.144
-450.938	44.370	0.226	0.210
-449.924	-200.000	-0.066	-0.000
-448.909	-114.460	-0.288	0.056
-447.895	-24.716	-0.181	0.109
-446.880	-18.974	-0.116	-0.073
-445.865	632.448	0.021	-0.053
-444.851	-11.258	-0.337	0.225
-443.836	71.106	-0.053	0.055
-442.822	361.337	0.036	0.072
-441.807	800.000	-0.140	0.450
-440.792	116.518	0.207	0.257
-439.778	-56.302	-0.018	-0.008
-438.763	13.434	0.079	-0.062
-437.749	-200.000	-0.038	0.200
-436.734	-200.000	-0.010	0.116
-435.719	-200.000	-0.014	0.175
-434.705	288.293	-0.105	0.192
-433.690	538.317	0.173	-0.416
-432.676	277.080	-0.061	0.110
-431.661	-162.223	0.170	0.009
-430.646	-99.289	0.344	-0.088
-429.632	-125.000	0.176	-0.027
-428.617	421.479	-0.043	-0.093
-427.603	220.106	-0.195	0.315
-426.588	-200.000	-0.004	0.338
-425.573	800.000	0.006	-0.018
-424.559	-151.968	0.403	-0.030
-423.544	-39.311	-0.269	-0.143
-422.530	564.817	0.127	0.311
-421.515	52.216	-0.268	-0.258
-420.500	-151.614	0.207	0.015
-419.486	-178.162	0.226	-0.005
-418.471	-52.122	0.168	0.079
-417.457	-60.362	0.121	-0.052
-416.442	-200.000	-0.026	-0.271
-415.428	-200.000	-0.030	0.390
-414.413	-200.000	-0.038	-0.205
-413.398	-41.531	0.185	0.096
-412.384	800.000	-0.063	0.203
-411.369	155.026	-0.254	0.352
-410.355	-172.848	-0.326	-0.010
-409.340	-66.036	-0.242	-0.098
-408.325	-48.344	-0.051	-0.025
-407.311	-18.360	0.219	0.138
-406.296	-63.574	-0.233	0.097
-405.282	244.816	0.060	0.101
-404.267	-40.160	0.239	0.126
-403.252	5.438	-0.159	-0.119
-402.238	-200.000	0.005	0.132
-401.223	-187.383	0.369	0.005
-400.209	-162.493	0.467	0.023
-399.194	800.000	-0.040	0.160
-398.179	-200.000	0.022	-0.210
-397.165	-6.794	-0.246	0.169
-396.150	175.454	0.101	0.148
-395.136	132.718	0.147	0.192
-394.121	689.471	-0.093	0.245
-393.106	-111.997	-0.255	0.052
-392.092	-4.490	-0.145	0.101
-391.077	33.581	-0.318	-0.279
-390.063	-89.154	-0.324	-0.097
-389.048	-16.658	-0.099	0.064
-388.033	355.908	0.144	0.289
-387.019	226.226	0.031	-0.050
-386.004	-26.973	-0.219	0.129
-384.990	43.435	-0.163	-0.150
-383.975	800.000	0.037	-0.151
-382.960	35.455	0.139	-0.123
-381.946	-200.000	-0.011	0.069
-380.931	88.520	0.239	0.268
-379.917	-200.000	0.017	-0.134
-378.902	-95.522	0.110	0.030
-377.888	136.032	0.197	0.259
-376.873	-200.000	0.004	0.089
-375.858	103.318	-0.202	-0.239
-374.844	-200.000	-0.003	-0.036
-373.829	-78.085	-0.125	-0.043
-372.815	-177.024	0.298	0.008
-371.800	47.902	-0.172	0.162
-370.785	-20.364	-0.319	-0.198
-369.771	134.092	0.254	0.331
-368.756	50.556	-0.172	-0.164
-367.742	-81.185	-0.225	-0.075
-366.727	-40.846	-0.081	0.042
-365.712	-28.090	-0.071	-0.042
-364.698	-124.556	0.130	0.020
-363.683	139.994	-0.140	-0.186
-362.669	-200.000	0.481	0.000
-361.654	35.232	-0.169	-0.149
-360.639	800.000	0.024	0.084
-359.625	-200.000	-0.006	0.453
-358.610	628.122	0.063	0.160
-357.596	-118.225	-0.300	-0.054
-356.581	-200.000	0.013	0.439
-355.566	-125.301	-0.475	0.073
-354.552	-59.894	0.159	0.068
-353.537	0.490	0.180	-0.130
-352.523	-114.053	0.186	0.036
-351.508	193.647	0.068	-0.103
-350.493	800.000	-0.054	0.166
-349.479	111.217	0.090	-0.110
-348.464	-28.492	0.262	0.152
-347.450	257.846	0.137	-0.238
-346.435	-30.041	0.030	-0.017
-345.420	-200.000	-0.002	0.090
-344.406	-117.623	-0.170	-0.031
-343.391	763.161	-0.030	0.083
-342.377	800.000	-0.074	-0.263
-341.362	-167.032	0.260	0.011
-340.348	-140.158	0.161	0.017
-339.333	-112.125	0.087	-0.018
-338.318	13.590	0.277	-0.217
-337.304	800.000	0.052	-0.153
-336.289	648.781	-0.044	0.114
-335.275	19.522	0.068	0.055
-334.260	-200.000	-0.003	0.032
-333.245	43.224	0.101	0.093
-332.231	-200.000	0.006	0.124
-331.216	452.356	0.079	0.175
-330.202	231.397	-0.129	0.212
-329.187	800.000	0.036	-0.145
-328.172	-5.809	0.122	0.084
-327.158	-183.503	-0.102	-0.002
-326.143	255.466	-0.201	0.347
-325.129	-58.911	0.205	-0.089
-324.114	525.010	0.069	-0.164
-323.099	-200.000	-0.027	0.185
-322.085	130.377	-0.206	0.265
-321.070	56.148	-0.273	0.267
-320.056	-200.000	0.015	-0.067
-319.041	174.441	-0.062	0.090
-318.026	-35.041	0.289	-0.159
-317.012	150.870	0.041	-0.056
-315.997	523.186	0.074	-0.174
-314.983	51.872	0.101	0.097
-313.968	800.000	0.039	-0.148
-312.953	-137.993	-0.028	-0.003
-311.939	-169.915	0.267	0.010
-310.924	-200.000	0.011	-0.242
-309.910	-21.180	0.192	-0.118
-308.895	800.000	-0.049	0.161
-307.880	95.458	-0.186	0.213
-306.866	127.200	-0.372	0.475
-305.851	-200.000	0.028	-0.144
-304.837	41.605	0.306	-0.279
-303.822	-80.254	0.210	0.070
-302.807	60.222	-0.141	-0.140
-301.793	-18.925	0.267	-0.167
-300.778	800.000	0.092	-0.353
-299.764	-39.344	-0.153	0.081
-298.749	800.000	-0.019	0.059
-297.735	135.408	-0.221	0.288
-296.720	139.834	0.110	-0.146
-295.705	-191.704	-0.242	-0.002
-294.691	-200.000	-0.013	-0.223
-293.676	800.000	-0.031	-0.096
-292.662	-52.845	-0.270	-0.125
-291.647	-129.201	0.317	-0.044
-290.632	-126.027	-0.200	0.030
-289.618	156.374	-0.146	-0.203
-288.603	-88.535	-0.085	0.026
-287.589	-200.000	0.007	-0.170
-286.574	-200.000	-0.050	-0.452
-285.559	-196.191	-0.165	0.001
-284.545	-6.859	0.089	0.061
-283.530	476.034	0.091	0.206
-282.516	12.467	-0.195	-0.151
-281.501	-200.000	-0.014	-0.179
-280.486	-87.409	0.280	0.085
-279.472	-200.000	-0.066	-0.335
-278.457	-200.000	-0.022	-0.363
-277.443	322.805	-0.127	-0.243
-276.428	-57.252	-0.113	0.050
-275.413	2.972	0.190	-0.138
-274.399	-200.000	0.017	0.094
-273.384	-200.000	-0.022	0.124
-272.370	-200.000	0.007	-0.067
-271.355	-50.500	-0.440	-0.209
-270.340	800.000	-0.123	-0.438
-269.326	-40.792	0.190	0.099
-268.311	-200.000	-0.016	0.185
-267.297	-200.000	-0.013	0.059
-266.282	92.447	-0.120	0.136
-265.267	-52.223	0.161	-0.075
-264.253	800.000	0.007	0.019
-263.238	311.796	-0.080	0.150
-262.224	15.152	0.129	-0.101
-261.209	-92.530	-0.238	0.067
-260.195	-138.186	0.101	0.011
-259.180	209.050	0.160	-0.251
-258.165	296.851	-0.035	0.065
-257.151	-105.530	-0.291	-0.066
-256.136	-58.449	-0.129	-0.056
-255.122	-200.000	-0.019	0.170
-254.107	-130.318	-0.372	-0.051
-253.092	21.275	0.064	0.052
-252.078	-200.000	-0.012	-0.117
-251.063	-200.000	-0.010	0.119
-250.049	-200.000	0.087	-0.474
-249.034	132.123	0.160	-0.207
-248.019	81.817	-0.098	0.106
-247.005	-200.000	0.016	-0.237
-245.990	64.959	0.148	-0.150
-244.976	20.797	-0.396	0.321
-243.961	-200.000	0.171	0.001
-242.946	-0.359	0.165	-0.118
-241.932	-152.907	-0.069	-0.005
-240.917	-72.983	-0.170	0.063
-239.903	14.719	0.187	-0.147
-238.888	-99.510	0.290	-0.073
-237.873	29.478	-0.093	0.079
-236.859	-5.195	-0.151	-0.104
-235.844	-24.945	-0.171	-0.102
-234.830	800.000	0.033	-0.139
-233.815	-128.499	0.235	0.033
-232.800	-96.103	-0.307	-0.082
-231.786	178.841	0.150	0.220
-230.771	-45.152	0.229	-0.114
-229.757	0.739	-0.379	-0.272
-228.742	-109.342	0.196	-0.042
-227.727	137.736	0.269	-0.353
-226.713	-200.000	-0.050	-0.597
-225.698	800.000	0.038	-0.150
-224.684	185.582	0.304	-0.452
-223.669	364.502	0.125	-0.252
-222.655	-200.000	0.029	-0.136
-221.640	-200.000	-0.021	-0.200
-220.625	800.000	-0.082	-0.233
-219.611	-200.000	-0.001	0.141
-218.596	-162.507	0.277	-0.014
-217.582	-43.137	0.241	0.122
-216.567	3.671	0.182	0.133
-215.552	74.521	0.125	-0.132
-214.538	-200.000	-0.014	-0.090
-213.523	-200.000	0.001	0.033
-212.509	-183.444	0.190	-0.003
-211.494	-68.073	-0.174	-0.068
-210.479	-200.000	0.027	0.180
-209.465	110.239	-0.236	0.284
-208.450	-200.000	-0.019	-0.185
-207.436	-51.435	0.074	0.035
-206.421	-80.308	-0.211	0.070
-205.406	21.469	-0.123	-0.100
-204.392	322.314	-0.079	-0.151
-203.377	-200.000	0.009	0.168
-202.363	206.033	-0.050	0.078
-201.348	108.497	0.111	0.133
-200.333	193.669	-0.109	-0.166
-199.319	-99.708	-0.167	-0.042
-198.304	318.903	-0.214	-0.406
-197.290	-34.623	0.310	-0.170
-196.275	302.027	0.141	0.261
-195.260	146.201	-0.010	-0.014
-194.246	12.848	-0.315	0.244
-193.231	-149.309	0.279	0.022
-192.217	-200.000	-0.014	0.137
-191.202	-86.946	0.157	-0.048
-190.187	234.906	0.060	0.100
-189.173	-37.711	0.169	-0.090
-188.158	-80.957	0.343	0.114
-187.144	-185.819	-0.179	0.003
-186.129	800.000	0.071	-0.221
-185.114	-200.000	-0.026	0.210
-184.100	162.660	-0.132	-0.185
-183.085	277.853	0.246	0.438
-182.071	352.503	-0.025	0.049
-181.056	256.199	-0.100	-0.171
-180.042	106.013	-0.096	0.113
-179.027	205.557	-0.110	-0.170
-178.012	-62.091	-0.271	0.113
-176.998	34.089	0.033	0.029
-175.983	28.894	0.116	-0.099
-174.969	-60.159	0.202	0.086
-173.954	800.000	-0.056	-0.187
-172.939	186.220	-0.151	-0.224
-171.925	-200.000	-0.036	0.213
-170.910	-40.249	-0.212	-0.110
-169.896	800.000	-0.042	-0.142
-168.881	800.000	0.079	-0.226
-167.866	800.000	0.032	-0.109
-166.852	553.426	-0.037	0.090
-165.837	-4.222	0.052	-0.036
-164.823	260.043	-0.108	0.187
-163.808	-85.882	0.150	-0.046
-162.793	-15.421	-0.156	-0.100
-161.779	-76.627	0.085	0.030
-160.764	-200.000	-0.031	0.307
-159.750	800.000	0.128	-0.355
-158.735	52.584	-0.308	-0.294
-157.720	11.540	0.176	-0.135
-156.706	-140.750	-0.022	-0.002
-155.691	800.000	-0.100	-0.399
-154.677	-16.701	-0.111	0.070
-153.662	103.049	-0.078	0.091
-152.647	-87.732	-0.269	0.081
-151.633	514.004	0.058	0.136
-150.618	108.839	-0.041	0.049
-149.604	-43.368	0.323	-0.163
-148.589	93.354	0.034	0.039
-147.574	-119.634	-0.216	0.037
-146.560	-200.000	0.016	-0.079
-145.545	261.461	-0.153	-0.266
-144.531	-200.000	0.006	0.186
-143.516	-200.000	0.003	-0.260
-142.502	-83.944	-0.251	-0.080
-141.487	-87.600	-0.268	-0.081
-140.472	79.369	-0.185	-0.198
-139.458	-48.112	-0.091	0.044
-138.443	800.000	0.050	-0.214
-137.429	-16.491	-0.158	-0.100
-136.414	-96.723	0.107	-0.028
-135.399	800.000	-0.002	-0.008
-134.385	-151.355	0.132	0.010
-133.370	70.942	-0.173	-0.179
-132.356	766.934	-0.082	0.224
-131.341	539.311	0.071	0.168
-130.326	-85.227	0.256	-0.080
-129.312	-45.637	0.176	-0.087
-128.297	800.000	-0.011	0.041
-127.283	-100.854	-0.422	0.104
-126.268	800.000	0.051	0.216
-125.253	215.039	-0.104	0.164
-124.239	105.330	0.183	-0.216
-123.224	707.631	0.070	-0.185
