DTS Sentinel unit serial number:	SN413079Multiplexer serial number:	ORYXHardware model number:	OX4-SRSoftware version number:	ORYX F/W v4.00 Oryx Data Collector v3.7.2.0data status	okinstallation	princeton_trtdifferential loss correction	single-endedforward channel	channel 1reverse channel	N/Adate	2019/09/12time	16:52:11forward acquisition time	60.00reverse acquisition time	0.00gamma	496.2192k internal	0.2309k external	0.2309temperature offset calibration	1.0095default loss term (dB/km)	0.3790temperature slope calibration	1.0000multiplexer offset coefficient	1.0000multiplexer slope coefficient	1.0000fibre end	0.00T internal ref (°C)	36.14T ext. ref 1 (°C)	2.71T ext. ref 2 (°C)	29.44length (m)	temperature (°C)	Stokes	anti-Stokes-747.200	92.925	0.062	-0.071
-746.185	-66.013	0.168	-0.068
-745.171	48.855	0.051	0.048
-744.156	232.997	-0.081	0.135
-743.142	27.615	0.123	0.105
-742.127	286.477	0.139	0.255
-741.112	-65.972	-0.063	0.025
-740.098	800.000	-0.047	-0.141
-739.083	11.706	0.149	0.116
-738.069	-200.000	-0.000	0.169
-737.054	527.931	-0.107	0.257
-736.039	-117.715	-0.164	0.030
-735.025	-159.112	0.259	0.015
-734.010	25.904	-0.106	0.090
-732.996	-200.000	-0.061	-0.410
-731.981	464.765	-0.086	0.195
-730.966	-48.763	0.341	0.166
-729.952	-200.000	-0.006	0.333
-728.937	-53.992	-0.215	-0.099
-727.923	-43.495	-0.408	-0.209
-726.908	-200.000	0.009	0.208
-725.894	93.158	-0.176	0.202
-724.879	-200.000	0.074	0.368
-723.864	-200.000	0.017	0.204
-722.850	800.000	0.015	-0.055
-721.835	-47.272	0.344	-0.170
-720.821	-68.535	-0.344	0.135
-719.806	-144.062	-0.107	0.010
-718.791	-118.939	-0.109	-0.019
-717.777	101.927	0.108	-0.128
-716.762	-200.000	0.050	0.312
-715.748	117.866	0.110	0.138
-714.733	118.330	-0.115	-0.144
-713.718	-68.683	-0.100	0.039
-712.704	-200.000	-0.039	0.213
-711.689	19.006	0.264	-0.214
-710.675	-189.224	-0.174	-0.002
-709.660	-125.684	0.010	0.001
-708.645	297.379	0.194	0.362
-707.631	-105.235	-0.443	-0.102
-706.616	270.089	-0.160	0.285
-705.602	215.475	0.073	0.118
-704.587	83.074	0.161	-0.177
-703.572	-200.000	0.020	-0.260
-702.558	-66.699	0.187	0.075
-701.543	36.423	0.095	0.085
-700.529	-71.832	0.062	-0.023
-699.514	-15.227	-0.056	-0.036
-698.499	-61.665	-0.054	0.023
-697.485	794.075	-0.018	-0.049
-696.470	-70.452	0.304	0.117
-695.456	-56.493	0.144	0.065
-694.441	-13.994	-0.371	-0.243
-693.426	800.000	0.051	-0.210
-692.412	-200.000	-0.022	0.266
-691.397	-145.734	-0.243	0.022
-690.383	556.553	0.039	0.095
-689.368	800.000	-0.069	-0.286
-688.354	-65.893	0.270	0.109
-687.339	682.567	0.133	0.350
-686.324	-20.969	-0.207	0.128
-685.310	509.859	-0.075	0.177
-684.295	6.383	-0.204	0.153
-683.281	800.000	0.117	-0.509
-682.266	-28.498	-0.175	-0.102
-681.251	-50.082	-0.240	-0.115
-680.237	-200.000	-0.059	0.268
-679.222	187.852	-0.080	-0.121
-678.208	-84.307	0.055	0.018
-677.193	100.305	-0.195	-0.229
-676.178	-120.594	0.147	-0.025
-675.164	-200.000	-0.074	-0.337
-674.149	-103.266	0.210	0.050
-673.135	-200.000	0.029	0.230
-672.120	446.012	0.074	-0.164
-671.105	92.500	-0.134	0.153
-670.091	-61.282	-0.275	-0.117
-669.076	342.448	-0.112	0.221
-668.062	-200.000	0.017	0.166
-667.047	-181.297	-0.186	-0.004
-666.032	-56.092	-0.271	0.122
-665.018	-56.383	0.278	-0.125
-664.003	29.794	0.128	0.111
-662.989	41.728	0.190	-0.174
-661.974	173.646	-0.338	0.494
-660.959	534.600	0.138	0.331
-659.945	-69.617	0.233	-0.090
-658.930	800.000	0.089	-0.265
-657.916	355.751	0.215	0.433
-656.901	482.746	-0.050	0.115
-655.886	-200.000	0.027	-0.162
-654.872	-200.000	-0.008	0.119
-653.857	-14.405	-0.231	0.151
-652.843	208.640	0.166	0.262
-651.828	110.129	-0.123	0.150
-650.814	800.000	0.014	-0.047
-649.799	-29.638	-0.121	0.070
-648.784	-54.770	-0.115	-0.053
-647.770	-86.624	0.415	0.129
-646.755	694.472	0.054	0.143
-645.741	-89.556	-0.087	-0.026
-644.726	800.000	-0.037	0.125
-643.711	317.074	-0.188	0.360
-642.697	-200.000	0.076	0.432
-641.682	-116.240	-0.251	0.047
-640.668	60.816	0.121	-0.122
-639.653	742.374	0.133	-0.360
-638.638	90.206	-0.198	-0.224
-637.624	-200.000	0.024	0.114
-636.609	265.552	0.046	0.081
-635.595	0.426	-0.052	0.037
-634.580	194.000	-0.210	-0.322
-633.565	34.127	-0.231	-0.204
-632.551	-52.761	0.423	0.197
-631.536	-50.361	0.137	0.066
-630.522	-48.661	0.323	-0.157
-629.507	192.197	0.111	0.170
-628.492	54.893	-0.104	-0.101
-627.478	-41.910	0.172	-0.089
-626.463	800.000	0.078	-0.343
-625.449	225.310	0.063	0.103
-624.434	329.813	-0.170	-0.330
-623.419	131.828	-0.045	-0.059
-622.405	354.773	0.017	0.034
-621.390	-22.403	0.181	-0.111
-620.376	44.441	0.178	0.165
-619.361	-69.296	-0.178	-0.069
-618.346	-36.206	0.127	-0.069
-617.332	-135.166	0.383	0.047
-616.317	-14.361	-0.126	-0.082
-615.303	214.187	-0.058	-0.093
-614.288	80.948	-0.238	-0.260
-613.273	38.256	0.243	-0.219
-612.259	-77.992	-0.019	-0.007
-611.244	83.398	0.113	0.125
-610.230	11.277	-0.109	0.085
-609.215	-99.463	-0.343	-0.087
-608.201	198.912	0.188	0.291
-607.186	-59.635	-0.069	0.030
-606.171	-200.000	-0.005	0.146
-605.157	211.737	0.113	0.179
-604.142	-83.101	0.285	0.093
-603.128	328.446	-0.322	0.625
-602.113	8.007	-0.479	-0.363
-601.098	-40.125	0.251	0.132
-600.084	110.824	0.183	-0.222
-599.069	-200.000	0.000	-0.170
-598.055	257.017	-0.134	-0.233
-597.040	-66.776	0.117	-0.047
-596.025	-200.000	0.020	-0.424
-595.011	800.000	-0.052	-0.209
-593.996	269.761	0.018	-0.032
-592.982	64.941	-0.209	-0.213
-591.967	-84.579	-0.204	-0.065
-590.952	79.886	-0.103	-0.111
-589.938	800.000	-0.083	0.311
-588.923	-71.748	-0.073	-0.028
-587.909	412.627	-0.098	0.211
-586.894	457.378	0.073	-0.164
-585.879	145.893	0.160	-0.216
-584.865	800.000	0.085	-0.316
-583.850	-128.237	0.178	-0.026
-582.836	-73.250	-0.187	-0.069
-581.821	800.000	0.022	0.063
-580.806	-77.350	-0.212	-0.075
-579.792	318.701	0.188	-0.359
-578.777	491.097	-0.051	0.119
-577.763	41.315	-0.234	-0.214
-576.748	770.061	-0.042	-0.116
-575.733	-10.441	-0.344	-0.230
-574.719	-17.555	0.206	0.131
-573.704	-46.449	0.058	0.029
-572.690	-200.000	-0.028	-0.176
-571.675	-70.858	0.069	0.026
-570.661	35.382	-0.043	0.038
-569.646	-84.603	-0.143	0.045
-568.631	-7.397	-0.204	0.139
-567.617	-75.537	-0.154	-0.055
-566.602	800.000	0.050	0.144
-565.588	-50.739	0.451	-0.214
-564.573	18.699	0.249	-0.201
-563.558	72.771	-0.183	0.192
-562.544	-55.067	0.266	0.121
-561.529	-200.000	-0.041	-0.219
-560.515	2.024	-0.269	-0.196
-559.500	-65.017	-0.398	-0.162
-558.485	9.299	-0.131	-0.100
-557.471	-200.000	-0.064	-0.286
-556.456	424.642	0.075	-0.162
-555.442	418.812	-0.061	0.132
-554.427	211.849	-0.107	0.170
-553.412	-129.760	0.068	0.009
-552.398	-200.000	0.032	0.345
-551.383	-158.599	-0.271	0.016
-550.369	-117.483	0.064	0.012
-549.354	15.985	0.363	-0.289
-548.339	436.803	-0.042	-0.093
-547.325	-2.222	-0.231	0.163
-546.310	-50.764	0.167	-0.079
-545.296	-69.017	0.146	0.057
-544.281	146.771	-0.188	0.255
-543.266	104.576	0.158	0.188
-542.252	-200.000	-0.012	0.433
-541.237	119.423	0.147	0.184
-540.223	31.334	-0.481	-0.416
-539.208	433.358	0.059	0.130
-538.193	-183.034	-0.266	-0.005
-537.179	32.632	0.141	0.123
-536.164	-200.000	-0.004	-0.061
-535.150	-200.000	-0.108	0.481
-534.135	37.219	-0.276	0.247
-533.121	-105.892	-0.365	-0.083
-532.106	-44.705	0.160	-0.080
-531.091	800.000	-0.083	-0.244
-530.077	800.000	0.033	-0.116
-529.062	459.394	-0.086	-0.192
-528.048	701.966	0.097	0.256
-527.033	-200.000	0.011	-0.243
-526.018	225.338	0.029	-0.047
-525.004	-200.000	0.042	-0.261
-523.989	800.000	0.106	-0.372
-522.975	448.914	0.239	0.531
-521.960	586.346	-0.081	-0.202
-520.945	-96.336	0.156	-0.042
-519.931	484.604	0.149	-0.342
-518.916	192.687	0.221	0.336
-517.902	209.306	-0.061	-0.096
-516.887	336.126	-0.150	0.293
-515.872	344.839	-0.122	-0.241
-514.858	-50.198	-0.040	0.019
-513.843	-48.294	0.253	-0.123
-512.829	179.913	0.104	0.153
-511.814	-115.892	0.115	-0.022
-510.799	163.349	-0.145	0.205
-509.785	-50.749	-0.412	-0.195
-508.770	-200.000	0.005	0.114
-507.756	17.942	-0.209	0.167
-506.741	662.496	-0.045	-0.118
-505.726	800.000	-0.141	-0.412
-504.712	94.083	-0.168	-0.192
-503.697	27.696	-0.282	0.239
-502.683	-136.479	0.201	0.023
-501.668	-130.130	-0.204	0.028
-500.653	800.000	0.024	-0.084
-499.639	-109.343	-0.219	0.047
-498.624	-44.337	0.281	0.142
-497.610	239.373	0.096	0.160
-496.595	-113.303	-0.251	-0.050
-495.581	-129.952	-0.320	0.044
-494.566	800.000	-0.019	0.067
-493.551	-144.324	-0.317	-0.030
-492.537	8.556	0.110	-0.083
-491.522	203.361	-0.074	-0.115
-490.508	-200.000	0.007	-0.152
-489.493	-147.216	0.284	0.024
-488.478	-128.844	-0.342	-0.048
-487.464	-129.355	-0.164	0.023
-486.449	-5.682	0.090	0.062
-485.435	-118.452	0.161	0.029
-484.420	800.000	-0.046	0.143
-483.405	-122.893	-0.249	0.040
-482.391	-98.000	0.271	0.070
-481.376	-200.000	0.035	0.308
-480.362	-56.649	0.332	-0.148
-479.347	-61.868	0.301	0.126
-478.332	-200.000	0.016	0.505
-477.318	-200.000	-0.042	0.211
-476.303	-140.776	0.240	0.025
-475.289	-160.195	-0.180	0.010
-474.274	38.568	0.125	-0.112
-473.259	-200.000	0.014	-0.348
-472.245	311.563	0.069	-0.130
-471.230	18.548	0.263	-0.211
-470.216	-147.884	0.226	0.019
-469.201	-118.125	-0.237	-0.042
-468.186	121.001	-0.209	-0.261
-467.172	459.137	0.085	-0.190
-466.157	28.686	-0.243	0.207
-465.143	800.000	0.025	0.086
-464.128	800.000	0.069	0.255
-463.113	81.519	0.084	-0.092
-462.099	18.779	0.081	-0.065
-461.084	287.074	0.134	0.244
-460.070	131.375	-0.076	-0.098
-459.055	-200.000	0.004	0.080
-458.040	226.383	0.030	0.049
-457.026	8.789	-0.138	0.104
-456.011	-200.000	0.013	0.167
-454.997	-200.000	0.060	0.322
-453.982	-200.000	-0.041	-0.236
-452.968	-46.652	-0.372	0.183
-451.953	-121.971	-0.067	-0.011
-450.938	415.127	0.149	-0.319
-449.924	-5.400	-0.601	-0.414
-448.909	-200.000	-0.023	-0.115
-447.895	213.974	0.149	0.237
-446.880	124.485	0.122	0.155
-445.865	-92.869	0.272	-0.076
-444.851	371.589	0.127	0.259
-443.836	212.870	0.136	0.216
-442.822	43.519	-0.089	0.082
-441.807	99.972	-0.215	0.251
-440.792	800.000	-0.049	-0.213
-439.778	-100.459	-0.285	-0.071
-438.763	8.316	0.076	0.057
-437.749	215.961	-0.054	0.086
-436.734	382.048	-0.064	-0.131
-435.719	-54.803	-0.197	-0.089
-434.705	-5.447	0.299	0.206
-433.690	-90.438	-0.239	-0.070
-432.676	60.529	0.169	0.168
-431.661	-71.053	-0.221	-0.083
-430.646	800.000	-0.080	-0.238
-429.632	800.000	0.033	0.119
-428.617	-25.204	0.144	0.086
-427.603	-130.644	-0.121	-0.016
-426.588	-37.732	0.248	0.132
-425.573	282.234	-0.172	0.310
-424.559	-200.000	-0.167	0.000
-423.544	405.092	-0.081	0.171
-422.530	40.429	0.092	-0.083
-421.515	-56.729	-0.241	-0.107
-420.500	196.652	-0.164	0.251
-419.486	490.330	0.129	0.296
-418.471	340.890	-0.085	0.166
-417.457	-143.579	-0.213	-0.020
-416.442	-135.233	-0.033	-0.004
-415.428	-200.000	-0.052	0.293
-414.413	71.582	-0.117	-0.122
-413.398	-107.991	-0.087	-0.019
-412.384	-200.000	-0.019	0.329
-411.369	-200.000	-0.016	0.238
-410.355	179.736	0.167	-0.246
-409.340	151.410	-0.095	0.129
-408.325	-44.649	-0.240	0.120
-407.311	677.328	-0.122	0.317
-406.296	111.295	-0.207	0.250
-405.282	-200.000	-0.054	0.240
-404.267	-200.000	0.012	-0.255
-403.252	161.201	-0.134	-0.187
-402.238	136.841	-0.061	-0.080
-401.223	-95.798	0.489	0.131
-400.209	-200.000	0.020	0.486
-399.194	-97.638	-0.138	-0.036
-398.179	37.675	0.179	0.159
-397.165	363.834	-0.028	-0.057
-396.150	487.183	0.144	0.330
-395.136	-200.000	0.007	-0.080
-394.121	-200.000	-0.019	-0.262
-393.106	800.000	0.057	0.165
-392.092	800.000	0.034	-0.110
-391.077	-3.990	0.062	0.043
-390.063	-59.721	-0.432	0.185
-389.048	-28.459	0.078	-0.045
-388.033	-61.460	-0.114	-0.048
-387.019	15.540	0.030	0.023
-386.004	-71.752	0.235	0.088
-384.990	104.925	-0.227	0.268
-383.975	6.353	0.161	0.120
-382.960	-200.000	0.034	-0.190
-381.946	-7.304	0.066	0.045
-380.931	-156.283	-0.016	0.001
-379.917	-50.119	-0.090	-0.042
-378.902	800.000	0.077	-0.319
-377.888	-54.280	0.200	-0.091
-376.873	585.497	0.170	0.418
-375.858	-200.000	0.045	0.343
-374.844	-12.304	-0.143	0.094
-373.829	-136.331	0.260	-0.030
-372.815	-129.123	-0.245	-0.034
-371.800	222.307	-0.036	0.058
-370.785	-141.248	0.274	-0.028
-369.771	193.200	0.146	-0.221
-368.756	260.215	-0.030	-0.052
-367.742	49.176	0.027	-0.025
-366.727	91.527	0.089	0.100
-365.712	-99.011	-0.187	-0.047
-364.698	786.857	0.056	-0.154
-363.683	-200.000	-0.039	0.354
-362.669	-152.326	0.358	-0.026
-361.654	-163.111	-0.265	-0.013
-360.639	103.814	-0.256	-0.300
-359.625	366.388	-0.135	-0.273
-358.610	-30.243	0.064	-0.036
-357.596	800.000	-0.029	-0.099
-356.581	-68.522	0.143	-0.056
-355.566	55.300	0.040	-0.039
-354.552	84.601	-0.111	0.122
-353.537	-26.820	0.181	0.106
-352.523	478.718	0.021	-0.049
-351.508	196.574	0.164	0.250
-350.493	42.998	0.092	0.084
-349.479	800.000	0.035	0.152
-348.464	-140.863	0.149	-0.015
-347.450	-42.110	0.416	-0.213
-346.435	35.613	-0.185	0.163
-345.420	800.000	0.032	-0.099
-344.406	-45.443	-0.148	-0.073
-343.391	-97.407	-0.347	-0.090
-342.377	-37.274	0.246	-0.132
-341.362	-200.000	-0.071	0.358
-340.348	204.786	-0.075	0.116
-339.333	70.404	0.160	0.165
-338.318	800.000	-0.148	0.432
-337.304	282.627	0.063	-0.113
-336.289	-124.355	0.316	-0.049
-335.275	44.832	0.185	0.171
-334.260	329.009	-0.135	-0.259
-333.245	72.979	0.181	-0.189
-332.231	-151.860	-0.427	0.031
-331.216	48.789	-0.096	-0.090
-330.202	106.992	-0.141	-0.167
-329.187	-81.187	0.135	-0.045
-328.172	193.269	0.228	-0.345
-327.158	-72.955	0.356	0.131
-326.143	-189.863	-0.051	0.001
-325.129	155.576	0.078	0.107
-324.114	-92.080	-0.276	-0.078
-323.099	33.194	-0.247	-0.214
-322.085	-85.146	0.157	0.049
-321.070	-104.271	-0.186	-0.043
-320.056	-55.934	-0.066	0.029
-319.041	9.711	0.148	-0.112
-318.026	-188.099	-0.268	-0.003
-317.012	450.589	0.032	0.071
-315.997	119.361	-0.089	0.110
-314.983	8.501	-0.125	-0.094
-313.968	800.000	0.059	0.191
-312.953	9.787	-0.096	0.073
-311.939	-56.604	0.335	-0.148
-310.924	-100.352	0.056	-0.014
-309.910	-103.557	-0.218	0.051
-308.895	97.242	0.046	-0.053
-307.880	726.093	-0.151	0.403
-306.866	-168.860	-0.257	0.010
-305.851	800.000	0.054	0.217
-304.837	-93.971	0.055	0.015
-303.822	-174.411	0.072	0.002
-302.807	197.410	0.122	-0.187
-301.793	-0.831	-0.363	-0.257
-300.778	-200.000	0.014	-0.251
-299.764	-90.638	-0.117	-0.034
-298.749	63.426	0.231	-0.231
-297.735	-93.333	-0.423	-0.117
-296.720	-200.000	-0.020	0.208
-295.705	-200.000	-0.016	0.102
-294.691	-81.624	-0.251	-0.082
-293.676	-167.413	-0.259	0.010
-292.662	153.430	0.194	-0.265
-291.647	-200.000	-0.027	-0.174
-290.632	-135.131	0.120	-0.014
-289.618	-110.265	0.417	0.087
-288.603	193.845	0.213	-0.322
-287.589	773.006	-0.057	0.155
-286.574	-45.017	-0.210	0.104
-285.559	800.000	0.049	0.176
-284.545	-57.525	-0.281	0.123
-283.530	-24.342	0.135	0.080
-282.516	611.232	-0.056	0.140
-281.501	-124.790	0.122	-0.019
-280.486	-145.178	0.190	0.017
-279.472	-10.459	-0.105	-0.069
-278.457	22.539	-0.091	0.075
-277.443	177.434	-0.154	-0.224
-276.428	419.248	-0.098	-0.209
-275.413	120.720	-0.153	-0.190
-274.399	-200.000	-0.001	0.404
-273.384	-92.233	0.513	0.144
-272.370	-125.941	0.080	0.012
-271.355	800.000	0.129	0.521
-270.340	-103.527	0.096	0.022
-269.326	-116.760	0.323	0.059
-268.311	-104.068	0.272	-0.063
-267.297	590.237	0.094	-0.231
-266.282	7.071	0.189	0.141
-265.267	-71.276	0.112	-0.042
-264.253	-96.937	0.240	0.063
-263.238	-104.254	-0.140	0.032
-262.224	-2.740	0.193	0.135
-261.209	-194.477	0.128	0.001
-260.195	95.364	-0.210	0.239
-259.180	58.063	0.191	0.187
-258.165	-200.000	0.026	-0.115
-257.151	425.067	0.121	-0.259
-256.136	800.000	0.035	0.104
-255.122	800.000	-0.052	-0.186
-254.107	18.627	0.124	0.099
-253.092	800.000	-0.019	-0.058
-252.078	63.060	-0.084	-0.084
-251.063	-140.997	0.058	0.006
-250.049	436.970	-0.119	-0.258
-249.034	42.186	0.108	-0.098
-248.019	392.777	0.118	0.244
-247.005	-120.895	0.485	0.081
-245.990	-45.619	-0.213	-0.105
-244.976	262.189	-0.065	0.111
-243.961	800.000	-0.046	-0.157
-242.946	-200.000	-0.017	0.217
-241.932	-45.837	-0.258	-0.127
-240.917	-63.036	0.088	0.036
-239.903	800.000	-0.095	-0.345
-238.888	394.966	0.057	-0.118
-237.873	-13.603	-0.412	-0.266
-236.859	-200.000	-0.028	0.241
-235.844	9.110	0.347	-0.261
-234.830	-200.000	0.015	0.221
-233.815	134.130	0.227	0.293
-232.800	-110.776	-0.258	-0.053
-231.786	800.000	-0.015	-0.057
-230.771	18.694	-0.149	0.119
-229.757	800.000	0.031	-0.103
-228.742	67.277	-0.234	-0.237
-227.727	-16.886	0.168	-0.106
-226.713	15.053	0.281	0.219
-225.698	485.302	-0.124	-0.281
-224.684	800.000	0.017	0.059
-223.669	138.188	0.049	0.064
-222.655	42.129	-0.044	-0.040
-221.640	0.691	0.119	-0.085
-220.625	254.031	-0.106	0.180
-219.611	418.653	0.023	-0.048
-218.596	774.484	-0.146	-0.396
-217.582	-200.000	-0.030	0.189
-216.567	800.000	0.018	-0.068
-215.552	283.369	0.165	0.294
-214.538	-200.000	-0.050	-0.296
-213.523	-75.445	-0.083	-0.029
-212.509	215.590	0.083	-0.131
-211.494	-13.085	-0.109	0.070
-210.479	-111.056	-0.128	0.026
-209.465	-15.661	-0.189	0.120
-208.450	-76.279	0.262	0.092
-207.436	526.922	0.073	0.170
-206.421	-126.702	-0.143	-0.021
-205.406	-200.000	0.034	0.198
-204.392	-35.521	0.116	0.062
-203.377	551.324	-0.066	-0.157
-202.363	108.024	-0.120	-0.142
-201.348	-100.466	-0.240	0.059
-200.333	-114.512	0.133	-0.025
-199.319	413.197	0.037	0.077
-198.304	-85.268	-0.133	-0.041
-197.290	-115.924	-0.102	0.019
-196.275	73.370	0.197	-0.205
-195.260	-92.826	-0.096	-0.027
-194.246	-200.000	0.046	0.219
-193.231	522.438	0.069	0.162
-192.217	129.272	-0.071	-0.091
-191.202	102.944	0.302	-0.351
-190.187	-42.045	0.297	0.151
-189.173	-186.753	0.382	0.005
-188.158	70.799	0.140	0.144
-187.144	-200.000	-0.023	-0.225
-186.129	687.882	0.080	-0.208
-185.114	-200.000	-0.029	0.167
-184.100	95.481	0.101	-0.114
-183.085	800.000	-0.056	0.176
-182.071	-128.373	0.060	0.008
-181.056	107.801	0.071	-0.084
-180.042	274.390	-0.081	0.142
-179.027	-18.742	-0.365	0.226
-178.012	111.552	-0.138	0.166
-176.998	-44.698	-0.045	0.022
-175.983	800.000	-0.044	0.165
-174.969	365.855	0.148	-0.297
-173.954	800.000	0.079	-0.235
-172.939	776.177	-0.102	-0.275
-171.925	-117.411	-0.172	0.031
-170.910	-152.303	0.155	0.011
-169.896	-200.000	-0.033	-0.151
-168.881	45.210	0.391	-0.358
-167.866	800.000	0.051	-0.160
-166.852	53.492	-0.136	0.129
-165.837	-180.823	0.389	0.008
-164.823	-200.000	-0.010	0.422
-163.808	-85.962	0.296	0.091
-162.793	-200.000	0.027	0.204
-161.779	800.000	-0.114	-0.320
-160.764	60.385	-0.080	0.079
-159.750	125.032	0.107	-0.134
-158.735	164.916	0.134	-0.188
-157.720	224.381	0.131	-0.211
-156.706	-8.303	-0.209	-0.140
-155.691	-147.135	0.152	-0.013
-154.677	-33.876	0.175	-0.096
-153.662	-175.015	-0.140	-0.004
-152.647	-18.451	0.194	-0.120
-151.633	800.000	0.083	-0.244
-150.618	-63.174	-0.064	-0.026
-149.604	-8.203	0.341	-0.228
-148.589	66.449	-0.080	0.080
-147.574	-136.358	0.028	0.003
-146.560	-193.060	-0.186	-0.002
-145.545	131.041	-0.089	0.113
-144.531	109.642	-0.033	-0.039
-143.516	-200.000	0.039	-0.228
-142.502	209.075	-0.115	0.179
-141.487	800.000	0.158	0.501
-140.472	78.278	0.191	0.202
-139.458	-155.914	0.216	0.014
-138.443	-152.178	0.130	0.009
-137.429	-173.112	0.137	-0.004
-136.414	75.886	0.074	-0.077
-135.399	250.582	-0.078	0.132
-134.385	-200.000	0.027	0.462
-133.370	-200.000	0.028	0.149
-132.356	-200.000	-0.028	0.186
-131.341	650.201	0.023	0.057
-130.326	161.333	-0.093	0.129
-129.312	142.957	-0.257	-0.339
-128.297	347.082	-0.126	0.247
-127.283	66.425	-0.157	0.158
-126.268	-30.679	0.209	-0.117
-125.253	-200.000	0.037	0.404
-124.239	94.227	0.091	-0.103
-123.224	-1.799	-0.214	-0.150
-122.210	-158.652	0.187	0.011
-121.195	-152.879	0.324	-0.023
-120.180	225.251	0.053	0.085
