DTS Sentinel unit serial number:	SN413079Multiplexer serial number:	ORYXHardware model number:	OX4-SRSoftware version number:	ORYX F/W v4.00 Oryx Data Collector v3.7.2.0data status	okinstallation	princeton_trtdifferential loss correction	single-endedforward channel	channel 1reverse channel	N/Adate	2019/09/18time	05:10:35forward acquisition time	60.00reverse acquisition time	0.00gamma	496.2192k internal	0.2338k external	0.2338temperature offset calibration	0.9979default loss term (dB/km)	0.3790temperature slope calibration	1.0000multiplexer offset coefficient	1.0000multiplexer slope coefficient	1.0000fibre end	0.00T internal ref (°C)	23.50T ext. ref 1 (°C)	0.19T ext. ref 2 (°C)	17.50length (m)	temperature (°C)	Stokes	anti-Stokes-747.200	-200.000	0.072	0.393
-746.185	52.669	-0.048	0.046
-745.171	-200.000	-0.004	0.144
-744.156	-169.480	-0.164	-0.006
-743.142	-58.118	-0.078	-0.034
-742.127	138.146	-0.217	0.286
-741.112	-83.618	0.694	0.222
-740.098	-31.570	-0.262	0.148
-739.083	-41.548	0.179	0.092
-738.069	-71.012	-0.100	0.038
-737.054	-200.000	-0.027	0.132
-736.039	-114.916	-0.091	-0.017
-735.025	758.208	-0.119	0.322
-734.010	-25.514	-0.060	-0.035
-732.996	-200.000	0.038	-0.403
-731.981	121.391	0.241	-0.301
-730.966	-32.493	0.204	0.114
-729.952	32.420	-0.151	0.131
-728.937	-200.000	0.029	0.213
-727.923	72.341	0.149	0.156
-726.908	23.133	-0.341	0.280
-725.894	-200.000	-0.020	-0.266
-724.879	800.000	-0.010	-0.042
-723.864	-189.129	-0.165	0.002
-722.850	800.000	-0.056	-0.197
-721.835	-157.285	-0.166	-0.010
-720.821	-200.000	-0.019	0.321
-719.806	360.516	0.122	0.245
-718.791	-17.297	0.102	0.064
-717.777	-116.555	-0.148	-0.027
-716.762	-2.481	0.236	0.166
-715.748	800.000	0.049	-0.177
-714.733	91.023	0.229	0.257
-713.718	-80.648	0.240	-0.080
-712.704	800.000	-0.037	0.151
-711.689	-86.791	-0.252	-0.077
-710.675	-200.000	-0.012	-0.176
-709.660	-30.625	0.391	0.222
-708.645	800.000	0.046	-0.186
-707.631	-98.995	-0.167	0.042
-706.616	-57.149	-0.209	-0.092
-705.602	-153.883	0.267	0.018
-704.587	-76.744	-0.448	-0.157
-703.572	-47.404	0.061	0.030
-702.558	-70.741	-0.257	-0.097
-701.543	-37.993	0.295	0.157
-700.529	-96.844	-0.355	0.093
-699.514	-13.847	0.195	-0.126
-698.499	-6.461	-0.306	0.209
-697.485	-200.000	0.006	-0.146
-696.470	622.000	0.130	0.328
-695.456	-99.299	-0.318	0.080
-694.441	56.423	0.076	0.074
-693.426	-58.756	0.389	0.169
-692.412	-37.402	-0.181	0.097
-691.397	-200.000	-0.008	-0.159
-690.383	-70.910	0.333	0.126
-689.368	-163.393	-0.217	-0.010
-688.354	153.619	-0.088	0.120
-687.339	48.800	-0.077	0.072
-686.324	34.256	-0.192	0.168
-685.310	-33.988	0.188	-0.104
-684.295	-38.453	0.121	0.064
-683.281	-4.498	-0.195	0.135
-682.266	-200.000	-0.050	0.261
-681.251	-122.351	-0.174	0.028
-680.237	324.153	0.163	-0.312
-679.222	-200.000	0.023	0.184
-678.208	-200.000	-0.029	0.391
-677.193	-148.550	-0.191	0.016
-676.178	800.000	0.032	-0.125
-675.164	130.224	-0.145	-0.186
-674.149	-24.885	0.263	0.156
-673.135	19.534	-0.052	-0.042
-672.120	-10.761	0.070	0.047
-671.105	-200.000	-0.036	0.238
-670.091	-5.541	0.185	0.127
-669.076	-200.000	-0.037	0.337
-668.062	91.190	-0.052	0.058
-667.047	800.000	-0.024	0.080
-666.032	-200.000	-0.029	0.156
-665.018	476.721	-0.072	0.163
-664.003	-200.000	-0.050	-0.265
-662.989	193.233	0.085	0.128
-661.974	800.000	0.027	-0.106
-660.959	-47.431	0.133	0.065
-659.945	-105.695	-0.086	0.020
-658.930	-1.665	-0.275	0.194
-657.916	-76.870	-0.133	-0.047
-656.901	199.204	-0.176	-0.269
-655.886	367.865	0.046	0.094
-654.872	49.334	0.123	-0.116
-653.857	800.000	0.091	-0.381
-652.843	800.000	0.013	-0.055
-651.828	336.301	0.114	0.221
-650.814	35.001	-0.149	-0.130
-649.799	1.000	-0.063	0.045
-648.784	2.114	-0.146	-0.105
-647.770	-35.909	0.242	-0.131
-646.755	303.760	0.104	-0.192
-645.741	-111.765	0.461	-0.093
-644.726	-200.000	-0.008	-0.144
-643.711	110.143	-0.143	-0.171
-642.697	-97.074	-0.119	-0.031
-641.682	-110.351	-0.399	-0.083
-640.668	-160.797	-0.252	-0.013
-639.653	-200.000	0.027	-0.444
-638.638	-200.000	0.033	0.259
-637.624	430.139	0.109	-0.235
-636.609	-191.437	-0.186	-0.002
-635.595	102.621	0.079	0.092
-634.580	-82.599	0.183	-0.059
-633.565	-200.000	-0.025	0.218
-632.551	131.266	0.082	0.105
-631.536	99.740	-0.045	-0.052
-630.522	-24.254	-0.326	0.195
-629.507	149.080	0.207	-0.280
-628.492	131.678	0.126	-0.162
-627.478	-118.094	0.046	-0.008
-626.463	-29.692	-0.292	0.166
-625.449	105.542	0.052	-0.061
-624.434	536.158	-0.065	0.154
-623.419	108.249	-0.189	0.225
-622.405	57.194	-0.193	0.188
-621.390	114.902	0.229	-0.279
-620.376	800.000	0.092	-0.261
-619.361	115.822	0.220	0.269
-618.346	-139.975	0.205	0.022
-617.332	-88.333	-0.171	0.051
-616.317	-11.767	0.132	-0.087
-615.303	179.806	-0.104	0.151
-614.288	-200.000	-0.004	-0.197
-613.273	-168.452	-0.067	-0.003
-612.259	-93.773	-0.608	-0.167
-611.244	800.000	0.092	-0.261
-610.230	50.758	-0.060	-0.057
-609.215	310.529	-0.076	-0.142
-608.201	-46.135	-0.192	0.095
-607.186	800.000	-0.039	-0.114
-606.171	430.735	-0.073	0.157
-605.157	-26.200	-0.174	-0.102
-604.142	-115.037	-0.303	-0.057
-603.128	154.611	0.254	-0.348
-602.113	-200.000	-0.041	-0.329
-601.098	-200.000	-0.005	-0.405
-600.084	-90.386	0.195	0.056
-599.069	12.324	-0.130	0.100
-598.055	800.000	-0.046	-0.169
-597.040	240.346	-0.086	-0.144
-596.025	184.508	0.079	-0.116
-595.011	176.279	0.196	0.285
-593.996	-49.769	-0.360	0.171
-592.982	16.079	0.060	0.047
-591.967	-120.414	-0.391	0.066
-590.952	179.610	0.035	-0.052
-589.938	76.447	0.099	0.105
-588.923	146.088	-0.147	-0.197
-587.909	-30.046	0.251	0.142
-586.894	800.000	-0.017	-0.067
-585.879	14.148	0.205	0.159
-584.865	425.022	-0.125	0.267
-583.850	740.984	-0.086	0.231
-582.836	-200.000	0.003	-0.045
-581.821	800.000	-0.085	-0.276
-580.806	-129.628	-0.259	-0.036
-579.792	-200.000	0.006	-0.040
-578.777	-85.513	-0.315	-0.098
-577.763	-200.000	0.003	-0.295
-576.748	196.081	-0.179	-0.272
-575.733	-90.342	-0.147	-0.043
-574.719	-29.120	0.058	-0.033
-573.704	-1.679	0.336	-0.236
-572.690	800.000	0.077	0.229
-571.675	-200.000	0.005	-0.140
-570.661	9.913	-0.172	0.130
-569.646	26.771	0.034	-0.028
-568.631	-200.000	0.077	-0.353
-567.617	597.779	0.133	0.329
-566.602	103.286	0.239	0.279
-565.588	800.000	-0.070	-0.231
-564.573	-56.359	0.181	0.080
-563.558	163.791	-0.079	0.111
-562.544	-83.802	0.151	0.048
-561.529	137.788	0.170	-0.222
-560.515	87.097	0.193	-0.212
-559.500	-18.352	0.194	-0.121
-558.485	-200.000	0.046	-0.217
-557.471	-109.741	0.119	-0.025
-556.456	42.992	0.021	-0.019
-555.442	800.000	-0.065	0.209
-554.427	193.565	0.083	0.125
-553.412	-125.482	0.137	0.021
-552.398	800.000	0.029	-0.107
-551.383	45.703	-0.219	0.201
-550.369	51.705	-0.218	-0.206
-549.354	-200.000	0.008	-0.157
-548.339	6.694	-0.154	-0.114
-547.325	-174.041	-0.129	0.004
-546.310	-200.000	-0.019	0.102
-545.296	-200.000	0.003	0.047
-544.281	-101.044	0.306	-0.075
-543.266	449.083	0.145	-0.319
-542.252	-79.482	0.203	-0.068
-541.237	-200.000	0.005	-0.119
-540.223	-137.806	0.200	0.022
-539.208	-74.673	0.044	-0.016
-538.193	-30.852	0.174	0.098
-537.179	800.000	0.034	0.095
-536.164	-163.899	-0.299	0.014
-535.150	675.658	0.107	0.275
-534.135	392.197	-0.062	-0.129
-533.121	55.899	-0.091	0.088
-532.106	125.035	-0.292	-0.366
-531.091	-200.000	-0.000	-0.451
-530.077	800.000	-0.101	0.314
-529.062	57.272	-0.375	-0.364
-528.048	92.588	0.128	0.143
-527.033	800.000	0.068	-0.198
-526.018	800.000	0.032	0.135
-525.004	800.000	0.074	-0.311
-523.989	63.071	0.155	-0.155
-522.975	-70.175	-0.202	-0.076
-521.960	600.518	0.092	0.227
-520.945	-103.775	0.085	-0.020
-519.931	661.134	0.081	-0.207
-518.916	-200.000	-0.017	-0.101
-517.902	-13.866	-0.045	-0.029
-516.887	-135.842	0.177	0.021
-515.872	800.000	0.036	0.148
-514.858	-26.471	-0.075	-0.044
-513.843	1.203	0.182	-0.130
-512.829	88.554	0.073	-0.080
-511.814	16.728	-0.145	-0.114
-510.799	-200.000	0.043	0.221
-509.785	179.857	0.262	-0.382
-508.770	-83.167	0.084	0.027
-507.756	-200.000	-0.029	0.136
-506.741	143.020	0.147	0.195
-505.726	-200.000	-0.000	-0.193
-504.712	-28.036	-0.304	-0.175
-503.697	101.764	0.182	0.211
-502.683	-23.595	-0.081	-0.048
-501.668	-13.104	0.200	0.129
-500.653	-200.000	0.037	-0.186
-499.639	-49.302	-0.240	0.114
-498.624	-16.011	-0.397	0.251
-497.610	196.637	0.099	0.149
-496.595	-200.000	0.000	0.186
-495.581	-200.000	-0.010	0.081
-494.566	-200.000	-0.001	0.437
-493.551	176.436	-0.093	0.134
-492.537	392.581	0.117	0.242
-491.522	-48.072	0.270	-0.130
-490.508	304.486	-0.092	0.170
-489.493	-15.244	-0.163	0.104
-488.478	-151.891	-0.446	-0.032
-487.464	-200.000	-0.083	0.407
-486.449	-200.000	-0.017	0.210
-485.435	-27.358	0.329	0.190
-484.420	378.065	-0.027	0.055
-483.405	-53.112	-0.132	0.060
-482.391	753.656	-0.027	-0.073
-481.376	-0.123	-0.069	0.049
-480.362	-200.000	0.038	-0.361
-479.347	-166.210	0.061	-0.003
-478.332	-50.085	0.208	-0.098
-477.318	619.242	-0.132	0.328
-476.303	-200.000	-0.024	-0.117
-475.289	-90.963	-0.219	0.063
-474.274	78.668	0.198	0.210
-473.259	-103.746	-0.298	0.069
-472.245	-97.531	-0.287	-0.074
-471.230	-200.000	-0.002	0.164
-470.216	-22.195	0.134	-0.081
-469.201	-200.000	-0.008	0.105
-468.186	112.074	0.243	0.292
-467.172	800.000	-0.050	-0.191
-466.157	-26.201	-0.121	-0.071
-465.143	84.914	-0.219	-0.238
-464.128	-104.673	0.316	0.072
-463.113	65.221	0.157	0.158
-462.099	-200.000	-0.006	0.095
-461.084	657.301	0.108	-0.275
-460.070	156.944	-0.079	-0.108
-459.055	-65.832	-0.081	0.032
-458.040	55.691	-0.090	0.087
-457.026	-4.279	0.307	-0.211
-456.011	36.874	0.154	-0.135
-454.997	800.000	-0.074	-0.222
-453.982	-200.000	-0.017	0.103
-452.968	345.552	-0.068	-0.133
-451.953	245.748	0.093	-0.155
-450.938	-146.960	-0.067	-0.006
-449.924	800.000	0.039	-0.134
-448.909	-132.393	-0.023	0.003
-447.895	-200.000	0.006	-0.045
-446.880	-15.622	-0.120	0.076
-445.865	18.307	0.216	-0.171
-444.851	82.496	0.235	-0.253
-443.836	135.432	-0.244	0.315
-442.822	347.353	-0.088	0.172
-441.807	8.291	-0.105	-0.079
-440.792	-84.743	-0.354	-0.110
-439.778	-17.292	0.286	0.179
-438.763	-200.000	0.025	0.432
-437.749	-200.000	0.024	-0.281
-436.734	62.488	-0.234	0.231
-435.719	300.143	0.101	-0.184
-434.705	303.286	-0.077	-0.141
-433.690	800.000	0.080	0.300
-432.676	126.360	0.139	0.174
-431.661	-143.958	-0.238	-0.022
-430.646	800.000	-0.171	0.687
-429.632	60.949	0.281	-0.277
-428.617	8.620	0.248	0.185
-427.603	291.163	0.013	0.023
-426.588	-106.927	-0.436	-0.096
-425.573	-23.694	0.078	0.047
-424.559	800.000	-0.076	-0.215
-423.544	566.905	-0.080	-0.193
-422.530	800.000	0.095	-0.359
-421.515	766.801	-0.097	-0.261
-420.500	63.295	0.239	-0.238
-419.486	120.154	0.142	0.175
-418.471	-77.855	-0.052	-0.018
-417.457	800.000	-0.025	0.104
-416.442	-132.124	0.469	0.060
-415.428	33.268	-0.079	0.068
-414.413	180.175	0.086	0.125
-413.398	130.497	0.068	0.086
-412.384	-67.730	0.177	0.068
-411.369	82.757	-0.200	-0.215
-410.355	800.000	-0.061	0.181
-409.340	161.921	0.086	0.119
-408.325	-10.336	-0.033	-0.022
-407.311	-200.000	-0.010	0.115
-406.296	78.048	-0.182	0.192
-405.282	175.410	0.083	-0.119
-404.267	401.739	-0.160	0.333
-403.252	223.152	0.056	-0.090
-402.238	-200.000	-0.015	-0.149
-401.223	-51.703	-0.264	0.122
-400.209	9.105	-0.372	0.278
-399.194	42.344	-0.287	0.258
-398.179	-200.000	-0.028	-0.298
-397.165	-200.000	0.075	0.460
-396.150	-32.674	0.069	0.038
-395.136	-121.264	0.114	-0.019
-394.121	125.678	-0.180	0.226
-393.106	-178.648	0.250	0.006
-392.092	-200.000	-0.020	0.139
-391.077	-100.723	-0.217	0.053
-390.063	-81.927	-0.271	-0.088
-389.048	-44.230	0.095	-0.047
-388.033	800.000	-0.085	-0.299
-387.019	61.005	-0.119	0.117
-386.004	-88.581	-0.237	-0.070
-384.990	255.459	0.120	0.203
-383.975	348.537	0.072	0.141
-382.960	-31.244	-0.336	-0.187
-381.946	300.295	0.139	-0.254
-380.931	-85.979	-0.169	0.052
-379.917	33.075	-0.021	-0.018
-378.902	105.527	-0.046	-0.054
-377.888	130.089	-0.155	-0.197
-376.873	-6.352	-0.168	-0.114
-375.858	800.000	-0.065	-0.274
-374.844	-28.702	0.196	-0.112
-373.829	-200.000	-0.025	-0.483
-372.815	-17.752	0.256	0.159
-371.800	-160.311	-0.024	0.001
-370.785	-44.145	0.149	0.074
-369.771	44.709	-0.279	0.253
-368.756	-51.207	-0.216	-0.100
-367.742	800.000	0.040	0.171
-366.727	45.491	-0.222	0.203
-365.712	-145.411	0.099	-0.009
-364.698	193.202	0.082	0.122
-363.683	800.000	0.099	0.323
-362.669	-45.789	0.118	0.058
-361.654	311.678	0.218	0.404
-360.639	74.241	0.184	0.191
-359.625	236.636	-0.036	0.059
-358.610	-54.804	-0.237	0.106
-357.596	-200.000	-0.011	0.334
-356.581	-86.775	-0.387	0.117
-355.566	3.559	-0.113	0.082
-354.552	800.000	0.084	0.260
-353.537	-29.042	0.350	0.198
-352.523	-200.000	-0.027	0.142
-351.508	37.131	-0.244	0.214
-350.493	-11.861	0.065	0.042
-349.479	510.118	-0.116	0.266
-348.464	243.190	0.141	-0.233
-347.450	-104.060	-0.202	-0.046
-346.435	415.290	0.055	-0.117
-345.420	-140.945	0.246	-0.025
-344.406	-141.118	-0.248	-0.025
-343.391	363.328	-0.081	-0.161
-342.377	188.631	0.144	-0.213
-341.362	-200.000	0.010	-0.105
-340.348	443.412	-0.042	0.091
-339.333	266.450	-0.055	-0.094
-338.318	-143.497	0.178	0.017
-337.304	800.000	-0.107	0.310
-336.289	692.129	0.049	-0.126
-335.275	-98.973	0.350	-0.088
-334.260	-158.069	0.144	0.008
-333.245	78.732	0.093	-0.098
-332.231	31.080	-0.277	-0.234
-331.216	178.677	0.163	0.235
-330.202	28.910	0.108	0.090
-329.187	-116.144	0.379	0.070
-328.172	800.000	0.067	0.196
-327.158	-151.408	-0.221	-0.016
-326.143	-40.373	0.239	-0.122
-325.129	-111.980	-0.161	0.032
-324.114	-89.571	-0.249	0.072
-323.099	-145.936	-0.218	-0.019
-322.085	-200.000	-0.009	-0.237
-321.070	178.764	0.190	-0.274
-320.056	-107.758	-0.280	-0.060
-319.041	-200.000	0.012	-0.297
-318.026	-162.754	-0.121	0.006
-317.012	1.428	-0.282	-0.200
-315.997	-28.433	0.113	0.064
-314.983	800.000	0.014	0.045
-313.968	-200.000	0.018	-0.116
-312.953	35.413	-0.333	-0.288
-311.939	-200.000	0.005	0.062
-310.924	-200.000	0.034	-0.159
-309.910	-78.045	0.345	-0.117
-308.895	22.469	0.150	-0.121
-307.880	282.592	-0.043	-0.076
-306.866	128.444	0.132	0.165
-305.851	-32.162	-0.389	0.214
-304.837	-200.000	0.020	0.251
-303.822	-176.008	0.496	0.013
-302.807	-23.863	-0.071	0.042
-301.793	-173.579	-0.324	-0.010
-300.778	325.943	0.039	0.074
-299.764	800.000	-0.048	0.169
-298.749	-200.000	-0.035	0.155
-297.735	324.134	-0.081	-0.152
-296.720	-200.000	-0.028	-0.162
-295.705	-83.232	0.129	0.041
-294.691	-12.946	-0.232	-0.149
-293.676	290.636	0.104	0.186
-292.662	-11.936	-0.164	-0.106
-291.647	1.087	0.191	-0.135
-290.632	41.361	0.201	-0.179
-289.618	-112.514	-0.244	0.048
-288.603	-50.022	-0.301	-0.141
-287.589	183.013	-0.124	0.180
-286.574	-24.254	0.098	0.058
-285.559	800.000	0.043	-0.177
-284.545	-110.717	-0.353	0.072
-283.530	800.000	0.100	0.336
-282.516	376.008	0.171	-0.344
-281.501	542.123	-0.042	-0.098
-280.486	165.750	0.172	0.240
-279.472	471.598	0.108	-0.240
-278.457	-101.047	-0.195	-0.047
-277.443	63.200	0.115	0.114
-276.428	101.663	-0.151	0.173
-275.413	-13.508	0.116	-0.074
-274.399	800.000	-0.112	-0.352
-273.384	-34.949	-0.025	-0.013
-272.370	800.000	-0.060	0.231
-271.355	800.000	0.070	-0.260
-270.340	800.000	0.078	-0.243
-269.326	-62.124	0.247	0.102
-268.311	800.000	-0.111	0.448
-267.297	800.000	0.046	-0.185
-266.282	-102.643	-0.058	-0.014
-265.267	27.006	0.203	-0.167
-264.253	259.274	-0.114	-0.195
-263.238	-200.000	-0.006	-0.143
-262.224	-79.759	-0.217	0.072
-261.209	-200.000	0.049	0.231
-260.195	194.472	0.134	-0.200
-259.180	-200.000	-0.066	0.291
-258.165	-200.000	-0.023	0.263
-257.151	-73.700	0.280	-0.100
-256.136	96.382	-0.090	0.102
-255.122	-67.700	0.245	-0.094
-254.107	-200.000	0.001	-0.102
-253.092	-200.000	-0.020	0.287
-252.078	-23.077	-0.267	0.158
-251.063	800.000	-0.061	-0.168
-250.049	-103.413	-0.087	-0.020
-249.034	276.306	-0.168	0.294
-248.019	30.135	0.165	-0.138
-247.005	-48.860	-0.159	0.075
-245.990	-200.000	0.048	-0.304
-244.976	-70.393	-0.252	0.094
-243.961	107.530	0.071	0.083
-242.946	-200.000	-0.030	0.402
-241.932	-116.913	0.329	0.059
-240.917	-37.379	-0.224	0.118
-239.903	105.589	-0.251	0.292
-238.888	-138.011	0.134	-0.015
-237.873	669.320	-0.101	0.256
-236.859	-200.000	0.003	0.051
-235.844	-48.561	0.217	0.103
-234.830	320.520	-0.069	-0.128
-233.815	-22.910	-0.145	-0.086
-232.800	135.554	0.217	-0.277
-231.786	225.936	0.089	0.143
-230.771	-174.680	0.119	0.003
-229.757	10.025	0.221	0.165
-228.742	26.450	0.370	0.304
-227.727	-24.919	0.250	-0.146
-226.713	-200.000	-0.065	-0.315
-225.698	-140.849	0.043	0.004
-224.684	800.000	0.039	-0.161
-223.669	-79.226	-0.085	-0.028
-222.655	-200.000	0.092	-0.449
-221.640	-139.882	-0.351	-0.037
-220.625	128.977	-0.189	0.237
-219.611	-148.801	-0.059	0.005
-218.596	-45.744	-0.259	-0.126
-217.582	663.423	-0.059	0.150
-216.567	-23.498	-0.206	0.121
-215.552	299.709	0.119	-0.215
-214.538	-89.734	-0.167	0.048
-213.523	223.842	0.201	0.319
-212.509	-200.000	-0.010	-0.050
-211.494	-157.049	0.278	-0.017
-210.479	108.482	0.275	0.323
-209.465	-47.353	-0.297	0.142
-208.450	-56.525	0.122	0.053
-207.436	-50.684	0.373	0.173
-206.421	-129.093	0.096	0.013
-205.406	-140.643	0.143	-0.015
-204.392	337.385	-0.153	-0.291
-203.377	-36.743	0.157	-0.083
-202.363	-17.210	0.238	-0.148
-201.348	5.011	-0.136	0.098
-200.333	-48.054	0.225	0.107
-199.319	-200.000	0.047	-0.295
-198.304	-200.000	0.005	0.046
-197.290	800.000	0.123	0.365
-196.275	-139.745	-0.225	0.023
-195.260	3.525	0.369	-0.264
-194.246	228.176	0.165	0.265
-193.231	31.397	0.039	0.033
-192.217	-200.000	-0.016	0.115
-191.202	79.136	0.099	0.104
-190.187	-200.000	-0.037	-0.201
-189.173	-200.000	-0.058	0.364
-188.158	800.000	-0.088	0.248
-187.144	272.082	0.164	0.284
-186.129	570.491	0.123	0.293
-185.114	-61.481	0.194	0.080
-184.100	203.193	-0.109	-0.165
-183.085	-200.000	-0.010	0.059
-182.071	-128.241	0.174	0.024
-181.056	-87.139	-0.277	0.083
-180.042	21.399	0.310	-0.247
-179.027	-79.511	0.143	0.048
-178.012	-127.135	0.245	0.035
-176.998	150.707	-0.135	0.180
-175.983	-176.859	0.169	0.004
-174.969	800.000	0.087	-0.293
-173.954	-56.315	0.184	-0.080
-172.939	156.674	-0.047	-0.063
-171.925	-142.605	0.176	-0.017
-170.910	148.639	0.313	-0.416
-169.896	-38.627	0.035	0.018
-168.881	90.246	0.228	-0.250
-167.866	106.870	0.232	0.270
-166.852	4.638	-0.149	-0.107
-165.837	-71.579	-0.277	-0.102
-164.823	800.000	0.086	-0.315
-163.808	800.000	0.046	-0.136
-162.793	-98.830	-0.204	0.051
-161.779	800.000	0.027	0.074
-160.764	58.458	-0.124	-0.119
-159.750	-200.000	-0.000	0.087
-158.735	-98.082	0.069	0.017
-157.720	-129.335	-0.346	-0.047
-156.706	-200.000	-0.031	0.216
-155.691	-200.000	0.035	-0.213
-154.677	82.835	0.231	0.246
-153.662	-159.537	-0.122	-0.007
-152.647	586.504	0.094	-0.226
-151.633	-86.372	0.051	-0.016
-150.618	-119.935	-0.112	-0.019
-149.604	-97.537	-0.136	-0.035
-148.589	-30.344	-0.168	0.093
-147.574	-147.461	0.083	0.007
-146.560	-200.000	-0.020	0.137
-145.545	243.289	0.031	0.051
-144.531	-200.000	-0.000	0.152
-143.516	-67.837	0.069	0.027
-142.502	15.312	-0.079	-0.060
-141.487	-200.000	0.014	0.120
-140.472	-200.000	-0.013	-0.078
-139.458	-200.000	0.017	0.129
-138.443	54.894	-0.286	0.270
-137.429	-47.378	0.190	0.090
-136.414	-69.241	0.422	0.159
-135.399	763.096	-0.017	0.045
-134.385	75.185	0.258	-0.266
-133.370	-103.076	-0.177	0.041
-132.356	0.466	0.228	0.160
-131.341	69.427	0.168	-0.169
-130.326	625.301	-0.095	-0.234
-129.312	-172.565	0.294	0.009
-128.297	209.998	-0.103	0.158
-127.283	68.362	-0.359	-0.360
-126.268	800.000	0.159	0.453
-125.253	-25.184	0.222	0.129
-124.239	5.816	0.142	-0.103
-123.224	133.616	0.135	-0.171
-122.210	109.090	0.164	0.192
-121.195	-159.863	0.222	0.012
