DTS Sentinel unit serial number:	SN413079Multiplexer serial number:	ORYXHardware model number:	OX4-SRSoftware version number:	ORYX F/W v4.00 Oryx Data Collector v3.7.2.0data status	okinstallation	princeton_trtdifferential loss correction	single-endedforward channel	channel 1reverse channel	N/Adate	2019/09/18time	10:50:35forward acquisition time	60.00reverse acquisition time	0.00gamma	496.2192k internal	0.2326k external	0.2326temperature offset calibration	0.9973default loss term (dB/km)	0.3790temperature slope calibration	1.0000multiplexer offset coefficient	1.0000multiplexer slope coefficient	1.0000fibre end	0.00T internal ref (°C)	29.02T ext. ref 1 (°C)	0.38T ext. ref 2 (°C)	25.39length (m)	temperature (°C)	Stokes	anti-Stokes-747.200	257.576	-0.086	0.150
-746.185	18.272	0.123	-0.099
-745.171	532.161	0.115	0.274
-744.156	108.103	-0.166	0.199
-743.142	-30.915	-0.232	-0.132
-742.127	-15.292	0.174	-0.112
-741.112	-151.938	0.055	0.004
-740.098	-189.870	0.479	0.005
-739.083	33.013	0.195	0.170
-738.069	800.000	-0.042	-0.149
-737.054	-200.000	-0.234	-0.000
-736.039	-200.000	0.011	-0.069
-735.025	113.087	-0.243	0.297
-734.010	-200.000	-0.070	0.353
-732.996	234.429	-0.156	0.259
-731.981	-104.597	-0.295	0.069
-730.966	97.792	-0.172	-0.199
-729.952	-63.758	-0.218	-0.090
-728.937	48.286	-0.160	-0.151
-727.923	58.574	-0.114	0.113
-726.908	106.454	0.142	-0.170
-725.894	-200.000	0.026	0.360
-724.879	25.010	-0.166	0.139
-723.864	-57.444	-0.156	-0.069
-722.850	471.277	0.063	-0.142
-721.835	528.517	-0.033	0.078
-720.821	-200.000	-0.024	-0.206
-719.806	-110.675	0.188	-0.039
-718.791	800.000	0.009	-0.033
-717.777	-117.375	0.081	0.015
-716.762	-200.000	-0.171	-0.000
-715.748	664.394	0.091	-0.237
-714.733	-200.000	-0.019	0.290
-713.718	-200.000	0.011	-0.083
-712.704	-68.348	-0.245	-0.096
-711.689	-134.039	-0.012	0.001
-710.675	712.352	0.040	0.106
-709.660	-120.224	-0.173	0.030
-708.645	487.581	0.068	0.157
-707.631	-200.000	-0.023	-0.143
-706.616	69.096	0.255	0.264
-705.602	197.755	0.159	0.245
-704.587	800.000	0.069	0.214
-703.572	170.659	-0.073	-0.105
-702.558	239.931	-0.085	-0.143
-701.543	588.402	-0.147	-0.364
-700.529	-147.874	-0.282	-0.024
-699.514	120.949	-0.069	0.087
-698.499	-200.000	-0.022	-0.110
-697.485	-180.630	-0.051	-0.001
-696.470	736.167	0.031	0.084
-695.456	800.000	-0.112	0.315
-694.441	800.000	0.039	0.162
-693.426	271.436	-0.003	0.006
-692.412	183.430	0.052	0.077
-691.397	342.909	0.121	0.238
-690.383	-38.274	-0.115	-0.061
-689.368	-65.554	0.278	0.112
-688.354	-65.439	-0.061	0.025
-687.339	13.382	0.082	0.064
-686.324	800.000	-0.080	-0.324
-685.310	-36.936	0.318	0.171
-684.295	396.880	-0.058	-0.123
-683.281	2.949	-0.273	-0.200
-682.266	285.232	0.086	-0.155
-681.251	-200.000	-0.002	-0.164
-680.237	-200.000	-0.054	0.258
-679.222	566.494	-0.084	0.206
-678.208	154.710	-0.145	-0.201
-677.193	-83.511	-0.302	-0.097
-676.178	800.000	0.087	0.317
-675.164	-123.037	-0.353	0.057
-674.149	-75.554	0.245	-0.088
-673.135	-73.886	0.100	-0.037
-672.120	-86.406	0.446	-0.138
-671.105	-145.040	-0.250	-0.023
-670.091	-75.215	0.041	-0.015
-669.076	129.685	-0.026	0.034
-668.062	15.340	0.219	-0.173
-667.047	-32.699	-0.217	0.121
-666.032	44.480	-0.156	-0.144
-665.018	-175.955	0.106	-0.003
-664.003	722.517	-0.057	-0.153
-662.989	-73.010	0.229	0.085
-661.974	-163.326	0.054	-0.003
-660.959	-74.213	-0.148	0.054
-659.945	800.000	-0.069	0.252
-658.930	14.261	0.040	-0.031
-657.916	11.264	-0.036	0.028
-656.901	800.000	-0.060	0.195
-655.886	800.000	-0.095	-0.380
-654.872	-200.000	-0.003	-0.231
-653.857	439.772	-0.046	0.100
-652.843	-1.031	0.178	0.126
-651.828	-200.000	-0.077	-0.362
-650.814	800.000	0.018	-0.078
-649.799	-11.656	0.030	-0.020
-648.784	-200.000	-0.020	0.133
-647.770	279.928	-0.168	0.302
-646.755	-104.121	-0.218	0.051
-645.741	800.000	0.084	-0.283
-644.726	30.595	0.096	-0.082
-643.711	800.000	0.017	-0.057
-642.697	-52.227	-0.129	-0.060
-641.682	-40.255	0.324	0.169
-640.668	33.647	0.185	-0.161
-639.653	800.000	-0.079	-0.228
-638.638	-200.000	0.001	-0.252
-637.624	166.030	-0.239	-0.339
-636.609	800.000	-0.039	0.161
-635.595	-148.910	-0.190	-0.015
-634.580	-200.000	-0.004	0.256
-633.565	-6.011	-0.110	-0.075
-632.551	-9.675	-0.302	0.202
-631.536	-123.858	-0.149	-0.024
-630.522	74.903	-0.145	0.153
-629.507	-83.812	0.210	0.067
-628.492	510.750	0.062	0.145
-627.478	192.696	-0.125	0.189
-626.463	-200.000	-0.012	0.179
-625.449	-133.815	-0.147	-0.018
-624.434	369.564	0.020	-0.040
-623.419	296.127	-0.148	-0.272
-622.405	-26.309	0.266	-0.157
-621.390	208.027	-0.027	0.043
-620.376	800.000	0.148	0.477
-619.361	800.000	0.007	0.024
-618.346	-111.177	0.081	-0.017
-617.332	-89.053	0.126	0.037
-616.317	185.858	0.204	-0.305
-615.303	-121.567	-0.244	0.041
-614.288	561.849	0.034	0.084
-613.273	-158.221	-0.250	-0.015
-612.259	800.000	-0.041	0.168
-611.244	155.017	0.205	-0.283
-610.230	-130.498	-0.492	-0.067
-609.215	51.996	-0.350	-0.335
-608.201	-87.961	-0.234	0.070
-607.186	-96.749	-0.133	-0.035
-606.171	-73.669	-0.492	0.180
-605.157	-118.688	0.055	0.010
-604.142	-87.134	0.025	-0.008
-603.128	-137.136	0.296	-0.034
-602.113	-50.608	-0.180	0.085
-601.098	28.674	0.082	0.070
-600.084	-94.143	-0.228	0.063
-599.069	87.503	0.400	0.444
-598.055	110.067	-0.030	-0.036
-597.040	-200.000	0.024	-0.309
-596.025	64.760	-0.130	-0.131
-595.011	800.000	0.013	-0.052
-593.996	-200.000	0.006	0.143
-592.982	-140.529	-0.535	-0.056
-591.967	-73.224	-0.059	0.022
-590.952	-132.522	0.156	-0.020
-589.938	-200.000	-0.049	0.264
-588.923	223.643	-0.157	-0.254
-587.909	-50.944	0.280	0.132
-586.894	10.702	0.049	0.037
-585.879	-170.592	0.273	0.009
-584.865	-150.212	-0.321	0.025
-583.850	-26.685	0.164	-0.096
-582.836	-200.000	-0.020	-0.141
-581.821	800.000	-0.079	-0.233
-580.806	17.778	0.296	-0.236
-579.792	282.670	-0.120	-0.216
-578.777	-126.686	-0.152	0.022
-577.763	800.000	0.036	-0.153
-576.748	-200.000	-0.008	0.070
-575.733	433.485	-0.145	-0.316
-574.719	-51.769	-0.079	0.037
-573.704	-89.158	-0.081	-0.024
-572.690	800.000	0.088	0.318
-571.675	115.886	-0.095	0.116
-570.661	35.655	-0.202	-0.178
-569.646	46.454	-0.157	-0.146
-568.631	-24.144	0.315	-0.188
-567.617	-81.131	0.278	-0.092
-566.602	800.000	0.015	-0.050
-565.588	-30.286	-0.391	-0.223
-564.573	-200.000	0.032	-0.174
-563.558	-50.841	0.036	0.017
-562.544	33.760	-0.190	-0.166
-561.529	-200.000	0.019	-0.317
-560.515	18.489	-0.078	-0.063
-559.500	2.957	-0.112	0.081
-558.485	95.460	-0.052	-0.060
-557.471	-78.976	-0.419	0.143
-556.456	-84.023	0.133	0.042
-555.442	59.392	0.121	0.119
-554.427	333.385	0.099	-0.191
-553.412	324.330	-0.218	-0.416
-552.398	-200.000	0.006	-0.358
-551.383	-56.066	-0.057	-0.026
-550.369	800.000	-0.061	-0.209
-549.354	105.691	0.122	0.145
-548.339	-24.252	0.341	-0.204
-547.325	184.102	-0.225	-0.333
-546.310	5.940	-0.330	0.245
-545.296	21.500	0.059	0.048
-544.281	800.000	-0.004	-0.019
-543.266	-200.000	0.028	-0.221
-542.252	-91.533	0.192	0.055
-541.237	748.325	-0.120	0.324
-540.223	-91.175	-0.219	0.063
-539.208	127.703	-0.115	-0.146
-538.193	-65.303	0.145	0.058
-537.179	341.771	-0.041	0.080
-536.164	-200.000	0.031	0.225
-535.150	800.000	0.067	-0.280
-534.135	-96.379	-0.146	-0.039
-533.121	-200.000	-0.037	0.501
-532.106	57.130	-0.448	0.437
-531.091	800.000	0.031	0.137
-530.077	-168.462	-0.091	0.003
-529.062	-99.103	-0.273	0.069
-528.048	-139.608	0.029	-0.003
-527.033	-63.828	-0.259	0.106
-526.018	151.936	-0.151	0.206
-525.004	-118.758	0.052	-0.009
-523.989	321.190	0.015	-0.029
-522.975	-75.154	-0.143	0.051
-521.960	272.275	0.028	0.049
-520.945	96.063	0.276	0.316
-519.931	800.000	0.047	0.134
-518.916	135.991	0.261	-0.340
-517.902	182.595	-0.240	-0.353
-516.887	278.210	0.109	0.194
-515.872	-36.495	0.318	-0.171
-514.858	262.068	-0.178	-0.308
-513.843	590.806	0.061	-0.151
-512.829	800.000	-0.031	-0.133
-511.814	-200.000	-0.002	0.251
-510.799	-146.244	0.329	-0.029
-509.785	-119.797	0.156	-0.027
-508.770	81.488	0.093	-0.100
-507.756	91.285	0.311	-0.349
-506.741	94.676	-0.099	0.113
-505.726	800.000	0.068	-0.227
-504.712	673.246	0.144	-0.372
-503.697	71.483	-0.298	-0.309
-502.683	-174.724	-0.398	0.011
-501.668	60.652	-0.120	-0.119
-500.653	-112.013	-0.159	-0.032
-499.639	800.000	0.036	0.105
-498.624	-25.881	-0.092	-0.054
-497.610	-200.000	-0.031	-0.323
-496.595	-150.891	-0.322	0.024
-495.581	-200.000	0.000	-0.164
-494.566	-27.017	0.156	0.091
-493.551	-86.616	0.191	-0.059
-492.537	48.034	-0.196	-0.183
-491.522	-118.529	0.263	0.047
-490.508	62.756	0.335	0.335
-489.493	125.433	-0.070	0.088
-488.478	-200.000	-0.003	0.159
-487.464	-38.017	0.049	0.026
-486.449	-28.877	-0.084	-0.048
-485.435	-200.000	-0.099	0.529
-484.420	800.000	-0.033	-0.129
-483.405	-92.065	0.245	0.069
-482.391	250.630	0.035	-0.059
-481.376	800.000	-0.057	0.165
-480.362	218.092	-0.244	0.389
-479.347	800.000	-0.028	0.090
-478.332	-200.000	-0.002	0.096
-477.318	361.092	0.020	-0.040
-476.303	-79.811	0.152	0.051
-475.289	-165.749	0.122	-0.005
-474.274	-200.000	-0.021	-0.115
-473.259	-63.222	-0.145	0.060
-472.245	524.908	0.083	0.194
-471.230	-43.190	0.322	-0.163
-470.216	389.871	0.207	-0.429
-469.201	-136.289	0.141	0.016
-468.186	91.873	0.094	-0.105
-467.172	-178.945	-0.517	-0.012
-466.157	-200.000	0.001	-0.244
-465.143	-122.043	-0.371	-0.061
-464.128	172.114	0.172	-0.247
-463.113	655.474	-0.026	0.066
-462.099	800.000	0.038	-0.156
-461.084	-60.943	0.224	0.094
-460.070	-122.332	-0.501	-0.082
-459.055	183.154	0.046	0.068
-458.040	-200.000	-0.030	-0.154
-457.026	217.965	0.050	0.080
-456.011	-97.606	0.191	-0.049
-454.997	800.000	0.075	0.283
-453.982	-75.285	0.076	-0.027
-452.968	-200.000	0.006	0.455
-451.953	307.022	-0.168	-0.313
-450.938	-29.545	-0.140	0.080
-449.924	-125.173	0.481	0.073
-448.909	-45.947	0.074	0.037
-447.895	459.155	-0.037	-0.082
-446.880	83.461	0.071	0.077
-445.865	-91.428	-0.201	0.057
-444.851	51.689	0.281	0.267
-443.836	800.000	-0.075	0.316
-442.822	37.137	-0.084	0.074
-441.807	-200.000	-0.036	0.210
-440.792	-70.947	-0.199	-0.075
-439.778	61.857	0.226	0.224
-438.763	125.540	-0.143	0.180
-437.749	800.000	0.061	-0.207
-436.734	-5.683	-0.138	0.094
-435.719	800.000	-0.056	-0.160
-434.705	-84.538	0.187	-0.059
-433.690	800.000	0.024	-0.075
-432.676	-110.438	-0.226	0.047
-431.661	-30.968	0.097	0.055
-430.646	-200.000	-0.021	-0.185
-429.632	-4.069	-0.030	0.021
-428.617	35.570	-0.243	-0.213
-427.603	-155.171	-0.020	0.001
-426.588	-104.807	0.233	-0.053
-425.573	-200.000	-0.053	-0.288
-424.559	319.718	-0.163	-0.307
-423.544	105.152	-0.164	-0.193
-422.530	154.990	-0.131	-0.179
-421.515	132.780	-0.039	-0.050
-420.500	4.856	0.128	0.094
-419.486	-111.917	0.190	0.038
-418.471	-200.000	0.013	-0.457
-417.457	-15.679	-0.165	-0.105
-416.442	-2.715	-0.073	-0.051
-415.428	28.181	0.139	-0.117
-414.413	-200.000	-0.025	-0.276
-413.398	269.165	-0.105	-0.183
-412.384	51.254	-0.191	0.181
-411.369	800.000	-0.032	-0.091
-410.355	800.000	-0.048	0.133
-409.340	131.145	0.234	-0.299
-408.325	-200.000	-0.000	-0.174
-407.311	-132.440	-0.099	-0.013
-406.296	-14.731	-0.201	-0.129
-405.282	649.808	-0.049	-0.125
-404.267	-109.649	0.022	0.005
-403.252	114.129	0.159	-0.192
-402.238	78.558	-0.149	-0.159
-401.223	-18.212	0.232	-0.145
-400.209	-77.211	-0.128	0.044
-399.194	-77.651	0.065	-0.022
-398.179	-200.000	-0.055	-0.267
-397.165	40.437	-0.151	-0.135
-396.150	-131.044	0.248	-0.033
-395.136	86.902	0.041	0.045
-394.121	-28.250	0.110	-0.063
-393.106	178.724	-0.268	-0.389
-392.092	7.802	-0.055	-0.041
-391.077	117.128	0.291	0.356
-390.063	-57.961	-0.171	0.074
-389.048	139.026	0.077	0.100
-388.033	-89.531	-0.294	0.086
-387.019	11.781	0.078	-0.060
-386.004	160.494	0.110	-0.153
-384.990	-119.709	-0.347	0.060
-383.975	-130.939	0.332	-0.044
-382.960	-200.000	0.001	0.270
-381.946	800.000	0.093	-0.331
-380.931	79.116	0.309	-0.329
-379.917	-44.947	-0.149	0.074
-378.902	-136.813	0.218	-0.025
-377.888	-150.162	-0.153	-0.012
-376.873	-180.210	-0.221	-0.005
-375.858	458.290	-0.085	0.188
-374.844	-200.000	-0.009	-0.178
-373.829	118.878	0.212	-0.260
-372.815	181.721	-0.205	-0.300
-371.800	-82.242	-0.211	-0.068
-370.785	-25.909	-0.180	0.105
-369.771	-140.048	0.053	0.006
-368.756	-47.066	0.176	-0.085
-367.742	-200.000	0.004	0.098
-366.727	800.000	-0.012	0.047
-365.712	-52.548	0.153	-0.070
-364.698	471.334	0.150	-0.336
-363.683	-145.762	0.373	-0.033
-362.669	-107.666	-0.282	-0.061
-361.654	-153.300	0.175	-0.012
-360.639	-200.000	-0.011	0.118
-359.625	109.374	0.162	-0.192
-358.610	97.996	0.037	-0.042
-357.596	-102.775	-0.062	0.015
-356.581	634.397	0.064	-0.162
-355.566	-200.000	-0.023	-0.169
-354.552	95.376	-0.138	-0.157
-353.537	-200.000	-0.079	0.407
-352.523	800.000	0.043	-0.135
-351.508	-136.164	-0.313	0.036
-350.493	-200.000	-0.013	0.343
-349.479	-93.567	0.081	-0.022
-348.464	64.047	-0.138	0.138
-347.450	-200.000	-0.039	0.257
-346.435	-186.082	-0.328	-0.005
-345.420	35.961	-0.068	-0.060
-344.406	-12.306	-0.134	0.087
-343.391	-144.044	-0.304	0.028
-342.377	-39.104	0.077	0.040
-341.362	-147.998	0.168	0.014
-340.348	-200.000	-0.000	-0.174
-339.333	21.730	0.302	0.244
-338.318	5.405	0.161	0.118
-337.304	-87.332	0.061	-0.018
-336.289	146.915	-0.140	-0.187
-335.275	-2.156	0.174	-0.121
-334.260	-200.000	-0.017	0.175
-333.245	61.252	-0.118	0.117
-332.231	-52.485	-0.318	0.146
-331.216	-0.432	-0.221	0.156
-330.202	-46.332	0.182	0.089
-329.187	-86.495	-0.045	-0.014
-328.172	-97.110	-0.308	0.080
-327.158	-21.513	-0.161	-0.098
-326.143	26.641	0.110	0.091
-325.129	-200.000	-0.028	0.213
-324.114	-200.000	-0.027	-0.141
-323.099	115.575	0.145	0.176
-322.085	-14.983	0.373	0.237
-321.070	-200.000	-0.050	0.231
-320.056	-200.000	-0.036	0.357
-319.041	-200.000	-0.009	0.283
-318.026	204.141	-0.112	-0.173
-317.012	-123.994	0.110	-0.017
-315.997	-86.681	-0.270	-0.082
-314.983	130.180	-0.076	-0.097
-313.968	11.032	0.026	0.020
-312.953	-117.496	0.251	0.045
-311.939	-80.315	0.088	0.029
-310.924	-139.522	0.375	0.040
-309.910	-200.000	0.033	-0.177
-308.895	146.690	-0.241	0.321
-307.880	106.041	0.101	0.118
-306.866	-159.623	-0.185	0.010
-305.851	-127.246	-0.140	0.020
-304.837	88.226	0.083	-0.092
-303.822	127.129	-0.249	-0.314
-302.807	800.000	-0.047	0.140
-301.793	-200.000	0.009	0.094
-300.778	375.635	0.162	-0.327
-299.764	-200.000	0.027	-0.163
-298.749	370.124	0.135	0.270
-297.735	4.588	0.130	-0.095
-296.720	-55.412	-0.088	0.039
-295.705	470.786	0.009	-0.019
-294.691	-200.000	0.000	0.137
-293.676	6.736	0.080	0.059
-292.662	18.515	-0.228	0.180
-291.647	800.000	0.117	0.426
-290.632	33.424	0.040	-0.035
-289.618	13.368	-0.111	0.086
-288.603	223.525	-0.089	0.142
-287.589	290.605	-0.192	-0.346
-286.574	800.000	0.122	-0.351
-285.559	-200.000	0.056	0.320
-284.545	72.950	0.010	-0.010
-283.530	77.273	-0.070	-0.074
-282.516	800.000	-0.055	0.193
-281.501	68.634	-0.184	0.187
-280.486	229.948	0.128	0.206
-279.472	-200.000	0.045	-0.214
-278.457	-7.123	0.181	-0.122
-277.443	278.257	0.115	0.203
-276.428	-200.000	0.025	0.296
-275.413	14.754	-0.252	0.195
-274.399	-200.000	-0.006	-0.136
-273.384	800.000	0.062	0.173
-272.370	130.430	0.212	-0.270
-271.355	-56.161	0.352	0.155
-270.340	-109.218	0.202	0.042
-269.326	-4.656	0.098	0.067
-268.311	434.582	0.062	-0.133
-267.297	-200.000	0.005	-0.247
-266.282	-65.449	0.209	-0.083
-265.267	2.052	0.221	0.158
-264.253	173.581	-0.165	-0.236
-263.238	-200.000	-0.044	-0.320
-262.224	32.396	-0.301	-0.258
-261.209	229.177	-0.053	0.085
-260.195	241.444	0.115	0.190
-259.180	-200.000	0.006	0.139
-258.165	479.630	-0.162	-0.362
-257.151	-171.456	-0.136	-0.004
-256.136	-200.000	-0.042	0.351
-255.122	5.228	-0.144	0.105
-254.107	222.449	-0.058	0.092
-253.092	-200.000	0.022	0.146
-252.078	-13.521	0.289	0.185
-251.063	47.028	-0.180	-0.166
-250.049	-200.000	0.025	0.132
-249.034	248.030	0.151	0.252
-248.019	319.442	-0.123	-0.231
-247.005	-119.668	-0.157	-0.027
-245.990	-83.346	-0.167	0.053
-244.976	-5.046	0.104	0.071
-243.961	-30.311	-0.178	0.100
-242.946	65.344	-0.071	-0.071
-241.932	146.999	0.109	-0.145
-240.917	19.509	-0.177	0.141
-239.903	-116.331	0.237	-0.043
-238.888	-56.888	0.295	-0.129
-237.873	-53.520	0.200	-0.090
-236.859	-76.843	0.185	0.064
-235.844	-89.567	0.169	-0.049
-234.830	516.932	0.086	-0.199
-233.815	222.668	-0.352	0.561
-232.800	-117.809	-0.464	-0.082
-231.786	-200.000	0.034	0.187
-230.771	190.758	0.133	0.198
-229.757	-200.000	-0.005	-0.204
-228.742	-46.169	0.210	0.102
-227.727	-40.365	0.274	0.141
-226.713	70.619	-0.098	0.101
-225.698	-79.989	-0.254	-0.084
-224.684	44.998	0.125	-0.114
-223.669	-136.641	-0.089	0.010
-222.655	-84.304	0.223	0.070
-221.640	-10.194	0.120	-0.079
-220.625	-143.999	0.235	-0.022
-219.611	531.133	-0.072	-0.167
-218.596	-173.565	0.134	0.004
-217.582	309.249	0.090	0.166
-216.567	23.948	0.204	0.166
-215.552	422.343	0.089	0.188
-214.538	16.922	0.237	0.185
-213.523	100.081	0.153	-0.175
-212.509	-75.335	0.135	-0.048
-211.494	-200.000	0.040	0.306
-210.479	11.311	-0.166	-0.125
-209.465	54.602	0.086	-0.082
-208.450	-200.000	-0.057	0.290
-207.436	40.042	0.079	-0.070
-206.421	16.310	0.174	-0.136
-205.406	190.450	-0.055	-0.081
-204.392	553.419	-0.138	-0.328
-203.377	58.758	0.202	-0.196
-202.363	320.855	-0.100	0.187
-201.348	73.212	-0.191	0.198
-200.333	800.000	0.045	0.181
-199.319	-181.338	0.225	-0.004
-198.304	30.561	0.026	0.022
-197.290	62.153	-0.031	-0.031
-196.275	741.972	-0.126	0.334
-195.260	-200.000	-0.119	0.563
-194.246	800.000	0.123	0.345
-193.231	-200.000	0.064	-0.377
-192.217	-62.717	-0.281	-0.115
-191.202	670.348	0.120	0.307
-190.187	229.919	0.093	-0.151
-189.173	148.015	-0.256	-0.340
-188.158	-19.675	0.128	-0.078
-187.144	150.561	0.188	-0.252
-186.129	-85.373	0.483	0.149
-185.114	-109.201	-0.294	-0.062
-184.100	-127.292	0.327	-0.047
-183.085	99.997	-0.026	0.029
-182.071	58.167	0.165	0.160
-181.056	-4.384	0.374	0.255
-180.042	-200.000	0.046	0.479
-179.027	-109.284	-0.183	0.038
-178.012	-200.000	0.033	0.226
-176.998	11.507	-0.011	-0.008
-175.983	-62.218	0.326	-0.134
-174.969	-123.583	0.234	0.037
-173.954	-200.000	0.027	0.000
-172.939	-186.287	0.057	-0.001
-171.925	-200.000	0.028	-0.286
-170.910	223.740	-0.138	-0.220
-169.896	-2.879	0.059	-0.041
-168.881	-114.464	0.314	0.059
-167.866	-155.541	0.156	0.010
-166.852	-200.000	0.040	0.322
-165.837	-70.935	0.251	0.093
-164.823	155.335	-0.162	0.220
-163.808	-43.366	0.376	0.187
-162.793	778.860	-0.127	0.343
-161.779	498.942	-0.030	-0.068
-160.764	-200.000	-0.022	0.150
-159.750	-200.000	0.032	0.328
-158.735	99.881	-0.028	0.032
-157.720	-200.000	-0.012	0.346
-156.706	91.850	0.118	-0.130
-155.691	615.457	-0.105	-0.259
-154.677	-24.126	0.142	0.084
-153.662	279.470	0.057	-0.101
-152.647	310.773	0.172	0.318
-151.633	-57.345	0.262	0.114
-150.618	-112.175	-0.201	-0.040
-149.604	114.960	-0.186	-0.224
-148.589	-113.754	0.187	0.036
-147.574	50.465	0.173	-0.161
-146.560	252.791	0.238	0.399
-145.545	304.089	-0.252	0.460
-144.531	219.691	-0.091	-0.143
-143.516	578.339	0.104	-0.251
-142.502	-63.645	-0.170	0.069
-141.487	-14.340	-0.196	-0.124
-140.472	-87.492	0.307	0.091
-139.458	-100.942	-0.116	-0.028
-138.443	-119.677	0.226	-0.039
-137.429	-64.991	-0.133	0.053
-136.414	-200.000	0.488	0.002
-135.399	42.163	0.052	0.047
-134.385	800.000	-0.021	-0.058
-133.370	-101.943	0.172	0.041
-132.356	800.000	-0.043	0.126
-131.341	800.000	0.012	0.043
-130.326	100.700	0.166	-0.190
-129.312	-200.000	-0.064	0.328
-128.297	800.000	-0.089	0.282
-127.283	-99.779	-0.301	0.074
-126.268	-14.876	-0.201	-0.127
-125.253	485.188	0.179	-0.401
-124.239	-200.000	0.031	0.297
-123.224	-125.534	0.234	-0.035
-122.210	-71.632	0.241	0.088
-121.195	-24.674	-0.154	-0.090
