DTS Sentinel unit serial number:	SN413079Multiplexer serial number:	ORYXHardware model number:	OX4-SRSoftware version number:	ORYX F/W v4.00 Oryx Data Collector v3.7.2.0data status	okinstallation	princeton_trtdifferential loss correction	single-endedforward channel	channel 1reverse channel	N/Adate	2019/09/13time	06:18:35forward acquisition time	60.00reverse acquisition time	0.00gamma	496.2192k internal	0.2335k external	0.2335temperature offset calibration	1.0158default loss term (dB/km)	0.3790temperature slope calibration	1.0000multiplexer offset coefficient	1.0000multiplexer slope coefficient	1.0000fibre end	0.00T internal ref (°C)	26.12T ext. ref 1 (°C)	4.09T ext. ref 2 (°C)	20.81length (m)	temperature (°C)	Stokes	anti-Stokes-747.200	48.501	0.160	0.151
-746.185	-54.456	0.389	0.177
-745.171	-55.982	0.140	0.063
-744.156	-124.344	-0.112	0.018
-743.142	-16.943	-0.030	0.019
-742.127	-34.370	-0.165	-0.091
-741.112	382.659	-0.049	0.101
-740.098	-51.220	-0.273	0.128
-739.083	-83.217	0.265	0.086
-738.069	-115.310	-0.205	0.039
-737.054	27.094	-0.121	0.102
-736.039	4.425	-0.363	-0.268
-735.025	-55.091	0.263	0.119
-734.010	-8.676	0.118	-0.080
-732.996	800.000	-0.081	-0.260
-731.981	335.054	-0.127	-0.247
-730.966	90.307	0.217	-0.244
-729.952	-138.526	-0.172	-0.019
-728.937	-13.649	-0.168	0.109
-727.923	63.138	0.123	-0.124
-726.908	502.753	0.237	-0.550
-725.894	235.846	0.050	-0.082
-724.879	-48.227	0.261	0.127
-723.864	-43.402	-0.085	0.043
-722.850	-200.000	-0.031	0.320
-721.835	-29.306	0.106	-0.061
-720.821	217.009	-0.334	-0.534
-719.806	67.415	-0.126	-0.129
-718.791	122.044	-0.157	-0.197
-717.777	-200.000	-0.085	-0.380
-716.762	-194.234	-0.300	-0.002
-715.748	-200.000	0.018	-0.246
-714.733	254.695	0.019	0.033
-713.718	-37.553	0.120	-0.064
-712.704	-34.012	0.438	-0.242
-711.689	1.252	0.054	0.039
-710.675	-86.046	0.210	0.065
-709.660	25.766	-0.224	-0.187
-708.645	800.000	-0.130	-0.375
-707.631	-99.380	-0.457	0.116
-706.616	138.955	-0.092	0.121
-705.602	88.757	-0.149	0.166
-704.587	139.545	-0.119	-0.157
-703.572	-107.409	-0.312	-0.069
-702.558	-82.566	-0.150	0.049
-701.543	-200.000	-0.018	0.400
-700.529	73.690	-0.057	-0.060
-699.514	800.000	-0.049	-0.165
-698.499	800.000	0.106	-0.332
-697.485	522.199	0.151	0.355
-696.470	315.755	0.058	-0.110
-695.456	-60.704	0.230	-0.098
-694.441	76.904	-0.086	-0.092
-693.426	-137.059	0.380	-0.044
-692.412	-80.071	-0.371	-0.125
-691.397	-75.982	0.221	0.078
-690.383	131.387	0.017	-0.022
-689.368	-47.743	-0.088	-0.043
-688.354	100.554	-0.171	0.199
-687.339	-200.000	0.045	0.483
-686.324	-148.774	-0.335	-0.027
-685.310	143.683	-0.186	-0.248
-684.295	-113.590	0.228	0.045
-683.281	-200.000	0.022	-0.103
-682.266	-8.901	0.067	0.045
-681.251	-200.000	-0.014	-0.289
-680.237	-139.670	-0.272	-0.029
-679.222	-200.000	-0.007	0.093
-678.208	118.781	0.155	0.192
-677.193	-106.080	-0.045	0.010
-676.178	179.893	-0.129	0.189
-675.164	-122.716	-0.222	-0.036
-674.149	46.714	-0.396	-0.368
-673.135	15.815	-0.101	0.079
-672.120	-160.919	0.204	0.011
-671.105	-145.199	-0.298	0.027
-670.091	31.825	0.275	-0.237
-669.076	-108.915	-0.176	0.038
-668.062	-176.729	0.409	0.010
-667.047	800.000	-0.104	-0.344
-666.032	-175.902	-0.169	0.005
-665.018	800.000	-0.064	0.234
-664.003	-200.000	0.016	0.207
-662.989	-85.050	0.177	0.056
-661.974	-67.316	0.364	-0.143
-660.959	-127.812	0.224	0.032
-659.945	-78.788	-0.184	-0.063
-658.930	-32.535	-0.130	-0.073
-657.916	-122.765	-0.118	-0.019
-656.901	-4.233	0.481	-0.333
-655.886	-105.565	-0.167	0.038
-654.872	-200.000	-0.007	0.227
-653.857	-8.527	-0.070	0.047
-652.843	-53.513	-0.401	0.183
-651.828	-200.000	0.026	0.244
-650.814	571.641	-0.051	0.124
-649.799	137.924	-0.167	-0.219
-648.784	41.813	0.276	-0.250
-647.770	246.021	-0.023	0.040
-646.755	75.532	-0.171	0.180
-645.741	-81.838	0.100	-0.033
-644.726	499.555	0.022	0.051
-643.711	-21.219	-0.195	-0.119
-642.697	-200.000	-0.021	-0.192
-641.682	800.000	-0.013	0.053
-640.668	153.922	-0.050	-0.069
-639.653	-127.814	-0.366	-0.053
-638.638	-120.343	-0.293	0.050
-637.624	-24.172	0.325	0.194
-636.609	313.905	0.201	0.379
-635.595	-200.000	0.047	0.207
-634.580	-14.885	-0.113	-0.072
-633.565	-156.581	-0.037	-0.002
-632.551	170.888	-0.218	0.313
-631.536	-139.690	-0.068	-0.007
-630.522	255.911	0.033	0.056
-629.507	-138.331	0.158	-0.017
-628.492	-167.753	0.313	0.012
-627.478	60.345	-0.150	-0.148
-626.463	-98.962	-0.236	-0.060
-625.449	800.000	-0.084	-0.276
-624.434	-97.461	0.115	0.030
-623.419	151.423	0.158	-0.215
-622.405	182.503	-0.054	0.080
-621.390	44.697	0.087	-0.080
-620.376	-200.000	-0.057	-0.483
-619.361	185.229	-0.064	-0.095
-618.346	-107.975	-0.182	0.040
-617.332	-200.000	0.007	0.282
-616.317	-149.723	-0.165	0.013
-615.303	12.812	-0.136	-0.105
-614.288	206.175	-0.133	0.207
-613.273	256.009	0.146	0.251
-612.259	-200.000	-0.005	-0.164
-611.244	800.000	0.033	0.115
-610.230	-51.679	0.047	0.022
-609.215	800.000	-0.021	-0.086
-608.201	-60.453	-0.340	0.144
-607.186	-200.000	-0.010	0.291
-606.171	729.482	0.061	-0.162
-605.157	536.482	-0.136	0.323
-604.142	433.432	-0.133	-0.289
-603.128	-200.000	0.029	-0.360
-602.113	800.000	0.023	-0.086
-601.098	-200.000	0.041	0.236
-600.084	800.000	0.015	-0.062
-599.069	-101.494	-0.219	-0.053
-598.055	-119.934	0.341	-0.059
-597.040	800.000	-0.085	0.238
-596.025	-200.000	0.029	-0.226
-595.011	19.346	-0.304	0.244
-593.996	-140.144	-0.155	-0.016
-592.982	316.462	-0.096	0.181
-591.967	386.818	-0.161	-0.333
-590.952	24.934	-0.145	-0.120
-589.938	-64.158	-0.353	0.144
-588.923	-144.592	-0.283	-0.026
-587.909	-39.101	0.342	-0.180
-586.894	-167.658	0.324	-0.013
-585.879	-78.601	-0.179	-0.061
-584.865	-109.090	0.410	0.087
-583.850	610.044	-0.185	0.461
-582.836	371.222	0.169	-0.342
-581.821	800.000	0.026	-0.087
-580.806	25.911	0.197	-0.164
-579.792	-75.232	-0.403	-0.144
-578.777	171.360	-0.153	-0.220
-577.763	-200.000	-0.018	0.101
-576.748	-125.549	-0.071	0.011
-575.733	255.447	-0.089	-0.153
-574.719	-80.919	-0.191	-0.063
-573.704	56.692	0.073	-0.071
-572.690	117.020	-0.173	-0.212
-571.675	-188.548	-0.159	0.002
-570.661	-200.000	-0.000	-0.008
-569.646	-63.854	0.078	-0.032
-568.631	-200.000	0.035	-0.238
-567.617	-200.000	-0.002	0.060
-566.602	-47.966	-0.128	0.062
-565.588	-28.411	-0.159	0.091
-564.573	228.853	-0.122	-0.198
-563.558	7.600	0.212	0.158
-562.544	-200.000	-0.020	0.101
-561.529	48.775	0.079	-0.074
-560.515	353.827	0.057	-0.112
-559.500	324.450	0.078	-0.149
-558.485	13.450	0.267	-0.207
-557.471	-40.374	0.127	0.066
-556.456	-111.890	0.157	0.032
-555.442	800.000	-0.048	0.210
-554.427	-40.136	-0.061	0.032
-553.412	-29.692	0.183	0.104
-552.398	688.337	-0.150	-0.390
-551.383	-60.182	0.148	-0.063
-550.369	-103.682	0.403	-0.094
-549.354	8.086	-0.173	0.130
-548.339	-92.833	-0.144	-0.040
-547.325	800.000	0.180	0.518
-546.310	-8.485	-0.265	0.178
-545.296	-163.038	-0.124	0.006
-544.281	-103.970	-0.309	-0.072
-543.266	-14.104	0.357	0.230
-542.252	-78.438	-0.203	-0.069
-541.237	-57.671	0.237	-0.103
-540.223	541.109	0.065	-0.155
-539.208	-52.027	0.392	-0.181
-538.193	-200.000	-0.003	0.226
-537.179	800.000	0.037	-0.130
-536.164	-40.169	-0.157	-0.081
-535.150	-63.711	0.149	0.061
-534.135	-200.000	-0.057	0.349
-533.121	110.322	0.065	-0.078
-532.106	-64.003	-0.121	-0.049
-531.091	-116.160	0.177	-0.033
-530.077	-170.488	-0.382	-0.013
-529.062	20.434	-0.198	0.159
-528.048	135.351	0.080	0.104
-527.033	73.170	-0.220	-0.230
-526.018	-132.488	0.261	0.033
-525.004	126.385	-0.223	0.281
-523.989	335.934	0.159	0.307
-522.975	191.964	-0.109	-0.164
-521.960	64.559	0.058	-0.059
-520.945	174.870	-0.151	0.217
-519.931	9.267	-0.203	-0.153
-518.916	-85.524	-0.207	0.064
-517.902	-82.101	0.208	-0.068
-516.887	-200.000	0.019	0.087
-515.872	-127.253	-0.118	0.017
-514.858	126.858	-0.119	0.150
-513.843	740.120	0.067	-0.179
-512.829	-36.222	-0.212	-0.114
-511.814	-15.710	0.253	-0.161
-510.799	-200.000	-0.003	0.023
-509.785	-80.956	-0.236	-0.078
-508.770	16.308	0.271	-0.213
-507.756	112.597	0.090	-0.109
-506.741	800.000	-0.076	0.279
-505.726	-50.732	0.019	0.009
-504.712	482.404	0.082	0.186
-503.697	-200.000	-0.021	-0.232
-502.683	55.551	-0.195	0.188
-501.668	80.023	-0.046	0.049
-500.653	-81.143	-0.234	-0.077
-499.639	75.053	0.103	-0.108
-498.624	185.040	0.193	0.285
-497.610	791.169	-0.051	0.139
-496.595	800.000	-0.051	-0.159
-495.581	178.343	-0.186	0.270
-494.566	189.895	-0.109	0.163
-493.551	191.871	0.121	-0.181
-492.537	304.293	-0.049	-0.091
-491.522	-94.997	0.335	0.090
-490.508	-9.005	-0.138	-0.092
-489.493	-10.664	0.135	-0.089
-488.478	-50.717	0.463	-0.217
-487.464	-118.843	0.421	-0.074
-486.449	30.640	-0.246	0.209
-485.435	-200.000	0.071	0.356
-484.420	-176.038	0.314	-0.008
-483.405	-33.301	0.138	-0.076
-482.391	237.541	-0.091	0.150
-481.376	319.078	-0.142	-0.269
-480.362	-52.438	0.153	-0.070
-479.347	486.010	-0.045	0.103
-478.332	-144.511	-0.229	0.021
-477.318	35.077	-0.168	-0.147
-476.303	800.000	-0.039	0.165
-475.289	115.704	0.184	-0.224
-474.274	125.179	-0.285	-0.357
-473.259	100.508	0.182	0.211
-472.245	-43.296	-0.089	0.045
-471.230	6.391	-0.440	0.325
-470.216	800.000	0.038	0.114
-469.201	82.081	-0.095	-0.102
-468.186	12.235	0.086	0.066
-467.172	288.056	0.148	0.267
-466.157	-28.926	0.310	0.177
-465.143	-133.013	-0.197	0.025
-464.128	-14.129	0.091	0.058
-463.113	-86.590	-0.103	0.031
-462.099	274.089	-0.149	-0.262
-461.084	598.459	-0.092	-0.227
-460.070	-200.000	-0.017	0.281
-459.055	-85.708	0.461	0.142
-458.040	-100.540	-0.441	-0.108
-457.026	-171.527	0.200	0.007
-456.011	251.386	0.079	0.133
-454.997	-52.036	-0.210	-0.097
-453.982	-116.777	0.224	-0.041
-452.968	800.000	-0.069	-0.190
-451.953	-74.110	-0.162	-0.058
-450.938	-162.024	-0.417	0.021
-449.924	-143.972	-0.152	-0.014
-448.909	-54.265	0.219	0.099
-447.895	-160.736	0.047	-0.002
-446.880	-200.000	-0.006	0.050
-445.865	146.057	0.087	-0.116
-444.851	349.740	0.155	-0.305
-443.836	-45.898	-0.101	-0.050
-442.822	-200.000	0.018	-0.117
-441.807	800.000	-0.062	-0.229
-440.792	59.091	0.202	-0.197
-439.778	4.681	0.220	-0.160
-438.763	800.000	-0.094	0.295
-437.749	-35.116	0.174	-0.094
-436.734	-10.546	-0.156	-0.102
-435.719	396.308	-0.108	-0.223
-434.705	44.083	-0.388	-0.353
-433.690	800.000	-0.051	0.160
-432.676	-42.165	0.230	0.117
-431.661	-19.496	0.239	-0.147
-430.646	-45.767	0.100	-0.049
-429.632	-0.578	-0.137	0.096
-428.617	-200.000	-0.006	0.040
-427.603	-103.959	0.202	0.047
-426.588	-76.855	0.201	-0.070
-425.573	-200.000	-0.009	0.039
-424.559	441.793	0.074	-0.161
-423.544	-40.022	-0.434	-0.224
-422.530	-88.618	-0.300	0.089
-421.515	149.139	0.226	-0.303
-420.500	-73.868	0.316	-0.114
-419.486	350.639	0.074	-0.145
-418.471	66.023	0.061	-0.061
-417.457	-138.757	0.283	0.031
-416.442	167.083	-0.050	0.070
-415.428	-6.128	0.097	-0.066
-414.413	-114.531	0.102	-0.019
-413.398	-70.920	-0.248	0.093
-412.384	165.424	0.050	0.070
-411.369	-56.957	-0.234	0.102
-410.355	-200.000	-0.031	0.219
-409.340	113.204	0.086	0.103
-408.325	549.525	0.017	0.040
-407.311	-59.099	-0.294	0.126
-406.296	-59.200	0.362	0.155
-405.282	800.000	0.051	-0.142
-404.267	-22.254	0.098	0.059
-403.252	-73.096	-0.277	-0.101
-402.238	-53.221	0.051	0.023
-401.223	-200.000	-0.012	-0.418
-400.209	89.592	0.179	0.198
-399.194	-100.508	0.154	-0.038
-398.179	73.488	-0.124	0.129
-397.165	-200.000	0.041	-0.279
-396.150	-166.485	-0.095	0.004
-395.136	-157.481	-0.322	0.019
-394.121	98.730	-0.087	0.100
-393.106	800.000	0.040	-0.170
-392.092	-108.700	0.054	-0.012
-391.077	-36.884	-0.204	0.108
-390.063	-124.598	0.131	0.020
-389.048	-66.935	0.129	0.050
-388.033	-81.402	-0.153	0.050
-387.019	115.343	0.085	-0.103
-386.004	292.140	0.012	0.021
-384.990	42.797	0.260	0.234
-383.975	206.911	-0.235	0.363
-382.960	-52.734	-0.190	0.087
-381.946	12.664	0.283	0.217
-380.931	168.932	0.052	0.073
-379.917	800.000	0.054	0.157
-378.902	400.646	-0.095	-0.197
-377.888	-105.304	-0.200	-0.045
-376.873	-134.030	-0.319	0.039
-375.858	140.643	0.112	0.146
-374.844	-138.737	-0.183	0.020
-373.829	116.410	0.178	0.216
-372.815	-125.846	-0.184	0.027
-371.800	-45.151	-0.208	-0.102
-370.785	-200.000	0.033	-0.230
-369.771	95.146	0.089	0.100
-368.756	-46.265	0.296	-0.144
-367.742	800.000	-0.042	0.160
-366.727	-132.368	0.208	0.027
-365.712	-200.000	-0.011	0.310
-364.698	-17.816	-0.073	0.045
-363.683	94.292	0.183	-0.206
-362.669	-200.000	-0.006	0.165
-361.654	-200.000	0.080	0.000
-360.639	243.005	0.145	-0.241
-359.625	800.000	-0.052	-0.164
-358.610	-54.619	0.045	0.020
-357.596	213.482	-0.247	-0.387
-356.581	145.843	0.112	-0.148
-355.566	-123.961	0.159	-0.025
-354.552	-200.000	0.000	0.099
-353.537	92.472	0.131	-0.147
-352.523	-21.030	-0.124	-0.075
-351.508	-25.989	0.220	0.128
-350.493	-200.000	0.097	0.456
-349.479	-68.352	-0.400	0.154
-348.464	126.564	0.219	0.274
-347.450	651.702	0.087	-0.220
-346.435	-19.046	-0.237	-0.146
-345.420	476.571	-0.110	0.246
-344.406	800.000	-0.096	-0.287
-343.391	-109.261	-0.170	0.036
-342.377	449.525	-0.033	-0.071
-341.362	-200.000	-0.012	-0.361
-340.348	-25.865	-0.067	-0.039
-339.333	-41.018	0.135	0.069
-338.318	-200.000	0.012	0.152
-337.304	123.828	0.151	-0.188
-336.289	-200.000	-0.020	-0.145
-335.275	800.000	0.011	-0.041
-334.260	-54.270	-0.188	0.084
-333.245	368.723	0.114	0.229
-332.231	17.503	0.316	-0.249
-331.216	800.000	-0.087	0.277
-330.202	111.313	-0.239	0.285
-329.187	-119.249	-0.137	-0.024
-328.172	-13.159	-0.098	0.063
-327.158	-80.390	-0.321	-0.106
-326.143	-72.828	0.126	-0.046
-325.129	82.154	0.095	0.101
-324.114	-59.337	0.122	-0.052
-323.099	149.131	0.102	0.136
-322.085	-60.056	-0.162	0.068
-321.070	-200.000	-0.041	-0.198
-320.056	531.342	-0.092	-0.215
-319.041	-62.532	0.113	0.046
-318.026	-57.054	-0.192	-0.084
-317.012	-91.568	0.190	-0.053
-315.997	63.993	0.151	0.150
-314.983	800.000	-0.078	0.317
-313.968	-130.030	-0.112	0.015
-312.953	-58.810	0.097	-0.041
-311.939	-34.858	-0.095	0.051
-310.924	-165.698	-0.300	0.013
-309.910	26.326	0.128	-0.105
-308.895	244.642	-0.034	0.056
-307.880	-76.114	0.147	0.051
-306.866	800.000	-0.069	0.200
-305.851	-200.000	0.016	0.104
-304.837	140.590	-0.089	0.116
-303.822	1.697	0.102	-0.073
-302.807	-200.000	-0.009	0.132
-301.793	-92.316	0.150	0.042
-300.778	-17.479	0.183	0.114
-299.764	800.000	0.126	0.360
-298.749	800.000	0.039	-0.114
-297.735	88.524	0.072	-0.079
-296.720	353.310	0.103	0.201
-295.705	466.674	-0.020	-0.044
-294.691	123.910	-0.220	0.272
-293.676	222.048	-0.105	0.167
-292.662	-32.345	0.285	0.157
-291.647	126.124	-0.170	-0.213
-290.632	800.000	0.061	-0.250
-289.618	52.980	0.131	-0.124
-288.603	728.145	0.066	-0.174
-287.589	800.000	-0.074	0.292
-286.574	45.143	-0.368	-0.335
-285.559	-28.553	-0.425	0.241
-284.545	75.688	0.012	-0.013
-283.530	-136.294	-0.096	0.011
-282.516	-133.913	0.368	0.045
-281.501	455.117	0.100	0.219
-280.486	303.773	0.133	-0.243
-279.472	-187.198	0.279	0.004
-278.457	-79.309	-0.152	-0.051
-277.443	-105.867	-0.307	0.068
-276.428	13.267	-0.034	-0.026
-275.413	-139.288	0.169	-0.018
-274.399	49.815	-0.090	0.084
-273.384	20.406	0.143	-0.114
-272.370	392.657	0.069	0.141
-271.355	-41.651	-0.173	-0.088
-270.340	109.135	-0.132	-0.156
-269.326	0.846	-0.203	0.143
-268.311	-200.000	0.002	0.588
-267.297	-200.000	0.042	-0.185
-266.282	38.387	0.058	0.051
-265.267	-113.256	-0.136	0.026
-264.253	627.545	0.044	0.109
-263.238	-46.539	-0.034	-0.017
-262.224	80.398	-0.192	-0.204
-261.209	319.314	0.116	0.218
-260.195	-200.000	0.018	-0.344
-259.180	-200.000	-0.008	-0.055
-258.165	-42.773	-0.062	0.031
-257.151	10.499	0.212	0.159
-256.136	36.893	-0.116	-0.101
-255.122	-82.816	0.442	-0.141
-254.107	800.000	0.072	-0.236
-253.092	126.763	0.117	0.146
-252.078	-10.530	0.301	0.197
-251.063	754.307	-0.102	0.270
-250.049	-117.197	0.172	-0.031
-249.034	-58.140	0.121	0.052
-248.019	-200.000	0.009	-0.236
-247.005	-27.700	-0.036	0.020
-245.990	-21.974	-0.149	0.089
-244.976	-46.511	0.073	-0.035
-243.961	-200.000	0.028	-0.158
-242.946	33.428	0.114	-0.098
-241.932	-200.000	0.057	-0.270
-240.917	47.092	-0.219	-0.201
-239.903	140.025	0.179	0.232
-238.888	-60.356	-0.141	-0.059
-237.873	77.751	-0.248	0.261
-236.859	-8.221	0.221	0.147
-235.844	-161.402	-0.276	0.014
-234.830	-28.460	0.148	0.084
-233.815	-200.000	0.052	0.327
-232.800	56.054	-0.081	-0.078
-231.786	-37.238	-0.134	0.071
-230.771	-89.499	-0.139	-0.040
-229.757	800.000	0.068	-0.277
-228.742	26.273	-0.150	0.124
-227.727	-78.016	0.265	0.090
-226.713	82.667	-0.151	-0.161
-225.698	-200.000	0.001	0.033
-224.684	11.175	-0.010	0.007
-223.669	-61.286	-0.339	0.140
-222.655	-63.888	0.189	-0.076
-221.640	122.283	0.149	0.183
-220.625	-18.518	0.086	0.053
-219.611	313.700	0.113	-0.210
-218.596	80.773	0.040	0.042
-217.582	-112.701	0.325	-0.064
-216.567	-6.142	0.056	-0.038
-215.552	794.352	0.027	0.072
-214.538	138.522	-0.058	0.074
-213.523	-87.886	-0.188	-0.056
-212.509	800.000	-0.010	-0.042
-211.494	-24.832	-0.361	0.211
-210.479	146.230	0.116	-0.153
-209.465	-89.862	0.314	-0.090
-208.450	30.158	-0.125	-0.105
-207.436	-76.017	-0.227	0.079
-206.421	800.000	-0.040	-0.135
-205.406	-200.000	0.039	-0.192
-204.392	-74.552	-0.206	-0.073
-203.377	20.139	-0.173	0.137
-202.363	32.180	0.313	0.266
-201.348	-4.068	-0.280	-0.191
-200.333	-200.000	-0.044	0.316
-199.319	800.000	-0.039	-0.109
-198.304	-200.000	-0.009	-0.280
-197.290	-200.000	-0.039	-0.250
-196.275	89.319	0.089	-0.098
-195.260	146.882	0.172	0.228
-194.246	189.234	-0.170	0.250
-193.231	-200.000	-0.010	0.226
-192.217	158.746	0.099	-0.136
-191.202	368.273	0.121	-0.241
-190.187	800.000	0.070	-0.291
-189.173	-77.459	0.371	-0.127
-188.158	-107.056	0.228	0.049
-187.144	800.000	-0.062	0.251
-186.129	494.186	0.191	0.430
-185.114	-200.000	-0.006	0.373
-184.100	-23.337	0.110	-0.065
-183.085	159.358	0.108	-0.147
-182.071	234.627	0.122	-0.197
-181.056	-200.000	0.005	0.077
-180.042	65.272	0.051	-0.051
-179.027	-144.485	0.241	-0.022
-178.012	-132.825	-0.480	0.060
-176.998	74.026	-0.246	0.254
-175.983	-200.000	-0.011	0.275
-174.969	-80.974	0.230	-0.075
-173.954	139.749	0.176	0.227
-172.939	-160.842	-0.199	0.010
-171.925	-141.211	0.438	0.044
-170.910	15.396	-0.023	-0.018
-169.896	800.000	0.096	0.300
-168.881	143.678	-0.047	-0.062
-167.866	203.259	0.233	-0.353
-166.852	112.964	0.069	0.082
-165.837	-137.129	0.198	0.022
-164.823	-200.000	-0.055	-0.342
-163.808	-200.000	0.013	-0.372
-162.793	-10.882	-0.420	-0.273
-161.779	20.862	-0.035	0.028
-160.764	-87.709	0.218	-0.064
-159.750	-200.000	-0.059	-0.350
-158.735	-200.000	0.037	-0.278
-157.720	-200.000	-0.034	0.329
-156.706	-96.348	-0.142	0.037
-155.691	800.000	0.049	0.172
-154.677	-89.550	0.072	-0.021
-153.662	-105.740	0.275	-0.061
-152.647	-136.444	0.141	0.016
-151.633	-26.175	0.357	-0.206
-150.618	-182.925	0.139	-0.002
-149.604	-200.000	0.059	-0.404
-148.589	-104.273	0.116	-0.026
-147.574	13.242	0.191	0.145
-146.560	328.689	-0.196	-0.370
-145.545	-105.784	0.255	0.056
-144.531	-76.290	0.202	0.070
-143.516	221.305	0.091	-0.144
-142.502	52.568	0.192	0.180
-141.487	-5.659	0.037	-0.025
-140.472	-200.000	-0.000	0.179
-139.458	-90.564	-0.511	0.145
-138.443	-200.000	-0.036	0.297
-137.429	-200.000	-0.034	0.214
-136.414	148.655	-0.106	0.140
-135.399	-46.880	0.347	0.166
-134.385	321.388	-0.077	-0.143
-133.370	-147.303	-0.068	0.006
-132.356	-135.347	0.208	0.024
-131.341	-200.000	0.002	0.031
-130.326	-20.728	-0.273	-0.165
-129.312	292.319	-0.025	-0.044
-128.297	-142.810	0.105	0.010
-127.283	85.023	0.027	-0.029
-126.268	800.000	0.070	-0.286
-125.253	-134.185	0.081	-0.010
-124.239	108.429	0.196	-0.230
-123.224	800.000	-0.080	0.227
-122.210	-137.210	-0.086	-0.010
-121.195	-200.000	-0.073	0.354
