DTS Sentinel unit serial number:	SN413079Multiplexer serial number:	ORYXHardware model number:	OX4-SRSoftware version number:	ORYX F/W v4.00 Oryx Data Collector v3.7.2.0data status	okinstallation	princeton_trtdifferential loss correction	single-endedforward channel	channel 1reverse channel	N/Adate	2019/09/14time	13:06:35forward acquisition time	60.00reverse acquisition time	0.00gamma	496.2192k internal	0.2294k external	0.2294temperature offset calibration	1.0086default loss term (dB/km)	0.3790temperature slope calibration	1.0000multiplexer offset coefficient	1.0000multiplexer slope coefficient	1.0000fibre end	0.00T internal ref (°C)	37.94T ext. ref 1 (°C)	4.85T ext. ref 2 (°C)	33.31length (m)	temperature (°C)	Stokes	anti-Stokes-747.200	800.000	0.035	-0.102
-746.185	-107.036	-0.108	0.024
-745.171	-27.141	0.075	-0.045
-744.156	-7.193	-0.035	0.024
-743.142	6.096	0.351	-0.266
-742.127	244.845	0.070	0.120
-741.112	598.240	0.052	0.133
-740.098	-38.109	-0.177	-0.096
-739.083	800.000	0.036	-0.112
-738.069	-9.764	-0.157	-0.107
-737.054	-2.691	0.187	0.134
-736.039	-111.282	-0.246	0.051
-735.025	-175.717	0.174	-0.005
-734.010	39.908	-0.113	-0.103
-732.996	-155.977	0.123	0.008
-731.981	-112.188	-0.374	-0.077
-730.966	210.921	-0.065	0.104
-729.952	800.000	0.042	-0.158
-728.937	-163.534	0.265	-0.013
-727.923	-200.000	-0.038	-0.201
-726.908	800.000	-0.111	-0.399
-725.894	-135.535	-0.251	0.031
-724.879	-13.237	-0.336	-0.223
-723.864	-79.325	-0.192	-0.067
-722.850	316.866	-0.104	-0.200
-721.835	-200.000	-0.000	0.285
-720.821	-58.959	-0.172	0.076
-719.806	-191.831	0.080	-0.001
-718.791	-4.083	-0.137	-0.097
-717.777	-187.314	0.405	0.006
-716.762	-148.365	-0.042	0.004
-715.748	-200.000	0.009	-0.234
-714.733	-49.295	0.120	-0.058
-713.718	303.501	0.050	-0.094
-712.704	-200.000	-0.005	-0.034
-711.689	35.248	-0.216	-0.194
-710.675	800.000	0.054	-0.178
-709.660	637.018	-0.064	0.167
-708.645	-200.000	0.074	0.346
-707.631	13.812	-0.239	0.190
-706.616	-128.305	0.188	-0.027
-705.602	142.195	0.046	0.062
-704.587	-200.000	-0.012	0.160
-703.572	-69.161	0.151	-0.059
-702.558	-88.900	0.105	0.032
-701.543	11.770	0.176	0.138
-700.529	-200.000	-0.001	0.186
-699.514	-125.292	0.229	0.036
-698.499	-69.965	0.114	0.044
-697.485	-143.942	-0.176	0.017
-696.470	18.792	-0.054	0.045
-695.456	420.530	-0.125	-0.273
-694.441	-200.000	0.004	-0.037
-693.426	-93.118	-0.100	0.028
-692.412	-200.000	0.029	-0.193
-691.397	800.000	-0.007	0.023
-690.383	800.000	-0.042	-0.163
-689.368	419.607	-0.135	-0.294
-688.354	265.454	0.015	-0.027
-687.339	-51.778	-0.157	0.075
-686.324	-62.859	-0.292	-0.123
-685.310	562.304	-0.147	0.363
-684.295	-200.000	-0.010	-0.187
-683.281	-116.280	0.183	0.035
-682.266	-54.442	-0.085	0.039
-681.251	287.838	-0.071	0.130
-680.237	-66.497	0.129	-0.052
-679.222	-200.000	0.014	-0.071
-678.208	217.119	0.059	-0.097
-677.193	-200.000	0.004	0.090
-676.178	82.101	-0.225	0.249
-675.164	-59.384	-0.376	-0.165
-674.149	67.096	0.169	-0.176
-673.135	-72.096	0.217	-0.082
-672.120	-14.310	0.097	-0.063
-671.105	67.560	-0.154	-0.160
-670.091	800.000	-0.011	-0.041
-669.076	-52.618	-0.258	0.122
-668.062	-112.990	0.129	-0.026
-667.047	-63.950	-0.175	0.073
-666.032	800.000	0.068	-0.256
-665.018	-38.710	-0.127	-0.069
-664.003	-200.000	-0.041	-0.192
-662.989	23.205	0.215	-0.180
-661.974	-67.965	0.305	-0.121
-660.959	287.761	-0.123	0.227
-659.945	320.921	0.223	0.431
-658.930	800.000	0.049	-0.184
-657.916	-17.817	0.070	0.045
-656.901	-107.144	0.241	-0.054
-655.886	800.000	-0.057	-0.167
-654.872	304.019	-0.066	-0.124
-653.857	448.144	-0.009	0.021
-652.843	196.891	0.164	0.255
-651.828	74.923	-0.078	-0.084
-650.814	-104.764	-0.236	-0.055
-649.799	-85.933	-0.123	-0.039
-648.784	-32.617	-0.044	0.025
-647.770	-128.162	-0.319	0.046
-646.755	-53.827	-0.149	-0.069
-645.741	-71.727	0.184	0.070
-644.726	-50.137	-0.291	0.141
-643.711	-179.090	-0.363	0.008
-642.697	315.969	0.053	0.101
-641.682	-86.765	0.418	-0.130
-640.668	-143.648	0.182	0.018
-639.653	1.640	-0.276	0.203
-638.638	10.961	-0.054	0.042
-637.624	72.348	-0.172	0.183
-636.609	215.667	-0.149	-0.241
-635.595	-200.000	-0.022	0.149
-634.580	-200.000	0.042	0.219
-633.565	465.057	0.095	-0.217
-632.551	-18.426	-0.400	-0.255
-631.536	-57.577	-0.257	-0.115
-630.522	-36.950	0.063	-0.035
-629.507	4.912	0.095	-0.071
-628.492	-74.814	0.329	0.120
-627.478	-66.348	0.096	-0.039
-626.463	-187.533	0.398	-0.005
-625.449	-200.000	-0.012	0.183
-624.434	281.941	-0.145	-0.265
-623.419	158.959	-0.115	-0.163
-622.405	180.560	0.127	0.190
-621.390	57.800	0.159	0.158
-620.376	800.000	-0.038	-0.129
-619.361	244.133	0.185	0.315
-618.346	-93.395	-0.167	0.047
-617.332	800.000	-0.034	0.135
-616.317	379.428	0.142	0.296
-615.303	-118.539	-0.170	0.031
-614.288	-200.000	-0.041	-0.225
-613.273	-40.563	0.154	0.082
-612.259	5.562	-0.196	-0.147
-611.244	-140.635	0.121	0.013
-610.230	-96.365	0.041	0.011
-609.215	-15.000	0.117	0.076
-608.201	573.553	-0.035	0.087
-607.186	6.077	-0.085	0.064
-606.171	421.158	0.078	0.169
-605.157	-156.444	0.195	-0.012
-604.142	-200.000	-0.011	0.051
-603.128	43.043	0.304	-0.282
-602.113	64.220	0.057	0.058
-601.098	-163.732	-0.277	-0.013
-600.084	502.878	-0.134	-0.315
-599.069	-78.702	-0.290	0.101
-598.055	-93.574	-0.030	0.008
-597.040	-200.000	0.045	0.303
-596.025	-200.000	-0.043	0.208
-595.011	800.000	0.088	-0.265
-593.996	-142.920	0.198	0.020
-592.982	-129.713	-0.060	-0.008
-591.967	437.813	-0.130	0.288
-590.952	-200.000	-0.039	-0.222
-589.938	-43.338	-0.115	0.059
-588.923	655.521	-0.069	-0.181
-587.909	-39.017	-0.096	-0.051
-586.894	-200.000	0.004	-0.053
-585.879	-70.034	0.403	-0.156
-584.865	-146.937	-0.317	-0.028
-583.850	-200.000	-0.006	0.297
-582.836	-51.055	-0.356	0.170
-581.821	-200.000	0.026	0.362
-580.806	343.996	-0.175	0.349
-579.792	-200.000	-0.058	0.368
-578.777	-88.995	0.217	0.065
-577.763	178.697	-0.188	-0.278
-576.748	102.032	-0.120	-0.142
-575.733	83.774	0.179	-0.198
-574.719	800.000	0.054	-0.155
-573.704	-71.749	-0.335	-0.127
-572.690	-118.472	-0.195	0.035
-571.675	-116.694	0.379	0.071
-570.661	52.134	-0.140	0.135
-569.646	-3.273	-0.062	-0.044
-568.631	-157.975	-0.214	-0.013
-567.617	295.989	-0.138	0.257
-566.602	87.262	0.190	0.213
-565.588	13.240	-0.181	-0.142
-564.573	-200.000	0.011	0.270
-563.558	800.000	0.031	0.118
-562.544	126.942	0.155	0.199
-561.529	-92.300	-0.021	0.006
-560.515	59.482	-0.253	-0.253
-559.500	74.497	-0.165	-0.176
-558.485	-200.000	0.029	0.308
-557.471	-200.000	-0.017	0.232
-556.456	-200.000	0.024	-0.176
-555.442	-200.000	0.044	-0.261
-554.427	46.897	-0.190	0.179
-553.412	-74.344	0.400	0.147
-552.398	164.805	-0.072	0.103
-551.383	278.806	-0.147	-0.265
-550.369	-35.713	0.116	-0.064
-549.354	800.000	-0.072	0.207
-548.339	336.552	-0.072	-0.141
-547.325	300.554	-0.135	-0.252
-546.310	14.386	-0.068	0.054
-545.296	699.624	0.012	0.032
-544.281	-110.041	-0.303	-0.064
-543.266	800.000	-0.106	0.464
-542.252	-200.000	0.008	0.200
-541.237	-200.000	0.005	0.195
-540.223	-104.358	-0.270	-0.063
-539.208	-181.210	0.261	-0.005
-538.193	-200.000	0.083	0.374
-537.179	-140.252	-0.231	-0.025
-536.164	-3.535	0.307	-0.216
-535.150	-200.000	0.049	0.273
-534.135	-192.804	0.253	0.002
-533.121	-124.661	-0.098	-0.015
-532.106	800.000	-0.027	0.118
-531.091	-68.965	-0.323	-0.126
-530.077	-200.000	-0.004	0.084
-529.062	-59.947	-0.191	0.083
-528.048	800.000	-0.073	0.215
-527.033	-138.183	0.039	0.004
-526.018	-200.000	0.006	0.038
-525.004	-3.859	-0.400	-0.281
-523.989	688.725	-0.047	-0.126
-522.975	-200.000	0.034	-0.215
-521.960	-93.624	0.137	-0.038
-520.945	-7.623	0.323	0.222
-519.931	539.815	-0.080	0.193
-518.916	800.000	0.033	-0.120
-517.902	49.773	-0.125	-0.119
-516.887	-47.152	0.269	-0.133
-515.872	-97.502	0.221	-0.058
-514.858	800.000	0.110	0.413
-513.843	-124.639	-0.220	0.035
-512.829	41.733	0.073	-0.067
-511.814	10.238	0.246	-0.189
-510.799	180.844	0.167	-0.248
-509.785	69.976	0.072	-0.075
-508.770	-200.000	0.033	0.149
-507.756	768.965	0.037	-0.101
-506.741	146.169	0.077	0.105
-505.726	-200.000	-0.013	0.228
-504.712	553.159	0.044	-0.108
-503.697	-59.651	-0.195	-0.085
-502.683	-89.178	-0.137	-0.041
-501.668	-160.589	0.155	-0.008
-500.653	-93.246	-0.369	-0.104
-499.639	-200.000	-0.020	0.160
-498.624	-200.000	0.021	0.139
-497.610	308.970	-0.236	-0.447
-496.595	-5.059	0.290	0.202
-495.581	-169.915	-0.392	0.014
-494.566	800.000	-0.074	-0.211
-493.551	-112.360	-0.161	-0.033
-492.537	118.477	0.207	-0.259
-491.522	271.133	0.165	-0.295
-490.508	-103.991	-0.203	0.048
-489.493	-129.463	-0.245	-0.034
-488.478	-200.000	-0.031	-0.175
-487.464	62.031	0.220	-0.222
-486.449	-95.074	0.261	-0.071
-485.435	-73.162	0.368	-0.137
-484.420	-12.725	-0.123	-0.081
-483.405	-99.056	-0.253	-0.065
-482.391	-22.260	-0.189	-0.116
-481.376	-200.000	-0.038	0.195
-480.362	-200.000	-0.005	-0.161
-479.347	270.161	0.204	-0.363
-478.332	800.000	0.095	-0.281
-477.318	-49.499	-0.081	0.039
-476.303	68.913	0.101	-0.105
-475.289	-200.000	0.001	-0.269
-474.274	-200.000	0.040	-0.232
-473.259	-115.217	-0.219	-0.042
-472.245	-82.068	0.172	-0.057
-471.230	-62.549	-0.163	-0.069
-470.216	139.711	-0.095	0.126
-469.201	-170.834	-0.144	0.005
-468.186	78.505	0.238	-0.257
-467.172	7.162	0.152	0.115
-466.157	-133.357	0.207	-0.026
-465.143	800.000	0.048	-0.136
-464.128	225.778	0.138	0.226
-463.113	-200.000	0.061	0.492
-462.099	-55.430	0.252	-0.114
-461.084	116.645	-0.091	-0.113
-460.070	63.218	0.020	-0.020
-459.055	53.112	0.263	-0.254
-458.040	-200.000	-0.017	0.094
-457.026	45.228	0.140	0.130
-456.011	195.039	-0.159	0.245
-454.997	167.907	-0.026	0.038
-453.982	24.430	0.218	-0.182
-452.968	-14.727	-0.214	-0.139
-451.953	165.486	0.240	0.343
-450.938	-200.000	0.032	0.163
-449.924	13.701	0.192	0.151
-448.909	18.992	0.212	-0.171
-447.895	-149.977	-0.380	0.030
-446.880	297.032	0.117	0.217
-445.865	-37.936	0.320	-0.172
-444.851	-9.916	-0.133	-0.089
-443.836	159.787	0.144	0.203
-442.822	6.965	-0.160	-0.121
-441.807	-200.000	0.058	-0.286
-440.792	6.807	0.141	-0.106
-439.778	-55.350	-0.149	-0.067
-438.763	98.344	-0.102	-0.118
-437.749	130.454	-0.134	0.174
-436.734	524.144	-0.029	-0.068
-435.719	800.000	-0.055	0.176
-434.705	253.871	0.093	-0.160
-433.690	-180.017	-0.162	-0.003
-432.676	166.215	0.389	-0.557
-431.661	-43.210	0.085	-0.044
-430.646	-200.000	0.009	-0.439
-429.632	463.858	-0.064	0.145
-428.617	-49.814	0.430	0.207
-427.603	394.742	0.078	-0.164
-426.588	-61.374	-0.202	0.086
-425.573	-200.000	0.016	-0.251
-424.559	331.624	-0.041	-0.079
-423.544	32.627	-0.170	-0.149
-422.530	-68.581	-0.438	0.171
-421.515	-200.000	-0.015	-0.430
-420.500	800.000	0.069	-0.251
-419.486	73.073	0.160	-0.169
-418.471	-200.000	0.032	-0.170
-417.457	170.429	0.158	0.229
-416.442	320.817	0.232	0.445
-415.428	-200.000	-0.016	0.091
-414.413	280.574	-0.056	0.100
-413.398	4.863	-0.296	-0.220
-412.384	120.506	0.041	0.051
-411.369	-111.197	-0.196	-0.040
-410.355	-42.966	-0.441	-0.226
-409.340	-72.052	0.252	-0.095
-408.325	250.705	-0.083	-0.142
-407.311	-200.000	0.064	-0.305
-406.296	185.429	0.025	0.037
-405.282	-46.012	-0.359	-0.179
-404.267	42.259	0.246	0.226
-403.252	-57.335	0.215	0.095
-402.238	-126.507	0.103	-0.015
-401.223	502.397	-0.081	0.190
-400.209	-200.000	0.064	0.297
-399.194	800.000	0.086	0.343
-398.179	800.000	-0.031	-0.121
-397.165	709.137	-0.013	-0.035
-396.150	800.000	-0.110	0.402
-395.136	-58.633	-0.195	-0.085
-394.121	9.710	-0.032	-0.025
-393.106	-200.000	-0.008	0.142
-392.092	-115.014	-0.176	0.034
-391.077	800.000	-0.074	-0.226
-390.063	175.328	0.222	-0.324
-389.048	-200.000	0.018	0.256
-388.033	-124.842	0.092	0.014
-387.019	-87.927	-0.204	0.062
-386.004	37.952	0.050	0.045
-384.990	91.149	-0.035	-0.039
-383.975	1.714	-0.185	-0.134
-382.960	800.000	-0.037	-0.105
-381.946	-116.644	-0.139	0.026
-380.931	800.000	-0.024	-0.081
-379.917	-85.893	-0.161	-0.050
-378.902	800.000	0.117	0.360
-377.888	-200.000	0.009	-0.245
-376.873	258.756	0.220	-0.382
-375.858	-200.000	-0.040	-0.336
-374.844	443.835	0.064	-0.141
-373.829	-200.000	0.039	0.191
-372.815	-200.000	0.013	0.099
-371.800	-200.000	-0.017	0.364
-370.785	73.588	0.179	0.189
-369.771	548.764	0.110	0.267
-368.756	119.839	-0.140	0.174
-367.742	800.000	0.141	-0.414
-366.727	276.025	0.126	0.226
-365.712	112.307	-0.163	-0.198
-364.698	800.000	0.029	-0.119
-363.683	-200.000	-0.010	0.152
-362.669	800.000	-0.023	0.071
-361.654	107.175	0.166	0.199
-360.639	78.092	-0.097	-0.104
-359.625	-200.000	0.028	0.306
-358.610	-146.390	0.362	-0.032
-357.596	45.751	-0.220	0.205
-356.581	-0.267	-0.365	-0.262
-355.566	51.338	0.375	-0.359
-354.552	-65.278	-0.108	0.044
-353.537	78.788	0.105	-0.114
-352.523	-200.000	-0.014	0.232
-351.508	800.000	-0.023	0.090
-350.493	-200.000	-0.045	-0.214
-349.479	-200.000	0.025	-0.124
-348.464	51.602	0.070	-0.067
-347.450	-60.287	0.198	-0.085
-346.435	-51.879	-0.279	0.131
-345.420	57.193	-0.075	0.074
-344.406	106.415	-0.179	-0.214
-343.391	332.978	0.115	-0.225
-342.377	21.920	0.096	0.079
-341.362	61.087	0.170	0.170
-340.348	-15.755	-0.253	0.162
-339.333	154.675	0.220	-0.305
-338.318	-11.414	0.153	0.101
-337.304	-74.083	0.076	0.028
-336.289	-48.628	0.294	0.142
-335.275	170.114	-0.068	-0.099
-334.260	-200.000	-0.062	0.290
-333.245	250.364	-0.039	-0.066
-332.231	43.468	-0.217	-0.200
-331.216	320.502	-0.190	-0.363
-330.202	-200.000	-0.019	0.217
-329.187	-95.228	0.295	-0.080
-328.172	74.256	-0.211	-0.223
-327.158	-45.251	0.176	-0.088
-326.143	-200.000	0.033	-0.320
-325.129	-104.486	0.182	-0.042
-324.114	-167.699	0.106	-0.004
-323.099	800.000	0.033	-0.096
-322.085	800.000	-0.066	0.238
-321.070	771.668	0.107	0.294
-320.056	-1.087	-0.308	-0.219
-319.041	149.768	-0.211	-0.288
-318.026	-200.000	0.064	0.283
-317.012	-101.239	0.099	-0.024
-315.997	68.311	-0.102	-0.105
-314.983	53.596	-0.085	0.082
-313.968	-193.829	-0.117	0.001
-312.953	-143.977	-0.112	-0.011
-311.939	415.149	0.020	-0.043
-310.924	-200.000	0.024	0.161
-309.910	322.087	0.035	0.068
-308.895	-107.253	0.198	-0.044
-307.880	190.657	-0.170	0.257
-306.866	85.175	-0.199	-0.219
-305.851	-200.000	-0.010	-0.073
-304.837	800.000	-0.072	0.249
-303.822	353.279	-0.180	0.359
-302.807	-200.000	-0.026	-0.170
-301.793	84.351	0.073	-0.080
-300.778	-200.000	-0.034	0.277
-299.764	-24.498	0.145	-0.087
-298.749	-53.512	0.181	-0.083
-297.735	320.665	0.051	0.098
-296.720	-164.833	0.198	-0.009
-295.705	736.794	-0.071	0.191
-294.691	800.000	-0.051	0.213
-293.676	-47.637	-0.399	0.194
-292.662	-63.398	-0.160	-0.066
-291.647	-81.837	0.224	-0.074
-290.632	-200.000	0.014	0.322
-289.618	-110.898	0.199	-0.041
-288.603	60.275	-0.228	-0.226
-287.589	146.222	-0.123	0.166
-286.574	146.543	-0.115	0.155
-285.559	-70.983	-0.236	0.089
-284.545	-18.459	0.110	0.069
-283.530	-111.944	0.205	-0.042
-282.516	18.390	0.142	-0.114
-281.501	-127.979	0.216	0.031
-280.486	12.330	0.081	-0.063
-279.472	-52.694	-0.051	0.024
-278.457	-111.478	0.142	-0.029
-277.443	-122.574	0.243	0.040
-276.428	61.957	-0.103	-0.103
-275.413	181.659	-0.219	-0.324
-274.399	-45.109	0.313	0.156
-273.384	-69.638	0.192	0.074
-272.370	446.135	-0.090	-0.198
-271.355	-104.681	0.201	-0.046
-270.340	112.704	0.083	0.101
-269.326	-5.072	0.049	-0.034
-268.311	25.496	-0.114	0.095
-267.297	-177.072	0.051	0.001
-266.282	-138.427	0.180	-0.020
-265.267	800.000	-0.096	-0.331
-264.253	-200.000	-0.004	-0.202
-263.238	-110.758	0.094	-0.019
-262.224	-24.493	0.336	0.201
-261.209	-138.913	-0.031	0.003
-260.195	494.573	0.125	-0.288
-259.180	-86.004	0.166	0.051
-258.165	393.030	-0.139	-0.290
-257.151	-200.000	0.015	0.243
-256.136	-74.132	-0.272	0.099
-255.122	-200.000	0.004	-0.097
-254.107	-164.399	0.245	0.011
-253.092	394.304	-0.090	-0.187
-252.078	-96.508	-0.163	-0.043
-251.063	-112.211	-0.205	-0.041
-250.049	-200.000	-0.012	0.234
-249.034	-69.116	-0.118	0.045
-248.019	-126.378	0.158	-0.024
-247.005	305.730	-0.047	0.087
-245.990	5.474	-0.012	-0.009
-244.976	6.609	-0.096	-0.071
-243.961	172.643	0.229	0.330
-242.946	-97.424	-0.089	0.023
-241.932	800.000	0.047	0.150
-240.917	-91.149	0.380	0.109
-239.903	-22.910	-0.125	-0.075
-238.888	-200.000	-0.013	0.187
-237.873	-114.290	-0.090	-0.017
-236.859	121.365	0.068	0.085
-235.844	800.000	-0.101	0.364
-234.830	344.880	-0.085	0.168
-233.815	-110.485	0.192	-0.040
-232.800	800.000	0.084	0.280
-231.786	133.200	0.133	0.172
-230.771	8.832	-0.185	-0.140
-229.757	-9.351	0.057	-0.038
-228.742	800.000	-0.070	-0.278
-227.727	-83.246	-0.082	-0.026
-226.713	-121.897	-0.139	0.023
-225.698	240.536	0.210	0.350
-224.684	-200.000	0.023	0.171
-223.669	-46.237	0.262	-0.129
-222.655	580.964	-0.096	-0.235
-221.640	-200.000	-0.017	0.103
-220.625	-96.510	-0.271	-0.072
-219.611	-99.304	0.259	-0.065
-218.596	399.269	0.077	-0.162
-217.582	-200.000	-0.001	-0.066
-216.567	1.866	0.062	-0.045
-215.552	-200.000	-0.019	-0.133
-214.538	223.413	0.083	0.133
-213.523	-45.344	-0.231	0.115
-212.509	-94.404	0.140	0.038
-211.494	260.587	0.121	0.209
-210.479	-59.850	0.071	0.030
-209.465	-59.401	-0.215	-0.093
-208.450	-200.000	0.006	-0.259
-207.436	800.000	0.011	0.042
-206.421	83.859	0.064	-0.070
-205.406	800.000	-0.043	0.146
-204.392	442.220	0.079	0.173
-203.377	257.290	0.030	-0.052
-202.363	-81.956	-0.153	-0.050
-201.348	-7.688	0.036	-0.024
-200.333	90.732	-0.176	0.197
-199.319	184.103	-0.159	0.236
-198.304	-127.558	0.292	-0.042
-197.290	-98.734	-0.165	0.042
-196.275	-33.804	-0.171	-0.095
-195.260	-46.899	0.206	-0.101
-194.246	319.381	0.079	0.151
-193.231	-109.741	0.069	0.015
-192.217	67.334	-0.084	-0.085
-191.202	-82.908	0.314	-0.101
-190.187	323.548	-0.077	0.148
-189.173	-200.000	-0.069	0.324
-188.158	40.426	-0.031	0.028
-187.144	-27.568	-0.239	0.139
-186.129	-6.011	0.197	0.135
-185.114	-200.000	0.067	-0.352
-184.100	-26.901	0.270	-0.158
-183.085	-143.484	-0.303	0.029
-182.071	59.013	0.142	-0.140
-181.056	60.816	-0.251	-0.249
-180.042	560.839	0.098	-0.238
-179.027	40.190	0.197	-0.177
-178.012	86.254	0.115	-0.127
-176.998	-150.875	-0.233	0.018
-175.983	-200.000	0.003	0.017
-174.969	800.000	-0.023	-0.081
-173.954	800.000	0.026	0.085
-172.939	-198.550	-0.191	-0.001
-171.925	204.120	0.145	-0.224
-170.910	155.199	-0.170	0.233
-169.896	688.435	-0.031	0.081
-168.881	-101.612	0.172	-0.042
-167.866	14.084	-0.300	0.233
-166.852	-200.000	-0.005	-0.299
-165.837	-54.799	-0.419	0.189
-164.823	-114.070	0.439	-0.085
-163.808	48.062	0.034	0.032
-162.793	-84.653	-0.334	-0.105
-161.779	-53.661	-0.060	-0.027
-160.764	-105.558	0.047	0.011
-159.750	-4.266	0.248	-0.172
-158.735	-131.493	0.207	0.027
-157.720	109.798	0.191	0.229
-156.706	800.000	0.096	0.341
-155.691	171.111	0.167	-0.239
-154.677	351.274	-0.127	0.251
-153.662	-104.196	-0.014	0.003
-152.647	189.523	-0.148	0.222
-151.633	309.953	0.112	-0.210
-150.618	-200.000	0.023	-0.115
-149.604	296.762	0.059	0.108
-148.589	24.532	-0.227	0.188
-147.574	215.331	-0.076	0.120
-146.560	-32.888	0.287	0.159
-145.545	800.000	-0.095	-0.335
-144.531	-103.346	0.157	-0.037
-143.516	-200.000	-0.005	-0.138
-142.502	-19.955	0.129	-0.080
-141.487	-200.000	0.034	0.261
-140.472	612.975	0.172	0.431
-139.458	41.351	0.198	0.179
-138.443	-175.962	0.388	-0.010
-137.429	26.042	-0.116	-0.097
-136.414	1.375	0.167	-0.120
-135.399	-200.000	0.017	0.265
-134.385	800.000	0.052	0.198
-133.370	-140.893	0.034	-0.003
-132.356	-166.283	0.348	0.015
-131.341	-6.807	0.254	-0.172
-130.326	-182.107	0.275	0.005
-129.312	440.042	0.024	-0.052
-128.297	-200.000	-0.035	0.167
-127.283	-200.000	-0.120	0.534
-126.268	-13.671	-0.409	0.264
-125.253	87.786	0.082	-0.091
-124.239	-134.816	-0.054	-0.007
-123.224	800.000	-0.005	-0.017
-122.210	-200.000	-0.042	-0.252
