DTS Sentinel unit serial number:	SN413079Multiplexer serial number:	ORYXHardware model number:	OX4-SRSoftware version number:	ORYX F/W v4.00 Oryx Data Collector v3.7.2.0data status	okinstallation	princeton_trtdifferential loss correction	single-endedforward channel	channel 1reverse channel	N/Adate	2019/09/16time	04:02:35forward acquisition time	60.00reverse acquisition time	0.00gamma	496.2192k internal	0.2331k external	0.2331temperature offset calibration	0.9985default loss term (dB/km)	0.3790temperature slope calibration	1.0000multiplexer offset coefficient	1.0000multiplexer slope coefficient	1.0000fibre end	0.00T internal ref (°C)	27.44T ext. ref 1 (°C)	10.72T ext. ref 2 (°C)	21.43length (m)	temperature (°C)	Stokes	anti-Stokes-747.200	-171.930	0.224	-0.007
-746.185	-188.962	0.183	-0.002
-745.171	183.349	-0.027	-0.040
-744.156	-52.785	-0.153	-0.071
-743.142	337.696	0.079	0.155
-742.127	800.000	-0.015	0.048
-741.112	132.882	0.184	-0.238
-740.098	-30.613	-0.037	-0.021
-739.083	-140.675	-0.232	0.024
-738.069	544.217	0.107	0.256
-737.054	750.596	0.096	0.261
-736.039	-89.922	-0.145	0.042
-735.025	152.427	0.144	-0.198
-734.010	322.811	0.061	-0.117
-732.996	34.640	-0.170	-0.150
-731.981	-156.035	0.121	0.008
-730.966	-38.724	0.101	-0.054
-729.952	-200.000	-0.011	-0.315
-728.937	191.356	0.297	-0.450
-727.923	356.965	-0.128	-0.257
-726.908	786.724	0.094	-0.260
-725.894	-200.000	-0.023	-0.366
-724.879	-200.000	-0.008	0.197
-723.864	-1.407	-0.161	0.114
-722.850	-86.124	0.103	0.032
-721.835	80.098	-0.120	-0.130
-720.821	-161.495	-0.205	-0.011
-719.806	-109.259	-0.155	0.033
-718.791	-74.005	-0.210	0.077
-717.777	800.000	-0.128	-0.375
-716.762	-200.000	-0.020	-0.150
-715.748	-116.718	-0.360	-0.066
-714.733	800.000	-0.048	-0.144
-713.718	345.399	0.093	0.184
-712.704	-200.000	-0.034	-0.184
-711.689	-168.927	0.236	-0.009
-710.675	-60.940	0.040	0.017
-709.660	544.875	0.127	-0.304
-708.645	437.918	-0.081	-0.177
-707.631	70.300	-0.142	-0.148
-706.616	23.825	0.174	0.144
-705.602	-96.400	0.065	-0.017
-704.587	-24.493	-0.137	0.082
-703.572	-200.000	0.017	-0.125
-702.558	-31.812	0.108	-0.061
-701.543	441.976	0.039	-0.087
-700.529	800.000	-0.028	0.090
-699.514	-16.706	0.190	-0.121
-698.499	800.000	-0.021	0.067
-697.485	-160.775	-0.162	-0.009
-696.470	-200.000	-0.028	-0.166
-695.456	71.752	0.326	0.340
-694.441	-200.000	0.003	-0.098
-693.426	14.655	-0.174	0.137
-692.412	-158.039	0.220	0.013
-691.397	-138.923	-0.336	-0.037
-690.383	30.702	0.204	-0.176
-689.368	345.437	-0.108	0.212
-688.354	-121.000	0.336	0.057
-687.339	800.000	-0.074	-0.228
-686.324	800.000	0.030	-0.098
-685.310	-24.130	-0.035	-0.021
-684.295	99.624	-0.123	-0.143
-683.281	-18.565	-0.175	0.110
-682.266	-111.170	0.328	-0.067
-681.251	-52.748	-0.211	0.098
-680.237	9.550	-0.119	-0.091
-679.222	152.643	0.055	-0.075
-678.208	800.000	-0.071	0.291
-677.193	109.867	0.091	-0.110
-676.178	-141.090	0.183	0.019
-675.164	800.000	-0.013	0.042
-674.149	-200.000	-0.010	-0.063
-673.135	-200.000	-0.037	0.252
-672.120	14.759	0.390	-0.306
-671.105	7.338	-0.257	0.193
-670.091	-106.242	-0.168	-0.038
-669.076	-97.271	-0.123	0.032
-668.062	31.271	-0.214	-0.184
-667.047	-54.364	-0.278	-0.126
-666.032	-66.095	0.341	0.136
-665.018	113.057	-0.131	0.159
-664.003	303.108	0.143	0.266
-662.989	-152.832	-0.363	0.026
-661.974	-127.037	0.134	0.020
-660.959	-136.475	-0.249	-0.029
-659.945	800.000	0.033	-0.105
-658.930	40.511	0.041	0.037
-657.916	20.736	-0.105	0.085
-656.901	19.081	0.130	0.105
-655.886	287.488	0.113	-0.205
-654.872	-126.769	-0.151	-0.022
-653.857	-200.000	0.025	-0.210
-652.843	-184.257	0.126	0.002
-651.828	-200.000	-0.034	-0.222
-650.814	303.495	-0.081	-0.151
-649.799	800.000	-0.071	-0.281
-648.784	235.194	-0.090	0.149
-647.770	568.216	-0.051	0.125
-646.755	-51.971	0.248	0.115
-645.741	-113.182	-0.192	-0.038
-644.726	-200.000	-0.001	0.167
-643.711	-94.176	0.142	0.039
-642.697	128.875	-0.112	0.143
-641.682	-49.366	0.065	-0.031
-640.668	69.420	0.265	0.274
-639.653	-48.290	-0.272	-0.132
-638.638	-200.000	-0.003	0.175
-637.624	-200.000	0.013	0.194
-636.609	64.846	0.280	0.283
-635.595	645.137	0.091	0.232
-634.580	-59.841	0.178	0.076
-633.565	106.957	0.241	-0.287
-632.551	200.840	-0.083	-0.128
-631.536	-200.000	-0.041	0.377
-630.522	-113.361	0.112	0.022
-629.507	-96.011	-0.131	-0.035
-628.492	800.000	-0.113	-0.349
-627.478	-53.361	0.189	-0.087
-626.463	160.394	-0.130	0.182
-625.449	-180.496	0.227	0.005
-624.434	800.000	-0.053	-0.200
-623.419	-200.000	-0.014	-0.145
-622.405	758.802	-0.121	-0.329
-621.390	-61.053	-0.115	-0.049
-620.376	44.487	-0.108	0.100
-619.361	-14.769	0.210	0.135
-618.346	-13.571	0.039	-0.025
-617.332	-116.210	-0.145	-0.027
-616.317	-13.353	0.372	-0.242
-615.303	-28.536	0.261	0.150
-614.288	82.312	0.299	-0.325
-613.273	10.135	0.209	0.159
-612.259	-175.600	-0.203	0.005
-611.244	5.566	-0.256	0.189
-610.230	-200.000	-0.021	-0.433
-609.215	519.175	0.164	0.384
-608.201	106.878	0.195	0.232
-607.186	-200.000	-0.025	-0.281
-606.171	800.000	-0.050	0.173
-605.157	184.864	-0.230	0.341
-604.142	-200.000	-0.003	-0.341
-603.128	39.659	-0.204	-0.183
-602.113	174.469	0.075	-0.109
-601.098	-200.000	-0.061	0.323
-600.084	-200.000	-0.014	0.438
-599.069	800.000	0.096	-0.354
-598.055	-200.000	0.024	-0.199
-597.040	482.095	-0.021	-0.048
-596.025	17.121	-0.104	-0.083
-595.011	-200.000	0.018	-0.091
-593.996	52.636	-0.125	-0.120
-592.982	75.587	-0.335	-0.354
-591.967	-200.000	0.026	-0.182
-590.952	504.746	-0.100	0.231
-589.938	-200.000	0.047	0.274
-588.923	-200.000	-0.039	-0.264
-587.909	800.000	-0.025	0.075
-586.894	2.532	0.165	-0.120
-585.879	-110.141	0.290	-0.061
-584.865	800.000	-0.034	-0.146
-583.850	-97.283	-0.154	-0.040
-582.836	-67.655	0.499	0.195
-581.821	142.119	-0.251	0.333
-580.806	-31.984	-0.138	0.077
-579.792	-116.517	0.174	-0.032
-578.777	39.647	-0.034	-0.031
-577.763	230.175	0.095	0.155
-576.748	-105.060	-0.470	-0.108
-575.733	-126.458	-0.107	-0.016
-574.719	-94.399	0.273	-0.074
-573.704	800.000	-0.097	0.346
-572.690	697.072	-0.058	0.152
-571.675	-139.298	-0.025	-0.003
-570.661	-62.516	0.049	-0.020
-569.646	-200.000	-0.007	-0.053
-568.631	-200.000	0.031	-0.196
-567.617	-200.000	-0.011	-0.156
-566.602	175.471	-0.255	0.369
-565.588	800.000	-0.045	-0.150
-564.573	600.221	-0.094	0.232
-563.558	658.320	-0.099	0.253
-562.544	31.784	0.215	-0.185
-561.529	124.494	0.137	-0.172
-560.515	-69.944	-0.184	0.070
-559.500	-76.075	0.188	0.066
-558.485	180.092	-0.101	0.148
-557.471	800.000	-0.065	-0.187
-556.456	-98.387	-0.153	-0.039
-555.442	-79.125	-0.216	0.073
-554.427	77.684	0.374	-0.398
-553.412	654.639	0.063	0.163
-552.398	-150.752	0.293	0.022
-551.383	161.277	-0.050	-0.070
-550.369	-73.983	-0.125	-0.045
-549.354	-135.607	0.203	-0.024
-548.339	-66.461	-0.177	0.070
-547.325	800.000	-0.076	0.317
-546.310	-200.000	0.024	-0.122
-545.296	-86.088	-0.348	-0.107
-544.281	-200.000	-0.003	0.066
-543.266	800.000	-0.089	-0.284
-542.252	-131.961	0.208	-0.027
-541.237	412.295	0.138	-0.292
-540.223	45.648	0.171	-0.158
-539.208	-114.806	-0.108	-0.020
-538.193	-145.533	-0.304	-0.027
-537.179	-65.683	-0.141	0.056
-536.164	-56.063	0.113	-0.050
-535.150	61.804	0.088	0.088
-534.135	639.599	0.049	-0.124
-533.121	-18.209	0.141	-0.088
-532.106	-71.617	-0.506	0.189
-531.091	-49.287	-0.128	-0.061
-530.077	547.395	0.012	0.028
-529.062	-113.933	0.338	-0.065
-528.048	-74.630	0.231	0.083
-527.033	246.224	-0.082	0.138
-526.018	29.673	0.115	0.098
-525.004	-200.000	-0.050	-0.337
-523.989	50.136	-0.429	-0.404
-522.975	145.894	-0.202	-0.270
-521.960	549.434	0.047	-0.111
-520.945	-200.000	0.066	0.547
-519.931	-87.378	-0.114	0.034
-518.916	-56.665	-0.133	0.059
-517.902	92.334	0.085	-0.096
-516.887	-11.139	-0.076	0.050
-515.872	800.000	-0.075	0.238
-514.858	-135.369	-0.496	0.059
-513.843	-102.909	0.222	0.053
-512.829	-24.754	-0.103	-0.061
-511.814	-25.356	0.143	0.085
-510.799	-87.699	-0.101	-0.030
-509.785	-11.057	0.083	0.054
-508.770	87.841	0.193	-0.213
-507.756	-175.940	-0.512	-0.014
-506.741	-26.599	0.241	0.140
-505.726	-177.484	-0.332	0.008
-504.712	-200.000	0.032	-0.419
-503.697	-102.911	-0.061	-0.014
-502.683	42.608	-0.190	0.172
-501.668	-145.676	0.101	-0.009
-500.653	393.673	0.186	-0.386
-499.639	248.085	0.152	0.255
-498.624	157.833	0.226	0.312
-497.610	40.204	0.326	0.293
-496.595	-63.966	0.215	0.088
-495.581	-35.916	-0.133	0.072
-494.566	-95.879	0.117	-0.031
-493.551	259.419	0.102	-0.175
-492.537	156.801	0.164	-0.226
-491.522	-200.000	-0.023	-0.143
-490.508	-35.405	0.232	0.125
-489.493	-39.089	-0.033	-0.017
-488.478	736.907	0.055	0.148
-487.464	20.768	0.043	0.035
-486.449	-200.000	0.002	-0.185
-485.435	800.000	0.053	-0.211
-484.420	2.933	0.101	0.073
-483.405	800.000	-0.073	-0.257
-482.391	-44.722	0.143	0.071
-481.376	21.468	0.056	-0.045
-480.362	280.596	-0.104	-0.185
-479.347	50.939	-0.137	-0.129
-478.332	-50.982	0.150	-0.070
-477.318	290.520	0.101	-0.183
-476.303	-200.000	0.035	-0.329
-475.289	800.000	-0.069	-0.264
-474.274	70.962	0.120	-0.124
-473.259	800.000	-0.051	-0.179
-472.245	-200.000	0.045	0.309
-471.230	59.646	0.128	-0.126
-470.216	-143.781	0.263	0.025
-469.201	365.927	-0.068	-0.136
-468.186	-105.424	0.167	0.038
-467.172	-72.532	-0.385	0.141
-466.157	-2.880	-0.091	0.064
-465.143	-200.000	-0.050	-0.327
-464.128	251.060	-0.196	-0.332
-463.113	-88.396	0.145	-0.043
-462.099	-162.617	-0.082	-0.004
-461.084	-59.280	-0.156	-0.067
-460.070	6.105	-0.288	-0.212
-459.055	132.835	0.121	-0.156
-458.040	306.975	-0.217	-0.402
-457.026	-200.000	0.047	-0.312
-456.011	-60.691	0.090	0.038
-454.997	21.663	-0.187	0.152
-453.982	-3.519	0.389	0.269
-452.968	70.766	0.128	0.132
-451.953	-33.821	-0.130	0.071
-450.938	800.000	0.081	0.221
-449.924	800.000	-0.036	0.145
-448.909	-1.779	-0.331	-0.232
-447.895	-155.952	-0.216	0.014
-446.880	-133.181	0.404	-0.051
-445.865	-72.285	-0.370	-0.136
-444.851	-153.091	0.210	0.015
-443.836	-30.768	0.122	0.068
-442.822	-89.745	-0.267	0.078
-441.807	70.978	0.144	-0.149
-440.792	-13.089	0.219	-0.142
-439.778	-200.000	-0.028	-0.458
-438.763	800.000	-0.090	0.351
-437.749	144.406	0.323	0.428
-436.734	487.875	-0.091	0.207
-435.719	165.606	-0.025	-0.035
-434.705	591.735	0.095	-0.232
-433.690	-0.183	0.111	-0.078
-432.676	4.529	0.380	0.277
-431.661	-200.000	-0.048	-0.441
-430.646	-77.838	-0.079	-0.027
-429.632	240.778	-0.096	0.160
-428.617	-200.000	-0.046	0.265
-427.603	-25.567	0.148	-0.087
-426.588	-86.273	0.230	-0.070
-425.573	395.468	0.142	-0.294
-424.559	369.852	0.094	0.189
-423.544	-200.000	-0.019	0.083
-422.530	-75.230	-0.184	0.065
-421.515	-200.000	0.031	0.306
-420.500	-170.647	-0.145	0.005
-419.486	63.401	-0.148	-0.147
-418.471	236.032	0.089	-0.146
-417.457	-200.000	-0.002	-0.092
-416.442	-200.000	-0.008	-0.256
-415.428	-127.305	0.108	0.016
-414.413	-89.336	0.061	0.018
-413.398	69.117	0.073	-0.075
-412.384	75.428	0.036	0.038
-411.369	98.326	-0.105	-0.121
-410.355	191.732	0.103	-0.155
-409.340	33.593	0.249	-0.215
-408.325	-79.362	-0.085	-0.029
-407.311	800.000	-0.020	-0.055
-406.296	111.515	0.146	-0.175
-405.282	-200.000	-0.018	-0.167
-404.267	289.531	0.090	0.163
-403.252	100.293	0.142	-0.164
-402.238	-200.000	0.004	0.079
-401.223	-113.387	0.352	-0.069
-400.209	-24.484	-0.011	0.007
-399.194	-8.725	0.160	-0.107
-398.179	169.784	0.106	-0.150
-397.165	-123.939	-0.068	-0.011
-396.150	800.000	0.045	-0.174
-395.136	268.736	0.151	0.262
-394.121	-65.083	-0.190	-0.076
-393.106	-148.987	0.093	0.007
-392.092	-106.143	-0.229	0.051
-391.077	17.360	0.246	-0.193
-390.063	283.435	-0.104	-0.185
-389.048	800.000	-0.108	-0.441
-388.033	-99.526	0.251	-0.063
-387.019	245.754	0.014	-0.024
-386.004	-106.802	-0.197	0.043
-384.990	117.419	-0.180	-0.220
-383.975	-35.109	0.352	0.190
-382.960	-151.180	-0.252	0.019
-381.946	-166.173	-0.354	-0.015
-380.931	-129.342	0.062	0.009
-379.917	77.453	-0.284	0.300
-378.902	-155.016	-0.198	0.013
-377.888	-46.942	0.027	0.013
-376.873	-76.243	-0.332	0.116
-375.858	482.967	-0.072	0.163
-374.844	-24.777	0.103	-0.060
-373.829	-200.000	-0.001	0.056
-372.815	-200.000	0.013	0.219
-371.800	-90.537	-0.133	0.038
-370.785	250.002	-0.039	-0.065
-369.771	-126.735	0.106	0.016
-368.756	-41.642	-0.256	0.131
-367.742	-42.031	0.117	-0.059
-366.727	129.020	0.239	0.302
-365.712	58.242	0.092	-0.090
-364.698	-200.000	0.018	-0.092
-363.683	332.966	0.148	-0.284
-362.669	357.415	-0.045	-0.090
-361.654	412.157	-0.071	0.149
-360.639	130.810	0.043	-0.055
-359.625	39.441	0.139	0.124
-358.610	800.000	0.065	0.179
-357.596	-43.231	-0.220	0.110
-356.581	-168.544	0.302	0.011
-355.566	429.788	0.157	-0.336
-354.552	-9.013	0.048	-0.032
-353.537	-103.227	0.295	0.069
-352.523	13.184	0.267	0.205
-351.508	19.905	-0.140	-0.112
-350.493	-63.885	-0.134	-0.054
-349.479	-200.000	-0.054	-0.324
-348.464	676.317	0.115	0.297
-347.450	-163.641	0.395	-0.018
-346.435	272.156	0.068	-0.119
-345.420	-200.000	0.002	0.265
-344.406	-65.386	0.276	-0.110
-343.391	-200.000	-0.012	0.103
-342.377	800.000	0.106	0.329
-341.362	-34.277	-0.293	0.159
-340.348	800.000	0.039	0.108
-339.333	440.312	-0.169	-0.367
-338.318	800.000	0.043	-0.121
-337.304	252.856	0.167	0.283
-336.289	-115.124	-0.179	0.034
-335.275	102.186	0.167	0.193
-334.260	10.650	0.386	0.291
-333.245	-92.948	-0.054	-0.015
-332.231	5.113	-0.044	-0.032
-331.216	800.000	-0.060	0.214
-330.202	-28.432	-0.161	-0.092
-329.187	-200.000	-0.039	-0.248
-328.172	-200.000	0.013	-0.068
-327.158	-84.932	-0.212	-0.066
-326.143	-111.067	0.295	-0.060
-325.129	-200.000	0.041	-0.365
-324.114	-200.000	0.027	-0.495
-323.099	367.925	0.095	0.190
-322.085	636.014	0.043	0.107
-321.070	-65.248	0.128	-0.051
-320.056	-98.224	0.119	0.030
-319.041	571.259	-0.184	0.443
-318.026	800.000	-0.063	0.237
-317.012	-140.565	-0.460	-0.047
-315.997	528.616	-0.117	-0.273
-314.983	59.912	-0.075	0.074
-313.968	49.536	0.166	0.155
-312.953	-9.156	0.146	-0.097
-311.939	385.284	-0.166	-0.339
-310.924	-16.140	-0.264	0.166
-309.910	120.668	0.063	-0.078
-308.895	-200.000	-0.004	-0.076
-307.880	-26.166	0.282	0.164
-306.866	47.558	-0.191	-0.176
-305.851	58.031	-0.121	-0.117
-304.837	171.572	0.054	0.077
-303.822	-190.660	0.014	-0.000
-302.807	800.000	0.097	0.310
-301.793	-69.272	0.198	0.075
-300.778	321.373	0.076	-0.143
-299.764	800.000	0.081	0.269
-298.749	800.000	0.050	0.186
-297.735	-200.000	0.017	-0.111
-296.720	-200.000	-0.029	-0.174
-295.705	69.025	-0.098	-0.099
-294.691	14.363	0.096	-0.074
-293.676	-200.000	-0.040	0.233
-292.662	21.269	0.284	-0.228
-291.647	-113.912	-0.172	0.033
-290.632	60.397	0.291	0.284
-289.618	-136.822	0.212	0.024
-288.603	-111.665	0.391	0.078
-287.589	-200.000	0.005	0.228
-286.574	-64.445	0.461	0.185
-285.559	310.728	-0.100	-0.185
-284.545	-108.898	0.052	0.011
-283.530	-200.000	-0.047	-0.347
-282.516	59.539	-0.208	-0.202
-281.501	465.818	-0.043	-0.096
-280.486	456.735	-0.114	0.251
-279.472	86.615	-0.141	-0.154
-278.457	100.199	0.165	-0.189
-277.443	-168.984	0.092	0.003
-276.428	-57.661	-0.329	-0.142
-275.413	800.000	-0.040	0.145
-274.399	-200.000	0.022	0.384
-273.384	233.744	0.071	0.115
-272.370	152.005	-0.215	-0.290
-271.355	-25.398	-0.181	0.106
-270.340	-200.000	0.012	0.131
-269.326	-117.557	0.082	-0.015
-268.311	-200.000	0.062	-0.311
-267.297	-5.946	0.104	-0.070
-266.282	800.000	0.060	0.238
-265.267	-35.749	0.054	0.029
-264.253	-0.902	-0.144	-0.101
-263.238	-93.698	-0.201	0.055
-262.224	-29.799	-0.207	-0.116
-261.209	18.075	-0.308	-0.243
-260.195	-198.213	0.164	-0.001
-259.180	-29.057	-0.164	0.093
-258.165	-7.857	0.329	-0.219
-257.151	-200.000	-0.008	-0.084
-256.136	-83.574	-0.340	0.107
-255.122	7.647	0.145	-0.107
-254.107	-16.573	0.183	0.114
-253.092	-90.320	-0.241	-0.069
-252.078	-200.000	-0.036	0.230
-251.063	48.662	-0.255	0.236
-250.049	175.358	0.155	0.221
-249.034	343.705	-0.136	0.263
-248.019	-112.706	0.201	0.039
-247.005	195.515	-0.308	0.462
-245.990	800.000	-0.045	-0.165
-244.976	88.235	0.054	0.059
-243.961	-34.138	0.096	-0.052
-242.946	-200.000	0.013	0.235
-241.932	-85.659	-0.387	0.119
-240.917	-85.270	0.249	-0.077
-239.903	-117.660	0.334	-0.059
-238.888	-71.023	0.231	-0.086
-237.873	440.421	0.172	-0.372
-236.859	-62.280	0.354	0.145
-235.844	-4.156	-0.182	-0.124
-234.830	528.260	-0.140	0.326
-233.815	524.141	0.027	-0.063
-232.800	800.000	0.046	-0.159
-231.786	40.179	-0.174	0.154
-230.771	-28.498	-0.123	-0.070
-229.757	-14.415	-0.299	-0.190
-228.742	-109.208	-0.172	0.036
-227.727	-121.084	0.236	-0.039
-226.713	-200.000	-0.093	-0.414
-225.698	-200.000	0.000	0.052
-224.684	-144.533	0.212	-0.019
-223.669	-75.234	0.278	-0.098
-222.655	800.000	-0.077	0.239
-221.640	108.060	0.101	0.118
-220.625	800.000	0.015	-0.048
-219.611	46.710	-0.080	0.073
-218.596	90.537	-0.128	-0.141
-217.582	-200.000	0.047	-0.283
-216.567	-39.809	-0.176	-0.091
-215.552	-200.000	0.023	-0.152
-214.538	315.431	-0.086	-0.160
-213.523	424.403	0.063	-0.133
-212.509	295.875	0.153	0.277
-211.494	-64.395	-0.305	-0.122
-210.479	-122.339	0.302	-0.049
-209.465	302.888	0.113	0.205
-208.450	-82.279	-0.199	-0.064
-207.436	-200.000	-0.039	0.500
-206.421	800.000	0.049	0.146
-205.406	-40.806	-0.405	0.206
-204.392	-200.000	0.008	0.067
-203.377	144.130	0.099	-0.131
-202.363	51.990	-0.172	0.161
-201.348	268.669	-0.181	0.313
-200.333	-91.704	0.282	0.079
-199.319	-112.898	-0.182	0.036
-198.304	-80.747	-0.334	-0.109
-197.290	-136.646	0.111	-0.013
-196.275	800.000	0.061	-0.217
-195.260	55.773	0.149	-0.142
-194.246	-92.080	-0.111	-0.031
-193.231	11.919	0.071	0.054
-192.217	128.602	-0.163	0.204
-191.202	7.423	-0.130	-0.096
-190.187	-6.612	-0.105	0.070
-189.173	-19.984	-0.258	0.157
-188.158	-200.000	-0.021	0.177
-187.144	48.670	0.173	-0.159
-186.129	-111.007	-0.306	0.062
-185.114	-100.570	-0.275	-0.067
-184.100	14.035	-0.322	0.247
-183.085	-78.514	-0.201	0.068
-182.071	-200.000	0.050	0.223
-181.056	-200.000	-0.002	0.011
-180.042	211.019	-0.193	0.299
-179.027	146.914	-0.069	0.091
-178.012	-127.854	-0.085	-0.012
-176.998	200.423	-0.041	0.062
-175.983	800.000	0.055	-0.167
-174.969	-92.120	-0.136	0.038
-173.954	-200.000	-0.020	0.281
-172.939	-57.230	0.198	0.086
-171.925	-19.807	-0.325	-0.198
-170.910	-200.000	-0.066	0.332
-169.896	32.943	-0.294	0.250
-168.881	-38.052	0.295	0.154
-167.866	-39.831	-0.083	0.043
-166.852	-98.354	0.238	0.060
-165.837	-70.171	-0.216	0.081
-164.823	2.513	-0.139	-0.099
-163.808	-52.296	0.095	-0.043
-162.793	46.828	0.152	0.139
-161.779	-200.000	-0.021	-0.206
-160.764	-137.585	0.069	0.008
-159.750	730.129	-0.074	0.193
-158.735	-200.000	0.015	-0.072
-157.720	421.788	-0.120	0.254
-156.706	-200.000	0.029	0.160
-155.691	15.217	-0.313	0.242
-154.677	-200.000	-0.025	0.134
-153.662	-91.872	-0.184	0.051
-152.647	8.168	0.130	-0.096
-151.633	-122.955	0.288	0.046
-150.618	-154.177	-0.233	-0.015
-149.604	-67.198	-0.094	0.037
-148.589	277.300	0.123	-0.215
-147.574	-42.460	0.272	0.136
-146.560	-111.378	0.281	0.056
-145.545	76.884	-0.190	-0.198
-144.531	117.570	-0.029	0.035
-143.516	306.734	0.127	0.232
-142.502	800.000	-0.003	0.009
-141.487	-200.000	-0.021	-0.139
-140.472	70.399	-0.030	-0.030
-139.458	101.712	-0.071	-0.081
-138.443	-200.000	-0.003	-0.037
-137.429	-125.833	0.371	-0.055
-136.414	73.045	0.126	0.129
-135.399	-65.963	0.199	-0.078
-134.385	558.859	-0.035	0.083
-133.370	-28.449	0.163	-0.092
-132.356	800.000	0.155	-0.526
-131.341	800.000	-0.044	0.147
-130.326	129.208	-0.062	0.077
-129.312	165.358	0.020	-0.027
-128.297	-49.204	-0.184	0.087
-127.283	5.720	-0.177	-0.129
-126.268	-88.743	0.103	0.030
-125.253	800.000	-0.106	0.316
-124.239	70.063	0.093	-0.094
-123.224	47.025	-0.109	0.099
-122.210	32.815	-0.132	-0.113
