DTS Sentinel unit serial number:	SN413079Multiplexer serial number:	ORYXHardware model number:	OX4-SRSoftware version number:	ORYX F/W v4.00 Oryx Data Collector v3.7.2.0data status	okinstallation	princeton_trtdifferential loss correction	single-endedforward channel	channel 1reverse channel	N/Adate	2019/09/11time	16:04:11forward acquisition time	60.00reverse acquisition time	0.00gamma	496.2192k internal	0.2290k external	0.2290temperature offset calibration	0.9992default loss term (dB/km)	0.3790temperature slope calibration	1.0000multiplexer offset coefficient	1.0000multiplexer slope coefficient	1.0000fibre end	0.00T internal ref (°C)	43.12T ext. ref 1 (°C)	1.04T ext. ref 2 (°C)	38.64length (m)	temperature (°C)	Stokes	anti-Stokes-747.200	-80.096	0.206	0.071
-746.185	78.795	-0.107	0.117
-745.171	301.850	-0.102	0.192
-744.156	495.377	0.012	0.029
-743.142	800.000	0.048	0.208
-742.127	353.666	0.148	0.301
-741.112	800.000	-0.067	0.208
-740.098	373.550	-0.150	0.312
-739.083	800.000	0.047	-0.200
-738.069	-200.000	0.014	0.335
-737.054	-200.000	-0.046	-0.240
-736.039	-28.512	0.067	0.039
-735.025	-61.844	-0.120	-0.052
-734.010	110.132	-0.122	0.150
-732.996	164.477	0.098	-0.141
-731.981	-200.000	0.012	-0.082
-730.966	18.697	-0.068	-0.056
-729.952	441.751	-0.047	0.105
-728.937	800.000	0.028	0.109
-727.923	-84.052	0.311	0.101
-726.908	202.387	0.005	-0.008
-725.894	50.541	-0.189	-0.183
-724.879	-200.000	-0.048	0.286
-723.864	112.437	0.205	-0.254
-722.850	288.325	-0.074	-0.136
-721.835	-172.984	0.292	-0.009
-720.821	-176.397	-0.246	-0.007
-719.806	-200.000	-0.022	0.186
-718.791	461.370	-0.083	-0.189
-717.777	235.465	-0.086	-0.145
-716.762	130.294	-0.242	-0.318
-715.748	75.929	-0.126	-0.136
-714.733	-200.000	-0.033	-0.392
-713.718	109.411	0.095	0.116
-712.704	19.942	-0.200	0.165
-711.689	-200.000	0.019	-0.122
-710.675	-117.922	-0.183	0.034
-709.660	-14.108	0.383	-0.253
-708.645	11.983	0.088	-0.069
-707.631	-54.110	-0.347	-0.162
-706.616	-90.910	0.164	0.048
-705.602	126.863	0.153	-0.198
-704.587	-200.000	-0.014	-0.256
-703.572	529.222	-0.053	0.127
-702.558	176.941	0.063	-0.093
-701.543	-58.912	-0.272	0.120
-700.529	800.000	0.074	0.247
-699.514	800.000	-0.036	-0.127
-698.499	-70.738	-0.359	-0.138
-697.485	800.000	-0.078	-0.255
-696.470	23.226	-0.118	-0.099
-695.456	-167.295	0.221	-0.009
-694.441	501.543	0.218	0.514
-693.426	-200.000	0.021	-0.227
-692.412	-200.000	0.019	0.197
-691.397	144.147	0.078	-0.107
-690.383	29.568	-0.133	-0.116
-689.368	151.895	-0.172	-0.240
-688.354	-88.590	0.022	-0.007
-687.339	286.375	0.110	-0.203
-686.324	433.989	0.210	-0.467
-685.310	-0.536	0.234	-0.170
-684.295	-118.074	0.383	-0.070
-683.281	-199.680	0.094	-0.000
-682.266	-144.773	-0.231	-0.022
-681.251	-52.983	-0.045	-0.021
-680.237	-182.521	-0.261	-0.005
-679.222	-200.000	0.037	-0.534
-678.208	-200.000	0.055	0.357
-677.193	12.895	0.018	0.014
-676.178	-98.445	-0.182	-0.047
-675.164	681.034	0.109	-0.289
-674.149	-200.000	0.006	0.160
-673.135	-145.905	0.087	-0.008
-672.120	-105.901	0.102	0.023
-671.105	82.581	-0.141	0.156
-670.091	762.351	-0.057	0.158
-669.076	-148.253	0.191	-0.016
-668.062	179.982	0.149	-0.223
-667.047	205.067	-0.011	-0.017
-666.032	169.230	0.157	0.229
-665.018	-200.000	0.011	0.111
-664.003	39.992	-0.111	-0.102
-662.989	-39.628	0.087	-0.047
-661.974	800.000	-0.068	0.217
-660.959	14.783	-0.070	0.056
-659.945	-152.987	-0.198	0.014
-658.930	75.268	-0.145	0.156
-657.916	-49.245	-0.156	0.076
-656.901	-15.386	0.393	0.257
-655.886	-200.000	-0.019	0.490
-654.872	-81.124	-0.086	0.029
-653.857	93.738	0.050	-0.058
-652.843	-103.766	0.112	0.027
-651.828	226.282	-0.085	-0.141
-650.814	800.000	0.031	-0.134
-649.799	127.608	0.180	-0.233
-648.784	800.000	0.067	-0.214
-647.770	-77.492	-0.275	-0.097
-646.755	800.000	-0.138	-0.395
-645.741	800.000	0.009	-0.032
-644.726	568.866	0.079	-0.195
-643.711	-200.000	0.060	0.000
-642.697	-130.250	-0.076	-0.011
-641.682	800.000	-0.070	-0.249
-640.668	-138.369	-0.260	-0.029
-639.653	-200.000	-0.005	0.045
-638.638	800.000	-0.107	-0.357
-637.624	-200.000	0.000	0.233
-636.609	800.000	-0.061	-0.244
-635.595	-28.740	0.115	-0.068
-634.580	-98.718	-0.282	0.073
-633.565	194.387	-0.102	0.157
-632.551	223.905	-0.199	-0.327
-631.536	-171.345	-0.296	0.010
-630.522	-200.000	0.066	-0.404
-629.507	339.898	-0.131	0.260
-628.492	79.630	0.051	0.056
-627.478	-119.627	0.273	0.048
-626.463	-8.575	0.314	0.215
-625.449	339.704	0.088	-0.176
-624.434	-200.000	0.019	0.171
-623.419	-102.607	0.102	0.025
-622.405	100.921	-0.208	-0.246
-621.390	-9.553	-0.214	0.146
-620.376	-182.917	0.201	0.004
-619.361	-200.000	0.033	-0.327
-618.346	50.878	-0.154	-0.149
-617.332	70.967	0.119	-0.126
-616.317	263.623	-0.150	0.265
-615.303	399.996	-0.126	0.269
-614.288	800.000	-0.050	0.150
-613.273	-184.544	0.270	0.004
-612.259	800.000	0.028	-0.112
-611.244	25.306	-0.189	-0.160
-610.230	800.000	-0.126	0.380
-609.215	275.814	-0.135	0.244
-608.201	596.927	-0.190	0.479
-607.186	-55.731	0.259	-0.118
-606.171	522.748	0.062	0.148
-605.157	800.000	0.039	-0.148
-604.142	-200.000	0.008	0.066
-603.128	115.328	0.015	0.019
-602.113	5.719	-0.263	0.198
-601.098	-53.123	-0.129	0.061
-600.084	-96.662	0.429	-0.115
-599.069	-200.000	-0.034	0.000
-598.055	-200.000	-0.037	0.294
-597.040	-200.000	0.010	-0.070
-596.025	-200.000	-0.015	0.129
-595.011	800.000	-0.150	0.421
-593.996	-140.573	0.026	-0.003
-592.982	-200.000	-0.023	0.184
-591.967	-170.950	0.340	0.012
-590.952	771.423	-0.053	0.147
-589.938	35.098	-0.300	-0.268
-588.923	75.923	0.157	0.169
-587.909	22.319	-0.158	-0.131
-586.894	366.169	-0.034	0.070
-585.879	-200.000	-0.020	0.158
-584.865	149.413	-0.207	-0.285
-583.850	427.429	0.191	-0.420
-582.836	-42.989	-0.330	0.170
-581.821	-112.555	0.315	0.064
-580.806	800.000	0.031	-0.119
-579.792	5.164	0.261	-0.196
-578.777	55.275	0.301	-0.297
-577.763	-144.292	-0.325	0.031
-576.748	-25.162	-0.126	-0.076
-575.733	-200.000	-0.011	-0.185
-574.719	-72.289	0.159	-0.060
-573.704	-68.911	-0.154	-0.061
-572.690	49.615	-0.174	-0.167
-571.675	231.693	0.009	0.015
-570.661	-180.553	-0.163	0.003
-569.646	18.496	0.135	-0.110
-568.631	21.903	-0.022	0.018
-567.617	40.521	0.168	-0.154
-566.602	-200.000	0.010	-0.367
-565.588	-67.080	-0.103	0.041
-564.573	800.000	-0.070	0.266
-563.558	-124.734	-0.343	0.054
-562.544	-33.695	0.272	0.153
-561.529	8.748	-0.249	0.190
-560.515	-45.792	-0.064	0.032
-559.500	111.734	-0.261	0.320
-558.485	-23.416	-0.493	0.301
-557.471	-125.995	0.367	0.056
-556.456	-33.323	-0.019	-0.011
-555.442	2.892	0.095	-0.070
-554.427	461.523	-0.055	0.125
-553.412	-200.000	-0.028	0.449
-552.398	5.888	-0.273	0.205
-551.383	285.619	-0.096	0.176
-550.369	386.428	0.061	0.128
-549.354	-89.389	0.048	-0.014
-548.339	147.697	0.104	-0.142
-547.325	39.886	-0.088	-0.080
-546.310	-45.607	0.143	-0.072
-545.296	-79.353	0.265	-0.091
-544.281	-200.000	-0.022	0.157
-543.266	-200.000	-0.024	0.227
-542.252	-200.000	-0.033	0.266
-541.237	-102.497	0.137	0.033
-540.223	-52.490	-0.308	-0.145
-539.208	-92.613	0.170	0.048
-538.193	-59.264	-0.261	0.114
-537.179	-123.111	-0.156	-0.025
-536.164	153.602	-0.105	0.147
-535.150	-100.828	-0.205	0.051
-534.135	800.000	-0.097	-0.334
-533.121	-200.000	-0.042	-0.189
-532.106	105.882	-0.140	-0.168
-531.091	-22.544	-0.176	-0.108
-530.077	-23.629	0.067	0.041
-529.062	800.000	0.070	0.235
-528.048	579.466	-0.015	0.037
-527.033	-136.186	0.514	-0.061
-526.018	-71.834	-0.057	0.022
-525.004	-200.000	0.026	-0.197
-523.989	-58.444	-0.301	-0.133
-522.975	-200.000	-0.027	-0.393
-521.960	-112.372	0.389	-0.079
-520.945	-200.000	-0.010	-0.150
-519.931	-134.648	0.126	0.016
-518.916	-200.000	-0.041	0.297
-517.902	196.400	-0.074	-0.115
-516.887	199.887	-0.105	-0.163
-515.872	227.104	0.147	0.242
-514.858	682.353	0.125	-0.330
-513.843	80.494	0.143	0.156
-512.829	-200.000	0.003	-0.195
-511.814	-100.858	0.207	0.052
-510.799	800.000	-0.085	-0.283
-509.785	-163.068	0.333	0.016
-508.770	-200.000	0.022	-0.252
-507.756	-62.954	-0.053	0.022
-506.741	-94.202	-0.305	-0.085
-505.726	-200.000	0.020	-0.165
-504.712	-200.000	-0.065	0.302
-503.697	-79.469	-0.292	-0.100
-502.683	17.451	0.063	-0.050
-501.668	-200.000	0.003	-0.173
-500.653	-51.834	0.310	0.146
-499.639	-48.869	0.252	0.123
-498.624	432.926	0.083	0.182
-497.610	-182.958	-0.254	-0.005
-496.595	6.368	-0.086	0.065
-495.581	-200.000	-0.025	-0.134
-494.566	-200.000	0.005	0.131
-493.551	771.950	0.042	0.115
-492.537	-58.613	-0.127	-0.056
-491.522	582.333	0.121	-0.301
-490.508	488.850	0.086	-0.199
-489.493	46.625	0.112	0.105
-488.478	62.258	0.026	-0.027
-487.464	-200.000	-0.033	-0.341
-486.449	437.081	0.050	0.110
-485.435	-200.000	0.035	0.395
-484.420	283.738	0.282	-0.514
-483.405	-171.840	0.492	-0.016
-482.391	-46.963	0.213	-0.106
-481.376	-180.108	-0.215	0.005
-480.362	800.000	0.041	-0.163
-479.347	162.461	0.071	0.101
-478.332	-64.386	0.101	0.042
-477.318	-44.157	0.145	0.074
-476.303	800.000	0.058	0.225
-475.289	-83.674	0.072	0.023
-474.274	221.936	-0.054	0.088
-473.259	-200.000	0.038	-0.183
-472.245	-200.000	-0.005	-0.198
-471.230	763.135	0.134	0.367
-470.216	755.347	0.049	0.133
-469.201	800.000	0.008	-0.031
-468.186	168.162	-0.231	-0.334
-467.172	47.436	-0.173	0.164
-466.157	52.027	0.100	0.097
-465.143	-200.000	0.063	-0.359
-464.128	111.541	-0.073	-0.089
-463.113	-130.814	0.293	0.040
-462.099	558.084	-0.185	0.452
-461.084	800.000	-0.067	0.210
-460.070	-94.981	0.359	-0.098
-459.055	72.051	0.383	0.404
-458.040	-56.885	-0.221	0.099
-457.026	188.009	0.236	0.357
-456.011	-20.700	0.271	-0.168
-454.997	79.403	-0.150	0.163
-453.982	-98.717	0.109	0.028
-452.968	546.751	-0.155	0.375
-451.953	-200.000	-0.019	0.310
-450.938	-69.018	0.239	-0.093
-449.924	630.807	-0.119	-0.305
-448.909	-200.000	-0.003	-0.237
-447.895	5.229	0.231	-0.173
-446.880	-157.613	-0.412	0.025
-445.865	267.162	0.147	-0.260
-444.851	673.975	-0.033	-0.087
-443.836	237.929	-0.141	0.237
-442.822	-131.635	0.310	0.041
-441.807	-107.377	-0.231	-0.051
-440.792	-114.277	0.154	0.030
-439.778	-69.114	0.206	-0.080
-438.763	-67.632	-0.222	-0.088
-437.749	46.426	0.246	-0.231
-436.734	-159.873	0.160	0.009
-435.719	-48.041	-0.249	-0.122
-434.705	396.164	-0.034	-0.073
-433.690	59.560	0.309	0.309
-432.676	-200.000	0.001	-0.203
-431.661	-164.895	0.234	-0.011
-430.646	2.183	0.283	-0.207
-429.632	-8.781	0.157	-0.106
-428.617	-45.384	0.201	-0.101
-427.603	-200.000	0.036	0.289
-426.588	5.359	-0.207	-0.154
-425.573	95.895	-0.358	-0.413
-424.559	-87.891	0.272	-0.083
-423.544	-56.758	-0.154	0.069
-422.530	-85.623	-0.167	-0.052
-421.515	-70.081	-0.116	0.045
-420.500	-200.000	-0.039	-0.176
-419.486	-146.383	0.149	0.013
-418.471	800.000	-0.044	-0.158
-417.457	152.970	0.110	0.152
-416.442	275.666	-0.151	-0.271
-415.428	61.813	-0.141	0.142
-414.413	-129.838	-0.203	0.028
-413.398	-143.247	-0.171	-0.017
-412.384	-31.771	-0.125	-0.071
-411.369	-87.797	-0.153	0.047
-410.355	-49.537	0.045	-0.022
-409.340	71.373	-0.289	0.303
-408.325	-13.777	0.082	-0.054
-407.311	-200.000	0.032	-0.496
-406.296	83.228	0.156	-0.172
-405.282	-200.000	-0.022	-0.131
-404.267	154.535	0.036	0.050
-403.252	490.802	-0.070	0.162
-402.238	188.434	0.096	-0.145
-401.223	800.000	-0.072	0.283
-400.209	-24.027	-0.101	0.061
-399.194	95.945	-0.196	0.226
-398.179	99.853	0.182	-0.213
-397.165	-77.823	0.201	-0.070
-396.150	-57.879	0.248	0.110
-395.136	101.113	-0.177	0.208
-394.121	-54.625	0.356	-0.163
-393.106	75.413	0.108	-0.115
-392.092	-24.569	-0.135	0.081
-391.077	-14.970	0.173	-0.112
-390.063	-200.000	-0.024	0.151
-389.048	-200.000	0.032	-0.376
-388.033	58.598	-0.035	0.034
-387.019	35.150	0.107	-0.095
-386.004	41.046	-0.267	-0.243
-384.990	-200.000	0.043	0.338
-383.975	-200.000	-0.017	0.239
-382.960	-200.000	0.019	-0.161
-381.946	92.491	-0.084	0.096
-380.931	100.066	0.052	-0.061
-379.917	-64.913	0.314	-0.128
-378.902	-131.722	0.145	-0.019
-377.888	800.000	0.055	-0.198
-376.873	-113.434	0.081	0.016
-375.858	-150.510	-0.226	-0.018
-374.844	-200.000	-0.018	0.105
-373.829	-200.000	0.015	-0.146
-372.815	268.809	0.070	0.123
-371.800	57.262	-0.230	-0.226
-370.785	-59.186	-0.143	-0.062
-369.771	92.745	-0.150	-0.171
-368.756	120.151	0.122	0.153
-367.742	5.644	-0.088	0.066
-366.727	108.140	-0.290	-0.349
-365.712	-200.000	-0.049	-0.222
-364.698	-53.042	-0.442	0.205
-363.683	-97.519	-0.601	0.158
-362.669	-7.980	-0.175	-0.119
-361.654	147.768	-0.093	-0.126
-360.639	-200.000	-0.007	-0.049
-359.625	800.000	-0.110	0.342
-358.610	-61.377	-0.285	0.121
-357.596	354.208	0.130	0.260
-356.581	2.206	0.326	0.238
-355.566	800.000	0.080	-0.225
-354.552	-146.241	-0.256	0.023
-353.537	-123.409	0.378	0.061
-352.523	-53.468	-0.381	-0.176
-351.508	304.507	0.026	0.048
-350.493	-140.435	0.320	0.034
-349.479	164.231	-0.210	0.298
-348.464	-135.792	-0.171	0.020
-347.450	-120.855	0.249	-0.042
-346.435	-74.936	0.068	0.025
-345.420	-200.000	0.028	-0.132
-344.406	-46.746	-0.213	-0.105
-343.391	142.273	-0.189	0.253
-342.377	-200.000	0.000	0.132
-341.362	35.745	0.174	-0.154
-340.348	-100.207	-0.242	-0.061
-339.333	132.218	-0.159	-0.206
-338.318	0.498	-0.016	0.012
-337.304	-103.571	0.233	-0.055
-336.289	-7.184	0.083	-0.057
-335.275	137.705	0.184	0.242
-334.260	204.744	0.219	-0.342
-333.245	-125.023	0.161	-0.025
-332.231	-52.979	-0.109	-0.050
-331.216	-101.151	0.123	0.030
-330.202	34.791	0.185	0.163
-329.187	-114.999	0.258	-0.049
-328.172	-104.394	-0.229	0.054
-327.158	86.656	-0.199	-0.221
-326.143	-200.000	0.037	0.179
-325.129	-169.705	-0.208	-0.008
-324.114	98.803	-0.241	0.281
-323.099	800.000	-0.028	-0.091
-322.085	-200.000	-0.045	0.254
-321.070	187.999	0.231	0.347
-320.056	-75.101	0.256	-0.092
-319.041	-133.217	-0.154	-0.020
-318.026	800.000	-0.085	0.308
-317.012	163.170	0.124	0.175
-315.997	195.466	-0.214	0.328
-314.983	-98.573	-0.185	-0.047
-313.968	800.000	-0.025	0.078
-312.953	800.000	-0.055	0.219
-311.939	-200.000	-0.119	-0.590
-310.924	-200.000	0.014	-0.163
-309.910	-200.000	0.028	0.183
-308.895	-45.465	0.084	0.042
-307.880	55.905	0.031	-0.030
-306.866	586.119	0.055	0.136
-305.851	-200.000	0.002	-0.051
-304.837	-24.803	0.052	0.031
-303.822	-200.000	-0.104	0.489
-302.807	-123.496	0.164	-0.026
-301.793	39.177	0.104	0.093
-300.778	55.133	0.143	-0.139
-299.764	-159.458	0.171	0.010
-298.749	226.498	0.172	0.281
-297.735	-88.041	-0.125	-0.038
-296.720	407.955	0.085	0.182
-295.705	4.007	-0.115	-0.085
-294.691	50.856	0.083	0.079
-293.676	312.304	-0.153	-0.290
-292.662	-75.382	-0.320	0.115
-291.647	800.000	-0.116	0.381
-290.632	-200.000	-0.040	0.354
-289.618	800.000	0.040	0.164
-288.603	251.409	-0.103	-0.176
-287.589	-96.636	0.381	-0.101
-286.574	603.143	-0.072	0.180
-285.559	-200.000	-0.002	0.187
-284.545	-200.000	0.002	-0.090
-283.530	97.656	-0.063	0.073
-282.516	-3.168	-0.247	-0.174
-281.501	-159.477	-0.312	0.017
-280.486	-73.652	0.175	0.064
-279.472	32.112	-0.190	0.165
-278.457	-77.936	-0.124	-0.043
-277.443	721.000	-0.117	0.314
-276.428	-70.972	0.009	-0.003
-275.413	-200.000	-0.056	0.000
-274.399	268.052	-0.172	0.303
-273.384	-128.136	-0.043	0.006
-272.370	-141.444	0.236	-0.024
-271.355	-18.726	-0.163	-0.102
-270.340	-144.898	0.102	0.009
-269.326	-200.000	-0.044	0.206
-268.311	-47.236	-0.131	-0.064
-267.297	-47.642	-0.191	-0.093
-266.282	-200.000	-0.022	-0.196
-265.267	407.053	0.033	0.070
-264.253	-44.215	-0.215	0.108
-263.238	-200.000	-0.002	-0.113
-262.224	133.141	-0.074	-0.096
-261.209	800.000	0.060	0.239
-260.195	-70.094	-0.158	0.061
-259.180	-200.000	-0.047	0.254
-258.165	800.000	0.025	-0.090
-257.151	29.414	-0.114	0.097
-256.136	-170.995	0.065	-0.002
-255.122	61.776	0.230	-0.230
-254.107	-55.011	-0.194	0.088
-253.092	113.690	0.154	0.188
-252.078	-200.000	-0.016	-0.134
-251.063	-150.528	0.296	-0.023
-250.049	-121.694	-0.121	-0.020
-249.034	-200.000	0.041	-0.486
-248.019	285.902	0.090	0.163
-247.005	-200.000	-0.019	0.235
-245.990	92.034	-0.060	-0.068
-244.976	-200.000	-0.033	-0.153
-243.961	800.000	-0.042	-0.139
-242.946	-200.000	0.002	-0.091
-241.932	-144.604	0.303	0.028
-240.917	81.547	-0.192	-0.208
-239.903	-42.302	-0.180	-0.092
-238.888	-153.664	-0.129	-0.009
-237.873	-32.906	0.171	0.095
-236.859	30.936	-0.100	0.086
-235.844	-44.968	-0.171	-0.085
-234.830	23.333	0.170	-0.140
-233.815	140.437	-0.116	-0.154
-232.800	135.013	-0.267	0.348
-231.786	-68.294	-0.162	-0.063
-230.771	800.000	-0.028	-0.107
-229.757	130.709	0.066	-0.085
-228.742	-162.904	-0.281	-0.014
-227.727	159.523	0.097	-0.135
-226.713	105.106	0.078	0.092
-225.698	-200.000	-0.013	-0.201
-224.684	-200.000	-0.031	-0.147
-223.669	800.000	0.054	-0.220
-222.655	-160.508	0.164	-0.009
-221.640	406.448	-0.154	0.326
-220.625	199.070	-0.137	-0.210
-219.611	800.000	0.021	0.076
-218.596	800.000	0.088	0.298
-217.582	-133.423	-0.201	0.025
-216.567	151.609	-0.050	0.068
-215.552	-133.502	0.342	-0.043
-214.538	107.075	0.121	0.144
-213.523	121.402	0.091	-0.114
-212.509	175.888	0.022	0.032
-211.494	33.280	-0.189	0.164
-210.479	98.071	0.046	-0.053
-209.465	-51.873	0.045	-0.021
-208.450	-87.187	0.172	-0.053
-207.436	-87.181	0.264	0.081
-206.421	259.057	0.175	-0.302
-205.406	95.046	0.139	0.159
-204.392	800.000	-0.062	0.250
-203.377	745.944	0.055	0.149
-202.363	343.311	0.055	-0.107
-201.348	738.202	0.064	-0.173
-200.333	-16.781	0.264	0.167
-199.319	-200.000	-0.040	-0.298
-198.304	-200.000	-0.038	-0.490
-197.290	-134.573	0.072	-0.009
-196.275	-142.287	0.115	0.011
-195.260	167.796	0.142	0.202
-194.246	-71.883	0.222	-0.083
-193.231	209.557	-0.172	0.270
-192.217	-200.000	-0.007	0.388
-191.202	257.044	-0.199	0.343
-190.187	-123.937	0.371	-0.059
-189.173	-111.394	0.102	-0.021
-188.158	-95.508	0.397	0.107
-187.144	-135.794	0.168	0.020
-186.129	518.500	-0.012	0.029
-185.114	800.000	0.086	-0.242
-184.100	175.453	0.088	-0.127
-183.085	-149.232	-0.135	0.011
-182.071	120.866	0.184	0.229
-181.056	157.572	0.186	-0.258
-180.042	86.056	-0.066	-0.072
-179.027	-28.613	-0.085	0.049
-178.012	-141.096	-0.250	-0.026
-176.998	-25.675	-0.192	-0.113
-175.983	-48.730	0.381	-0.183
-174.969	-28.789	-0.293	-0.169
-173.954	-38.009	-0.183	-0.097
-172.939	-200.000	0.115	0.570
-171.925	-103.333	-0.169	-0.040
-170.910	30.818	-0.191	-0.164
-169.896	139.735	0.155	-0.204
-168.881	279.328	-0.173	-0.309
-167.866	-178.152	0.228	-0.005
-166.852	-200.000	0.009	-0.189
-165.837	-76.862	0.132	0.046
-164.823	800.000	-0.040	0.161
-163.808	800.000	-0.034	-0.145
-162.793	-200.000	-0.010	0.065
-161.779	-200.000	-0.019	0.085
-160.764	-62.103	0.194	0.081
-159.750	-98.137	0.241	0.062
-158.735	800.000	-0.039	-0.131
-157.720	297.799	-0.128	0.236
-156.706	-49.012	0.022	0.010
-155.691	-97.208	0.232	-0.061
-154.677	-73.140	0.278	0.102
-153.662	-127.080	0.112	0.016
-152.647	601.178	-0.068	-0.169
-151.633	-50.102	0.148	0.070
-150.618	31.238	0.132	-0.113
-149.604	382.286	0.068	-0.140
-148.589	138.221	-0.096	-0.127
-147.574	588.381	0.068	-0.168
-146.560	-168.185	-0.092	0.004
-145.545	-200.000	-0.049	0.294
-144.531	-200.000	-0.023	0.192
-143.516	-200.000	0.000	0.075
-142.502	-87.405	-0.152	-0.046
-141.487	-130.943	0.336	-0.045
-140.472	39.941	-0.242	0.218
-139.458	-79.948	-0.519	-0.174
-138.443	-154.801	0.208	0.014
-137.429	125.499	0.090	0.114
-136.414	-3.162	0.281	0.196
-135.399	-106.676	-0.318	-0.071
-134.385	97.128	-0.121	0.139
-133.370	-105.486	-0.052	0.012
-132.356	-77.228	0.160	-0.056
-131.341	800.000	0.050	-0.169
-130.326	-68.279	-0.219	0.085
-129.312	-52.986	0.271	0.124
-128.297	22.684	-0.294	0.241
-127.283	-171.005	-0.151	0.005
-126.268	800.000	-0.034	-0.138
-125.253	8.637	0.179	0.135
-124.239	-102.948	-0.176	-0.042
-123.224	282.266	-0.069	0.124
-122.210	-200.000	0.029	0.158
