DTS Sentinel unit serial number:	SN413079Multiplexer serial number:	ORYXHardware model number:	OX4-SRSoftware version number:	ORYX F/W v4.00 Oryx Data Collector v3.7.2.0data status	okinstallation	princeton_trtdifferential loss correction	single-endedforward channel	channel 1reverse channel	N/Adate	2019/09/16time	17:50:35forward acquisition time	60.00reverse acquisition time	0.00gamma	496.2192k internal	0.2298k external	0.2298temperature offset calibration	0.9967default loss term (dB/km)	0.3790temperature slope calibration	1.0000multiplexer offset coefficient	1.0000multiplexer slope coefficient	1.0000fibre end	0.00T internal ref (°C)	37.91T ext. ref 1 (°C)	15.59T ext. ref 2 (°C)	31.74length (m)	temperature (°C)	Stokes	anti-Stokes-747.200	237.978	-0.126	0.213
-746.185	41.897	-0.229	0.212
-745.171	-81.393	-0.079	-0.027
-744.156	-100.777	-0.370	-0.093
-743.142	-129.788	-0.451	-0.063
-742.127	-15.356	0.135	-0.088
-741.112	-71.547	-0.172	0.066
-740.098	39.931	0.136	-0.125
-739.083	-26.626	-0.147	0.088
-738.069	68.346	0.104	0.109
-737.054	91.752	0.189	0.217
-736.039	-149.656	-0.592	-0.048
-735.025	-184.648	0.227	0.004
-734.010	-51.503	-0.180	-0.086
-732.996	-166.802	-0.127	-0.005
-731.981	135.982	-0.051	-0.068
-730.966	-40.453	-0.352	-0.187
-729.952	28.881	0.280	0.242
-728.937	-34.619	-0.052	0.029
-727.923	-129.490	-0.177	0.025
-726.908	565.185	0.079	-0.197
-725.894	307.907	-0.156	-0.297
-724.879	-132.242	-0.143	-0.019
-723.864	26.641	0.186	0.159
-722.850	186.348	-0.185	0.281
-721.835	16.622	-0.296	-0.239
-720.821	-56.294	-0.188	0.085
-719.806	97.280	-0.070	0.082
-718.791	-200.000	0.008	0.080
-717.777	-149.717	0.165	-0.013
-716.762	347.493	-0.068	-0.137
-715.748	-62.972	0.027	0.011
-714.733	154.265	0.049	0.069
-713.718	133.231	-0.058	0.077
-712.704	138.388	0.184	0.247
-711.689	-100.630	0.182	-0.046
-710.675	-8.720	-0.151	-0.104
-709.660	49.106	0.241	-0.230
-708.645	-200.000	-0.030	0.245
-707.631	-56.546	0.189	0.085
-706.616	-142.464	-0.311	-0.031
-705.602	800.000	-0.039	-0.121
-704.587	-200.000	0.061	-0.291
-703.572	168.683	0.095	-0.138
-702.558	-26.798	0.172	0.102
-701.543	-200.000	0.072	0.372
-700.529	50.704	-0.092	0.089
-699.514	-9.754	0.242	-0.164
-698.499	62.613	-0.178	0.181
-697.485	-153.333	-0.110	0.008
-696.470	8.493	0.299	-0.229
-695.456	-109.654	-0.297	-0.064
-694.441	-200.000	0.024	0.161
-693.426	-200.000	-0.022	-0.261
-692.412	150.128	-0.079	-0.109
-691.397	-43.866	-0.155	0.080
-690.383	467.723	0.173	0.394
-689.368	-36.078	-0.240	0.132
-688.354	-137.685	-0.114	-0.013
-687.339	-88.767	-0.191	0.058
-686.324	-45.645	-0.137	0.069
-685.310	-50.322	-0.237	0.114
-684.295	30.770	0.293	-0.256
-683.281	156.075	-0.235	-0.330
-682.266	800.000	-0.026	0.111
-681.251	-97.236	-0.269	0.071
-680.237	-83.402	-0.258	-0.084
-679.222	-153.238	-0.106	0.008
-678.208	-133.949	-0.212	-0.027
-677.193	-92.024	-0.191	0.055
-676.178	800.000	0.041	-0.124
-675.164	-110.267	-0.260	-0.055
-674.149	300.072	0.041	0.077
-673.135	143.437	0.201	0.273
-672.120	9.091	-0.216	0.166
-671.105	-94.574	0.079	0.022
-670.091	161.659	-0.181	-0.258
-669.076	210.173	0.222	-0.354
-668.062	-41.388	-0.157	-0.082
-667.047	382.702	0.121	0.253
-666.032	-90.169	-0.103	-0.030
-665.018	272.201	0.033	-0.059
-664.003	-162.311	-0.114	-0.006
-662.989	796.375	0.063	0.177
-661.974	-200.000	0.019	-0.190
-660.959	325.663	-0.020	-0.039
-659.945	168.060	-0.179	0.259
-658.930	467.294	0.079	0.180
-657.916	-171.090	0.086	-0.003
-656.901	135.149	-0.080	-0.106
-655.886	329.268	0.074	0.144
-654.872	162.840	-0.113	-0.161
-653.857	406.620	-0.160	-0.343
-652.843	525.727	-0.026	-0.062
-651.828	-1.681	0.128	-0.092
-650.814	800.000	0.087	-0.260
-649.799	61.213	0.231	-0.234
-648.784	-112.992	-0.055	-0.011
-647.770	-200.000	0.037	-0.214
-646.755	800.000	0.023	-0.090
-645.741	187.406	-0.058	0.087
-644.726	123.828	-0.098	0.125
-643.711	-70.034	0.087	0.034
-642.697	283.909	0.225	0.412
-641.682	800.000	-0.043	0.181
-640.668	88.942	-0.150	0.170
-639.653	63.904	-0.360	0.368
-638.638	-68.897	0.232	0.091
-637.624	-158.533	0.233	0.014
-636.609	-69.247	0.180	-0.070
-635.595	18.225	0.231	-0.188
-634.580	124.461	0.188	-0.240
-633.565	-59.984	0.119	-0.052
-632.551	-53.076	0.224	0.105
-631.536	-119.183	-0.209	0.037
-630.522	-158.625	-0.222	-0.013
-629.507	-37.206	-0.150	0.082
-628.492	-51.507	0.059	0.028
-627.478	80.166	0.142	0.156
-626.463	-47.721	0.287	-0.142
-625.449	-47.514	-0.139	0.069
-624.434	233.432	-0.072	0.121
-623.419	-200.000	0.044	0.216
-622.405	-139.680	0.141	-0.015
-621.390	800.000	-0.070	-0.305
-620.376	-64.721	-0.222	-0.091
-619.361	6.075	-0.159	-0.119
-618.346	-118.687	-0.151	-0.027
-617.332	-113.248	-0.598	-0.119
-616.317	-113.966	0.090	0.018
-615.303	192.233	-0.060	0.092
-614.288	-59.069	-0.106	-0.046
-613.273	395.818	-0.136	-0.288
-612.259	514.084	-0.067	-0.158
-611.244	107.525	0.078	-0.094
-610.230	66.444	-0.230	0.237
-609.215	310.761	-0.249	-0.473
-608.201	22.092	-0.252	-0.209
-607.186	-47.662	0.262	-0.129
-606.171	-93.081	-0.145	0.041
-605.157	-57.343	0.231	-0.103
-604.142	-68.355	-0.464	-0.183
-603.128	200.757	-0.036	-0.057
-602.113	140.803	0.079	-0.105
-601.098	-126.041	0.191	0.029
-600.084	62.913	-0.229	0.233
-599.069	59.057	0.214	-0.214
-598.055	4.003	0.144	-0.107
-597.040	161.568	-0.147	-0.209
-596.025	800.000	-0.013	0.053
-595.011	42.161	0.138	-0.128
-593.996	67.073	0.189	-0.196
-592.982	800.000	-0.064	-0.261
-591.967	385.616	0.050	0.104
-590.952	-95.910	0.171	0.046
-589.938	764.034	-0.074	-0.203
-588.923	415.178	0.038	0.082
-587.909	-79.714	0.201	0.069
-586.894	-200.000	0.008	0.083
-585.879	800.000	-0.118	-0.373
-584.865	406.785	0.098	0.210
-583.850	27.186	0.307	-0.262
-582.836	-129.419	0.186	0.026
-581.821	20.690	-0.026	-0.021
-580.806	-122.985	-0.054	0.009
-579.792	-200.000	-0.037	0.282
-578.777	-137.879	-0.385	-0.044
-577.763	-31.955	0.070	0.040
-576.748	692.901	0.088	0.235
-575.733	-8.713	-0.184	0.125
-574.719	-92.772	0.124	0.035
-573.704	-200.000	-0.004	0.020
-572.690	-117.046	-0.136	0.025
-571.675	-200.000	0.057	0.288
-570.661	99.974	0.097	0.114
-569.646	185.847	-0.171	-0.257
-568.631	-200.000	-0.051	-0.391
-567.617	-42.754	-0.256	-0.132
-566.602	119.446	0.173	-0.216
-565.588	13.053	-0.156	-0.122
-564.573	36.925	0.247	0.221
-563.558	445.166	0.104	-0.231
-562.544	-109.130	0.259	0.056
-561.529	-13.909	-0.146	-0.096
-560.515	-50.238	-0.179	0.086
-559.500	-164.911	0.132	-0.006
-558.485	77.312	0.145	-0.157
-557.471	-68.303	-0.200	-0.079
-556.456	-200.000	0.015	0.273
-555.442	-200.000	-0.032	0.222
-554.427	-164.524	-0.267	-0.012
-553.412	192.810	0.086	0.132
-552.398	-24.102	-0.221	-0.134
-551.383	-62.480	-0.424	0.179
-550.369	372.316	-0.075	0.154
-549.354	-200.000	0.015	0.206
-548.339	-66.768	0.047	0.019
-547.325	-4.579	-0.187	0.131
-546.310	-116.564	0.229	-0.043
-545.296	-74.751	-0.300	0.109
-544.281	95.738	-0.115	0.133
-543.266	238.727	-0.093	0.157
-542.252	-71.578	0.063	0.024
-541.237	-54.822	0.144	0.066
-540.223	230.986	0.116	-0.193
-539.208	59.896	0.153	0.153
-538.193	65.376	0.183	-0.187
-537.179	-200.000	0.003	-0.032
-536.164	32.398	0.264	-0.231
-535.150	-134.340	0.179	0.022
-534.135	88.680	-0.038	-0.042
-533.121	-200.000	0.264	0.001
-532.106	-70.379	-0.283	0.108
-531.091	-69.806	0.291	-0.112
-530.077	68.167	-0.098	-0.101
-529.062	80.807	0.024	0.027
-528.048	-68.480	-0.103	0.040
-527.033	800.000	0.023	-0.069
-526.018	-112.824	0.299	-0.060
-525.004	316.953	0.032	0.061
-523.989	7.381	-0.231	0.175
-522.975	-200.000	-0.046	-0.674
-521.960	-200.000	-0.006	0.177
-520.945	-200.000	-0.021	-0.111
-519.931	136.575	-0.126	-0.166
-518.916	276.088	0.141	0.254
-517.902	800.000	0.117	-0.372
-516.887	20.295	-0.088	0.072
-515.872	79.594	-0.152	-0.165
-514.858	107.397	-0.200	-0.240
-513.843	-41.459	0.285	-0.148
-512.829	269.241	0.035	-0.061
-511.814	-200.000	-0.061	-0.379
-510.799	-40.477	-0.074	0.039
-509.785	-145.808	0.101	-0.009
-508.770	34.523	-0.177	-0.156
-507.756	254.070	-0.296	0.512
-506.741	564.970	-0.077	-0.189
-505.726	800.000	0.023	-0.094
-504.712	40.659	0.134	0.122
-503.697	800.000	0.052	-0.169
-502.683	-119.496	-0.257	0.045
-501.668	-102.009	-0.118	-0.029
-500.653	-192.401	0.113	-0.001
-499.639	744.470	-0.144	0.392
-498.624	331.876	0.123	0.240
-497.610	-200.000	0.008	0.101
-496.595	-140.027	0.159	0.017
-495.581	-200.000	0.020	0.347
-494.566	-176.311	0.413	-0.011
-493.551	7.506	-0.237	0.179
-492.537	-151.238	0.269	0.020
-491.522	22.043	-0.489	-0.403
-490.508	-174.295	0.283	0.008
-489.493	59.120	-0.191	0.190
-488.478	-38.831	0.093	0.049
-487.464	74.598	-0.021	0.023
-486.449	507.811	-0.156	-0.365
-485.435	55.530	0.199	-0.195
-484.420	-200.000	0.077	0.421
-483.405	262.082	-0.148	0.259
-482.391	274.047	0.126	-0.225
-481.376	115.354	-0.112	0.139
-480.362	-20.895	-0.271	0.168
-479.347	-80.919	-0.067	0.023
-478.332	56.324	-0.137	-0.135
-477.318	-40.730	0.098	-0.051
-476.303	800.000	0.109	0.375
-475.289	-19.003	-0.099	0.062
-474.274	-70.008	0.166	0.064
-473.259	-200.000	-0.016	-0.291
-472.245	-200.000	-0.016	0.237
-471.230	-200.000	0.029	0.193
-470.216	39.379	0.281	0.254
-469.201	-152.738	0.143	0.010
-468.186	800.000	0.093	-0.281
-467.172	149.384	0.093	0.127
-466.157	662.745	0.011	-0.029
-465.143	-54.074	-0.268	0.123
-464.128	10.456	0.207	-0.159
-463.113	96.016	-0.202	-0.233
-462.099	-115.863	-0.395	-0.074
-461.084	-200.000	-0.024	-0.171
-460.070	22.139	-0.232	-0.191
-459.055	-143.658	0.200	0.019
-458.040	800.000	-0.042	-0.154
-457.026	-134.704	0.188	-0.023
-456.011	-71.450	-0.015	-0.006
-454.997	800.000	-0.059	0.189
-453.982	127.202	-0.204	-0.261
-452.968	-16.011	0.010	0.006
-451.953	-200.000	-0.022	0.196
-450.938	-87.186	-0.220	-0.067
-449.924	-200.000	-0.003	-0.114
-448.909	18.160	0.131	-0.105
-447.895	238.726	-0.036	-0.061
-446.880	159.859	-0.194	-0.273
-445.865	-65.967	0.333	-0.134
-444.851	205.342	0.152	-0.238
-443.836	-151.470	-0.170	0.013
-442.822	-165.633	0.285	-0.012
-441.807	-0.826	-0.105	-0.075
-440.792	202.116	-0.285	0.443
-439.778	20.485	-0.090	-0.074
-438.763	9.129	-0.039	-0.030
-437.749	-4.322	-0.061	-0.043
-436.734	138.891	-0.153	0.203
-435.719	542.494	0.077	0.185
-434.705	117.190	-0.073	0.090
-433.690	-54.254	-0.195	-0.089
-432.676	-81.165	-0.118	-0.039
-431.661	-99.391	-0.261	-0.066
-430.646	-4.405	-0.023	0.016
-429.632	-200.000	-0.013	0.200
-428.617	-164.279	0.068	0.003
-427.603	346.007	-0.080	0.159
-426.588	-35.161	-0.038	-0.021
-425.573	-200.000	0.029	0.130
-424.559	72.744	0.216	-0.228
-423.544	-176.009	-0.040	-0.001
-422.530	180.254	-0.100	-0.148
-421.515	425.059	-0.154	-0.334
-420.500	133.122	-0.157	-0.204
-419.486	-68.737	0.331	-0.129
-418.471	-96.569	-0.142	-0.038
-417.457	197.277	-0.078	-0.120
-416.442	-0.470	0.042	-0.030
-415.428	800.000	0.063	0.183
-414.413	534.875	0.070	0.166
-413.398	-5.291	-0.142	0.098
-412.384	-102.392	0.186	0.045
-411.369	-200.000	0.048	-0.278
-410.355	800.000	-0.078	-0.247
-409.340	-20.312	-0.387	-0.240
-408.325	800.000	0.010	-0.029
-407.311	-97.582	0.251	0.066
-406.296	800.000	0.025	0.073
-405.282	356.135	0.055	0.111
-404.267	-87.283	0.098	0.030
-403.252	-134.265	-0.360	-0.045
-402.238	-21.844	-0.217	0.133
-401.223	-200.000	-0.003	-0.066
-400.209	-60.839	-0.142	-0.061
-399.194	614.752	0.018	-0.046
-398.179	66.417	0.351	0.359
-397.165	498.267	-0.062	-0.143
-396.150	193.608	0.112	-0.171
-395.136	210.045	0.098	0.155
-394.121	98.730	0.122	0.142
-393.106	-94.129	-0.252	0.070
-392.092	-178.615	0.520	0.012
-391.077	58.342	0.076	-0.075
-390.063	-152.675	-0.240	-0.017
-389.048	295.279	0.087	0.161
-388.033	-146.652	-0.170	-0.015
-387.019	-200.000	0.018	0.135
-386.004	-125.256	0.291	0.045
-384.990	-49.033	0.079	-0.038
-383.975	-33.727	0.278	-0.154
-382.960	-150.756	-0.517	-0.040
-381.946	-200.000	-0.015	-0.254
-380.931	463.457	-0.120	0.270
-379.917	191.021	-0.102	0.155
-378.902	-200.000	-0.009	0.163
-377.888	-66.621	0.206	0.082
-376.873	-96.102	-0.252	-0.067
-375.858	63.179	0.253	-0.256
-374.844	-153.417	0.208	0.015
-373.829	-46.879	0.193	-0.095
-372.815	800.000	-0.088	-0.332
-371.800	-26.896	-0.330	-0.194
-370.785	-77.925	-0.105	0.037
-369.771	653.256	0.090	0.232
-368.756	-18.729	-0.266	-0.166
-367.742	184.633	0.241	-0.359
-366.727	-64.000	0.118	0.048
-365.712	7.784	-0.193	-0.146
-364.698	-51.792	0.024	0.011
-363.683	576.740	0.045	0.111
-362.669	800.000	-0.052	0.170
-361.654	-0.358	-0.029	0.021
-360.639	-200.000	0.085	-0.467
-359.625	14.136	-0.166	0.130
-358.610	-14.202	-0.130	0.084
-357.596	-161.992	0.219	-0.011
-356.581	-82.530	-0.062	0.020
-355.566	-50.056	-0.186	-0.089
-354.552	357.828	-0.113	-0.226
-353.537	732.283	0.091	-0.245
-352.523	-200.000	-0.052	0.236
-351.508	-93.629	0.077	0.021
-350.493	-200.000	-0.052	0.310
-349.479	181.598	0.039	-0.058
-348.464	-200.000	-0.016	0.252
-347.450	-90.221	0.152	0.044
-346.435	779.591	0.104	-0.286
-345.420	462.262	-0.089	0.199
-344.406	4.900	0.290	0.215
-343.391	-200.000	0.018	-0.215
-342.377	115.183	-0.218	-0.268
-341.362	-200.000	0.011	0.211
-340.348	-200.000	-0.006	-0.101
-339.333	-200.000	-0.034	-0.186
-338.318	405.210	-0.049	0.105
-337.304	38.740	0.119	0.107
-336.289	175.696	-0.172	0.250
-335.275	52.920	-0.080	0.077
-334.260	-91.253	0.075	0.022
-333.245	-172.887	-0.128	-0.004
-332.231	-61.256	-0.261	0.110
-331.216	154.113	0.192	0.265
-330.202	-86.094	-0.088	-0.027
-329.187	-130.327	0.076	0.010
-328.172	-200.000	-0.020	0.139
-327.158	120.393	0.217	0.271
-326.143	-200.000	-0.013	0.192
-325.129	89.390	-0.146	0.163
-324.114	-200.000	0.008	-0.066
-323.099	45.579	0.051	0.047
-322.085	-50.618	-0.132	0.062
-321.070	-200.000	-0.026	0.147
-320.056	297.004	-0.214	-0.395
-319.041	-43.946	0.216	-0.109
-318.026	602.507	0.111	-0.277
-317.012	800.000	0.041	-0.121
-315.997	-23.401	-0.120	-0.072
-314.983	594.955	0.065	0.162
-313.968	-22.875	-0.147	-0.089
-312.953	-127.977	0.075	-0.011
-311.939	-14.660	-0.234	-0.151
-310.924	-200.000	0.009	-0.083
-309.910	-50.724	0.116	0.055
-308.895	-200.000	0.014	0.231
-307.880	800.000	0.106	-0.323
-306.866	800.000	-0.004	-0.016
-305.851	178.621	-0.066	-0.096
-304.837	9.280	-0.215	0.163
-303.822	193.994	0.171	0.260
-302.807	-91.502	-0.109	0.031
-301.793	-140.613	-0.595	0.062
-300.778	800.000	0.059	-0.184
-299.764	-134.934	-0.126	-0.015
-298.749	-45.876	0.213	0.106
-297.735	-62.159	0.312	0.131
-296.720	-146.506	-0.221	0.019
-295.705	-200.000	0.043	0.355
-294.691	-43.919	-0.170	0.086
-293.676	-55.065	0.479	0.216
-292.662	7.875	-0.495	0.372
-291.647	-34.003	0.158	-0.087
-290.632	-200.000	0.044	-0.293
-289.618	-200.000	0.002	-0.159
-288.603	-200.000	-0.039	0.183
-287.589	332.491	0.222	-0.430
-286.574	-200.000	-0.018	0.217
-285.559	800.000	0.115	0.396
-284.545	-161.214	0.179	-0.009
-283.530	-102.113	0.228	-0.055
-282.516	-143.973	-0.225	-0.021
-281.501	-90.424	-0.125	0.036
-280.486	-144.381	0.072	0.007
-279.472	800.000	0.071	0.245
-278.457	-200.000	0.001	0.202
-277.443	139.289	-0.058	-0.076
-276.428	-54.283	-0.123	0.056
-275.413	565.810	0.144	-0.350
-274.399	154.835	-0.043	0.059
-273.384	-60.757	0.071	-0.030
-272.370	-72.624	0.289	-0.107
-271.355	1.264	-0.035	0.025
-270.340	-200.000	0.089	-0.454
-269.326	123.268	-0.105	-0.131
-268.311	-66.158	0.104	-0.042
-267.297	-200.000	0.003	-0.036
-266.282	710.499	0.144	0.381
-265.267	-75.906	-0.334	0.119
-264.253	116.146	-0.236	0.290
-263.238	27.874	0.135	0.114
-262.224	-1.736	0.107	0.075
-261.209	201.521	-0.188	0.291
-260.195	-112.124	0.209	-0.042
-259.180	-200.000	-0.046	-0.357
-258.165	300.309	0.100	0.185
-257.151	17.500	0.148	-0.118
-256.136	6.979	0.411	-0.307
-255.122	-200.000	-0.036	0.168
-254.107	24.866	-0.064	-0.053
-253.092	59.594	-0.048	-0.047
-252.078	-99.500	0.134	-0.034
-251.063	800.000	0.100	-0.367
-250.049	1.012	-0.366	-0.263
-249.034	726.087	0.148	0.396
-248.019	-70.633	0.046	-0.017
-247.005	-33.312	0.294	-0.163
-245.990	-119.190	-0.109	0.019
-244.976	-200.000	0.044	-0.220
-243.961	110.533	-0.112	-0.135
-242.946	87.753	0.226	0.251
-241.932	490.831	-0.054	-0.123
-240.917	-200.000	0.035	-0.211
-239.903	505.170	0.142	-0.328
-238.888	137.892	0.188	0.246
-237.873	182.222	-0.038	0.056
-236.859	-35.575	0.241	0.131
-235.844	-96.008	0.099	0.026
-234.830	-78.214	-0.271	-0.093
-233.815	-86.656	0.152	0.047
-232.800	-12.302	-0.274	0.179
-231.786	14.285	0.311	0.243
-230.771	800.000	0.062	-0.182
-229.757	800.000	-0.107	-0.313
-228.742	536.746	0.052	0.123
-227.727	-200.000	0.037	0.258
-226.713	-63.481	0.332	-0.136
-225.698	6.895	-0.086	-0.064
-224.684	-200.000	0.052	-0.343
-223.669	-200.000	0.024	-0.111
-222.655	128.156	0.111	0.141
-221.640	-23.080	0.227	0.137
-220.625	4.046	0.213	-0.156
-219.611	-100.410	0.028	0.007
-218.596	220.355	-0.072	-0.115
-217.582	-38.188	-0.047	0.025
-216.567	-125.290	-0.176	-0.027
-215.552	-2.583	-0.336	-0.235
-214.538	150.923	0.100	-0.136
-213.523	580.054	-0.107	0.263
-212.509	291.893	-0.106	-0.193
-211.494	90.147	0.175	-0.196
-210.479	265.012	-0.141	0.246
-209.465	-62.985	-0.171	0.071
-208.450	800.000	-0.020	0.071
-207.436	-143.616	-0.316	0.030
-206.421	184.554	-0.173	0.257
-205.406	168.353	0.196	0.279
-204.392	-6.268	0.138	-0.094
-203.377	-76.961	-0.116	-0.040
-202.363	309.595	-0.072	0.135
-201.348	-58.785	0.116	-0.050
-200.333	-200.000	0.006	0.147
-199.319	338.575	-0.068	0.132
-198.304	-56.273	0.167	0.074
-197.290	115.293	-0.111	-0.135
-196.275	-200.000	0.066	0.341
-195.260	24.805	0.034	0.028
-194.246	-85.702	0.202	0.063
-193.231	-200.000	0.015	0.205
-192.217	-102.220	0.149	-0.036
-191.202	-200.000	-0.143	-0.000
-190.187	-200.000	-0.007	-0.115
-189.173	-200.000	0.019	-0.228
-188.158	-151.617	-0.323	-0.024
-187.144	800.000	0.087	0.364
-186.129	-0.557	0.073	-0.052
-185.114	86.450	0.231	-0.254
-184.100	-200.000	-0.010	0.101
-183.085	-143.815	-0.181	-0.017
-182.071	-200.000	0.017	0.079
-181.056	-200.000	0.003	0.129
-180.042	20.061	0.349	0.281
-179.027	-200.000	0.042	-0.193
-178.012	-40.857	0.222	-0.115
-176.998	-114.962	-0.135	0.026
-175.983	134.329	-0.054	-0.069
-174.969	-99.827	-0.046	-0.012
-173.954	699.608	-0.096	0.253
-172.939	68.040	0.083	-0.085
-171.925	-200.000	0.029	0.207
-170.910	-200.000	-0.044	0.220
-169.896	-130.777	0.252	-0.034
-168.881	148.484	-0.155	-0.209
-167.866	162.098	-0.100	-0.140
-166.852	238.395	0.098	-0.163
-165.837	-29.642	0.096	-0.054
-164.823	-20.046	-0.131	0.080
-163.808	-187.902	0.364	0.005
-162.793	-109.403	0.182	0.038
-161.779	0.156	0.363	0.258
-160.764	-82.379	-0.411	0.133
-159.750	-67.990	0.057	0.022
-158.735	220.284	0.168	0.269
-157.720	294.224	0.090	0.163
-156.706	800.000	-0.026	0.088
-155.691	295.126	-0.089	-0.163
-154.677	-200.000	0.029	0.260
-153.662	800.000	-0.049	0.176
-152.647	250.480	-0.175	0.297
-151.633	-112.465	0.134	-0.027
-150.618	760.443	0.091	-0.245
-149.604	-171.331	-0.092	0.003
-148.589	-21.658	-0.221	-0.134
-147.574	800.000	-0.010	-0.037
-146.560	-171.594	0.103	-0.003
-145.545	-97.147	-0.175	-0.046
-144.531	-135.216	0.336	-0.040
-143.516	1.935	0.267	0.192
-142.502	-200.000	0.059	-0.362
-141.487	51.980	-0.104	0.099
-140.472	-68.786	0.138	0.053
-139.458	-133.868	-0.120	0.015
-138.443	82.581	-0.113	-0.123
-137.429	-200.000	0.008	-0.036
-136.414	-138.821	-0.064	-0.007
-135.399	800.000	-0.096	0.274
-134.385	-57.944	0.194	0.084
-133.370	-51.441	-0.206	-0.096
-132.356	-152.646	-0.280	0.020
-131.341	82.133	-0.042	0.045
-130.326	103.795	0.155	0.182
-129.312	16.674	-0.170	-0.134
-128.297	-136.179	0.136	-0.016
-127.283	267.224	-0.097	-0.169
-126.268	348.098	0.128	0.251
-125.253	200.301	-0.155	0.237
-124.239	-200.000	-0.011	0.456
-123.224	42.871	0.182	0.166
-122.210	41.534	0.173	0.156
-121.195	-140.395	-0.070	0.007
