DTS Sentinel unit serial number:	SN413079Multiplexer serial number:	ORYXHardware model number:	OX4-SRSoftware version number:	ORYX F/W v4.00 Oryx Data Collector v3.7.2.0data status	okinstallation	princeton_trtdifferential loss correction	single-endedforward channel	channel 1reverse channel	N/Adate	2019/09/15time	20:54:35forward acquisition time	60.00reverse acquisition time	0.00gamma	496.2192k internal	0.2326k external	0.2326temperature offset calibration	0.9960default loss term (dB/km)	0.3790temperature slope calibration	1.0000multiplexer offset coefficient	1.0000multiplexer slope coefficient	1.0000fibre end	0.00T internal ref (°C)	32.06T ext. ref 1 (°C)	8.01T ext. ref 2 (°C)	24.38length (m)	temperature (°C)	Stokes	anti-Stokes-747.200	-200.000	0.008	-0.050
-746.185	-109.652	-0.325	-0.069
-745.171	-200.000	0.003	-0.187
-744.156	83.252	-0.300	0.330
-743.142	24.405	-0.434	0.362
-742.127	-53.764	-0.134	-0.062
-741.112	-200.000	-0.009	0.191
-740.098	618.134	0.017	-0.044
-739.083	320.693	0.157	-0.300
-738.069	86.714	0.109	0.121
-737.054	-200.000	0.016	-0.310
-736.039	-41.013	-0.171	0.089
-735.025	202.933	-0.075	0.117
-734.010	225.172	0.190	-0.311
-732.996	800.000	0.038	-0.120
-731.981	437.435	0.092	0.203
-730.966	151.793	0.289	0.397
-729.952	-103.581	0.121	-0.029
-728.937	800.000	0.044	-0.176
-727.923	153.753	0.134	0.185
-726.908	346.022	-0.029	-0.057
-725.894	277.612	0.107	-0.193
-724.879	12.490	0.230	-0.179
-723.864	113.827	-0.204	-0.249
-722.850	800.000	-0.117	-0.452
-721.835	-65.062	0.072	-0.029
-720.821	-26.856	-0.252	0.148
-719.806	-200.000	0.020	0.294
-718.791	554.600	-0.107	0.258
-717.777	-162.532	0.203	0.010
-716.762	-92.543	0.236	-0.067
-715.748	-200.000	-0.049	-0.270
-714.733	-164.253	0.526	-0.024
-713.718	95.774	-0.207	0.238
-712.704	-200.000	-0.006	0.209
-711.689	800.000	0.041	-0.134
-710.675	-116.643	0.046	-0.008
-709.660	-136.246	-0.288	-0.034
-708.645	-56.413	-0.202	0.090
-707.631	-84.930	-0.177	-0.056
-706.616	-200.000	0.021	-0.296
-705.602	-3.377	0.155	0.108
-704.587	-200.000	-0.007	0.062
-703.572	-121.098	0.395	-0.067
-702.558	373.781	-0.023	-0.046
-701.543	-7.180	0.143	0.097
-700.529	-47.289	-0.281	0.138
-699.514	-200.000	-0.008	-0.494
-698.499	256.485	-0.120	-0.208
-697.485	-99.265	0.177	0.045
-696.470	300.489	0.107	-0.199
-695.456	-66.484	-0.140	-0.056
-694.441	306.259	0.097	-0.182
-693.426	672.451	-0.018	-0.047
-692.412	-51.482	0.246	0.116
-691.397	245.475	0.143	-0.243
-690.383	34.737	-0.071	-0.063
-689.368	78.798	-0.243	-0.261
-688.354	-200.000	-0.006	-0.378
-687.339	143.854	0.166	-0.223
-686.324	-200.000	-0.074	0.336
-685.310	-54.718	0.141	0.064
-684.295	-200.000	0.003	0.377
-683.281	75.312	0.072	0.077
-682.266	800.000	0.052	-0.183
-681.251	-63.326	0.199	0.082
-680.237	100.957	-0.089	0.104
-679.222	-164.710	0.108	0.005
-678.208	-200.000	-0.026	-0.320
-677.193	-200.000	-0.019	-0.149
-676.178	-84.950	-0.020	0.006
-675.164	-200.000	0.005	0.079
-674.149	-45.074	-0.087	-0.043
-673.135	32.266	0.197	0.171
-672.120	-97.571	-0.177	-0.046
-671.105	39.399	0.302	-0.272
-670.091	-37.376	0.158	0.085
-669.076	-34.531	0.184	0.101
-668.062	-41.574	-0.226	-0.117
-667.047	-82.465	-0.056	-0.018
-666.032	2.226	0.218	0.158
-665.018	105.036	0.211	0.250
-664.003	6.389	0.260	-0.194
-662.989	-192.446	-0.283	-0.003
-661.974	800.000	-0.067	-0.286
-660.959	-200.000	0.100	-0.560
-659.945	154.836	-0.237	-0.327
-658.930	-32.581	-0.442	-0.247
-657.916	-29.061	0.065	-0.037
-656.901	800.000	0.044	0.140
-655.886	91.819	-0.173	-0.196
-654.872	800.000	0.051	-0.213
-653.857	-134.661	-0.228	0.028
-652.843	-99.840	0.247	0.062
-651.828	35.734	-0.271	-0.240
-650.814	-113.775	-0.205	-0.040
-649.799	-200.000	0.035	-0.210
-648.784	-7.198	-0.124	0.085
-647.770	-200.000	0.029	0.239
-646.755	496.340	-0.144	0.333
-645.741	-200.000	-0.009	0.134
-644.726	266.839	-0.191	0.335
-643.711	-126.201	0.134	0.020
-642.697	-200.000	-0.027	-0.211
-641.682	-66.265	0.116	0.046
-640.668	108.670	0.201	0.241
-639.653	25.977	-0.220	-0.184
-638.638	17.408	0.172	0.138
-637.624	21.892	0.104	0.085
-636.609	-186.017	0.250	-0.004
-635.595	30.348	0.307	-0.263
-634.580	136.100	-0.110	-0.144
-633.565	83.427	-0.224	-0.246
-632.551	-200.000	0.002	0.135
-631.536	484.340	-0.206	0.472
-630.522	-114.969	0.287	-0.055
-629.507	299.442	0.080	-0.148
-628.492	-200.000	0.008	0.110
-627.478	200.298	0.098	0.151
-626.463	593.759	0.152	0.378
-625.449	-26.151	0.293	0.173
-624.434	478.951	0.070	0.160
-623.419	124.945	-0.261	-0.329
-622.405	-95.976	0.292	-0.078
-621.390	-37.388	0.357	0.191
-620.376	-93.249	-0.268	-0.075
-619.361	-172.618	0.169	0.005
-618.346	-79.585	-0.140	-0.047
-617.332	243.553	0.222	-0.373
-616.317	-151.210	-0.344	0.026
-615.303	168.446	-0.111	0.158
-614.288	112.006	0.273	0.331
-613.273	-200.000	0.001	0.022
-612.259	163.488	-0.224	-0.316
-611.244	65.962	0.237	-0.242
-610.230	-200.000	0.059	-0.269
-609.215	183.241	-0.055	-0.081
-608.201	72.277	-0.219	-0.229
-607.186	-50.020	0.207	0.098
-606.171	179.910	0.138	-0.202
-605.157	112.045	0.157	-0.190
-604.142	173.279	0.167	0.242
-603.128	106.951	0.219	-0.261
-602.113	65.532	0.202	-0.205
-601.098	387.936	-0.072	0.150
-600.084	-170.840	-0.116	-0.004
-599.069	769.723	-0.100	-0.274
-598.055	-200.000	-0.010	-0.337
-597.040	-47.335	0.101	0.049
-596.025	-44.213	0.047	0.024
-595.011	-56.294	0.275	0.122
-593.996	100.850	-0.214	-0.249
-592.982	800.000	-0.092	-0.260
-591.967	-116.892	-0.190	-0.035
-590.952	-127.459	-0.213	0.031
-589.938	9.318	0.160	-0.122
-588.923	-10.916	0.111	0.073
-587.909	33.152	-0.102	0.088
-586.894	-193.284	0.252	0.002
-585.879	26.136	-0.009	-0.007
-584.865	-65.966	0.217	0.087
-583.850	-153.533	-0.182	0.013
-582.836	-92.405	0.255	0.072
-581.821	-43.638	-0.132	0.066
-580.806	-131.247	-0.284	0.038
-579.792	114.273	0.011	0.014
-578.777	192.743	-0.318	-0.481
-577.763	280.260	-0.048	0.087
-576.748	-200.000	-0.052	-0.282
-575.733	-12.798	-0.231	-0.151
-574.719	738.698	0.047	-0.126
-573.704	-105.531	-0.209	-0.048
-572.690	-200.000	-0.056	0.258
-571.675	240.668	0.053	-0.088
-570.661	-170.604	-0.217	0.008
-569.646	-200.000	0.004	0.360
-568.631	738.432	0.072	0.194
-567.617	251.171	-0.110	-0.188
-566.602	-73.996	0.612	0.222
-565.588	-200.000	0.004	-0.156
-564.573	23.632	-0.188	-0.155
-563.558	-69.980	0.099	-0.038
-562.544	-200.000	0.035	-0.287
-561.529	800.000	-0.045	-0.148
-560.515	-166.392	0.204	0.009
-559.500	-200.000	-0.017	-0.217
-558.485	800.000	0.104	-0.303
-557.471	800.000	-0.050	-0.167
-556.456	-146.721	-0.269	-0.023
-555.442	-66.502	-0.104	0.041
-554.427	-200.000	0.036	-0.322
-553.412	-98.471	-0.363	-0.093
-552.398	-200.000	-0.050	-0.349
-551.383	-148.514	-0.118	-0.010
-550.369	-125.347	0.147	0.022
-549.354	800.000	0.073	0.282
-548.339	-89.010	0.460	0.136
-547.325	-143.302	0.125	0.012
-546.310	127.977	0.134	-0.171
-545.296	143.523	0.260	0.347
-544.281	82.955	-0.160	-0.174
-543.266	-67.865	-0.069	0.027
-542.252	-200.000	0.039	-0.272
-541.237	-140.458	0.268	0.028
-540.223	-55.609	0.255	-0.114
-539.208	-123.730	0.337	0.053
-538.193	217.141	0.072	-0.114
-537.179	-109.057	0.081	-0.017
-536.164	317.536	-0.061	-0.116
-535.150	-28.053	0.333	0.192
-534.135	-104.432	-0.221	-0.051
-533.121	-11.929	-0.109	0.072
-532.106	-200.000	-0.053	0.482
-531.091	35.342	-0.204	-0.179
-530.077	55.580	-0.272	0.264
-529.062	800.000	0.089	0.350
-528.048	800.000	0.060	0.195
-527.033	196.022	-0.103	-0.157
-526.018	183.840	0.086	-0.127
-525.004	-153.231	-0.259	-0.018
-523.989	407.626	-0.147	0.310
-522.975	-200.000	-0.003	0.073
-521.960	55.026	-0.129	-0.124
-520.945	75.041	-0.302	0.318
-519.931	202.226	0.096	-0.149
-518.916	-70.303	0.174	-0.066
-517.902	332.804	0.127	-0.246
-516.887	748.276	-0.060	0.162
-515.872	200.755	-0.126	-0.193
-514.858	-164.971	-0.286	0.013
-513.843	-5.396	-0.058	0.040
-512.829	667.915	0.175	0.452
-511.814	-130.547	-0.158	-0.021
-510.799	-200.000	0.039	0.246
-509.785	438.656	-0.069	0.151
-508.770	-32.551	0.167	0.093
-507.756	-200.000	0.031	0.313
-506.741	800.000	-0.020	0.058
-505.726	79.591	0.201	0.215
-504.712	179.068	0.133	-0.195
-503.697	241.812	0.106	0.177
-502.683	451.956	-0.057	-0.125
-501.668	56.135	-0.039	0.038
-500.653	-101.465	0.294	0.071
-499.639	-163.764	0.218	0.010
-498.624	800.000	-0.016	0.054
-497.610	800.000	-0.061	0.180
-496.595	83.324	0.225	0.244
-495.581	111.499	-0.057	0.068
-494.566	-200.000	-0.058	0.305
-493.551	132.756	0.144	0.186
-492.537	-18.295	0.055	0.035
-491.522	-75.970	0.172	-0.061
-490.508	-200.000	0.001	-0.225
-489.493	-85.687	-0.280	0.087
-488.478	-104.388	-0.284	-0.066
-487.464	-200.000	-0.004	-0.148
-486.449	-101.100	-0.274	0.067
-485.435	-200.000	-0.007	-0.301
-484.420	243.655	-0.155	-0.260
-483.405	-183.961	-0.433	0.007
-482.391	800.000	0.071	0.226
-481.376	-200.000	0.031	0.349
-480.362	39.849	-0.098	0.088
-479.347	184.732	-0.332	0.491
-478.332	800.000	-0.028	0.115
-477.318	-200.000	-0.024	-0.249
-476.303	12.027	-0.061	-0.047
-475.289	33.340	-0.153	-0.132
-474.274	-200.000	-0.050	-0.373
-473.259	-104.982	0.083	-0.019
-472.245	-56.314	-0.053	0.024
-471.230	-200.000	0.090	-0.497
-470.216	439.969	-0.070	0.152
-469.201	-116.791	-0.208	0.038
-468.186	-65.597	0.181	-0.072
-467.172	555.924	0.023	0.056
-466.157	800.000	0.003	-0.013
-465.143	578.452	0.039	-0.096
-464.128	283.373	-0.096	-0.172
-463.113	-71.754	0.223	0.083
-462.099	-200.000	-0.017	0.119
-461.084	-200.000	0.005	0.085
-460.070	800.000	0.096	-0.346
-459.055	-120.724	-0.198	0.033
-458.040	3.339	-0.214	-0.156
-457.026	-125.593	-0.117	0.018
-456.011	-200.000	0.013	-0.311
-454.997	480.191	-0.104	-0.234
-453.982	250.234	0.079	-0.133
-452.968	62.777	0.326	-0.325
-451.953	160.306	-0.204	-0.283
-450.938	-200.000	-0.003	-0.323
-449.924	-5.902	-0.108	0.073
-448.909	-41.944	-0.127	-0.065
-447.895	13.892	0.156	0.121
-446.880	175.830	-0.155	-0.224
-445.865	-200.000	0.005	-0.149
-444.851	-87.384	-0.242	0.073
-443.836	2.113	0.179	-0.129
-442.822	-57.720	-0.115	-0.050
-441.807	235.373	0.168	0.277
-440.792	23.449	0.166	0.136
-439.778	-200.000	-0.003	-0.120
-438.763	-73.026	-0.212	0.077
-437.749	139.049	-0.080	0.104
-436.734	209.284	-0.058	0.090
-435.719	63.705	0.154	-0.154
-434.705	-131.590	-0.223	0.029
-433.690	763.426	0.103	0.278
-432.676	19.346	-0.291	-0.233
-431.661	-35.151	-0.187	0.101
-430.646	-52.423	0.245	-0.113
-429.632	-162.449	0.261	-0.013
-428.617	6.220	0.139	-0.103
-427.603	-168.881	-0.139	0.005
-426.588	416.203	0.079	0.169
-425.573	-200.000	0.039	0.264
-424.559	124.666	0.053	0.066
-423.544	-43.156	0.213	0.108
-422.530	-200.000	-0.027	-0.138
-421.515	-200.000	-0.008	-0.169
-420.500	72.673	-0.298	-0.309
-419.486	-200.000	-0.022	-0.125
-418.471	800.000	-0.011	0.036
-417.457	326.974	-0.080	-0.153
-416.442	178.316	0.188	0.274
-415.428	-21.820	0.172	-0.104
-414.413	510.293	0.139	-0.321
-413.398	-46.704	0.126	0.061
-412.384	-200.000	0.032	-0.253
-411.369	337.443	0.065	-0.126
-410.355	800.000	0.103	0.450
-409.340	-200.000	-0.040	0.189
-408.325	-64.243	0.271	-0.110
-407.311	42.593	0.257	-0.233
-406.296	-35.128	-0.062	0.033
-405.282	-107.728	-0.221	0.048
-404.267	95.432	-0.257	-0.292
-403.252	-22.858	0.473	-0.284
-402.238	39.143	-0.111	0.098
-401.223	-31.543	0.135	0.076
-400.209	-200.000	-0.017	0.220
-399.194	-200.000	0.006	-0.126
-398.179	800.000	-0.048	0.176
-397.165	-200.000	0.015	-0.129
-396.150	-16.733	0.452	0.284
-395.136	110.029	-0.165	-0.197
-394.121	-100.801	-0.285	-0.070
-393.106	375.856	0.094	-0.192
-392.092	178.530	0.125	0.181
-391.077	764.772	-0.064	-0.172
-390.063	32.041	-0.204	0.175
-389.048	-30.874	-0.233	0.131
-388.033	-200.000	0.019	0.180
-387.019	-110.915	-0.561	0.115
-386.004	-135.480	0.312	0.037
-384.990	60.712	0.147	-0.145
-383.975	0.655	-0.163	-0.116
-382.960	18.694	0.091	-0.072
-381.946	-200.000	-0.013	0.268
-380.931	124.152	0.092	-0.115
-379.917	-28.642	-0.266	-0.152
-378.902	-114.906	-0.036	-0.007
-377.888	-6.086	-0.156	0.106
-376.873	800.000	0.058	0.231
-375.858	-118.702	-0.203	-0.036
-374.844	3.724	0.497	-0.361
-373.829	-48.634	-0.059	-0.028
-372.815	800.000	-0.056	0.160
-371.800	-10.102	0.131	-0.086
-370.785	-200.000	0.019	0.159
-369.771	-200.000	-0.057	-0.352
-368.756	800.000	-0.115	0.397
-367.742	-122.418	-0.136	-0.022
-366.727	2.542	0.155	0.112
-365.712	800.000	0.037	0.119
-364.698	3.017	-0.131	-0.095
-363.683	-190.296	-0.232	-0.003
-362.669	148.758	0.052	0.070
-361.654	70.755	-0.101	-0.104
-360.639	-200.000	-0.016	0.391
-359.625	800.000	-0.044	-0.180
-358.610	-109.057	0.076	-0.016
-357.596	-30.400	-0.137	-0.077
-356.581	-4.097	0.067	-0.046
-355.566	62.479	-0.185	-0.183
-354.552	241.071	0.103	0.172
-353.537	155.358	0.104	-0.143
-352.523	-200.000	0.046	-0.266
-351.508	-200.000	-0.022	0.344
-350.493	-92.772	0.148	-0.041
-349.479	-127.447	-0.203	0.029
-348.464	16.091	-0.153	-0.119
-347.450	-200.000	-0.031	0.426
-346.435	158.771	0.056	0.078
-345.420	-42.605	-0.027	0.013
-344.406	19.921	-0.277	-0.222
-343.391	101.701	0.170	0.197
-342.377	800.000	-0.044	-0.139
-341.362	55.443	0.175	0.168
-340.348	-86.404	0.043	-0.013
-339.333	-14.316	-0.256	0.164
-338.318	-156.985	0.222	-0.013
-337.304	33.127	-0.067	-0.057
-336.289	-30.305	-0.043	-0.024
-335.275	180.662	0.059	-0.086
-334.260	-28.102	-0.089	0.051
-333.245	140.536	-0.052	-0.068
-332.231	-33.573	-0.185	0.101
-331.216	186.522	-0.236	0.349
-330.202	-84.827	-0.296	0.092
-329.187	-5.178	0.120	-0.082
-328.172	-42.563	0.077	-0.039
-327.158	144.104	-0.273	0.361
-326.143	-57.422	0.264	-0.115
-325.129	-68.352	0.219	-0.084
-324.114	-83.707	0.215	-0.068
-323.099	34.944	-0.155	0.135
-322.085	-200.000	-0.032	0.563
-321.070	-25.054	0.177	0.104
-320.056	-200.000	-0.065	-0.301
-319.041	-200.000	-0.000	0.083
-318.026	-200.000	-0.003	-0.158
-317.012	-61.150	0.200	-0.084
-315.997	-50.949	0.109	0.051
-314.983	395.598	0.006	0.012
-313.968	-41.818	0.342	-0.174
-312.953	-67.223	-0.335	0.131
-311.939	800.000	-0.046	0.185
-310.924	800.000	-0.044	0.158
-309.910	188.391	-0.157	-0.233
-308.895	-200.000	-0.040	-0.281
-307.880	-23.685	-0.246	-0.146
-306.866	21.574	0.041	0.033
-305.851	-200.000	0.002	0.107
-304.837	-61.150	-0.275	-0.115
-303.822	-147.850	0.217	-0.018
-302.807	41.597	0.293	-0.263
-301.793	142.691	-0.230	-0.303
-300.778	-23.373	0.209	-0.124
-299.764	30.248	-0.243	-0.205
-298.749	162.049	0.173	-0.240
-297.735	-99.537	-0.204	-0.051
-296.720	2.955	-0.338	0.243
-295.705	308.730	-0.143	0.265
-294.691	15.902	-0.123	0.096
-293.676	122.795	-0.126	-0.156
-292.662	403.662	0.177	0.368
-291.647	3.090	0.112	-0.081
-290.632	800.000	0.071	-0.238
-289.618	-71.874	-0.180	0.066
-288.603	-92.207	-0.188	0.053
-287.589	258.735	0.121	0.207
-286.574	466.878	-0.098	-0.218
-285.559	122.284	0.140	-0.173
-284.545	72.432	-0.170	0.175
-283.530	277.374	0.047	0.083
-282.516	-94.177	0.199	0.054
-281.501	161.506	0.093	-0.128
-280.486	-49.889	0.092	-0.043
-279.472	-31.810	0.255	0.142
-278.457	-18.097	-0.044	0.028
-277.443	-200.000	-0.016	-0.337
-276.428	123.794	0.125	0.155
-275.413	-200.000	-0.018	0.302
-274.399	-118.119	-0.123	0.022
-273.384	406.561	0.078	-0.163
-272.370	-159.896	0.137	0.007
-271.355	678.266	0.065	0.168
-270.340	-47.468	0.276	-0.133
-269.326	131.937	0.083	0.105
-268.311	160.337	0.113	0.157
-267.297	4.395	0.515	0.374
-266.282	-50.896	-0.255	0.119
-265.267	-200.000	-0.028	-0.153
-264.253	172.807	-0.144	-0.206
-263.238	169.861	-0.046	-0.065
-262.224	-60.232	-0.214	-0.090
-261.209	-53.033	0.118	-0.054
-260.195	245.413	0.084	-0.140
-259.180	-200.000	0.334	0.001
-258.165	-32.784	-0.224	0.123
-257.151	-137.777	-0.199	-0.022
-256.136	-164.564	-0.149	-0.007
-255.122	-94.940	0.319	-0.085
-254.107	-0.716	0.218	0.153
-253.092	75.955	-0.043	0.045
-252.078	135.492	0.111	0.142
-251.063	-22.049	0.210	-0.126
-250.049	-200.000	0.018	0.109
-249.034	-131.761	-0.244	0.032
-248.019	294.854	0.107	0.193
-247.005	800.000	0.070	0.228
-245.990	800.000	0.033	-0.101
-244.976	-141.459	0.037	0.004
-243.961	-91.868	-0.078	-0.022
-242.946	18.316	-0.302	0.239
-241.932	-6.186	0.407	-0.275
-240.917	800.000	-0.027	-0.086
-239.903	336.294	-0.084	0.161
-238.888	-116.312	-0.421	-0.077
-237.873	-118.733	0.204	-0.036
-236.859	-0.910	0.112	0.079
-235.844	-7.647	0.138	0.092
-234.830	-200.000	-0.000	0.110
-233.815	473.091	0.105	0.233
-232.800	-25.082	-0.045	-0.026
-231.786	-200.000	-0.034	0.263
-230.771	159.136	-0.192	-0.263
-229.757	-133.335	-0.204	0.025
-228.742	800.000	-0.041	-0.137
-227.727	435.457	-0.046	-0.099
-226.713	-200.000	0.002	0.056
-225.698	-129.393	0.107	-0.015
-224.684	-91.314	0.466	-0.132
-223.669	257.361	-0.114	0.193
-222.655	-0.020	-0.199	0.140
-221.640	-200.000	0.052	-0.367
-220.625	581.979	-0.120	-0.291
-219.611	800.000	-0.072	-0.233
-218.596	-153.504	-0.184	-0.013
-217.582	-75.616	-0.176	0.062
-216.567	-200.000	0.019	0.219
-215.552	267.641	0.082	0.141
-214.538	461.141	-0.137	0.302
-213.523	59.898	0.097	-0.095
-212.509	180.427	0.223	0.323
-211.494	-200.000	0.027	-0.217
-210.479	-120.247	-0.299	-0.050
-209.465	-64.520	0.420	0.169
-208.450	-79.412	-0.560	-0.187
-207.436	-91.737	0.163	-0.046
-206.421	800.000	-0.013	-0.052
-205.406	31.498	0.130	-0.111
-204.392	-39.036	-0.237	0.123
-203.377	-200.000	-0.074	0.339
-202.363	392.850	0.112	-0.230
-201.348	-151.129	-0.142	0.011
-200.333	-200.000	-0.005	-0.090
-199.319	-161.828	-0.358	0.018
-198.304	-178.578	0.170	0.004
-197.290	800.000	-0.062	0.182
-196.275	-84.523	0.118	0.037
-195.260	-200.000	0.040	0.214
-194.246	-42.613	-0.214	-0.108
-193.231	-200.000	0.000	0.025
-192.217	-200.000	0.031	0.149
-191.202	-136.180	0.510	0.059
-190.187	-88.689	0.192	-0.056
-189.173	800.000	-0.016	0.060
-188.158	-68.875	0.130	-0.050
-187.144	387.494	-0.065	-0.132
-186.129	800.000	0.095	0.267
-185.114	67.062	0.270	0.271
-184.100	-87.122	-0.165	0.049
-183.085	-3.747	0.175	0.120
-182.071	-143.227	-0.222	0.021
-181.056	-58.534	0.139	0.059
-180.042	-114.820	0.394	0.074
-179.027	-91.752	0.285	-0.080
-178.012	-13.413	0.067	-0.043
-176.998	-62.425	-0.143	0.059
-175.983	-82.058	0.210	0.068
-174.969	436.743	-0.132	0.283
-173.954	-33.378	-0.082	-0.045
-172.939	11.604	-0.192	0.145
-171.925	80.616	-0.245	0.260
-170.910	116.516	0.090	0.109
-169.896	-113.806	0.079	-0.015
-168.881	800.000	0.061	-0.196
-167.866	-4.484	0.272	0.185
-166.852	151.200	-0.092	0.124
-165.837	-137.927	-0.326	0.036
-164.823	78.392	-0.253	-0.266
-163.808	-200.000	0.045	-0.331
-162.793	-117.201	-0.141	0.025
-161.779	-165.535	-0.093	-0.004
-160.764	-27.916	-0.122	-0.069
-159.750	12.054	-0.067	-0.051
-158.735	-56.920	0.202	0.088
-157.720	29.183	0.274	0.230
-156.706	-0.019	-0.080	0.056
-155.691	-43.333	-0.082	-0.041
-154.677	263.441	-0.176	-0.301
-153.662	147.444	-0.201	-0.267
-152.647	98.301	-0.251	-0.284
-151.633	5.961	0.036	0.026
-150.618	-200.000	0.009	0.079
-149.604	-200.000	0.021	0.197
-148.589	368.416	-0.105	0.209
-147.574	-134.906	-0.202	-0.024
-146.560	23.851	-0.187	-0.152
-145.545	198.587	0.091	0.137
-144.531	-189.159	0.100	0.001
-143.516	-112.652	0.098	0.019
-142.502	4.320	-0.092	-0.066
-141.487	-126.280	-0.068	0.010
-140.472	70.807	-0.174	0.177
-139.458	800.000	0.069	0.286
-138.443	-80.723	0.074	-0.024
-137.429	-200.000	0.025	0.117
-136.414	689.711	-0.076	-0.196
-135.399	178.638	0.054	0.078
-134.385	-200.000	0.102	-0.530
-133.370	-44.739	-0.185	0.091
-132.356	96.663	-0.094	-0.107
-131.341	113.644	-0.152	0.182
-130.326	320.976	0.095	-0.177
-129.312	-200.000	-0.023	-0.152
-128.297	661.793	0.035	-0.089
-127.283	-200.000	-0.042	-0.308
-126.268	-8.952	0.161	-0.106
-125.253	18.425	-0.131	-0.103
-124.239	281.862	-0.048	0.084
-123.224	-44.082	0.313	-0.155
-122.210	-200.000	-0.051	-0.266
-121.195	125.146	-0.030	-0.038
