DTS Sentinel unit serial number:	SN413079Multiplexer serial number:	ORYXHardware model number:	OX4-SRSoftware version number:	ORYX F/W v4.00 Oryx Data Collector v3.7.2.0data status	okinstallation	princeton_trtdifferential loss correction	single-endedforward channel	channel 1reverse channel	N/Adate	2019/09/16time	20:14:35forward acquisition time	60.00reverse acquisition time	0.00gamma	496.2192k internal	0.2322k external	0.2322temperature offset calibration	0.9952default loss term (dB/km)	0.3790temperature slope calibration	1.0000multiplexer offset coefficient	1.0000multiplexer slope coefficient	1.0000fibre end	0.00T internal ref (°C)	33.00T ext. ref 1 (°C)	0.08T ext. ref 2 (°C)	26.64length (m)	temperature (°C)	Stokes	anti-Stokes-747.200	337.308	-0.093	-0.183
-746.185	195.438	0.111	-0.170
-745.171	-155.584	-0.118	-0.008
-744.156	-13.351	-0.169	0.111
-743.142	800.000	0.065	0.186
-742.127	-104.592	-0.130	0.030
-741.112	-146.760	-0.164	-0.014
-740.098	-54.828	-0.272	0.124
-739.083	-15.965	-0.329	0.211
-738.069	-200.000	0.007	0.061
-737.054	800.000	-0.049	0.184
-736.039	-120.629	-0.123	-0.021
-735.025	-14.865	0.173	0.112
-734.010	-22.481	-0.050	-0.031
-732.996	-42.053	-0.067	-0.034
-731.981	101.327	0.144	-0.170
-730.966	-54.395	0.175	-0.080
-729.952	-137.112	0.250	-0.029
-728.937	-200.000	0.042	0.249
-727.923	-51.030	-0.041	0.019
-726.908	-69.460	-0.248	-0.096
-725.894	800.000	0.070	0.212
-724.879	488.336	0.050	-0.116
-723.864	800.000	-0.031	0.090
-722.850	303.202	-0.098	-0.183
-721.835	107.369	-0.047	0.057
-720.821	638.613	0.134	-0.344
-719.806	264.135	-0.133	-0.233
-718.791	198.441	0.046	0.071
-717.777	800.000	0.073	-0.317
-716.762	740.434	-0.076	-0.205
-715.748	-120.030	-0.344	-0.059
-714.733	800.000	0.048	0.158
-713.718	-29.180	-0.140	0.081
-712.704	-200.000	0.010	0.256
-711.689	-56.368	-0.015	-0.007
-710.675	70.458	-0.277	0.289
-709.660	-114.385	0.211	0.041
-708.645	-200.000	-0.053	-0.290
-707.631	127.068	-0.182	0.233
-706.616	239.678	-0.100	-0.168
-705.602	-58.827	-0.271	-0.118
-704.587	-58.673	0.454	-0.198
-703.572	215.448	0.128	-0.205
-702.558	-172.157	-0.276	0.009
-701.543	-35.465	0.481	0.263
-700.529	6.633	-0.154	0.115
-699.514	-49.066	0.394	-0.190
-698.499	800.000	0.047	-0.185
-697.485	-142.024	-0.234	-0.024
-696.470	-88.247	0.347	-0.105
-695.456	-50.324	-0.141	-0.067
-694.441	-200.000	-0.008	-0.163
-693.426	730.778	0.126	0.341
-692.412	-47.568	-0.189	0.092
-691.397	-200.000	-0.003	0.276
-690.383	-126.362	-0.160	0.024
-689.368	-200.000	0.045	0.343
-688.354	-28.281	0.160	-0.093
-687.339	-43.948	-0.333	-0.169
-686.324	-71.479	-0.490	-0.185
-685.310	734.387	-0.083	-0.223
-684.295	-127.588	-0.155	0.023
-683.281	-105.357	-0.322	0.074
-682.266	255.452	-0.108	-0.187
-681.251	6.248	0.206	-0.154
-680.237	331.661	-0.045	0.087
-679.222	16.854	-0.107	0.085
-678.208	4.643	-0.088	0.065
-677.193	-83.304	-0.099	0.032
-676.178	49.311	0.082	-0.078
-675.164	-152.413	-0.298	-0.022
-674.149	29.594	0.243	0.209
-673.135	-98.221	-0.070	0.018
-672.120	-168.271	-0.120	0.005
-671.105	-131.467	-0.197	0.026
-670.091	-104.359	-0.111	0.026
-669.076	-83.761	-0.320	-0.103
-668.062	-158.244	-0.307	-0.018
-667.047	2.762	0.274	0.200
-666.032	800.000	-0.067	0.207
-665.018	-200.000	-0.001	-0.328
-664.003	175.573	-0.109	-0.159
-662.989	-200.000	-0.045	-0.250
-661.974	174.730	-0.187	-0.273
-660.959	-200.000	-0.001	-0.192
-659.945	425.349	0.018	0.040
-658.930	-98.059	-0.154	-0.040
-657.916	-200.000	0.036	0.239
-656.901	800.000	0.087	0.360
-655.886	800.000	0.038	0.144
-654.872	-200.000	-0.027	-0.223
-653.857	800.000	-0.166	-0.479
-652.843	110.506	0.204	-0.247
-651.828	-68.515	-0.303	0.118
-650.814	800.000	0.032	0.130
-649.799	800.000	-0.046	0.159
-648.784	-129.071	-0.418	-0.059
-647.770	375.085	0.052	0.106
-646.755	-200.000	-0.043	-0.202
-645.741	15.842	-0.281	0.222
-644.726	522.712	0.070	-0.166
-643.711	-45.601	0.265	0.132
-642.697	-200.000	-0.013	0.106
-641.682	570.137	-0.031	-0.076
-640.668	800.000	-0.002	-0.007
-639.653	575.979	-0.181	-0.444
-638.638	341.261	-0.127	-0.250
-637.624	338.773	-0.047	0.093
-636.609	-60.709	-0.278	0.118
-635.595	-200.000	-0.060	0.376
-634.580	-200.000	0.041	-0.404
-633.565	-20.196	-0.151	-0.094
-632.551	-126.184	0.258	-0.039
-631.536	255.808	0.082	-0.141
-630.522	-87.977	0.227	0.069
-629.507	-200.000	-0.003	0.303
-628.492	-52.777	0.315	-0.146
-627.478	140.560	0.029	-0.038
-626.463	-67.057	-0.110	-0.044
-625.449	-200.000	-0.029	-0.211
-624.434	39.951	0.222	-0.200
-623.419	-167.029	-0.129	-0.005
-622.405	-200.000	0.094	0.429
-621.390	-87.966	0.120	0.036
-620.376	-73.047	0.192	-0.071
-619.361	44.002	-0.197	-0.182
-618.346	-59.272	-0.231	0.100
-617.332	219.076	0.178	-0.286
-616.317	-113.047	-0.284	-0.056
-615.303	-67.552	0.433	-0.171
-614.288	-200.000	-0.097	0.623
-613.273	-109.276	0.436	-0.093
-612.259	-41.540	0.086	-0.044
-611.244	-200.000	-0.007	0.104
-610.230	233.417	-0.188	0.310
-609.215	-200.000	0.003	0.192
-608.201	125.947	-0.068	-0.087
-607.186	800.000	-0.068	-0.276
-606.171	-99.757	0.390	-0.098
-605.157	-68.990	0.177	-0.069
-604.142	-200.000	0.013	-0.067
-603.128	-117.807	-0.172	-0.031
-602.113	27.430	0.288	-0.244
-601.098	800.000	-0.087	-0.333
-600.084	-200.000	-0.034	0.192
-599.069	23.883	-0.288	0.239
-598.055	77.508	0.125	-0.133
-597.040	713.143	0.132	-0.351
-596.025	-72.555	-0.350	0.130
-595.011	-88.626	0.255	-0.076
-593.996	189.110	-0.170	-0.256
-592.982	-17.653	0.138	-0.087
-591.967	41.746	0.175	0.159
-590.952	800.000	0.009	0.026
-589.938	-121.567	0.273	-0.045
-588.923	41.215	0.217	-0.197
-587.909	651.660	0.034	0.088
-586.894	-57.717	0.120	-0.053
-585.879	-153.199	0.134	-0.009
-584.865	-200.000	0.005	-0.310
-583.850	259.725	-0.062	-0.107
-582.836	225.766	-0.253	0.412
-581.821	-200.000	0.004	-0.275
-580.806	175.662	-0.061	-0.089
-579.792	-0.084	-0.249	0.178
-578.777	-79.092	0.093	0.032
-577.763	189.960	-0.236	-0.355
-576.748	-200.000	-0.025	-0.175
-575.733	88.915	-0.253	0.283
-574.719	-200.000	0.052	0.314
-573.704	-2.542	-0.278	-0.195
-572.690	-200.000	-0.029	0.147
-571.675	-200.000	0.022	-0.122
-570.661	800.000	-0.042	-0.132
-569.646	-74.441	-0.248	-0.090
-568.631	-136.969	-0.137	0.016
-567.617	-49.260	-0.241	-0.115
-566.602	-80.844	-0.273	0.091
-565.588	99.605	0.206	-0.239
-564.573	-65.646	-0.051	-0.020
-563.558	-185.105	0.412	-0.006
-562.544	-200.000	-0.034	-0.264
-561.529	800.000	-0.020	-0.076
-560.515	-121.976	-0.237	-0.039
-559.500	-200.000	-0.004	0.190
-558.485	800.000	-0.069	-0.209
-557.471	-172.311	-0.368	0.012
-556.456	-69.312	0.097	-0.037
-555.442	93.850	0.025	0.028
-554.427	-200.000	0.047	0.406
-553.412	344.375	0.074	0.146
-552.398	28.991	0.217	-0.185
-551.383	33.209	-0.187	0.162
-550.369	-42.379	-0.145	0.074
-549.354	431.919	0.022	0.048
-548.339	-6.419	0.128	0.087
-547.325	-57.756	-0.438	0.192
-546.310	171.322	0.094	0.136
-545.296	-125.312	0.064	0.010
-544.281	-82.064	-0.116	-0.038
-543.266	223.803	0.135	0.218
-542.252	-56.377	-0.251	-0.112
-541.237	800.000	-0.019	-0.073
-540.223	146.487	0.201	0.270
-539.208	-69.105	0.135	0.052
-538.193	619.598	-0.111	0.280
-537.179	54.180	-0.186	-0.180
-536.164	-57.528	-0.333	-0.146
-535.150	-80.961	0.340	-0.113
-534.135	337.300	0.130	0.253
-533.121	29.092	-0.094	-0.080
-532.106	-68.129	0.314	0.123
-531.091	153.403	-0.077	-0.106
-530.077	113.313	-0.088	-0.107
-529.062	25.704	-0.239	-0.199
-528.048	80.840	0.361	0.390
-527.033	556.959	-0.022	-0.053
-526.018	-2.557	-0.127	0.089
-525.004	-98.168	-0.097	-0.025
-523.989	-23.874	0.401	-0.240
-522.975	-102.769	-0.330	0.079
-521.960	-85.287	-0.326	0.102
-520.945	102.305	-0.214	-0.250
-519.931	-68.954	-0.232	0.090
-518.916	52.753	-0.159	0.152
-517.902	-95.645	0.123	0.033
-516.887	164.607	-0.159	0.225
-515.872	-200.000	0.027	-0.338
-514.858	93.357	-0.108	-0.123
-513.843	63.056	-0.081	-0.081
-512.829	213.000	-0.039	-0.062
-511.814	-200.000	-0.024	0.130
-510.799	-181.542	0.133	-0.003
-509.785	5.598	-0.307	-0.227
-508.770	800.000	0.093	-0.377
-507.756	-200.000	0.260	-0.001
-506.741	-108.108	0.072	0.016
-505.726	179.379	0.192	-0.281
-504.712	225.359	0.157	-0.254
-503.697	800.000	-0.075	-0.268
-502.683	800.000	0.079	-0.269
-501.668	116.613	0.251	-0.308
-500.653	-82.609	0.213	-0.069
-499.639	-118.028	-0.067	0.012
-498.624	65.287	0.088	-0.089
-497.610	-90.666	0.232	-0.067
-496.595	-6.291	-0.232	-0.158
-495.581	-118.152	-0.533	0.095
-494.566	494.092	-0.114	0.262
-493.551	707.030	-0.021	0.056
-492.537	188.181	0.300	-0.448
-491.522	-200.000	-0.017	-0.229
-490.508	-57.161	0.224	0.099
-489.493	-149.275	-0.363	0.029
-488.478	-200.000	0.007	0.276
-487.464	278.456	0.203	0.362
-486.449	-200.000	-0.043	-0.189
-485.435	380.796	-0.124	0.253
-484.420	47.627	-0.234	0.218
-483.405	178.041	-0.112	-0.164
-482.391	-34.207	-0.229	-0.126
-481.376	297.864	-0.060	-0.110
-480.362	-200.000	-0.015	0.072
-479.347	40.117	0.041	-0.037
-478.332	623.480	-0.034	0.085
-477.318	-200.000	0.017	0.200
-476.303	-5.853	0.131	0.089
-475.289	-141.155	0.222	-0.023
-474.274	-200.000	0.021	0.174
-473.259	-200.000	0.038	0.465
-472.245	22.702	0.220	0.180
-471.230	-200.000	0.012	0.186
-470.216	26.200	0.032	0.027
-469.201	206.742	-0.110	-0.172
-468.186	-68.914	0.263	0.101
-467.172	-72.335	0.078	-0.029
-466.157	-169.333	-0.276	-0.010
-465.143	-43.103	0.318	-0.161
-464.128	448.344	-0.188	0.414
-463.113	-200.000	0.004	-0.052
-462.099	374.415	-0.088	0.180
-461.084	-189.498	0.161	-0.002
-460.070	46.840	0.151	-0.140
-459.055	47.849	-0.057	0.053
-458.040	136.505	0.087	-0.113
-457.026	-4.781	-0.166	0.115
-456.011	-112.919	-0.239	0.047
-454.997	32.234	-0.118	-0.101
-453.982	-11.997	-0.253	0.166
-452.968	108.874	-0.071	0.084
-451.953	155.269	0.125	-0.172
-450.938	-12.749	-0.313	0.204
-449.924	271.749	-0.060	-0.106
-448.909	36.905	-0.238	-0.210
-447.895	99.566	0.161	0.186
-446.880	-179.115	0.257	-0.006
-445.865	-113.049	-0.160	-0.032
-444.851	800.000	-0.032	0.134
-443.836	-95.107	-0.256	0.069
-442.822	135.362	-0.100	-0.130
-441.807	755.591	-0.065	-0.177
-440.792	66.691	-0.213	-0.216
-439.778	-87.088	-0.200	-0.061
-438.763	-200.000	-0.032	0.251
-437.749	-200.000	0.009	0.313
-436.734	402.523	0.162	-0.339
-435.719	45.239	-0.145	0.134
-434.705	-200.000	-0.047	-0.243
-433.690	154.244	0.097	0.133
-432.676	104.095	-0.095	-0.112
-431.661	-117.750	-0.139	0.025
-430.646	-70.522	0.306	0.116
-429.632	-19.316	0.283	-0.175
-428.617	-200.000	-0.013	-0.126
-427.603	101.157	0.097	0.112
-426.588	80.766	0.154	-0.166
-425.573	-73.911	-0.426	-0.154
-424.559	-109.165	0.308	0.065
-423.544	-187.446	0.339	-0.005
-422.530	128.115	-0.135	0.171
-421.515	237.246	0.091	0.151
-420.500	61.749	0.424	0.421
-419.486	-75.930	0.088	0.031
-418.471	48.083	0.128	0.120
-417.457	470.087	0.196	0.440
-416.442	-45.871	-0.276	0.136
-415.428	800.000	-0.065	-0.260
-414.413	-34.949	-0.126	-0.069
-413.398	-5.149	-0.476	-0.326
-412.384	234.118	0.254	0.416
-411.369	-200.000	0.015	-0.417
-410.355	202.538	-0.192	-0.295
-409.340	-75.782	0.213	0.075
-408.325	-127.255	-0.126	0.018
-407.311	800.000	-0.069	0.222
-406.296	-168.696	0.249	0.009
-405.282	-166.593	-0.070	0.003
-404.267	-200.000	-0.065	0.394
-403.252	723.408	-0.039	0.103
-402.238	-138.953	0.249	0.027
-401.223	79.404	-0.119	0.127
-400.209	-22.042	-0.214	0.129
-399.194	-7.648	0.186	-0.125
-398.179	-200.000	0.022	-0.260
-397.165	-200.000	0.034	0.151
-396.150	-177.077	-0.123	-0.003
-395.136	800.000	0.040	-0.139
-394.121	22.604	-0.180	0.147
-393.106	64.519	0.104	-0.104
-392.092	244.215	-0.187	0.312
-391.077	-99.842	-0.351	-0.088
-390.063	-137.950	0.119	0.013
-389.048	347.830	-0.091	0.178
-388.033	754.013	0.036	-0.096
-387.019	-200.000	-0.028	0.179
-386.004	-200.000	-0.062	-0.364
-384.990	238.373	0.104	0.172
-383.975	-82.751	-0.239	0.077
-382.960	7.678	-0.054	0.040
-381.946	38.673	-0.044	0.039
-380.931	70.454	0.311	0.320
-379.917	-200.000	0.026	0.161
-378.902	361.641	-0.023	0.045
-377.888	-137.638	0.300	0.034
-376.873	-80.367	0.071	-0.024
-375.858	-146.867	-0.058	-0.005
-374.844	-93.461	0.155	0.043
-373.829	18.262	-0.235	-0.187
-372.815	147.740	-0.044	0.059
-371.800	-52.802	-0.303	-0.139
-370.785	-105.944	-0.233	-0.052
-369.771	-98.710	-0.165	0.042
-368.756	105.982	-0.193	-0.228
-367.742	-132.442	-0.405	-0.052
-366.727	-14.478	0.218	0.140
-365.712	-190.239	-0.100	0.001
-364.698	-40.135	-0.271	0.141
-363.683	27.684	0.102	-0.085
-362.669	351.006	0.065	-0.128
-361.654	-119.940	0.203	0.035
-360.639	5.867	0.160	0.118
-359.625	-200.000	0.008	0.184
-358.610	800.000	0.060	0.238
-357.596	139.697	-0.220	-0.288
-356.581	800.000	-0.031	0.086
-355.566	-48.784	-0.189	0.090
-354.552	-100.966	0.177	0.043
-353.537	100.541	0.230	-0.266
-352.523	-54.321	0.158	0.071
-351.508	-192.744	-0.120	0.001
-350.493	303.651	-0.048	-0.089
-349.479	800.000	0.091	-0.282
-348.464	-94.160	-0.092	0.025
-347.450	800.000	-0.076	-0.306
-346.435	-200.000	0.002	-0.169
-345.420	-98.045	0.275	-0.070
-344.406	-67.067	0.097	-0.038
-343.391	-50.097	-0.163	0.077
-342.377	-67.357	0.161	-0.063
-341.362	-9.995	0.148	-0.098
-340.348	-31.585	0.445	0.248
-339.333	-56.055	0.202	0.090
-338.318	29.363	0.253	-0.214
-337.304	131.666	-0.158	-0.203
-336.289	-149.664	-0.234	-0.018
-335.275	13.539	-0.197	0.152
-334.260	-142.650	0.184	-0.018
-333.245	183.249	0.079	0.116
-332.231	105.380	0.049	0.057
-331.216	-19.389	0.104	-0.064
-330.202	-111.860	-0.278	-0.056
-329.187	64.315	-0.025	0.025
-328.172	-98.912	-0.283	-0.071
-327.158	218.231	-0.052	0.082
-326.143	135.813	0.165	0.213
-325.129	268.224	-0.063	-0.110
-324.114	105.798	-0.117	-0.137
-323.099	-200.000	-0.010	0.266
-322.085	800.000	-0.164	0.490
-321.070	-200.000	-0.083	0.000
-320.056	800.000	0.010	0.037
-319.041	-200.000	-0.003	-0.135
-318.026	-126.021	-0.019	-0.003
-317.012	-166.001	0.439	0.019
-315.997	31.135	0.189	0.161
-314.983	49.015	-0.214	0.200
-313.968	-78.951	0.229	-0.078
-312.953	-200.000	-0.020	0.333
-311.939	120.257	0.036	-0.044
-310.924	48.030	-0.381	0.353
-309.910	-31.506	-0.240	0.134
-308.895	193.298	-0.125	0.188
-307.880	583.801	-0.086	-0.211
-306.866	755.890	0.064	-0.173
-305.851	382.570	0.066	0.136
-304.837	-113.849	-0.349	0.067
-303.822	-85.163	0.078	0.024
-302.807	-148.500	-0.231	-0.019
-301.793	190.614	-0.252	-0.377
-300.778	78.833	0.126	-0.134
-299.764	-133.645	-0.133	-0.017
-298.749	540.886	0.047	0.112
-297.735	-37.531	0.160	0.085
-296.720	-30.309	0.124	-0.070
-295.705	-80.965	0.190	-0.063
-294.691	-50.678	0.355	0.166
-293.676	225.015	-0.109	0.176
-292.662	136.420	-0.097	-0.126
-291.647	-133.882	-0.362	0.045
-290.632	37.337	-0.200	-0.176
-289.618	14.184	-0.274	-0.212
-288.603	24.861	0.075	0.062
-287.589	316.594	-0.126	0.236
-286.574	-200.000	0.026	0.146
-285.559	-60.122	0.160	-0.068
-284.545	290.105	0.108	-0.195
-283.530	-45.649	0.166	0.081
-282.516	48.666	-0.189	0.176
-281.501	353.040	0.039	-0.078
-280.486	27.280	-0.149	0.124
-279.472	-65.808	-0.094	-0.037
-278.457	-39.528	-0.087	-0.045
-277.443	4.062	0.247	-0.179
-276.428	143.262	0.148	0.195
-275.413	0.883	-0.266	0.189
-274.399	-81.022	0.047	0.015
-273.384	800.000	0.072	0.250
-272.370	124.843	-0.124	0.155
-271.355	-200.000	0.019	-0.180
-270.340	800.000	-0.070	-0.261
-269.326	162.028	0.104	-0.145
-268.311	-78.866	0.190	0.064
-267.297	335.382	-0.102	-0.196
-266.282	-200.000	0.036	0.298
-265.267	5.239	-0.134	0.098
-264.253	-168.108	-0.222	-0.009
-263.238	-200.000	0.015	0.364
-262.224	663.795	-0.094	-0.241
-261.209	-66.779	0.270	0.106
-260.195	207.434	-0.108	-0.166
-259.180	-137.743	-0.281	0.031
-258.165	-114.486	-0.112	0.021
-257.151	-136.904	0.187	0.021
-256.136	187.489	0.089	0.132
-255.122	-79.066	0.229	-0.077
-254.107	-54.299	0.118	0.053
-253.092	-200.000	-0.010	-0.342
-252.078	-119.227	-0.055	-0.009
-251.063	-200.000	-0.131	0.000
-250.049	-179.603	0.149	-0.003
-249.034	800.000	-0.068	0.238
-248.019	-9.275	-0.146	-0.096
-247.005	37.611	-0.194	-0.171
-245.990	322.948	-0.135	-0.255
-244.976	-85.231	0.167	-0.052
-243.961	88.278	0.059	-0.065
-242.946	251.960	-0.061	0.103
-241.932	-200.000	0.045	-0.194
-240.917	-143.901	0.093	-0.009
-239.903	-37.905	-0.303	-0.160
-238.888	474.099	0.097	-0.218
-237.873	-55.929	0.282	-0.124
-236.859	-15.311	-0.189	-0.120
-235.844	-200.000	0.059	0.332
-234.830	-56.310	0.341	0.150
-233.815	-200.000	-0.056	0.281
-232.800	-43.674	0.131	-0.066
-231.786	-137.676	0.437	0.049
-230.771	800.000	0.083	0.250
-229.757	175.020	0.201	0.288
-228.742	94.141	-0.042	-0.047
-227.727	-91.205	0.332	-0.094
-226.713	-109.331	0.073	0.015
-225.698	129.540	0.181	0.229
-224.684	61.487	-0.287	-0.283
-223.669	117.001	0.186	-0.227
-222.655	-34.476	0.254	0.138
-221.640	10.278	0.323	-0.244
-220.625	718.270	0.152	-0.401
-219.611	-53.634	0.324	-0.147
-218.596	-200.000	0.003	0.230
-217.582	800.000	0.060	-0.182
-216.567	-200.000	-0.002	-0.181
-215.552	10.863	-0.333	0.252
-214.538	-0.836	0.141	-0.099
-213.523	-200.000	0.005	-0.308
-212.509	-124.450	-0.064	-0.010
-211.494	-110.779	0.088	0.018
-210.479	198.689	0.122	0.184
-209.465	66.874	-0.105	0.106
-208.450	25.391	0.091	0.075
-207.436	-24.405	0.294	-0.173
-206.421	-200.000	-0.011	-0.284
-205.406	-59.920	-0.053	-0.022
-204.392	-142.970	0.261	-0.025
-203.377	-111.270	-0.376	0.076
-202.363	800.000	0.088	-0.294
-201.348	216.027	0.168	0.264
-200.333	-1.080	0.060	-0.042
-199.319	23.220	-0.140	-0.114
-198.304	-54.711	0.349	-0.156
-197.290	209.326	-0.240	-0.372
-196.275	4.484	-0.065	-0.047
-195.260	-140.863	0.158	0.016
-194.246	29.084	0.084	-0.070
-193.231	220.046	-0.005	0.009
-192.217	-200.000	0.046	0.207
-191.202	724.948	-0.057	0.149
-190.187	50.392	-0.122	-0.114
-189.173	30.854	0.140	0.118
-188.158	458.012	0.039	0.085
-187.144	-58.418	0.208	-0.089
-186.129	-24.124	-0.053	-0.031
-185.114	2.957	0.093	-0.067
-184.100	0.271	-0.138	0.097
-183.085	-179.117	0.378	0.008
-182.071	800.000	0.092	0.301
-181.056	-2.152	-0.244	0.169
-180.042	266.261	0.071	-0.122
-179.027	800.000	-0.059	0.220
-178.012	-10.847	0.231	0.151
-176.998	525.085	-0.004	-0.009
-175.983	18.815	0.116	-0.092
-174.969	-86.210	0.312	-0.095
-173.954	800.000	-0.049	-0.193
-172.939	-187.546	0.185	0.002
-171.925	-94.963	-0.191	0.051
-170.910	-200.000	-0.006	-0.061
-169.896	800.000	0.061	0.210
-168.881	-47.096	0.070	0.034
-167.866	311.715	0.179	0.331
-166.852	-112.458	0.175	0.034
-165.837	-72.013	0.249	0.092
-164.823	-200.000	0.024	0.114
-163.808	-121.296	0.326	0.054
-162.793	-104.258	-0.185	0.042
-161.779	430.171	0.060	0.129
-160.764	-134.938	-0.073	-0.009
-159.750	-37.665	-0.124	-0.065
-158.735	800.000	-0.115	0.341
-157.720	387.926	-0.041	0.083
-156.706	-200.000	0.041	-0.279
-155.691	725.775	0.109	-0.288
-154.677	-29.927	-0.324	-0.182
-153.662	343.247	-0.070	0.136
-152.647	83.160	0.117	0.126
-151.633	15.085	-0.292	-0.226
-150.618	-99.199	-0.269	-0.067
-149.604	250.638	0.064	0.107
-148.589	183.070	0.072	0.105
-147.574	177.857	0.136	0.195
-146.560	-12.544	-0.052	-0.033
-145.545	-14.596	-0.056	-0.036
-144.531	800.000	0.108	-0.333
-143.516	54.268	-0.112	0.107
-142.502	-96.997	-0.330	-0.085
-141.487	800.000	-0.047	0.134
-140.472	420.885	0.104	-0.219
-139.458	-200.000	-0.016	-0.097
-138.443	132.133	0.012	0.015
-137.429	800.000	-0.039	0.151
-136.414	-51.650	-0.202	-0.093
-135.399	500.274	0.046	-0.105
-134.385	-105.721	-0.469	-0.105
-133.370	271.135	-0.165	-0.287
-132.356	-57.778	-0.436	0.188
-131.341	245.013	0.193	0.320
-130.326	277.671	-0.133	-0.233
-129.312	-175.958	-0.196	0.005
-128.297	-37.100	0.077	0.041
-127.283	-200.000	-0.018	0.175
-126.268	374.956	0.196	-0.393
-125.253	800.000	0.030	-0.106
-124.239	25.211	-0.227	-0.186
-123.224	-200.000	0.046	-0.211
-122.210	187.167	0.165	-0.243
