DTS Sentinel unit serial number:	SN413079Multiplexer serial number:	ORYXHardware model number:	OX4-SRSoftware version number:	ORYX F/W v4.00 Oryx Data Collector v3.7.2.0data status	okinstallation	princeton_trtdifferential loss correction	single-endedforward channel	channel 1reverse channel	N/Adate	2019/09/18time	06:10:35forward acquisition time	60.00reverse acquisition time	0.00gamma	496.2192k internal	0.2339k external	0.2339temperature offset calibration	0.9980default loss term (dB/km)	0.3790temperature slope calibration	1.0000multiplexer offset coefficient	1.0000multiplexer slope coefficient	1.0000fibre end	0.00T internal ref (°C)	23.19T ext. ref 1 (°C)	0.19T ext. ref 2 (°C)	17.74length (m)	temperature (°C)	Stokes	anti-Stokes-747.200	288.550	-0.089	0.161
-746.185	800.000	-0.035	0.103
-745.171	-200.000	0.026	0.251
-744.156	-149.545	-0.514	0.041
-743.142	800.000	0.151	0.534
-742.127	217.770	-0.281	0.449
-741.112	-59.962	0.177	0.076
-740.098	42.698	-0.256	0.234
-739.083	377.989	0.071	0.145
-738.069	800.000	-0.085	0.292
-737.054	726.826	-0.031	-0.083
-736.039	-77.716	-0.185	-0.064
-735.025	69.900	-0.184	0.190
-734.010	53.753	-0.276	-0.266
-732.996	68.863	-0.238	-0.245
-731.981	-121.553	-0.381	-0.063
-730.966	287.912	0.104	0.190
-729.952	434.741	-0.053	0.116
-728.937	15.191	0.244	-0.192
-727.923	67.046	-0.110	-0.112
-726.908	-200.000	-0.014	-0.129
-725.894	396.476	-0.139	-0.292
-724.879	-162.361	0.385	-0.019
-723.864	-90.669	0.221	-0.064
-722.850	145.253	0.063	0.085
-721.835	-200.000	0.009	0.050
-720.821	141.498	-0.068	0.091
-719.806	-200.000	-0.067	0.302
-718.791	104.637	0.064	0.075
-717.777	166.228	-0.072	-0.103
-716.762	35.067	-0.276	0.243
-715.748	383.948	-0.077	-0.158
-714.733	44.097	-0.058	-0.053
-713.718	-1.062	-0.198	-0.141
-712.704	354.772	0.118	-0.235
-711.689	74.144	-0.195	-0.205
-710.675	-137.952	-0.057	0.006
-709.660	-200.000	-0.049	0.294
-708.645	-200.000	0.035	0.289
-707.631	-91.524	0.402	-0.115
-706.616	-155.344	0.249	-0.016
-705.602	42.532	-0.117	0.106
-704.587	177.300	0.016	-0.023
-703.572	800.000	0.082	0.270
-702.558	-89.645	0.096	-0.028
-701.543	192.328	-0.179	0.270
-700.529	-171.098	-0.100	0.003
-699.514	800.000	0.093	-0.296
-698.499	800.000	-0.127	-0.361
-697.485	-200.000	0.028	0.233
-696.470	36.759	-0.059	-0.052
-695.456	-200.000	0.075	0.345
-694.441	507.443	0.047	0.109
-693.426	388.851	0.069	-0.144
-692.412	-33.519	-0.132	-0.073
-691.397	397.693	-0.121	0.254
-690.383	-200.000	0.015	-0.225
-689.368	4.279	0.029	-0.021
-688.354	-14.593	-0.206	0.133
-687.339	-31.013	-0.092	0.052
-686.324	-87.498	-0.375	0.113
-685.310	243.331	-0.088	0.147
-684.295	-97.745	-0.304	-0.079
-683.281	-145.854	-0.167	-0.015
-682.266	306.987	-0.050	0.092
-681.251	800.000	0.062	0.269
-680.237	-68.027	-0.184	-0.072
-679.222	-200.000	0.041	0.226
-678.208	-109.968	0.135	0.028
-677.193	800.000	-0.059	0.209
-676.178	800.000	-0.041	-0.122
-675.164	379.560	-0.131	-0.268
-674.149	-29.713	0.166	-0.094
-673.135	800.000	-0.016	0.052
-672.120	205.220	0.221	-0.343
-671.105	-31.491	0.262	0.147
-670.091	-115.318	-0.041	0.008
-669.076	800.000	0.145	-0.481
-668.062	-29.910	-0.131	0.075
-667.047	189.155	0.232	-0.347
-666.032	7.871	0.119	-0.089
-665.018	800.000	-0.016	0.049
-664.003	182.607	-0.148	0.218
-662.989	-200.000	-0.055	-0.257
-661.974	-52.859	-0.109	0.050
-660.959	-1.645	0.251	-0.177
-659.945	-11.820	-0.327	0.214
-658.930	136.474	0.103	0.134
-657.916	3.769	0.265	0.194
-656.901	-43.880	-0.205	-0.103
-655.886	306.378	-0.158	0.294
-654.872	-24.298	-0.050	0.030
-653.857	313.772	-0.215	-0.404
-652.843	-49.093	0.096	0.046
-651.828	54.934	-0.176	-0.170
-650.814	-17.239	0.292	-0.184
-649.799	-74.263	-0.273	-0.099
-648.784	-200.000	-0.042	-0.228
-647.770	-200.000	-0.030	0.186
-646.755	-4.847	0.045	0.031
-645.741	403.004	-0.149	-0.313
-644.726	43.246	0.068	-0.062
-643.711	-111.285	-0.130	-0.026
-642.697	-109.839	0.542	0.114
-641.682	772.937	0.048	-0.130
-640.668	395.279	-0.062	0.130
-639.653	430.880	-0.154	0.332
-638.638	336.880	-0.071	-0.138
-637.624	-200.000	0.049	-0.249
-636.609	-200.000	-0.028	0.331
-635.595	-165.273	0.078	-0.003
-634.580	-175.693	0.115	0.003
-633.565	800.000	0.143	-0.473
-632.551	185.143	-0.278	-0.412
-631.536	-42.625	-0.324	-0.165
-630.522	-131.047	-0.151	-0.020
-629.507	0.909	-0.287	-0.205
-628.492	-126.480	0.196	-0.029
-627.478	-28.396	-0.382	0.220
-626.463	133.619	-0.145	0.188
-625.449	800.000	-0.031	0.099
-624.434	-200.000	-0.046	0.285
-623.419	329.237	0.042	-0.080
-622.405	12.225	-0.225	-0.173
-621.390	83.458	-0.139	0.151
-620.376	-20.615	0.162	0.099
-619.361	257.069	-0.263	-0.451
-618.346	-105.856	0.251	-0.057
-617.332	65.333	0.148	0.150
-616.317	669.678	0.022	-0.056
-615.303	70.719	-0.296	-0.305
-614.288	-60.549	0.077	0.033
-613.273	-200.000	-0.065	0.361
-612.259	-200.000	-0.005	0.422
-611.244	-137.405	-0.315	0.036
-610.230	-132.125	0.321	-0.042
-609.215	42.664	0.167	-0.152
-608.201	-141.183	-0.260	-0.026
-607.186	800.000	0.039	0.124
-606.171	-179.489	0.219	-0.005
-605.157	16.906	-0.187	0.148
-604.142	77.282	-0.138	0.146
-603.128	-200.000	-0.016	-0.299
-602.113	93.714	0.176	0.199
-601.098	-108.664	-0.321	0.069
-600.084	-69.709	-0.285	0.109
-599.069	49.205	-0.277	-0.260
-598.055	712.675	0.034	-0.091
-597.040	-200.000	-0.010	0.165
-596.025	-129.584	0.238	0.033
-595.011	-200.000	-0.000	0.029
-593.996	18.388	-0.183	-0.145
-592.982	363.853	0.159	0.318
-591.967	412.052	0.075	0.159
-590.952	800.000	-0.081	0.243
-589.938	-200.000	-0.006	0.081
-588.923	-116.524	-0.179	0.033
-587.909	107.694	-0.104	0.123
-586.894	-14.861	-0.346	-0.221
-585.879	97.952	0.168	-0.193
-584.865	-79.694	-0.227	0.076
-583.850	-79.926	0.430	0.144
-582.836	-23.386	0.214	0.128
-581.821	-139.198	-0.185	0.020
-580.806	-40.836	-0.232	-0.120
-579.792	36.226	-0.131	0.115
-578.777	-31.324	0.389	-0.218
-577.763	14.179	0.138	-0.107
-576.748	800.000	-0.019	0.066
-575.733	289.296	-0.180	-0.325
-574.719	-143.599	0.414	-0.039
-573.704	800.000	-0.038	0.165
-572.690	-32.452	-0.158	0.088
-571.675	203.418	-0.163	0.252
-570.661	497.798	-0.094	0.216
-569.646	67.491	0.114	0.116
-568.631	-200.000	-0.004	0.089
-567.617	193.532	-0.087	0.130
-566.602	-105.452	-0.205	0.046
-565.588	-62.759	-0.395	-0.163
-564.573	33.966	-0.227	0.197
-563.558	357.639	-0.093	0.184
-562.544	-200.000	-0.055	-0.243
-561.529	-200.000	-0.039	0.304
-560.515	-31.537	-0.206	-0.115
-559.500	-200.000	-0.012	0.246
-558.485	-5.017	0.196	0.134
-557.471	-145.845	-0.066	-0.006
-556.456	800.000	0.032	0.091
-555.442	-7.833	-0.157	0.106
-554.427	62.109	0.090	-0.089
-553.412	800.000	-0.032	-0.097
-552.398	64.438	0.133	-0.133
-551.383	-200.000	0.006	-0.225
-550.369	119.486	-0.093	0.114
-549.354	-184.406	-0.208	0.003
-548.339	25.476	0.060	-0.049
-547.325	102.916	0.143	-0.167
-546.310	-110.468	-0.127	0.026
-545.296	-200.000	0.058	-0.438
-544.281	67.679	-0.145	-0.148
-543.266	-200.000	0.020	0.274
-542.252	800.000	-0.089	-0.283
-541.237	-103.890	-0.172	-0.040
-540.223	-76.379	0.073	-0.026
-539.208	800.000	-0.075	-0.307
-538.193	13.091	-0.051	-0.039
-537.179	105.045	-0.055	-0.064
-536.164	144.945	-0.071	-0.094
-535.150	-137.584	0.170	-0.019
-534.135	545.055	-0.118	-0.281
-533.121	-200.000	0.004	0.294
-532.106	-200.000	0.003	0.048
-531.091	30.521	-0.089	0.076
-530.077	-200.000	0.012	0.074
-529.062	176.598	0.213	0.308
-528.048	-200.000	0.011	-0.114
-527.033	-24.747	0.110	-0.065
-526.018	280.878	0.145	-0.258
-525.004	-200.000	0.069	-0.362
-523.989	235.319	0.117	0.192
-522.975	-200.000	0.008	-0.083
-521.960	-8.743	0.233	-0.156
-520.945	72.168	0.154	-0.159
-519.931	800.000	0.106	-0.326
-518.916	13.267	0.253	-0.195
-517.902	800.000	-0.092	-0.262
-516.887	-119.927	-0.078	0.013
-515.872	800.000	-0.015	-0.061
-514.858	-200.000	0.022	0.187
-513.843	-134.288	0.223	-0.027
-512.829	-200.000	-0.091	-0.529
-511.814	-51.777	-0.170	0.079
-510.799	18.655	0.119	-0.095
-509.785	66.015	-0.274	0.276
-508.770	-88.389	-0.344	0.102
-507.756	-200.000	-0.001	-0.099
-506.741	800.000	-0.017	0.056
-505.726	24.251	-0.053	-0.043
-504.712	-200.000	-0.022	0.345
-503.697	-170.948	-0.198	-0.007
-502.683	-172.435	-0.347	0.011
-501.668	-200.000	0.039	-0.284
-500.653	-19.639	0.294	-0.181
-499.639	800.000	-0.049	0.175
-498.624	-97.960	0.086	0.022
-497.610	-66.207	-0.019	-0.007
-496.595	331.512	-0.078	-0.150
-495.581	-22.135	0.203	0.122
-494.566	-40.492	-0.119	0.061
-493.551	-81.895	0.185	-0.060
-492.537	197.337	-0.190	-0.288
-491.522	-128.558	0.259	-0.036
-490.508	-15.014	-0.205	-0.131
-489.493	22.411	0.083	0.067
-488.478	-200.000	0.069	0.000
-487.464	-172.183	0.144	0.005
-486.449	-50.487	-0.273	-0.128
-485.435	800.000	0.107	-0.297
-484.420	354.791	0.069	-0.136
-483.405	-200.000	-0.017	0.129
-482.391	-44.109	-0.135	0.067
-481.376	-6.494	-0.050	-0.034
-480.362	-108.238	0.139	-0.030
-479.347	-134.935	0.211	-0.025
-478.332	-200.000	-0.039	-0.322
-477.318	761.780	0.051	0.137
-476.303	-0.390	0.138	0.097
-475.289	781.983	0.069	-0.187
-474.274	604.505	0.151	0.374
-473.259	64.681	-0.214	-0.214
-472.245	-166.344	-0.264	-0.011
-471.230	-90.565	0.192	0.055
-470.216	393.508	-0.089	-0.185
-469.201	-149.525	0.150	-0.012
-468.186	97.123	-0.272	0.310
-467.172	282.169	-0.064	0.114
-466.157	375.194	-0.093	0.189
-465.143	-81.115	0.205	0.067
-464.128	-200.000	0.016	0.143
-463.113	-37.858	0.054	-0.028
-462.099	-200.000	0.060	-0.284
-461.084	284.748	0.166	-0.297
-460.070	-200.000	0.016	-0.424
-459.055	460.247	-0.128	0.283
-458.040	96.664	-0.073	0.082
-457.026	138.313	0.252	-0.328
-456.011	-200.000	-0.000	-0.338
-454.997	-36.144	0.159	-0.085
-453.982	44.577	0.158	0.144
-452.968	-122.562	0.119	0.019
-451.953	153.564	-0.126	-0.171
-450.938	-62.996	-0.049	0.020
-449.924	-200.000	-0.052	-0.397
-448.909	-63.364	-0.171	0.070
-447.895	-134.896	-0.124	0.015
-446.880	800.000	-0.028	0.117
-445.865	-82.888	-0.252	-0.081
-444.851	443.367	0.079	-0.172
-443.836	421.300	0.138	-0.294
-442.822	202.801	-0.186	-0.285
-441.807	800.000	-0.106	0.370
-440.792	247.062	0.080	-0.134
-439.778	-93.256	-0.243	-0.067
-438.763	236.468	0.174	0.286
-437.749	6.785	0.100	0.073
-436.734	70.592	0.103	0.106
-435.719	53.763	0.175	0.166
-434.705	-89.815	-0.244	0.071
-433.690	-129.643	0.174	-0.024
-432.676	71.170	-0.082	0.085
-431.661	-51.328	0.282	-0.131
-430.646	125.129	0.114	0.142
-429.632	-169.723	-0.393	0.014
-428.617	-31.670	0.245	-0.136
-427.603	-78.812	-0.221	0.075
-426.588	-66.811	0.176	-0.069
-425.573	315.201	-0.063	-0.118
-424.559	-4.854	-0.393	-0.268
-423.544	-200.000	-0.008	0.263
-422.530	43.530	-0.133	0.121
-421.515	-192.816	0.276	0.002
-420.500	-38.258	0.074	-0.039
-419.486	211.475	-0.083	0.129
-418.471	10.885	0.162	0.122
-417.457	112.692	-0.085	0.101
-416.442	322.327	0.011	-0.021
-415.428	-52.088	0.295	-0.136
-414.413	11.246	-0.248	-0.188
-413.398	-3.634	0.193	0.133
-412.384	33.774	-0.184	0.158
-411.369	5.016	0.096	0.070
-410.355	118.432	-0.197	0.241
-409.340	122.482	0.206	-0.255
-408.325	50.418	-0.154	-0.144
-407.311	88.889	-0.203	-0.224
-406.296	-200.000	0.008	-0.260
-405.282	90.348	0.051	-0.056
-404.267	-165.776	-0.090	0.004
-403.252	383.914	0.063	-0.128
-402.238	573.812	0.151	0.364
-401.223	-93.137	0.090	-0.025
-400.209	-116.220	-0.228	-0.042
-399.194	-147.834	0.199	0.016
-398.179	-200.000	-0.047	-0.330
-397.165	229.988	-0.133	0.216
-396.150	-200.000	0.000	-0.049
-395.136	800.000	-0.111	0.305
-394.121	-200.000	0.013	-0.080
-393.106	-109.512	0.183	0.038
-392.092	130.056	-0.090	-0.114
-391.077	8.091	-0.223	-0.166
-390.063	223.504	0.209	-0.334
-389.048	371.653	0.057	-0.115
-388.033	-200.000	-0.021	0.245
-387.019	-200.000	0.020	-0.355
-386.004	800.000	0.072	-0.197
-384.990	-87.097	0.115	0.035
-383.975	339.780	-0.155	0.298
-382.960	-200.000	0.003	0.045
-381.946	-21.914	0.037	-0.022
-380.931	100.867	0.035	0.040
-379.917	-128.130	0.205	0.029
-378.902	584.724	0.091	0.222
-377.888	-200.000	0.069	0.370
-376.873	800.000	0.086	0.269
-375.858	162.601	0.186	0.258
-374.844	-92.739	0.049	-0.014
-373.829	-98.069	-0.113	-0.029
-372.815	234.923	-0.119	0.194
-371.800	408.183	0.043	-0.090
-370.785	54.352	-0.107	0.102
-369.771	-43.209	-0.180	0.090
-368.756	113.840	0.029	-0.035
-367.742	800.000	-0.075	-0.264
-366.727	-63.819	-0.286	-0.116
-365.712	-52.578	-0.148	-0.067
-364.698	-96.369	-0.345	0.090
-363.683	800.000	-0.056	0.208
-362.669	236.285	-0.050	-0.081
-361.654	-167.438	-0.146	0.006
-360.639	800.000	0.089	0.352
-359.625	-41.273	-0.128	0.065
-358.610	50.504	0.165	0.154
-357.596	363.622	-0.078	0.154
-356.581	-200.000	0.017	-0.085
-355.566	-47.488	-0.067	0.032
-354.552	77.703	0.170	-0.178
-353.537	-94.044	0.125	0.034
-352.523	91.344	-0.125	-0.138
-351.508	9.063	0.122	-0.091
-350.493	-89.404	0.184	0.053
-349.479	161.717	0.044	0.061
-348.464	28.032	0.396	0.330
-347.450	119.536	-0.152	0.186
-346.435	800.000	0.021	0.076
-345.420	112.148	0.184	-0.220
-344.406	-200.000	-0.005	-0.055
-343.391	-106.432	-0.151	0.033
-342.377	-200.000	0.038	0.166
-341.362	-200.000	-0.053	0.264
-340.348	98.711	-0.047	-0.053
-339.333	-57.592	0.100	0.043
-338.318	235.215	0.103	-0.167
-337.304	800.000	0.118	0.373
-336.289	-125.895	0.235	0.035
-335.275	-200.000	0.037	-0.201
-334.260	-108.154	0.292	0.063
-333.245	800.000	0.160	-0.439
-332.231	152.951	-0.056	-0.075
-331.216	-103.838	-0.127	0.029
-330.202	602.621	-0.046	-0.112
-329.187	-200.000	0.041	-0.217
-328.172	-200.000	0.070	-0.352
-327.158	410.628	0.095	0.198
-326.143	-93.086	0.315	0.087
-325.129	-112.996	0.157	0.031
-324.114	31.181	0.120	0.102
-323.099	47.366	0.190	0.175
-322.085	-23.895	-0.112	-0.066
-321.070	-41.697	0.230	0.116
-320.056	552.797	-0.054	-0.127
-319.041	-200.000	0.036	-0.215
-318.026	66.286	-0.068	-0.068
-317.012	336.857	-0.114	-0.218
-315.997	-42.174	-0.124	-0.062
-314.983	157.382	-0.133	-0.181
-313.968	23.136	-0.169	-0.137
-312.953	-6.790	0.093	-0.062
-311.939	-27.107	0.193	-0.111
-310.924	545.077	0.129	-0.305
-309.910	-1.168	0.132	0.092
-308.895	800.000	0.044	-0.191
-307.880	800.000	0.101	0.280
-306.866	-45.872	-0.053	-0.026
-305.851	135.338	-0.042	0.054
-304.837	-200.000	-0.005	-0.041
-303.822	4.225	-0.109	0.079
-302.807	404.212	-0.137	0.285
-301.793	-200.000	-0.001	-0.103
-300.778	-69.644	-0.284	0.107
-299.764	94.403	-0.157	0.176
-298.749	-200.000	0.094	0.469
-297.735	295.481	0.085	0.153
-296.720	252.808	-0.097	0.163
-295.705	188.779	-0.058	0.086
-294.691	140.609	-0.064	-0.084
-293.676	800.000	0.088	-0.307
-292.662	148.360	0.072	-0.096
-291.647	706.163	-0.063	0.163
-290.632	-200.000	-0.007	-0.129
-289.618	-98.831	-0.415	-0.104
-288.603	-88.658	0.605	0.177
-287.589	-74.632	-0.138	0.049
-286.574	21.630	-0.330	0.264
-285.559	800.000	0.026	-0.095
-284.545	-90.226	0.452	0.129
-283.530	-63.003	0.139	-0.057
-282.516	-105.049	-0.236	0.053
-281.501	-191.242	-0.217	0.002
-280.486	-148.353	-0.116	-0.009
-279.472	262.632	-0.202	-0.345
-278.457	-200.000	-0.230	-0.001
-277.443	25.670	-0.183	-0.150
-276.428	-81.059	0.301	-0.098
-275.413	-155.241	-0.193	-0.012
-274.399	-200.000	0.046	0.508
-273.384	-83.196	0.181	0.057
-272.370	98.245	0.060	0.068
-271.355	-200.000	-0.021	-0.284
-270.340	-200.000	0.043	0.318
-269.326	800.000	0.010	-0.035
-268.311	36.056	0.089	-0.078
-267.297	-89.643	-0.131	0.038
-266.282	-200.000	-0.016	-0.148
-265.267	-117.092	0.112	0.020
-264.253	6.944	0.044	-0.032
-263.238	-160.989	-0.297	-0.015
-262.224	12.522	-0.215	0.163
-261.209	-106.513	-0.208	0.046
-260.195	-83.592	0.392	0.123
-259.180	781.458	0.051	0.139
-258.165	76.831	0.105	0.110
-257.151	28.103	0.084	-0.069
-256.136	713.205	-0.042	-0.110
-255.122	-35.994	0.255	-0.136
-254.107	136.542	0.149	0.191
-253.092	-200.000	-0.013	-0.090
-252.078	-200.000	-0.075	-0.362
-251.063	46.455	0.103	0.094
-250.049	311.139	-0.118	0.218
-249.034	261.305	-0.066	-0.112
-248.019	800.000	0.081	-0.242
-247.005	-11.764	-0.228	0.147
-245.990	-200.000	0.053	0.307
-244.976	800.000	-0.044	-0.149
-243.961	-110.119	0.051	-0.010
-242.946	-73.167	0.114	0.041
-241.932	-34.566	-0.080	-0.043
-240.917	-191.291	0.122	-0.001
-239.903	-7.573	-0.064	-0.042
-238.888	800.000	-0.133	0.386
-237.873	111.071	0.217	0.257
-236.859	212.954	0.141	0.219
-235.844	362.755	-0.188	0.370
-234.830	-113.727	0.340	-0.065
-233.815	-104.626	0.078	0.018
-232.800	800.000	-0.034	-0.095
-231.786	4.985	0.310	0.224
-230.771	800.000	0.080	-0.221
-229.757	46.491	-0.246	0.224
-228.742	370.168	-0.080	-0.159
-227.727	-200.000	0.075	-0.343
-226.713	-98.235	-0.026	0.007
-225.698	-1.012	0.173	-0.120
-224.684	106.115	-0.196	0.228
-223.669	-200.000	0.038	0.228
-222.655	-200.000	-0.016	-0.101
-221.640	94.939	-0.166	-0.186
-220.625	99.461	0.139	-0.158
-219.611	-154.845	0.266	-0.017
-218.596	-110.771	0.145	0.029
-217.582	312.911	-0.139	-0.257
-216.567	28.403	-0.090	0.075
-215.552	-83.501	0.265	0.083
-214.538	800.000	0.089	-0.382
-213.523	-84.649	-0.213	-0.066
-212.509	18.669	0.095	0.075
-211.494	4.706	-0.113	0.082
-210.479	412.913	0.075	0.157
-209.465	-11.092	0.236	-0.153
-208.450	381.444	-0.107	0.216
-207.436	-89.639	0.067	0.019
-206.421	220.578	0.053	0.083
-205.406	-50.027	0.405	-0.189
-204.392	-174.196	-0.079	-0.002
-203.377	-96.940	-0.307	0.079
-202.363	-140.069	0.462	-0.048
-201.348	-160.679	-0.176	0.009
-200.333	230.823	-0.123	-0.197
-199.319	-5.234	0.098	-0.066
-198.304	-38.500	0.198	0.103
-197.290	130.914	-0.077	0.097
-196.275	426.999	-0.106	0.225
-195.260	39.887	0.042	0.037
-194.246	39.392	0.170	-0.150
-193.231	-200.000	0.003	0.310
-192.217	-28.888	-0.259	0.146
-191.202	-200.000	0.011	-0.099
-190.187	123.748	0.070	0.086
-189.173	-25.614	0.080	0.046
-188.158	-200.000	-0.004	-0.176
-187.144	-200.000	0.012	0.281
-186.129	298.955	0.076	0.138
-185.114	800.000	0.092	-0.294
-184.100	107.142	-0.050	0.058
-183.085	-140.204	0.373	-0.038
-182.071	607.671	-0.093	0.227
-181.056	-114.022	0.585	0.111
-180.042	-1.961	-0.167	-0.115
-179.027	-121.117	-0.112	0.018
-178.012	800.000	-0.083	0.293
-176.998	152.670	0.077	-0.103
-175.983	165.396	-0.066	-0.092
-174.969	-64.364	-0.129	0.052
-173.954	-200.000	-0.015	-0.087
-172.939	-43.218	0.133	-0.066
-171.925	-107.147	-0.166	-0.036
-170.910	401.919	-0.141	0.291
-169.896	-77.591	0.300	-0.102
-168.881	-3.795	-0.213	0.145
-167.866	-6.585	0.161	0.108
-166.852	-23.143	-0.091	-0.054
-165.837	-37.235	-0.061	0.032
-164.823	-200.000	-0.008	0.265
-163.808	-56.718	0.215	-0.093
-162.793	-152.904	-0.101	-0.007
-161.779	800.000	-0.078	0.262
-160.764	800.000	-0.058	-0.179
-159.750	24.230	0.138	0.112
-158.735	72.389	0.161	0.164
-157.720	82.757	-0.120	-0.128
-156.706	-84.057	0.022	0.007
-155.691	-200.000	0.003	-0.129
-154.677	-163.084	-0.047	0.002
-153.662	-200.000	0.015	0.167
-152.647	-129.148	0.290	-0.040
-151.633	169.248	0.090	0.126
-150.618	-158.778	0.373	0.021
-149.604	-200.000	0.105	-0.464
-148.589	40.190	-0.109	-0.096
-147.574	-44.752	-0.255	0.124
-146.560	-126.316	0.408	-0.060
-145.545	-63.433	0.226	-0.091
-144.531	122.297	0.342	0.419
-143.516	440.900	0.095	0.204
-142.502	42.165	-0.113	-0.100
-141.487	-87.630	0.246	-0.073
-140.472	183.883	-0.438	0.635
-139.458	67.107	0.132	-0.132
-138.443	-93.581	0.334	0.090
-137.429	330.013	-0.247	0.466
-136.414	18.852	-0.207	-0.163
-135.399	-16.557	0.116	-0.072
-134.385	293.948	0.058	0.104
-133.370	-200.000	-0.002	0.222
-132.356	-37.317	0.033	0.017
-131.341	-200.000	-0.036	-0.202
-130.326	-91.602	-0.106	0.030
-129.312	800.000	0.025	0.076
-128.297	34.043	-0.091	0.077
-127.283	120.155	0.290	-0.352
-126.268	-98.663	0.093	0.023
-125.253	277.782	0.175	-0.305
-124.239	-200.000	-0.021	-0.297
-123.224	-200.000	0.002	-0.480
-122.210	800.000	-0.097	-0.284
-121.195	11.955	0.181	-0.137
