DTS Sentinel unit serial number:	SN413079Multiplexer serial number:	ORYXHardware model number:	OX4-SRSoftware version number:	ORYX F/W v4.00 Oryx Data Collector v3.7.2.0data status	okinstallation	princeton_trtdifferential loss correction	single-endedforward channel	channel 1reverse channel	N/Adate	2019/09/10time	19:12:11forward acquisition time	60.00reverse acquisition time	0.00gamma	496.2192k internal	0.2317k external	0.2317temperature offset calibration	0.9927default loss term (dB/km)	0.3790temperature slope calibration	1.0000multiplexer offset coefficient	1.0000multiplexer slope coefficient	1.0000fibre end	0.00T internal ref (°C)	34.11T ext. ref 1 (°C)	-0.31T ext. ref 2 (°C)	26.28length (m)	temperature (°C)	Stokes	anti-Stokes-747.200	800.000	0.024	0.096
-746.185	782.290	0.125	-0.346
-745.171	53.897	0.110	0.107
-744.156	-149.573	-0.380	-0.030
-743.142	-200.000	-0.027	-0.128
-742.127	-91.810	0.320	0.092
-741.112	800.000	-0.060	0.192
-740.098	800.000	-0.025	0.073
-739.083	-167.066	0.176	-0.007
-738.069	213.137	0.140	0.223
-737.054	-178.549	-0.266	-0.006
-736.039	-87.167	0.151	-0.047
-735.025	-165.072	0.523	0.024
-734.010	-34.717	0.073	0.040
-732.996	-122.235	0.322	0.053
-731.981	-30.006	-0.188	-0.108
-730.966	158.407	-0.191	-0.269
-729.952	-200.000	0.026	-0.127
-728.937	63.086	-0.218	0.221
-727.923	-39.765	0.114	-0.060
-726.908	308.293	-0.100	0.188
-725.894	-68.468	-0.266	-0.104
-724.879	-68.661	0.094	-0.037
-723.864	800.000	0.037	-0.125
-722.850	-200.000	0.011	0.060
-721.835	-200.000	0.017	0.111
-720.821	-74.549	0.442	-0.161
-719.806	-200.000	0.038	0.374
-718.791	-200.000	-0.018	-0.098
-717.777	-125.794	0.360	-0.055
-716.762	208.514	0.011	-0.018
-715.748	-91.221	-0.275	0.080
-714.733	6.151	-0.179	-0.134
-713.718	647.515	-0.041	-0.105
-712.704	-200.000	-0.056	0.351
-711.689	-200.000	-0.003	0.135
-710.675	-145.859	-0.294	-0.026
-709.660	-200.000	-0.012	0.060
-708.645	-83.399	0.272	-0.088
-707.631	-135.436	0.257	-0.031
-706.616	-52.421	-0.037	-0.017
-705.602	-104.460	0.501	-0.117
-704.587	-98.847	-0.293	0.075
-703.572	104.856	0.035	-0.042
-702.558	34.324	-0.299	-0.264
-701.543	631.119	-0.131	-0.334
-700.529	-11.434	-0.224	-0.149
-699.514	64.598	0.141	0.143
-698.499	-69.447	-0.062	-0.024
-697.485	-104.050	-0.454	0.107
-696.470	-25.453	0.234	-0.140
-695.456	-107.256	0.488	-0.109
-694.441	-175.141	0.150	0.004
-693.426	-7.025	-0.171	-0.117
-692.412	-200.000	-0.024	0.138
-691.397	-200.000	0.009	0.315
-690.383	-70.670	0.123	-0.047
-689.368	-19.454	-0.189	0.118
-688.354	426.835	0.120	0.262
-687.339	-143.472	-0.466	0.045
-686.324	408.602	-0.113	-0.242
-685.310	60.449	0.127	0.127
-684.295	-22.160	-0.068	-0.042
-683.281	-78.906	-0.105	0.036
-682.266	-77.511	-0.299	0.105
-681.251	-108.539	-0.247	0.054
-680.237	-76.132	0.407	0.145
-679.222	-200.000	-0.007	0.347
-678.208	-66.525	0.374	-0.150
-677.193	204.375	-0.162	-0.254
-676.178	-33.853	-0.429	0.239
-675.164	49.034	0.084	-0.080
-674.149	-156.121	0.240	-0.015
-673.135	109.369	-0.128	0.154
-672.120	13.736	-0.173	0.135
-671.105	-200.000	0.018	0.142
-670.091	-3.416	0.192	-0.135
-669.076	800.000	-0.058	-0.253
-668.062	1.429	0.020	-0.014
-667.047	677.258	-0.129	-0.339
-666.032	24.616	-0.262	-0.219
-665.018	16.213	-0.046	0.037
-664.003	1.805	-0.083	0.060
-662.989	500.797	0.032	0.074
-661.974	800.000	-0.074	-0.212
-660.959	-91.503	0.245	-0.071
-659.945	62.048	-0.064	0.064
-658.930	-148.593	0.281	-0.023
-657.916	-200.000	-0.043	0.230
-656.901	317.348	-0.106	0.203
-655.886	174.183	-0.046	-0.067
-654.872	261.427	0.127	-0.222
-653.857	-200.000	0.016	0.262
-652.843	-100.643	-0.108	0.027
-651.828	-48.898	-0.249	0.120
-650.814	14.148	0.301	0.236
-649.799	800.000	-0.042	0.150
-648.784	23.341	0.371	0.307
-647.770	-200.000	-0.018	0.080
-646.755	171.287	-0.118	0.171
-645.741	723.545	0.079	0.212
-644.726	369.271	0.135	-0.275
-643.711	-122.099	0.069	-0.011
-642.697	-200.000	-0.030	0.279
-641.682	680.641	0.071	-0.187
-640.668	-38.678	0.227	0.121
-639.653	382.938	-0.095	0.197
-638.638	179.133	0.120	0.176
-637.624	17.215	-0.189	0.151
-636.609	56.374	-0.073	-0.072
-635.595	-143.068	-0.059	-0.006
-634.580	339.866	0.190	0.374
-633.565	-200.000	0.089	0.396
-632.551	211.518	0.106	-0.168
-631.536	-200.000	0.071	-0.365
-630.522	100.134	0.095	-0.111
-629.507	-40.730	0.209	-0.109
-628.492	-0.652	-0.164	0.117
-627.478	54.127	0.321	0.311
-626.463	-177.073	-0.279	-0.007
-625.449	-98.359	0.144	-0.037
-624.434	-120.706	-0.211	-0.036
-623.419	57.043	0.203	0.200
-622.405	-59.760	0.146	0.063
-621.390	800.000	-0.080	0.283
-620.376	-66.047	0.141	-0.057
-619.361	13.739	-0.118	-0.093
-618.346	-69.727	0.331	0.127
-617.332	-51.280	-0.079	0.037
-616.317	-52.784	0.234	0.109
-615.303	-130.609	0.274	0.037
-614.288	-143.114	-0.415	0.040
-613.273	-144.650	0.146	0.014
-612.259	670.485	0.084	0.220
-611.244	-200.000	-0.006	-0.039
-610.230	210.494	0.126	-0.200
-609.215	407.762	0.083	0.178
-608.201	511.128	0.025	0.058
-607.186	76.575	-0.036	-0.038
-606.171	800.000	-0.051	0.198
-605.157	-200.000	0.008	-0.245
-604.142	-126.075	-0.105	0.016
-603.128	45.842	0.138	0.129
-602.113	-18.420	0.113	0.071
-601.098	-139.729	-0.279	0.030
-600.084	-157.604	-0.406	-0.024
-599.069	800.000	-0.077	-0.225
-598.055	-125.273	-0.458	0.071
-597.040	89.882	0.202	0.227
-596.025	-129.781	-0.224	-0.031
-595.011	-46.228	-0.050	0.025
-593.996	19.400	0.221	0.178
-592.982	800.000	0.059	-0.201
-591.967	800.000	0.055	0.218
-590.952	13.302	-0.317	0.247
-589.938	194.306	-0.150	-0.229
-588.923	58.539	-0.101	0.100
-587.909	78.828	-0.163	-0.176
-586.894	-200.000	0.061	-0.279
-585.879	-20.196	0.039	0.024
-584.865	243.618	-0.065	-0.110
-583.850	499.591	0.049	0.114
-582.836	-121.864	0.282	0.047
-581.821	-200.000	0.073	-0.414
-580.806	-34.149	0.221	0.122
-579.792	252.091	-0.052	-0.090
-578.777	-159.396	0.237	-0.013
-577.763	-161.019	-0.300	-0.016
-576.748	57.948	-0.036	-0.036
-575.733	301.241	-0.061	0.112
-574.719	-152.354	-0.143	-0.010
-573.704	-98.364	-0.198	0.051
-572.690	639.311	0.099	-0.252
-571.675	-97.444	0.063	0.017
-570.661	477.411	-0.044	0.101
-569.646	800.000	-0.090	-0.282
-568.631	6.152	0.217	-0.162
-567.617	26.342	-0.204	-0.172
-566.602	172.981	-0.204	0.295
-565.588	95.793	0.104	-0.120
-564.573	157.454	0.033	-0.046
-563.558	89.004	-0.181	-0.203
-562.544	-130.892	-0.124	0.017
-561.529	-21.304	0.317	-0.195
-560.515	328.240	-0.057	0.110
-559.500	-52.082	-0.205	0.096
-558.485	-200.000	0.026	0.227
-557.471	-183.465	-0.039	0.001
-556.456	800.000	-0.054	0.210
-555.442	47.243	-0.263	0.246
-554.427	-10.122	-0.272	-0.182
-553.412	800.000	0.035	0.105
-552.398	131.362	-0.116	-0.150
-551.383	-42.775	-0.224	-0.114
-550.369	-88.792	0.045	-0.013
-549.354	-40.256	0.209	-0.109
-548.339	280.760	-0.108	0.193
-547.325	-15.933	0.141	0.090
-546.310	-200.000	-0.042	0.370
-545.296	-59.601	-0.008	-0.003
-544.281	108.611	-0.141	-0.169
-543.266	-137.382	0.186	0.021
-542.252	-24.763	-0.277	-0.165
-541.237	-200.000	-0.090	0.433
-540.223	206.778	0.102	0.160
-539.208	-57.742	-0.168	-0.074
-538.193	800.000	-0.022	-0.071
-537.179	-200.000	-0.033	0.220
-536.164	800.000	-0.053	-0.180
-535.150	-17.532	0.214	0.135
-534.135	-164.607	0.430	-0.020
-533.121	-165.690	0.210	-0.009
-532.106	162.365	-0.125	0.176
-531.091	800.000	-0.066	-0.216
-530.077	110.321	-0.142	-0.171
-529.062	39.060	0.199	0.178
-528.048	8.505	0.108	0.082
-527.033	-97.386	0.197	-0.051
-526.018	-138.556	-0.218	-0.024
-525.004	42.618	-0.192	-0.176
-523.989	495.464	0.146	0.338
-522.975	-135.447	-0.270	0.032
-521.960	-200.000	0.062	0.319
-520.945	133.020	0.222	-0.287
-519.931	800.000	-0.087	0.255
-518.916	518.550	-0.057	0.135
-517.902	3.866	-0.165	0.121
-516.887	-200.000	-0.013	0.301
-515.872	800.000	-0.029	0.082
-514.858	800.000	-0.092	-0.293
-513.843	-200.000	0.003	-0.051
-512.829	-200.000	-0.002	-0.025
-511.814	117.926	0.112	-0.138
-510.799	751.675	-0.062	0.168
-509.785	-200.000	-0.003	0.303
-508.770	800.000	-0.037	-0.110
-507.756	800.000	0.074	-0.304
-506.741	104.615	0.203	-0.240
-505.726	-200.000	0.005	-0.155
-504.712	-200.000	-0.016	-0.449
-503.697	321.896	-0.122	0.233
-502.683	-29.059	0.141	0.081
-501.668	126.898	0.150	0.191
-500.653	800.000	0.112	-0.384
-499.639	800.000	-0.079	-0.275
-498.624	800.000	-0.051	0.193
-497.610	-162.971	-0.214	0.010
-496.595	405.698	0.048	-0.101
-495.581	6.629	0.120	0.089
-494.566	-18.238	-0.072	0.045
-493.551	188.373	-0.077	-0.116
-492.537	56.860	0.027	-0.026
-491.522	265.803	-0.080	-0.140
-490.508	-124.354	-0.079	0.012
-489.493	-92.099	-0.436	-0.124
-488.478	-19.869	0.145	-0.090
-487.464	-118.411	-0.215	0.038
-486.449	279.745	-0.038	-0.067
-485.435	38.035	0.167	0.149
-484.420	-146.594	0.172	0.015
-483.405	-54.961	-0.329	0.149
-482.391	-200.000	0.029	0.327
-481.376	-130.439	-0.281	0.038
-480.362	85.122	0.180	-0.198
-479.347	-95.669	0.148	-0.040
-478.332	-200.000	0.001	0.094
-477.318	202.734	0.209	0.324
-476.303	-46.238	0.040	-0.020
-475.289	-200.000	-0.011	0.266
-474.274	774.481	0.121	-0.330
-473.259	3.907	-0.191	-0.140
-472.245	-200.000	0.005	-0.112
-471.230	124.841	0.151	-0.191
-470.216	800.000	0.055	-0.187
-469.201	-200.000	0.067	-0.451
-468.186	12.455	0.341	-0.263
-467.172	132.183	-0.136	-0.175
-466.157	-177.407	-0.227	0.006
-465.143	185.887	0.152	-0.226
-464.128	-10.817	0.112	-0.074
-463.113	-21.177	-0.200	-0.122
-462.099	133.077	0.279	0.360
-461.084	81.726	0.220	0.238
-460.070	-167.004	0.219	-0.009
-459.055	13.818	-0.066	-0.052
-458.040	-192.328	0.085	-0.001
-457.026	162.370	0.067	0.094
-456.011	-200.000	-0.017	0.194
-454.997	-200.000	0.014	0.266
-453.982	-102.752	0.459	0.109
-452.968	-119.234	0.128	-0.022
-451.953	-58.289	0.196	-0.085
-450.938	-200.000	-0.040	0.387
-449.924	67.311	-0.044	0.045
-448.909	-97.529	0.228	-0.059
-447.895	800.000	0.117	0.423
-446.880	-82.036	0.333	-0.109
-445.865	-200.000	0.030	0.131
-444.851	800.000	-0.023	0.069
-443.836	-200.000	0.005	-0.114
-442.822	-108.781	0.230	-0.049
-441.807	-60.828	0.150	-0.064
-440.792	-200.000	0.004	-0.111
-439.778	-52.197	0.189	-0.088
-438.763	174.176	0.205	0.297
-437.749	-9.154	-0.277	0.185
-436.734	145.939	-0.170	0.227
-435.719	61.993	-0.193	-0.193
-434.705	-200.000	0.012	-0.135
-433.690	-44.838	-0.243	-0.121
-432.676	-125.512	0.104	0.016
-431.661	-67.521	0.140	-0.055
-430.646	-26.947	-0.381	-0.222
-429.632	424.006	0.100	-0.215
-428.617	-26.940	-0.118	0.069
-427.603	800.000	0.125	-0.433
-426.588	-200.000	0.035	-0.162
-425.573	-89.236	-0.271	-0.080
-424.559	-26.800	-0.315	0.184
-423.544	-158.368	-0.332	0.019
-422.530	-64.455	-0.296	-0.120
-421.515	438.465	-0.021	-0.046
-420.500	-200.000	0.018	0.082
-419.486	-166.059	-0.176	-0.007
-418.471	-161.206	-0.198	0.010
-417.457	800.000	-0.059	0.182
-416.442	-137.340	-0.066	0.007
-415.428	-62.017	-0.108	-0.045
-414.413	-106.493	-0.165	0.037
-413.398	-200.000	0.004	0.268
-412.384	70.590	-0.266	-0.275
-411.369	-101.048	0.059	-0.014
-410.355	651.451	0.069	0.176
-409.340	-60.821	-0.185	0.078
-408.325	71.093	-0.198	0.205
-407.311	160.584	0.072	0.101
-406.296	800.000	0.092	0.258
-405.282	-132.806	-0.171	0.022
-404.267	26.910	0.103	0.086
-403.252	-90.515	-0.173	0.050
-402.238	800.000	-0.138	-0.380
-401.223	73.910	-0.163	0.171
-400.209	-110.899	-0.212	-0.044
-399.194	-28.462	-0.141	0.081
-398.179	-135.050	0.217	-0.026
-397.165	127.693	0.307	-0.390
-396.150	-1.320	-0.128	-0.090
-395.136	13.374	0.188	-0.145
-394.121	-129.451	-0.197	-0.027
-393.106	156.229	0.163	-0.225
-392.092	39.476	-0.059	-0.053
-391.077	9.746	0.231	0.175
-390.063	-158.462	0.226	-0.013
-389.048	-135.920	-0.388	-0.046
-388.033	-43.727	0.130	-0.065
-387.019	-200.000	0.061	0.293
-386.004	78.499	-0.151	0.161
-384.990	-55.818	0.347	-0.155
-383.975	583.086	-0.118	-0.289
-382.960	-200.000	-0.068	0.426
-381.946	15.630	-0.066	0.052
-380.931	427.832	0.117	0.251
-379.917	-41.131	0.084	-0.044
-378.902	3.454	0.398	-0.289
-377.888	-200.000	-0.005	-0.030
-376.873	-200.000	0.043	-0.286
-375.858	-45.712	0.322	-0.159
-374.844	-159.796	-0.196	0.011
-373.829	-199.161	0.134	-0.001
-372.815	285.893	-0.120	-0.216
-371.800	-200.000	0.006	0.405
-370.785	54.070	0.082	-0.078
-369.771	123.290	-0.031	-0.039
-368.756	411.523	-0.110	-0.232
-367.742	800.000	-0.043	-0.122
-366.727	-39.781	-0.305	-0.159
-365.712	-47.021	-0.091	-0.044
-364.698	-57.858	0.190	-0.083
-363.683	487.491	0.108	-0.246
-362.669	123.954	0.197	-0.247
-361.654	452.674	0.087	-0.193
-360.639	-200.000	0.054	-0.277
-359.625	-32.259	0.164	0.092
-358.610	114.962	-0.181	-0.220
-357.596	-7.619	0.083	-0.056
-356.581	29.981	0.174	-0.148
-355.566	-48.513	0.114	0.055
-354.552	-90.589	-0.303	-0.087
-353.537	-120.115	0.402	0.069
-352.523	-157.746	0.141	-0.008
-351.508	331.974	-0.223	-0.429
-350.493	-156.651	-0.047	0.003
-349.479	254.440	0.164	-0.279
-348.464	800.000	0.054	-0.167
-347.450	-160.616	-0.388	-0.021
-346.435	-70.547	0.153	0.058
-345.420	-200.000	-0.018	-0.296
-344.406	449.358	0.027	0.058
-343.391	46.618	-0.190	-0.176
-342.377	-82.352	-0.131	0.043
-341.362	145.790	-0.105	-0.140
-340.348	261.192	-0.123	-0.212
-339.333	108.874	-0.167	0.199
-338.318	-97.643	0.424	-0.110
-337.304	-14.531	0.248	-0.159
-336.289	64.222	-0.056	-0.056
-335.275	-200.000	0.008	-0.077
-334.260	6.717	0.333	-0.247
-333.245	-77.715	0.208	0.072
-332.231	-43.969	-0.048	-0.024
-331.216	153.393	0.091	-0.124
-330.202	-18.441	-0.275	-0.171
-329.187	-3.503	-0.163	0.113
-328.172	-28.514	0.180	0.103
-327.158	261.348	-0.192	0.331
-326.143	247.474	-0.183	0.309
-325.129	800.000	-0.040	0.128
-324.114	800.000	-0.104	0.333
-323.099	-127.049	0.368	0.054
-322.085	-200.000	0.021	0.483
-321.070	-200.000	0.024	-0.223
-320.056	125.437	-0.135	0.169
-319.041	214.623	-0.056	0.089
-318.026	363.817	-0.083	0.167
-317.012	-124.108	0.233	0.036
-315.997	228.979	-0.126	-0.205
-314.983	269.647	-0.092	-0.161
-313.968	800.000	0.067	-0.224
-312.953	-168.247	-0.123	-0.005
-311.939	3.527	0.284	-0.206
-310.924	-126.786	0.336	0.049
-309.910	-200.000	0.022	-0.097
-308.895	398.732	-0.122	-0.254
-307.880	-14.224	-0.252	0.162
-306.866	-53.537	0.039	-0.018
-305.851	-200.000	0.031	-0.240
-304.837	-200.000	0.015	-0.234
-303.822	-127.516	0.019	0.003
-302.807	-17.028	-0.092	0.058
-301.793	-45.987	0.189	-0.093
-300.778	-200.000	0.047	-0.520
-299.764	-12.368	-0.175	-0.114
-298.749	55.331	-0.258	0.248
-297.735	30.844	-0.124	0.106
-296.720	221.089	-0.191	0.305
-295.705	455.430	-0.023	-0.051
-294.691	32.616	-0.203	0.175
-293.676	-200.000	0.043	0.194
-292.662	355.761	-0.040	-0.079
-291.647	-200.000	-0.007	-0.239
-290.632	800.000	0.006	-0.018
-289.618	-200.000	-0.005	0.117
-288.603	42.672	-0.218	-0.197
-287.589	31.878	0.145	0.124
-286.574	-200.000	0.027	0.119
-285.559	65.583	-0.158	0.159
-284.545	-8.570	0.035	0.023
-283.530	-164.460	0.474	0.021
-282.516	-176.529	-0.343	0.009
-281.501	75.937	0.107	0.112
-280.486	163.710	0.095	-0.133
-279.472	-200.000	-0.006	0.136
-278.457	-47.282	-0.112	-0.054
-277.443	-142.698	-0.132	-0.013
-276.428	267.015	0.045	-0.078
-275.413	-138.379	0.250	0.027
-274.399	-131.880	0.130	-0.017
-273.384	-31.010	0.206	0.116
-272.370	-84.672	-0.073	0.023
-271.355	800.000	-0.108	0.345
-270.340	227.812	-0.108	-0.175
-269.326	800.000	0.081	0.223
-268.311	228.000	-0.031	-0.050
-267.297	517.936	0.080	-0.187
-266.282	800.000	0.039	0.148
-265.267	-99.307	0.194	0.049
-264.253	-200.000	-0.019	-0.087
-263.238	-148.942	0.149	-0.012
-262.224	-32.420	0.124	0.069
-261.209	12.200	-0.143	-0.109
-260.195	282.658	-0.092	-0.164
-259.180	28.124	0.086	0.072
-258.165	136.367	0.168	0.217
-257.151	-120.768	-0.054	-0.009
-256.136	93.048	-0.131	-0.147
-255.122	-200.000	-0.008	-0.228
-254.107	-200.000	0.007	0.085
-253.092	35.773	0.049	-0.043
-252.078	-114.838	-0.100	0.019
-251.063	-200.000	-0.052	0.362
-250.049	201.495	0.069	0.105
-249.034	542.643	0.107	-0.252
-248.019	55.625	-0.180	0.173
-247.005	800.000	-0.039	0.125
-245.990	-169.139	0.261	-0.010
-244.976	511.755	0.157	0.363
-243.961	127.218	0.095	-0.120
-242.946	177.040	0.199	0.288
-241.932	-128.775	0.382	-0.053
-240.917	-110.237	-0.430	0.089
-239.903	-75.829	0.140	0.049
-238.888	-35.576	-0.107	0.058
-237.873	280.600	0.150	-0.266
-236.859	279.088	0.072	-0.128
-235.844	42.486	-0.075	-0.067
-234.830	-7.662	-0.104	-0.070
-233.815	-50.752	-0.303	-0.142
-232.800	345.112	0.086	0.167
-231.786	159.996	0.144	0.199
-230.771	-110.596	-0.426	-0.088
-229.757	86.697	0.130	0.142
-228.742	-47.274	0.320	0.155
-227.727	-131.625	-0.221	0.029
-226.713	-200.000	-0.031	-0.150
-225.698	-182.252	0.266	0.005
-224.684	-108.488	-0.332	-0.071
-223.669	61.904	0.232	0.230
-222.655	362.918	0.091	-0.182
-221.640	-85.345	0.398	-0.123
-220.625	-0.062	-0.143	0.101
-219.611	-127.524	0.077	0.011
-218.596	-100.934	0.054	0.013
-217.582	99.347	-0.308	0.354
-216.567	-200.000	0.008	-0.229
-215.552	-200.000	0.028	-0.139
-214.538	552.658	-0.136	0.324
-213.523	219.095	-0.112	0.177
-212.509	227.594	0.257	0.414
-211.494	221.917	0.064	-0.102
-210.479	392.342	-0.148	-0.305
-209.465	-137.928	0.488	-0.054
-208.450	39.950	-0.211	0.188
-207.436	35.055	-0.163	0.141
-206.421	-29.203	-0.179	0.102
-205.406	800.000	0.082	-0.245
-204.392	4.928	0.111	-0.081
-203.377	-21.764	-0.240	-0.145
-202.363	-128.410	0.060	0.008
-201.348	-10.560	0.446	0.293
-200.333	679.705	-0.057	-0.147
-199.319	-200.000	0.011	-0.138
-198.304	-88.788	0.034	0.010
-197.290	-87.430	0.124	-0.037
-196.275	800.000	0.049	-0.160
-195.260	121.160	-0.136	-0.167
-194.246	-78.156	-0.224	0.076
-193.231	250.575	-0.056	0.094
-192.217	361.230	0.081	-0.161
-191.202	-184.793	-0.086	0.001
-190.187	2.529	-0.248	0.178
-189.173	-151.747	-0.247	0.018
-188.158	-200.000	-0.024	0.330
-187.144	10.051	0.052	0.039
-186.129	-89.868	-0.064	0.019
-185.114	-135.057	-0.023	-0.003
-184.100	191.018	-0.060	-0.090
-183.085	-200.000	0.006	-0.114
-182.071	-143.592	0.271	0.025
-181.056	-18.835	-0.129	0.080
-180.042	-127.929	-0.317	-0.045
-179.027	-58.672	0.180	-0.077
-178.012	-57.009	0.070	0.031
-176.998	-116.182	0.137	0.025
-175.983	-200.000	0.038	-0.207
-174.969	-120.423	-0.256	0.043
-173.954	105.751	-0.208	0.244
-172.939	121.743	-0.158	-0.196
-171.925	-125.620	0.129	-0.019
-170.910	15.965	0.191	0.149
-169.896	296.362	-0.158	0.287
-168.881	800.000	0.038	0.150
-167.866	-69.809	-0.183	-0.069
-166.852	682.764	0.134	0.346
-165.837	-200.000	-0.004	-0.410
-164.823	-200.000	-0.003	-0.131
-163.808	-81.217	-0.209	0.068
-162.793	16.669	0.417	-0.326
-161.779	-137.368	0.016	-0.002
-160.764	-200.000	0.027	-0.233
-159.750	217.980	0.030	0.047
-158.735	340.038	0.244	-0.471
-157.720	363.528	-0.067	-0.134
-156.706	-19.523	-0.054	0.033
-155.691	69.658	-0.156	0.159
-154.677	-42.862	-0.120	-0.060
-153.662	800.000	-0.011	0.049
-152.647	27.308	-0.264	0.220
-151.633	-60.304	-0.213	0.090
-150.618	78.996	0.195	-0.206
-149.604	3.150	0.109	-0.079
-148.589	-100.144	0.078	-0.019
-147.574	625.381	-0.087	0.217
-146.560	33.684	0.341	-0.293
-145.545	-129.754	-0.250	0.034
-144.531	-200.000	0.033	-0.222
-143.516	-200.000	-0.039	0.222
-142.502	154.869	0.094	-0.128
-141.487	480.778	-0.162	0.364
-140.472	-200.000	-0.004	0.030
-139.458	-200.000	-0.041	-0.226
-138.443	800.000	-0.070	-0.254
-137.429	-3.936	0.426	-0.292
-136.414	140.769	-0.100	-0.131
-135.399	12.709	0.218	0.166
-134.385	16.755	-0.246	0.192
-133.370	34.611	-0.286	-0.247
-132.356	-157.664	-0.177	0.010
-131.341	-200.000	-0.013	-0.322
-130.326	586.898	0.089	-0.216
-129.312	-127.525	0.193	-0.028
-128.297	-163.258	0.119	-0.006
-127.283	-200.000	0.035	-0.208
-126.268	79.241	-0.009	0.010
-125.253	110.983	0.164	-0.195
-124.239	800.000	0.123	-0.362
-123.224	-55.866	-0.194	-0.085
-122.210	16.694	-0.165	-0.129
