DTS Sentinel unit serial number:	SN413079Multiplexer serial number:	ORYXHardware model number:	OX4-SRSoftware version number:	ORYX F/W v4.00 Oryx Data Collector v3.7.2.0data status	okinstallation	princeton_trtdifferential loss correction	single-endedforward channel	channel 1reverse channel	N/Adate	2019/09/13time	14:34:35forward acquisition time	60.00reverse acquisition time	0.00gamma	496.2192k internal	0.2302k external	0.2302temperature offset calibration	1.0157default loss term (dB/km)	0.3790temperature slope calibration	1.0000multiplexer offset coefficient	1.0000multiplexer slope coefficient	1.0000fibre end	0.00T internal ref (°C)	35.30T ext. ref 1 (°C)	4.64T ext. ref 2 (°C)	32.19length (m)	temperature (°C)	Stokes	anti-Stokes-747.200	-66.545	0.162	0.065
-746.185	800.000	-0.117	0.391
-745.171	-147.191	0.371	0.032
-744.156	198.905	0.074	0.116
-743.142	800.000	0.014	-0.052
-742.127	120.630	-0.177	0.225
-741.112	-82.475	-0.199	-0.066
-740.098	-200.000	0.053	0.250
-739.083	-200.000	-0.006	0.144
-738.069	250.167	-0.129	-0.223
-737.054	93.947	-0.157	-0.182
-736.039	419.493	-0.128	0.279
-735.025	-134.625	0.273	-0.034
-734.010	272.498	-0.124	-0.222
-732.996	-78.439	-0.323	-0.113
-731.981	-88.904	-0.528	0.159
-730.966	-56.907	0.252	0.114
-729.952	55.089	-0.155	0.152
-728.937	719.543	-0.079	-0.213
-727.923	-200.000	0.022	-0.352
-726.908	586.876	-0.069	-0.173
-725.894	-200.000	-0.051	-0.234
-724.879	-78.344	0.233	-0.081
-723.864	-86.260	-0.227	-0.071
-722.850	800.000	-0.043	0.142
-721.835	-110.188	0.191	0.041
-720.821	24.014	0.232	0.195
-719.806	115.958	-0.061	0.076
-718.791	-77.547	0.048	0.017
-717.777	91.014	-0.049	0.056
-716.762	-98.832	0.142	0.037
-715.748	-65.060	-0.018	-0.008
-714.733	-200.000	-0.004	-0.020
-713.718	304.425	-0.159	-0.300
-712.704	-196.238	0.324	0.002
-711.689	-94.135	-0.246	0.069
-710.675	-16.340	0.084	-0.055
-709.660	-200.000	0.062	-0.288
-708.645	183.871	0.130	0.196
-707.631	595.273	-0.007	-0.019
-706.616	56.622	0.151	0.149
-705.602	800.000	0.035	0.146
-704.587	-13.945	0.280	0.184
-703.572	-200.000	-0.020	-0.130
-702.558	334.289	0.088	0.174
-701.543	-200.000	0.304	-0.000
-700.529	-137.519	-0.211	0.024
-699.514	90.454	-0.020	0.023
-698.499	-158.016	-0.516	0.031
-697.485	-200.000	-0.010	0.054
-696.470	117.923	0.211	-0.264
-695.456	-99.478	-0.169	0.043
-694.441	-36.782	-0.269	-0.147
-693.426	-80.302	0.175	-0.059
-692.412	-70.197	-0.354	-0.137
-691.397	-21.419	-0.346	-0.215
-690.383	800.000	-0.057	-0.191
-689.368	375.572	-0.119	0.246
-688.354	800.000	0.012	0.034
-687.339	260.734	0.055	0.097
-686.324	-200.000	0.013	-0.328
-685.310	417.653	0.125	-0.271
-684.295	33.092	-0.158	-0.139
-683.281	800.000	-0.137	-0.476
-682.266	80.274	0.207	-0.227
-681.251	-29.289	-0.125	-0.073
-680.237	406.514	-0.119	-0.256
-679.222	-200.000	0.026	0.251
-678.208	-200.000	-0.021	-0.105
-677.193	-93.108	0.066	0.019
-676.178	6.020	-0.206	-0.155
-675.164	-200.000	0.077	-0.379
-674.149	-140.910	0.137	0.014
-673.135	-150.937	-0.242	0.019
-672.120	267.812	0.022	-0.039
-671.105	54.387	-0.312	0.305
-670.091	226.889	-0.232	-0.383
-669.076	30.614	0.119	-0.103
-668.062	-200.000	0.007	-0.149
-667.047	-154.780	-0.407	-0.027
-666.032	-34.196	-0.515	-0.287
-665.018	-161.964	0.268	-0.014
-664.003	-124.863	-0.197	-0.031
-662.989	144.226	-0.079	-0.108
-661.974	15.537	-0.202	-0.161
-660.959	35.775	0.145	0.129
-659.945	800.000	0.158	-0.641
-658.930	-81.021	0.405	-0.136
-657.916	-109.326	0.177	-0.038
-656.901	-85.663	0.263	0.083
-655.886	19.035	-0.050	0.041
-654.872	99.619	-0.067	0.079
-653.857	-200.000	0.004	0.146
-652.843	216.878	0.097	0.157
-651.828	90.767	-0.185	-0.210
-650.814	-0.871	0.091	-0.065
-649.799	-14.873	-0.116	0.076
-648.784	105.405	0.205	-0.246
-647.770	148.451	0.160	0.219
-646.755	83.225	-0.199	-0.220
-645.741	115.708	-0.158	-0.196
-644.726	185.196	-0.085	0.128
-643.711	-93.475	0.346	-0.097
-642.697	214.673	-0.116	-0.187
-641.682	650.883	0.092	0.239
-640.668	-200.000	0.006	0.279
-639.653	-13.923	-0.338	-0.222
-638.638	-200.000	0.017	-0.336
-637.624	-176.616	-0.247	0.006
-636.609	-31.540	0.104	0.060
-635.595	107.217	0.148	-0.179
-634.580	-179.925	-0.231	-0.005
-633.565	189.681	0.057	-0.086
-632.551	242.767	-0.227	-0.385
-631.536	-109.453	0.304	-0.065
-630.522	105.431	0.244	0.292
-629.507	-117.765	0.261	0.048
-628.492	-40.899	-0.086	-0.045
-627.478	800.000	-0.039	-0.130
-626.463	232.865	-0.105	-0.175
-625.449	-1.385	-0.185	0.132
-624.434	5.145	-0.136	0.102
-623.419	64.179	0.079	0.081
-622.405	636.622	-0.061	0.157
-621.390	-200.000	-0.012	0.092
-620.376	172.185	0.143	0.208
-619.361	463.117	-0.031	-0.071
-618.346	-200.000	-0.052	-0.426
-617.332	69.007	0.138	0.144
-616.317	-84.684	-0.081	0.026
-615.303	-28.133	-0.245	-0.144
-614.288	60.712	0.137	0.138
-613.273	747.548	0.179	0.490
-612.259	-200.000	-0.029	-0.149
-611.244	-200.000	-0.006	-0.216
-610.230	51.430	-0.130	0.125
-609.215	-200.000	0.029	-0.236
-608.201	90.771	-0.241	-0.274
-607.186	-50.679	-0.271	-0.130
-606.171	-20.793	-0.214	-0.133
-605.157	130.775	-0.162	-0.211
-604.142	-118.906	0.241	-0.043
-603.128	-200.000	-0.020	0.212
-602.113	239.981	-0.087	-0.147
-601.098	512.155	-0.022	0.051
-600.084	413.396	-0.042	0.091
-599.069	90.633	-0.203	-0.230
-598.055	-200.000	-0.041	-0.211
-597.040	-46.180	0.307	-0.153
-596.025	800.000	0.005	0.016
-595.011	-163.384	0.217	-0.010
-593.996	800.000	-0.050	0.190
-592.982	262.047	0.157	0.276
-591.967	-117.998	0.212	-0.038
-590.952	5.798	0.062	-0.047
-589.938	800.000	0.107	-0.432
-588.923	117.276	-0.080	0.100
-587.909	-10.524	0.112	0.075
-586.894	76.675	0.085	-0.091
-585.879	323.975	0.154	-0.298
-584.865	-200.000	0.048	-0.215
-583.850	-96.088	0.042	-0.011
-582.836	454.325	-0.089	0.200
-581.821	338.076	-0.107	-0.212
-580.806	-113.897	-0.198	-0.039
-579.792	212.749	-0.169	-0.270
-578.777	120.272	-0.101	0.127
-577.763	58.106	0.284	0.282
-576.748	800.000	-0.071	-0.291
-575.733	800.000	0.032	-0.140
-574.719	-67.386	0.296	0.118
-573.704	-92.855	-0.182	0.051
-572.690	53.908	-0.232	-0.225
-571.675	800.000	-0.067	-0.232
-570.661	-200.000	0.012	-0.327
-569.646	-3.568	-0.173	0.122
-568.631	138.892	0.200	0.267
-567.617	57.301	0.244	-0.242
-566.602	-130.104	-0.227	0.031
-565.588	379.510	0.091	0.190
-564.573	-78.438	0.142	-0.049
-563.558	-191.162	0.245	0.003
-562.544	48.901	-0.119	-0.113
-561.529	-55.305	-0.287	0.131
-560.515	-26.760	-0.023	-0.014
-559.500	396.282	0.021	-0.044
-558.485	-200.000	0.020	0.159
-557.471	-61.107	-0.163	0.069
-556.456	403.507	0.099	0.210
-555.442	-200.000	0.006	-0.349
-554.427	103.067	-0.262	0.311
-553.412	-29.211	-0.217	-0.126
-552.398	14.033	-0.115	-0.090
-551.383	1.590	-0.117	0.085
-550.369	14.847	0.020	0.016
-549.354	-200.000	0.040	-0.336
-548.339	-200.000	-0.002	-0.207
-547.325	114.827	0.146	-0.181
-546.310	39.210	-0.190	0.172
-545.296	800.000	-0.024	0.098
-544.281	-141.801	-0.281	-0.028
-543.266	93.054	-0.236	0.270
-542.252	454.640	0.039	0.088
-541.237	-102.119	-0.417	-0.102
-540.223	-9.730	0.078	0.052
-539.208	107.666	0.129	0.155
-538.193	112.809	0.233	0.286
-537.179	-136.186	-0.293	0.035
-536.164	800.000	0.083	-0.348
-535.150	-99.726	-0.150	-0.038
-534.135	-97.670	0.110	-0.029
-533.121	-64.572	-0.322	0.132
-532.106	-135.792	-0.151	-0.018
-531.091	119.472	0.065	0.082
-530.077	-121.315	-0.443	0.075
-529.062	-24.566	-0.045	0.027
-528.048	26.792	0.105	-0.089
-527.033	800.000	-0.045	-0.147
-526.018	-94.323	-0.089	-0.025
-525.004	-87.078	-0.036	0.011
-523.989	-0.748	-0.143	0.102
-522.975	-111.089	-0.056	0.012
-521.960	258.206	0.081	0.141
-520.945	61.756	0.056	-0.056
-519.931	-176.784	0.060	0.002
-518.916	500.552	0.088	-0.205
-517.902	800.000	-0.043	0.188
-516.887	53.786	-0.076	0.074
-515.872	-200.000	-0.003	0.039
-514.858	-69.647	-0.236	-0.091
-513.843	800.000	0.052	-0.185
-512.829	-116.309	0.166	-0.031
-511.814	-200.000	-0.045	-0.228
-510.799	-135.975	0.428	-0.051
-509.785	800.000	-0.071	-0.268
-508.770	-108.054	0.015	0.003
-507.756	-110.020	0.132	-0.028
-506.741	8.219	0.116	-0.088
-505.726	289.268	0.052	-0.094
-504.712	717.928	-0.197	-0.527
-503.697	19.783	0.180	-0.146
-502.683	-200.000	0.010	-0.119
-501.668	-200.000	0.017	0.309
-500.653	159.265	0.206	0.289
-499.639	-200.000	-0.012	0.132
-498.624	-75.982	0.017	0.006
-497.610	800.000	-0.083	0.260
-496.595	-78.171	0.385	0.134
-495.581	501.774	0.102	-0.238
-494.566	146.484	-0.014	0.020
-493.551	559.001	-0.154	0.375
-492.537	96.090	-0.162	0.187
-491.522	-200.000	0.016	0.150
-490.508	8.625	0.337	-0.256
-489.493	21.146	0.114	0.093
-488.478	87.643	0.202	-0.226
-487.464	503.762	-0.136	0.319
-486.449	100.094	0.048	-0.056
-485.435	136.691	0.210	-0.276
-484.420	334.528	0.089	0.174
-483.405	13.349	0.121	0.095
-482.391	106.313	0.190	0.227
-481.376	84.205	-0.040	-0.044
-480.362	-200.000	-0.004	0.105
-479.347	85.285	0.085	-0.094
-478.332	545.709	-0.130	-0.315
-477.318	501.702	0.040	-0.094
-476.303	-200.000	0.064	-0.318
-475.289	-200.000	-0.005	-0.038
-474.274	-164.676	-0.089	0.004
-473.259	204.725	-0.124	0.195
-472.245	-200.000	0.042	0.375
-471.230	202.308	-0.054	-0.084
-470.216	-150.200	0.284	0.022
-469.201	-63.858	0.338	-0.139
-468.186	-37.986	-0.067	-0.036
-467.172	319.195	-0.190	-0.363
-466.157	-200.000	0.006	0.038
-465.143	-200.000	0.020	0.320
-464.128	-157.702	0.260	0.016
-463.113	-79.514	0.183	-0.062
-462.099	-2.406	-0.194	-0.137
-461.084	-200.000	-0.010	0.094
-460.070	800.000	-0.034	-0.110
-459.055	-34.292	-0.411	-0.227
-458.040	85.576	0.020	0.023
-457.026	-0.950	0.150	-0.107
-456.011	155.290	0.206	0.285
-454.997	2.885	0.058	-0.043
-453.982	-186.434	-0.136	0.002
-452.968	-144.962	0.122	-0.011
-451.953	-200.000	-0.034	0.219
-450.938	44.767	-0.103	0.095
-449.924	-51.927	0.068	0.032
-448.909	-200.000	0.016	0.222
-447.895	800.000	-0.030	0.095
-446.880	-200.000	-0.013	-0.152
-445.865	162.128	0.097	-0.138
-444.851	-200.000	0.004	-0.114
-443.836	330.596	0.056	0.110
-442.822	800.000	-0.061	-0.172
-441.807	157.828	-0.141	-0.196
-440.792	114.603	0.054	-0.067
-439.778	54.307	0.234	-0.227
-438.763	91.450	0.280	-0.317
-437.749	54.793	0.180	0.175
-436.734	-200.000	-0.057	0.516
-435.719	52.362	-0.179	0.172
-434.705	-150.171	-0.193	0.015
-433.690	-15.190	-0.223	-0.144
-432.676	-1.166	0.043	0.030
-431.661	-46.854	-0.175	-0.086
-430.646	-200.000	-0.012	-0.275
-429.632	612.827	-0.014	-0.036
-428.617	-76.015	-0.171	0.061
-427.603	-51.099	-0.362	0.171
-426.588	76.037	-0.174	0.186
-425.573	-81.800	-0.214	-0.071
-424.559	25.196	-0.291	-0.244
-423.544	290.530	0.124	0.226
-422.530	40.148	0.085	0.077
-421.515	139.616	-0.130	-0.172
-420.500	50.744	0.154	0.147
-419.486	8.342	-0.309	-0.234
-418.471	372.741	-0.134	-0.275
-417.457	-102.653	0.260	-0.062
-416.442	-172.358	0.114	-0.004
-415.428	-195.002	-0.188	-0.001
-414.413	-200.000	-0.021	-0.101
-413.398	-99.954	0.204	-0.051
-412.384	82.844	-0.181	0.198
-411.369	800.000	-0.017	-0.074
-410.355	-68.639	-0.347	0.135
-409.340	-115.398	0.291	-0.055
-408.325	800.000	-0.032	-0.113
-407.311	800.000	0.125	-0.357
-406.296	-200.000	-0.034	0.340
-405.282	-200.000	0.011	-0.247
-404.267	286.609	0.026	-0.046
-403.252	800.000	-0.117	0.430
-402.238	-27.821	-0.172	-0.100
-401.223	29.578	-0.256	0.219
-400.209	-7.664	0.127	-0.086
-399.194	-108.920	-0.204	-0.044
-398.179	-127.880	-0.312	0.045
-397.165	166.623	0.136	0.193
-396.150	800.000	-0.111	0.312
-395.136	-172.322	0.276	-0.009
-394.121	-20.525	0.088	0.055
-393.106	800.000	-0.076	0.255
-392.092	-100.581	0.152	-0.038
-391.077	800.000	-0.059	0.201
-390.063	-200.000	-0.012	0.211
-389.048	-110.618	-0.314	-0.065
-388.033	594.088	0.154	-0.382
-387.019	-200.000	0.008	0.059
-386.004	-200.000	-0.005	0.315
-384.990	188.786	0.125	0.188
-383.975	63.213	-0.160	-0.161
-382.960	-135.964	0.100	-0.012
-381.946	-164.340	-0.159	0.007
-380.931	131.079	0.184	-0.237
-379.917	197.848	0.052	-0.080
-378.902	-161.098	-0.099	0.005
-377.888	116.678	0.166	0.205
-376.873	-69.871	0.194	-0.074
-375.858	249.363	-0.062	-0.106
-374.844	359.628	-0.042	-0.085
-373.829	-30.081	0.197	-0.113
-372.815	-200.000	0.039	-0.212
-371.800	111.861	-0.105	-0.127
-370.785	-162.702	-0.187	0.009
-369.771	183.163	-0.105	-0.156
-368.756	-51.096	-0.251	0.118
-367.742	104.789	-0.274	0.324
-366.727	188.115	0.016	-0.024
-365.712	-170.822	0.252	-0.009
-364.698	68.668	-0.299	-0.308
-363.683	-200.000	-0.014	0.191
-362.669	47.314	-0.221	0.207
-361.654	-128.215	0.134	0.019
-360.639	-60.190	-0.155	0.066
-359.625	-39.881	0.139	0.073
-358.610	-72.644	-0.134	0.050
-357.596	15.457	0.166	0.131
-356.581	-148.583	0.326	0.027
-355.566	544.190	0.083	-0.199
-354.552	7.418	0.078	0.058
-353.537	-115.080	-0.179	0.034
-352.523	-67.980	0.259	0.101
-351.508	-200.000	-0.051	0.303
-350.493	13.992	-0.148	-0.116
-349.479	-4.829	-0.192	-0.133
-348.464	-200.000	-0.033	-0.151
-347.450	-92.378	0.344	0.097
-346.435	800.000	0.098	0.359
-345.420	608.207	0.037	0.092
-344.406	800.000	-0.103	-0.329
-343.391	-142.412	-0.337	0.033
-342.377	-200.000	-0.040	0.240
-341.362	-200.000	0.026	-0.117
-340.348	232.172	-0.105	-0.172
-339.333	-26.950	-0.154	0.090
-338.318	-200.000	0.014	0.145
-337.304	109.978	0.369	-0.444
-336.289	-200.000	0.002	0.252
-335.275	-78.127	-0.286	0.099
-334.260	-41.431	-0.031	0.016
-333.245	-200.000	0.022	-0.145
-332.231	-200.000	-0.007	0.133
-331.216	800.000	0.025	0.081
-330.202	300.157	-0.015	0.027
-329.187	-92.416	-0.198	-0.056
-328.172	-34.584	-0.059	0.032
-327.158	14.979	-0.135	-0.106
-326.143	-125.255	0.020	-0.003
-325.129	-67.841	0.176	-0.069
-324.114	-100.759	-0.119	0.029
-323.099	-43.193	-0.139	-0.070
-322.085	-52.648	-0.387	-0.179
-321.070	-81.658	0.212	0.070
-320.056	-3.299	0.202	-0.141
-319.041	-55.352	0.283	0.127
-318.026	509.246	-0.077	0.180
-317.012	-200.000	0.002	-0.255
-315.997	-200.000	-0.002	-0.130
-314.983	761.991	-0.129	-0.351
-313.968	-32.095	-0.196	0.110
-312.953	-200.000	0.016	0.090
-311.939	119.512	0.071	0.088
-310.924	-55.730	-0.362	-0.162
-309.910	73.165	-0.057	-0.059
-308.895	-40.886	0.041	-0.021
-307.880	-96.487	-0.072	0.019
-306.866	128.684	-0.100	0.128
-305.851	-200.000	-0.037	0.236
-304.837	-130.256	0.130	-0.018
-303.822	51.437	-0.104	-0.099
-302.807	7.582	-0.228	-0.171
-301.793	-15.705	-0.328	0.210
-300.778	51.108	0.115	-0.109
-299.764	-34.132	-0.100	0.055
-298.749	153.892	-0.033	-0.045
-297.735	-126.295	0.227	0.034
-296.720	-62.499	-0.500	-0.208
-295.705	279.333	0.123	0.221
-294.691	-31.991	0.314	0.176
-293.676	800.000	0.033	0.104
-292.662	-200.000	0.039	0.360
-291.647	-200.000	-0.018	0.117
-290.632	-57.009	-0.132	-0.058
-289.618	-56.255	0.408	0.182
-288.603	125.477	-0.099	0.126
-287.589	-200.000	-0.045	0.322
-286.574	-200.000	-0.314	-0.001
-285.559	0.128	0.185	0.132
-284.545	-14.735	0.220	-0.141
-283.530	-63.956	-0.197	0.081
-282.516	-33.828	0.445	0.246
-281.501	-151.016	0.226	-0.017
-280.486	-63.994	0.122	-0.050
-279.472	5.868	0.106	0.079
-278.457	146.107	-0.039	-0.053
-277.443	41.139	-0.152	-0.137
-276.428	800.000	-0.061	-0.178
-275.413	746.995	-0.093	0.252
-274.399	-18.071	0.203	0.128
-273.384	83.244	0.259	-0.282
-272.370	-108.904	-0.084	0.018
-271.355	800.000	0.062	0.224
-270.340	800.000	0.052	-0.219
-269.326	418.751	0.047	-0.100
-268.311	-10.188	-0.138	-0.091
-267.297	-172.192	-0.073	-0.002
-266.282	-98.615	0.212	-0.054
-265.267	60.200	-0.212	0.209
-264.253	-183.449	-0.234	0.004
-263.238	-200.000	0.006	-0.038
-262.224	-59.282	0.292	-0.126
-261.209	-200.000	-0.032	-0.204
-260.195	-185.157	-0.197	-0.003
-259.180	-64.749	0.329	-0.133
-258.165	55.961	0.268	0.260
-257.151	92.138	-0.184	0.207
-256.136	-127.438	-0.186	-0.027
-255.122	-200.000	0.028	0.153
-254.107	-85.314	-0.235	-0.073
-253.092	800.000	-0.017	-0.064
-252.078	-159.989	-0.115	0.006
-251.063	-200.000	0.013	0.169
-250.049	-123.253	-0.145	0.023
-249.034	-200.000	0.036	0.219
-248.019	66.179	-0.125	0.127
-247.005	-155.688	0.304	0.019
-245.990	-71.355	0.151	0.057
-244.976	-152.774	0.103	0.007
-243.961	282.110	0.033	-0.060
-242.946	-34.188	0.197	0.108
-241.932	800.000	-0.046	0.173
-240.917	-92.093	0.184	0.052
-239.903	-30.240	-0.331	-0.188
-238.888	154.880	-0.095	0.131
-237.873	346.300	-0.176	-0.345
-236.859	26.262	-0.047	0.039
-235.844	-14.504	-0.199	-0.128
-234.830	286.348	0.147	0.265
-233.815	-120.618	0.107	0.018
-232.800	474.368	-0.068	-0.152
-231.786	-200.000	0.003	-0.378
-230.771	-5.675	0.278	-0.190
-229.757	-200.000	0.006	0.089
-228.742	4.256	-0.222	-0.162
-227.727	800.000	0.165	-0.506
-226.713	-200.000	-0.020	-0.268
-225.698	-23.268	0.229	-0.138
-224.684	83.676	0.152	0.166
-223.669	398.002	-0.201	0.419
-222.655	185.239	0.121	0.180
-221.640	43.416	0.135	0.124
-220.625	-200.000	0.001	0.127
-219.611	-200.000	-0.041	-0.208
-218.596	-87.260	0.161	-0.049
-217.582	-27.785	0.336	0.194
-216.567	293.940	0.102	0.185
-215.552	-14.475	-0.096	-0.061
-214.538	256.738	-0.040	0.069
-213.523	535.310	-0.143	0.340
-212.509	-63.072	-0.315	0.130
-211.494	-156.300	-0.307	-0.019
-210.479	14.972	0.355	0.277
-209.465	-152.720	0.342	-0.024
-208.450	-87.136	0.281	0.085
-207.436	49.622	-0.172	0.162
-206.421	201.538	0.058	-0.089
-205.406	4.585	-0.455	0.333
-204.392	-102.738	0.353	0.084
-203.377	162.896	0.185	0.260
-202.363	229.491	0.137	-0.224
-201.348	800.000	0.048	-0.207
-200.333	-72.037	0.350	0.130
-199.319	-181.105	-0.077	0.002
-198.304	-200.000	0.024	0.205
-197.290	484.267	0.109	-0.248
-196.275	345.833	0.031	-0.061
-195.260	-52.304	-0.251	0.116
-194.246	29.680	0.035	-0.030
-193.231	16.839	0.139	0.110
-192.217	-200.000	0.070	0.346
-191.202	-49.721	0.293	-0.139
-190.187	-200.000	-0.071	-0.371
-189.173	-63.760	0.509	0.208
-188.158	-200.000	-0.003	0.161
-187.144	-158.523	0.123	-0.007
-186.129	-17.720	0.229	0.144
-185.114	-33.993	0.184	0.101
-184.100	-159.020	-0.082	0.005
-183.085	-200.000	0.054	0.501
-182.071	-200.000	0.021	-0.205
-181.056	-5.660	-0.137	0.093
-180.042	102.681	-0.107	-0.125
-179.027	-117.380	0.245	-0.044
-178.012	194.859	0.087	-0.131
-176.998	83.997	-0.133	0.145
-175.983	800.000	0.021	-0.066
-174.969	15.374	0.212	0.166
-173.954	-68.509	0.125	-0.048
-172.939	-8.744	0.399	-0.267
-171.925	-200.000	-0.032	-0.193
-170.910	72.004	0.181	0.188
-169.896	23.342	0.142	0.116
-168.881	367.678	-0.030	0.060
-167.866	587.417	-0.132	-0.323
-166.852	109.366	0.135	-0.161
-165.837	62.247	-0.153	-0.152
-164.823	800.000	-0.041	0.122
-163.808	-189.419	-0.074	-0.001
-162.793	-133.890	0.104	-0.013
-161.779	-128.137	-0.326	0.046
-160.764	603.211	0.054	0.134
-159.750	-0.163	-0.141	0.100
-158.735	-34.138	0.199	-0.109
-157.720	-200.000	0.000	-0.174
-156.706	240.496	-0.188	0.311
-155.691	686.326	0.059	0.153
-154.677	108.708	0.326	-0.388
-153.662	-105.050	-0.166	-0.038
-152.647	-200.000	0.020	-0.121
-151.633	800.000	-0.059	0.253
-150.618	-83.180	-0.293	0.094
-149.604	-37.958	-0.137	0.073
-148.589	-87.293	-0.229	-0.069
-147.574	213.916	0.076	0.120
-146.560	-59.706	0.327	-0.139
-145.545	316.102	0.075	0.140
-144.531	-129.714	0.368	-0.051
-143.516	-198.212	0.159	0.001
-142.502	800.000	-0.064	-0.209
-141.487	-170.990	-0.404	0.014
-140.472	-96.164	0.053	-0.014
-139.458	-25.895	0.193	-0.113
-138.443	144.257	0.035	0.047
-137.429	-33.828	0.170	0.093
-136.414	63.627	0.167	0.167
-135.399	31.597	-0.151	-0.129
-134.385	800.000	0.069	0.262
-133.370	113.496	-0.067	0.081
-132.356	679.192	0.016	-0.042
-131.341	-200.000	-0.005	0.173
-130.326	-16.970	0.425	0.267
-129.312	-200.000	0.023	0.180
-128.297	-14.263	-0.171	-0.110
-127.283	83.990	-0.144	0.156
-126.268	-200.000	0.006	-0.034
-125.253	20.093	0.193	-0.155
-124.239	-117.607	-0.382	-0.068
-123.224	3.921	0.151	-0.110
-122.210	238.072	-0.100	0.165
-121.195	42.295	-0.111	-0.100
