DTS Sentinel unit serial number:	SN413079Multiplexer serial number:	ORYXHardware model number:	OX4-SRSoftware version number:	ORYX F/W v4.00 Oryx Data Collector v3.7.2.0data status	okinstallation	princeton_trtdifferential loss correction	single-endedforward channel	channel 1reverse channel	N/Adate	2019/09/17time	21:10:35forward acquisition time	60.00reverse acquisition time	0.00gamma	496.2192k internal	0.2336k external	0.2336temperature offset calibration	0.9976default loss term (dB/km)	0.3790temperature slope calibration	1.0000multiplexer offset coefficient	1.0000multiplexer slope coefficient	1.0000fibre end	0.00T internal ref (°C)	28.09T ext. ref 1 (°C)	0.19T ext. ref 2 (°C)	19.74length (m)	temperature (°C)	Stokes	anti-Stokes-747.200	-30.992	0.069	-0.039
-746.185	-23.204	-0.248	0.150
-745.171	-24.496	-0.141	-0.084
-744.156	-22.376	-0.214	-0.130
-743.142	526.664	0.040	0.094
-742.127	134.886	-0.062	0.081
-741.112	263.106	-0.185	-0.322
-740.098	24.201	-0.369	-0.306
-739.083	-200.000	-0.101	-0.000
-738.069	800.000	0.119	-0.392
-737.054	137.224	-0.202	0.266
-736.039	-192.341	-0.578	0.005
-735.025	279.938	0.109	0.195
-734.010	-78.780	-0.115	-0.039
-732.996	91.864	-0.132	-0.149
-731.981	-62.436	0.115	-0.048
-730.966	421.945	-0.171	-0.369
-729.952	293.095	-0.164	-0.301
-728.937	800.000	0.042	0.116
-727.923	-160.062	-0.211	0.012
-726.908	287.677	0.106	-0.193
-725.894	800.000	0.026	-0.081
-724.879	68.656	-0.220	-0.227
-723.864	480.931	-0.096	0.218
-722.850	24.537	-0.177	-0.147
-721.835	356.646	0.111	0.221
-720.821	46.865	-0.068	-0.063
-719.806	-200.000	0.031	-0.187
-718.791	-153.976	0.066	0.005
-717.777	281.425	-0.146	-0.262
-716.762	305.100	0.155	-0.288
-715.748	8.690	-0.428	0.323
-714.733	87.144	0.317	-0.352
-713.718	-67.026	0.089	-0.035
-712.704	367.299	-0.110	-0.223
-711.689	-122.040	-0.147	-0.024
-710.675	378.946	-0.099	-0.204
-709.660	-200.000	-0.075	0.532
-708.645	-96.820	0.281	0.074
-707.631	10.788	0.185	0.142
-706.616	338.595	0.062	-0.122
-705.602	800.000	-0.062	-0.274
-704.587	-93.745	-0.222	-0.062
-703.572	-142.954	0.121	-0.012
-702.558	-200.000	-0.020	-0.206
-701.543	-200.000	0.008	0.055
-700.529	-116.763	-0.165	0.030
-699.514	-200.000	-0.071	-0.315
-698.499	68.950	0.098	-0.101
-697.485	-27.490	0.106	-0.062
-696.470	800.000	-0.059	0.182
-695.456	751.166	-0.046	0.124
-694.441	-157.072	-0.079	-0.005
-693.426	25.252	0.108	0.090
-692.412	335.411	-0.058	0.113
-691.397	-200.000	-0.009	0.198
-690.383	1.365	-0.179	-0.129
-689.368	5.943	-0.275	-0.204
-688.354	800.000	-0.095	-0.336
-687.339	240.646	-0.066	0.110
-686.324	-167.841	-0.374	-0.015
-685.310	69.584	0.087	0.090
-684.295	-35.368	-0.304	-0.166
-683.281	-8.174	-0.106	0.072
-682.266	-152.502	0.290	0.021
-681.251	-200.000	-0.005	-0.141
-680.237	90.422	0.133	0.149
-679.222	-125.702	-0.217	0.033
-678.208	-121.252	-0.192	0.032
-677.193	-18.040	0.230	-0.144
-676.178	800.000	0.029	-0.080
-675.164	-30.986	-0.280	0.159
-674.149	800.000	0.046	0.144
-673.135	92.320	0.047	0.053
-672.120	217.266	0.158	-0.252
-671.105	-91.164	-0.061	0.018
-670.091	-200.000	0.024	-0.193
-669.076	-199.608	-0.205	-0.001
-668.062	-45.129	-0.191	0.095
-667.047	63.898	-0.155	0.156
-666.032	-200.000	-0.051	-0.511
-665.018	-78.697	0.055	0.019
-664.003	-19.073	0.063	-0.039
-662.989	800.000	-0.096	0.282
-661.974	136.620	0.156	-0.203
-660.959	27.387	-0.276	-0.232
-659.945	-200.000	0.021	-0.139
-658.930	-99.755	-0.268	-0.067
-657.916	-61.535	-0.274	-0.115
-656.901	-200.000	0.012	-0.249
-655.886	800.000	0.027	-0.096
-654.872	24.356	0.272	-0.225
-653.857	115.685	0.203	-0.249
-652.843	17.455	-0.100	-0.079
-651.828	-106.206	-0.269	-0.060
-650.814	391.403	-0.112	-0.233
-649.799	40.788	-0.117	-0.106
-648.784	102.750	-0.056	0.066
-647.770	800.000	0.095	0.263
-646.755	-200.000	0.010	-0.085
-645.741	63.053	0.134	-0.134
-644.726	303.977	0.151	0.280
-643.711	80.432	0.065	0.070
-642.697	-200.000	-0.014	0.088
-641.682	-98.303	0.214	0.055
-640.668	-43.713	0.149	-0.075
-639.653	800.000	0.070	0.218
-638.638	-200.000	0.041	-0.393
-637.624	-130.758	0.198	0.027
-636.609	127.744	-0.270	0.344
-635.595	-200.000	-0.047	-0.572
-634.580	800.000	-0.040	0.111
-633.565	800.000	0.120	-0.457
-632.551	65.373	0.087	0.088
-631.536	-146.384	-0.043	0.004
-630.522	256.669	0.209	-0.359
-629.507	-96.145	-0.252	0.067
-628.492	470.692	-0.013	-0.028
-627.478	-128.253	-0.520	0.074
-626.463	800.000	-0.083	0.239
-625.449	-90.495	-0.334	-0.097
-624.434	-98.696	-0.359	0.092
-623.419	106.865	-0.234	-0.277
-622.405	-200.000	0.016	0.147
-621.390	-71.622	0.251	0.094
-620.376	-200.000	0.033	0.167
-619.361	-146.636	-0.312	-0.027
-618.346	109.985	-0.198	-0.238
-617.332	45.007	-0.478	-0.440
-616.317	-2.756	0.088	-0.062
-615.303	-200.000	0.096	-0.449
-614.288	-20.540	-0.066	0.041
-613.273	-19.459	0.161	-0.100
-612.259	-110.069	-0.454	-0.095
-611.244	252.941	0.109	0.186
-610.230	-13.915	-0.102	0.066
-609.215	-44.486	-0.102	-0.051
-608.201	-80.077	-0.098	-0.033
-607.186	-55.653	0.156	-0.070
-606.171	351.099	-0.173	-0.342
-605.157	800.000	-0.082	0.245
-604.142	-71.079	0.224	-0.084
-603.128	-200.000	-0.011	-0.109
-602.113	-200.000	0.023	0.281
-601.098	-200.000	0.046	-0.227
-600.084	216.650	-0.079	-0.126
-599.069	-169.942	-0.289	0.010
-598.055	104.241	-0.219	-0.257
-597.040	63.654	0.149	0.149
-596.025	-200.000	0.000	0.057
-595.011	-135.209	-0.201	0.024
-593.996	-200.000	-0.016	0.210
-592.982	-200.000	-0.013	-0.090
-591.967	69.590	-0.204	-0.210
-590.952	-153.388	0.482	0.033
-589.938	-103.809	-0.168	-0.039
-588.923	-200.000	-0.008	-0.280
-587.909	-200.000	0.015	0.112
-586.894	-62.160	0.258	-0.107
-585.879	-133.957	0.484	-0.060
-584.865	787.657	0.095	-0.260
-583.850	-200.000	0.015	-0.093
-582.836	-18.391	-0.313	0.195
-581.821	-78.617	0.073	0.025
-580.806	800.000	-0.028	0.097
-579.792	376.538	-0.174	0.356
-578.777	-152.524	0.159	-0.011
-577.763	-107.512	-0.178	-0.039
-576.748	17.682	0.309	0.245
-575.733	-64.555	0.091	-0.037
-574.719	-200.000	-0.009	0.086
-573.704	47.981	0.324	-0.302
-572.690	-183.013	0.155	-0.003
-571.675	-47.906	-0.092	0.044
-570.661	-92.224	-0.349	0.098
-569.646	117.848	0.126	0.155
-568.631	128.567	-0.145	-0.184
-567.617	-22.576	0.377	-0.228
-566.602	134.785	-0.188	-0.243
-565.588	-117.896	0.119	0.021
-564.573	-200.000	0.020	0.148
-563.558	-200.000	0.017	-0.111
-562.544	36.435	-0.254	-0.223
-561.529	-125.163	0.388	-0.059
-560.515	-200.000	-0.002	-0.090
-559.500	194.509	-0.127	0.191
-558.485	-200.000	0.003	-0.073
-557.471	148.657	0.087	0.117
-556.456	311.675	0.042	-0.079
-555.442	139.173	-0.158	-0.208
-554.427	29.820	0.269	-0.228
-553.412	-179.825	-0.347	-0.007
-552.398	62.618	0.094	0.093
-551.383	9.258	0.258	0.194
-550.369	-104.241	-0.073	0.017
-549.354	-56.351	0.131	-0.058
-548.339	560.715	0.069	-0.167
-547.325	-126.537	0.132	0.020
-546.310	-200.000	0.023	0.213
-545.296	-42.021	-0.125	-0.064
-544.281	-200.000	-0.011	0.094
-543.266	112.712	-0.103	-0.124
-542.252	800.000	0.084	0.340
-541.237	-52.771	-0.122	-0.056
-540.223	-200.000	0.013	-0.201
-539.208	-115.689	0.348	-0.065
-538.193	579.574	-0.087	-0.212
-537.179	-128.159	-0.204	0.029
-536.164	-200.000	-0.006	0.093
-535.150	-114.222	0.041	0.008
-534.135	800.000	-0.033	0.118
-533.121	349.417	-0.135	-0.265
-532.106	-134.587	-0.176	-0.021
-531.091	-43.034	-0.198	0.100
-530.077	105.006	-0.184	-0.216
-529.062	800.000	-0.059	-0.189
-528.048	800.000	0.123	0.344
-527.033	-200.000	-0.005	0.300
-526.018	123.201	-0.077	0.097
-525.004	-110.863	0.301	0.062
-523.989	-200.000	-0.053	-0.450
-522.975	-37.418	0.079	0.042
-521.960	800.000	-0.019	0.061
-520.945	-75.826	0.277	0.098
-519.931	366.928	0.113	-0.228
-518.916	89.805	0.175	0.195
-517.902	6.749	0.139	-0.103
-516.887	800.000	0.026	-0.095
-515.872	672.109	0.055	-0.142
-514.858	198.013	-0.142	-0.217
-513.843	-200.000	0.058	0.283
-512.829	-17.204	0.073	-0.046
-511.814	77.911	-0.044	0.047
-510.799	-72.754	0.031	0.011
-509.785	22.866	0.096	-0.078
-508.770	800.000	-0.077	-0.265
-507.756	-160.830	-0.033	-0.002
-506.741	550.150	0.087	0.208
-505.726	-94.626	0.091	-0.025
-504.712	212.648	0.214	-0.335
-503.697	13.572	0.065	-0.050
-502.683	22.825	-0.321	-0.261
-501.668	800.000	0.111	-0.396
-500.653	245.249	0.101	0.170
-499.639	177.693	0.210	-0.304
-498.624	-116.823	-0.128	0.023
-497.610	-200.000	0.027	-0.141
-496.595	205.031	0.141	0.218
-495.581	-122.262	0.167	-0.027
-494.566	800.000	0.104	-0.384
-493.551	2.936	-0.218	0.158
-492.537	274.537	0.025	-0.044
-491.522	-200.000	0.014	0.134
-490.508	278.559	0.088	0.155
-489.493	-71.563	-0.068	0.025
-488.478	-200.000	-0.052	-0.343
-487.464	-18.249	0.225	-0.140
-486.449	800.000	0.083	-0.259
-485.435	65.387	0.220	-0.221
-484.420	48.691	-0.217	-0.202
-483.405	225.960	-0.114	0.184
-482.391	16.506	-0.131	0.103
-481.376	112.186	-0.224	0.270
-480.362	-163.559	0.432	0.020
-479.347	657.813	-0.085	-0.218
-478.332	74.221	0.135	0.141
-477.318	-200.000	0.014	0.284
-476.303	-24.878	-0.143	-0.085
-475.289	29.129	-0.065	-0.055
-474.274	582.712	-0.125	0.305
-473.259	-27.237	0.079	-0.046
-472.245	800.000	0.073	-0.292
-471.230	-16.497	-0.149	0.094
-470.216	800.000	0.040	-0.125
-469.201	-73.639	-0.194	-0.070
-468.186	-20.502	0.170	-0.104
-467.172	-110.751	0.228	0.047
-466.157	140.998	-0.170	-0.223
-465.143	-121.590	-0.119	-0.020
-464.128	-200.000	-0.001	-0.266
-463.113	208.687	0.132	0.206
-462.099	147.939	-0.105	-0.141
-461.084	800.000	0.036	-0.121
-460.070	-52.074	0.248	-0.115
-459.055	-109.087	0.209	0.044
-458.040	-28.094	0.199	-0.115
-457.026	-1.468	-0.134	-0.094
-456.011	77.117	-0.124	-0.130
-454.997	-200.000	-0.018	0.397
-453.982	79.500	-0.050	-0.053
-452.968	318.598	-0.116	-0.219
-451.953	97.974	0.173	0.197
-450.938	-9.401	0.117	-0.078
-449.924	-45.137	-0.418	-0.206
-448.909	-147.893	0.239	-0.020
-447.895	-200.000	-0.010	-0.202
-446.880	-200.000	-0.002	-0.280
-445.865	-23.190	-0.017	-0.010
-444.851	-13.025	-0.215	0.139
-443.836	-200.000	0.005	-0.119
-442.822	-99.003	-0.140	0.035
-441.807	172.451	-0.244	-0.348
-440.792	-126.124	0.452	-0.067
-439.778	800.000	-0.068	-0.219
-438.763	80.706	-0.385	0.411
-437.749	706.622	0.138	0.361
-436.734	178.624	0.102	0.148
-435.719	-178.160	0.165	-0.004
-434.705	40.218	-0.294	0.262
-433.690	32.941	0.130	0.112
-432.676	-159.279	0.188	-0.010
-431.661	-80.931	0.161	0.053
-430.646	643.596	0.095	0.239
-429.632	-25.231	-0.098	-0.057
-428.617	317.074	0.184	-0.346
-427.603	-136.275	-0.179	0.021
-426.588	-117.053	-0.055	0.010
-425.573	-200.000	0.059	-0.406
-424.559	122.873	0.102	-0.127
-423.544	-42.374	0.106	0.054
-422.530	-23.706	0.218	-0.129
-421.515	-142.430	-0.267	0.026
-420.500	-29.694	0.178	-0.101
-419.486	18.900	-0.211	0.168
-418.471	30.722	-0.342	-0.291
-417.457	72.781	0.206	0.213
-416.442	486.893	-0.092	0.208
-415.428	-134.219	-0.090	0.011
-414.413	800.000	0.080	0.263
-413.398	36.322	0.188	0.164
-412.384	-161.273	-0.356	0.018
-411.369	-149.605	-0.141	-0.011
-410.355	-134.686	-0.209	-0.025
-409.340	-159.523	-0.150	0.008
-408.325	800.000	0.017	0.060
-407.311	-30.861	-0.165	-0.093
-406.296	241.913	-0.229	0.379
-405.282	-200.000	0.015	0.084
-404.267	-200.000	0.040	-0.259
-403.252	-200.000	0.015	-0.126
-402.238	82.827	0.144	-0.155
-401.223	148.143	0.149	0.199
-400.209	-120.694	-0.136	-0.023
-399.194	287.903	-0.147	0.264
-398.179	55.195	0.173	-0.166
-397.165	192.824	0.146	0.219
-396.150	-200.000	-0.009	-0.113
-395.136	94.241	-0.125	0.140
-394.121	-114.660	-0.393	-0.075
-393.106	467.045	-0.085	0.188
-392.092	-200.000	0.059	0.268
-391.077	566.256	0.067	-0.160
-390.063	-130.022	0.105	0.014
-389.048	-200.000	-0.023	-0.118
-388.033	3.558	-0.182	-0.131
-387.019	-200.000	0.007	0.065
-386.004	800.000	0.042	-0.131
-384.990	322.576	-0.083	0.156
-383.975	108.530	-0.096	0.114
-382.960	-62.304	0.109	-0.045
-381.946	-123.964	0.370	0.058
-380.931	275.140	0.224	0.393
-379.917	550.305	0.188	0.447
-378.902	-30.939	0.429	-0.240
-377.888	-200.000	-0.087	-0.414
-376.873	-81.368	-0.019	-0.006
-375.858	-137.226	0.329	-0.037
-374.844	288.333	-0.149	-0.267
-373.829	243.209	-0.133	-0.220
-372.815	62.277	-0.224	0.222
-371.800	80.452	0.173	0.184
-370.785	431.387	-0.041	0.088
-369.771	-151.856	0.173	0.013
-368.756	45.879	-0.157	0.143
-367.742	497.081	-0.079	-0.179
-366.727	-33.588	0.223	0.122
-365.712	800.000	0.019	-0.075
-364.698	237.248	-0.053	0.087
-363.683	111.542	-0.104	-0.125
-362.669	800.000	-0.093	0.300
-361.654	158.571	0.274	0.377
-360.639	353.655	-0.199	-0.392
-359.625	800.000	0.065	-0.279
-358.610	-49.653	-0.129	-0.061
-357.596	800.000	-0.031	-0.089
-356.581	-98.247	0.422	-0.107
-355.566	-94.800	-0.295	0.079
-354.552	101.697	-0.119	-0.137
-353.537	339.980	-0.120	-0.232
-352.523	81.243	-0.147	0.157
-351.508	642.216	-0.031	-0.078
-350.493	-106.769	-0.075	-0.016
-349.479	-52.198	0.132	-0.061
-348.464	37.511	-0.017	0.015
-347.450	-93.152	0.156	-0.043
-346.435	6.350	0.260	0.191
-345.420	432.047	0.022	0.047
-344.406	-114.878	-0.158	-0.030
-343.391	-18.745	-0.137	0.084
-342.377	-10.427	-0.251	-0.165
-341.362	-31.231	0.103	-0.058
-340.348	-5.070	0.228	0.155
-339.333	286.324	-0.073	0.130
-338.318	-200.000	-0.010	-0.049
-337.304	800.000	-0.074	-0.239
-336.289	-170.267	0.299	-0.010
-335.275	-60.294	0.446	0.188
-334.260	-161.446	-0.315	-0.016
-333.245	274.836	-0.067	-0.117
-332.231	-151.098	-0.136	-0.010
-331.216	-200.000	-0.020	0.366
-330.202	163.494	0.051	-0.071
-329.187	-200.000	0.061	0.461
-328.172	-121.455	-0.310	0.051
-327.158	-200.000	-0.067	-0.522
-326.143	588.591	0.044	-0.107
-325.129	356.704	-0.068	0.134
-324.114	16.281	-0.094	0.073
-323.099	-68.364	-0.139	0.053
-322.085	30.826	-0.146	-0.124
-321.070	198.051	-0.082	-0.123
-320.056	-121.291	0.411	-0.068
-319.041	662.443	-0.093	-0.236
-318.026	-104.116	-0.163	0.037
-317.012	-200.000	-0.008	-0.243
-315.997	3.641	0.107	-0.077
-314.983	-200.000	0.037	0.270
-313.968	450.208	-0.037	-0.080
-312.953	-171.802	0.309	0.010
-311.939	-200.000	-0.010	0.075
-310.924	283.195	-0.181	0.321
-309.910	179.435	-0.032	-0.047
-308.895	-200.000	-0.014	-0.363
-307.880	-200.000	0.021	-0.273
-306.866	-200.000	-0.011	0.362
-305.851	-200.000	0.023	0.290
-304.837	-57.862	-0.317	0.137
-303.822	121.043	-0.113	-0.139
-302.807	14.773	0.284	-0.220
-301.793	-139.087	0.241	-0.026
-300.778	-116.951	-0.171	0.031
-299.764	77.535	0.205	-0.216
-298.749	-7.562	-0.038	0.026
-297.735	155.920	-0.114	0.155
-296.720	-200.000	0.205	0.001
-295.705	-200.000	0.006	0.297
-294.691	-24.346	0.353	0.208
-293.676	-200.000	0.012	-0.133
-292.662	-200.000	-0.049	0.287
-291.647	15.569	0.347	0.269
-290.632	800.000	-0.050	-0.160
-289.618	499.156	0.024	-0.054
-288.603	738.349	-0.010	-0.026
-287.589	667.085	0.041	0.104
-286.574	-200.000	-0.027	0.524
-285.559	-1.257	0.124	0.086
-284.545	800.000	0.077	0.239
-283.530	679.156	0.131	-0.336
-282.516	800.000	-0.033	-0.127
-281.501	-200.000	0.070	0.396
-280.486	-73.179	-0.249	0.090
-279.472	166.190	0.219	0.307
-278.457	-63.597	0.169	-0.068
-277.443	-193.110	0.032	0.000
-276.428	130.030	0.217	-0.274
-275.413	-99.957	-0.336	0.083
-274.399	368.356	-0.212	0.423
-273.384	195.077	-0.021	-0.031
-272.370	800.000	0.024	0.066
-271.355	-136.951	-0.085	0.010
-270.340	-166.372	0.063	0.003
-269.326	-200.000	0.029	0.171
-268.311	-2.098	-0.308	0.213
-267.297	800.000	-0.073	0.292
-266.282	-200.000	0.026	0.196
-265.267	800.000	-0.066	-0.187
-264.253	-115.827	-0.477	0.088
-263.238	-17.828	-0.381	0.236
-262.224	93.609	0.172	-0.192
-261.209	-54.676	-0.115	0.051
-260.195	-200.000	-0.011	-0.140
-259.180	82.425	0.252	-0.269
-258.165	-31.527	-0.423	-0.234
-257.151	-137.796	0.147	-0.016
-256.136	-110.558	0.280	0.057
-255.122	724.723	0.059	-0.155
-254.107	36.140	-0.222	0.193
-253.092	706.544	-0.064	0.167
-252.078	145.921	-0.141	-0.186
-251.063	-200.000	0.032	-0.186
-250.049	-76.674	0.261	0.090
-249.034	-100.455	0.064	0.016
-248.019	-80.257	0.222	-0.073
-247.005	5.907	-0.054	0.040
-245.990	-98.098	0.301	-0.076
-244.976	-158.883	0.190	0.011
-243.961	284.281	-0.247	-0.437
-242.946	22.995	-0.138	0.111
-241.932	5.235	-0.194	0.141
-240.917	-45.342	0.306	-0.150
-239.903	-164.648	-0.341	0.015
-238.888	-200.000	0.032	-0.181
-237.873	-2.741	-0.366	0.252
-236.859	10.897	-0.375	0.282
-235.844	-200.000	-0.001	-0.019
-234.830	111.379	-0.134	0.159
-233.815	-200.000	0.010	-0.071
-232.800	360.859	-0.117	-0.231
-231.786	-27.665	-0.034	0.019
-230.771	-200.000	0.064	0.287
-229.757	-80.125	-0.096	-0.032
-228.742	-200.000	0.036	0.348
-227.727	-93.502	0.284	-0.077
-226.713	53.542	0.211	0.199
-225.698	70.669	-0.106	0.108
-224.684	-42.965	0.107	-0.053
-223.669	19.761	0.198	0.157
-222.655	800.000	0.104	0.304
-221.640	14.195	-0.095	-0.073
-220.625	-70.366	-0.398	0.149
-219.611	800.000	0.049	0.195
-218.596	800.000	-0.068	0.273
-217.582	-200.000	0.003	-0.043
-216.567	77.525	0.119	0.125
-215.552	54.231	-0.293	0.277
-214.538	800.000	0.036	-0.098
-213.523	29.812	-0.084	-0.070
-212.509	800.000	0.025	0.085
-211.494	200.804	-0.155	0.235
-210.479	511.266	0.073	0.166
-209.465	-200.000	-0.020	0.341
-208.450	508.533	-0.195	0.446
-207.436	-22.441	0.201	0.120
-206.421	-6.586	-0.193	-0.129
-205.406	127.525	0.090	0.113
-204.392	-109.151	0.217	0.045
-203.377	-114.049	0.297	0.057
-202.363	16.514	0.243	-0.189
-201.348	800.000	-0.066	-0.285
-200.333	161.548	-0.049	0.067
-199.319	-62.936	0.045	0.018
-198.304	39.499	-0.172	-0.152
-197.290	800.000	0.067	0.225
-196.275	101.588	0.157	-0.180
-195.260	-38.769	0.262	-0.136
-194.246	-200.000	-0.028	0.123
-193.231	-68.482	0.159	0.060
-192.217	-28.265	0.145	-0.082
-191.202	-123.063	0.251	-0.040
-190.187	131.127	-0.112	-0.142
-189.173	-200.000	0.030	-0.239
-188.158	2.511	0.107	0.076
-187.144	362.177	0.142	0.280
-186.129	42.421	0.159	0.142
-185.114	45.981	-0.191	-0.174
-184.100	-65.548	0.173	-0.068
-183.085	-138.767	-0.219	-0.024
-182.071	-12.415	-0.273	-0.175
-181.056	-115.631	0.333	0.061
-180.042	39.522	0.033	-0.029
-179.027	800.000	-0.056	0.173
-178.012	71.362	0.206	-0.210
-176.998	800.000	0.043	0.147
-175.983	470.490	-0.172	0.380
-174.969	-138.627	-0.144	-0.016
-173.954	496.987	0.087	0.196
-172.939	-200.000	0.045	0.245
-171.925	751.486	0.071	-0.188
-170.910	765.165	0.058	-0.155
-169.896	-14.641	0.267	-0.169
-168.881	800.000	0.083	0.283
-167.866	41.085	-0.262	0.232
-166.852	13.857	0.264	0.201
-165.837	618.041	-0.133	-0.328
-164.823	-200.000	-0.006	-0.284
-163.808	800.000	0.048	0.159
-162.793	800.000	-0.025	0.101
-161.779	800.000	-0.071	-0.296
-160.764	62.874	-0.100	0.098
-159.750	-200.000	0.001	-0.166
-158.735	15.516	0.235	0.181
-157.720	-88.470	-0.147	-0.043
-156.706	-47.471	-0.241	0.115
-155.691	89.889	-0.230	-0.252
-154.677	12.475	0.103	-0.078
-153.662	3.107	-0.198	0.141
-152.647	-104.127	-0.152	-0.035
-151.633	800.000	-0.072	0.236
-150.618	800.000	0.070	-0.229
-149.604	-102.613	0.096	0.022
-148.589	800.000	0.117	0.350
-147.574	-136.980	-0.343	0.039
-146.560	124.316	0.094	-0.116
-145.545	-83.055	-0.176	-0.056
-144.531	-13.100	0.553	0.352
-143.516	99.599	0.157	-0.178
-142.502	-200.000	-0.002	0.010
-141.487	-200.000	0.014	0.111
-140.472	-143.275	-0.076	-0.007
-139.458	69.383	0.231	0.234
-138.443	-28.025	0.341	0.194
-137.429	-160.601	0.377	0.020
-136.414	69.128	-0.056	0.057
-135.399	373.986	-0.159	0.318
-134.385	-60.803	-0.107	-0.044
-133.370	-77.745	0.444	0.151
-132.356	177.750	-0.116	-0.166
-131.341	-62.279	-0.258	-0.105
-130.326	-122.226	0.464	-0.074
-129.312	-12.053	-0.007	-0.005
-128.297	68.410	0.085	-0.086
-127.283	21.129	0.052	0.042
-126.268	54.157	0.275	0.260
-125.253	96.625	0.095	-0.106
-124.239	-25.102	-0.209	0.122
-123.224	83.060	-0.056	-0.060
-122.210	-5.589	0.203	0.137
-121.195	46.269	-0.269	0.245
