DTS Sentinel unit serial number:	SN413079Multiplexer serial number:	ORYXHardware model number:	OX4-SRSoftware version number:	ORYX F/W v4.00 Oryx Data Collector v3.7.2.0data status	okinstallation	princeton_trtdifferential loss correction	single-endedforward channel	channel 1reverse channel	N/Adate	2019/09/11time	19:52:11forward acquisition time	60.00reverse acquisition time	0.00gamma	496.2192k internal	0.2300k external	0.2300temperature offset calibration	1.0033default loss term (dB/km)	0.3790temperature slope calibration	1.0000multiplexer offset coefficient	1.0000multiplexer slope coefficient	1.0000fibre end	0.00T internal ref (°C)	39.19T ext. ref 1 (°C)	1.39T ext. ref 2 (°C)	32.12length (m)	temperature (°C)	Stokes	anti-Stokes-747.200	245.214	-0.167	0.286
-746.185	-164.074	0.211	-0.010
-745.171	800.000	0.090	-0.353
-744.156	164.513	0.048	-0.069
-743.142	-127.172	-0.191	0.028
-742.127	-90.225	0.035	-0.010
-741.112	800.000	-0.102	-0.374
-740.098	-0.980	-0.207	-0.150
-739.083	56.999	-0.200	-0.198
-738.069	-83.372	-0.316	0.103
-737.054	276.225	-0.022	-0.040
-736.039	-84.859	-0.358	0.115
-735.025	-97.673	0.254	-0.067
-734.010	24.155	-0.212	-0.179
-732.996	-200.000	-0.016	-0.223
-731.981	-124.683	-0.165	0.026
-730.966	-143.251	-0.160	-0.016
-729.952	-200.000	-0.060	-0.559
-728.937	-38.621	0.177	-0.095
-727.923	-18.308	0.075	0.048
-726.908	-41.005	0.101	-0.053
-725.894	652.657	-0.089	-0.233
-724.879	-100.650	0.379	0.095
-723.864	135.456	0.084	-0.111
-722.850	800.000	0.045	0.171
-721.835	305.178	0.034	-0.064
-720.821	-80.890	-0.020	-0.007
-719.806	-200.000	-0.008	0.309
-718.791	-140.165	-0.417	-0.045
-717.777	98.456	-0.013	-0.015
-716.762	-14.962	0.142	0.093
-715.748	-200.000	0.012	-0.215
-714.733	90.986	0.128	-0.146
-713.718	507.577	0.106	0.250
-712.704	8.429	0.187	0.143
-711.689	75.571	-0.088	0.094
-710.675	-23.980	0.336	0.204
-709.660	-100.109	-0.210	0.053
-708.645	-20.168	0.257	-0.161
-707.631	-123.736	0.170	-0.027
-706.616	64.259	-0.100	0.103
-705.602	-116.298	0.282	0.053
-704.587	800.000	-0.179	-0.539
-703.572	-1.269	0.337	-0.243
-702.558	186.330	0.109	0.165
-701.543	112.192	0.093	-0.114
-700.529	-136.562	0.206	-0.024
-699.514	-94.574	-0.147	0.041
-698.499	377.140	-0.123	-0.257
-697.485	-200.000	-0.051	-0.358
-696.470	-153.716	0.182	0.013
-695.456	169.603	-0.119	-0.172
-694.441	-200.000	0.011	0.072
-693.426	-81.427	0.192	-0.064
-692.412	-67.313	-0.421	-0.169
-691.397	-47.673	-0.183	-0.091
-690.383	130.461	0.204	-0.267
-689.368	65.285	-0.247	-0.254
-688.354	-11.378	0.221	0.148
-687.339	54.975	0.128	0.125
-686.324	-200.000	0.035	0.327
-685.310	47.832	0.154	0.147
-684.295	779.680	0.058	0.160
-683.281	42.932	-0.093	-0.086
-682.266	18.354	-0.273	0.222
-681.251	-187.475	0.185	0.003
-680.237	34.813	0.302	0.269
-679.222	-36.454	-0.284	-0.155
-678.208	-79.851	0.231	0.079
-677.193	22.462	0.149	-0.124
-676.178	-200.000	-0.061	-0.275
-675.164	-55.154	-0.263	-0.120
-674.149	199.421	-0.128	-0.199
-673.135	-200.000	-0.027	-0.206
-672.120	8.816	0.063	0.048
-671.105	-43.350	-0.144	-0.074
-670.091	-147.693	0.210	0.018
-669.076	-200.000	-0.007	0.352
-668.062	662.538	0.134	0.350
-667.047	-160.882	-0.377	-0.020
-666.032	-200.000	-0.010	-0.053
-665.018	-200.000	0.060	0.415
-664.003	-138.038	0.209	0.024
-662.989	-200.000	0.005	-0.188
-661.974	31.809	-0.242	0.212
-660.959	-138.982	0.281	0.031
-659.945	46.382	0.174	0.164
-658.930	-108.598	-0.152	0.033
-657.916	-52.044	0.044	-0.021
-656.901	-19.038	0.204	-0.129
-655.886	80.444	-0.179	-0.196
-654.872	-200.000	-0.014	-0.214
-653.857	-200.000	-0.004	-0.266
-652.843	-48.726	0.023	-0.011
-651.828	800.000	-0.013	0.044
-650.814	-200.000	-0.000	0.061
-649.799	151.807	-0.165	-0.228
-648.784	-99.167	-0.199	0.051
-647.770	776.108	-0.130	-0.362
-646.755	-200.000	0.010	-0.048
-645.741	-63.208	0.082	-0.034
-644.726	-50.693	0.150	-0.072
-643.711	532.355	-0.032	-0.077
-642.697	-200.000	-0.010	-0.091
-641.682	-95.517	0.090	-0.024
-640.668	215.670	0.049	-0.079
-639.653	118.426	-0.086	0.107
-638.638	-200.000	0.005	-0.267
-637.624	800.000	-0.071	0.267
-636.609	31.562	-0.099	-0.086
-635.595	-7.623	-0.155	0.106
-634.580	-149.256	-0.299	-0.024
-633.565	-200.000	0.026	0.244
-632.551	-200.000	0.004	0.068
-631.536	25.009	0.038	-0.032
-630.522	-77.933	-0.538	-0.188
-629.507	584.628	0.070	-0.175
-628.492	209.781	-0.175	0.279
-627.478	-200.000	-0.024	0.292
-626.463	-200.000	0.003	0.323
-625.449	160.833	0.040	-0.057
-624.434	-97.186	-0.183	-0.049
-623.419	326.901	0.157	-0.306
-622.405	191.464	-0.101	0.154
-621.390	-181.259	-0.314	-0.006
-620.376	25.927	0.119	-0.100
-619.361	-200.000	-0.049	0.236
-618.346	-200.000	0.041	0.184
-617.332	352.369	0.095	0.191
-616.317	62.787	-0.212	0.215
-615.303	-200.000	0.014	-0.132
-614.288	148.520	0.242	-0.332
-613.273	-73.260	-0.239	0.089
-612.259	47.929	-0.107	0.101
-611.244	184.777	-0.143	-0.215
-610.230	-160.113	0.234	0.013
-609.215	67.511	0.215	0.223
-608.201	-25.242	0.083	0.050
-607.186	402.243	0.130	0.277
-606.171	-95.398	-0.353	-0.096
-605.157	-45.805	0.039	0.019
-604.142	-108.515	0.338	-0.074
-603.128	-200.000	-0.040	-0.286
-602.113	-75.601	0.194	-0.070
-601.098	-52.467	0.316	0.148
-600.084	247.727	-0.111	0.190
-599.069	151.586	-0.116	-0.161
-598.055	-200.000	0.017	0.229
-597.040	800.000	0.037	0.153
-596.025	-10.033	0.139	-0.094
-595.011	-16.309	-0.024	0.016
-593.996	35.129	0.057	-0.050
-592.982	127.302	0.139	-0.179
-591.967	-200.000	0.002	0.174
-590.952	-94.953	0.123	0.034
-589.938	741.644	-0.045	0.123
-588.923	-111.615	-0.073	0.015
-587.909	800.000	-0.046	0.167
-586.894	56.405	0.226	-0.222
-585.879	-28.505	-0.237	-0.138
-584.865	65.358	0.059	0.060
-583.850	-37.584	-0.211	0.114
-582.836	14.305	-0.079	-0.062
-581.821	118.448	0.080	-0.100
-580.806	117.344	-0.039	0.049
-579.792	155.750	-0.114	0.159
-578.777	-132.251	0.308	-0.040
-577.763	247.825	-0.089	-0.153
-576.748	112.184	-0.216	-0.264
-575.733	-20.440	-0.085	-0.053
-574.719	207.039	-0.054	0.085
-573.704	-53.916	0.203	0.094
-572.690	-81.975	0.074	-0.025
-571.675	43.699	-0.111	-0.103
-570.661	100.729	0.295	0.347
-569.646	800.000	0.013	-0.038
-568.631	182.496	-0.185	-0.277
-567.617	-23.183	-0.197	-0.120
-566.602	800.000	0.035	0.149
-565.588	-17.577	-0.135	-0.086
-564.573	-117.512	-0.288	-0.053
-563.558	-68.971	-0.245	0.095
-562.544	-60.095	0.102	0.044
-561.529	-15.385	0.103	-0.067
-560.515	-90.145	0.446	-0.132
-559.500	800.000	-0.049	0.188
-558.485	800.000	-0.066	0.250
-557.471	-56.475	0.177	0.079
-556.456	-94.229	-0.140	0.039
-555.442	-49.571	0.302	-0.145
-554.427	-117.262	0.115	-0.021
-553.412	30.068	-0.134	-0.116
-552.398	-37.029	0.120	-0.065
-551.383	-90.403	-0.180	-0.053
-550.369	202.172	-0.034	-0.054
-549.354	-200.000	0.008	0.113
-548.339	15.849	-0.083	-0.066
-547.325	404.703	0.059	0.125
-546.310	62.256	-0.191	-0.193
-545.296	626.352	-0.025	0.065
-544.281	160.808	0.048	-0.067
-543.266	589.797	0.160	-0.399
-542.252	105.172	0.124	-0.148
-541.237	-200.000	-0.007	0.095
-540.223	308.703	0.038	0.073
-539.208	60.948	-0.026	0.026
-538.193	-1.622	0.106	-0.076
-537.179	-200.000	0.010	0.391
-536.164	139.056	0.223	0.297
-535.150	-200.000	0.047	-0.303
-534.135	225.511	0.093	-0.152
-533.121	-2.654	0.167	-0.118
-532.106	155.854	0.069	-0.096
-531.091	672.313	0.073	-0.192
-530.077	-130.077	0.268	0.037
-529.062	-50.154	-0.411	0.197
-528.048	594.246	0.087	-0.217
-527.033	-142.897	-0.304	-0.030
-526.018	-49.699	-0.149	0.072
-525.004	-200.000	0.048	-0.533
-523.989	-188.632	-0.457	-0.006
-522.975	800.000	-0.030	0.110
-521.960	-154.049	0.150	-0.010
-520.945	-200.000	0.020	-0.297
-519.931	-69.502	0.197	0.076
-518.916	706.725	-0.089	-0.239
-517.902	-33.937	-0.094	-0.052
-516.887	666.388	0.063	-0.165
-515.872	-87.168	-0.239	0.074
-514.858	-3.998	0.118	-0.083
-513.843	545.436	0.068	0.165
-512.829	-51.726	-0.234	0.110
-511.814	126.035	-0.069	-0.088
-510.799	-200.000	0.044	0.279
-509.785	-200.000	0.015	0.424
-508.770	-200.000	-0.000	0.186
-507.756	110.662	0.043	0.053
-506.741	-55.726	-0.135	0.061
-505.726	-200.000	0.015	-0.077
-504.712	800.000	-0.102	-0.321
-503.697	800.000	-0.036	0.123
-502.683	-69.210	0.156	-0.061
-501.668	503.667	0.032	-0.076
-500.653	-36.267	0.447	-0.243
-499.639	-86.042	-0.319	0.100
-498.624	313.547	0.106	-0.201
-497.610	285.115	-0.056	-0.101
-496.595	-188.933	-0.073	0.001
-495.581	313.026	0.096	-0.182
-494.566	450.809	-0.074	-0.165
-493.551	-104.990	0.321	0.074
-492.537	323.479	-0.175	0.337
-491.522	-61.607	-0.150	-0.063
-490.508	-138.563	0.047	0.005
-489.493	800.000	-0.040	0.143
-488.478	749.504	0.004	-0.010
-487.464	103.072	0.264	0.313
-486.449	-73.835	0.393	0.144
-485.435	-11.089	-0.202	-0.134
-484.420	800.000	0.106	0.390
-483.405	652.604	0.095	0.245
-482.391	391.720	0.114	0.239
-481.376	-84.734	-0.173	0.055
-480.362	-200.000	-0.004	-0.079
-479.347	48.876	-0.068	-0.064
-478.332	235.652	0.021	-0.035
-477.318	-200.000	0.024	-0.137
-476.303	227.483	-0.226	-0.372
-475.289	8.372	0.139	-0.105
-474.274	36.322	-0.194	0.173
-473.259	214.121	-0.041	0.066
-472.245	547.207	0.146	0.351
-471.230	41.402	0.092	0.084
-470.216	-200.000	0.000	0.041
-469.201	2.122	-0.127	0.093
-468.186	-74.137	0.353	0.129
-467.172	566.302	-0.209	-0.512
-466.157	5.015	0.227	-0.169
-465.143	-174.272	-0.094	-0.003
-464.128	800.000	0.048	-0.179
-463.113	-200.000	0.039	-0.296
-462.099	69.616	-0.067	-0.070
-461.084	55.623	0.085	-0.083
-460.070	-144.204	0.320	-0.030
-459.055	-15.323	0.131	0.084
-458.040	-200.000	-0.011	-0.184
-457.026	156.476	-0.114	0.159
-456.011	-200.000	-0.017	0.109
-454.997	-95.472	-0.413	0.112
-453.982	-68.812	-0.320	0.125
-452.968	-200.000	0.025	-0.328
-451.953	-193.880	-0.228	0.002
-450.938	31.726	-0.189	0.164
-449.924	-119.014	0.157	-0.028
-448.909	-200.000	0.004	-0.064
-447.895	-95.820	-0.429	0.115
-446.880	-200.000	0.054	0.446
-445.865	217.249	-0.069	-0.110
-444.851	28.773	0.271	0.232
-443.836	800.000	0.052	0.166
-442.822	18.624	0.080	-0.064
-441.807	-54.400	-0.237	0.108
-440.792	-200.000	-0.002	0.348
-439.778	539.901	0.065	0.156
-438.763	-21.920	-0.396	0.243
-437.749	-152.567	0.363	-0.026
-436.734	-200.000	-0.003	-0.074
-435.719	133.509	0.107	-0.139
-434.705	-57.226	-0.268	-0.119
-433.690	-167.984	0.226	0.009
-432.676	-200.000	0.010	-0.088
-431.661	-139.494	-0.194	-0.021
-430.646	-200.000	0.016	0.156
-429.632	639.909	-0.083	0.214
-428.617	37.021	0.083	0.074
-427.603	-139.316	0.210	0.023
-426.588	-200.000	0.002	0.058
-425.573	-172.109	-0.288	-0.009
-424.559	-191.519	0.346	0.003
-423.544	-200.000	0.001	-0.263
-422.530	164.570	-0.057	-0.080
-421.515	75.550	-0.065	0.069
-420.500	8.209	0.130	0.098
-419.486	168.327	-0.070	-0.100
-418.471	63.550	0.081	-0.082
-417.457	800.000	0.065	0.241
-416.442	278.403	0.049	0.088
-415.428	800.000	0.044	-0.126
-414.413	800.000	-0.075	0.245
-413.398	-58.459	-0.351	-0.154
-412.384	23.156	-0.131	-0.108
-411.369	-4.353	-0.189	0.132
-410.355	800.000	-0.099	-0.388
-409.340	-139.836	0.043	-0.005
-408.325	-75.740	0.209	-0.075
-407.311	174.569	0.215	0.313
-406.296	-102.379	0.082	0.020
-405.282	12.244	0.303	0.235
-404.267	-76.455	-0.178	-0.063
-403.252	29.596	0.125	-0.107
-402.238	15.219	-0.303	-0.239
-401.223	-16.284	0.081	-0.052
-400.209	800.000	0.032	-0.106
-399.194	122.228	0.238	-0.300
-398.179	-10.057	0.200	-0.133
-397.165	-117.729	-0.303	0.055
-396.150	569.703	0.019	-0.047
-395.136	-66.655	0.057	0.023
-394.121	142.367	-0.125	-0.167
-393.106	290.786	0.093	-0.170
-392.092	155.673	0.236	0.328
-391.077	-109.155	0.232	0.050
-390.063	-118.345	-0.154	0.028
-389.048	640.261	0.157	-0.403
-388.033	-110.796	-0.170	0.035
-387.019	-31.360	0.023	-0.013
-386.004	219.692	-0.065	0.104
-384.990	131.637	-0.130	-0.169
-383.975	-70.473	0.232	0.088
-382.960	800.000	-0.039	0.116
-381.946	800.000	0.109	0.304
-380.931	-200.000	-0.025	-0.242
-379.917	-57.384	-0.227	-0.100
-378.902	-200.000	0.007	0.184
-377.888	-200.000	-0.001	-0.147
-376.873	-189.473	0.013	0.000
-375.858	-92.238	0.123	-0.035
-374.844	-200.000	-0.000	-0.072
-373.829	156.016	0.138	-0.191
-372.815	570.477	0.104	0.255
-371.800	-73.094	-0.082	-0.030
-370.785	-200.000	-0.035	-0.262
-369.771	91.947	-0.042	-0.047
-368.756	-43.115	0.121	0.062
-367.742	5.891	0.048	-0.036
-366.727	495.438	-0.206	-0.475
-365.712	-200.000	0.009	0.076
-364.698	416.509	0.060	0.129
-363.683	-102.293	-0.141	0.034
-362.669	-16.243	0.046	0.029
-361.654	194.195	-0.287	0.437
-360.639	358.860	-0.196	0.394
-359.625	-200.000	-0.036	0.304
-358.610	-44.994	0.125	-0.063
-357.596	-198.001	-0.334	-0.002
-356.581	800.000	0.053	0.226
-355.566	-200.000	0.000	0.057
-354.552	-36.501	0.174	-0.094
-353.537	100.371	0.042	0.049
-352.523	-200.000	-0.017	-0.122
-351.508	-129.472	-0.455	-0.063
-350.493	45.148	-0.097	-0.089
-349.479	-9.743	-0.126	0.084
-348.464	-200.000	-0.016	0.161
-347.450	-200.000	0.030	0.279
-346.435	-141.780	-0.122	-0.012
-345.420	91.247	-0.090	-0.101
-344.406	90.342	0.201	0.226
-343.391	-200.000	-0.076	0.337
-342.377	-103.286	0.028	-0.007
-341.362	-27.079	0.133	-0.078
-340.348	189.788	0.120	-0.181
-339.333	-200.000	-0.002	0.054
-338.318	-200.000	0.030	0.207
-337.304	-43.780	0.071	-0.036
-336.289	-132.247	0.222	-0.029
-335.275	163.732	0.081	-0.115
-334.260	-200.000	0.027	0.207
-333.245	-200.000	-0.008	-0.048
-332.231	800.000	-0.060	0.227
-331.216	800.000	-0.045	-0.187
-330.202	-124.594	0.163	-0.025
-329.187	-200.000	-0.010	0.066
-328.172	339.721	0.005	0.010
-327.158	-99.446	0.137	0.035
-326.143	40.766	-0.277	-0.251
-325.129	-130.248	-0.065	0.009
-324.114	-33.448	0.197	-0.109
-323.099	-14.222	-0.053	0.034
-322.085	72.689	0.134	0.140
-321.070	-1.032	0.269	0.191
-320.056	-20.367	0.450	-0.278
-319.041	-200.000	0.030	0.160
-318.026	-85.367	0.166	-0.052
-317.012	-200.000	-0.099	-0.487
-315.997	276.829	0.035	-0.063
-314.983	474.763	0.106	-0.240
-313.968	709.158	-0.055	0.145
-312.953	718.681	-0.080	-0.212
-311.939	-200.000	0.007	-0.163
-310.924	84.787	0.023	0.025
-309.910	382.886	0.178	-0.367
-308.895	136.742	-0.032	-0.042
-307.880	42.566	-0.274	0.250
-306.866	286.263	-0.133	0.240
-305.851	9.139	-0.284	0.215
-304.837	-200.000	-0.039	-0.257
-303.822	-99.118	-0.075	0.019
-302.807	364.405	0.081	-0.164
-301.793	31.693	0.094	-0.081
-300.778	-24.505	-0.161	-0.096
-299.764	-96.506	0.231	0.061
-298.749	-10.064	0.232	-0.154
-297.735	-84.385	0.247	0.078
-296.720	-66.100	0.273	0.109
-295.705	-48.302	0.278	-0.134
-294.691	-0.802	-0.133	0.095
-293.676	800.000	-0.032	-0.127
-292.662	-86.016	-0.141	-0.044
-291.647	-200.000	-0.018	-0.156
-290.632	-85.135	-0.446	-0.140
-289.618	-79.790	0.230	-0.078
-288.603	-200.000	-0.004	0.083
-287.589	111.120	-0.113	0.137
-286.574	239.179	0.182	-0.303
-285.559	20.847	0.112	-0.091
-284.545	-9.041	-0.123	0.083
-283.530	-200.000	-0.028	-0.175
-282.516	-96.051	0.279	-0.074
-281.501	322.096	0.208	-0.397
-280.486	-136.230	0.007	0.001
-279.472	5.768	0.020	-0.015
-278.457	-72.987	-0.259	-0.095
-277.443	-80.623	0.238	0.079
-276.428	-200.000	0.046	-0.271
-275.413	-200.000	0.017	0.135
-274.399	800.000	0.044	-0.180
-273.384	43.357	0.190	0.173
-272.370	-200.000	0.024	-0.261
-271.355	109.032	-0.135	0.162
-270.340	593.058	0.054	-0.133
-269.326	-200.000	-0.017	0.078
-268.311	-57.645	0.143	0.063
-267.297	800.000	-0.098	-0.375
-266.282	603.069	-0.105	-0.262
-265.267	-63.630	0.196	-0.080
-264.253	236.184	0.058	0.097
-263.238	-200.000	-0.010	-0.312
-262.224	-147.924	-0.378	-0.032
-261.209	800.000	0.087	0.287
-260.195	-76.415	-0.236	0.083
-259.180	-200.000	0.016	0.322
-258.165	-200.000	-0.084	0.379
-257.151	71.633	0.125	-0.130
-256.136	800.000	0.062	-0.214
-255.122	43.791	-0.082	0.075
-254.107	189.769	-0.134	0.202
-253.092	206.262	0.096	0.149
-252.078	800.000	-0.040	-0.114
-251.063	292.034	0.039	-0.071
-250.049	800.000	-0.063	-0.178
-249.034	96.346	0.198	-0.226
-248.019	737.307	-0.071	-0.191
-247.005	327.419	0.088	0.169
-245.990	-200.000	0.003	0.164
-244.976	439.284	-0.030	-0.066
-243.961	477.581	0.093	0.210
-242.946	-152.510	0.180	0.013
-241.932	-89.274	-0.180	0.053
-240.917	622.500	0.121	-0.305
-239.903	-97.275	0.280	0.073
-238.888	-124.145	0.250	-0.039
-237.873	-122.216	0.381	-0.062
-236.859	-135.017	-0.133	-0.016
-235.844	50.186	0.091	0.085
-234.830	-126.141	0.207	0.031
-233.815	-100.279	-0.371	0.092
-232.800	-3.303	-0.336	-0.234
-231.786	-200.000	0.007	-0.075
-230.771	-35.246	-0.028	0.015
-229.757	-200.000	0.047	-0.406
-228.742	71.177	-0.194	-0.201
-227.727	-200.000	0.299	0.000
-226.713	139.469	-0.104	-0.137
-225.698	-118.968	0.233	-0.041
-224.684	-200.000	-0.039	-0.254
-223.669	800.000	-0.050	-0.172
-222.655	-200.000	-0.029	0.226
-221.640	-200.000	-0.001	0.025
-220.625	-35.668	0.125	0.068
-219.611	247.997	0.096	-0.162
-218.596	-200.000	0.008	0.107
-217.582	337.640	0.064	0.124
-216.567	-47.598	-0.205	-0.100
-215.552	-18.006	0.279	-0.175
-214.538	8.215	0.162	0.122
-213.523	-13.435	0.146	-0.095
-212.509	-78.095	-0.310	-0.106
-211.494	-0.740	-0.220	0.156
-210.479	800.000	-0.039	-0.120
-209.465	698.566	-0.074	-0.195
-208.450	-200.000	-0.037	-0.246
-207.436	-59.901	0.299	0.128
-206.421	-21.612	-0.173	-0.105
-205.406	-88.272	0.142	-0.043
-204.392	253.812	-0.075	0.128
-203.377	800.000	0.032	0.132
-202.363	800.000	0.082	0.356
-201.348	191.313	-0.087	0.130
-200.333	66.590	0.176	0.178
-199.319	461.514	-0.136	0.303
-198.304	-54.704	0.035	-0.016
-197.290	-49.654	0.162	-0.077
-196.275	753.462	-0.033	-0.089
-195.260	410.948	0.108	-0.228
-194.246	-200.000	-0.005	0.270
-193.231	-200.000	0.015	0.141
-192.217	14.339	-0.187	0.145
-191.202	149.777	0.203	0.275
-190.187	-200.000	-0.022	-0.169
-189.173	419.848	0.100	-0.214
-188.158	201.657	-0.126	0.194
-187.144	74.172	-0.258	0.270
-186.129	-19.650	-0.187	0.115
-185.114	-200.000	-0.001	0.155
-184.100	-13.688	-0.204	-0.131
-183.085	356.176	-0.029	-0.058
-182.071	86.437	0.207	0.228
-181.056	-200.000	0.053	0.000
-180.042	216.015	-0.172	0.272
-179.027	79.287	0.071	0.076
-178.012	370.791	-0.159	0.322
-176.998	193.244	-0.138	0.209
-175.983	-113.806	-0.321	0.062
-174.969	-74.269	0.333	0.120
-173.954	-200.000	0.073	-0.367
-172.939	266.051	0.137	0.239
-171.925	328.703	-0.104	0.199
-170.910	-26.842	-0.177	-0.103
-169.896	-35.254	-0.343	0.186
-168.881	-28.231	0.446	0.257
-167.866	-11.218	-0.296	0.194
-166.852	600.796	0.025	-0.061
-165.837	800.000	-0.053	0.223
-164.823	-81.368	-0.375	0.123
-163.808	800.000	0.025	0.090
-162.793	-200.000	-0.066	-0.296
-161.779	153.628	0.048	-0.065
-160.764	-129.420	-0.082	0.011
-159.750	-101.436	-0.435	-0.106
-158.735	579.716	-0.020	0.050
-157.720	32.814	0.104	0.089
-156.706	-139.198	0.067	-0.007
-155.691	85.543	0.116	0.127
-154.677	70.003	-0.094	0.097
-153.662	-200.000	0.023	0.121
-152.647	-200.000	0.037	-0.236
-151.633	208.636	0.077	-0.119
-150.618	41.287	0.140	-0.126
-149.604	530.399	0.084	-0.197
-148.589	-102.526	0.259	-0.062
-147.574	46.027	-0.169	-0.156
-146.560	30.300	-0.142	-0.121
-145.545	464.452	0.053	-0.117
-144.531	-33.294	0.261	-0.144
-143.516	-111.653	0.356	-0.072
-142.502	-126.834	0.091	0.013
-141.487	-200.000	0.077	0.350
-140.472	327.936	0.073	0.140
-139.458	-200.000	0.015	0.433
-138.443	664.634	-0.031	0.080
-137.429	-97.391	0.057	-0.015
-136.414	178.767	-0.227	-0.330
-135.399	-11.740	-0.362	0.237
-134.385	-50.852	0.361	0.169
-133.370	-87.119	0.339	-0.103
-132.356	-200.000	-0.024	-0.304
-131.341	-93.948	-0.625	0.171
-130.326	244.386	0.141	0.236
-129.312	-91.839	0.201	-0.057
-128.297	282.429	-0.058	0.103
-127.283	-94.385	-0.112	-0.030
-126.268	-197.034	0.267	0.002
-125.253	800.000	0.081	-0.294
-124.239	625.571	-0.063	-0.157
-123.224	800.000	0.037	-0.151
-122.210	-200.000	0.050	-0.250
-121.195	375.056	-0.106	-0.216
