DTS Sentinel unit serial number:	SN413079Multiplexer serial number:	ORYXHardware model number:	OX4-SRSoftware version number:	ORYX F/W v4.00 Oryx Data Collector v3.7.2.0data status	okinstallation	princeton_trtdifferential loss correction	single-endedforward channel	channel 1reverse channel	N/Adate	2019/09/13time	16:38:35forward acquisition time	60.00reverse acquisition time	0.00gamma	496.2192k internal	0.2305k external	0.2305temperature offset calibration	1.0166default loss term (dB/km)	0.3790temperature slope calibration	1.0000multiplexer offset coefficient	1.0000multiplexer slope coefficient	1.0000fibre end	0.00T internal ref (°C)	35.05T ext. ref 1 (°C)	4.91T ext. ref 2 (°C)	29.73length (m)	temperature (°C)	Stokes	anti-Stokes-747.200	800.000	0.114	0.431
-746.185	-117.520	-0.527	0.097
-745.171	155.741	0.211	0.296
-744.156	273.629	0.049	-0.088
-743.142	-133.357	0.250	0.032
-742.127	406.158	-0.084	-0.180
-741.112	800.000	0.004	0.012
-740.098	423.402	0.109	-0.238
-739.083	277.788	-0.158	0.287
-738.069	399.308	-0.069	0.146
-737.054	543.075	0.104	0.252
-736.039	-200.000	0.004	-0.090
-735.025	-83.953	0.219	0.071
-734.010	-92.484	-0.052	0.015
-732.996	-106.346	-0.139	-0.032
-731.981	-99.534	-0.279	-0.071
-730.966	103.618	-0.096	0.115
-729.952	108.307	-0.224	-0.272
-728.937	465.707	-0.023	0.053
-727.923	-200.000	0.023	-0.194
-726.908	800.000	-0.053	-0.216
-725.894	-74.940	-0.256	-0.093
-724.879	-14.781	-0.188	0.123
-723.864	-200.000	0.008	0.090
-722.850	84.014	0.044	-0.049
-721.835	800.000	-0.060	-0.204
-720.821	-116.228	-0.149	-0.028
-719.806	-200.000	0.014	-0.328
-718.791	292.308	-0.112	0.207
-717.777	291.030	0.091	0.168
-716.762	-200.000	0.041	-0.271
-715.748	117.065	-0.187	-0.233
-714.733	-200.000	0.011	-0.344
-713.718	282.177	-0.121	0.220
-712.704	563.326	-0.145	-0.356
-711.689	35.931	-0.256	0.229
-710.675	383.618	0.195	0.408
-709.660	-100.168	-0.173	-0.044
-708.645	-66.158	-0.133	0.054
-707.631	6.647	-0.089	-0.067
-706.616	800.000	-0.056	-0.210
-705.602	742.946	-0.070	-0.190
-704.587	156.030	-0.072	-0.101
-703.572	-45.175	-0.178	0.090
-702.558	-200.000	0.022	-0.175
-701.543	-109.970	-0.282	-0.060
-700.529	-190.793	-0.442	0.005
-699.514	-59.348	0.177	0.077
-698.499	-68.606	0.164	-0.065
-697.485	-200.000	0.019	-0.116
-696.470	-83.697	-0.413	-0.134
-695.456	-166.516	-0.469	0.020
-694.441	-4.089	-0.151	-0.106
-693.426	20.254	-0.018	-0.014
-692.412	-200.000	-0.026	-0.143
-691.397	-116.339	-0.167	-0.031
-690.383	85.406	0.281	0.313
-689.368	-119.568	0.359	0.063
-688.354	13.871	-0.193	0.153
-687.339	-27.967	0.038	-0.022
-686.324	-200.000	0.056	-0.264
-685.310	-45.324	-0.087	-0.044
-684.295	30.354	-0.254	0.220
-683.281	-200.000	0.013	0.073
-682.266	70.925	0.247	0.259
-681.251	272.625	0.051	0.092
-680.237	-200.000	0.008	-0.088
-679.222	-102.061	-0.171	-0.042
-678.208	-97.333	-0.230	0.061
-677.193	-122.120	-0.160	0.027
-676.178	47.171	-0.159	0.150
-675.164	-86.946	-0.235	0.073
-674.149	-200.000	-0.237	-0.001
-673.135	800.000	-0.055	0.169
-672.120	-85.448	-0.275	-0.087
-671.105	-200.000	-0.001	0.084
-670.091	-120.948	-0.069	0.012
-669.076	-4.829	-0.068	0.047
-668.062	-200.000	0.037	-0.295
-667.047	11.050	-0.185	0.143
-666.032	41.715	0.199	0.183
-665.018	15.827	-0.186	-0.149
-664.003	59.143	-0.119	0.119
-662.989	25.245	-0.380	-0.321
-661.974	28.160	-0.102	0.088
-660.959	84.122	0.122	0.135
-659.945	347.497	-0.110	-0.220
-658.930	-104.762	-0.311	-0.073
-657.916	-128.652	-0.048	0.007
-656.901	-52.627	-0.232	0.109
-655.886	-200.000	-0.042	0.283
-654.872	1.603	-0.080	0.059
-653.857	-200.000	0.018	0.312
-652.843	800.000	0.054	-0.191
-651.828	800.000	-0.036	-0.137
-650.814	-101.816	-0.403	0.099
-649.799	-33.147	-0.119	-0.067
-648.784	-200.000	-0.003	-0.253
-647.770	-140.748	0.150	-0.016
-646.755	-200.000	0.055	-0.284
-645.741	24.462	-0.178	0.150
-644.726	38.768	-0.113	0.102
-643.711	-104.665	0.159	-0.037
-642.697	-200.000	-0.060	-0.305
-641.682	-7.189	-0.130	0.089
-640.668	443.825	-0.093	-0.208
-639.653	-156.595	0.514	0.032
-638.638	149.251	-0.219	-0.301
-637.624	-81.088	-0.100	0.034
-636.609	77.048	-0.257	-0.276
-635.595	-69.243	-0.198	-0.077
-634.580	78.534	0.116	-0.126
-633.565	-40.994	-0.479	-0.251
-632.551	-170.520	-0.067	-0.002
-631.536	54.011	0.271	-0.264
-630.522	65.119	-0.091	-0.093
-629.507	-200.000	-0.002	-0.179
-628.492	-200.000	-0.018	-0.317
-627.478	204.430	-0.086	0.135
-626.463	-99.291	0.198	-0.051
-625.449	-23.653	-0.122	0.074
-624.434	-200.000	0.019	0.103
-623.419	-99.949	0.391	-0.099
-622.405	18.594	0.093	-0.075
-621.390	-44.731	-0.266	0.135
-620.376	-200.000	-0.031	0.459
-619.361	-200.000	0.009	0.061
-618.346	215.141	0.044	0.071
-617.332	-36.491	0.100	0.055
-616.317	800.000	-0.069	0.222
-615.303	269.698	-0.167	-0.297
-614.288	-200.000	-0.010	0.201
-613.273	128.822	0.100	-0.130
-612.259	76.872	-0.243	-0.261
-611.244	133.719	-0.173	-0.227
-610.230	-50.674	0.287	0.137
-609.215	-46.306	0.197	-0.098
-608.201	-39.786	-0.251	-0.133
-607.186	16.749	-0.043	-0.034
-606.171	-3.085	0.047	0.033
-605.157	72.347	-0.119	-0.125
-604.142	90.761	0.244	-0.277
-603.128	800.000	-0.047	-0.167
-602.113	-62.762	0.128	0.054
-601.098	251.569	0.128	-0.220
-600.084	217.138	-0.247	0.399
-599.069	233.987	-0.120	0.201
-598.055	425.906	0.124	0.269
-597.040	-22.444	-0.107	-0.065
-596.025	46.238	-0.224	-0.210
-595.011	-200.000	-0.001	0.024
-593.996	-200.000	0.024	-0.310
-592.982	102.241	-0.176	-0.208
-591.967	-96.676	0.250	-0.067
-590.952	-200.000	0.010	0.142
-589.938	-63.582	-0.190	-0.079
-588.923	-200.000	0.042	0.284
-587.909	13.827	0.150	-0.118
-586.894	-44.920	-0.240	-0.121
-585.879	183.618	0.049	-0.074
-584.865	-42.038	-0.271	0.140
-583.850	8.162	0.058	0.044
-582.836	102.892	-0.364	0.431
-581.821	-81.166	0.042	-0.014
-580.806	-17.268	-0.387	0.247
-579.792	-67.170	-0.160	-0.064
-578.777	583.888	-0.052	-0.129
-577.763	72.919	-0.234	-0.247
-576.748	312.207	0.128	0.242
-575.733	575.285	0.126	0.310
-574.719	800.000	0.073	0.300
-573.704	327.009	0.093	-0.180
-572.690	8.804	-0.056	-0.043
-571.675	-87.647	-0.322	0.098
-570.661	241.612	-0.177	-0.299
-569.646	-11.698	0.056	-0.037
-568.631	183.742	0.024	0.036
-567.617	-114.368	0.160	0.031
-566.602	-47.358	0.108	0.053
-565.588	800.000	-0.076	0.287
-564.573	-42.126	-0.061	0.032
-563.558	362.972	0.136	0.275
-562.544	461.874	0.060	0.134
-561.529	84.571	-0.098	0.108
-560.515	-200.000	-0.006	0.051
-559.500	-200.000	-0.045	-0.288
-558.485	-96.074	0.293	-0.079
-557.471	-60.107	-0.363	0.156
-556.456	-15.362	-0.058	-0.037
-555.442	-99.372	0.441	-0.112
-554.427	-200.000	0.003	-0.072
-553.412	800.000	0.150	-0.435
-552.398	-200.000	0.040	0.257
-551.383	800.000	-0.036	-0.157
-550.369	-200.000	-0.038	-0.239
-549.354	-69.543	0.197	0.076
-548.339	-34.532	0.049	0.027
-547.325	800.000	0.037	-0.130
-546.310	29.879	-0.174	-0.149
-545.296	188.124	-0.120	0.182
-544.281	-87.720	-0.240	-0.073
-543.266	-63.503	-0.241	0.100
-542.252	-200.000	0.017	-0.191
-541.237	-200.000	0.011	-0.271
-540.223	466.404	-0.204	-0.461
-539.208	186.776	-0.099	-0.149
-538.193	2.178	0.208	0.152
-537.179	178.334	-0.087	-0.128
-536.164	68.281	-0.095	-0.098
-535.150	-117.085	0.237	-0.044
-534.135	-200.000	0.062	0.344
-533.121	40.771	-0.175	0.160
-532.106	86.569	0.152	0.169
-531.091	46.878	0.071	0.067
-530.077	800.000	0.061	-0.243
-529.062	0.967	-0.144	0.104
-528.048	152.795	0.305	-0.421
-527.033	171.690	-0.089	0.130
-526.018	-45.321	0.353	-0.177
-525.004	163.139	-0.076	0.108
-523.989	-99.940	0.036	-0.009
-522.975	-200.000	-0.035	-0.407
-521.960	645.538	0.033	0.084
-520.945	800.000	-0.143	-0.433
-519.931	485.431	-0.038	0.087
-518.916	-98.196	0.135	-0.035
-517.902	526.897	-0.078	0.185
-516.887	-200.000	0.014	-0.172
-515.872	33.335	0.508	-0.445
-514.858	12.722	0.099	-0.077
-513.843	800.000	-0.040	0.169
-512.829	-64.097	-0.130	-0.054
-511.814	-93.483	-0.174	-0.049
-510.799	103.747	0.057	0.068
-509.785	337.040	0.091	0.178
-508.770	-67.584	0.066	-0.026
-507.756	-200.000	-0.018	-0.358
-506.741	-15.266	-0.244	-0.158
-505.726	-200.000	-0.051	0.294
-504.712	445.270	0.049	0.108
-503.697	62.579	0.098	-0.098
-502.683	290.639	-0.106	-0.195
-501.668	800.000	-0.036	0.116
-500.653	105.938	-0.213	0.254
-499.639	791.252	-0.040	0.110
-498.624	800.000	-0.053	-0.201
-497.610	227.895	-0.130	0.213
-496.595	499.059	-0.121	0.281
-495.581	-86.041	-0.154	-0.048
-494.566	98.114	0.303	0.351
-493.551	93.478	0.251	0.286
-492.537	-66.734	0.042	-0.017
-491.522	-88.661	0.425	0.127
-490.508	216.458	0.113	-0.182
-489.493	-57.421	-0.115	-0.051
-488.478	69.713	0.119	-0.124
-487.464	426.574	0.139	-0.303
-486.449	-180.328	-0.536	0.011
-485.435	151.035	0.272	-0.373
-484.420	76.212	-0.088	-0.094
-483.405	-84.265	-0.094	0.030
-482.391	800.000	0.054	0.211
-481.376	-109.266	0.348	-0.074
-480.362	-200.000	-0.010	0.265
-479.347	-19.664	0.233	0.145
-478.332	295.989	-0.093	0.172
-477.318	229.807	0.111	0.182
-476.303	800.000	0.080	-0.230
-475.289	583.540	-0.081	-0.200
-474.274	-4.925	-0.222	0.154
-473.259	-200.000	-0.088	-0.457
-472.245	12.458	0.054	0.042
-471.230	76.945	-0.169	-0.180
-470.216	-200.000	-0.025	0.215
-469.201	-200.000	0.040	0.436
-468.186	69.043	0.081	-0.084
-467.172	39.762	-0.252	-0.228
-466.157	-147.265	0.201	0.017
-465.143	372.392	0.125	0.257
-464.128	-200.000	-0.000	-0.212
-463.113	46.271	0.272	-0.254
-462.099	-65.010	0.152	-0.062
-461.084	-41.724	0.244	0.126
-460.070	-96.537	0.170	0.045
-459.055	-122.768	-0.190	-0.031
-458.040	-138.462	0.143	-0.016
-457.026	72.189	0.114	-0.120
-456.011	460.599	-0.076	-0.170
-454.997	-34.774	-0.205	0.113
-453.982	-200.000	0.043	-0.303
-452.968	-127.309	-0.297	0.044
-451.953	159.464	-0.192	-0.269
-450.938	800.000	-0.138	-0.468
-449.924	-96.508	-0.065	0.017
-448.909	39.543	-0.366	0.330
-447.895	-38.107	0.081	-0.043
-446.880	780.599	-0.055	0.151
-445.865	361.912	-0.049	0.099
-444.851	-50.086	-0.070	0.033
-443.836	101.607	0.284	0.333
-442.822	-109.967	-0.119	-0.025
-441.807	-200.000	-0.013	-0.139
-440.792	-42.599	0.281	0.144
-439.778	-76.907	0.121	-0.043
-438.763	79.573	-0.204	0.220
-437.749	30.611	-0.204	-0.176
-436.734	-158.091	-0.063	0.004
-435.719	-45.363	0.373	0.186
-434.705	753.221	0.158	0.430
-433.690	-92.213	0.032	0.009
-432.676	-200.000	-0.028	0.160
-431.661	800.000	-0.119	-0.353
-430.646	-89.127	0.114	0.034
-429.632	-200.000	-0.035	0.283
-428.617	800.000	0.051	-0.184
-427.603	196.458	-0.132	-0.202
-426.588	-124.773	-0.394	-0.061
-425.573	43.233	0.083	0.076
-424.559	775.774	0.065	-0.178
-423.544	336.330	-0.116	-0.227
-422.530	431.644	0.039	-0.086
-421.515	198.983	-0.176	0.271
-420.500	-87.310	0.264	0.081
-419.486	-128.789	0.441	-0.062
-418.471	-200.000	0.004	-0.105
-417.457	541.447	0.147	-0.351
-416.442	-63.410	0.213	0.088
-415.428	74.776	0.037	0.039
-414.413	50.212	-0.143	0.135
-413.398	-200.000	-0.019	-0.137
-412.384	800.000	0.106	0.361
-411.369	-64.638	0.403	0.164
-410.355	-80.866	0.176	-0.059
-409.340	197.882	-0.184	0.283
-408.325	129.576	-0.074	0.095
-407.311	594.657	-0.103	0.255
-406.296	-200.000	0.020	-0.097
-405.282	-79.741	-0.164	-0.056
-404.267	-122.304	0.253	-0.042
-403.252	318.477	-0.045	-0.085
-402.238	650.998	0.057	0.147
-401.223	255.158	-0.107	-0.185
-400.209	32.944	0.318	0.276
-399.194	-200.000	0.053	0.257
-398.179	-155.904	0.399	-0.026
-397.165	2.763	-0.363	-0.265
-396.150	-113.615	-0.187	-0.037
-395.136	-200.000	0.016	0.208
-394.121	-18.890	-0.409	-0.255
-393.106	-116.683	-0.022	-0.004
-392.092	574.438	-0.084	0.207
-391.077	240.697	0.198	0.331
-390.063	70.449	0.083	0.086
-389.048	-119.118	-0.064	0.011
-388.033	-38.392	-0.114	0.061
-387.019	-13.842	-0.099	-0.064
-386.004	47.114	0.125	0.117
-384.990	-200.000	-0.001	0.225
-383.975	13.880	-0.093	0.073
-382.960	-56.620	-0.251	-0.111
-381.946	501.849	-0.099	-0.229
-380.931	-66.880	0.065	-0.026
-379.917	29.333	-0.095	-0.081
-378.902	164.513	-0.139	0.197
-377.888	-16.662	-0.160	0.102
-376.873	-200.000	0.004	-0.134
-375.858	-147.207	-0.392	-0.034
-374.844	79.472	0.423	0.455
-373.829	210.302	-0.233	-0.367
-372.815	24.093	-0.146	0.121
-371.800	62.061	0.097	0.097
-370.785	-200.000	-0.001	0.167
-369.771	-9.304	0.118	0.079
-368.756	-200.000	-0.006	0.217
-367.742	-200.000	0.035	-0.190
-366.727	-200.000	-0.032	0.302
-365.712	-200.000	-0.020	0.271
-364.698	-95.871	0.613	-0.164
-363.683	-7.211	0.332	0.226
-362.669	-105.135	-0.092	0.021
-361.654	-96.029	-0.246	0.066
-360.639	87.475	0.164	0.182
-359.625	34.857	0.293	0.257
-358.610	-82.961	-0.162	0.052
-357.596	795.768	-0.128	-0.354
-356.581	800.000	0.067	-0.236
-355.566	284.323	-0.101	0.181
-354.552	7.993	0.113	0.085
-353.537	181.032	0.131	0.192
-352.523	160.981	-0.117	-0.164
-351.508	-126.565	-0.159	0.024
-350.493	-19.282	-0.155	0.096
-349.479	-42.361	0.324	0.166
-348.464	-200.000	-0.056	0.249
-347.450	-23.063	0.155	0.093
-346.435	-200.000	-0.009	0.459
-345.420	800.000	0.127	0.398
-344.406	345.156	0.095	0.187
-343.391	800.000	0.070	-0.227
-342.377	-200.000	0.098	-0.490
-341.362	249.039	0.167	-0.283
-340.348	345.171	-0.125	-0.246
-339.333	-200.000	0.018	0.249
-338.318	223.020	0.114	0.184
-337.304	-97.771	0.226	-0.059
-336.289	-128.299	-0.213	-0.030
-335.275	297.045	-0.050	0.091
-334.260	-72.362	-0.227	-0.084
-333.245	-165.112	0.227	-0.010
-332.231	800.000	0.090	0.279
-331.216	36.143	0.029	0.025
-330.202	648.584	0.114	-0.292
-329.187	-200.000	0.024	0.319
-328.172	-60.717	0.257	-0.109
-327.158	-105.066	0.176	-0.040
-326.143	-81.891	0.291	-0.095
-325.129	40.057	-0.293	-0.264
-324.114	102.017	-0.199	-0.233
-323.099	20.236	-0.047	-0.038
-322.085	606.548	0.045	-0.112
-321.070	31.457	-0.108	-0.093
-320.056	-200.000	0.015	0.571
-319.041	505.786	-0.136	0.316
-318.026	-95.190	0.186	-0.050
-317.012	186.776	0.238	-0.355
-315.997	-200.000	-0.063	-0.443
-314.983	30.745	0.037	-0.032
-313.968	-88.405	-0.548	0.164
-312.953	-122.807	-0.531	0.086
-311.939	143.371	0.054	0.072
-310.924	-137.550	-0.260	0.029
-309.910	-200.000	-0.010	-0.103
-308.895	110.354	-0.056	-0.067
-307.880	-200.000	-0.024	0.351
-306.866	-129.122	-0.504	0.070
-305.851	-81.162	-0.143	0.047
-304.837	-122.881	0.295	0.048
-303.822	97.111	-0.153	-0.175
-302.807	664.121	-0.057	0.147
-301.793	-57.601	0.322	-0.141
-300.778	39.520	0.158	-0.141
-299.764	-2.070	0.071	0.050
-298.749	-73.016	-0.102	-0.037
-297.735	208.650	0.123	0.193
-296.720	-79.280	-0.053	0.018
-295.705	-24.722	0.089	-0.053
-294.691	42.735	0.118	0.107
-293.676	-98.111	-0.068	-0.017
-292.662	800.000	0.040	0.165
-291.647	52.358	0.139	-0.132
-290.632	243.222	0.126	0.211
-289.618	-108.816	0.191	0.041
-288.603	-35.765	-0.272	-0.147
-287.589	-113.769	-0.235	-0.046
-286.574	214.554	-0.087	0.137
-285.559	-200.000	0.020	0.340
-284.545	581.068	0.107	-0.262
-283.530	-200.000	-0.001	-0.063
-282.516	-102.704	0.294	0.070
-281.501	-16.996	-0.230	0.145
-280.486	-200.000	0.039	-0.201
-279.472	60.377	0.055	-0.054
-278.457	-49.154	-0.182	-0.087
-277.443	-9.098	0.159	0.106
-276.428	-200.000	0.010	0.097
-275.413	44.021	-0.048	-0.044
-274.399	-90.193	0.140	-0.041
-273.384	-200.000	0.021	-0.287
-272.370	-200.000	-0.024	-0.147
-271.355	-27.013	-0.059	-0.035
-270.340	-118.511	0.210	-0.037
-269.326	-200.000	-0.002	0.186
-268.311	-66.861	-0.153	0.061
-267.297	-200.000	0.034	0.195
-266.282	-200.000	0.013	0.417
-265.267	-3.348	-0.062	-0.043
-264.253	106.299	0.037	-0.044
-263.238	394.396	0.177	-0.369
-262.224	-200.000	-0.034	-0.218
-261.209	-21.258	-0.319	-0.195
-260.195	105.002	-0.187	-0.221
-259.180	800.000	0.070	-0.220
-258.165	-73.506	-0.102	0.037
-257.151	9.290	-0.131	0.099
-256.136	-79.606	0.140	0.047
-255.122	116.404	0.028	-0.035
-254.107	-200.000	-0.017	-0.237
-253.092	-104.884	0.345	0.079
-252.078	-55.768	-0.090	0.040
-251.063	55.415	0.087	0.084
-250.049	-55.045	0.101	0.046
-249.034	-28.181	0.332	0.191
-248.019	-119.672	-0.496	-0.086
-247.005	-178.293	-0.051	0.001
-245.990	-173.029	0.091	-0.003
-244.976	-200.000	0.000	-0.014
-243.961	800.000	-0.105	-0.299
-242.946	484.999	0.118	0.269
-241.932	-144.477	-0.220	0.020
-240.917	377.311	-0.026	0.053
-239.903	21.697	-0.302	0.246
-238.888	-62.515	-0.273	0.113
-237.873	98.643	0.216	0.249
-236.859	-133.762	-0.227	-0.028
-235.844	-35.177	0.231	-0.125
-234.830	-23.883	-0.060	0.036
-233.815	-200.000	-0.008	0.159
-232.800	-57.868	0.428	0.187
-231.786	70.532	-0.154	0.159
-230.771	66.762	-0.095	-0.096
-229.757	203.385	0.125	-0.193
-228.742	800.000	-0.094	0.359
-227.727	800.000	0.088	0.250
-226.713	100.164	-0.015	0.018
-225.698	172.626	-0.177	-0.254
-224.684	210.192	0.060	0.093
-223.669	-102.546	0.200	0.048
-222.655	-200.000	0.033	0.151
-221.640	83.318	0.097	0.105
-220.625	-200.000	0.036	0.240
-219.611	-156.929	-0.138	-0.008
-218.596	-11.314	0.199	0.131
-217.582	800.000	-0.058	-0.175
-216.567	-84.112	0.039	-0.012
-215.552	178.187	-0.053	0.077
-214.538	138.119	0.072	0.094
-213.523	-39.608	0.011	0.006
-212.509	-81.416	-0.096	0.032
-211.494	800.000	-0.084	-0.253
-210.479	276.115	0.178	0.314
-209.465	129.782	-0.126	0.160
-208.450	221.285	0.079	-0.127
-207.436	-56.741	0.255	0.112
-206.421	70.915	0.243	-0.251
-205.406	-200.000	-0.084	-0.509
-204.392	-24.078	0.287	0.171
-203.377	-200.000	-0.020	-0.464
-202.363	800.000	0.136	0.382
-201.348	6.798	0.130	-0.097
-200.333	-136.494	0.120	-0.014
-199.319	61.052	0.053	-0.053
-198.304	212.096	-0.096	-0.150
-197.290	800.000	0.048	-0.154
-196.275	-57.603	-0.105	0.046
-195.260	-100.651	-0.351	-0.086
-194.246	-137.165	-0.194	-0.022
-193.231	596.190	-0.120	0.296
-192.217	-200.000	0.052	-0.239
-191.202	-47.144	0.311	0.151
-190.187	197.746	-0.024	0.036
-189.173	800.000	-0.008	0.023
-188.158	297.303	-0.130	0.237
-187.144	-108.470	-0.113	0.024
-186.129	-115.172	-0.389	-0.073
-185.114	77.451	0.150	-0.158
-184.100	800.000	-0.141	-0.433
-183.085	-40.295	0.198	-0.103
-182.071	-200.000	0.019	0.223
-181.056	-200.000	-0.020	0.361
-180.042	-179.658	-0.088	-0.002
-179.027	55.813	0.255	0.246
-178.012	-22.043	0.353	0.214
-176.998	-122.033	-0.125	0.020
-175.983	-200.000	-0.042	0.186
-174.969	-200.000	-0.166	0.000
-173.954	113.199	-0.242	-0.292
-172.939	-142.825	0.446	-0.043
-171.925	-104.367	0.064	-0.015
-170.910	-169.181	-0.250	0.009
-169.896	584.029	-0.126	-0.308
-168.881	-200.000	0.045	-0.244
-167.866	92.868	-0.190	-0.214
-166.852	-137.139	-0.400	0.045
-165.837	-24.502	0.090	-0.053
-164.823	331.223	-0.047	0.091
-163.808	119.812	0.159	-0.196
-162.793	-33.192	0.214	0.118
-161.779	-76.599	-0.242	0.084
-160.764	-53.127	0.245	0.112
-159.750	319.786	0.097	0.184
-158.735	-200.000	-0.004	0.093
-157.720	800.000	-0.084	0.276
-156.706	499.749	-0.089	-0.205
-155.691	-91.692	0.279	-0.079
-154.677	123.881	0.179	-0.223
-153.662	-200.000	0.004	0.088
-152.647	-115.170	0.228	-0.043
-151.633	451.777	-0.127	-0.278
-150.618	-140.717	0.068	-0.007
-149.604	-200.000	0.006	-0.142
-148.589	232.533	0.188	0.307
-147.574	-200.000	-0.028	0.243
-146.560	514.682	-0.023	-0.053
-145.545	-200.000	0.023	0.293
-144.531	-108.965	-0.140	0.030
-143.516	-45.718	-0.402	0.197
-142.502	-115.968	-0.195	-0.036
-141.487	-3.021	-0.285	0.198
-140.472	-47.168	-0.107	-0.052
-139.458	-18.877	-0.315	-0.195
-138.443	-106.548	0.135	0.030
-137.429	800.000	0.050	-0.150
-136.414	-81.515	0.052	0.017
-135.399	215.854	0.098	0.154
-134.385	139.508	0.043	-0.056
-133.370	-200.000	0.022	-0.221
-132.356	-36.879	0.238	0.127
-131.341	31.571	-0.145	-0.124
-130.326	57.164	-0.146	-0.141
-129.312	365.286	0.038	0.076
-128.297	46.559	0.192	0.177
-127.283	-15.100	-0.344	-0.219
-126.268	-188.081	0.082	0.001
-125.253	-200.000	-0.061	0.354
-124.239	-75.482	-0.178	0.063
-123.224	-64.806	0.146	-0.059
-122.210	593.168	-0.093	-0.227
-121.195	-200.000	0.021	0.147
