DTS Sentinel unit serial number:	SN413079Multiplexer serial number:	ORYXHardware model number:	OX4-SRSoftware version number:	ORYX F/W v4.00 Oryx Data Collector v3.7.2.0data status	okinstallation	princeton_trtdifferential loss correction	single-endedforward channel	channel 1reverse channel	N/Adate	2019/09/10time	21:04:12forward acquisition time	60.00reverse acquisition time	0.00gamma	496.2192k internal	0.2329k external	0.2329temperature offset calibration	0.9933default loss term (dB/km)	0.3790temperature slope calibration	1.0000multiplexer offset coefficient	1.0000multiplexer slope coefficient	1.0000fibre end	0.00T internal ref (°C)	31.56T ext. ref 1 (°C)	-0.32T ext. ref 2 (°C)	24.70length (m)	temperature (°C)	Stokes	anti-Stokes-747.200	-154.224	-0.208	-0.014
-746.185	-200.000	-0.013	0.280
-745.171	-118.294	0.102	-0.018
-744.156	-23.094	-0.249	0.151
-743.142	-85.494	-0.271	-0.085
-742.127	234.970	0.087	-0.144
-741.112	-91.297	-0.259	-0.075
-740.098	-200.000	-0.029	-0.166
-739.083	52.469	-0.083	0.080
-738.069	800.000	0.038	0.139
-737.054	800.000	0.034	-0.122
-736.039	54.031	-0.196	-0.190
-735.025	-55.699	0.213	-0.096
-734.010	-93.894	0.129	0.036
-732.996	-20.049	-0.122	-0.076
-731.981	-61.363	-0.416	-0.176
-730.966	426.374	0.055	0.119
-729.952	-35.358	-0.340	0.186
-728.937	-128.501	-0.356	0.051
-727.923	29.319	0.309	-0.264
-726.908	-73.650	-0.062	0.023
-725.894	134.898	-0.160	-0.209
-724.879	726.885	-0.092	0.247
-723.864	-200.000	-0.054	-0.263
-722.850	800.000	-0.055	-0.192
-721.835	-200.000	-0.047	-0.218
-720.821	800.000	0.102	-0.309
-719.806	9.612	-0.048	-0.037
-718.791	800.000	0.029	-0.088
-717.777	86.498	0.253	0.281
-716.762	-115.767	0.373	0.070
-715.748	166.265	-0.186	-0.265
-714.733	303.639	-0.123	-0.230
-713.718	-200.000	0.038	-0.176
-712.704	76.416	-0.142	-0.151
-711.689	153.448	0.097	-0.133
-710.675	-200.000	-0.033	0.174
-709.660	-187.896	0.196	0.003
-708.645	746.068	0.116	-0.315
-707.631	-200.000	0.011	-0.106
-706.616	800.000	-0.049	0.146
-705.602	-64.159	0.245	0.101
-704.587	-99.570	0.103	0.026
-703.572	-153.081	-0.115	-0.008
-702.558	284.597	0.119	-0.216
-701.543	-74.777	0.221	0.080
-700.529	-104.243	0.107	0.025
-699.514	271.839	-0.055	0.098
-698.499	-118.970	0.381	0.067
-697.485	480.627	-0.082	-0.187
-696.470	108.094	-0.144	-0.172
-695.456	111.256	-0.095	-0.115
-694.441	-158.681	0.253	-0.015
-693.426	2.726	-0.161	0.118
-692.412	-176.542	-0.210	0.005
-691.397	800.000	-0.103	0.338
-690.383	-123.505	-0.280	-0.045
-689.368	-200.000	0.067	-0.340
-688.354	-21.398	-0.209	0.128
-687.339	-152.302	-0.075	-0.005
-686.324	800.000	0.041	0.118
-685.310	-77.407	0.100	-0.035
-684.295	-12.134	-0.184	0.121
-683.281	-115.682	-0.214	0.040
-682.266	224.198	0.248	-0.403
-681.251	-39.513	0.519	-0.273
-680.237	-200.000	0.002	0.148
-679.222	-98.104	0.163	0.042
-678.208	-136.590	-0.334	0.039
-677.193	113.784	-0.179	-0.219
-676.178	-149.303	-0.038	0.003
-675.164	-69.731	-0.159	0.061
-674.149	-114.529	0.176	0.034
-673.135	-0.966	-0.136	0.097
-672.120	293.352	0.022	-0.040
-671.105	-2.900	0.160	-0.112
-670.091	-11.440	0.133	-0.088
-669.076	-200.000	0.018	0.212
-668.062	800.000	-0.037	-0.139
-667.047	-118.970	-0.238	-0.042
-666.032	14.045	-0.222	-0.173
-665.018	-200.000	0.006	-0.093
-664.003	-57.806	0.408	0.179
-662.989	-55.061	0.158	-0.072
-661.974	800.000	-0.057	0.167
-660.959	140.035	-0.246	-0.326
-659.945	-113.587	0.379	-0.074
-658.930	-198.326	0.403	-0.002
-657.916	-200.000	-0.021	-0.236
-656.901	800.000	0.065	0.234
-655.886	800.000	0.108	-0.432
-654.872	-95.290	-0.249	0.067
-653.857	-200.000	0.041	-0.209
-652.843	75.019	-0.194	-0.205
-651.828	-72.228	-0.207	-0.077
-650.814	112.855	-0.107	0.130
-649.799	-200.000	-0.021	0.112
-648.784	-83.990	-0.112	-0.036
-647.770	25.319	-0.145	-0.121
-646.755	-37.423	-0.363	-0.195
-645.741	-166.029	-0.262	-0.011
-644.726	-45.238	-0.143	0.071
-643.711	-137.863	0.317	-0.036
-642.697	98.437	0.186	-0.215
-641.682	-49.529	0.256	-0.122
-640.668	-200.000	0.023	-0.232
-639.653	-200.000	0.009	-0.127
-638.638	-64.655	0.291	-0.118
-637.624	6.578	-0.209	-0.156
-636.609	-165.562	0.168	0.007
-635.595	-200.000	-0.008	-0.056
-634.580	-195.396	0.215	-0.002
-633.565	248.920	-0.107	-0.182
-632.551	465.206	-0.065	-0.147
-631.536	180.884	-0.039	0.058
-630.522	348.724	-0.093	-0.184
-629.507	185.528	0.147	-0.219
-628.492	781.766	-0.065	0.178
-627.478	9.847	-0.248	0.189
-626.463	173.778	0.160	-0.231
-625.449	251.853	-0.142	0.243
-624.434	15.006	-0.167	0.131
-623.419	-63.615	-0.153	-0.063
-622.405	-104.914	-0.202	-0.046
-621.390	-200.000	0.013	0.066
-620.376	543.556	-0.074	0.177
-619.361	-72.456	0.052	-0.019
-618.346	-91.110	0.191	-0.055
-617.332	-133.025	-0.193	0.025
-616.317	800.000	0.036	-0.147
-615.303	-200.000	0.007	0.053
-614.288	290.460	0.128	-0.234
-613.273	-124.030	0.066	-0.010
-612.259	-13.658	-0.144	-0.093
-611.244	-200.000	0.012	-0.200
-610.230	-144.656	-0.147	-0.014
-609.215	-51.784	-0.272	-0.127
-608.201	152.946	-0.024	-0.033
-607.186	-17.259	-0.149	-0.094
-606.171	-200.000	0.052	-0.305
-605.157	-151.679	0.166	-0.012
-604.142	143.401	0.159	-0.213
-603.128	40.553	0.171	-0.155
-602.113	-46.824	0.297	-0.146
-601.098	800.000	-0.060	-0.224
-600.084	-153.200	0.087	0.006
-599.069	-200.000	-0.301	0.000
-598.055	-95.455	0.255	0.068
-597.040	-200.000	0.014	-0.110
-596.025	-187.456	-0.241	-0.003
-595.011	506.022	-0.160	0.370
-593.996	-142.916	-0.231	0.022
-592.982	800.000	0.112	0.416
-591.967	-105.875	-0.370	-0.084
-590.952	-200.000	0.045	-0.447
-589.938	33.093	-0.127	-0.110
-588.923	-200.000	-0.089	-0.403
-587.909	-46.756	-0.203	0.099
-586.894	-50.784	-0.176	0.083
-585.879	-36.381	0.252	-0.136
-584.865	707.791	-0.076	0.201
-583.850	77.643	0.118	-0.125
-582.836	73.363	0.127	-0.133
-581.821	253.402	0.068	0.117
-580.806	-106.215	-0.285	-0.064
-579.792	70.589	-0.208	0.216
-578.777	74.427	0.079	-0.083
-577.763	-200.000	0.037	-0.271
-576.748	-200.000	0.028	0.167
-575.733	-200.000	-0.018	-0.314
-574.719	-200.000	-0.000	-0.218
-573.704	-44.013	0.264	0.133
-572.690	259.403	-0.092	-0.158
-571.675	800.000	0.083	0.250
-570.661	800.000	-0.030	-0.127
-569.646	-43.870	-0.193	0.097
-568.631	54.041	-0.308	-0.296
-567.617	365.955	0.097	-0.196
-566.602	55.921	-0.094	-0.091
-565.588	87.604	0.295	0.326
-564.573	-22.071	0.078	-0.047
-563.558	-167.119	0.052	0.002
-562.544	578.503	0.085	0.208
-561.529	106.047	-0.163	0.193
-560.515	-200.000	-0.037	0.446
-559.500	-25.237	-0.072	-0.042
-558.485	271.105	-0.136	-0.240
-557.471	-116.169	-0.290	0.054
-556.456	84.810	-0.133	0.146
-555.442	800.000	0.019	-0.064
-554.427	489.633	0.192	-0.440
-553.412	230.413	-0.131	-0.214
-552.398	8.000	-0.042	0.032
-551.383	-64.391	0.095	0.039
-550.369	156.307	0.068	-0.094
-549.354	27.171	-0.097	0.082
-548.339	-200.000	0.003	0.103
-547.325	218.905	-0.105	-0.168
-546.310	382.006	-0.059	-0.120
-545.296	80.551	-0.085	-0.092
-544.281	-49.579	-0.212	0.101
-543.266	-200.000	-0.028	0.212
-542.252	146.074	0.052	-0.069
-541.237	-66.885	0.279	-0.110
-540.223	-200.000	0.004	-0.300
-539.208	-148.783	-0.189	0.015
-538.193	-179.353	-0.159	0.004
-537.179	-200.000	0.071	0.475
-536.164	800.000	0.049	0.144
-535.150	343.801	-0.079	0.154
-534.135	15.904	-0.201	-0.158
-533.121	-200.000	0.009	-0.268
-532.106	800.000	0.017	-0.075
-531.091	-200.000	0.018	0.132
-530.077	182.574	-0.148	0.218
-529.062	-61.748	0.364	0.152
-528.048	-14.008	0.184	-0.119
-527.033	-200.000	-0.028	-0.178
-526.018	-200.000	-0.016	-0.247
-525.004	121.000	0.081	0.101
-523.989	766.496	-0.080	-0.216
-522.975	-132.897	0.265	0.034
-521.960	800.000	-0.076	0.210
-520.945	237.741	-0.074	0.123
-519.931	-200.000	0.029	-0.193
-518.916	800.000	-0.048	-0.150
-517.902	-90.945	0.506	-0.145
-516.887	1.186	0.105	0.076
-515.872	-82.807	-0.018	-0.006
-514.858	231.237	0.041	-0.067
-513.843	-200.000	0.019	-0.221
-512.829	-155.584	0.195	0.013
-511.814	-116.937	-0.367	0.067
-510.799	-82.131	0.065	-0.021
-509.785	529.793	0.197	-0.464
-508.770	-30.993	0.151	-0.085
-507.756	-20.134	-0.283	-0.174
-506.741	-120.892	-0.288	-0.048
-505.726	-10.241	0.263	0.174
-504.712	167.595	0.055	0.078
-503.697	-137.590	0.315	-0.035
-502.683	81.450	0.077	0.083
-501.668	65.247	-0.021	-0.021
-500.653	71.714	0.063	0.066
-499.639	-129.297	-0.155	-0.022
-498.624	-200.000	-0.043	-0.237
-497.610	-56.693	0.111	0.049
-496.595	800.000	-0.225	0.758
-495.581	-85.966	-0.342	0.105
-494.566	-67.785	-0.328	0.128
-493.551	40.782	0.449	0.404
-492.537	-119.039	0.291	-0.051
-491.522	-200.000	-0.071	0.314
-490.508	-21.083	0.086	0.053
-489.493	771.429	0.085	0.232
-488.478	-17.509	-0.393	-0.247
-487.464	340.065	0.101	0.197
-486.449	1.247	-0.159	0.114
-485.435	-6.882	-0.149	0.101
-484.420	-127.707	-0.180	-0.026
-483.405	712.812	-0.232	-0.613
-482.391	-130.553	-0.394	-0.053
-481.376	-37.008	0.182	-0.097
-480.362	-74.124	0.360	-0.130
-479.347	45.792	-0.201	-0.185
-478.332	-177.876	-0.352	-0.008
-477.318	155.511	0.070	0.096
-476.303	234.402	0.094	-0.155
-475.289	47.594	0.271	-0.252
-474.274	-100.609	-0.151	0.037
-473.259	187.282	0.063	0.094
-472.245	121.592	0.270	0.335
-471.230	95.050	0.295	0.335
-470.216	393.383	0.222	-0.460
-469.201	-68.630	-0.083	0.032
-468.186	-200.000	0.043	0.208
-467.172	228.246	-0.238	0.386
-466.157	38.785	-0.105	-0.093
-465.143	-15.450	-0.282	0.179
-464.128	258.365	0.067	0.116
-463.113	375.534	-0.011	0.022
-462.099	-200.000	-0.011	0.153
-461.084	-103.707	-0.248	-0.058
-460.070	110.018	-0.115	0.138
-459.055	110.182	-0.145	-0.174
-458.040	-44.342	-0.306	-0.153
-457.026	-34.213	0.343	0.188
-456.011	-83.979	-0.140	0.044
-454.997	-35.589	0.213	-0.115
-453.982	-95.445	0.133	0.036
-452.968	-22.505	0.227	-0.137
-451.953	-61.072	-0.266	0.112
-450.938	-100.465	-0.187	-0.046
-449.924	218.922	0.238	0.379
-448.909	367.757	-0.078	-0.157
-447.895	-54.384	-0.441	0.199
-446.880	64.964	0.046	0.046
-445.865	-200.000	0.013	0.061
-444.851	671.267	-0.106	0.273
-443.836	-200.000	0.058	-0.377
-442.822	-124.982	-0.192	-0.029
-441.807	431.324	-0.124	-0.267
-440.792	85.239	-0.292	0.319
-439.778	-108.740	0.293	0.063
-438.763	40.736	0.035	-0.032
-437.749	27.109	-0.163	-0.136
-436.734	69.889	0.105	0.107
-435.719	48.774	-0.154	-0.144
-434.705	-200.000	0.048	0.262
-433.690	-200.000	0.066	-0.386
-432.676	288.097	-0.022	-0.040
-431.661	313.785	-0.103	0.193
-430.646	-64.214	0.327	-0.133
-429.632	-157.090	-0.141	-0.009
-428.617	-200.000	-0.047	0.382
-427.603	205.420	-0.178	0.275
-426.588	-80.898	-0.226	0.075
-425.573	-200.000	-0.002	0.037
-424.559	654.524	-0.123	-0.314
-423.544	116.741	0.104	-0.127
-422.530	-17.086	-0.086	-0.054
-421.515	-164.641	-0.319	-0.014
-420.500	800.000	-0.079	-0.217
-419.486	-32.060	0.084	-0.047
-418.471	52.501	-0.234	0.222
-417.457	-65.592	0.290	0.116
-416.442	121.265	0.080	0.099
-415.428	-154.926	-0.314	-0.021
-414.413	253.473	0.162	0.275
-413.398	-200.000	-0.007	0.038
-412.384	-148.886	0.112	-0.009
-411.369	-75.933	-0.480	0.169
-410.355	-1.523	-0.137	0.096
-409.340	-200.000	0.253	-0.001
-408.325	88.590	0.387	0.427
-407.311	-112.793	0.113	0.022
-406.296	-200.000	-0.054	0.314
-405.282	270.351	0.096	-0.167
-404.267	-142.949	-0.046	0.004
-403.252	84.436	0.134	0.146
-402.238	-95.917	-0.131	-0.035
-401.223	-92.037	0.070	-0.020
-400.209	-200.000	0.016	0.200
-399.194	-88.540	-0.178	-0.053
-398.179	-95.499	0.064	-0.017
-397.165	121.130	0.091	0.113
-396.150	1.104	-0.113	0.080
-395.136	-40.326	-0.265	0.137
-394.121	-49.496	0.171	-0.081
-393.106	-72.975	-0.244	0.089
-392.092	-14.768	-0.201	0.128
-391.077	139.016	0.166	-0.217
-390.063	58.108	-0.104	-0.101
-389.048	-200.000	-0.051	0.329
-388.033	66.146	-0.079	0.080
-387.019	-200.000	-0.014	-0.063
-386.004	-200.000	-0.007	-0.066
-384.990	56.899	0.413	-0.400
-383.975	800.000	-0.052	0.217
-382.960	800.000	0.036	0.103
-381.946	452.388	0.065	-0.142
-380.931	-52.170	0.177	-0.082
-379.917	142.274	0.124	0.164
-378.902	536.015	-0.074	0.174
-377.888	-200.000	0.000	0.327
-376.873	49.700	0.248	-0.232
-375.858	-3.535	0.223	0.154
-374.844	-200.000	0.015	0.322
-373.829	-170.672	-0.288	0.010
-372.815	-200.000	-0.016	-0.080
-371.800	311.428	-0.099	-0.185
-370.785	-148.239	0.320	-0.026
-369.771	-118.745	0.092	-0.016
-368.756	21.019	-0.130	-0.105
-367.742	800.000	0.035	0.117
-366.727	800.000	0.051	-0.176
-365.712	-73.224	0.168	-0.061
-364.698	-67.096	0.234	0.092
-363.683	213.381	0.059	-0.092
-362.669	-117.803	-0.051	0.009
-361.654	-200.000	-0.020	0.102
-360.639	-200.000	0.019	-0.129
-359.625	-181.361	-0.126	0.002
-358.610	131.623	0.082	-0.105
-357.596	-200.000	-0.022	-0.138
-356.581	112.042	-0.071	-0.085
-355.566	800.000	-0.225	-0.661
-354.552	-200.000	-0.070	0.341
-353.537	-82.660	-0.324	-0.104
-352.523	123.988	-0.233	0.290
-351.508	-120.034	0.184	-0.031
-350.493	48.764	-0.034	-0.031
-349.479	80.265	-0.190	0.203
-348.464	-125.929	0.123	-0.018
-347.450	-200.000	-0.002	-0.242
-346.435	73.474	-0.161	0.167
-345.420	-200.000	0.051	0.261
-344.406	14.972	-0.392	-0.304
-343.391	89.047	0.220	-0.243
-342.377	33.546	0.278	0.240
-341.362	-139.346	-0.217	-0.023
-340.348	490.162	-0.080	-0.182
-339.333	8.946	0.229	0.172
-338.318	-96.356	-0.142	-0.037
-337.304	-95.575	-0.328	0.087
-336.289	-19.436	-0.104	0.064
-335.275	-1.912	0.128	0.089
-334.260	800.000	-0.022	0.086
-333.245	-19.414	0.163	-0.100
-332.231	89.744	0.122	-0.135
-331.216	-0.687	0.145	0.102
-330.202	3.206	-0.166	-0.120
-329.187	-148.311	-0.385	0.031
-328.172	131.514	0.194	0.247
-327.158	-171.607	-0.134	0.004
-326.143	-200.000	0.032	-0.282
-325.129	-108.191	0.050	0.011
-324.114	-126.869	-0.275	0.040
-323.099	-118.736	0.208	0.036
-322.085	-200.000	0.056	0.284
-321.070	-33.168	-0.260	-0.143
-320.056	211.529	-0.094	-0.147
-319.041	17.777	-0.108	-0.085
-318.026	-200.000	-0.039	-0.314
-317.012	117.878	0.077	0.094
-315.997	-17.858	-0.036	-0.022
-314.983	-71.746	-0.175	0.065
-313.968	342.381	0.049	0.096
-312.953	7.076	0.208	0.153
-311.939	365.288	-0.100	-0.200
-310.924	563.833	-0.012	-0.028
-309.910	-138.964	0.200	-0.021
-308.895	31.913	-0.084	-0.071
-307.880	-7.737	0.279	-0.187
-306.866	495.392	0.131	-0.299
-305.851	635.279	-0.056	0.140
-304.837	138.796	-0.076	0.099
-303.822	-58.448	0.251	0.108
-302.807	800.000	-0.033	-0.109
-301.793	-130.395	0.436	-0.058
-300.778	684.160	-0.069	-0.178
-299.764	-154.903	0.069	0.004
-298.749	800.000	-0.080	0.299
-297.735	800.000	0.035	0.129
-296.720	-34.061	-0.112	-0.061
-295.705	53.312	-0.176	-0.167
-294.691	-72.836	-0.164	-0.060
-293.676	610.291	-0.037	-0.091
-292.662	-92.209	0.332	-0.093
-291.647	-41.942	-0.188	-0.096
-290.632	344.755	0.062	0.121
-289.618	-200.000	-0.036	-0.236
-288.603	-27.413	0.080	0.046
-287.589	-37.187	-0.144	-0.076
-286.574	-84.100	0.245	0.077
-285.559	789.562	-0.142	0.386
-284.545	-135.182	0.117	-0.014
-283.530	-200.000	-0.017	0.185
-282.516	-75.171	-0.059	-0.021
-281.501	-72.526	0.072	-0.026
-280.486	800.000	0.056	0.223
-279.472	-114.408	0.177	0.034
-278.457	29.222	0.255	0.214
-277.443	-79.376	-0.350	0.117
-276.428	13.761	-0.108	-0.083
-275.413	287.842	-0.132	0.236
-274.399	-200.000	0.040	0.236
-273.384	-34.477	-0.340	-0.184
-272.370	-200.000	0.022	-0.338
-271.355	-145.807	0.219	-0.019
-270.340	-200.000	0.000	0.005
-269.326	324.813	-0.096	-0.181
-268.311	189.883	0.049	-0.073
-267.297	31.524	0.199	-0.169
-266.282	461.020	0.167	0.367
-265.267	-7.197	0.324	0.218
-264.253	-89.171	0.228	-0.067
-263.238	135.892	0.097	0.125
-262.224	-53.059	-0.013	0.006
-261.209	106.015	0.046	0.054
-260.195	800.000	0.036	-0.098
-259.180	162.086	-0.042	-0.058
-258.165	445.122	-0.059	-0.127
-257.151	255.948	-0.134	-0.227
-256.136	-200.000	-0.001	0.037
-255.122	-157.538	0.128	0.008
-254.107	-74.731	0.422	0.150
-253.092	-132.404	-0.223	-0.028
-252.078	-62.963	0.131	-0.053
-251.063	-104.993	0.315	-0.071
-250.049	188.649	0.221	0.326
-249.034	-200.000	0.017	0.467
-248.019	-89.551	0.203	0.059
-247.005	800.000	-0.024	0.094
-245.990	63.177	0.181	0.179
-244.976	-200.000	0.016	-0.104
-243.961	51.377	0.236	-0.222
-242.946	67.075	0.229	-0.231
-241.932	273.317	-0.096	0.168
-240.917	163.366	0.157	-0.218
-239.903	468.054	0.167	0.370
-238.888	800.000	0.101	-0.333
-237.873	204.943	0.082	-0.126
-236.859	-200.000	0.040	0.228
-235.844	231.065	0.093	0.150
-234.830	184.531	0.201	-0.295
-233.815	-114.481	0.069	0.013
-232.800	-96.737	0.219	-0.057
-231.786	-56.086	0.215	-0.094
-230.771	82.857	-0.198	0.212
-229.757	-154.538	0.203	-0.013
-228.742	-200.000	0.011	-0.242
-227.727	738.163	0.057	0.151
-226.713	169.877	0.014	0.020
-225.698	702.378	-0.012	0.032
-224.684	-101.533	-0.240	-0.058
-223.669	-124.343	-0.164	0.025
-222.655	-116.375	0.318	0.058
-221.640	-64.841	-0.014	0.006
-220.625	-17.394	0.132	-0.082
-219.611	33.745	-0.271	0.233
-218.596	-141.332	0.319	0.032
-217.582	30.869	0.213	-0.180
-216.567	85.427	0.174	0.188
-215.552	-200.000	0.018	0.183
-214.538	-74.135	0.141	0.051
-213.523	-86.769	0.117	0.035
-212.509	-200.000	0.023	0.182
-211.494	111.910	0.243	-0.290
-210.479	530.722	-0.131	0.306
-209.465	-200.000	0.016	0.286
-208.450	-200.000	-0.375	0.000
-207.436	-84.862	-0.281	0.087
-206.421	-85.758	0.379	0.116
-205.406	475.793	0.079	0.175
-204.392	287.022	-0.068	0.121
-203.377	8.483	-0.064	-0.048
-202.363	800.000	-0.054	0.182
-201.348	423.753	0.085	0.180
-200.333	-7.833	0.340	0.226
-199.319	4.434	0.128	-0.093
-198.304	-54.510	0.303	-0.135
-197.290	-200.000	0.014	0.153
-196.275	800.000	-0.032	0.117
-195.260	673.428	0.069	-0.176
-194.246	-31.535	-0.318	-0.176
-193.231	350.194	-0.219	-0.428
-192.217	144.171	0.081	-0.107
-191.202	-15.911	0.297	0.187
-190.187	800.000	0.127	-0.391
-189.173	-73.309	0.332	0.120
-188.158	-135.603	0.215	-0.025
-187.144	364.080	0.120	-0.239
-186.129	348.476	0.203	0.394
-185.114	185.738	-0.069	0.102
-184.100	-26.731	-0.255	0.147
-183.085	-200.000	0.004	-0.127
-182.071	-46.601	-0.180	-0.087
-181.056	-105.074	-0.211	-0.048
-180.042	341.652	-0.046	0.089
-179.027	-115.930	-0.173	0.032
-178.012	-82.966	0.250	0.079
-176.998	-113.185	-0.498	0.097
-175.983	-51.952	-0.527	0.242
-174.969	-49.426	-0.064	0.030
-173.954	-59.791	-0.289	-0.122
-172.939	-152.056	0.138	0.010
-171.925	-139.302	0.168	-0.018
-170.910	31.473	0.115	-0.097
-169.896	-98.344	0.068	0.017
-168.881	-102.022	0.099	-0.024
-167.866	-42.878	-0.310	0.155
-166.852	546.153	-0.056	-0.131
-165.837	-44.206	0.073	-0.036
-164.823	296.615	-0.125	-0.227
-163.808	800.000	0.108	0.356
-162.793	-62.896	-0.144	0.059
-161.779	185.588	-0.122	0.178
-160.764	-21.264	0.329	0.198
-159.750	-200.000	-0.034	0.196
-158.735	-4.740	-0.087	-0.059
-157.720	-29.255	-0.312	0.176
-156.706	-200.000	0.018	-0.128
-155.691	800.000	0.045	-0.150
-154.677	-200.000	-0.097	-0.441
-153.662	-84.758	0.163	-0.051
-152.647	146.934	0.170	-0.225
-151.633	-200.000	0.096	-0.425
-150.618	15.323	-0.182	-0.140
-149.604	-144.196	-0.203	-0.019
-148.589	131.510	0.223	0.282
-147.574	800.000	-0.068	-0.274
-146.560	302.118	-0.053	-0.097
-145.545	-174.132	0.412	-0.012
-144.531	-200.000	-0.040	-0.195
-143.516	-93.027	-0.074	-0.020
-142.502	304.546	0.112	0.205
-141.487	-67.960	0.233	0.089
-140.472	-200.000	-0.013	-0.092
-139.458	-42.036	-0.328	-0.165
-138.443	800.000	-0.088	-0.255
-137.429	243.517	0.024	0.040
-136.414	43.823	-0.111	0.100
-135.399	-200.000	0.028	-0.198
-134.385	542.491	0.077	-0.181
-133.370	-115.741	0.237	-0.044
-132.356	63.242	0.110	-0.108
-131.341	64.190	0.435	-0.430
-130.326	8.453	-0.360	0.267
-129.312	-70.235	0.283	-0.106
-128.297	-178.573	0.238	-0.005
-127.283	800.000	0.117	0.326
-126.268	-140.074	0.293	0.030
-125.253	-184.440	0.174	-0.003
-124.239	800.000	-0.060	0.250
-123.224	-1.453	0.130	0.090
-122.210	360.938	0.217	-0.427
