DTS Sentinel unit serial number:	SN413079Multiplexer serial number:	ORYXHardware model number:	OX4-SRSoftware version number:	ORYX F/W v4.00 Oryx Data Collector v3.7.2.0data status	okinstallation	princeton_trtdifferential loss correction	single-endedforward channel	channel 1reverse channel	N/Adate	2019/09/17time	14:58:35forward acquisition time	60.00reverse acquisition time	0.00gamma	496.2192k internal	0.2295k external	0.2295temperature offset calibration	0.9969default loss term (dB/km)	0.3790temperature slope calibration	1.0000multiplexer offset coefficient	1.0000multiplexer slope coefficient	1.0000fibre end	0.00T internal ref (°C)	37.31T ext. ref 1 (°C)	0.39T ext. ref 2 (°C)	34.17length (m)	temperature (°C)	Stokes	anti-Stokes-747.200	-41.975	-0.286	0.150
-746.185	-21.046	0.213	0.133
-745.171	-141.439	0.171	-0.018
-744.156	-200.000	-0.025	0.178
-743.142	-200.000	0.016	0.222
-742.127	632.716	-0.142	0.367
-741.112	791.991	-0.100	-0.282
-740.098	500.826	-0.084	0.198
-739.083	-28.567	0.534	-0.314
-738.069	800.000	-0.057	0.184
-737.054	800.000	0.100	-0.443
-736.039	527.214	-0.092	-0.220
-735.025	-36.810	0.145	-0.080
-734.010	-155.036	-0.111	-0.007
-732.996	98.238	-0.169	-0.199
-731.981	-69.465	0.179	0.070
-730.966	378.578	0.121	-0.253
-729.952	-50.170	0.260	0.126
-728.937	-200.000	0.038	-0.177
-727.923	-200.000	-0.048	-0.265
-726.908	262.466	-0.197	0.349
-725.894	-200.000	-0.019	0.167
-724.879	491.684	0.108	0.252
-723.864	305.084	-0.153	0.291
-722.850	-127.224	-0.105	0.016
-721.835	-51.747	-0.070	0.033
-720.821	93.443	-0.261	0.302
-719.806	-45.383	-0.254	0.129
-718.791	70.270	0.294	-0.310
-717.777	-200.000	-0.051	0.242
-716.762	438.123	-0.050	0.112
-715.748	-48.107	-0.316	0.156
-714.733	20.786	-0.395	-0.327
-713.718	-55.075	0.411	0.189
-712.704	-200.000	0.018	-0.146
-711.689	-200.000	0.018	-0.177
-710.675	62.461	-0.139	0.141
-709.660	107.635	-0.174	-0.212
-708.645	800.000	-0.061	0.245
-707.631	-51.383	-0.171	-0.082
-706.616	-13.613	-0.189	0.125
-705.602	-200.000	0.008	0.189
-704.587	800.000	-0.041	-0.157
-703.572	-25.802	0.248	0.149
-702.558	-64.400	0.318	0.132
-701.543	57.271	-0.091	-0.091
-700.529	334.086	0.084	-0.166
-699.514	-50.474	0.063	0.030
-698.499	-200.000	0.019	-0.146
-697.485	-10.775	-0.070	-0.047
-696.470	-65.753	-0.259	-0.106
-695.456	-195.478	-0.117	0.001
-694.441	-145.595	0.202	-0.018
-693.426	800.000	0.036	0.102
-692.412	-200.000	0.034	-0.245
-691.397	289.549	-0.152	0.281
-690.383	585.134	0.094	0.236
-689.368	-200.000	-0.004	0.159
-688.354	-149.753	0.103	-0.008
-687.339	259.929	-0.202	0.356
-686.324	800.000	0.011	-0.036
-685.310	-109.114	0.183	-0.040
-684.295	800.000	-0.151	0.428
-683.281	565.321	-0.072	0.179
-682.266	-98.310	-0.356	-0.093
-681.251	389.563	-0.101	-0.213
-680.237	29.714	-0.127	-0.110
-679.222	800.000	-0.059	-0.218
-678.208	800.000	0.038	-0.164
-677.193	-90.930	-0.165	-0.048
-676.178	-63.333	0.194	-0.081
-675.164	-77.771	-0.337	-0.119
-674.149	-89.807	-0.184	0.055
-673.135	-200.000	-0.023	0.131
-672.120	252.203	-0.081	0.141
-671.105	-33.285	-0.257	0.145
-670.091	109.103	-0.046	-0.056
-669.076	-200.000	0.002	-0.126
-668.062	800.000	0.123	-0.356
-667.047	-75.939	0.211	0.076
-666.032	-141.040	-0.304	0.032
-665.018	562.891	0.027	-0.066
-664.003	-11.109	-0.128	-0.086
-662.989	-7.608	-0.153	-0.105
-661.974	196.541	0.261	-0.405
-660.959	-137.385	-0.152	-0.018
-659.945	43.048	0.070	-0.065
-658.930	-200.000	0.047	-0.219
-657.916	-37.462	-0.093	-0.051
-656.901	-200.000	-0.049	-0.226
-655.886	-126.174	0.328	0.050
-654.872	226.940	-0.091	0.150
-653.857	143.407	-0.245	-0.332
-652.843	-24.886	0.134	0.081
-651.828	238.785	-0.118	0.200
-650.814	-200.000	-0.065	-0.368
-649.799	58.012	0.130	-0.130
-648.784	264.432	-0.118	0.210
-647.770	-161.885	0.194	-0.010
-646.755	190.132	0.136	-0.208
-645.741	86.715	0.028	-0.032
-644.726	-89.270	-0.340	-0.102
-643.711	40.832	-0.196	0.180
-642.697	225.021	-0.166	0.274
-641.682	86.392	0.356	-0.399
-640.668	800.000	0.028	0.086
-639.653	268.155	-0.251	-0.447
-638.638	-66.474	0.177	-0.072
-637.624	112.291	-0.219	-0.269
-636.609	800.000	0.068	-0.273
-635.595	-200.000	-0.036	-0.494
-634.580	800.000	-0.042	-0.186
-633.565	117.013	-0.141	0.177
-632.551	-115.962	0.432	0.082
-631.536	175.521	-0.210	0.310
-630.522	79.216	0.217	-0.237
-629.507	263.498	-0.108	-0.192
-628.492	5.142	0.099	-0.074
-627.478	800.000	0.032	-0.120
-626.463	3.458	-0.305	-0.226
-625.449	-200.000	0.001	0.077
-624.434	202.175	-0.180	-0.282
-623.419	327.774	0.044	-0.086
-622.405	245.228	0.114	-0.194
-621.390	-75.107	-0.205	-0.074
-620.376	-200.000	-0.030	0.268
-619.361	-77.528	0.237	0.084
-618.346	-200.000	0.054	0.455
-617.332	510.632	-0.074	-0.175
-616.317	-200.000	0.017	-0.344
-615.303	-124.801	-0.433	0.068
-614.288	747.646	-0.102	-0.280
-613.273	-142.746	0.293	-0.029
-612.259	-16.756	-0.218	-0.140
-611.244	416.754	-0.075	-0.163
-610.230	43.000	0.058	0.054
-609.215	-94.635	0.123	-0.034
-608.201	-200.000	0.066	-0.379
-607.186	-200.000	-0.029	-0.248
-606.171	19.776	0.271	-0.221
-605.157	-20.185	0.157	0.099
-604.142	800.000	-0.064	-0.276
-603.128	-200.000	0.037	0.240
-602.113	635.297	-0.117	-0.302
-601.098	-133.328	-0.370	0.047
-600.084	-134.925	0.276	0.034
-599.069	-200.000	0.011	0.219
-598.055	4.715	-0.226	-0.169
-597.040	-200.000	0.013	-0.105
-596.025	86.584	-0.195	-0.218
-595.011	-146.420	0.218	-0.019
-593.996	-200.000	0.035	0.225
-592.982	-135.184	-0.194	-0.024
-591.967	-200.000	-0.074	-0.390
-590.952	104.481	-0.149	-0.178
-589.938	-200.000	0.042	0.237
-588.923	-200.000	0.013	0.088
-587.909	171.258	-0.116	-0.169
-586.894	800.000	0.111	0.347
-585.879	-101.261	-0.532	-0.132
-584.865	17.313	-0.141	0.113
-583.850	-42.787	-0.201	0.104
-582.836	-200.000	0.030	-0.189
-581.821	-16.428	0.074	-0.048
-580.806	647.707	0.065	0.170
-579.792	800.000	0.093	-0.390
-578.777	192.518	-0.111	0.170
-577.763	88.990	-0.070	0.079
-576.748	-200.000	-0.013	-0.090
-575.733	156.312	0.134	0.188
-574.719	97.522	0.087	0.102
-573.704	-200.000	-0.105	0.580
-572.690	-114.630	0.084	-0.016
-571.675	49.407	-0.184	-0.176
-570.661	444.787	-0.114	0.253
-569.646	-115.714	0.357	-0.068
-568.631	-200.000	0.053	0.241
-567.617	-87.709	-0.324	-0.099
-566.602	800.000	-0.048	-0.181
-565.588	51.093	-0.198	0.190
-564.573	120.241	0.184	-0.231
-563.558	-7.982	-0.197	-0.135
-562.544	-200.000	-0.006	0.332
-561.529	198.714	-0.124	-0.192
-560.515	-57.711	0.277	0.123
-559.500	-200.000	-0.041	0.209
-558.485	-200.000	0.011	-0.249
-557.471	-200.000	-0.008	0.121
-556.456	-56.689	-0.060	-0.027
-555.442	800.000	0.045	-0.164
-554.427	-200.000	-0.009	-0.314
-553.412	-14.605	-0.265	0.173
-552.398	-200.000	0.008	-0.140
-551.383	-31.482	-0.395	-0.225
-550.369	-154.605	-0.394	0.027
-549.354	138.997	0.158	-0.211
-548.339	-200.000	-0.044	0.241
-547.325	121.468	-0.152	0.192
-546.310	-200.000	-0.018	0.425
-545.296	800.000	-0.077	-0.259
-544.281	191.773	-0.215	-0.329
-543.266	-200.000	0.087	0.405
-542.252	320.292	0.098	-0.189
-541.237	-200.000	-0.004	-0.188
-540.223	-64.287	0.138	0.057
-539.208	-32.285	0.127	-0.072
-538.193	0.884	-0.166	0.121
-537.179	4.624	0.101	-0.075
-536.164	-200.000	-0.013	0.103
-535.150	263.323	0.050	0.088
-534.135	106.279	0.116	0.139
-533.121	-200.000	0.067	0.396
-532.106	106.680	-0.262	0.316
-531.091	120.320	0.177	0.223
-530.077	-102.279	0.220	-0.054
-529.062	-3.874	0.089	-0.063
-528.048	-182.808	0.109	-0.002
-527.033	-200.000	-0.041	-0.350
-526.018	800.000	-0.060	-0.255
-525.004	307.314	-0.134	-0.252
-523.989	-79.599	-0.152	0.052
-522.975	-161.483	-0.099	0.005
-521.960	202.792	0.156	-0.244
-520.945	-200.000	-0.004	-0.269
-519.931	-200.000	0.015	-0.212
-518.916	-158.296	-0.063	0.004
-517.902	101.051	-0.107	-0.127
-516.887	-121.894	-0.008	0.001
-515.872	64.855	-0.107	-0.109
-514.858	-120.256	-0.124	0.021
-513.843	56.564	-0.171	-0.169
-512.829	800.000	-0.048	-0.202
-511.814	-18.298	0.128	-0.081
-510.799	-200.000	-0.038	0.247
-509.785	-47.129	-0.473	-0.234
-508.770	-192.868	-0.276	-0.003
-507.756	490.175	0.031	-0.071
-506.741	111.801	-0.124	0.151
-505.726	-200.000	-0.039	0.218
-504.712	-117.749	-0.240	0.044
-503.697	-158.110	0.373	-0.022
-502.683	23.495	0.208	0.174
-501.668	58.609	-0.118	0.117
-500.653	-109.664	0.353	0.075
-499.639	365.916	0.134	0.274
-498.624	-200.000	0.046	-0.246
-497.610	196.842	-0.155	0.240
-496.595	-36.611	-0.086	0.047
-495.581	116.348	0.133	-0.165
-494.566	-11.800	-0.130	0.086
-493.551	-63.377	-0.132	0.055
-492.537	-83.714	-0.185	-0.060
-491.522	112.865	-0.175	0.214
-490.508	-68.512	-0.250	-0.098
-489.493	-102.101	-0.130	0.032
-488.478	-200.000	-0.012	0.145
-487.464	-200.000	-0.015	0.260
-486.449	61.446	-0.198	0.200
-485.435	100.604	0.016	0.019
-484.420	392.781	-0.196	-0.413
-483.405	-27.418	-0.159	0.094
-482.391	15.141	-0.207	-0.164
-481.376	-200.000	0.049	0.303
-480.362	2.978	-0.087	-0.064
-479.347	-100.094	-0.328	-0.083
-478.332	-124.410	0.452	-0.071
-477.318	-107.347	0.095	-0.021
-476.303	-200.000	0.016	-0.084
-475.289	-200.000	-0.011	-0.095
-474.274	-125.758	0.223	-0.034
-473.259	-82.510	-0.220	-0.072
-472.245	204.999	0.072	-0.113
-471.230	-173.601	0.218	0.007
-470.216	-41.362	-0.093	0.049
-469.201	223.869	0.159	-0.259
-468.186	295.175	-0.082	0.151
-467.172	417.440	0.047	-0.102
-466.157	-80.271	0.079	-0.027
-465.143	-48.423	-0.308	-0.150
-464.128	355.549	-0.049	-0.098
-463.113	-5.380	-0.163	-0.113
-462.099	800.000	0.076	0.295
-461.084	-200.000	0.010	-0.153
-460.070	-178.250	0.301	-0.007
-459.055	211.049	0.213	-0.338
-458.040	185.931	-0.122	-0.183
-457.026	96.084	0.134	-0.154
-456.011	163.228	-0.086	-0.123
-454.997	800.000	-0.055	-0.233
-453.982	-200.000	-0.001	-0.044
-452.968	70.246	0.145	0.151
-451.953	-80.465	0.140	-0.047
-450.938	411.542	-0.072	-0.154
-449.924	-2.505	-0.341	-0.241
-448.909	-47.307	0.073	-0.036
-447.895	48.675	-0.159	-0.151
-446.880	-200.000	-0.025	-0.119
-445.865	-32.536	-0.174	0.098
-444.851	51.900	0.173	-0.166
-443.836	-24.535	0.262	0.158
-442.822	120.310	0.019	0.024
-441.807	-200.000	-0.001	0.323
-440.792	-11.254	0.169	0.112
-439.778	-200.000	-0.026	0.179
-438.763	800.000	0.068	0.189
-437.749	-117.525	0.327	-0.060
-436.734	106.641	0.078	-0.093
-435.719	-42.554	-0.063	0.032
-434.705	277.912	0.088	-0.158
-433.690	159.117	0.057	0.080
-432.676	-50.408	-0.027	-0.013
-431.661	39.532	0.096	0.087
-430.646	-33.900	0.134	-0.074
-429.632	-137.707	-0.114	-0.013
-428.617	-94.336	0.139	0.038
-427.603	-200.000	-0.003	-0.108
-426.588	219.687	0.140	-0.226
-425.573	-124.217	0.246	0.039
-424.559	-200.000	0.050	-0.370
-423.544	-65.092	0.079	-0.032
-422.530	455.694	0.132	-0.296
-421.515	-120.500	0.059	0.010
-420.500	395.527	0.063	-0.132
-419.486	-96.755	0.190	-0.050
-418.471	-200.000	0.016	0.101
-417.457	714.493	0.040	0.107
-416.442	38.015	-0.149	-0.134
-415.428	-19.503	-0.124	-0.077
-414.413	-105.540	-0.140	-0.032
-413.398	-200.000	0.024	0.490
-412.384	96.596	0.137	-0.159
-411.369	800.000	-0.101	-0.316
-410.355	159.617	-0.322	-0.452
-409.340	-200.000	-0.042	0.329
-408.325	-25.953	0.214	-0.127
-407.311	-138.758	0.132	-0.015
-406.296	-200.000	-0.041	-0.258
-405.282	512.770	0.135	0.318
-404.267	153.432	-0.162	0.223
-403.252	-102.254	-0.331	0.080
-402.238	799.208	0.075	0.208
-401.223	-127.388	0.277	0.041
-400.209	469.396	0.064	-0.146
-399.194	691.089	-0.030	-0.078
-398.179	97.030	0.185	-0.214
-397.165	-102.046	-0.152	-0.037
-396.150	-70.140	0.165	0.063
-395.136	131.448	-0.191	0.248
-394.121	-115.889	-0.237	0.045
-393.106	800.000	-0.020	0.084
-392.092	785.512	0.091	-0.251
-391.077	-68.133	-0.099	0.039
-390.063	-115.173	-0.294	0.056
-389.048	-11.143	-0.132	0.088
-388.033	800.000	0.076	-0.243
-387.019	652.428	0.124	0.319
-386.004	38.803	-0.337	-0.303
-384.990	34.107	-0.278	-0.244
-383.975	-14.862	0.063	-0.041
-382.960	1.336	0.096	0.070
-381.946	196.863	0.194	-0.299
-380.931	428.274	-0.194	-0.423
-379.917	15.703	0.045	0.035
-378.902	-167.831	0.038	-0.001
-377.888	-200.000	-0.080	0.389
-376.873	-200.000	0.016	-0.148
-375.858	-74.168	0.346	0.126
-374.844	33.423	0.400	0.350
-373.829	-85.501	-0.132	0.041
-372.815	45.765	-0.079	-0.073
-371.800	58.548	-0.035	0.034
-370.785	369.921	-0.073	0.149
-369.771	534.158	-0.028	0.067
-368.756	-200.000	0.025	0.152
-367.742	116.589	-0.044	-0.054
-366.727	-90.951	0.460	-0.133
-365.712	149.831	-0.205	-0.280
-364.698	419.278	0.055	0.118
-363.683	361.151	-0.075	0.152
-362.669	88.721	-0.109	0.123
-361.654	-54.206	-0.185	0.085
-360.639	-9.236	0.264	-0.177
-359.625	-200.000	0.016	0.135
-358.610	-115.148	0.362	0.069
-357.596	-200.000	-0.018	-0.145
-356.581	-107.072	0.290	-0.064
-355.566	-200.000	-0.053	-0.259
-354.552	44.166	-0.073	-0.067
-353.537	503.566	-0.101	-0.236
-352.523	-200.000	-0.033	-0.365
-351.508	-200.000	0.001	-0.054
-350.493	-200.000	-0.008	-0.303
-349.479	-88.195	-0.266	-0.080
-348.464	-93.745	-0.154	-0.043
-347.450	239.237	0.072	-0.121
-346.435	37.764	-0.083	-0.074
-345.420	39.644	-0.345	0.311
-344.406	12.526	-0.255	0.198
-343.391	-164.658	-0.198	0.009
-342.377	-159.540	0.462	-0.026
-341.362	-89.647	-0.380	-0.112
-340.348	76.473	0.225	-0.240
-339.333	-200.000	-0.110	0.657
-338.318	-60.771	0.373	0.159
-337.304	97.505	0.138	-0.159
-336.289	-42.209	0.056	-0.029
-335.275	-11.681	-0.175	-0.116
-334.260	46.811	-0.067	-0.063
-333.245	-41.287	0.407	0.211
-332.231	-6.882	-0.416	0.285
-331.216	800.000	0.020	0.079
-330.202	-63.111	0.058	-0.024
-329.187	113.167	-0.039	0.047
-328.172	98.885	0.060	-0.070
-327.158	-122.261	-0.179	-0.029
-326.143	800.000	0.028	-0.085
-325.129	-18.462	-0.170	-0.107
-324.114	-43.416	0.107	-0.054
-323.099	-144.681	0.419	-0.039
-322.085	-75.498	-0.192	0.069
-321.070	246.754	0.204	0.346
-320.056	90.863	-0.397	-0.447
-319.041	-33.312	0.301	-0.168
-318.026	-100.642	-0.086	-0.021
-317.012	800.000	-0.077	-0.285
-315.997	-200.000	-0.014	-0.253
-314.983	-13.080	0.180	0.118
-313.968	800.000	-0.050	-0.203
-312.953	-108.867	-0.232	0.050
-311.939	518.530	-0.008	0.018
-310.924	496.935	-0.033	0.077
-309.910	740.819	-0.098	0.263
-308.895	800.000	-0.072	0.283
-307.880	252.602	-0.123	-0.211
-306.866	-200.000	0.063	0.279
-305.851	-38.012	-0.281	0.150
-304.837	800.000	0.133	0.436
-303.822	-200.000	-0.060	0.440
-302.807	800.000	-0.060	0.224
-301.793	-127.066	0.295	-0.044
-300.778	800.000	-0.009	-0.040
-299.764	107.875	0.181	-0.216
-298.749	130.196	0.069	-0.089
-297.735	205.394	0.078	0.122
-296.720	134.594	-0.079	0.103
-295.705	718.289	-0.016	0.043
-294.691	-65.921	0.171	0.069
-293.676	9.210	0.226	0.172
-292.662	-200.000	0.025	0.112
-291.647	-200.000	0.039	-0.236
-290.632	-200.000	-0.072	0.406
-289.618	-104.560	0.080	-0.019
-288.603	106.515	-0.083	-0.098
-287.589	149.019	-0.137	0.186
-286.574	-75.863	-0.302	0.108
-285.559	300.283	0.179	0.332
-284.545	204.250	0.113	0.175
-283.530	-82.717	0.182	-0.059
-282.516	-200.000	0.061	0.329
-281.501	-200.000	0.039	0.186
-280.486	279.305	0.178	-0.319
-279.472	119.648	0.193	-0.240
-278.457	10.220	0.322	-0.246
-277.443	-200.000	-0.004	-0.228
-276.428	164.292	-0.064	-0.090
-275.413	-200.000	-0.010	0.461
-274.399	800.000	-0.111	-0.345
-273.384	-93.299	-0.295	0.082
-272.370	-6.137	0.097	0.066
-271.355	9.977	-0.239	-0.182
-270.340	-75.376	-0.379	-0.135
-269.326	-139.102	-0.190	0.021
-268.311	-200.000	0.054	0.434
-267.297	693.969	-0.028	0.073
-266.282	-161.990	0.137	0.007
-265.267	-19.313	0.279	0.174
-264.253	-156.048	-0.055	0.003
-263.238	15.325	-0.249	0.196
-262.224	-36.126	-0.194	0.105
-261.209	-142.602	-0.051	0.005
-260.195	9.315	0.103	0.078
-259.180	-101.040	-0.162	0.040
-258.165	338.128	-0.064	0.124
-257.151	781.198	0.132	-0.361
-256.136	-80.806	0.236	-0.079
-255.122	-111.588	-0.159	-0.032
-254.107	-125.698	0.097	0.015
-253.092	800.000	0.080	0.338
-252.078	-94.861	0.418	0.114
-251.063	162.788	-0.057	-0.081
-250.049	28.911	-0.292	-0.248
-249.034	800.000	0.046	-0.166
-248.019	-130.618	0.126	-0.017
-247.005	-200.000	0.022	0.111
-245.990	-33.524	-0.066	-0.036
-244.976	-200.000	-0.062	0.294
-243.961	-200.000	0.009	0.215
-242.946	50.489	0.039	0.037
-241.932	212.743	0.051	0.081
-240.917	-17.691	0.058	-0.037
-239.903	-200.000	-0.010	0.187
-238.888	-91.120	0.043	0.012
-237.873	-80.195	0.216	-0.073
-236.859	104.310	0.109	0.128
-235.844	-200.000	-0.057	0.279
-234.830	-146.746	-0.048	0.004
-233.815	-200.000	-0.063	-0.370
-232.800	83.895	0.082	0.089
-231.786	-200.000	0.008	0.075
-230.771	800.000	-0.019	0.074
-229.757	-79.635	0.352	-0.119
-228.742	301.856	0.079	-0.146
-227.727	144.091	-0.084	0.113
-226.713	352.020	0.192	0.381
-225.698	-116.745	0.195	0.036
-224.684	-139.420	0.216	0.023
-223.669	73.436	-0.093	-0.097
-222.655	-78.698	0.267	-0.091
-221.640	-200.000	0.013	0.164
-220.625	65.163	0.127	0.129
-219.611	63.947	-0.049	-0.049
-218.596	87.592	0.199	0.220
-217.582	247.030	-0.022	-0.037
-216.567	192.132	0.178	0.270
-215.552	-200.000	0.001	-0.010
-214.538	53.116	-0.103	0.098
-213.523	-200.000	0.005	0.163
-212.509	6.790	0.138	0.103
-211.494	483.302	0.046	-0.104
-210.479	800.000	-0.085	0.353
-209.465	-93.101	0.035	0.010
-208.450	163.794	0.059	0.083
-207.436	-114.500	-0.144	-0.028
-206.421	346.120	-0.075	0.148
-205.406	-105.269	0.326	0.074
-204.392	-26.078	-0.141	-0.083
-203.377	15.196	0.239	0.187
-202.363	-32.227	-0.084	-0.047
-201.348	-56.941	-0.195	0.086
-200.333	-200.000	-0.054	-0.466
-199.319	-105.101	-0.137	0.031
-198.304	-48.760	0.024	-0.011
-197.290	-200.000	-0.023	0.480
-196.275	-39.303	0.362	-0.190
-195.260	-148.674	0.258	-0.021
-194.246	204.352	0.164	0.254
-193.231	403.507	0.153	0.323
-192.217	311.542	0.097	0.182
-191.202	-162.881	-0.251	-0.012
-190.187	-133.774	-0.237	0.030
-189.173	-65.021	0.155	-0.063
-188.158	267.664	-0.088	0.153
-187.144	-200.000	-0.017	-0.095
-186.129	800.000	-0.020	0.072
-185.114	581.101	-0.114	0.279
-184.100	218.681	-0.135	0.216
-183.085	-67.888	0.233	0.091
-182.071	172.191	0.131	0.188
-181.056	800.000	-0.033	-0.126
-180.042	800.000	-0.035	0.106
-179.027	445.122	-0.027	0.059
-178.012	340.381	-0.031	-0.060
-176.998	125.270	0.061	-0.077
-175.983	618.718	0.084	0.210
-174.969	-89.316	0.101	0.030
-173.954	-37.482	-0.147	0.079
-172.939	101.545	0.239	0.279
-171.925	-61.112	0.303	-0.128
-170.910	-114.020	-0.044	0.009
-169.896	461.662	0.078	-0.174
-168.881	-200.000	0.028	0.210
-167.866	-179.790	0.158	0.003
-166.852	-28.349	-0.159	-0.092
-165.837	225.215	-0.169	-0.273
-164.823	800.000	0.041	0.154
-163.808	-87.315	0.260	0.079
-162.793	-34.299	0.110	0.060
-161.779	-133.474	-0.348	-0.044
-160.764	81.293	0.151	0.163
-159.750	-200.000	0.007	0.179
-158.735	316.286	-0.062	0.118
-157.720	-40.802	0.067	-0.035
-156.706	429.720	0.051	0.110
-155.691	172.448	-0.105	0.151
-154.677	212.111	0.146	0.229
-153.662	98.762	0.213	-0.245
-152.647	312.181	-0.078	-0.146
-151.633	7.896	0.145	-0.109
-150.618	256.812	0.031	-0.054
-149.604	46.557	-0.159	-0.148
-148.589	47.552	-0.138	-0.128
-147.574	213.434	-0.062	0.098
-146.560	-200.000	-0.001	-0.296
-145.545	544.099	0.049	0.118
-144.531	-29.551	-0.337	-0.192
-143.516	-170.248	-0.388	-0.014
-142.502	-50.702	-0.079	0.037
-141.487	218.067	0.116	-0.184
-140.472	353.373	-0.133	0.263
-139.458	800.000	0.027	0.093
-138.443	23.245	0.173	0.142
-137.429	-200.000	-0.008	-0.155
-136.414	-200.000	0.008	-0.293
-135.399	-200.000	-0.014	0.081
-134.385	-84.914	-0.391	0.123
-133.370	12.448	0.336	-0.259
-132.356	-200.000	0.012	0.111
-131.341	-6.768	-0.139	-0.094
-130.326	-124.180	-0.470	0.073
-129.312	-200.000	-0.010	-0.434
-128.297	-105.047	0.156	0.036
-127.283	176.920	-0.058	0.084
-126.268	-124.316	0.387	-0.060
-125.253	-44.751	-0.058	0.029
-124.239	17.700	0.186	-0.148
-123.224	800.000	0.122	0.438
