DTS Sentinel unit serial number:	SN413079Multiplexer serial number:	ORYXHardware model number:	OX4-SRSoftware version number:	ORYX F/W v4.00 Oryx Data Collector v3.7.2.0data status	okinstallation	princeton_trtdifferential loss correction	single-endedforward channel	channel 1reverse channel	N/Adate	2019/09/12time	18:42:34forward acquisition time	15.00reverse acquisition time	0.00gamma	496.2192k internal	0.2318k external	0.2318temperature offset calibration	1.0113default loss term (dB/km)	0.3790temperature slope calibration	1.0000multiplexer offset coefficient	1.0000multiplexer slope coefficient	1.0000fibre end	0.00T internal ref (°C)	33.06T ext. ref 1 (°C)	2.95T ext. ref 2 (°C)	27.65length (m)	temperature (°C)	Stokes	anti-Stokes-747.200	107.899	-0.060	-0.072
-746.185	-69.260	0.922	0.359
-745.171	118.322	-0.328	-0.409
-744.156	-52.456	0.280	0.131
-743.142	-200.000	0.103	-0.692
-742.127	-200.000	-0.206	1.032
-741.112	-54.214	-0.657	0.302
-740.098	-103.693	0.304	0.072
-739.083	238.525	0.520	-0.875
-738.069	-122.480	0.518	-0.085
-737.054	55.618	0.109	-0.107
-736.039	188.651	-0.277	-0.419
-735.025	209.051	0.217	-0.343
-734.010	32.838	-0.712	0.624
-732.996	-71.206	-0.116	-0.044
-731.981	-39.228	0.140	-0.074
-730.966	-180.963	0.189	0.004
-729.952	-200.000	-0.050	0.244
-728.937	-128.641	-0.347	0.050
-727.923	-68.557	-0.763	-0.299
-726.908	800.000	0.102	0.415
-725.894	324.014	0.023	-0.044
-724.879	4.733	-0.821	-0.610
-723.864	158.160	0.204	0.287
-722.850	32.261	-0.342	-0.298
-721.835	103.010	-0.166	-0.197
-720.821	281.042	0.119	-0.216
-719.806	616.962	0.258	0.656
-718.791	611.809	0.138	0.349
-717.777	-130.691	-0.659	-0.090
-716.762	104.576	-0.434	-0.516
-715.748	-65.556	-0.350	-0.142
-714.733	-170.806	0.195	0.007
-713.718	-108.060	-0.878	0.192
-712.704	-172.178	-0.543	0.018
-711.689	397.205	-0.327	-0.691
-710.675	60.484	0.428	-0.428
-709.660	-132.667	0.594	-0.077
-708.645	-200.000	-0.034	-0.418
-707.631	-0.045	0.560	0.403
-706.616	101.782	-0.458	-0.540
-705.602	-155.103	-0.560	0.037
-704.587	-125.329	0.143	0.022
-703.572	-121.376	-0.185	-0.031
-702.558	295.624	-0.343	-0.635
-701.543	60.666	-0.216	0.216
-700.529	-81.928	-0.202	-0.067
-699.514	-147.002	-0.387	0.034
-698.499	95.754	0.412	-0.475
-697.485	190.445	0.356	0.541
-696.470	-106.702	0.634	0.142
-695.456	-116.931	0.931	-0.172
-694.441	299.514	0.152	-0.282
-693.426	-97.360	-0.411	0.108
-692.412	12.187	0.231	-0.179
-691.397	221.368	-0.324	-0.526
-690.383	90.748	0.609	0.689
-689.368	-149.789	-0.675	-0.054
-688.354	-5.060	-0.399	-0.277
-687.339	179.688	-0.171	0.253
-686.324	-200.000	-0.027	0.660
-685.310	-136.626	-0.227	-0.026
-684.295	-124.647	-0.471	-0.074
-683.281	-27.809	-0.292	0.171
-682.266	-38.530	0.229	-0.122
-681.251	-131.822	-0.308	0.041
-680.237	152.140	-0.017	0.023
-679.222	-76.805	-0.332	0.117
-678.208	-62.289	-1.015	-0.427
-677.193	60.172	-0.486	0.485
-676.178	699.124	0.302	0.803
-675.164	-200.000	0.134	-1.087
-674.149	-135.267	-0.667	0.081
-673.135	800.000	0.158	-0.661
-672.120	-42.174	0.327	0.169
-671.105	52.308	0.111	0.107
-670.091	-17.713	0.644	0.408
-669.076	-31.810	0.387	0.219
-668.062	-1.342	-0.680	-0.485
-667.047	-107.961	-0.590	-0.129
-666.032	-200.000	-0.064	-0.751
-665.018	800.000	-0.130	0.411
-664.003	270.275	-0.247	-0.438
-662.989	798.159	0.066	-0.185
-661.974	77.515	-0.342	0.368
-660.959	-5.138	-0.337	-0.234
-659.945	-200.000	-0.028	-0.528
-658.930	-83.455	0.615	-0.199
-657.916	102.079	0.551	0.649
-656.901	476.921	0.256	-0.584
-655.886	-139.946	0.921	0.098
-654.872	359.973	-0.494	-0.996
-653.857	139.296	0.327	-0.434
-652.843	800.000	0.305	-1.048
-651.828	133.610	-0.363	-0.474
-650.814	800.000	-0.187	0.549
-649.799	-47.780	0.427	-0.209
-648.784	-200.000	-0.059	-0.263
-647.770	-200.000	0.004	-0.302
-646.755	-45.400	0.187	0.093
-645.741	-74.245	0.465	-0.169
-644.726	312.505	0.063	-0.120
-643.711	-200.000	0.111	0.982
-642.697	-18.567	0.151	0.095
-641.682	96.619	0.583	0.672
-640.668	-78.902	0.667	0.229
-639.653	-178.663	0.716	-0.017
-638.638	82.330	0.572	-0.625
-637.624	76.481	-0.651	-0.695
-636.609	172.742	-0.300	-0.435
-635.595	800.000	0.111	0.371
-634.580	92.646	0.257	0.292
-633.565	-72.374	0.525	-0.196
-632.551	-165.676	-0.455	-0.020
-631.536	-200.000	0.103	-0.559
-630.522	20.197	-0.668	-0.543
-629.507	-42.027	0.297	-0.153
-628.492	64.211	0.480	0.487
-627.478	-32.627	-0.213	0.119
-626.463	-104.602	-1.196	-0.278
-625.449	422.120	0.219	-0.473
-624.434	223.474	0.079	0.128
-623.419	418.668	0.131	0.282
-622.405	-66.377	-0.094	-0.038
-621.390	-200.000	0.083	-1.043
-620.376	800.000	0.091	-0.311
-619.361	551.477	-0.062	0.150
-618.346	-100.315	-0.163	-0.041
-617.332	35.776	-0.446	-0.394
-616.317	43.541	-0.707	-0.651
-615.303	-90.990	0.994	-0.288
-614.288	97.595	-0.180	0.209
-613.273	423.939	-0.428	-0.927
-612.259	67.834	0.593	0.610
-611.244	800.000	0.187	-0.779
-610.230	-172.658	-0.145	0.005
-609.215	240.831	-0.173	0.291
-608.201	-135.207	0.771	-0.093
-607.186	-51.991	0.609	-0.285
-606.171	126.572	-0.596	-0.759
-605.157	-167.576	-0.771	-0.031
-604.142	-146.500	-0.472	-0.041
-603.128	-181.364	-0.399	0.008
-602.113	-114.675	-0.530	-0.102
-601.098	681.041	-0.210	-0.551
-600.084	-200.000	-0.039	-0.260
-599.069	98.312	0.174	0.202
-598.055	-15.995	0.518	0.331
-597.040	-31.131	-0.301	0.171
-596.025	-200.000	-0.085	-0.456
-595.011	83.464	0.285	-0.312
-593.996	-111.135	0.817	-0.168
-592.982	800.000	-0.033	-0.125
-591.967	-13.546	0.471	-0.307
-590.952	-103.488	-0.636	0.151
-589.938	-7.020	0.162	0.110
-588.923	-200.000	0.060	0.781
-587.909	-47.910	-0.102	0.049
-586.894	42.717	-0.111	0.102
-585.879	-99.677	0.561	0.141
-584.865	135.600	-0.301	-0.394
-583.850	-20.612	0.565	0.349
-582.836	72.838	0.077	0.080
-581.821	139.046	0.510	-0.674
-580.806	-112.019	0.414	-0.084
-579.792	-106.109	-0.502	0.113
-578.777	290.582	-0.432	-0.789
-577.763	99.476	0.234	0.272
-576.748	-122.115	-0.604	-0.100
-575.733	-200.000	0.110	0.609
-574.719	-200.000	-0.031	0.703
-573.704	197.671	0.319	0.490
-572.690	20.418	0.581	-0.472
-571.675	-115.781	0.518	0.097
-570.661	383.420	0.149	0.309
-569.646	-200.000	0.086	1.105
-568.631	-57.853	0.302	0.133
-567.617	-128.007	-0.897	0.129
-566.602	-1.586	0.464	-0.328
-565.588	97.765	0.306	-0.353
-564.573	-200.000	-0.108	-0.602
-563.558	115.042	-0.402	-0.493
-562.544	-18.391	0.397	0.249
-561.529	213.168	-0.184	0.292
-560.515	-184.734	-0.305	-0.005
-559.500	-29.123	-0.290	-0.167
-558.485	-20.193	0.260	0.161
-557.471	93.684	-0.567	-0.645
-556.456	-168.035	-0.244	0.010
-555.442	-10.795	-0.358	0.238
-554.427	165.787	0.263	0.374
-553.412	-158.403	-0.620	-0.036
-552.398	114.068	0.204	-0.249
-551.383	-71.262	-1.104	0.416
-550.369	84.999	-0.468	0.516
-549.354	-1.858	-0.209	0.147
-548.339	-200.000	0.008	0.207
-547.325	-166.535	0.737	-0.031
-546.310	256.744	0.442	-0.762
-545.296	-59.103	0.378	0.164
-544.281	31.791	-0.477	-0.412
-543.266	19.567	0.553	0.446
-542.252	-200.000	-0.036	0.253
-541.237	-200.000	-0.003	-0.593
-540.223	-107.058	0.891	0.197
-539.208	189.167	-0.117	-0.175
-538.193	-200.000	-0.048	-0.237
-537.179	93.579	0.286	0.325
-536.164	800.000	-0.298	0.925
-535.150	289.932	-0.210	0.383
-534.135	-3.418	-0.649	0.454
-533.121	-134.660	-0.418	0.051
-532.106	-105.045	0.484	0.111
-531.091	151.762	-0.333	0.455
-530.077	-38.319	0.140	0.074
-529.062	-200.000	0.002	-0.263
-528.048	66.809	-0.696	-0.711
-527.033	-97.156	-0.042	-0.011
-526.018	800.000	0.156	0.524
-525.004	800.000	-0.151	-0.584
-523.989	-200.000	-0.011	0.903
-522.975	-200.000	-0.186	0.835
-521.960	-116.756	0.318	0.059
-520.945	65.764	-0.313	0.318
-519.931	209.314	0.305	0.480
-518.916	23.014	0.598	0.492
-517.902	800.000	0.132	-0.405
-516.887	72.898	0.274	-0.286
-515.872	433.882	-0.355	-0.773
-514.858	-57.220	-0.572	-0.253
-513.843	-200.000	-0.092	-0.499
-512.829	-200.000	-0.100	0.594
-511.814	-109.332	0.303	0.064
-510.799	-200.000	-0.105	-0.474
-509.785	-52.533	-0.298	-0.138
-508.770	-105.180	-0.053	0.012
-507.756	-24.547	0.297	0.177
-506.741	-111.599	0.381	-0.078
-505.726	800.000	-0.082	0.289
-504.712	111.092	-0.431	-0.520
-503.697	91.015	-0.113	-0.128
-502.683	-88.773	0.814	0.242
-501.668	-152.282	0.636	-0.046
-500.653	-200.000	-0.098	0.551
-499.639	-200.000	0.059	-0.415
-498.624	-200.000	0.118	0.758
-497.610	-116.347	-0.401	0.074
-496.595	517.659	0.196	-0.458
-495.581	-43.087	-0.639	0.325
-494.566	56.780	0.747	0.729
-493.551	22.838	0.588	0.483
-492.537	-200.000	-0.092	-1.244
-491.522	438.029	-0.369	-0.807
-490.508	379.339	0.068	0.140
-489.493	-140.635	0.496	0.052
-488.478	-173.474	0.371	-0.011
-487.464	62.185	-0.445	-0.445
-486.449	70.240	-0.395	-0.409
-485.435	-110.206	-0.557	-0.116
-484.420	-200.000	0.072	0.590
-483.405	71.704	-0.059	0.061
-482.391	800.000	0.073	0.297
-481.376	800.000	-0.066	-0.247
-480.362	563.473	0.236	0.573
-479.347	-56.881	0.781	0.345
-478.332	339.262	0.098	0.192
-477.318	128.568	-0.313	0.399
-476.303	-61.716	0.437	0.183
-475.289	-105.284	-0.461	0.105
-474.274	-200.000	-0.103	-0.620
-473.259	50.227	-0.174	-0.164
-472.245	800.000	-0.142	0.539
-471.230	-155.990	0.280	-0.018
-470.216	-200.000	0.014	0.947
-469.201	-146.826	0.380	0.033
-468.186	-11.965	-0.361	0.237
-467.172	-88.205	-0.702	0.211
-466.157	-200.000	0.188	-1.366
-465.143	459.102	0.141	0.315
-464.128	476.417	0.268	0.607
-463.113	800.000	0.196	-0.679
-462.099	-8.642	0.151	-0.101
-461.084	121.356	-0.112	0.140
-460.070	372.596	0.586	1.192
-459.055	21.625	0.136	-0.111
-458.040	113.160	-0.237	-0.288
-457.026	31.138	0.269	-0.231
-456.011	-200.000	0.002	-0.759
-454.997	-1.676	-0.107	0.076
-453.982	761.883	0.193	0.524
-452.968	-27.884	-0.412	0.239
-451.953	800.000	0.162	0.588
-450.938	-48.800	0.517	0.248
-449.924	-180.857	-0.232	0.005
-448.909	-200.000	0.159	0.898
-447.895	-51.456	-0.259	0.121
-446.880	132.884	-0.348	0.449
-445.865	-161.931	0.665	-0.034
-444.851	-200.000	-0.027	-0.297
-443.836	-143.821	-0.370	-0.035
-442.822	-7.525	-0.343	-0.232
-441.807	-16.094	-0.271	0.172
-440.792	-200.000	0.053	-0.329
-439.778	-94.554	-1.311	-0.357
-438.763	-60.887	-0.388	0.164
-437.749	175.204	0.283	-0.409
-436.734	-89.985	-0.559	-0.163
-435.719	-200.000	-0.086	-0.899
-434.705	-124.819	-0.625	0.097
-433.690	-12.429	-0.832	-0.543
-432.676	158.583	0.148	0.206
-431.661	-47.449	0.266	0.129
-430.646	-200.000	0.003	0.394
-429.632	-115.396	0.355	0.067
-428.617	-183.617	0.815	-0.014
-427.603	29.598	-0.866	-0.736
-426.588	-200.000	-0.026	-0.590
-425.573	800.000	0.214	-0.803
-424.559	41.312	-0.315	0.285
-423.544	120.595	0.379	0.470
-422.530	73.095	-0.854	-0.892
-421.515	-135.642	0.516	-0.061
-420.500	48.082	-0.132	0.123
-419.486	136.222	-0.176	-0.229
-418.471	470.794	-0.151	0.340
-417.457	-62.374	-0.291	0.121
-416.442	-90.471	-0.468	-0.135
-415.428	-70.302	-0.309	0.117
-414.413	-44.417	0.553	0.277
-413.398	-200.000	-0.009	0.240
-412.384	-200.000	0.002	0.209
-411.369	330.783	0.155	0.298
-410.355	-37.948	-0.690	-0.366
-409.340	-18.173	0.301	0.188
-408.325	-156.353	0.568	0.035
-407.311	19.579	-0.434	0.349
-406.296	-48.378	-1.012	-0.487
-405.282	-200.000	-0.007	-0.098
-404.267	154.208	-0.061	-0.083
-403.252	-16.780	-0.291	0.184
-402.238	352.254	-0.165	0.327
-401.223	52.401	0.380	-0.362
-400.209	-149.306	-0.530	0.042
-399.194	471.910	0.320	0.720
-398.179	145.543	0.468	-0.626
-397.165	800.000	-0.123	-0.426
-396.150	-154.812	-1.014	-0.067
-395.136	216.848	0.275	-0.436
-394.121	-133.999	0.242	0.030
-393.106	-200.000	0.048	0.274
-392.092	-200.000	-0.103	0.675
-391.077	-200.000	-0.061	0.654
-390.063	57.820	-0.348	-0.340
-389.048	-61.370	-0.174	0.073
-388.033	410.048	0.341	0.720
-387.019	-4.368	0.616	0.425
-386.004	-78.240	0.505	0.173
-384.990	800.000	0.277	-0.781
-383.975	587.124	-0.073	-0.179
-382.960	800.000	0.045	-0.158
-381.946	627.956	0.123	0.310
-380.931	-83.338	0.365	0.117
-379.917	9.121	0.213	-0.161
-378.902	93.931	0.409	-0.462
-377.888	54.688	-0.031	0.030
-376.873	-41.654	0.482	0.247
-375.858	-92.154	-1.242	0.350
-374.844	-200.000	0.051	0.545
-373.829	-55.406	0.268	0.120
-372.815	526.195	-0.147	-0.346
-371.800	67.066	0.751	0.764
-370.785	800.000	-0.074	-0.280
-369.771	-200.000	-0.021	0.436
-368.756	-45.985	-0.434	0.213
-367.742	114.239	-0.101	-0.123
-366.727	-35.534	-0.318	-0.172
-365.712	153.081	-0.294	-0.402
-364.698	800.000	0.168	0.637
-363.683	98.286	0.464	0.533
-362.669	-72.420	-0.886	0.327
-361.654	800.000	0.127	0.449
-360.639	33.629	0.103	-0.089
-359.625	2.724	-0.564	0.408
-358.610	-200.000	-0.017	-1.082
-357.596	225.220	-0.122	-0.197
-356.581	51.765	0.582	0.552
-355.566	-200.000	-0.040	0.258
-354.552	151.516	-0.417	0.565
-353.537	-130.085	-0.899	-0.122
-352.523	-62.940	0.429	0.177
-351.508	-34.014	-0.645	0.353
-350.493	-102.482	0.358	0.085
-349.479	120.279	0.595	-0.736
-348.464	-67.974	-0.600	0.233
-347.450	-67.353	-0.649	-0.254
-346.435	-200.000	-0.012	1.038
-345.420	96.616	-0.536	0.611
-344.406	800.000	0.049	0.158
-343.391	-12.415	0.597	-0.388
-342.377	364.996	-0.327	-0.657
-341.362	800.000	-0.057	0.240
-340.348	173.798	-0.181	-0.260
-339.333	-136.078	0.787	0.092
-338.318	-200.000	-0.690	0.003
-337.304	99.387	0.479	-0.552
-336.289	-200.000	0.087	-0.418
-335.275	181.014	0.172	0.252
-334.260	160.039	-0.340	-0.471
-333.245	27.892	-0.642	-0.539
-332.231	-200.000	-0.088	-0.787
-331.216	-12.517	0.225	0.146
-330.202	52.332	0.137	-0.130
-329.187	133.247	-0.353	0.454
-328.172	46.654	-0.485	-0.448
-327.158	-88.740	0.461	0.136
-326.143	-200.000	0.030	0.298
-325.129	-14.389	-0.493	0.316
-324.114	22.980	-0.406	-0.332
-323.099	800.000	0.188	-0.753
-322.085	111.671	-0.389	0.467
-321.070	-169.279	-0.649	0.024
-320.056	-4.885	0.507	-0.348
-319.041	-200.000	0.006	0.482
-318.026	-98.669	0.624	0.158
-317.012	-58.591	0.535	-0.231
-315.997	39.532	-0.118	0.105
-314.983	-110.732	0.788	-0.162
-313.968	-140.840	0.839	0.086
-312.953	800.000	-0.115	-0.411
-311.939	270.687	-0.449	-0.786
-310.924	-200.000	-0.023	0.161
-309.910	-200.000	-0.110	0.510
-308.895	268.033	-0.359	-0.626
-307.880	34.164	0.167	0.144
-306.866	50.651	-0.352	0.331
-305.851	-141.092	-0.744	0.076
-304.837	-200.000	0.062	-1.061
-303.822	50.389	0.212	0.200
-302.807	-156.551	-0.261	-0.016
-301.793	800.000	-0.105	-0.367
-300.778	320.358	0.415	-0.783
-299.764	173.638	-0.429	-0.616
-298.749	-107.365	-0.675	-0.147
-297.735	-200.000	0.051	-0.492
-296.720	328.529	0.021	0.041
-295.705	-114.676	-0.184	0.035
-294.691	28.518	-0.051	0.043
-293.676	-116.487	-0.268	-0.049
-292.662	800.000	-0.063	0.218
-291.647	-1.625	0.697	0.488
-290.632	-200.000	0.140	-0.681
-289.618	246.431	-0.441	0.739
-288.603	215.531	0.272	-0.429
-287.589	131.673	0.137	-0.176
-286.574	-48.206	-0.380	-0.182
-285.559	-92.863	0.537	-0.149
-284.545	800.000	0.110	-0.315
-283.530	-97.344	0.408	0.106
-282.516	-33.348	-0.500	0.275
-281.501	-142.481	0.964	0.094
-280.486	33.960	0.344	-0.297
-279.472	-37.110	0.617	-0.328
-278.457	-129.019	0.832	-0.116
-277.443	-32.585	0.300	-0.166
-276.428	800.000	0.088	-0.382
-275.413	-145.113	-0.289	0.026
-274.399	-200.000	0.050	0.310
-273.384	43.601	0.611	-0.555
-272.370	141.497	-0.827	-1.088
-271.355	81.295	-0.253	-0.271
-270.340	-129.058	0.995	-0.138
-269.326	800.000	-0.208	0.575
-268.311	-151.009	-0.617	-0.046
-267.297	-200.000	-0.082	0.633
-266.282	362.855	-0.309	0.616
-265.267	216.456	0.392	-0.619
-264.253	-78.489	0.366	-0.125
-263.238	-128.543	-0.315	0.044
-262.224	800.000	-0.123	0.371
-261.209	800.000	-0.226	0.785
-260.195	-200.000	0.018	0.355
-259.180	-200.000	-0.236	-1.105
-258.165	-26.248	-0.452	0.263
-257.151	800.000	0.193	-0.717
-256.136	-153.866	0.457	-0.031
-255.122	24.459	0.687	-0.564
-254.107	20.939	-0.506	0.407
-253.092	800.000	-0.197	-0.676
-252.078	110.550	0.471	0.562
-251.063	-16.744	-0.279	0.175
-250.049	43.601	-0.866	-0.786
-249.034	-34.352	0.226	-0.123
-248.019	-200.000	0.061	0.942
-247.005	112.947	0.545	0.656
-245.990	-200.000	-0.193	-0.912
-244.976	90.675	0.314	-0.349
-243.961	-149.310	0.442	-0.035
-242.946	-200.000	0.003	0.058
-241.932	-183.167	-0.459	-0.008
-240.917	413.968	0.302	0.638
-239.903	558.399	0.378	0.904
-238.888	800.000	0.091	0.308
-237.873	750.452	0.180	0.481
-236.859	127.510	0.376	0.474
-235.844	86.749	0.561	0.614
-234.830	749.311	0.242	0.648
-233.815	-171.846	0.632	-0.020
-232.800	-200.000	0.152	-0.949
-231.786	91.558	-0.112	0.125
-230.771	800.000	-0.081	-0.256
-229.757	-200.000	0.110	0.505
-228.742	-120.522	-0.375	-0.063
-227.727	-134.647	-0.761	-0.092
-226.713	-200.000	0.111	0.692
-225.698	-121.224	0.517	-0.086
-224.684	-52.157	-0.070	-0.032
-223.669	-121.786	0.963	0.158
-222.655	-23.151	-0.835	0.498
-221.640	482.947	0.152	0.343
-220.625	3.342	-0.542	0.391
-219.611	-50.702	0.428	0.200
-218.596	-14.168	-0.449	-0.287
-217.582	180.673	-0.384	0.559
-216.567	-200.000	-0.046	-0.566
-215.552	371.270	-0.245	0.492
-214.538	39.527	-0.208	0.185
-213.523	24.611	-0.228	0.187
-212.509	556.079	-0.268	-0.639
-211.494	-61.820	-0.215	-0.089
-210.479	-58.104	0.856	0.370
-209.465	-200.000	-0.073	0.760
-208.450	77.778	0.168	0.178
-207.436	-47.286	-0.448	-0.216
-206.421	190.894	0.352	0.525
-205.406	236.267	0.580	-0.951
-204.392	800.000	0.129	-0.364
-203.377	-200.000	0.137	-0.755
-202.363	-123.581	-0.214	0.034
-201.348	-136.176	-0.182	-0.021
-200.333	45.139	0.365	-0.333
-199.319	-107.000	-0.814	-0.178
-198.304	389.513	0.121	0.248
-197.290	127.907	-0.361	0.454
-196.275	19.855	-0.605	0.483
-195.260	91.298	0.644	0.716
-194.246	52.463	-0.291	0.275
-193.231	-27.266	0.361	0.208
-192.217	88.324	-0.212	-0.233
-191.202	800.000	-0.034	-0.113
-190.187	-73.164	-0.375	-0.136
-189.173	230.907	-0.378	-0.613
-188.158	-200.000	-0.131	-0.796
-187.144	443.256	0.573	-1.243
-186.129	238.863	0.093	-0.153
-185.114	-118.010	0.310	0.055
-184.100	-200.000	0.109	-0.562
-183.085	-73.228	0.306	0.111
-182.071	86.405	-0.101	-0.110
-181.056	-121.562	-1.007	0.165
-180.042	-66.890	-0.306	-0.120
-179.027	800.000	-0.118	-0.336
-178.012	-200.000	-0.023	0.287
-176.998	800.000	-0.257	-0.786
-175.983	-200.000	0.000	-0.017
-174.969	800.000	0.285	1.161
-173.954	-76.740	-0.639	-0.222
-172.939	-32.080	0.540	-0.299
-171.925	-161.127	0.775	-0.040
-170.910	-63.120	0.725	-0.296
-169.896	800.000	-0.143	0.422
-168.881	446.129	0.207	0.450
-167.866	-19.364	0.362	0.222
-166.852	198.377	0.366	0.554
-165.837	37.183	0.098	0.086
-164.823	-44.114	0.576	-0.286
-163.808	-200.000	-0.201	1.027
-162.793	-16.544	0.803	-0.503
-161.779	48.775	0.145	-0.134
-160.764	-120.598	0.366	0.061
-159.750	-134.063	-0.999	-0.122
-158.735	291.374	-0.110	0.198
-157.720	800.000	-0.134	-0.393
-156.706	-79.605	0.082	0.027
-155.691	113.852	0.274	-0.330
-154.677	-200.000	-0.169	1.085
-153.662	-72.431	0.266	-0.097
-152.647	484.204	-0.212	0.477
-151.633	-53.762	-0.373	0.168
-150.618	-128.717	0.565	0.079
-149.604	259.282	-0.337	0.575
-148.589	-200.000	-0.154	0.995
-147.574	-15.017	0.747	-0.473
-146.560	-17.792	-0.284	-0.176
-145.545	757.010	-0.255	-0.683
-144.531	-88.830	0.342	-0.100
-143.516	-200.000	-0.051	-0.440
-142.502	155.537	-0.251	-0.342
-141.487	221.185	0.420	-0.666
-140.472	412.983	-0.124	-0.261
-139.458	14.917	-0.486	0.376
-138.443	-156.062	-0.073	-0.005
-137.429	800.000	-0.247	0.695
-136.414	-54.528	-0.816	0.365
-135.399	800.000	0.066	-0.192
-134.385	800.000	-0.255	-1.014
-133.370	-108.966	0.574	0.121
-132.356	-200.000	0.031	-0.372
-131.341	9.708	0.359	0.269
-130.326	-1.590	-0.107	0.074
-129.312	-200.000	-0.097	0.446
-128.297	5.075	0.132	0.096
-127.283	260.151	-0.335	0.573
-126.268	800.000	-0.072	0.203
-125.253	216.190	0.069	-0.109
-124.239	283.450	0.409	-0.725
-123.224	-200.000	-0.122	-0.645
-122.210	159.032	0.444	-0.610
-121.195	413.570	0.139	0.291
