DTS Sentinel unit serial number:	SN413079Multiplexer serial number:	ORYXHardware model number:	OX4-SRSoftware version number:	ORYX F/W v4.00 Oryx Data Collector v3.7.2.0data status	okinstallation	princeton_trtdifferential loss correction	single-endedforward channel	channel 1reverse channel	N/Adate	2019/09/17time	23:34:35forward acquisition time	60.00reverse acquisition time	0.00gamma	496.2192k internal	0.2340k external	0.2340temperature offset calibration	0.9974default loss term (dB/km)	0.3790temperature slope calibration	1.0000multiplexer offset coefficient	1.0000multiplexer slope coefficient	1.0000fibre end	0.00T internal ref (°C)	24.19T ext. ref 1 (°C)	0.17T ext. ref 2 (°C)	17.53length (m)	temperature (°C)	Stokes	anti-Stokes-747.200	59.851	0.236	0.234
-746.185	-7.294	-0.337	-0.229
-745.171	-15.729	0.266	-0.170
-744.156	-200.000	-0.062	0.335
-743.142	138.181	0.165	0.217
-742.127	-48.619	-0.085	-0.041
-741.112	-200.000	-0.021	0.342
-740.098	-179.531	-0.273	-0.006
-739.083	-30.587	0.307	-0.175
-738.069	-200.000	0.011	0.076
-737.054	207.184	-0.177	-0.277
-736.039	-126.104	-0.229	-0.034
-735.025	-0.329	0.021	0.015
-734.010	-40.304	-0.228	-0.119
-732.996	-58.506	-0.368	0.160
-731.981	273.083	0.121	0.214
-730.966	-24.812	0.183	-0.109
-729.952	-200.000	0.014	0.109
-728.937	-200.000	0.059	0.338
-727.923	133.604	0.115	-0.149
-726.908	-41.327	0.370	-0.191
-725.894	-150.071	-0.173	0.013
-724.879	492.826	0.046	0.106
-723.864	-175.290	0.190	-0.005
-722.850	94.661	-0.107	-0.122
-721.835	41.583	-0.232	-0.210
-720.821	-70.714	-0.437	-0.165
-719.806	2.062	-0.352	-0.255
-718.791	3.412	-0.151	0.110
-717.777	800.000	0.057	0.182
-716.762	-200.000	-0.033	-0.207
-715.748	-200.000	-0.006	-0.074
-714.733	54.941	-0.090	-0.087
-713.718	11.727	-0.382	0.294
-712.704	800.000	-0.035	-0.117
-711.689	-200.000	0.006	-0.127
-710.675	-17.995	-0.107	-0.067
-709.660	24.924	0.168	-0.140
-708.645	-70.348	-0.190	-0.072
-707.631	648.086	0.126	-0.323
-706.616	13.068	-0.336	-0.260
-705.602	-200.000	0.025	0.111
-704.587	62.632	0.358	-0.359
-703.572	24.774	-0.120	-0.100
-702.558	38.533	0.126	0.112
-701.543	-200.000	0.060	0.375
-700.529	31.530	0.036	-0.031
-699.514	83.774	-0.103	-0.113
-698.499	-183.971	-0.532	-0.009
-697.485	168.720	0.015	0.021
-696.470	-61.380	0.117	0.049
-695.456	4.309	-0.114	-0.084
-694.441	-96.188	-0.286	-0.076
-693.426	742.706	0.114	-0.306
-692.412	-92.039	-0.434	0.123
-691.397	31.567	0.184	-0.159
-690.383	28.753	-0.267	0.226
-689.368	-70.605	0.195	-0.074
-688.354	717.899	0.060	0.160
-687.339	-93.190	0.085	0.024
-686.324	90.528	-0.134	0.150
-685.310	319.384	0.054	0.103
-684.295	-106.798	0.439	0.097
-683.281	277.688	-0.078	-0.139
-682.266	-113.127	-0.228	-0.045
-681.251	-74.557	-0.165	-0.059
-680.237	574.205	-0.063	-0.154
-679.222	20.185	0.071	-0.057
-678.208	-200.000	-0.021	-0.097
-677.193	60.199	-0.119	-0.118
-676.178	442.134	-0.129	-0.283
-675.164	800.000	0.083	-0.289
-674.149	800.000	0.110	0.368
-673.135	-200.000	-0.004	0.134
-672.120	16.562	0.289	-0.228
-671.105	800.000	-0.020	0.062
-670.091	20.518	0.033	-0.027
-669.076	-64.951	0.280	-0.113
-668.062	-46.924	0.318	-0.155
-667.047	-181.196	-0.125	0.002
-666.032	-29.380	-0.166	0.095
-665.018	142.668	-0.131	0.174
-664.003	43.688	-0.142	0.130
-662.989	-106.205	-0.185	0.042
-661.974	-69.968	-0.050	-0.019
-660.959	-200.000	-0.038	0.181
-659.945	-200.000	0.013	0.179
-658.930	-86.007	-0.287	0.089
-657.916	338.479	-0.242	-0.471
-656.901	87.262	0.067	0.074
-655.886	25.205	0.186	-0.155
-654.872	800.000	0.099	-0.358
-653.857	800.000	-0.066	-0.261
-652.843	-46.585	-0.253	-0.124
-651.828	-51.751	-0.199	-0.093
-650.814	-44.780	-0.164	-0.082
-649.799	20.485	0.347	-0.280
-648.784	800.000	0.061	0.195
-647.770	-86.394	-0.077	-0.024
-646.755	30.285	-0.260	-0.222
-645.741	800.000	-0.115	-0.319
-644.726	114.240	-0.153	-0.186
-643.711	37.246	0.132	0.117
-642.697	-47.600	0.309	-0.150
-641.682	800.000	0.016	-0.046
-640.668	-93.167	-0.256	0.071
-639.653	565.437	0.109	0.264
-638.638	-200.000	0.020	-0.185
-637.624	-96.197	0.083	0.022
-636.609	-143.274	0.108	0.010
-635.595	-99.808	-0.281	0.070
-634.580	500.901	0.118	-0.271
-633.565	-169.758	0.199	-0.007
-632.551	144.552	-0.135	-0.180
-631.536	-19.132	-0.030	-0.018
-630.522	321.135	0.104	0.198
-629.507	209.100	0.112	0.175
-628.492	-133.836	0.143	0.018
-627.478	-64.282	0.284	0.116
-626.463	-190.320	-0.391	0.004
-625.449	372.675	-0.136	-0.276
-624.434	385.345	-0.144	0.297
-623.419	743.411	0.151	-0.404
-622.405	15.927	0.020	-0.016
-621.390	-197.449	-0.090	0.001
-620.376	340.922	0.141	0.274
-619.361	-154.879	0.149	-0.010
-618.346	-119.281	0.034	-0.006
-617.332	384.505	-0.077	-0.157
-616.317	-121.206	-0.193	-0.032
-615.303	-59.757	-0.134	-0.057
-614.288	263.245	-0.075	0.130
-613.273	-101.426	0.294	0.071
-612.259	173.803	0.194	-0.279
-611.244	800.000	-0.106	-0.362
-610.230	-62.667	0.729	0.301
-609.215	-155.946	-0.243	0.015
-608.201	800.000	0.047	-0.143
-607.186	-66.803	-0.203	-0.080
-606.171	-135.853	-0.270	-0.032
-605.157	-49.174	-0.171	0.082
-604.142	-54.125	-0.235	0.107
-603.128	549.607	-0.042	0.100
-602.113	-200.000	0.003	-0.030
-601.098	-141.229	0.157	-0.016
-600.084	128.104	0.035	-0.044
-599.069	-182.611	0.361	-0.007
-598.055	154.515	-0.052	0.071
-597.040	53.697	-0.225	-0.215
-596.025	800.000	-0.054	-0.232
-595.011	100.172	0.241	0.279
-593.996	800.000	0.013	-0.048
-592.982	-120.454	0.216	-0.037
-591.967	-200.000	-0.144	0.000
-590.952	-74.097	-0.489	-0.177
-589.938	-200.000	-0.061	0.284
-588.923	-95.785	-0.027	0.007
-587.909	124.906	0.202	-0.253
-586.894	-74.105	0.434	0.157
-585.879	81.808	0.180	-0.194
-584.865	522.090	-0.098	-0.229
-583.850	-101.225	-0.099	-0.024
-582.836	-73.598	0.329	-0.119
-581.821	-88.445	-0.378	0.112
-580.806	-101.798	-0.023	-0.006
-579.792	800.000	0.040	0.163
-578.777	-48.480	-0.107	0.052
-577.763	-10.812	-0.206	-0.136
-576.748	119.080	0.179	-0.220
-575.733	-17.307	0.223	-0.140
-574.719	-82.605	-0.148	-0.048
-573.704	800.000	-0.031	0.091
-572.690	3.890	-0.250	-0.182
-571.675	-117.748	-0.178	0.032
-570.661	-200.000	0.050	-0.282
-569.646	-200.000	-0.004	-0.025
-568.631	84.483	0.163	0.178
-567.617	38.192	0.076	-0.068
-566.602	-7.598	-0.178	0.120
-565.588	74.879	0.157	0.164
-564.573	84.756	-0.152	0.166
-563.558	60.139	0.122	0.120
-562.544	146.903	0.102	0.136
-561.529	384.809	0.124	0.255
-560.515	135.417	0.240	0.311
-559.500	-3.773	0.155	0.107
-558.485	-165.183	0.283	0.012
-557.471	-188.455	0.444	-0.006
-556.456	-152.072	-0.163	-0.012
-555.442	-200.000	0.024	-0.193
-554.427	13.464	-0.247	0.190
-553.412	-111.735	-0.316	0.064
-552.398	101.085	0.158	-0.183
-551.383	-162.117	0.310	-0.015
-550.369	-3.596	-0.282	-0.195
-549.354	-67.368	0.100	-0.039
-548.339	-146.680	0.204	-0.018
-547.325	-100.794	-0.053	0.013
-546.310	-82.782	0.306	0.098
-545.296	-65.895	-0.215	0.086
-544.281	800.000	0.027	-0.089
-543.266	174.564	-0.090	0.129
-542.252	800.000	0.034	-0.106
-541.237	-200.000	-0.036	0.259
-540.223	231.397	0.028	0.046
-539.208	89.634	-0.123	-0.137
-538.193	-139.863	0.464	-0.049
-537.179	800.000	-0.053	0.220
-536.164	800.000	-0.072	-0.263
-535.150	-127.640	-0.384	-0.055
-534.135	60.889	0.038	-0.037
-533.121	-133.016	-0.275	0.035
-532.106	-88.285	0.292	0.087
-531.091	-95.000	-0.165	-0.044
-530.077	514.227	-0.086	0.200
-529.062	21.638	0.127	-0.102
-528.048	131.459	-0.143	0.182
-527.033	302.398	0.080	0.147
-526.018	-41.855	-0.354	0.181
-525.004	-70.278	0.154	-0.058
-523.989	54.571	0.110	0.105
-522.975	-104.400	-0.202	0.046
-521.960	-40.760	0.120	0.062
-520.945	-119.825	-0.123	0.021
-519.931	-109.398	0.303	0.064
-518.916	-200.000	-0.009	0.555
-517.902	-18.842	-0.140	0.086
-516.887	-93.467	-0.164	-0.045
-515.872	800.000	-0.128	-0.376
-514.858	-130.563	0.343	0.046
-513.843	-45.080	-0.100	0.049
-512.829	108.525	0.198	-0.235
-511.814	-15.901	0.184	-0.116
-510.799	537.333	-0.112	0.263
-509.785	-146.505	-0.277	-0.024
-508.770	800.000	0.090	0.321
-507.756	-98.589	0.115	-0.029
-506.741	-50.959	0.096	0.045
-505.726	-83.064	-0.142	-0.045
-504.712	72.712	-0.214	0.221
-503.697	604.463	-0.030	0.073
-502.683	371.056	-0.108	0.217
-501.668	-200.000	0.001	0.180
-500.653	-69.305	-0.125	-0.048
-499.639	800.000	0.085	-0.267
-498.624	145.767	0.130	-0.173
-497.610	282.664	0.187	-0.332
-496.595	-4.025	-0.288	0.198
-495.581	168.554	0.239	0.338
-494.566	-45.378	-0.155	-0.076
-493.551	-94.203	0.202	0.055
-492.537	-132.044	0.258	-0.033
-491.522	-7.747	0.151	0.101
-490.508	-113.704	-0.229	0.044
-489.493	-46.706	0.262	0.128
-488.478	-82.448	0.417	0.135
-487.464	-200.000	0.005	0.188
-486.449	-119.739	0.139	0.024
-485.435	-13.340	-0.188	0.121
-484.420	190.999	-0.075	0.111
-483.405	715.246	0.059	0.154
-482.391	-158.515	0.454	-0.026
-481.376	593.790	0.062	-0.151
-480.362	-115.742	-0.412	-0.077
-479.347	-200.000	0.018	-0.161
-478.332	-200.000	0.024	-0.137
-477.318	800.000	-0.145	0.418
-476.303	-93.743	-0.102	-0.028
-475.289	800.000	-0.035	0.133
-474.274	94.171	-0.182	-0.205
-473.259	466.206	0.071	-0.158
-472.245	358.262	0.060	0.119
-471.230	-69.809	-0.404	0.153
-470.216	-98.778	0.168	-0.043
-469.201	72.297	0.116	0.120
-468.186	800.000	-0.028	-0.096
-467.172	756.108	0.039	0.104
-466.157	800.000	0.033	0.093
-465.143	800.000	-0.059	0.192
-464.128	-140.150	-0.090	-0.009
-463.113	-200.000	0.015	-0.298
-462.099	-55.782	0.104	0.046
-461.084	207.979	-0.219	-0.340
-460.070	-132.099	-0.216	-0.028
-459.055	-163.230	0.174	0.008
-458.040	66.596	-0.108	-0.109
-457.026	-67.005	-0.118	0.046
-456.011	-36.467	-0.188	0.100
-454.997	-16.036	-0.253	0.160
-453.982	284.247	0.063	-0.113
-452.968	-200.000	-0.036	-0.201
-451.953	800.000	0.035	-0.153
-450.938	275.168	-0.128	-0.225
-449.924	146.580	-0.246	0.327
-448.909	-200.000	0.008	0.095
-447.895	-150.187	-0.298	0.023
-446.880	-138.249	-0.156	-0.017
-445.865	474.301	0.079	0.177
-444.851	-49.981	0.304	0.143
-443.836	474.151	0.072	0.160
-442.822	-148.806	-0.229	0.018
-441.807	-200.000	-0.011	0.141
-440.792	0.379	0.165	-0.117
-439.778	76.225	-0.164	-0.172
-438.763	-200.000	-0.041	-0.308
-437.749	-121.465	0.480	-0.079
-436.734	-126.256	0.122	-0.018
-435.719	42.477	-0.070	0.063
-434.705	161.929	-0.195	0.270
-433.690	650.043	-0.066	-0.167
-432.676	-82.960	0.071	-0.023
-431.661	281.960	0.035	0.062
-430.646	-200.000	0.007	0.049
-429.632	6.880	0.211	-0.156
-428.617	800.000	0.015	0.062
-427.603	171.366	-0.012	-0.018
-426.588	-191.610	0.304	-0.003
-425.573	-79.123	0.170	-0.057
-424.559	-200.000	-0.051	0.281
-423.544	-67.937	-0.199	0.077
-422.530	218.459	-0.065	-0.102
-421.515	-70.271	-0.114	-0.043
-420.500	-200.000	-0.058	-0.333
-419.486	800.000	0.031	-0.128
-418.471	241.805	0.162	0.267
-417.457	-200.000	0.030	-0.408
-416.442	159.185	0.155	0.214
-415.428	-200.000	-0.031	0.142
-414.413	-6.893	0.250	0.168
-413.398	66.082	0.155	-0.155
-412.384	-118.975	-0.193	0.034
-411.369	-43.829	0.327	0.163
-410.355	-122.597	-0.339	0.054
-409.340	153.976	-0.073	0.099
-408.325	576.464	0.138	0.333
-407.311	-200.000	0.002	-0.192
-406.296	-61.495	0.077	-0.032
-405.282	-96.201	-0.226	0.059
-404.267	147.178	-0.135	-0.180
-403.252	-85.859	0.269	-0.082
-402.238	-118.894	-0.294	-0.051
-401.223	369.963	0.109	-0.218
-400.209	34.741	-0.259	0.224
-399.194	-58.270	-0.165	-0.071
-398.179	-189.310	-0.150	0.002
-397.165	112.395	-0.129	0.154
-396.150	4.798	-0.075	0.055
-395.136	-71.231	0.055	-0.020
-394.121	800.000	-0.064	0.189
-393.106	310.208	-0.054	-0.100
-392.092	117.344	-0.245	0.298
-391.077	6.615	0.165	-0.121
-390.063	31.762	-0.165	0.141
-389.048	-105.674	-0.066	0.015
-388.033	197.784	-0.161	-0.243
-387.019	522.852	-0.065	0.150
-386.004	-200.000	0.043	-0.452
-384.990	0.179	0.116	0.082
-383.975	317.687	0.040	-0.075
-382.960	265.985	0.061	0.105
-381.946	-16.523	0.086	-0.054
-380.931	-143.932	-0.109	-0.010
-379.917	-200.000	-0.022	0.155
-378.902	689.328	0.082	0.211
-377.888	131.206	0.165	0.209
-376.873	-135.450	0.122	0.014
-375.858	-46.094	-0.556	0.271
-374.844	-200.000	-0.019	0.330
-373.829	-71.194	0.080	-0.030
-372.815	-130.082	0.142	-0.019
-371.800	451.333	-0.013	-0.028
-370.785	-165.614	0.113	0.005
-369.771	39.271	0.332	-0.293
-368.756	-68.693	0.087	0.033
-367.742	93.571	0.368	0.412
-366.727	552.986	-0.090	0.213
-365.712	800.000	0.113	0.366
-364.698	8.219	-0.253	-0.188
-363.683	-53.138	0.108	0.049
-362.669	-14.722	-0.033	-0.021
-361.654	-86.187	-0.116	-0.035
-360.639	800.000	0.020	0.076
-359.625	241.847	-0.102	0.169
-358.610	54.520	-0.226	0.215
-357.596	-57.400	0.362	0.157
-356.581	295.971	0.020	-0.036
-355.566	-200.000	0.074	-0.364
-354.552	13.045	-0.160	0.122
-353.537	186.105	-0.206	-0.303
-352.523	-83.501	0.146	-0.046
-351.508	-200.000	0.059	0.304
-350.493	150.830	0.132	0.177
-349.479	135.660	0.073	-0.093
-348.464	-61.521	-0.449	-0.186
-347.450	-200.000	-0.008	-0.073
-346.435	41.069	0.103	0.092
-345.420	142.624	0.203	-0.266
-344.406	-133.731	-0.343	-0.042
-343.391	800.000	-0.072	0.281
-342.377	-40.707	0.167	0.086
-341.362	-120.610	-0.221	0.037
-340.348	11.479	-0.212	0.160
-339.333	-45.624	-0.189	0.092
-338.318	91.540	0.286	0.317
-337.304	-65.048	-0.207	-0.083
-336.289	-56.037	-0.211	-0.093
-335.275	-106.422	0.324	-0.071
-334.260	-55.164	0.344	-0.153
-333.245	144.761	-0.200	-0.263
-332.231	57.355	-0.331	-0.318
-331.216	-106.405	-0.350	0.077
-330.202	-114.311	0.185	-0.035
-329.187	-200.000	-0.003	-0.254
-328.172	-67.618	0.274	-0.106
-327.158	-200.000	-0.005	0.176
-326.143	270.990	-0.103	0.180
-325.129	-14.139	-0.134	0.085
-324.114	-37.121	-0.280	0.148
-323.099	800.000	-0.124	0.348
-322.085	558.803	0.063	0.149
-321.070	88.691	0.214	0.235
-320.056	-200.000	0.045	0.270
-319.041	-179.738	0.243	0.005
-318.026	-60.348	-0.148	-0.062
-317.012	-11.989	0.192	-0.124
-315.997	800.000	0.068	-0.278
-314.983	-109.425	-0.427	0.089
-313.968	51.690	-0.057	-0.054
-312.953	-28.904	-0.095	0.054
-311.939	800.000	-0.124	-0.359
-310.924	-86.148	-0.095	0.029
-309.910	76.835	0.061	0.064
-308.895	85.230	0.109	-0.117
-307.880	-108.483	-0.213	-0.045
-306.866	-32.999	-0.158	-0.087
-305.851	-29.885	0.154	-0.086
-304.837	70.745	-0.199	-0.203
-303.822	-49.899	0.408	-0.191
-302.807	238.971	-0.115	0.188
-301.793	688.391	-0.098	0.252
-300.778	42.461	-0.178	-0.159
-299.764	103.518	-0.179	-0.207
-298.749	53.509	-0.184	-0.174
-297.735	22.160	0.084	-0.067
-296.720	-114.963	-0.152	0.028
-295.705	-80.337	0.204	-0.067
-294.691	10.100	0.225	-0.168
-293.676	800.000	0.050	-0.138
-292.662	-132.133	0.280	0.036
-291.647	302.944	0.089	-0.162
-290.632	-200.000	0.031	0.321
-289.618	-200.000	-0.014	-0.195
-288.603	174.229	0.130	0.185
-287.589	-22.440	0.224	0.134
-286.574	-58.408	-0.124	0.053
-285.559	244.106	0.126	-0.208
-284.545	-69.504	-0.051	0.019
-283.530	-200.000	-0.010	-0.502
-282.516	-82.898	0.054	-0.017
-281.501	28.439	0.167	-0.139
-280.486	-3.552	0.063	0.043
-279.472	800.000	-0.094	-0.289
-278.457	-170.961	0.123	0.004
-277.443	-39.833	-0.262	-0.135
-276.428	800.000	-0.096	0.281
-275.413	-60.040	0.089	-0.037
-274.399	800.000	0.103	-0.362
-273.384	800.000	-0.008	-0.030
-272.370	122.217	0.162	-0.200
-271.355	-200.000	-0.047	0.300
-270.340	376.134	-0.113	0.227
-269.326	-37.823	-0.361	0.189
-268.311	71.616	-0.219	-0.224
-267.297	340.298	0.078	0.149
-266.282	-8.864	-0.131	-0.086
-265.267	-200.000	-0.043	0.294
-264.253	77.501	-0.037	-0.039
-263.238	39.274	-0.031	-0.027
-262.224	-134.612	-0.392	-0.047
-261.209	-200.000	-0.008	-0.331
-260.195	-200.000	0.016	0.152
-259.180	-147.308	-0.416	-0.035
-258.165	87.776	-0.182	0.199
-257.151	-89.989	0.084	-0.024
-256.136	800.000	-0.095	-0.260
-255.122	-200.000	-0.086	-0.442
-254.107	-147.775	-0.119	-0.010
-253.092	-200.000	-0.025	0.135
-252.078	133.509	-0.093	0.118
-251.063	-132.129	0.160	0.020
-250.049	-31.863	-0.057	0.031
-249.034	9.782	0.272	-0.203
-248.019	-16.601	-0.387	0.241
-247.005	-98.679	0.120	-0.030
-245.990	8.041	0.161	-0.118
-244.976	800.000	0.042	-0.121
-243.961	152.861	-0.108	0.145
-242.946	-61.466	-0.166	-0.069
-241.932	800.000	-0.006	0.026
-240.917	-41.998	-0.050	-0.025
-239.903	-113.809	-0.114	0.022
-238.888	800.000	-0.037	0.131
-237.873	114.748	0.056	0.067
-236.859	800.000	0.010	-0.038
-235.844	432.828	-0.049	-0.104
-234.830	-200.000	-0.034	0.255
-233.815	235.226	0.127	0.205
-232.800	247.434	0.200	-0.332
-231.786	526.701	0.061	-0.141
-230.771	0.829	0.328	-0.231
-229.757	-128.594	-0.077	-0.011
-228.742	-9.945	-0.173	0.113
-227.727	448.517	-0.055	-0.118
-226.713	-56.785	0.156	0.068
-225.698	1.963	0.110	-0.078
-224.684	-18.891	0.208	-0.127
-223.669	-104.839	0.522	-0.118
-222.655	425.732	0.073	0.155
-221.640	36.149	-0.218	0.188
-220.625	471.914	0.106	-0.234
-219.611	53.008	-0.052	-0.049
-218.596	-200.000	0.002	-0.131
-217.582	-72.534	0.090	0.033
-216.567	101.454	0.167	-0.192
-215.552	-125.414	-0.220	-0.033
-214.538	62.319	0.060	0.059
-213.523	23.545	-0.186	-0.151
-212.509	-114.701	0.295	-0.055
-211.494	249.070	-0.203	-0.337
-210.479	54.812	-0.038	0.036
-209.465	-46.051	0.328	-0.159
-208.450	-140.628	-0.190	-0.019
-207.436	-200.000	0.028	-0.183
-206.421	426.473	-0.108	-0.229
-205.406	209.797	0.003	-0.004
-204.392	800.000	-0.007	0.027
-203.377	-127.288	-0.063	0.009
-202.363	-85.710	0.084	0.026
-201.348	-179.458	0.295	0.006
-200.333	652.524	0.059	0.148
-199.319	-184.476	-0.160	-0.003
-198.304	82.428	0.154	-0.164
-197.290	-58.832	-0.129	0.055
-196.275	169.819	-0.099	-0.139
-195.260	-148.948	-0.252	-0.020
-194.246	1.558	0.195	0.138
-193.231	-59.723	0.123	0.052
-192.217	-140.033	0.258	0.027
-191.202	-200.000	-0.026	-0.223
-190.187	-50.795	-0.211	0.098
-189.173	111.399	0.217	-0.257
-188.158	-36.805	0.105	-0.055
-187.144	-200.000	0.070	-0.350
-186.129	15.461	0.165	0.127
-185.114	-77.264	0.204	0.070
-184.100	-53.749	0.267	0.120
-183.085	-200.000	0.014	-0.122
-182.071	19.149	0.162	0.127
-181.056	-27.395	-0.111	-0.063
-180.042	26.125	-0.023	-0.019
-179.027	-104.301	-0.125	0.028
-178.012	-53.926	-0.293	-0.131
-176.998	-200.000	-0.048	-0.228
-175.983	129.873	0.178	0.223
-174.969	-142.500	0.176	0.017
-173.954	-145.527	0.112	-0.010
-172.939	800.000	0.029	0.107
-171.925	-86.556	-0.044	0.013
-170.910	-200.000	0.034	0.299
-169.896	-51.247	-0.164	0.075
-168.881	-123.069	0.405	-0.064
-167.866	-200.000	-0.043	0.254
-166.852	301.496	0.086	0.156
-165.837	-145.685	-0.375	-0.033
-164.823	-53.275	0.480	0.216
-163.808	-59.376	-0.085	0.036
-162.793	-119.588	-0.095	0.016
-161.779	-68.377	-0.051	0.020
-160.764	227.700	0.157	0.251
-159.750	203.801	-0.100	0.152
-158.735	5.427	0.226	0.164
-157.720	-55.921	-0.130	-0.057
-156.706	800.000	-0.061	-0.237
-155.691	304.085	-0.083	0.150
-154.677	193.288	-0.183	-0.271
-153.662	-138.895	0.195	0.021
-152.647	207.766	-0.059	-0.090
-151.633	-36.650	-0.233	-0.123
-150.618	404.743	0.082	0.169
-149.604	-126.653	0.216	0.031
-148.589	-200.000	-0.014	0.071
-147.574	29.093	0.268	-0.222
-146.560	283.010	-0.203	-0.357
-145.545	800.000	0.067	0.238
-144.531	-39.268	-0.247	-0.127
-143.516	-65.356	0.273	0.108
-142.502	-10.962	0.113	0.073
-141.487	-127.563	-0.291	0.041
-140.472	159.110	-0.052	0.070
-139.458	170.582	-0.050	-0.070
-138.443	-93.988	0.232	-0.062
-137.429	-200.000	0.076	-0.000
-136.414	226.722	0.127	-0.202
-135.399	-86.927	0.307	-0.092
-134.385	-153.817	0.279	0.019
-133.370	-57.106	-0.468	-0.202
-132.356	-90.369	-0.125	-0.036
-131.341	67.354	-0.052	0.052
-130.326	50.406	0.108	-0.100
-129.312	-200.000	-0.049	-0.226
-128.297	800.000	0.057	-0.245
-127.283	-65.261	0.352	0.139
-126.268	320.732	-0.098	-0.182
-125.253	-177.720	-0.190	-0.004
-124.239	-67.796	0.262	-0.100
-123.224	97.246	0.064	0.072
-122.210	32.058	0.192	-0.162
-121.195	468.194	-0.056	-0.123
