DTS Sentinel unit serial number:	SN413079Multiplexer serial number:	ORYXHardware model number:	OX4-SRSoftware version number:	ORYX F/W v4.00 Oryx Data Collector v3.7.2.0data status	okinstallation	princeton_trtdifferential loss correction	single-endedforward channel	channel 1reverse channel	N/Adate	2019/09/16time	08:54:35forward acquisition time	60.00reverse acquisition time	0.00gamma	496.2192k internal	0.2325k external	0.2325temperature offset calibration	0.9981default loss term (dB/km)	0.3790temperature slope calibration	1.0000multiplexer offset coefficient	1.0000multiplexer slope coefficient	1.0000fibre end	0.00T internal ref (°C)	30.17T ext. ref 1 (°C)	12.03T ext. ref 2 (°C)	27.78length (m)	temperature (°C)	Stokes	anti-Stokes-747.200	-81.505	0.277	-0.092
-746.185	246.449	0.096	-0.163
-745.171	243.339	0.124	0.209
-744.156	140.337	-0.176	0.235
-743.142	108.826	-0.180	0.217
-742.127	-134.302	0.511	-0.063
-741.112	-102.305	-0.137	-0.033
-740.098	-70.980	-0.342	0.130
-739.083	266.470	-0.109	0.192
-738.069	-99.184	-0.103	0.026
-737.054	169.722	0.083	-0.119
-736.039	-154.653	-0.133	-0.009
-735.025	-47.706	0.231	-0.113
-734.010	-200.000	-0.009	0.161
-732.996	-200.000	-0.072	-0.401
-731.981	-80.318	0.228	-0.077
-730.966	70.799	0.125	-0.131
-729.952	144.963	-0.147	-0.198
-728.937	-67.883	0.084	-0.033
-727.923	-200.000	-0.006	-0.060
-726.908	-132.652	-0.371	0.048
-725.894	795.976	0.131	-0.364
-724.879	36.731	0.065	-0.058
-723.864	-65.784	-0.344	0.139
-722.850	-76.685	-0.345	0.122
-721.835	276.512	0.089	0.159
-720.821	-56.207	0.180	-0.081
-719.806	170.659	0.153	0.221
-718.791	-31.238	-0.454	-0.258
-717.777	-172.109	0.343	-0.011
-716.762	800.000	-0.068	-0.270
-715.748	89.076	-0.130	-0.146
-714.733	353.517	-0.117	-0.234
-713.718	-52.889	-0.212	-0.098
-712.704	260.109	0.091	-0.159
-711.689	-200.000	0.043	-0.367
-710.675	-200.000	-0.338	0.000
-709.660	-60.367	-0.102	0.044
-708.645	-200.000	0.027	-0.149
-707.631	-141.664	-0.093	0.009
-706.616	-108.296	0.099	-0.022
-705.602	362.762	0.088	-0.178
-704.587	-59.000	-0.341	-0.148
-703.572	74.171	0.177	-0.187
-702.558	504.216	-0.098	-0.229
-701.543	800.000	0.103	-0.292
-700.529	-49.762	0.296	-0.142
-699.514	36.330	-0.111	-0.098
-698.499	-200.000	-0.023	-0.174
-697.485	-200.000	-0.012	-0.311
-696.470	-200.000	-0.003	-0.028
-695.456	5.584	-0.221	-0.164
-694.441	-200.000	-0.007	0.118
-693.426	-200.000	-0.016	0.106
-692.412	-200.000	-0.011	0.077
-691.397	800.000	0.039	-0.123
-690.383	20.311	0.107	-0.087
-689.368	-141.594	-0.163	0.017
-688.354	-200.000	-0.005	-0.313
-687.339	214.611	-0.214	-0.341
-686.324	89.432	-0.114	-0.127
-685.310	37.482	-0.089	-0.080
-684.295	334.897	0.061	-0.119
-683.281	800.000	0.134	-0.386
-682.266	0.377	0.188	-0.135
-681.251	800.000	0.047	-0.178
-680.237	-200.000	0.009	0.221
-679.222	-187.970	0.276	-0.004
-678.208	800.000	-0.069	-0.226
-677.193	-200.000	-0.029	0.156
-676.178	-200.000	-0.027	0.344
-675.164	377.276	0.056	0.115
-674.149	381.710	-0.183	-0.379
-673.135	301.665	-0.135	0.252
-672.120	168.184	-0.107	-0.153
-671.105	-46.945	-0.136	-0.067
-670.091	-200.000	-0.015	-0.200
-669.076	-44.773	0.123	0.062
-668.062	-75.763	-0.338	-0.121
-667.047	-200.000	-0.041	-0.234
-666.032	74.070	-0.153	0.162
-665.018	-200.000	0.004	0.241
-664.003	98.654	-0.037	0.043
-662.989	209.708	-0.168	-0.265
-661.974	-200.000	0.010	0.208
-660.959	-128.082	0.302	-0.043
-659.945	-23.072	-0.104	-0.063
-658.930	800.000	0.022	-0.081
-657.916	619.435	-0.030	-0.075
-656.901	800.000	-0.116	-0.345
-655.886	80.700	-0.134	-0.145
-654.872	-200.000	-0.013	-0.301
-653.857	-200.000	0.034	0.221
-652.843	27.464	0.225	-0.190
-651.828	-43.482	-0.275	-0.140
-650.814	-19.691	-0.339	0.211
-649.799	-22.376	0.264	0.161
-648.784	-154.140	0.158	0.011
-647.770	-77.384	0.062	0.022
-646.755	-51.585	-0.166	-0.078
-645.741	-200.000	-0.011	-0.063
-644.726	-19.296	0.171	-0.107
-643.711	199.630	0.285	-0.439
-642.697	141.804	-0.168	-0.223
-641.682	65.199	-0.182	0.185
-640.668	156.528	-0.067	0.092
-639.653	626.008	-0.062	-0.157
-638.638	-200.000	-0.055	0.317
-637.624	87.373	0.128	-0.142
-636.609	-126.264	0.096	0.014
-635.595	800.000	-0.021	-0.060
-634.580	-16.752	-0.023	0.014
-633.565	800.000	-0.056	-0.228
-632.551	1.340	0.021	-0.015
-631.536	60.599	0.123	0.122
-630.522	-150.044	-0.095	-0.007
-629.507	-3.573	-0.092	0.064
-628.492	-81.341	-0.209	-0.069
-627.478	-200.000	-0.023	-0.256
-626.463	-200.000	0.008	-0.096
-625.449	-42.768	-0.153	-0.078
-624.434	163.105	0.064	0.091
-623.419	356.972	0.101	-0.202
-622.405	-102.191	-0.152	0.037
-621.390	319.174	-0.171	-0.325
-620.376	-200.000	0.010	-0.082
-619.361	77.306	-0.333	0.356
-618.346	800.000	-0.049	-0.198
-617.332	800.000	-0.139	0.390
-616.317	800.000	0.031	-0.092
-615.303	-8.447	-0.211	0.142
-614.288	15.634	-0.103	-0.081
-613.273	197.902	0.192	0.295
-612.259	732.769	-0.028	0.076
-611.244	-200.000	-0.034	-0.285
-610.230	-200.000	0.020	-0.585
-609.215	-200.000	-0.017	-0.217
-608.201	-157.368	-0.197	-0.012
-607.186	773.534	0.117	-0.319
-606.171	-200.000	0.030	-0.230
-605.157	-68.301	-0.367	-0.143
-604.142	60.643	0.254	0.252
-603.128	-153.613	0.045	-0.003
-602.113	-200.000	0.005	0.102
-601.098	-200.000	0.037	0.361
-600.084	-200.000	0.058	-0.300
-599.069	-144.569	-0.230	0.021
-598.055	-42.848	-0.074	-0.038
-597.040	-7.756	0.099	0.067
-596.025	182.193	0.186	-0.275
-595.011	55.548	-0.193	-0.188
-593.996	132.126	0.076	-0.098
-592.982	-200.000	-0.009	-0.110
-591.967	-101.576	-0.135	-0.033
-590.952	-200.000	0.034	0.290
-589.938	60.223	-0.084	-0.084
-588.923	-176.311	-0.124	0.003
-587.909	165.684	-0.148	-0.210
-586.894	-200.000	-0.015	-0.174
-585.879	-149.729	0.050	0.004
-584.865	-89.946	-0.228	-0.067
-583.850	800.000	-0.010	0.043
-582.836	800.000	0.054	-0.165
-581.821	256.555	-0.184	-0.316
-580.806	-17.117	-0.119	-0.075
-579.792	-26.323	-0.023	-0.014
-578.777	-116.050	0.194	0.036
-577.763	800.000	0.074	0.206
-576.748	-130.948	-0.208	-0.028
-575.733	-200.000	0.011	-0.222
-574.719	-101.693	-0.181	0.044
-573.704	399.204	0.076	-0.159
-572.690	74.373	-0.308	-0.325
-571.675	561.559	0.013	-0.032
-570.661	-60.520	0.104	0.044
-569.646	-73.808	0.127	-0.046
-568.631	213.187	-0.195	0.308
-567.617	-121.512	-0.184	-0.031
-566.602	800.000	-0.111	0.317
-565.588	-200.000	0.054	-0.362
-564.573	287.448	-0.106	0.192
-563.558	-84.378	0.141	0.045
-562.544	523.374	-0.025	-0.058
-561.529	-15.003	-0.089	-0.057
-560.515	-145.502	0.130	0.012
-559.500	-200.000	-0.074	-0.585
-558.485	641.623	0.122	-0.312
-557.471	55.771	-0.266	0.259
-556.456	-200.000	0.005	0.180
-555.442	-128.917	0.321	0.045
-554.427	-104.422	-0.379	-0.088
-553.412	146.858	-0.027	0.036
-552.398	171.820	-0.095	0.136
-551.383	-141.616	0.119	0.012
-550.369	-132.068	0.266	0.035
-549.354	-94.945	-0.223	-0.060
-548.339	75.230	0.168	-0.177
-547.325	-200.000	0.004	-0.076
-546.310	61.539	-0.199	-0.198
-545.296	99.443	-0.257	0.297
-544.281	740.248	-0.119	0.319
-543.266	-92.873	-0.157	0.044
-542.252	482.967	0.151	-0.345
-541.237	800.000	-0.043	-0.120
-540.223	800.000	0.056	0.198
-539.208	-46.943	-0.159	-0.078
-538.193	144.427	0.109	-0.146
-537.179	800.000	0.095	0.391
-536.164	-87.177	0.239	-0.073
-535.150	101.680	0.178	-0.208
-534.135	-200.000	0.016	-0.178
-533.121	-117.014	0.118	0.021
-532.106	-167.443	-0.381	0.015
-531.091	770.231	-0.075	-0.203
-530.077	350.760	-0.046	-0.091
-529.062	-200.000	0.030	0.281
-528.048	-176.905	-0.077	-0.002
-527.033	-60.154	-0.301	-0.128
-526.018	-128.634	0.358	0.051
-525.004	-200.000	0.029	0.205
-523.989	103.828	-0.118	0.139
-522.975	-158.413	0.108	-0.006
-521.960	-200.000	0.026	-0.142
-520.945	-116.053	-0.275	0.051
-519.931	-141.465	-0.192	0.019
-518.916	-200.000	0.000	-0.047
-517.902	-61.444	0.439	-0.185
-516.887	154.309	-0.069	-0.094
-515.872	800.000	-0.064	0.251
-514.858	-200.000	0.018	0.306
-513.843	335.194	-0.155	0.301
-512.829	-29.281	-0.043	-0.024
-511.814	-172.101	-0.377	-0.012
-510.799	759.152	0.114	-0.308
-509.785	-103.943	0.392	0.092
-508.770	-6.605	-0.023	0.016
-507.756	800.000	-0.068	0.251
-506.741	-200.000	0.001	0.021
-505.726	-191.106	0.214	0.002
-504.712	-6.473	-0.118	-0.080
-503.697	38.223	0.118	0.105
-502.683	-144.012	0.101	-0.010
-501.668	256.125	0.188	-0.323
-500.653	-78.486	-0.138	-0.047
-499.639	-147.535	0.281	0.024
-498.624	108.572	-0.143	0.171
-497.610	379.383	0.106	-0.216
-496.595	-46.527	0.219	-0.107
-495.581	-101.683	-0.282	-0.068
-494.566	800.000	0.072	-0.315
-493.551	89.829	-0.202	-0.225
-492.537	528.104	0.058	0.136
-491.522	-114.257	0.390	0.075
-490.508	-200.000	-0.020	-0.128
-489.493	-166.606	0.064	0.003
-488.478	-78.777	-0.251	-0.085
-487.464	-90.040	0.380	0.111
-486.449	-86.628	0.283	0.087
-485.435	44.546	-0.250	-0.229
-484.420	148.416	0.014	0.019
-483.405	800.000	-0.014	0.043
-482.391	51.670	-0.388	0.369
-481.376	-60.952	-0.060	-0.025
-480.362	-49.650	-0.094	0.044
-479.347	6.006	0.054	-0.040
-478.332	104.621	-0.023	0.027
-477.318	-187.865	0.136	0.002
-476.303	-200.000	-0.026	-0.192
-475.289	-110.468	-0.088	0.018
-474.274	-148.100	0.228	-0.019
-473.259	800.000	-0.029	0.105
-472.245	-198.014	0.219	0.001
-471.230	36.895	0.218	0.192
-470.216	-85.711	-0.170	0.053
-469.201	800.000	-0.013	0.046
-468.186	15.464	-0.122	-0.096
-467.172	800.000	0.076	0.271
-466.157	-200.000	-0.018	-0.110
-465.143	106.462	0.124	0.147
-464.128	800.000	-0.049	-0.185
-463.113	-87.831	-0.222	-0.067
-462.099	521.486	-0.126	-0.296
-461.084	-49.669	0.235	0.112
-460.070	111.454	0.034	-0.040
-459.055	-200.000	-0.159	0.000
-458.040	-116.466	0.289	-0.053
-457.026	-111.135	-0.202	0.041
-456.011	-110.902	0.212	-0.043
-454.997	-65.958	0.344	0.137
-453.982	168.805	0.073	0.104
-452.968	-0.106	0.179	0.127
-451.953	-168.665	-0.414	0.016
-450.938	-90.766	-0.263	-0.076
-449.924	-79.585	-0.088	-0.030
-448.909	-66.040	0.112	0.045
-447.895	94.314	0.192	0.217
-446.880	-55.275	-0.044	-0.020
-445.865	379.918	0.087	-0.177
-444.851	-6.163	0.294	-0.200
-443.836	-200.000	-0.008	0.051
-442.822	-26.768	0.299	-0.174
-441.807	-138.073	0.488	0.054
-440.792	-144.578	-0.100	-0.009
-439.778	-192.423	0.218	0.002
-438.763	-200.000	-0.000	-0.036
-437.749	-112.432	-0.085	0.017
-436.734	-62.507	-0.129	-0.053
-435.719	497.080	0.083	0.190
-434.705	-105.219	0.104	0.024
-433.690	7.025	-0.276	-0.205
-432.676	8.086	0.039	-0.029
-431.661	800.000	0.034	0.120
-430.646	-167.472	-0.171	0.007
-429.632	-200.000	-0.015	0.156
-428.617	-43.098	-0.114	-0.057
-427.603	-173.700	-0.106	-0.003
-426.588	-200.000	-0.038	-0.334
-425.573	-125.363	0.241	-0.037
-424.559	212.842	0.086	-0.136
-423.544	-132.823	-0.130	-0.017
-422.530	-200.000	-0.009	-0.159
-421.515	142.497	-0.087	0.115
-420.500	-62.230	-0.192	0.080
-419.486	95.543	0.108	0.123
-418.471	-100.965	-0.102	-0.025
-417.457	584.112	0.089	-0.218
-416.442	21.612	0.164	-0.133
-415.428	249.835	-0.069	-0.117
-414.413	-123.705	0.330	-0.052
-413.398	106.828	-0.179	-0.212
-412.384	17.107	-0.042	0.033
-411.369	-38.600	-0.336	-0.177
-410.355	-81.766	0.112	-0.037
-409.340	-161.709	-0.647	0.033
-408.325	36.150	-0.238	-0.209
-407.311	133.290	-0.127	-0.163
-406.296	-200.000	0.008	0.057
-405.282	-200.000	-0.029	-0.239
-404.267	-22.619	-0.245	-0.147
-403.252	124.356	0.361	0.452
-402.238	-200.000	-0.018	-0.237
-401.223	-20.466	-0.353	0.216
-400.209	-90.671	0.122	0.035
-399.194	26.856	0.345	0.288
-398.179	-6.751	0.267	0.181
-397.165	131.272	0.202	-0.258
-396.150	-10.165	0.139	0.092
-395.136	-28.919	0.120	0.069
-394.121	757.378	-0.052	0.141
-393.106	209.329	0.035	-0.054
-392.092	104.129	-0.289	0.339
-391.077	-141.794	0.172	0.017
-390.063	-120.858	0.385	-0.065
-389.048	386.648	0.089	0.183
-388.033	800.000	-0.087	-0.247
-387.019	800.000	-0.071	-0.208
-386.004	-56.438	-0.195	-0.086
-384.990	-126.486	-0.146	-0.022
-383.975	800.000	-0.084	0.353
-382.960	-200.000	-0.027	0.258
-381.946	494.477	0.140	-0.320
-380.931	-43.614	0.052	0.026
-379.917	-200.000	-0.036	-0.262
-378.902	-133.615	0.138	0.017
-377.888	-162.858	-0.175	-0.008
-376.873	40.440	-0.127	-0.114
-375.858	-200.000	-0.027	0.284
-374.844	-124.316	0.074	-0.011
-373.829	221.805	-0.122	0.195
-372.815	390.280	0.101	-0.209
-371.800	-140.886	0.149	-0.015
-370.785	291.295	-0.103	-0.186
-369.771	59.017	0.168	-0.164
-368.756	105.009	-0.147	0.172
-367.742	9.434	0.158	-0.119
-366.727	-200.000	-0.023	0.245
-365.712	141.793	-0.303	0.400
-364.698	-133.984	-0.183	0.023
-363.683	42.793	-0.141	0.127
-362.669	800.000	0.071	0.274
-361.654	84.189	0.230	0.250
-360.639	-40.122	0.324	0.168
-359.625	-35.499	-0.276	-0.149
-358.610	-121.804	-0.041	0.007
-357.596	-200.000	0.026	-0.180
-356.581	128.721	-0.057	0.072
-355.566	-125.096	0.116	-0.018
-354.552	72.346	-0.118	-0.123
-353.537	800.000	-0.043	-0.146
-352.523	576.283	-0.030	0.073
-351.508	71.439	-0.206	-0.212
-350.493	-58.290	-0.132	0.057
-349.479	-95.201	-0.057	-0.015
-348.464	-30.533	-0.044	-0.025
-347.450	-159.668	0.065	-0.004
-346.435	-67.616	0.281	-0.110
-345.420	302.746	-0.063	0.116
-344.406	175.718	0.199	-0.287
-343.391	531.780	-0.021	0.049
-342.377	306.251	0.026	0.048
-341.362	-200.000	-0.040	-0.238
-340.348	-83.523	0.133	-0.042
-339.333	-11.953	0.082	0.053
-338.318	231.388	-0.112	-0.182
-337.304	-200.000	0.048	0.263
-336.289	-62.596	-0.209	0.086
-335.275	483.567	-0.082	-0.186
-334.260	105.762	0.235	-0.275
-333.245	-116.818	0.322	-0.059
-332.231	341.436	0.134	0.260
-331.216	317.603	0.130	-0.244
-330.202	-187.912	-0.124	0.002
-329.187	-200.000	-0.035	-0.193
-328.172	66.437	-0.114	0.115
-327.158	-53.658	-0.072	-0.033
-326.143	203.396	-0.109	0.167
-325.129	441.869	-0.055	0.120
-324.114	169.741	0.211	0.299
-323.099	338.025	-0.113	0.219
-322.085	-120.207	-0.099	0.017
-321.070	-117.740	0.387	-0.069
-320.056	-200.000	-0.041	-0.205
-319.041	-118.158	0.186	0.033
-318.026	-200.000	-0.006	-0.084
-317.012	-36.249	0.173	-0.093
-315.997	637.120	0.097	0.244
-314.983	431.821	-0.124	0.267
-313.968	476.938	-0.047	-0.106
-312.953	44.627	0.270	-0.246
-311.939	-121.638	-0.318	-0.052
-310.924	-15.817	0.203	0.128
-309.910	-66.454	0.136	-0.054
-308.895	261.251	-0.199	0.342
-307.880	-200.000	-0.030	0.362
-306.866	-111.315	-0.691	-0.140
-305.851	-51.899	0.117	-0.054
-304.837	-126.268	0.264	-0.039
-303.822	-177.725	-0.082	-0.002
-302.807	-200.000	0.043	0.338
-301.793	-159.884	-0.324	0.018
-300.778	220.853	0.167	0.265
-299.764	9.795	-0.189	0.142
-298.749	800.000	-0.062	0.213
-297.735	-73.246	0.198	0.072
-296.720	113.292	0.319	0.384
-295.705	89.420	-0.149	0.165
-294.691	141.730	0.035	-0.046
-293.676	91.956	-0.190	0.213
-292.662	24.249	0.247	0.203
-291.647	607.373	0.156	-0.386
-290.632	-104.664	-0.253	0.058
-289.618	-49.471	0.277	0.131
-288.603	-42.804	-0.185	0.093
-287.589	-11.033	-0.108	0.070
-286.574	58.279	0.083	0.081
-285.559	54.257	0.060	0.057
-284.545	800.000	-0.086	-0.372
-283.530	-200.000	-0.001	0.057
-282.516	800.000	0.086	0.242
-281.501	37.092	0.182	0.159
-280.486	169.488	0.078	-0.110
-279.472	-200.000	0.040	-0.261
-278.457	11.235	-0.047	-0.036
-277.443	65.590	-0.175	0.175
-276.428	293.271	-0.152	-0.274
-275.413	-81.530	0.566	0.184
-274.399	-200.000	0.026	0.312
-273.384	14.152	-0.189	0.145
-272.370	-114.184	0.139	0.027
-271.355	39.392	0.099	0.088
-270.340	-87.550	0.403	-0.121
-269.326	-18.555	-0.271	0.168
-268.311	800.000	0.071	0.294
-267.297	-54.965	0.048	0.021
-266.282	96.038	-0.127	0.144
-265.267	69.101	-0.139	0.142
-264.253	800.000	-0.110	-0.449
-263.238	800.000	-0.023	-0.096
-262.224	-34.050	0.170	0.092
-261.209	-200.000	0.034	0.186
-260.195	-200.000	0.039	-0.173
-259.180	657.490	0.074	-0.188
-258.165	-1.014	-0.120	0.084
-257.151	-87.439	-0.343	0.103
-256.136	102.719	0.119	-0.138
-255.122	-46.873	-0.071	0.034
-254.107	273.026	-0.108	0.189
-253.092	-200.000	0.057	0.268
-252.078	-137.864	0.123	-0.014
-251.063	51.998	0.117	-0.110
-250.049	-200.000	-0.067	0.307
-249.034	365.809	-0.066	-0.131
-248.019	800.000	-0.037	0.141
-247.005	-65.958	0.110	-0.044
-245.990	-135.627	-0.267	0.031
-244.976	-200.000	-0.009	0.093
-243.961	-98.774	-0.179	-0.045
-242.946	-200.000	0.003	0.186
-241.932	-200.000	-0.074	-0.377
-240.917	112.141	0.128	0.153
-239.903	3.571	0.043	0.031
-238.888	-1.635	0.393	0.274
-237.873	-96.044	0.194	0.051
-236.859	-200.000	0.021	0.204
-235.844	-91.887	0.178	0.050
-234.830	-116.103	0.530	0.097
-233.815	800.000	0.027	0.114
-232.800	-200.000	-0.000	0.171
-231.786	152.483	0.129	-0.174
-230.771	136.575	0.159	-0.205
-229.757	70.736	-0.142	0.145
-228.742	147.186	-0.127	-0.169
-227.727	53.196	0.154	-0.146
-226.713	503.807	0.172	-0.392
-225.698	305.313	0.130	0.239
-224.684	-128.468	-0.034	-0.005
-223.669	-42.666	-0.199	0.100
-222.655	13.070	0.130	0.099
-221.640	-61.958	-0.377	-0.156
-220.625	364.109	-0.087	0.174
-219.611	-200.000	0.000	0.268
-218.596	800.000	0.067	0.267
-217.582	-48.343	-0.183	-0.087
-216.567	-200.000	-0.054	-0.242
-215.552	11.796	-0.227	-0.172
-214.538	800.000	-0.081	-0.293
-213.523	-200.000	0.013	-0.096
-212.509	-72.625	0.141	0.051
-211.494	-200.000	0.023	0.122
-210.479	800.000	0.056	0.152
-209.465	67.927	-0.133	0.134
-208.450	92.400	0.089	0.099
-207.436	5.132	-0.134	0.098
-206.421	-3.219	0.366	0.252
-205.406	45.823	0.170	0.155
-204.392	-76.304	0.274	-0.095
-203.377	48.706	-0.099	-0.092
-202.363	164.908	-0.123	0.171
-201.348	-93.048	0.224	0.062
-200.333	-92.093	-0.224	-0.063
-199.319	48.460	0.081	-0.075
-198.304	-18.925	0.337	0.207
-197.290	-129.856	-0.487	0.066
-196.275	-80.128	-0.032	0.011
-195.260	7.039	0.229	-0.169
-194.246	800.000	-0.103	0.347
-193.231	-133.150	-0.295	0.037
-192.217	-10.395	0.147	-0.096
-191.202	109.936	-0.103	0.122
-190.187	151.251	0.113	0.152
-189.173	119.246	0.068	0.083
-188.158	648.708	-0.028	-0.070
-187.144	36.066	0.095	0.083
-186.129	-200.000	-0.008	0.104
-185.114	-163.718	-0.364	0.017
-184.100	-200.000	0.003	-0.365
-183.085	-200.000	-0.018	-0.151
-182.071	-84.547	-0.302	0.094
-181.056	28.725	-0.092	-0.077
-180.042	0.011	0.325	-0.229
-179.027	800.000	-0.027	0.104
-178.012	-200.000	-0.017	0.199
-176.998	-107.266	-0.087	-0.019
-175.983	-200.000	0.027	-0.164
-174.969	800.000	0.040	0.149
-173.954	74.463	0.046	0.047
-172.939	-155.534	0.280	-0.018
-171.925	98.834	-0.077	0.087
-170.910	-200.000	-0.018	-0.218
-169.896	800.000	-0.074	-0.269
-168.881	553.609	0.163	-0.386
-167.866	91.752	0.136	0.151
-166.852	-37.661	0.229	0.120
-165.837	61.443	-0.129	-0.127
-164.823	-109.070	0.117	-0.025
-163.808	-137.589	0.275	-0.031
-162.793	-200.000	-0.005	-0.136
-161.779	-116.753	-0.082	-0.015
-160.764	1.113	-0.172	-0.122
-159.750	-112.162	-0.073	-0.014
-158.735	154.117	0.112	-0.151
-157.720	327.140	-0.074	-0.139
-156.706	-200.000	0.028	0.327
-155.691	-64.023	-0.230	-0.093
-154.677	165.975	0.118	0.164
-153.662	35.165	-0.229	0.198
-152.647	-115.841	0.052	-0.010
-151.633	-200.000	0.031	0.188
-150.618	-64.424	-0.201	-0.081
-149.604	-167.603	-0.366	0.014
-148.589	-73.297	0.217	0.078
-147.574	-200.000	-0.019	-0.194
-146.560	9.261	-0.231	0.172
-145.545	-200.000	-0.025	0.291
-144.531	-127.276	0.051	0.007
-143.516	29.604	0.254	0.213
-142.502	-127.727	0.224	-0.032
-141.487	800.000	-0.037	-0.149
-140.472	553.879	-0.065	0.153
-139.458	119.276	-0.131	-0.159
-138.443	164.037	0.191	0.265
-137.429	-200.000	0.036	-0.226
-136.414	800.000	-0.134	0.416
-135.399	-12.934	-0.188	0.120
-134.385	8.826	0.077	0.057
-133.370	-37.395	0.404	0.212
-132.356	800.000	-0.108	0.370
-131.341	184.552	-0.057	0.083
-130.326	66.178	0.140	0.140
-129.312	-200.000	-0.017	0.117
-128.297	30.830	-0.180	0.152
-127.283	110.936	0.040	-0.047
-126.268	73.637	0.048	-0.050
-125.253	800.000	0.087	-0.333
-124.239	49.533	0.067	0.062
-123.224	-200.000	0.111	-0.000
