DTS Sentinel unit serial number:	SN413079Multiplexer serial number:	ORYXHardware model number:	OX4-SRSoftware version number:	ORYX F/W v4.00 Oryx Data Collector v3.7.2.0data status	okinstallation	princeton_trtdifferential loss correction	single-endedforward channel	channel 1reverse channel	N/Adate	2019/09/18time	15:14:35forward acquisition time	60.00reverse acquisition time	0.00gamma	496.2192k internal	0.2304k external	0.2304temperature offset calibration	0.9992default loss term (dB/km)	0.3790temperature slope calibration	1.0000multiplexer offset coefficient	1.0000multiplexer slope coefficient	1.0000fibre end	0.00T internal ref (°C)	35.56T ext. ref 1 (°C)	0.75T ext. ref 2 (°C)	32.57length (m)	temperature (°C)	Stokes	anti-Stokes-747.200	181.910	-0.334	-0.501
-746.185	60.849	-0.240	0.242
-745.171	28.534	-0.031	0.027
-744.156	-54.523	-0.072	0.033
-743.142	-67.544	0.071	0.028
-742.127	-200.000	0.003	0.317
-741.112	439.774	-0.086	0.192
-740.098	370.930	-0.105	-0.217
-739.083	67.034	0.183	-0.190
-738.069	466.552	0.051	-0.116
-737.054	271.774	-0.157	-0.281
-736.039	28.060	-0.188	0.162
-735.025	-26.513	0.161	-0.096
-734.010	-31.848	0.093	0.053
-732.996	31.808	-0.114	0.100
-731.981	502.573	-0.111	0.261
-730.966	-29.091	0.340	-0.199
-729.952	383.621	0.062	-0.130
-728.937	94.295	-0.218	0.252
-727.923	135.544	-0.105	-0.139
-726.908	130.847	-0.345	-0.451
-725.894	-69.408	-0.240	-0.094
-724.879	580.099	-0.135	-0.337
-723.864	-200.000	0.024	-0.109
-722.850	127.103	0.185	0.239
-721.835	-200.000	-0.023	0.203
-720.821	-104.229	-0.273	-0.065
-719.806	103.949	-0.056	0.066
-718.791	331.121	-0.171	-0.335
-717.777	223.632	-0.113	0.186
-716.762	102.857	-0.139	0.166
-715.748	-200.000	-0.056	-0.281
-714.733	186.078	0.048	0.073
-713.718	-132.482	-0.359	0.047
-712.704	-200.000	-0.001	-0.230
-711.689	-64.476	-0.222	-0.092
-710.675	-130.514	-0.254	-0.035
-709.660	-151.697	0.238	0.018
-708.645	-81.695	-0.325	0.109
-707.631	254.168	-0.060	0.104
-706.616	800.000	0.084	0.305
-705.602	89.414	-0.277	-0.313
-704.587	-200.000	0.015	0.139
-703.572	-26.160	-0.301	-0.180
-702.558	108.688	0.262	-0.319
-701.543	10.878	-0.037	-0.029
-700.529	125.581	0.148	-0.190
-699.514	75.788	-0.094	-0.101
-698.499	-44.380	0.312	0.159
-697.485	800.000	0.068	0.249
-696.470	572.640	0.050	0.123
-695.456	-111.298	-0.322	-0.067
-694.441	165.049	-0.128	0.184
-693.426	109.771	-0.120	-0.146
-692.412	114.325	-0.149	-0.184
-691.397	735.939	-0.069	0.188
-690.383	-200.000	-0.017	-0.151
-689.368	-200.000	0.036	-0.205
-688.354	-125.127	0.294	0.046
-687.339	281.209	-0.080	0.146
-686.324	-120.699	-0.163	-0.028
-685.310	-77.054	0.128	-0.045
-684.295	-23.954	-0.169	0.103
-683.281	267.419	-0.086	0.153
-682.266	-179.187	0.193	-0.004
-681.251	-200.000	-0.005	-0.046
-680.237	136.761	-0.091	-0.121
-679.222	-150.277	-0.137	0.011
-678.208	800.000	0.155	0.513
-677.193	220.018	0.087	0.142
-676.178	-139.845	-0.212	-0.023
-675.164	87.851	-0.049	0.055
-674.149	316.225	0.121	-0.232
-673.135	-27.738	-0.239	-0.141
-672.120	66.581	0.232	-0.240
-671.105	-200.000	0.020	0.292
-670.091	-49.024	-0.197	-0.096
-669.076	174.258	-0.110	-0.162
-668.062	1.462	0.347	-0.253
-667.047	-52.004	-0.304	0.143
-666.032	-1.064	-0.152	0.109
-665.018	800.000	-0.051	-0.173
-664.003	-32.348	0.134	0.076
-662.989	800.000	-0.071	-0.259
-661.974	-200.000	0.016	0.078
-660.959	-37.330	0.043	-0.023
-659.945	123.727	0.056	0.071
-658.930	-54.227	-0.119	0.055
-657.916	-59.280	0.052	-0.023
-656.901	217.877	0.074	0.120
-655.886	-167.640	0.172	0.007
-654.872	-83.915	-0.179	0.058
-653.857	37.435	-0.085	-0.076
-652.843	182.271	0.138	-0.207
-651.828	352.778	0.024	0.049
-650.814	-172.254	-0.228	-0.007
-649.799	-54.130	0.091	-0.042
-648.784	-89.916	0.429	-0.127
-647.770	358.079	-0.084	0.170
-646.755	31.370	-0.102	-0.089
-645.741	56.554	0.168	-0.166
-644.726	-113.925	0.168	0.033
-643.711	-22.319	-0.042	-0.026
-642.697	94.769	-0.134	-0.155
-641.682	-8.455	-0.196	-0.134
-640.668	209.949	0.153	-0.243
-639.653	111.719	0.116	0.142
-638.638	-91.170	-0.105	-0.031
-637.624	-63.676	-0.090	0.037
-636.609	71.088	0.026	-0.027
-635.595	-135.281	-0.200	-0.024
-634.580	-200.000	0.036	-0.462
-633.565	-32.392	-0.074	-0.042
-632.551	150.969	-0.168	0.232
-631.536	-57.835	0.144	0.064
-630.522	-137.152	-0.163	0.019
-629.507	158.668	0.106	-0.150
-628.492	31.892	-0.121	-0.105
-627.478	127.857	0.063	-0.082
-626.463	17.727	-0.144	0.116
-625.449	387.919	0.056	-0.118
-624.434	-171.766	-0.245	-0.008
-623.419	110.273	-0.147	-0.179
-622.405	-116.298	0.187	0.035
-621.390	-78.742	0.223	0.077
-620.376	-200.000	0.007	-0.207
-619.361	-200.000	-0.013	0.062
-618.346	122.404	0.164	0.208
-617.332	-98.821	-0.090	0.023
-616.317	-99.589	-0.278	0.071
-615.303	-167.494	-0.182	0.007
-614.288	800.000	-0.037	-0.117
-613.273	-83.334	-0.280	0.091
-612.259	644.843	-0.089	0.230
-611.244	-79.599	-0.258	-0.088
-610.230	-79.723	0.215	0.073
-609.215	-6.824	0.340	-0.234
-608.201	-200.000	0.053	0.244
-607.186	-200.000	-0.021	-0.249
-606.171	51.990	-0.256	0.247
-605.157	49.352	-0.110	0.105
-604.142	-133.068	0.174	0.022
-603.128	800.000	-0.038	-0.164
-602.113	800.000	0.066	0.191
-601.098	-140.014	-0.103	-0.011
-600.084	-124.448	-0.113	0.018
-599.069	-96.691	0.267	0.071
-598.055	-144.077	-0.127	0.012
-597.040	48.925	0.326	-0.310
-596.025	33.223	-0.201	-0.177
-595.011	-200.000	-0.019	-0.113
-593.996	13.421	0.228	-0.179
-592.982	-200.000	0.014	-0.111
-591.967	-200.000	-0.011	-0.077
-590.952	18.465	-0.266	-0.215
-589.938	-24.457	0.195	-0.118
-588.923	800.000	0.048	-0.171
-587.909	260.728	-0.083	-0.146
-586.894	-126.365	0.169	0.025
-585.879	-24.370	0.147	0.089
-584.865	20.676	-0.149	-0.122
-583.850	-27.486	0.291	-0.171
-582.836	-200.000	0.009	0.046
-581.821	-146.376	0.272	-0.024
-580.806	376.667	0.042	-0.087
-579.792	800.000	0.076	0.323
-578.777	-70.002	0.127	0.049
-577.763	23.805	-0.398	-0.332
-576.748	-95.779	0.068	-0.018
-575.733	115.092	0.204	0.252
-574.719	-100.324	-0.103	-0.026
-573.704	571.608	-0.033	0.082
-572.690	-121.274	-0.238	-0.040
-571.675	-200.000	-0.024	0.110
-570.661	-200.000	-0.005	0.037
-569.646	214.148	0.182	0.292
-568.631	-64.687	-0.183	-0.075
-567.617	-200.000	-0.000	0.306
-566.602	-105.885	0.281	0.064
-565.588	-200.000	0.011	0.188
-564.573	-198.576	-0.172	0.001
-563.558	-50.163	-0.239	0.114
-562.544	220.985	0.187	0.303
-561.529	161.423	-0.115	0.162
-560.515	223.041	-0.125	-0.203
-559.500	-66.855	0.091	-0.036
-558.485	-17.688	0.214	0.136
-557.471	-200.000	0.002	0.258
-556.456	719.447	0.159	0.426
-555.442	-153.715	0.166	-0.012
-554.427	-32.452	-0.226	0.127
-553.412	-8.963	-0.094	0.064
-552.398	-145.873	-0.499	-0.045
-551.383	85.218	0.120	0.133
-550.369	-71.542	0.203	-0.077
-549.354	112.546	-0.177	0.217
-548.339	92.632	-0.117	-0.134
-547.325	-200.000	-0.011	-0.295
-546.310	-44.955	0.216	-0.109
-545.296	-43.581	0.179	-0.091
-544.281	-200.000	0.004	0.063
-543.266	-200.000	-0.025	-0.137
-542.252	199.274	0.189	0.292
-541.237	77.598	-0.210	-0.226
-540.223	42.076	0.206	-0.189
-539.208	-115.830	0.109	-0.021
-538.193	-25.882	-0.289	-0.172
-537.179	147.765	0.208	0.283
-536.164	-153.269	-0.199	0.014
-535.150	-200.000	-0.094	-0.576
-534.135	148.260	0.154	-0.210
-533.121	-144.007	0.417	0.040
-532.106	-200.000	0.015	-0.122
-531.091	-200.000	0.001	-0.034
-530.077	-200.000	0.010	-0.096
-529.062	800.000	0.146	-0.452
-528.048	164.838	0.113	0.160
-527.033	48.766	0.104	0.098
-526.018	-84.399	-0.098	0.031
-525.004	-200.000	-0.013	0.206
-523.989	-200.000	0.049	-0.344
-522.975	800.000	-0.063	0.275
-521.960	216.409	0.059	0.095
-520.945	-129.846	-0.096	-0.013
-519.931	-100.001	0.268	0.068
-518.916	-128.723	-0.053	-0.008
-517.902	800.000	0.033	-0.113
-516.887	70.673	-0.280	-0.293
-515.872	-200.000	-0.085	-0.472
-514.858	-76.549	-0.229	0.081
-513.843	-42.821	-0.177	0.091
-512.829	212.308	-0.106	0.168
-511.814	-79.747	0.050	0.017
-510.799	-53.920	-0.032	-0.015
-509.785	800.000	-0.057	-0.247
-508.770	268.772	0.119	0.210
-507.756	536.474	0.061	-0.146
-506.741	70.128	-0.132	-0.137
-505.726	-124.515	0.024	0.004
-504.712	-200.000	-0.091	0.436
-503.697	-48.087	-0.127	0.062
-502.683	-34.649	0.057	-0.031
-501.668	-200.000	0.013	0.227
-500.653	800.000	-0.149	0.436
-499.639	-200.000	0.042	0.328
-498.624	160.925	-0.093	0.132
-497.610	-200.000	-0.022	-0.406
-496.595	98.391	-0.032	-0.037
-495.581	96.672	-0.108	0.125
-494.566	195.938	-0.179	0.275
-493.551	700.964	-0.103	0.274
-492.537	9.547	0.047	-0.036
-491.522	-144.144	-0.185	0.017
-490.508	800.000	0.074	0.219
-489.493	25.511	-0.207	0.174
-488.478	-200.000	0.016	-0.079
-487.464	103.340	0.064	0.075
-486.449	596.570	0.064	0.160
-485.435	109.611	-0.051	0.062
-484.420	60.875	-0.134	-0.134
-483.405	800.000	0.084	0.332
-482.391	-98.698	-0.084	0.022
-481.376	271.131	0.146	0.260
-480.362	638.631	0.064	0.164
-479.347	-200.000	-0.014	-0.160
-478.332	158.494	-0.071	0.099
-477.318	-200.000	-0.021	0.120
-476.303	-200.000	0.004	-0.088
-475.289	-200.000	0.053	-0.245
-474.274	2.045	0.161	-0.117
-473.259	-43.868	-0.213	-0.108
-472.245	184.815	0.276	-0.412
-471.230	-155.053	-0.136	-0.009
-470.216	380.178	0.080	0.164
-469.201	-84.391	0.268	-0.085
-468.186	-182.947	-0.216	0.004
-467.172	544.433	0.028	0.067
-466.157	-40.156	-0.302	0.159
-465.143	-1.133	-0.349	0.249
-464.128	-80.708	-0.300	-0.100
-463.113	82.806	0.270	-0.295
-462.099	31.797	-0.024	0.021
-461.084	800.000	-0.051	0.198
-460.070	-200.000	0.037	-0.171
-459.055	-21.035	0.101	-0.062
-458.040	-85.656	-0.423	0.132
-457.026	101.438	-0.198	-0.232
-456.011	-168.207	-0.172	0.007
-454.997	-118.492	-0.182	-0.032
-453.982	108.020	0.162	0.194
-452.968	800.000	0.058	0.238
-451.953	427.945	0.169	0.368
-450.938	69.179	-0.055	0.057
-449.924	24.486	0.081	-0.067
-448.909	137.206	0.288	0.380
-447.895	124.090	0.142	-0.179
-446.880	112.174	-0.165	0.201
-445.865	610.661	0.159	0.399
-444.851	123.822	-0.223	0.282
-443.836	-80.408	-0.402	-0.135
-442.822	113.828	-0.094	-0.115
-441.807	-147.672	0.105	-0.009
-440.792	407.481	0.103	0.219
-439.778	-35.254	0.022	0.012
-438.763	-137.460	-0.190	0.022
-437.749	-103.892	0.226	0.053
-436.734	800.000	-0.045	-0.147
-435.719	324.258	0.123	-0.236
-434.705	-29.180	-0.330	-0.190
-433.690	98.413	-0.298	0.346
-432.676	-63.911	-0.387	0.159
-431.661	289.060	0.164	-0.300
-430.646	520.432	0.090	-0.213
-429.632	236.616	-0.040	-0.067
-428.617	80.703	-0.125	0.136
-427.603	-5.772	0.206	-0.142
-426.588	-163.525	-0.288	-0.014
-425.573	-200.000	0.015	-0.112
-424.559	800.000	0.038	-0.149
-423.544	255.040	0.147	-0.252
-422.530	21.658	0.044	-0.036
-421.515	-200.000	0.014	0.373
-420.500	-64.782	-0.368	0.150
-419.486	63.283	0.170	0.171
-418.471	800.000	0.071	0.260
-417.457	-76.117	-0.255	0.090
-416.442	430.283	0.275	-0.597
-415.428	199.154	-0.218	-0.336
-414.413	-84.642	-0.148	-0.047
-413.398	-106.805	-0.417	-0.093
-412.384	-82.991	-0.116	0.038
-411.369	350.278	-0.092	-0.184
-410.355	59.656	0.100	0.099
-409.340	-200.000	0.002	0.146
-408.325	-66.092	0.250	0.100
-407.311	72.102	-0.279	-0.292
-406.296	472.635	0.145	-0.329
-405.282	148.762	0.122	-0.165
-404.267	-167.609	-0.072	-0.003
-403.252	-62.049	0.128	0.054
-402.238	-161.649	0.102	-0.005
-401.223	-200.000	0.013	0.071
-400.209	-200.000	-0.011	-0.123
-399.194	-200.000	0.224	-0.000
-398.179	119.394	0.092	0.115
-397.165	-3.706	-0.053	-0.037
-396.150	-70.495	-0.065	0.025
-395.136	-121.813	-0.055	-0.009
-394.121	82.786	0.130	0.142
-393.106	-141.322	-0.061	-0.006
-392.092	-200.000	-0.035	-0.259
-391.077	204.548	-0.145	-0.225
-390.063	-162.679	0.092	0.005
-389.048	800.000	-0.040	-0.156
-388.033	45.711	-0.155	0.144
-387.019	800.000	-0.065	0.187
-386.004	-200.000	-0.132	0.591
-384.990	-200.000	0.015	0.156
-383.975	800.000	0.084	0.302
-382.960	800.000	-0.053	0.186
-381.946	-200.000	0.027	0.225
-380.931	-127.825	0.403	-0.058
-379.917	-200.000	0.002	0.044
-378.902	-82.320	-0.246	0.080
-377.888	-134.217	-0.118	-0.015
-376.873	-152.073	-0.277	0.020
-375.858	88.223	0.119	0.132
-374.844	213.855	0.114	0.181
-373.829	-116.284	-0.048	-0.009
-372.815	-58.124	0.109	-0.048
-371.800	-9.635	-0.184	0.123
-370.785	-28.029	-0.284	-0.165
-369.771	382.240	0.185	-0.382
-368.756	-89.724	0.219	0.064
-367.742	12.376	-0.265	-0.205
-366.727	-44.118	0.266	0.134
-365.712	573.112	0.119	0.290
-364.698	-24.286	-0.183	-0.109
-363.683	-85.189	0.111	-0.035
-362.669	-9.703	0.214	0.143
-361.654	-200.000	-0.002	-0.367
-360.639	-200.000	0.051	0.305
-359.625	21.034	-0.201	0.163
-358.610	149.392	0.232	0.315
-357.596	40.636	-0.047	-0.042
-356.581	96.025	-0.076	0.088
-355.566	148.825	0.090	-0.122
-354.552	-93.934	-0.237	0.065
-353.537	155.743	0.117	0.162
-352.523	-186.575	0.228	-0.003
-351.508	261.040	0.081	0.141
-350.493	800.000	-0.146	0.422
-349.479	191.120	-0.245	0.370
-348.464	26.633	0.131	0.110
-347.450	13.024	-0.077	-0.060
-346.435	21.268	0.219	0.178
-345.420	-200.000	-0.032	-0.277
-344.406	165.084	0.022	0.031
-343.391	422.417	-0.123	-0.265
-342.377	-200.000	-0.014	-0.214
-341.362	416.212	-0.133	-0.285
-340.348	360.208	-0.099	0.198
-339.333	234.701	0.105	0.173
-338.318	-200.000	-0.005	-0.064
-337.304	-117.958	0.083	-0.015
-336.289	-27.781	-0.360	0.209
-335.275	22.453	-0.433	-0.355
-334.260	-87.061	-0.066	0.020
-333.245	800.000	-0.071	-0.246
-332.231	748.402	-0.131	-0.355
-331.216	-4.931	0.028	-0.020
-330.202	324.167	-0.087	-0.167
-329.187	-32.951	-0.162	-0.090
-328.172	-142.358	-0.277	0.027
-327.158	397.913	0.063	-0.133
-326.143	16.025	-0.043	-0.034
-325.129	-200.000	0.073	0.364
-324.114	-111.373	-0.209	-0.043
-323.099	-200.000	-0.010	-0.296
-322.085	-200.000	-0.047	0.250
-321.070	-49.583	0.268	-0.128
-320.056	-200.000	-0.002	-0.014
-319.041	25.766	0.149	0.125
-318.026	800.000	-0.009	0.030
-317.012	84.397	0.166	0.181
-315.997	-153.186	-0.286	-0.020
-314.983	128.778	0.057	0.073
-313.968	38.423	0.105	-0.094
-312.953	-26.605	0.283	0.166
-311.939	-200.000	0.025	-0.174
-310.924	-156.400	0.407	0.025
-309.910	399.777	0.090	-0.189
-308.895	72.557	0.105	0.110
-307.880	-9.796	-0.128	-0.085
-306.866	52.209	0.100	0.095
-305.851	96.574	-0.228	-0.261
-304.837	-84.088	0.107	0.034
-303.822	-12.730	-0.373	0.243
-302.807	-18.961	0.113	0.070
-301.793	-200.000	0.010	-0.049
-300.778	-22.409	0.162	0.098
-299.764	-67.611	-0.111	0.043
-298.749	-70.446	0.265	-0.100
-297.735	32.323	0.179	0.154
-296.720	-136.813	0.279	0.032
-295.705	-200.000	0.001	-0.124
-294.691	160.748	-0.088	0.123
-293.676	-84.027	-0.162	-0.052
-292.662	155.154	0.172	-0.236
-291.647	686.861	-0.007	0.018
-290.632	-200.000	-0.076	-0.430
-289.618	126.484	0.185	0.235
-288.603	21.130	-0.227	0.184
-287.589	-72.561	0.109	-0.040
-286.574	72.959	0.216	0.225
-285.559	150.317	0.177	0.240
-284.545	-144.529	-0.071	-0.007
-283.530	6.148	0.181	0.134
-282.516	800.000	-0.038	0.149
-281.501	-99.050	0.383	-0.097
-280.486	-70.319	-0.362	-0.137
-279.472	-107.966	0.048	-0.011
-278.457	800.000	-0.110	-0.337
-277.443	800.000	-0.100	-0.320
-276.428	-42.179	0.450	-0.230
-275.413	166.523	0.112	0.158
-274.399	-134.065	0.234	0.029
-273.384	152.823	-0.046	-0.063
-272.370	800.000	-0.042	0.180
-271.355	-41.726	0.370	-0.190
-270.340	23.531	0.108	0.089
-269.326	47.918	0.240	0.224
-268.311	-200.000	0.040	-0.281
-267.297	3.920	-0.186	-0.136
-266.282	-103.499	0.121	0.028
-265.267	-100.437	0.266	-0.066
-264.253	-30.401	-0.203	-0.115
-263.238	800.000	0.067	0.206
-262.224	487.820	0.145	0.331
-261.209	-200.000	-0.040	0.269
-260.195	90.379	0.083	0.093
-259.180	-53.083	0.257	-0.118
-258.165	275.665	-0.229	-0.405
-257.151	-174.129	-0.259	-0.008
-256.136	553.286	0.048	0.115
-255.122	409.324	0.075	-0.160
-254.107	71.706	0.056	0.058
-253.092	-200.000	0.028	-0.174
-252.078	140.896	-0.128	-0.169
-251.063	74.882	0.189	-0.198
-250.049	800.000	-0.081	0.317
-249.034	-182.703	-0.318	-0.006
-248.019	187.559	0.111	-0.165
-247.005	127.896	-0.097	-0.123
-245.990	-90.787	0.142	-0.041
-244.976	800.000	-0.030	-0.086
-243.961	-171.409	-0.047	0.002
-242.946	-200.000	-0.027	-0.214
-241.932	800.000	0.034	-0.137
-240.917	109.676	-0.113	0.136
-239.903	496.318	0.074	0.170
-238.888	-7.910	0.441	-0.297
-237.873	-200.000	0.150	-0.000
-236.859	-200.000	0.018	0.097
-235.844	232.901	-0.079	0.130
-234.830	-110.625	-0.063	0.013
-233.815	-200.000	-0.350	-0.001
-232.800	64.076	0.065	-0.065
-231.786	-200.000	0.018	-0.217
-230.771	-44.086	-0.085	0.043
-229.757	454.102	-0.036	0.080
-228.742	-151.256	-0.233	-0.017
-227.727	-139.881	0.347	0.037
-226.713	55.528	0.188	0.182
-225.698	-200.000	0.042	0.218
-224.684	-67.218	0.221	0.087
-223.669	82.678	-0.171	0.186
-222.655	-98.945	-0.303	0.077
-221.640	-81.440	0.135	-0.044
-220.625	63.700	0.358	-0.358
-219.611	44.848	-0.108	-0.099
-218.596	-108.989	0.269	-0.057
-217.582	-44.987	0.079	-0.039
-216.567	-3.983	0.066	-0.046
-215.552	-200.000	0.009	-0.119
-214.538	800.000	-0.078	-0.251
-213.523	-200.000	-0.016	0.387
-212.509	-200.000	0.036	0.253
-211.494	-75.257	0.169	0.060
-210.479	-53.149	0.190	-0.087
-209.465	-31.505	0.032	-0.018
-208.450	-6.812	-0.107	-0.072
-207.436	62.239	-0.100	-0.099
-206.421	-23.378	0.527	-0.316
-205.406	-200.000	-0.035	-0.159
-204.392	-69.134	0.279	-0.107
-203.377	-200.000	-0.012	0.242
-202.363	122.617	-0.133	-0.166
-201.348	131.294	0.099	-0.127
-200.333	-101.301	-0.220	0.053
-199.319	-76.999	0.107	-0.037
-198.304	365.681	0.116	-0.233
-197.290	-200.000	0.012	-0.093
-196.275	-55.718	-0.046	0.021
-195.260	-200.000	-0.009	-0.085
-194.246	52.550	0.176	-0.167
-193.231	-42.372	-0.144	0.073
-192.217	800.000	-0.040	-0.146
-191.202	-200.000	-0.033	0.159
-190.187	71.496	-0.119	-0.123
-189.173	549.451	0.084	0.201
-188.158	66.342	-0.124	0.125
-187.144	-107.964	0.124	0.027
-186.129	-200.000	0.003	0.105
-185.114	-155.079	-0.124	0.008
-184.100	50.683	-0.324	-0.305
-183.085	108.844	-0.088	-0.104
-182.071	-200.000	-0.033	-0.283
-181.056	699.664	0.100	-0.261
-180.042	48.925	-0.169	0.158
-179.027	-49.954	-0.190	0.090
-178.012	-63.416	0.164	-0.067
-176.998	41.961	-0.230	0.208
-175.983	-21.172	0.068	0.042
-174.969	-186.068	0.126	-0.002
-173.954	-26.457	0.125	0.073
-172.939	-200.000	-0.036	-0.227
-171.925	114.245	0.278	0.337
-170.910	800.000	0.094	0.321
-169.896	-113.978	0.315	-0.061
-168.881	351.705	-0.109	0.215
-167.866	-87.539	-0.093	0.028
-166.852	-55.578	0.278	-0.124
-165.837	800.000	-0.101	-0.417
-164.823	55.885	0.171	0.165
-163.808	79.214	0.087	0.093
-162.793	-200.000	-0.026	-0.199
-161.779	-126.026	-0.288	0.043
-160.764	12.986	0.221	-0.170
-159.750	186.589	-0.109	0.162
-158.735	-175.795	0.137	0.004
-157.720	800.000	-0.077	-0.233
-156.706	753.256	-0.112	0.301
-155.691	235.254	0.096	0.157
-154.677	-31.278	-0.414	0.232
-153.662	800.000	-0.044	-0.191
-152.647	800.000	0.047	0.130
-151.633	-200.000	0.017	-0.275
-150.618	-64.015	0.315	-0.128
-149.604	-117.758	0.326	-0.058
-148.589	-7.113	-0.174	0.117
-147.574	-91.530	-0.039	0.011
-146.560	-62.236	0.439	-0.182
-145.545	712.605	-0.039	-0.103
-144.531	-103.215	0.099	0.023
-143.516	-26.594	0.200	0.117
-142.502	707.654	-0.154	-0.405
-141.487	-128.013	0.165	-0.024
-140.472	-105.299	0.133	-0.030
-139.458	-122.356	-0.273	0.044
-138.443	-149.584	0.355	0.028
-137.429	-68.733	0.018	0.007
-136.414	-200.000	-0.020	-0.137
-135.399	-200.000	-0.045	-0.382
-134.385	-200.000	0.021	-0.245
-133.370	-200.000	-0.049	-0.446
-132.356	-106.954	0.188	-0.041
-131.341	72.072	0.056	0.058
-130.326	800.000	0.037	0.138
-129.312	625.854	0.086	-0.215
-128.297	121.686	-0.120	-0.149
-127.283	385.355	0.045	0.092
-126.268	-200.000	0.025	0.261
-125.253	-9.865	0.043	0.029
-124.239	289.433	-0.141	0.255
-123.224	-200.000	0.003	0.093
-122.210	-125.454	0.384	0.058
-121.195	800.000	-0.067	-0.257
