DTS Sentinel unit serial number:	SN413079Multiplexer serial number:	ORYXHardware model number:	OX4-SRSoftware version number:	ORYX F/W v4.00 Oryx Data Collector v3.7.2.0data status	okinstallation	princeton_trtdifferential loss correction	single-endedforward channel	channel 1reverse channel	N/Adate	2019/09/16time	01:02:36forward acquisition time	60.00reverse acquisition time	0.00gamma	496.2192k internal	0.2334k external	0.2334temperature offset calibration	0.9978default loss term (dB/km)	0.3790temperature slope calibration	1.0000multiplexer offset coefficient	1.0000multiplexer slope coefficient	1.0000fibre end	0.00T internal ref (°C)	27.31T ext. ref 1 (°C)	9.76T ext. ref 2 (°C)	21.43length (m)	temperature (°C)	Stokes	anti-Stokes-747.200	384.036	0.080	0.165
-746.185	29.838	0.164	-0.141
-745.171	-162.102	-0.239	-0.012
-744.156	349.430	-0.074	0.146
-743.142	-156.006	-0.104	0.007
-742.127	508.726	-0.121	0.283
-741.112	-25.957	0.074	-0.044
-740.098	250.493	0.169	0.288
-739.083	-71.038	0.121	-0.046
-738.069	788.081	-0.063	0.175
-737.054	198.909	0.102	0.157
-736.039	-106.102	-0.239	0.054
-735.025	-200.000	0.014	0.168
-734.010	-200.000	0.058	-0.424
-732.996	128.898	-0.122	-0.156
-731.981	-111.011	-0.398	0.082
-730.966	-200.000	0.022	-0.232
-729.952	-129.722	0.324	0.045
-728.937	37.411	0.114	-0.101
-727.923	-58.172	0.110	0.048
-726.908	385.517	-0.159	0.330
-725.894	-200.000	0.001	-0.075
-724.879	-200.000	0.031	0.246
-723.864	-81.302	-0.292	0.097
-722.850	-3.844	0.178	0.124
-721.835	-109.067	-0.263	-0.056
-720.821	-84.225	-0.408	0.130
-719.806	19.481	-0.124	-0.100
-718.791	194.920	-0.105	-0.160
-717.777	-72.691	0.148	-0.055
-716.762	349.962	-0.078	-0.155
-715.748	-84.079	-0.392	-0.125
-714.733	-68.586	-0.253	-0.098
-713.718	117.875	0.128	0.159
-712.704	14.085	-0.141	-0.110
-711.689	146.078	-0.039	0.053
-710.675	-110.392	-0.198	0.041
-709.660	-80.760	-0.268	-0.089
-708.645	-143.863	-0.216	0.020
-707.631	-144.208	-0.064	-0.006
-706.616	-200.000	0.054	-0.237
-705.602	-35.005	0.172	0.094
-704.587	239.845	-0.068	-0.114
-703.572	800.000	-0.062	-0.222
-702.558	277.946	0.188	0.336
-701.543	800.000	0.059	-0.222
-700.529	30.632	0.136	0.116
-699.514	15.840	0.341	-0.269
-698.499	-21.612	0.164	0.100
-697.485	-74.420	-0.195	-0.071
-696.470	256.789	0.309	0.532
-695.456	-95.300	-0.127	-0.034
-694.441	343.829	0.106	-0.209
-693.426	-141.494	-0.237	0.024
-692.412	-200.000	-0.058	0.286
-691.397	50.099	-0.256	0.243
-690.383	-109.350	0.363	-0.077
-689.368	-200.000	-0.003	0.239
-688.354	-200.000	-0.020	0.173
-687.339	-117.842	0.373	0.067
-686.324	-200.000	0.052	-0.372
-685.310	115.638	0.067	0.082
-684.295	26.173	0.185	-0.155
-683.281	-37.141	-0.293	-0.157
-682.266	800.000	-0.038	0.144
-681.251	658.660	0.108	0.279
-680.237	47.862	0.209	-0.196
-679.222	-124.261	-0.089	-0.014
-678.208	103.518	0.075	-0.088
-677.193	-133.744	-0.145	-0.018
-676.178	-200.000	-0.018	0.299
-675.164	386.249	0.064	-0.132
-674.149	-118.200	-0.043	-0.008
-673.135	-185.537	0.125	0.002
-672.120	172.677	-0.093	0.135
-671.105	106.405	-0.158	0.188
-670.091	88.397	0.174	0.194
-669.076	-200.000	0.018	-0.202
-668.062	448.138	0.038	0.083
-667.047	-101.165	-0.349	0.085
-666.032	-200.000	-0.016	0.347
-665.018	0.053	0.179	-0.128
-664.003	-200.000	0.019	0.222
-662.989	116.788	0.203	-0.250
-661.974	765.314	-0.104	-0.284
-660.959	-200.000	-0.004	0.059
-659.945	17.443	0.030	-0.024
-658.930	189.312	0.203	-0.305
-657.916	-200.000	0.019	0.163
-656.901	202.361	0.096	0.148
-655.886	146.275	-0.144	0.193
-654.872	129.315	0.306	0.391
-653.857	-53.175	-0.149	-0.068
-652.843	-43.817	-0.280	-0.141
-651.828	-200.000	0.096	-0.555
-650.814	800.000	0.079	-0.327
-649.799	116.763	-0.150	-0.184
-648.784	-200.000	-0.028	-0.263
-647.770	-200.000	-0.009	-0.052
-646.755	-200.000	0.027	-0.119
-645.741	-121.661	-0.289	0.048
-644.726	413.708	-0.139	-0.296
-643.711	8.715	-0.385	0.291
-642.697	-109.717	0.044	-0.009
-641.682	37.530	-0.130	0.115
-640.668	243.045	-0.018	0.030
-639.653	-147.180	-0.225	-0.019
-638.638	-84.999	0.265	0.083
-637.624	-56.800	-0.224	0.099
-636.609	-53.401	-0.129	0.059
-635.595	800.000	-0.042	-0.119
-634.580	792.500	0.074	-0.204
-633.565	-61.776	-0.235	-0.098
-632.551	217.750	0.181	-0.289
-631.536	-95.554	0.163	0.044
-630.522	-200.000	0.026	0.270
-629.507	-49.460	0.172	0.082
-628.492	227.964	-0.111	0.180
-627.478	-39.870	-0.353	0.184
-626.463	54.567	-0.336	0.324
-625.449	-122.330	0.122	-0.020
-624.434	-116.715	-0.187	0.034
-623.419	242.956	0.093	-0.156
-622.405	-46.948	-0.152	0.074
-621.390	-5.264	-0.089	0.061
-620.376	-200.000	-0.039	0.395
-619.361	437.639	0.088	0.191
-618.346	800.000	-0.064	0.192
-617.332	800.000	0.028	0.098
-616.317	-200.000	-0.004	0.320
-615.303	-48.896	0.272	-0.130
-614.288	-122.609	0.163	0.026
-613.273	-98.565	0.082	0.021
-612.259	0.989	-0.139	0.100
-611.244	638.367	-0.036	0.091
-610.230	-14.463	0.230	0.148
-609.215	-112.511	0.259	0.052
-608.201	-177.060	-0.126	-0.003
-607.186	-200.000	-0.041	0.205
-606.171	161.058	-0.085	0.119
-605.157	158.926	-0.234	0.325
-604.142	705.496	-0.016	-0.042
-603.128	163.858	0.112	-0.158
-602.113	140.216	-0.074	-0.098
-601.098	-86.535	0.130	-0.040
-600.084	32.835	-0.218	-0.189
-599.069	-108.514	0.075	-0.016
-598.055	-65.461	-0.127	-0.051
-597.040	105.253	0.205	-0.242
-596.025	800.000	0.106	-0.312
-595.011	-200.000	-0.054	-0.303
-593.996	25.823	0.143	-0.119
-592.982	-155.325	0.099	-0.006
-591.967	-200.000	-0.030	0.420
-590.952	33.047	0.184	0.159
-589.938	-200.000	0.030	0.155
-588.923	-200.000	0.044	0.252
-587.909	71.445	-0.062	-0.064
-586.894	-190.139	0.144	0.002
-585.879	-102.773	-0.321	0.076
-584.865	-200.000	-0.004	0.076
-583.850	-160.637	-0.083	0.004
-582.836	255.709	0.107	0.183
-581.821	-54.991	0.520	0.234
-580.806	5.217	0.102	-0.075
-579.792	-11.652	0.208	-0.137
-578.777	40.638	-0.275	0.247
-577.763	123.733	-0.138	0.173
-576.748	-42.155	-0.328	-0.168
-575.733	-105.592	0.068	-0.015
-574.719	182.869	-0.174	-0.257
-573.704	636.650	0.070	0.177
-572.690	-117.651	-0.477	0.086
-571.675	-200.000	-0.061	-0.405
-570.661	-55.005	-0.351	-0.158
-569.646	-200.000	0.024	0.318
-568.631	43.719	-0.310	-0.283
-567.617	-91.080	0.083	0.024
-566.602	-168.106	0.167	0.006
-565.588	39.567	-0.131	0.117
-564.573	97.674	-0.153	-0.175
-563.558	-125.971	-0.425	0.064
-562.544	-29.878	-0.084	-0.048
-561.529	-132.195	0.163	0.021
-560.515	-139.385	-0.203	-0.022
-559.500	675.334	0.028	-0.072
-558.485	-200.000	0.006	-0.053
-557.471	-200.000	-0.008	0.205
-556.456	52.486	0.093	-0.089
-555.442	-81.934	-0.079	0.026
-554.427	291.694	-0.050	-0.090
-553.412	332.044	-0.124	-0.238
-552.398	186.812	0.079	0.117
-551.383	-200.000	-0.028	0.194
-550.369	-200.000	0.041	0.184
-549.354	-26.342	0.074	-0.043
-548.339	-200.000	0.064	0.339
-547.325	587.854	-0.049	0.119
-546.310	410.857	0.193	-0.408
-545.296	0.316	0.302	-0.215
-544.281	-133.496	-0.411	0.051
-543.266	225.850	0.015	0.024
-542.252	-104.216	-0.189	0.044
-541.237	409.034	0.079	-0.166
-540.223	220.006	-0.082	-0.132
-539.208	-200.000	-0.000	-0.246
-538.193	-78.479	0.166	0.057
-537.179	-78.665	-0.251	0.085
-536.164	70.177	0.410	-0.422
-535.150	20.027	-0.252	-0.203
-534.135	32.303	-0.280	-0.241
-533.121	-74.871	0.107	0.038
-532.106	-21.319	-0.312	0.190
-531.091	32.106	0.128	-0.110
-530.077	-112.191	-0.244	0.049
-529.062	-200.000	0.025	0.377
-528.048	325.780	0.092	0.175
-527.033	800.000	-0.037	-0.126
-526.018	44.603	-0.088	-0.080
-525.004	509.457	0.097	0.226
-523.989	-127.536	-0.130	0.019
-522.975	137.915	-0.079	0.103
-521.960	800.000	-0.055	0.213
-520.945	-200.000	0.013	-0.064
-519.931	-200.000	0.023	0.211
-518.916	-200.000	-0.036	0.185
-517.902	-145.678	0.103	0.009
-516.887	15.928	0.170	0.133
-515.872	304.790	-0.080	0.148
-514.858	-21.961	0.214	-0.129
-513.843	-15.258	0.229	-0.146
-512.829	269.287	-0.070	-0.123
-511.814	74.641	0.257	0.270
-510.799	-200.000	-0.029	-0.135
-509.785	-83.830	0.205	-0.065
-508.770	94.298	-0.105	-0.119
-507.756	-116.279	0.307	0.057
-506.741	-43.676	-0.216	-0.108
-505.726	-157.887	0.459	-0.027
-504.712	28.656	0.194	0.163
-503.697	429.317	0.054	0.116
-502.683	800.000	0.110	0.419
-501.668	6.441	-0.041	0.030
-500.653	10.005	0.158	-0.119
-499.639	-117.526	-0.240	-0.043
-498.624	-200.000	0.030	-0.365
-497.610	-200.000	0.034	-0.258
-496.595	3.719	-0.260	-0.189
-495.581	79.890	0.048	0.052
-494.566	-200.000	0.009	0.310
-493.551	101.403	0.165	0.191
-492.537	-144.357	-0.186	0.017
-491.522	800.000	0.032	-0.126
-490.508	800.000	-0.133	-0.367
-489.493	800.000	0.074	-0.292
-488.478	-81.690	-0.146	-0.048
-487.464	2.761	0.094	-0.068
-486.449	-200.000	-0.007	-0.158
-485.435	-200.000	0.020	0.113
-484.420	4.396	-0.184	-0.134
-483.405	656.773	0.039	0.101
-482.391	258.967	0.099	-0.169
-481.376	-76.989	-0.309	0.107
-480.362	142.472	-0.222	0.293
-479.347	-39.627	-0.183	0.095
-478.332	65.252	-0.264	0.265
-477.318	53.743	0.087	0.083
-476.303	-118.047	-0.168	0.030
-475.289	-101.119	-0.257	-0.063
-474.274	-129.451	-0.185	-0.026
-473.259	-65.855	-0.074	-0.029
-472.245	-1.522	-0.182	0.128
-471.230	661.287	0.164	-0.421
-470.216	-61.637	0.312	-0.130
-469.201	-116.565	-0.228	0.042
-468.186	34.691	0.284	-0.246
-467.172	800.000	-0.017	0.074
-466.157	-98.479	0.087	0.022
-465.143	-45.302	-0.209	-0.103
-464.128	-49.241	-0.222	0.105
-463.113	-47.699	0.057	-0.027
-462.099	-24.017	-0.219	0.130
-461.084	-117.500	0.067	-0.012
-460.070	-200.000	-0.010	-0.182
-459.055	-106.812	-0.159	0.035
-458.040	-104.451	0.181	0.042
-457.026	-200.000	-0.004	-0.143
-456.011	-131.496	-0.243	0.032
-454.997	-63.502	-0.090	0.037
-453.982	179.903	0.109	0.158
-452.968	53.023	0.096	-0.092
-451.953	-200.000	-0.017	-0.225
-450.938	800.000	0.014	0.038
-449.924	317.510	0.138	-0.259
-448.909	-200.000	-0.015	0.107
-447.895	-14.871	0.179	-0.114
-446.880	23.138	-0.210	-0.172
-445.865	293.572	0.061	-0.111
-444.851	24.145	0.090	-0.074
-443.836	342.119	-0.066	-0.128
-442.822	-166.887	0.403	0.016
-441.807	-93.355	-0.370	0.102
-440.792	90.681	0.255	0.284
-439.778	-76.688	-0.398	0.138
-438.763	249.245	0.030	-0.051
-437.749	-63.105	0.461	0.189
-436.734	-38.939	-0.112	-0.059
-435.719	-107.991	0.218	-0.047
-434.705	667.481	0.013	-0.034
-433.690	-93.839	-0.334	-0.091
-432.676	110.575	0.215	-0.257
-431.661	-200.000	0.029	-0.130
-430.646	92.572	0.194	-0.218
-429.632	-34.854	0.270	0.146
-428.617	49.714	-0.135	-0.126
-427.603	-200.000	0.007	-0.321
-426.588	-14.378	0.215	-0.137
-425.573	-96.149	-0.097	0.026
-424.559	-117.334	0.140	0.025
-423.544	-200.000	-0.007	0.138
-422.530	-157.923	-0.264	-0.015
-421.515	-90.777	0.214	-0.061
-420.500	56.425	0.170	0.164
-419.486	-200.000	-0.018	-0.126
-418.471	383.512	0.091	-0.187
-417.457	800.000	0.045	-0.144
-416.442	-200.000	0.002	0.127
-415.428	0.982	0.308	0.219
-414.413	64.502	-0.150	0.150
-413.398	-200.000	-0.002	-0.351
-412.384	-41.121	0.198	-0.101
-411.369	-190.124	0.016	-0.000
-410.355	-115.899	0.422	-0.078
-409.340	-88.267	0.284	-0.084
-408.325	-200.000	0.034	-0.205
-407.311	800.000	0.048	0.199
-406.296	-200.000	-0.045	-0.449
-405.282	-141.521	0.276	-0.028
-404.267	190.665	-0.113	-0.169
-403.252	-164.024	-0.655	-0.030
-402.238	-200.000	-0.017	-0.212
-401.223	-39.798	-0.233	0.120
-400.209	-200.000	0.007	0.160
-399.194	138.503	-0.022	-0.029
-398.179	-200.000	-0.025	0.211
-397.165	-110.353	-0.399	0.082
-396.150	226.803	0.036	-0.058
-395.136	91.577	0.175	-0.195
-394.121	-32.800	0.136	0.075
-393.106	-200.000	0.019	-0.337
-392.092	-200.000	-0.019	0.115
-391.077	19.045	-0.264	-0.210
-390.063	-142.635	0.273	-0.026
-389.048	96.316	0.206	0.234
-388.033	122.305	0.106	0.131
-387.019	96.103	0.080	0.091
-386.004	572.728	-0.038	-0.093
-384.990	728.272	-0.045	-0.120
-383.975	-130.454	0.094	0.013
-382.960	-75.901	-0.189	-0.066
-381.946	-200.000	-0.003	-0.062
-380.931	-200.000	0.003	0.097
-379.917	683.251	0.007	0.018
-378.902	96.933	-0.072	0.082
-377.888	800.000	0.046	0.153
-376.873	-115.893	0.155	-0.029
-375.858	395.876	0.136	-0.282
-374.844	-151.997	0.307	-0.022
-373.829	-35.698	-0.228	0.123
-372.815	149.166	-0.104	-0.139
-371.800	137.232	-0.220	0.285
-370.785	-128.539	0.420	0.059
-369.771	-38.225	-0.323	0.170
-368.756	-33.193	-0.265	0.145
-367.742	571.222	0.118	-0.286
-366.727	16.669	-0.184	0.144
-365.712	-102.633	0.286	-0.068
-364.698	236.296	0.026	0.042
-363.683	-115.814	0.129	0.024
-362.669	800.000	-0.069	-0.215
-361.654	-23.135	0.193	-0.115
-360.639	-78.835	-0.116	0.039
-359.625	-172.524	-0.281	-0.009
-358.610	-115.854	0.133	0.025
-357.596	-41.385	-0.088	0.045
-356.581	-200.000	0.012	-0.187
-355.566	800.000	0.033	0.122
-354.552	2.983	-0.085	0.061
-353.537	408.991	-0.044	-0.093
-352.523	-50.594	0.083	0.039
-351.508	-77.037	-0.098	-0.034
-350.493	-200.000	0.052	0.333
-349.479	779.252	0.091	-0.247
-348.464	32.184	-0.238	-0.203
-347.450	800.000	-0.021	0.086
-346.435	52.956	0.104	0.099
-345.420	36.358	0.210	0.183
-344.406	-76.488	-0.278	-0.097
-343.391	-187.516	0.346	0.005
-342.377	-123.772	0.187	0.029
-341.362	-23.032	-0.190	0.114
-340.348	13.915	-0.417	-0.321
-339.333	-5.251	0.210	-0.143
-338.318	377.868	0.147	0.298
-337.304	-114.206	0.366	-0.070
-336.289	69.731	0.251	-0.256
-335.275	-200.000	-0.012	0.268
-334.260	75.777	-0.129	-0.135
-333.245	-63.349	-0.249	0.101
-332.231	54.404	-0.133	-0.127
-331.216	-114.818	0.071	0.013
-330.202	800.000	0.071	-0.283
-329.187	-121.273	0.216	0.036
-328.172	-19.292	-0.178	0.109
-327.158	222.706	0.233	0.372
-326.143	-200.000	-0.026	0.141
-325.129	109.255	-0.078	0.092
-324.114	800.000	-0.025	-0.098
-323.099	-57.942	0.165	0.071
-322.085	-35.593	0.333	0.179
-321.070	224.263	0.191	-0.305
-320.056	-142.448	-0.101	-0.010
-319.041	130.664	-0.108	-0.137
-318.026	-146.621	0.329	-0.028
-317.012	36.210	-0.124	0.108
-315.997	239.793	0.104	-0.171
-314.983	-200.000	-0.002	0.068
-313.968	282.229	-0.026	-0.046
-312.953	-52.619	-0.329	-0.150
-311.939	244.476	0.127	0.210
-310.924	140.619	0.124	-0.161
-309.910	351.654	0.115	0.226
-308.895	-200.000	-0.069	-0.424
-307.880	113.980	-0.113	0.135
-306.866	-112.020	0.191	0.038
-305.851	56.115	-0.196	0.188
-304.837	1.785	-0.131	0.094
-303.822	800.000	0.129	-0.481
-302.807	-101.234	0.242	0.058
-301.793	97.924	0.116	0.132
-300.778	-111.853	0.154	-0.031
-299.764	174.325	0.023	0.032
-298.749	-17.457	0.532	-0.331
-297.735	-96.968	-0.195	0.051
-296.720	-69.073	-0.299	0.114
-295.705	-75.622	0.207	-0.072
-294.691	28.851	-0.163	0.136
-293.676	-200.000	0.028	-0.273
-292.662	800.000	-0.045	0.133
-291.647	-200.000	0.011	-0.057
-290.632	-27.162	0.199	0.115
-289.618	-71.939	0.158	0.058
-288.603	117.728	0.071	0.087
-287.589	88.797	-0.148	0.163
-286.574	146.418	-0.183	-0.243
-285.559	-200.000	-0.017	-0.147
-284.545	-200.000	-0.010	0.119
-283.530	-1.610	0.253	0.176
-282.516	102.698	0.162	0.187
-281.501	-200.000	0.010	0.075
-280.486	-12.517	0.209	-0.135
-279.472	-200.000	-0.024	-0.124
-278.457	800.000	-0.102	0.293
-277.443	-11.776	0.402	0.260
-276.428	-189.536	0.172	-0.002
-275.413	5.025	0.114	-0.083
-274.399	541.306	0.067	-0.158
-273.384	210.143	0.097	-0.151
-272.370	-148.236	-0.363	-0.030
-271.355	-200.000	-0.004	0.080
-270.340	102.089	-0.152	0.175
-269.326	-200.000	0.005	-0.279
-268.311	-70.961	-0.090	0.034
-267.297	141.074	0.092	0.120
-266.282	-45.660	-0.156	-0.076
-265.267	77.645	-0.087	-0.091
-264.253	212.371	-0.060	0.094
-263.238	-121.593	0.049	-0.008
-262.224	800.000	0.028	-0.107
-261.209	319.994	0.073	-0.137
-260.195	468.809	0.139	0.308
-259.180	-8.484	-0.236	-0.156
-258.165	-200.000	0.002	-0.037
-257.151	-176.584	-0.224	-0.006
-256.136	-58.375	-0.190	0.081
-255.122	-185.999	-0.192	0.003
-254.107	-70.101	-0.120	0.045
-253.092	-200.000	-0.053	0.541
-252.078	135.123	0.286	0.367
-251.063	62.795	-0.134	-0.133
-250.049	37.281	-0.158	0.138
-249.034	-189.911	0.416	-0.005
-248.019	160.722	-0.098	-0.135
-247.005	280.246	-0.056	-0.098
-245.990	89.118	-0.128	-0.141
-244.976	-16.893	-0.120	0.074
-243.961	82.849	0.033	0.035
-242.946	561.161	-0.045	0.107
-241.932	-126.336	-0.212	-0.031
-240.917	-200.000	0.026	0.318
-239.903	-200.000	-0.031	0.139
-238.888	134.925	0.192	-0.245
-237.873	3.549	0.144	0.103
-236.859	388.874	-0.077	-0.156
-235.844	800.000	-0.121	0.348
-234.830	-4.044	-0.174	-0.119
-233.815	184.393	0.116	0.170
-232.800	-6.801	-0.229	0.154
-231.786	-200.000	0.025	0.202
-230.771	-109.155	-0.108	-0.023
-229.757	-55.362	-0.402	-0.178
-228.742	367.244	0.035	0.069
-227.727	-200.000	0.024	-0.111
-226.713	79.831	0.228	-0.241
-225.698	-200.000	-0.032	-0.406
-224.684	146.735	-0.032	-0.043
-223.669	-143.535	0.284	0.027
-222.655	14.926	0.135	-0.104
-221.640	-200.000	-0.049	0.323
-220.625	296.770	-0.111	-0.200
-219.611	466.966	0.067	-0.147
-218.596	-75.214	0.206	-0.072
-217.582	82.916	-0.128	0.137
-216.567	652.864	-0.080	0.201
-215.552	-200.000	0.035	0.196
-214.538	56.809	0.198	-0.190
-213.523	-15.985	0.136	0.085
-212.509	-36.479	-0.109	0.058
-211.494	-32.648	0.087	0.048
-210.479	33.726	-0.135	-0.115
-209.465	-200.000	0.006	0.133
-208.450	70.707	-0.060	-0.061
-207.436	800.000	0.068	0.227
-206.421	-53.845	0.210	-0.094
-205.406	-59.721	0.091	0.039
-204.392	-111.773	-0.101	-0.020
-203.377	9.173	0.088	-0.066
-202.363	-34.694	0.125	0.068
-201.348	-58.973	-0.475	0.202
-200.333	331.143	-0.146	0.276
-199.319	-200.000	-0.025	-0.227
-198.304	-61.539	0.089	-0.037
-197.290	-37.698	-0.120	-0.063
-196.275	800.000	0.005	-0.017
-195.260	-156.286	0.397	-0.025
-194.246	56.213	0.100	-0.095
-193.231	-94.290	-0.134	-0.036
-192.217	-200.000	0.082	-0.367
-191.202	-200.000	0.013	0.157
-190.187	-46.673	0.146	-0.070
-189.173	-200.000	-0.061	-0.590
-188.158	-33.821	0.210	0.114
-187.144	421.867	0.061	-0.128
-186.129	153.109	0.229	0.308
-185.114	-144.924	0.034	0.003
-184.100	-200.000	0.030	-0.210
-183.085	323.858	0.072	-0.135
-182.071	311.874	-0.141	0.260
-181.056	-116.066	-0.296	-0.054
-180.042	28.432	0.168	0.140
-179.027	-85.930	-0.125	0.038
-178.012	-96.143	-0.342	0.089
-176.998	23.494	-0.176	-0.143
-175.983	-200.000	0.025	0.141
-174.969	-200.000	-0.016	-0.321
-173.954	23.212	-0.204	-0.164
-172.939	19.459	0.170	-0.134
-171.925	-200.000	0.048	0.357
-170.910	-28.539	-0.124	-0.070
-169.896	-114.366	-0.117	0.022
-168.881	-88.274	-0.252	0.074
-167.866	29.385	0.069	0.057
-166.852	478.028	0.075	0.167
-165.837	-200.000	0.027	0.130
-164.823	69.098	-0.185	-0.187
-163.808	-101.003	0.149	0.036
-162.793	-200.000	-0.058	0.260
-161.779	303.721	0.050	-0.091
-160.764	76.289	0.231	0.240
-159.750	-90.651	0.209	0.059
-158.735	45.432	0.278	-0.252
-157.720	288.024	0.180	0.320
-156.706	-140.413	0.233	0.024
-155.691	6.991	0.130	-0.095
-154.677	371.830	-0.070	0.140
-153.662	132.586	-0.073	0.092
-152.647	-2.588	-0.205	-0.141
-151.633	-38.655	0.154	0.080
-150.618	-71.356	-0.088	0.032
-149.604	-163.664	0.187	-0.009
-148.589	-112.808	-0.205	-0.040
-147.574	-200.000	0.046	-0.449
-146.560	800.000	0.058	-0.202
-145.545	430.062	-0.165	0.351
-144.531	1.676	0.244	-0.173
-143.516	338.296	0.130	-0.248
-142.502	800.000	0.010	0.036
-141.487	212.522	-0.157	-0.243
-140.472	-39.333	-0.289	0.149
-139.458	-200.000	-0.002	-0.238
-138.443	-77.129	0.131	0.045
-137.429	-200.000	0.017	-0.101
-136.414	800.000	0.091	-0.273
-135.399	-104.463	-0.055	0.013
-134.385	-8.811	0.145	-0.095
-133.370	373.647	-0.027	0.054
-132.356	-121.287	0.180	-0.029
-131.341	-200.000	0.038	-0.225
-130.326	-165.958	-0.385	0.016
-129.312	-200.000	-0.034	0.193
-128.297	-200.000	0.046	0.252
-127.283	-85.769	0.307	-0.094
-126.268	-185.233	0.232	0.004
-125.253	100.940	-0.223	-0.254
-124.239	183.769	0.235	-0.342
-123.224	217.562	-0.053	-0.083
-122.210	-68.603	0.105	0.040
-121.195	800.000	0.049	-0.135
