DTS Sentinel unit serial number:	SN413079Multiplexer serial number:	ORYXHardware model number:	OX4-SRSoftware version number:	ORYX F/W v4.00 Oryx Data Collector v3.7.2.0data status	okinstallation	princeton_trtdifferential loss correction	single-endedforward channel	channel 1reverse channel	N/Adate	2019/09/12time	15:20:11forward acquisition time	60.00reverse acquisition time	0.00gamma	496.2192k internal	0.2291k external	0.2291temperature offset calibration	1.0060default loss term (dB/km)	0.3790temperature slope calibration	1.0000multiplexer offset coefficient	1.0000multiplexer slope coefficient	1.0000fibre end	0.00T internal ref (°C)	40.77T ext. ref 1 (°C)	2.40T ext. ref 2 (°C)	36.60length (m)	temperature (°C)	Stokes	anti-Stokes-747.200	287.069	-0.160	0.296
-746.185	17.693	0.070	0.057
-745.171	606.429	0.044	0.112
-744.156	396.153	-0.010	-0.022
-743.142	800.000	-0.045	-0.149
-742.127	-60.891	-0.237	-0.102
-741.112	-127.632	-0.118	0.017
-740.098	227.168	-0.185	0.308
-739.083	-11.726	0.407	0.273
-738.069	-62.482	-0.418	0.178
-737.054	-52.387	0.038	-0.018
-736.039	-93.669	-0.190	0.054
-735.025	102.193	0.205	0.245
-734.010	-200.000	0.010	-0.268
-732.996	249.279	0.168	-0.292
-731.981	-185.991	-0.176	-0.003
-730.966	485.666	0.152	-0.355
-729.952	-158.634	-0.174	-0.010
-728.937	-52.930	0.239	-0.113
-727.923	99.360	0.158	0.187
-726.908	-104.055	-0.056	-0.013
-725.894	-200.000	-0.005	-0.215
-724.879	-132.952	0.293	-0.038
-723.864	174.147	0.097	-0.144
-722.850	-85.410	-0.338	0.108
-721.835	6.295	0.183	0.139
-720.821	-51.972	0.325	-0.155
-719.806	800.000	0.079	-0.257
-718.791	351.618	-0.049	0.099
-717.777	130.425	0.153	-0.200
-716.762	-28.550	-0.109	-0.064
-715.748	800.000	0.011	-0.033
-714.733	-200.000	0.002	0.087
-713.718	-200.000	0.047	-0.423
-712.704	-200.000	-0.069	-0.390
-711.689	-113.332	0.158	-0.032
-710.675	-36.027	-0.407	0.225
-709.660	-200.000	0.008	0.466
-708.645	-46.433	0.126	-0.063
-707.631	800.000	-0.144	0.477
-706.616	666.561	-0.017	-0.044
-705.602	472.897	0.203	-0.468
-704.587	-49.674	-0.281	-0.137
-703.572	346.390	-0.088	-0.177
-702.558	-21.385	0.248	-0.155
-701.543	800.000	0.023	-0.066
-700.529	-18.872	0.263	0.168
-699.514	-110.157	0.366	0.078
-698.499	39.787	0.184	-0.169
-697.485	20.656	-0.298	-0.247
-696.470	686.706	-0.102	-0.272
-695.456	272.747	0.034	0.061
-694.441	237.266	0.107	0.182
-693.426	800.000	0.060	0.236
-692.412	-135.430	-0.221	0.027
-691.397	-112.872	0.067	-0.013
-690.383	-200.000	-0.004	-0.159
-689.368	-131.758	0.317	0.042
-688.354	-58.041	0.096	0.043
-687.339	-89.091	-0.250	0.075
-686.324	-200.000	-0.045	-0.379
-685.310	-39.173	-0.235	-0.126
-684.295	0.508	-0.151	0.110
-683.281	585.299	0.095	-0.239
-682.266	-200.000	-0.016	-0.330
-681.251	277.554	-0.054	-0.098
-680.237	-200.000	-0.008	-0.167
-679.222	40.377	-0.076	0.069
-678.208	21.359	-0.195	0.162
-677.193	-121.819	0.132	0.022
-676.178	25.751	0.074	-0.063
-675.164	-9.384	-0.192	0.131
-674.149	-200.000	0.022	-0.608
-673.135	-200.000	0.047	-0.486
-672.120	81.160	-0.057	0.063
-671.105	-119.418	0.283	-0.050
-670.091	132.819	-0.295	-0.388
-669.076	507.778	-0.033	-0.077
-668.062	-148.438	0.030	-0.003
-667.047	-112.980	-0.128	-0.026
-666.032	-200.000	-0.053	-0.316
-665.018	-200.000	0.026	0.200
-664.003	207.626	0.048	0.077
-662.989	-88.798	0.342	-0.104
-661.974	-173.583	-0.296	-0.009
-660.959	-200.000	0.021	-0.211
-659.945	800.000	-0.037	0.128
-658.930	-76.873	0.073	0.026
-657.916	5.532	-0.123	-0.093
-656.901	-136.198	-0.063	-0.008
-655.886	-24.296	0.024	0.015
-654.872	41.854	-0.167	-0.155
-653.857	-200.000	0.057	-0.269
-652.843	52.259	0.246	-0.239
-651.828	-23.082	0.280	0.172
-650.814	-41.083	0.298	-0.157
-649.799	-132.061	-0.317	0.042
-648.784	597.172	-0.098	0.247
-647.770	-122.528	0.207	0.034
-646.755	173.171	-0.219	-0.323
-645.741	-170.777	-0.152	0.005
-644.726	134.794	-0.052	0.068
-643.711	-155.184	-0.490	0.033
-642.697	182.780	-0.069	0.103
-641.682	-106.827	0.184	0.042
-640.668	-144.186	0.098	-0.009
-639.653	800.000	-0.096	0.354
-638.638	800.000	-0.040	0.128
-637.624	-57.319	-0.301	0.135
-636.609	294.547	-0.135	-0.251
-635.595	196.965	-0.159	0.247
-634.580	-195.547	-0.494	-0.004
-633.565	18.589	0.148	-0.121
-632.551	-200.000	-0.009	0.505
-631.536	-195.476	0.353	0.003
-630.522	-35.761	0.040	-0.022
-629.507	140.922	-0.058	-0.078
-628.492	-55.623	0.106	0.048
-627.478	107.322	-0.157	-0.190
-626.463	56.219	0.274	0.271
-625.449	35.331	-0.112	0.100
-624.434	800.000	-0.086	0.303
-623.419	360.855	0.033	0.068
-622.405	257.380	-0.170	0.298
-621.390	-200.000	-0.025	-0.225
-620.376	562.624	0.071	-0.176
-619.361	184.866	-0.153	-0.231
-618.346	32.789	-0.146	-0.129
-617.332	118.620	-0.063	-0.079
-616.317	-30.096	-0.296	0.171
-615.303	-93.291	0.326	0.092
-614.288	800.000	0.074	0.325
-613.273	283.825	-0.231	0.423
-612.259	7.431	0.353	0.269
-611.244	-163.153	-0.394	-0.019
-610.230	392.405	-0.099	0.210
-609.215	-38.522	0.320	-0.172
-608.201	-200.000	0.024	0.264
-607.186	69.697	0.204	0.214
-606.171	-46.160	0.163	-0.082
-605.157	800.000	0.047	0.155
-604.142	13.470	0.248	0.196
-603.128	-91.337	-0.427	-0.124
-602.113	-93.275	-0.247	0.070
-601.098	151.784	-0.089	-0.124
-600.084	599.874	-0.106	-0.268
-599.069	494.209	-0.177	-0.414
-598.055	-123.348	-0.532	-0.086
-597.040	-1.887	-0.059	0.042
-596.025	64.171	-0.131	-0.134
-595.011	-7.331	0.148	-0.102
-593.996	-200.000	0.078	-0.355
-592.982	-200.000	0.014	-0.232
-591.967	800.000	0.069	0.278
-590.952	-88.256	-0.135	0.041
-589.938	-143.842	0.366	0.035
-588.923	800.000	-0.078	0.322
-587.909	347.954	-0.042	0.085
-586.894	169.627	-0.038	0.056
-585.879	21.642	0.156	0.129
-584.865	33.522	0.258	-0.228
-583.850	-200.000	0.068	-0.421
-582.836	-200.000	-0.012	0.074
-581.821	-91.890	-0.310	0.089
-580.806	-75.105	-0.196	-0.071
-579.792	24.547	-0.107	0.090
-578.777	-200.000	0.042	0.250
-577.763	75.878	-0.264	-0.284
-576.748	6.577	-0.154	0.117
-575.733	438.181	-0.116	0.258
-574.719	-103.081	0.278	-0.067
-573.704	239.401	-0.178	-0.302
-572.690	282.765	-0.143	-0.261
-571.675	527.748	0.128	-0.306
-570.661	53.973	-0.088	0.086
-569.646	-28.765	0.241	0.141
-568.631	-147.188	0.267	-0.023
-567.617	-60.916	0.009	0.004
-566.602	-134.460	0.268	0.033
-565.588	800.000	-0.049	0.155
-564.573	-14.481	-0.138	0.090
-563.558	480.335	-0.041	-0.096
-562.544	-87.378	-0.247	-0.076
-561.529	-52.805	0.172	-0.081
-560.515	216.148	0.143	0.230
-559.500	800.000	0.070	0.208
-558.485	88.706	0.137	0.155
-557.471	-79.635	-0.309	-0.106
-556.456	504.186	0.079	-0.185
-555.442	-200.000	-0.010	-0.086
-554.427	-11.540	-0.127	-0.085
-553.412	92.595	0.084	-0.096
-552.398	-200.000	-0.053	0.268
-551.383	200.915	0.050	-0.078
-550.369	800.000	-0.022	0.076
-549.354	-200.000	0.032	-0.384
-548.339	-86.974	-0.258	-0.080
-547.325	-97.152	-0.496	0.132
-546.310	77.854	0.215	-0.233
-545.296	-200.000	-0.033	-0.419
-544.281	481.543	-0.056	-0.128
-543.266	-79.524	0.196	-0.067
-542.252	70.330	-0.328	-0.345
-541.237	140.008	0.079	0.106
-540.223	-200.000	0.007	0.176
-539.208	-83.869	-0.190	0.062
-538.193	-78.264	-0.020	0.007
-537.179	86.444	-0.132	-0.148
-536.164	-50.621	-0.233	0.112
-535.150	-144.925	0.392	0.036
-534.135	-200.000	-0.043	-0.281
-533.121	-137.205	0.150	-0.017
-532.106	-200.000	0.031	0.348
-531.091	66.592	-0.353	-0.364
-530.077	-200.000	0.004	0.115
-529.062	30.593	0.202	-0.175
-528.048	84.668	-0.053	0.059
-527.033	-77.104	0.295	-0.104
-526.018	25.610	-0.121	0.102
-525.004	-31.423	0.150	-0.086
-523.989	-82.706	-0.191	0.063
-522.975	-166.254	-0.328	-0.014
-521.960	318.201	0.197	0.378
-520.945	548.520	0.175	0.426
-519.931	440.343	0.133	0.296
-518.916	-200.000	-0.027	0.136
-517.902	165.251	-0.182	0.262
-516.887	-77.676	-0.399	0.140
-515.872	-124.811	-0.111	-0.017
-514.858	-200.000	-0.010	-0.344
-513.843	-172.254	-0.411	-0.013
-512.829	55.829	0.118	-0.116
-511.814	-56.801	0.245	0.110
-510.799	-71.824	0.078	-0.030
-509.785	6.190	0.206	-0.155
-508.770	288.476	-0.159	-0.292
-507.756	-90.595	-0.146	-0.043
-506.741	206.940	-0.183	0.290
-505.726	257.565	0.124	0.217
-504.712	-41.306	-0.090	-0.047
-503.697	-1.202	0.329	-0.236
-502.683	800.000	-0.064	0.239
-501.668	19.661	0.057	0.047
-500.653	-155.263	-0.128	0.008
-499.639	-64.955	0.220	-0.090
-498.624	48.921	-0.081	0.077
-497.610	800.000	-0.118	-0.459
-496.595	31.322	0.075	0.066
-495.581	800.000	-0.090	0.320
-494.566	194.387	0.033	-0.051
-493.551	-153.988	-0.224	-0.015
-492.537	689.755	0.089	0.235
-491.522	314.560	0.142	0.271
-490.508	12.776	0.078	0.061
-489.493	-106.539	0.259	0.058
-488.478	-200.000	-0.014	-0.164
-487.464	146.092	-0.046	0.063
-486.449	-105.062	-0.515	0.120
-485.435	-64.994	-0.116	0.047
-484.420	180.577	0.082	-0.121
-483.405	-52.359	0.232	0.109
-482.391	-200.000	0.051	-0.291
-481.376	-119.321	-0.047	-0.008
-480.362	-200.000	0.033	-0.151
-479.347	-78.045	-0.209	-0.073
-478.332	-36.098	0.241	-0.132
-477.318	-88.220	0.126	-0.038
-476.303	86.155	-0.108	-0.121
-475.289	-113.215	0.062	-0.012
-474.274	-200.000	-0.043	0.336
-473.259	706.716	-0.090	-0.241
-472.245	-200.000	-0.056	-0.402
-471.230	800.000	0.075	-0.232
-470.216	98.996	0.152	-0.178
-469.201	-78.983	-0.120	0.041
-468.186	105.274	0.118	0.141
-467.172	169.714	0.146	0.211
-466.157	158.570	0.148	-0.208
-465.143	-97.229	-0.215	0.057
-464.128	-54.138	0.213	0.098
-463.113	-124.542	-0.080	0.013
-462.099	-68.821	-0.215	0.084
-461.084	48.603	-0.112	0.106
-460.070	167.810	-0.092	0.132
-459.055	-200.000	0.025	-0.173
-458.040	209.556	0.131	0.208
-457.026	-200.000	0.083	0.372
-456.011	-200.000	-0.018	0.178
-454.997	-118.324	0.248	-0.045
-453.982	4.671	-0.166	-0.124
-452.968	64.453	-0.185	-0.188
-451.953	435.711	0.131	-0.289
-450.938	-200.000	0.231	-0.001
-449.924	800.000	-0.096	0.270
-448.909	-42.300	0.207	0.107
-447.895	5.661	-0.080	0.059
-446.880	-70.938	0.101	0.039
-445.865	382.593	-0.124	-0.258
-444.851	41.274	-0.264	-0.241
-443.836	46.240	-0.070	-0.066
-442.822	-71.926	0.215	-0.081
-441.807	180.750	-0.063	-0.093
-440.792	-7.529	-0.146	-0.100
-439.778	55.748	0.068	-0.067
-438.763	43.458	0.187	0.173
-437.749	-118.440	0.132	0.024
-436.734	288.329	-0.080	0.146
-435.719	38.475	0.203	0.183
-434.705	400.155	-0.066	-0.139
-433.690	-154.006	0.211	-0.015
-432.676	5.405	0.120	-0.090
-431.661	800.000	-0.041	-0.124
-430.646	800.000	-0.016	-0.056
-429.632	12.048	-0.024	-0.018
-428.617	38.293	0.050	-0.045
-427.603	-18.135	0.139	0.088
-426.588	-92.513	-0.243	-0.069
-425.573	16.847	0.160	0.128
-424.559	-63.272	0.046	0.019
-423.544	230.037	0.127	-0.210
-422.530	-200.000	-0.007	0.220
-421.515	-133.889	0.168	0.021
-420.500	-200.000	0.049	-0.310
-419.486	-135.542	-0.175	-0.021
-418.471	800.000	-0.107	-0.328
-417.457	-88.191	-0.079	-0.024
-416.442	179.279	0.165	0.245
-415.428	-66.478	-0.067	0.027
-414.413	800.000	-0.022	0.071
-413.398	9.414	-0.236	0.181
-412.384	429.695	0.150	-0.327
-411.369	-88.344	0.103	-0.031
-410.355	800.000	-0.022	-0.063
-409.340	-75.393	0.094	-0.034
-408.325	26.052	-0.203	-0.171
-407.311	-43.726	-0.110	-0.056
-406.296	-62.214	0.217	0.091
-405.282	-78.368	0.209	-0.073
-404.267	3.174	0.169	-0.124
-403.252	-29.211	-0.177	0.102
-402.238	51.313	0.236	0.226
-401.223	129.532	0.319	0.412
-400.209	5.756	0.583	-0.435
-399.194	39.500	-0.027	-0.025
-398.179	-135.725	0.275	-0.033
-397.165	288.900	-0.087	0.159
-396.150	-200.000	-0.022	-0.126
-395.136	-52.133	0.153	0.072
-394.121	-200.000	0.027	-0.204
-393.106	-200.000	0.053	-0.308
-392.092	93.874	-0.130	-0.149
-391.077	-71.981	0.098	0.037
-390.063	-80.165	0.150	0.051
-389.048	-13.086	-0.209	0.137
-388.033	638.221	-0.055	-0.140
-387.019	-161.419	-0.210	-0.011
-386.004	250.234	0.077	-0.131
-384.990	-57.999	0.190	-0.084
-383.975	-82.603	-0.296	-0.097
-382.960	-16.884	-0.115	-0.074
-381.946	238.312	-0.053	0.089
-380.931	252.302	0.032	-0.055
-379.917	29.130	0.100	0.086
-378.902	-200.000	0.095	0.426
-377.888	-200.000	-0.008	-0.336
-376.873	255.175	-0.102	0.176
-375.858	-200.000	0.024	0.146
-374.844	-113.489	-0.274	-0.054
-373.829	1.825	0.373	-0.272
-372.815	16.798	-0.114	0.091
-371.800	435.290	0.118	0.260
-370.785	800.000	-0.058	0.171
-369.771	-200.000	0.024	0.125
-368.756	-200.000	0.001	-0.042
-367.742	181.643	0.131	-0.195
-366.727	-112.020	0.428	0.087
-365.712	12.358	-0.353	0.274
-364.698	224.400	0.078	0.128
-363.683	-152.551	0.350	-0.025
-362.669	-141.024	0.172	-0.018
-361.654	-21.111	0.054	0.033
-360.639	-8.953	-0.078	-0.053
-359.625	463.328	-0.070	-0.158
-358.610	19.034	-0.367	-0.297
-357.596	692.899	0.121	-0.321
-356.581	2.338	-0.105	-0.077
-355.566	244.291	-0.109	0.185
-354.552	-6.981	0.260	0.178
-353.537	-200.000	0.014	-0.160
-352.523	-80.308	-0.270	-0.091
-351.508	-57.260	0.216	-0.096
-350.493	800.000	0.140	-0.520
-349.479	-83.988	0.067	0.021
-348.464	540.614	0.022	0.053
-347.450	-108.980	0.187	0.040
-346.435	-80.428	0.311	0.105
-345.420	-24.110	-0.048	0.029
-344.406	30.890	-0.295	0.255
-343.391	-72.842	0.096	0.036
-342.377	800.000	-0.104	-0.293
-341.362	-110.838	-0.066	0.014
-340.348	22.700	0.141	0.117
-339.333	412.494	-0.079	0.169
-338.318	97.310	0.186	-0.216
-337.304	218.428	0.095	0.152
-336.289	-53.246	-0.196	-0.091
-335.275	-200.000	-0.014	0.067
-334.260	800.000	-0.093	0.339
-333.245	800.000	-0.028	0.081
-332.231	40.988	0.146	-0.133
-331.216	800.000	-0.026	-0.088
-330.202	800.000	-0.113	-0.376
-329.187	43.318	0.122	0.113
-328.172	-97.663	-0.252	0.066
-327.158	-64.783	-0.379	0.155
-326.143	175.801	0.156	0.228
-325.129	-39.278	0.277	-0.146
-324.114	-86.229	0.197	0.061
-323.099	325.185	-0.050	-0.097
-322.085	-161.289	0.134	0.007
-321.070	1.996	-0.079	0.057
-320.056	-71.465	0.338	-0.128
-319.041	71.980	0.180	0.189
-318.026	-200.000	-0.018	0.084
-317.012	32.605	0.124	0.108
-315.997	523.498	-0.143	-0.338
-314.983	618.413	-0.026	-0.066
-313.968	-149.879	0.220	-0.017
-312.953	147.351	0.213	-0.289
-311.939	62.198	0.113	0.113
-310.924	-31.487	0.097	-0.055
-309.910	-62.494	-0.221	0.092
-308.895	-5.138	0.174	-0.120
-307.880	305.729	0.174	-0.326
-306.866	-200.000	-0.007	-0.234
-305.851	-138.915	0.365	-0.040
-304.837	-200.000	-0.044	-0.235
-303.822	-18.099	-0.124	-0.078
-302.807	40.943	0.316	0.287
-301.793	30.873	0.158	-0.136
-300.778	-1.088	0.323	0.230
-299.764	-54.882	-0.147	-0.067
-298.749	-23.987	0.176	-0.106
-297.735	129.751	0.231	0.297
-296.720	-133.443	0.267	0.034
-295.705	-200.000	-0.083	-0.372
-294.691	122.650	0.191	0.240
-293.676	-200.000	0.022	-0.205
-292.662	-200.000	0.040	0.350
-291.647	35.785	-0.189	0.167
-290.632	-191.426	-0.056	0.001
-289.618	-200.000	0.040	0.441
-288.603	181.457	-0.066	-0.098
-287.589	800.000	0.099	-0.314
-286.574	-157.971	0.173	-0.010
-285.559	-49.748	0.258	0.123
-284.545	-62.953	-0.158	0.066
-283.530	-53.811	0.203	-0.093
-282.516	106.463	-0.204	-0.244
-281.501	509.341	0.047	-0.110
-280.486	459.813	0.054	0.121
-279.472	193.797	-0.114	-0.173
-278.457	-200.000	0.037	0.209
-277.443	-57.496	-0.425	-0.187
-276.428	166.431	-0.087	0.123
-275.413	-40.197	0.097	0.051
-274.399	-26.408	-0.117	0.069
-273.384	800.000	-0.022	0.069
-272.370	-42.573	0.077	-0.040
-271.355	327.622	-0.036	-0.070
-270.340	-200.000	0.078	-0.348
-269.326	800.000	0.081	-0.326
-268.311	-81.121	-0.235	-0.078
-267.297	-200.000	-0.010	-0.110
-266.282	-65.120	0.250	-0.101
-265.267	40.691	-0.251	0.227
-264.253	-200.000	-0.037	0.281
-263.238	-200.000	0.042	0.384
-262.224	87.100	-0.158	0.175
-261.209	-40.633	-0.152	0.079
-260.195	-200.000	0.017	0.200
-259.180	33.604	-0.297	0.260
-258.165	162.278	-0.116	0.164
-257.151	800.000	-0.028	-0.120
-256.136	394.750	-0.196	-0.409
-255.122	98.120	-0.288	0.333
-254.107	-46.068	0.220	0.109
-253.092	800.000	-0.033	-0.136
-252.078	-137.596	-0.425	-0.048
-251.063	800.000	-0.053	-0.180
-250.049	800.000	0.028	0.108
-249.034	800.000	0.050	-0.180
-248.019	600.649	0.165	0.412
-247.005	-23.482	0.192	-0.116
-245.990	-152.357	-0.031	-0.002
-244.976	66.753	-0.345	0.353
-243.961	233.651	0.156	0.257
-242.946	-200.000	0.037	-0.416
-241.932	-89.222	-0.238	0.071
-240.917	129.288	0.082	0.105
-239.903	1.253	-0.291	0.210
-238.888	74.257	-0.125	0.132
-237.873	800.000	0.012	0.045
-236.859	-115.727	0.306	0.058
-235.844	-172.420	-0.135	-0.004
-234.830	-200.000	0.016	0.120
-233.815	164.586	-0.211	-0.299
-232.800	34.785	-0.124	0.109
-231.786	482.147	-0.033	0.075
-230.771	-200.000	-0.021	0.092
-229.757	340.757	0.032	0.062
-228.742	800.000	0.048	0.179
-227.727	-120.138	-0.112	-0.019
-226.713	268.224	0.089	0.156
-225.698	800.000	0.032	0.127
-224.684	800.000	0.015	0.050
-223.669	800.000	-0.107	-0.312
-222.655	367.884	-0.079	-0.160
-221.640	-200.000	0.041	-0.203
-220.625	-56.401	0.195	0.087
-219.611	-93.803	-0.143	-0.039
-218.596	-200.000	-0.062	-0.289
-217.582	800.000	-0.026	0.104
-216.567	-29.075	0.139	-0.080
-215.552	44.708	0.179	-0.165
-214.538	-87.031	0.386	0.118
-213.523	-177.786	-0.558	0.013
-212.509	-3.514	0.075	0.052
-211.494	23.208	0.201	-0.166
-210.479	45.653	-0.168	-0.156
-209.465	-68.260	-0.108	-0.042
-208.450	743.017	0.041	0.111
-207.436	449.676	0.191	-0.422
-206.421	-133.654	-0.319	0.040
-205.406	12.957	0.086	0.067
-204.392	49.340	0.207	0.195
-203.377	304.970	0.218	0.405
-202.363	-96.438	0.143	-0.038
-201.348	446.860	0.105	0.230
-200.333	4.846	-0.211	-0.156
-199.319	191.523	-0.055	0.082
-198.304	101.134	0.090	-0.105
-197.290	31.987	-0.168	-0.145
-196.275	-50.036	-0.389	0.185
-195.260	-162.404	-0.301	0.015
-194.246	91.839	-0.133	-0.150
-193.231	-46.569	-0.245	0.120
-192.217	19.637	-0.163	-0.132
-191.202	627.959	0.143	-0.362
-190.187	-200.000	0.011	0.161
-189.173	66.763	-0.173	-0.176
-188.158	-200.000	0.012	0.220
-187.144	465.322	0.030	0.066
-186.129	-200.000	-0.001	0.185
-185.114	-68.958	0.081	0.031
-184.100	800.000	-0.029	0.100
-183.085	131.009	-0.143	-0.184
-182.071	75.199	0.014	0.015
-181.056	-70.300	0.078	0.030
-180.042	-160.848	0.426	-0.023
-179.027	661.898	-0.054	0.141
-178.012	-52.217	0.061	0.028
-176.998	-126.035	-0.167	-0.025
-175.983	-200.000	0.091	0.419
-174.969	729.040	0.034	-0.092
-173.954	-64.496	-0.152	-0.062
-172.939	800.000	0.095	-0.266
-171.925	253.068	0.153	0.261
-170.910	31.322	-0.071	-0.061
-169.896	800.000	-0.043	0.132
-168.881	-200.000	-0.039	0.198
-167.866	-33.784	0.099	0.055
-166.852	800.000	0.090	0.298
-165.837	-61.473	0.146	-0.061
-164.823	117.112	-0.100	0.124
-163.808	89.492	-0.037	-0.041
-162.793	-200.000	0.071	-0.591
-161.779	-200.000	-0.065	-0.331
-160.764	-139.974	-0.236	0.025
-159.750	302.609	-0.009	-0.016
-158.735	-200.000	-0.001	-0.239
-157.720	102.615	0.324	-0.380
-156.706	-200.000	0.000	0.268
-155.691	-25.289	0.257	-0.152
-154.677	-200.000	-0.001	-0.285
-153.662	-200.000	0.030	-0.193
-152.647	800.000	0.093	0.342
-151.633	-49.030	0.241	0.115
-150.618	94.523	0.140	0.159
-149.604	-200.000	-0.019	-0.137
-148.589	-146.267	0.027	0.002
-147.574	254.853	-0.122	-0.208
-146.560	609.239	-0.042	0.104
-145.545	-200.000	0.009	0.063
-144.531	44.312	-0.082	-0.075
-143.516	-86.424	0.222	-0.068
-142.502	-120.265	-0.321	-0.055
-141.487	-200.000	0.063	0.311
-140.472	-200.000	-0.011	-0.050
-139.458	-200.000	0.083	-0.460
-138.443	146.351	0.199	0.267
-137.429	171.563	-0.075	0.108
-136.414	-143.841	-0.036	0.003
-135.399	-58.777	0.175	-0.076
-134.385	-103.005	0.121	-0.029
-133.370	-44.469	-0.203	-0.101
-132.356	-147.729	0.175	0.015
-131.341	-2.417	0.367	0.257
-130.326	-108.097	0.043	-0.009
-129.312	800.000	-0.029	0.117
-128.297	-200.000	-0.002	0.376
-127.283	-177.675	0.056	0.001
-126.268	-69.767	0.218	0.083
-125.253	3.168	0.150	-0.109
-124.239	222.271	0.059	-0.095
-123.224	-89.127	0.052	-0.015
-122.210	-92.979	0.446	-0.124
-121.195	125.421	0.072	-0.090
-120.180	-200.000	-0.010	-0.065
