DTS Sentinel unit serial number:	SN413079Multiplexer serial number:	ORYXHardware model number:	OX4-SRSoftware version number:	ORYX F/W v4.00 Oryx Data Collector v3.7.2.0data status	okinstallation	princeton_trtdifferential loss correction	single-endedforward channel	channel 1reverse channel	N/Adate	2019/09/19time	11:58:35forward acquisition time	60.00reverse acquisition time	0.00gamma	496.2192k internal	0.2337k external	0.2337temperature offset calibration	1.0012default loss term (dB/km)	0.3790temperature slope calibration	1.0000multiplexer offset coefficient	1.0000multiplexer slope coefficient	1.0000fibre end	0.00T internal ref (°C)	25.98T ext. ref 1 (°C)	0.84T ext. ref 2 (°C)	22.12length (m)	temperature (°C)	Stokes	anti-Stokes-747.200	121.552	0.242	0.302
-746.185	-171.841	-0.366	0.012
-745.171	-96.616	-0.131	0.035
-744.156	-200.000	0.014	0.334
-743.142	-200.000	0.069	0.438
-742.127	610.233	-0.073	0.184
-741.112	800.000	-0.105	0.326
-740.098	-138.458	0.081	0.009
-739.083	377.480	0.028	-0.056
-738.069	308.763	0.161	0.301
-737.054	800.000	0.067	0.271
-736.039	66.983	-0.289	-0.296
-735.025	80.892	0.127	0.138
-734.010	129.375	0.015	-0.019
-732.996	142.364	-0.239	-0.318
-731.981	-63.327	0.533	0.220
-730.966	-111.082	-0.179	0.037
-729.952	163.002	-0.038	-0.053
-728.937	-136.083	-0.119	0.014
-727.923	137.520	-0.134	0.176
-726.908	-50.631	-0.127	0.060
-725.894	-165.325	-0.081	0.004
-724.879	-45.300	-0.429	0.214
-723.864	484.160	-0.022	-0.050
-722.850	26.784	-0.177	0.148
-721.835	298.938	-0.210	0.388
-720.821	23.455	0.261	0.216
-719.806	-36.367	-0.150	-0.081
-718.791	-108.600	-0.493	0.106
-717.777	-127.038	-0.247	-0.036
-716.762	-5.324	-0.349	-0.240
-715.748	-9.449	-0.261	0.175
-714.733	-23.451	0.185	0.111
-713.718	465.517	-0.079	-0.178
-712.704	-58.030	0.046	-0.020
-711.689	800.000	0.025	-0.089
-710.675	19.075	0.054	-0.044
-709.660	-138.213	0.051	0.006
-708.645	-200.000	0.016	0.092
-707.631	-18.151	-0.122	-0.077
-706.616	151.070	-0.114	0.156
-705.602	291.443	0.010	0.018
-704.587	317.267	0.169	0.321
-703.572	195.906	-0.328	-0.501
-702.558	-200.000	0.057	-0.299
-701.543	-28.504	0.112	-0.065
-700.529	-9.687	0.350	-0.234
-699.514	-200.000	0.056	0.260
-698.499	-17.202	0.146	-0.092
-697.485	-60.837	-0.230	-0.098
-696.470	227.331	-0.138	0.226
-695.456	188.766	0.024	0.035
-694.441	800.000	-0.025	0.075
-693.426	-64.148	0.105	-0.043
-692.412	38.066	-0.214	0.191
-691.397	139.357	-0.128	0.168
-690.383	188.765	-0.107	-0.160
-689.368	95.660	0.207	0.236
-688.354	800.000	0.063	0.179
-687.339	74.495	0.222	-0.233
-686.324	800.000	-0.146	0.419
-685.310	-62.246	0.102	-0.043
-684.295	130.015	-0.035	0.045
-683.281	51.902	0.156	-0.148
-682.266	-200.000	0.005	-0.026
-681.251	-200.000	0.013	-0.269
-680.237	624.585	-0.106	-0.267
-679.222	10.293	0.136	-0.104
-678.208	-90.026	0.063	0.018
-677.193	519.753	0.150	-0.353
-676.178	48.941	-0.223	-0.210
-675.164	151.504	-0.112	0.152
-674.149	-113.134	-0.354	-0.070
-673.135	379.421	-0.206	-0.422
-672.120	58.725	-0.217	-0.213
-671.105	271.769	-0.080	0.141
-670.091	800.000	0.048	-0.178
-669.076	-200.000	0.036	0.311
-668.062	259.236	-0.093	-0.161
-667.047	36.904	0.269	-0.238
-666.032	-92.439	0.285	0.080
-665.018	97.118	-0.311	0.358
-664.003	800.000	-0.075	-0.318
-662.989	-200.000	0.006	-0.171
-661.974	12.775	-0.173	-0.134
-660.959	148.072	0.138	-0.186
-659.945	128.189	0.113	-0.144
-658.930	800.000	-0.096	0.325
-657.916	-24.048	0.240	-0.144
-656.901	-83.151	0.330	-0.106
-655.886	-4.099	-0.318	0.220
-654.872	-200.000	-0.006	-0.218
-653.857	-200.000	-0.014	-0.346
-652.843	-47.798	0.101	0.049
-651.828	-78.254	-0.374	0.129
-650.814	593.017	0.150	-0.371
-649.799	-200.000	-0.001	-0.016
-648.784	669.848	0.067	-0.173
-647.770	-95.207	0.105	0.028
-646.755	-78.951	0.225	0.077
-645.741	52.447	0.213	0.203
-644.726	800.000	0.039	-0.109
-643.711	-102.109	-0.107	-0.026
-642.697	-77.687	-0.182	-0.063
-641.682	-28.510	0.168	0.097
-640.668	-14.445	0.037	-0.024
-639.653	-200.000	0.049	-0.505
-638.638	24.853	-0.194	0.161
-637.624	-200.000	-0.008	-0.055
-636.609	453.563	0.138	-0.305
-635.595	-83.561	-0.202	0.065
-634.580	40.434	0.096	0.087
-633.565	114.297	-0.207	-0.252
-632.551	800.000	-0.045	-0.177
-631.536	-200.000	-0.035	0.337
-630.522	-200.000	0.059	-0.334
-629.507	-200.000	0.014	-0.206
-628.492	212.956	-0.107	-0.169
-627.478	365.601	-0.163	-0.329
-626.463	-147.744	-0.220	0.018
-625.449	229.957	-0.004	-0.007
-624.434	73.085	0.091	-0.095
-623.419	-87.714	0.283	0.085
-622.405	-27.860	0.085	-0.049
-621.390	-200.000	-0.078	-0.452
-620.376	-200.000	0.021	-0.149
-619.361	-59.801	0.256	0.109
-618.346	800.000	-0.070	0.282
-617.332	-110.334	0.235	0.049
-616.317	-35.734	-0.256	-0.139
-615.303	800.000	0.137	-0.398
-614.288	363.071	-0.100	-0.200
-613.273	-200.000	-0.051	0.274
-612.259	800.000	-0.100	0.354
-611.244	800.000	-0.043	0.154
-610.230	-57.718	0.102	0.044
-609.215	800.000	0.037	0.158
-608.201	800.000	0.048	0.143
-607.186	112.673	-0.061	0.073
-606.171	800.000	-0.097	-0.312
-605.157	350.326	-0.074	-0.145
-604.142	183.465	0.255	-0.376
-603.128	-200.000	0.009	-0.065
-602.113	-104.482	0.324	-0.075
-601.098	178.348	-0.079	-0.115
-600.084	33.813	0.087	-0.075
-599.069	-200.000	0.012	-0.384
-598.055	443.033	-0.144	-0.314
-597.040	-81.017	-0.131	0.043
-596.025	-153.176	0.472	-0.033
-595.011	-118.750	-0.492	-0.087
-593.996	-14.300	0.104	0.067
-592.982	325.144	0.171	-0.325
-591.967	544.579	-0.083	-0.199
-590.952	383.126	-0.112	-0.231
-589.938	22.880	-0.237	-0.194
-588.923	124.387	0.073	0.092
-587.909	-12.452	-0.211	-0.137
-586.894	-56.591	0.346	-0.153
-585.879	-200.000	-0.036	0.194
-584.865	481.233	-0.056	0.126
-583.850	-121.795	0.302	-0.050
-582.836	-15.733	0.140	-0.089
-581.821	-75.473	0.144	-0.051
-580.806	-185.873	0.379	-0.006
-579.792	-158.102	-0.140	-0.008
-578.777	800.000	0.046	0.200
-577.763	-118.459	0.281	-0.050
-576.748	-200.000	0.062	-0.291
-575.733	800.000	-0.138	0.434
-574.719	-200.000	-0.025	0.226
-573.704	116.858	-0.021	-0.026
-572.690	73.601	0.215	-0.225
-571.675	-200.000	-0.033	-0.441
-570.661	98.400	0.083	0.095
-569.646	800.000	0.032	0.099
-568.631	-12.446	-0.181	0.118
-567.617	-200.000	-0.017	-0.155
-566.602	-50.905	-0.081	-0.038
-565.588	218.801	0.170	0.270
-564.573	42.994	0.216	-0.197
-563.558	-113.142	-0.320	-0.063
-562.544	112.198	-0.145	-0.175
-561.529	-38.346	0.193	0.102
-560.515	-17.113	-0.211	0.133
-559.500	-50.395	0.182	-0.086
-558.485	-200.000	0.013	-0.123
-557.471	130.760	0.156	-0.199
-556.456	800.000	-0.126	-0.366
-555.442	800.000	-0.058	0.182
-554.427	-107.903	-0.343	0.074
-553.412	800.000	0.067	-0.285
-552.398	-36.452	0.215	0.116
-551.383	589.224	-0.036	-0.089
-550.369	291.367	-0.197	-0.358
-549.354	70.501	0.149	0.153
-548.339	126.019	-0.057	0.072
-547.325	-200.000	0.029	0.132
-546.310	547.345	0.104	0.249
-545.296	-28.152	0.146	0.084
-544.281	-87.405	-0.243	-0.073
-543.266	-175.811	-0.245	0.007
-542.252	-104.639	-0.211	-0.048
-541.237	-3.034	0.037	0.026
-540.223	-38.837	-0.282	-0.148
-539.208	89.970	-0.092	0.102
-538.193	-118.965	0.251	-0.044
-537.179	800.000	-0.004	-0.012
-536.164	-163.590	-0.177	0.008
-535.150	116.781	-0.053	0.065
-534.135	800.000	-0.100	0.375
-533.121	-68.714	-0.101	-0.039
-532.106	162.503	-0.064	0.090
-531.091	800.000	0.079	0.314
-530.077	-63.919	-0.098	-0.040
-529.062	-117.611	-0.185	0.033
-528.048	-129.064	-0.444	-0.062
-527.033	-37.061	0.258	0.138
-526.018	371.779	0.020	0.041
-525.004	-137.465	0.133	-0.015
-523.989	-200.000	-0.029	-0.256
-522.975	-74.596	0.322	0.115
-521.960	-200.000	-0.019	-0.351
-520.945	445.569	-0.046	0.100
-519.931	-41.177	0.561	0.288
-518.916	170.076	0.070	0.100
-517.902	-200.000	0.086	0.407
-516.887	61.149	0.123	0.121
-515.872	99.121	0.163	0.187
-514.858	800.000	0.105	-0.345
-513.843	-41.812	-0.178	-0.091
-512.829	-29.584	0.189	0.108
-511.814	-103.461	0.128	-0.030
-510.799	-153.031	0.229	-0.016
-509.785	265.785	-0.098	0.170
-508.770	-120.616	0.179	0.030
-507.756	64.291	-0.090	-0.090
-506.741	113.741	0.057	0.069
-505.726	-75.582	0.023	0.008
-504.712	-200.000	-0.017	-0.115
-503.697	279.288	-0.124	0.221
-502.683	461.578	-0.044	-0.097
-501.668	119.464	0.145	0.179
-500.653	-200.000	-0.021	-0.129
-499.639	-62.753	0.101	-0.042
-498.624	469.065	-0.050	0.112
-497.610	-200.000	-0.014	-0.356
-496.595	-32.708	0.168	-0.093
-495.581	129.284	-0.215	-0.273
-494.566	35.174	-0.045	-0.040
-493.551	-200.000	-0.015	-0.091
-492.537	-11.151	-0.110	0.072
-491.522	79.307	-0.182	0.193
-490.508	2.825	0.173	-0.125
-489.493	-62.629	-0.277	0.114
-488.478	-35.890	0.367	-0.197
-487.464	-200.000	-0.012	0.147
-486.449	800.000	-0.051	-0.203
-485.435	99.929	0.184	-0.212
-484.420	1.540	-0.235	0.168
-483.405	348.328	0.085	0.167
-482.391	269.768	0.157	0.275
-481.376	72.999	-0.199	0.207
-480.362	-97.569	0.190	-0.049
-479.347	29.685	0.138	0.117
-478.332	-83.064	0.185	0.059
-477.318	407.898	0.085	0.179
-476.303	18.446	-0.237	0.188
-475.289	-39.236	0.270	0.141
-474.274	-97.553	-0.168	-0.043
-473.259	55.441	-0.138	0.132
-472.245	-85.865	0.084	0.026
-471.230	-35.638	0.382	0.206
-470.216	-60.278	-0.242	0.102
-469.201	-200.000	0.037	0.263
-468.186	37.770	-0.129	-0.114
-467.172	-54.992	-0.129	-0.058
-466.157	-121.495	0.076	0.012
-465.143	-58.127	0.125	-0.054
-464.128	248.031	0.160	-0.269
-463.113	-96.353	-0.376	0.099
-462.099	96.109	-0.143	-0.162
-461.084	-91.205	-0.192	-0.055
-460.070	-95.618	0.373	0.099
-459.055	800.000	0.060	0.239
-458.040	-79.587	0.267	-0.090
-457.026	108.228	0.261	-0.309
-456.011	336.535	-0.163	-0.315
-454.997	-131.793	-0.188	0.024
-453.982	-136.250	0.122	-0.014
-452.968	-139.252	-0.256	-0.027
-451.953	800.000	-0.082	0.313
-450.938	63.659	0.312	0.311
-449.924	-102.037	0.179	-0.043
-448.909	-78.318	0.214	-0.073
-447.895	-52.019	0.318	0.147
-446.880	58.418	0.202	0.197
-445.865	-24.968	0.162	0.096
-444.851	800.000	-0.064	0.195
-443.836	-200.000	-0.005	-0.178
-442.822	182.566	0.227	-0.332
-441.807	-181.370	-0.236	-0.005
-440.792	-20.809	0.384	-0.234
-439.778	-128.150	-0.067	-0.010
-438.763	-200.000	-0.170	-0.001
-437.749	800.000	-0.072	-0.286
-436.734	-55.896	0.241	-0.107
-435.719	-200.000	-0.089	-0.410
-434.705	-37.700	0.169	0.089
-433.690	299.426	-0.123	0.225
-432.676	-125.313	0.349	0.053
-431.661	-200.000	0.083	0.372
-430.646	-200.000	-0.004	0.093
-429.632	720.489	0.078	-0.205
-428.617	-200.000	-0.016	-0.114
-427.603	-50.850	-0.102	0.048
-426.588	2.463	0.389	0.279
-425.573	-200.000	-0.025	-0.133
-424.559	63.445	-0.104	0.103
-423.544	-200.000	-0.035	0.285
-422.530	680.342	-0.147	-0.379
-421.515	800.000	0.041	0.139
-420.500	-200.000	-0.045	-0.257
-419.486	297.198	-0.059	-0.107
-418.471	227.860	0.060	-0.098
-417.457	83.105	-0.050	-0.054
-416.442	433.079	-0.148	0.318
-415.428	-161.848	-0.012	-0.001
-414.413	226.276	0.198	-0.319
-413.398	-56.955	0.294	-0.129
-412.384	210.673	-0.072	-0.112
-411.369	800.000	-0.075	0.239
-410.355	-200.000	-0.003	0.441
-409.340	590.579	-0.149	-0.365
-408.325	-121.801	0.115	0.019
-407.311	-98.127	-0.340	-0.087
-406.296	-171.851	-0.207	0.007
-405.282	-86.359	0.127	-0.039
-404.267	-49.699	-0.246	0.116
-403.252	-200.000	0.026	0.418
-402.238	-67.326	-0.055	-0.022
-401.223	800.000	0.083	0.278
-400.209	-13.279	-0.059	-0.038
-399.194	22.039	0.175	-0.141
-398.179	-68.252	-0.160	-0.062
-397.165	-200.000	0.021	-0.172
-396.150	161.006	0.101	-0.140
-395.136	-152.491	0.236	-0.017
-394.121	309.188	0.084	-0.156
-393.106	538.964	-0.083	-0.195
-392.092	61.983	-0.088	0.087
-391.077	44.572	0.051	0.046
-390.063	-200.000	0.047	0.389
-389.048	26.305	0.172	0.142
-388.033	-200.000	-0.001	0.052
-387.019	143.162	-0.093	0.123
-386.004	21.391	0.274	0.220
-384.990	-200.000	-0.024	0.165
-383.975	-146.734	-0.126	-0.011
-382.960	-81.053	-0.176	-0.058
-381.946	-200.000	0.003	0.123
-380.931	74.898	-0.384	0.401
-379.917	696.269	-0.100	-0.259
-378.902	357.998	-0.108	0.214
-377.888	65.824	-0.061	0.061
-376.873	110.607	-0.138	0.164
-375.858	151.034	0.042	-0.057
-374.844	800.000	-0.020	0.087
-373.829	-84.874	0.061	0.019
-372.815	-130.843	0.202	0.027
-371.800	-200.000	-0.046	0.254
-370.785	-92.917	-0.117	0.032
-369.771	-200.000	0.010	0.070
-368.756	185.050	-0.099	-0.145
-367.742	-200.000	0.001	0.090
-366.727	111.628	0.147	0.175
-365.712	18.814	0.083	0.066
-364.698	-81.681	-0.242	0.078
-363.683	102.115	0.146	-0.169
-362.669	-79.808	0.266	-0.089
-361.654	-4.116	0.083	-0.057
-360.639	-89.401	0.138	-0.040
-359.625	-79.991	-0.275	-0.091
-358.610	-133.427	0.079	0.010
-357.596	-51.675	-0.289	0.133
-356.581	-54.777	-0.201	0.090
-355.566	-8.064	0.275	0.183
-354.552	800.000	0.035	-0.098
-353.537	800.000	-0.086	-0.293
-352.523	-86.023	0.256	-0.078
-351.508	0.184	0.041	-0.029
-350.493	146.967	-0.029	-0.039
-349.479	252.291	0.153	-0.258
-348.464	-200.000	0.024	-0.122
-347.450	21.557	0.156	0.125
-346.435	-73.470	0.094	-0.034
-345.420	800.000	-0.037	0.129
-344.406	-200.000	-0.102	0.441
-343.391	51.903	0.099	-0.093
-342.377	-65.219	-0.308	-0.123
-341.362	49.422	-0.233	-0.217
-340.348	191.648	-0.193	-0.288
-339.333	-95.053	-0.242	-0.065
-338.318	800.000	-0.010	0.038
-337.304	-85.985	0.382	0.117
-336.289	155.663	-0.081	0.111
-335.275	-94.703	-0.127	0.034
-334.260	-29.297	-0.232	0.131
-333.245	-200.000	0.041	-0.318
-332.231	-63.771	-0.299	0.121
-331.216	-28.290	-0.280	-0.160
-330.202	-162.849	0.164	-0.008
-329.187	-9.394	0.313	0.206
-328.172	-120.306	0.208	-0.035
-327.158	-97.357	-0.335	-0.086
-326.143	44.442	0.190	-0.172
-325.129	65.927	0.157	-0.157
-324.114	800.000	-0.022	0.096
-323.099	800.000	0.043	0.129
-322.085	-82.696	0.274	0.088
-321.070	-200.000	0.033	-0.142
-320.056	227.389	-0.115	-0.185
-319.041	83.794	0.059	-0.063
-318.026	61.279	0.163	-0.160
-317.012	358.253	0.032	0.063
-315.997	-48.167	0.136	0.065
-314.983	16.494	-0.213	-0.166
-313.968	88.530	0.135	-0.148
-312.953	-200.000	0.053	0.234
-311.939	663.638	-0.129	0.329
-310.924	800.000	-0.082	-0.278
-309.910	62.307	-0.135	0.133
-308.895	-200.000	-0.038	0.214
-307.880	-200.000	-0.043	0.204
-306.866	69.347	0.152	0.155
-305.851	-90.035	-0.166	0.048
-304.837	-158.270	0.352	0.020
-303.822	12.043	-0.337	0.256
-302.807	-75.795	0.285	0.100
-301.793	-98.530	-0.213	0.054
-300.778	-200.000	0.044	-0.195
-299.764	493.228	0.061	0.138
-298.749	774.747	0.043	0.115
-297.735	-200.000	-0.050	-0.347
-296.720	800.000	0.029	-0.086
-295.705	-14.156	-0.192	0.122
-294.691	-167.817	0.198	-0.008
-293.676	-43.061	0.196	-0.098
-292.662	428.644	-0.091	-0.193
-291.647	-77.060	-0.063	-0.022
-290.632	136.007	-0.100	0.128
-289.618	85.626	0.151	0.164
-288.603	-39.828	-0.087	-0.045
-287.589	-200.000	0.019	-0.251
-286.574	800.000	0.017	0.073
-285.559	61.320	0.109	-0.107
-284.545	615.039	-0.102	-0.253
-283.530	-40.532	-0.174	-0.089
-282.516	279.630	-0.079	0.139
-281.501	800.000	-0.133	0.375
-280.486	-42.918	-0.323	0.162
-279.472	-200.000	0.031	0.204
-278.457	48.074	-0.205	-0.189
-277.443	83.209	-0.172	-0.184
-276.428	-59.690	0.265	-0.112
-275.413	558.997	-0.097	-0.231
-274.399	157.901	0.058	-0.079
-273.384	-200.000	-0.009	0.086
-272.370	28.783	0.264	0.221
-271.355	37.428	-0.044	0.038
-270.340	48.912	0.040	-0.037
-269.326	154.061	-0.042	0.057
-268.311	800.000	0.040	-0.145
-267.297	-122.122	0.051	-0.008
-266.282	-84.115	-0.182	0.057
-265.267	-131.238	-0.287	-0.038
-264.253	688.836	-0.024	0.062
-263.238	-80.386	-0.313	-0.103
-262.224	452.417	-0.127	0.276
-261.209	554.222	0.131	0.310
-260.195	258.374	-0.070	0.119
-259.180	431.621	0.110	-0.235
-258.165	800.000	0.095	0.312
-257.151	-55.092	-0.363	0.161
-256.136	701.328	0.013	-0.035
-255.122	-176.067	0.200	0.005
-254.107	-200.000	0.045	-0.196
-253.092	-9.117	0.161	-0.106
-252.078	-24.782	-0.301	-0.176
-251.063	138.948	-0.420	0.543
-250.049	64.973	-0.191	-0.190
-249.034	-95.647	0.195	0.051
-248.019	-31.311	-0.358	0.199
-247.005	-200.000	0.001	-0.228
-245.990	37.640	-0.058	-0.050
-244.976	69.818	0.170	-0.173
-243.961	-200.000	-0.003	-0.210
-242.946	-55.374	0.098	-0.043
-241.932	-200.000	-0.049	-0.313
-240.917	23.659	0.187	0.152
-239.903	486.118	-0.079	-0.177
-238.888	-54.372	0.050	0.022
-237.873	355.307	0.112	-0.219
-236.859	469.733	-0.160	0.353
-235.844	584.302	0.040	0.097
-234.830	29.660	-0.213	-0.178
-233.815	12.790	0.344	0.262
-232.800	184.039	0.196	-0.286
-231.786	136.168	-0.197	-0.253
-230.771	-200.000	0.053	-0.306
-229.757	-128.363	0.210	0.029
-228.742	-200.000	-0.026	-0.169
-227.727	800.000	0.021	-0.074
-226.713	-200.000	0.006	0.150
-225.698	43.674	-0.119	0.107
-224.684	-200.000	-0.012	-0.242
-223.669	-200.000	-0.016	-0.123
-222.655	30.352	-0.197	-0.165
-221.640	-67.577	-0.231	-0.089
-220.625	-17.663	-0.286	0.176
-219.611	-89.301	-0.103	0.030
-218.596	-72.337	0.023	0.008
-217.582	-200.000	0.020	-0.169
-216.567	573.069	-0.032	-0.076
-215.552	-153.596	-0.216	-0.015
-214.538	0.926	-0.216	-0.152
-213.523	-20.282	0.155	-0.094
-212.509	110.839	-0.293	0.347
-211.494	265.056	-0.126	0.216
-210.479	396.459	-0.135	-0.276
-209.465	-107.882	0.197	0.042
-208.450	-99.340	-0.009	0.002
-207.436	-200.000	-0.007	0.212
-206.421	245.703	-0.148	0.245
-205.406	-47.181	-0.302	0.145
-204.392	800.000	-0.070	0.291
-203.377	-17.131	-0.145	-0.090
-202.363	-200.000	0.089	-0.432
-201.348	40.722	-0.270	0.239
-200.333	-200.000	0.010	0.291
-199.319	800.000	-0.067	-0.205
-198.304	39.008	-0.254	0.223
-197.290	800.000	0.168	0.550
-196.275	147.724	0.160	0.212
-195.260	-71.418	-0.128	-0.047
-194.246	423.339	-0.012	0.026
-193.231	29.632	-0.363	0.304
-192.217	-14.133	-0.111	0.071
-191.202	550.218	0.040	0.093
-190.187	56.730	0.132	0.126
-189.173	-200.000	0.002	-0.124
-188.158	-52.696	-0.293	-0.133
-187.144	-77.454	0.237	-0.081
-186.129	-59.532	0.166	0.070
-185.114	-97.855	0.161	0.041
-184.100	138.636	-0.273	-0.352
-183.085	-49.255	0.125	0.059
-182.071	-136.816	0.267	-0.030
-181.056	187.521	0.089	0.130
-180.042	209.622	-0.092	0.141
-179.027	-200.000	-0.001	-0.043
-178.012	-200.000	-0.012	-0.103
-176.998	-12.177	0.103	0.066
-175.983	420.896	-0.070	0.147
-174.969	-55.174	0.204	-0.090
-173.954	318.706	0.082	0.153
-172.939	-94.128	-0.362	0.097
-171.925	384.245	0.131	0.265
-170.910	-200.000	-0.004	0.079
-169.896	-10.655	0.132	0.086
-168.881	172.736	-0.124	-0.176
-167.866	393.099	-0.075	-0.153
-166.852	-156.656	-0.274	0.017
-165.837	-106.508	0.074	0.016
-164.823	-63.362	0.354	0.143
-163.808	279.157	-0.060	-0.105
-162.793	-8.291	-0.168	-0.111
-161.779	-110.739	0.279	0.057
-160.764	124.181	-0.109	-0.134
-159.750	23.904	-0.128	-0.103
-158.735	-200.000	-0.014	0.179
-157.720	-200.000	0.018	0.216
-156.706	98.613	0.153	0.174
-155.691	313.636	-0.128	-0.235
-154.677	-200.000	0.008	0.207
-153.662	800.000	0.039	-0.116
-152.647	-31.315	0.550	0.304
-151.633	800.000	-0.027	0.109
-150.618	417.107	0.116	-0.242
-149.604	-200.000	0.019	-0.339
-148.589	413.179	0.043	-0.089
-147.574	-109.308	0.372	0.077
-146.560	4.940	-0.197	-0.142
-145.545	-200.000	-0.022	0.188
-144.531	267.940	0.033	-0.056
-143.516	159.305	-0.141	0.192
-142.502	-42.176	0.309	-0.155
-141.487	800.000	-0.025	0.096
-140.472	68.797	0.223	0.224
-139.458	44.952	0.131	-0.118
-138.443	-11.784	-0.043	0.028
-137.429	-85.738	0.165	0.050
-136.414	-200.000	-0.008	-0.074
-135.399	-46.266	-0.310	0.149
-134.385	-77.437	-0.118	0.040
-133.370	-145.681	-0.120	0.011
-132.356	-103.326	0.225	-0.052
-131.341	-200.000	-0.010	-0.126
-130.326	-141.943	0.067	-0.007
-129.312	-7.244	0.213	0.141
-128.297	47.790	-0.131	0.119
-127.283	-59.889	-0.154	0.064
-126.268	40.523	0.284	-0.251
-125.253	-190.310	-0.291	-0.003
-124.239	-129.423	-0.425	-0.058
-123.224	11.606	0.228	-0.172
-122.210	-62.705	-0.292	0.119
-121.195	243.042	0.064	-0.105
