DTS Sentinel unit serial number:	SN413079Multiplexer serial number:	ORYXHardware model number:	OX4-SRSoftware version number:	ORYX F/W v4.00 Oryx Data Collector v3.7.2.0data status	okinstallation	princeton_trtdifferential loss correction	single-endedforward channel	channel 1reverse channel	N/Adate	2019/09/18time	05:14:35forward acquisition time	60.00reverse acquisition time	0.00gamma	496.2192k internal	0.2338k external	0.2338temperature offset calibration	0.9977default loss term (dB/km)	0.3790temperature slope calibration	1.0000multiplexer offset coefficient	1.0000multiplexer slope coefficient	1.0000fibre end	0.00T internal ref (°C)	23.50T ext. ref 1 (°C)	0.19T ext. ref 2 (°C)	17.40length (m)	temperature (°C)	Stokes	anti-Stokes-747.200	-183.775	-0.276	-0.005
-746.185	-168.322	-0.146	0.006
-745.171	-150.927	0.221	-0.017
-744.156	-128.339	-0.267	-0.038
-743.142	-200.000	0.060	-0.294
-742.127	-200.000	0.006	0.253
-741.112	439.390	0.155	-0.340
-740.098	800.000	0.061	0.250
-739.083	224.406	0.134	0.217
-738.069	-200.000	-0.045	0.546
-737.054	94.923	0.143	0.163
-736.039	-121.239	-0.421	-0.071
-735.025	-133.919	0.584	-0.073
-734.010	-111.937	-0.166	-0.034
-732.996	-148.100	-0.346	-0.029
-731.981	800.000	0.067	0.286
-730.966	92.446	0.192	-0.217
-729.952	800.000	0.050	-0.163
-728.937	82.880	-0.046	0.050
-727.923	89.466	-0.375	0.419
-726.908	-200.000	-0.003	-0.419
-725.894	-62.820	0.236	0.098
-724.879	-109.553	-0.182	-0.039
-723.864	37.061	-0.219	-0.194
-722.850	-97.278	-0.102	0.027
-721.835	-43.665	-0.382	-0.193
-720.821	121.198	0.203	0.253
-719.806	-200.000	-0.030	0.185
-718.791	800.000	-0.038	-0.132
-717.777	20.260	-0.122	-0.099
-716.762	52.385	0.090	-0.086
-715.748	-200.000	-0.026	-0.471
-714.733	12.987	-0.063	-0.049
-713.718	-3.555	-0.236	0.164
-712.704	231.714	0.182	-0.299
-711.689	238.555	-0.097	0.161
-710.675	-135.428	-0.214	0.026
-709.660	-77.462	-0.136	-0.047
-708.645	-59.140	0.186	-0.081
-707.631	62.902	-0.163	0.164
-706.616	25.134	-0.369	0.307
-705.602	772.636	-0.045	0.123
-704.587	-114.257	-0.137	0.026
-703.572	110.908	0.150	-0.181
-702.558	-107.459	0.250	0.055
-701.543	-200.000	0.012	-0.101
-700.529	146.281	-0.078	0.105
-699.514	72.175	0.202	0.211
-698.499	44.998	0.216	0.199
-697.485	-200.000	-0.012	0.290
-696.470	-76.107	-0.260	-0.092
-695.456	-99.640	0.164	0.041
-694.441	-149.506	-0.313	0.025
-693.426	-200.000	0.012	0.397
-692.412	40.400	0.238	0.214
-691.397	800.000	0.148	0.411
-690.383	436.844	-0.081	-0.176
-689.368	119.122	0.243	0.301
-688.354	529.453	0.147	0.348
-687.339	-145.232	0.272	-0.025
-686.324	146.894	0.206	0.278
-685.310	-146.657	0.258	-0.022
-684.295	5.106	0.089	0.066
-683.281	-129.312	-0.282	-0.039
-682.266	-153.627	-0.346	-0.024
-681.251	-200.000	-0.006	-0.164
-680.237	-21.246	-0.227	0.139
-679.222	-200.000	0.064	0.299
-678.208	325.287	0.026	0.051
-677.193	549.226	0.074	-0.178
-676.178	800.000	-0.037	0.142
-675.164	-71.801	0.221	0.082
-674.149	-154.134	0.397	0.027
-673.135	-57.082	0.316	0.140
-672.120	95.980	0.065	-0.074
-671.105	-102.003	0.202	0.049
-670.091	-36.363	-0.112	0.060
-669.076	0.519	0.150	0.107
-668.062	-200.000	0.026	0.128
-667.047	-62.206	0.103	-0.043
-666.032	292.282	0.083	-0.152
-665.018	-81.248	0.146	0.048
-664.003	427.692	0.093	0.201
-662.989	78.565	0.157	-0.168
-661.974	-63.918	-0.070	0.029
-660.959	184.900	0.059	-0.088
-659.945	257.486	0.109	-0.188
-658.930	244.180	-0.074	0.124
-657.916	-30.074	0.260	-0.148
-656.901	83.190	-0.077	-0.083
-655.886	-52.538	-0.260	0.120
-654.872	-200.000	0.002	0.531
-653.857	340.372	-0.148	0.289
-652.843	-3.098	0.187	-0.130
-651.828	206.430	-0.052	0.081
-650.814	-10.180	0.102	0.068
-649.799	114.625	-0.229	-0.279
-648.784	-158.148	-0.254	0.015
-647.770	-200.000	0.037	-0.238
-646.755	-145.588	-0.114	-0.010
-645.741	-34.782	0.196	-0.107
-644.726	405.291	-0.060	0.127
-643.711	-200.000	-0.086	0.400
-642.697	211.222	0.179	0.281
-641.682	425.259	0.085	0.182
-640.668	55.854	0.241	0.234
-639.653	-200.000	0.019	-0.284
-638.638	-200.000	0.048	0.328
-637.624	-129.046	-0.261	-0.036
-636.609	437.375	-0.045	-0.097
-635.595	106.482	0.106	-0.126
-634.580	800.000	-0.106	-0.306
-633.565	-63.985	-0.045	-0.018
-632.551	-78.228	-0.276	0.095
-631.536	-117.277	0.177	-0.032
-630.522	-123.690	0.206	-0.033
-629.507	26.596	-0.089	-0.074
-628.492	-200.000	-0.025	-0.139
-627.478	-32.386	-0.167	-0.093
-626.463	-134.052	-0.316	0.039
-625.449	-163.651	0.259	0.012
-624.434	-20.056	0.129	-0.079
-623.419	39.218	-0.152	-0.136
-622.405	-46.807	-0.184	-0.090
-621.390	-82.143	-0.031	0.010
-620.376	-48.522	-0.211	0.102
-619.361	-105.285	-0.145	-0.033
-618.346	228.768	-0.121	-0.197
-617.332	-154.903	-0.134	0.009
-616.317	9.465	0.184	0.139
-615.303	204.617	-0.144	-0.223
-614.288	172.083	0.115	0.165
-613.273	-125.591	-0.077	-0.012
-612.259	6.424	0.169	-0.125
-611.244	-200.000	-0.001	-0.055
-610.230	-94.796	0.125	0.034
-609.215	-174.491	0.222	-0.006
-608.201	-124.092	-0.381	-0.060
-607.186	-102.610	0.257	0.061
-606.171	125.827	0.066	0.083
-605.157	592.815	0.126	-0.311
-604.142	32.529	0.096	0.082
-603.128	-16.861	-0.442	-0.279
-602.113	-200.000	-0.026	-0.167
-601.098	-35.138	-0.054	-0.029
-600.084	248.724	-0.102	-0.173
-599.069	-49.775	-0.218	-0.103
-598.055	-200.000	-0.016	-0.140
-597.040	-58.334	-0.117	0.051
-596.025	298.766	-0.193	-0.353
-595.011	328.388	-0.032	0.060
-593.996	736.302	-0.097	0.259
-592.982	-51.174	0.011	0.005
-591.967	-120.006	-0.530	-0.091
-590.952	-109.600	-0.150	-0.032
-589.938	-200.000	0.005	-0.072
-588.923	-46.806	-0.234	-0.114
-587.909	-200.000	-0.017	-0.171
-586.894	-51.670	-0.146	0.068
-585.879	-200.000	-0.050	-0.367
-584.865	800.000	-0.126	-0.505
-583.850	27.745	0.179	0.151
-582.836	574.405	0.071	-0.172
-581.821	53.339	0.166	-0.159
-580.806	221.437	0.067	0.107
-579.792	792.940	-0.034	0.092
-578.777	-98.040	0.130	0.033
-577.763	-161.940	-0.156	0.008
-576.748	426.733	0.088	0.189
-575.733	123.030	-0.126	0.157
-574.719	-149.644	0.186	-0.015
-573.704	63.683	-0.116	-0.116
-572.690	-200.000	0.035	-0.179
-571.675	-200.000	0.027	0.185
-570.661	470.502	-0.199	-0.445
-569.646	-107.118	0.240	-0.053
-568.631	-200.000	-0.190	-0.001
-567.617	162.373	-0.092	0.128
-566.602	-92.892	0.276	-0.077
-565.588	47.396	-0.332	0.308
-564.573	52.319	-0.030	-0.028
-563.558	457.487	0.056	-0.124
-562.544	-158.671	-0.295	-0.017
-561.529	65.851	0.157	0.158
-560.515	595.495	0.105	-0.259
-559.500	473.111	-0.052	-0.116
-558.485	-182.203	0.125	-0.002
-557.471	18.949	-0.296	0.237
-556.456	-37.672	0.086	0.045
-555.442	-135.397	-0.314	-0.037
-554.427	131.442	0.085	0.109
-553.412	-110.440	-0.117	0.024
-552.398	-66.695	-0.058	0.023
-551.383	-150.594	0.158	-0.012
-550.369	153.631	0.189	-0.257
-549.354	800.000	0.032	0.092
-548.339	98.232	0.101	-0.115
-547.325	3.576	-0.056	-0.041
-546.310	128.308	-0.025	-0.032
-545.296	147.451	0.167	-0.224
-544.281	86.884	-0.262	-0.288
-543.266	-77.306	0.084	-0.029
-542.252	281.828	0.061	-0.109
-541.237	800.000	0.057	0.207
-540.223	320.661	-0.064	0.121
-539.208	571.357	-0.078	-0.188
-538.193	-200.000	0.035	0.190
-537.179	-113.046	-0.255	0.050
-536.164	-40.762	0.376	-0.194
-535.150	53.659	-0.067	0.064
-534.135	-167.976	0.131	0.005
-533.121	-43.588	0.056	0.028
-532.106	-57.235	0.153	0.067
-531.091	-136.235	-0.117	-0.014
-530.077	-109.412	-0.319	0.067
-529.062	257.363	0.142	-0.244
-528.048	131.742	0.079	0.101
-527.033	87.702	-0.157	-0.173
-526.018	-89.734	-0.327	0.095
-525.004	-200.000	0.008	0.133
-523.989	241.798	0.049	0.082
-522.975	-75.123	0.157	0.056
-521.960	-200.000	0.013	0.138
-520.945	218.443	0.088	0.140
-519.931	4.142	0.421	-0.307
-518.916	-200.000	0.032	0.171
-517.902	398.035	0.087	-0.181
-516.887	-200.000	-0.078	-0.512
-515.872	-200.000	-0.003	-0.150
-514.858	-19.599	0.023	-0.014
-513.843	-151.333	0.136	-0.010
-512.829	-76.954	0.304	-0.106
-511.814	603.951	-0.036	0.089
-510.799	-71.755	0.148	-0.055
-509.785	-200.000	-0.001	0.016
-508.770	226.292	-0.015	-0.024
-507.756	256.659	0.120	0.205
-506.741	497.982	-0.103	-0.235
-505.726	-92.753	-0.165	-0.046
-504.712	134.778	-0.171	0.220
-503.697	-64.445	-0.314	-0.127
-502.683	-200.000	-0.020	-0.184
-501.668	126.057	0.090	0.113
-500.653	-164.755	-0.411	-0.018
-499.639	-72.007	-0.186	-0.069
-498.624	-200.000	-0.000	-0.242
-497.610	-3.374	0.147	0.102
-496.595	-48.617	0.127	0.061
-495.581	8.342	0.156	-0.117
-494.566	124.093	0.050	-0.063
-493.551	-108.859	-0.384	0.082
-492.537	569.884	-0.064	0.154
-491.522	-72.279	0.185	-0.068
-490.508	800.000	0.058	0.230
-489.493	-2.952	-0.047	-0.033
-488.478	123.128	-0.061	0.076
-487.464	-179.845	0.075	-0.002
-486.449	77.507	-0.343	0.363
-485.435	-9.877	-0.221	-0.146
-484.420	-26.154	0.139	0.081
-483.405	37.993	-0.192	-0.169
-482.391	800.000	0.119	-0.337
-481.376	118.771	-0.151	-0.186
-480.362	2.538	0.258	0.185
-479.347	-200.000	-0.006	0.351
-478.332	-200.000	-0.019	-0.097
-477.318	80.391	-0.083	0.089
-476.303	-0.655	0.247	-0.174
-475.289	-52.269	-0.318	0.146
-474.274	800.000	0.063	0.177
-473.259	-49.533	0.183	-0.086
-472.245	-128.803	-0.222	-0.031
-471.230	272.860	0.072	-0.126
-470.216	-200.000	-0.070	-0.471
-469.201	11.231	-0.143	-0.109
-468.186	800.000	0.081	0.305
-467.172	-103.031	0.159	0.037
-466.157	-112.280	-0.246	-0.049
-465.143	286.717	-0.103	-0.185
-464.128	625.362	-0.092	-0.230
-463.113	-200.000	-0.008	-0.109
-462.099	-13.418	-0.104	-0.067
-461.084	106.385	-0.101	0.119
-460.070	-200.000	-0.091	0.435
-459.055	-132.781	-0.225	-0.028
-458.040	-200.000	0.012	-0.054
-457.026	214.217	0.208	0.327
-456.011	370.888	-0.069	-0.140
-454.997	59.697	0.109	-0.107
-453.982	181.036	0.032	-0.047
-452.968	-128.577	0.204	0.029
-451.953	693.262	0.160	0.417
-450.938	-200.000	0.021	-0.223
-449.924	390.448	-0.085	0.174
-448.909	-116.376	-0.313	0.057
-447.895	-200.000	0.022	-0.189
-446.880	-42.885	-0.142	0.072
-445.865	174.763	0.245	0.352
-444.851	29.238	0.156	-0.132
-443.836	589.326	-0.054	0.132
-442.822	-116.590	0.272	-0.050
-441.807	-31.880	0.285	0.159
-440.792	-200.000	-0.039	-0.199
-439.778	-147.285	0.220	-0.019
-438.763	-97.380	-0.218	0.056
-437.749	156.604	-0.133	-0.182
-436.734	7.521	0.081	0.060
-435.719	148.580	-0.099	0.132
-434.705	-36.930	0.041	0.022
-433.690	215.590	-0.159	-0.250
-432.676	164.931	-0.148	-0.207
-431.661	800.000	0.080	-0.233
-430.646	9.989	-0.083	-0.063
-429.632	-115.700	-0.154	0.029
-428.617	98.801	-0.264	0.302
-427.603	-47.680	-0.163	-0.079
-426.588	-200.000	0.002	0.152
-425.573	115.623	0.049	-0.059
-424.559	386.726	-0.045	0.091
-423.544	800.000	0.063	-0.271
-422.530	-154.396	-0.180	-0.012
-421.515	-94.141	-0.077	0.021
-420.500	-200.000	0.007	-0.180
-419.486	780.487	-0.084	-0.227
-418.471	-86.572	-0.379	0.115
-417.457	517.271	0.065	0.151
-416.442	-22.981	-0.199	0.119
-415.428	109.233	-0.271	-0.321
-414.413	487.946	0.121	-0.273
-413.398	-200.000	-0.017	0.411
-412.384	-133.730	-0.476	0.059
-411.369	-200.000	-0.011	-0.150
-410.355	491.259	-0.077	0.175
-409.340	635.244	-0.186	-0.468
-408.325	53.796	-0.145	-0.138
-407.311	496.318	0.151	-0.344
-406.296	690.942	-0.070	0.181
-405.282	33.419	-0.147	0.126
-404.267	-40.560	0.245	0.126
-403.252	141.505	-0.161	0.212
-402.238	-2.126	0.134	0.093
-401.223	2.386	0.159	0.114
-400.209	-200.000	-0.021	0.161
-399.194	73.940	-0.138	-0.144
-398.179	-77.236	0.518	-0.179
-397.165	269.318	0.211	-0.366
-396.150	-200.000	-0.002	0.069
-395.136	9.890	0.169	-0.127
-394.121	601.801	-0.008	0.021
-393.106	800.000	-0.098	-0.374
-392.092	800.000	-0.109	0.433
-391.077	-200.000	-0.033	0.165
-390.063	-88.335	0.163	0.048
-389.048	-200.000	-0.033	0.346
-388.033	-41.048	-0.106	-0.054
-387.019	210.398	0.147	0.228
-386.004	52.587	0.178	0.168
-384.990	-121.902	-0.114	-0.019
-383.975	-200.000	0.032	0.371
-382.960	800.000	-0.045	0.181
-381.946	-100.326	0.083	0.020
-380.931	-144.145	0.047	0.004
-379.917	294.651	0.039	0.071
-378.902	-43.207	0.243	0.122
-377.888	800.000	0.068	0.276
-376.873	60.837	-0.064	-0.063
-375.858	-22.254	0.106	-0.063
-374.844	-200.000	-0.023	-0.242
-373.829	204.210	0.084	0.129
-372.815	800.000	0.068	-0.257
-371.800	149.465	0.151	0.203
-370.785	12.184	-0.247	0.188
-369.771	9.042	-0.084	-0.063
-368.756	-4.463	0.307	-0.210
-367.742	-99.928	-0.190	-0.047
-366.727	166.019	0.135	-0.189
-365.712	388.865	-0.143	0.292
-364.698	31.325	0.238	0.202
-363.683	-110.174	0.054	-0.011
-362.669	-186.791	-0.353	-0.005
-361.654	110.098	-0.149	0.177
-360.639	130.992	0.224	0.284
-359.625	59.996	-0.109	0.107
-358.610	-72.041	0.391	-0.144
-357.596	-200.000	0.043	-0.239
-356.581	-24.424	-0.142	-0.084
-355.566	-64.586	-0.213	-0.085
-354.552	59.515	0.113	0.110
-353.537	-38.101	-0.351	-0.184
-352.523	535.545	-0.037	0.087
-351.508	-24.060	0.242	0.143
-350.493	94.637	0.133	0.149
-349.479	-200.000	-0.002	0.049
-348.464	-138.782	-0.153	0.016
-347.450	42.683	0.089	0.080
-346.435	-77.339	0.182	-0.063
-345.420	44.006	-0.040	0.036
-344.406	390.138	0.101	0.206
-343.391	622.430	-0.070	0.174
-342.377	-200.000	-0.036	-0.218
-341.362	195.539	0.165	-0.247
-340.348	159.033	-0.143	-0.197
-339.333	-145.268	0.422	-0.038
-338.318	-130.873	-0.247	0.033
-337.304	-200.000	0.011	-0.202
-336.289	60.012	0.071	0.069
-335.275	147.317	-0.216	-0.287
-334.260	14.472	-0.232	0.179
-333.245	-32.058	0.149	0.082
-332.231	-154.636	0.350	-0.023
-331.216	127.305	0.297	0.372
-330.202	54.133	-0.095	-0.091
-329.187	-25.158	0.384	0.224
-328.172	566.583	0.084	0.201
-327.158	-71.974	-0.171	-0.063
-326.143	101.774	-0.158	0.182
-325.129	-61.960	-0.204	-0.084
-324.114	471.570	0.082	-0.183
-323.099	451.288	0.083	0.181
-322.085	16.934	-0.150	0.117
-321.070	-90.998	-0.328	0.093
-320.056	646.228	-0.133	0.334
-319.041	800.000	-0.017	-0.046
-318.026	-88.052	0.108	0.032
-317.012	-200.000	-0.020	0.232
-315.997	-83.886	0.057	-0.018
-314.983	3.183	-0.191	0.137
-313.968	201.402	-0.147	-0.224
-312.953	485.721	-0.042	0.094
-311.939	116.859	0.170	-0.205
-310.924	-103.592	0.262	0.061
-309.910	97.108	-0.052	0.059
-308.895	42.504	0.127	0.114
-307.880	-98.213	-0.213	0.054
-306.866	-200.000	0.054	0.458
-305.851	-49.393	0.115	-0.054
-304.837	-67.412	0.120	0.047
-303.822	194.170	-0.377	0.564
-302.807	146.656	0.220	-0.292
-301.793	64.029	0.083	0.082
-300.778	226.753	0.204	0.326
-299.764	-6.373	0.018	-0.012
-298.749	-129.067	0.565	0.078
-297.735	-95.231	0.285	0.076
-296.720	166.271	0.140	-0.196
-295.705	737.160	-0.009	0.025
-294.691	-144.483	-0.279	-0.025
-293.676	100.836	0.131	-0.150
-292.662	-177.772	-0.501	0.012
-291.647	-138.217	0.276	-0.030
-290.632	-51.373	0.307	-0.142
-289.618	91.758	0.182	0.202
-288.603	328.708	0.038	0.072
-287.589	14.024	-0.143	0.110
-286.574	479.135	0.088	-0.197
-285.559	-191.176	0.236	0.002
-284.545	125.646	-0.378	-0.470
-283.530	-36.470	-0.338	0.179
-282.516	339.282	0.215	-0.414
-281.501	-42.381	0.108	-0.054
-280.486	287.266	-0.093	-0.166
-279.472	90.618	-0.014	-0.015
-278.457	-200.000	-0.006	0.324
-277.443	-200.000	-0.001	-0.044
-276.428	22.827	-0.164	0.133
-275.413	-200.000	-0.007	0.118
-274.399	-61.597	0.214	0.089
-273.384	96.161	-0.158	0.178
-272.370	130.638	-0.154	0.194
-271.355	77.762	0.146	0.153
-270.340	800.000	-0.102	0.384
-269.326	173.013	-0.069	-0.097
-268.311	298.323	-0.231	0.419
-267.297	19.617	-0.188	0.149
-266.282	-172.636	0.171	-0.005
-265.267	-200.000	-0.056	0.245
-264.253	346.714	0.100	-0.193
-263.238	-47.791	-0.212	-0.101
-262.224	-92.054	-0.186	-0.052
-261.209	-70.518	-0.164	-0.061
-260.195	188.108	-0.178	-0.261
-259.180	800.000	0.212	-0.679
-258.165	127.192	0.150	-0.187
-257.151	57.921	-0.049	0.047
-256.136	78.277	0.184	0.193
-255.122	-75.311	0.161	-0.057
-254.107	-18.499	0.277	0.170
-253.092	214.864	0.189	-0.294
-252.078	-20.576	-0.167	-0.101
-251.063	800.000	-0.020	0.082
-250.049	-28.559	-0.169	0.096
-249.034	-200.000	0.061	0.325
-248.019	207.752	0.231	-0.356
-247.005	354.171	0.084	-0.164
-245.990	-4.399	0.273	0.185
-244.976	389.320	-0.234	-0.478
-243.961	-82.831	0.493	-0.157
-242.946	-93.381	0.297	0.081
-241.932	-200.000	0.002	-0.224
-240.917	-127.951	0.307	0.043
-239.903	-37.966	0.241	0.126
-238.888	84.189	0.177	0.190
-237.873	57.401	-0.212	0.203
-236.859	-107.064	-0.180	-0.039
-235.844	27.694	-0.134	0.111
-234.830	-200.000	0.074	-0.379
-233.815	118.140	-0.242	0.294
-232.800	-167.995	0.138	-0.005
-231.786	-200.000	0.001	-0.096
-230.771	800.000	0.078	0.308
-229.757	112.283	-0.095	-0.113
-228.742	139.732	-0.128	-0.165
-227.727	-4.087	-0.253	0.172
-226.713	596.551	-0.065	0.158
-225.698	-55.689	0.049	0.022
-224.684	-83.706	0.322	-0.101
-223.669	550.270	-0.040	-0.094
-222.655	-90.507	0.182	-0.052
-221.640	-100.236	0.352	-0.086
-220.625	-72.727	0.243	0.088
-219.611	-200.000	0.076	0.372
-218.596	-200.000	0.007	0.284
-217.582	-200.000	-0.002	-0.103
-216.567	-79.688	-0.275	-0.091
-215.552	-109.945	0.163	-0.034
-214.538	800.000	-0.075	-0.222
-213.523	-16.433	0.276	-0.172
-212.509	406.043	-0.015	0.032
-211.494	22.356	-0.196	0.158
-210.479	-32.891	0.166	0.091
-209.465	490.549	-0.098	0.221
-208.450	176.819	0.146	-0.208
-207.436	800.000	0.035	0.124
-206.421	316.925	-0.036	0.066
-205.406	-38.933	0.241	0.124
-204.392	-165.533	-0.059	-0.003
-203.377	-59.926	-0.298	0.125
-202.363	-200.000	-0.017	0.170
-201.348	-62.841	0.126	-0.051
-200.333	18.430	0.151	-0.118
-199.319	-145.941	-0.100	-0.009
-198.304	-84.977	0.303	0.093
-197.290	-200.000	0.025	-0.374
-196.275	800.000	0.005	-0.015
-195.260	88.746	0.165	-0.180
-194.246	147.103	0.050	-0.066
-193.231	186.439	0.113	0.165
-192.217	43.605	-0.106	0.096
-191.202	800.000	0.063	0.206
-190.187	2.072	0.329	0.233
-189.173	-200.000	0.100	-0.506
-188.158	-95.460	-0.100	-0.026
-187.144	75.396	-0.127	0.132
-186.129	525.761	-0.180	-0.416
-185.114	79.494	-0.224	-0.236
-184.100	-12.115	0.119	-0.077
-183.085	-22.499	0.194	0.115
-182.071	-58.847	-0.223	0.095
-181.056	-200.000	-0.056	-0.414
-180.042	208.300	-0.158	0.243
-179.027	-111.669	-0.217	0.043
-178.012	404.000	0.079	-0.164
-176.998	800.000	-0.154	0.465
-175.983	800.000	0.060	-0.210
-174.969	122.408	-0.044	0.054
-173.954	-86.974	0.083	0.025
-172.939	227.408	0.132	0.211
-171.925	97.079	0.357	0.402
-170.910	4.737	-0.121	-0.087
-169.896	-200.000	0.007	-0.062
-168.881	43.748	0.129	0.116
-167.866	-200.000	0.015	0.246
-166.852	-200.000	-0.036	0.246
-165.837	-147.579	-0.148	0.012
-164.823	-200.000	-0.009	0.297
-163.808	61.884	0.257	0.251
-162.793	5.699	0.177	-0.128
-161.779	800.000	0.059	-0.205
-160.764	-94.364	0.039	-0.010
-159.750	-101.323	0.202	0.048
-158.735	507.713	0.095	-0.216
-157.720	-2.057	-0.392	0.270
-156.706	-42.885	0.493	0.245
-155.691	343.792	-0.132	-0.254
-154.677	460.223	-0.095	-0.207
-153.662	800.000	0.036	0.114
-152.647	-200.000	0.017	-0.165
-151.633	-80.937	0.184	-0.060
-150.618	342.915	-0.031	0.060
-149.604	-102.647	0.148	0.035
-148.589	49.275	0.089	0.082
-147.574	91.396	-0.283	-0.312
-146.560	-200.000	-0.015	-0.183
-145.545	145.283	-0.081	0.107
-144.531	-200.000	0.010	0.238
-143.516	-45.141	0.153	0.075
-142.502	589.511	-0.086	0.207
-141.487	-23.932	-0.314	-0.184
-140.472	-200.000	-0.034	-0.182
-139.458	-9.265	0.196	-0.128
-138.443	47.238	0.091	-0.083
-137.429	229.633	-0.163	0.261
-136.414	-32.259	0.173	-0.095
-135.399	800.000	0.071	-0.231
-134.385	-115.973	0.400	-0.073
-133.370	111.763	-0.242	0.286
-132.356	20.308	-0.104	-0.083
-131.341	-200.000	0.022	0.165
-130.326	20.092	0.199	-0.157
-129.312	81.202	-0.236	0.249
-128.297	-200.000	0.030	0.154
-127.283	199.066	0.204	0.305
-126.268	-200.000	0.019	0.084
-125.253	103.013	-0.110	-0.126
-124.239	800.000	0.086	0.245
-123.224	485.907	-0.157	0.350
-122.210	-67.086	-0.072	-0.028
-121.195	418.012	0.102	0.214
-120.180	6.827	0.205	-0.150
