DTS Sentinel unit serial number:	SN413079Multiplexer serial number:	ORYXHardware model number:	OX4-SRSoftware version number:	ORYX F/W v4.00 Oryx Data Collector v3.7.2.0data status	okinstallation	princeton_trtdifferential loss correction	single-endedforward channel	channel 1reverse channel	N/Adate	2019/09/18time	07:18:35forward acquisition time	60.00reverse acquisition time	0.00gamma	496.2192k internal	0.2340k external	0.2340temperature offset calibration	0.9982default loss term (dB/km)	0.3790temperature slope calibration	1.0000multiplexer offset coefficient	1.0000multiplexer slope coefficient	1.0000fibre end	0.00T internal ref (°C)	23.19T ext. ref 1 (°C)	0.20T ext. ref 2 (°C)	17.49length (m)	temperature (°C)	Stokes	anti-Stokes-747.200	50.614	0.191	-0.181
-746.185	-161.128	0.112	-0.006
-745.171	-111.508	0.149	-0.030
-744.156	675.873	0.153	0.399
-743.142	-10.916	0.220	0.146
-742.127	800.000	0.020	0.073
-741.112	-157.144	0.234	-0.014
-740.098	119.221	-0.254	-0.315
-739.083	310.862	0.039	0.074
-738.069	-200.000	-0.090	0.485
-737.054	800.000	-0.101	-0.328
-736.039	-148.805	-0.272	-0.022
-735.025	339.437	0.100	0.195
-734.010	-21.030	-0.307	-0.188
-732.996	-33.500	-0.081	0.045
-731.981	-200.000	-0.010	-0.236
-730.966	75.031	0.062	0.066
-729.952	57.482	-0.079	-0.077
-728.937	-8.594	0.347	-0.234
-727.923	226.096	-0.272	0.441
-726.908	-64.323	0.344	0.140
-725.894	102.605	-0.208	-0.244
-724.879	79.128	0.215	-0.231
-723.864	301.070	0.102	0.188
-722.850	-141.321	-0.283	-0.029
-721.835	54.152	-0.079	-0.076
-720.821	419.086	-0.076	0.163
-719.806	82.695	-0.018	0.019
-718.791	-101.422	-0.128	-0.031
-717.777	92.848	-0.152	0.172
-716.762	224.709	0.159	0.258
-715.748	-9.827	0.208	0.139
-714.733	-104.036	-0.121	-0.028
-713.718	70.293	0.414	-0.429
-712.704	-2.086	0.199	-0.140
-711.689	458.913	0.120	-0.268
-710.675	-129.444	-0.163	-0.023
-709.660	-200.000	0.042	-0.201
-708.645	451.763	-0.072	0.158
-707.631	-107.793	-0.109	0.024
-706.616	120.378	0.168	0.208
-705.602	21.219	0.277	0.226
-704.587	-37.824	0.140	-0.074
-703.572	800.000	0.116	-0.437
-702.558	-91.392	0.294	0.084
-701.543	-200.000	0.037	-0.177
-700.529	-8.402	0.147	0.099
-699.514	800.000	0.091	0.263
-698.499	-200.000	-0.002	-0.155
-697.485	726.475	-0.097	-0.260
-696.470	-7.501	-0.297	-0.201
-695.456	96.079	0.210	0.240
-694.441	-200.000	0.005	0.297
-693.426	-100.986	-0.061	-0.015
-692.412	-200.000	0.044	0.260
-691.397	518.576	0.135	-0.317
-690.383	780.827	0.048	-0.132
-689.368	-200.000	0.031	0.137
-688.354	4.180	0.164	0.120
-687.339	-41.218	-0.206	-0.107
-686.324	-200.000	0.002	0.025
-685.310	350.918	-0.198	-0.392
-684.295	-26.204	0.298	-0.175
-683.281	26.161	-0.164	-0.137
-682.266	800.000	-0.069	-0.208
-681.251	-62.416	-0.089	0.037
-680.237	-200.000	-0.029	-0.194
-679.222	197.705	0.012	0.018
-678.208	1.897	0.187	0.135
-677.193	-200.000	0.025	0.200
-676.178	-134.083	-0.219	0.027
-675.164	-37.239	0.189	-0.101
-674.149	-200.000	-0.045	-0.253
-673.135	292.708	0.220	-0.401
-672.120	-165.154	0.325	-0.014
-671.105	178.257	-0.102	0.148
-670.091	223.147	0.116	0.187
-669.076	800.000	0.040	-0.147
-668.062	-119.980	-0.192	-0.033
-667.047	-200.000	-0.045	-0.208
-666.032	298.580	-0.057	-0.104
-665.018	-66.533	-0.288	-0.114
-664.003	-106.231	-0.142	-0.032
-662.989	-122.857	0.278	0.045
-661.974	-200.000	0.020	-0.096
-660.959	-31.447	-0.076	0.043
-659.945	17.594	0.290	0.231
-658.930	-52.653	-0.110	0.051
-657.916	-200.000	-0.036	-0.167
-656.901	-78.425	0.119	-0.041
-655.886	-66.193	0.381	-0.152
-654.872	800.000	-0.011	0.030
-653.857	-64.380	0.180	0.073
-652.843	-200.000	0.006	-0.028
-651.828	-107.432	0.424	0.093
-650.814	64.289	-0.114	0.115
-649.799	105.945	0.135	0.159
-648.784	162.016	0.097	0.136
-647.770	-200.000	-0.007	-0.134
-646.755	331.373	-0.087	0.167
-645.741	605.404	0.038	0.095
-644.726	772.501	0.038	0.104
-643.711	-200.000	0.044	0.251
-642.697	65.882	-0.247	-0.250
-641.682	-200.000	0.015	0.236
-640.668	62.869	-0.096	0.095
-639.653	800.000	-0.054	0.217
-638.638	-200.000	-0.058	-0.000
-637.624	-115.629	-0.092	0.017
-636.609	-165.303	-0.207	0.009
-635.595	-18.144	-0.027	-0.017
-634.580	-191.742	-0.341	-0.003
-633.565	-200.000	-0.008	-0.279
-632.551	800.000	-0.112	-0.415
-631.536	57.705	-0.288	-0.281
-630.522	-166.184	0.468	0.020
-629.507	441.121	0.057	0.125
-628.492	-69.250	0.161	-0.062
-627.478	476.192	0.114	0.257
-626.463	-200.000	0.009	0.048
-625.449	130.305	-0.190	-0.243
-624.434	6.523	0.159	0.118
-623.419	86.601	0.189	0.208
-622.405	-25.912	-0.262	0.154
-621.390	-62.818	-0.145	-0.060
-620.376	-128.341	0.175	-0.025
-619.361	-181.099	-0.060	0.001
-618.346	-200.000	0.010	0.058
-617.332	29.551	0.083	-0.070
-616.317	-99.218	-0.172	-0.043
-615.303	-5.391	0.142	0.097
-614.288	-18.865	-0.089	0.056
-613.273	-31.644	-0.248	0.139
-612.259	-144.647	0.342	-0.031
-611.244	-91.040	0.324	-0.093
-610.230	-100.567	-0.469	0.116
-609.215	192.544	0.063	-0.095
-608.201	-200.000	0.021	0.353
-607.186	-200.000	-0.065	0.375
-606.171	190.358	0.039	-0.059
-605.157	-113.017	-0.121	0.024
-604.142	330.008	-0.046	-0.088
-603.128	-15.379	0.267	-0.170
-602.113	260.538	0.087	0.149
-601.098	347.149	-0.159	-0.312
-600.084	34.414	0.050	-0.043
-599.069	-95.610	0.045	0.012
-598.055	36.005	0.168	0.147
-597.040	-33.058	-0.112	0.062
-596.025	69.369	0.250	-0.257
-595.011	796.767	-0.040	-0.111
-593.996	-22.567	-0.049	-0.029
-592.982	-200.000	-0.021	0.116
-591.967	526.779	-0.082	-0.192
-590.952	68.648	0.042	0.043
-589.938	10.754	0.114	-0.087
-588.923	452.122	0.051	-0.112
-587.909	-91.071	0.122	-0.035
-586.894	-122.088	0.103	-0.017
-585.879	41.749	-0.057	-0.051
-584.865	-88.226	-0.289	-0.086
-583.850	-94.023	0.187	-0.051
-582.836	399.878	0.110	0.230
-581.821	148.106	-0.155	0.208
-580.806	-200.000	-0.013	-0.064
-579.792	-0.730	-0.221	-0.156
-578.777	-130.411	0.207	0.028
-577.763	-200.000	-0.005	0.024
-576.748	232.701	0.066	0.108
-575.733	-172.963	0.201	-0.006
-574.719	-68.457	-0.514	0.199
-573.704	-90.974	0.172	-0.049
-572.690	-19.755	-0.158	-0.097
-571.675	-12.345	0.406	0.264
-570.661	49.948	0.088	-0.082
-569.646	-83.387	-0.361	0.115
-568.631	-138.588	-0.139	-0.015
-567.617	-155.516	0.258	-0.017
-566.602	-51.488	0.367	-0.171
-565.588	-111.003	0.349	0.071
-564.573	-69.047	0.159	-0.061
-563.558	638.475	-0.134	-0.339
-562.544	-82.793	0.058	0.019
-561.529	-200.000	-0.003	0.266
-560.515	-200.000	0.016	0.292
-559.500	-200.000	-0.020	-0.262
-558.485	-118.620	0.084	-0.015
-557.471	-18.165	0.149	0.093
-556.456	739.259	-0.112	-0.300
-555.442	-15.761	0.129	-0.082
-554.427	-200.000	0.023	0.305
-553.412	86.934	0.133	-0.146
-552.398	-72.447	-0.258	-0.095
-551.383	146.144	0.181	0.242
-550.369	595.006	0.104	-0.256
-549.354	-66.635	0.106	-0.042
-548.339	682.360	-0.061	-0.159
-547.325	58.008	0.083	-0.081
-546.310	81.030	-0.156	0.168
-545.296	27.092	0.023	0.019
-544.281	504.306	-0.071	-0.163
-543.266	15.380	-0.076	0.059
-542.252	51.410	-0.057	-0.054
-541.237	97.758	0.116	0.133
-540.223	87.611	-0.199	0.219
-539.208	543.297	-0.157	0.372
-538.193	27.483	0.136	0.114
-537.179	63.863	-0.156	0.156
-536.164	417.737	0.035	-0.075
-535.150	16.746	-0.288	0.226
-534.135	-168.360	0.073	-0.003
-533.121	-18.380	-0.256	-0.159
-532.106	59.686	0.185	0.181
-531.091	-139.568	0.129	0.014
-530.077	167.643	-0.030	0.042
-529.062	291.691	-0.093	0.168
-528.048	-200.000	0.073	-0.479
-527.033	-200.000	0.010	-0.242
-526.018	139.044	0.179	0.233
-525.004	16.533	0.132	0.104
-523.989	-79.554	0.119	0.040
-522.975	-200.000	0.014	0.235
-521.960	321.573	0.034	0.065
-520.945	528.858	-0.100	-0.235
-519.931	454.514	-0.128	0.281
-518.916	33.655	0.298	-0.258
-517.902	70.960	-0.234	-0.241
-516.887	-200.000	-0.005	0.123
-515.872	-200.000	-0.065	-0.371
-514.858	-10.751	0.165	0.109
-513.843	-5.282	0.343	-0.234
-512.829	372.713	0.109	0.221
-511.814	-27.572	-0.321	-0.185
-510.799	217.848	0.104	0.165
-509.785	-158.675	-0.322	-0.018
-508.770	-54.065	0.151	0.068
-507.756	-119.648	-0.182	-0.031
-506.741	202.467	-0.026	-0.040
-505.726	-65.399	-0.394	0.157
-504.712	-57.406	0.222	0.097
-503.697	-200.000	0.069	0.311
-502.683	-75.420	-0.312	-0.110
-501.668	800.000	-0.046	-0.175
-500.653	185.778	0.122	0.180
-499.639	326.447	-0.151	-0.287
-498.624	208.564	-0.085	-0.132
-497.610	491.210	0.142	-0.322
-496.595	800.000	-0.046	0.199
-495.581	-124.570	-0.297	0.046
-494.566	183.470	0.221	-0.325
-493.551	154.489	-0.053	0.072
-492.537	217.078	0.056	0.089
-491.522	264.549	0.145	0.250
-490.508	-29.782	-0.326	-0.184
-489.493	453.042	-0.047	0.102
-488.478	16.181	-0.065	0.051
-487.464	103.755	-0.131	-0.153
-486.449	5.904	0.182	-0.133
-485.435	70.539	-0.267	-0.274
-484.420	58.568	0.055	-0.053
-483.405	-54.567	0.069	0.031
-482.391	303.814	0.040	0.073
-481.376	-134.369	0.428	0.052
-480.362	800.000	-0.144	0.407
-479.347	124.826	-0.276	0.345
-478.332	91.640	0.304	-0.339
-477.318	303.705	-0.126	-0.232
-476.303	800.000	-0.068	-0.293
-475.289	658.502	-0.123	-0.314
-474.274	-200.000	0.043	-0.242
-473.259	90.524	-0.159	0.177
-472.245	-200.000	-0.002	-0.326
-471.230	-200.000	-0.001	-0.237
-470.216	588.307	-0.039	-0.096
-469.201	-200.000	-0.012	-0.149
-468.186	-200.000	0.021	-0.237
-467.172	-68.831	0.237	-0.091
-466.157	-113.612	0.196	0.038
-465.143	800.000	-0.082	0.250
-464.128	-109.851	-0.109	0.023
-463.113	-7.816	0.161	-0.108
-462.099	-126.373	-0.413	0.061
-461.084	62.505	-0.130	0.129
-460.070	-200.000	0.019	0.207
-459.055	-200.000	0.017	-0.254
-458.040	626.102	-0.082	-0.205
-457.026	-95.294	-0.135	0.036
-456.011	63.704	-0.086	0.085
-454.997	-44.608	0.168	0.083
-453.982	73.022	0.126	-0.131
-452.968	-200.000	-0.017	-0.073
-451.953	-55.875	-0.045	0.020
-450.938	637.849	-0.132	0.332
-449.924	-6.047	0.040	0.027
-448.909	192.371	-0.119	-0.178
-447.895	758.882	-0.044	-0.117
-446.880	480.979	0.078	-0.176
-445.865	-97.813	0.127	0.033
-444.851	-41.804	-0.328	0.167
-443.836	-121.965	0.487	0.079
-442.822	800.000	-0.080	0.229
-441.807	155.986	0.116	-0.158
-440.792	-10.793	-0.121	-0.080
-439.778	-108.874	0.397	0.084
-438.763	137.707	-0.281	-0.364
-437.749	-200.000	0.017	0.123
-436.734	-57.316	0.319	-0.139
-435.719	437.636	-0.055	0.118
-434.705	318.100	0.044	0.083
-433.690	-75.148	-0.053	0.019
-432.676	-87.943	0.129	0.038
-431.661	-82.585	-0.306	-0.098
-430.646	-97.091	0.179	0.046
-429.632	-161.642	0.450	-0.023
-428.617	800.000	0.048	0.166
-427.603	-60.113	0.073	-0.031
-426.588	170.143	-0.096	0.136
-425.573	114.740	0.056	-0.067
-424.559	190.930	-0.129	0.192
-423.544	-200.000	-0.011	0.158
-422.530	-169.700	-0.655	0.023
-421.515	-200.000	0.013	-0.334
-420.500	593.231	0.020	0.049
-419.486	560.234	0.086	0.206
-418.471	800.000	0.023	0.067
-417.457	-52.953	-0.404	0.184
-416.442	-200.000	-0.001	0.282
-415.428	70.627	-0.158	0.161
-414.413	-165.032	-0.283	-0.012
-413.398	-120.449	-0.225	-0.038
-412.384	52.420	0.119	0.113
-411.369	-200.000	-0.020	-0.088
-410.355	-191.503	0.270	0.003
-409.340	-155.223	0.163	-0.010
-408.325	-53.383	-0.130	-0.059
-407.311	418.355	0.074	-0.156
-406.296	-200.000	-0.010	0.206
-405.282	-56.609	-0.143	0.063
-404.267	15.025	0.389	-0.302
-403.252	549.965	-0.141	-0.335
-402.238	173.480	0.160	0.228
-401.223	151.285	0.202	0.272
-400.209	251.470	0.115	-0.193
-399.194	77.419	0.169	-0.177
-398.179	103.962	-0.167	-0.194
-397.165	-200.000	-0.003	-0.037
-396.150	-200.000	0.029	0.186
-395.136	136.435	0.113	-0.146
-394.121	-200.000	0.004	0.156
-393.106	339.118	-0.122	-0.234
-392.092	-168.727	-0.170	-0.006
-391.077	378.633	-0.201	-0.406
-390.063	-176.003	0.312	0.008
-389.048	-35.323	0.119	0.064
-388.033	205.031	-0.037	0.057
-387.019	-50.758	-0.050	-0.023
-386.004	451.161	0.058	0.127
-384.990	499.370	0.136	-0.310
-383.975	369.507	0.177	-0.354
-382.960	-200.000	-0.004	0.129
-381.946	259.682	0.022	0.037
-380.931	164.288	-0.334	0.465
-379.917	-101.495	0.091	0.022
-378.902	348.972	-0.144	-0.281
-377.888	47.517	0.225	-0.207
-376.873	-133.430	0.438	-0.054
-375.858	254.701	0.113	-0.191
-374.844	-109.823	0.327	0.068
-373.829	-32.532	0.306	0.168
-372.815	-31.092	0.149	0.083
-371.800	226.476	0.123	-0.197
-370.785	179.798	-0.024	-0.035
-369.771	258.670	0.028	-0.047
-368.756	-200.000	-0.008	0.302
-367.742	749.692	-0.114	0.304
-366.727	-200.000	0.023	0.165
-365.712	-61.829	-0.061	-0.025
-364.698	800.000	-0.064	-0.275
-363.683	82.596	0.090	0.097
-362.669	81.249	0.110	-0.117
-361.654	-68.471	-0.222	0.085
-360.639	-200.000	-0.020	-0.262
-359.625	46.087	-0.259	-0.237
-358.610	-121.712	-0.200	0.033
-357.596	-50.172	0.394	-0.184
-356.581	-147.940	-0.427	-0.035
-355.566	-14.251	0.433	0.275
-354.552	237.423	-0.052	-0.086
-353.537	-185.776	0.342	0.005
-352.523	-38.833	-0.366	0.190
-351.508	53.710	0.185	-0.175
-350.493	0.624	-0.232	0.164
-349.479	214.826	0.088	0.138
-348.464	800.000	0.040	-0.161
-347.450	-83.805	-0.240	-0.076
-346.435	-200.000	-0.038	0.194
-345.420	134.772	0.053	0.068
-344.406	265.930	-0.107	-0.184
-343.391	-159.863	-0.098	-0.005
-342.377	800.000	-0.018	-0.066
-341.362	-200.000	0.024	-0.116
-340.348	348.824	0.305	-0.595
-339.333	-35.789	-0.157	0.084
-338.318	-200.000	-0.028	0.147
-337.304	-122.884	0.138	-0.022
-336.289	33.119	-0.256	-0.219
-335.275	208.684	-0.136	-0.210
-334.260	162.174	0.037	0.051
-333.245	-39.591	0.068	-0.035
-332.231	387.043	-0.056	0.115
-331.216	-149.028	-0.178	0.014
-330.202	229.992	-0.091	-0.147
-329.187	-200.000	0.032	-0.362
-328.172	800.000	-0.090	-0.307
-327.158	-76.034	-0.129	0.045
-326.143	-76.203	-0.112	-0.039
-325.129	-145.785	-0.250	-0.022
-324.114	622.632	0.058	0.144
-323.099	45.143	0.181	-0.164
-322.085	26.126	0.102	-0.084
-321.070	-81.997	-0.344	0.111
-320.056	133.486	-0.037	0.047
-319.041	478.284	0.165	0.369
-318.026	-200.000	0.058	0.538
-317.012	-13.937	0.132	0.084
-315.997	-98.103	0.372	0.094
-314.983	-48.729	0.117	-0.055
-313.968	-33.453	-0.234	0.128
-312.953	153.938	0.172	0.232
-311.939	-50.846	-0.115	-0.053
-310.924	-167.027	0.180	-0.007
-309.910	-15.858	-0.239	0.150
-308.895	135.569	0.136	-0.174
-307.880	-10.307	0.293	0.192
-306.866	-141.664	0.087	0.009
-305.851	125.209	0.102	0.126
-304.837	621.684	0.058	-0.145
-303.822	800.000	-0.054	0.231
-302.807	138.423	0.055	0.071
-301.793	66.734	0.174	0.174
-300.778	-11.987	0.198	-0.128
-299.764	-200.000	0.001	-0.110
-298.749	188.755	0.227	-0.335
-297.735	239.037	-0.154	0.253
-296.720	-75.151	-0.331	0.117
-295.705	665.621	-0.153	0.389
-294.691	-58.813	0.124	0.053
-293.676	-125.966	0.286	0.042
-292.662	418.818	0.063	-0.133
-291.647	-44.673	0.318	-0.156
-290.632	576.271	-0.047	-0.114
-289.618	80.886	-0.091	0.097
-288.603	575.031	-0.138	0.332
-287.589	324.234	-0.075	0.141
-286.574	-120.545	0.319	0.053
-285.559	41.302	0.120	-0.107
-284.545	-200.000	-0.037	-0.474
-283.530	102.192	-0.114	0.131
-282.516	345.613	0.149	0.288
-281.501	800.000	0.138	-0.384
-280.486	-124.465	-0.192	0.029
-279.472	-108.692	0.121	-0.025
-278.457	126.477	-0.047	-0.058
-277.443	-144.976	0.243	0.022
-276.428	38.725	-0.235	-0.207
-275.413	-189.803	-0.150	0.002
-274.399	-71.824	0.196	0.072
-273.384	-200.000	-0.021	0.278
-272.370	-188.902	0.111	-0.001
-271.355	-123.858	0.329	0.051
-270.340	-123.739	-0.332	-0.052
-269.326	-30.480	0.210	-0.117
-268.311	-18.172	-0.109	0.067
-267.297	769.757	-0.083	0.222
-266.282	-75.471	-0.268	0.094
-265.267	-152.407	-0.268	-0.019
-264.253	-55.367	-0.235	-0.104
-263.238	11.151	0.099	0.075
-262.224	83.933	0.359	-0.385
-261.209	140.498	-0.141	0.184
-260.195	35.429	0.091	0.078
-259.180	-108.651	0.045	0.009
-258.165	-200.000	-0.063	0.304
-257.151	-101.838	-0.103	0.025
-256.136	161.409	-0.148	0.204
-255.122	-130.260	0.181	-0.024
-254.107	-54.365	0.319	0.142
-253.092	-200.000	-0.007	0.120
-252.078	-21.402	0.229	0.137
-251.063	-54.017	-0.163	0.073
-250.049	800.000	0.062	0.232
-249.034	-200.000	0.006	-0.097
-248.019	352.958	-0.029	-0.057
-247.005	22.772	-0.344	-0.277
-245.990	-1.986	-0.074	0.051
-244.976	-81.836	-0.221	0.071
-243.961	-146.972	0.387	0.033
-242.946	-84.764	-0.295	-0.091
-241.932	-74.009	0.089	0.032
-240.917	-149.191	-0.235	-0.019
-239.903	204.035	0.175	0.266
-238.888	371.975	0.129	-0.258
-237.873	334.769	-0.241	-0.458
-236.859	-200.000	0.027	-0.118
-235.844	-126.996	-0.111	-0.016
-234.830	-86.884	0.116	-0.035
-233.815	-94.456	-0.372	0.100
-232.800	252.248	0.140	0.235
-231.786	195.341	-0.040	0.059
-230.771	-137.266	-0.341	0.038
-229.757	25.280	-0.191	-0.156
-228.742	696.886	-0.064	0.166
-227.727	189.242	-0.109	-0.160
-226.713	-138.139	0.149	-0.016
-225.698	16.287	-0.243	-0.188
-224.684	-125.992	0.228	-0.034
-223.669	-200.000	0.011	0.170
-222.655	800.000	0.098	0.323
-221.640	-200.000	0.005	-0.072
-220.625	208.326	-0.079	-0.121
-219.611	-90.219	-0.448	-0.128
-218.596	800.000	0.047	-0.137
-217.582	-40.374	-0.074	-0.038
-216.567	-27.279	0.189	-0.108
-215.552	11.960	-0.036	-0.027
-214.538	-176.304	-0.102	-0.003
-213.523	800.000	0.151	0.450
-212.509	354.330	0.151	-0.294
-211.494	800.000	-0.080	0.308
-210.479	-84.108	0.389	-0.121
-209.465	1.146	0.142	0.100
-208.450	488.345	-0.132	-0.297
-207.436	-68.555	0.202	0.077
-206.421	-200.000	0.016	0.073
-205.406	33.390	0.103	0.088
-204.392	-132.089	-0.352	-0.045
-203.377	-17.419	0.235	0.145
-202.363	-200.000	0.004	0.047
-201.348	-200.000	-0.019	0.090
-200.333	-46.808	-0.221	0.106
-199.319	60.541	0.210	0.204
-198.304	-68.021	-0.236	0.090
-197.290	192.040	-0.096	-0.142
-196.275	-200.000	0.032	0.266
-195.260	468.859	-0.052	0.114
-194.246	24.409	-0.172	0.139
-193.231	800.000	0.088	-0.240
-192.217	-151.748	-0.192	0.014
-191.202	64.802	0.175	0.173
-190.187	-200.000	-0.002	-0.400
-189.173	-152.806	0.218	0.015
-188.158	95.701	-0.265	-0.297
-187.144	-5.422	0.060	-0.041
-186.129	-88.610	-0.423	-0.124
-185.114	7.074	0.091	-0.067
-184.100	19.319	0.157	0.124
-183.085	800.000	0.019	-0.052
-182.071	-139.900	-0.384	-0.040
-181.056	-200.000	0.098	0.000
-180.042	-15.818	-0.193	0.121
-179.027	-159.179	-0.309	-0.017
-178.012	-200.000	-0.020	0.403
-176.998	-88.571	0.067	0.019
-175.983	728.309	0.119	0.312
-174.969	-61.906	-0.228	0.094
-173.954	345.378	0.172	-0.331
-172.939	-97.886	0.256	-0.065
-171.925	800.000	0.051	-0.145
-170.910	92.629	0.046	-0.051
-169.896	45.035	0.206	0.186
-168.881	143.144	0.124	-0.161
-167.866	-74.854	0.183	0.064
-166.852	459.157	-0.163	-0.355
-165.837	800.000	0.054	0.183
-164.823	80.178	0.061	0.064
-163.808	800.000	-0.114	-0.336
-162.793	-158.317	0.216	-0.012
-161.779	800.000	-0.066	0.186
-160.764	800.000	-0.052	0.190
-159.750	250.814	0.026	0.043
-158.735	800.000	-0.045	0.172
-157.720	800.000	0.085	-0.314
-156.706	364.220	-0.177	-0.348
-155.691	-200.000	-0.043	0.209
-154.677	-59.216	-0.152	0.064
-153.662	158.210	-0.145	-0.197
-152.647	182.098	0.059	0.085
-151.633	94.102	-0.109	-0.121
-150.618	463.188	-0.140	-0.307
-149.604	60.233	0.350	-0.339
-148.589	-137.422	0.072	0.008
-147.574	800.000	0.111	-0.347
-146.560	800.000	-0.060	-0.254
-145.545	-148.768	0.275	0.022
-144.531	-57.313	-0.274	0.118
-143.516	-200.000	-0.051	0.606
-142.502	79.051	-0.149	0.156
-141.487	-36.795	0.064	-0.034
-140.472	383.830	0.099	0.200
-139.458	33.927	-0.350	0.298
-138.443	-12.093	0.108	-0.069
-137.429	-1.392	0.140	0.097
-136.414	20.803	0.039	-0.031
-135.399	-66.476	0.156	-0.061
-134.385	-63.155	0.315	-0.127
-133.370	-200.000	-0.006	-0.166
-132.356	-200.000	0.005	-0.209
-131.341	-23.369	0.196	0.116
-130.326	99.740	-0.067	-0.076
-129.312	-200.000	0.006	0.036
-128.297	-125.164	0.235	0.035
-127.283	-122.418	0.035	-0.006
-126.268	-52.423	0.159	-0.072
-125.253	-200.000	-0.010	-0.145
-124.239	437.608	-0.098	-0.210
-123.224	131.529	-0.159	-0.200
-122.210	-200.000	0.009	0.096
-121.195	800.000	-0.019	0.070
