DTS Sentinel unit serial number:	SN413079Multiplexer serial number:	ORYXHardware model number:	OX4-SRSoftware version number:	ORYX F/W v4.00 Oryx Data Collector v3.7.2.0data status	okinstallation	princeton_trtdifferential loss correction	single-endedforward channel	channel 1reverse channel	N/Adate	2019/09/13time	02:46:35forward acquisition time	60.00reverse acquisition time	0.00gamma	496.2192k internal	0.2331k external	0.2331temperature offset calibration	1.0159default loss term (dB/km)	0.3790temperature slope calibration	1.0000multiplexer offset coefficient	1.0000multiplexer slope coefficient	1.0000fibre end	0.00T internal ref (°C)	27.44T ext. ref 1 (°C)	4.03T ext. ref 2 (°C)	22.28length (m)	temperature (°C)	Stokes	anti-Stokes-747.200	-39.275	0.140	-0.074
-746.185	203.042	-0.156	0.243
-745.171	276.715	-0.049	0.088
-744.156	-115.306	-0.395	-0.075
-743.142	-109.463	0.308	-0.065
-742.127	541.577	0.181	0.433
-741.112	-162.131	-0.200	-0.010
-740.098	-96.209	0.277	0.074
-739.083	169.825	0.130	-0.187
-738.069	125.575	-0.083	0.105
-737.054	-142.427	-0.033	0.003
-736.039	139.645	0.220	0.291
-735.025	272.134	0.093	0.165
-734.010	-105.637	-0.077	-0.018
-732.996	-173.893	-0.099	0.003
-731.981	-174.458	-0.277	-0.008
-730.966	-100.671	-0.301	-0.075
-729.952	304.467	-0.025	0.046
-728.937	-200.000	-0.000	-0.047
-727.923	-52.817	-0.171	0.079
-726.908	-200.000	-0.020	-0.118
-725.894	145.276	-0.026	-0.035
-724.879	-78.021	-0.207	-0.072
-723.864	-64.395	-0.138	-0.056
-722.850	-147.133	-0.333	0.029
-721.835	75.929	-0.286	0.304
-720.821	461.699	-0.134	-0.301
-719.806	-113.049	0.146	-0.029
-718.791	-51.289	-0.179	-0.084
-717.777	-84.533	0.261	0.083
-716.762	-147.855	-0.134	-0.011
-715.748	-49.506	-0.117	-0.056
-714.733	-200.000	0.002	-0.068
-713.718	-81.719	-0.041	0.014
-712.704	-113.762	0.339	-0.066
-711.689	36.034	-0.198	-0.176
-710.675	-69.372	0.272	-0.105
-709.660	800.000	-0.044	-0.122
-708.645	219.141	-0.089	-0.144
-707.631	226.909	-0.182	-0.297
-706.616	-200.000	0.021	0.190
-705.602	-115.129	0.135	-0.026
-704.587	64.980	0.154	0.157
-703.572	312.120	-0.009	-0.018
-702.558	150.074	0.189	-0.257
-701.543	96.349	-0.256	0.295
-700.529	-200.000	0.000	-0.097
-699.514	-84.180	-0.104	0.033
-698.499	-62.811	0.187	0.078
-697.485	179.168	-0.175	0.257
-696.470	-200.000	-0.036	-0.465
-695.456	-147.670	-0.262	-0.022
-694.441	-200.000	-0.011	-0.074
-693.426	700.584	-0.111	0.293
-692.412	-200.000	0.059	-0.487
-691.397	-25.894	0.396	0.234
-690.383	538.388	-0.076	-0.182
-689.368	-135.891	0.202	0.024
-688.354	176.239	-0.116	-0.169
-687.339	0.844	-0.229	0.165
-686.324	-200.000	-0.005	-0.109
-685.310	-79.539	-0.386	-0.131
-684.295	7.067	-0.352	0.264
-683.281	-19.033	0.191	-0.119
-682.266	169.299	0.203	-0.291
-681.251	-3.466	-0.268	-0.187
-680.237	-200.000	0.011	0.166
-679.222	-111.609	0.197	0.040
-678.208	-200.000	0.003	0.489
-677.193	-21.047	-0.027	0.016
-676.178	-82.945	-0.076	0.024
-675.164	604.835	-0.103	-0.258
-674.149	-27.723	-0.168	0.098
-673.135	-97.287	-0.394	-0.103
-672.120	612.088	-0.086	0.215
-671.105	203.762	-0.026	-0.040
-670.091	46.842	0.336	0.313
-669.076	-117.442	-0.197	-0.036
-668.062	-95.458	0.288	0.078
-667.047	-105.313	0.180	0.041
-666.032	-56.530	0.083	0.037
-665.018	-200.000	0.013	-0.215
-664.003	31.072	-0.088	-0.076
-662.989	-116.270	0.130	0.024
-661.974	150.417	0.144	-0.197
-660.959	800.000	0.061	0.201
-659.945	-128.561	-0.103	-0.015
-658.930	-200.000	-0.018	-0.101
-657.916	-145.772	-0.123	0.011
-656.901	-131.057	0.383	0.051
-655.886	-200.000	-0.010	-0.315
-654.872	-200.000	0.020	-0.241
-653.857	-37.640	-0.282	0.151
-652.843	116.300	0.064	0.078
-651.828	-88.962	-0.281	-0.083
-650.814	72.689	0.221	-0.232
-649.799	-151.942	-0.091	-0.007
-648.784	-117.733	0.042	0.008
-647.770	179.509	0.274	0.401
-646.755	-200.000	-0.004	-0.093
-645.741	-88.310	0.305	0.091
-644.726	-200.000	-0.042	-0.196
-643.711	743.358	-0.053	-0.142
-642.697	-62.495	0.101	0.042
-641.682	-200.000	0.038	0.195
-640.668	538.526	-0.024	0.058
-639.653	75.408	-0.228	0.241
-638.638	75.611	-0.002	-0.002
-637.624	113.357	-0.073	-0.089
-636.609	796.732	0.115	0.317
-635.595	800.000	-0.046	-0.173
-634.580	-122.275	-0.439	0.072
-633.565	-200.000	0.028	0.203
-632.551	-53.621	-0.104	-0.048
-631.536	177.929	-0.197	-0.288
-630.522	800.000	0.070	0.265
-629.507	800.000	-0.027	0.080
-628.492	109.436	-0.086	0.103
-627.478	618.067	-0.077	0.193
-626.463	-156.721	-0.022	-0.001
-625.449	-19.949	-0.130	-0.080
-624.434	-200.000	0.041	-0.314
-623.419	800.000	0.032	-0.132
-622.405	0.956	0.269	0.193
-621.390	-69.389	-0.107	-0.041
-620.376	24.993	0.365	-0.303
-619.361	-74.951	-0.141	-0.051
-618.346	-200.000	-0.014	0.177
-617.332	-90.703	-0.299	0.086
-616.317	-80.621	-0.099	0.033
-615.303	54.377	0.172	-0.166
-614.288	-159.378	-0.204	0.011
-613.273	82.012	0.223	0.242
-612.259	73.478	0.185	-0.194
-611.244	345.950	0.107	-0.211
-610.230	800.000	-0.014	-0.054
-609.215	-200.000	0.018	-0.111
-608.201	-73.011	0.191	-0.070
-607.186	19.885	-0.122	0.099
-606.171	-27.869	-0.300	-0.174
-605.157	-33.055	0.115	0.064
-604.142	-200.000	-0.004	0.191
-603.128	-71.671	-0.215	-0.080
-602.113	-200.000	0.012	0.173
-601.098	452.727	0.024	-0.054
-600.084	-77.410	0.189	0.066
-599.069	160.572	0.198	0.277
-598.055	428.918	-0.024	0.051
-597.040	-200.000	0.049	-0.338
-596.025	-98.893	-0.087	-0.022
-595.011	-4.769	0.226	0.156
-593.996	-200.000	0.023	0.374
-592.982	9.472	-0.164	0.124
-591.967	800.000	-0.083	0.312
-590.952	6.510	-0.170	0.126
-589.938	5.474	-0.231	-0.171
-588.923	-200.000	0.055	0.244
-587.909	-8.717	0.329	-0.221
-586.894	-164.227	0.206	-0.010
-585.879	-25.795	0.182	0.107
-584.865	-45.181	-0.359	0.178
-583.850	-65.638	0.159	0.064
-582.836	-11.757	0.454	-0.298
-581.821	-138.644	-0.327	0.036
-580.806	315.005	0.074	0.139
-579.792	-183.315	0.246	0.004
-578.777	800.000	0.126	-0.422
-577.763	-200.000	-0.012	-0.289
-576.748	800.000	0.042	0.134
-575.733	800.000	0.052	0.176
-574.719	800.000	-0.012	0.044
-573.704	-200.000	-0.011	-0.169
-572.690	-86.431	-0.189	-0.058
-571.675	-18.103	0.155	-0.097
-570.661	126.533	-0.150	-0.189
-569.646	-200.000	0.020	-0.194
-568.631	-37.419	-0.240	-0.128
-567.617	398.711	-0.154	-0.322
-566.602	-124.766	0.265	0.041
-565.588	176.259	-0.129	0.187
-564.573	526.898	0.084	0.199
-563.558	-146.591	0.256	-0.022
-562.544	-200.000	0.035	0.180
-561.529	475.300	0.136	0.306
-560.515	-107.512	0.054	0.012
-559.500	-105.547	-0.185	0.042
-558.485	-200.000	-0.000	0.040
-557.471	-66.419	0.156	-0.062
-556.456	216.519	-0.148	0.236
-555.442	-137.775	-0.461	0.052
-554.427	42.556	0.190	-0.173
-553.412	-116.290	-0.157	-0.029
-552.398	-29.387	0.239	-0.137
-551.383	144.347	-0.228	0.304
-550.369	-77.094	0.226	0.079
-549.354	13.440	0.253	0.196
-548.339	38.088	-0.115	0.102
-547.325	-84.936	-0.122	-0.038
-546.310	343.600	0.077	0.150
-545.296	-57.650	-0.065	-0.029
-544.281	229.132	0.115	-0.188
-543.266	19.764	0.409	0.329
-542.252	14.293	-0.175	-0.136
-541.237	-3.623	-0.410	-0.285
-540.223	-200.000	0.026	-0.306
-539.208	-200.000	-0.018	-0.152
-538.193	-69.375	0.203	0.078
-537.179	-34.069	-0.181	0.099
-536.164	350.999	0.085	0.167
-535.150	61.726	-0.192	0.191
-534.135	-17.869	0.199	0.125
-533.121	-81.800	-0.336	0.110
-532.106	-149.696	-0.130	-0.010
-531.091	-61.835	0.156	0.065
-530.077	259.149	0.106	0.182
-529.062	123.224	-0.153	-0.192
-528.048	-200.000	-0.024	-0.284
-527.033	-183.917	-0.229	-0.004
-526.018	-43.574	0.177	0.089
-525.004	6.017	-0.140	0.103
-523.989	800.000	-0.118	-0.373
-522.975	-6.078	-0.019	0.013
-521.960	-124.716	-0.042	-0.007
-520.945	-200.000	0.021	0.148
-519.931	637.267	-0.032	0.081
-518.916	-179.589	-0.232	-0.005
-517.902	-93.243	0.231	-0.064
-516.887	486.073	0.057	0.130
-515.872	-155.542	-0.254	-0.016
-514.858	-200.000	0.001	-0.385
-513.843	45.156	-0.205	0.188
-512.829	164.124	-0.115	0.161
-511.814	-200.000	0.037	-0.294
-510.799	-200.000	0.076	0.352
-509.785	428.107	-0.062	-0.134
-508.770	-73.586	0.409	0.149
-507.756	-138.071	-0.379	-0.042
-506.741	91.602	0.216	-0.242
-505.726	508.596	-0.087	0.200
-504.712	16.717	0.062	-0.049
-503.697	474.529	0.055	-0.124
-502.683	73.221	-0.101	0.105
-501.668	-200.000	-0.012	-0.057
-500.653	-200.000	-0.056	-0.264
-499.639	-200.000	-0.013	-0.289
-498.624	-56.828	-0.173	0.076
-497.610	-56.530	-0.204	0.090
-496.595	-62.621	-0.311	0.128
-495.581	56.516	0.129	0.125
-494.566	-83.030	-0.153	0.049
-493.551	4.846	0.198	-0.145
-492.537	87.206	-0.080	0.088
-491.522	800.000	-0.044	-0.139
-490.508	-200.000	-0.011	-0.053
-489.493	71.391	-0.164	-0.169
-488.478	147.776	0.136	0.183
-487.464	437.305	0.049	-0.107
-486.449	587.875	-0.080	-0.196
-485.435	133.664	0.112	0.145
-484.420	-52.262	-0.364	-0.168
-483.405	800.000	-0.029	0.082
-482.391	-67.699	0.158	0.062
-481.376	-200.000	0.013	0.141
-480.362	-83.435	-0.373	-0.119
-479.347	-200.000	0.039	0.193
-478.332	800.000	0.029	0.101
-477.318	-200.000	-0.003	-0.126
-476.303	-123.392	-0.160	0.025
-475.289	-122.241	-0.245	-0.040
-474.274	25.368	0.157	-0.130
-473.259	-200.000	0.020	-0.123
-472.245	-147.852	0.141	-0.012
-471.230	-200.000	0.037	0.471
-470.216	100.097	0.083	0.096
-469.201	82.891	-0.136	0.147
-468.186	-200.000	-0.055	-0.306
-467.172	-121.627	0.336	0.055
-466.157	1.205	0.288	-0.206
-465.143	-136.700	0.191	0.022
-464.128	53.704	-0.191	-0.182
-463.113	503.952	-0.092	-0.212
-462.099	-18.731	0.127	-0.078
-461.084	-200.000	0.014	0.173
-460.070	135.731	-0.167	0.216
-459.055	-2.314	-0.259	0.181
-458.040	-200.000	-0.011	-0.122
-457.026	648.137	0.044	-0.112
-456.011	800.000	-0.021	-0.068
-454.997	133.198	-0.067	0.086
-453.982	-200.000	0.032	0.193
-452.968	-27.480	-0.234	0.135
-451.953	11.732	0.128	0.098
-450.938	-57.409	-0.182	-0.079
-449.924	-200.000	-0.010	-0.167
-448.909	800.000	0.039	0.157
-447.895	195.942	-0.071	0.108
-446.880	23.035	0.041	-0.033
-445.865	-143.536	0.124	0.012
-444.851	-61.162	0.168	0.071
-443.836	398.798	-0.097	-0.202
-442.822	-9.756	0.380	0.252
-441.807	800.000	-0.030	0.107
-440.792	-91.580	0.060	0.017
-439.778	61.083	0.139	-0.137
-438.763	226.253	0.181	0.292
-437.749	-9.488	-0.019	-0.013
-436.734	-122.413	0.190	0.031
-435.719	-200.000	0.041	0.307
-434.705	800.000	0.089	0.277
-433.690	-104.110	-0.070	-0.016
-432.676	27.916	-0.023	0.020
-431.661	245.038	0.226	-0.377
-430.646	-200.000	0.023	0.403
-429.632	800.000	-0.035	-0.096
-428.617	-132.889	0.114	-0.014
-427.603	324.153	-0.110	-0.210
-426.588	-4.253	-0.293	0.202
-425.573	-140.537	-0.275	0.028
-424.559	-93.677	0.161	0.044
-423.544	-112.154	0.194	-0.039
-422.530	74.594	-0.278	-0.291
-421.515	800.000	0.065	0.237
-420.500	375.655	0.061	-0.124
-419.486	-13.506	-0.246	0.159
-418.471	-200.000	0.038	-0.249
-417.457	84.283	-0.024	-0.026
-416.442	-74.790	-0.247	-0.088
-415.428	37.253	0.134	-0.118
-414.413	22.446	0.113	-0.092
-413.398	-118.709	-0.207	-0.036
-412.384	584.766	-0.082	0.200
-411.369	-200.000	0.046	-0.466
-410.355	69.249	-0.347	-0.355
-409.340	714.932	-0.052	-0.138
-408.325	-78.574	0.253	-0.086
-407.311	-43.557	-0.176	-0.088
-406.296	432.793	-0.053	-0.114
-405.282	-163.380	0.172	-0.008
-404.267	-142.689	-0.402	-0.039
-403.252	-114.120	0.389	-0.075
-402.238	431.318	0.100	-0.215
-401.223	800.000	-0.071	0.194
-400.209	-200.000	-0.028	0.186
-399.194	-129.409	0.248	-0.034
-398.179	-59.654	-0.402	-0.171
-397.165	160.538	0.232	-0.322
-396.150	-41.101	0.151	-0.077
-395.136	89.285	0.192	0.212
-394.121	97.901	-0.307	-0.351
-393.106	800.000	-0.076	-0.213
-392.092	83.643	0.102	-0.110
-391.077	-84.865	0.234	-0.073
-390.063	221.076	0.158	-0.251
-389.048	-0.235	-0.111	0.078
-388.033	-6.383	-0.289	-0.196
-387.019	-200.000	-0.013	-0.142
-386.004	-138.753	0.130	-0.014
-384.990	-200.000	-0.021	-0.131
-383.975	257.182	0.112	-0.191
-382.960	-200.000	0.024	-0.285
-381.946	76.362	-0.054	0.057
-380.931	-179.538	-0.055	0.001
-379.917	180.433	-0.132	-0.193
-378.902	-49.973	-0.113	0.053
-377.888	-200.000	0.057	-0.343
-376.873	86.830	0.200	-0.219
-375.858	243.016	0.168	0.279
-374.844	313.385	0.046	-0.086
-373.829	99.015	0.186	-0.213
-372.815	-200.000	-0.047	-0.000
-371.800	212.350	0.251	-0.392
-370.785	800.000	0.044	0.187
-369.771	-200.000	0.038	-0.251
-368.756	130.055	0.121	-0.153
-367.742	40.461	-0.084	-0.075
-366.727	151.809	-0.042	-0.057
-365.712	463.171	0.113	0.251
-364.698	180.072	0.180	0.262
-363.683	-180.612	0.161	-0.003
-362.669	-92.797	0.217	-0.060
-361.654	-129.967	-0.262	-0.036
-360.639	189.012	-0.106	0.157
-359.625	-148.218	0.316	-0.026
-358.610	-132.676	0.097	0.012
-357.596	137.411	-0.125	0.162
-356.581	-52.976	0.120	-0.055
-355.566	26.977	-0.101	0.084
-354.552	124.171	-0.188	-0.234
-353.537	800.000	0.075	-0.256
-352.523	-80.884	-0.108	0.035
-351.508	9.525	-0.087	-0.065
-350.493	-97.231	0.177	0.046
-349.479	-19.889	0.177	-0.108
-348.464	-17.491	0.185	-0.115
-347.450	-14.081	-0.213	0.136
-346.435	800.000	-0.061	-0.225
-345.420	800.000	0.088	-0.284
-344.406	276.577	0.108	-0.189
-343.391	57.488	-0.218	-0.211
-342.377	-99.937	0.225	0.056
-341.362	621.337	0.020	0.050
-340.348	-81.842	0.237	-0.077
-339.333	96.234	-0.138	0.157
-338.318	800.000	0.039	-0.128
-337.304	52.609	-0.171	-0.162
-336.289	680.876	-0.152	0.391
-335.275	610.419	-0.206	0.510
-334.260	-1.191	0.096	0.067
-333.245	-110.261	-0.357	0.074
-332.231	-200.000	-0.006	0.327
-331.216	-58.520	0.216	0.093
-330.202	21.223	-0.354	0.284
-329.187	-76.653	-0.272	0.095
-328.172	-200.000	-0.019	-0.273
-327.158	159.755	0.049	0.068
-326.143	-200.000	0.001	-0.178
-325.129	-16.541	0.039	-0.024
-324.114	-127.564	0.163	0.023
-323.099	301.358	0.041	0.075
-322.085	217.619	-0.125	0.196
-321.070	800.000	-0.073	0.200
-320.056	-47.180	-0.267	0.129
-319.041	-200.000	-0.031	0.460
-318.026	-90.395	0.209	-0.060
-317.012	-14.780	-0.185	0.118
-315.997	-200.000	0.003	0.165
-314.983	-101.650	0.211	0.051
-313.968	-115.817	-0.098	-0.018
-312.953	-200.000	0.032	-0.157
-311.939	235.373	-0.067	-0.110
-310.924	-157.811	-0.245	0.014
-309.910	-96.039	0.373	0.098
-308.895	-171.353	-0.372	0.012
-307.880	-119.121	0.079	-0.014
-306.866	45.899	-0.060	0.055
-305.851	800.000	0.049	0.171
-304.837	-63.567	-0.206	-0.084
-303.822	-108.407	0.390	0.083
-302.807	55.300	0.019	0.019
-301.793	-200.000	-0.002	0.156
-300.778	800.000	-0.077	0.226
-299.764	-200.000	0.033	0.290
-298.749	-118.511	0.332	-0.058
-297.735	-140.497	0.137	0.014
-296.720	305.866	0.153	-0.281
-295.705	-105.842	0.255	-0.057
-294.691	312.337	0.161	-0.299
-293.676	-124.495	0.062	-0.009
-292.662	-200.000	0.016	0.090
-291.647	16.661	-0.209	0.163
-290.632	258.512	-0.148	0.251
-289.618	538.369	0.049	-0.115
-288.603	-200.000	0.013	0.074
-287.589	-200.000	0.011	-0.104
-286.574	-112.427	-0.182	0.036
-285.559	-1.108	-0.032	0.022
-284.545	-30.570	0.054	0.030
-283.530	219.896	0.134	-0.213
-282.516	-57.275	-0.083	-0.036
-281.501	75.422	-0.045	0.047
-280.486	-73.896	-0.135	-0.049
-279.472	437.947	0.056	0.120
-278.457	-155.157	0.126	0.008
-277.443	5.588	-0.186	-0.136
-276.428	-130.559	0.400	0.053
-275.413	356.071	0.040	-0.079
-274.399	-200.000	0.056	-0.426
-273.384	143.128	0.271	0.356
-272.370	103.933	-0.152	-0.176
-271.355	165.279	0.134	0.186
-270.340	800.000	-0.057	0.242
-269.326	-112.568	0.096	-0.019
-268.311	-135.675	0.059	0.007
-267.297	-85.929	-0.366	0.112
-266.282	51.732	-0.188	0.176
-265.267	70.152	-0.322	-0.329
-264.253	74.331	-0.093	-0.097
-263.238	-105.385	-0.314	-0.071
-262.224	12.464	0.048	0.037
-261.209	800.000	0.068	-0.258
-260.195	180.803	0.062	0.090
-259.180	-35.240	0.207	0.111
-258.165	800.000	-0.046	-0.129
-257.151	-30.113	-0.263	-0.147
-256.136	147.757	0.105	0.139
-255.122	-200.000	0.074	0.366
-254.107	112.064	0.268	-0.320
-253.092	-80.659	0.081	-0.027
-252.078	-74.185	-0.285	0.102
-251.063	3.755	-0.205	0.148
-250.049	-176.139	0.257	0.007
-249.034	-146.011	-0.243	-0.021
-248.019	-56.287	0.271	-0.119
-247.005	-41.881	0.165	0.083
-245.990	54.492	0.065	-0.062
-244.976	-200.000	0.049	0.418
-243.961	-114.636	-0.144	0.027
-242.946	800.000	0.065	0.262
-241.932	-200.000	-0.036	-0.361
-240.917	-153.626	0.140	0.009
-239.903	28.758	-0.157	-0.131
-238.888	222.313	0.026	-0.041
-237.873	0.384	-0.149	-0.105
-236.859	-200.000	0.013	-0.322
-235.844	196.408	0.034	0.051
-234.830	-42.368	0.306	-0.154
-233.815	579.960	-0.070	0.169
-232.800	-57.715	-0.125	-0.054
-231.786	-69.074	-0.172	-0.065
-230.771	167.621	0.070	-0.098
-229.757	285.609	0.054	0.095
-228.742	-200.000	-0.406	-0.002
-227.727	-97.736	0.246	0.063
-226.713	-6.603	-0.171	0.115
-225.698	-101.094	0.195	-0.047
-224.684	-47.674	-0.193	-0.092
-223.669	12.352	-0.115	0.088
-222.655	800.000	0.124	-0.341
-221.640	63.702	0.144	-0.143
-220.625	51.716	0.215	-0.201
-219.611	-200.000	-0.004	-0.065
-218.596	303.443	0.050	-0.091
-217.582	-9.884	0.188	-0.123
-216.567	-88.914	-0.160	0.047
-215.552	195.419	0.170	0.255
-214.538	-83.686	0.226	-0.071
-213.523	78.933	-0.169	-0.178
-212.509	113.176	-0.075	-0.090
-211.494	-200.000	-0.015	-0.326
-210.479	800.000	0.053	0.175
-209.465	225.297	0.198	0.316
-208.450	-159.151	-0.224	-0.012
-207.436	48.878	0.133	0.123
-206.421	-68.329	0.114	0.044
-205.406	-200.000	-0.030	0.193
-204.392	86.641	-0.034	0.037
-203.377	-32.594	0.141	0.077
-202.363	167.997	-0.056	-0.079
-201.348	-85.969	0.194	-0.059
-200.333	792.264	-0.041	0.111
-199.319	33.864	-0.257	0.221
-198.304	800.000	0.022	-0.093
-197.290	800.000	-0.031	-0.087
-196.275	-51.251	-0.235	0.108
-195.260	-200.000	0.008	-0.074
-194.246	-200.000	0.023	0.268
-193.231	9.723	0.012	0.009
-192.217	33.901	0.292	-0.250
-191.202	-148.206	0.162	0.013
-190.187	453.041	-0.113	0.246
-189.173	-33.667	0.112	-0.061
-188.158	-200.000	0.017	0.370
-187.144	25.994	0.054	-0.045
-186.129	64.089	0.139	0.138
-185.114	446.801	0.081	0.174
-184.100	-200.000	-0.049	-0.278
-183.085	80.295	-0.209	-0.221
-182.071	73.363	-0.221	-0.228
-181.056	6.778	-0.326	0.239
-180.042	-200.000	0.083	-0.365
-179.027	227.738	-0.200	-0.321
-178.012	-121.091	0.146	0.024
-176.998	157.435	0.119	0.162
-175.983	-4.303	0.343	-0.233
-174.969	5.204	-0.175	0.127
-173.954	-23.461	0.122	-0.072
-172.939	-55.894	0.245	0.108
-171.925	129.924	-0.406	0.511
-170.910	-200.000	0.009	0.113
-169.896	652.673	-0.209	0.527
-168.881	800.000	0.046	-0.190
-167.866	-85.126	-0.101	0.031
-166.852	-2.550	0.176	-0.121
-165.837	-11.589	0.029	0.019
-164.823	-200.000	-0.032	0.304
-163.808	-200.000	-0.013	-0.198
-162.793	-200.000	-0.010	0.109
-161.779	-119.639	0.365	0.062
-160.764	-200.000	-0.012	-0.124
-159.750	428.947	0.065	-0.138
-158.735	107.698	0.297	0.348
-157.720	-180.729	-0.325	0.007
-156.706	-200.000	-0.052	-0.239
-155.691	-98.894	-0.225	0.056
-154.677	396.699	0.024	0.049
-153.662	-200.000	0.016	-0.188
-152.647	-200.000	-0.058	0.358
-151.633	-200.000	0.029	0.134
-150.618	800.000	-0.024	-0.067
-149.604	-140.966	-0.052	0.005
-148.589	800.000	-0.075	-0.246
-147.574	-12.028	0.144	-0.093
-146.560	-153.493	0.187	0.013
-145.545	54.751	0.166	-0.158
-144.531	-200.000	0.024	-0.204
-143.516	-39.250	0.404	0.208
-142.502	218.561	0.082	-0.129
-141.487	15.963	-0.160	-0.124
-140.472	-28.500	-0.122	-0.069
-139.458	96.409	-0.111	-0.124
-138.443	225.213	0.230	-0.366
-137.429	127.143	-0.134	-0.166
-136.414	26.050	0.316	0.259
-135.399	-8.784	-0.231	0.153
-134.385	103.366	-0.062	0.071
-133.370	-91.098	0.272	0.077
-132.356	-200.000	0.018	0.228
-131.341	21.530	-0.269	-0.215
-130.326	-108.377	0.323	0.068
-129.312	-0.251	0.055	0.038
-128.297	571.730	0.085	-0.203
-127.283	-114.276	0.216	-0.041
-126.268	-140.375	-0.285	-0.029
-125.253	-25.292	-0.038	0.022
-124.239	800.000	-0.111	-0.343
-123.224	-167.739	0.187	0.007
-122.210	-200.000	0.002	0.070
-121.195	-200.000	-0.005	0.053
