DTS Sentinel unit serial number:	SN413079Multiplexer serial number:	ORYXHardware model number:	OX4-SRSoftware version number:	ORYX F/W v4.00 Oryx Data Collector v3.7.2.0data status	okinstallation	princeton_trtdifferential loss correction	single-endedforward channel	channel 1reverse channel	N/Adate	2019/09/16time	07:46:35forward acquisition time	60.00reverse acquisition time	0.00gamma	496.2192k internal	0.2328k external	0.2328temperature offset calibration	0.9978default loss term (dB/km)	0.3790temperature slope calibration	1.0000multiplexer offset coefficient	1.0000multiplexer slope coefficient	1.0000fibre end	0.00T internal ref (°C)	28.06T ext. ref 1 (°C)	11.70T ext. ref 2 (°C)	24.68length (m)	temperature (°C)	Stokes	anti-Stokes-747.200	247.454	-0.016	0.027
-746.185	231.946	0.154	0.255
-745.171	-0.318	0.042	-0.030
-744.156	76.722	0.116	0.124
-743.142	-51.324	0.353	0.166
-742.127	800.000	-0.133	0.459
-741.112	-200.000	-0.018	0.368
-740.098	-79.440	0.139	-0.047
-739.083	577.369	-0.047	0.116
-738.069	53.770	-0.073	0.071
-737.054	151.787	0.109	0.149
-736.039	-112.512	-0.343	0.069
-735.025	212.613	0.247	0.393
-734.010	-27.367	0.041	0.024
-732.996	119.206	-0.222	-0.277
-731.981	7.984	0.151	-0.114
-730.966	390.455	-0.067	-0.140
-729.952	323.330	-0.024	-0.047
-728.937	52.470	-0.282	-0.271
-727.923	291.200	0.198	-0.363
-726.908	407.353	0.060	0.127
-725.894	-124.809	-0.246	-0.038
-724.879	-200.000	0.010	0.097
-723.864	-200.000	0.018	-0.137
-722.850	106.364	0.206	0.246
-721.835	-200.000	0.002	-0.396
-720.821	-112.593	-0.166	-0.033
-719.806	15.251	-0.192	0.151
-718.791	25.264	-0.232	-0.194
-717.777	-69.973	0.057	-0.022
-716.762	54.799	-0.275	0.268
-715.748	-200.000	0.014	-0.112
-714.733	296.676	-0.144	-0.265
-713.718	29.766	0.145	-0.124
-712.704	-41.076	0.121	-0.063
-711.689	800.000	-0.115	0.351
-710.675	262.333	0.083	0.145
-709.660	61.461	-0.159	-0.159
-708.645	-200.000	0.028	0.137
-707.631	800.000	0.058	-0.230
-706.616	110.013	0.027	0.032
-705.602	71.527	0.122	-0.127
-704.587	14.669	0.131	0.103
-703.572	-135.748	-0.175	0.021
-702.558	39.299	0.108	0.097
-701.543	185.313	0.096	-0.144
-700.529	306.947	0.033	-0.061
-699.514	-147.818	0.253	0.021
-698.499	385.998	-0.147	-0.304
-697.485	30.252	-0.177	0.152
-696.470	248.804	-0.050	0.086
-695.456	-31.440	-0.273	-0.155
-694.441	-200.000	0.006	0.220
-693.426	0.090	-0.142	0.102
-692.412	-200.000	-0.022	0.141
-691.397	-200.000	-0.013	-0.329
-690.383	-109.092	0.272	-0.058
-689.368	800.000	-0.129	-0.471
-688.354	800.000	0.054	-0.188
-687.339	-200.000	-0.031	-0.330
-686.324	-170.006	0.077	0.003
-685.310	-107.264	0.269	-0.060
-684.295	-200.000	-0.032	-0.248
-683.281	800.000	-0.063	-0.191
-682.266	-1.098	0.239	-0.170
-681.251	50.263	-0.169	-0.160
-680.237	-63.447	-0.330	-0.137
-679.222	-15.736	0.331	0.212
-678.208	-169.018	-0.208	0.008
-677.193	-154.633	0.071	0.005
-676.178	27.726	0.348	0.295
-675.164	-98.768	-0.046	0.012
-674.149	35.952	-0.214	0.190
-673.135	411.533	0.077	0.164
-672.120	-200.000	-0.018	-0.101
-671.105	-31.831	0.143	-0.080
-670.091	200.508	-0.166	0.257
-669.076	800.000	-0.088	-0.293
-668.062	295.932	0.073	-0.135
-667.047	-200.000	-0.061	-0.286
-666.032	-200.000	0.085	0.000
-665.018	17.451	-0.058	0.046
-664.003	127.420	-0.161	-0.205
-662.989	-175.814	0.392	-0.011
-661.974	6.218	-0.206	0.154
-660.959	-49.997	0.163	0.078
-659.945	153.026	-0.299	-0.410
-658.930	151.543	0.033	0.045
-657.916	-200.000	0.002	0.129
-656.901	27.311	0.057	-0.048
-655.886	319.790	-0.204	-0.389
-654.872	27.885	-0.118	-0.100
-653.857	-42.723	-0.291	-0.149
-652.843	-142.306	-0.064	-0.006
-651.828	114.961	-0.013	-0.016
-650.814	-200.000	-0.033	0.223
-649.799	-200.000	0.015	-0.222
-648.784	-200.000	0.053	-0.275
-647.770	-78.744	-0.121	-0.041
-646.755	31.279	0.173	0.149
-645.741	800.000	-0.048	0.153
-644.726	800.000	-0.004	0.016
-643.711	-41.844	-0.087	-0.045
-642.697	800.000	-0.089	-0.252
-641.682	-31.434	0.213	0.121
-640.668	96.153	0.052	-0.060
-639.653	6.692	-0.304	-0.227
-638.638	-35.243	0.241	0.132
-637.624	-45.929	-0.227	-0.112
-636.609	-113.610	0.187	0.037
-635.595	352.531	0.151	-0.301
-634.580	94.581	0.289	0.330
-633.565	-3.821	0.099	-0.069
-632.551	-89.221	-0.185	-0.055
-631.536	177.987	0.137	0.201
-630.522	-200.000	-0.004	-0.039
-629.507	20.133	0.120	-0.097
-628.492	-150.145	-0.183	-0.014
-627.478	322.440	-0.074	-0.142
-626.463	491.541	0.045	0.104
-625.449	144.026	0.184	-0.247
-624.434	800.000	0.041	-0.151
-623.419	-121.688	0.415	0.069
-622.405	249.047	-0.062	-0.106
-621.390	-40.233	-0.271	-0.141
-620.376	-200.000	0.010	-0.233
-619.361	800.000	-0.049	-0.202
-618.346	-200.000	-0.015	-0.210
-617.332	60.236	0.149	-0.147
-616.317	40.036	0.200	0.180
-615.303	800.000	-0.088	0.279
-614.288	-72.070	-0.252	-0.094
-613.273	47.982	0.146	0.137
-612.259	66.783	0.044	0.044
-611.244	199.732	0.127	0.196
-610.230	-12.577	-0.261	0.171
-609.215	231.067	-0.088	-0.145
-608.201	800.000	-0.060	-0.201
-607.186	28.405	-0.154	-0.130
-606.171	-200.000	0.039	-0.234
-605.157	-37.623	0.331	-0.177
-604.142	-106.485	-0.086	-0.019
-603.128	-32.549	-0.257	-0.144
-602.113	-75.455	0.124	-0.044
-601.098	-39.015	-0.320	-0.169
-600.084	-200.000	-0.047	0.268
-599.069	171.484	-0.389	0.559
-598.055	-13.181	-0.307	-0.200
-597.040	593.428	0.090	0.223
-596.025	-200.000	-0.043	-0.442
-595.011	519.569	-0.079	-0.185
-593.996	800.000	0.042	0.124
-592.982	-200.000	-0.037	0.257
-591.967	800.000	-0.118	0.514
-590.952	-4.254	-0.433	0.300
-589.938	275.348	0.144	0.256
-588.923	-27.114	-0.143	0.083
-587.909	-200.000	-0.011	0.095
-586.894	-200.000	-0.038	0.342
-585.879	111.041	-0.190	0.229
-584.865	299.221	0.104	0.192
-583.850	-92.062	-0.224	0.064
-582.836	-92.711	-0.227	0.064
-581.821	-200.000	0.025	-0.114
-580.806	96.607	-0.406	0.466
-579.792	340.062	-0.083	-0.162
-578.777	-200.000	0.043	-0.245
-577.763	-110.798	-0.165	-0.034
-576.748	-200.000	0.035	-0.205
-575.733	-200.000	0.049	-0.348
-574.719	-66.645	-0.028	0.011
-573.704	-52.133	-0.413	-0.192
-572.690	-107.800	0.401	0.088
-571.675	-159.377	-0.021	0.001
-570.661	121.384	0.235	0.293
-569.646	45.509	0.251	0.232
-568.631	-91.180	-0.110	0.031
-567.617	2.864	0.108	-0.079
-566.602	174.167	0.109	-0.157
-565.588	-200.000	0.005	-0.259
-564.573	316.284	-0.083	-0.156
-563.558	800.000	-0.080	0.326
-562.544	46.046	-0.072	0.067
-561.529	43.627	0.200	-0.183
-560.515	-164.471	0.122	0.006
-559.500	800.000	-0.102	-0.426
-558.485	91.403	-0.170	-0.191
-557.471	141.086	-0.178	0.236
-556.456	-150.169	-0.294	-0.023
-555.442	645.682	-0.132	0.336
-554.427	-130.353	0.237	-0.032
-553.412	118.853	0.153	-0.189
-552.398	106.259	-0.286	0.338
-551.383	-104.764	-0.037	0.008
-550.369	-91.264	0.470	0.134
-549.354	800.000	0.070	-0.238
-548.339	168.476	-0.077	-0.109
-547.325	-19.677	-0.207	0.128
-546.310	183.897	-0.123	-0.181
-545.296	121.024	-0.052	-0.065
-544.281	800.000	-0.033	-0.135
-543.266	-200.000	-0.071	0.325
-542.252	-121.365	-0.083	-0.014
-541.237	6.688	-0.100	0.075
-540.223	800.000	-0.045	0.143
-539.208	-90.231	-0.311	-0.090
-538.193	-200.000	-0.004	-0.076
-537.179	-120.803	0.234	-0.039
-536.164	-200.000	0.008	-0.173
-535.150	800.000	0.094	-0.336
-534.135	-114.641	0.160	-0.031
-533.121	-170.259	0.291	0.010
-532.106	13.815	0.186	0.145
-531.091	-56.231	-0.242	-0.108
-530.077	116.735	0.057	0.070
-529.062	800.000	0.041	-0.180
-528.048	-200.000	0.030	-0.194
-527.033	800.000	-0.115	-0.355
-526.018	-46.265	-0.145	-0.071
-525.004	223.277	-0.167	-0.270
-523.989	229.523	0.140	-0.228
-522.975	-96.234	-0.080	0.021
-521.960	17.305	-0.145	0.115
-520.945	-200.000	-0.041	-0.183
-519.931	362.280	-0.112	0.225
-518.916	-55.130	-0.204	0.092
-517.902	-72.577	-0.170	-0.063
-516.887	-141.551	0.312	-0.031
-515.872	-66.084	-0.077	-0.030
-514.858	800.000	-0.036	0.103
-513.843	91.065	-0.201	0.225
-512.829	-27.111	-0.108	-0.063
-511.814	-200.000	0.040	-0.252
-510.799	107.587	0.125	0.149
-509.785	252.633	0.100	0.171
-508.770	-132.676	-0.226	0.029
-507.756	-4.951	-0.059	-0.041
-506.741	-48.345	0.234	-0.113
-505.726	87.238	0.041	-0.045
-504.712	-13.115	-0.257	-0.167
-503.697	-30.581	-0.305	0.173
-502.683	-98.149	-0.211	0.054
-501.668	-141.880	0.286	-0.029
-500.653	-91.952	0.078	-0.022
-499.639	-100.351	0.125	0.031
-498.624	143.842	0.115	-0.153
-497.610	-200.000	0.015	0.318
-496.595	284.722	-0.099	0.178
-495.581	-200.000	0.001	0.348
-494.566	10.541	-0.229	0.174
-493.551	-90.239	-0.372	0.108
-492.537	25.504	-0.353	-0.293
-491.522	-158.504	0.079	0.005
-490.508	131.677	-0.171	0.220
-489.493	800.000	-0.106	-0.338
-488.478	757.462	-0.062	0.168
-487.464	-112.450	0.117	0.023
-486.449	-62.963	0.101	0.042
-485.435	55.608	0.145	0.140
-484.420	99.126	-0.233	0.269
-483.405	-44.438	0.176	-0.088
-482.391	-33.488	-0.140	-0.077
-481.376	-52.942	-0.352	-0.161
-480.362	-105.934	-0.223	-0.050
-479.347	800.000	-0.098	0.298
-478.332	800.000	-0.147	-0.439
-477.318	-200.000	0.012	-0.268
-476.303	688.461	-0.139	-0.363
-475.289	4.556	0.018	-0.013
-474.274	-200.000	0.016	-0.081
-473.259	800.000	-0.103	-0.289
-472.245	92.007	-0.033	0.037
-471.230	-0.445	0.140	0.099
-470.216	-128.944	-0.150	0.021
-469.201	163.405	-0.090	-0.126
-468.186	-167.112	0.296	-0.012
-467.172	-200.000	0.030	-0.176
-466.157	-29.604	0.250	-0.142
-465.143	40.096	0.211	0.189
-464.128	76.128	-0.421	0.444
-463.113	-200.000	-0.013	0.102
-462.099	-40.660	-0.482	-0.249
-461.084	-89.550	-0.089	0.026
-460.070	4.421	-0.034	0.025
-459.055	-157.793	-0.139	-0.008
-458.040	800.000	-0.182	0.764
-457.026	-200.000	0.015	0.078
-456.011	-119.455	0.167	-0.029
-454.997	278.967	0.044	0.079
-453.982	-200.000	-0.041	0.401
-452.968	-125.449	0.232	0.035
-451.953	800.000	0.060	0.177
-450.938	-79.694	-0.176	-0.059
-449.924	314.997	0.041	-0.078
-448.909	609.539	-0.082	0.205
-447.895	-141.500	0.096	0.010
-446.880	-119.830	0.239	0.041
-445.865	-200.000	-0.248	-0.000
-444.851	0.343	-0.158	0.112
-443.836	171.789	0.067	0.095
-442.822	-25.105	-0.164	0.097
-441.807	-97.644	0.247	-0.064
-440.792	-58.312	-0.209	-0.090
-439.778	83.879	-0.113	-0.122
-438.763	-153.757	0.236	0.016
-437.749	-167.540	0.221	0.009
-436.734	566.316	-0.170	0.410
-435.719	226.051	-0.187	0.302
-434.705	-137.833	0.232	-0.026
-433.690	-16.074	0.148	-0.094
-432.676	800.000	-0.109	0.339
-431.661	24.781	0.069	-0.057
-430.646	329.246	-0.061	0.117
-429.632	-188.645	0.181	-0.002
-428.617	178.963	0.276	-0.402
-427.603	458.007	-0.092	-0.204
-426.588	-6.655	0.239	0.162
-425.573	101.420	0.083	0.096
-424.559	440.966	-0.054	-0.118
-423.544	-200.000	0.022	-0.352
-422.530	100.586	0.065	0.075
-421.515	-134.938	0.406	-0.049
-420.500	-200.000	0.001	0.075
-419.486	423.620	-0.056	0.119
-418.471	44.248	-0.178	0.162
-417.457	-21.974	-0.099	0.060
-416.442	-93.547	0.156	0.043
-415.428	-48.873	-0.038	0.018
-414.413	-104.067	-0.162	-0.037
-413.398	-142.511	-0.079	0.008
-412.384	48.675	-0.128	0.119
-411.369	355.012	0.034	0.068
-410.355	-71.246	0.099	-0.037
-409.340	27.266	-0.106	0.088
-408.325	-72.603	0.243	0.089
-407.311	103.796	-0.080	0.094
-406.296	500.819	0.054	-0.124
-405.282	338.772	0.061	0.118
-404.267	-200.000	0.014	0.179
-403.252	-64.677	0.319	0.129
-402.238	127.703	0.090	0.113
-401.223	649.286	-0.116	-0.294
-400.209	-200.000	0.010	0.177
-399.194	800.000	-0.072	-0.291
-398.179	192.613	-0.139	-0.208
-397.165	-25.224	0.157	0.093
-396.150	-54.302	-0.235	-0.106
-395.136	74.895	-0.063	-0.066
-394.121	186.250	-0.091	-0.134
-393.106	119.504	-0.124	0.152
-392.092	-100.290	-0.280	0.069
-391.077	-163.230	-0.209	0.010
-390.063	-200.000	0.008	-0.198
-389.048	289.527	-0.105	0.190
-388.033	-200.000	-0.010	0.278
-387.019	-163.636	-0.086	0.004
-386.004	-176.156	0.275	-0.007
-384.990	407.451	-0.110	0.230
-383.975	-17.239	-0.188	0.118
-382.960	-200.000	0.051	-0.252
-381.946	-70.401	0.247	0.093
-380.931	201.060	0.128	0.196
-379.917	66.145	-0.298	0.301
-378.902	-10.552	-0.219	0.144
-377.888	-6.878	0.105	-0.071
-376.873	55.801	-0.277	0.267
-375.858	462.693	0.120	-0.265
-374.844	-54.914	-0.091	-0.041
-373.829	167.100	0.119	-0.168
-372.815	-200.000	-0.026	-0.185
-371.800	-100.691	0.281	0.069
-370.785	-121.103	-0.037	-0.006
-369.771	-87.070	-0.085	-0.026
-368.756	78.616	0.079	-0.084
-367.742	289.819	0.119	0.214
-366.727	800.000	-0.091	-0.349
-365.712	27.632	-0.040	-0.033
-364.698	25.870	0.266	-0.220
-363.683	306.537	0.204	-0.378
-362.669	800.000	-0.140	-0.396
-361.654	161.349	-0.058	-0.080
-360.639	-24.886	0.307	0.181
-359.625	-75.317	-0.127	0.045
-358.610	246.863	0.237	-0.397
-357.596	-189.212	0.245	-0.003
-356.581	12.760	0.093	0.071
-355.566	-140.628	0.060	-0.006
-354.552	-200.000	0.006	-0.033
-353.537	-200.000	0.019	-0.111
-352.523	76.005	-0.092	0.097
-351.508	-200.000	0.010	0.232
-350.493	-200.000	-0.015	-0.222
-349.479	-200.000	0.040	0.180
-348.464	85.275	0.130	0.142
-347.450	-200.000	-0.007	-0.324
-346.435	-77.564	0.268	0.092
-345.420	439.780	-0.119	0.259
-344.406	-55.871	-0.186	-0.083
-343.391	-200.000	-0.010	-0.183
-342.377	106.745	-0.091	0.108
-341.362	147.094	-0.143	0.191
-340.348	19.323	0.142	-0.113
-339.333	-200.000	-0.007	-0.213
-338.318	-53.626	-0.059	0.027
-337.304	-200.000	0.051	-0.236
-336.289	273.188	-0.122	-0.214
-335.275	331.897	0.135	-0.259
-334.260	-146.140	0.234	-0.020
-333.245	-25.446	-0.414	-0.243
-332.231	-59.218	0.184	-0.079
-331.216	-136.416	-0.176	0.020
-330.202	-200.000	-0.055	-0.561
-329.187	-49.150	-0.249	-0.118
-328.172	-77.680	-0.191	-0.066
-327.158	311.096	-0.033	-0.061
-326.143	-134.151	0.323	-0.039
-325.129	137.214	-0.310	-0.401
-324.114	-200.000	-0.034	0.319
-323.099	-142.181	0.475	-0.047
-322.085	-200.000	0.018	0.318
-321.070	800.000	-0.086	-0.248
-320.056	800.000	0.024	-0.098
-319.041	264.874	-0.050	0.086
-318.026	227.424	0.043	0.070
-317.012	-100.243	-0.317	-0.078
-315.997	-64.972	-0.182	-0.073
-314.983	709.342	0.099	-0.259
-313.968	800.000	0.066	-0.230
-312.953	-20.741	-0.347	0.211
-311.939	135.324	0.188	0.242
-310.924	-200.000	0.022	-0.103
-309.910	395.672	0.033	0.068
-308.895	-156.904	-0.097	0.006
-307.880	14.889	0.265	0.205
-306.866	800.000	-0.060	-0.239
-305.851	-75.699	0.140	-0.049
-304.837	-148.778	-0.150	-0.012
-303.822	131.137	0.062	-0.078
-302.807	800.000	0.104	0.447
-301.793	-105.184	-0.210	0.048
-300.778	-101.078	-0.295	-0.071
-299.764	-200.000	0.063	0.306
-298.749	-63.981	-0.395	0.160
-297.735	800.000	-0.056	0.182
-296.720	60.707	0.193	0.189
-295.705	55.033	0.103	-0.099
-294.691	522.060	-0.146	-0.339
-293.676	-119.445	0.121	-0.021
-292.662	800.000	-0.076	-0.238
-291.647	-200.000	-0.008	-0.184
-290.632	245.348	0.146	0.243
-289.618	217.405	-0.120	0.189
-288.603	-200.000	0.070	-0.335
-287.589	755.092	0.101	-0.270
-286.574	-200.000	-0.003	0.351
-285.559	-40.671	0.164	0.084
-284.545	-98.273	-0.312	0.079
-283.530	-200.000	0.004	0.055
-282.516	-200.000	0.059	-0.361
-281.501	-176.157	0.183	0.005
-280.486	-77.769	-0.216	0.074
-279.472	274.876	0.150	0.263
-278.457	48.765	0.139	-0.129
-277.443	-200.000	-0.027	-0.213
-276.428	-92.671	0.082	-0.023
-275.413	123.580	-0.117	0.145
-274.399	-170.987	-0.263	0.009
-273.384	19.860	-0.048	0.038
-272.370	-99.443	0.162	-0.040
-271.355	-47.714	0.136	-0.065
-270.340	64.366	0.259	-0.258
-269.326	206.625	-0.184	0.283
-268.311	324.076	0.184	-0.348
-267.297	161.403	-0.247	0.341
-266.282	543.346	0.195	0.460
-265.267	-12.384	-0.068	0.044
-264.253	-200.000	-0.011	-0.074
-263.238	-100.171	0.153	-0.038
-262.224	-84.094	0.148	0.046
-261.209	112.514	0.056	0.067
-260.195	-103.405	0.348	-0.081
-259.180	-96.297	0.412	-0.108
-258.165	-102.941	0.273	-0.064
-257.151	-200.000	0.096	-0.438
-256.136	-139.830	0.039	-0.004
-255.122	-75.309	0.411	0.145
-254.107	-200.000	0.031	0.168
-253.092	800.000	-0.005	-0.021
-252.078	800.000	0.065	0.182
-251.063	-200.000	0.047	-0.415
-250.049	132.159	-0.090	-0.114
-249.034	645.523	0.097	0.245
-248.019	35.231	-0.375	0.325
-247.005	-103.274	0.157	-0.037
-245.990	49.770	0.150	-0.140
-244.976	-50.262	0.216	0.101
-243.961	-38.654	0.132	0.069
-242.946	-163.851	-0.135	0.006
-241.932	-31.013	0.309	-0.172
-240.917	76.568	0.118	-0.124
-239.903	800.000	0.010	-0.038
-238.888	441.840	-0.236	0.511
-237.873	-148.630	-0.207	-0.017
-236.859	24.951	0.159	-0.130
-235.844	-200.000	-0.053	0.271
-234.830	387.682	0.249	0.508
-233.815	10.983	0.023	-0.017
-232.800	-145.237	0.310	-0.028
-231.786	64.371	-0.151	-0.150
-230.771	-157.751	-0.435	-0.026
-229.757	800.000	-0.063	0.253
-228.742	-138.044	-0.092	-0.010
-227.727	468.791	-0.055	-0.122
-226.713	-15.617	0.273	-0.172
-225.698	320.601	0.065	0.122
-224.684	-200.000	0.042	-0.198
-223.669	72.755	0.062	-0.064
-222.655	-79.583	-0.183	-0.061
-221.640	-93.851	0.242	0.066
-220.625	-35.457	0.077	-0.041
-219.611	800.000	0.052	-0.161
-218.596	-200.000	-0.016	-0.237
-217.582	-115.137	0.085	0.016
-216.567	-29.759	0.150	-0.085
-215.552	-5.131	0.157	0.107
-214.538	-11.949	-0.080	0.052
-213.523	328.340	0.019	-0.037
-212.509	174.535	-0.140	0.200
-211.494	15.461	0.193	-0.150
-210.479	358.635	0.053	-0.105
-209.465	-36.699	-0.379	0.201
-208.450	-73.553	-0.194	0.070
-207.436	800.000	0.073	-0.213
-206.421	143.207	-0.170	0.224
-205.406	350.725	-0.118	0.231
-204.392	-83.399	0.395	0.125
-203.377	-200.000	0.007	-0.050
-202.363	-70.214	-0.361	0.135
-201.348	-200.000	-0.017	-0.093
-200.333	-81.013	0.305	0.100
-199.319	-115.993	0.161	-0.030
-198.304	3.627	-0.172	0.124
-197.290	-200.000	-0.124	-0.000
-196.275	800.000	-0.031	0.134
-195.260	-93.215	-0.112	-0.031
-194.246	761.289	0.162	0.433
-193.231	-200.000	-0.002	0.157
-192.217	185.412	0.119	0.175
-191.202	-200.000	-0.009	-0.043
-190.187	604.461	0.127	0.312
-189.173	-75.361	-0.120	0.042
-188.158	-200.000	-0.019	-0.263
-187.144	-155.815	0.084	-0.005
-186.129	26.799	0.358	-0.296
-185.114	-26.013	0.183	0.106
-184.100	-22.789	0.211	-0.126
-183.085	47.569	0.247	0.227
-182.071	-20.543	-0.060	-0.037
-181.056	699.209	0.164	0.425
-180.042	-3.058	0.182	0.125
-179.027	-48.515	0.297	-0.141
-178.012	494.318	0.079	0.179
-176.998	-32.511	0.231	0.127
-175.983	-200.000	-0.054	-0.293
-174.969	123.974	0.083	-0.103
-173.954	-74.082	0.069	0.025
-172.939	220.844	-0.033	0.053
-171.925	-200.000	0.030	-0.268
-170.910	-186.642	0.196	-0.003
-169.896	-70.782	0.098	0.036
-168.881	46.424	0.130	-0.118
-167.866	-34.640	0.251	0.135
-166.852	339.969	0.142	-0.273
-165.837	-159.154	-0.425	0.024
-164.823	190.833	-0.055	-0.081
-163.808	-71.566	-0.102	0.038
-162.793	-110.368	-0.122	0.025
-161.779	-154.663	-0.093	-0.006
-160.764	320.791	-0.142	-0.266
-159.750	-200.000	0.027	0.198
-158.735	-183.753	0.430	0.007
-157.720	55.252	-0.072	-0.068
-156.706	800.000	0.062	0.207
-155.691	101.214	0.129	0.148
-154.677	-200.000	0.034	-0.237
-153.662	104.500	-0.048	0.055
-152.647	10.721	0.087	-0.066
-151.633	-118.923	-0.019	-0.003
-150.618	-58.304	0.254	-0.109
-149.604	54.859	0.108	-0.103
-148.589	-200.000	0.021	0.212
-147.574	-200.000	0.042	0.197
-146.560	800.000	0.028	-0.097
-145.545	773.326	0.118	-0.318
-144.531	253.665	-0.127	-0.214
-143.516	-200.000	0.022	-0.347
-142.502	53.232	-0.115	-0.108
-141.487	155.452	-0.128	0.173
-140.472	-77.914	-0.153	0.052
-139.458	-81.204	-0.271	-0.088
-138.443	515.815	-0.060	0.139
-137.429	98.758	0.212	-0.241
-136.414	-50.517	0.184	-0.085
-135.399	-200.000	-0.027	-0.230
-134.385	444.212	0.043	0.092
-133.370	-67.694	0.263	0.101
-132.356	-101.806	0.257	-0.061
-131.341	74.179	-0.139	0.144
-130.326	-200.000	0.025	0.338
-129.312	-35.180	-0.106	0.057
-128.297	311.312	0.123	0.228
-127.283	-74.925	0.593	-0.209
-126.268	226.371	0.152	-0.243
-125.253	800.000	-0.033	0.099
-124.239	94.656	-0.102	0.114
-123.224	268.657	0.173	-0.298
-122.210	197.039	0.172	-0.259
