DTS Sentinel unit serial number:	SN413079Multiplexer serial number:	ORYXHardware model number:	OX4-SRSoftware version number:	ORYX F/W v4.00 Oryx Data Collector v3.7.2.0data status	okinstallation	princeton_trtdifferential loss correction	single-endedforward channel	channel 1reverse channel	N/Adate	2019/09/18time	03:46:35forward acquisition time	60.00reverse acquisition time	0.00gamma	496.2192k internal	0.2339k external	0.2339temperature offset calibration	0.9979default loss term (dB/km)	0.3790temperature slope calibration	1.0000multiplexer offset coefficient	1.0000multiplexer slope coefficient	1.0000fibre end	0.00T internal ref (°C)	22.97T ext. ref 1 (°C)	0.17T ext. ref 2 (°C)	18.09length (m)	temperature (°C)	Stokes	anti-Stokes-747.200	-12.991	-0.044	0.029
-746.185	252.476	-0.080	0.138
-745.171	27.821	0.334	-0.282
-744.156	139.576	-0.228	0.301
-743.142	68.231	-0.228	-0.235
-742.127	138.092	-0.068	-0.090
-741.112	644.817	0.105	-0.269
-740.098	-155.487	-0.160	0.010
-739.083	-156.032	0.373	0.024
-738.069	-25.080	-0.232	-0.138
-737.054	17.262	0.096	0.076
-736.039	-54.121	-0.249	-0.114
-735.025	-200.000	-0.031	-0.331
-734.010	37.985	-0.202	-0.180
-732.996	385.983	-0.051	-0.106
-731.981	-200.000	-0.019	-0.177
-730.966	-47.627	-0.121	0.059
-729.952	32.473	-0.109	0.094
-728.937	800.000	-0.065	-0.216
-727.923	-200.000	-0.049	-0.298
-726.908	412.906	0.041	0.088
-725.894	24.029	-0.199	-0.165
-724.879	-140.326	0.130	0.014
-723.864	186.514	-0.287	0.429
-722.850	-200.000	0.019	-0.108
-721.835	386.727	-0.035	-0.073
-720.821	156.611	-0.099	0.137
-719.806	5.345	-0.082	-0.061
-718.791	-29.813	-0.341	0.195
-717.777	-117.383	-0.148	0.027
-716.762	-76.646	-0.093	-0.033
-715.748	-200.000	0.004	-0.290
-714.733	60.114	0.099	-0.098
-713.718	39.344	0.169	0.152
-712.704	63.507	0.126	0.127
-711.689	-17.075	-0.093	-0.059
-710.675	-75.971	0.301	-0.107
-709.660	54.287	-0.209	-0.202
-708.645	-200.000	0.027	-0.207
-707.631	-13.936	-0.139	0.090
-706.616	-200.000	-0.004	0.204
-705.602	10.543	0.044	-0.033
-704.587	-153.504	-0.106	0.007
-703.572	142.324	-0.203	0.270
-702.558	394.446	-0.072	0.149
-701.543	-200.000	0.041	0.232
-700.529	-74.250	0.246	0.089
-699.514	772.491	-0.139	0.380
-698.499	-92.520	-0.339	-0.095
-697.485	109.723	0.337	-0.404
-696.470	-65.890	-0.047	0.019
-695.456	-92.272	0.192	-0.054
-694.441	800.000	0.013	-0.036
-693.426	-146.390	0.060	0.005
-692.412	101.196	0.073	0.085
-691.397	-200.000	0.037	-0.180
-690.383	800.000	0.054	-0.161
-689.368	-100.224	-0.393	-0.098
-688.354	81.561	-0.111	-0.120
-687.339	162.505	-0.019	0.027
-686.324	317.760	-0.050	-0.096
-685.310	369.201	-0.092	-0.187
-684.295	-131.017	-0.253	-0.034
-683.281	-200.000	0.013	-0.179
-682.266	-116.682	-0.209	0.039
-681.251	69.481	-0.092	0.095
-680.237	63.381	0.246	-0.247
-679.222	-180.410	-0.110	-0.002
-678.208	700.994	-0.178	-0.468
-677.193	-55.991	0.283	0.126
-676.178	-200.000	-0.022	0.294
-675.164	-200.000	0.012	0.266
-674.149	85.641	-0.137	0.151
-673.135	25.394	-0.211	0.175
-672.120	-124.405	-0.127	0.020
-671.105	-105.314	-0.081	-0.018
-670.091	-43.013	0.236	-0.120
-669.076	-68.568	-0.114	-0.044
-668.062	-200.000	0.057	0.407
-667.047	402.565	-0.106	0.222
-666.032	800.000	0.026	0.102
-665.018	800.000	0.135	0.457
-664.003	408.648	-0.078	-0.165
-662.989	126.178	0.211	-0.267
-661.974	-200.000	0.015	-0.274
-660.959	800.000	0.109	-0.342
-659.945	-152.924	-0.182	0.013
-658.930	249.081	-0.097	-0.164
-657.916	395.107	-0.117	0.245
-656.901	-65.424	0.338	0.136
-655.886	-138.599	0.173	-0.019
-654.872	11.200	0.135	0.103
-653.857	84.709	-0.220	0.240
-652.843	800.000	-0.079	0.274
-651.828	175.094	-0.088	-0.128
-650.814	800.000	-0.050	-0.195
-649.799	173.123	0.083	-0.120
-648.784	53.741	0.222	-0.213
-647.770	271.221	0.207	-0.364
-646.755	6.868	0.161	-0.119
-645.741	-149.853	-0.274	-0.021
-644.726	-200.000	0.064	-0.402
-643.711	406.120	0.118	-0.250
-642.697	477.044	0.017	0.038
-641.682	203.695	-0.159	-0.245
-640.668	-200.000	0.005	0.074
-639.653	-118.019	-0.384	0.069
-638.638	-200.000	-0.044	0.210
-637.624	800.000	0.125	-0.432
-636.609	218.674	-0.123	-0.196
-635.595	-120.593	-0.199	-0.034
-634.580	800.000	-0.056	0.170
-633.565	-59.108	-0.280	-0.121
-632.551	35.937	0.099	-0.087
-631.536	48.705	0.199	-0.187
-630.522	19.835	-0.084	-0.067
-629.507	135.350	0.132	0.171
-628.492	209.584	-0.111	-0.173
-627.478	576.263	0.065	-0.158
-626.463	11.325	-0.058	-0.045
-625.449	-200.000	0.011	0.179
-624.434	4.378	-0.181	-0.133
-623.419	-27.795	0.135	-0.078
-622.405	323.174	0.106	0.202
-621.390	-52.584	-0.231	0.106
-620.376	-100.855	0.438	-0.108
-619.361	134.142	-0.090	0.117
-618.346	108.896	-0.037	0.045
-617.332	613.739	0.034	0.085
-616.317	172.253	0.101	0.144
-615.303	7.463	-0.111	0.083
-614.288	592.421	-0.089	0.219
-613.273	391.842	0.245	0.507
-612.259	-32.414	-0.065	-0.036
-611.244	-195.414	0.290	0.002
-610.230	-162.869	-0.090	-0.004
-609.215	212.913	0.132	-0.208
-608.201	37.680	0.228	-0.202
-607.186	-55.222	-0.230	-0.103
-606.171	-111.154	0.145	-0.030
-605.157	-110.573	0.301	0.062
-604.142	24.021	-0.334	-0.275
-603.128	109.893	-0.089	-0.106
-602.113	-183.580	0.324	-0.006
-601.098	-200.000	-0.013	-0.317
-600.084	-200.000	-0.017	0.348
-599.069	800.000	-0.046	0.184
-598.055	-50.843	-0.480	0.225
-597.040	145.387	-0.222	0.297
-596.025	-11.675	0.380	0.249
-595.011	77.949	-0.272	0.289
-593.996	-101.455	0.208	-0.050
-592.982	-31.319	-0.278	-0.156
-591.967	-135.685	0.041	-0.005
-590.952	287.815	0.207	0.373
-589.938	-22.376	0.170	0.103
-588.923	63.013	0.198	-0.198
-587.909	-200.000	0.030	-0.183
-586.894	-120.161	-0.299	0.051
-585.879	-200.000	0.002	0.010
-584.865	-46.856	-0.265	0.129
-583.850	-200.000	-0.013	0.208
-582.836	475.981	-0.193	-0.434
-581.821	-88.390	-0.164	0.049
-580.806	624.319	-0.020	0.051
-579.792	-82.305	0.337	-0.109
-578.777	406.710	0.080	-0.169
-577.763	37.025	-0.080	-0.070
-576.748	800.000	-0.049	-0.198
-575.733	-200.000	0.031	0.161
-574.719	-200.000	0.000	-0.161
-573.704	-66.746	0.164	0.065
-572.690	-6.274	-0.065	0.044
-571.675	325.332	0.121	-0.231
-570.661	-106.677	0.214	-0.047
-569.646	-49.007	0.193	0.092
-568.631	-24.748	-0.233	0.138
-567.617	-19.509	-0.046	0.028
-566.602	-75.227	-0.228	-0.081
-565.588	307.017	0.245	-0.454
-564.573	-43.182	-0.123	-0.062
-563.558	-12.782	-0.124	-0.081
-562.544	85.064	-0.036	0.040
-561.529	47.645	0.394	-0.366
-560.515	800.000	-0.058	0.165
-559.500	-200.000	-0.053	0.461
-558.485	-159.431	-0.025	0.001
-557.471	-200.000	-0.001	0.304
-556.456	53.633	-0.102	0.097
-555.442	30.246	-0.098	0.084
-554.427	-72.402	0.143	-0.052
-553.412	-32.896	0.155	0.085
-552.398	799.430	0.020	0.054
-551.383	87.829	-0.064	-0.071
-550.369	304.458	0.091	0.168
-549.354	451.387	0.134	0.295
-548.339	-21.785	0.266	-0.161
-547.325	-20.156	0.104	-0.064
-546.310	800.000	-0.022	-0.084
-545.296	85.107	-0.092	0.100
-544.281	3.862	-0.059	-0.043
-543.266	-112.121	-0.040	0.008
-542.252	49.416	-0.155	0.145
-541.237	-129.412	-0.194	0.027
-540.223	-133.927	0.223	0.028
-539.208	552.358	-0.065	-0.156
-538.193	160.001	0.103	0.142
-537.179	-30.268	0.299	0.169
-536.164	-192.450	-0.151	0.001
-535.150	800.000	-0.098	-0.331
-534.135	126.790	-0.207	-0.261
-533.121	-189.268	-0.324	0.004
-532.106	579.988	-0.109	-0.264
-531.091	-200.000	-0.038	-0.371
-530.077	59.074	0.211	-0.207
-529.062	271.692	0.101	-0.177
-528.048	800.000	0.054	0.227
-527.033	102.811	0.151	0.175
-526.018	100.016	0.155	-0.179
-525.004	24.026	-0.019	0.016
-523.989	126.445	0.234	0.294
-522.975	178.670	-0.119	0.172
-521.960	602.088	0.073	-0.179
-520.945	-200.000	-0.023	-0.137
-519.931	91.514	-0.141	-0.158
-518.916	96.990	-0.241	0.274
-517.902	800.000	-0.010	-0.038
-516.887	239.778	-0.077	-0.127
-515.872	-2.100	0.073	0.051
-514.858	-1.902	0.237	-0.166
-513.843	-47.245	-0.343	0.166
-512.829	-60.020	0.212	-0.090
-511.814	55.691	0.195	0.188
-510.799	-30.402	-0.227	-0.128
-509.785	131.434	0.175	0.224
-508.770	225.690	0.191	-0.308
-507.756	244.380	-0.085	-0.142
-506.741	800.000	-0.063	0.209
-505.726	218.066	0.141	0.223
-504.712	-94.258	0.183	0.050
-503.697	800.000	-0.115	0.483
-502.683	-44.783	0.139	-0.069
-501.668	-21.062	0.063	0.038
-500.653	317.320	0.212	-0.398
-499.639	328.798	0.162	-0.309
-498.624	-200.000	-0.030	0.156
-497.610	-200.000	0.001	0.033
-496.595	-140.635	-0.322	-0.033
-495.581	-200.000	-0.023	-0.173
-494.566	-200.000	-0.072	-0.399
-493.551	38.557	0.197	0.174
-492.537	-200.000	0.002	0.057
-491.522	465.126	-0.087	0.194
-490.508	-200.000	0.015	0.167
-489.493	130.863	-0.080	-0.102
-488.478	-85.687	0.304	-0.094
-487.464	-31.735	-0.164	0.091
-486.449	-62.442	0.322	-0.133
-485.435	-25.336	0.136	0.080
-484.420	22.210	0.100	0.081
-483.405	247.865	-0.035	-0.058
-482.391	-149.424	-0.313	-0.025
-481.376	800.000	-0.038	-0.109
-480.362	-200.000	-0.058	0.356
-479.347	-73.170	-0.088	-0.032
-478.332	-28.598	0.095	0.055
-477.318	-200.000	0.024	-0.146
-476.303	-141.901	-0.180	-0.018
-475.289	-200.000	0.003	-0.111
-474.274	800.000	0.071	-0.241
-473.259	309.020	0.197	-0.365
-472.245	-200.000	0.023	0.154
-471.230	-200.000	-0.012	-0.176
-470.216	-200.000	0.018	-0.123
-469.201	-200.000	0.008	0.065
-468.186	-116.931	-0.248	0.045
-467.172	-73.451	0.212	0.077
-466.157	75.317	-0.274	0.286
-465.143	-155.468	0.242	-0.016
-464.128	9.788	-0.102	-0.077
-463.113	800.000	0.084	0.262
-462.099	121.174	-0.234	-0.289
-461.084	-137.610	0.219	-0.024
-460.070	-116.937	0.325	0.059
-459.055	-93.771	-0.212	0.058
-458.040	250.398	0.028	-0.047
-457.026	800.000	-0.030	0.106
-456.011	-120.720	0.392	-0.066
-454.997	-40.000	-0.536	-0.277
-453.982	-94.962	0.200	0.054
-452.968	-66.360	0.181	0.071
-451.953	-130.627	0.308	-0.041
-450.938	-200.000	0.033	0.345
-449.924	800.000	0.068	0.259
-448.909	800.000	0.110	-0.408
-447.895	190.237	0.153	-0.227
-446.880	-102.461	0.146	-0.035
-445.865	-25.645	0.196	-0.114
-444.851	-200.000	-0.021	-0.096
-443.836	127.116	0.137	-0.172
-442.822	-200.000	0.042	0.278
-441.807	-200.000	0.003	0.309
-440.792	800.000	0.040	-0.121
-439.778	800.000	-0.093	0.285
-438.763	155.377	-0.205	0.279
-437.749	-200.000	-0.011	0.356
-436.734	-141.936	0.215	0.021
-435.719	-200.000	-0.009	0.266
-434.705	-200.000	-0.047	0.215
-433.690	187.943	0.225	0.333
-432.676	-42.548	0.126	-0.064
-431.661	800.000	0.078	-0.312
-430.646	530.321	0.059	0.138
-429.632	344.512	-0.186	-0.362
-428.617	44.634	0.176	0.160
-427.603	-62.573	-0.256	-0.105
-426.588	800.000	-0.031	0.108
-425.573	29.307	0.150	0.126
-424.559	-153.820	0.205	-0.014
-423.544	-127.395	-0.165	0.024
-422.530	-149.297	0.127	0.010
-421.515	135.446	-0.232	-0.299
-420.500	-111.125	0.245	0.050
-419.486	-13.880	0.229	0.146
-418.471	267.964	-0.194	0.337
-417.457	573.669	-0.092	-0.223
-416.442	-45.656	0.276	-0.135
-415.428	48.764	0.239	-0.222
-414.413	-41.793	0.038	-0.019
-413.398	374.385	-0.147	0.296
-412.384	-45.122	-0.304	-0.150
-411.369	61.725	-0.202	-0.199
-410.355	380.255	-0.044	-0.089
-409.340	-34.912	-0.165	0.089
-408.325	-64.487	0.304	0.122
-407.311	253.901	-0.146	-0.247
-406.296	-200.000	0.006	-0.094
-405.282	-42.692	-0.144	-0.073
-404.267	-80.959	0.310	0.102
-403.252	-19.748	-0.148	0.091
-402.238	-200.000	0.033	-0.228
-401.223	-104.455	-0.377	-0.086
-400.209	31.415	-0.098	0.083
-399.194	169.023	-0.136	0.192
-398.179	-64.954	0.072	-0.029
-397.165	-64.268	0.119	0.048
-396.150	31.626	0.257	0.218
-395.136	-200.000	-0.032	0.148
-394.121	210.662	0.247	0.384
-393.106	15.197	-0.128	-0.099
-392.092	749.046	-0.137	0.366
-391.077	-105.208	-0.272	0.061
-390.063	-10.460	-0.067	-0.044
-389.048	517.142	0.202	-0.467
-388.033	-200.000	0.282	-0.001
-387.019	141.409	0.058	0.076
-386.004	625.019	0.102	0.255
-384.990	-7.988	0.235	-0.157
-383.975	-143.211	-0.564	0.054
-382.960	-200.000	0.000	-0.021
-381.946	800.000	0.061	0.188
-380.931	-114.559	0.226	-0.043
-379.917	503.756	-0.238	-0.545
-378.902	27.848	-0.057	-0.047
-377.888	512.292	-0.071	-0.164
-376.873	187.591	0.164	-0.242
-375.858	-78.940	-0.168	-0.057
-374.844	-137.291	-0.188	-0.021
-373.829	80.588	-0.186	0.198
-372.815	207.332	-0.151	0.233
-371.800	-200.000	0.015	-0.223
-370.785	393.461	-0.108	-0.222
-369.771	-200.000	0.027	0.177
-368.756	199.070	0.088	-0.133
-367.742	-150.225	-0.148	0.011
-366.727	-200.000	0.018	0.177
-365.712	-200.000	-0.007	-0.174
-364.698	294.528	0.045	0.081
-363.683	-13.307	0.173	0.111
-362.669	79.434	0.028	-0.030
-361.654	-40.726	0.069	-0.035
-360.639	-200.000	0.044	-0.260
-359.625	-91.875	0.163	-0.046
-358.610	-55.993	-0.211	0.093
-357.596	-170.678	0.393	0.013
-356.581	-3.038	-0.148	0.102
-355.566	-200.000	0.004	0.150
-354.552	0.861	-0.233	0.165
-353.537	-92.046	0.221	-0.062
-352.523	286.625	-0.135	0.241
-351.508	-200.000	-0.004	0.259
-350.493	800.000	0.041	0.123
-349.479	-45.932	-0.103	-0.050
-348.464	-200.000	0.009	-0.124
-347.450	-118.555	0.405	0.071
-346.435	-59.153	0.179	-0.076
-345.420	68.907	0.109	0.111
-344.406	200.805	0.188	-0.285
-343.391	510.180	-0.102	-0.233
-342.377	18.469	-0.175	-0.138
-341.362	-97.381	0.038	-0.010
-340.348	332.062	-0.104	-0.199
-339.333	-70.856	-0.086	0.032
-338.318	226.987	-0.077	0.123
-337.304	44.977	-0.184	0.167
-336.289	-85.477	-0.208	0.064
-335.275	-200.000	0.001	0.057
-334.260	364.096	0.046	-0.092
-333.245	800.000	0.022	0.082
-332.231	55.832	-0.111	0.106
-331.216	-63.307	0.155	0.063
-330.202	-103.884	-0.469	-0.108
-329.187	66.196	0.123	-0.123
-328.172	-200.000	0.038	0.168
-327.158	-27.841	-0.249	-0.142
-326.143	125.436	-0.124	-0.154
-325.129	54.694	0.133	-0.127
-324.114	-200.000	-0.038	-0.322
-323.099	117.010	-0.044	-0.053
-322.085	-146.965	-0.143	-0.012
-321.070	-187.264	-0.083	0.001
-320.056	-42.173	-0.396	-0.200
-319.041	-29.632	-0.145	-0.081
-318.026	-92.893	0.123	-0.034
-317.012	-200.000	-0.080	-0.393
-315.997	-200.000	0.034	0.414
-314.983	27.224	-0.251	0.208
-313.968	-200.000	-0.021	-0.142
-312.953	-147.548	-0.229	0.019
-311.939	-44.096	-0.178	0.088
-310.924	213.433	-0.179	0.278
-309.910	389.798	-0.076	-0.156
-308.895	-190.017	0.142	-0.002
-307.880	-68.512	-0.169	-0.065
-306.866	147.817	-0.062	0.082
-305.851	800.000	0.109	-0.366
-304.837	-200.000	0.077	-0.556
-303.822	-200.000	0.014	-0.146
-302.807	-200.000	-0.076	0.435
-301.793	97.361	-0.098	0.111
-300.778	498.899	-0.089	0.202
-299.764	711.528	0.067	-0.175
-298.749	-200.000	0.016	0.137
-297.735	29.014	-0.140	0.117
-296.720	189.228	-0.134	-0.198
-295.705	-14.553	-0.026	0.016
-294.691	-130.741	-0.384	0.051
-293.676	-160.619	-0.200	0.010
-292.662	54.080	-0.050	0.047
-291.647	261.142	-0.080	0.137
-290.632	-200.000	0.027	-0.213
-289.618	-200.000	0.004	-0.249
-288.603	800.000	0.016	0.049
-287.589	-12.407	-0.165	-0.106
-286.574	-40.673	-0.162	-0.083
-285.559	-19.012	0.168	0.103
-284.545	800.000	0.099	-0.390
-283.530	395.389	-0.092	0.189
-282.516	534.762	-0.081	0.189
-281.501	-107.029	0.146	-0.032
-280.486	90.701	0.144	-0.159
-279.472	21.788	-0.172	-0.138
-278.457	-100.840	-0.138	-0.033
-277.443	-11.434	-0.242	-0.157
-276.428	609.855	0.167	0.410
-275.413	-22.860	0.316	0.187
-274.399	157.438	0.204	0.277
-273.384	-42.839	-0.081	0.040
-272.370	-5.543	-0.231	-0.156
-271.355	45.840	0.168	0.153
-270.340	0.023	0.238	0.167
-269.326	284.135	-0.211	0.373
-268.311	-200.000	0.023	0.180
-267.297	165.717	0.132	0.184
-266.282	-200.000	-0.004	0.036
-265.267	412.975	0.063	-0.132
-264.253	-200.000	-0.028	0.126
-263.238	-49.025	0.155	-0.073
-262.224	-51.236	-0.374	0.172
-261.209	103.629	-0.155	0.180
-260.195	-200.000	-0.013	0.163
-259.180	-53.976	-0.214	0.096
-258.165	-96.846	0.403	-0.104
-257.151	296.759	0.099	-0.178
-256.136	23.143	-0.452	0.365
-255.122	156.257	0.225	0.306
-254.107	764.380	0.028	-0.075
-253.092	800.000	-0.128	-0.468
-252.078	262.832	-0.149	-0.255
-251.063	-200.000	0.019	-0.229
-250.049	-47.259	0.132	-0.063
-249.034	231.626	0.163	0.264
-248.019	-113.889	-0.380	0.073
-247.005	397.268	0.097	-0.198
-245.990	306.498	0.034	-0.062
-244.976	-131.444	-0.266	-0.035
-243.961	42.070	0.100	-0.090
-242.946	282.225	0.023	-0.041
-241.932	-59.907	-0.146	-0.062
-240.917	156.091	-0.211	0.286
-239.903	-77.277	-0.271	-0.093
-238.888	440.599	0.164	0.353
-237.873	-200.000	-0.011	0.169
-236.859	-142.004	0.146	-0.014
-235.844	173.087	0.164	0.232
-234.830	-136.605	-0.060	0.007
-233.815	424.541	0.035	-0.075
-232.800	-189.410	-0.599	-0.007
-231.786	-200.000	0.063	0.319
-230.771	-32.351	-0.144	0.079
-229.757	-63.209	-0.151	0.061
-228.742	276.727	-0.093	0.162
-227.727	-200.000	-0.012	0.131
-226.713	800.000	0.045	0.177
-225.698	-46.531	0.200	0.096
-224.684	-144.105	-0.056	0.005
-223.669	-156.601	-0.281	0.017
-222.655	-200.000	0.020	0.346
-221.640	117.221	-0.013	-0.015
-220.625	152.306	-0.184	0.247
-219.611	440.266	-0.105	-0.224
-218.596	-89.478	-0.118	0.034
-217.582	-24.734	-0.178	0.104
-216.567	-70.285	0.136	0.051
-215.552	-36.194	-0.047	0.025
-214.538	285.896	-0.104	0.184
-213.523	201.607	0.072	-0.108
-212.509	37.054	-0.176	0.153
-211.494	-200.000	-0.034	-0.268
-210.479	800.000	0.069	0.220
-209.465	150.106	-0.075	0.100
-208.450	-200.000	0.028	-0.302
-207.436	-103.814	0.236	0.054
-206.421	-158.968	-0.121	-0.007
-205.406	-42.221	0.126	-0.063
-204.392	72.017	0.207	-0.211
-203.377	-200.000	0.024	-0.246
-202.363	31.925	0.048	-0.040
-201.348	-138.277	0.322	-0.035
-200.333	-200.000	-0.049	-0.271
-199.319	170.455	-0.186	-0.261
-198.304	-64.900	0.198	-0.079
-197.290	-142.993	-0.138	-0.013
-196.275	-74.752	-0.228	0.080
-195.260	-26.345	0.168	0.097
-194.246	-53.376	0.253	-0.114
-193.231	-196.958	0.129	-0.001
-192.217	57.848	0.136	0.131
-191.202	-200.000	0.000	-0.303
-190.187	198.758	0.123	0.184
-189.173	-51.044	-0.186	0.086
-188.158	-141.014	0.433	-0.044
-187.144	63.387	0.239	-0.235
-186.129	-5.711	0.215	0.145
-185.114	-26.022	-0.122	0.070
-184.100	-200.000	0.023	0.470
-183.085	-1.241	0.058	0.040
-182.071	99.910	0.125	0.143
-181.056	199.253	0.117	0.175
-180.042	151.676	-0.035	-0.046
-179.027	167.969	0.109	0.152
-178.012	662.529	-0.083	0.210
-176.998	-118.923	-0.138	0.024
-175.983	-200.000	-0.017	0.209
-174.969	155.127	0.146	-0.197
-173.954	69.491	0.129	0.131
-172.939	572.323	-0.084	0.200
-171.925	-200.000	-0.019	-0.513
-170.910	72.982	0.184	0.188
-169.896	800.000	0.029	0.122
-168.881	-108.291	-0.420	-0.089
-167.866	15.100	0.025	-0.020
-166.852	214.675	0.161	-0.250
-165.837	800.000	-0.040	0.115
-164.823	-200.000	0.044	-0.272
-163.808	-120.701	0.301	0.050
-162.793	109.317	-0.137	-0.161
-161.779	105.985	-0.117	0.136
-160.764	-200.000	-0.047	-0.530
-159.750	-24.449	0.054	0.032
-158.735	22.235	0.262	-0.209
-157.720	6.008	0.284	0.206
-156.706	-102.289	0.416	-0.098
-155.691	-200.000	0.005	0.087
-154.677	-84.249	-0.356	0.111
-153.662	-200.000	-0.043	-0.503
-152.647	-152.510	0.143	-0.010
-151.633	-200.000	0.018	0.156
-150.618	272.726	0.159	-0.275
-149.604	-80.301	-0.139	0.045
-148.589	-200.000	-0.117	0.633
-147.574	134.062	0.091	0.116
-146.560	-200.000	0.017	-0.311
-145.545	-98.246	0.232	-0.058
-144.531	771.474	-0.129	0.346
-143.516	179.760	0.072	0.103
-142.502	-200.000	-0.010	-0.145
-141.487	471.326	-0.166	-0.367
-140.472	-200.000	-0.006	0.272
-139.458	254.449	0.028	-0.047
-138.443	-200.000	0.040	-0.218
-137.429	-30.548	-0.404	-0.224
-136.414	18.446	0.123	0.096
-135.399	-97.812	0.132	0.033
-134.385	22.455	-0.362	-0.290
-133.370	-50.774	-0.307	0.142
-132.356	-200.000	0.008	0.065
-131.341	172.251	0.186	-0.262
-130.326	-200.000	0.018	-0.207
-129.312	45.505	-0.227	-0.205
-128.297	-155.980	0.097	0.006
-127.283	11.815	-0.230	-0.173
-126.268	-200.000	0.035	-0.171
-125.253	-162.185	0.381	0.019
-124.239	-119.551	0.193	0.033
-123.224	-4.136	-0.244	0.165
-122.210	800.000	0.094	0.281
