DTS Sentinel unit serial number:	SN413079Multiplexer serial number:	ORYXHardware model number:	OX4-SRSoftware version number:	ORYX F/W v4.00 Oryx Data Collector v3.7.2.0data status	okinstallation	princeton_trtdifferential loss correction	single-endedforward channel	channel 1reverse channel	N/Adate	2019/09/17time	13:54:36forward acquisition time	60.00reverse acquisition time	0.00gamma	496.2192k internal	0.2302k external	0.2302temperature offset calibration	0.9967default loss term (dB/km)	0.3790temperature slope calibration	1.0000multiplexer offset coefficient	1.0000multiplexer slope coefficient	1.0000fibre end	0.00T internal ref (°C)	35.37T ext. ref 1 (°C)	0.42T ext. ref 2 (°C)	32.50length (m)	temperature (°C)	Stokes	anti-Stokes-747.200	490.563	-0.074	-0.173
-746.185	-200.000	-0.015	0.201
-745.171	217.425	-0.060	0.097
-744.156	800.000	0.097	0.316
-743.142	-200.000	0.063	-0.299
-742.127	-44.501	0.266	0.135
-741.112	84.654	-0.157	-0.175
-740.098	-120.333	0.199	-0.035
-739.083	208.251	0.078	0.125
-738.069	800.000	0.097	0.368
-737.054	800.000	-0.062	-0.219
-736.039	514.335	-0.063	-0.149
-735.025	11.940	0.263	-0.206
-734.010	-157.910	-0.295	-0.018
-732.996	144.008	-0.113	0.153
-731.981	-134.131	0.142	0.018
-730.966	628.022	0.075	0.194
-729.952	793.396	-0.042	0.117
-728.937	311.570	-0.307	-0.586
-727.923	800.000	-0.031	-0.129
-726.908	-85.753	-0.250	-0.079
-725.894	-64.200	0.202	0.084
-724.879	-200.000	-0.022	0.179
-723.864	257.932	-0.160	-0.280
-722.850	-2.396	-0.136	-0.097
-721.835	800.000	0.080	-0.228
-720.821	24.035	-0.169	0.142
-719.806	-58.537	0.081	0.036
-718.791	-200.000	0.021	-0.102
-717.777	-146.730	-0.327	-0.029
-716.762	357.897	0.192	0.389
-715.748	-87.876	-0.287	0.088
-714.733	-61.892	-0.127	-0.054
-713.718	-137.587	-0.143	-0.016
-712.704	-85.097	0.126	0.040
-711.689	-38.229	-0.058	-0.031
-710.675	-18.794	0.119	0.075
-709.660	-112.523	0.240	0.049
-708.645	362.842	-0.186	-0.381
-707.631	-142.057	0.149	0.015
-706.616	621.679	-0.091	-0.233
-705.602	-200.000	-0.002	0.197
-704.587	-200.000	-0.000	-0.492
-703.572	800.000	0.059	0.258
-702.558	-14.037	-0.123	0.081
-701.543	163.927	0.162	-0.231
-700.529	19.153	0.175	0.142
-699.514	-120.053	-0.217	-0.038
-698.499	800.000	-0.022	-0.092
-697.485	-9.650	0.095	0.064
-696.470	-176.138	-0.257	0.007
-695.456	-200.000	-0.012	-0.156
-694.441	-185.231	-0.304	0.005
-693.426	-200.000	-0.026	0.136
-692.412	800.000	0.068	-0.281
-691.397	331.742	-0.027	0.054
-690.383	-97.154	-0.348	0.093
-689.368	-50.323	0.088	-0.042
-688.354	28.551	-0.170	0.146
-687.339	13.770	-0.292	-0.230
-686.324	800.000	0.088	-0.321
-685.310	179.649	-0.185	-0.275
-684.295	25.972	0.169	0.143
-683.281	800.000	0.056	0.183
-682.266	55.782	-0.267	0.263
-681.251	17.473	-0.235	0.190
-680.237	-200.000	-0.046	-0.219
-679.222	-200.000	-0.030	-0.337
-678.208	800.000	0.030	-0.127
-677.193	-158.914	-0.454	-0.026
-676.178	-116.936	-0.280	-0.052
-675.164	-167.627	0.350	0.014
-674.149	-1.037	-0.079	-0.057
-673.135	39.337	-0.183	-0.166
-672.120	212.003	0.059	0.095
-671.105	54.500	-0.187	0.183
-670.091	107.914	0.097	0.117
-669.076	-200.000	-0.004	0.670
-668.062	-21.098	0.294	-0.183
-667.047	-106.764	0.441	-0.100
-666.032	-120.040	0.060	-0.011
-665.018	-175.451	-0.189	0.005
-664.003	-94.862	0.264	0.073
-662.989	-200.000	-0.223	-0.001
-661.974	-150.887	0.088	-0.007
-660.959	-200.000	0.039	-0.419
-659.945	127.454	0.096	0.124
-658.930	-111.250	-0.188	0.039
-657.916	88.621	-0.042	0.048
-656.901	800.000	-0.115	-0.368
-655.886	800.000	-0.055	-0.190
-654.872	66.625	-0.315	0.326
-653.857	-170.519	-0.301	-0.011
-652.843	121.626	-0.184	-0.233
-651.828	-136.303	-0.042	0.005
-650.814	354.010	-0.135	0.273
-649.799	-200.000	0.027	-0.284
-648.784	-179.405	-0.381	0.009
-647.770	-94.463	0.066	0.018
-646.755	-116.794	-0.290	-0.054
-645.741	-90.168	-0.143	0.042
-644.726	-142.176	0.124	0.013
-643.711	243.856	-0.023	-0.039
-642.697	-38.635	0.085	-0.045
-641.682	-200.000	-0.019	-0.086
-640.668	-130.087	0.078	-0.011
-639.653	-200.000	-0.011	-0.375
-638.638	779.523	0.062	0.173
-637.624	-3.036	0.177	0.125
-636.609	460.571	0.127	0.288
-635.595	616.580	0.010	-0.025
-634.580	128.958	-0.176	0.228
-633.565	-65.078	-0.209	-0.086
-632.551	-97.377	-0.199	0.052
-631.536	31.199	0.029	-0.026
-630.522	113.083	-0.079	-0.098
-629.507	60.338	0.156	0.157
-628.492	93.406	-0.274	-0.315
-627.478	102.053	0.115	-0.136
-626.463	-102.411	-0.165	-0.040
-625.449	169.006	-0.036	-0.051
-624.434	38.005	0.227	0.205
-623.419	685.411	0.023	0.061
-622.405	-200.000	-0.015	-0.154
-621.390	-82.925	-0.221	-0.072
-620.376	800.000	-0.062	0.220
-619.361	-130.407	0.085	-0.012
-618.346	22.295	-0.062	0.051
-617.332	-200.000	-0.064	-0.344
-616.317	5.578	0.285	-0.214
-615.303	800.000	0.035	-0.121
-614.288	-89.112	0.384	0.115
-613.273	-200.000	-0.021	-0.177
-612.259	33.878	-0.274	-0.242
-611.244	-84.269	0.292	0.094
-610.230	-34.159	-0.250	-0.139
-609.215	-200.000	-0.016	0.285
-608.201	-24.789	0.238	0.143
-607.186	-200.000	0.045	0.232
-606.171	47.790	0.333	-0.315
-605.157	-53.838	-0.126	-0.058
-604.142	-128.178	-0.277	-0.040
-603.128	-200.000	-0.024	0.469
-602.113	-200.000	-0.011	0.322
-601.098	-167.527	-0.184	0.007
-600.084	-99.031	0.060	0.015
-599.069	-32.692	-0.174	0.098
-598.055	63.473	-0.108	-0.109
-597.040	-200.000	0.001	0.228
-596.025	-3.233	-0.246	0.173
-595.011	38.294	-0.294	0.265
-593.996	-147.500	-0.133	0.011
-592.982	-158.873	-0.493	-0.028
-591.967	1.435	0.241	-0.175
-590.952	71.150	0.126	-0.132
-589.938	128.345	0.095	0.122
-588.923	-200.000	0.018	-0.218
-587.909	-118.709	0.241	-0.043
-586.894	-110.823	0.166	-0.035
-585.879	466.122	-0.082	0.186
-584.865	378.337	-0.292	0.606
-583.850	-56.876	0.240	-0.107
-582.836	146.355	-0.078	0.106
-581.821	2.775	-0.246	-0.180
-580.806	399.926	-0.035	0.074
-579.792	800.000	-0.087	-0.278
-578.777	-135.237	-0.082	0.010
-577.763	-128.753	0.465	0.066
-576.748	-54.396	-0.006	-0.003
-575.733	14.681	-0.305	0.241
-574.719	-56.792	0.162	-0.073
-573.704	-141.657	-0.215	0.022
-572.690	-200.000	-0.013	-0.166
-571.675	-55.206	-0.184	-0.084
-570.661	54.922	-0.194	-0.190
-569.646	2.546	-0.126	0.093
-568.631	660.766	0.059	-0.155
-567.617	-20.690	0.068	-0.042
-566.602	-194.669	-0.191	0.002
-565.588	300.721	0.178	0.333
-564.573	-145.032	-0.124	-0.011
-563.558	14.803	0.208	0.165
-562.544	-20.454	0.235	-0.146
-561.529	-200.000	0.001	0.143
-560.515	23.081	-0.314	0.261
-559.500	30.213	0.156	-0.135
-558.485	105.686	0.104	0.124
-557.471	69.509	-0.125	-0.130
-556.456	-134.767	0.454	-0.056
-555.442	4.792	-0.036	-0.027
-554.427	261.926	-0.074	-0.130
-553.412	-200.000	0.012	0.317
-552.398	-127.349	0.113	-0.017
-551.383	-12.654	-0.155	0.102
-550.369	-44.648	0.353	0.178
-549.354	-19.153	-0.201	0.126
-548.339	-18.610	-0.103	0.065
-547.325	-65.756	-0.218	-0.088
-546.310	515.473	-0.068	-0.160
-545.296	512.929	-0.116	-0.273
-544.281	207.590	-0.036	0.056
-543.266	-200.000	0.000	0.061
-542.252	387.511	-0.025	-0.053
-541.237	-133.211	-0.315	-0.040
-540.223	159.503	-0.207	-0.291
-539.208	615.077	-0.034	0.086
-538.193	-200.000	0.011	0.048
-537.179	-48.099	0.150	0.073
-536.164	-143.720	-0.155	0.015
-535.150	79.264	0.084	0.091
-534.135	496.550	-0.054	0.124
-533.121	17.164	-0.203	0.163
-532.106	42.771	-0.023	0.021
-531.091	-4.693	-0.226	0.157
-530.077	-200.000	0.012	0.093
-529.062	220.599	0.045	-0.072
-528.048	-200.000	-0.042	0.291
-527.033	-56.645	-0.156	-0.070
-526.018	-171.895	0.190	0.006
-525.004	391.449	0.165	-0.347
-523.989	-127.510	0.295	-0.043
-522.975	-200.000	0.027	-0.174
-521.960	-200.000	0.071	-0.344
-520.945	26.795	0.124	0.105
-519.931	65.381	-0.136	-0.139
-518.916	233.485	0.036	-0.061
-517.902	800.000	0.093	0.326
-516.887	-77.569	-0.387	0.136
-515.872	-200.000	0.042	-0.272
-514.858	536.578	-0.059	-0.141
-513.843	357.324	-0.083	0.168
-512.829	800.000	0.017	0.065
-511.814	-116.857	-0.145	0.027
-510.799	131.963	0.134	0.175
-509.785	-134.233	-0.127	0.016
-508.770	294.521	0.087	-0.161
-507.756	-20.083	-0.096	0.060
-506.741	800.000	-0.046	-0.175
-505.726	-89.105	0.123	-0.037
-504.712	161.272	0.092	-0.130
-503.697	-77.719	-0.209	-0.073
-502.683	-83.922	-0.039	0.013
-501.668	94.481	0.116	0.133
-500.653	-138.168	-0.162	0.018
-499.639	-150.855	-0.293	-0.022
-498.624	18.913	-0.233	-0.188
-497.610	-141.996	-0.076	-0.008
-496.595	-200.000	0.036	-0.309
-495.581	-91.474	0.264	0.076
-494.566	60.159	-0.085	0.085
-493.551	64.119	-0.245	-0.249
-492.537	-109.028	-0.117	0.025
-491.522	-96.733	-0.232	-0.062
-490.508	-163.488	0.086	-0.004
-489.493	-200.000	-0.016	0.316
-488.478	-71.565	-0.125	0.047
-487.464	-40.620	-0.246	0.129
-486.449	-103.395	0.093	0.022
-485.435	-200.000	-0.007	0.039
-484.420	-105.133	0.165	-0.038
-483.405	235.451	-0.104	0.173
-482.391	800.000	-0.017	-0.072
-481.376	-86.527	-0.073	-0.023
-480.362	306.478	-0.063	0.118
-479.347	173.250	0.121	0.176
-478.332	209.688	-0.139	0.220
-477.318	-200.000	0.000	0.072
-476.303	-200.000	0.021	0.253
-475.289	304.770	-0.009	0.018
-474.274	141.756	0.149	0.198
-473.259	-200.000	-0.016	0.254
-472.245	74.157	-0.253	0.268
-471.230	16.322	0.207	0.165
-470.216	90.538	-0.236	-0.267
-469.201	-68.399	-0.126	-0.049
-468.186	800.000	0.022	0.078
-467.172	-200.000	0.008	0.051
-466.157	34.797	-0.201	0.177
-465.143	-200.000	0.015	-0.180
-464.128	23.321	-0.166	-0.137
-463.113	-200.000	0.021	-0.176
-462.099	-64.129	0.259	0.107
-461.084	29.838	-0.272	0.234
-460.070	97.400	-0.067	0.077
-459.055	244.764	0.117	-0.198
-458.040	-121.546	-0.254	-0.042
-457.026	177.104	0.156	0.229
-456.011	220.868	0.090	-0.145
-454.997	-26.795	0.130	-0.076
-453.982	481.584	0.052	-0.118
-452.968	109.827	-0.068	-0.082
-451.953	-68.635	-0.356	0.139
-450.938	221.989	-0.142	0.231
-449.924	-79.364	0.329	0.112
-448.909	643.486	-0.064	-0.165
-447.895	19.684	0.126	-0.102
-446.880	-200.000	-0.020	-0.239
-445.865	-200.000	0.025	0.220
-444.851	46.289	-0.179	0.167
-443.836	248.066	-0.097	-0.166
-442.822	57.570	0.080	-0.079
-441.807	-33.924	0.037	-0.020
-440.792	-51.527	-0.209	-0.098
-439.778	1.873	0.349	-0.253
-438.763	-88.333	0.128	0.038
-437.749	8.827	-0.108	-0.082
-436.734	407.223	0.224	0.476
-435.719	-200.000	-0.015	0.313
-434.705	-121.214	0.137	0.023
-433.690	-23.119	-0.020	-0.012
-432.676	133.618	-0.062	0.081
-431.661	350.848	0.088	0.176
-430.646	-200.000	0.020	0.149
-429.632	59.479	-0.063	0.062
-428.617	-9.829	0.094	0.063
-427.603	32.590	0.151	0.131
-426.588	-200.000	0.029	-0.157
-425.573	800.000	-0.024	-0.092
-424.559	142.709	0.276	0.369
-423.544	-74.243	-0.152	0.055
-422.530	800.000	-0.043	-0.146
-421.515	800.000	0.022	0.081
-420.500	-61.945	-0.235	-0.099
-419.486	49.225	-0.244	0.231
-418.471	672.509	-0.036	0.095
-417.457	-49.605	0.185	0.088
-416.442	-200.000	0.034	0.180
-415.428	135.283	0.257	0.336
-414.413	-136.641	0.194	0.023
-413.398	12.399	-0.126	-0.097
-412.384	109.422	-0.220	0.265
-411.369	125.868	0.106	-0.135
-410.355	-36.182	0.137	-0.074
-409.340	365.389	0.096	0.195
-408.325	-73.877	-0.120	-0.044
-407.311	-61.504	0.120	0.051
-406.296	-81.163	-0.095	0.032
-405.282	100.293	-0.116	-0.135
-404.267	-100.178	-0.485	0.121
-403.252	-32.899	-0.231	0.129
-402.238	-193.283	0.332	-0.003
-401.223	59.690	-0.056	-0.056
-400.209	-57.205	-0.207	0.092
-399.194	-25.127	0.136	-0.081
-398.179	120.613	-0.103	-0.129
-397.165	-52.450	0.189	-0.088
-396.150	-34.274	-0.036	0.020
-395.136	-12.332	0.116	-0.076
-394.121	173.358	-0.123	-0.178
-393.106	-57.419	-0.131	-0.058
-392.092	-123.050	-0.148	-0.024
-391.077	669.574	-0.016	0.040
-390.063	-113.050	0.235	0.047
-389.048	18.883	0.098	0.079
-388.033	54.857	0.079	0.077
-387.019	-43.585	0.321	-0.163
-386.004	-200.000	0.039	0.206
-384.990	-200.000	-0.008	-0.132
-383.975	9.373	0.243	0.184
-382.960	559.849	0.032	-0.079
-381.946	312.125	0.139	0.262
-380.931	800.000	-0.061	0.209
-379.917	21.655	0.171	-0.140
-378.902	-200.000	-0.003	0.019
-377.888	-200.000	0.043	0.311
-376.873	-200.000	-0.027	0.154
-375.858	63.575	-0.046	0.047
-374.844	760.474	0.075	-0.203
-373.829	-73.234	-0.400	0.147
-372.815	242.694	0.119	0.199
-371.800	800.000	0.188	-0.563
-370.785	77.017	0.311	-0.331
-369.771	217.770	-0.118	0.188
-368.756	-149.288	0.124	-0.010
-367.742	-200.000	0.012	-0.116
-366.727	-75.637	0.213	-0.076
-365.712	-200.000	0.050	-0.250
-364.698	33.567	0.071	-0.062
-363.683	-200.000	-0.015	0.317
-362.669	-200.000	-0.035	0.183
-361.654	-200.000	0.007	-0.061
-360.639	-36.066	-0.409	-0.222
-359.625	-68.865	0.201	0.078
-358.610	-144.015	-0.257	0.024
-357.596	95.877	-0.057	-0.065
-356.581	-130.217	-0.326	0.045
-355.566	800.000	0.047	-0.177
-354.552	800.000	0.063	0.231
-353.537	198.350	-0.080	0.122
-352.523	40.331	0.190	0.171
-351.508	-48.899	-0.122	-0.058
-350.493	-139.857	0.397	0.042
-349.479	-200.000	-0.025	-0.121
-348.464	-163.153	0.379	0.018
-347.450	-200.000	-0.002	0.025
-346.435	254.321	0.083	0.143
-345.420	-20.019	0.066	-0.041
-344.406	9.902	-0.154	-0.118
-343.391	240.800	0.257	0.430
-342.377	-98.451	-0.139	-0.036
-341.362	-24.585	0.254	-0.152
-340.348	48.247	0.233	-0.219
-339.333	152.313	-0.295	-0.404
-338.318	464.800	-0.102	0.229
-337.304	-21.042	-0.145	-0.089
-336.289	-127.269	0.246	-0.036
-335.275	-52.085	-0.112	-0.052
-334.260	119.867	0.180	-0.224
-333.245	-0.348	-0.163	-0.116
-332.231	-200.000	0.003	0.137
-331.216	-62.705	0.200	0.083
-330.202	800.000	0.128	-0.465
-329.187	69.836	0.042	-0.043
-328.172	-32.401	0.214	-0.120
-327.158	800.000	0.073	-0.255
-326.143	-92.865	-0.386	0.108
-325.129	-156.797	0.327	-0.020
-324.114	-79.890	0.147	-0.049
-323.099	123.392	0.134	0.168
-322.085	550.021	0.042	-0.100
-321.070	-200.000	0.038	0.242
-320.056	138.982	0.139	0.183
-319.041	-93.360	0.361	0.100
-318.026	217.367	0.063	-0.100
-317.012	-200.000	0.011	-0.107
-315.997	126.757	0.334	-0.424
-314.983	-32.213	-0.304	-0.170
-313.968	-112.724	0.173	-0.034
-312.953	66.820	-0.224	-0.229
-311.939	256.681	-0.034	0.058
-310.924	-187.565	-0.321	-0.004
-309.910	-68.481	-0.327	-0.127
-308.895	565.745	-0.093	-0.227
-307.880	-157.575	-0.236	0.014
-306.866	-165.124	0.308	0.014
-305.851	18.698	-0.175	0.140
-304.837	110.490	0.087	0.105
-303.822	527.399	0.060	-0.143
-302.807	133.815	-0.060	0.078
-301.793	-37.047	0.373	-0.200
-300.778	221.411	-0.288	-0.464
-299.764	-46.709	-0.227	-0.111
-298.749	-200.000	0.011	-0.246
-297.735	-104.139	-0.297	-0.069
-296.720	664.343	0.045	-0.116
-295.705	-200.000	-0.018	0.108
-294.691	-69.299	0.097	0.037
-293.676	289.466	0.223	0.404
-292.662	83.590	0.071	0.078
-291.647	-186.264	-0.044	0.001
-290.632	-200.000	-0.023	-0.365
-289.618	278.587	-0.129	-0.229
-288.603	-161.017	0.353	-0.019
-287.589	-22.352	0.246	0.149
-286.574	407.351	-0.050	0.106
-285.559	-67.301	0.318	-0.125
-284.545	143.118	-0.203	-0.270
-283.530	399.230	-0.060	0.126
-282.516	-200.000	0.017	0.389
-281.501	-75.951	-0.068	0.024
-280.486	-200.000	-0.017	-0.255
-279.472	774.110	-0.150	-0.408
-278.457	800.000	0.090	0.291
-277.443	45.558	0.100	0.092
-276.428	-200.000	-0.019	-0.157
-275.413	-0.763	0.108	-0.077
-274.399	-57.982	0.369	-0.161
-273.384	43.641	-0.173	-0.159
-272.370	-63.296	-0.208	0.086
-271.355	-39.154	0.089	-0.047
-270.340	41.988	0.111	0.101
-269.326	-200.000	0.032	0.244
-268.311	-55.056	0.314	-0.141
-267.297	-200.000	0.017	0.089
-266.282	3.750	0.278	0.203
-265.267	-98.635	-0.251	0.064
-264.253	-33.425	0.048	-0.027
-263.238	-88.870	-0.055	-0.016
-262.224	-146.458	0.124	-0.011
-261.209	-94.044	-0.367	0.101
-260.195	179.491	-0.173	-0.253
-259.180	-193.770	0.205	-0.002
-258.165	-21.441	0.204	-0.124
-257.151	800.000	0.065	0.214
-256.136	-186.249	0.320	0.005
-255.122	97.271	-0.308	-0.354
-254.107	-200.000	-0.030	0.142
-253.092	-200.000	-0.011	-0.163
-252.078	-15.599	-0.214	-0.137
-251.063	-118.231	-0.193	-0.034
-250.049	-200.000	-0.009	-0.091
-249.034	-200.000	0.021	-0.144
-248.019	430.903	0.041	-0.088
-247.005	265.867	-0.186	0.324
-245.990	192.839	-0.066	-0.099
-244.976	-200.000	0.062	-0.341
-243.961	-60.835	-0.067	-0.028
-242.946	-146.880	0.169	-0.014
-241.932	800.000	-0.090	0.256
-240.917	-133.009	-0.181	-0.023
-239.903	147.317	-0.200	-0.269
-238.888	134.435	0.172	-0.223
-237.873	167.202	-0.120	-0.170
-236.859	-200.000	-0.001	0.053
-235.844	107.331	-0.093	-0.111
-234.830	800.000	0.126	0.359
-233.815	-200.000	-0.000	-0.204
-232.800	-63.414	-0.095	0.039
-231.786	-10.020	0.033	0.022
-230.771	-64.050	-0.173	0.071
-229.757	-142.934	-0.171	0.017
-228.742	-20.838	0.240	0.147
-227.727	51.187	0.089	-0.084
-226.713	414.654	0.150	-0.320
-225.698	724.687	-0.061	-0.161
-224.684	185.524	0.228	-0.338
-223.669	-142.910	-0.102	0.010
-222.655	57.563	0.115	0.113
-221.640	68.860	0.271	0.278
-220.625	313.282	0.116	-0.217
-219.611	-179.751	0.301	-0.006
-218.596	-119.781	0.039	-0.007
-217.582	-95.665	0.084	0.022
-216.567	31.091	0.343	0.294
-215.552	-87.245	0.507	0.154
-214.538	-118.594	-0.365	-0.064
-213.523	-154.588	0.073	-0.005
-212.509	-28.812	-0.123	0.070
-211.494	-125.539	-0.064	-0.010
-210.479	153.615	-0.059	0.081
-209.465	161.943	-0.120	0.168
-208.450	-22.592	-0.006	0.003
-207.436	-144.021	-0.071	-0.007
-206.421	618.026	-0.061	0.154
-205.406	-34.571	-0.059	-0.032
-204.392	57.370	-0.029	-0.028
-203.377	-200.000	-0.004	0.023
-202.363	191.983	0.155	-0.233
-201.348	-200.000	-0.005	0.057
-200.333	140.853	0.092	0.122
-199.319	-17.124	0.099	0.062
-198.304	34.024	-0.295	0.256
-197.290	-200.000	0.038	0.291
-196.275	419.794	0.057	0.121
-195.260	-200.000	0.022	-0.343
-194.246	-47.001	-0.137	0.067
-193.231	262.001	-0.153	-0.265
-192.217	288.015	0.062	-0.112
-191.202	-61.529	0.157	0.066
-190.187	35.122	0.236	0.206
-189.173	-8.080	0.282	0.189
-188.158	104.791	-0.147	-0.173
-187.144	800.000	-0.010	0.037
-186.129	39.673	0.119	0.107
-185.114	284.336	0.104	0.186
-184.100	-130.371	0.229	0.031
-183.085	-99.374	-0.245	0.062
-182.071	54.807	-0.183	-0.176
-181.056	244.129	-0.072	-0.121
-180.042	-21.715	0.153	-0.093
-179.027	-81.887	0.062	-0.020
-178.012	114.299	0.083	0.101
-176.998	-114.931	0.304	-0.058
-175.983	-2.393	-0.197	-0.137
-174.969	-140.012	-0.111	0.012
-173.954	-105.543	0.417	-0.094
-172.939	-158.237	-0.235	0.014
-171.925	-124.643	-0.373	0.058
-170.910	800.000	0.077	-0.278
-169.896	-109.252	0.569	-0.120
-168.881	-101.688	-0.149	0.036
-167.866	-96.924	-0.364	0.095
-166.852	85.872	0.164	-0.179
-165.837	293.028	-0.100	-0.182
-164.823	52.127	0.189	-0.179
-163.808	68.834	0.059	0.060
-162.793	71.967	0.090	0.093
-161.779	-83.713	-0.166	0.053
-160.764	-6.559	-0.193	-0.131
-159.750	-89.445	0.244	0.071
-158.735	274.641	0.027	0.047
-157.720	-200.000	0.057	0.312
-156.706	-200.000	0.014	0.260
-155.691	-200.000	0.053	-0.382
-154.677	2.894	0.166	0.120
-153.662	8.957	-0.042	-0.031
-152.647	-130.009	-0.224	-0.031
-151.633	-200.000	-0.010	-0.078
-150.618	800.000	-0.023	-0.093
-149.604	-200.000	0.040	-0.180
-148.589	600.068	0.054	0.133
-147.574	-77.371	-0.250	-0.087
-146.560	93.690	0.102	-0.115
-145.545	225.382	-0.169	-0.273
-144.531	-74.651	-0.202	0.072
-143.516	587.155	0.126	0.309
-142.502	465.352	-0.075	0.167
-141.487	-200.000	0.049	0.225
-140.472	152.173	0.187	0.254
-139.458	-122.759	0.177	0.028
-138.443	793.841	-0.054	0.147
-137.429	800.000	-0.066	-0.191
-136.414	-21.433	-0.323	0.196
-135.399	-99.548	0.163	-0.041
-134.385	-71.963	-0.206	-0.076
-133.370	-132.600	-0.080	-0.010
-132.356	38.649	-0.086	-0.076
-131.341	-83.576	0.040	0.013
-130.326	-25.196	0.204	0.120
-129.312	-52.759	-0.309	0.142
-128.297	-27.531	0.186	0.107
-127.283	433.766	0.066	0.142
-126.268	146.929	0.224	0.300
-125.253	93.381	-0.421	-0.474
-124.239	-200.000	-0.019	-0.139
-123.224	518.609	0.021	-0.050
-122.210	-200.000	-0.023	0.142
-121.195	63.649	-0.130	0.130
