DTS Sentinel unit serial number:	SN413079Multiplexer serial number:	ORYXHardware model number:	OX4-SRSoftware version number:	ORYX F/W v4.00 Oryx Data Collector v3.7.2.0data status	okinstallation	princeton_trtdifferential loss correction	single-endedforward channel	channel 1reverse channel	N/Adate	2019/09/12time	20:11:34forward acquisition time	15.00reverse acquisition time	0.00gamma	496.2192k internal	0.2324k external	0.2324temperature offset calibration	1.0132default loss term (dB/km)	0.3790temperature slope calibration	1.0000multiplexer offset coefficient	1.0000multiplexer slope coefficient	1.0000fibre end	0.00T internal ref (°C)	31.56T ext. ref 1 (°C)	3.34T ext. ref 2 (°C)	26.19length (m)	temperature (°C)	Stokes	anti-Stokes-747.200	124.916	-0.121	-0.153
-746.185	118.067	-0.103	-0.129
-745.171	-10.753	-0.374	-0.250
-744.156	44.133	0.266	-0.246
-743.142	38.508	-0.550	-0.495
-742.127	-94.712	-0.382	0.105
-741.112	524.183	0.164	0.390
-740.098	372.862	0.047	0.097
-739.083	176.827	-0.078	-0.114
-738.069	-200.000	0.097	-0.505
-737.054	-200.000	0.094	-0.668
-736.039	55.959	0.101	0.099
-735.025	-126.822	-0.447	0.066
-734.010	436.961	0.178	-0.392
-732.996	-145.614	0.580	0.052
-731.981	-200.000	0.116	0.534
-730.966	-3.763	-0.283	-0.198
-729.952	-59.779	-0.105	0.045
-728.937	-89.108	0.144	0.043
-727.923	800.000	-0.176	0.492
-726.908	-71.195	-0.068	0.026
-725.894	394.915	0.078	0.164
-724.879	-130.116	-0.663	-0.091
-723.864	-81.322	0.225	0.075
-722.850	-101.936	0.345	0.084
-721.835	-105.228	0.388	0.089
-720.821	48.761	0.526	-0.497
-719.806	-82.596	-0.608	-0.199
-718.791	-60.512	-0.618	0.265
-717.777	113.241	-0.398	-0.487
-716.762	-21.701	-1.069	-0.657
-715.748	14.002	-0.247	0.194
-714.733	81.106	-0.716	0.779
-713.718	328.777	-0.240	0.465
-712.704	-23.278	-0.681	0.413
-711.689	66.456	0.228	-0.234
-710.675	224.576	-0.516	0.841
-709.660	-39.432	0.325	0.172
-708.645	65.492	0.622	-0.635
-707.631	-62.920	-0.236	-0.098
-706.616	496.063	-0.221	0.513
-705.602	548.387	0.353	-0.853
-704.587	-45.444	0.381	-0.191
-703.572	13.524	0.518	-0.405
-702.558	174.446	0.227	-0.331
-701.543	-21.863	0.101	0.062
-700.529	-200.000	-0.003	0.192
-699.514	477.649	-0.425	-0.969
-698.499	42.965	0.318	0.292
-697.485	-200.000	-0.224	-1.297
-696.470	800.000	-0.225	-0.756
-695.456	-118.727	-0.417	-0.074
-694.441	506.277	-0.340	-0.793
-693.426	53.089	-0.547	-0.528
-692.412	427.749	-0.127	0.276
-691.397	370.509	-0.236	-0.482
-690.383	800.000	-0.292	0.858
-689.368	-40.343	0.365	0.191
-688.354	-14.797	-0.216	0.139
-687.339	21.795	-0.360	-0.296
-686.324	-79.339	-0.174	0.059
-685.310	132.195	0.260	0.337
-684.295	7.871	-0.695	0.525
-683.281	-136.328	0.463	-0.054
-682.266	-114.193	-0.343	-0.067
-681.251	99.028	-0.588	-0.684
-680.237	-84.190	-0.410	0.131
-679.222	474.737	-0.128	-0.290
-678.208	-193.820	0.245	0.002
-677.193	800.000	-0.327	-0.921
-676.178	800.000	-0.165	0.576
-675.164	-79.899	0.226	-0.076
-674.149	-102.950	-0.197	-0.047
-673.135	-138.099	0.642	-0.072
-672.120	239.973	0.336	-0.564
-671.105	800.000	0.170	0.696
-670.091	-200.000	-0.112	-1.013
-669.076	140.212	-0.361	0.479
-668.062	-200.000	0.124	-0.591
-667.047	182.552	0.561	-0.832
-666.032	191.007	-0.171	-0.258
-665.018	-161.045	0.599	0.032
-664.003	-200.000	0.008	0.342
-662.989	366.650	-0.068	-0.138
-661.974	189.934	-0.569	0.858
-660.959	-200.000	0.018	-0.095
-659.945	678.883	0.242	-0.634
-658.930	328.249	-0.483	-0.934
-657.916	800.000	0.071	-0.302
-656.901	210.889	0.277	-0.437
-655.886	-129.476	0.289	0.040
-654.872	-74.371	0.299	-0.109
-653.857	-200.000	0.013	0.246
-652.843	-29.600	0.431	0.247
-651.828	-22.759	-0.078	0.047
-650.814	-5.858	0.977	0.673
-649.799	-200.000	0.065	0.598
-648.784	-200.000	-0.069	0.587
-647.770	65.385	0.102	0.104
-646.755	-121.109	-0.237	0.040
-645.741	450.268	0.189	-0.420
-644.726	124.945	0.170	-0.215
-643.711	-200.000	0.087	-0.636
-642.697	612.530	-0.332	0.834
-641.682	-200.000	0.032	-0.232
-640.668	97.128	0.316	-0.365
-639.653	328.649	0.173	-0.333
-638.638	-143.727	-0.580	0.055
-637.624	238.384	0.218	0.365
-636.609	-145.992	0.797	0.071
-635.595	-200.000	0.066	-0.554
-634.580	-43.171	0.489	0.249
-633.565	-79.977	-0.539	0.182
-632.551	719.527	0.307	0.821
-631.536	38.068	-0.370	-0.331
-630.522	-118.935	-0.421	-0.074
-629.507	-112.294	-0.900	-0.181
-628.492	114.035	0.159	-0.195
-627.478	-22.460	0.452	-0.275
-626.463	-186.223	0.602	0.009
-625.449	121.333	0.552	-0.691
-624.434	-19.356	0.244	-0.152
-623.419	800.000	-0.168	-0.542
-622.405	-200.000	-0.237	1.979
-621.390	157.495	0.174	-0.242
-620.376	-78.077	0.981	-0.339
-619.361	-200.000	-0.007	-0.354
-618.346	-81.411	-0.859	0.284
-617.332	-200.000	-0.045	0.357
-616.317	800.000	-0.174	-0.625
-615.303	-185.530	-0.620	0.009
-614.288	456.993	-0.101	-0.226
-613.273	-200.000	-0.007	0.671
-612.259	568.267	-0.289	0.706
-611.244	-138.231	-1.542	0.172
-610.230	-200.000	0.049	0.821
-609.215	-200.000	-0.011	0.312
-608.201	-180.344	0.280	0.006
-607.186	-200.000	-0.070	-0.541
-606.171	-34.043	0.497	0.274
-605.157	800.000	0.026	0.113
-604.142	151.615	-0.368	0.504
-603.128	58.150	0.400	0.393
-602.113	-135.370	-0.227	0.027
-601.098	-15.797	0.593	-0.379
-600.084	-7.473	-0.324	-0.220
-599.069	-114.075	-0.238	0.046
-598.055	-38.930	0.684	0.362
-597.040	303.123	-0.551	-1.025
-596.025	26.738	0.338	-0.285
-595.011	-7.272	-0.387	-0.263
-593.996	6.243	0.354	0.263
-592.982	286.496	0.263	-0.477
-591.967	800.000	-0.041	-0.142
-590.952	450.806	0.335	-0.742
-589.938	-67.735	-0.637	0.250
-588.923	345.013	0.344	0.677
-587.909	2.076	-0.262	0.190
-586.894	145.692	0.152	0.205
-585.879	76.716	0.089	-0.095
-584.865	450.685	0.408	-0.903
-583.850	-168.133	0.784	0.031
-582.836	-124.669	0.338	0.053
-581.821	272.221	0.126	0.223
-580.806	-76.261	-0.419	0.148
-579.792	-200.000	-0.031	0.371
-578.777	-26.684	-0.440	0.258
-577.763	58.915	-0.713	-0.703
-576.748	-200.000	0.076	-0.470
-575.733	1.320	-0.657	0.473
-574.719	125.025	0.455	-0.574
-573.704	-90.223	-0.785	0.229
-572.690	183.535	0.528	-0.783
-571.675	83.096	-0.239	-0.261
-570.661	-50.894	-0.149	0.070
-569.646	27.740	-0.465	0.393
-568.631	45.615	-0.258	0.239
-567.617	-140.225	-0.257	0.027
-566.602	-109.093	-0.471	0.101
-565.588	87.689	-0.255	0.283
-564.573	-200.000	-0.041	-0.407
-563.558	-200.000	0.067	-0.600
-562.544	-111.114	0.367	0.075
-561.529	163.578	-0.277	-0.391
-560.515	108.255	0.522	0.624
-559.500	-200.000	0.049	0.475
-558.485	1.124	0.465	-0.335
-557.471	-147.307	-0.431	-0.037
-556.456	800.000	-0.119	0.407
-555.442	-200.000	0.148	0.824
-554.427	393.856	0.185	-0.386
-553.412	139.440	0.130	-0.171
-552.398	-85.004	-1.015	-0.319
-551.383	80.808	-0.237	0.256
-550.369	-20.616	0.647	0.398
-549.354	-200.000	-0.063	-0.313
-548.339	39.805	-0.330	0.297
-547.325	-47.897	-0.493	-0.239
-546.310	-170.075	-0.783	0.028
-545.296	33.846	0.211	-0.184
-544.281	-26.542	-0.443	-0.260
-543.266	-200.000	0.468	-0.001
-542.252	-106.415	-0.464	-0.104
-541.237	-136.756	-0.385	-0.044
-540.223	-76.523	-0.199	0.070
-539.208	-107.824	0.587	-0.128
-538.193	23.575	0.108	-0.089
-537.179	-37.405	-0.341	-0.182
-536.164	-135.149	0.587	0.071
-535.150	800.000	0.126	-0.421
-534.135	255.572	-0.150	0.258
-533.121	0.100	-1.289	-0.920
-532.106	-100.416	0.726	0.180
-531.091	30.553	-0.357	-0.306
-530.077	-200.000	-0.067	0.602
-529.062	304.815	-0.184	0.343
-528.048	-88.551	0.252	-0.075
-527.033	11.295	-0.535	-0.410
-526.018	-3.384	0.436	0.304
-525.004	-131.482	-0.879	0.116
-523.989	22.658	-0.281	-0.231
-522.975	-167.346	0.644	0.026
-521.960	36.648	-0.655	-0.579
-520.945	119.709	-0.139	-0.173
-519.931	209.930	0.209	-0.328
-518.916	142.647	0.483	0.642
-517.902	177.253	0.182	0.265
-516.887	800.000	-0.056	-0.168
-515.872	-158.913	-0.754	-0.043
-514.858	-122.985	0.197	0.032
-513.843	589.755	0.358	0.884
-512.829	40.895	0.626	0.565
-511.814	-29.107	0.132	0.076
-510.799	218.246	-0.168	0.268
-509.785	-200.000	0.127	0.650
-508.770	-80.294	-0.151	0.051
-507.756	800.000	-0.021	-0.063
-506.741	-148.362	0.613	-0.050
-505.726	266.640	0.185	-0.323
-504.712	360.037	-0.428	-0.856
-503.697	-25.813	0.156	0.092
-502.683	-8.608	0.545	0.366
-501.668	440.024	0.202	-0.441
-500.653	-200.000	-0.037	0.967
-499.639	-200.000	0.080	0.486
-498.624	-82.790	-0.199	-0.064
-497.610	-70.655	-0.612	-0.231
-496.595	-163.970	0.445	-0.021
-495.581	449.463	-0.250	0.550
-494.566	-158.640	1.061	-0.061
-493.551	-30.645	-0.196	-0.111
-492.537	86.169	0.202	0.222
-491.522	-43.902	-0.511	-0.257
-490.508	-153.076	1.440	0.101
-489.493	-41.945	-0.374	0.192
-488.478	-25.614	-0.174	-0.103
-487.464	-69.947	1.048	-0.399
-486.449	-144.471	0.253	0.023
-485.435	609.537	-0.179	0.446
-484.420	-26.854	0.475	-0.278
-483.405	-155.633	-0.129	-0.008
-482.391	-114.392	-0.826	-0.159
-481.376	-91.892	0.665	0.189
-480.362	-119.535	0.273	-0.047
-479.347	408.789	0.254	-0.537
-478.332	127.624	-0.428	-0.543
-477.318	212.947	-0.697	1.099
-476.303	23.926	0.195	0.160
-475.289	54.468	0.072	0.069
-474.274	-124.124	-0.740	0.116
-473.259	24.804	-0.392	0.324
-472.245	-200.000	-0.165	0.733
-471.230	-200.000	-0.077	0.801
-470.216	800.000	0.115	0.331
-469.201	-48.823	-0.430	0.206
-468.186	-128.994	-0.383	-0.054
-467.172	-99.491	-0.989	0.248
-466.157	800.000	-0.096	-0.334
-465.143	-180.819	0.590	-0.012
-464.128	-56.348	0.516	0.229
-463.113	-94.676	0.365	0.099
-462.099	-200.000	0.131	-0.898
-461.084	-200.000	0.022	-0.574
-460.070	-28.639	0.308	0.177
-459.055	51.161	0.441	0.418
-458.040	350.528	-0.167	-0.330
-457.026	33.275	-1.021	-0.884
-456.011	800.000	-0.117	-0.330
-454.997	306.041	0.177	0.328
-453.982	-149.124	-0.883	0.071
-452.968	-94.384	0.672	0.183
-451.953	770.331	0.226	0.615
-450.938	-200.000	-0.021	0.493
-449.924	-158.802	1.343	0.077
-448.909	-27.984	0.634	0.366
-447.895	-156.894	0.756	0.046
-446.880	-66.449	-0.404	-0.160
-445.865	108.885	-0.079	-0.094
-444.851	-175.324	0.702	0.019
-443.836	-200.000	0.007	0.365
-442.822	800.000	-0.030	-0.111
-441.807	191.069	0.076	-0.115
-440.792	-151.884	-1.026	-0.075
-439.778	-200.000	-0.011	-0.845
-438.763	423.543	-0.123	0.263
-437.749	800.000	0.049	-0.157
-436.734	9.929	0.405	-0.307
-435.719	504.284	0.166	0.384
-434.705	295.239	0.227	-0.414
-433.690	-200.000	0.042	-0.535
-432.676	225.644	0.193	0.312
-431.661	187.232	0.094	-0.140
-430.646	-84.620	0.324	0.102
-429.632	352.399	0.326	0.644
-428.617	162.451	-0.422	-0.590
-427.603	195.913	0.222	-0.336
-426.588	-108.748	0.218	0.047
-425.573	-54.162	0.637	0.288
-424.559	-200.000	0.003	-0.402
-423.544	-61.527	-0.593	0.248
-422.530	152.102	0.249	-0.338
-421.515	-31.841	-0.441	0.246
-420.500	-0.118	0.498	0.354
-419.486	388.670	-0.310	-0.639
-418.471	-12.291	0.242	-0.157
-417.457	114.877	-0.486	0.591
-416.442	800.000	-0.066	0.192
-415.428	498.181	-0.203	-0.465
-414.413	-137.151	0.792	0.090
-413.398	-200.000	-0.041	0.315
-412.384	-157.972	-0.052	0.003
-411.369	-142.712	0.276	0.027
-410.355	-10.399	-0.568	-0.375
-409.340	-85.662	-0.471	0.146
-408.325	540.940	-0.146	0.346
-407.311	27.982	0.565	0.475
-406.296	-100.817	0.515	-0.126
-405.282	390.368	-0.418	0.864
-404.267	-160.255	0.370	0.020
-403.252	-132.886	-0.390	-0.049
-402.238	21.962	0.303	0.246
-401.223	-200.000	-0.009	-0.319
-400.209	-82.675	-0.664	-0.214
-399.194	-5.255	0.093	0.064
-398.179	-76.729	-0.660	0.230
-397.165	-48.694	0.524	0.251
-396.150	-126.168	-0.283	-0.042
-395.136	617.470	0.226	-0.564
-394.121	800.000	-0.038	-0.116
-393.106	800.000	-0.146	0.495
-392.092	115.843	0.483	-0.588
-391.077	-1.841	-0.387	-0.271
-390.063	126.413	-0.253	0.319
-389.048	-117.505	0.708	-0.127
-388.033	-60.662	-0.279	0.118
-387.019	378.120	-0.025	0.051
-386.004	152.317	0.389	-0.529
-384.990	-200.000	0.056	0.248
-383.975	-97.528	0.612	0.158
-382.960	-18.757	0.682	-0.423
-381.946	38.486	-0.109	-0.097
-380.931	119.932	0.503	-0.620
-379.917	-131.546	0.101	0.013
-378.902	-200.000	-0.195	-0.933
-377.888	18.986	0.357	0.285
-376.873	-200.000	-0.152	-0.902
-375.858	-200.000	-0.029	0.526
-374.844	-200.000	-0.007	0.672
-373.829	800.000	-0.146	-0.524
-372.815	204.627	0.326	-0.504
-371.800	243.844	0.161	-0.269
-370.785	800.000	-0.090	-0.300
-369.771	110.647	0.241	0.288
-368.756	-65.317	-0.731	-0.293
-367.742	-200.000	-0.092	-1.010
-366.727	-200.000	0.029	-0.417
-365.712	-200.000	-0.111	1.037
-364.698	800.000	-0.127	0.460
-363.683	-86.274	0.427	-0.131
-362.669	-89.881	0.426	0.124
-361.654	-97.745	-0.580	0.149
-360.639	-125.116	-0.783	0.119
-359.625	541.827	0.071	-0.168
-358.610	53.740	0.169	0.161
-357.596	-129.638	-0.546	-0.075
-356.581	-25.234	-0.296	-0.174
-355.566	229.069	0.449	0.729
-354.552	126.935	-0.109	0.137
-353.537	516.079	-0.322	-0.747
-352.523	-200.000	-0.046	-0.784
-351.508	-111.914	0.471	-0.095
-350.493	-200.000	0.101	0.468
-349.479	13.291	-0.795	0.612
-348.464	63.690	0.426	-0.426
-347.450	-42.829	-0.207	-0.104
-346.435	800.000	-0.277	-0.787
-345.420	-173.124	-0.914	-0.028
-344.406	-119.742	0.043	0.007
-343.391	100.944	-0.307	-0.355
-342.377	92.154	0.237	-0.265
-341.362	485.244	-0.130	0.294
-340.348	-21.655	0.375	0.227
-339.333	-129.364	-0.880	0.121
-338.318	-18.506	-0.245	-0.152
-337.304	583.611	0.133	0.325
-336.289	236.405	0.432	0.710
-335.275	-58.667	0.539	0.232
-334.260	402.972	0.145	-0.304
-333.245	-157.419	-0.528	0.032
-332.231	-126.884	0.387	-0.057
-331.216	-187.682	0.459	-0.006
-330.202	-171.891	-0.348	0.011
-329.187	283.264	-0.385	0.686
-328.172	-64.782	0.435	0.175
-327.158	800.000	0.020	0.087
-326.143	-52.044	-0.969	0.447
-325.129	-143.667	0.509	0.048
-324.114	-200.000	0.078	-0.364
-323.099	800.000	0.106	0.351
-322.085	507.610	-0.244	-0.563
-321.070	-125.449	0.896	-0.136
-320.056	-200.000	-0.010	0.513
-319.041	686.497	-0.150	-0.388
-318.026	80.211	-0.476	-0.508
-317.012	800.000	0.417	1.151
-315.997	-200.000	-0.166	-0.742
-314.983	-17.381	0.551	-0.345
-313.968	-89.347	-1.116	0.326
-312.953	-110.579	0.444	0.091
-311.939	-200.000	0.153	-0.703
-310.924	-17.485	0.217	-0.136
-309.910	100.146	-0.148	-0.170
-308.895	22.673	0.565	0.459
-307.880	249.147	-0.206	-0.347
-306.866	776.711	0.094	0.255
-305.851	800.000	-0.130	0.366
-304.837	495.310	0.247	-0.562
-303.822	800.000	-0.118	0.415
-302.807	-200.000	-0.060	0.363
-301.793	127.348	0.214	0.269
-300.778	400.970	-0.528	-1.099
-299.764	-27.273	0.429	0.248
-298.749	37.291	-0.403	-0.355
-297.735	-192.717	0.637	-0.006
-296.720	-88.372	-0.570	0.169
-295.705	583.241	0.188	-0.458
-294.691	-200.000	0.029	-0.233
-293.676	-200.000	0.102	1.092
-292.662	-139.367	0.500	0.053
-291.647	119.805	-0.404	-0.496
-290.632	742.426	-0.061	-0.162
-289.618	-174.161	-0.686	-0.020
-288.603	86.084	0.104	0.114
-287.589	535.804	0.179	0.420
-286.574	478.464	0.132	0.295
-285.559	66.086	0.273	0.275
-284.545	-91.809	0.128	-0.036
-283.530	800.000	0.091	-0.336
-282.516	-61.930	0.354	0.147
-281.501	-138.944	-0.026	0.003
-280.486	800.000	-0.216	-0.915
-279.472	-98.636	-0.143	-0.036
-278.457	45.715	-0.339	0.310
-277.443	-122.672	0.338	0.054
-276.428	800.000	-0.157	0.481
-275.413	-36.799	-0.346	0.184
-274.399	-66.885	-0.776	0.304
-273.384	227.742	-0.167	0.270
-272.370	22.849	-0.330	0.268
-271.355	-140.853	-0.609	-0.062
-270.340	372.866	-0.162	0.326
-269.326	-63.799	0.406	0.165
-268.311	-28.289	0.704	-0.403
-267.297	800.000	-0.199	0.648
-266.282	-3.286	0.394	0.272
-265.267	-134.589	0.710	-0.086
-264.253	800.000	0.073	0.226
-263.238	-149.227	-0.836	-0.066
-262.224	78.673	0.291	0.309
-261.209	-74.191	0.316	0.113
-260.195	-79.423	0.810	-0.271
-259.180	-36.301	0.534	0.285
-258.165	347.287	-0.284	0.555
-257.151	157.217	-0.456	0.625
-256.136	-81.491	-0.935	-0.305
-255.122	-200.000	0.005	-0.676
-254.107	324.407	0.465	-0.880
-253.092	340.749	-0.047	0.091
-252.078	62.789	0.749	0.742
-251.063	45.249	0.355	-0.324
-250.049	-84.974	-0.540	-0.168
-249.034	-73.096	0.022	0.008
-248.019	-85.919	-0.188	0.058
-247.005	-146.592	-0.526	0.045
-245.990	13.414	-0.343	0.263
-244.976	-60.926	-0.522	0.218
-243.961	391.500	0.252	-0.518
-242.946	-53.113	0.764	-0.347
-241.932	-200.000	-0.016	-0.256
-240.917	71.466	0.370	0.380
-239.903	226.580	0.435	-0.698
-238.888	99.800	-0.356	-0.409
-237.873	165.799	-0.155	-0.217
-236.859	335.219	-0.089	-0.170
-235.844	164.671	-0.099	-0.139
-234.830	-32.121	0.297	0.164
-233.815	19.237	0.082	0.065
-232.800	-93.251	0.456	-0.125
-231.786	-11.586	0.448	0.291
-230.771	-83.090	-0.742	-0.236
-229.757	-131.811	-0.765	0.099
-228.742	-59.393	0.748	-0.318
-227.727	336.711	-0.356	-0.684
-226.713	416.229	0.354	-0.747
-225.698	99.879	-0.146	0.167
-224.684	-143.194	-0.419	-0.040
-223.669	39.426	1.319	1.169
-222.655	44.861	-0.063	-0.057
-221.640	15.528	0.335	-0.260
-220.625	-55.139	-0.247	0.110
-219.611	23.340	0.716	-0.582
-218.596	800.000	0.362	-1.270
-217.582	32.476	0.343	-0.293
-216.567	-61.678	0.747	-0.310
-215.552	-38.277	0.283	0.148
-214.538	743.706	0.193	-0.512
-213.523	-31.786	-0.334	-0.185
-212.509	145.149	0.157	0.208
-211.494	-40.120	0.552	-0.284
-210.479	380.120	0.499	1.012
-209.465	71.047	0.607	-0.622
-208.450	-200.000	0.087	-1.117
-207.436	-123.162	-0.685	-0.109
-206.421	17.397	-0.559	-0.438
-205.406	313.860	0.233	0.434
-204.392	800.000	-0.244	-0.679
-203.377	800.000	0.182	0.675
-202.363	-156.527	0.343	-0.021
-201.348	394.499	-0.069	0.142
-200.333	800.000	0.184	0.604
-199.319	-167.177	-0.586	0.024
-198.304	-92.965	0.681	-0.188
-197.290	-200.000	-0.005	0.675
-196.275	800.000	0.194	0.770
-195.260	-1.841	0.187	-0.130
-194.246	800.000	-0.108	0.405
-193.231	-40.807	-0.573	0.293
-192.217	-200.000	-0.059	-0.696
-191.202	210.976	0.212	-0.329
-190.187	119.053	0.056	-0.068
-189.173	-200.000	-0.125	0.737
-188.158	-71.329	-0.301	0.112
-187.144	-58.856	-0.468	0.200
-186.129	-25.753	-0.480	0.280
-185.114	-122.182	-0.653	0.106
-184.100	-55.263	0.199	0.088
-183.085	800.000	0.087	-0.277
-182.071	191.139	-0.255	0.378
-181.056	-200.000	0.032	0.351
-180.042	-26.889	0.595	0.343
-179.027	-99.917	-0.528	0.130
-178.012	368.017	-0.473	-0.943
-176.998	-185.566	1.015	-0.015
-175.983	-170.351	-1.090	-0.038
-174.969	-137.688	-0.813	-0.090
-173.954	-96.537	-0.621	0.162
-172.939	14.523	-0.178	-0.137
-171.925	-120.145	-0.192	0.032
-170.910	-175.906	-0.544	0.014
-169.896	46.597	-0.647	0.593
-168.881	-156.719	-0.227	-0.014
-167.866	-104.456	-0.526	-0.120
-166.852	-107.274	-0.334	-0.073
-165.837	314.079	-0.247	0.459
-164.823	-200.000	-0.006	-0.088
-163.808	-32.906	1.457	-0.799
-162.793	87.993	0.627	0.686
-161.779	-200.000	0.047	-0.362
-160.764	-37.811	-0.393	-0.206
-159.750	508.334	-0.262	0.601
-158.735	274.630	-0.217	0.380
-157.720	-114.279	-0.064	0.012
-156.706	-111.784	0.325	0.065
-155.691	-142.456	-0.195	0.019
-154.677	-200.000	-0.171	-0.890
-153.662	800.000	0.108	-0.391
-152.647	-39.550	0.079	0.041
-151.633	-135.600	0.786	0.092
-150.618	174.085	-0.261	-0.372
-149.604	-53.426	-0.260	-0.117
-148.589	-200.000	-0.058	0.502
-147.574	-128.599	0.455	0.063
-146.560	800.000	-0.125	-0.389
-145.545	-36.843	0.198	-0.105
-144.531	-129.424	0.189	0.026
-143.516	800.000	-0.066	-0.278
-142.502	117.464	0.097	-0.118
-141.487	84.948	-0.710	0.768
-140.472	800.000	-0.160	-0.525
-139.458	-47.777	0.125	0.060
-138.443	-200.000	-0.064	-0.585
-137.429	183.803	0.098	-0.142
-136.414	-97.164	-0.549	-0.141
-135.399	407.125	0.425	0.885
-134.385	-97.386	0.499	-0.128
-133.370	253.792	-0.356	0.599
-132.356	-20.288	0.337	0.204
-131.341	569.215	-0.253	0.606
-130.326	151.382	-0.144	-0.194
-129.312	178.036	-0.408	-0.587
-128.297	-200.000	-0.007	0.980
-127.283	68.653	0.461	-0.466
-126.268	177.613	0.370	-0.532
-125.253	800.000	0.295	0.833
-124.239	-23.366	-0.439	0.260
-123.224	73.019	0.434	-0.447
-122.210	211.179	0.105	0.162
