DTS Sentinel unit serial number:	SN413079Multiplexer serial number:	ORYXHardware model number:	OX4-SRSoftware version number:	ORYX F/W v4.00 Oryx Data Collector v3.7.2.0data status	okinstallation	princeton_trtdifferential loss correction	single-endedforward channel	channel 1reverse channel	N/Adate	2019/09/17time	22:18:35forward acquisition time	60.00reverse acquisition time	0.00gamma	496.2192k internal	0.2340k external	0.2340temperature offset calibration	0.9979default loss term (dB/km)	0.3790temperature slope calibration	1.0000multiplexer offset coefficient	1.0000multiplexer slope coefficient	1.0000fibre end	0.00T internal ref (°C)	25.56T ext. ref 1 (°C)	0.17T ext. ref 2 (°C)	18.57length (m)	temperature (°C)	Stokes	anti-Stokes-747.200	-199.804	0.104	0.001
-746.185	2.747	0.115	0.083
-745.171	81.328	-0.092	0.099
-744.156	87.807	-0.207	0.230
-743.142	-48.527	-0.227	0.110
-742.127	-200.000	0.091	0.574
-741.112	119.702	0.278	0.345
-740.098	228.578	-0.142	0.231
-739.083	294.532	0.112	0.204
-738.069	-200.000	0.016	0.399
-737.054	68.237	0.303	-0.311
-736.039	371.114	-0.100	-0.202
-735.025	800.000	0.061	0.213
-734.010	191.422	0.030	-0.045
-732.996	-200.000	-0.020	-0.518
-731.981	-200.000	0.011	0.171
-730.966	52.471	0.170	-0.163
-729.952	-25.908	-0.290	-0.171
-728.937	-130.491	-0.691	-0.094
-727.923	-87.320	-0.434	0.132
-726.908	-16.479	0.225	-0.143
-725.894	-60.073	0.242	-0.103
-724.879	-181.217	0.213	-0.004
-723.864	108.657	-0.076	0.091
-722.850	-67.550	-0.352	0.138
-721.835	0.824	0.203	-0.145
-720.821	-55.095	0.267	-0.120
-719.806	412.395	-0.049	-0.104
-718.791	800.000	-0.054	0.192
-717.777	44.167	0.195	0.179
-716.762	36.332	0.232	-0.205
-715.748	-143.558	0.253	0.024
-714.733	34.253	-0.178	0.155
-713.718	-200.000	-0.078	-0.453
-712.704	800.000	0.061	-0.246
-711.689	-43.007	0.176	0.089
-710.675	-114.791	-0.068	0.013
-709.660	30.797	0.090	-0.077
-708.645	-26.924	-0.215	0.126
-707.631	-159.174	0.146	0.008
-706.616	-200.000	0.017	-0.102
-705.602	173.221	-0.177	0.255
-704.587	-142.441	-0.222	0.022
-703.572	-200.000	-0.001	-0.120
-702.558	-200.000	-0.009	-0.191
-701.543	31.672	0.150	0.129
-700.529	-200.000	-0.046	0.212
-699.514	-200.000	0.023	0.120
-698.499	-95.301	-0.267	0.072
-697.485	800.000	0.043	-0.129
-696.470	-97.064	-0.337	-0.088
-695.456	-37.254	0.234	-0.125
-694.441	-200.000	-0.038	-0.227
-693.426	380.082	0.132	0.271
-692.412	53.840	-0.132	-0.127
-691.397	-68.395	0.222	0.086
-690.383	-77.451	-0.448	-0.156
-689.368	40.756	0.196	-0.177
-688.354	-53.668	0.185	-0.085
-687.339	69.977	-0.186	-0.192
-686.324	32.048	-0.206	0.177
-685.310	56.176	-0.029	-0.028
-684.295	-22.319	0.134	-0.081
-683.281	-200.000	0.003	-0.198
-682.266	293.474	0.096	0.175
-681.251	738.291	-0.022	-0.059
-680.237	-24.587	0.340	-0.202
-679.222	207.019	-0.158	0.247
-678.208	-49.508	0.174	-0.083
-677.193	-125.553	-0.150	-0.023
-676.178	-75.182	-0.319	-0.114
-675.164	800.000	0.058	0.203
-674.149	12.415	-0.040	0.031
-673.135	194.855	-0.048	0.072
-672.120	-71.364	0.147	0.055
-671.105	800.000	0.066	-0.276
-670.091	422.833	-0.159	-0.341
-669.076	81.808	0.106	-0.115
-668.062	106.346	-0.174	0.206
-667.047	293.659	0.074	-0.135
-666.032	-110.023	-0.064	0.013
-665.018	-200.000	-0.011	0.071
-664.003	189.973	-0.165	0.248
-662.989	800.000	0.024	-0.084
-661.974	36.278	-0.246	-0.217
-660.959	-79.319	-0.531	-0.180
-659.945	-68.853	0.135	-0.052
-658.930	800.000	-0.056	-0.174
-657.916	315.776	0.058	-0.109
-656.901	120.646	-0.267	0.332
-655.886	-42.407	0.069	0.035
-654.872	182.045	0.110	0.162
-653.857	-93.620	0.537	-0.148
-652.843	23.879	-0.258	-0.213
-651.828	3.203	-0.376	-0.274
-650.814	-200.000	-0.041	-0.219
-649.799	39.796	0.350	-0.314
-648.784	29.603	0.175	-0.149
-647.770	-43.609	-0.156	0.078
-646.755	-140.092	0.097	0.010
-645.741	731.511	-0.061	0.164
-644.726	192.999	0.097	0.146
-643.711	-137.251	-0.161	-0.018
-642.697	-200.000	0.049	0.332
-641.682	20.435	-0.081	0.066
-640.668	-200.000	0.026	-0.304
-639.653	-118.357	-0.302	0.054
-638.638	-200.000	0.032	0.342
-637.624	-139.161	-0.195	0.021
-636.609	-93.894	0.143	-0.039
-635.595	-53.723	0.251	-0.114
-634.580	-48.700	-0.098	-0.047
-633.565	800.000	0.052	-0.223
-632.551	-139.485	0.170	-0.018
-631.536	155.716	-0.058	0.079
-630.522	-88.677	-0.060	-0.018
-629.507	-116.089	-0.221	-0.041
-628.492	-50.059	0.337	-0.159
-627.478	70.291	-0.117	-0.120
-626.463	303.638	-0.137	0.253
-625.449	5.825	0.100	0.074
-624.434	222.018	0.169	0.271
-623.419	-200.000	0.009	-0.060
-622.405	800.000	-0.101	0.346
-621.390	-200.000	-0.018	0.122
-620.376	-128.246	-0.087	-0.012
-619.361	-180.213	-0.131	-0.003
-618.346	-82.668	-0.299	0.097
-617.332	-109.905	-0.329	0.069
-616.317	-46.088	-0.166	-0.082
-615.303	-200.000	0.027	-0.162
-614.288	-138.864	-0.430	0.047
-613.273	109.576	0.291	-0.348
-612.259	-200.000	0.005	-0.332
-611.244	-200.000	-0.028	-0.348
-610.230	-115.930	0.147	-0.027
-609.215	-37.130	0.533	0.284
-608.201	-17.791	-0.042	0.026
-607.186	182.850	-0.153	0.225
-606.171	125.555	0.216	-0.272
-605.157	511.622	-0.078	0.181
-604.142	67.208	0.245	-0.249
-603.128	-118.704	-0.283	-0.050
-602.113	47.180	-0.196	-0.182
-601.098	-51.341	-0.438	0.204
-600.084	-200.000	0.033	0.263
-599.069	34.994	-0.364	0.318
-598.055	38.751	0.087	-0.077
-597.040	800.000	-0.020	0.080
-596.025	-200.000	0.013	-0.232
-595.011	55.898	-0.056	-0.054
-593.996	800.000	0.082	-0.308
-592.982	82.524	-0.255	-0.276
-591.967	-200.000	0.053	-0.254
-590.952	-96.573	0.199	0.052
-589.938	-161.053	-0.160	0.008
-588.923	-4.036	-0.144	-0.100
-587.909	-200.000	0.030	-0.175
-586.894	800.000	-0.065	-0.185
-585.879	-200.000	-0.040	-0.218
-584.865	480.205	0.032	-0.072
-583.850	-124.528	-0.329	-0.051
-582.836	-78.506	-0.187	-0.064
-581.821	-146.441	-0.344	0.030
-580.806	31.715	-0.122	0.105
-579.792	85.714	0.106	-0.116
-578.777	-200.000	-0.059	-0.368
-577.763	208.873	0.045	-0.070
-576.748	315.734	0.083	-0.157
-575.733	-127.799	0.426	0.061
-574.719	800.000	-0.032	-0.120
-573.704	2.657	0.124	-0.089
-572.690	-102.220	-0.101	0.024
-571.675	-200.000	-0.022	0.223
-570.661	112.025	0.075	0.090
-569.646	800.000	0.026	0.087
-568.631	58.846	-0.031	0.030
-567.617	70.547	-0.215	0.221
-566.602	323.302	0.063	0.119
-565.588	135.923	-0.113	-0.147
-564.573	-67.210	-0.162	-0.064
-563.558	758.220	-0.032	-0.087
-562.544	800.000	-0.069	0.248
-561.529	3.849	-0.152	-0.111
-560.515	540.466	-0.085	-0.202
-559.500	329.113	0.189	-0.362
-558.485	-200.000	0.005	-0.083
-557.471	54.258	0.214	0.205
-556.456	294.446	0.102	-0.185
-555.442	-104.518	0.177	-0.041
-554.427	444.796	-0.149	-0.326
-553.412	-45.754	-0.132	0.065
-552.398	-59.568	-0.162	0.069
-551.383	-58.016	0.202	-0.088
-550.369	-9.031	-0.048	-0.032
-549.354	-31.544	0.285	-0.160
-548.339	-116.846	0.145	-0.027
-547.325	107.081	-0.115	-0.136
-546.310	10.368	0.073	-0.055
-545.296	-200.000	-0.007	-0.054
-544.281	693.603	0.089	-0.232
-543.266	448.298	-0.102	0.223
-542.252	328.826	0.068	0.130
-541.237	-200.000	-0.078	0.352
-540.223	438.714	-0.102	0.222
-539.208	75.496	-0.137	0.144
-538.193	194.299	-0.061	0.092
-537.179	157.836	-0.096	-0.133
-536.164	800.000	-0.022	-0.093
-535.150	139.520	0.098	-0.128
-534.135	-200.000	0.074	-0.463
-533.121	-116.589	-0.366	-0.067
-532.106	84.332	-0.149	-0.162
-531.091	79.272	-0.097	0.104
-530.077	-55.195	0.209	-0.094
-529.062	57.429	0.156	0.152
-528.048	800.000	0.022	-0.063
-527.033	50.274	0.255	-0.240
-526.018	-186.695	0.250	0.003
-525.004	78.599	-0.166	0.177
-523.989	-200.000	-0.003	-0.102
-522.975	-143.328	0.551	-0.053
-521.960	-200.000	-0.005	0.332
-520.945	-105.681	-0.054	0.012
-519.931	366.697	0.037	-0.074
-518.916	-157.433	-0.085	0.005
-517.902	-200.000	0.050	0.264
-516.887	234.449	0.141	0.232
-515.872	-200.000	-0.016	-0.265
-514.858	-145.105	-0.366	-0.033
-513.843	84.850	0.193	-0.210
-512.829	-200.000	-0.028	-0.239
-511.814	-36.306	0.272	-0.146
-510.799	-41.210	0.041	0.021
-509.785	-152.899	0.341	-0.024
-508.770	29.002	-0.107	-0.090
-507.756	800.000	0.085	0.241
-506.741	743.169	0.069	0.184
-505.726	37.480	0.041	-0.036
-504.712	-78.006	-0.219	-0.075
-503.697	-4.650	-0.114	0.078
-502.683	800.000	0.031	0.122
-501.668	-37.500	0.139	0.074
-500.653	-99.002	0.310	0.078
-499.639	-141.966	-0.163	-0.016
-498.624	-200.000	0.028	0.186
-497.610	-200.000	0.016	-0.213
-496.595	317.354	0.258	-0.484
-495.581	-67.098	0.134	0.053
-494.566	-20.191	-0.305	-0.186
-493.551	81.029	-0.049	0.052
-492.537	224.912	-0.100	0.161
-491.522	207.647	-0.046	-0.072
-490.508	-49.962	-0.118	0.056
-489.493	238.313	0.198	-0.327
-488.478	-103.720	0.105	-0.024
-487.464	37.636	0.086	-0.076
-486.449	-200.000	0.015	-0.187
-485.435	74.438	-0.047	0.049
-484.420	76.495	-0.184	-0.193
-483.405	-200.000	0.011	0.091
-482.391	75.040	-0.196	-0.205
-481.376	13.296	0.235	0.180
-480.362	124.003	0.049	0.061
-479.347	10.163	-0.248	-0.187
-478.332	37.668	0.198	0.174
-477.318	-22.147	0.089	0.054
-476.303	33.043	0.330	0.284
-475.289	-119.201	-0.112	0.019
-474.274	-110.035	0.222	-0.046
-473.259	318.513	-0.201	-0.378
-472.245	292.037	-0.085	0.154
-471.230	-200.000	0.043	-0.191
-470.216	0.398	-0.127	-0.090
-469.201	355.406	-0.127	-0.250
-468.186	12.023	-0.110	0.084
-467.172	-200.000	-0.068	0.347
-466.157	97.882	-0.130	0.148
-465.143	333.058	-0.092	-0.176
-464.128	114.669	-0.087	0.105
-463.113	-30.750	-0.083	-0.046
-462.099	673.172	0.131	-0.336
-461.084	-94.950	-0.408	0.109
-460.070	-132.867	0.291	-0.037
-459.055	-200.000	-0.016	-0.158
-458.040	-146.538	0.101	0.009
-457.026	83.621	-0.169	-0.183
-456.011	-141.479	-0.205	-0.021
-454.997	65.490	-0.192	-0.193
-453.982	29.439	-0.212	0.179
-452.968	442.608	-0.085	0.185
-451.953	-125.936	-0.250	0.037
-450.938	-15.914	0.141	0.089
-449.924	455.412	-0.130	-0.286
-448.909	-200.000	0.008	-0.103
-447.895	275.022	-0.156	0.274
-446.880	800.000	0.038	0.149
-445.865	-200.000	-0.004	0.131
-444.851	-200.000	-0.224	0.001
-443.836	12.189	0.107	-0.081
-442.822	800.000	-0.124	-0.485
-441.807	-21.116	0.084	-0.051
-440.792	-200.000	0.011	0.215
-439.778	289.536	-0.134	0.241
-438.763	-57.142	-0.227	-0.099
-437.749	-143.596	-0.127	0.012
-436.734	-200.000	-0.026	0.212
-435.719	309.903	-0.028	-0.052
-434.705	-200.000	0.024	-0.198
-433.690	-43.410	0.290	-0.145
-432.676	-69.770	-0.306	0.116
-431.661	800.000	0.070	-0.191
-430.646	-19.486	0.195	0.119
-429.632	-200.000	-0.064	-0.297
-428.617	-12.369	-0.300	-0.194
-427.603	221.049	0.128	0.204
-426.588	40.107	0.319	-0.284
-425.573	-200.000	-0.008	0.082
-424.559	50.613	0.110	0.103
-423.544	-200.000	-0.035	-0.179
-422.530	-97.636	-0.155	0.040
-421.515	-200.000	-0.014	0.160
-420.500	-1.616	0.045	0.032
-419.486	-9.561	-0.097	-0.064
-418.471	339.966	-0.117	-0.226
-417.457	-200.000	-0.068	0.371
-416.442	-200.000	-0.005	-0.021
-415.428	-174.112	0.094	0.003
-414.413	-43.192	0.168	-0.084
-413.398	2.527	0.223	0.160
-412.384	-200.000	0.009	-0.116
-411.369	270.867	-0.095	-0.166
-410.355	-95.628	-0.144	-0.038
-409.340	-200.000	-0.055	-0.342
-408.325	-200.000	0.024	-0.298
-407.311	-200.000	0.019	0.240
-406.296	104.840	0.357	0.416
-405.282	231.129	-0.110	-0.178
-404.267	241.779	-0.180	-0.298
-403.252	-59.026	0.174	0.074
-402.238	800.000	-0.065	-0.249
-401.223	344.370	0.149	0.289
-400.209	270.439	0.160	-0.279
-399.194	-200.000	-0.054	0.406
-398.179	75.858	-0.115	0.121
-397.165	-121.456	0.249	0.041
-396.150	135.664	-0.185	-0.238
-395.136	179.011	0.058	-0.085
-394.121	-109.100	0.356	0.075
-393.106	17.184	0.238	0.187
-392.092	126.886	0.105	0.131
-391.077	-200.000	0.000	-0.119
-390.063	457.223	0.052	0.114
-389.048	31.846	-0.213	0.181
-388.033	57.152	0.070	-0.067
-387.019	-14.093	0.365	-0.233
-386.004	-200.000	0.002	0.188
-384.990	-77.697	-0.134	-0.046
-383.975	-74.917	0.039	0.014
-382.960	6.494	0.221	0.163
-381.946	33.535	0.115	-0.099
-380.931	-159.178	-0.415	-0.023
-379.917	-200.000	0.039	0.612
-378.902	-143.566	0.231	0.022
-377.888	302.414	-0.088	0.161
-376.873	-88.205	0.167	0.049
-375.858	675.909	0.044	0.113
-374.844	-106.143	-0.144	-0.032
-373.829	463.248	0.101	0.222
-372.815	-14.878	-0.143	0.091
-371.800	189.757	0.144	-0.213
-370.785	-200.000	0.011	0.240
-369.771	-33.348	0.124	-0.068
-368.756	-200.000	0.060	-0.305
-367.742	51.630	0.188	0.176
-366.727	272.012	0.082	0.143
-365.712	800.000	-0.048	-0.172
-364.698	17.923	-0.191	-0.151
-363.683	-62.880	-0.063	-0.026
-362.669	45.982	-0.365	0.334
-361.654	800.000	0.016	0.058
-360.639	138.380	-0.142	0.183
-359.625	-200.000	-0.002	0.212
-358.610	95.543	0.139	0.157
-357.596	88.670	0.140	-0.154
-356.581	-40.346	0.319	0.164
-355.566	92.765	0.374	-0.417
-354.552	800.000	-0.102	0.350
-353.537	-23.394	0.111	-0.066
-352.523	173.721	0.149	-0.213
-351.508	-200.000	-0.005	-0.139
-350.493	800.000	-0.053	0.157
-349.479	-27.471	-0.205	0.118
-348.464	18.768	0.075	0.060
-347.450	265.605	0.038	0.065
-346.435	705.507	0.058	0.150
-345.420	-35.077	0.099	-0.053
-344.406	800.000	0.176	0.551
-343.391	31.256	0.275	-0.233
-342.377	-200.000	-0.039	-0.338
-341.362	7.782	0.068	-0.050
-340.348	513.038	0.048	0.110
-339.333	136.278	0.134	0.173
-338.318	453.538	0.054	-0.118
-337.304	-23.883	-0.039	0.023
-336.289	122.331	0.095	-0.118
-335.275	-200.000	-0.011	0.236
-334.260	48.529	-0.221	-0.205
-333.245	800.000	0.038	0.137
-332.231	800.000	0.077	-0.318
-331.216	237.411	0.169	0.276
-330.202	800.000	0.071	0.242
-329.187	-200.000	-0.010	-0.411
-328.172	-137.298	-0.164	0.018
-327.158	115.060	-0.279	0.336
-326.143	420.309	-0.158	-0.333
-325.129	-3.142	0.056	-0.039
-324.114	-105.841	-0.201	-0.045
-323.099	-200.000	0.006	0.327
-322.085	800.000	-0.025	-0.100
-321.070	60.885	-0.126	-0.124
-320.056	444.321	-0.063	0.135
-319.041	-81.235	0.362	-0.118
-318.026	-200.000	-0.043	0.230
-317.012	-94.476	0.348	0.093
-315.997	21.185	-0.191	0.153
-314.983	303.563	-0.116	-0.211
-313.968	570.984	-0.118	-0.283
-312.953	99.254	-0.093	0.106
-311.939	-200.000	-0.010	-0.223
-310.924	542.141	0.088	0.207
-309.910	57.815	0.210	-0.203
-308.895	641.095	0.108	0.271
-307.880	-200.000	-0.058	-0.531
-306.866	-105.177	0.124	0.028
-305.851	-56.872	0.440	-0.192
-304.837	-28.467	0.089	-0.051
-303.822	-81.189	0.122	-0.040
-302.807	-30.558	-0.287	0.160
-301.793	-200.000	0.057	0.343
-300.778	224.560	0.030	0.048
-299.764	-14.215	-0.110	-0.070
-298.749	65.660	0.121	0.120
-297.735	480.305	-0.070	-0.157
-296.720	37.383	-0.317	-0.277
-295.705	-48.618	0.388	0.184
-294.691	17.736	0.126	0.098
-293.676	-99.339	-0.164	-0.041
-292.662	-119.427	0.135	0.023
-291.647	-200.000	-0.044	0.221
-290.632	1.182	-0.303	0.214
-289.618	-117.716	0.187	-0.033
-288.603	97.006	-0.328	0.370
-287.589	-6.567	0.111	0.075
-286.574	100.194	-0.122	0.139
-285.559	-46.270	-0.133	-0.064
-284.545	422.590	0.094	0.198
-283.530	-0.049	0.226	-0.159
-282.516	3.773	-0.176	-0.127
-281.501	-75.150	-0.211	-0.074
-280.486	-200.000	-0.017	0.255
-279.472	-200.000	-0.001	0.075
-278.457	130.245	-0.155	0.196
-277.443	-127.406	0.479	0.069
-276.428	574.483	0.116	0.278
-275.413	348.858	-0.126	-0.245
-274.399	-200.000	0.015	0.137
-273.384	-82.645	0.208	-0.066
-272.370	800.000	-0.014	-0.044
-271.355	366.458	0.104	0.207
-270.340	-63.149	0.104	-0.042
-269.326	-101.834	-0.287	0.068
-268.311	151.825	0.080	0.107
-267.297	-133.709	0.203	-0.025
-266.282	38.290	0.131	-0.114
-265.267	-152.075	-0.387	0.028
-264.253	-109.478	0.320	0.066
-263.238	-55.509	0.182	-0.080
-262.224	-143.084	-0.138	0.013
-261.209	-200.000	0.073	-0.380
-260.195	-21.636	-0.226	0.136
-259.180	-162.894	-0.411	0.020
-258.165	373.252	0.079	-0.159
-257.151	331.573	0.039	0.075
-256.136	166.480	0.147	0.206
-255.122	171.329	-0.116	0.164
-254.107	346.539	-0.058	0.112
-253.092	139.188	0.192	0.249
-252.078	-65.559	0.129	-0.051
-251.063	-42.338	-0.254	-0.128
-250.049	334.722	0.107	0.204
-249.034	-102.173	-0.326	-0.077
-248.019	697.212	0.152	-0.392
-247.005	220.541	0.093	0.146
-245.990	-29.063	0.215	-0.121
-244.976	144.596	-0.056	0.074
-243.961	65.915	-0.173	0.172
-242.946	-101.372	0.142	0.034
-241.932	82.508	0.151	-0.161
-240.917	-121.489	0.110	0.018
-239.903	0.914	-0.205	0.144
-238.888	274.562	-0.190	0.330
-237.873	126.545	0.119	0.148
-236.859	64.052	-0.166	-0.164
-235.844	-20.695	0.184	0.111
-234.830	-21.944	0.305	0.182
-233.815	145.078	-0.121	0.159
-232.800	-95.143	0.171	0.045
-231.786	38.689	0.053	0.046
-230.771	-200.000	-0.028	-0.325
-229.757	-13.265	0.068	0.044
-228.742	59.574	-0.243	-0.235
-227.727	6.320	0.360	-0.262
-226.713	-200.000	0.103	-0.577
-225.698	-12.371	-0.229	-0.147
-224.684	691.796	-0.094	0.242
-223.669	-97.944	-0.414	-0.105
-222.655	-134.984	-0.045	-0.005
-221.640	150.854	0.090	-0.121
-220.625	153.653	0.125	-0.168
-219.611	800.000	0.117	0.323
-218.596	800.000	-0.100	0.367
-217.582	-135.868	-0.160	-0.018
-216.567	-93.063	-0.092	-0.025
-215.552	12.674	0.034	-0.026
-214.538	800.000	-0.057	0.196
-213.523	-200.000	-0.003	0.205
-212.509	-96.286	-0.336	0.088
-211.494	-8.412	-0.188	0.124
-210.479	-40.057	0.162	0.083
-209.465	-30.529	0.132	-0.074
-208.450	-200.000	-0.014	0.131
-207.436	-200.000	-0.005	0.205
-206.421	-114.602	-0.228	-0.043
-205.406	311.578	0.101	-0.185
-204.392	327.559	-0.169	0.318
-203.377	-200.000	-0.053	-0.266
-202.363	-161.254	0.301	0.015
-201.348	394.504	0.083	-0.169
-200.333	-154.778	0.196	-0.013
-199.319	84.247	0.088	-0.095
-198.304	-40.056	0.270	-0.138
-197.290	109.545	-0.185	0.218
-196.275	-168.543	-0.248	-0.009
-195.260	-94.281	0.225	0.060
-194.246	-60.814	-0.262	0.109
-193.231	442.937	-0.069	-0.148
-192.217	800.000	-0.036	-0.132
-191.202	-26.792	0.247	-0.142
-190.187	-200.000	0.029	-0.254
-189.173	-46.270	0.298	-0.144
-188.158	-200.000	-0.036	-0.167
-187.144	-153.630	-0.434	-0.029
-186.129	-114.577	-0.349	-0.066
-185.114	312.502	0.132	0.244
-184.100	-200.000	0.025	-0.121
-183.085	-79.182	-0.236	0.079
-182.071	-148.527	0.268	-0.021
-181.056	-69.712	-0.319	0.119
-180.042	-190.734	0.162	0.002
-179.027	-200.000	0.029	0.218
-178.012	235.539	0.067	0.108
-176.998	157.963	0.163	0.222
-175.983	121.910	-0.122	0.149
-174.969	-96.485	0.434	0.112
-173.954	241.764	-0.102	-0.168
-172.939	397.780	-0.072	-0.148
-171.925	96.005	-0.280	-0.313
-170.910	-200.000	-0.024	0.188
-169.896	-7.860	0.340	0.225
-168.881	-14.328	0.200	-0.126
-167.866	13.682	-0.292	-0.223
-166.852	-15.933	0.066	-0.041
-165.837	226.911	0.200	0.318
-164.823	-167.487	-0.184	-0.007
-163.808	-172.885	0.101	-0.003
-162.793	-200.000	0.055	0.333
-161.779	-62.023	-0.100	0.041
-160.764	-132.311	0.051	-0.006
-159.750	77.674	0.049	0.052
-158.735	101.740	0.072	0.083
-157.720	-82.573	-0.082	0.026
-156.706	282.645	-0.110	0.194
-155.691	-200.000	-0.014	-0.106
-154.677	-64.707	0.108	0.043
-153.662	-200.000	-0.042	0.301
-152.647	-154.403	-0.380	-0.025
-151.633	800.000	-0.023	0.082
-150.618	-5.754	-0.184	-0.124
-149.604	-82.172	-0.220	0.070
-148.589	130.333	0.176	0.220
-147.574	-180.829	0.348	-0.007
-146.560	-130.505	-0.199	0.026
-145.545	-50.859	0.187	-0.086
-144.531	-23.105	-0.104	-0.061
-143.516	117.154	-0.042	-0.050
-142.502	226.764	0.041	-0.065
-141.487	244.138	0.096	-0.157
-140.472	-200.000	-0.006	0.199
-139.458	51.838	-0.364	0.340
-138.443	124.477	-0.220	-0.271
-137.429	48.179	-0.088	-0.080
-136.414	800.000	-0.016	-0.056
-135.399	249.027	-0.050	-0.083
-134.385	19.772	0.153	-0.121
-133.370	-64.809	0.174	-0.069
-132.356	-3.038	-0.163	0.112
-131.341	650.995	0.082	-0.206
-130.326	-35.706	0.024	-0.013
-129.312	460.801	-0.161	-0.352
-128.297	-109.394	0.205	0.043
-127.283	-59.949	-0.307	-0.129
-126.268	800.000	-0.026	-0.072
-125.253	800.000	-0.083	0.271
-124.239	403.526	-0.031	-0.065
-123.224	245.013	0.083	0.136
-122.210	-89.480	-0.284	-0.082
-121.195	171.206	-0.138	0.193
