DTS Sentinel unit serial number:	SN413079Multiplexer serial number:	ORYXHardware model number:	OX4-SRSoftware version number:	ORYX F/W v4.00 Oryx Data Collector v3.7.2.0data status	okinstallation	princeton_trtdifferential loss correction	single-endedforward channel	channel 1reverse channel	N/Adate	2019/09/15time	13:26:35forward acquisition time	60.00reverse acquisition time	0.00gamma	496.2192k internal	0.2293k external	0.2293temperature offset calibration	0.9976default loss term (dB/km)	0.3790temperature slope calibration	1.0000multiplexer offset coefficient	1.0000multiplexer slope coefficient	1.0000fibre end	0.00T internal ref (°C)	37.44T ext. ref 1 (°C)	4.90T ext. ref 2 (°C)	34.43length (m)	temperature (°C)	Stokes	anti-Stokes-747.200	429.446	-0.078	0.172
-746.185	-25.671	-0.033	-0.020
-745.171	-105.570	0.464	-0.108
-744.156	-131.537	0.321	0.043
-743.142	-200.000	0.066	0.343
-742.127	-168.595	0.098	0.004
-741.112	-159.524	0.231	-0.013
-740.098	370.129	-0.048	0.099
-739.083	-181.439	0.248	-0.005
-738.069	-200.000	-0.055	0.253
-737.054	-200.000	-0.004	-0.019
-736.039	621.210	-0.104	-0.267
-735.025	-112.696	0.130	0.026
-734.010	62.309	-0.193	-0.197
-732.996	-56.641	0.157	-0.071
-731.981	110.806	0.036	-0.045
-730.966	800.000	0.081	-0.230
-729.952	-200.000	-0.022	-0.134
-728.937	-151.095	-0.128	0.010
-727.923	800.000	-0.112	-0.386
-726.908	343.470	0.050	-0.100
-725.894	800.000	0.049	0.196
-724.879	-67.215	0.306	0.123
-723.864	225.257	-0.059	-0.098
-722.850	231.974	-0.069	0.116
-721.835	-200.000	-0.023	-0.485
-720.821	-122.775	-0.203	-0.033
-719.806	-200.000	-0.014	0.163
-718.791	53.712	0.395	-0.388
-717.777	-200.000	-0.033	0.227
-716.762	127.712	0.055	0.071
-715.748	-12.161	0.215	0.144
-714.733	800.000	-0.101	-0.331
-713.718	-89.596	-0.282	-0.085
-712.704	460.800	0.082	0.187
-711.689	-125.864	-0.189	-0.029
-710.675	-116.298	-0.170	-0.032
-709.660	480.849	-0.032	-0.073
-708.645	179.110	0.065	-0.097
-707.631	-200.000	-0.005	-0.254
-706.616	-200.000	-0.023	-0.156
-705.602	-161.514	0.286	-0.015
-704.587	-65.377	0.265	-0.109
-703.572	35.629	-0.126	-0.113
-702.558	478.497	0.120	-0.277
-701.543	-92.257	-0.209	-0.060
-700.529	207.870	0.077	-0.123
-699.514	-77.420	-0.147	-0.052
-698.499	-200.000	0.013	0.396
-697.485	800.000	0.049	-0.142
-696.470	-87.691	0.081	-0.025
-695.456	74.509	0.070	-0.075
-694.441	-113.729	0.358	-0.071
-693.426	-200.000	0.023	-0.140
-692.412	350.323	-0.057	0.115
-691.397	-44.114	-0.066	-0.034
-690.383	-82.034	-0.279	-0.093
-689.368	-200.000	0.064	-0.501
-688.354	-90.351	0.216	-0.064
-687.339	116.936	-0.101	-0.127
-686.324	-200.000	-0.009	-0.087
-685.310	43.816	-0.144	0.135
-684.295	-200.000	0.017	-0.324
-683.281	7.600	0.195	0.149
-682.266	650.793	-0.144	-0.376
-681.251	10.224	-0.169	0.132
-680.237	12.091	0.375	-0.294
-679.222	800.000	-0.029	-0.086
-678.208	-200.000	-0.002	0.098
-677.193	-53.392	0.180	0.084
-676.178	-200.000	0.004	0.091
-675.164	-200.000	-0.009	-0.131
-674.149	-73.195	0.173	-0.065
-673.135	284.549	-0.060	-0.110
-672.120	57.406	-0.066	-0.066
-671.105	27.514	0.172	0.148
-670.091	-39.629	-0.223	0.119
-669.076	92.353	0.100	0.115
-668.062	142.324	0.121	0.164
-667.047	800.000	-0.052	-0.161
-666.032	-200.000	0.032	-0.328
-665.018	800.000	-0.010	-0.037
-664.003	196.217	0.269	0.418
-662.989	514.902	-0.073	-0.173
-661.974	-196.692	-0.230	-0.002
-660.959	76.273	0.078	0.085
-659.945	190.089	-0.098	-0.150
-658.930	-93.305	-0.434	0.123
-657.916	91.800	0.119	0.137
-656.901	43.088	-0.015	-0.014
-655.886	417.269	-0.076	0.166
-654.872	800.000	-0.092	0.268
-653.857	493.863	-0.199	0.466
-652.843	-164.343	-0.185	-0.009
-651.828	-200.000	0.008	-0.071
-650.814	169.034	0.091	0.132
-649.799	275.330	-0.212	0.384
-648.784	67.550	0.115	-0.120
-647.770	-71.745	0.110	-0.042
-646.755	-200.000	0.186	0.000
-645.741	-68.667	-0.248	-0.098
-644.726	800.000	-0.105	-0.299
-643.711	-29.300	-0.198	0.116
-642.697	-95.663	0.506	0.138
-641.682	-73.350	-0.669	0.249
-640.668	785.699	-0.052	-0.147
-639.653	-97.298	-0.154	0.041
-638.638	-200.000	0.020	0.183
-637.624	800.000	-0.028	-0.102
-636.609	90.649	0.074	0.084
-635.595	800.000	-0.041	-0.137
-634.580	237.160	-0.140	0.236
-633.565	800.000	0.058	0.176
-632.551	-57.839	-0.175	-0.078
-631.536	645.782	-0.087	-0.226
-630.522	177.178	-0.066	0.097
-629.507	-200.000	0.037	-0.195
-628.492	337.285	-0.106	0.210
-627.478	127.434	0.216	-0.280
-626.463	800.000	0.076	-0.255
-625.449	27.969	0.131	0.113
-624.434	-107.377	-0.110	-0.025
-623.419	-200.000	0.023	0.142
-622.405	30.454	-0.229	0.199
-621.390	-179.259	-0.240	0.005
-620.376	-198.777	0.363	0.002
-619.361	31.851	-0.096	0.084
-618.346	572.175	-0.130	-0.321
-617.332	-9.715	0.161	0.109
-616.317	-118.759	0.250	0.045
-615.303	-32.655	-0.170	0.097
-614.288	-200.000	0.007	-0.278
-613.273	-200.000	0.159	0.000
-612.259	-200.000	0.002	0.334
-611.244	163.889	-0.074	0.105
-610.230	-120.774	-0.170	-0.029
-609.215	193.748	0.132	-0.203
-608.201	-81.486	-0.340	0.114
-607.186	-91.609	-0.046	0.013
-606.171	800.000	0.091	-0.394
-605.157	-114.792	0.130	0.025
-604.142	74.110	-0.295	-0.315
-603.128	694.383	-0.052	0.139
-602.113	800.000	0.050	-0.150
-601.098	78.057	0.062	-0.068
-600.084	-78.742	0.344	-0.119
-599.069	125.094	-0.224	-0.287
-598.055	-200.000	0.036	0.256
-597.040	-111.529	-0.224	-0.046
-596.025	800.000	-0.058	-0.252
-595.011	800.000	0.086	-0.260
-593.996	276.184	-0.084	-0.151
-592.982	-82.226	0.174	0.058
-591.967	532.713	-0.109	0.263
-590.952	-70.233	-0.302	-0.116
-589.938	800.000	0.090	-0.373
-588.923	-94.744	0.240	0.066
-587.909	-93.121	0.192	0.054
-586.894	242.395	0.057	0.096
-585.879	-165.460	-0.150	0.007
-584.865	100.350	0.054	0.064
-583.850	800.000	-0.033	-0.144
-582.836	-0.542	-0.297	-0.214
-581.821	243.642	0.048	0.082
-580.806	249.429	-0.128	0.221
-579.792	-22.734	-0.340	-0.208
-578.777	69.312	-0.134	0.140
-577.763	-190.640	0.344	-0.004
-576.748	800.000	0.075	-0.253
-575.733	236.460	0.163	-0.275
-574.719	-200.000	-0.035	-0.424
-573.704	436.747	0.065	-0.145
-572.690	65.378	0.318	-0.326
-571.675	800.000	-0.007	0.025
-570.661	-75.668	-0.170	0.061
-569.646	-104.173	-0.354	0.084
-568.631	-155.456	-0.356	-0.023
-567.617	155.011	-0.307	0.429
-566.602	39.682	0.234	-0.213
-565.588	-87.752	0.281	-0.086
-564.573	-200.000	0.019	-0.129
-563.558	64.455	-0.050	-0.051
-562.544	237.888	0.129	-0.218
-561.529	-192.889	-0.304	0.003
-560.515	53.455	-0.101	0.098
-559.500	-200.000	-0.013	0.066
-558.485	-200.000	0.017	0.333
-557.471	367.052	0.100	0.205
-556.456	-70.159	-0.091	-0.035
-555.442	314.677	0.086	0.164
-554.427	800.000	-0.103	0.443
-553.412	-200.000	0.012	0.132
-552.398	-200.000	-0.027	-0.150
-551.383	-200.000	0.036	-0.239
-550.369	-149.037	0.101	0.008
-549.354	33.848	-0.212	0.187
-548.339	-95.407	-0.303	0.083
-547.325	21.972	0.236	-0.195
-546.310	105.606	0.207	-0.248
-545.296	114.710	0.153	-0.189
-544.281	-129.282	0.152	-0.021
-543.266	90.409	-0.064	0.073
-542.252	391.601	0.029	-0.061
-541.237	283.700	-0.121	-0.221
-540.223	-200.000	0.002	-0.189
-539.208	-182.004	-0.457	-0.009
-538.193	81.453	0.331	-0.364
-537.179	800.000	-0.165	-0.533
-536.164	-200.000	0.058	0.293
-535.150	156.386	0.167	0.234
-534.135	-200.000	0.049	0.498
-533.121	-200.000	0.013	0.213
-532.106	346.111	0.027	-0.054
-531.091	28.640	-0.067	0.057
-530.077	-151.303	-0.166	-0.013
-529.062	-80.961	-0.071	0.024
-528.048	251.496	-0.097	-0.167
-527.033	5.922	-0.090	0.067
-526.018	-37.285	0.286	-0.155
-525.004	-113.778	0.232	0.046
-523.989	0.989	-0.141	-0.102
-522.975	800.000	-0.079	-0.227
-521.960	-200.000	0.030	0.185
-520.945	-200.000	-0.026	0.495
-519.931	18.935	-0.264	0.214
-518.916	521.798	-0.117	-0.279
-517.902	-200.000	0.017	0.229
-516.887	-100.134	0.212	0.054
-515.872	67.654	-0.196	0.203
-514.858	-145.235	-0.089	-0.008
-513.843	771.116	0.116	-0.320
-512.829	122.883	-0.146	-0.186
-511.814	-158.374	-0.173	0.010
-510.799	610.536	-0.121	0.306
-509.785	-26.582	-0.218	-0.129
-508.770	100.112	0.115	-0.135
-507.756	-66.431	0.178	-0.072
-506.741	97.113	-0.116	-0.135
-505.726	800.000	0.042	-0.142
-504.712	33.734	-0.327	0.289
-503.697	450.338	-0.065	-0.146
-502.683	251.254	-0.127	0.218
-501.668	110.946	0.153	-0.187
-500.653	661.095	-0.019	-0.049
-499.639	-41.924	-0.046	-0.024
-498.624	-68.341	0.258	0.101
-497.610	-200.000	-0.021	0.335
-496.595	-200.000	-0.003	-0.144
-495.581	90.122	0.078	-0.089
-494.566	800.000	0.060	0.214
-493.551	-28.576	0.209	0.122
-492.537	53.180	-0.137	0.133
-491.522	-119.763	-0.068	-0.012
-490.508	-182.143	0.030	0.001
-489.493	800.000	0.067	-0.199
-488.478	-182.611	-0.210	-0.004
-487.464	-200.000	0.029	-0.149
-486.449	-200.000	0.025	-0.122
-485.435	252.893	0.223	0.385
-484.420	-200.000	-0.022	0.216
-483.405	-60.820	-0.194	0.083
-482.391	-95.150	0.247	0.067
-481.376	539.246	0.173	0.418
-480.362	410.450	0.159	-0.341
-479.347	202.340	-0.222	-0.347
-478.332	-2.953	0.132	-0.093
-477.318	-59.299	0.120	-0.052
-476.303	-200.000	-0.021	0.154
-475.289	-28.121	-0.182	-0.107
-474.274	-76.561	0.107	0.038
-473.259	39.310	0.230	0.208
-472.245	-86.237	-0.241	0.075
-471.230	-89.908	-0.474	0.140
-470.216	-10.171	-0.149	-0.100
-469.201	-200.000	0.015	-0.171
-468.186	498.828	0.208	-0.485
-467.172	-37.700	0.239	-0.129
-466.157	424.592	-0.066	0.144
-465.143	-200.000	-0.011	0.274
-464.128	363.402	0.137	0.278
-463.113	506.164	-0.062	-0.145
-462.099	-39.779	-0.217	-0.115
-461.084	-96.969	-0.370	-0.098
-460.070	1.230	-0.283	-0.205
-459.055	4.330	-0.173	-0.128
-458.040	51.873	-0.169	-0.162
-457.026	-9.885	0.118	-0.079
-456.011	95.278	-0.161	-0.186
-454.997	634.969	0.109	0.281
-453.982	-200.000	-0.042	-0.311
-452.968	99.745	0.249	-0.291
-451.953	145.663	-0.256	-0.347
-450.938	57.109	-0.115	-0.114
-449.924	553.207	-0.083	-0.201
-448.909	-200.000	-0.000	-0.190
-447.895	62.397	0.094	0.095
-446.880	-141.466	-0.223	0.023
-445.865	-93.657	-0.222	-0.062
-444.851	-17.595	0.194	-0.123
-443.836	-200.000	-0.005	0.311
-442.822	593.742	-0.021	0.053
-441.807	293.719	0.245	-0.453
-440.792	323.277	-0.070	0.134
-439.778	-138.470	0.233	0.026
-438.763	-114.116	0.161	0.032
-437.749	-200.000	-0.022	0.136
-436.734	-142.834	0.191	0.019
-435.719	-125.152	-0.085	-0.013
-434.705	-39.810	-0.235	-0.124
-433.690	-16.635	-0.257	0.164
-432.676	-175.990	-0.219	0.006
-431.661	-77.932	0.357	0.125
-430.646	-150.716	0.377	0.029
-429.632	-158.676	-0.346	-0.020
-428.617	9.855	0.193	-0.148
-427.603	153.594	-0.106	-0.147
-426.588	-0.774	0.303	0.217
-425.573	-68.090	0.175	-0.069
-424.559	-146.810	0.250	0.022
-423.544	67.867	-0.263	0.272
-422.530	-200.000	-0.024	-0.159
-421.515	-10.157	-0.096	-0.064
-420.500	-146.822	-0.187	-0.016
-419.486	800.000	0.110	0.310
-418.471	381.965	0.079	-0.165
-417.457	-40.352	0.089	0.047
-416.442	38.947	0.297	0.268
-415.428	-200.000	0.035	0.299
-414.413	-55.181	-0.148	-0.067
-413.398	514.977	-0.194	-0.458
-412.384	408.494	-0.079	-0.170
-411.369	-31.089	0.349	0.199
-410.355	-15.339	0.084	0.054
-409.340	142.627	0.096	-0.128
-408.325	800.000	0.034	0.127
-407.311	149.315	0.165	0.225
-406.296	560.626	0.065	0.157
-405.282	5.684	-0.125	0.093
-404.267	-200.000	-0.024	0.186
-403.252	800.000	0.029	-0.089
-402.238	-144.207	-0.251	-0.024
-401.223	-88.622	-0.194	0.058
-400.209	800.000	-0.093	-0.285
-399.194	-200.000	0.005	-0.288
-398.179	-104.469	-0.252	-0.059
-397.165	800.000	-0.087	0.258
-396.150	163.665	0.228	-0.323
-395.136	105.819	0.234	0.279
-394.121	-173.065	0.184	-0.006
-393.106	-111.864	0.172	0.035
-392.092	-200.000	0.032	0.189
-391.077	-200.000	0.018	0.217
-390.063	-23.466	0.267	-0.162
-389.048	800.000	0.068	-0.208
-388.033	-100.704	0.225	-0.056
-387.019	330.430	-0.063	-0.123
-386.004	-84.683	0.130	0.041
-384.990	-124.496	0.128	-0.020
-383.975	-200.000	0.061	0.310
-382.960	-91.005	0.104	0.030
-381.946	92.725	-0.099	0.113
-380.931	-160.762	-0.330	0.018
-379.917	-58.841	-0.066	0.029
-378.902	-28.582	0.107	-0.062
-377.888	73.144	-0.324	0.341
-376.873	-133.421	0.146	0.019
-375.858	-69.630	0.332	0.128
-374.844	-200.000	0.056	-0.356
-373.829	-172.975	0.221	0.007
-372.815	-29.150	-0.261	0.151
-371.800	79.319	-0.195	0.211
-370.785	-200.000	-0.036	0.385
-369.771	274.503	0.069	-0.123
-368.756	721.319	-0.048	0.129
-367.742	-200.000	0.025	-0.355
-366.727	518.879	0.057	0.134
-365.712	-114.907	0.193	0.037
-364.698	483.816	0.062	-0.142
-363.683	-94.444	0.141	0.039
-362.669	218.220	0.042	0.067
-361.654	156.861	-0.061	-0.084
-360.639	146.872	-0.118	-0.160
-359.625	-96.666	-0.400	0.106
-358.610	-87.894	0.223	-0.068
-357.596	-75.431	0.269	0.096
-356.581	5.597	-0.283	-0.211
-355.566	800.000	0.090	0.289
-354.552	548.669	0.136	0.328
-353.537	745.450	-0.081	-0.218
-352.523	-1.433	0.397	-0.282
-351.508	-134.297	-0.240	0.030
-350.493	-127.387	-0.185	0.027
-349.479	-61.556	-0.360	0.152
-348.464	569.853	-0.064	0.156
-347.450	-91.903	0.171	0.049
-346.435	-20.090	0.140	0.087
-345.420	800.000	0.048	0.179
-344.406	-36.835	-0.138	0.075
-343.391	-81.995	-0.263	-0.087
-342.377	163.244	0.071	-0.101
-341.362	90.001	-0.130	-0.146
-340.348	-104.477	0.268	0.062
-339.333	24.667	-0.226	-0.188
-338.318	-20.342	-0.268	0.166
-337.304	456.111	0.073	0.163
-336.289	114.139	-0.160	-0.196
-335.275	-200.000	0.005	-0.046
-334.260	56.401	-0.181	-0.177
-333.245	-107.130	0.280	0.062
-332.231	97.299	0.035	0.040
-331.216	-135.322	-0.103	-0.012
-330.202	-6.287	0.228	-0.157
-329.187	112.490	-0.038	-0.047
-328.172	-200.000	-0.043	-0.362
-327.158	459.946	0.170	-0.381
-326.143	-200.000	-0.038	-0.202
-325.129	800.000	-0.009	-0.026
-324.114	-200.000	0.017	-0.147
-323.099	-164.606	0.190	0.009
-322.085	800.000	0.050	0.176
-321.070	82.236	0.180	0.197
-320.056	-200.000	-0.015	0.447
-319.041	137.612	-0.102	-0.134
-318.026	495.070	-0.063	0.146
-317.012	86.287	-0.081	-0.090
-315.997	773.490	0.053	-0.144
-314.983	1.619	0.143	-0.103
-313.968	36.952	0.212	-0.188
-312.953	138.610	0.200	0.265
-311.939	273.819	0.151	-0.269
-310.924	64.684	0.049	0.050
-309.910	800.000	0.103	0.327
-308.895	-130.351	-0.082	0.011
-307.880	128.953	-0.025	0.033
-306.866	-143.192	-0.232	0.022
-305.851	800.000	0.057	-0.247
-304.837	800.000	0.095	0.283
-303.822	-149.392	0.377	-0.030
-302.807	-200.000	0.053	0.341
-301.793	409.937	-0.053	-0.113
-300.778	35.634	-0.078	-0.069
-299.764	214.224	-0.054	0.086
-298.749	102.513	0.078	-0.091
-297.735	150.470	0.125	-0.170
-296.720	503.502	-0.048	0.113
-295.705	288.743	-0.276	0.503
-294.691	-122.492	0.277	0.045
-293.676	-9.535	-0.225	-0.151
-292.662	-142.780	0.331	0.032
-291.647	749.857	-0.130	0.353
-290.632	523.087	0.075	0.178
-289.618	258.702	0.065	-0.113
-288.603	2.838	-0.138	0.100
-287.589	8.366	-0.240	0.181
-286.574	800.000	-0.073	0.218
-285.559	39.969	-0.366	0.330
-284.545	-84.223	0.123	-0.039
-283.530	-200.000	-0.012	0.224
-282.516	279.613	-0.165	-0.296
-281.501	-200.000	0.010	-0.105
-280.486	622.155	-0.012	-0.031
-279.472	-98.182	-0.231	0.060
-278.457	139.209	-0.087	-0.115
-277.443	-47.025	0.139	0.068
-276.428	-54.243	0.172	-0.078
-275.413	-129.247	-0.180	0.025
-274.399	76.262	-0.057	-0.060
-273.384	74.680	0.219	-0.232
-272.370	59.648	0.083	0.082
-271.355	-200.000	-0.016	0.273
-270.340	-45.227	0.165	-0.082
-269.326	283.661	-0.129	-0.232
-268.311	58.179	0.104	-0.102
-267.297	221.932	0.061	-0.098
-266.282	735.639	-0.063	0.169
-265.267	701.914	0.066	0.175
-264.253	14.839	0.184	-0.145
-263.238	-143.488	-0.100	-0.010
-262.224	-35.810	0.169	0.092
-261.209	43.978	0.106	-0.098
-260.195	-88.112	0.057	-0.017
-259.180	56.714	0.225	0.220
-258.165	-200.000	-0.006	0.189
-257.151	800.000	-0.106	0.329
-256.136	-172.391	0.132	0.004
-255.122	-35.489	0.308	-0.168
-254.107	-54.525	-0.290	-0.132
-253.092	442.140	-0.071	0.156
-252.078	142.261	-0.069	0.091
-251.063	-115.103	0.267	0.051
-250.049	609.000	-0.027	-0.068
-249.034	-120.437	-0.384	0.065
-248.019	-11.086	-0.233	0.154
-247.005	800.000	-0.065	0.224
-245.990	800.000	0.072	0.245
-244.976	-200.000	0.014	0.115
-243.961	-200.000	-0.006	-0.224
-242.946	-34.087	-0.124	-0.068
-241.932	256.462	-0.108	0.187
-240.917	-19.503	0.308	-0.192
-239.903	-200.000	-0.015	0.198
-238.888	-200.000	0.018	-0.132
-237.873	-48.488	0.115	0.055
-236.859	-200.000	0.053	-0.240
-235.844	-131.292	0.365	0.048
-234.830	324.565	0.167	-0.320
-233.815	-44.400	0.122	-0.061
-232.800	-60.390	0.185	0.079
-231.786	-200.000	-0.003	-0.053
-230.771	331.960	-0.144	-0.279
-229.757	-200.000	0.071	-0.411
-228.742	168.626	0.072	-0.103
-227.727	-200.000	-0.009	0.122
-226.713	58.669	0.157	-0.155
-225.698	125.888	-0.119	-0.150
-224.684	-190.822	0.095	0.001
-223.669	-200.000	0.081	0.000
-222.655	800.000	-0.045	-0.140
-221.640	-150.995	-0.140	-0.011
-220.625	729.107	0.077	0.206
-219.611	-142.237	0.447	0.044
-218.596	143.515	0.034	0.045
-217.582	-135.502	-0.186	0.022
-216.567	-125.681	0.233	-0.035
-215.552	157.273	-0.177	0.245
-214.538	-148.838	0.281	-0.023
-213.523	2.323	0.304	-0.220
-212.509	-38.352	-0.020	-0.010
-211.494	312.910	-0.076	0.143
-210.479	-89.793	0.221	0.065
-209.465	95.236	-0.166	-0.190
-208.450	-99.160	-0.071	-0.018
-207.436	365.893	0.023	0.047
-206.421	419.914	0.086	0.184
-205.406	-144.738	-0.298	-0.027
-204.392	-105.986	-0.280	0.063
-203.377	-75.434	-0.098	-0.035
-202.363	103.402	0.152	-0.178
-201.348	61.162	-0.212	0.211
-200.333	-152.521	0.180	-0.013
-199.319	-144.874	0.117	0.011
-198.304	-200.000	0.299	-0.000
-197.290	-72.036	0.180	0.067
-196.275	-200.000	-0.011	-0.064
-195.260	-200.000	0.087	0.495
-194.246	800.000	-0.055	0.186
-193.231	50.888	-0.210	-0.199
-192.217	-200.000	-0.052	-0.707
-191.202	125.493	-0.084	-0.106
-190.187	-131.348	-0.020	-0.003
-189.173	-46.895	0.248	0.121
-188.158	-50.101	-0.232	-0.110
-187.144	-200.000	-0.033	0.303
-186.129	319.898	-0.134	-0.254
-185.114	-136.735	0.077	-0.009
-184.100	-200.000	-0.016	-0.253
-183.085	-200.000	0.005	-0.082
-182.071	104.902	0.271	0.320
-181.056	-121.437	-0.479	-0.080
-180.042	332.078	-0.047	0.091
-179.027	-35.703	0.153	0.083
-178.012	800.000	-0.077	0.281
-176.998	800.000	0.026	-0.099
-175.983	86.444	0.202	0.223
-174.969	-80.123	0.203	-0.068
-173.954	294.096	-0.305	0.557
-172.939	455.233	0.103	-0.228
-171.925	-174.117	0.080	0.002
-170.910	-143.521	0.167	-0.016
-169.896	211.105	-0.113	0.177
-168.881	413.705	-0.056	0.119
-167.866	-10.713	-0.346	0.229
-166.852	-94.529	-0.310	-0.084
-165.837	22.636	0.183	-0.150
-164.823	-77.043	-0.249	-0.087
-163.808	-42.430	-0.054	0.027
-162.793	97.760	-0.198	-0.227
-161.779	73.652	-0.104	0.109
-160.764	-200.000	-0.029	0.173
-159.750	274.866	0.070	-0.124
-158.735	-75.718	0.304	0.108
-157.720	-200.000	-0.004	0.038
-156.706	-32.124	-0.122	0.068
-155.691	275.990	0.192	0.340
-154.677	205.289	0.111	-0.173
-153.662	-176.888	0.289	-0.007
-152.647	1.971	-0.231	-0.167
-151.633	141.167	0.181	0.240
-150.618	-116.536	0.286	-0.053
-149.604	-200.000	-0.059	-0.278
-148.589	-159.315	0.311	0.017
-147.574	6.218	-0.088	0.065
-146.560	-61.461	-0.110	-0.046
-145.545	-51.936	-0.124	-0.057
-144.531	-200.000	0.016	0.187
-143.516	-105.472	-0.157	0.036
-142.502	-200.000	-0.048	-0.215
-141.487	-18.767	0.113	0.070
-140.472	246.699	0.037	-0.062
-139.458	-84.927	-0.207	-0.065
-138.443	16.993	-0.297	0.235
-137.429	-200.000	0.007	0.175
-136.414	-49.308	-0.049	0.023
-135.399	42.313	-0.213	-0.193
-134.385	-64.936	0.532	0.215
-133.370	-140.595	-0.147	0.015
-132.356	569.129	0.089	-0.217
-131.341	-200.000	0.019	-0.174
-130.326	16.974	-0.162	-0.128
-129.312	-139.549	0.213	0.023
-128.297	-163.081	-0.116	-0.006
-127.283	-109.036	0.225	0.048
-126.268	-12.980	0.380	0.247
-125.253	-169.478	0.072	0.003
-124.239	100.115	0.227	0.262
-123.224	-200.000	-0.001	-0.337
-122.210	-62.691	-0.222	-0.092
