DTS Sentinel unit serial number:	SN413079Multiplexer serial number:	ORYXHardware model number:	OX4-SRSoftware version number:	ORYX F/W v4.00 Oryx Data Collector v3.7.2.0data status	okinstallation	princeton_trtdifferential loss correction	single-endedforward channel	channel 1reverse channel	N/Adate	2019/09/19time	12:18:35forward acquisition time	60.00reverse acquisition time	0.00gamma	496.2192k internal	0.2334k external	0.2334temperature offset calibration	1.0014default loss term (dB/km)	0.3790temperature slope calibration	1.0000multiplexer offset coefficient	1.0000multiplexer slope coefficient	1.0000fibre end	0.00T internal ref (°C)	26.58T ext. ref 1 (°C)	0.86T ext. ref 2 (°C)	23.58length (m)	temperature (°C)	Stokes	anti-Stokes-747.200	-18.437	0.292	0.184
-746.185	800.000	0.135	0.444
-745.171	418.382	0.126	0.270
-744.156	-200.000	0.050	0.263
-743.142	251.988	0.183	0.313
-742.127	-200.000	0.035	0.340
-741.112	249.719	0.089	-0.152
-740.098	-106.118	0.054	-0.012
-739.083	-200.000	-0.033	-0.260
-738.069	238.134	-0.125	0.208
-737.054	-72.122	0.115	-0.043
-736.039	800.000	-0.037	-0.141
-735.025	-117.651	-0.132	0.024
-734.010	-148.354	-0.171	-0.014
-732.996	103.609	-0.239	0.281
-731.981	-73.548	0.267	0.098
-730.966	-83.948	-0.293	-0.094
-729.952	181.138	-0.224	-0.330
-728.937	298.985	-0.119	-0.220
-727.923	800.000	-0.075	-0.215
-726.908	163.843	0.137	-0.193
-725.894	800.000	-0.057	-0.183
-724.879	-86.465	0.123	-0.038
-723.864	194.326	-0.159	0.242
-722.850	34.570	-0.102	-0.090
-721.835	43.871	-0.027	0.025
-720.821	479.594	-0.043	-0.097
-719.806	356.163	-0.138	-0.276
-718.791	-98.336	0.188	-0.048
-717.777	437.415	-0.140	-0.307
-716.762	764.265	-0.122	-0.332
-715.748	107.706	0.141	-0.169
-714.733	-200.000	-0.006	-0.333
-713.718	-200.000	-0.014	0.247
-712.704	44.422	0.088	0.081
-711.689	718.743	-0.102	-0.272
-710.675	-47.686	-0.250	-0.122
-709.660	-200.000	0.020	0.093
-708.645	714.793	-0.123	-0.327
-707.631	-112.453	-0.248	-0.050
-706.616	68.923	-0.238	-0.245
-705.602	800.000	0.067	-0.207
-704.587	-84.506	-0.125	0.040
-703.572	-90.819	0.274	-0.079
-702.558	-146.635	-0.221	0.019
-701.543	800.000	0.032	0.138
-700.529	-153.204	0.238	0.017
-699.514	-136.137	-0.122	-0.014
-698.499	-91.946	-0.344	0.098
-697.485	38.835	-0.231	-0.207
-696.470	-56.210	-0.233	0.104
-695.456	70.865	-0.032	0.033
-694.441	271.918	0.123	0.218
-693.426	-63.844	0.289	0.119
-692.412	-200.000	0.019	-0.397
-691.397	-200.000	0.019	0.122
-690.383	-200.000	-0.013	0.188
-689.368	-55.441	-0.162	-0.073
-688.354	133.511	-0.037	0.047
-687.339	718.338	-0.077	0.204
-686.324	800.000	-0.111	-0.336
-685.310	-200.000	0.015	-0.118
-684.295	800.000	-0.178	-0.522
-683.281	188.736	0.098	0.147
-682.266	-44.216	-0.127	-0.064
-681.251	-9.997	0.059	0.039
-680.237	367.158	-0.093	0.188
-679.222	-111.809	0.052	-0.011
-678.208	-109.129	-0.325	-0.069
-677.193	-200.000	-0.004	0.163
-676.178	800.000	-0.048	0.179
-675.164	-85.808	0.251	-0.078
-674.149	-200.000	-0.047	-0.219
-673.135	-74.047	-0.201	0.073
-672.120	-200.000	0.011	-0.232
-671.105	43.730	0.140	0.128
-670.091	528.306	0.121	-0.286
-669.076	148.852	0.163	-0.220
-668.062	82.834	-0.208	-0.227
-667.047	800.000	0.085	0.252
-666.032	-85.944	-0.250	0.077
-665.018	-200.000	-0.112	-0.695
-664.003	196.598	-0.138	0.210
-662.989	-200.000	-0.030	-0.480
-661.974	110.983	-0.180	-0.217
-660.959	800.000	-0.077	-0.313
-659.945	210.107	0.060	-0.094
-658.930	800.000	-0.115	0.361
-657.916	-200.000	0.026	0.192
-656.901	-200.000	0.030	-0.240
-655.886	800.000	0.081	-0.291
-654.872	350.850	-0.169	-0.334
-653.857	78.901	-0.220	-0.235
-652.843	58.992	0.102	-0.101
-651.828	800.000	-0.118	0.439
-650.814	-104.189	0.264	-0.062
-649.799	-200.000	-0.008	-0.078
-648.784	-200.000	-0.005	0.305
-647.770	-87.692	0.130	0.039
-646.755	66.042	-0.088	0.089
-645.741	-37.700	-0.089	0.047
-644.726	-200.000	-0.046	-0.209
-643.711	-44.205	0.262	-0.131
-642.697	344.205	0.120	0.235
-641.682	-18.896	-0.200	0.124
-640.668	560.701	-0.091	0.220
-639.653	71.364	0.126	0.131
-638.638	-42.948	0.260	-0.132
-637.624	237.718	0.069	0.115
-636.609	-35.649	-0.370	-0.201
-635.595	583.674	-0.055	-0.134
-634.580	-18.580	-0.140	-0.087
-633.565	6.036	-0.129	0.096
-632.551	800.000	0.067	0.278
-631.536	150.853	-0.059	0.080
-630.522	83.303	-0.015	0.017
-629.507	213.969	0.096	0.151
-628.492	534.744	-0.041	0.097
-627.478	343.567	0.105	0.206
-626.463	-122.971	-0.055	-0.009
-625.449	-49.415	-0.043	0.021
-624.434	94.119	-0.016	0.018
-623.419	248.363	0.057	0.097
-622.405	340.885	0.062	0.122
-621.390	116.911	0.142	-0.175
-620.376	28.208	0.123	-0.104
-619.361	-56.606	0.033	-0.015
-618.346	-200.000	-0.047	-0.284
-617.332	-129.117	0.198	-0.028
-616.317	141.250	-0.051	-0.067
-615.303	306.411	-0.155	-0.289
-614.288	-2.425	0.307	-0.215
-613.273	-122.332	0.163	0.027
-612.259	-178.261	0.318	-0.007
-611.244	-97.898	0.043	-0.011
-610.230	136.095	0.073	-0.095
-609.215	800.000	-0.042	-0.171
-608.201	554.391	-0.115	-0.276
-607.186	-148.825	-0.338	0.027
-606.171	2.022	-0.260	-0.187
-605.157	-49.934	0.298	-0.141
-604.142	-66.401	-0.013	-0.005
-603.128	44.263	-0.378	0.347
-602.113	-32.388	-0.343	0.191
-601.098	41.564	0.119	0.108
-600.084	-200.000	-0.016	-0.093
-599.069	-11.230	-0.195	0.128
-598.055	-200.000	-0.011	0.362
-597.040	-147.761	-0.120	-0.010
-596.025	729.127	0.078	0.208
-595.011	223.451	-0.099	-0.160
-593.996	-200.000	-0.032	-0.148
-592.982	596.206	-0.044	0.109
-591.967	-80.647	-0.125	0.042
-590.952	-200.000	-0.028	-0.425
-589.938	-67.207	-0.410	0.161
-588.923	800.000	0.003	-0.008
-587.909	1.880	0.190	0.137
-586.894	-46.330	0.284	0.140
-585.879	427.987	-0.163	0.352
-584.865	-200.000	0.031	0.000
-583.850	-33.491	-0.052	0.028
-582.836	-41.856	-0.299	0.153
-581.821	-132.893	-0.044	0.006
-580.806	800.000	0.074	0.221
-579.792	-113.475	-0.235	-0.046
-578.777	-82.155	-0.255	0.083
-577.763	-147.672	-0.385	0.032
-576.748	94.423	-0.181	0.205
-575.733	800.000	-0.110	-0.436
-574.719	125.454	-0.140	-0.177
-573.704	49.191	0.164	-0.154
-572.690	83.567	-0.247	0.269
-571.675	31.837	0.026	0.023
-570.661	-77.981	-0.075	-0.026
-569.646	364.021	-0.102	0.205
-568.631	800.000	-0.031	-0.107
-567.617	173.114	0.068	-0.098
-566.602	-200.000	-0.002	-0.158
-565.588	652.407	0.113	-0.288
-564.573	10.670	-0.147	0.112
-563.558	-5.402	-0.172	0.118
-562.544	800.000	-0.155	0.438
-561.529	-36.279	-0.117	0.063
-560.515	-200.000	-0.001	-0.341
-559.500	-14.940	-0.303	0.194
-558.485	27.441	0.188	0.158
-557.471	-200.000	0.011	-0.061
-556.456	-200.000	-0.016	-0.173
-555.442	7.059	-0.292	0.218
-554.427	734.782	0.049	0.131
-553.412	800.000	-0.055	0.225
-552.398	-53.939	0.146	0.066
-551.383	351.010	0.079	-0.155
-550.369	-8.572	-0.182	0.122
-549.354	-189.355	0.212	0.002
-548.339	-119.740	0.302	0.052
-547.325	-146.081	-0.441	-0.039
-546.310	43.530	-0.284	-0.259
-545.296	-200.000	0.031	0.165
-544.281	-102.556	0.471	-0.112
-543.266	60.117	0.170	-0.167
-542.252	-200.000	-0.001	-0.241
-541.237	-200.000	0.002	-0.090
-540.223	9.814	0.109	0.083
-539.208	-171.333	-0.203	0.007
-538.193	-6.552	0.335	-0.227
-537.179	53.890	-0.184	-0.176
-536.164	-45.639	-0.081	0.040
-535.150	264.572	-0.099	-0.172
-534.135	-200.000	-0.067	-0.303
-533.121	-131.067	0.409	-0.054
-532.106	-200.000	0.013	0.057
-531.091	71.129	-0.058	-0.060
-530.077	-93.662	-0.137	-0.038
-529.062	225.494	-0.217	-0.350
-528.048	-64.436	0.295	0.119
-527.033	800.000	0.088	0.327
-526.018	800.000	0.097	0.385
-525.004	40.590	0.040	-0.036
-523.989	-106.002	0.086	0.019
-522.975	58.394	0.192	-0.188
-521.960	-68.537	-0.192	0.074
-520.945	-178.909	-0.199	-0.004
-519.931	-96.184	-0.090	-0.024
-518.916	-110.378	-0.267	0.055
-517.902	800.000	-0.063	-0.192
-516.887	-83.625	-0.324	-0.103
-515.872	296.430	0.200	-0.365
-514.858	-200.000	0.007	-0.163
-513.843	-82.903	-0.157	-0.050
-512.829	-44.040	0.174	0.087
-511.814	-200.000	0.001	0.117
-510.799	659.886	0.048	-0.124
-509.785	21.094	-0.356	0.288
-508.770	-122.911	-0.244	0.039
-507.756	56.453	-0.167	0.162
-506.741	-148.363	-0.210	0.017
-505.726	-134.364	-0.129	0.016
-504.712	-6.797	0.141	-0.095
-503.697	-117.136	0.214	-0.039
-502.683	98.089	0.127	-0.145
-501.668	-46.972	-0.348	0.169
-500.653	396.790	-0.126	-0.262
-499.639	-117.931	-0.228	0.041
-498.624	365.051	0.154	0.309
-497.610	-25.421	-0.254	-0.150
-496.595	409.052	0.046	0.097
-495.581	30.306	0.163	0.138
-494.566	-200.000	0.016	-0.083
-493.551	-200.000	-0.003	-0.093
-492.537	320.405	0.177	0.335
-491.522	-118.174	0.022	-0.004
-490.508	-64.579	0.109	-0.044
-489.493	50.508	-0.148	-0.139
-488.478	728.478	0.055	-0.145
-487.464	25.675	0.081	-0.067
-486.449	-19.404	0.304	0.187
-485.435	-16.152	0.194	0.123
-484.420	-128.198	-0.156	0.022
-483.405	-200.000	0.053	0.242
-482.391	195.782	0.183	-0.277
-481.376	-119.727	0.201	-0.035
-480.362	-9.054	-0.404	0.269
-479.347	507.128	-0.047	0.109
-478.332	207.428	0.011	-0.017
-477.318	800.000	0.028	0.114
-476.303	172.105	0.087	-0.124
-475.289	-60.180	0.344	0.146
-474.274	-200.000	-0.002	-0.071
-473.259	-186.794	-0.389	0.005
-472.245	230.766	0.119	-0.194
-471.230	-136.579	0.194	-0.022
-470.216	-48.474	0.115	-0.055
-469.201	222.805	-0.173	-0.277
-468.186	-200.000	-0.039	-0.306
-467.172	-200.000	0.007	-0.170
-466.157	259.906	0.190	0.327
-465.143	10.011	0.206	-0.156
-464.128	-75.660	0.277	0.098
-463.113	27.229	-0.200	-0.167
-462.099	-68.923	0.385	0.148
-461.084	155.686	-0.025	-0.035
-460.070	-200.000	-0.033	0.219
-459.055	-29.973	-0.273	0.155
-458.040	40.190	0.289	-0.259
-457.026	-0.570	-0.093	-0.065
-456.011	-94.992	-0.307	-0.083
-454.997	-77.605	0.387	-0.133
-453.982	127.525	-0.124	-0.156
-452.968	92.580	-0.237	0.266
-451.953	309.283	0.129	0.240
-450.938	-128.481	-0.062	-0.009
-449.924	-200.000	0.041	0.185
-448.909	-53.740	0.108	-0.049
-447.895	-129.338	0.240	0.033
-446.880	62.255	-0.066	0.066
-445.865	-36.229	0.312	-0.167
-444.851	800.000	0.070	-0.196
-443.836	-200.000	0.001	0.204
-442.822	263.606	-0.094	0.162
-441.807	-200.000	-0.013	0.114
-440.792	-14.289	-0.211	0.135
-439.778	-28.359	-0.155	0.089
-438.763	-174.934	0.200	-0.006
-437.749	800.000	0.023	-0.092
-436.734	8.139	0.043	0.032
-435.719	38.413	-0.151	-0.133
-434.705	-26.343	-0.210	-0.122
-433.690	-200.000	-0.022	0.150
-432.676	-200.000	-0.024	0.272
-431.661	-200.000	0.013	0.119
-430.646	-200.000	-0.017	-0.108
-429.632	446.827	-0.043	-0.095
-428.617	173.215	-0.042	-0.060
-427.603	152.678	0.077	0.104
-426.588	-110.826	-0.058	0.012
-425.573	-144.023	0.218	0.020
-424.559	800.000	0.135	-0.380
-423.544	-71.256	-0.455	0.169
-422.530	800.000	0.025	0.108
-421.515	75.795	-0.232	0.243
-420.500	-51.953	0.316	0.146
-419.486	195.313	0.105	-0.159
-418.471	-45.209	0.281	-0.138
-417.457	548.019	-0.095	0.226
-416.442	300.399	-0.079	-0.144
-415.428	-71.722	0.070	-0.026
-414.413	-154.785	-0.051	-0.003
-413.398	-180.077	0.160	0.003
-412.384	-126.797	0.173	-0.025
-411.369	49.964	-0.116	-0.108
-410.355	227.698	0.047	0.076
-409.340	-200.000	0.004	-0.145
-408.325	-200.000	-0.056	0.248
-407.311	-95.354	-0.196	-0.052
-406.296	-189.135	0.383	-0.005
-405.282	-25.372	-0.380	0.223
-404.267	-137.117	0.066	0.007
-403.252	115.873	-0.135	0.164
-402.238	-182.328	0.206	-0.004
-401.223	-62.298	0.408	-0.169
-400.209	693.625	0.137	-0.357
-399.194	-122.173	0.022	-0.004
-398.179	-120.097	0.140	-0.024
-397.165	103.126	0.293	0.340
-396.150	-92.340	0.087	-0.024
-395.136	38.693	-0.130	-0.115
-394.121	21.563	0.328	-0.265
-393.106	66.512	-0.190	-0.192
-392.092	-200.000	-0.015	-0.272
-391.077	117.962	-0.106	0.129
-390.063	-200.000	-0.025	-0.202
-389.048	800.000	-0.048	0.145
-388.033	-0.384	0.095	-0.067
-387.019	-10.163	-0.153	0.101
-386.004	19.599	-0.111	-0.089
-384.990	800.000	-0.101	0.360
-383.975	154.852	0.090	-0.122
-382.960	10.258	0.110	-0.083
-381.946	126.355	0.047	-0.059
-380.931	46.868	0.103	0.095
-379.917	-86.510	0.207	0.063
-378.902	-115.794	0.258	-0.048
-377.888	67.478	0.286	-0.289
-376.873	152.517	-0.138	0.187
-375.858	-200.000	-0.008	-0.125
-374.844	800.000	-0.136	0.407
-373.829	317.895	-0.374	0.701
-372.815	353.649	-0.194	0.382
-371.800	-2.115	-0.157	0.109
-370.785	8.682	0.172	0.129
-369.771	800.000	-0.094	0.350
-368.756	641.841	0.065	0.165
-367.742	800.000	-0.049	0.197
-366.727	-89.082	0.163	0.048
-365.712	98.861	-0.148	-0.169
-364.698	800.000	-0.009	-0.035
-363.683	800.000	0.036	0.149
-362.669	418.739	0.182	-0.385
-361.654	18.342	0.095	-0.075
-360.639	61.424	0.089	-0.087
-359.625	800.000	-0.043	0.137
-358.610	-86.573	0.177	0.054
-357.596	222.475	0.100	0.160
-356.581	-200.000	0.023	-0.198
-355.566	101.927	0.053	-0.061
-354.552	-72.281	0.122	-0.045
-353.537	231.711	0.022	-0.036
-352.523	544.050	0.044	-0.104
-351.508	-200.000	0.013	0.140
-350.493	-32.812	-0.279	0.153
-349.479	-18.561	0.153	-0.094
-348.464	-41.742	0.223	0.113
-347.450	-90.228	-0.113	0.032
-346.435	100.832	0.237	0.273
-345.420	217.210	-0.186	-0.293
-344.406	25.190	0.285	0.234
-343.391	800.000	0.097	-0.313
-342.377	-101.110	-0.058	-0.014
-341.362	-150.321	-0.188	0.014
-340.348	-200.000	-0.001	-0.058
-339.333	-49.423	0.133	-0.063
-338.318	-45.137	0.127	-0.062
-337.304	25.475	-0.079	0.065
-336.289	-62.814	0.088	-0.036
-335.275	-111.600	0.284	-0.057
-334.260	-200.000	-0.039	0.201
-333.245	-193.554	-0.078	0.001
-332.231	152.487	-0.155	-0.209
-331.216	183.760	-0.014	-0.020
-330.202	-72.016	-0.305	0.112
-329.187	-176.543	-0.149	-0.004
-328.172	37.493	-0.218	0.191
-327.158	69.373	0.185	-0.189
-326.143	173.590	-0.198	0.282
-325.129	-0.221	-0.364	-0.256
-324.114	-1.459	-0.469	-0.327
-323.099	-14.269	0.324	0.207
-322.085	-5.134	0.239	-0.162
-321.070	-102.136	0.118	-0.028
-320.056	-71.267	-0.104	-0.038
-319.041	800.000	-0.086	0.353
-318.026	624.066	-0.019	0.047
-317.012	-10.062	0.120	0.079
-315.997	32.941	-0.200	-0.171
-314.983	-88.153	-0.205	0.061
-313.968	291.330	-0.122	-0.219
-312.953	-200.000	0.059	-0.364
-311.939	28.269	0.399	-0.333
-310.924	-121.248	-0.167	0.028
-309.910	215.338	-0.211	-0.331
-308.895	-49.255	-0.254	-0.120
-307.880	241.873	-0.139	-0.229
-306.866	800.000	-0.035	-0.100
-305.851	-25.503	-0.050	-0.029
-304.837	41.400	-0.162	-0.145
-303.822	-47.736	0.124	0.059
-302.807	-133.364	-0.077	0.010
-301.793	-200.000	-0.024	-0.118
-300.778	246.407	-0.214	0.357
-299.764	130.861	-0.303	0.384
-298.749	-47.528	0.187	0.090
-297.735	-159.908	0.272	-0.015
-296.720	-7.208	-0.228	0.153
-295.705	-163.994	0.413	0.019
-294.691	-67.531	-0.376	0.146
-293.676	-200.000	0.047	-0.273
-292.662	800.000	0.060	-0.171
-291.647	-40.472	0.225	0.116
-290.632	-200.000	0.002	-0.087
-289.618	-129.640	0.385	-0.052
-288.603	-56.094	-0.215	0.094
-287.589	-101.920	-0.144	0.034
-286.574	60.056	0.251	0.244
-285.559	192.077	-0.108	0.161
-284.545	8.377	0.113	-0.084
-283.530	800.000	0.070	0.198
-282.516	-200.000	0.010	0.275
-281.501	-200.000	-0.030	0.131
-280.486	-47.448	-0.181	-0.087
-279.472	-22.134	0.122	-0.073
-278.457	410.414	-0.069	-0.145
-277.443	49.989	0.177	-0.165
-276.428	228.856	-0.208	-0.335
-275.413	-59.293	-0.227	-0.096
-274.399	-200.000	0.022	0.272
-273.384	523.805	0.091	0.211
-272.370	-200.000	-0.022	0.142
-271.355	-81.070	0.092	-0.030
-270.340	-28.460	-0.233	0.133
-269.326	-165.333	0.179	-0.008
-268.311	-58.246	0.116	-0.050
-267.297	238.357	-0.130	-0.213
-266.282	800.000	0.048	-0.157
-265.267	9.748	-0.132	0.099
-264.253	-200.000	0.001	0.096
-263.238	800.000	0.110	-0.368
-262.224	516.262	-0.080	-0.185
-261.209	-74.094	0.177	0.063
-260.195	-200.000	0.020	-0.254
-259.180	87.193	0.157	-0.172
-258.165	-105.262	0.192	0.043
-257.151	-124.767	0.208	0.032
-256.136	-50.924	-0.156	-0.072
-255.122	262.828	0.079	0.135
-254.107	2.907	0.064	0.046
-253.092	165.504	0.174	-0.243
-252.078	-146.924	0.201	-0.017
-251.063	-83.861	0.196	-0.062
-250.049	-141.353	0.198	-0.020
-249.034	165.799	-0.119	0.165
-248.019	30.067	0.047	-0.039
-247.005	572.851	-0.072	0.172
-245.990	365.908	0.110	0.218
-244.976	90.471	-0.150	0.166
-243.961	143.154	0.186	0.243
-242.946	-177.085	0.104	-0.003
-241.932	652.058	-0.092	-0.233
-240.917	-200.000	0.005	-0.223
-239.903	5.033	-0.337	-0.244
-238.888	-90.824	-0.512	0.145
-237.873	122.995	0.268	-0.331
-236.859	-200.000	0.027	-0.204
-235.844	-65.835	-0.083	0.033
-234.830	15.610	-0.112	-0.087
-233.815	-200.000	0.011	0.200
-232.800	12.661	0.319	-0.243
-231.786	42.422	-0.211	0.189
-230.771	8.835	0.174	0.129
-229.757	-169.501	-0.216	0.008
-228.742	43.892	-0.060	0.054
-227.727	-128.196	0.281	0.040
-226.713	20.010	-0.197	0.156
-225.698	-33.968	-0.065	-0.035
-224.684	-187.602	-0.242	-0.003
-223.669	800.000	-0.045	0.191
-222.655	-24.861	0.094	0.055
-221.640	70.411	-0.076	0.078
-220.625	-152.408	0.126	-0.009
-219.611	490.946	0.083	0.186
-218.596	-31.592	0.096	0.053
-217.582	18.353	0.205	-0.161
-216.567	-41.807	0.041	0.021
-215.552	34.693	0.226	0.194
-214.538	-178.115	-0.075	0.002
-213.523	476.716	-0.068	-0.152
-212.509	101.245	-0.058	-0.066
-211.494	-41.773	-0.141	0.071
-210.479	-143.931	0.417	-0.039
-209.465	164.520	-0.212	-0.294
-208.450	-19.024	0.144	0.088
-207.436	57.371	0.148	-0.143
-206.421	19.655	0.205	-0.162
-205.406	-119.833	0.113	-0.019
-204.392	111.190	0.153	-0.181
-203.377	-200.000	0.059	0.538
-202.363	-38.411	-0.162	0.084
-201.348	-116.524	-0.050	-0.009
-200.333	800.000	-0.062	0.221
-199.319	145.743	-0.162	-0.213
-198.304	-151.915	0.327	-0.023
-197.290	597.328	-0.042	-0.103
-196.275	443.307	-0.025	-0.055
-195.260	235.284	-0.070	0.114
-194.246	191.653	-0.109	0.161
-193.231	-200.000	0.054	0.312
-192.217	309.267	0.039	-0.071
-191.202	-32.354	0.160	-0.088
-190.187	147.268	0.255	-0.337
-189.173	800.000	-0.084	-0.235
-188.158	800.000	0.014	-0.048
-187.144	38.538	-0.044	0.039
-186.129	-57.267	-0.232	0.100
-185.114	-138.578	0.400	0.043
-184.100	226.167	-0.102	0.163
-183.085	-78.067	0.446	0.151
-182.071	382.075	-0.052	0.105
-181.056	800.000	-0.060	-0.192
-180.042	342.317	0.064	-0.123
-179.027	-51.099	-0.213	-0.098
-178.012	34.963	-0.107	0.092
-176.998	92.298	0.242	0.268
-175.983	-116.953	-0.233	-0.042
-174.969	800.000	0.081	0.221
-173.954	-53.549	0.107	-0.048
-172.939	241.224	-0.070	0.115
-171.925	-160.435	-0.249	-0.013
-170.910	31.150	0.112	-0.094
-169.896	340.606	-0.121	-0.231
-168.881	-196.453	0.299	0.002
-167.866	-200.000	0.047	-0.308
-166.852	129.876	0.146	-0.184
-165.837	95.180	-0.062	-0.070
-164.823	-34.533	-0.372	-0.200
-163.808	-29.912	-0.159	-0.089
-162.793	70.614	0.189	0.192
-161.779	-172.021	0.309	-0.010
-160.764	239.583	-0.159	-0.260
-159.750	106.081	-0.120	-0.140
-158.735	-134.246	-0.256	0.031
-157.720	286.481	0.111	0.197
-156.706	-119.112	-0.226	-0.039
-155.691	-45.602	0.353	-0.171
-154.677	-123.282	-0.214	-0.034
-153.662	-200.000	-0.019	-0.138
-152.647	-131.815	0.321	-0.041
-151.633	-31.012	-0.044	0.024
-150.618	-70.166	-0.337	-0.126
-149.604	800.000	-0.066	-0.247
-148.589	56.563	0.149	-0.143
-147.574	204.262	-0.064	0.097
-146.560	-16.930	0.178	0.110
-145.545	-32.480	-0.183	-0.100
-144.531	800.000	0.047	-0.150
-143.516	-123.006	0.142	0.022
-142.502	148.747	0.100	0.132
-141.487	139.244	0.075	-0.097
-140.472	325.908	0.023	0.043
-139.458	50.626	-0.179	-0.167
-138.443	-145.783	-0.162	-0.014
-137.429	211.926	-0.035	-0.054
-136.414	-130.349	-0.155	0.021
-135.399	-155.812	0.280	-0.018
-134.385	-69.147	-0.152	-0.058
-133.370	-200.000	-0.000	-0.139
-132.356	-37.836	-0.110	0.058
-131.341	-200.000	0.004	0.267
-130.326	279.812	0.231	0.405
-129.312	800.000	-0.069	0.280
-128.297	-27.527	-0.149	-0.085
-127.283	-190.851	-0.248	-0.003
-126.268	189.744	-0.210	0.310
-125.253	-200.000	0.000	0.063
-124.239	-158.037	0.194	0.011
-123.224	742.308	-0.052	-0.138
-122.210	800.000	0.079	0.310
