DTS Sentinel unit serial number:	SN413079Multiplexer serial number:	ORYXHardware model number:	OX4-SRSoftware version number:	ORYX F/W v4.00 Oryx Data Collector v3.7.2.0data status	okinstallation	princeton_trtdifferential loss correction	single-endedforward channel	channel 1reverse channel	N/Adate	2019/09/15time	21:10:35forward acquisition time	60.00reverse acquisition time	0.00gamma	496.2192k internal	0.2328k external	0.2328temperature offset calibration	0.9956default loss term (dB/km)	0.3790temperature slope calibration	1.0000multiplexer offset coefficient	1.0000multiplexer slope coefficient	1.0000fibre end	0.00T internal ref (°C)	31.39T ext. ref 1 (°C)	8.14T ext. ref 2 (°C)	24.25length (m)	temperature (°C)	Stokes	anti-Stokes-747.200	11.976	-0.444	0.344
-746.185	147.128	0.144	0.195
-745.171	-25.249	0.217	-0.129
-744.156	160.394	-0.228	0.320
-743.142	-200.000	0.077	0.492
-742.127	295.628	-0.210	0.388
-741.112	-19.603	-0.245	0.153
-740.098	800.000	-0.188	0.536
-739.083	55.148	-0.062	-0.060
-738.069	-200.000	0.001	0.281
-737.054	-167.996	-0.282	-0.011
-736.039	347.817	0.104	-0.207
-735.025	800.000	-0.039	0.133
-734.010	-91.490	0.136	-0.039
-732.996	-77.945	-0.184	0.064
-731.981	-115.772	0.202	-0.038
-730.966	-26.969	-0.223	-0.131
-729.952	43.424	-0.357	-0.329
-728.937	-200.000	0.004	-0.023
-727.923	107.879	0.132	0.158
-726.908	-66.063	-0.169	-0.068
-725.894	-66.045	-0.461	-0.185
-724.879	-200.000	0.052	0.261
-723.864	-129.661	0.142	0.020
-722.850	351.111	-0.041	0.082
-721.835	-73.565	0.059	-0.022
-720.821	-80.455	-0.321	-0.108
-719.806	-91.275	0.103	0.030
-718.791	24.779	-0.216	-0.180
-717.777	-145.915	-0.063	-0.006
-716.762	-27.388	-0.273	0.160
-715.748	-200.000	-0.001	0.329
-714.733	-94.973	-0.496	-0.135
-713.718	800.000	-0.025	-0.084
-712.704	-200.000	0.033	0.255
-711.689	-161.591	0.258	-0.013
-710.675	91.349	-0.128	-0.144
-709.660	241.480	0.044	-0.075
-708.645	-15.177	-0.159	-0.102
-707.631	354.650	0.067	0.134
-706.616	-146.724	0.084	0.007
-705.602	800.000	-0.111	-0.337
-704.587	-33.635	0.288	0.160
-703.572	-200.000	0.006	-0.223
-702.558	86.158	0.107	-0.118
-701.543	100.002	0.041	-0.048
-700.529	-132.830	0.128	0.016
-699.514	-61.027	-0.376	0.160
-698.499	-200.000	0.005	-0.182
-697.485	-1.574	-0.099	-0.070
-696.470	-6.020	-0.138	-0.095
-695.456	-200.000	0.011	-0.150
-694.441	199.886	-0.057	-0.088
-693.426	-71.904	0.324	-0.121
-692.412	195.126	-0.089	-0.135
-691.397	-102.315	0.454	0.110
-690.383	543.265	-0.070	0.168
-689.368	379.397	0.122	0.252
-688.354	138.462	0.073	0.096
-687.339	800.000	0.057	0.157
-686.324	420.133	-0.084	0.181
-685.310	-118.198	0.103	-0.018
-684.295	-200.000	-0.038	-0.187
-683.281	28.796	-0.496	-0.423
-682.266	-71.899	0.115	-0.043
-681.251	-200.000	-0.011	-0.076
-680.237	478.675	0.111	-0.252
-679.222	10.302	-0.409	0.313
-678.208	-21.566	0.311	-0.191
-677.193	118.142	-0.121	-0.150
-676.178	-145.918	-0.442	0.039
-675.164	-19.331	0.205	-0.127
-674.149	415.582	0.100	0.214
-673.135	800.000	0.056	0.158
-672.120	-43.179	0.168	-0.086
-671.105	-165.245	-0.123	-0.005
-670.091	139.159	0.119	-0.158
-669.076	779.679	0.077	0.211
-668.062	800.000	0.047	0.200
-667.047	800.000	0.079	-0.263
-666.032	123.455	-0.021	-0.026
-665.018	-16.352	0.206	-0.131
-664.003	-118.312	-0.155	-0.028
-662.989	91.200	0.162	-0.183
-661.974	800.000	0.051	-0.170
-660.959	-108.924	0.078	-0.017
-659.945	200.855	0.004	-0.006
-658.930	48.539	0.083	-0.078
-657.916	-117.405	-0.103	-0.019
-656.901	800.000	0.122	0.438
-655.886	-175.247	-0.224	-0.006
-654.872	800.000	0.094	0.395
-653.857	92.719	-0.064	0.073
-652.843	89.455	-0.126	-0.141
-651.828	69.636	-0.173	-0.179
-650.814	15.287	-0.212	0.167
-649.799	27.440	-0.064	-0.054
-648.784	270.076	-0.217	-0.383
-647.770	-200.000	-0.028	0.208
-646.755	-200.000	0.052	-0.289
-645.741	140.752	-0.145	0.192
-644.726	-152.606	-0.062	-0.004
-643.711	155.809	-0.036	0.050
-642.697	-15.853	-0.079	0.051
-641.682	605.805	-0.011	0.027
-640.668	191.187	0.207	0.312
-639.653	153.019	0.157	0.215
-638.638	800.000	-0.061	0.208
-637.624	173.170	0.048	-0.069
-636.609	267.988	0.110	0.192
-635.595	-200.000	0.006	-0.216
-634.580	79.084	0.225	-0.242
-633.565	381.664	-0.109	-0.224
-632.551	7.646	0.170	-0.127
-631.536	-73.764	0.117	0.043
-630.522	800.000	-0.161	-0.515
-629.507	181.575	0.137	0.202
-628.492	-103.194	0.031	-0.007
-627.478	11.309	-0.127	-0.098
-626.463	16.539	0.036	0.029
-625.449	-23.096	-0.164	-0.099
-624.434	-64.284	-0.253	0.103
-623.419	364.012	0.151	-0.305
-622.405	389.154	0.071	0.148
-621.390	-200.000	-0.014	0.441
-620.376	65.810	0.082	-0.084
-619.361	434.755	0.077	-0.168
-618.346	106.696	-0.144	0.171
-617.332	-200.000	-0.000	0.275
-616.317	215.973	-0.122	-0.194
-615.303	800.000	-0.037	0.128
-614.288	-82.109	0.276	0.090
-613.273	-112.825	-0.136	0.027
-612.259	-48.510	0.202	0.097
-611.244	216.814	0.088	0.140
-610.230	-128.750	-0.187	-0.026
-609.215	53.313	0.173	0.166
-608.201	-66.684	0.249	0.099
-607.186	-200.000	0.028	-0.306
-606.171	12.455	-0.065	0.051
-605.157	73.141	0.210	-0.220
-604.142	44.793	-0.243	-0.224
-603.128	-62.217	-0.156	-0.065
-602.113	-110.993	0.239	-0.049
-601.098	40.392	-0.182	-0.164
-600.084	-57.426	0.161	0.071
-599.069	-52.699	-0.209	0.097
-598.055	-200.000	-0.018	-0.160
-597.040	-200.000	0.040	0.405
-596.025	568.350	0.071	0.174
-595.011	-200.000	-0.010	-0.136
-593.996	140.085	0.193	-0.255
-592.982	129.788	0.114	-0.146
-591.967	-72.792	0.206	-0.076
-590.952	157.115	-0.120	-0.166
-589.938	-200.000	-0.001	-0.110
-588.923	-200.000	0.025	0.192
-587.909	-53.750	-0.143	0.066
-586.894	-41.089	0.053	0.028
-585.879	-200.000	0.008	0.115
-584.865	-128.053	-0.318	-0.046
-583.850	147.351	-0.046	-0.062
-582.836	-200.000	0.022	-0.170
-581.821	-10.937	0.073	-0.048
-580.806	82.721	-0.115	-0.125
-579.792	40.835	0.168	0.151
-578.777	-86.527	0.180	0.055
-577.763	-128.799	-0.333	0.047
-576.748	46.426	0.132	-0.122
-575.733	-200.000	0.016	0.104
-574.719	152.626	-0.094	0.129
-573.704	31.251	0.264	-0.227
-572.690	-133.321	-0.338	0.043
-571.675	-68.071	0.332	-0.129
-570.661	562.133	-0.136	-0.330
-569.646	-144.568	-0.056	-0.005
-568.631	376.739	0.091	0.187
-567.617	141.908	-0.157	0.209
-566.602	53.260	0.227	0.217
-565.588	-142.590	0.229	0.022
-564.573	-72.355	-0.155	0.057
-563.558	24.684	-0.087	0.072
-562.544	62.392	0.158	0.158
-561.529	800.000	0.045	-0.153
-560.515	-30.891	0.228	-0.129
-559.500	-35.085	0.246	0.134
-558.485	53.044	0.314	0.301
-557.471	109.282	0.328	0.392
-556.456	-24.698	-0.294	0.175
-555.442	-3.118	-0.144	-0.101
-554.427	-200.000	-0.167	-0.001
-553.412	800.000	-0.052	-0.157
-552.398	64.920	-0.176	0.178
-551.383	-96.451	-0.272	-0.072
-550.369	354.893	-0.047	-0.094
-549.354	55.140	-0.111	0.107
-548.339	800.000	0.124	-0.380
-547.325	-200.000	-0.034	-0.168
-546.310	-118.321	-0.276	0.049
-545.296	-200.000	-0.004	0.185
-544.281	-63.451	-0.160	-0.066
-543.266	-114.640	-0.300	-0.057
-542.252	-105.385	-0.126	0.029
-541.237	800.000	-0.198	0.553
-540.223	800.000	0.058	0.200
-539.208	-5.164	-0.108	-0.074
-538.193	123.886	0.180	-0.226
-537.179	766.352	0.076	-0.206
-536.164	211.883	-0.156	-0.246
-535.150	-64.531	-0.029	0.012
-534.135	-125.503	-0.108	0.016
-533.121	-120.227	0.063	0.011
-532.106	62.654	-0.063	0.063
-531.091	800.000	-0.098	0.399
-530.077	-99.793	0.434	-0.109
-529.062	800.000	-0.030	-0.122
-528.048	-200.000	0.012	0.056
-527.033	28.974	0.069	0.059
-526.018	-164.066	-0.182	-0.008
-525.004	96.741	0.228	0.261
-523.989	800.000	-0.033	-0.125
-522.975	175.904	0.114	-0.166
-521.960	67.475	-0.268	0.273
-520.945	602.525	-0.032	0.081
-519.931	268.262	-0.191	-0.334
-518.916	196.237	-0.113	-0.172
-517.902	-154.628	0.295	0.020
-516.887	-151.361	0.301	-0.022
-515.872	-200.000	-0.014	0.075
-514.858	76.571	0.279	0.296
-513.843	28.026	-0.156	-0.132
-512.829	-46.844	0.116	-0.057
-511.814	800.000	0.043	0.124
-510.799	-77.121	0.261	-0.091
-509.785	-50.294	-0.152	-0.072
-508.770	580.480	0.086	0.211
-507.756	105.901	0.088	-0.104
-506.741	33.382	0.187	0.162
-505.726	-139.372	0.203	-0.022
-504.712	189.358	0.079	0.118
-503.697	-42.524	-0.162	0.082
-502.683	800.000	0.031	-0.092
-501.668	-8.562	0.087	-0.058
-500.653	93.070	-0.171	-0.193
-499.639	595.187	-0.058	0.144
-498.624	-124.285	-0.221	-0.034
-497.610	-106.852	-0.233	-0.052
-496.595	800.000	-0.079	0.245
-495.581	800.000	0.060	-0.260
-494.566	293.326	-0.017	-0.032
-493.551	-68.974	-0.097	0.037
-492.537	-76.848	0.184	0.064
-491.522	15.339	0.259	-0.203
-490.508	405.255	-0.072	-0.151
-489.493	32.161	-0.125	0.108
-488.478	-200.000	0.027	-0.307
-487.464	291.235	0.103	0.186
-486.449	180.005	-0.166	0.242
-485.435	-142.165	-0.529	-0.052
-484.420	-151.452	-0.402	-0.030
-483.405	-98.255	-0.333	-0.085
-482.391	199.996	-0.103	-0.158
-481.376	-142.594	0.123	-0.012
-480.362	-176.180	-0.308	0.008
-479.347	-103.626	-0.018	-0.004
-478.332	-36.506	0.309	-0.166
-477.318	23.439	0.100	-0.082
-476.303	-75.881	-0.082	-0.029
-475.289	15.096	-0.131	0.102
-474.274	-105.503	0.207	0.047
-473.259	800.000	0.006	0.020
-472.245	13.531	0.166	0.129
-471.230	396.879	0.105	0.219
-470.216	-101.347	0.100	0.024
-469.201	-147.424	-0.356	0.030
-468.186	-67.449	-0.207	-0.081
-467.172	-200.000	-0.098	-0.433
-466.157	428.045	-0.124	0.268
-465.143	-132.564	0.162	-0.021
-464.128	1.752	0.461	0.331
-463.113	2.307	0.155	-0.112
-462.099	-27.110	0.165	-0.096
-461.084	-200.000	0.027	-0.330
-460.070	-200.000	-0.032	-0.276
-459.055	-46.415	0.341	-0.167
-458.040	-24.089	-0.261	-0.156
-457.026	-4.187	-0.258	0.178
-456.011	54.430	0.359	0.345
-454.997	197.089	0.109	0.165
-453.982	800.000	-0.078	-0.234
-452.968	-200.000	-0.011	0.485
-451.953	800.000	0.115	-0.460
-450.938	150.603	-0.094	0.128
-449.924	226.698	-0.148	0.240
-448.909	-145.683	0.112	0.010
-447.895	800.000	0.053	-0.151
-446.880	-41.174	0.129	-0.066
-445.865	-200.000	-0.006	0.256
-444.851	-200.000	-0.004	0.140
-443.836	-42.062	-0.471	0.240
-442.822	-114.742	0.454	-0.086
-441.807	-57.604	-0.040	-0.017
-440.792	194.134	0.219	-0.330
-439.778	394.577	-0.066	0.138
-438.763	-170.522	0.123	-0.004
-437.749	143.020	-0.072	0.096
-436.734	-200.000	-0.002	-0.076
-435.719	-200.000	-0.004	0.092
-434.705	-200.000	0.012	0.103
-433.690	800.000	0.113	-0.437
-432.676	1.810	0.100	-0.072
-431.661	58.394	0.238	-0.233
-430.646	92.183	0.190	-0.213
-429.632	-11.814	0.128	-0.084
-428.617	318.911	-0.118	0.222
-427.603	90.045	-0.087	0.097
-426.588	-200.000	0.043	-0.395
-425.573	83.958	-0.218	-0.237
-424.559	-67.619	0.365	-0.142
-423.544	201.079	0.120	-0.184
-422.530	29.840	0.116	-0.098
-421.515	-47.488	-0.330	-0.159
-420.500	65.881	0.075	-0.076
-419.486	56.438	-0.107	-0.104
-418.471	373.183	0.079	-0.159
-417.457	48.790	0.115	-0.108
-416.442	-22.233	-0.196	-0.118
-415.428	451.116	-0.006	0.013
-414.413	58.382	0.116	0.113
-413.398	54.412	0.217	0.208
-412.384	-78.632	0.274	0.093
-411.369	-59.550	-0.054	-0.023
-410.355	258.038	-0.035	-0.061
-409.340	-200.000	-0.015	0.125
-408.325	107.206	0.166	-0.196
-407.311	61.991	-0.103	0.102
-406.296	29.571	0.178	0.151
-405.282	800.000	-0.058	0.160
-404.267	-81.697	-0.194	0.063
-403.252	800.000	0.073	0.253
-402.238	38.634	-0.096	0.086
-401.223	-24.389	-0.104	0.061
-400.209	-200.000	0.056	-0.451
-399.194	309.997	-0.186	0.346
-398.179	722.493	0.039	-0.103
-397.165	173.237	-0.073	0.104
-396.150	234.698	-0.206	0.337
-395.136	-200.000	0.020	0.114
-394.121	41.746	-0.168	-0.151
-393.106	-107.613	-0.112	0.024
-392.092	-200.000	-0.034	-0.152
-391.077	-105.491	0.068	0.015
-390.063	576.468	0.093	0.225
-389.048	-200.000	-0.055	-0.332
-388.033	-3.976	-0.323	0.223
-387.019	80.245	0.422	0.451
-386.004	-36.257	-0.222	-0.119
-384.990	59.350	-0.089	-0.087
-383.975	-58.992	-0.168	0.072
-382.960	18.846	-0.118	0.094
-381.946	55.373	0.136	-0.131
-380.931	173.476	-0.083	-0.119
-379.917	-110.511	0.091	0.019
-378.902	800.000	-0.132	0.391
-377.888	325.211	-0.075	0.143
-376.873	211.693	0.205	0.321
-375.858	10.196	-0.127	0.096
-374.844	-200.000	-0.039	-0.260
-373.829	-200.000	0.029	-0.169
-372.815	800.000	0.058	-0.214
-371.800	15.897	0.246	-0.192
-370.785	-176.079	-0.047	0.001
-369.771	239.585	-0.077	-0.128
-368.756	9.412	-0.134	0.101
-367.742	38.934	-0.126	-0.112
-366.727	800.000	-0.087	-0.332
-365.712	-200.000	0.072	0.451
-364.698	40.864	-0.138	-0.123
-363.683	800.000	-0.048	0.170
-362.669	-200.000	-0.005	-0.115
-361.654	-80.268	-0.058	-0.019
-360.639	326.925	-0.064	-0.122
-359.625	224.008	0.072	-0.115
-358.610	-118.076	-0.116	-0.021
-357.596	428.471	-0.107	-0.228
-356.581	-200.000	0.064	-0.414
-355.566	-139.952	0.413	-0.043
-354.552	-200.000	-0.028	-0.154
-353.537	-200.000	0.010	0.164
-352.523	-83.641	-0.159	-0.050
-351.508	-99.621	0.265	-0.066
-350.493	-175.162	0.029	0.001
-349.479	800.000	-0.126	0.459
-348.464	-66.315	0.100	0.040
-347.450	-169.262	-0.141	-0.005
-346.435	501.528	-0.075	-0.172
-345.420	-200.000	0.016	-0.138
-344.406	735.765	-0.118	-0.313
-343.391	646.729	-0.050	0.127
-342.377	574.805	0.144	-0.349
-341.362	77.252	-0.185	-0.195
-340.348	-24.620	-0.309	-0.182
-339.333	-200.000	-0.017	-0.283
-338.318	-200.000	-0.016	-0.161
-337.304	-54.242	-0.160	-0.072
-336.289	-145.102	-0.290	0.026
-335.275	800.000	0.041	0.149
-334.260	-141.918	-0.161	0.016
-333.245	192.982	0.252	-0.378
-332.231	-200.000	-0.026	-0.172
-331.216	-200.000	0.053	0.294
-330.202	0.763	0.166	0.118
-329.187	391.238	0.134	0.276
-328.172	86.981	-0.036	-0.040
-327.158	-200.000	0.010	-0.252
-326.143	66.968	0.025	0.026
-325.129	31.546	-0.159	0.136
-324.114	-200.000	0.012	0.125
-323.099	-4.470	0.126	-0.086
-322.085	-49.652	-0.347	-0.164
-321.070	155.578	-0.037	-0.050
-320.056	-153.584	0.155	0.011
-319.041	-15.137	0.221	0.140
-318.026	418.388	0.080	0.170
-317.012	239.468	-0.046	-0.077
-315.997	230.676	0.024	-0.039
-314.983	-39.439	-0.202	0.105
-313.968	-26.101	-0.273	-0.159
-312.953	-200.000	-0.015	0.161
-311.939	82.991	-0.236	-0.254
-310.924	495.469	0.163	0.370
-309.910	-200.000	0.039	0.243
-308.895	-110.097	-0.238	0.049
-307.880	328.019	-0.071	-0.134
-306.866	16.402	0.307	0.240
-305.851	253.212	-0.206	0.348
-304.837	-15.467	-0.120	-0.076
-303.822	199.062	-0.143	0.218
-302.807	50.338	-0.212	0.198
-301.793	800.000	0.064	0.206
-300.778	-199.638	-0.447	0.002
-299.764	-200.000	0.014	-0.063
-298.749	-200.000	0.049	-0.259
-297.735	-183.796	-0.280	-0.005
-296.720	-89.719	0.242	0.070
-295.705	257.686	0.133	0.226
-294.691	-40.557	0.157	-0.081
-293.676	-26.493	0.047	-0.027
-292.662	212.779	0.094	0.146
-291.647	268.122	-0.123	0.214
-290.632	49.151	0.072	0.067
-289.618	174.115	0.116	-0.166
-288.603	-15.502	0.355	-0.225
-287.589	-25.530	-0.086	-0.050
-286.574	-200.000	0.022	0.173
-285.559	-58.760	-0.288	-0.124
-284.545	3.194	0.209	0.151
-283.530	-154.163	0.278	0.019
-282.516	800.000	0.041	-0.115
-281.501	11.110	0.093	-0.071
-280.486	-71.487	-0.153	0.057
-279.472	800.000	-0.102	0.431
-278.457	346.120	0.268	0.521
-277.443	55.646	0.203	-0.195
-276.428	211.286	-0.106	-0.164
-275.413	800.000	-0.008	0.032
-274.399	-6.928	-0.314	-0.211
-273.384	43.662	-0.243	0.220
-272.370	9.979	-0.176	-0.132
-271.355	122.836	-0.119	-0.148
-270.340	-82.212	-0.168	-0.054
-269.326	-86.961	0.264	-0.080
-268.311	800.000	0.073	0.257
-267.297	-10.673	0.438	0.287
-266.282	800.000	-0.091	-0.390
-265.267	56.342	-0.056	-0.054
-264.253	19.254	-0.118	-0.094
-263.238	-88.097	0.066	0.019
-262.224	800.000	-0.034	0.132
-261.209	57.970	-0.063	-0.061
-260.195	36.837	-0.259	-0.226
-259.180	765.712	0.203	0.545
-258.165	800.000	-0.038	0.120
-257.151	115.132	-0.132	-0.160
-256.136	-200.000	-0.041	0.239
-255.122	-200.000	-0.012	-0.232
-254.107	515.484	0.070	-0.161
-253.092	-200.000	-0.030	0.200
-252.078	-200.000	0.002	-0.062
-251.063	484.055	0.046	0.103
-250.049	-43.420	-0.162	-0.081
-249.034	800.000	0.056	-0.221
-248.019	149.560	-0.095	-0.127
-247.005	-134.353	0.186	0.023
-245.990	13.170	0.264	0.202
-244.976	-200.000	-0.005	-0.341
-243.961	-72.572	-0.172	0.063
-242.946	-81.542	0.121	0.039
-241.932	722.631	-0.124	0.327
-240.917	321.089	0.071	0.133
-239.903	-86.236	-0.217	0.066
-238.888	-98.327	-0.144	0.036
-237.873	-200.000	-0.070	0.345
-236.859	800.000	-0.046	0.153
-235.844	-4.523	0.315	0.215
-234.830	-200.000	0.026	-0.386
-233.815	-146.971	0.214	0.018
-232.800	800.000	0.088	0.309
-231.786	16.213	0.263	0.204
-230.771	41.594	-0.140	-0.125
-229.757	800.000	-0.163	-0.454
-228.742	-200.000	-0.006	0.187
-227.727	-17.137	0.145	-0.090
-226.713	-41.724	0.105	-0.053
-225.698	81.465	-0.181	0.194
-224.684	364.607	0.137	0.271
-223.669	203.413	-0.132	-0.202
-222.655	-14.055	-0.216	-0.138
-221.640	365.649	-0.120	-0.239
-220.625	-200.000	-0.001	-0.151
-219.611	26.904	0.136	0.113
-218.596	210.506	-0.182	0.282
-217.582	-111.546	-0.170	0.034
-216.567	-200.000	0.041	-0.195
-215.552	-101.604	0.199	0.048
-214.538	43.458	0.038	-0.034
-213.523	116.665	-0.281	0.340
-212.509	-180.684	0.299	-0.006
-211.494	743.014	-0.159	-0.421
-210.479	-67.581	0.160	-0.062
-209.465	-154.541	-0.264	0.017
-208.450	75.735	-0.043	-0.045
-207.436	117.200	0.180	0.218
-206.421	56.740	-0.128	0.123
-205.406	-4.946	-0.090	0.061
-204.392	82.662	0.083	-0.089
-203.377	-200.000	-0.013	0.186
-202.363	-200.000	0.032	0.239
-201.348	-37.417	-0.011	0.006
-200.333	242.856	0.083	0.137
-199.319	-28.569	0.048	0.027
-198.304	18.458	-0.153	-0.121
-197.290	-196.057	0.221	0.002
-196.275	-71.355	0.488	-0.180
-195.260	-131.496	0.238	-0.031
-194.246	519.962	0.127	0.294
-193.231	-85.777	-0.373	0.114
-192.217	-200.000	-0.514	0.002
-191.202	-44.264	0.416	-0.205
-190.187	-86.884	0.123	-0.037
-189.173	405.062	0.064	0.132
-188.158	800.000	-0.078	-0.222
-187.144	105.541	0.171	0.199
-186.129	732.920	0.083	0.218
-185.114	-186.179	-0.100	-0.001
-184.100	-164.192	0.107	-0.005
-183.085	314.173	-0.201	0.372
-182.071	-200.000	0.032	0.141
-181.056	800.000	0.076	-0.321
-180.042	311.520	-0.107	-0.197
-179.027	86.753	-0.076	-0.083
-178.012	800.000	-0.110	-0.339
-176.998	-121.603	-0.049	-0.008
-175.983	-200.000	-0.032	-0.153
-174.969	476.647	0.078	-0.173
-173.954	157.826	-0.108	0.147
-172.939	8.213	0.214	-0.158
-171.925	-101.630	0.287	0.069
-170.910	-81.522	-0.195	-0.063
-169.896	50.436	-0.225	-0.209
-168.881	333.766	0.145	-0.276
-167.866	800.000	0.054	0.185
-166.852	32.054	0.318	0.270
-165.837	317.701	0.123	0.229
-164.823	47.009	0.165	0.151
-163.808	800.000	0.150	-0.478
-162.793	-20.601	-0.188	-0.114
-161.779	286.339	-0.050	0.090
-160.764	-99.941	0.260	-0.064
-159.750	208.466	-0.181	0.278
-158.735	-25.795	0.160	0.093
-157.720	800.000	0.059	0.163
-156.706	-7.318	0.228	-0.152
-155.691	800.000	0.058	-0.157
-154.677	-75.361	-0.110	-0.039
-153.662	76.007	-0.015	-0.016
-152.647	314.063	-0.084	-0.155
-151.633	66.044	0.045	0.045
-150.618	-0.936	0.158	-0.110
-149.604	-200.000	-0.005	0.021
-148.589	-200.000	-0.116	-0.545
-147.574	-200.000	-0.030	-0.131
-146.560	-196.921	0.215	0.001
-145.545	-126.135	-0.352	-0.052
-144.531	428.856	0.082	-0.174
-143.516	-200.000	0.065	0.292
-142.502	502.656	-0.045	0.102
-141.487	65.379	0.181	0.181
-140.472	800.000	0.071	0.298
-139.458	-200.000	0.046	0.288
-138.443	232.377	0.070	0.114
-137.429	34.280	0.079	0.068
-136.414	-200.000	-0.000	0.005
-135.399	253.640	-0.088	0.148
-134.385	-200.000	-0.104	0.495
-133.370	23.102	-0.379	0.306
-132.356	216.690	0.145	0.227
-131.341	-11.608	0.086	-0.056
-130.326	-200.000	-0.441	-0.001
-129.312	800.000	0.072	0.205
-128.297	49.249	0.185	0.172
-127.283	29.313	-0.329	0.275
-126.268	233.314	0.192	0.311
-125.253	-200.000	0.017	-0.130
-124.239	-79.260	-0.274	0.091
-123.224	2.788	0.190	0.135
-122.210	294.394	0.070	-0.126
-121.195	52.849	0.241	-0.227
-120.180	52.261	-0.119	-0.112
