DTS Sentinel unit serial number:	SN413079Multiplexer serial number:	ORYXHardware model number:	OX4-SRSoftware version number:	ORYX F/W v4.00 Oryx Data Collector v3.7.2.0data status	okinstallation	princeton_trtdifferential loss correction	single-endedforward channel	channel 1reverse channel	N/Adate	2019/09/14time	11:22:35forward acquisition time	60.00reverse acquisition time	0.00gamma	496.2192k internal	0.2297k external	0.2297temperature offset calibration	1.0086default loss term (dB/km)	0.3790temperature slope calibration	1.0000multiplexer offset coefficient	1.0000multiplexer slope coefficient	1.0000fibre end	0.00T internal ref (°C)	36.69T ext. ref 1 (°C)	4.52T ext. ref 2 (°C)	32.79length (m)	temperature (°C)	Stokes	anti-Stokes-747.200	315.866	-0.034	0.066
-746.185	-200.000	0.030	0.674
-745.171	51.833	-0.248	-0.241
-744.156	131.468	0.121	-0.159
-743.142	800.000	0.034	0.124
-742.127	-101.197	0.163	0.041
-741.112	-102.431	0.108	0.026
-740.098	-27.651	-0.153	0.091
-739.083	520.437	-0.036	-0.085
-738.069	-49.701	-0.422	-0.205
-737.054	-200.000	0.020	0.169
-736.039	-110.820	-0.275	-0.058
-735.025	-172.778	0.520	-0.017
-734.010	-21.852	-0.295	0.183
-732.996	-127.485	0.071	0.011
-731.981	90.439	0.170	-0.194
-730.966	-92.819	-0.108	0.031
-729.952	42.378	0.104	-0.097
-728.937	95.241	-0.076	0.089
-727.923	738.352	-0.100	-0.274
-726.908	30.332	-0.101	0.088
-725.894	452.492	0.147	-0.331
-724.879	-110.493	0.145	0.031
-723.864	-55.309	0.265	-0.121
-722.850	-10.553	-0.247	-0.167
-721.835	-83.013	0.054	-0.018
-720.821	79.061	-0.258	0.282
-719.806	-79.017	-0.069	0.024
-718.791	25.253	-0.018	0.015
-717.777	183.488	0.097	0.146
-716.762	-67.370	-0.131	-0.053
-715.748	-122.261	-0.073	0.012
-714.733	-42.229	-0.244	-0.127
-713.718	181.513	-0.192	0.287
-712.704	198.914	-0.051	-0.079
-711.689	-33.296	0.176	-0.099
-710.675	-17.394	0.233	-0.149
-709.660	554.228	-0.137	-0.335
-708.645	-73.721	0.158	0.059
-707.631	66.414	-0.215	-0.223
-706.616	182.177	0.157	-0.236
-705.602	-200.000	0.023	0.318
-704.587	-81.562	-0.069	0.023
-703.572	75.216	0.220	-0.237
-702.558	-177.251	0.102	0.003
-701.543	80.337	0.136	-0.149
-700.529	55.097	-0.060	-0.059
-699.514	-133.927	0.070	-0.009
-698.499	76.872	-0.007	-0.008
-697.485	14.422	0.292	-0.232
-696.470	-101.475	0.095	-0.024
-695.456	421.566	0.071	-0.154
-694.441	196.211	-0.081	-0.126
-693.426	-183.865	-0.215	-0.004
-692.412	778.041	-0.056	0.155
-691.397	169.977	-0.009	-0.013
-690.383	87.039	0.299	0.337
-689.368	-47.306	-0.238	-0.118
-688.354	-29.685	0.200	-0.116
-687.339	-180.133	0.503	-0.011
-686.324	312.790	0.080	0.153
-685.310	-20.342	-0.313	0.196
-684.295	183.169	-0.014	0.021
-683.281	-131.098	-0.400	-0.054
-682.266	-108.865	-0.128	0.028
-681.251	490.830	-0.071	0.166
-680.237	-184.932	-0.236	-0.004
-679.222	-95.325	-0.418	0.114
-678.208	-200.000	-0.002	0.082
-677.193	1.969	-0.072	-0.053
-676.178	20.211	-0.093	0.076
-675.164	183.707	-0.096	-0.144
-674.149	77.513	0.064	0.069
-673.135	800.000	-0.073	0.255
-672.120	236.997	0.121	0.204
-671.105	-200.000	0.004	-0.225
-670.091	126.367	0.128	0.165
-669.076	-81.938	-0.282	0.094
-668.062	244.399	-0.125	-0.213
-667.047	800.000	0.053	0.196
-666.032	54.461	-0.072	0.070
-665.018	12.521	-0.287	-0.225
-664.003	-115.991	0.079	-0.015
-662.989	-116.662	-0.263	0.049
-661.974	43.659	-0.221	0.206
-660.959	-36.832	-0.104	-0.057
-659.945	239.756	0.232	0.394
-658.930	-130.216	-0.180	0.025
-657.916	-16.942	0.174	-0.112
-656.901	-106.857	-0.278	-0.063
-655.886	-132.039	-0.188	-0.025
-654.872	168.599	0.040	-0.058
-653.857	-88.490	0.151	0.046
-652.843	170.550	0.152	0.221
-651.828	800.000	0.064	0.195
-650.814	54.396	0.176	-0.172
-649.799	73.893	0.114	-0.121
-648.784	280.823	-0.073	0.133
-647.770	109.947	-0.035	0.043
-646.755	-2.962	0.085	-0.061
-645.741	350.334	0.079	-0.160
-644.726	51.256	-0.151	0.146
-643.711	208.194	-0.089	-0.141
-642.697	-59.763	-0.029	0.013
-641.682	11.490	-0.174	-0.135
-640.668	-43.053	-0.245	0.126
-639.653	40.510	-0.189	-0.173
-638.638	800.000	0.072	0.226
-637.624	-48.925	0.241	-0.117
-636.609	15.618	-0.093	-0.074
-635.595	91.935	-0.044	-0.051
-634.580	36.757	0.105	0.094
-633.565	-119.500	-0.180	-0.032
-632.551	680.848	0.046	0.121
-631.536	-69.071	0.323	-0.127
-630.522	-200.000	-0.036	0.267
-629.507	-200.000	0.004	-0.319
-628.492	166.219	0.160	0.230
-627.478	-45.133	-0.167	0.085
-626.463	19.748	0.323	0.264
-625.449	4.114	-0.349	-0.260
-624.434	-53.351	0.082	-0.038
-623.419	-66.476	-0.121	0.049
-622.405	-24.446	-0.239	-0.145
-621.390	330.579	-0.031	0.061
-620.376	-35.768	-0.042	0.023
-619.361	-200.000	0.001	0.167
-618.346	740.515	-0.106	0.290
-617.332	440.876	0.082	-0.183
-616.317	337.053	-0.049	0.097
-615.303	231.134	0.053	0.089
-614.288	-200.000	-0.013	-0.193
-613.273	214.860	0.096	-0.154
-612.259	-68.429	0.145	0.057
-611.244	-176.099	0.257	0.007
-610.230	-200.000	0.006	-0.046
-609.215	-200.000	0.017	-0.187
-608.201	-70.454	-0.356	0.137
-607.186	451.956	0.115	-0.258
-606.171	-163.271	0.079	-0.004
-605.157	86.244	-0.195	0.218
-604.142	800.000	-0.098	-0.369
-603.128	367.827	-0.029	0.060
-602.113	21.180	-0.081	0.066
-601.098	-200.000	0.014	0.066
-600.084	-118.414	-0.354	-0.064
-599.069	-162.845	0.380	-0.019
-598.055	172.048	0.289	-0.422
-597.040	-98.771	-0.223	-0.058
-596.025	-200.000	-0.005	0.258
-595.011	-81.811	-0.295	0.098
-593.996	-53.662	-0.127	0.059
-592.982	659.551	0.029	-0.075
-591.967	800.000	-0.044	-0.140
-590.952	153.268	-0.124	-0.172
-589.938	295.906	0.051	-0.095
-588.923	50.928	0.331	0.318
-587.909	18.875	-0.369	0.300
-586.894	-40.985	-0.065	-0.034
-585.879	23.752	0.086	-0.072
-584.865	59.723	-0.184	0.185
-583.850	598.718	0.047	-0.118
-582.836	800.000	0.034	0.125
-581.821	34.917	0.156	-0.139
-580.806	-200.000	-0.031	-0.167
-579.792	-43.146	-0.428	0.220
-578.777	152.183	-0.101	0.140
-577.763	-83.417	0.262	0.085
-576.748	-105.648	-0.331	-0.076
-575.733	800.000	0.095	0.281
-574.719	-53.953	0.259	0.120
-573.704	-200.000	0.004	-0.050
-572.690	-40.181	0.118	-0.062
-571.675	21.450	-0.060	-0.050
-570.661	101.763	0.196	0.231
-569.646	-60.967	-0.156	0.067
-568.631	153.598	0.172	0.238
-567.617	31.647	0.139	0.121
-566.602	52.188	-0.174	-0.168
-565.588	15.177	-0.147	-0.117
-564.573	-100.366	-0.333	-0.084
-563.558	-132.437	-0.288	-0.038
-562.544	1.461	0.158	0.116
-561.529	147.647	0.207	-0.283
-560.515	-200.000	-0.019	0.117
-559.500	20.864	-0.252	-0.207
-558.485	800.000	-0.043	0.161
-557.471	233.002	0.117	-0.195
-556.456	-200.000	0.039	-0.261
-555.442	144.216	0.129	-0.174
-554.427	-200.000	-0.009	0.283
-553.412	-200.000	0.008	0.087
-552.398	-47.609	0.098	0.048
-551.383	-88.878	0.364	-0.109
-550.369	-185.376	-0.073	-0.001
-549.354	-89.475	0.243	-0.072
-548.339	-200.000	0.044	0.198
-547.325	-130.101	-0.242	0.033
-546.310	800.000	0.062	-0.221
-545.296	-90.605	-0.143	0.042
-544.281	22.873	-0.186	-0.154
-543.266	38.148	0.146	-0.132
-542.252	-46.814	-0.269	0.133
-541.237	-200.000	0.006	-0.066
-540.223	319.864	0.021	-0.041
-539.208	-29.427	-0.260	0.150
-538.193	800.000	-0.074	0.213
-537.179	-200.000	0.076	-0.431
-536.164	59.651	-0.227	0.227
-535.150	-39.636	0.177	0.094
-534.135	-200.000	0.013	-0.163
-533.121	83.533	0.063	-0.070
-532.106	281.679	-0.144	0.261
-531.091	3.626	0.367	0.271
-530.077	-200.000	-0.010	0.162
-529.062	-16.150	-0.151	-0.097
-528.048	-48.840	0.106	0.052
-527.033	-63.503	-0.031	-0.013
-526.018	216.323	0.046	0.074
-525.004	800.000	-0.089	0.308
-523.989	645.129	-0.153	0.396
-522.975	12.531	-0.162	-0.126
-521.960	-84.933	-0.088	-0.028
-520.945	-40.796	-0.046	0.024
-519.931	800.000	-0.062	-0.261
-518.916	-0.196	-0.083	-0.060
-517.902	92.929	0.066	0.076
-516.887	-200.000	-0.129	-0.000
-515.872	-139.032	0.181	0.020
-514.858	-6.958	-0.233	-0.160
-513.843	-92.618	0.035	0.010
-512.829	19.201	0.058	-0.047
-511.814	-200.000	0.060	0.339
-510.799	-36.332	0.319	0.174
-509.785	656.146	0.111	0.290
-508.770	800.000	0.021	-0.092
-507.756	-71.199	0.088	-0.033
-506.741	-128.434	0.169	0.024
-505.726	140.562	0.124	-0.165
-504.712	-126.400	0.583	0.088
-503.697	390.390	-0.120	-0.252
-502.683	800.000	0.139	0.456
-501.668	54.172	-0.157	0.153
-500.653	-144.292	0.168	-0.016
-499.639	-72.898	0.155	0.058
-498.624	-169.819	-0.518	0.019
-497.610	-115.651	-0.188	0.036
-496.595	39.950	0.333	0.302
-495.581	-158.714	0.071	-0.004
-494.566	214.101	-0.181	0.290
-493.551	-103.473	0.134	0.032
-492.537	89.497	0.112	-0.126
-491.522	-45.973	-0.216	0.108
-490.508	-9.880	-0.103	0.069
-489.493	-88.481	-0.152	-0.046
-488.478	8.830	0.218	0.166
-487.464	112.934	-0.196	-0.241
-486.449	281.371	0.066	-0.119
-485.435	213.061	-0.048	0.077
-484.420	-113.544	0.237	-0.047
-483.405	-146.352	0.244	-0.022
-482.391	-89.360	-0.172	0.051
-481.376	800.000	0.035	-0.145
-480.362	-137.299	0.262	-0.030
-479.347	8.888	0.125	0.095
-478.332	800.000	0.036	-0.147
-477.318	-137.822	0.088	0.010
-476.303	-75.863	-0.210	-0.075
-475.289	-96.446	0.155	-0.041
-474.274	-34.831	-0.416	0.230
-473.259	103.621	0.132	0.156
-472.245	321.066	-0.111	0.214
-471.230	93.041	0.210	-0.239
-470.216	472.588	-0.060	-0.138
-469.201	354.144	0.036	0.072
-468.186	-17.404	0.193	0.123
-467.172	-66.900	-0.217	-0.087
-466.157	-37.089	-0.109	0.059
-465.143	13.892	0.139	-0.109
-464.128	181.371	0.224	-0.333
-463.113	45.448	-0.185	0.172
-462.099	-124.369	-0.062	-0.010
-461.084	-15.691	0.146	-0.094
-460.070	-200.000	-0.013	-0.129
-459.055	-22.495	-0.115	0.070
-458.040	-196.936	0.295	0.002
-457.026	800.000	0.101	-0.377
-456.011	59.188	0.142	-0.141
-454.997	283.047	-0.084	0.152
-453.982	800.000	0.013	-0.047
-452.968	145.244	-0.029	-0.039
-451.953	242.001	-0.135	0.227
-450.938	800.000	-0.013	-0.038
-449.924	800.000	0.050	0.215
-448.909	-158.568	0.223	0.013
-447.895	65.120	-0.271	-0.277
-446.880	2.874	0.194	0.142
-445.865	800.000	-0.082	0.249
-444.851	208.779	0.143	-0.226
-443.836	194.541	-0.133	-0.204
-442.822	800.000	-0.054	-0.229
-441.807	23.029	-0.196	-0.162
-440.792	-60.955	-0.027	-0.011
-439.778	-44.038	-0.273	-0.138
-438.763	-163.338	0.325	-0.016
-437.749	800.000	-0.120	-0.425
-436.734	137.567	-0.041	0.054
-435.719	-200.000	-0.042	-0.247
-434.705	-83.001	-0.228	0.074
-433.690	-135.450	0.072	0.009
-432.676	55.148	-0.245	0.239
-431.661	800.000	-0.028	-0.090
-430.646	98.432	0.182	-0.211
-429.632	442.899	-0.067	0.147
-428.617	800.000	-0.032	-0.092
-427.603	-19.432	0.161	-0.101
-426.588	232.344	-0.065	-0.108
-425.573	800.000	-0.040	0.146
-424.559	83.647	-0.070	0.077
-423.544	-200.000	0.019	-0.202
-422.530	346.101	0.115	0.227
-421.515	-182.837	0.434	0.008
-420.500	-116.086	0.144	0.027
-419.486	800.000	-0.044	0.132
-418.471	-49.848	-0.176	-0.084
-417.457	32.320	0.223	0.194
-416.442	275.349	-0.078	0.140
-415.428	-31.795	0.238	-0.134
-414.413	129.903	-0.081	-0.104
-413.398	-200.000	0.006	0.056
-412.384	-200.000	0.010	-0.245
-411.369	-94.887	-0.350	0.096
-410.355	-0.221	-0.124	-0.089
-409.340	-185.078	0.432	-0.007
-408.325	38.622	-0.087	-0.078
-407.311	-129.900	-0.261	-0.036
-406.296	159.711	0.114	0.160
-405.282	135.249	0.184	0.241
-404.267	114.768	-0.152	-0.187
-403.252	-38.849	-0.219	-0.116
-402.238	625.743	-0.050	-0.126
-401.223	417.608	0.220	0.473
-400.209	239.659	-0.155	-0.261
-399.194	-65.564	-0.254	-0.103
-398.179	-33.202	-0.132	-0.074
-397.165	755.124	0.068	0.185
-396.150	-200.000	0.029	0.178
-395.136	8.449	-0.314	0.238
-394.121	-113.162	-0.427	-0.085
-393.106	335.210	0.240	0.468
-392.092	-7.120	0.025	0.017
-391.077	174.395	0.088	0.128
-390.063	172.019	-0.035	-0.050
-389.048	-88.698	-0.142	0.042
-388.033	-53.673	0.106	-0.049
-387.019	-200.000	0.031	-0.252
-386.004	-200.000	0.006	-0.140
-384.990	57.266	-0.166	-0.163
-383.975	-83.974	-0.100	0.032
-382.960	231.283	-0.021	0.035
-381.946	-105.658	-0.250	-0.057
-380.931	-74.884	0.098	-0.035
-379.917	-58.233	-0.286	0.125
-378.902	65.729	0.137	0.140
-377.888	-200.000	-0.008	0.063
-376.873	-200.000	0.014	0.090
-375.858	-92.084	0.157	0.045
-374.844	800.000	0.100	0.296
-373.829	-16.950	0.080	-0.051
-372.815	503.613	-0.088	-0.206
-371.800	800.000	0.108	0.353
-370.785	-31.866	0.108	-0.061
-369.771	-87.956	-0.233	0.071
-368.756	-107.068	0.163	-0.036
-367.742	-200.000	-0.009	0.283
-366.727	47.591	0.187	0.176
-365.712	8.346	0.142	-0.108
-364.698	129.304	-0.117	-0.150
-363.683	357.266	-0.194	-0.390
-362.669	-181.940	-0.179	0.003
-361.654	-200.000	-0.046	-0.226
-360.639	-92.628	0.252	0.071
-359.625	-200.000	-0.011	-0.099
-358.610	60.266	0.082	-0.081
-357.596	30.361	0.133	-0.114
-356.581	-103.777	-0.022	-0.005
-355.566	425.777	0.064	-0.139
-354.552	0.815	0.316	-0.228
-353.537	-130.800	0.040	-0.005
-352.523	-33.927	0.078	-0.043
-351.508	-31.121	-0.108	-0.061
-350.493	-200.000	-0.015	-0.155
-349.479	-200.000	-0.002	-0.272
-348.464	-116.925	-0.230	0.042
-347.450	-200.000	-0.001	0.226
-346.435	-131.157	0.059	-0.008
-345.420	219.577	-0.183	-0.295
-344.406	-120.249	-0.237	0.041
-343.391	101.124	0.201	0.235
-342.377	-49.949	0.243	-0.116
-341.362	-172.110	0.199	0.006
-340.348	205.196	0.173	-0.270
-339.333	143.419	-0.098	0.131
-338.318	336.435	0.177	0.346
-337.304	-200.000	-0.036	0.170
-336.289	-200.000	0.047	0.314
-335.275	296.226	0.131	-0.241
-334.260	42.180	-0.193	-0.176
-333.245	-178.579	-0.119	-0.003
-332.231	41.920	0.053	0.048
-331.216	-170.459	0.260	0.009
-330.202	54.809	0.057	0.055
-329.187	-34.152	0.227	-0.125
-328.172	149.054	-0.070	-0.095
-327.158	-136.641	0.250	0.029
-326.143	47.193	-0.138	0.129
-325.129	-90.730	-0.071	-0.021
-324.114	200.706	0.136	-0.211
-323.099	632.054	-0.110	-0.280
-322.085	53.649	-0.262	-0.253
-321.070	-200.000	-0.046	-0.365
-320.056	46.284	0.038	-0.035
-319.041	800.000	-0.071	0.265
-318.026	22.046	0.120	0.098
-317.012	8.368	-0.167	0.126
-315.997	-61.548	0.316	0.133
-314.983	-200.000	-0.037	-0.234
-313.968	-120.729	0.123	0.021
-312.953	-72.052	0.247	-0.092
-311.939	231.473	0.084	-0.137
-310.924	120.414	0.039	0.048
-309.910	241.819	0.142	-0.239
-308.895	165.418	-0.111	0.157
-307.880	440.099	-0.048	0.105
-306.866	-182.109	-0.058	0.001
-305.851	38.420	0.153	0.137
-304.837	-60.033	0.171	-0.073
-303.822	-155.771	0.067	-0.004
-302.807	93.303	-0.090	-0.102
-301.793	-111.325	0.280	-0.057
-300.778	-8.302	-0.137	0.092
-299.764	800.000	0.081	0.295
-298.749	87.536	-0.052	-0.058
-297.735	-200.000	0.033	0.224
-296.720	-200.000	0.046	-0.319
-295.705	40.031	0.066	0.059
-294.691	-96.015	0.326	0.087
-293.676	-200.000	0.028	0.336
-292.662	121.079	0.162	-0.202
-291.647	44.142	0.265	-0.244
-290.632	-138.584	0.089	-0.010
-289.618	-139.942	0.034	-0.004
-288.603	-200.000	-0.030	-0.264
-287.589	31.187	-0.236	0.203
-286.574	-200.000	0.024	-0.123
-285.559	-200.000	0.016	0.159
-284.545	35.089	-0.186	0.163
-283.530	-62.419	-0.094	-0.039
-282.516	71.728	-0.234	0.244
-281.501	-96.563	0.275	0.073
-280.486	46.274	0.149	-0.138
-279.472	-130.529	-0.177	-0.024
-278.457	256.025	-0.181	0.312
-277.443	79.230	0.156	-0.167
-276.428	-200.000	0.020	0.309
-275.413	-200.000	0.022	-0.568
-274.399	397.362	-0.113	0.238
-273.384	-157.545	0.480	0.029
-272.370	324.759	-0.124	0.238
-271.355	-120.709	0.070	-0.012
-270.340	244.883	0.062	0.104
-269.326	800.000	-0.086	-0.300
-268.311	76.580	0.095	-0.101
-267.297	-131.181	0.182	-0.024
-266.282	-160.011	0.124	-0.007
-265.267	219.899	-0.227	-0.364
-264.253	-148.056	0.124	-0.010
-263.238	182.356	-0.131	-0.193
-262.224	97.512	0.213	-0.246
-261.209	375.611	-0.028	-0.058
-260.195	273.379	0.163	0.290
-259.180	-200.000	-0.199	0.001
-258.165	-79.045	0.101	0.034
-257.151	115.047	0.016	0.020
-256.136	188.200	0.093	0.139
-255.122	-188.614	-0.336	0.004
-254.107	800.000	0.104	0.313
-253.092	-200.000	0.043	0.211
-252.078	156.223	-0.046	-0.064
-251.063	-140.937	-0.352	0.036
-250.049	24.734	0.114	-0.095
-249.034	-200.000	-0.079	0.000
-248.019	26.879	-0.284	-0.238
-247.005	-178.468	0.063	-0.001
-245.990	800.000	-0.055	-0.209
-244.976	800.000	-0.085	0.280
-243.961	230.008	-0.248	0.406
-242.946	-200.000	0.058	0.822
-241.932	5.728	-0.163	-0.121
-240.917	-200.000	-0.028	-0.242
-239.903	-189.960	0.061	-0.001
-238.888	72.400	0.039	0.041
-237.873	-200.000	-0.010	-0.293
-236.859	-200.000	0.002	-0.063
-235.844	-200.000	-0.048	0.230
-234.830	-93.026	-0.178	0.050
-233.815	671.932	0.129	-0.336
-232.800	-73.596	0.027	-0.010
-231.786	111.616	0.160	-0.193
-230.771	-91.471	-0.072	-0.021
-229.757	800.000	0.058	0.206
-228.742	-23.061	-0.261	-0.157
-227.727	125.036	0.251	0.316
-226.713	-42.359	-0.212	-0.108
-225.698	-160.893	0.057	0.003
-224.684	78.083	-0.045	-0.048
-223.669	-20.236	0.275	0.169
-222.655	-37.698	0.186	-0.099
-221.640	-87.450	0.378	0.115
-220.625	-176.283	-0.228	0.006
-219.611	800.000	0.030	-0.120
-218.596	800.000	-0.065	-0.224
-217.582	239.033	0.073	0.122
-216.567	303.774	0.143	0.265
-215.552	800.000	-0.050	-0.139
-214.538	-200.000	0.022	-0.455
-213.523	-200.000	0.006	-0.128
-212.509	614.513	0.011	0.028
-211.494	-90.198	-0.246	-0.071
-210.479	800.000	0.093	-0.268
-209.465	-109.684	0.315	0.066
-208.450	-89.654	0.017	-0.005
-207.436	136.964	0.082	-0.108
-206.421	-200.000	0.040	0.297
-205.406	84.864	0.157	0.172
-204.392	175.481	-0.093	-0.134
-203.377	-200.000	0.007	-0.085
-202.363	-132.307	0.136	0.018
-201.348	329.809	0.131	0.251
-200.333	-56.342	-0.203	-0.090
-199.319	21.937	-0.100	0.081
-198.304	-88.521	-0.058	-0.017
-197.290	150.747	0.214	0.291
-196.275	185.211	-0.077	-0.114
-195.260	800.000	0.028	0.111
-194.246	-83.133	-0.063	0.020
-193.231	-100.583	-0.218	0.054
-192.217	-14.340	-0.127	-0.082
-191.202	-45.468	-0.318	-0.157
-190.187	17.594	-0.231	-0.183
-189.173	-155.205	0.047	-0.003
-188.158	246.344	0.093	-0.157
-187.144	-92.389	-0.287	-0.081
-186.129	800.000	-0.042	0.180
-185.114	-125.983	-0.157	0.024
-184.100	800.000	0.076	-0.262
-183.085	-112.327	0.235	0.047
-182.071	334.755	-0.083	0.162
-181.056	-9.682	-0.142	0.095
-180.042	-52.521	0.271	-0.125
-179.027	108.586	0.122	0.145
-178.012	-172.993	0.077	-0.002
-176.998	-200.000	-0.010	0.222
-175.983	-200.000	-0.014	0.181
-174.969	-8.080	0.345	0.232
-173.954	279.121	0.015	-0.027
-172.939	-200.000	0.017	-0.106
-171.925	800.000	0.066	0.252
-170.910	52.661	-0.055	-0.052
-169.896	-47.107	-0.196	0.095
-168.881	740.707	-0.107	0.286
-167.866	-200.000	0.014	-0.117
-166.852	-13.275	-0.211	0.137
-165.837	-3.777	-0.261	-0.181
-164.823	787.328	-0.090	-0.245
-163.808	97.399	-0.086	-0.098
-162.793	-102.061	0.035	-0.008
-161.779	113.107	0.062	0.075
-160.764	-200.000	0.012	-0.251
-159.750	-66.070	-0.200	-0.080
-158.735	-89.528	0.173	0.051
-157.720	-88.165	-0.077	-0.023
-156.706	13.591	-0.121	0.094
-155.691	800.000	0.042	-0.156
-154.677	-200.000	0.013	-0.209
-153.662	102.011	-0.091	-0.107
-152.647	26.298	-0.151	0.126
-151.633	-55.791	-0.164	-0.073
-150.618	-14.906	0.044	0.028
-149.604	-131.366	-0.048	0.006
-148.589	216.379	0.095	-0.150
-147.574	376.977	-0.191	-0.389
-146.560	800.000	-0.018	0.077
-145.545	-200.000	-0.007	-0.095
-144.531	103.766	0.302	-0.354
-143.516	-133.688	0.234	0.029
-142.502	422.151	0.107	0.230
-141.487	-70.256	0.227	0.086
-140.472	-65.988	-0.245	-0.097
-139.458	-146.931	0.178	-0.015
-138.443	-7.800	0.179	0.121
-137.429	34.645	0.184	0.161
-136.414	800.000	0.137	-0.476
-135.399	-200.000	-0.030	0.260
-134.385	-13.176	-0.068	0.044
-133.370	15.577	-0.204	-0.160
-132.356	163.582	-0.058	-0.081
-131.341	-91.105	-0.266	-0.076
-130.326	51.220	-0.078	0.074
-129.312	32.672	-0.221	0.191
-128.297	800.000	-0.033	-0.143
-127.283	168.762	0.100	0.143
-126.268	-121.215	0.211	0.035
-125.253	57.862	-0.176	0.172
-124.239	-20.419	-0.175	0.108
-123.224	800.000	-0.043	0.150
-122.210	-112.401	0.064	0.013
-121.195	-200.000	0.007	0.057
-120.180	-200.000	0.014	-0.213
