DTS Sentinel unit serial number:	SN413079Multiplexer serial number:	ORYXHardware model number:	OX4-SRSoftware version number:	ORYX F/W v4.00 Oryx Data Collector v3.7.2.0data status	okinstallation	princeton_trtdifferential loss correction	single-endedforward channel	channel 1reverse channel	N/Adate	2019/09/18time	22:58:35forward acquisition time	60.00reverse acquisition time	0.00gamma	496.2192k internal	0.2341k external	0.2341temperature offset calibration	1.0015default loss term (dB/km)	0.3790temperature slope calibration	1.0000multiplexer offset coefficient	1.0000multiplexer slope coefficient	1.0000fibre end	0.00T internal ref (°C)	24.06T ext. ref 1 (°C)	0.79T ext. ref 2 (°C)	18.06length (m)	temperature (°C)	Stokes	anti-Stokes-747.200	128.479	0.160	0.204
-746.185	-200.000	-0.041	0.205
-745.171	-167.599	0.221	-0.009
-744.156	56.313	0.187	0.182
-743.142	-107.983	0.173	-0.038
-742.127	499.810	-0.122	0.281
-741.112	577.239	0.060	0.147
-740.098	-200.000	-0.049	0.295
-739.083	13.653	0.117	0.091
-738.069	65.802	-0.178	0.180
-737.054	800.000	0.076	-0.312
-736.039	28.855	-0.072	0.061
-735.025	652.088	0.115	0.295
-734.010	57.740	0.087	0.086
-732.996	800.000	0.062	-0.259
-731.981	-200.000	-0.032	0.404
-730.966	-141.481	0.247	0.025
-729.952	-88.011	0.084	-0.025
-728.937	-200.000	-0.006	-0.163
-727.923	588.302	0.163	0.403
-726.908	-121.673	-0.154	-0.026
-725.894	-91.384	-0.211	-0.060
-724.879	-127.251	-0.342	-0.050
-723.864	28.411	-0.242	0.205
-722.850	6.738	0.199	-0.148
-721.835	-200.000	0.053	-0.245
-720.821	-71.433	0.035	-0.013
-719.806	8.047	0.123	0.092
-718.791	-200.000	-0.002	-0.466
-717.777	-90.771	-0.128	0.037
-716.762	224.407	-0.091	-0.148
-715.748	5.249	0.120	0.088
-714.733	800.000	-0.050	-0.161
-713.718	-200.000	0.060	0.387
-712.704	800.000	-0.032	0.109
-711.689	41.442	0.165	0.150
-710.675	-18.602	0.139	0.087
-709.660	-95.959	0.206	0.055
-708.645	-200.000	-0.036	-0.285
-707.631	221.392	-0.081	0.130
-706.616	25.851	-0.117	-0.097
-705.602	25.421	0.050	0.042
-704.587	-112.665	-0.259	0.052
-703.572	254.056	0.207	0.353
-702.558	-2.893	-0.098	0.069
-701.543	329.080	-0.026	-0.050
-700.529	373.486	-0.152	-0.309
-699.514	-200.000	0.086	0.000
-698.499	517.305	0.173	0.404
-697.485	-105.379	-0.188	0.043
-696.470	-119.469	0.198	-0.034
-695.456	-115.468	-0.126	-0.024
-694.441	-28.198	0.152	0.088
-693.426	-200.000	-0.014	-0.094
-692.412	294.737	-0.100	-0.183
-691.397	494.384	0.080	0.183
-690.383	16.833	-0.146	-0.115
-689.368	203.909	0.163	0.253
-688.354	322.344	0.084	0.159
-687.339	3.052	-0.256	-0.186
-686.324	-100.178	-0.215	0.053
-685.310	-200.000	-0.002	-0.078
-684.295	105.042	-0.055	-0.065
-683.281	27.235	0.333	0.279
-682.266	106.442	-0.273	-0.324
-681.251	39.294	0.115	-0.103
-680.237	233.445	0.092	-0.151
-679.222	387.187	-0.178	0.369
-678.208	-82.844	-0.183	-0.059
-677.193	145.068	0.209	-0.279
-676.178	800.000	-0.025	-0.101
-675.164	37.889	-0.191	0.169
-674.149	157.732	-0.077	0.107
-673.135	245.335	-0.133	-0.223
-672.120	-128.216	-0.231	0.033
-671.105	-151.438	-0.072	-0.005
-670.091	538.191	-0.068	-0.162
-669.076	164.065	0.093	0.131
-668.062	800.000	0.093	0.273
-667.047	102.640	0.120	-0.140
-666.032	469.724	-0.047	-0.105
-665.018	61.624	-0.064	0.064
-664.003	-138.148	-0.188	0.021
-662.989	23.666	0.382	0.314
-661.974	245.181	0.082	0.138
-660.959	-137.234	0.259	-0.029
-659.945	141.102	0.083	-0.110
-658.930	800.000	0.029	0.106
-657.916	97.330	0.228	0.262
-656.901	-200.000	0.013	0.109
-655.886	800.000	0.080	-0.245
-654.872	-200.000	-0.007	-0.172
-653.857	-200.000	-0.063	-0.284
-652.843	800.000	-0.122	-0.404
-651.828	174.212	0.158	0.229
-650.814	-131.017	-0.265	0.035
-649.799	8.846	-0.229	-0.173
-648.784	800.000	-0.076	-0.278
-647.770	523.503	0.181	0.426
-646.755	-118.674	-0.517	-0.091
-645.741	107.615	-0.208	-0.247
-644.726	20.124	0.255	0.205
-643.711	131.040	-0.096	-0.124
-642.697	502.049	-0.062	-0.144
-641.682	402.423	-0.237	-0.498
-640.668	-67.197	0.263	-0.103
-639.653	-76.252	-0.216	-0.076
-638.638	-39.273	-0.313	0.164
-637.624	-200.000	-0.011	0.079
-636.609	-1.839	0.411	0.289
-635.595	-200.000	0.008	0.213
-634.580	28.196	0.117	0.098
-633.565	-103.127	-0.232	0.055
-632.551	57.794	0.229	0.224
-631.536	18.712	0.136	-0.108
-630.522	384.209	-0.037	-0.075
-629.507	-89.889	0.050	0.015
-628.492	344.445	-0.180	0.353
-627.478	54.153	-0.116	-0.111
-626.463	355.296	0.079	-0.157
-625.449	-160.689	-0.124	-0.007
-624.434	405.736	-0.025	0.052
-623.419	800.000	-0.113	-0.387
-622.405	-162.799	0.198	0.010
-621.390	-200.000	-0.005	0.489
-620.376	-75.732	-0.208	-0.074
-619.361	249.743	-0.083	-0.141
-618.346	-1.220	0.064	-0.045
-617.332	51.689	0.187	-0.177
-616.317	-200.000	0.018	-0.119
-615.303	-158.372	0.232	0.013
-614.288	83.932	-0.176	-0.192
-613.273	-133.143	-0.251	-0.032
-612.259	-200.000	0.006	0.093
-611.244	800.000	0.107	0.300
-610.230	-200.000	0.021	-0.100
-609.215	52.631	0.176	0.168
-608.201	32.960	0.119	0.102
-607.186	157.494	-0.139	-0.192
-606.171	-92.334	-0.161	-0.045
-605.157	-200.000	0.008	0.174
-604.142	-200.000	-0.019	-0.109
-603.128	-35.126	-0.172	0.093
-602.113	613.552	0.205	0.512
-601.098	-55.392	-0.049	0.022
-600.084	-34.265	-0.373	0.204
-599.069	56.798	-0.217	0.211
-598.055	-2.867	-0.274	-0.191
-597.040	-200.000	-0.001	0.181
-596.025	44.982	0.176	-0.161
-595.011	99.770	0.133	-0.154
-593.996	-200.000	-0.013	0.311
-592.982	-53.836	0.032	-0.014
-591.967	117.065	-0.159	-0.194
-590.952	-41.310	-0.239	-0.123
-589.938	-178.060	0.290	-0.007
-588.923	241.027	-0.216	0.360
-587.909	-139.748	0.119	0.013
-586.894	-74.444	0.099	0.035
-585.879	-7.889	-0.208	-0.140
-584.865	-200.000	-0.030	-0.340
-583.850	-59.689	0.072	-0.031
-582.836	-200.000	-0.003	-0.020
-581.821	179.182	-0.081	0.118
-580.806	725.888	0.200	-0.530
-579.792	223.859	0.076	0.121
-578.777	228.598	0.153	-0.249
-577.763	-75.722	0.346	0.122
-576.748	-41.591	-0.152	-0.078
-575.733	800.000	0.055	0.168
-574.719	800.000	-0.088	-0.265
-573.704	-200.000	0.017	0.285
-572.690	317.039	0.135	0.254
-571.675	112.313	0.176	0.212
-570.661	-52.773	-0.319	0.147
-569.646	-34.989	-0.234	-0.127
-568.631	702.940	0.086	-0.225
-567.617	-57.814	0.199	-0.087
-566.602	65.406	0.047	-0.047
-565.588	-9.791	0.487	0.323
-564.573	-70.494	-0.244	-0.092
-563.558	230.811	-0.109	-0.177
-562.544	-3.117	0.114	0.079
-561.529	-133.626	-0.059	-0.007
-560.515	250.729	-0.257	-0.434
-559.500	-104.777	0.288	-0.066
-558.485	-50.573	-0.098	-0.046
-557.471	31.651	0.119	0.102
-556.456	-200.000	0.006	-0.069
-555.442	-91.188	-0.190	-0.054
-554.427	478.179	-0.086	0.193
-553.412	-200.000	-0.020	-0.156
-552.398	55.386	0.102	-0.098
-551.383	-44.175	-0.281	0.140
-550.369	348.829	-0.147	-0.289
-549.354	272.901	-0.215	-0.377
-548.339	-10.186	-0.205	-0.135
-547.325	207.753	0.158	0.246
-546.310	-196.944	-0.243	0.002
-545.296	-128.525	-0.197	0.028
-544.281	800.000	-0.010	-0.036
-543.266	439.335	0.136	-0.295
-542.252	800.000	0.088	0.332
-541.237	99.059	-0.172	-0.197
-540.223	800.000	-0.012	-0.034
-539.208	-128.321	-0.222	-0.031
-538.193	-44.983	-0.265	-0.131
-537.179	356.825	0.109	0.216
-536.164	800.000	-0.041	-0.126
-535.150	-200.000	-0.024	0.205
-534.135	-200.000	0.040	-0.190
-533.121	56.273	0.175	-0.169
-532.106	140.002	-0.132	0.173
-531.091	-200.000	-0.002	-0.141
-530.077	6.521	-0.133	0.098
-529.062	-28.690	0.334	-0.191
-528.048	-138.338	-0.054	0.006
-527.033	-187.158	0.122	-0.002
-526.018	-64.170	0.354	-0.143
-525.004	-26.517	0.052	-0.030
-523.989	194.965	-0.088	0.133
-522.975	-200.000	0.022	-0.099
-521.960	150.598	-0.268	0.362
-520.945	-101.203	-0.197	-0.048
-519.931	576.221	0.064	0.155
-518.916	-81.853	-0.225	-0.073
-517.902	800.000	0.067	-0.221
-516.887	492.535	0.044	-0.100
-515.872	57.955	-0.109	0.106
-514.858	117.423	-0.122	0.149
-513.843	165.844	0.302	0.425
-512.829	-200.000	0.031	-0.242
-511.814	800.000	-0.053	-0.155
-510.799	103.190	0.200	-0.232
-509.785	-110.254	0.125	-0.026
-508.770	-28.794	-0.178	0.102
-507.756	153.781	-0.197	-0.268
-506.741	800.000	-0.022	0.079
-505.726	34.388	0.178	-0.154
-504.712	-178.746	0.204	-0.005
-503.697	266.873	0.051	-0.088
-502.683	-200.000	0.042	-0.224
-501.668	-57.907	0.158	0.069
-500.653	-170.452	-0.108	-0.004
-499.639	800.000	-0.109	0.339
-498.624	-200.000	-0.004	0.035
-497.610	-200.000	-0.025	0.177
-496.595	-26.690	0.108	-0.063
-495.581	-134.448	0.335	-0.041
-494.566	-200.000	0.013	-0.059
-493.551	11.466	-0.029	-0.022
-492.537	-94.400	0.220	0.060
-491.522	-73.963	0.355	0.128
-490.508	-65.508	-0.266	-0.106
-489.493	625.094	0.073	0.182
-488.478	55.181	-0.117	-0.112
-487.464	175.426	-0.249	0.358
-486.449	-200.000	0.047	0.346
-485.435	149.254	-0.176	0.237
-484.420	-71.727	-0.084	-0.031
-483.405	-19.618	-0.118	0.073
-482.391	-99.552	0.213	-0.053
-481.376	-200.000	-0.002	-0.399
-480.362	-200.000	0.030	-0.368
-479.347	-153.875	0.268	-0.018
-478.332	23.179	0.068	-0.056
-477.318	59.993	-0.187	-0.184
-476.303	0.978	-0.073	-0.052
-475.289	-57.105	0.056	-0.024
-474.274	-200.000	-0.015	-0.487
-473.259	-171.081	0.276	-0.009
-472.245	-200.000	-0.041	0.194
-471.230	-12.441	-0.109	0.071
-470.216	190.761	-0.153	0.229
-469.201	258.548	0.181	0.310
-468.186	-38.419	-0.288	-0.151
-467.172	119.757	0.231	0.284
-466.157	-200.000	0.002	0.106
-465.143	-102.219	-0.061	-0.014
-464.128	-89.496	0.118	0.034
-463.113	800.000	0.014	-0.056
-462.099	193.455	0.102	-0.154
-461.084	-13.737	-0.011	-0.007
-460.070	144.759	0.030	-0.040
-459.055	800.000	-0.063	0.181
-458.040	-200.000	0.000	0.074
-457.026	9.866	0.165	-0.124
-456.011	-100.310	-0.161	-0.040
-454.997	535.305	0.085	-0.199
-453.982	-69.276	-0.223	-0.085
-452.968	83.643	-0.134	-0.145
-451.953	-200.000	0.010	-0.103
-450.938	5.795	0.234	-0.171
-449.924	340.887	-0.050	0.096
-448.909	164.947	-0.052	0.073
-447.895	366.379	-0.054	0.107
-446.880	800.000	0.067	-0.192
-445.865	800.000	-0.086	-0.336
-444.851	180.843	0.178	0.259
-443.836	-165.610	0.300	0.013
-442.822	54.136	-0.023	-0.022
-441.807	-44.537	0.129	-0.064
-440.792	217.256	0.062	-0.097
-439.778	-47.965	0.203	-0.097
-438.763	-200.000	0.082	0.404
-437.749	-58.480	-0.278	0.119
-436.734	-78.721	0.169	-0.057
-435.719	698.308	0.062	-0.163
-434.705	-200.000	0.053	0.249
-433.690	-99.265	0.134	-0.033
-432.676	594.469	0.095	-0.234
-431.661	-77.100	-0.051	-0.018
-430.646	46.751	-0.425	0.391
-429.632	-39.768	0.109	-0.057
-428.617	-165.590	0.012	-0.001
-427.603	-200.000	-0.003	0.097
-426.588	800.000	0.066	-0.218
-425.573	97.552	0.061	-0.070
-424.559	-116.266	0.242	-0.044
-423.544	35.277	-0.107	-0.093
-422.530	-74.725	0.195	-0.069
-421.515	-9.001	-0.269	0.178
-420.500	800.000	0.061	-0.182
-419.486	424.817	-0.095	-0.202
-418.471	-30.376	0.287	-0.161
-417.457	-200.000	0.014	0.148
-416.442	-200.000	0.021	-0.184
-415.428	44.014	-0.160	-0.145
-414.413	-89.104	-0.262	-0.077
-413.398	132.559	-0.163	-0.208
-412.384	86.915	-0.327	-0.357
-411.369	-200.000	0.022	0.322
-410.355	437.020	-0.030	0.064
-409.340	-200.000	0.000	0.080
-408.325	52.599	-0.057	0.054
-407.311	-33.555	-0.122	-0.067
-406.296	244.628	0.050	-0.083
-405.282	364.248	-0.062	-0.122
-404.267	140.192	0.148	-0.194
-403.252	405.236	-0.135	0.281
-402.238	522.308	-0.073	0.170
-401.223	581.116	-0.053	0.129
-400.209	-80.318	-0.558	0.184
-399.194	-109.264	-0.142	-0.030
-398.179	76.581	-0.116	0.122
-397.165	-139.927	0.080	-0.008
-396.150	489.665	0.064	0.145
-395.136	368.693	0.139	0.278
-394.121	-200.000	-0.023	0.189
-393.106	437.973	0.023	-0.049
-392.092	-200.000	-0.017	-0.329
-391.077	-127.559	-0.306	-0.044
-390.063	303.177	-0.168	0.307
-389.048	7.502	0.069	-0.051
-388.033	336.953	0.050	-0.096
-387.019	-104.456	0.231	0.053
-386.004	800.000	0.084	-0.332
-384.990	90.163	-0.051	-0.056
-383.975	123.232	0.158	-0.196
-382.960	-138.521	0.208	-0.023
-381.946	-131.478	0.325	0.042
-380.931	-64.661	-0.303	0.121
-379.917	9.709	0.164	0.123
-378.902	259.688	0.143	-0.244
-377.888	-69.906	0.276	-0.104
-376.873	800.000	-0.141	-0.455
-375.858	-91.337	-0.051	-0.014
-374.844	-200.000	-0.015	-0.161
-373.829	-105.501	-0.032	-0.007
-372.815	800.000	0.028	-0.081
-371.800	273.096	0.069	-0.120
-370.785	766.981	-0.165	0.443
-369.771	-112.445	-0.232	-0.046
-368.756	-56.494	0.122	0.054
-367.742	-200.000	0.028	-0.203
-366.727	-93.186	-0.088	-0.024
-365.712	419.781	0.106	0.223
-364.698	-92.758	-0.279	0.077
-363.683	-38.163	0.175	-0.092
-362.669	-148.380	0.217	-0.018
-361.654	800.000	-0.053	-0.200
-360.639	73.004	-0.065	-0.067
-359.625	-123.909	-0.276	-0.043
-358.610	800.000	-0.006	0.021
-357.596	49.526	-0.200	-0.186
-356.581	-200.000	0.017	0.082
-355.566	294.531	-0.085	-0.152
-354.552	-101.832	0.053	-0.013
-353.537	-45.219	-0.296	0.145
-352.523	-79.368	-0.351	0.117
-351.508	3.202	-0.505	-0.362
-350.493	800.000	-0.063	-0.200
-349.479	800.000	0.083	-0.257
-348.464	-200.000	-0.035	0.179
-347.450	11.072	0.057	0.043
-346.435	-47.218	0.052	-0.025
-345.420	-130.739	0.193	-0.026
-344.406	781.973	-0.059	0.160
-343.391	-103.538	-0.467	-0.108
-342.377	-200.000	-0.019	0.082
-341.362	800.000	-0.074	0.204
-340.348	100.231	-0.268	0.307
-339.333	105.898	0.180	-0.210
-338.318	-135.496	-0.402	0.047
-337.304	46.189	0.240	0.220
-336.289	116.074	-0.090	0.108
-335.275	-200.000	-0.023	0.331
-334.260	-42.245	0.263	-0.133
-333.245	800.000	0.106	-0.291
-332.231	-136.747	0.218	-0.025
-331.216	-165.250	0.398	-0.017
-330.202	110.715	0.105	0.125
-329.187	42.150	0.139	-0.124
-328.172	-200.000	-0.010	0.318
-327.158	-77.895	-0.509	0.173
-326.143	-200.000	-0.004	-0.199
-325.129	-51.858	-0.301	-0.138
-324.114	-33.943	0.151	-0.082
-323.099	800.000	-0.045	0.132
-322.085	209.677	-0.029	0.045
-321.070	-200.000	0.021	-0.120
-320.056	-172.588	-0.297	-0.009
-319.041	-200.000	-0.017	-0.073
-318.026	168.427	-0.032	0.045
-317.012	-200.000	-0.013	-0.125
-315.997	-200.000	0.059	-0.668
-314.983	-180.761	0.121	-0.002
-313.968	393.309	-0.098	-0.202
-312.953	800.000	-0.058	-0.225
-311.939	-7.665	-0.158	-0.105
-310.924	383.758	0.094	-0.191
-309.910	-14.530	0.206	-0.130
-308.895	134.329	-0.082	-0.105
-307.880	8.765	-0.128	0.095
-306.866	258.666	0.096	0.164
-305.851	153.193	-0.202	-0.272
-304.837	-112.469	-0.254	-0.050
-303.822	800.000	0.075	0.254
-302.807	-117.266	-0.139	0.025
-301.793	1.536	0.032	-0.023
-300.778	21.212	0.188	0.150
-299.764	-23.104	-0.199	-0.118
-298.749	-154.551	0.318	0.021
-297.735	-91.720	0.272	-0.076
-296.720	226.804	0.062	-0.100
-295.705	38.172	0.197	-0.172
-294.691	221.963	-0.187	0.296
-293.676	-16.197	0.257	0.161
-292.662	-200.000	-0.028	0.288
-291.647	196.657	-0.121	-0.182
-290.632	-200.000	-0.023	-0.530
-289.618	-63.742	-0.055	-0.022
-288.603	-54.568	0.086	-0.039
-287.589	152.510	-0.198	0.266
-286.574	-200.000	-0.005	0.058
-285.559	8.627	0.268	0.198
-284.545	87.849	0.115	0.125
-283.530	-58.771	0.093	-0.040
-282.516	143.431	0.223	0.292
-281.501	23.658	0.090	-0.073
-280.486	134.691	0.118	0.150
-279.472	-140.100	0.239	0.025
-278.457	800.000	0.100	0.305
-277.443	184.563	-0.260	0.379
-276.428	69.273	0.136	-0.138
-275.413	-134.727	0.207	0.025
-274.399	28.159	-0.077	-0.064
-273.384	76.452	0.249	-0.259
-272.370	-77.602	0.183	0.062
-271.355	800.000	0.050	-0.155
-270.340	-11.396	0.388	0.251
-269.326	410.509	-0.149	0.311
-268.311	205.817	0.246	0.376
-267.297	37.774	-0.180	-0.157
-266.282	206.624	-0.240	0.368
-265.267	741.022	0.109	0.289
-264.253	179.219	0.120	0.172
-263.238	-94.632	-0.092	0.024
-262.224	-200.000	-0.018	-0.109
-261.209	-200.000	-0.033	0.187
-260.195	-8.335	0.103	0.068
-259.180	-200.000	-0.008	0.253
-258.165	70.014	0.055	0.055
-257.151	235.804	-0.155	-0.251
-256.136	377.373	0.166	0.334
-255.122	-130.646	0.084	-0.011
-254.107	-194.978	-0.264	-0.002
-253.092	88.942	-0.149	0.163
-252.078	23.084	-0.135	0.109
-251.063	-7.373	0.287	0.191
-250.049	275.294	0.164	0.287
-249.034	800.000	0.067	0.258
-248.019	800.000	0.036	0.132
-247.005	-200.000	0.010	-0.107
-245.990	-200.000	-0.020	0.312
-244.976	40.309	0.241	0.213
-243.961	206.672	-0.124	0.191
-242.946	-41.870	0.232	0.117
-241.932	-200.000	-0.041	0.293
-240.917	87.096	-0.116	-0.126
-239.903	-17.419	-0.238	-0.147
-238.888	-200.000	-0.020	0.088
-237.873	346.245	0.081	-0.156
-236.859	-97.304	-0.173	-0.044
-235.844	-200.000	-0.045	-0.391
-234.830	800.000	0.095	0.279
-233.815	53.724	-0.116	0.109
-232.800	359.626	0.142	0.279
-231.786	207.343	0.056	0.087
-230.771	-200.000	0.028	0.260
-229.757	800.000	0.055	0.182
-228.742	-200.000	-0.045	0.310
-227.727	-200.000	0.070	-0.481
-226.713	-200.000	-0.003	-0.160
-225.698	304.035	0.109	-0.198
-224.684	-26.768	-0.203	0.116
-223.669	-80.981	-0.253	0.082
-222.655	418.117	0.073	-0.154
-221.640	177.447	0.354	0.507
-220.625	18.050	-0.135	-0.106
-219.611	-122.658	0.313	-0.050
-218.596	151.547	0.121	0.162
-217.582	-21.215	-0.163	-0.098
-216.567	609.033	0.053	0.130
-215.552	113.046	-0.227	-0.270
-214.538	-105.356	0.209	0.047
-213.523	408.891	-0.160	-0.333
-212.509	-200.000	-0.016	-0.081
-211.494	30.333	0.096	-0.081
-210.479	800.000	0.065	0.195
-209.465	-124.824	-0.169	0.026
-208.450	-170.380	0.237	0.008
-207.436	84.560	0.035	0.038
-206.421	119.659	0.126	-0.154
-205.406	-24.177	-0.197	0.116
-204.392	51.578	-0.162	0.151
-203.377	170.215	-0.034	-0.047
-202.363	1.702	-0.216	-0.153
-201.348	109.969	-0.070	0.083
-200.333	-183.212	0.311	-0.005
-199.319	191.769	-0.059	0.088
-198.304	163.419	-0.160	-0.220
-197.290	-104.486	-0.145	0.033
-196.275	-200.000	-0.016	-0.167
-195.260	5.695	0.200	-0.145
-194.246	800.000	0.061	-0.190
-193.231	-200.000	-0.011	0.098
-192.217	-200.000	-0.012	-0.139
-191.202	800.000	-0.120	0.362
-190.187	527.785	-0.042	0.097
-189.173	242.783	0.094	0.154
-188.158	-132.247	0.329	-0.042
-187.144	-45.507	0.188	0.091
-186.129	-65.925	0.342	-0.134
-185.114	-115.653	-0.155	-0.029
-184.100	-194.431	-0.204	0.002
-183.085	68.383	0.138	0.139
-182.071	124.596	-0.104	-0.129
-181.056	115.029	0.145	-0.174
-180.042	190.919	-0.195	0.287
-179.027	394.808	-0.034	-0.069
-178.012	800.000	-0.035	-0.120
-176.998	-148.704	-0.182	-0.014
-175.983	-125.739	0.494	-0.073
-174.969	-200.000	-0.013	-0.221
-173.954	-103.596	0.174	0.040
-172.939	-42.570	0.179	0.090
-171.925	319.114	0.121	0.224
-170.910	163.424	0.030	0.041
-169.896	2.608	-0.080	0.057
-168.881	-124.288	0.241	0.037
-167.866	136.512	0.173	-0.221
-166.852	-200.000	0.006	-0.175
-165.837	141.500	0.110	-0.143
-164.823	800.000	0.068	-0.246
-163.808	-200.000	-0.018	0.186
-162.793	-133.428	0.123	0.015
-161.779	-92.537	0.198	-0.055
-160.764	-200.000	0.015	0.097
-159.750	89.712	-0.172	-0.188
-158.735	-156.864	0.082	-0.005
-157.720	-112.332	-0.294	0.058
-156.706	50.054	0.217	0.201
-155.691	-104.895	-0.420	-0.095
-154.677	-2.065	0.156	0.108
-153.662	224.512	-0.090	0.143
-152.647	151.779	0.092	-0.122
-151.633	800.000	-0.040	-0.145
-150.618	37.687	-0.042	0.037
-149.604	105.042	0.049	-0.057
-148.589	-200.000	-0.004	0.128
-147.574	144.891	-0.148	-0.193
-146.560	174.999	0.282	-0.400
-145.545	285.252	-0.093	-0.164
-144.531	-75.844	-0.245	0.085
-143.516	-46.718	0.176	0.085
-142.502	390.068	0.136	-0.275
-141.487	-173.570	-0.100	0.003
-140.472	-48.730	-0.385	-0.181
-139.458	144.532	0.162	-0.211
-138.443	372.029	0.079	0.158
-137.429	-200.000	-0.041	0.301
-136.414	-130.974	-0.161	0.021
-135.399	-200.000	0.026	0.212
-134.385	144.417	-0.083	-0.109
-133.370	-200.000	-0.014	-0.093
-132.356	-117.558	-0.421	0.074
-131.341	-183.162	0.394	0.007
-130.326	800.000	0.094	0.285
-129.312	14.746	0.109	-0.083
-128.297	-200.000	0.000	0.012
-127.283	-124.783	0.333	0.050
-126.268	367.717	-0.039	-0.076
-125.253	357.876	-0.082	-0.160
-124.239	-93.195	0.105	0.029
-123.224	-200.000	0.007	-0.342
-122.210	-181.639	-0.231	-0.004
