DTS Sentinel unit serial number:	SN413079Multiplexer serial number:	ORYXHardware model number:	OX4-SRSoftware version number:	ORYX F/W v4.00 Oryx Data Collector v3.7.2.0data status	okinstallation	princeton_trtdifferential loss correction	single-endedforward channel	channel 1reverse channel	N/Adate	2019/09/12time	16:28:11forward acquisition time	60.00reverse acquisition time	0.00gamma	496.2192k internal	0.2304k external	0.2304temperature offset calibration	1.0087default loss term (dB/km)	0.3790temperature slope calibration	1.0000multiplexer offset coefficient	1.0000multiplexer slope coefficient	1.0000fibre end	0.00T internal ref (°C)	37.42T ext. ref 1 (°C)	2.55T ext. ref 2 (°C)	29.80length (m)	temperature (°C)	Stokes	anti-Stokes-747.200	-99.399	-0.096	-0.025
-746.185	23.357	0.148	0.124
-745.171	-37.173	0.218	0.119
-744.156	-200.000	-0.005	0.347
-743.142	144.055	0.187	0.254
-742.127	224.645	-0.104	0.171
-741.112	-41.763	0.203	0.106
-740.098	800.000	-0.150	0.529
-739.083	-82.948	-0.085	0.028
-738.069	340.610	-0.102	0.203
-737.054	143.221	0.239	0.324
-736.039	-92.857	-0.069	-0.020
-735.025	-200.000	0.009	0.256
-734.010	800.000	0.049	-0.142
-732.996	-18.734	-0.179	0.114
-731.981	-6.545	-0.072	-0.050
-730.966	748.111	0.018	0.050
-729.952	187.252	-0.095	-0.144
-728.937	-200.000	-0.105	-0.000
-727.923	-45.095	0.205	-0.104
-726.908	800.000	-0.024	0.094
-725.894	-200.000	0.023	-0.146
-724.879	493.493	0.048	-0.111
-723.864	86.736	-0.179	0.201
-722.850	-200.000	-0.011	0.062
-721.835	113.872	-0.110	-0.137
-720.821	-12.196	-0.201	-0.134
-719.806	-200.000	0.008	-0.245
-718.791	-145.697	0.100	-0.009
-717.777	47.948	0.116	0.111
-716.762	-47.260	0.234	0.116
-715.748	800.000	0.056	0.196
-714.733	-32.346	-0.117	0.066
-713.718	-200.000	-0.017	-0.092
-712.704	286.416	0.170	0.312
-711.689	-91.532	0.306	0.089
-710.675	91.913	0.071	-0.081
-709.660	28.673	0.165	-0.142
-708.645	800.000	-0.035	-0.124
-707.631	237.576	-0.066	-0.111
-706.616	43.725	0.197	0.183
-705.602	800.000	0.055	0.219
-704.587	-1.189	0.263	0.189
-703.572	132.965	0.045	-0.059
-702.558	137.016	-0.085	0.113
-701.543	800.000	0.120	0.390
-700.529	800.000	-0.024	-0.102
-699.514	84.490	0.101	0.112
-698.499	-17.087	0.182	-0.117
-697.485	252.565	-0.187	0.323
-696.470	-122.909	0.303	0.050
-695.456	800.000	0.027	-0.092
-694.441	-3.341	-0.163	0.115
-693.426	800.000	-0.085	0.329
-692.412	184.854	0.015	0.023
-691.397	-77.742	0.426	0.150
-690.383	800.000	-0.063	0.228
-689.368	-124.211	-0.072	0.011
-688.354	-74.062	-0.116	0.043
-687.339	-84.940	0.211	0.067
-686.324	3.987	0.228	-0.169
-685.310	-200.000	-0.015	-0.268
-684.295	269.364	0.040	0.071
-683.281	-200.000	-0.023	0.135
-682.266	-27.276	0.254	0.150
-681.251	-200.000	0.015	0.089
-680.237	201.192	-0.144	-0.225
-679.222	105.589	-0.215	0.258
-678.208	59.903	0.087	0.087
-677.193	70.982	0.196	0.207
-676.178	-21.343	-0.201	-0.125
-675.164	-70.380	0.333	-0.128
-674.149	191.340	0.089	-0.136
-673.135	57.419	-0.251	0.249
-672.120	-81.798	0.349	0.116
-671.105	-200.000	-0.044	-0.209
-670.091	800.000	-0.059	-0.241
-669.076	333.039	-0.037	-0.074
-668.062	-200.000	0.018	-0.251
-667.047	-144.435	0.133	-0.013
-666.032	800.000	-0.020	-0.083
-665.018	9.786	-0.289	0.222
-664.003	165.863	-0.031	-0.044
-662.989	-40.446	0.081	-0.043
-661.974	776.139	-0.101	0.279
-660.959	-41.112	-0.276	0.145
-659.945	411.482	0.102	0.219
-658.930	147.170	-0.110	0.151
-657.916	800.000	-0.087	0.263
-656.901	-14.800	-0.352	0.229
-655.886	-158.947	-0.070	-0.004
-654.872	316.591	0.087	-0.168
-653.857	800.000	-0.053	0.192
-652.843	-73.673	-0.030	-0.011
-651.828	-11.225	-0.146	0.097
-650.814	800.000	-0.051	0.202
-649.799	93.081	-0.129	0.148
-648.784	800.000	0.079	0.250
-647.770	39.061	-0.038	-0.034
-646.755	-93.098	-0.331	0.093
-645.741	-103.994	0.400	0.095
-644.726	241.312	0.038	-0.064
-643.711	-3.989	-0.071	-0.050
-642.697	-57.201	-0.165	0.074
-641.682	-72.327	-0.070	-0.026
-640.668	-108.566	-0.052	0.011
-639.653	-98.107	0.184	0.048
-638.638	66.095	0.159	0.163
-637.624	-65.257	0.102	0.042
-636.609	-200.000	-0.028	0.225
-635.595	-200.000	-0.043	0.287
-634.580	800.000	-0.017	0.069
-633.565	719.296	-0.022	-0.058
-632.551	102.588	0.174	-0.207
-631.536	-28.016	-0.143	0.084
-630.522	60.365	-0.085	0.085
-629.507	-51.526	-0.032	0.015
-628.492	174.961	-0.116	0.171
-627.478	-12.871	0.152	0.101
-626.463	14.480	0.271	-0.215
-625.449	-86.854	0.206	-0.064
-624.434	-117.143	0.214	-0.039
-623.419	-32.973	-0.027	0.015
-622.405	-143.712	-0.302	0.029
-621.390	19.998	-0.103	0.084
-620.376	-200.000	0.033	-0.533
-619.361	800.000	0.102	-0.346
-618.346	95.265	-0.185	-0.214
-617.332	-110.479	-0.281	0.059
-616.317	-45.993	-0.237	-0.118
-615.303	-113.428	0.175	0.035
-614.288	-200.000	0.342	0.002
-613.273	-105.650	0.110	0.025
-612.259	-103.574	0.183	0.044
-611.244	-200.000	0.019	0.137
-610.230	-200.000	-0.021	-0.279
-609.215	16.387	-0.188	-0.150
-608.201	172.293	0.034	-0.050
-607.186	271.797	-0.049	-0.087
-606.171	5.617	-0.159	-0.119
-605.157	-63.077	0.526	-0.220
-604.142	-1.422	-0.231	-0.165
-603.128	6.995	-0.258	-0.195
-602.113	-134.086	-0.163	-0.020
-601.098	800.000	0.058	0.177
-600.084	-48.150	0.215	-0.105
-599.069	-109.840	-0.453	-0.096
-598.055	112.334	-0.098	0.120
-597.040	63.189	-0.173	0.176
-596.025	192.261	0.052	-0.079
-595.011	-200.000	0.017	-0.117
-593.996	22.834	-0.229	0.190
-592.982	-200.000	-0.007	-0.179
-591.967	-200.000	-0.031	-0.198
-590.952	46.154	0.040	-0.037
-589.938	232.299	-0.074	0.122
-588.923	800.000	0.070	-0.275
-587.909	-74.199	-0.170	0.062
-586.894	-200.000	0.047	0.251
-585.879	461.184	-0.110	0.248
-584.865	-27.319	0.208	-0.122
-583.850	800.000	0.094	0.277
-582.836	-200.000	-0.060	0.277
-581.821	800.000	0.029	0.116
-580.806	-104.265	-0.068	-0.016
-579.792	79.487	-0.364	-0.395
-578.777	800.000	-0.024	-0.076
-577.763	164.939	-0.066	-0.094
-576.748	239.975	-0.179	0.301
-575.733	-26.171	-0.146	-0.087
-574.719	-119.837	-0.302	-0.053
-573.704	647.283	0.143	-0.369
-572.690	-23.938	0.058	-0.035
-571.675	82.306	-0.153	-0.168
-570.661	-200.000	0.023	0.145
-569.646	13.715	-0.157	-0.123
-568.631	-200.000	-0.063	0.397
-567.617	-200.000	-0.030	-0.161
-566.602	-78.301	-0.351	0.122
-565.588	222.629	-0.119	0.193
-564.573	-49.074	0.126	-0.061
-563.558	-200.000	-0.010	-0.245
-562.544	-200.000	0.047	0.217
-561.529	445.797	0.108	0.241
-560.515	100.748	-0.054	-0.063
-559.500	-47.819	0.134	0.066
-558.485	-6.263	-0.203	-0.140
-557.471	-200.000	-0.024	0.121
-556.456	-77.808	-0.283	-0.099
-555.442	314.646	0.096	-0.183
-554.427	800.000	-0.062	0.187
-553.412	-42.868	0.133	-0.068
-552.398	139.339	-0.074	0.098
-551.383	-200.000	0.022	0.203
-550.369	35.169	0.174	-0.154
-549.354	-141.253	-0.516	0.053
-548.339	-87.523	0.456	0.140
-547.325	-112.875	0.077	-0.015
-546.310	-92.375	-0.106	0.030
-545.296	-200.000	0.007	0.072
-544.281	-78.314	-0.132	-0.046
-543.266	-200.000	-0.020	0.120
-542.252	412.432	0.035	0.076
-541.237	514.865	-0.074	0.175
-540.223	112.867	-0.391	0.478
-539.208	-141.103	-0.211	-0.022
-538.193	800.000	-0.067	-0.188
-537.179	150.665	0.211	-0.290
-536.164	-6.528	-0.128	0.088
-535.150	-13.241	0.261	0.171
-534.135	633.082	-0.053	0.134
-533.121	43.527	-0.279	0.258
-532.106	81.880	-0.116	-0.127
-531.091	-200.000	0.028	-0.278
-530.077	37.279	-0.092	0.082
-529.062	-146.932	-0.173	0.015
-528.048	-200.000	0.005	-0.334
-527.033	-200.000	0.025	-0.663
-526.018	-61.631	0.121	-0.051
-525.004	542.024	0.029	-0.070
-523.989	-40.405	0.113	0.059
-522.975	-91.676	0.565	-0.162
-521.960	-137.855	-0.136	-0.015
-520.945	-200.000	-0.016	0.278
-519.931	168.858	0.089	-0.128
-518.916	-85.772	0.145	-0.045
-517.902	800.000	-0.046	-0.185
-516.887	302.589	0.073	-0.137
-515.872	68.216	-0.301	0.311
-514.858	-18.059	-0.261	0.165
-513.843	-156.113	0.165	0.011
-512.829	499.233	0.056	-0.131
-511.814	727.564	-0.088	-0.237
-510.799	-130.026	-0.194	0.027
-509.785	-171.948	-0.099	0.003
-508.770	-113.750	0.262	0.051
-507.756	-200.000	-0.007	0.190
-506.741	-21.744	0.261	0.160
-505.726	-200.000	-0.001	-0.106
-504.712	175.111	0.089	-0.130
-503.697	-89.104	-0.096	0.029
-502.683	-53.559	-0.306	-0.141
-501.668	800.000	-0.126	-0.380
-500.653	-15.550	-0.164	0.106
-499.639	800.000	-0.064	0.225
-498.624	65.435	0.123	0.126
-497.610	-71.731	-0.097	-0.036
-496.595	11.179	0.305	0.235
-495.581	800.000	0.030	0.120
-494.566	502.443	0.067	0.157
-493.551	-26.931	-0.200	-0.118
-492.537	-2.083	0.136	0.097
-491.522	604.538	0.077	-0.194
-490.508	-79.062	-0.353	-0.121
-489.493	-27.586	0.193	0.113
-488.478	100.635	-0.268	0.314
-487.464	-56.520	0.324	0.145
-486.449	800.000	0.050	0.204
-485.435	-172.647	-0.193	-0.006
-484.420	208.096	-0.125	0.197
-483.405	-98.371	0.121	-0.031
-482.391	-150.401	-0.061	-0.005
-481.376	-200.000	0.005	-0.153
-480.362	328.086	-0.031	-0.060
-479.347	-200.000	-0.088	-0.453
-478.332	-81.031	0.075	-0.025
-477.318	-200.000	0.054	-0.429
-476.303	-135.059	-0.067	-0.008
-475.289	-125.720	0.200	-0.030
-474.274	-200.000	0.041	-0.248
-473.259	192.072	0.314	-0.477
-472.245	-88.595	-0.193	-0.058
-471.230	-200.000	-0.014	-0.088
-470.216	-157.078	0.016	-0.001
-469.201	-131.467	0.145	0.019
-468.186	51.577	-0.147	-0.140
-467.172	-14.341	0.124	0.080
-466.157	55.815	-0.064	0.063
-465.143	-200.000	0.348	0.001
-464.128	-111.116	0.179	0.037
-463.113	125.464	0.297	-0.377
-462.099	-46.793	-0.066	-0.032
-461.084	800.000	0.011	0.032
-460.070	129.691	0.265	0.341
-459.055	-200.000	-0.003	-0.045
-458.040	-111.736	-0.449	0.092
-457.026	117.148	-0.196	-0.243
-456.011	-200.000	-0.024	0.408
-454.997	800.000	-0.064	0.281
-453.982	-200.000	0.011	0.313
-452.968	-30.287	0.273	0.156
-451.953	-4.379	-0.165	0.115
-450.938	104.482	-0.255	0.302
-449.924	-27.710	-0.180	-0.105
-448.909	-200.000	-0.040	-0.486
-447.895	748.026	-0.069	-0.187
-446.880	376.641	0.048	0.099
-445.865	569.819	0.142	0.347
-444.851	268.838	-0.141	-0.249
-443.836	401.715	-0.065	-0.136
-442.822	406.379	0.052	-0.109
-441.807	-200.000	-0.029	0.155
-440.792	40.786	-0.066	0.060
-439.778	-95.766	0.237	-0.064
-438.763	11.332	0.136	-0.105
-437.749	-200.000	-0.011	0.266
-436.734	497.142	0.039	-0.090
-435.719	-10.557	-0.210	-0.140
-434.705	-136.122	0.374	-0.044
-433.690	-21.132	-0.016	-0.010
-432.676	-200.000	-0.006	-0.048
-431.661	-167.574	0.135	0.005
-430.646	-47.289	-0.104	0.051
-429.632	-63.898	0.123	-0.051
-428.617	52.929	-0.077	-0.074
-427.603	-102.863	-0.465	0.111
-426.588	800.000	-0.040	0.174
-425.573	-200.000	-0.057	0.336
-424.559	800.000	-0.005	0.021
-423.544	-200.000	0.013	0.098
-422.530	-115.392	0.023	0.004
-421.515	205.455	-0.269	0.420
-420.500	649.898	0.075	-0.193
-419.486	123.462	-0.195	0.245
-418.471	-152.057	-0.172	0.013
-417.457	-182.318	-0.180	-0.003
-416.442	19.692	-0.040	0.032
-415.428	390.038	0.195	0.407
-414.413	800.000	0.024	-0.068
-413.398	258.545	-0.041	-0.071
-412.384	-175.122	0.270	0.008
-411.369	203.927	-0.142	0.222
-410.355	-174.368	-0.098	-0.003
-409.340	715.938	0.131	-0.348
-408.325	16.815	0.331	-0.263
-407.311	-61.416	-0.134	-0.056
-406.296	800.000	-0.040	0.159
-405.282	-97.929	0.201	0.052
-404.267	86.090	-0.123	0.136
-403.252	-15.689	0.223	-0.143
-402.238	-158.412	-0.426	-0.025
-401.223	-145.777	-0.274	0.025
-400.209	-200.000	0.010	0.049
-399.194	-81.662	-0.322	0.106
-398.179	-200.000	-0.028	-0.166
-397.165	-52.107	0.344	0.161
-396.150	685.623	0.059	0.154
-395.136	-200.000	0.059	-0.379
-394.121	46.074	-0.145	-0.135
-393.106	-200.000	-0.047	-0.256
-392.092	74.545	0.169	0.178
-391.077	-36.483	0.089	0.048
-390.063	800.000	-0.050	0.202
-389.048	584.176	-0.145	-0.358
-388.033	401.565	-0.067	-0.142
-387.019	-200.000	-0.018	0.374
-386.004	-143.571	0.143	-0.014
-384.990	5.820	0.153	-0.113
-383.975	707.987	-0.125	0.331
-382.960	-200.000	-0.031	-0.339
-381.946	151.327	-0.039	-0.053
-380.931	721.476	0.058	-0.155
-379.917	-23.448	-0.125	0.076
-378.902	368.784	0.068	-0.138
-377.888	158.469	-0.104	0.145
-376.873	39.390	-0.123	-0.111
-375.858	21.948	-0.198	-0.162
-374.844	740.803	0.075	-0.202
-373.829	81.458	-0.112	-0.122
-372.815	-200.000	-0.031	-0.193
-371.800	212.811	0.121	0.192
-370.785	-42.385	0.102	0.052
-369.771	111.935	-0.160	0.194
-368.756	-23.938	0.221	0.133
-367.742	620.959	0.123	0.311
-366.727	-43.059	-0.087	0.044
-365.712	70.349	-0.206	0.213
-364.698	253.544	-0.033	0.057
-363.683	194.874	0.077	0.118
-362.669	2.723	-0.129	-0.094
-361.654	-65.413	0.209	0.084
-360.639	-36.666	-0.130	0.070
-359.625	6.856	0.100	-0.075
-358.610	57.669	0.113	-0.111
-357.596	-52.276	0.210	-0.097
-356.581	-22.606	0.308	-0.187
-355.566	-200.000	-0.249	-0.001
-354.552	58.188	0.163	0.160
-353.537	-1.901	0.163	0.115
-352.523	-7.715	0.132	-0.090
-351.508	-200.000	-0.021	-0.511
-350.493	-107.850	-0.126	-0.027
-349.479	800.000	-0.026	-0.084
-348.464	-85.075	-0.173	-0.054
-347.450	-123.671	0.129	-0.021
-346.435	-163.152	-0.054	-0.003
-345.420	-133.423	-0.324	0.041
-344.406	-18.147	0.156	0.098
-343.391	-184.823	-0.286	0.005
-342.377	-123.341	-0.238	0.038
-341.362	800.000	0.099	0.327
-340.348	-94.112	-0.126	-0.035
-339.333	56.209	0.358	0.348
-338.318	-78.633	-0.233	-0.080
-337.304	92.534	0.153	-0.173
-336.289	81.326	0.292	0.316
-335.275	-200.000	0.005	-0.283
-334.260	800.000	0.138	-0.398
-333.245	540.661	0.044	-0.104
-332.231	427.186	-0.026	0.056
-331.216	210.663	-0.042	-0.066
-330.202	47.509	-0.151	-0.141
-329.187	-200.000	0.030	0.183
-328.172	-200.000	0.077	-0.477
-327.158	-54.044	0.234	0.107
-326.143	-68.413	0.143	-0.056
-325.129	-31.154	-0.331	-0.187
-324.114	-87.930	-0.270	0.081
-323.099	37.287	0.166	0.148
-322.085	800.000	0.067	0.185
-321.070	577.947	-0.137	-0.335
-320.056	-63.857	-0.157	0.064
-319.041	800.000	-0.159	-0.538
-318.026	743.195	0.108	-0.291
-317.012	-38.182	-0.272	-0.145
-315.997	-200.000	0.007	0.125
-314.983	-92.329	0.282	0.080
-313.968	612.444	-0.062	-0.155
-312.953	45.048	0.149	0.138
-311.939	-76.581	-0.155	0.055
-310.924	-200.000	-0.001	-0.188
-309.910	795.175	0.161	-0.443
-308.895	-107.875	0.238	-0.052
-307.880	131.039	-0.162	-0.208
-306.866	169.006	0.072	-0.102
-305.851	364.693	0.153	-0.308
-304.837	32.867	-0.179	-0.155
-303.822	-200.000	-0.010	-0.077
-302.807	800.000	-0.043	0.165
-301.793	-200.000	0.027	0.310
-300.778	-200.000	0.047	-0.214
-299.764	-152.803	0.066	0.005
-298.749	321.988	-0.139	-0.265
-297.735	205.421	-0.116	-0.181
-296.720	-17.669	-0.247	-0.155
-295.705	572.380	-0.072	-0.176
-294.691	327.049	0.067	0.129
-293.676	65.310	-0.124	0.125
-292.662	40.017	-0.138	0.124
-291.647	-64.141	-0.136	-0.055
-290.632	-61.503	0.293	0.123
-289.618	27.077	0.217	0.182
-288.603	-83.894	0.144	-0.046
-287.589	34.882	-0.063	-0.055
-286.574	-122.451	-0.085	0.014
-285.559	304.316	-0.210	-0.390
-284.545	-121.265	-0.192	0.032
-283.530	-134.587	-0.212	0.026
-282.516	-200.000	0.007	0.060
-281.501	800.000	0.158	0.440
-280.486	178.546	0.140	0.204
-279.472	21.404	-0.120	-0.098
-278.457	93.125	0.118	-0.133
-277.443	-71.653	0.244	0.091
-276.428	800.000	0.033	-0.105
-275.413	-200.000	0.063	0.390
-274.399	371.860	0.125	0.253
-273.384	91.492	-0.248	0.279
-272.370	800.000	0.084	0.233
-271.355	-82.614	-0.172	-0.056
-270.340	184.879	-0.026	0.039
-269.326	800.000	0.053	-0.153
-268.311	278.264	0.097	-0.172
-267.297	-7.635	0.201	0.136
-266.282	237.243	0.089	0.148
-265.267	-76.305	0.196	0.069
-264.253	-25.744	0.159	-0.094
-263.238	-164.001	0.059	-0.003
-262.224	686.887	0.096	0.250
-261.209	83.267	0.206	0.224
-260.195	-200.000	-0.002	-0.145
-259.180	-77.117	0.177	-0.062
-258.165	-200.000	-0.005	0.438
-257.151	-33.325	-0.077	-0.042
-256.136	-18.324	-0.251	-0.157
-255.122	213.552	-0.153	0.242
-254.107	800.000	-0.030	0.087
-253.092	-76.941	0.226	-0.079
-252.078	60.749	0.267	-0.265
-251.063	-45.845	0.126	0.062
-250.049	-142.957	0.112	0.011
-249.034	231.944	-0.068	-0.112
-248.019	340.377	-0.098	-0.190
-247.005	-68.947	-0.197	-0.076
-245.990	-24.939	-0.240	0.142
-244.976	-115.232	-0.238	0.045
-243.961	122.845	-0.069	-0.086
-242.946	137.727	0.166	-0.217
-241.932	-200.000	-0.003	-0.176
-240.917	-200.000	-0.023	-0.255
-239.903	-200.000	-0.029	0.183
-238.888	91.967	-0.086	0.097
-237.873	12.442	-0.261	-0.201
-236.859	-18.750	0.397	-0.247
-235.844	-29.222	-0.200	0.114
-234.830	-68.012	0.041	-0.016
-233.815	-19.289	-0.269	-0.166
-232.800	468.489	0.090	0.201
-231.786	431.424	0.051	-0.111
-230.771	-66.695	-0.171	0.067
-229.757	-89.847	0.110	-0.032
-228.742	128.622	-0.120	0.153
-227.727	-82.109	-0.250	-0.081
-226.713	-117.533	0.511	0.092
-225.698	525.991	-0.042	0.099
-224.684	-156.607	0.220	-0.014
-223.669	-200.000	0.052	-0.266
-222.655	435.641	-0.037	-0.080
-221.640	111.619	0.095	0.115
-220.625	-173.246	0.397	0.012
-219.611	-44.407	0.288	0.144
-218.596	-112.908	0.210	-0.042
-217.582	174.922	0.057	-0.082
-216.567	54.454	-0.206	0.198
-215.552	-5.142	0.131	-0.090
-214.538	243.653	-0.065	0.109
-213.523	800.000	-0.038	-0.125
-212.509	111.975	-0.079	-0.095
-211.494	-149.133	0.140	-0.011
-210.479	-35.465	-0.113	-0.061
-209.465	152.602	0.129	0.176
-208.450	432.085	0.051	-0.111
-207.436	-200.000	0.002	-0.152
-206.421	-71.496	0.170	0.063
-205.406	48.945	0.106	-0.099
-204.392	75.082	0.153	0.160
-203.377	-25.669	-0.067	-0.039
-202.363	-200.000	0.047	-0.499
-201.348	-191.211	-0.148	-0.002
-200.333	125.651	0.283	-0.356
-199.319	-21.920	0.115	0.069
-198.304	797.558	-0.046	-0.126
-197.290	-142.506	0.133	0.013
-196.275	80.817	0.201	-0.216
-195.260	-109.452	0.361	0.076
-194.246	-200.000	0.058	0.335
-193.231	-17.358	0.218	0.137
-192.217	800.000	0.055	0.237
-191.202	771.535	0.159	0.430
-190.187	-200.000	-0.037	0.319
-189.173	-200.000	0.039	-0.645
-188.158	-200.000	0.007	-0.139
-187.144	56.754	0.258	0.251
-186.129	-65.739	-0.036	-0.014
-185.114	124.202	-0.286	0.358
-184.100	61.148	0.289	0.286
-183.085	-31.572	-0.063	0.035
-182.071	631.155	0.077	0.194
-181.056	-50.951	-0.367	0.172
-180.042	800.000	-0.018	0.076
-179.027	30.806	0.072	-0.062
-178.012	549.481	0.052	0.124
-176.998	800.000	-0.027	0.109
-175.983	390.344	0.047	-0.098
-174.969	183.401	0.137	0.201
-173.954	-57.822	0.296	-0.129
-172.939	190.279	-0.180	-0.269
-171.925	-200.000	0.014	-0.392
-170.910	-7.142	-0.133	0.090
-169.896	-66.211	-0.355	0.141
-168.881	-27.142	0.070	0.040
-167.866	800.000	0.103	0.304
-166.852	24.370	-0.069	-0.057
-165.837	-144.874	0.196	0.018
-164.823	-200.000	-0.099	0.644
-163.808	-112.502	0.119	0.024
-162.793	800.000	0.067	0.227
-161.779	800.000	-0.054	0.152
-160.764	-88.996	0.267	0.079
-159.750	174.902	-0.088	-0.127
-158.735	-29.540	-0.072	-0.041
-157.720	800.000	0.055	0.197
-156.706	800.000	0.024	-0.101
-155.691	-200.000	-0.015	0.281
-154.677	-44.413	-0.245	0.122
-153.662	-185.861	0.337	-0.005
-152.647	439.973	0.126	0.274
-151.633	800.000	0.075	-0.252
-150.618	192.539	0.263	-0.395
-149.604	-15.395	0.321	0.204
-148.589	-12.919	-0.140	-0.090
-147.574	-200.000	-0.034	-0.174
-146.560	-200.000	0.035	0.332
-145.545	62.824	-0.036	0.036
-144.531	-32.082	0.241	0.134
-143.516	-161.355	0.411	-0.021
-142.502	357.882	-0.192	-0.382
-141.487	-200.000	0.005	0.110
-140.472	-129.703	-0.341	0.047
-139.458	331.384	0.108	0.208
-138.443	-158.619	0.252	-0.014
-137.429	-200.000	0.027	0.150
-136.414	-200.000	-0.007	0.409
-135.399	117.857	0.257	0.314
-134.385	-7.117	0.265	0.179
-133.370	8.541	-0.151	0.113
-132.356	-200.000	-0.068	0.513
-131.341	-200.000	-0.009	0.077
-130.326	35.098	0.070	0.061
-129.312	-101.648	-0.186	0.045
-128.297	800.000	-0.098	0.273
-127.283	-200.000	0.012	-0.290
-126.268	-189.208	-0.204	-0.002
-125.253	291.974	-0.066	-0.119
-124.239	-200.000	-0.059	0.298
-123.224	-7.690	-0.248	-0.167
-122.210	-122.240	-0.360	-0.059
-121.195	-27.607	-0.126	0.073
