DTS Sentinel unit serial number:	SN413079Multiplexer serial number:	ORYXHardware model number:	OX4-SRSoftware version number:	ORYX F/W v4.00 Oryx Data Collector v3.7.2.0data status	okinstallation	princeton_trtdifferential loss correction	single-endedforward channel	channel 1reverse channel	N/Adate	2019/09/16time	04:50:35forward acquisition time	60.00reverse acquisition time	0.00gamma	496.2192k internal	0.2332k external	0.2332temperature offset calibration	0.9984default loss term (dB/km)	0.3790temperature slope calibration	1.0000multiplexer offset coefficient	1.0000multiplexer slope coefficient	1.0000fibre end	0.00T internal ref (°C)	27.16T ext. ref 1 (°C)	10.94T ext. ref 2 (°C)	21.60length (m)	temperature (°C)	Stokes	anti-Stokes-747.200	-200.000	-0.030	0.190
-746.185	-72.082	0.277	0.103
-745.171	-56.173	-0.267	0.120
-744.156	-6.950	-0.345	0.236
-743.142	-134.784	0.280	-0.034
-742.127	-200.000	-0.004	0.092
-741.112	37.478	0.127	-0.113
-740.098	-200.000	-0.039	-0.397
-739.083	281.650	0.101	-0.183
-738.069	41.203	-0.361	0.328
-737.054	-182.410	-0.100	0.002
-736.039	-138.679	-0.314	0.035
-735.025	-7.995	-0.245	-0.166
-734.010	24.167	-0.261	-0.217
-732.996	-200.000	-0.019	-0.332
-731.981	-61.576	0.146	-0.062
-730.966	-200.000	-0.003	0.069
-729.952	-111.272	-0.222	0.046
-728.937	33.487	-0.159	0.139
-727.923	-37.502	-0.124	0.067
-726.908	-49.588	-0.168	-0.080
-725.894	67.290	-0.082	-0.084
-724.879	390.241	0.059	0.123
-723.864	-56.673	-0.286	0.127
-722.850	-38.479	-0.254	0.135
-721.835	-3.102	-0.045	-0.032
-720.821	26.773	-0.120	-0.101
-719.806	-200.000	0.006	-0.299
-718.791	800.000	0.047	0.133
-717.777	-200.000	0.028	-0.142
-716.762	95.014	0.127	0.145
-715.748	800.000	-0.083	0.259
-714.733	-200.000	-0.049	0.239
-713.718	105.103	-0.151	0.179
-712.704	-200.000	-0.052	0.343
-711.689	-86.861	-0.209	-0.064
-710.675	-159.495	-0.113	0.006
-709.660	800.000	-0.066	-0.196
-708.645	92.798	0.188	0.213
-707.631	-200.000	-0.023	0.201
-706.616	-200.000	-0.017	0.170
-705.602	-53.503	0.218	-0.100
-704.587	-200.000	-0.127	-0.564
-703.572	-116.488	0.098	-0.018
-702.558	-200.000	0.031	0.190
-701.543	-88.087	0.309	-0.093
-700.529	-164.843	0.298	-0.013
-699.514	800.000	-0.044	-0.153
-698.499	-20.413	0.224	-0.138
-697.485	2.141	-0.222	-0.161
-696.470	593.520	-0.093	-0.231
-695.456	-200.000	-0.064	-0.281
-694.441	-116.263	-0.120	-0.022
-693.426	239.324	-0.024	0.041
-692.412	800.000	0.084	-0.330
-691.397	-167.281	0.382	-0.015
-690.383	-47.740	0.457	0.222
-689.368	224.184	-0.034	0.055
-688.354	-200.000	0.051	-0.371
-687.339	-108.453	-0.145	0.031
-686.324	-161.421	-0.563	0.029
-685.310	800.000	0.054	0.225
-684.295	-151.937	0.232	0.017
-683.281	28.695	0.065	0.055
-682.266	605.630	-0.085	-0.211
-681.251	-124.560	0.183	0.029
-680.237	800.000	-0.046	0.190
-679.222	800.000	0.113	0.326
-678.208	58.164	-0.253	0.249
-677.193	-83.112	-0.284	-0.092
-676.178	800.000	-0.094	-0.271
-675.164	175.512	-0.057	0.083
-674.149	140.339	-0.083	0.109
-673.135	64.989	0.180	-0.182
-672.120	-200.000	0.002	0.110
-671.105	-87.344	0.187	-0.057
-670.091	-200.000	0.001	-0.106
-669.076	-141.344	0.101	-0.010
-668.062	240.349	-0.077	-0.129
-667.047	-146.078	-0.050	0.004
-666.032	153.002	-0.309	0.423
-665.018	-200.000	0.011	0.172
-664.003	72.042	-0.052	0.054
-662.989	-200.000	0.027	-0.157
-661.974	-163.376	-0.340	-0.016
-660.959	-8.021	0.059	-0.040
-659.945	-200.000	-0.001	-0.086
-658.930	153.800	0.194	-0.266
-657.916	-153.647	-0.205	-0.014
-656.901	-61.908	-0.156	-0.065
-655.886	-103.845	-0.207	-0.049
-654.872	107.404	0.113	-0.134
-653.857	86.310	0.028	-0.031
-652.843	53.399	-0.174	-0.168
-651.828	118.677	0.096	-0.119
-650.814	380.133	-0.094	-0.194
-649.799	-66.567	-0.213	-0.085
-648.784	800.000	-0.133	-0.418
-647.770	-200.000	-0.080	0.408
-646.755	800.000	-0.097	0.339
-645.741	800.000	0.026	0.077
-644.726	728.098	0.057	0.153
-643.711	-22.816	0.344	0.208
-642.697	-200.000	0.005	0.108
-641.682	518.928	-0.076	0.178
-640.668	800.000	0.077	-0.227
-639.653	40.226	-0.271	-0.244
-638.638	144.913	0.102	0.137
-637.624	-200.000	0.168	-0.001
-636.609	-200.000	0.008	-0.193
-635.595	800.000	0.053	-0.205
-634.580	621.775	0.061	-0.153
-633.565	72.094	-0.143	-0.149
-632.551	282.815	-0.075	-0.135
-631.536	78.722	0.316	0.338
-630.522	-26.846	-0.165	0.096
-629.507	-200.000	-0.031	-0.255
-628.492	433.408	0.081	0.175
-627.478	396.545	-0.050	0.104
-626.463	-200.000	0.029	-0.489
-625.449	-200.000	0.003	-0.083
-624.434	158.066	0.040	-0.055
-623.419	800.000	-0.086	0.250
-622.405	-200.000	-0.030	0.144
-621.390	302.987	-0.169	0.313
-620.376	63.386	-0.121	0.122
-619.361	-75.937	0.327	0.116
-618.346	-167.125	0.210	0.009
-617.332	-87.481	-0.234	-0.071
-616.317	-1.841	0.259	0.183
-615.303	-35.738	-0.336	0.182
-614.288	-200.000	-0.014	0.112
-613.273	-82.488	0.028	0.009
-612.259	-32.020	-0.216	0.121
-611.244	-200.000	0.029	-0.179
-610.230	80.985	0.322	0.347
-609.215	89.663	0.050	-0.055
-608.201	-78.633	-0.235	-0.080
-607.186	50.924	-0.186	-0.176
-606.171	-36.241	-0.345	0.186
-605.157	-200.000	0.032	0.181
-604.142	-154.567	-0.059	0.004
-603.128	-200.000	0.037	-0.282
-602.113	63.314	-0.103	-0.104
-601.098	-122.684	-0.243	0.039
-600.084	-43.267	0.269	-0.136
-599.069	-128.562	-0.482	-0.068
-598.055	234.023	-0.156	0.257
-597.040	621.881	-0.074	0.185
-596.025	106.455	0.038	-0.045
-595.011	144.397	-0.297	-0.397
-593.996	-200.000	-0.019	0.198
-592.982	-200.000	-0.011	-0.209
-591.967	20.571	0.270	-0.219
-590.952	-108.573	-0.282	-0.060
-589.938	702.575	-0.014	0.038
-588.923	-150.915	-0.231	-0.017
-587.909	267.923	-0.146	-0.255
-586.894	800.000	-0.094	-0.284
-585.879	-38.168	-0.206	-0.109
-584.865	320.711	0.032	0.060
-583.850	-155.852	-0.055	-0.003
-582.836	-0.583	-0.135	0.096
-581.821	-200.000	-0.037	0.250
-580.806	-167.169	-0.225	0.009
-579.792	-130.588	-0.283	0.038
-578.777	-32.985	0.090	-0.050
-577.763	800.000	0.046	-0.159
-576.748	-186.484	0.431	-0.006
-575.733	15.694	-0.210	0.165
-574.719	-76.059	-0.068	0.024
-573.704	-178.817	-0.520	0.012
-572.690	34.594	0.227	-0.198
-571.675	-22.770	0.219	-0.132
-570.661	800.000	-0.024	0.093
-569.646	-77.687	-0.202	0.070
-568.631	183.419	0.078	-0.115
-567.617	81.823	0.225	-0.244
-566.602	-25.177	0.181	0.107
-565.588	614.158	-0.131	0.327
-564.573	-34.310	-0.073	-0.040
-563.558	-60.136	-0.290	-0.124
-562.544	82.673	0.150	-0.163
-561.529	-57.130	-0.166	-0.073
-560.515	86.544	0.253	-0.279
-559.500	21.605	-0.163	-0.133
-558.485	150.123	0.110	0.149
-557.471	-200.000	0.008	-0.235
-556.456	591.815	0.029	-0.073
-555.442	143.785	0.134	-0.178
-554.427	-70.266	0.190	-0.072
-553.412	-200.000	0.001	-0.151
-552.398	174.394	0.095	-0.138
-551.383	125.083	-0.147	0.185
-550.369	-93.778	-0.231	0.063
-549.354	-3.690	0.021	0.015
-548.339	75.100	0.254	-0.267
-547.325	-200.000	0.017	-0.263
-546.310	-33.028	-0.359	0.199
-545.296	800.000	-0.068	0.198
-544.281	800.000	0.013	0.044
-543.266	-162.701	0.204	-0.010
-542.252	-200.000	0.002	-0.102
-541.237	-122.259	0.120	-0.020
-540.223	-200.000	-0.082	-0.435
-539.208	1.856	-0.421	-0.303
-538.193	121.630	-0.079	0.098
-537.179	-200.000	0.045	0.275
-536.164	92.042	0.050	-0.057
-535.150	-200.000	-0.036	-0.173
-534.135	340.477	-0.049	-0.096
-533.121	-200.000	0.028	0.202
-532.106	-74.418	0.133	0.048
-531.091	800.000	0.044	-0.136
-530.077	71.221	-0.292	-0.303
-529.062	-32.744	-0.435	0.241
-528.048	87.127	0.218	0.240
-527.033	13.066	-0.143	0.110
-526.018	-57.649	0.438	0.192
-525.004	-45.852	0.105	-0.052
-523.989	-19.723	0.143	-0.088
-522.975	321.616	-0.087	-0.165
-521.960	-200.000	-0.013	-0.102
-520.945	138.220	-0.058	0.075
-519.931	137.895	-0.173	-0.227
-518.916	-117.557	-0.106	0.019
-517.902	94.559	-0.105	-0.119
-516.887	-68.125	0.209	0.081
-515.872	35.321	0.275	-0.241
-514.858	-22.084	0.298	-0.180
-513.843	-169.446	-0.400	-0.015
-512.829	19.154	-0.216	0.172
-511.814	5.692	-0.132	0.098
-510.799	357.287	-0.136	0.270
-509.785	52.449	-0.173	0.165
-508.770	80.216	-0.311	0.333
-507.756	43.264	0.040	0.036
-506.741	63.000	0.266	0.266
-505.726	-123.134	-0.249	0.040
-504.712	-200.000	-0.049	-0.444
-503.697	-184.435	0.159	-0.003
-502.683	-33.581	-0.151	-0.083
-501.668	89.190	0.127	0.141
-500.653	312.439	-0.197	0.368
-499.639	-70.245	-0.089	-0.034
-498.624	-109.823	0.477	0.100
-497.610	198.587	-0.083	-0.127
-496.595	1.392	0.205	-0.147
-495.581	-153.677	0.229	0.016
-494.566	5.212	0.059	0.043
-493.551	24.944	0.235	-0.195
-492.537	-68.888	-0.051	-0.020
-491.522	800.000	-0.044	-0.183
-490.508	-200.000	0.018	-0.175
-489.493	96.609	-0.095	0.109
-488.478	-200.000	-0.019	-0.107
-487.464	150.325	0.149	0.201
-486.449	152.344	-0.134	0.182
-485.435	-4.781	0.279	0.191
-484.420	23.340	0.181	-0.148
-483.405	190.653	0.187	-0.280
-482.391	6.672	0.124	0.092
-481.376	-123.919	-0.040	-0.006
-480.362	-27.615	-0.132	-0.076
-479.347	140.266	0.125	0.164
-478.332	-200.000	-0.030	0.403
-477.318	-26.758	-0.408	0.238
-476.303	-6.174	-0.286	0.194
-475.289	218.607	-0.028	-0.044
-474.274	-200.000	-0.014	0.079
-473.259	-118.824	0.136	-0.024
-472.245	97.825	0.103	-0.117
-471.230	-129.661	0.204	0.028
-470.216	-106.000	0.367	0.082
-469.201	60.799	-0.388	0.383
-468.186	428.447	-0.153	-0.328
-467.172	28.235	-0.080	-0.067
-466.157	29.239	0.204	0.172
-465.143	403.346	0.067	0.141
-464.128	-164.488	-0.375	0.017
-463.113	800.000	-0.198	0.557
-462.099	759.314	0.162	-0.437
-461.084	-176.873	0.120	-0.003
-460.070	349.258	0.105	0.206
-459.055	-200.000	0.012	-0.088
-458.040	-200.000	-0.002	0.029
-457.026	-135.809	0.109	0.013
-456.011	-134.914	-0.096	-0.011
-454.997	-62.419	-0.083	0.034
-453.982	-47.648	0.182	-0.088
-452.968	348.310	-0.107	0.211
-451.953	800.000	-0.083	0.266
-450.938	426.963	-0.281	-0.602
-449.924	800.000	-0.123	0.361
-448.909	-41.909	-0.391	-0.199
-447.895	515.973	0.109	-0.253
-446.880	126.389	0.068	-0.086
-445.865	194.934	0.110	0.166
-444.851	85.140	-0.184	-0.200
-443.836	-147.395	-0.292	0.025
-442.822	446.975	0.067	0.147
-441.807	764.680	-0.044	-0.120
-440.792	-114.025	0.111	0.021
-439.778	-200.000	0.073	-0.375
-438.763	-14.094	-0.238	-0.152
-437.749	-106.540	-0.227	-0.050
-436.734	-200.000	-0.031	0.147
-435.719	-116.779	-0.135	-0.025
-434.705	-158.911	-0.230	0.013
-433.690	-200.000	0.008	0.155
-432.676	472.038	0.099	0.222
-431.661	-200.000	0.024	-0.489
-430.646	-11.130	0.120	-0.078
-429.632	-200.000	-0.024	0.319
-428.617	-168.273	-0.381	-0.015
-427.603	-77.305	0.311	0.107
-426.588	800.000	0.042	-0.173
-425.573	-76.191	0.209	0.073
-424.559	-196.266	0.226	-0.002
-423.544	-140.590	-0.672	0.069
-422.530	800.000	0.145	0.417
-421.515	-37.814	0.323	0.171
-420.500	-24.294	-0.131	-0.078
-419.486	-196.496	0.142	-0.001
-418.471	800.000	0.060	-0.258
-417.457	-90.430	-0.198	-0.057
-416.442	-160.280	0.284	-0.015
-415.428	195.953	0.190	0.287
-414.413	-117.814	-0.410	-0.073
-413.398	-28.292	-0.146	-0.084
-412.384	-148.000	-0.192	0.016
-411.369	-200.000	0.025	0.370
-410.355	471.093	-0.082	-0.184
-409.340	-47.286	0.181	0.088
-408.325	396.175	-0.210	-0.435
-407.311	-114.555	-0.211	0.040
-406.296	175.072	0.112	0.161
-405.282	-200.000	-0.038	-0.174
-404.267	-184.373	0.159	-0.003
-403.252	575.004	-0.021	-0.052
-402.238	751.699	0.107	-0.286
-401.223	64.864	-0.084	-0.084
-400.209	-81.728	-0.290	-0.094
-399.194	71.641	0.077	0.079
-398.179	-200.000	0.040	0.325
-397.165	-200.000	-0.021	-0.169
-396.150	-49.986	-0.212	0.100
-395.136	31.168	0.278	-0.236
-394.121	418.652	-0.041	0.087
-393.106	-20.648	0.208	0.127
-392.092	-87.969	-0.128	-0.038
-391.077	123.067	0.096	0.119
-390.063	-95.490	-0.177	0.047
-389.048	-200.000	0.031	0.246
-388.033	45.939	0.065	0.060
-387.019	124.647	-0.169	-0.211
-386.004	-23.376	-0.331	-0.197
-384.990	-13.217	-0.025	-0.016
-383.975	-43.680	0.362	0.181
-382.960	-149.350	-0.221	-0.017
-381.946	-22.406	0.230	0.138
-380.931	14.714	0.273	-0.212
-379.917	-8.162	0.025	0.016
-378.902	-200.000	0.009	-0.049
-377.888	619.377	0.070	-0.174
-376.873	-36.704	-0.083	0.044
-375.858	51.514	-0.048	0.046
-374.844	307.040	-0.129	-0.239
-373.829	211.837	-0.180	0.281
-372.815	264.030	-0.124	-0.214
-371.800	800.000	0.086	0.286
-370.785	-6.540	-0.206	0.139
-369.771	-200.000	-0.005	0.343
-368.756	200.344	0.081	-0.124
-367.742	345.558	-0.088	0.172
-366.727	-200.000	0.025	-0.264
-365.712	209.998	-0.010	-0.016
-364.698	-200.000	0.028	-0.256
-363.683	-200.000	-0.008	0.036
-362.669	800.000	-0.065	-0.280
-361.654	-200.000	0.021	-0.272
-360.639	-200.000	-0.011	0.134
-359.625	381.664	0.104	0.212
-358.610	-200.000	-0.021	0.370
-357.596	-88.089	0.221	-0.066
-356.581	-113.717	-0.209	-0.040
-355.566	-200.000	0.021	-0.150
-354.552	450.044	0.048	-0.105
-353.537	219.539	-0.140	-0.223
-352.523	-200.000	-0.029	-0.195
-351.508	277.782	0.223	-0.393
-350.493	213.094	-0.106	-0.166
-349.479	16.008	-0.258	0.202
-348.464	389.689	-0.024	-0.050
-347.450	37.689	0.264	0.232
-346.435	16.492	-0.130	0.102
-345.420	800.000	0.038	-0.129
-344.406	237.389	0.293	-0.481
-343.391	-74.762	0.071	0.025
-342.377	144.206	-0.038	-0.051
-341.362	-20.903	-0.043	-0.026
-340.348	108.917	0.162	0.191
-339.333	-185.198	0.459	0.007
-338.318	222.794	-0.129	-0.205
-337.304	113.850	-0.250	0.301
-336.289	-87.333	0.337	-0.101
-335.275	457.210	0.068	0.149
-334.260	552.860	0.109	0.260
-333.245	96.625	0.214	-0.242
-332.231	-103.134	-0.183	-0.043
-331.216	63.609	-0.209	-0.207
-330.202	-4.641	0.225	-0.154
-329.187	277.385	0.176	0.311
-328.172	-32.343	0.215	0.119
-327.158	-200.000	-0.025	-0.151
-326.143	-97.621	0.325	-0.083
-325.129	-200.000	0.004	0.138
-324.114	-59.665	0.230	0.098
-323.099	-200.000	0.032	-0.257
-322.085	185.070	0.057	0.083
-321.070	-200.000	-0.020	0.122
-320.056	-147.907	-0.107	-0.009
-319.041	-52.631	0.255	0.116
-318.026	-106.658	0.326	0.072
-317.012	-94.620	-0.234	0.063
-315.997	800.000	-0.053	-0.168
-314.983	-200.000	-0.061	-0.390
-313.968	-200.000	0.240	0.000
-312.953	92.374	0.088	-0.098
-311.939	-200.000	0.008	-0.094
-310.924	7.206	-0.173	-0.128
-309.910	-200.000	-0.005	0.242
-308.895	196.166	0.090	-0.135
-307.880	184.380	-0.063	0.092
-306.866	-144.467	0.257	0.024
-305.851	-200.000	-0.004	-0.109
-304.837	8.532	-0.076	0.056
-303.822	611.681	-0.057	-0.141
-302.807	-187.857	0.155	-0.002
-301.793	-71.464	0.062	0.023
-300.778	-11.304	0.239	0.155
-299.764	-200.000	0.043	-0.251
-298.749	-47.067	0.251	-0.121
-297.735	-200.000	0.024	-0.149
-296.720	112.738	0.113	0.135
-295.705	-200.000	-0.041	0.187
-294.691	49.945	-0.087	0.081
-293.676	146.906	0.101	-0.134
-292.662	131.478	0.302	0.383
-291.647	-1.830	0.102	-0.071
-290.632	800.000	-0.099	0.302
-289.618	40.890	0.207	-0.185
-288.603	-200.000	-0.014	-0.083
-287.589	-47.393	-0.332	-0.159
-286.574	14.534	-0.041	0.032
-285.559	10.194	0.165	0.124
-284.545	800.000	0.060	-0.234
-283.530	-25.381	-0.175	-0.102
-282.516	53.267	0.069	0.066
-281.501	800.000	-0.024	-0.065
-280.486	-78.739	-0.037	-0.013
-279.472	-142.504	0.413	0.040
-278.457	193.586	-0.198	-0.296
-277.443	800.000	-0.022	0.077
-276.428	2.268	0.178	-0.127
-275.413	-200.000	0.005	-0.081
-274.399	800.000	0.099	0.335
-273.384	-200.000	-0.004	-0.201
-272.370	-105.519	-0.411	0.092
-271.355	125.343	0.339	0.423
-270.340	-200.000	-0.018	-0.167
-269.326	-63.012	-0.320	0.131
-268.311	43.466	0.295	0.266
-267.297	455.937	0.089	0.196
-266.282	-35.696	-0.289	0.154
-265.267	-200.000	0.008	0.086
-264.253	800.000	-0.033	0.121
-263.238	89.791	0.217	0.239
-262.224	-88.910	-0.074	-0.022
-261.209	-75.454	0.127	-0.045
-260.195	248.243	0.219	0.366
-259.180	-200.000	-0.013	0.382
-258.165	-200.000	0.014	-0.254
-257.151	-130.968	-0.020	0.003
-256.136	-97.507	0.256	-0.066
-255.122	30.194	-0.252	-0.212
-254.107	-66.426	0.247	-0.097
-253.092	-30.079	-0.105	-0.059
-252.078	-134.704	0.156	-0.019
-251.063	266.588	-0.131	0.226
-250.049	67.824	-0.206	-0.208
-249.034	-178.952	0.170	0.004
-248.019	441.812	0.015	-0.033
-247.005	-138.711	-0.079	-0.009
-245.990	47.237	-0.131	0.120
-244.976	-119.792	0.230	0.039
-243.961	-97.018	-0.243	-0.063
-242.946	-114.630	-0.172	-0.032
-241.932	-14.468	0.463	0.294
-240.917	-107.215	0.187	0.041
-239.903	-2.557	0.086	0.060
-238.888	-49.397	-0.129	-0.061
-237.873	173.626	0.283	0.402
-236.859	-140.637	0.196	0.020
-235.844	-150.054	-0.614	-0.047
-234.830	-37.404	-0.150	-0.079
-233.815	356.378	-0.076	0.149
-232.800	-200.000	0.051	-0.348
-231.786	-130.313	0.263	0.035
-230.771	-200.000	0.003	-0.112
-229.757	800.000	0.039	-0.152
-228.742	148.984	0.196	0.262
-227.727	311.717	0.109	0.201
-226.713	291.344	-0.037	-0.066
-225.698	613.615	0.147	0.363
-224.684	-3.709	0.030	-0.021
-223.669	34.878	-0.127	-0.110
-222.655	-200.000	0.003	0.169
-221.640	-200.000	0.002	0.208
-220.625	80.604	0.199	-0.211
-219.611	433.356	-0.137	0.294
-218.596	67.603	0.138	0.139
-217.582	266.695	0.090	-0.155
-216.567	146.414	0.144	-0.191
-215.552	116.656	0.119	-0.143
-214.538	-24.394	0.232	-0.136
-213.523	-86.185	0.126	-0.038
-212.509	-200.000	-0.054	0.248
-211.494	114.944	-0.126	-0.151
-210.479	-200.000	0.006	0.267
-209.465	-107.712	0.094	0.020
-208.450	-200.000	0.011	0.117
-207.436	-80.252	0.029	-0.010
-206.421	461.628	0.115	0.253
-205.406	-19.021	0.150	0.092
-204.392	472.220	-0.069	0.153
-203.377	106.084	0.093	0.108
-202.363	-95.486	0.050	-0.013
-201.348	458.442	-0.071	-0.155
-200.333	-115.340	-0.391	0.073
-199.319	-109.347	-0.231	-0.048
-198.304	-200.000	0.096	0.422
-197.290	-160.954	-0.151	0.008
-196.275	514.040	-0.110	-0.252
-195.260	340.219	-0.059	-0.113
-194.246	190.718	0.177	-0.262
-193.231	-20.982	0.339	0.204
-192.217	138.471	-0.141	-0.183
-191.202	800.000	0.012	0.037
-190.187	194.595	-0.014	-0.022
-189.173	414.273	0.131	-0.275
-188.158	-200.000	0.105	0.455
-187.144	705.770	0.047	-0.121
-186.129	-182.696	0.279	0.005
-185.114	-115.607	0.196	-0.036
-184.100	800.000	-0.037	-0.115
-183.085	56.691	0.204	-0.196
-182.071	-200.000	0.013	0.132
-181.056	-200.000	0.007	0.144
-180.042	738.371	0.052	-0.137
-179.027	-200.000	0.023	-0.139
-178.012	-187.632	-0.144	0.002
-176.998	800.000	-0.015	-0.042
-175.983	-174.969	0.500	0.014
-174.969	-200.000	-0.026	0.306
-173.954	-200.000	0.009	0.198
-172.939	190.951	-0.143	-0.211
-171.925	800.000	0.046	-0.153
-170.910	-127.839	-0.337	0.048
-169.896	204.641	-0.111	0.170
-168.881	-64.388	0.082	-0.033
-167.866	72.958	-0.304	-0.312
-166.852	46.965	-0.126	0.116
-165.837	259.888	0.028	-0.048
-164.823	37.206	0.122	-0.106
-163.808	-167.339	-0.309	-0.012
-162.793	-100.574	-0.141	-0.034
-161.779	215.024	-0.040	-0.062
-160.764	443.338	0.020	-0.044
-159.750	800.000	0.058	-0.185
-158.735	-57.124	0.104	-0.045
-157.720	61.722	-0.208	0.203
-156.706	13.619	0.088	0.067
-155.691	281.953	-0.125	0.221
-154.677	229.973	-0.130	0.208
-153.662	-200.000	0.045	-0.320
-152.647	-200.000	0.053	-0.475
-151.633	244.493	-0.052	0.085
-150.618	-6.925	0.313	0.209
-149.604	-200.000	0.005	0.033
-148.589	500.131	-0.146	-0.330
-147.574	-26.026	-0.391	-0.226
-146.560	-72.941	0.216	0.078
-145.545	-200.000	-0.063	0.279
-144.531	-20.440	0.086	0.052
-143.516	137.835	-0.148	-0.190
-142.502	-200.000	0.003	-0.100
-141.487	-76.899	0.303	-0.104
-140.472	236.500	-0.067	0.109
-139.458	-65.839	0.039	-0.015
-138.443	-130.964	0.177	-0.023
-137.429	205.613	0.202	0.309
-136.414	-19.171	-0.038	-0.023
-135.399	-200.000	-0.001	-0.074
-134.385	800.000	0.035	0.136
-133.370	101.183	0.131	0.149
-132.356	-83.621	-0.172	0.054
-131.341	-133.549	0.065	0.008
-130.326	-200.000	0.007	0.313
-129.312	284.712	0.141	0.249
-128.297	224.556	0.067	0.107
-127.283	-163.932	-0.121	-0.006
-126.268	155.707	0.151	0.204
-125.253	40.024	0.093	0.082
-124.239	180.788	0.230	0.331
-123.224	-135.817	0.063	0.007
-122.210	-75.031	0.050	0.017
