DTS Sentinel unit serial number:	SN413079Multiplexer serial number:	ORYXHardware model number:	OX4-SRSoftware version number:	ORYX F/W v4.00 Oryx Data Collector v3.7.2.0data status	okinstallation	princeton_trtdifferential loss correction	single-endedforward channel	channel 1reverse channel	N/Adate	2019/09/14time	01:34:35forward acquisition time	60.00reverse acquisition time	0.00gamma	496.2192k internal	0.2337k external	0.2337temperature offset calibration	1.0076default loss term (dB/km)	0.3790temperature slope calibration	1.0000multiplexer offset coefficient	1.0000multiplexer slope coefficient	1.0000fibre end	0.00T internal ref (°C)	26.44T ext. ref 1 (°C)	3.19T ext. ref 2 (°C)	21.47length (m)	temperature (°C)	Stokes	anti-Stokes-747.200	800.000	0.047	-0.205
-746.185	-87.876	0.355	-0.107
-745.171	-172.370	-0.225	-0.007
-744.156	426.035	0.172	0.372
-743.142	591.257	-0.120	-0.297
-742.127	57.506	0.196	-0.193
-741.112	-98.912	0.163	0.042
-740.098	-100.122	-0.214	0.054
-739.083	-76.767	0.158	-0.056
-738.069	-156.288	-0.234	-0.015
-737.054	-63.993	0.359	-0.147
-736.039	469.798	-0.022	-0.049
-735.025	-142.323	0.108	0.011
-734.010	325.848	-0.090	-0.174
-732.996	-96.545	-0.101	-0.027
-731.981	-65.388	-0.359	0.145
-730.966	-79.925	-0.154	0.052
-729.952	17.289	-0.149	-0.118
-728.937	149.573	-0.072	-0.098
-727.923	-114.901	-0.204	-0.039
-726.908	-166.235	-0.387	-0.016
-725.894	-200.000	-0.037	-0.206
-724.879	-200.000	-0.054	-0.388
-723.864	79.297	0.149	-0.160
-722.850	-109.379	0.171	0.036
-721.835	800.000	-0.102	0.299
-720.821	-90.364	0.352	-0.102
-719.806	255.410	-0.065	0.112
-718.791	30.145	-0.110	0.094
-717.777	96.060	0.218	-0.250
-716.762	-11.441	-0.398	-0.262
-715.748	-189.339	-0.299	0.004
-714.733	-97.416	0.206	0.054
-713.718	-11.680	-0.332	-0.219
-712.704	743.577	0.045	-0.122
-711.689	-94.214	-0.204	0.056
-710.675	121.163	0.047	-0.059
-709.660	800.000	-0.042	0.177
-708.645	-31.473	-0.338	-0.190
-707.631	149.182	0.101	0.137
-706.616	-1.805	-0.281	-0.199
-705.602	53.155	0.141	0.135
-704.587	800.000	-0.019	-0.057
-703.572	-120.193	0.212	0.036
-702.558	-52.844	-0.156	0.072
-701.543	639.479	-0.143	-0.364
-700.529	-121.482	0.202	0.034
-699.514	800.000	-0.097	-0.375
-698.499	784.354	-0.060	-0.166
-697.485	-200.000	-0.001	0.097
-696.470	227.126	0.117	-0.190
-695.456	105.332	0.267	-0.315
-694.441	-90.877	0.055	0.016
-693.426	800.000	-0.090	-0.278
-692.412	-200.000	0.072	-0.345
-691.397	-200.000	-0.016	0.339
-690.383	41.211	0.166	0.150
-689.368	-200.000	-0.035	0.228
-688.354	158.060	0.134	0.186
-687.339	-113.473	-0.407	0.080
-686.324	-81.774	-0.252	-0.083
-685.310	-200.000	-0.024	-0.163
-684.295	-200.000	-0.044	0.233
-683.281	215.385	-0.218	-0.346
-682.266	-6.822	-0.170	-0.116
-681.251	-137.718	-0.220	0.025
-680.237	-200.000	-0.008	-0.154
-679.222	-200.000	0.002	0.169
-678.208	-5.310	-0.278	-0.191
-677.193	74.669	-0.055	-0.058
-676.178	360.457	0.154	-0.309
-675.164	-178.447	-0.282	-0.007
-674.149	800.000	0.092	-0.314
-673.135	-3.863	-0.182	0.126
-672.120	-17.804	0.056	-0.035
-671.105	157.016	-0.115	0.159
-670.091	104.186	0.096	-0.113
-669.076	-181.105	0.080	0.002
-668.062	800.000	0.054	-0.227
-667.047	-80.495	-0.540	0.180
-666.032	800.000	0.157	-0.520
-665.018	354.425	0.149	-0.296
-664.003	42.707	0.076	-0.069
-662.989	-131.773	0.314	-0.041
-661.974	-130.174	-0.302	0.041
-660.959	31.088	-0.153	0.132
-659.945	800.000	-0.122	-0.364
-658.930	-200.000	-0.015	-0.126
-657.916	74.808	-0.206	0.217
-656.901	101.672	0.253	0.295
-655.886	49.487	-0.289	-0.272
-654.872	5.117	0.105	0.077
-653.857	-109.197	-0.049	0.010
-652.843	-200.000	-0.050	-0.281
-651.828	314.250	-0.127	-0.239
-650.814	429.725	0.146	-0.316
-649.799	-12.868	-0.227	0.148
-648.784	634.410	0.123	-0.313
-647.770	800.000	0.087	-0.257
-646.755	800.000	-0.125	-0.483
-645.741	800.000	-0.054	0.165
-644.726	-36.829	-0.259	0.139
-643.711	99.509	-0.040	0.046
-642.697	-20.842	0.325	-0.199
-641.682	-119.775	-0.320	0.055
-640.668	212.464	0.241	-0.381
-639.653	-200.000	-0.018	-0.098
-638.638	-57.715	0.265	0.116
-637.624	555.759	-0.067	-0.160
-636.609	-119.224	0.106	-0.018
-635.595	800.000	-0.041	-0.165
-634.580	-39.600	0.324	0.169
-633.565	13.424	-0.158	-0.122
-632.551	344.324	-0.013	-0.025
-631.536	-146.615	-0.422	-0.037
-630.522	800.000	0.077	-0.274
-629.507	-51.790	0.206	0.096
-628.492	-52.161	-0.071	0.033
-627.478	-75.019	-0.274	0.098
-626.463	359.211	-0.101	-0.202
-625.449	-2.247	0.254	-0.178
-624.434	-9.956	0.097	0.064
-623.419	128.081	-0.140	-0.178
-622.405	-124.164	-0.251	0.039
-621.390	367.999	-0.063	-0.127
-620.376	-29.874	-0.160	0.091
-619.361	-92.807	0.087	0.024
-618.346	-200.000	0.046	-0.404
-617.332	-13.710	-0.178	-0.115
-616.317	41.130	0.225	0.203
-615.303	-16.003	0.077	0.049
-614.288	73.036	-0.055	0.058
-613.273	-102.421	-0.037	0.009
-612.259	28.780	-0.331	-0.280
-611.244	-20.565	-0.281	0.172
-610.230	-17.696	0.208	-0.130
-609.215	-200.000	-0.014	0.157
-608.201	-10.264	0.200	0.132
-607.186	-197.311	-0.108	-0.001
-606.171	-200.000	0.002	-0.108
-605.157	12.525	-0.316	0.244
-604.142	-200.000	0.024	-0.209
-603.128	410.494	-0.106	0.225
-602.113	253.712	-0.140	0.238
-601.098	-64.478	0.133	0.054
-600.084	40.574	0.196	0.177
-599.069	89.574	-0.120	0.134
-598.055	-75.516	-0.226	0.080
-597.040	-97.054	0.289	0.076
-596.025	-95.437	-0.524	-0.140
-595.011	328.046	0.124	0.237
-593.996	201.619	0.136	-0.210
-592.982	105.179	-0.151	-0.178
-591.967	19.702	0.319	0.256
-590.952	-152.928	0.153	-0.011
-589.938	653.163	-0.075	-0.192
-588.923	-200.000	-0.010	-0.047
-587.909	208.058	0.159	-0.248
-586.894	-39.902	0.124	0.065
-585.879	-168.677	0.115	-0.004
-584.865	-148.254	0.138	0.011
-583.850	501.351	0.042	0.097
-582.836	677.166	0.101	-0.263
-581.821	-93.834	-0.174	-0.048
-580.806	80.141	0.142	-0.152
-579.792	-200.000	-0.016	-0.179
-578.777	239.480	0.084	-0.140
-577.763	-115.572	-0.466	0.087
-576.748	-10.902	0.065	0.043
-575.733	-62.923	-0.391	-0.161
-574.719	16.364	-0.182	0.143
-573.704	-200.000	0.021	-0.171
-572.690	-112.277	0.285	0.057
-571.675	436.352	0.184	0.400
-570.661	40.473	0.243	0.219
-569.646	-99.534	0.131	-0.033
-568.631	431.398	-0.027	0.058
-567.617	76.069	-0.089	-0.094
-566.602	-169.411	0.579	-0.021
-565.588	-73.055	-0.245	-0.090
-564.573	184.095	0.181	-0.266
-563.558	-78.450	-0.415	0.142
-562.544	55.043	-0.047	-0.045
-561.529	800.000	0.045	-0.168
-560.515	-64.218	0.335	0.136
-559.500	800.000	-0.094	0.275
-558.485	139.634	-0.024	-0.032
-557.471	-47.541	-0.140	-0.068
-556.456	-130.044	-0.128	-0.017
-555.442	-110.820	-0.310	0.064
-554.427	628.723	0.081	-0.203
-553.412	-200.000	0.021	-0.189
-552.398	-87.161	0.213	0.064
-551.383	-86.964	0.189	-0.057
-550.369	-200.000	-0.443	-0.001
-549.354	121.489	0.196	0.243
-548.339	284.332	-0.045	-0.081
-547.325	-32.236	0.189	0.105
-546.310	13.611	0.210	0.162
-545.296	-136.727	-0.175	-0.020
-544.281	262.155	-0.063	0.108
-543.266	800.000	-0.066	-0.260
-542.252	-135.352	0.043	0.005
-541.237	-109.629	0.198	0.042
-540.223	-125.630	0.063	-0.010
-539.208	6.970	-0.110	-0.082
-538.193	44.360	0.216	0.197
-537.179	245.954	0.080	0.135
-536.164	-200.000	0.014	-0.090
-535.150	-75.995	-0.086	0.030
-534.135	2.274	-0.390	-0.281
-533.121	-200.000	0.074	-0.359
-532.106	-131.475	-0.194	0.025
-531.091	-200.000	0.022	0.116
-530.077	292.044	0.244	-0.442
-529.062	-186.868	-0.281	-0.004
-528.048	-200.000	0.020	-0.098
-527.033	-200.000	-0.014	-0.352
-526.018	677.968	0.041	-0.107
-525.004	-200.000	-0.018	0.172
-523.989	-78.310	0.209	-0.071
-522.975	43.434	0.189	0.172
-521.960	79.947	0.233	0.250
-520.945	-200.000	-0.013	-0.188
-519.931	35.669	0.198	0.173
-518.916	715.652	0.071	0.186
-517.902	-36.323	-0.194	0.104
-516.887	-53.451	0.248	0.113
-515.872	-200.000	0.013	0.133
-514.858	-130.617	0.232	0.031
-513.843	-1.212	-0.050	0.035
-512.829	-107.437	-0.101	-0.022
-511.814	49.693	-0.196	-0.183
-510.799	622.612	0.148	0.370
-509.785	553.522	-0.178	-0.426
-508.770	5.730	0.229	0.168
-507.756	-59.600	0.088	0.038
-506.741	104.326	0.129	0.151
-505.726	-57.194	0.518	-0.227
-504.712	-200.000	-0.211	-0.000
-503.697	169.481	-0.211	-0.300
-502.683	-137.871	0.248	-0.028
-501.668	-113.355	0.149	-0.029
-500.653	-46.864	-0.188	0.092
-499.639	-200.000	0.060	0.370
-498.624	175.843	-0.136	-0.196
-497.610	-48.051	0.373	-0.179
-496.595	-200.000	0.004	-0.444
-495.581	-200.000	-0.001	-0.268
-494.566	-200.000	0.020	-0.108
-493.551	12.570	-0.058	-0.044
-492.537	13.617	-0.105	-0.081
-491.522	68.955	0.102	0.104
-490.508	-200.000	0.005	-0.155
-489.493	474.213	0.083	-0.187
-488.478	-200.000	0.043	-0.334
-487.464	-200.000	0.046	-0.222
-486.449	-106.964	-0.321	-0.071
-485.435	20.902	-0.224	0.181
-484.420	-40.332	-0.164	-0.085
-483.405	-198.702	-0.198	0.001
-482.391	710.267	-0.138	0.364
-481.376	-106.049	-0.196	-0.044
-480.362	-93.228	0.087	-0.024
-479.347	-200.000	0.030	0.262
-478.332	197.513	0.076	0.116
-477.318	-200.000	0.117	-0.525
-476.303	6.791	-0.054	0.040
-475.289	800.000	0.060	-0.202
-474.274	800.000	0.044	-0.171
-473.259	20.286	-0.102	0.082
-472.245	-148.157	0.198	0.016
-471.230	185.060	-0.081	-0.119
-470.216	-156.290	0.215	-0.013
-469.201	352.039	0.176	0.346
-468.186	-59.401	-0.110	0.047
-467.172	678.739	-0.103	-0.267
-466.157	-200.000	0.027	-0.169
-465.143	162.668	0.295	0.411
-464.128	-104.311	-0.328	0.075
-463.113	800.000	-0.092	0.304
-462.099	49.584	-0.209	0.196
-461.084	-200.000	0.031	-0.282
-460.070	-67.302	0.306	-0.120
-459.055	-200.000	-0.036	-0.168
-458.040	253.705	-0.018	0.030
-457.026	800.000	0.057	0.188
-456.011	-116.048	0.111	0.021
-454.997	800.000	0.060	0.179
-453.982	-134.330	-0.211	-0.026
-452.968	15.979	-0.140	-0.109
-451.953	-41.499	-0.197	-0.100
-450.938	62.203	0.094	-0.093
-449.924	-66.507	0.375	-0.148
-448.909	68.919	-0.140	-0.143
-447.895	387.258	0.104	-0.214
-446.880	-98.232	-0.110	0.028
-445.865	-104.762	-0.200	-0.046
-444.851	-116.362	-0.403	-0.074
-443.836	284.338	0.064	-0.114
-442.822	-200.000	-0.016	0.126
-441.807	-97.205	0.141	-0.037
-440.792	-134.604	-0.097	0.012
-439.778	-140.362	-0.308	-0.032
-438.763	-200.000	-0.034	-0.311
-437.749	9.336	0.093	0.070
-436.734	-48.612	0.120	-0.057
-435.719	-200.000	0.033	0.272
-434.705	29.029	0.320	-0.269
-433.690	-56.242	0.100	0.044
-432.676	132.434	-0.161	-0.206
-431.661	20.201	-0.237	-0.190
-430.646	165.450	-0.181	0.254
-429.632	76.548	0.152	-0.160
-428.617	-40.979	0.177	0.091
-427.603	-59.220	0.384	0.164
-426.588	-69.173	0.183	0.070
-425.573	69.270	-0.040	0.041
-424.559	-82.855	0.053	-0.017
-423.544	-106.499	0.319	-0.071
-422.530	600.961	0.037	-0.090
-421.515	26.386	-0.130	-0.108
-420.500	-120.122	-0.042	0.007
-419.486	800.000	0.029	-0.115
-418.471	-49.912	0.110	0.052
-417.457	-200.000	-0.042	0.245
-416.442	227.241	0.061	-0.099
-415.428	-154.126	0.263	-0.018
-414.413	-136.562	-0.273	0.031
-413.398	800.000	-0.126	0.376
-412.384	141.312	0.256	0.335
-411.369	800.000	-0.057	0.163
-410.355	800.000	0.124	-0.377
-409.340	236.166	-0.100	-0.163
-408.325	67.307	-0.087	-0.088
-407.311	800.000	0.054	0.165
-406.296	-200.000	-0.024	-0.196
-405.282	221.954	-0.156	-0.249
-404.267	-50.252	-0.268	0.125
-403.252	260.612	0.103	0.176
-402.238	-16.454	-0.219	-0.137
-401.223	-200.000	-0.023	-0.196
-400.209	750.256	-0.129	-0.345
-399.194	229.774	0.225	0.364
-398.179	-53.039	0.044	-0.020
-397.165	-52.675	0.230	0.105
-396.150	-36.284	-0.163	-0.087
-395.136	89.442	0.163	-0.180
-394.121	-96.864	0.136	-0.035
-393.106	151.104	-0.201	-0.271
-392.092	95.103	0.045	0.051
-391.077	5.378	0.135	-0.099
-390.063	-111.444	0.234	0.047
-389.048	-15.260	-0.217	-0.137
-388.033	-131.574	0.171	0.022
-387.019	-200.000	-0.002	-0.022
-386.004	98.878	-0.274	0.313
-384.990	238.797	-0.107	0.176
-383.975	307.202	-0.109	-0.201
-382.960	277.535	-0.137	-0.242
-381.946	32.861	-0.243	0.208
-380.931	43.547	0.112	-0.101
-379.917	800.000	-0.038	0.104
-378.902	-51.923	0.260	0.120
-377.888	-151.592	0.372	0.027
-376.873	-65.770	-0.121	-0.048
-375.858	-54.770	-0.238	-0.106
-374.844	-115.503	0.270	-0.050
-373.829	-97.497	-0.225	0.058
-372.815	800.000	0.070	0.262
-371.800	87.475	-0.078	0.086
-370.785	108.079	-0.149	0.176
-369.771	-29.684	-0.171	-0.096
-368.756	-158.062	0.473	-0.027
-367.742	-200.000	-0.039	-0.233
-366.727	800.000	0.101	-0.335
-365.712	-1.854	0.163	-0.113
-364.698	-200.000	-0.012	0.227
-363.683	-132.112	-0.296	0.038
-362.669	-25.019	0.488	-0.286
-361.654	104.019	0.150	-0.175
-360.639	800.000	0.070	0.290
-359.625	-47.387	-0.041	0.020
-358.610	800.000	-0.052	0.211
-357.596	-145.273	0.178	0.016
-356.581	-80.058	0.163	0.054
-355.566	-200.000	-0.010	0.365
-354.552	160.244	0.183	0.253
-353.537	800.000	-0.099	0.354
-352.523	800.000	0.023	-0.066
-351.508	800.000	-0.077	0.217
-350.493	-119.787	0.243	0.041
-349.479	304.871	-0.078	-0.143
-348.464	232.682	0.095	0.155
-347.450	464.641	-0.153	0.338
-346.435	-9.418	-0.084	0.055
-345.420	-200.000	0.006	-0.264
-344.406	-121.129	0.209	0.035
-343.391	-181.386	0.141	0.003
-342.377	-96.996	0.126	0.033
-341.362	71.654	-0.106	0.109
-340.348	-73.326	0.409	0.148
-339.333	-85.978	-0.134	0.041
-338.318	393.978	-0.151	0.311
-337.304	-44.220	-0.235	-0.116
-336.289	-2.090	0.187	-0.130
-335.275	53.839	-0.054	-0.052
-334.260	-45.882	-0.144	-0.070
-333.245	228.104	0.086	-0.138
-332.231	-200.000	-0.032	0.165
-331.216	-12.913	0.150	-0.097
-330.202	314.556	-0.071	-0.131
-329.187	6.798	0.081	-0.059
-328.172	-200.000	-0.030	-0.252
-327.158	678.417	0.052	-0.133
-326.143	-200.000	-0.024	0.278
-325.129	800.000	0.050	0.203
-324.114	334.590	-0.053	0.101
-323.099	-200.000	0.012	0.144
-322.085	433.999	0.104	-0.224
-321.070	380.576	-0.075	0.152
-320.056	403.926	0.087	0.181
-319.041	699.867	0.109	0.283
-318.026	-90.342	-0.227	0.065
-317.012	-129.902	-0.140	-0.019
-315.997	-103.231	-0.127	-0.030
-314.983	226.130	0.222	-0.356
-313.968	-58.780	0.186	0.079
-312.953	136.720	-0.154	-0.199
-311.939	442.632	-0.087	-0.189
-310.924	800.000	-0.059	0.231
-309.910	-200.000	-0.045	0.245
-308.895	800.000	0.050	-0.189
-307.880	23.370	-0.106	0.086
-306.866	-37.055	0.128	-0.068
-305.851	-93.548	-0.072	-0.020
-304.837	-200.000	0.042	0.296
-303.822	257.453	-0.160	-0.272
-302.807	18.856	0.102	0.081
-301.793	-72.870	-0.026	0.010
-300.778	743.571	0.032	-0.084
-299.764	-137.059	-0.011	-0.001
-298.749	-36.405	-0.284	0.151
-297.735	-77.949	0.137	-0.047
-296.720	-137.125	-0.395	-0.044
-295.705	-52.868	-0.154	-0.070
-294.691	-75.274	0.206	-0.072
-293.676	2.751	0.079	-0.057
-292.662	298.977	0.018	-0.032
-291.647	800.000	-0.010	-0.040
-290.632	-200.000	0.108	-0.489
-289.618	-200.000	-0.022	0.193
-288.603	800.000	-0.092	0.316
-287.589	63.322	-0.221	0.218
-286.574	-125.810	0.229	-0.034
-285.559	-64.477	-0.193	-0.077
-284.545	41.453	-0.172	0.154
-283.530	-200.000	0.029	0.133
-282.516	-159.790	-0.381	0.021
-281.501	200.280	-0.231	-0.349
-280.486	-135.208	0.290	-0.034
-279.472	-151.580	0.108	-0.008
-278.457	245.987	-0.021	-0.035
-277.443	-69.304	-0.177	0.067
-276.428	-200.000	-0.016	0.259
-275.413	-200.000	-0.004	-0.302
-274.399	-18.486	-0.155	0.095
-273.384	539.675	-0.036	0.084
-272.370	-200.000	-0.010	0.054
-271.355	-58.550	0.073	-0.031
-270.340	-130.365	0.075	-0.010
-269.326	288.765	-0.065	-0.117
-268.311	800.000	-0.060	0.189
-267.297	74.203	0.179	0.186
-266.282	-126.115	-0.155	-0.023
-265.267	800.000	-0.044	0.153
-264.253	800.000	0.035	0.116
-263.238	-5.602	-0.177	-0.120
-262.224	258.714	-0.144	0.245
-261.209	-106.895	0.438	0.096
-260.195	21.517	-0.251	0.201
-259.180	-164.535	-0.142	0.006
-258.165	-59.469	0.091	-0.039
-257.151	-28.910	0.198	0.112
-256.136	389.996	0.109	0.222
-255.122	210.815	-0.012	-0.018
-254.107	-76.812	0.141	0.049
-253.092	53.734	-0.133	0.126
-252.078	215.736	-0.097	-0.152
-251.063	-113.070	-0.351	-0.068
-250.049	-138.193	0.044	0.005
-249.034	147.137	-0.154	0.205
-248.019	-111.173	0.321	0.065
-247.005	-200.000	0.007	-0.163
-245.990	-200.000	-0.029	-0.201
-244.976	-54.567	-0.170	0.076
-243.961	-200.000	-0.008	0.120
-242.946	66.826	0.204	0.204
-241.932	-200.000	0.001	0.083
-240.917	404.460	0.042	-0.087
-239.903	-56.405	0.215	-0.094
-238.888	-200.000	0.060	0.564
-237.873	78.543	0.110	0.116
-236.859	686.479	0.038	-0.097
-235.844	800.000	-0.084	-0.254
-234.830	-200.000	0.092	0.454
-233.815	-124.151	-0.120	0.018
-232.800	-111.766	-0.216	0.043
-231.786	-85.333	-0.114	-0.035
-230.771	56.686	-0.155	-0.148
-229.757	26.934	-0.280	-0.231
-228.742	64.037	-0.073	-0.072
-227.727	-200.000	-0.037	-0.183
-226.713	-111.592	-0.300	0.060
-225.698	-10.326	-0.187	0.122
-224.684	640.897	0.081	-0.203
-223.669	-79.535	-0.157	-0.052
-222.655	-178.314	-0.214	-0.005
-221.640	-200.000	0.012	0.341
-220.625	-144.960	-0.410	-0.037
-219.611	-96.853	-0.105	0.027
-218.596	-200.000	0.038	0.243
-217.582	-59.800	0.204	0.086
-216.567	172.186	-0.108	0.152
-215.552	69.080	-0.125	0.127
-214.538	-200.000	0.437	-0.001
-213.523	81.735	0.126	0.134
-212.509	-200.000	-0.067	0.291
-211.494	800.000	0.051	0.183
-210.479	-29.152	0.206	-0.116
-209.465	-200.000	0.031	0.196
-208.450	-200.000	-0.026	0.301
-207.436	-112.340	0.045	0.009
-206.421	102.791	-0.091	-0.105
-205.406	-97.965	-0.139	0.035
-204.392	119.985	0.155	0.189
-203.377	-7.442	0.151	-0.101
-202.363	98.179	0.165	-0.187
-201.348	-62.898	0.169	-0.069
-200.333	79.385	-0.154	-0.162
-199.319	-159.833	0.142	-0.008
-198.304	-200.000	-0.041	0.258
-197.290	-47.916	0.263	-0.125
-196.275	-135.104	-0.094	-0.011
-195.260	125.442	-0.179	-0.222
-194.246	-200.000	0.010	-0.451
-193.231	-126.675	0.167	-0.024
-192.217	-69.003	-0.035	-0.013
-191.202	-147.390	-0.065	0.005
-190.187	413.640	-0.134	-0.281
-189.173	-63.659	0.279	-0.112
-188.158	-59.729	-0.204	-0.086
-187.144	-3.396	0.171	0.117
-186.129	-43.404	0.276	0.137
-185.114	-200.000	0.007	0.140
-184.100	-35.892	0.096	0.051
-183.085	6.199	0.125	-0.091
-182.071	800.000	-0.086	-0.284
-181.056	-45.222	-0.229	0.112
-180.042	-39.492	-0.270	-0.139
-179.027	-200.000	0.081	0.503
-178.012	5.182	-0.072	0.052
-176.998	800.000	0.051	0.145
-175.983	8.344	0.088	0.065
-174.969	95.549	-0.115	-0.129
-173.954	-2.616	0.276	0.190
-172.939	26.573	-0.084	0.069
-171.925	-26.334	-0.325	0.187
-170.910	202.633	-0.112	0.170
-169.896	-86.697	-0.327	0.098
-168.881	-107.791	0.185	0.040
-167.866	566.336	-0.080	0.190
-166.852	86.705	-0.109	0.118
-165.837	384.543	-0.086	0.174
-164.823	143.998	-0.211	-0.276
-163.808	-21.457	0.338	-0.202
-162.793	255.681	-0.138	-0.233
-161.779	-17.454	-0.238	0.147
-160.764	-200.000	-0.010	0.217
-159.750	215.854	0.228	0.356
-158.735	-57.448	0.379	-0.163
-157.720	443.261	-0.056	-0.120
-156.706	-92.184	0.076	-0.021
-155.691	800.000	-0.051	-0.170
-154.677	-52.740	0.132	-0.060
-153.662	180.982	0.017	-0.025
-152.647	0.212	0.232	0.163
-151.633	16.617	-0.137	0.106
-150.618	-116.469	0.200	0.036
-149.604	606.647	0.084	-0.204
-148.589	-45.534	-0.444	-0.216
-147.574	85.758	0.056	-0.060
-146.560	-76.127	-0.260	0.090
-145.545	224.314	0.229	0.362
-144.531	49.375	0.265	0.245
-143.516	-200.000	0.032	0.317
-142.502	91.739	-0.083	-0.091
-141.487	58.280	-0.058	-0.056
-140.472	31.445	0.077	-0.065
-139.458	-162.711	0.066	-0.003
-138.443	-200.000	0.008	0.213
-137.429	-91.354	-0.073	0.020
-136.414	-200.000	-0.056	-0.358
-135.399	25.248	0.233	-0.190
-134.385	-44.650	0.164	0.080
-133.370	187.917	0.065	0.096
-132.356	-46.573	-0.081	-0.039
-131.341	-160.514	0.197	0.010
-130.326	-200.000	0.027	0.249
-129.312	800.000	0.044	-0.154
-128.297	800.000	-0.035	-0.103
-127.283	107.286	0.122	-0.142
-126.268	7.490	-0.170	0.125
-125.253	-178.345	-0.115	0.003
-124.239	800.000	0.040	0.144
-123.224	-55.294	0.320	-0.141
-122.210	-142.829	-0.270	0.026
