DTS Sentinel unit serial number:	SN413079Multiplexer serial number:	ORYXHardware model number:	OX4-SRSoftware version number:	ORYX F/W v4.00 Oryx Data Collector v3.7.2.0data status	okinstallation	princeton_trtdifferential loss correction	single-endedforward channel	channel 1reverse channel	N/Adate	2019/09/18time	18:18:35forward acquisition time	60.00reverse acquisition time	0.00gamma	496.2192k internal	0.2293k external	0.2293temperature offset calibration	1.0012default loss term (dB/km)	0.3790temperature slope calibration	1.0000multiplexer offset coefficient	1.0000multiplexer slope coefficient	1.0000fibre end	0.00T internal ref (°C)	38.80T ext. ref 1 (°C)	0.92T ext. ref 2 (°C)	32.07length (m)	temperature (°C)	Stokes	anti-Stokes-747.200	-8.020	-0.130	0.090
-746.185	-72.963	-0.306	0.115
-745.171	-200.000	-0.045	0.231
-744.156	-112.702	-0.296	0.060
-743.142	-200.000	-0.036	0.214
-742.127	-200.000	0.361	0.000
-741.112	-171.251	0.227	0.008
-740.098	575.341	-0.101	-0.252
-739.083	-200.000	-0.054	-0.301
-738.069	-200.000	-0.056	0.368
-737.054	300.793	-0.033	0.063
-736.039	-200.000	0.079	0.424
-735.025	-107.815	-0.160	0.036
-734.010	83.650	-0.318	-0.355
-732.996	11.550	0.084	0.066
-731.981	-39.515	-0.209	-0.112
-730.966	-200.000	0.029	0.230
-729.952	-200.000	-0.026	-0.226
-728.937	-200.000	-0.001	-0.054
-727.923	36.189	-0.248	-0.224
-726.908	-200.000	-0.026	-0.182
-725.894	105.885	-0.117	-0.142
-724.879	35.562	-0.233	-0.209
-723.864	-9.131	0.119	-0.081
-722.850	39.164	0.034	0.031
-721.835	-162.505	-0.184	-0.009
-720.821	-200.000	0.035	-0.246
-719.806	-200.000	-0.031	-0.330
-718.791	-200.000	0.000	-0.245
-717.777	800.000	-0.143	-0.522
-716.762	-200.000	-0.005	0.241
-715.748	-182.166	-0.213	0.004
-714.733	-72.629	-0.479	0.180
-713.718	-12.811	-0.185	-0.123
-712.704	-104.698	-0.307	0.072
-711.689	-200.000	0.057	-0.272
-710.675	-88.863	-0.132	-0.040
-709.660	37.627	-0.201	-0.182
-708.645	169.194	-0.035	0.050
-707.631	-89.514	-0.412	0.124
-706.616	-97.633	0.254	-0.067
-705.602	-165.552	-0.613	-0.027
-704.587	-23.627	-0.036	0.022
-703.572	4.620	-0.046	0.034
-702.558	-110.381	0.199	0.042
-701.543	-200.000	0.021	0.180
-700.529	-35.753	0.263	0.146
-699.514	66.314	-0.254	-0.263
-698.499	21.628	-0.243	0.202
-697.485	331.983	-0.076	0.149
-696.470	3.012	-0.157	0.117
-695.456	147.235	-0.176	0.242
-694.441	-200.000	-0.025	-0.222
-693.426	800.000	0.050	0.217
-692.412	175.108	0.097	0.143
-691.397	-58.319	0.118	-0.053
-690.383	-125.819	0.175	-0.027
-689.368	33.579	0.390	-0.346
-688.354	292.808	-0.139	0.259
-687.339	-95.087	0.081	0.022
-686.324	-200.000	0.023	-0.169
-685.310	-200.000	-0.014	0.206
-684.295	-119.246	0.223	0.040
-683.281	160.494	0.105	-0.150
-682.266	113.890	0.054	-0.067
-681.251	410.322	-0.141	-0.305
-680.237	-1.237	0.373	-0.269
-679.222	-164.835	0.391	0.018
-678.208	-81.099	0.045	0.015
-677.193	-118.213	0.256	0.047
-676.178	-29.157	-0.252	-0.147
-675.164	152.402	-0.208	-0.290
-674.149	-34.388	-0.167	0.093
-673.135	-166.927	0.208	0.009
-672.120	6.008	0.234	0.177
-671.105	49.688	-0.028	0.026
-670.091	-200.000	-0.032	0.163
-669.076	105.131	-0.102	-0.123
-668.062	-178.247	0.196	0.005
-667.047	-90.404	-0.339	0.100
-666.032	-183.828	-0.450	-0.008
-665.018	2.398	-0.245	-0.181
-664.003	-4.878	-0.226	0.159
-662.989	222.571	-0.083	0.136
-661.974	7.635	-0.248	-0.190
-660.959	-200.000	0.020	0.097
-659.945	244.126	-0.154	0.263
-658.930	-200.000	-0.002	0.275
-657.916	665.880	-0.071	-0.186
-656.901	243.591	-0.108	0.185
-655.886	-29.349	0.125	0.073
-654.872	52.844	-0.149	0.145
-653.857	-57.991	-0.389	-0.173
-652.843	-200.000	-0.018	0.168
-651.828	80.472	-0.233	-0.256
-650.814	-200.000	-0.016	0.336
-649.799	-75.452	0.318	-0.115
-648.784	800.000	0.037	-0.138
-647.770	-56.552	0.341	0.154
-646.755	-200.000	-0.056	0.350
-645.741	-166.553	0.211	-0.009
-644.726	92.424	0.162	-0.186
-643.711	-200.000	-0.171	-0.000
-642.697	269.467	0.090	0.161
-641.682	-200.000	-0.204	0.000
-640.668	-41.203	0.310	0.163
-639.653	-138.229	0.293	-0.033
-638.638	800.000	-0.039	0.146
-637.624	-33.861	-0.226	0.127
-636.609	-200.000	-0.017	0.203
-635.595	238.494	-0.014	0.023
-634.580	354.433	0.142	0.287
-633.565	-200.000	0.025	-0.171
-632.551	-124.087	-0.181	0.029
-631.536	224.122	-0.008	-0.013
-630.522	-152.293	-0.332	0.024
-629.507	-94.677	0.180	-0.050
-628.492	345.632	0.157	0.314
-627.478	724.530	0.069	-0.186
-626.463	800.000	0.034	-0.141
-625.449	-200.000	0.004	0.050
-624.434	87.180	0.182	-0.205
-623.419	-142.709	-0.264	0.026
-622.405	800.000	0.099	0.298
-621.390	-14.309	0.357	-0.234
-620.376	-200.000	0.002	-0.162
-619.361	-38.782	-0.117	-0.063
-618.346	-94.911	0.067	0.018
-617.332	800.000	0.022	-0.089
-616.317	-61.513	0.030	-0.013
-615.303	-54.181	-0.242	-0.112
-614.288	-48.115	-0.068	0.034
-613.273	-93.493	0.253	-0.071
-612.259	-108.894	0.549	0.119
-611.244	115.858	0.069	0.086
-610.230	-129.641	0.190	0.027
-609.215	-200.000	0.170	0.000
-608.201	-200.000	0.028	0.297
-607.186	-85.193	0.058	-0.018
-606.171	-113.466	0.171	-0.034
-605.157	-200.000	0.008	0.172
-604.142	-9.913	-0.314	0.212
-603.128	644.345	0.050	0.129
-602.113	-200.000	-0.002	0.176
-601.098	-200.000	-0.023	-0.172
-600.084	800.000	0.046	-0.159
-599.069	512.462	0.060	-0.141
-598.055	353.389	0.049	0.098
-597.040	-171.740	0.064	-0.002
-596.025	307.455	-0.100	-0.189
-595.011	39.902	-0.132	0.121
-593.996	-200.000	0.060	0.380
-592.982	800.000	-0.141	0.405
-591.967	800.000	-0.025	-0.071
-590.952	-200.000	-0.000	0.157
-589.938	-0.423	-0.157	0.113
-588.923	-200.000	0.001	-0.170
-587.909	0.051	-0.207	-0.150
-586.894	29.729	-0.120	0.104
-585.879	-27.775	-0.205	-0.121
-584.865	19.605	-0.110	0.090
-583.850	154.327	-0.196	0.274
-582.836	800.000	0.047	-0.205
-581.821	199.715	-0.139	-0.217
-580.806	1.099	0.225	-0.164
-579.792	-2.733	-0.157	-0.111
-578.777	-111.398	0.301	0.062
-577.763	759.924	0.060	-0.165
-576.748	-182.181	0.239	0.005
-575.733	-200.000	-0.028	0.375
-574.719	621.101	-0.138	-0.354
-573.704	244.184	-0.131	-0.223
-572.690	67.491	-0.042	0.044
-571.675	72.467	-0.054	0.058
-570.661	-29.176	0.096	0.056
-569.646	-85.119	-0.417	-0.133
-568.631	265.200	0.203	-0.359
-567.617	453.868	0.118	0.265
-566.602	-123.072	-0.093	0.015
-565.588	-44.617	0.126	0.064
-564.573	-6.262	-0.293	0.203
-563.558	94.829	-0.214	0.247
-562.544	-18.753	0.057	-0.036
-561.529	800.000	-0.052	-0.161
-560.515	113.561	0.154	0.189
-559.500	382.546	0.125	-0.261
-558.485	15.132	-0.335	0.267
-557.471	698.227	0.029	0.078
-556.456	-91.358	-0.272	-0.079
-555.442	22.318	-0.068	-0.057
-554.427	-80.779	0.289	-0.098
-553.412	60.859	0.154	0.155
-552.398	-194.251	-0.043	-0.000
-551.383	95.060	0.188	0.217
-550.369	129.548	0.152	-0.198
-549.354	114.971	-0.113	0.140
-548.339	118.552	-0.271	0.339
-547.325	-109.865	-0.210	0.045
-546.310	-200.000	0.016	-0.165
-545.296	323.116	0.050	-0.097
-544.281	10.534	-0.148	-0.115
-543.266	-194.174	-0.278	0.002
-542.252	14.917	0.254	0.201
-541.237	-109.353	-0.143	0.031
-540.223	-200.000	0.018	0.108
-539.208	-200.000	-0.007	-0.184
-538.193	-10.568	-0.232	-0.156
-537.179	39.359	0.113	-0.103
-536.164	-200.000	-0.007	0.199
-535.150	800.000	-0.044	0.182
-534.135	-96.035	0.230	0.062
-533.121	-35.689	-0.084	0.046
-532.106	-96.533	-0.233	0.062
-531.091	-200.000	-0.006	0.285
-530.077	241.604	0.166	0.282
-529.062	90.052	-0.113	-0.128
-528.048	93.201	0.167	0.192
-527.033	725.809	0.090	-0.243
-526.018	800.000	-0.130	-0.470
-525.004	304.843	0.074	0.139
-523.989	-200.000	-0.000	-0.003
-522.975	61.977	0.236	-0.239
-521.960	646.287	0.071	-0.185
-520.945	-153.404	0.186	0.013
-519.931	4.743	-0.204	-0.152
-518.916	5.132	0.093	-0.069
-517.902	706.123	-0.133	-0.356
-516.887	-106.856	0.358	-0.080
-515.872	-145.849	0.225	0.020
-514.858	-159.813	-0.534	0.030
-513.843	-200.000	0.015	-0.161
-512.829	368.344	-0.129	0.265
-511.814	-118.960	-0.335	0.060
-510.799	174.284	0.110	0.161
-509.785	-30.738	-0.046	0.026
-508.770	4.038	0.093	-0.069
-507.756	23.070	-0.137	0.114
-506.741	800.000	-0.014	0.057
-505.726	0.033	0.142	0.102
-504.712	-200.000	0.025	-0.330
-503.697	227.354	0.067	-0.111
-502.683	-200.000	0.008	-0.037
-501.668	422.739	0.078	-0.169
-500.653	-21.726	-0.345	0.213
-499.639	294.519	0.089	0.165
-498.624	14.827	0.418	0.331
-497.610	77.964	0.086	0.093
-496.595	353.232	0.176	0.354
-495.581	44.707	0.167	-0.155
-494.566	6.258	0.298	0.224
-493.551	0.957	0.048	-0.034
-492.537	800.000	-0.086	-0.361
-491.522	-125.062	0.265	-0.041
-490.508	-33.082	-0.291	-0.164
-489.493	130.464	-0.147	-0.191
-488.478	-200.000	0.010	0.189
-487.464	-74.880	0.506	0.184
-486.449	580.594	-0.012	-0.029
-485.435	135.278	-0.176	-0.232
-484.420	-91.629	-0.341	-0.098
-483.405	-112.362	-0.157	0.032
-482.391	-54.763	-0.045	-0.021
-481.376	-60.280	0.066	0.028
-480.362	-64.397	0.283	0.116
-479.347	-200.000	-0.001	0.065
-478.332	-21.633	0.426	0.262
-477.318	-146.908	0.065	-0.006
-476.303	153.934	0.120	0.166
-475.289	39.093	0.059	-0.053
-474.274	143.469	0.094	-0.127
-473.259	-63.750	0.159	-0.066
-472.245	-34.569	-0.183	0.101
-471.230	-10.450	-0.221	0.149
-470.216	148.202	-0.080	-0.109
-469.201	151.580	-0.166	-0.228
-468.186	800.000	0.080	-0.257
-467.172	272.144	0.042	0.074
-466.157	-136.911	0.383	0.044
-465.143	6.641	-0.336	-0.253
-464.128	42.754	0.043	-0.040
-463.113	-200.000	-0.031	0.268
-462.099	56.830	0.210	0.207
-461.084	-42.083	-0.197	-0.102
-460.070	612.797	-0.101	0.256
-459.055	-2.144	-0.274	0.195
-458.040	-61.306	-0.161	-0.069
-457.026	800.000	0.025	0.075
-456.011	800.000	0.037	0.117
-454.997	-54.128	0.246	-0.113
-453.982	-67.491	-0.028	0.011
-452.968	196.932	-0.177	0.273
-451.953	146.947	-0.107	0.145
-450.938	116.363	0.109	0.135
-449.924	-49.414	0.252	0.121
-448.909	-106.901	0.080	-0.018
-447.895	-152.481	0.013	-0.001
-446.880	-200.000	0.058	0.312
-445.865	-200.000	0.006	-0.041
-444.851	-132.215	-0.123	0.016
-443.836	-191.987	-0.477	-0.005
-442.822	106.063	0.110	0.131
-441.807	88.547	0.107	-0.121
-440.792	749.307	0.026	-0.072
-439.778	-200.000	-0.032	0.356
-438.763	-72.221	0.307	-0.115
-437.749	276.048	-0.152	0.272
-436.734	142.675	0.260	0.349
-435.719	67.587	-0.128	0.132
-434.705	-67.453	-0.248	0.098
-433.690	-37.840	0.100	-0.054
-432.676	-141.832	-0.277	0.028
-431.661	85.519	0.273	-0.303
-430.646	-94.119	-0.346	0.096
-429.632	-116.919	-0.069	0.013
-428.617	-200.000	0.024	-0.261
-427.603	-133.811	-0.186	0.023
-426.588	-76.926	0.157	0.056
-425.573	-200.000	-0.014	0.142
-424.559	-82.552	-0.137	-0.045
-423.544	-200.000	-0.012	-0.097
-422.530	5.404	0.292	-0.218
-421.515	-101.141	0.150	0.037
-420.500	-65.329	-0.106	0.043
-419.486	-164.535	-0.144	-0.007
-418.471	524.619	-0.123	0.293
-417.457	-163.139	-0.188	-0.009
-416.442	-200.000	0.020	-0.337
-415.428	-64.854	0.131	-0.054
-414.413	71.289	0.085	-0.089
-413.398	-97.323	0.188	-0.049
-412.384	149.115	0.134	0.183
-411.369	-200.000	0.032	-0.182
-410.355	-60.717	-0.195	-0.083
-409.340	72.060	0.179	-0.188
-408.325	800.000	0.087	-0.253
-407.311	-35.353	-0.220	-0.121
-406.296	800.000	0.057	-0.221
-405.282	-121.572	-0.092	-0.015
-404.267	-152.849	-0.096	-0.007
-403.252	-200.000	0.039	0.212
-402.238	120.108	0.136	0.171
-401.223	196.532	-0.134	0.206
-400.209	277.692	-0.105	0.189
-399.194	-54.098	0.145	-0.067
-398.179	90.161	-0.096	0.108
-397.165	-200.000	0.001	0.314
-396.150	25.886	-0.184	0.155
-395.136	190.645	0.166	-0.251
-394.121	430.377	0.175	-0.383
-393.106	383.130	-0.080	0.167
-392.092	316.733	0.105	0.201
-391.077	88.149	0.046	0.052
-390.063	-200.000	-0.009	-0.139
-389.048	85.035	-0.119	0.131
-388.033	260.973	0.092	-0.161
-387.019	-60.560	0.201	0.086
-386.004	-103.696	0.103	0.024
-384.990	164.932	-0.172	-0.245
-383.975	-126.341	-0.131	-0.020
-382.960	114.685	0.144	-0.178
-381.946	-105.784	-0.101	-0.023
-380.931	-79.652	0.237	0.081
-379.917	-34.494	-0.134	-0.074
-378.902	-200.000	-0.001	-0.047
-377.888	148.501	0.131	0.178
-376.873	-90.987	0.208	-0.060
-375.858	68.738	0.126	0.130
-374.844	99.753	-0.175	0.204
-373.829	-40.776	-0.268	-0.140
-372.815	310.079	0.111	-0.210
-371.800	71.991	-0.201	-0.211
-370.785	30.260	-0.175	-0.151
-369.771	-200.000	0.033	0.260
-368.756	-200.000	0.077	-0.348
-367.742	397.504	0.205	0.432
-366.727	147.164	0.221	0.300
-365.712	-137.139	-0.143	0.016
-364.698	-200.000	0.034	-0.188
-363.683	567.879	-0.157	0.385
-362.669	-19.160	0.173	-0.108
-361.654	-200.000	-0.039	0.315
-360.639	754.417	-0.099	-0.270
-359.625	-200.000	-0.012	-0.261
-358.610	-37.363	0.307	0.165
-357.596	-200.000	-0.030	-0.456
-356.581	458.642	0.012	0.026
-355.566	-154.535	0.356	0.024
-354.552	126.266	-0.097	-0.124
-353.537	603.572	-0.052	0.130
-352.523	4.447	-0.296	-0.218
-351.508	203.432	0.179	-0.279
-350.493	59.256	0.234	0.232
-349.479	-200.000	-0.041	0.203
-348.464	-200.000	-0.017	-0.136
-347.450	108.170	0.071	0.085
-346.435	105.075	0.206	0.245
-345.420	800.000	-0.093	-0.291
-344.406	-99.768	-0.086	-0.022
-343.391	-181.503	-0.125	0.002
-342.377	800.000	0.008	0.033
-341.362	472.142	0.043	0.098
-340.348	-62.435	0.132	-0.055
-339.333	49.148	0.206	-0.195
-338.318	389.001	-0.023	-0.047
-337.304	-36.234	-0.179	0.097
-336.289	-40.825	0.182	-0.095
-335.275	800.000	0.114	0.424
-334.260	271.582	-0.113	-0.200
-333.245	-80.190	0.256	-0.086
-332.231	-200.000	-0.036	-0.239
-331.216	800.000	-0.052	-0.215
-330.202	-78.984	0.164	-0.056
-329.187	42.044	0.147	0.134
-328.172	-180.058	-0.226	-0.005
-327.158	-41.231	-0.099	0.051
-326.143	-200.000	-0.000	-0.104
-325.129	-12.414	0.258	0.170
-324.114	-22.871	-0.195	-0.119
-323.099	-200.000	0.024	-0.198
-322.085	-127.257	0.246	0.036
-321.070	409.446	-0.091	0.195
-320.056	551.272	0.034	0.082
-319.041	71.874	0.088	0.092
-318.026	34.707	-0.115	0.101
-317.012	162.611	-0.223	0.314
-315.997	97.551	0.194	0.224
-314.983	235.360	-0.133	0.221
-313.968	-75.006	-0.299	-0.108
-312.953	800.000	0.039	0.149
-311.939	-114.271	-0.168	0.033
-310.924	-200.000	-0.064	0.427
-309.910	74.125	-0.138	0.146
-308.895	-200.000	0.058	-0.325
-307.880	-116.686	-0.310	-0.057
-306.866	-43.737	-0.122	-0.062
-305.851	-200.000	0.004	0.132
-304.837	-42.100	-0.293	-0.151
-303.822	389.097	0.112	0.233
-302.807	116.519	0.223	-0.275
-301.793	800.000	-0.057	0.190
-300.778	-151.593	0.229	0.017
-299.764	659.666	-0.113	-0.291
-298.749	-125.991	0.258	0.039
-297.735	-8.319	-0.117	-0.079
-296.720	297.467	-0.104	0.193
-295.705	-157.800	0.220	-0.013
-294.691	-200.000	-0.004	0.328
-293.676	-106.588	-0.373	0.083
-292.662	26.663	-0.033	0.028
-291.647	-200.000	0.030	-0.206
-290.632	76.555	0.250	-0.267
-289.618	17.823	-0.105	-0.084
-288.603	194.514	-0.045	0.068
-287.589	43.598	0.065	0.060
-286.574	-47.286	0.270	0.132
-285.559	-3.608	0.083	0.058
-284.545	-200.000	0.053	-0.364
-283.530	-17.148	0.405	-0.256
-282.516	97.165	0.118	-0.136
-281.501	-91.089	0.023	-0.007
-280.486	23.841	-0.175	-0.145
-279.472	-19.468	0.218	-0.136
-278.457	-200.000	0.039	-0.401
-277.443	43.591	0.208	-0.191
-276.428	197.020	-0.043	0.066
-275.413	189.450	-0.172	-0.258
-274.399	-200.000	-0.041	-0.188
-273.384	-170.465	-0.150	-0.005
-272.370	-57.918	-0.194	-0.085
-271.355	-21.204	0.326	-0.200
-270.340	-83.056	0.418	-0.135
-269.326	-72.047	0.299	-0.112
-268.311	-200.000	0.031	0.233
-267.297	-67.181	0.285	0.113
-266.282	206.281	0.076	0.119
-265.267	800.000	-0.085	-0.322
-264.253	51.788	-0.337	-0.322
-263.238	10.627	-0.220	-0.169
-262.224	-167.006	0.338	-0.014
-261.209	-20.959	-0.129	0.079
-260.195	-105.788	-0.201	0.046
-259.180	44.970	0.086	0.079
-258.165	-96.733	-0.435	-0.115
-257.151	129.261	0.106	-0.136
-256.136	-62.616	-0.429	-0.179
-255.122	68.819	-0.248	0.256
-254.107	-42.898	-0.219	0.112
-253.092	127.516	-0.068	0.086
-252.078	182.863	-0.105	-0.156
-251.063	111.547	-0.185	-0.224
-250.049	-78.092	-0.215	-0.074
-249.034	-133.008	-0.152	-0.019
-248.019	-142.008	-0.255	-0.025
-247.005	112.931	0.132	0.161
-245.990	800.000	-0.041	-0.161
-244.976	-169.699	-0.378	-0.014
-243.961	134.303	-0.276	-0.359
-242.946	-200.000	0.029	0.199
-241.932	-200.000	0.045	-0.237
-240.917	-198.706	0.013	0.000
-239.903	-163.565	-0.114	-0.005
-238.888	76.185	0.118	-0.126
-237.873	95.642	0.245	-0.281
-236.859	8.823	0.335	-0.253
-235.844	272.479	-0.094	-0.167
-234.830	-186.633	-0.256	-0.004
-233.815	783.374	0.061	0.168
-232.800	50.417	-0.172	-0.163
-231.786	34.199	-0.205	0.179
-230.771	669.277	-0.110	0.285
-229.757	-200.000	0.004	0.136
-228.742	-78.201	-0.131	0.045
-227.727	-45.220	-0.213	0.106
-226.713	-200.000	0.037	0.307
-225.698	191.500	-0.130	-0.197
-224.684	-91.138	-0.144	0.041
-223.669	795.689	-0.115	-0.318
-222.655	-67.078	0.162	-0.064
-221.640	800.000	0.049	-0.147
-220.625	207.086	-0.117	0.183
-219.611	9.848	-0.400	0.304
-218.596	141.097	0.170	-0.225
-217.582	439.525	0.089	0.196
-216.567	472.012	0.125	-0.283
-215.552	-63.881	-0.365	-0.150
-214.538	15.136	-0.259	-0.204
-213.523	548.626	0.136	-0.327
-212.509	800.000	-0.027	0.110
-211.494	-112.065	0.089	0.018
-210.479	-200.000	-0.013	-0.370
-209.465	-168.254	-0.232	-0.009
-208.450	201.645	0.159	-0.246
-207.436	-200.000	0.038	-0.210
-206.421	179.686	0.053	-0.078
-205.406	-68.572	-0.366	0.142
-204.392	252.613	-0.091	-0.155
-203.377	-138.413	0.326	0.036
-202.363	-15.137	-0.136	0.087
-201.348	-200.000	-0.038	-0.263
-200.333	114.673	0.234	-0.285
-199.319	645.181	0.048	0.122
-198.304	-160.367	-0.208	-0.011
-197.290	-75.419	0.110	-0.039
-196.275	800.000	-0.070	0.246
-195.260	382.979	0.109	0.224
-194.246	-82.654	0.183	0.059
-193.231	-121.090	-0.098	0.016
-192.217	234.004	-0.065	-0.107
-191.202	-6.422	0.103	-0.070
-190.187	-200.000	-0.100	-0.446
-189.173	-200.000	0.043	-0.250
-188.158	-200.000	-0.017	-0.099
-187.144	-128.789	0.196	-0.028
-186.129	-41.239	0.073	0.038
-185.114	198.321	0.126	0.192
-184.100	-71.582	0.016	-0.006
-183.085	16.352	0.112	0.088
-182.071	204.458	0.175	0.272
-181.056	800.000	-0.067	0.265
-180.042	-183.714	0.195	-0.003
-179.027	-11.271	0.150	-0.099
-178.012	-200.000	-0.011	-0.295
-176.998	800.000	0.139	0.428
-175.983	-27.203	-0.210	0.122
-174.969	20.784	-0.234	0.190
-173.954	134.060	-0.063	-0.082
-172.939	111.974	-0.188	0.228
-171.925	551.396	-0.178	0.428
-170.910	-200.000	0.090	0.414
-169.896	-131.250	0.328	0.044
-168.881	356.695	0.164	0.328
-167.866	216.481	-0.037	-0.059
-166.852	-130.945	0.374	-0.050
-165.837	-134.416	-0.359	0.044
-164.823	128.141	0.118	0.150
-163.808	800.000	0.077	-0.246
-162.793	18.178	-0.037	-0.030
-161.779	-141.439	-0.054	0.005
-160.764	-81.049	0.150	0.050
-159.750	-34.810	-0.204	-0.112
-158.735	-96.689	0.237	0.062
-157.720	-149.750	0.105	-0.008
-156.706	-38.235	-0.205	0.108
-155.691	-98.840	-0.293	-0.075
-154.677	169.528	-0.069	-0.098
-153.662	464.917	-0.032	-0.072
-152.647	19.647	-0.098	-0.079
-151.633	-32.309	-0.050	-0.028
-150.618	-26.148	0.323	-0.189
-149.604	-49.853	0.280	0.133
-148.589	800.000	-0.020	0.077
-147.574	126.658	0.166	0.210
-146.560	241.850	-0.081	-0.135
-145.545	-184.429	-0.260	0.004
-144.531	231.046	0.224	0.367
-143.516	-20.191	-0.159	-0.098
-142.502	140.445	-0.110	0.145
-141.487	430.647	-0.086	0.185
-140.472	133.158	0.092	0.119
-139.458	-102.113	-0.113	0.027
-138.443	-92.307	-0.059	0.017
-137.429	-200.000	0.019	0.088
-136.414	-113.848	-0.191	-0.037
-135.399	90.359	0.096	-0.108
-134.385	-14.170	0.180	-0.116
-133.370	-200.000	-0.001	0.233
-132.356	-64.881	-0.218	0.088
-131.341	800.000	-0.059	0.226
-130.326	5.408	0.251	-0.185
-129.312	-200.000	-0.025	-0.360
-128.297	-149.562	0.307	-0.024
-127.283	-200.000	-0.024	0.119
-126.268	166.227	0.093	0.132
-125.253	654.078	0.122	0.313
-124.239	295.641	0.150	0.274
-123.224	601.787	0.083	-0.205
-122.210	-16.582	0.340	-0.215
-121.195	800.000	0.041	-0.143
