DTS Sentinel unit serial number:	SN413079Multiplexer serial number:	ORYXHardware model number:	OX4-SRSoftware version number:	ORYX F/W v4.00 Oryx Data Collector v3.7.2.0data status	okinstallation	princeton_trtdifferential loss correction	single-endedforward channel	channel 1reverse channel	N/Adate	2019/09/14time	19:14:35forward acquisition time	60.00reverse acquisition time	0.00gamma	496.2192k internal	0.2310k external	0.2310temperature offset calibration	1.0026default loss term (dB/km)	0.3790temperature slope calibration	1.0000multiplexer offset coefficient	1.0000multiplexer slope coefficient	1.0000fibre end	0.00T internal ref (°C)	35.19T ext. ref 1 (°C)	4.84T ext. ref 2 (°C)	29.17length (m)	temperature (°C)	Stokes	anti-Stokes-747.200	170.741	-0.145	-0.211
-746.185	136.669	-0.417	0.552
-745.171	-21.997	-0.224	0.138
-744.156	192.937	0.050	-0.077
-743.142	4.655	0.214	-0.160
-742.127	0.980	0.102	0.074
-741.112	144.519	0.100	0.135
-740.098	681.943	-0.142	0.376
-739.083	219.207	-0.097	-0.157
-738.069	-42.484	-0.292	0.151
-737.054	338.045	0.150	0.297
-736.039	800.000	-0.033	0.119
-735.025	-85.670	0.143	-0.045
-734.010	112.618	-0.224	0.275
-732.996	800.000	-0.072	-0.308
-731.981	17.405	0.041	0.033
-730.966	142.482	-0.157	-0.211
-729.952	-81.055	-0.154	-0.052
-728.937	575.940	0.086	-0.214
-727.923	469.189	0.198	0.451
-726.908	81.739	0.269	0.295
-725.894	140.317	-0.118	0.158
-724.879	-54.141	-0.161	-0.074
-723.864	15.944	-0.165	-0.132
-722.850	800.000	0.043	0.133
-721.835	-4.964	-0.399	-0.279
-720.821	-1.694	-0.246	-0.176
-719.806	14.290	-0.063	0.050
-718.791	-200.000	-0.072	-0.371
-717.777	-200.000	0.015	0.326
-716.762	-16.184	0.046	0.030
-715.748	-46.586	-0.110	-0.055
-714.733	-200.000	-0.040	-0.193
-713.718	237.498	-0.162	0.273
-712.704	752.751	0.152	0.415
-711.689	4.599	0.039	-0.029
-710.675	-52.587	0.151	-0.071
-709.660	-107.266	-0.066	0.015
-708.645	-200.000	-0.031	-0.178
-707.631	-135.088	0.068	-0.008
-706.616	103.230	0.085	0.100
-705.602	-38.931	0.152	0.081
-704.587	-200.000	-0.026	-0.177
-703.572	-200.000	-0.078	-0.375
-702.558	800.000	0.041	-0.166
-701.543	159.729	0.109	-0.154
-700.529	37.376	0.093	-0.084
-699.514	-200.000	-0.018	-0.137
-698.499	-200.000	0.034	-0.331
-697.485	72.161	-0.158	0.167
-696.470	177.017	-0.046	-0.068
-695.456	-200.000	-0.005	-0.335
-694.441	-12.121	0.125	-0.083
-693.426	-67.180	0.356	-0.142
-692.412	410.377	0.084	0.180
-691.397	-97.175	0.253	-0.067
-690.383	-168.773	-0.178	-0.007
-689.368	-157.321	0.126	0.008
-688.354	159.697	0.108	-0.152
-687.339	800.000	0.054	0.152
-686.324	-200.000	0.004	-0.210
-685.310	-83.774	-0.124	0.040
-684.295	-200.000	0.024	-0.171
-683.281	800.000	-0.047	-0.148
-682.266	329.426	-0.098	-0.190
-681.251	-200.000	-0.341	0.001
-680.237	800.000	-0.075	-0.214
-679.222	36.604	-0.231	0.207
-678.208	-108.814	-0.339	-0.073
-677.193	-146.137	0.110	-0.010
-676.178	30.409	0.278	0.241
-675.164	245.294	0.297	-0.506
-674.149	127.828	-0.166	-0.214
-673.135	113.007	-0.114	0.140
-672.120	-200.000	0.010	0.177
-671.105	-28.144	-0.252	0.147
-670.091	-167.391	0.276	-0.011
-669.076	583.737	-0.033	0.081
-668.062	-200.000	-0.018	0.206
-667.047	-176.515	0.227	0.006
-666.032	17.309	0.159	-0.128
-665.018	-25.315	-0.175	-0.105
-664.003	-54.714	-0.468	-0.214
-662.989	299.996	0.131	-0.245
-661.974	-135.717	-0.036	0.004
-660.959	-139.296	-0.409	0.045
-659.945	305.496	-0.169	-0.318
-658.930	39.777	-0.213	-0.194
-657.916	39.080	-0.210	0.190
-656.901	-88.331	-0.283	-0.086
-655.886	800.000	-0.089	0.254
-654.872	260.522	0.042	0.073
-653.857	1.984	-0.387	-0.283
-652.843	640.422	0.054	0.139
-651.828	25.775	-0.219	0.185
-650.814	-134.024	0.013	0.002
-649.799	-106.600	-0.329	0.074
-648.784	351.442	0.081	0.163
-647.770	-121.652	0.280	-0.047
-646.755	-36.696	0.304	-0.165
-645.741	-54.732	-0.085	0.039
-644.726	105.028	0.115	-0.137
-643.711	-144.503	-0.270	0.025
-642.697	-26.577	-0.069	-0.041
-641.682	-101.229	0.159	0.039
-640.668	-153.697	-0.341	-0.024
-639.653	7.396	-0.320	-0.242
-638.638	566.442	0.138	0.340
-637.624	62.380	-0.283	0.286
-636.609	-121.677	-0.129	-0.022
-635.595	-133.257	-0.134	0.017
-634.580	40.702	-0.090	0.082
-633.565	-93.773	-0.211	0.059
-632.551	-200.000	-0.079	-0.422
-631.536	-54.928	-0.127	-0.058
-630.522	-127.021	-0.143	-0.021
-629.507	-186.893	0.336	-0.005
-628.492	-200.000	-0.068	0.379
-627.478	76.610	-0.126	-0.136
-626.463	-134.648	-0.300	-0.037
-625.449	164.924	-0.130	-0.186
-624.434	642.995	0.059	0.152
-623.419	800.000	0.107	-0.472
-622.405	-36.496	-0.158	-0.086
-621.390	174.580	0.165	0.241
-620.376	-25.982	0.265	-0.158
-619.361	256.847	-0.193	-0.335
-618.346	377.606	-0.019	-0.039
-617.332	-117.283	0.064	0.012
-616.317	-117.871	-0.174	-0.032
-615.303	-63.762	-0.224	-0.093
-614.288	618.994	-0.073	-0.185
-613.273	73.892	0.225	0.239
-612.259	418.787	-0.089	0.192
-611.244	-49.680	-0.236	-0.113
-610.230	-200.000	0.015	0.186
-609.215	96.144	0.289	0.334
-608.201	-108.175	-0.194	-0.042
-607.186	3.213	-0.040	0.030
-606.171	-200.000	-0.050	0.259
-605.157	-152.712	0.093	0.007
-604.142	-131.278	0.276	0.037
-603.128	362.914	-0.126	-0.255
-602.113	-55.696	-0.249	0.112
-601.098	-64.140	-0.194	-0.080
-600.084	-200.000	-0.009	0.052
-599.069	-31.239	-0.053	0.030
-598.055	-77.698	-0.213	-0.074
-597.040	75.535	-0.132	0.141
-596.025	143.656	-0.124	0.167
-595.011	72.926	0.126	0.133
-593.996	-200.000	0.055	-0.329
-592.982	-27.051	-0.073	0.043
-591.967	301.270	-0.051	-0.095
-590.952	221.015	0.047	0.075
-589.938	75.279	0.073	-0.078
-588.923	-156.246	-0.066	0.004
-587.909	748.637	0.030	0.080
-586.894	-36.822	-0.223	-0.121
-585.879	0.572	0.176	0.127
-584.865	66.433	0.344	0.353
-583.850	800.000	0.020	-0.062
-582.836	-123.936	-0.362	-0.058
-581.821	218.575	0.121	-0.195
-580.806	-23.623	-0.112	0.068
-579.792	-200.000	0.016	0.128
-578.777	35.295	-0.137	-0.121
-577.763	616.195	-0.141	-0.356
-576.748	-130.134	-0.080	-0.011
-575.733	41.067	0.248	-0.226
-574.719	41.240	-0.218	0.199
-573.704	23.520	-0.194	0.161
-572.690	-191.545	0.238	0.002
-571.675	-132.731	0.378	0.049
-570.661	-158.678	0.369	0.021
-569.646	-159.724	-0.128	-0.007
-568.631	-81.841	0.374	0.123
-567.617	-200.000	-0.004	-0.070
-566.602	-200.000	0.025	-0.250
-565.588	-90.330	0.273	0.080
-564.573	-200.000	0.012	0.108
-563.558	63.673	0.127	0.129
-562.544	-129.276	0.089	0.012
-561.529	800.000	-0.113	0.325
-560.515	-8.787	-0.275	-0.186
-559.500	-103.679	-0.139	-0.033
-558.485	-115.669	-0.170	0.032
-557.471	-200.000	-0.017	-0.161
-556.456	-105.024	0.470	-0.108
-555.442	-75.090	0.172	-0.062
-554.427	-93.805	0.154	-0.043
-553.412	-200.000	0.028	0.274
-552.398	16.127	-0.296	-0.235
-551.383	-200.000	0.012	0.111
-550.369	78.742	0.265	0.286
-549.354	-49.953	-0.179	-0.086
-548.339	261.023	-0.076	0.133
-547.325	266.800	0.032	0.056
-546.310	-82.846	-0.252	-0.082
-545.296	-75.004	-0.106	0.038
-544.281	172.276	0.044	0.064
-543.266	-200.000	0.031	0.140
-542.252	217.110	0.113	-0.182
-541.237	722.888	-0.039	-0.103
-540.223	-13.233	-0.157	-0.103
-539.208	1.297	0.066	-0.048
-538.193	-61.586	0.110	0.046
-537.179	6.639	0.305	-0.229
-536.164	-109.352	0.349	0.075
-535.150	-188.390	-0.222	-0.003
-534.135	800.000	0.036	0.107
-533.121	-200.000	-0.052	-0.605
-532.106	17.304	-0.187	-0.149
-531.091	-95.662	0.582	-0.157
-530.077	548.050	-0.065	0.157
-529.062	251.403	0.154	-0.265
-528.048	221.236	-0.161	0.261
-527.033	-200.000	-0.008	-0.134
-526.018	259.001	0.118	-0.205
-525.004	227.513	0.097	-0.158
-523.989	287.310	-0.085	-0.155
-522.975	196.517	-0.103	0.157
-521.960	-14.308	0.073	-0.048
-520.945	186.042	-0.211	0.316
-519.931	-198.729	0.428	0.002
-518.916	530.955	0.120	-0.286
-517.902	-26.211	-0.300	-0.177
-516.887	147.107	0.167	0.226
-515.872	136.221	-0.120	0.158
-514.858	800.000	-0.029	0.111
-513.843	-92.728	0.365	0.103
-512.829	-123.620	-0.090	0.014
-511.814	-94.771	-0.188	-0.051
-510.799	800.000	-0.115	0.331
-509.785	100.440	-0.038	0.044
-508.770	800.000	-0.082	-0.338
-507.756	-48.420	-0.081	-0.039
-506.741	185.140	-0.079	0.117
-505.726	756.660	-0.110	0.300
-504.712	-77.690	-0.144	-0.050
-503.697	-78.733	-0.187	-0.064
-502.683	24.675	-0.061	0.051
-501.668	-145.815	0.121	-0.011
-500.653	-51.497	0.188	-0.088
-499.639	221.919	0.064	0.104
-498.624	-38.995	0.143	-0.076
-497.610	261.880	0.138	-0.240
-496.595	168.471	0.121	0.173
-495.581	-95.663	-0.131	0.035
-494.566	-119.755	-0.333	0.058
-493.551	-145.143	-0.155	0.014
-492.537	29.917	-0.037	-0.032
-491.522	-93.518	0.092	-0.025
-490.508	-30.099	-0.081	0.046
-489.493	800.000	0.156	0.537
-488.478	-200.000	0.018	-0.190
-487.464	-105.830	0.312	-0.071
-486.449	113.583	-0.077	0.094
-485.435	800.000	0.048	-0.147
-484.420	-0.072	0.228	-0.163
-483.405	-200.000	-0.029	-0.362
-482.391	400.820	-0.121	0.256
-481.376	-135.425	-0.414	-0.050
-480.362	107.673	0.127	-0.152
-479.347	-129.472	-0.161	0.022
-478.332	-200.000	-0.020	-0.128
-477.318	-150.906	0.101	-0.008
-476.303	-15.341	0.095	0.061
-475.289	52.967	-0.271	0.260
-474.274	-62.781	0.306	-0.127
-473.259	800.000	-0.132	-0.430
-472.245	32.000	0.170	-0.147
-471.230	800.000	-0.021	0.076
-470.216	-162.416	0.229	-0.011
-469.201	-200.000	0.020	-0.233
-468.186	-55.523	0.228	0.103
-467.172	-200.000	0.037	-0.324
-466.157	-200.000	0.036	0.158
-465.143	636.741	-0.104	-0.264
-464.128	-84.929	0.195	-0.061
-463.113	639.731	-0.099	0.253
-462.099	800.000	-0.135	0.508
-461.084	-56.547	-0.280	-0.125
-460.070	-200.000	-0.015	0.174
-459.055	89.187	0.154	0.173
-458.040	126.391	0.051	-0.065
-457.026	257.660	-0.163	0.282
-456.011	-7.637	0.149	0.101
-454.997	-30.125	0.450	0.257
-453.982	-112.271	-0.270	-0.054
-452.968	-33.242	-0.176	-0.098
-451.953	15.730	-0.168	0.132
-450.938	-121.098	0.405	0.068
-449.924	-200.000	0.035	0.215
-448.909	-200.000	-0.009	0.067
-447.895	-55.616	-0.327	-0.147
-446.880	-200.000	0.020	-0.108
-445.865	-76.856	0.150	-0.053
-444.851	-104.382	-0.159	-0.037
-443.836	59.346	0.082	-0.081
-442.822	-75.695	-0.080	0.029
-441.807	58.899	0.125	-0.124
-440.792	0.480	-0.064	-0.046
-439.778	498.234	-0.059	0.136
-438.763	179.854	0.143	-0.211
-437.749	-200.000	-0.054	-0.318
-436.734	-82.437	-0.133	0.043
-435.719	82.291	-0.181	-0.197
-434.705	-163.122	0.407	-0.020
-433.690	-43.922	0.109	-0.055
-432.676	512.480	0.134	-0.314
-431.661	-200.000	-0.004	-0.098
-430.646	800.000	0.041	-0.124
-429.632	7.971	-0.038	-0.028
-428.617	164.171	0.119	-0.168
-427.603	107.352	-0.155	-0.185
-426.588	-34.825	0.383	-0.210
-425.573	-41.126	-0.168	0.087
-424.559	-196.208	0.402	-0.003
-423.544	800.000	-0.103	-0.381
-422.530	336.864	0.037	0.072
-421.515	-200.000	0.025	-0.148
-420.500	762.932	0.083	-0.226
-419.486	-154.005	0.302	-0.021
-418.471	113.798	-0.198	-0.242
-417.457	-15.771	-0.164	-0.105
-416.442	800.000	-0.110	0.334
-415.428	-200.000	0.014	0.085
-414.413	800.000	-0.107	0.334
-413.398	-43.241	0.079	0.040
-412.384	800.000	-0.117	0.378
-411.369	81.369	0.115	0.125
-410.355	-89.397	0.178	-0.053
-409.340	-75.767	0.126	-0.045
-408.325	-200.000	0.052	-0.447
-407.311	24.525	-0.227	0.188
-406.296	-104.693	0.117	-0.027
-405.282	-43.041	-0.138	0.070
-404.267	-114.711	-0.330	-0.063
-403.252	57.055	-0.335	-0.327
-402.238	-12.024	-0.294	-0.193
-401.223	-135.573	0.177	0.021
-400.209	144.746	-0.171	0.230
-399.194	559.686	0.093	0.225
-398.179	48.537	0.217	0.203
-397.165	67.038	-0.172	-0.175
-396.150	475.163	0.047	-0.106
-395.136	800.000	0.101	-0.283
-394.121	23.171	-0.246	0.202
-393.106	171.557	0.057	0.082
-392.092	800.000	0.081	-0.239
-391.077	-126.107	-0.275	0.041
-390.063	16.810	-0.084	0.066
-389.048	130.370	0.115	0.147
-388.033	258.612	-0.078	-0.135
-387.019	-106.232	-0.291	-0.065
-386.004	269.310	-0.108	0.190
-384.990	-53.878	0.144	-0.066
-383.975	-200.000	-0.064	0.281
-382.960	-200.000	0.018	-0.250
-381.946	-129.669	0.492	0.068
-380.931	369.393	-0.158	0.320
-379.917	-12.709	0.243	-0.159
-378.902	800.000	0.080	0.284
-377.888	98.867	0.122	-0.141
-376.873	-200.000	-0.013	0.124
-375.858	-200.000	0.007	0.211
-374.844	276.784	-0.019	-0.034
-373.829	190.385	0.140	-0.210
-372.815	-88.377	0.214	-0.064
-371.800	40.130	0.032	0.029
-370.785	223.990	0.178	0.288
-369.771	65.985	-0.282	0.286
-368.756	-67.896	-0.034	0.013
-367.742	52.561	-0.101	0.097
-366.727	-200.000	0.059	-0.276
-365.712	552.931	-0.060	-0.145
-364.698	80.346	-0.260	0.280
-363.683	-76.959	-0.285	-0.100
-362.669	-200.000	0.291	-0.001
-361.654	-80.562	0.085	0.028
-360.639	-112.726	-0.193	0.038
-359.625	-73.313	0.197	0.072
-358.610	-200.000	-0.022	-0.181
-357.596	-144.593	0.473	0.044
-356.581	314.596	-0.166	0.312
-355.566	-36.294	-0.058	0.031
-354.552	-101.927	0.208	0.050
-353.537	-187.762	-0.224	-0.003
-352.523	-200.000	-0.010	0.370
-351.508	283.590	0.068	0.122
-350.493	800.000	-0.022	0.069
-349.479	-112.445	-0.077	0.015
-348.464	-168.705	0.337	0.013
-347.450	-147.160	-0.129	0.011
-346.435	436.441	0.178	-0.388
-345.420	73.889	-0.085	0.089
-344.406	-200.000	-0.043	-0.209
-343.391	-137.105	-0.369	-0.042
-342.377	-200.000	0.019	-0.113
-341.362	-105.519	0.165	-0.037
-340.348	102.460	-0.204	0.239
-339.333	106.294	0.062	-0.074
-338.318	7.602	-0.165	0.123
-337.304	177.921	-0.122	-0.178
-336.289	-25.368	-0.389	0.230
-335.275	-197.811	0.471	0.003
-334.260	1.907	0.287	-0.207
-333.245	158.574	0.186	-0.258
-332.231	259.079	0.165	-0.284
-331.216	-134.685	0.224	-0.027
-330.202	-159.592	-0.201	-0.011
-329.187	800.000	-0.077	-0.277
-328.172	-69.026	0.013	-0.005
-327.158	-83.235	-0.261	-0.084
-326.143	800.000	0.184	0.575
-325.129	-24.034	0.106	0.063
-324.114	28.106	0.149	0.125
-323.099	800.000	-0.081	-0.252
-322.085	54.380	0.079	-0.076
-321.070	-200.000	0.078	0.355
-320.056	-170.105	0.188	0.007
-319.041	-6.589	-0.251	0.170
-318.026	24.716	-0.096	0.079
-317.012	-49.459	0.254	-0.121
-315.997	312.571	0.112	0.211
-314.983	-70.425	-0.082	-0.031
-313.968	-187.568	0.090	0.001
-312.953	-2.789	-0.372	-0.260
-311.939	-38.743	-0.147	-0.077
-310.924	95.312	0.056	-0.064
-309.910	101.018	-0.271	-0.315
-308.895	259.168	-0.034	-0.059
-307.880	297.087	0.019	0.035
-306.866	-42.220	-0.221	-0.113
-305.851	-142.914	-0.219	-0.021
-304.837	22.034	-0.245	0.199
-303.822	-18.546	0.261	-0.162
-302.807	-58.922	-0.165	0.071
-301.793	133.300	-0.157	-0.203
-300.778	-34.721	-0.247	-0.135
-299.764	64.182	-0.203	-0.204
-298.749	128.953	-0.113	-0.144
-297.735	229.541	-0.144	-0.235
-296.720	224.421	-0.084	-0.136
-295.705	-200.000	0.006	-0.171
-294.691	120.860	0.181	0.225
-293.676	800.000	0.131	0.364
-292.662	748.879	0.068	-0.183
-291.647	698.658	-0.118	0.309
-290.632	719.644	-0.066	0.175
-289.618	71.027	-0.124	0.128
-288.603	-200.000	-0.009	0.269
-287.589	-25.838	-0.254	-0.149
-286.574	314.880	0.085	0.160
-285.559	-45.568	0.159	0.078
-284.545	357.844	0.118	-0.234
-283.530	-133.093	-0.489	0.062
-282.516	-4.880	-0.231	-0.159
-281.501	-200.000	0.007	0.109
-280.486	-156.157	0.186	-0.012
-279.472	-200.000	0.081	0.360
-278.457	-200.000	-0.019	0.135
-277.443	116.986	-0.297	-0.363
-276.428	176.534	-0.191	0.277
-275.413	800.000	0.051	0.198
-274.399	800.000	0.051	0.174
-273.384	662.570	0.016	-0.040
-272.370	688.299	0.140	-0.365
-271.355	-184.464	-0.128	-0.002
-270.340	-121.413	0.195	0.032
-269.326	-44.977	0.083	0.041
-268.311	800.000	0.085	0.350
-267.297	48.406	0.045	0.042
-266.282	-4.378	0.269	-0.186
-265.267	-2.249	0.131	-0.092
-264.253	-98.519	0.457	-0.116
-263.238	-200.000	-0.029	-0.204
-262.224	-79.638	0.141	0.047
-261.209	-88.340	0.127	0.038
-260.195	-200.000	0.002	0.123
-259.180	61.015	0.083	0.082
-258.165	145.496	0.344	0.460
-257.151	-200.000	0.022	-0.114
-256.136	70.366	-0.142	-0.146
-255.122	67.098	-0.241	-0.245
-254.107	180.040	0.115	-0.168
-253.092	309.530	0.115	-0.214
-252.078	-200.000	-0.014	-0.185
-251.063	0.524	-0.083	0.059
-250.049	375.221	-0.153	0.312
-249.034	800.000	-0.081	0.250
-248.019	418.207	0.055	0.117
-247.005	-182.313	0.272	-0.005
-245.990	800.000	0.112	0.345
-244.976	-116.059	-0.213	-0.039
-243.961	800.000	0.036	-0.130
-242.946	100.083	-0.036	0.041
-241.932	-67.204	-0.472	-0.185
-240.917	-176.360	-0.258	-0.007
-239.903	800.000	0.045	-0.187
-238.888	800.000	0.035	-0.120
-237.873	259.622	0.107	0.183
-236.859	5.788	0.222	0.164
-235.844	211.895	0.055	0.086
-234.830	10.969	-0.158	-0.120
-233.815	-200.000	0.039	-0.250
-232.800	800.000	-0.034	-0.137
-231.786	-200.000	0.034	0.315
-230.771	530.302	-0.015	0.034
-229.757	-65.117	0.014	0.006
-228.742	-200.000	-0.002	-0.235
-227.727	105.981	0.134	-0.158
-226.713	337.916	0.100	-0.194
-225.698	180.240	-0.069	0.101
-224.684	27.193	0.268	0.224
-223.669	70.025	0.058	0.060
-222.655	800.000	-0.026	-0.092
-221.640	14.496	-0.110	0.086
-220.625	800.000	0.086	0.265
-219.611	800.000	0.011	0.035
-218.596	322.756	0.045	-0.085
-217.582	800.000	0.046	0.172
-216.567	800.000	0.056	-0.177
-215.552	-200.000	0.006	0.373
-214.538	138.826	0.037	0.048
-213.523	-103.112	0.240	0.056
-212.509	800.000	0.073	-0.226
-211.494	-200.000	0.037	0.277
-210.479	120.732	-0.017	-0.021
-209.465	-49.714	-0.177	-0.084
-208.450	-200.000	0.035	-0.185
-207.436	132.633	-0.092	-0.118
-206.421	468.437	0.106	0.235
-205.406	-163.263	0.340	0.016
-204.392	197.907	-0.074	-0.113
-203.377	800.000	0.028	-0.094
-202.363	64.696	0.091	-0.091
-201.348	-106.466	-0.142	-0.031
-200.333	-200.000	0.055	-0.480
-199.319	432.261	0.191	0.411
-198.304	-200.000	0.016	0.080
-197.290	-200.000	-0.008	-0.428
-196.275	-137.661	0.105	-0.012
-195.260	153.359	-0.261	-0.355
-194.246	-114.500	-0.320	-0.061
-193.231	800.000	-0.078	0.236
-192.217	-200.000	0.036	0.280
-191.202	-200.000	-0.007	0.054
-190.187	-170.932	0.210	-0.007
-189.173	779.158	-0.071	0.192
-188.158	-200.000	0.006	0.166
-187.144	800.000	0.087	-0.334
-186.129	-21.295	-0.063	0.038
-185.114	791.003	0.060	0.165
-184.100	-88.896	-0.233	0.069
-183.085	800.000	-0.041	-0.129
-182.071	800.000	0.059	-0.178
-181.056	167.018	0.264	0.372
-180.042	353.829	0.213	0.420
-179.027	-200.000	-0.031	0.135
-178.012	-200.000	-0.032	0.195
-176.998	-54.926	-0.257	-0.115
-175.983	-200.000	0.041	0.227
-174.969	-164.296	0.267	0.012
-173.954	800.000	-0.121	-0.387
-172.939	196.729	0.037	-0.056
-171.925	-141.113	-0.016	0.002
-170.910	-86.867	-0.031	0.009
-169.896	-12.514	-0.053	-0.034
-168.881	-14.641	-0.122	-0.078
-167.866	-142.409	0.264	-0.026
-166.852	575.675	0.030	-0.073
-165.837	143.127	0.125	-0.165
-164.823	-59.316	0.114	-0.049
-163.808	-200.000	0.040	0.376
-162.793	94.288	-0.132	-0.149
-161.779	-140.466	0.103	0.011
-160.764	-200.000	-0.005	-0.059
-159.750	223.683	-0.070	0.113
-158.735	720.193	-0.023	0.060
-157.720	166.595	-0.107	0.151
-156.706	800.000	-0.077	-0.225
-155.691	-200.000	-0.028	0.234
-154.677	229.689	0.164	0.265
-153.662	118.599	0.203	0.249
-152.647	-141.961	-0.155	0.015
-151.633	43.289	-0.079	-0.072
-150.618	742.652	0.095	-0.254
-149.604	-19.743	0.236	-0.145
-148.589	-200.000	-0.021	-0.133
-147.574	54.152	0.314	0.299
-146.560	741.282	-0.028	-0.074
-145.545	-37.667	-0.134	0.071
-144.531	637.444	-0.063	0.158
-143.516	161.148	-0.071	0.099
-142.502	13.697	-0.213	-0.164
-141.487	-200.000	0.042	-0.288
-140.472	-117.730	0.444	-0.079
-139.458	68.887	0.111	0.113
-138.443	-164.607	-0.304	0.014
-137.429	-45.629	-0.238	0.117
-136.414	-29.934	-0.177	-0.100
-135.399	-200.000	-0.013	-0.091
-134.385	-92.589	0.215	-0.060
-133.370	-71.679	0.215	-0.080
-132.356	800.000	0.089	0.365
-131.341	-200.000	-0.010	0.153
-130.326	3.286	-0.212	-0.153
-129.312	-200.000	0.018	-0.146
-128.297	363.053	0.092	-0.184
-127.283	171.987	-0.085	-0.121
-126.268	-200.000	-0.017	0.214
-125.253	800.000	0.035	0.111
-124.239	-32.329	-0.077	-0.043
-123.224	91.460	-0.186	0.207
-122.210	9.708	-0.170	0.127
