DTS Sentinel unit serial number:	SN413079Multiplexer serial number:	ORYXHardware model number:	OX4-SRSoftware version number:	ORYX F/W v4.00 Oryx Data Collector v3.7.2.0data status	okinstallation	princeton_trtdifferential loss correction	single-endedforward channel	channel 1reverse channel	N/Adate	2019/09/11time	02:28:11forward acquisition time	60.00reverse acquisition time	0.00gamma	496.2192k internal	0.2332k external	0.2332temperature offset calibration	0.9929default loss term (dB/km)	0.3790temperature slope calibration	1.0000multiplexer offset coefficient	1.0000multiplexer slope coefficient	1.0000fibre end	0.00T internal ref (°C)	29.25T ext. ref 1 (°C)	-0.30T ext. ref 2 (°C)	23.44length (m)	temperature (°C)	Stokes	anti-Stokes-747.200	-1.786	-0.031	0.022
-746.185	-122.926	0.354	0.057
-745.171	488.303	0.061	0.140
-744.156	108.136	-0.209	0.251
-743.142	-182.997	0.185	-0.003
-742.127	800.000	0.117	0.378
-741.112	-81.820	-0.224	0.074
-740.098	23.747	-0.161	-0.134
-739.083	52.695	0.032	-0.031
-738.069	-45.667	0.233	-0.116
-737.054	800.000	-0.077	-0.250
-736.039	-198.326	-0.621	0.004
-735.025	271.085	0.227	0.401
-734.010	-47.708	-0.171	-0.083
-732.996	-87.181	-0.180	0.055
-731.981	-200.000	-0.030	-0.389
-730.966	19.676	-0.110	0.089
-729.952	709.112	0.096	-0.256
-728.937	-200.000	-0.029	-0.443
-727.923	-82.957	0.099	-0.032
-726.908	223.252	-0.108	0.175
-725.894	94.526	-0.324	-0.370
-724.879	18.271	-0.265	-0.212
-723.864	-200.000	0.002	-0.172
-722.850	-200.000	-0.007	-0.147
-721.835	73.156	0.115	-0.121
-720.821	800.000	0.033	0.093
-719.806	-66.359	0.019	0.008
-718.791	119.318	-0.058	0.072
-717.777	2.829	0.102	-0.075
-716.762	69.573	0.071	-0.073
-715.748	-92.833	0.202	-0.057
-714.733	38.820	-0.216	-0.193
-713.718	800.000	-0.032	0.125
-712.704	-105.788	-0.155	-0.035
-711.689	-52.125	-0.397	0.185
-710.675	-200.000	0.006	0.150
-709.660	-200.000	0.001	-0.202
-708.645	153.367	-0.165	0.227
-707.631	800.000	0.083	0.310
-706.616	-130.864	0.235	0.032
-705.602	-200.000	0.026	0.181
-704.587	733.837	-0.051	0.136
-703.572	-101.702	0.099	0.024
-702.558	92.351	-0.164	-0.186
-701.543	-200.000	0.005	-0.288
-700.529	-114.275	0.140	-0.027
-699.514	145.150	0.100	-0.135
-698.499	800.000	0.074	-0.254
-697.485	181.783	0.128	-0.189
-696.470	-35.090	0.006	-0.003
-695.456	-200.000	-0.027	-0.190
-694.441	323.708	0.159	-0.304
-693.426	220.189	0.057	-0.092
-692.412	225.977	0.137	-0.223
-691.397	-72.803	-0.235	0.087
-690.383	-33.498	-0.200	-0.111
-689.368	-200.000	0.012	0.322
-688.354	-200.000	0.025	-0.118
-687.339	800.000	0.062	0.218
-686.324	160.054	-0.192	-0.268
-685.310	-81.199	-0.180	-0.060
-684.295	71.360	-0.093	-0.097
-683.281	511.733	-0.097	0.226
-682.266	-133.985	0.221	0.027
-681.251	255.997	-0.064	-0.110
-680.237	-200.000	-0.007	-0.135
-679.222	-187.244	-0.357	-0.005
-678.208	593.974	-0.070	0.174
-677.193	-25.743	-0.431	-0.255
-676.178	-200.000	0.033	-0.305
-675.164	9.444	0.068	0.052
-674.149	-200.000	-0.004	-0.227
-673.135	-31.123	0.232	-0.131
-672.120	23.203	0.349	-0.288
-671.105	274.868	-0.123	-0.218
-670.091	211.478	0.218	-0.344
-669.076	6.875	0.370	-0.277
-668.062	96.370	0.151	-0.173
-667.047	-149.772	-0.031	0.002
-666.032	75.545	-0.099	-0.104
-665.018	-185.806	-0.186	-0.003
-664.003	263.459	0.019	0.033
-662.989	-200.000	0.060	0.603
-661.974	75.266	-0.031	-0.033
-660.959	-200.000	0.031	0.262
-659.945	-200.000	0.015	-0.133
-658.930	-133.458	0.181	0.023
-657.916	30.522	-0.188	-0.161
-656.901	-104.508	-0.374	0.087
-655.886	-136.664	-0.278	0.032
-654.872	800.000	0.115	0.345
-653.857	-90.648	0.280	0.081
-652.843	-2.922	-0.216	-0.151
-651.828	636.660	-0.033	-0.084
-650.814	472.565	0.123	0.277
-649.799	195.850	0.123	-0.187
-648.784	-88.828	0.183	0.054
-647.770	433.614	-0.147	0.320
-646.755	800.000	0.072	-0.203
-645.741	22.301	0.108	-0.088
-644.726	-200.000	0.008	-0.085
-643.711	-200.000	0.018	-0.304
-642.697	35.597	0.196	-0.173
-641.682	-58.951	-0.048	-0.021
-640.668	55.788	0.176	0.171
-639.653	-142.302	0.094	0.009
-638.638	40.521	-0.231	0.208
-637.624	-87.862	-0.212	-0.064
-636.609	-154.715	0.026	-0.002
-635.595	4.327	-0.117	-0.086
-634.580	-114.922	-0.440	0.084
-633.565	-200.000	-0.016	0.183
-632.551	662.485	0.122	-0.314
-631.536	153.293	0.185	-0.254
-630.522	-163.394	0.055	-0.003
-629.507	-23.983	0.149	-0.090
-628.492	-100.520	0.277	0.069
-627.478	-200.000	-0.009	0.242
-626.463	232.492	0.165	0.271
-625.449	-131.694	0.269	0.035
-624.434	-200.000	0.062	-0.385
-623.419	-200.000	0.009	0.106
-622.405	-167.945	0.175	0.007
-621.390	-88.875	-0.102	-0.030
-620.376	6.711	0.124	-0.092
-619.361	-100.552	-0.114	-0.028
-618.346	-187.671	0.098	-0.001
-617.332	-86.786	-0.068	0.021
-616.317	-132.071	-0.117	0.015
-615.303	-200.000	-0.017	-0.082
-614.288	800.000	0.026	-0.086
-613.273	-130.896	0.267	0.036
-612.259	91.072	-0.112	0.126
-611.244	800.000	-0.105	0.428
-610.230	-47.573	-0.187	-0.091
-609.215	-58.081	-0.094	-0.041
-608.201	800.000	-0.096	-0.330
-607.186	-200.000	0.038	-0.360
-606.171	-95.395	-0.511	-0.137
-605.157	-200.000	0.020	0.158
-604.142	-200.000	-0.011	-0.158
-603.128	352.162	-0.144	0.285
-602.113	-125.038	0.023	-0.004
-601.098	-94.952	0.253	0.068
-600.084	53.791	-0.199	0.191
-599.069	-162.344	0.074	0.004
-598.055	-47.479	-0.114	0.055
-597.040	800.000	-0.100	-0.402
-596.025	-163.752	-0.064	0.003
-595.011	800.000	0.059	0.180
-593.996	276.622	0.121	-0.214
-592.982	136.655	-0.241	-0.314
-591.967	-128.547	0.313	-0.044
-590.952	285.193	-0.008	-0.015
-589.938	-107.492	0.284	0.062
-588.923	-200.000	0.022	-0.340
-587.909	-2.995	0.203	-0.142
-586.894	-136.867	0.060	-0.007
-585.879	-200.000	-0.062	0.326
-584.865	42.474	-0.211	-0.192
-583.850	371.241	0.096	-0.194
-582.836	317.754	0.174	-0.329
-581.821	-99.900	-0.107	0.027
-580.806	-66.195	0.264	-0.105
-579.792	-36.740	0.206	0.111
-578.777	-72.091	0.166	0.062
-577.763	68.288	0.084	-0.086
-576.748	164.584	0.043	-0.061
-575.733	800.000	0.044	-0.152
-574.719	180.108	-0.009	-0.013
-573.704	-200.000	-0.055	-0.242
-572.690	552.439	0.075	-0.179
-571.675	800.000	-0.079	-0.270
-570.661	-61.294	0.122	0.052
-569.646	800.000	0.103	0.431
-568.631	-148.228	-0.412	-0.034
-567.617	800.000	-0.050	-0.160
-566.602	-25.016	-0.123	-0.073
-565.588	155.579	0.059	-0.082
-564.573	107.456	-0.186	0.221
-563.558	593.213	0.127	0.314
-562.544	206.928	-0.094	-0.146
-561.529	-200.000	-0.002	-0.028
-560.515	277.768	0.163	-0.291
-559.500	-39.341	0.105	-0.055
-558.485	-135.273	0.300	-0.036
-557.471	-20.763	-0.191	0.117
-556.456	93.228	0.048	0.054
-555.442	660.409	-0.094	-0.243
-554.427	-105.285	-0.308	-0.070
-553.412	800.000	-0.042	0.158
-552.398	219.292	0.084	-0.134
-551.383	723.306	0.029	0.077
-550.369	-11.110	-0.161	0.106
-549.354	13.174	-0.187	-0.145
-548.339	19.474	0.096	0.077
-547.325	-94.124	-0.060	0.017
-546.310	22.035	-0.122	0.100
-545.296	-73.495	0.195	-0.071
-544.281	800.000	-0.123	-0.463
-543.266	3.119	0.309	-0.224
-542.252	-77.409	-0.095	0.033
-541.237	162.216	-0.125	0.175
-540.223	-200.000	0.009	-0.090
-539.208	136.444	-0.134	-0.174
-538.193	-200.000	-0.020	0.123
-537.179	29.037	-0.139	0.117
-536.164	800.000	-0.044	0.163
-535.150	-71.374	-0.145	-0.054
-534.135	-88.345	0.025	0.008
-533.121	192.153	-0.157	-0.237
-532.106	-142.026	0.237	0.024
-531.091	420.175	0.081	0.173
-530.077	-42.584	-0.060	-0.030
-529.062	-172.554	-0.456	-0.014
-528.048	20.000	0.055	-0.044
-527.033	105.163	-0.103	-0.121
-526.018	93.471	0.053	-0.059
-525.004	-110.274	-0.379	-0.079
-523.989	-7.541	-0.102	-0.069
-522.975	141.489	-0.162	0.214
-521.960	-122.349	0.265	-0.043
-520.945	24.059	0.055	-0.045
-519.931	-1.444	0.045	-0.032
-518.916	375.499	-0.147	0.299
-517.902	-200.000	-0.044	0.384
-516.887	800.000	0.067	0.191
-515.872	172.538	-0.083	-0.120
-514.858	368.410	0.246	-0.497
-513.843	640.064	-0.069	-0.175
-512.829	-120.615	-0.034	0.006
-511.814	481.031	-0.040	-0.090
-510.799	71.894	-0.202	-0.209
-509.785	-47.461	-0.031	-0.015
-508.770	141.713	-0.074	0.098
-507.756	-200.000	0.002	-0.071
-506.741	-12.152	0.232	0.151
-505.726	179.922	-0.188	0.274
-504.712	-200.000	-0.003	-0.117
-503.697	352.211	0.125	-0.246
-502.683	110.896	-0.047	0.056
-501.668	800.000	-0.090	0.298
-500.653	400.686	-0.115	0.239
-499.639	-18.958	0.262	0.162
-498.624	-200.000	0.015	0.140
-497.610	65.605	0.375	-0.378
-496.595	462.003	0.077	-0.172
-495.581	-3.739	-0.126	0.087
-494.566	41.463	-0.157	-0.142
-493.551	800.000	0.050	-0.201
-492.537	47.163	-0.131	-0.121
-491.522	-7.092	0.311	-0.210
-490.508	-200.000	0.013	0.279
-489.493	-61.309	0.099	0.042
-488.478	162.582	0.042	0.059
-487.464	139.498	0.134	0.175
-486.449	471.113	0.141	-0.316
-485.435	-104.737	0.111	-0.025
-484.420	99.073	0.218	-0.250
-483.405	-200.000	0.017	-0.119
-482.391	98.612	-0.093	-0.107
-481.376	-200.000	-0.022	-0.153
-480.362	-200.000	0.023	0.130
-479.347	-106.015	0.182	0.041
-478.332	-6.144	-0.047	-0.032
-477.318	-200.000	0.006	-0.069
-476.303	-82.531	0.201	-0.065
-475.289	188.592	0.275	0.409
-474.274	-144.242	-0.044	0.004
-473.259	382.886	-0.163	-0.335
-472.245	-24.810	0.173	-0.102
-471.230	-51.233	-0.265	0.124
-470.216	-200.000	0.002	-0.229
-469.201	189.263	-0.072	0.108
-468.186	242.971	-0.056	-0.094
-467.172	-125.103	-0.207	0.032
-466.157	-185.562	-0.233	-0.004
-465.143	-140.439	-0.432	-0.045
-464.128	-109.832	0.151	-0.032
-463.113	27.030	-0.123	-0.103
-462.099	-74.911	-0.385	0.137
-461.084	54.990	-0.261	0.251
-460.070	-200.000	-0.054	-0.308
-459.055	-77.270	0.388	0.134
-458.040	-200.000	0.025	-0.154
-457.026	102.722	0.028	-0.032
-456.011	-182.037	-0.358	0.007
-454.997	-27.871	0.147	0.085
-453.982	-200.000	-0.044	0.328
-452.968	-158.850	0.269	0.015
-451.953	-139.709	-0.038	-0.004
-450.938	-88.912	0.149	0.044
-449.924	507.041	0.118	-0.272
-448.909	-74.131	0.160	0.057
-447.895	-108.672	-0.170	-0.036
-446.880	127.996	-0.107	0.135
-445.865	-115.452	-0.198	0.037
-444.851	-200.000	-0.032	-0.253
-443.836	59.929	0.182	0.179
-442.822	-200.000	-0.043	-0.362
-441.807	-200.000	-0.009	-0.047
-440.792	127.665	-0.154	-0.195
-439.778	22.187	0.128	0.104
-438.763	-200.000	-0.004	0.104
-437.749	-76.747	-0.288	0.100
-436.734	-88.412	-0.358	-0.106
-435.719	-15.868	-0.008	-0.005
-434.705	-46.759	-0.055	0.027
-433.690	243.773	-0.139	0.232
-432.676	-59.446	0.222	-0.095
-431.661	-142.221	-0.226	-0.022
-430.646	-139.538	0.097	0.010
-429.632	800.000	0.051	0.148
-428.617	-30.520	-0.048	-0.027
-427.603	-39.643	0.187	-0.097
-426.588	388.918	-0.160	-0.329
-425.573	187.505	-0.092	-0.137
-424.559	34.201	-0.242	0.209
-423.544	44.972	0.201	0.184
-422.530	616.639	-0.115	0.287
-421.515	-84.781	0.264	0.082
-420.500	-65.326	-0.189	-0.075
-419.486	6.473	-0.149	-0.110
-418.471	-93.012	0.174	-0.048
-417.457	89.110	-0.120	-0.133
-416.442	-200.000	0.032	0.362
-415.428	-144.170	0.338	0.031
-414.413	-200.000	0.029	-0.127
-413.398	68.362	0.223	-0.227
-412.384	-111.644	-0.092	-0.019
-411.369	-135.413	0.149	-0.018
-410.355	106.842	-0.392	0.462
-409.340	-200.000	0.043	-0.346
-408.325	-200.000	-0.020	-0.256
-407.311	-18.607	-0.085	0.053
-406.296	173.470	-0.166	0.238
-405.282	-200.000	0.020	0.368
-404.267	346.128	0.081	-0.157
-403.252	-156.631	0.081	-0.005
-402.238	334.121	-0.139	0.268
-401.223	-200.000	0.038	-0.217
-400.209	106.784	-0.151	0.178
-399.194	800.000	0.096	-0.282
-398.179	-55.200	0.262	0.117
-397.165	800.000	0.061	-0.239
-396.150	-171.751	0.153	0.005
-395.136	-102.103	0.194	-0.046
-394.121	-117.675	0.300	0.054
-393.106	-45.872	0.417	-0.204
-392.092	16.855	-0.033	-0.026
-391.077	572.268	-0.047	-0.113
-390.063	-176.799	-0.346	0.009
-389.048	53.522	0.168	-0.160
-388.033	-143.440	-0.118	-0.011
-387.019	800.000	0.102	0.286
-386.004	-83.607	-0.193	0.061
-384.990	-200.000	-0.007	-0.052
-383.975	-81.527	-0.093	0.030
-382.960	-200.000	0.019	-0.085
-381.946	-200.000	0.007	-0.148
-380.931	-140.762	-0.203	-0.021
-379.917	311.383	0.102	0.190
-378.902	800.000	0.039	0.127
-377.888	185.016	0.069	0.102
-376.873	552.369	0.078	0.186
-375.858	-156.968	0.065	-0.004
-374.844	-200.000	-0.008	-0.201
-373.829	800.000	0.045	0.189
-372.815	787.378	0.124	0.339
-371.800	-200.000	-0.005	0.098
-370.785	256.820	0.118	-0.200
-369.771	527.982	-0.091	0.214
-368.756	-146.537	-0.466	-0.040
-367.742	-200.000	-0.039	0.275
-366.727	-128.758	0.186	0.026
-365.712	-200.000	0.013	-0.064
-364.698	-108.448	-0.081	0.017
-363.683	800.000	-0.052	0.226
-362.669	-77.603	-0.095	0.033
-361.654	361.763	0.132	-0.262
-360.639	-86.302	-0.101	-0.031
-359.625	197.376	0.131	0.198
-358.610	21.382	-0.170	-0.137
-357.596	-19.984	0.149	-0.091
-356.581	30.229	-0.085	0.072
-355.566	-145.419	-0.148	0.013
-354.552	-159.601	0.198	0.011
-353.537	-77.868	-0.174	0.060
-352.523	-200.000	-0.003	0.236
-351.508	-11.796	-0.355	0.231
-350.493	-28.088	-0.190	0.109
-349.479	71.650	0.167	0.172
-348.464	6.176	0.106	-0.078
-347.450	-25.510	-0.080	-0.047
-346.435	295.423	0.161	0.292
-345.420	-165.450	0.142	-0.006
-344.406	-200.000	-0.015	0.078
-343.391	-13.374	-0.130	0.084
-342.377	800.000	0.091	-0.321
-341.362	3.197	0.227	-0.163
-340.348	-116.711	0.261	0.047
-339.333	-145.868	-0.256	-0.022
-338.318	-45.227	0.508	0.250
-337.304	321.646	0.152	-0.287
-336.289	-200.000	-0.014	0.118
-335.275	656.661	-0.064	0.163
-334.260	288.004	-0.186	-0.333
-333.245	133.150	0.015	-0.020
-332.231	-200.000	0.031	-0.358
-331.216	-106.335	-0.178	0.039
-330.202	800.000	-0.014	-0.044
-329.187	-25.323	0.286	-0.167
-328.172	-148.300	0.499	-0.041
-327.158	-10.461	0.098	0.065
-326.143	800.000	-0.117	-0.332
-325.129	83.337	0.211	0.228
-324.114	9.815	0.252	0.189
-323.099	500.484	0.067	0.154
-322.085	-27.226	-0.149	0.086
-321.070	800.000	0.003	-0.011
-320.056	-96.767	-0.538	-0.140
-319.041	-200.000	0.046	-0.304
-318.026	107.491	0.237	0.279
-317.012	27.155	0.234	-0.194
-315.997	-14.081	-0.222	0.142
-314.983	-104.724	-0.195	0.044
-313.968	-75.213	0.171	-0.060
-312.953	-200.000	0.060	0.407
-311.939	289.621	-0.114	0.205
-310.924	25.007	-0.143	-0.117
-309.910	211.344	0.088	0.137
-308.895	-73.029	-0.146	0.053
-307.880	-5.842	-0.288	0.195
-306.866	-137.753	-0.197	-0.022
-305.851	101.618	-0.218	0.252
-304.837	-200.000	-0.013	0.266
-303.822	-11.403	-0.354	0.230
-302.807	-200.000	0.043	-0.190
-301.793	-200.000	-0.004	0.145
-300.778	-15.526	-0.058	0.037
-299.764	-91.371	0.248	-0.070
-298.749	-121.063	-0.226	0.038
-297.735	-65.608	-0.213	-0.084
-296.720	-51.745	0.098	-0.045
-295.705	-29.097	0.102	0.058
-294.691	800.000	-0.077	-0.227
-293.676	455.962	0.078	-0.171
-292.662	-28.786	0.173	0.098
-291.647	541.607	0.128	0.301
-290.632	-97.769	-0.119	-0.030
-289.618	190.004	-0.092	-0.136
-288.603	-174.045	0.346	-0.010
-287.589	800.000	0.040	0.147
-286.574	-110.381	0.041	0.008
-285.559	-200.000	0.002	0.104
-284.545	409.956	0.037	0.077
-283.530	-200.000	-0.036	0.356
-282.516	800.000	0.037	-0.120
-281.501	-13.083	0.342	-0.220
-280.486	-200.000	0.010	-0.349
-279.472	-43.363	-0.306	-0.153
-278.457	-93.201	0.297	0.082
-277.443	-164.113	0.388	0.018
-276.428	324.521	0.092	0.173
-275.413	-200.000	0.028	0.275
-274.399	800.000	0.086	-0.240
-273.384	-121.495	0.330	0.054
-272.370	-200.000	-0.058	-0.282
-271.355	297.968	-0.163	0.296
-270.340	-43.040	0.142	0.071
-269.326	-140.231	0.196	-0.020
-268.311	-136.414	0.149	-0.017
-267.297	-15.605	-0.128	0.081
-266.282	-47.390	-0.130	-0.063
-265.267	72.508	-0.342	-0.352
-264.253	78.194	-0.269	0.284
-263.238	592.036	0.081	-0.198
-262.224	282.437	0.061	0.109
-261.209	-200.000	0.013	0.232
-260.195	94.942	-0.219	-0.246
-259.180	-68.887	-0.197	0.075
-258.165	-117.272	-0.096	-0.017
-257.151	163.400	-0.025	-0.035
-256.136	78.778	-0.115	-0.121
-255.122	-28.218	0.202	-0.115
-254.107	131.868	-0.089	-0.113
-253.092	-200.000	-0.014	0.139
-252.078	96.122	0.110	0.124
-251.063	146.523	-0.079	-0.105
-250.049	751.699	0.039	0.104
-249.034	266.905	0.110	0.189
-248.019	-11.800	-0.115	-0.074
-247.005	-51.262	-0.349	0.161
-245.990	800.000	0.040	0.127
-244.976	-119.842	0.244	0.041
-243.961	-200.000	0.027	-0.147
-242.946	-195.425	-0.230	0.002
-241.932	800.000	-0.077	-0.244
-240.917	800.000	-0.056	0.230
-239.903	-200.000	0.037	0.184
-238.888	-118.267	0.166	-0.029
-237.873	-127.541	-0.221	-0.032
-236.859	55.849	-0.211	-0.201
-235.844	-79.833	-0.288	-0.095
-234.830	678.766	-0.065	0.166
-233.815	-200.000	0.027	-0.153
-232.800	-119.015	0.385	0.066
-231.786	-42.234	-0.282	-0.142
-230.771	-200.000	0.053	-0.465
-229.757	15.175	-0.091	-0.070
-228.742	-109.012	0.352	0.074
-227.727	-200.000	-0.000	0.031
-226.713	74.509	0.269	0.278
-225.698	1.793	0.143	-0.102
-224.684	-52.979	0.113	-0.051
-223.669	800.000	-0.092	0.356
-222.655	275.069	0.124	-0.216
-221.640	132.405	0.067	-0.085
-220.625	-200.000	0.013	-0.075
-219.611	-75.337	0.249	0.087
-218.596	449.645	0.054	0.117
-217.582	-76.742	0.293	0.101
-216.567	-2.964	-0.394	-0.271
-215.552	-154.512	-0.120	-0.008
-214.538	-80.491	0.287	0.094
-213.523	95.077	-0.119	0.133
-212.509	86.287	-0.189	-0.206
-211.494	231.685	-0.138	0.223
-210.479	-60.491	-0.128	0.054
-209.465	143.263	0.178	0.234
-208.450	288.924	0.071	-0.127
-207.436	39.064	0.125	-0.110
-206.421	-10.165	0.204	0.133
-205.406	-200.000	0.020	0.173
-204.392	20.350	-0.186	-0.148
-203.377	279.835	0.022	0.038
-202.363	136.122	-0.078	-0.100
-201.348	610.209	-0.195	0.479
-200.333	27.438	0.313	0.259
-199.319	199.614	-0.193	0.291
-198.304	556.331	-0.141	0.335
-197.290	72.629	-0.192	0.198
-196.275	-17.902	0.076	-0.047
-195.260	-65.021	0.219	-0.087
-194.246	-109.906	0.310	0.064
-193.231	215.391	0.168	-0.262
-192.217	1.659	-0.276	0.196
-191.202	204.484	0.069	-0.106
-190.187	-200.000	-0.014	-0.281
-189.173	278.465	-0.107	-0.187
-188.158	-40.547	0.069	-0.035
-187.144	800.000	-0.053	-0.145
-186.129	-171.252	-0.158	0.005
-185.114	64.549	-0.145	0.144
-184.100	42.317	0.176	0.158
-183.085	195.898	0.101	0.152
-182.071	-45.709	0.204	-0.099
-181.056	-53.726	-0.022	0.010
-180.042	-147.911	-0.179	-0.015
-179.027	-163.384	-0.093	-0.004
-178.012	800.000	0.016	-0.046
-176.998	-74.365	0.308	0.109
-175.983	186.404	-0.226	0.331
-174.969	-191.531	0.100	0.001
-173.954	-17.663	-0.152	-0.094
-172.939	103.229	-0.139	-0.160
-171.925	96.383	0.180	0.203
-170.910	-1.501	0.232	-0.161
-169.896	-65.781	0.211	0.083
-168.881	-133.131	0.115	0.014
-167.866	40.785	-0.281	0.249
-166.852	-116.894	0.219	0.039
-165.837	36.010	-0.149	-0.129
-164.823	21.256	0.186	-0.148
-163.808	-179.617	-0.436	-0.009
-162.793	133.857	0.189	0.241
-161.779	419.957	0.150	0.316
-160.764	-0.874	0.176	-0.123
-159.750	91.764	-0.095	0.105
-158.735	-109.490	-0.291	-0.060
-157.720	-84.923	-0.217	-0.067
-156.706	641.958	0.081	-0.202
-155.691	-200.000	-0.020	0.260
-154.677	376.384	-0.025	0.049
-153.662	-1.841	-0.152	0.105
-152.647	-4.145	-0.182	0.124
-151.633	-70.233	-0.163	-0.061
-150.618	-200.000	-0.012	0.141
-149.604	800.000	-0.064	0.270
-148.589	-200.000	-0.009	-0.059
-147.574	289.450	-0.070	0.124
-146.560	-200.000	0.073	-0.327
-145.545	8.105	0.258	0.190
-144.531	-200.000	-0.033	0.363
-143.516	800.000	0.074	-0.289
-142.502	-200.000	-0.064	-0.382
-141.487	-200.000	-0.070	0.487
-140.472	-2.517	-0.232	-0.160
-139.458	103.703	0.214	0.246
-138.443	-200.000	-0.092	0.442
-137.429	296.891	-0.075	-0.135
-136.414	427.644	-0.101	0.215
-135.399	335.097	0.063	-0.120
-134.385	520.593	0.261	-0.602
-133.370	-2.932	-0.245	-0.168
-132.356	-200.000	0.044	-0.198
-131.341	800.000	-0.062	0.222
-130.326	-19.049	0.166	0.102
-129.312	594.986	0.131	-0.319
-128.297	-168.467	0.203	-0.008
-127.283	-200.000	-0.018	-0.169
-126.268	-200.000	-0.007	-0.218
-125.253	-171.365	0.361	-0.012
-124.239	46.789	-0.083	-0.076
-123.224	-200.000	-0.056	-0.347
-122.210	435.929	0.064	0.137
