DTS Sentinel unit serial number:	SN413079Multiplexer serial number:	ORYXHardware model number:	OX4-SRSoftware version number:	ORYX F/W v4.00 Oryx Data Collector v3.7.2.0data status	okinstallation	princeton_trtdifferential loss correction	single-endedforward channel	channel 1reverse channel	N/Adate	2019/09/19time	15:02:35forward acquisition time	60.00reverse acquisition time	0.00gamma	496.2192k internal	0.2316k external	0.2316temperature offset calibration	1.0020default loss term (dB/km)	0.3790temperature slope calibration	1.0000multiplexer offset coefficient	1.0000multiplexer slope coefficient	1.0000fibre end	0.00T internal ref (°C)	33.19T ext. ref 1 (°C)	1.11T ext. ref 2 (°C)	30.11length (m)	temperature (°C)	Stokes	anti-Stokes-747.200	-83.046	0.121	0.039
-746.185	-200.000	0.082	0.500
-745.171	535.443	-0.167	-0.402
-744.156	-174.771	-0.186	-0.005
-743.142	-85.226	0.459	-0.145
-742.127	84.009	0.080	-0.088
-741.112	120.022	0.188	0.236
-740.098	20.576	0.234	0.192
-739.083	-24.198	-0.165	-0.100
-738.069	-31.195	0.096	-0.055
-737.054	-200.000	-0.030	-0.190
-736.039	54.505	-0.199	0.194
-735.025	196.688	0.065	-0.101
-734.010	163.593	-0.110	0.157
-732.996	26.405	0.212	-0.180
-731.981	-149.408	-0.093	0.007
-730.966	-40.230	-0.043	-0.022
-729.952	-200.000	-0.012	-0.063
-728.937	-70.068	0.157	0.061
-727.923	504.965	0.153	-0.360
-726.908	-64.940	-0.311	-0.127
-725.894	-200.000	0.022	0.214
-724.879	408.802	-0.076	0.162
-723.864	467.664	0.065	-0.148
-722.850	28.019	0.069	0.059
-721.835	31.933	0.161	0.140
-720.821	-176.089	0.208	-0.006
-719.806	800.000	0.023	-0.103
-718.791	-200.000	0.034	0.248
-717.777	-34.503	0.203	0.113
-716.762	-109.807	-0.232	-0.049
-715.748	125.791	-0.152	-0.195
-714.733	-66.761	0.146	0.058
-713.718	-200.000	-0.003	-0.223
-712.704	-200.000	-0.001	-0.086
-711.689	0.504	0.156	0.113
-710.675	-51.819	0.068	0.032
-709.660	-104.875	-0.133	0.031
-708.645	-112.988	0.069	0.014
-707.631	-24.744	0.215	0.129
-706.616	800.000	-0.027	-0.094
-705.602	-200.000	0.076	-0.446
-704.587	-46.043	0.128	0.064
-703.572	111.231	-0.185	-0.225
-702.558	22.609	-0.050	-0.041
-701.543	800.000	-0.040	-0.119
-700.529	-7.124	0.257	0.176
-699.514	800.000	0.080	-0.312
-698.499	-109.105	-0.147	0.032
-697.485	-200.000	-0.010	-0.395
-696.470	84.620	-0.140	-0.155
-695.456	-72.821	-0.131	-0.049
-694.441	-200.000	0.012	-0.066
-693.426	9.959	-0.127	-0.098
-692.412	-200.000	-0.041	-0.259
-691.397	-200.000	0.000	0.040
-690.383	250.712	0.123	-0.211
-689.368	15.567	0.143	0.114
-688.354	800.000	-0.024	0.102
-687.339	11.462	0.228	0.176
-686.324	-200.000	-0.031	0.271
-685.310	800.000	-0.081	-0.267
-684.295	383.907	-0.119	-0.247
-683.281	-62.820	0.281	-0.118
-682.266	-31.565	-0.316	-0.180
-681.251	22.324	0.498	-0.411
-680.237	-147.402	0.263	-0.022
-679.222	547.240	0.159	-0.385
-678.208	-170.247	-0.490	0.017
-677.193	-121.656	-0.291	0.049
-676.178	178.231	0.210	0.310
-675.164	78.377	-0.151	-0.163
-674.149	178.913	0.154	0.228
-673.135	167.885	0.167	-0.240
-672.120	85.664	-0.036	-0.040
-671.105	118.085	0.202	-0.251
-670.091	424.156	-0.045	-0.099
-669.076	401.674	0.055	0.117
-668.062	-200.000	-0.058	-0.325
-667.047	800.000	-0.109	-0.440
-666.032	26.194	0.066	-0.055
-665.018	-59.927	0.172	-0.074
-664.003	49.266	0.141	0.134
-662.989	210.758	0.237	-0.377
-661.974	800.000	-0.113	-0.339
-660.959	503.436	-0.096	-0.225
-659.945	28.531	-0.135	0.115
-658.930	800.000	-0.085	-0.271
-657.916	313.474	-0.041	-0.079
-656.901	528.540	0.200	-0.476
-655.886	-115.518	-0.255	-0.048
-654.872	-200.000	-0.016	-0.298
-653.857	444.369	0.180	-0.398
-652.843	45.872	0.105	-0.098
-651.828	3.285	-0.092	0.068
-650.814	-70.128	0.168	0.064
-649.799	-200.000	-0.038	-0.302
-648.784	-82.029	0.214	0.070
-647.770	-98.979	0.216	-0.055
-646.755	39.389	0.133	0.120
-645.741	-26.023	0.106	-0.063
-644.726	-73.580	0.219	0.081
-643.711	800.000	-0.018	0.058
-642.697	-113.793	-0.111	0.022
-641.682	291.985	-0.092	0.168
-640.668	-200.000	0.016	0.084
-639.653	-200.000	0.008	-0.093
-638.638	22.260	0.242	0.199
-637.624	-154.802	0.230	-0.015
-636.609	-123.637	-0.293	0.047
-635.595	-92.431	-0.180	-0.051
-634.580	-200.000	0.048	-0.244
-633.565	-41.703	0.019	0.010
-632.551	-3.818	-0.291	-0.204
-631.536	170.976	-0.036	-0.052
-630.522	270.604	0.162	0.288
-629.507	-200.000	-0.021	0.244
-628.492	127.166	0.104	-0.134
-627.478	-181.632	0.148	-0.003
-626.463	36.923	-0.126	-0.112
-625.449	184.149	-0.042	0.063
-624.434	800.000	-0.041	0.161
-623.419	13.515	0.204	-0.159
-622.405	167.078	-0.205	-0.293
-621.390	-200.000	-0.088	-0.395
-620.376	-144.301	-0.231	0.022
-619.361	107.249	0.206	-0.246
-618.346	-108.764	-0.366	-0.079
-617.332	-200.000	-0.020	0.155
-616.317	-141.103	-0.505	0.052
-615.303	98.724	0.159	-0.185
-614.288	-200.000	0.061	0.310
-613.273	-137.206	0.200	0.023
-612.259	-100.493	-0.333	0.083
-611.244	-124.748	0.154	-0.024
-610.230	-200.000	0.009	-0.157
-609.215	-200.000	-0.007	-0.175
-608.201	-200.000	-0.002	0.056
-607.186	-49.523	-0.151	-0.072
-606.171	-139.516	-0.196	0.021
-605.157	-36.188	0.314	-0.171
-604.142	-123.861	0.193	-0.031
-603.128	-200.000	-0.037	-0.204
-602.113	142.065	0.127	-0.170
-601.098	-112.534	-0.121	-0.024
-600.084	134.926	0.148	-0.194
-599.069	-200.000	0.011	-0.187
-598.055	-200.000	0.052	-0.370
-597.040	-80.347	0.213	-0.072
-596.025	43.995	0.278	-0.256
-595.011	49.939	0.072	0.068
-593.996	-82.822	-0.411	0.134
-592.982	499.709	-0.199	-0.461
-591.967	224.410	-0.082	0.134
-590.952	-200.000	0.017	-0.121
-589.938	157.868	-0.072	-0.101
-588.923	800.000	0.069	0.231
-587.909	800.000	0.098	-0.296
-586.894	15.108	0.208	-0.164
-585.879	-92.614	-0.259	0.073
-584.865	-200.000	0.050	-0.342
-583.850	439.157	-0.056	0.123
-582.836	-65.728	0.257	-0.104
-581.821	-200.000	-0.005	-0.076
-580.806	-7.101	-0.439	-0.300
-579.792	-103.594	-0.275	0.065
-578.777	-200.000	0.008	-0.227
-577.763	-52.490	0.350	0.163
-576.748	-163.228	-0.284	-0.014
-575.733	320.747	0.145	0.278
-574.719	-156.673	-0.235	-0.015
-573.704	800.000	-0.051	-0.153
-572.690	42.569	-0.201	-0.184
-571.675	755.714	-0.134	0.365
-570.661	18.531	0.220	-0.177
-569.646	55.178	-0.107	-0.104
-568.631	-46.746	-0.044	-0.022
-567.617	28.491	0.096	0.082
-566.602	-60.933	0.093	0.040
-565.588	73.529	-0.154	-0.162
-564.573	-46.889	0.185	0.091
-563.558	-4.093	-0.218	-0.152
-562.544	-200.000	-0.020	0.262
-561.529	-166.822	-0.110	-0.005
-560.515	113.159	0.053	-0.065
-559.500	-157.434	0.278	0.017
-558.485	800.000	0.010	0.035
-557.471	177.565	0.187	0.274
-556.456	-23.342	-0.063	0.038
-555.442	-200.000	0.023	0.269
-554.427	102.629	0.135	-0.159
-553.412	408.946	0.052	-0.110
-552.398	389.361	-0.114	0.237
-551.383	-200.000	0.032	-0.210
-550.369	-200.000	0.027	-0.358
-549.354	800.000	0.062	-0.205
-548.339	-130.961	0.180	0.024
-547.325	-17.273	0.080	0.050
-546.310	237.639	-0.137	0.229
-545.296	495.956	0.189	-0.437
-544.281	-91.765	-0.319	-0.091
-543.266	-172.507	0.256	-0.008
-542.252	769.812	-0.022	0.061
-541.237	800.000	-0.083	0.325
-540.223	80.681	-0.191	0.207
-539.208	-108.213	0.092	0.020
-538.193	43.244	0.049	-0.045
-537.179	800.000	-0.066	-0.205
-536.164	-162.239	-0.093	0.005
-535.150	-85.940	0.071	-0.022
-534.135	-21.626	-0.221	-0.136
-533.121	800.000	-0.076	0.242
-532.106	-200.000	-0.020	0.244
-531.091	800.000	0.115	0.378
-530.077	22.752	-0.125	0.103
-529.062	-41.358	0.221	-0.114
-528.048	-200.000	-0.000	0.123
-527.033	-200.000	-0.020	-0.099
-526.018	72.339	-0.058	-0.060
-525.004	-140.249	0.311	0.033
-523.989	47.114	0.202	0.189
-522.975	800.000	-0.060	0.250
-521.960	-35.952	0.303	0.165
-520.945	321.850	-0.057	-0.109
-519.931	-113.407	0.107	0.021
-518.916	800.000	0.129	0.460
-517.902	229.446	-0.098	0.161
-516.887	37.901	0.146	-0.130
-515.872	-200.000	0.028	0.199
-514.858	800.000	-0.079	0.218
-513.843	-200.000	-0.018	-0.118
-512.829	251.400	-0.244	-0.416
-511.814	-141.646	-0.071	0.007
-510.799	-68.827	-0.089	0.035
-509.785	-200.000	0.007	-0.087
-508.770	-200.000	-0.002	-0.059
-507.756	85.493	0.106	0.117
-506.741	169.784	-0.093	0.133
-505.726	-200.000	-0.013	0.316
-504.712	360.048	-0.058	0.116
-503.697	-69.789	-0.115	0.044
-502.683	-200.000	-0.055	0.338
-501.668	-185.402	-0.111	-0.002
-500.653	236.639	-0.072	-0.120
-499.639	-76.799	0.174	0.061
-498.624	553.597	-0.045	0.108
-497.610	78.544	-0.011	0.011
-496.595	800.000	0.020	-0.087
-495.581	-88.938	0.293	0.087
-494.566	227.078	0.098	-0.160
-493.551	69.696	0.026	-0.027
-492.537	-200.000	0.010	-0.181
-491.522	217.445	0.302	0.482
-490.508	-59.102	-0.203	0.088
-489.493	141.074	0.121	0.161
-488.478	356.439	-0.013	-0.027
-487.464	267.390	-0.017	-0.029
-486.449	-59.393	0.197	-0.085
-485.435	251.367	-0.101	0.173
-484.420	510.482	0.191	-0.444
-483.405	-54.488	-0.215	-0.098
-482.391	-122.455	-0.122	0.020
-481.376	325.181	0.103	0.198
-480.362	729.279	-0.042	-0.112
-479.347	-4.047	0.241	0.167
-478.332	142.215	-0.105	-0.140
-477.318	-113.387	-0.142	0.028
-476.303	-200.000	-0.074	-0.425
-475.289	-21.766	0.159	-0.097
-474.274	-200.000	0.000	-0.418
-473.259	-200.000	-0.011	-0.130
-472.245	81.320	-0.134	-0.146
-471.230	-98.498	0.361	-0.093
-470.216	-200.000	-0.003	0.055
-469.201	95.029	-0.297	0.339
-468.186	-200.000	0.004	-0.226
-467.172	-55.803	-0.097	-0.044
-466.157	56.229	-0.275	0.267
-465.143	283.354	-0.121	0.217
-464.128	87.160	0.089	-0.098
-463.113	-175.443	0.133	0.004
-462.099	-102.891	-0.316	-0.075
-461.084	335.741	0.096	-0.187
-460.070	-200.000	-0.040	-0.388
-459.055	800.000	0.063	-0.177
-458.040	132.525	0.104	0.135
-457.026	44.329	-0.170	-0.156
-456.011	40.919	-0.124	0.112
-454.997	-126.732	0.108	-0.016
-453.982	-200.000	-0.013	-0.174
-452.968	-151.513	-0.099	0.007
-451.953	181.288	0.209	-0.308
-450.938	30.538	-0.143	-0.122
-449.924	-168.190	0.466	-0.018
-448.909	7.003	0.222	-0.166
-447.895	733.713	0.093	-0.250
-446.880	-25.070	-0.135	-0.080
-445.865	147.784	0.020	0.027
-444.851	-122.394	0.313	-0.051
-443.836	-22.115	0.241	0.146
-442.822	800.000	-0.061	-0.171
-441.807	-151.714	0.204	0.015
-440.792	-103.446	-0.148	0.035
-439.778	104.419	0.108	0.127
-438.763	524.620	0.031	0.072
-437.749	166.757	0.185	0.263
-436.734	5.984	0.218	-0.162
-435.719	449.995	-0.039	-0.086
-434.705	-57.289	-0.330	-0.145
-433.690	23.446	-0.127	0.104
-432.676	460.603	-0.130	0.289
-431.661	-139.068	-0.199	-0.022
-430.646	-143.673	-0.386	0.037
-429.632	70.567	-0.075	0.078
-428.617	-57.042	-0.216	-0.095
-427.603	141.461	0.209	0.277
-426.588	-160.092	0.165	0.009
-425.573	25.725	0.164	-0.136
-424.559	800.000	0.037	-0.124
-423.544	-101.666	0.391	0.095
-422.530	-96.297	-0.235	0.062
-421.515	-84.714	-0.148	-0.047
-420.500	-200.000	0.014	0.176
-419.486	-137.927	-0.235	-0.026
-418.471	50.446	-0.150	-0.142
-417.457	192.190	-0.111	0.168
-416.442	-31.264	0.074	-0.042
-415.428	-101.867	0.039	-0.009
-414.413	-23.489	0.186	0.112
-413.398	-54.480	-0.088	-0.040
-412.384	95.816	0.146	-0.166
-411.369	235.582	0.037	0.061
-410.355	454.132	-0.239	-0.528
-409.340	-200.000	0.046	-0.331
-408.325	97.731	-0.055	-0.063
-407.311	-53.976	-0.221	0.101
-406.296	-98.820	0.149	-0.038
-405.282	187.944	-0.220	-0.328
-404.267	213.319	-0.066	-0.104
-403.252	-9.307	0.150	0.100
-402.238	-39.274	-0.071	0.037
-401.223	64.721	0.083	0.084
-400.209	54.122	0.151	0.145
-399.194	800.000	-0.056	0.179
-398.179	-200.000	0.020	-0.167
-397.165	413.736	0.078	0.165
-396.150	-137.621	-0.276	-0.031
-395.136	-155.467	-0.099	0.006
-394.121	55.027	-0.124	-0.119
-393.106	-151.077	0.293	0.022
-392.092	-173.073	0.244	-0.007
-391.077	629.319	0.095	0.241
-390.063	198.362	-0.144	-0.220
-389.048	69.851	-0.141	0.145
-388.033	-115.182	0.176	0.033
-387.019	-54.839	-0.224	0.101
-386.004	-200.000	0.055	0.318
-384.990	-123.592	-0.428	-0.068
-383.975	-136.874	-0.184	-0.021
-382.960	95.248	0.150	-0.170
-381.946	108.575	0.101	-0.120
-380.931	2.890	-0.201	0.145
-379.917	162.951	0.057	-0.080
-378.902	-83.574	-0.281	-0.090
-377.888	654.330	0.152	0.389
-376.873	-27.640	0.130	-0.076
-375.858	23.373	0.356	0.292
-374.844	-127.394	-0.210	-0.031
-373.829	-139.491	-0.201	-0.021
-372.815	77.039	0.155	-0.164
-371.800	8.518	-0.291	-0.219
-370.785	-81.896	0.307	-0.100
-369.771	-8.374	-0.269	0.181
-368.756	-16.592	0.134	-0.084
-367.742	-120.615	-0.401	0.068
-366.727	-24.863	0.259	-0.153
-365.712	114.920	-0.145	0.177
-364.698	21.600	-0.370	0.300
-363.683	-200.000	0.031	0.136
-362.669	118.134	0.296	-0.364
-361.654	72.480	-0.125	0.130
-360.639	-124.497	0.145	-0.023
-359.625	-53.548	0.254	-0.116
-358.610	-200.000	0.013	0.275
-357.596	-95.487	-0.117	0.031
-356.581	-37.795	-0.432	-0.230
-355.566	-18.449	0.220	-0.137
-354.552	800.000	0.071	-0.246
-353.537	-194.998	-0.203	-0.002
-352.523	91.733	-0.014	0.016
-351.508	-104.370	-0.174	-0.040
-350.493	-80.146	-0.128	0.043
-349.479	12.629	0.153	0.118
-348.464	439.329	-0.079	0.171
-347.450	-0.692	-0.088	0.062
-346.435	122.735	0.131	-0.163
-345.420	111.274	-0.132	-0.159
-344.406	-70.817	0.100	0.037
-343.391	-178.392	-0.182	0.004
-342.377	616.156	-0.157	-0.394
-341.362	-200.000	0.006	-0.393
-340.348	-163.400	-0.367	0.017
-339.333	78.051	-0.222	0.236
-338.318	-200.000	-0.041	0.469
-337.304	800.000	-0.136	0.522
-336.289	101.588	-0.197	0.229
-335.275	23.997	-0.082	-0.067
-334.260	248.247	0.205	0.345
-333.245	-200.000	-0.005	0.221
-332.231	566.470	-0.095	-0.230
-331.216	-71.730	-0.423	-0.157
-330.202	-163.094	0.214	0.010
-329.187	-147.165	0.490	0.042
-328.172	-200.000	0.276	0.001
-327.158	234.931	0.086	0.141
-326.143	511.808	-0.134	-0.310
-325.129	-109.134	0.323	0.069
-324.114	92.818	0.061	0.069
-323.099	-200.000	0.005	-0.142
-322.085	163.521	0.109	0.152
-321.070	-30.043	0.166	-0.094
-320.056	34.218	-0.239	-0.207
-319.041	57.971	0.346	0.337
-318.026	-163.743	-0.109	0.005
-317.012	168.545	-0.067	0.096
-315.997	800.000	-0.023	0.072
-314.983	-99.841	0.247	0.061
-313.968	-175.469	0.204	0.006
-312.953	220.716	0.079	0.126
-311.939	-94.528	-0.168	0.046
-310.924	-3.710	-0.052	-0.036
-309.910	-200.000	-0.026	-0.181
-308.895	-56.621	-0.264	-0.117
-307.880	-98.465	-0.105	-0.027
-306.866	-174.816	-0.293	-0.008
-305.851	680.143	0.081	0.211
-304.837	-85.852	0.185	0.057
-303.822	372.316	-0.110	-0.223
-302.807	-1.448	-0.120	0.084
-301.793	800.000	-0.090	0.299
-300.778	-106.647	-0.256	-0.057
-299.764	-138.874	-0.365	0.040
-298.749	-54.752	-0.148	-0.067
-297.735	-179.638	0.500	-0.011
-296.720	-67.749	0.533	-0.208
-295.705	-58.751	-0.225	-0.097
-294.691	283.890	-0.163	0.291
-293.676	53.399	0.206	0.196
-292.662	78.302	-0.218	0.232
-291.647	678.022	0.034	-0.087
-290.632	163.242	-0.093	0.130
-289.618	800.000	0.069	0.240
-288.603	-170.172	-0.163	0.006
-287.589	185.326	-0.124	-0.183
-286.574	-200.000	-0.018	0.290
-285.559	800.000	-0.064	0.229
-284.545	99.520	-0.170	0.196
-283.530	-194.278	0.272	-0.002
-282.516	-4.867	-0.131	-0.090
-281.501	-143.089	-0.168	-0.016
-280.486	800.000	0.168	-0.530
-279.472	-112.315	0.263	0.052
-278.457	784.957	-0.028	-0.077
-277.443	-200.000	-0.025	-0.112
-276.428	800.000	-0.086	-0.364
-275.413	800.000	0.079	0.233
-274.399	-200.000	0.007	0.088
-273.384	-46.402	-0.032	-0.016
-272.370	195.399	0.148	0.223
-271.355	-200.000	0.023	0.223
-270.340	215.948	-0.091	-0.144
-269.326	-200.000	0.038	0.226
-268.311	121.253	0.119	0.147
-267.297	-107.831	0.254	0.055
-266.282	-82.369	0.139	-0.045
-265.267	-79.616	0.253	-0.085
-264.253	143.461	0.116	-0.153
-263.238	97.136	-0.174	0.199
-262.224	-98.471	0.169	0.043
-261.209	-200.000	0.006	0.346
-260.195	800.000	-0.119	0.349
-259.180	67.291	0.088	-0.089
-258.165	800.000	-0.045	0.194
-257.151	576.676	-0.088	-0.213
-256.136	90.038	-0.130	0.145
-255.122	20.469	0.353	0.284
-254.107	-22.900	-0.145	0.087
-253.092	-200.000	0.023	0.108
-252.078	149.148	0.058	0.078
-251.063	622.096	-0.063	0.157
-250.049	-1.169	0.227	-0.159
-249.034	4.658	0.169	-0.123
-248.019	370.622	-0.061	0.122
-247.005	97.334	-0.134	0.153
-245.990	800.000	0.052	-0.153
-244.976	-200.000	-0.006	0.202
-243.961	204.429	-0.024	-0.036
-242.946	1.470	-0.200	0.143
-241.932	162.650	0.125	0.174
-240.917	-200.000	0.024	-0.194
-239.903	800.000	-0.101	0.371
-238.888	-200.000	-0.009	-0.208
-237.873	-102.040	0.252	0.060
-236.859	-52.669	0.186	-0.085
-235.844	-200.000	-0.060	-0.517
-234.830	-117.584	0.091	-0.016
-233.815	127.326	-0.043	-0.054
-232.800	-99.955	0.080	-0.020
-231.786	73.898	0.218	-0.227
-230.771	114.675	-0.265	0.320
-229.757	-82.021	0.215	0.070
-228.742	518.449	0.142	0.329
-227.727	61.319	-0.155	-0.153
-226.713	-200.000	0.011	0.050
-225.698	120.897	-0.101	0.125
-224.684	64.206	-0.223	0.222
-223.669	800.000	0.031	0.114
-222.655	-166.188	0.269	0.011
-221.640	3.842	-0.208	0.151
-220.625	800.000	-0.028	-0.111
-219.611	800.000	-0.050	0.149
-218.596	536.087	-0.099	-0.234
-217.582	9.299	-0.233	0.175
-216.567	-60.204	0.363	0.153
-215.552	146.866	0.130	0.174
-214.538	800.000	0.034	0.134
-213.523	-119.531	0.125	0.021
-212.509	26.353	-0.175	-0.146
-211.494	-141.430	0.085	0.009
-210.479	-200.000	-0.033	0.194
-209.465	-200.000	0.031	-0.172
-208.450	-200.000	0.009	-0.149
-207.436	90.895	-0.035	-0.038
-206.421	-10.579	-0.056	0.037
-205.406	-200.000	0.026	-0.222
-204.392	85.318	0.124	-0.135
-203.377	-168.586	-0.010	0.000
-202.363	-200.000	-0.016	-0.170
-201.348	2.238	-0.097	-0.070
-200.333	800.000	-0.042	0.125
-199.319	297.245	0.107	-0.194
-198.304	91.958	0.057	-0.063
-197.290	73.520	0.185	-0.192
-196.275	-165.615	-0.103	-0.004
-195.260	-74.497	0.292	-0.104
-194.246	198.149	-0.122	0.185
-193.231	-28.483	0.261	0.149
-192.217	800.000	-0.026	-0.097
-191.202	23.434	-0.286	0.233
-190.187	-113.433	-0.276	-0.054
-189.173	9.713	-0.110	-0.083
-188.158	-200.000	-0.011	-0.067
-187.144	248.245	-0.119	-0.200
-186.129	-200.000	0.016	0.381
-185.114	-30.267	0.137	0.077
-184.100	-71.407	0.071	0.026
-183.085	800.000	0.060	0.182
-182.071	-200.000	-0.014	-0.176
-181.056	-200.000	-0.006	0.045
-180.042	-173.217	0.173	0.005
-179.027	-200.000	0.017	0.152
-178.012	57.223	-0.173	-0.168
-176.998	-167.087	0.260	0.010
-175.983	-115.315	0.221	0.041
-174.969	-81.099	-0.095	0.031
-173.954	-75.244	0.379	0.134
-172.939	800.000	-0.086	0.284
-171.925	-200.000	0.035	-0.299
-170.910	-82.222	0.220	-0.071
-169.896	271.428	-0.031	-0.054
-168.881	-43.135	-0.221	-0.111
-167.866	-104.935	-0.033	-0.008
-166.852	-112.729	0.243	0.048
-165.837	-200.000	0.022	-0.156
-164.823	-200.000	0.008	-0.209
-163.808	588.778	-0.127	-0.310
-162.793	-108.225	-0.287	-0.062
-161.779	-173.849	-0.070	-0.002
-160.764	228.078	-0.032	-0.052
-159.750	-200.000	-0.011	0.059
-158.735	-89.935	0.203	0.059
-157.720	-129.877	0.262	-0.036
-156.706	-200.000	-0.407	0.001
-155.691	-148.957	-0.240	-0.019
-154.677	800.000	-0.052	0.181
-153.662	10.193	-0.128	0.096
-152.647	0.181	0.137	-0.097
-151.633	0.331	0.167	-0.118
-150.618	187.950	0.152	-0.224
-149.604	95.392	0.152	0.172
-148.589	800.000	0.106	0.456
-147.574	32.125	-0.012	0.011
-146.560	-200.000	0.010	-0.312
-145.545	-31.063	-0.017	0.009
-144.531	-153.469	0.226	0.016
-143.516	-200.000	-0.039	-0.170
-142.502	453.824	0.060	-0.132
-141.487	53.664	-0.273	0.259
-140.472	-80.616	-0.185	0.061
-139.458	-200.000	-0.006	0.120
-138.443	-119.577	0.167	-0.029
-137.429	-94.949	0.362	-0.097
-136.414	-112.825	-0.392	0.077
-135.399	2.995	0.154	-0.110
-134.385	-119.778	0.357	0.061
-133.370	-156.767	0.241	-0.015
-132.356	-12.537	0.093	0.060
-131.341	197.617	-0.101	-0.153
-130.326	253.811	0.102	-0.173
-129.312	443.615	0.088	-0.191
-128.297	-39.162	0.189	-0.098
-127.283	433.016	0.126	-0.270
-126.268	461.918	-0.042	0.094
-125.253	169.425	-0.082	0.115
-124.239	-153.982	-0.317	0.021
-123.224	800.000	-0.054	0.152
-122.210	261.810	0.128	-0.220
