DTS Sentinel unit serial number:	SN413079Multiplexer serial number:	ORYXHardware model number:	OX4-SRSoftware version number:	ORYX F/W v4.00 Oryx Data Collector v3.7.2.0data status	okinstallation	princeton_trtdifferential loss correction	single-endedforward channel	channel 1reverse channel	N/Adate	2019/09/13time	08:26:35forward acquisition time	60.00reverse acquisition time	0.00gamma	496.2192k internal	0.2330k external	0.2330temperature offset calibration	1.0161default loss term (dB/km)	0.3790temperature slope calibration	1.0000multiplexer offset coefficient	1.0000multiplexer slope coefficient	1.0000fibre end	0.00T internal ref (°C)	27.39T ext. ref 1 (°C)	4.27T ext. ref 2 (°C)	23.99length (m)	temperature (°C)	Stokes	anti-Stokes-747.200	800.000	-0.040	0.173
-746.185	48.665	0.155	-0.146
-745.171	42.340	-0.131	0.120
-744.156	179.711	0.033	-0.048
-743.142	-130.831	-0.054	-0.007
-742.127	-94.271	-0.263	-0.072
-741.112	60.693	0.085	0.085
-740.098	-111.721	-0.204	0.042
-739.083	800.000	-0.045	-0.156
-738.069	92.257	-0.202	0.229
-737.054	-54.926	-0.404	0.183
-736.039	60.126	-0.250	0.249
-735.025	-181.508	-0.175	0.003
-734.010	-200.000	-0.088	0.508
-732.996	-27.492	-0.098	-0.057
-731.981	-200.000	-0.023	0.103
-730.966	-172.018	-0.318	-0.010
-729.952	396.775	-0.060	-0.127
-728.937	-200.000	-0.242	0.000
-727.923	-200.000	0.033	-0.275
-726.908	-200.000	0.001	-0.086
-725.894	54.619	0.110	-0.107
-724.879	-144.445	0.159	0.015
-723.864	-114.063	0.129	0.025
-722.850	800.000	-0.122	-0.407
-721.835	-200.000	-0.012	0.123
-720.821	-81.144	-0.280	-0.093
-719.806	48.697	-0.189	-0.179
-718.791	-200.000	-0.007	0.158
-717.777	-5.916	0.083	0.057
-716.762	-200.000	-0.015	0.318
-715.748	-20.614	0.076	0.047
-714.733	-36.817	0.216	-0.117
-713.718	-153.315	0.318	0.022
-712.704	-130.611	-0.377	-0.051
-711.689	133.829	0.154	0.200
-710.675	800.000	0.070	-0.195
-709.660	-65.407	-0.124	-0.050
-708.645	51.679	0.281	-0.269
-707.631	779.055	-0.041	-0.113
-706.616	-200.000	-0.049	-0.505
-705.602	-200.000	-0.027	-0.118
-704.587	-45.336	0.329	-0.164
-703.572	-102.278	0.344	-0.083
-702.558	-200.000	0.005	0.117
-701.543	423.981	0.098	-0.212
-700.529	316.690	-0.106	-0.200
-699.514	-4.367	0.097	-0.067
-698.499	-71.637	-0.216	-0.081
-697.485	-200.000	0.011	0.145
-696.470	-84.109	-0.230	-0.073
-695.456	-200.000	0.055	-0.291
-694.441	-47.266	-0.121	-0.059
-693.426	-163.083	-0.113	-0.005
-692.412	252.945	0.019	0.033
-691.397	134.790	-0.050	0.066
-690.383	-60.260	-0.258	-0.110
-689.368	-99.012	0.035	-0.009
-688.354	326.788	-0.172	-0.332
-687.339	-200.000	-0.013	0.059
-686.324	36.921	-0.053	-0.047
-685.310	-149.980	-0.491	-0.038
-684.295	221.882	0.063	0.102
-683.281	-200.000	-0.062	-0.348
-682.266	-13.844	-0.141	0.091
-681.251	-113.481	-0.281	-0.055
-680.237	143.579	-0.059	0.080
-679.222	-121.641	-0.036	0.006
-678.208	149.752	-0.176	0.239
-677.193	-57.421	-0.092	0.041
-676.178	-67.021	-0.423	-0.167
-675.164	-84.131	-0.059	-0.019
-674.149	224.459	-0.050	-0.082
-673.135	800.000	-0.104	0.364
-672.120	-200.000	-0.049	0.219
-671.105	-63.318	-0.069	-0.028
-670.091	95.067	0.156	0.179
-669.076	27.092	0.028	-0.024
-668.062	648.408	0.127	-0.327
-667.047	-32.013	0.285	-0.160
-666.032	33.542	-0.110	0.096
-665.018	140.330	-0.144	-0.191
-664.003	260.730	0.159	-0.277
-662.989	201.961	-0.172	0.266
-661.974	800.000	-0.048	0.191
-660.959	334.550	-0.117	-0.228
-659.945	-200.000	-0.045	-0.243
-658.930	-41.654	-0.196	0.101
-657.916	800.000	0.010	0.036
-656.901	370.743	-0.064	0.130
-655.886	52.047	-0.175	-0.168
-654.872	-21.765	0.065	-0.040
-653.857	169.363	-0.229	-0.328
-652.843	140.336	0.012	0.017
-651.828	-67.614	0.164	-0.064
-650.814	256.185	-0.085	-0.146
-649.799	-78.088	0.190	0.066
-648.784	130.188	-0.195	0.251
-647.770	-96.132	-0.221	0.059
-646.755	13.165	-0.272	0.211
-645.741	9.470	0.064	-0.049
-644.726	-64.023	-0.016	-0.007
-643.711	-75.766	0.089	0.032
-642.697	155.559	-0.247	0.341
-641.682	551.866	0.058	-0.139
-640.668	323.897	0.043	-0.083
-639.653	-200.000	-0.017	-0.287
-638.638	1.327	0.296	-0.213
-637.624	412.690	0.059	-0.126
-636.609	208.557	0.156	0.245
-635.595	-84.693	0.154	-0.049
-634.580	-92.108	0.166	-0.047
-633.565	-43.061	-0.226	0.115
-632.551	43.421	-0.093	-0.085
-631.536	130.907	0.081	0.105
-630.522	452.963	0.029	0.064
-629.507	-200.000	0.010	-0.130
-628.492	192.387	0.103	-0.156
-627.478	-127.614	0.071	0.010
-626.463	-140.466	0.288	0.030
-625.449	800.000	-0.025	0.093
-624.434	-32.899	-0.132	0.074
-623.419	-200.000	-0.023	-0.136
-622.405	-158.329	-0.122	-0.007
-621.390	-4.486	0.162	-0.112
-620.376	-83.718	-0.282	0.090
-619.361	112.229	-0.180	0.218
-618.346	158.555	0.121	-0.168
-617.332	-8.711	0.252	-0.169
-616.317	-66.009	-0.077	-0.031
-615.303	29.872	0.154	0.132
-614.288	800.000	-0.061	0.197
-613.273	-35.175	-0.348	0.190
-612.259	800.000	0.033	0.127
-611.244	156.894	-0.189	0.262
-610.230	11.613	0.102	0.078
-609.215	413.532	-0.140	-0.298
-608.201	-24.685	0.072	-0.043
-607.186	684.357	-0.130	-0.339
-606.171	-30.225	0.182	-0.104
-605.157	746.340	0.011	-0.031
-604.142	-145.222	-0.056	0.005
-603.128	-155.342	-0.188	0.012
-602.113	-200.000	-0.025	0.251
-601.098	115.815	-0.168	0.206
-600.084	-116.695	-0.057	0.010
-599.069	122.411	0.144	-0.181
-598.055	-59.864	-0.251	0.107
-597.040	-142.818	-0.007	-0.001
-596.025	40.616	0.210	-0.189
-595.011	262.273	0.074	-0.128
-593.996	800.000	0.039	0.127
-592.982	-160.422	-0.114	0.006
-591.967	130.839	0.067	0.086
-590.952	118.547	0.109	0.135
-589.938	2.220	0.134	-0.097
-588.923	99.615	-0.095	0.110
-587.909	126.214	0.211	0.267
-586.894	66.785	0.165	0.168
-585.879	-200.000	-0.031	-0.213
-584.865	143.724	0.201	-0.268
-583.850	374.454	0.157	0.321
-582.836	116.729	0.185	-0.227
-581.821	-145.799	-0.204	0.018
-580.806	-200.000	-0.011	0.084
-579.792	800.000	0.081	-0.318
-578.777	8.241	-0.167	0.125
-577.763	136.326	-0.144	-0.188
-576.748	-11.033	0.185	0.122
-575.733	-147.888	0.278	0.023
-574.719	-36.759	0.286	-0.154
-573.704	82.559	0.027	-0.030
-572.690	800.000	-0.056	-0.161
-571.675	-24.635	0.172	-0.103
-570.661	-200.000	-0.006	0.314
-569.646	-200.000	-0.028	0.225
-568.631	91.573	0.106	0.119
-567.617	800.000	-0.064	-0.185
-566.602	202.708	-0.139	0.214
-565.588	-95.225	0.205	-0.055
-564.573	800.000	-0.074	-0.226
-563.558	-67.234	-0.166	-0.065
-562.544	298.136	-0.170	0.312
-561.529	-83.225	-0.220	-0.071
-560.515	-60.179	0.314	-0.134
-559.500	-22.173	-0.330	0.200
-558.485	800.000	0.048	0.200
-557.471	800.000	-0.044	0.130
-556.456	-124.942	-0.245	0.038
-555.442	243.016	0.175	-0.293
-554.427	-8.948	0.407	-0.273
-553.412	-99.431	0.099	-0.025
-552.398	-105.459	0.110	-0.025
-551.383	-200.000	0.044	-0.229
-550.369	-55.296	-0.263	-0.118
-549.354	354.981	-0.051	-0.101
-548.339	82.890	-0.041	-0.045
-547.325	-105.316	0.212	-0.048
-546.310	-44.465	0.084	0.042
-545.296	-155.385	-0.163	0.011
-544.281	256.557	0.044	-0.076
-543.266	-64.047	0.166	0.068
-542.252	15.528	-0.089	-0.070
-541.237	-51.832	0.320	0.149
-540.223	-200.000	0.021	0.296
-539.208	257.652	0.100	-0.171
-538.193	30.645	-0.160	-0.137
-537.179	800.000	-0.085	0.349
-536.164	-200.000	-0.041	-0.226
-535.150	341.371	-0.189	-0.370
-534.135	800.000	-0.043	-0.126
-533.121	15.413	0.111	0.087
-532.106	-70.888	0.045	0.017
-531.091	-23.861	-0.207	-0.124
-530.077	-200.000	-0.024	0.131
-529.062	800.000	0.088	0.295
-528.048	-200.000	0.016	-0.080
-527.033	712.325	0.124	-0.328
-526.018	389.664	0.091	0.188
-525.004	516.822	0.089	0.209
-523.989	-113.893	-0.284	-0.055
-522.975	-31.371	-0.222	0.125
-521.960	-44.963	-0.184	-0.091
-520.945	-3.514	0.247	-0.171
-519.931	499.494	0.049	-0.113
-518.916	194.806	0.221	-0.335
-517.902	-200.000	0.056	0.258
-516.887	-63.425	0.394	0.162
-515.872	-158.709	-0.094	0.005
-514.858	-11.523	0.225	-0.148
-513.843	703.833	0.072	-0.189
-512.829	21.807	-0.373	0.303
-511.814	800.000	0.046	0.157
-510.799	121.961	0.122	-0.151
-509.785	653.418	0.105	-0.269
-508.770	-200.000	-0.018	0.104
-507.756	-72.476	0.124	0.046
-506.741	-19.693	0.058	-0.036
-505.726	97.125	-0.144	0.165
-504.712	-200.000	0.022	-0.129
-503.697	800.000	0.009	0.038
-502.683	-68.939	0.242	0.093
-501.668	-94.925	0.251	0.068
-500.653	-200.000	0.035	0.194
-499.639	-200.000	-0.004	0.043
-498.624	-16.469	-0.141	-0.089
-497.610	649.595	-0.094	-0.239
-496.595	67.353	0.077	0.079
-495.581	-200.000	-0.055	-0.258
-494.566	800.000	0.032	-0.134
-493.551	74.558	-0.125	-0.132
-492.537	109.017	-0.309	-0.368
-491.522	189.384	0.272	-0.406
-490.508	24.517	-0.043	0.036
-489.493	-73.066	0.241	0.088
-488.478	-200.000	-0.010	0.063
-487.464	39.487	-0.055	-0.050
-486.449	-28.468	0.032	0.018
-485.435	-42.406	-0.182	-0.092
-484.420	37.106	-0.258	-0.228
-483.405	145.158	-0.183	0.244
-482.391	-149.161	-0.390	-0.031
-481.376	265.739	0.047	-0.082
-480.362	54.725	-0.104	0.100
-479.347	800.000	-0.062	0.183
-478.332	800.000	-0.010	0.039
-477.318	263.221	0.127	-0.220
-476.303	564.486	0.098	0.236
-475.289	-27.311	0.387	0.225
-474.274	-60.521	0.094	-0.040
-473.259	-125.581	-0.395	0.060
-472.245	-126.213	0.092	0.014
-471.230	-99.770	-0.235	0.059
-470.216	-35.564	0.186	-0.100
-469.201	-139.776	0.285	-0.030
-468.186	-68.231	-0.028	0.011
-467.172	114.543	-0.211	0.256
-466.157	-110.070	-0.078	0.016
-465.143	-80.926	-0.067	-0.022
-464.128	-71.360	-0.086	-0.032
-463.113	-200.000	0.000	0.042
-462.099	441.468	0.036	-0.078
-461.084	164.258	0.159	0.223
-460.070	-146.546	-0.166	0.014
-459.055	21.828	0.023	-0.019
-458.040	212.242	-0.173	-0.271
-457.026	-95.569	-0.486	-0.130
-456.011	249.427	-0.120	-0.203
-454.997	-124.163	0.038	0.006
-453.982	-200.000	-0.028	0.288
-452.968	60.030	-0.162	0.159
-451.953	443.207	-0.083	-0.181
-450.938	-148.018	0.047	0.004
-449.924	202.024	-0.124	0.191
-448.909	-200.000	-0.054	0.262
-447.895	-200.000	0.052	-0.255
-446.880	-124.354	0.184	-0.029
-445.865	228.257	-0.117	-0.190
-444.851	-53.018	0.142	-0.065
-443.836	157.016	0.110	0.151
-442.822	-180.648	-0.096	0.002
-441.807	210.540	-0.152	-0.238
-440.792	-200.000	-0.043	0.337
-439.778	-172.817	-0.282	-0.009
-438.763	800.000	-0.087	-0.299
-437.749	-200.000	-0.047	-0.264
-436.734	-106.775	-0.085	-0.019
-435.719	-200.000	-0.029	-0.248
-434.705	453.786	0.066	0.146
-433.690	-109.197	0.206	0.044
-432.676	83.696	-0.243	0.264
-431.661	-64.763	-0.136	0.055
-430.646	33.717	-0.169	0.146
-429.632	352.635	0.117	0.230
-428.617	557.659	-0.104	-0.251
-427.603	189.339	0.047	-0.070
-426.588	64.584	0.134	-0.135
-425.573	-200.000	-0.016	-0.099
-424.559	-200.000	-0.069	-0.359
-423.544	800.000	0.027	0.110
-422.530	-200.000	0.017	0.082
-421.515	-24.838	-0.105	-0.062
-420.500	-9.996	-0.186	-0.123
-419.486	3.820	-0.191	-0.138
-418.471	-109.099	-0.053	-0.011
-417.457	800.000	-0.088	0.283
-416.442	67.584	0.197	-0.200
-415.428	645.694	-0.163	-0.413
-414.413	67.794	-0.056	-0.057
-413.398	108.662	0.103	-0.122
-412.384	6.088	0.217	-0.160
-411.369	748.589	0.050	-0.133
-410.355	-150.863	0.338	0.025
-409.340	66.031	0.250	0.252
-408.325	615.953	0.090	0.224
-407.311	-111.367	0.106	0.021
-406.296	800.000	-0.038	-0.147
-405.282	-200.000	-0.014	-0.131
-404.267	124.170	0.142	-0.178
-403.252	-200.000	0.003	-0.222
-402.238	771.947	-0.074	0.200
-401.223	800.000	-0.048	0.193
-400.209	-89.331	-0.138	0.040
-399.194	410.358	-0.048	-0.102
-398.179	758.851	-0.094	-0.252
-397.165	-38.633	-0.288	-0.151
-396.150	-200.000	0.002	-0.022
-395.136	226.124	-0.074	-0.119
-394.121	82.264	-0.196	0.212
-393.106	-21.556	0.195	-0.118
-392.092	-151.788	0.328	0.024
-391.077	-52.022	-0.416	0.192
-390.063	-113.929	0.025	-0.005
-389.048	-125.101	-0.133	0.020
-388.033	-79.815	0.303	0.101
-387.019	-93.828	-0.173	0.047
-386.004	-200.000	-0.001	-0.218
-384.990	-200.000	0.002	0.206
-383.975	106.576	0.174	0.204
-382.960	800.000	-0.023	-0.069
-381.946	131.805	-0.109	0.140
-380.931	-28.742	0.047	-0.027
-379.917	-136.287	0.133	-0.015
-378.902	21.838	-0.354	-0.286
-377.888	-115.868	-0.416	-0.077
-376.873	-44.732	-0.136	-0.067
-375.858	-56.265	0.192	0.085
-374.844	-55.484	-0.196	-0.087
-373.829	70.546	0.234	0.240
-372.815	81.427	0.133	0.142
-371.800	-200.000	-0.013	0.218
-370.785	251.702	0.169	-0.286
-369.771	-105.412	-0.208	-0.047
-368.756	55.374	-0.180	-0.173
-367.742	128.885	0.230	0.291
-366.727	800.000	0.071	0.306
-365.712	-200.000	-0.019	-0.187
-364.698	-83.752	-0.458	-0.145
-363.683	-173.284	-0.187	0.006
-362.669	6.161	-0.113	-0.083
-361.654	-93.144	-0.317	-0.088
-360.639	800.000	-0.075	-0.320
-359.625	44.407	0.238	-0.217
-358.610	-200.000	-0.004	0.139
-357.596	-200.000	-0.057	-0.364
-356.581	24.869	-0.270	-0.222
-355.566	39.596	0.186	-0.165
-354.552	-50.741	0.302	-0.141
-353.537	-139.795	-0.324	-0.034
-352.523	387.401	0.039	-0.079
-351.508	800.000	-0.039	-0.133
-350.493	800.000	-0.043	0.185
-349.479	-131.104	0.158	-0.021
-348.464	274.938	-0.094	-0.166
-347.450	-200.000	-0.011	0.090
-346.435	684.186	0.115	0.297
-345.420	3.810	0.065	-0.047
-344.406	-200.000	-0.020	0.275
-343.391	727.628	-0.078	0.207
-342.377	-27.505	-0.208	-0.120
-341.362	-33.740	-0.245	0.134
-340.348	-101.697	0.272	0.065
-339.333	133.584	0.160	-0.205
-338.318	-108.739	-0.232	0.049
-337.304	-51.422	0.098	-0.046
-336.289	-144.456	0.178	-0.016
-335.275	0.732	0.194	-0.138
-334.260	-116.747	0.426	-0.077
-333.245	-142.075	0.191	-0.019
-332.231	-131.940	0.299	0.039
-331.216	208.152	0.054	0.084
-330.202	-112.315	0.109	-0.022
-329.187	-38.383	0.280	0.147
-328.172	130.594	-0.168	-0.213
-327.158	181.250	-0.210	0.306
-326.143	-167.256	-0.126	-0.005
-325.129	123.478	0.146	-0.182
-324.114	499.885	-0.112	0.255
-323.099	-36.949	0.096	-0.051
-322.085	-76.853	-0.352	-0.122
-321.070	800.000	0.112	-0.422
-320.056	-8.990	0.090	-0.060
-319.041	-157.769	0.154	0.009
-318.026	243.324	-0.094	0.157
-317.012	59.008	-0.074	-0.072
-315.997	114.280	-0.043	0.052
-314.983	108.698	-0.197	-0.233
-313.968	130.000	0.028	0.035
-312.953	-36.666	0.105	-0.056
-311.939	-154.789	-0.555	0.036
-310.924	-200.000	0.010	-0.208
-309.910	110.337	-0.063	-0.074
-308.895	-200.000	-0.010	0.070
-307.880	-200.000	-0.009	-0.174
-306.866	-200.000	-0.032	-0.233
-305.851	-125.314	-0.144	0.022
-304.837	-121.557	0.201	-0.033
-303.822	332.667	-0.095	0.181
-302.807	96.361	-0.126	0.143
-301.793	-200.000	0.023	-0.135
-300.778	-123.112	-0.225	-0.036
-299.764	55.653	0.094	-0.090
-298.749	259.836	-0.132	-0.225
-297.735	-67.284	0.331	0.129
-296.720	-50.804	0.190	-0.089
-295.705	-178.847	-0.158	-0.004
-294.691	-164.335	-0.145	0.007
-293.676	-43.107	-0.186	-0.093
-292.662	-200.000	-0.002	0.067
-291.647	224.015	0.125	-0.200
-290.632	-47.360	0.112	0.054
-289.618	277.441	-0.232	0.408
-288.603	184.715	0.228	0.334
-287.589	-76.941	0.086	0.030
-286.574	-33.222	0.147	0.081
-285.559	-65.725	-0.154	0.061
-284.545	19.403	0.246	-0.195
-283.530	103.441	0.102	0.118
-282.516	-50.364	-0.044	0.021
-281.501	-200.000	0.003	-0.132
-280.486	1.132	0.172	-0.122
-279.472	-82.434	0.162	0.052
-278.457	800.000	-0.043	-0.148
-277.443	-200.000	-0.037	0.432
-276.428	260.756	0.215	0.367
-275.413	90.061	0.177	-0.195
-274.399	800.000	-0.057	-0.226
-273.384	800.000	0.040	0.143
-272.370	-200.000	0.014	-0.078
-271.355	38.109	-0.338	-0.298
-270.340	300.582	-0.111	0.202
-269.326	800.000	-0.041	0.139
-268.311	-177.699	-0.142	-0.003
-267.297	212.338	0.097	0.151
-266.282	-38.479	-0.343	-0.180
-265.267	-147.910	-0.306	-0.025
-264.253	-117.729	-0.250	-0.044
-263.238	-156.539	0.227	-0.014
-262.224	-6.243	0.123	-0.083
-261.209	32.314	-0.139	0.119
-260.195	-84.218	0.211	0.066
-259.180	474.868	-0.091	0.203
-258.165	-176.500	-0.449	0.011
-257.151	-81.266	0.241	-0.079
-256.136	-45.193	0.254	0.125
-255.122	375.012	-0.086	-0.173
-254.107	-42.586	-0.213	-0.107
-253.092	82.883	0.170	-0.183
-252.078	-28.738	-0.307	0.174
-251.063	-200.000	-0.012	-0.243
-250.049	-200.000	0.023	-0.138
-249.034	-40.694	0.180	-0.092
-248.019	-141.785	-0.295	-0.029
-247.005	61.605	-0.155	0.153
-245.990	-102.671	-0.188	0.044
-244.976	8.172	0.306	-0.227
-243.961	-200.000	-0.081	0.454
-242.946	397.360	0.035	-0.072
-241.932	-200.000	0.008	0.236
-240.917	124.273	0.065	0.080
-239.903	24.367	-0.175	-0.143
-238.888	-200.000	-0.035	0.239
-237.873	160.876	0.050	0.069
-236.859	800.000	0.051	0.180
-235.844	-200.000	-0.032	-0.218
-234.830	335.539	0.126	0.241
-233.815	110.375	0.062	0.074
-232.800	152.968	-0.106	-0.143
-231.786	-170.434	0.057	0.002
-230.771	-200.000	-0.029	0.323
-229.757	-92.188	-0.128	-0.036
-228.742	467.561	0.121	0.269
-227.727	196.513	0.030	0.046
-226.713	83.176	-0.140	0.150
-225.698	563.386	-0.115	0.276
-224.684	-37.655	0.419	0.221
-223.669	34.936	0.075	-0.064
-222.655	800.000	0.036	0.118
-221.640	148.166	0.252	-0.336
-220.625	-89.070	-0.111	-0.033
-219.611	-90.602	0.307	0.087
-218.596	-106.877	0.323	0.071
-217.582	554.377	-0.101	0.241
-216.567	87.646	0.178	0.195
-215.552	250.947	0.120	0.201
-214.538	47.096	0.258	0.237
-213.523	-98.190	-0.135	-0.034
-212.509	-108.415	-0.159	-0.034
-211.494	-124.182	0.241	-0.037
-210.479	256.842	-0.124	-0.209
-209.465	414.764	0.302	0.634
-208.450	44.973	0.234	0.213
-207.436	381.165	0.108	0.219
-206.421	130.114	0.121	-0.152
-205.406	201.171	0.058	-0.087
-204.392	-107.488	0.134	0.029
-203.377	800.000	-0.038	-0.135
-202.363	39.678	-0.142	0.126
-201.348	177.644	-0.291	-0.418
-200.333	-87.132	0.063	0.019
-199.319	25.120	-0.284	-0.233
-198.304	-134.433	-0.061	-0.007
-197.290	-79.455	-0.203	0.068
-196.275	127.596	0.302	0.379
-195.260	800.000	-0.099	0.385
-194.246	-108.124	0.387	-0.083
-193.231	25.580	-0.165	-0.135
-192.217	205.005	-0.252	0.385
-191.202	800.000	-0.130	-0.431
-190.187	-28.807	0.203	0.115
-189.173	97.018	0.116	0.131
-188.158	797.316	-0.067	-0.182
-187.144	32.106	0.079	-0.068
-186.129	-110.509	0.254	-0.052
-185.114	-200.000	0.015	0.070
-184.100	81.754	-0.096	0.102
-183.085	-144.901	-0.127	-0.011
-182.071	-149.016	0.427	-0.034
-181.056	-114.221	0.068	0.013
-180.042	-112.683	-0.421	0.082
-179.027	31.324	0.133	0.113
-178.012	-200.000	0.021	-0.230
-176.998	4.513	-0.199	-0.144
-175.983	374.341	-0.155	-0.311
-174.969	-200.000	0.240	-0.000
-173.954	3.467	0.101	0.073
-172.939	-21.706	-0.312	0.187
-171.925	-200.000	-0.030	0.236
-170.910	800.000	0.071	-0.259
-169.896	-52.256	0.166	0.076
-168.881	-94.501	0.068	0.018
-167.866	242.576	-0.142	-0.235
-166.852	-48.082	0.462	0.220
-165.837	129.621	0.181	-0.228
-164.823	-120.279	-0.240	0.040
-163.808	-54.075	0.234	0.105
-162.793	152.169	0.243	0.326
-161.779	-200.000	0.003	-0.131
-160.764	-200.000	0.004	0.104
-159.750	-106.284	-0.123	-0.027
-158.735	2.425	0.152	0.109
-157.720	42.559	0.190	0.170
-156.706	-200.000	0.058	0.342
-155.691	68.614	-0.063	0.063
-154.677	75.437	-0.225	0.233
-153.662	-200.000	-0.015	0.097
-152.647	20.645	-0.136	-0.109
-151.633	-200.000	0.013	-0.173
-150.618	-132.068	0.294	0.038
-149.604	-10.024	-0.088	-0.058
-148.589	353.224	-0.163	-0.319
-147.574	-55.179	-0.319	0.141
-146.560	-5.576	0.030	0.020
-145.545	-200.000	-0.040	0.395
-144.531	-169.021	0.428	-0.016
-143.516	-200.000	0.005	0.174
-142.502	-110.704	0.158	-0.032
-141.487	-59.859	0.206	-0.087
-140.472	300.593	-0.098	-0.178
-139.458	120.087	0.227	-0.277
-138.443	697.976	0.122	-0.316
-137.429	-145.590	-0.074	-0.007
-136.414	-39.415	0.299	0.154
-135.399	104.722	0.137	-0.159
-134.385	6.978	-0.173	-0.127
-133.370	-198.753	0.357	0.002
-132.356	49.382	-0.094	0.087
-131.341	-38.150	0.020	-0.011
-130.326	-200.000	0.005	-0.050
-129.312	-117.919	-0.375	-0.066
-128.297	800.000	0.039	-0.119
-127.283	-135.284	-0.183	-0.022
-126.268	-50.907	0.106	-0.049
-125.253	198.715	-0.077	0.116
-124.239	569.684	-0.054	0.130
-123.224	353.910	-0.053	-0.104
-122.210	-96.829	-0.159	0.041
