DTS Sentinel unit serial number:	SN413079Multiplexer serial number:	ORYXHardware model number:	OX4-SRSoftware version number:	ORYX F/W v4.00 Oryx Data Collector v3.7.2.0data status	okinstallation	princeton_trtdifferential loss correction	single-endedforward channel	channel 1reverse channel	N/Adate	2019/09/16time	19:54:35forward acquisition time	60.00reverse acquisition time	0.00gamma	496.2192k internal	0.2319k external	0.2319temperature offset calibration	0.9950default loss term (dB/km)	0.3790temperature slope calibration	1.0000multiplexer offset coefficient	1.0000multiplexer slope coefficient	1.0000fibre end	0.00T internal ref (°C)	33.58T ext. ref 1 (°C)	0.04T ext. ref 2 (°C)	26.71length (m)	temperature (°C)	Stokes	anti-Stokes-747.200	-200.000	0.004	-0.200
-746.185	800.000	-0.068	0.193
-745.171	41.835	-0.157	-0.144
-744.156	50.967	-0.037	0.035
-743.142	33.551	0.187	-0.164
-742.127	205.740	-0.027	0.043
-741.112	-57.705	-0.165	0.073
-740.098	-200.000	0.074	0.417
-739.083	-39.634	-0.313	0.165
-738.069	-200.000	0.018	-0.318
-737.054	-200.000	-0.038	-0.268
-736.039	115.684	-0.147	-0.182
-735.025	283.209	0.079	0.144
-734.010	800.000	-0.060	0.180
-732.996	-141.466	-0.390	0.040
-731.981	122.727	0.117	-0.148
-730.966	228.907	0.038	-0.063
-729.952	800.000	-0.075	0.211
-728.937	305.512	0.122	-0.229
-727.923	45.693	-0.208	0.194
-726.908	-200.000	0.002	-0.048
-725.894	-20.974	0.174	0.108
-724.879	-159.906	0.172	-0.010
-723.864	2.924	-0.214	-0.157
-722.850	127.836	0.116	0.149
-721.835	-100.091	-0.379	-0.095
-720.821	-157.218	0.107	-0.007
-719.806	75.257	0.127	0.135
-718.791	-51.753	0.113	0.053
-717.777	800.000	-0.115	-0.390
-716.762	-200.000	-0.059	-0.294
-715.748	325.391	-0.106	-0.205
-714.733	-200.000	0.028	0.165
-713.718	40.307	-0.185	-0.168
-712.704	177.206	0.144	0.212
-711.689	-200.000	0.001	-0.288
-710.675	68.096	0.218	-0.225
-709.660	-200.000	0.029	0.221
-708.645	-200.000	-0.007	0.380
-707.631	800.000	0.117	-0.357
-706.616	800.000	-0.078	-0.238
-705.602	-147.492	0.223	0.019
-704.587	193.568	0.132	0.202
-703.572	380.687	0.036	-0.074
-702.558	-200.000	-0.023	-0.107
-701.543	-200.000	-0.017	-0.264
-700.529	-103.016	-0.072	-0.017
-699.514	-94.881	-0.300	-0.082
-698.499	800.000	0.023	-0.096
-697.485	16.310	-0.070	-0.056
-696.470	800.000	-0.052	0.217
-695.456	95.917	0.271	0.312
-694.441	-200.000	-0.010	0.154
-693.426	-40.959	-0.440	-0.229
-692.412	-134.513	-0.096	0.012
-691.397	758.355	0.072	0.196
-690.383	11.842	-0.118	0.091
-689.368	-65.276	0.169	0.069
-688.354	800.000	-0.115	0.430
-687.339	-114.266	0.054	0.011
-686.324	-200.000	-0.057	-0.279
-685.310	-200.000	0.086	-0.446
-684.295	-101.675	0.197	0.048
-683.281	24.854	0.200	-0.168
-682.266	31.398	0.066	0.057
-681.251	400.137	0.068	-0.145
-680.237	-51.506	0.042	0.020
-679.222	-200.000	-0.002	0.149
-678.208	185.462	0.117	0.176
-677.193	236.143	0.131	-0.219
-676.178	302.437	-0.066	-0.124
-675.164	49.375	-0.265	0.252
-674.149	-126.557	0.143	0.021
-673.135	495.086	0.083	-0.193
-672.120	-116.934	-0.065	0.012
-671.105	800.000	-0.032	-0.100
-670.091	-87.166	-0.357	-0.109
-669.076	-27.977	-0.154	0.090
-668.062	800.000	-0.042	-0.178
-667.047	-200.000	0.032	0.189
-666.032	435.378	-0.060	-0.131
-665.018	288.742	0.140	0.255
-664.003	-57.726	0.089	-0.039
-662.989	212.293	0.059	-0.094
-661.974	-58.969	0.283	0.123
-660.959	-167.244	0.401	-0.016
-659.945	-200.000	-0.009	0.165
-658.930	-5.188	-0.477	-0.331
-657.916	357.947	-0.041	0.083
-656.901	-159.859	0.075	-0.004
-655.886	254.807	0.123	0.211
-654.872	84.219	-0.171	0.188
-653.857	-200.000	-0.002	0.150
-652.843	-89.769	-0.056	-0.016
-651.828	62.471	-0.201	0.202
-650.814	563.147	0.056	0.135
-649.799	-31.632	-0.307	-0.174
-648.784	402.950	0.142	0.301
-647.770	-200.000	-0.009	-0.531
-646.755	22.520	0.105	-0.086
-645.741	11.189	-0.270	-0.208
-644.726	162.901	-0.104	0.147
-643.711	52.265	0.054	-0.052
-642.697	-200.000	-0.055	-0.349
-641.682	312.594	0.061	-0.116
-640.668	-81.458	-0.178	-0.059
-639.653	127.413	-0.150	0.192
-638.638	31.468	0.169	-0.146
-637.624	800.000	0.098	0.292
-636.609	46.809	-0.239	-0.224
-635.595	65.952	0.241	-0.246
-634.580	-129.517	-0.187	-0.026
-633.565	-84.889	-0.520	-0.164
-632.551	-50.895	-0.120	-0.057
-631.536	-200.000	-0.035	-0.189
-630.522	-81.817	0.197	0.065
-629.507	763.233	-0.058	0.159
-628.492	29.134	0.065	-0.056
-627.478	293.332	0.154	-0.283
-626.463	175.169	-0.130	-0.189
-625.449	78.050	0.042	0.045
-624.434	-200.000	-0.004	-0.034
-623.419	85.186	-0.077	-0.085
-622.405	-200.000	0.010	-0.193
-621.390	-40.726	0.278	0.145
-620.376	-200.000	0.004	-0.216
-619.361	-94.071	-0.146	-0.040
-618.346	-71.946	-0.456	-0.171
-617.332	143.683	-0.043	0.057
-616.317	-12.991	0.135	0.089
-615.303	126.651	-0.049	-0.062
-614.288	-200.000	-0.023	-0.216
-613.273	1.177	-0.207	0.150
-612.259	800.000	-0.068	-0.193
-611.244	-88.501	0.198	-0.059
-610.230	-119.696	0.335	-0.058
-609.215	-200.000	0.022	-0.178
-608.201	287.152	0.056	0.102
-607.186	-200.000	0.004	0.276
-606.171	-62.043	-0.142	0.060
-605.157	-159.079	0.133	0.008
-604.142	92.665	0.148	-0.168
-603.128	211.639	0.157	-0.249
-602.113	-52.888	-0.073	-0.034
-601.098	-200.000	-0.037	-0.250
-600.084	10.403	-0.219	-0.168
-599.069	-137.322	-0.302	-0.034
-598.055	800.000	0.090	-0.258
-597.040	-200.000	-0.037	0.294
-596.025	-115.889	0.441	0.083
-595.011	-139.949	-0.305	0.032
-593.996	-1.068	0.221	0.157
-592.982	246.825	-0.039	0.067
-591.967	-200.000	0.019	0.243
-590.952	399.516	0.065	0.136
-589.938	-16.787	0.123	0.078
-588.923	800.000	0.050	0.172
-587.909	32.246	-0.169	0.147
-586.894	-15.374	0.217	0.139
-585.879	350.293	-0.190	0.377
-584.865	-109.752	0.197	0.042
-583.850	-97.022	0.222	-0.059
-582.836	162.128	0.194	-0.274
-581.821	-37.595	-0.438	0.235
-580.806	-29.575	-0.224	0.129
-579.792	-58.590	0.103	0.045
-578.777	141.207	-0.116	-0.154
-577.763	78.606	0.038	-0.041
-576.748	174.002	-0.029	-0.043
-575.733	195.717	-0.113	-0.172
-574.719	-139.033	-0.400	0.044
-573.704	-200.000	0.025	-0.124
-572.690	116.907	-0.097	-0.119
-571.675	238.629	-0.247	-0.413
-570.661	-200.000	0.028	0.249
-569.646	1.376	-0.065	-0.047
-568.631	22.074	-0.064	0.053
-567.617	3.086	0.221	-0.161
-566.602	270.120	-0.086	0.152
-565.588	-200.000	-0.052	-0.246
-564.573	61.830	0.255	-0.255
-563.558	205.738	0.183	-0.286
-562.544	40.695	-0.091	0.082
-561.529	-44.894	0.033	0.017
-560.515	668.205	-0.053	0.138
-559.500	195.854	0.174	-0.266
-558.485	-200.000	0.074	0.398
-557.471	-143.163	-0.097	-0.009
-556.456	-3.154	-0.325	0.228
-555.442	20.237	0.180	-0.146
-554.427	-68.972	-0.023	0.009
-553.412	-200.000	0.039	0.258
-552.398	-36.359	0.298	0.161
-551.383	67.590	0.048	-0.049
-550.369	-200.000	0.006	0.093
-549.354	-136.360	-0.131	0.015
-548.339	260.437	-0.067	-0.115
-547.325	53.900	-0.059	-0.057
-546.310	98.917	0.264	-0.305
-545.296	-200.000	0.010	0.050
-544.281	496.870	-0.035	0.082
-543.266	-72.701	-0.165	0.061
-542.252	-200.000	-0.005	-0.293
-541.237	15.143	-0.141	-0.111
-540.223	279.358	0.235	0.421
-539.208	58.702	0.122	0.120
-538.193	-170.630	-0.320	0.011
-537.179	13.484	-0.208	-0.162
-536.164	2.146	-0.208	0.151
-535.150	213.974	-0.197	-0.313
-534.135	-200.000	0.067	0.398
-533.121	-200.000	0.014	-0.122
-532.106	-63.930	-0.192	-0.079
-531.091	346.141	-0.163	-0.322
-530.077	-81.951	-0.135	-0.044
-529.062	-200.000	0.012	-0.319
-528.048	-200.000	-0.061	-0.285
-527.033	529.998	0.198	0.469
-526.018	-200.000	0.061	-0.343
-525.004	-55.347	0.159	0.072
-523.989	-200.000	-0.047	0.251
-522.975	800.000	0.058	0.232
-521.960	-200.000	0.005	-0.116
-520.945	800.000	0.110	-0.337
-519.931	-39.631	0.200	0.105
-518.916	49.732	-0.130	0.122
-517.902	-9.370	-0.367	0.246
-516.887	-200.000	0.013	-0.125
-515.872	-21.378	0.309	0.189
-514.858	-200.000	0.005	0.164
-513.843	800.000	0.068	-0.198
-512.829	41.492	0.139	-0.126
-511.814	-123.676	0.194	0.031
-510.799	332.549	0.156	-0.303
-509.785	800.000	-0.099	0.280
-508.770	363.530	-0.069	0.140
-507.756	800.000	-0.106	-0.306
-506.741	-59.698	-0.222	0.096
-505.726	-109.925	0.300	-0.063
-504.712	154.205	0.033	-0.045
-503.697	401.658	-0.053	-0.112
-502.683	173.747	0.116	0.167
-501.668	-125.102	-0.334	-0.051
-500.653	-200.000	0.031	0.291
-499.639	-93.990	-0.127	0.035
-498.624	2.497	0.170	-0.124
-497.610	-10.546	-0.405	0.268
-496.595	800.000	0.040	-0.144
-495.581	-56.294	0.138	-0.062
-494.566	282.267	-0.044	-0.079
-493.551	10.752	-0.083	-0.063
-492.537	221.052	0.126	0.202
-491.522	-137.792	-0.114	-0.013
-490.508	-95.474	0.463	-0.124
-489.493	64.484	0.156	0.157
-488.478	467.439	-0.074	0.167
-487.464	157.237	0.040	0.055
-486.449	215.943	-0.155	0.247
-485.435	61.662	-0.216	0.215
-484.420	183.345	0.067	-0.099
-483.405	-200.000	-0.063	-0.340
-482.391	1.024	-0.329	-0.236
-481.376	-78.635	-0.079	0.027
-480.362	-87.538	-0.372	0.113
-479.347	-200.000	0.022	0.365
-478.332	-200.000	0.021	0.252
-477.318	-99.480	0.248	0.062
-476.303	-95.745	0.158	0.042
-475.289	-133.280	-0.376	0.048
-474.274	-11.405	-0.263	-0.173
-473.259	300.783	-0.168	-0.310
-472.245	-200.000	-0.016	-0.295
-471.230	-78.482	0.290	-0.100
-470.216	226.357	-0.107	-0.174
-469.201	800.000	-0.033	-0.105
-468.186	-200.000	0.011	0.112
-467.172	-200.000	0.034	0.251
-466.157	289.917	-0.080	0.146
-465.143	800.000	-0.114	0.452
-464.128	-60.401	0.259	-0.110
-463.113	-119.500	0.153	-0.027
-462.099	53.774	-0.042	-0.041
-461.084	211.927	0.258	-0.406
-460.070	-159.585	-0.204	0.011
-459.055	800.000	-0.044	0.150
-458.040	6.853	0.127	-0.095
-457.026	800.000	-0.025	0.091
-456.011	-113.195	-0.150	-0.030
-454.997	-200.000	-0.008	-0.061
-453.982	-62.982	-0.251	-0.104
-452.968	-42.969	0.119	-0.060
-451.953	8.005	0.161	0.121
-450.938	-200.000	0.010	0.104
-449.924	-10.758	0.346	0.229
-448.909	-96.908	0.270	0.071
-447.895	174.235	-0.048	-0.069
-446.880	-200.000	0.003	0.151
-445.865	-93.265	-0.223	-0.062
-444.851	-114.650	0.268	-0.051
-443.836	343.476	-0.026	0.052
-442.822	104.093	0.157	0.185
-441.807	73.971	-0.183	0.192
-440.792	15.049	0.250	-0.196
-439.778	800.000	-0.020	-0.062
-438.763	75.158	-0.139	0.146
-437.749	-3.888	0.152	0.105
-436.734	-159.278	-0.061	0.003
-435.719	800.000	0.033	0.103
-434.705	97.662	-0.104	0.120
-433.690	543.806	0.036	-0.087
-432.676	-101.961	0.337	0.081
-431.661	-64.173	0.318	0.129
-430.646	431.632	0.058	-0.126
-429.632	-43.482	-0.370	-0.187
-428.617	-129.090	-0.158	0.022
-427.603	343.707	0.159	0.311
-426.588	-200.000	-0.078	0.393
-425.573	-199.186	0.194	-0.001
-424.559	16.365	0.070	0.056
-423.544	-19.402	-0.212	0.131
-422.530	33.677	0.174	-0.151
-421.515	-126.385	0.221	0.033
-420.500	315.066	0.109	0.206
-419.486	-158.292	0.460	0.027
-418.471	800.000	-0.039	0.140
-417.457	-81.951	-0.197	0.064
-416.442	-200.000	-0.019	0.115
-415.428	3.084	0.091	0.066
-414.413	-64.498	0.252	-0.102
-413.398	164.464	0.093	0.131
-412.384	-46.980	-0.196	-0.096
-411.369	151.583	0.114	0.156
-410.355	800.000	-0.085	0.270
-409.340	660.581	-0.070	-0.180
-408.325	-91.819	-0.204	0.058
-407.311	-163.615	-0.221	0.010
-406.296	102.416	-0.089	-0.104
-405.282	-9.749	-0.168	-0.112
-404.267	800.000	-0.144	-0.411
-403.252	-11.458	0.250	-0.164
-402.238	-19.272	-0.146	0.091
-401.223	-200.000	0.012	0.104
-400.209	569.480	0.035	-0.086
-399.194	-34.625	0.543	-0.297
-398.179	16.244	-0.130	0.103
-397.165	800.000	-0.041	-0.141
-396.150	89.017	-0.142	0.158
-395.136	430.745	-0.028	-0.061
-394.121	-41.043	0.197	-0.101
-393.106	-200.000	0.006	0.170
-392.092	-7.287	-0.150	-0.101
-391.077	42.072	0.308	-0.279
-390.063	-90.579	0.219	-0.063
-389.048	800.000	-0.104	0.321
-388.033	220.007	0.135	-0.216
-387.019	46.187	-0.135	0.125
-386.004	139.017	0.080	-0.104
-384.990	-68.798	-0.215	-0.083
-383.975	-120.853	0.164	-0.028
-382.960	800.000	0.023	-0.094
-381.946	4.284	0.278	-0.203
-380.931	-54.113	-0.047	0.021
-379.917	-126.289	0.357	0.053
-378.902	-200.000	0.045	-0.226
-377.888	800.000	0.035	-0.127
-376.873	800.000	-0.101	-0.285
-375.858	800.000	0.082	-0.270
-374.844	754.883	-0.113	0.305
-373.829	-200.000	0.004	-0.159
-372.815	-200.000	0.022	-0.115
-371.800	395.583	-0.144	0.300
-370.785	-4.286	-0.117	-0.081
-369.771	-130.198	0.250	-0.034
-368.756	-22.980	-0.216	-0.130
-367.742	-21.662	-0.138	-0.083
-366.727	44.612	0.035	-0.032
-365.712	-200.000	-0.014	-0.186
-364.698	-103.485	0.169	0.040
-363.683	800.000	0.082	-0.306
-362.669	-85.879	0.176	-0.054
-361.654	21.404	-0.176	-0.143
-360.639	-200.000	0.041	-0.231
-359.625	-192.301	-0.426	-0.004
-358.610	-82.152	-0.053	0.017
-357.596	140.724	-0.087	-0.114
-356.581	82.381	-0.144	0.156
-355.566	-89.219	-0.115	-0.034
-354.552	-143.062	0.181	0.017
-353.537	10.011	-0.097	0.073
-352.523	-200.000	-0.008	0.099
-351.508	-89.794	-0.195	0.057
-350.493	522.098	0.060	-0.140
-349.479	70.528	0.241	0.248
-348.464	-150.964	0.237	-0.018
-347.450	-75.439	0.248	-0.088
-346.435	-98.062	0.098	-0.025
-345.420	246.414	0.189	-0.318
-344.406	59.493	0.136	0.134
-343.391	305.070	-0.070	0.129
-342.377	66.715	-0.257	-0.261
-341.362	10.646	0.040	0.031
-340.348	67.104	-0.169	0.172
-339.333	-200.000	0.002	0.127
-338.318	365.995	-0.100	-0.200
-337.304	-52.751	-0.096	0.044
-336.289	-37.372	-0.103	0.055
-335.275	-136.511	-0.184	0.021
-334.260	799.910	-0.155	-0.426
-333.245	800.000	0.052	0.225
-332.231	-161.079	0.334	0.017
-331.216	800.000	0.058	-0.209
-330.202	800.000	-0.145	0.487
-329.187	262.907	0.119	0.206
-328.172	800.000	-0.139	0.539
-327.158	-58.569	0.181	-0.078
-326.143	-193.631	-0.088	0.001
-325.129	-89.828	0.204	0.059
-324.114	-200.000	0.068	0.415
-323.099	-22.283	0.349	-0.211
-322.085	-200.000	0.003	0.070
-321.070	-80.366	0.217	0.072
-320.056	-200.000	-0.050	0.227
-319.041	473.140	0.038	0.085
-318.026	-200.000	0.041	-0.220
-317.012	246.315	0.077	0.128
-315.997	453.587	0.175	0.386
-314.983	800.000	0.026	0.103
-313.968	-118.952	-0.117	-0.020
-312.953	-200.000	-0.038	0.207
-311.939	15.286	0.125	-0.098
-310.924	-200.000	0.016	-0.281
-309.910	-70.303	0.326	-0.123
-308.895	5.970	0.224	0.165
-307.880	77.257	-0.046	-0.049
-306.866	800.000	-0.043	-0.120
-305.851	-15.315	0.267	-0.170
-304.837	-200.000	0.030	0.173
-303.822	156.886	-0.349	0.479
-302.807	-111.542	-0.121	-0.024
-301.793	-67.112	-0.173	-0.068
-300.778	-200.000	0.042	-0.212
-299.764	-200.000	0.010	-0.270
-298.749	-175.723	-0.056	-0.001
-297.735	-37.640	-0.180	-0.095
-296.720	-7.914	-0.065	0.044
-295.705	154.046	0.196	0.267
-294.691	-200.000	-0.037	0.198
-293.676	-200.000	0.029	-0.186
-292.662	800.000	0.040	-0.170
-291.647	717.179	-0.061	0.162
-290.632	-200.000	0.013	0.102
-289.618	800.000	0.075	0.242
-288.603	-200.000	-0.008	0.059
-287.589	-87.638	0.178	-0.053
-286.574	38.120	-0.102	0.090
-285.559	-33.020	0.131	0.072
-284.545	-65.769	0.107	-0.042
-283.530	101.120	0.226	-0.261
-282.516	117.266	-0.219	0.267
-281.501	800.000	-0.049	-0.169
-280.486	-200.000	0.010	0.163
-279.472	-200.000	-0.031	-0.352
-278.457	-200.000	-0.001	-0.251
-277.443	-91.820	-0.116	-0.033
-276.428	-9.759	0.227	-0.150
-275.413	58.329	0.039	0.038
-274.399	800.000	-0.061	-0.183
-273.384	-200.000	-0.012	0.205
-272.370	-200.000	0.000	-0.034
-271.355	-110.058	-0.399	-0.083
-270.340	-200.000	-0.037	-0.183
-269.326	-82.038	-0.225	-0.073
-268.311	116.576	0.355	-0.433
-267.297	-200.000	0.018	0.374
-266.282	-33.298	-0.158	0.087
-265.267	11.458	0.187	-0.143
-264.253	-70.567	-0.214	-0.080
-263.238	-200.000	0.030	-0.259
-262.224	129.741	0.028	-0.035
-261.209	-13.219	0.325	-0.210
-260.195	-66.250	-0.166	0.065
-259.180	-89.046	-0.235	-0.069
-258.165	-33.659	-0.151	0.083
-257.151	150.707	0.090	-0.121
-256.136	125.642	0.221	-0.277
-255.122	164.605	-0.286	0.400
-254.107	-107.645	0.394	0.085
-253.092	574.730	-0.225	0.545
-252.078	-200.000	-0.003	0.034
-251.063	-200.000	0.038	0.249
-250.049	800.000	-0.060	0.210
-249.034	-83.385	0.178	0.057
-248.019	505.521	-0.064	-0.147
-247.005	563.166	0.023	0.056
-245.990	-53.484	0.215	-0.098
-244.976	-17.674	-0.175	0.109
-243.961	-93.983	0.168	0.046
-242.946	800.000	0.017	-0.066
-241.932	800.000	0.072	0.223
-240.917	-200.000	0.012	0.078
-239.903	0.846	0.069	-0.049
-238.888	800.000	-0.056	-0.161
-237.873	-49.447	0.478	0.226
-236.859	-200.000	-0.014	0.086
-235.844	56.707	-0.294	0.284
-234.830	265.430	0.094	0.162
-233.815	-32.578	-0.056	-0.031
-232.800	-35.659	0.091	0.049
-231.786	-61.777	0.286	0.119
-230.771	-200.000	-0.045	0.314
-229.757	18.716	-0.161	-0.128
-228.742	-120.526	0.326	0.055
-227.727	-41.715	0.316	-0.161
-226.713	393.022	-0.068	-0.141
-225.698	-200.000	0.019	0.133
-224.684	-31.992	0.140	-0.078
-223.669	119.372	-0.141	-0.173
-222.655	613.596	0.061	-0.151
-221.640	-69.087	-0.261	-0.100
-220.625	202.489	-0.126	0.193
-219.611	367.741	0.051	-0.102
-218.596	-83.647	-0.098	-0.031
-217.582	-139.596	-0.202	0.021
-216.567	-4.336	-0.446	0.306
-215.552	-112.151	0.325	-0.065
-214.538	-200.000	-0.016	-0.109
-213.523	-120.519	0.139	-0.023
-212.509	-131.665	0.148	-0.019
-211.494	-78.706	-0.222	0.075
-210.479	-188.964	0.348	0.004
-209.465	-122.235	-0.352	-0.057
-208.450	-200.000	-0.056	0.289
-207.436	-200.000	-0.002	0.139
-206.421	257.505	-0.114	0.195
-205.406	351.768	0.109	-0.215
-204.392	-200.000	0.017	-0.218
-203.377	51.837	0.151	0.142
-202.363	800.000	0.108	0.311
-201.348	-14.898	-0.118	0.075
-200.333	-72.581	0.250	-0.091
-199.319	-200.000	0.042	0.245
-198.304	272.542	-0.060	0.105
-197.290	-14.958	-0.248	-0.157
-196.275	-79.926	-0.223	0.074
-195.260	-89.601	0.292	0.085
-194.246	-200.000	0.024	-0.141
-193.231	-148.256	-0.335	0.027
-192.217	-200.000	-0.298	-0.000
-191.202	-53.761	0.087	0.039
-190.187	-144.056	-0.042	0.004
-189.173	-105.199	0.279	-0.063
-188.158	-21.070	0.061	0.037
-187.144	11.239	0.140	0.106
-186.129	-155.910	0.144	-0.009
-185.114	-55.182	-0.181	-0.080
-184.100	463.291	-0.055	-0.121
-183.085	-64.117	0.158	-0.064
-182.071	-120.860	-0.449	-0.075
-181.056	-28.581	0.227	-0.129
-180.042	108.709	-0.168	-0.198
-179.027	-200.000	-0.028	-0.275
-178.012	-63.638	0.266	0.108
-176.998	-60.324	0.139	-0.059
-175.983	163.892	0.133	-0.186
-174.969	-98.528	-0.276	0.070
-173.954	504.540	0.149	0.341
-172.939	-98.631	-0.274	-0.069
-171.925	582.782	0.120	0.292
-170.910	77.790	0.065	0.069
-169.896	362.366	0.164	0.325
-168.881	-2.542	0.139	-0.096
-167.866	-200.000	0.017	0.083
-166.852	-200.000	-0.007	0.290
-165.837	55.607	0.094	0.090
-164.823	-25.661	-0.211	0.123
-163.808	198.700	-0.079	0.120
-162.793	-120.346	-0.223	0.038
-161.779	-20.578	0.054	-0.033
-160.764	538.544	0.139	-0.327
-159.750	218.803	-0.040	-0.064
-158.735	-72.270	-0.570	-0.209
-157.720	678.274	-0.074	0.191
-156.706	38.552	-0.159	0.140
-155.691	-137.591	-0.176	0.020
-154.677	140.683	-0.181	0.237
-153.662	22.972	-0.147	0.119
-152.647	-200.000	-0.004	-0.219
-151.633	-200.000	-0.068	-0.433
-150.618	-200.000	0.002	-0.049
-149.604	511.682	-0.075	-0.173
-148.589	-50.104	-0.376	0.176
-147.574	-196.839	0.344	0.002
-146.560	733.104	-0.127	-0.337
-145.545	211.569	0.124	0.193
-144.531	-26.181	-0.099	-0.057
-143.516	132.331	0.289	-0.368
-142.502	-200.000	0.020	-0.111
-141.487	115.521	-0.277	0.334
-140.472	-200.000	-0.015	0.170
-139.458	-132.246	-0.120	-0.015
-138.443	68.154	-0.096	-0.097
-137.429	33.158	0.070	-0.060
-136.414	-10.439	0.181	-0.119
-135.399	86.356	-0.005	0.005
-134.385	-17.307	0.142	0.088
-133.370	17.296	-0.121	-0.095
-132.356	-33.066	0.109	-0.060
-131.341	24.228	-0.189	0.154
-130.326	-36.859	0.373	0.197
-129.312	14.280	-0.256	-0.197
-128.297	-62.637	0.221	-0.091
-127.283	-200.000	-0.205	-0.000
-126.268	-133.449	0.296	-0.037
-125.253	695.706	-0.151	0.391
-124.239	-153.424	-0.132	-0.009
-123.224	75.716	0.173	0.180
-122.210	131.611	0.107	-0.136
-121.195	-113.985	0.149	-0.029
