DTS Sentinel unit serial number:	SN413079Multiplexer serial number:	ORYXHardware model number:	OX4-SRSoftware version number:	ORYX F/W v4.00 Oryx Data Collector v3.7.2.0data status	okinstallation	princeton_trtdifferential loss correction	single-endedforward channel	channel 1reverse channel	N/Adate	2019/09/14time	23:02:35forward acquisition time	60.00reverse acquisition time	0.00gamma	496.2192k internal	0.2319k external	0.2319temperature offset calibration	1.0004default loss term (dB/km)	0.3790temperature slope calibration	1.0000multiplexer offset coefficient	1.0000multiplexer slope coefficient	1.0000fibre end	0.00T internal ref (°C)	32.44T ext. ref 1 (°C)	4.68T ext. ref 2 (°C)	27.46length (m)	temperature (°C)	Stokes	anti-Stokes-747.200	23.242	-0.061	0.051
-746.185	800.000	0.126	0.434
-745.171	-52.775	0.115	0.054
-744.156	-200.000	0.029	0.187
-743.142	310.795	0.122	0.232
-742.127	14.981	-0.111	0.088
-741.112	479.094	-0.019	0.045
-740.098	381.774	-0.046	0.096
-739.083	-108.374	-0.332	0.072
-738.069	-182.553	-0.179	-0.003
-737.054	275.476	-0.061	0.109
-736.039	369.132	-0.055	0.113
-735.025	-18.013	0.413	0.261
-734.010	-200.000	0.004	-0.107
-732.996	136.867	-0.074	0.097
-731.981	76.255	-0.170	0.182
-730.966	-168.969	-0.297	0.011
-729.952	-200.000	-0.028	0.409
-728.937	-18.878	-0.249	0.157
-727.923	46.894	0.255	0.239
-726.908	215.840	-0.080	-0.129
-725.894	-25.974	-0.211	-0.126
-724.879	-1.828	-0.077	0.055
-723.864	-154.335	-0.114	-0.008
-722.850	-61.928	0.076	0.032
-721.835	-125.628	0.148	0.023
-720.821	82.409	-0.192	-0.211
-719.806	800.000	-0.082	-0.249
-718.791	-105.834	-0.235	0.054
-717.777	-104.968	-0.150	-0.035
-716.762	206.586	-0.222	0.350
-715.748	800.000	0.003	-0.007
-714.733	349.977	-0.114	0.228
-713.718	800.000	-0.028	0.089
-712.704	364.623	-0.145	0.294
-711.689	-115.655	-0.251	0.048
-710.675	-46.492	-0.288	-0.143
-709.660	800.000	0.017	0.062
-708.645	633.854	0.057	-0.146
-707.631	137.704	-0.102	-0.135
-706.616	223.261	-0.109	0.178
-705.602	-200.000	-0.003	0.171
-704.587	-105.141	-0.097	-0.022
-703.572	663.325	0.082	0.214
-702.558	-68.243	0.058	0.023
-701.543	-8.250	0.245	-0.166
-700.529	536.491	0.046	0.109
-699.514	-179.542	-0.368	0.008
-698.499	-35.427	-0.176	0.096
-697.485	-42.191	0.315	0.162
-696.470	800.000	-0.049	-0.182
-695.456	-42.622	-0.116	-0.060
-694.441	-108.683	0.198	-0.043
-693.426	-36.606	-0.280	0.152
-692.412	-102.864	-0.200	-0.048
-691.397	352.399	0.181	-0.362
-690.383	-161.352	0.272	0.014
-689.368	-200.000	0.064	0.410
-688.354	33.744	0.125	0.110
-687.339	-132.506	-0.633	0.082
-686.324	-75.337	-0.195	0.070
-685.310	-48.171	0.162	0.079
-684.295	-200.000	-0.017	-0.118
-683.281	800.000	0.034	-0.108
-682.266	-78.696	-0.232	-0.080
-681.251	60.372	0.160	0.160
-680.237	-200.000	0.049	0.232
-679.222	-128.507	0.328	0.047
-678.208	52.508	-0.155	0.150
-677.193	283.364	0.074	-0.135
-676.178	390.514	-0.035	-0.073
-675.164	-17.357	0.139	-0.088
-674.149	-116.374	-0.447	-0.083
-673.135	152.702	-0.219	-0.302
-672.120	6.455	0.215	0.161
-671.105	-92.077	0.221	-0.063
-670.091	-129.943	0.263	0.036
-669.076	150.434	-0.218	0.298
-668.062	85.604	-0.178	0.197
-667.047	26.589	0.154	-0.130
-666.032	286.884	-0.124	-0.226
-665.018	-200.000	0.066	-0.315
-664.003	-200.000	0.001	0.325
-662.989	85.431	0.265	-0.293
-661.974	150.338	-0.287	-0.392
-660.959	-200.000	-0.024	0.200
-659.945	40.118	-0.210	0.190
-658.930	9.209	0.232	-0.177
-657.916	41.985	-0.325	-0.297
-656.901	100.196	-0.214	-0.250
-655.886	-133.563	-0.363	0.046
-654.872	-92.292	0.055	-0.015
-653.857	205.625	-0.145	-0.227
-652.843	40.337	0.131	-0.118
-651.828	25.722	0.184	-0.155
-650.814	-132.688	0.239	0.031
-649.799	800.000	0.094	0.275
-648.784	77.752	0.154	0.166
-647.770	-103.231	0.070	-0.017
-646.755	89.258	0.177	-0.198
-645.741	-91.490	0.199	-0.057
-644.726	-84.786	-0.068	0.022
-643.711	61.092	-0.030	-0.030
-642.697	126.429	0.153	-0.195
-641.682	-138.125	-0.178	-0.020
-640.668	-94.594	0.135	0.037
-639.653	202.640	-0.203	-0.316
-638.638	800.000	-0.099	-0.416
-637.624	782.691	-0.044	0.122
-636.609	202.562	0.039	-0.061
-635.595	-178.943	-0.315	-0.007
-634.580	-36.716	0.232	-0.126
-633.565	800.000	-0.034	-0.144
-632.551	-106.746	-0.198	0.044
-631.536	800.000	0.091	0.253
-630.522	-71.307	-0.102	0.039
-629.507	13.674	-0.187	0.146
-628.492	-200.000	0.053	-0.405
-627.478	78.927	-0.078	-0.084
-626.463	-148.084	-0.232	-0.019
-625.449	-153.762	-0.237	-0.016
-624.434	81.781	-0.221	0.241
-623.419	-200.000	0.008	0.147
-622.405	235.698	0.216	0.359
-621.390	-23.545	0.240	-0.145
-620.376	-161.862	0.138	-0.007
-619.361	133.772	-0.149	-0.194
-618.346	16.513	-0.230	-0.183
-617.332	800.000	-0.052	-0.191
-616.317	800.000	0.015	-0.048
-615.303	389.989	0.017	0.036
-614.288	614.276	-0.060	-0.151
-613.273	-131.755	0.344	-0.045
-612.259	-90.073	0.068	0.020
-611.244	-128.508	0.214	-0.030
-610.230	252.790	-0.061	0.105
-609.215	-51.744	0.247	-0.116
-608.201	-20.111	-0.089	0.055
-607.186	12.344	0.319	0.247
-606.171	-130.982	0.134	0.018
-605.157	723.286	-0.061	0.165
-604.142	93.447	0.091	-0.104
-603.128	-106.033	-0.324	0.073
-602.113	59.722	-0.069	-0.068
-601.098	514.410	-0.116	-0.273
-600.084	367.747	0.076	0.154
-599.069	-33.054	0.067	0.038
-598.055	-33.923	0.134	0.074
-597.040	67.956	-0.018	0.018
-596.025	39.496	-0.090	0.081
-595.011	-41.850	0.374	-0.193
-593.996	-92.480	-0.206	0.058
-592.982	128.690	0.166	0.213
-591.967	-82.013	-0.426	0.140
-590.952	219.497	0.108	0.173
-589.938	800.000	-0.018	0.055
-588.923	34.266	0.121	-0.106
-587.909	237.313	-0.115	-0.191
-586.894	17.226	0.309	0.246
-585.879	60.771	0.301	-0.300
-584.865	800.000	-0.007	0.027
-583.850	-50.983	0.200	-0.094
-582.836	-81.869	-0.198	-0.065
-581.821	-200.000	-0.013	-0.281
-580.806	-200.000	0.003	0.177
-579.792	6.438	0.359	-0.268
-578.777	-76.321	-0.141	-0.050
-577.763	-64.798	0.092	-0.037
-576.748	149.466	0.124	0.169
-575.733	800.000	0.064	0.201
-574.719	-88.130	-0.156	-0.047
-573.704	-27.431	0.131	-0.076
-572.690	-72.734	0.264	-0.098
-571.675	6.579	-0.233	0.174
-570.661	31.952	0.255	0.221
-569.646	-101.071	-0.364	-0.090
-568.631	-27.414	-0.152	0.089
-567.617	477.865	0.056	-0.128
-566.602	126.357	-0.327	-0.416
-565.588	83.153	0.090	0.098
-564.573	-200.000	-0.113	-0.733
-563.558	137.798	0.072	0.095
-562.544	57.813	0.179	0.176
-561.529	-200.000	-0.038	-0.331
-560.515	33.186	0.263	-0.229
-559.500	-64.315	-0.149	-0.061
-558.485	-200.000	-0.065	0.294
-557.471	-200.000	-0.035	-0.322
-556.456	707.284	-0.078	0.206
-555.442	-81.676	0.223	-0.074
-554.427	417.876	-0.233	-0.499
-553.412	42.848	-0.037	-0.034
-552.398	-76.751	-0.243	-0.085
-551.383	-70.209	-0.227	-0.086
-550.369	-43.175	-0.171	-0.087
-549.354	90.004	0.211	-0.237
-548.339	30.305	-0.204	-0.175
-547.325	-120.871	0.059	0.010
-546.310	-185.657	0.115	0.002
-545.296	27.678	0.106	-0.090
-544.281	161.210	0.082	-0.116
-543.266	-200.000	0.002	0.480
-542.252	-75.288	-0.101	-0.036
-541.237	-200.000	0.022	0.194
-540.223	-200.000	0.036	-0.220
-539.208	-200.000	-0.046	-0.247
-538.193	-200.000	-0.024	-0.222
-537.179	800.000	-0.059	0.221
-536.164	45.764	0.272	0.253
-535.150	-67.278	-0.367	-0.145
-534.135	-129.940	0.074	0.010
-533.121	288.404	0.051	0.092
-532.106	-44.293	-0.223	0.112
-531.091	-167.770	-0.162	-0.006
-530.077	45.351	-0.237	-0.219
-529.062	4.675	0.101	-0.074
-528.048	70.684	-0.239	-0.248
-527.033	26.524	-0.040	-0.034
-526.018	74.996	-0.104	0.109
-525.004	-200.000	-0.027	-0.242
-523.989	-52.779	0.185	-0.086
-522.975	-71.911	0.097	0.036
-521.960	-124.508	0.253	0.039
-520.945	16.199	0.228	0.180
-519.931	-63.892	-0.202	0.083
-518.916	-16.093	-0.215	-0.137
-517.902	-200.000	0.004	0.103
-516.887	800.000	0.064	-0.197
-515.872	-98.615	0.460	-0.118
-514.858	800.000	0.042	-0.148
-513.843	20.959	0.090	-0.073
-512.829	-96.850	0.262	-0.069
-511.814	-200.000	0.011	0.191
-510.799	55.548	-0.116	0.113
-509.785	-138.888	0.221	-0.024
-508.770	-78.076	0.050	0.017
-507.756	-15.620	0.100	0.064
-506.741	-200.000	0.033	-0.276
-505.726	-116.491	0.488	-0.090
-504.712	-200.000	-0.005	0.126
-503.697	-200.000	-0.054	0.278
-502.683	133.480	-0.101	0.131
-501.668	21.419	-0.159	-0.130
-500.653	800.000	-0.066	-0.268
-499.639	48.737	-0.118	-0.111
-498.624	763.855	0.021	-0.058
-497.610	-200.000	0.002	0.333
-496.595	270.471	0.164	0.288
-495.581	-200.000	0.007	-0.052
-494.566	538.293	-0.055	0.130
-493.551	101.397	-0.159	-0.185
-492.537	131.606	0.120	-0.154
-491.522	-200.000	0.036	-0.159
-490.508	-72.644	0.008	0.003
-489.493	-200.000	0.007	-0.376
-488.478	233.182	0.072	-0.119
-487.464	-200.000	-0.148	0.001
-486.449	-5.434	-0.278	-0.191
-485.435	85.014	-0.050	-0.055
-484.420	-12.577	0.243	-0.159
-483.405	79.489	0.134	0.144
-482.391	303.099	0.041	-0.076
-481.376	-200.000	-0.023	-0.117
-480.362	227.100	-0.030	-0.048
-479.347	119.500	-0.262	0.325
-478.332	-88.843	-0.073	0.022
-477.318	32.851	0.180	-0.156
-476.303	-47.579	-0.124	0.061
-475.289	-26.086	0.147	-0.086
-474.274	509.464	-0.092	0.214
-473.259	-45.122	-0.207	-0.103
-472.245	-200.000	0.010	-0.257
-471.230	-51.533	0.163	-0.076
-470.216	-200.000	-0.026	0.194
-469.201	-101.706	0.241	0.058
-468.186	85.943	0.065	0.072
-467.172	800.000	0.065	0.281
-466.157	-45.920	-0.029	0.014
-465.143	-200.000	0.005	-0.060
-464.128	-200.000	0.034	-0.226
-463.113	800.000	0.095	0.311
-462.099	-200.000	0.019	0.281
-461.084	-165.067	-0.024	-0.001
-460.070	58.918	0.386	-0.380
-459.055	-33.269	0.165	0.091
-458.040	-35.208	-0.115	-0.063
-457.026	-109.094	0.175	0.037
-456.011	-68.032	0.139	-0.054
-454.997	-109.946	0.118	-0.025
-453.982	361.712	-0.086	0.172
-452.968	800.000	-0.057	-0.238
-451.953	800.000	-0.031	-0.094
-450.938	49.843	-0.196	0.185
-449.924	-200.000	-0.020	0.176
-448.909	74.678	-0.156	0.164
-447.895	-0.428	0.116	0.082
-446.880	-149.141	-0.210	-0.017
-445.865	82.512	-0.114	-0.124
-444.851	-183.691	0.067	0.001
-443.836	-115.179	0.094	-0.018
-442.822	-90.337	-0.055	-0.016
-441.807	-200.000	-0.013	0.161
-440.792	591.441	-0.040	0.099
-439.778	-200.000	0.001	-0.028
-438.763	-53.242	0.284	0.130
-437.749	90.511	0.337	-0.377
-436.734	50.607	-0.300	-0.284
-435.719	116.026	0.202	0.247
-434.705	-200.000	-0.017	-0.203
-433.690	-97.916	-0.059	-0.015
-432.676	43.610	0.315	-0.288
-431.661	-188.013	-0.200	-0.003
-430.646	145.361	-0.187	0.250
-429.632	-200.000	-0.009	-0.263
-428.617	-40.459	0.168	-0.087
-427.603	14.353	-0.114	0.089
-426.588	-25.883	-0.174	0.102
-425.573	-37.717	-0.199	0.106
-424.559	64.965	-0.086	-0.087
-423.544	132.107	0.181	0.233
-422.530	-28.266	0.174	0.101
-421.515	83.838	0.319	0.348
-420.500	-145.424	0.069	0.006
-419.486	-200.000	-0.049	0.355
-418.471	-97.193	-0.206	-0.054
-417.457	-200.000	-0.002	0.167
-416.442	-72.024	-0.375	-0.139
-415.428	-200.000	0.001	-0.074
-414.413	-143.806	0.023	0.002
-413.398	800.000	-0.055	-0.235
-412.384	-200.000	0.047	0.270
-411.369	-69.041	-0.290	-0.112
-410.355	-116.788	-0.231	-0.042
-409.340	-200.000	-0.051	0.410
-408.325	-19.256	-0.203	0.126
-407.311	304.737	0.063	0.116
-406.296	111.979	-0.046	-0.056
-405.282	800.000	-0.085	0.257
-404.267	-16.816	0.155	0.098
-403.252	698.414	-0.112	-0.293
-402.238	-200.000	-0.027	0.120
-401.223	393.165	0.075	-0.157
-400.209	27.895	-0.322	0.271
-399.194	-71.409	-0.070	0.026
-398.179	92.282	-0.198	-0.223
-397.165	-135.595	-0.279	0.033
-396.150	23.907	-0.216	-0.178
-395.136	-200.000	0.006	-0.061
-394.121	-4.622	0.227	0.156
-393.106	-67.036	-0.370	-0.146
-392.092	-200.000	-0.003	-0.153
-391.077	-200.000	-0.021	0.101
-390.063	20.640	0.010	0.008
-389.048	56.707	0.051	-0.049
-388.033	-112.623	-0.103	0.020
-387.019	56.372	0.100	0.097
-386.004	-38.553	0.221	0.116
-384.990	-108.096	-0.179	0.039
-383.975	-200.000	-0.031	-0.228
-382.960	-27.916	-0.304	-0.175
-381.946	-200.000	-0.002	-0.221
-380.931	-69.334	0.129	0.049
-379.917	-61.407	0.153	-0.064
-378.902	-25.088	-0.307	-0.182
-377.888	8.310	0.086	0.064
-376.873	160.553	0.251	-0.350
-375.858	-7.611	0.062	-0.042
-374.844	175.512	0.140	0.203
-373.829	134.816	0.097	-0.125
-372.815	-136.988	-0.033	0.004
-371.800	-54.308	-0.137	-0.062
-370.785	104.326	-0.191	0.224
-369.771	-12.208	0.138	-0.090
-368.756	-136.967	-0.145	-0.017
-367.742	272.932	-0.148	-0.261
-366.727	-43.634	0.156	-0.078
-365.712	-200.000	0.018	0.175
-364.698	30.664	0.043	-0.037
-363.683	74.772	-0.117	0.123
-362.669	284.413	-0.139	0.249
-361.654	513.393	0.100	-0.232
-360.639	-119.441	0.300	0.052
-359.625	-99.330	-0.251	-0.063
-358.610	-37.084	0.186	0.099
-357.596	-116.792	0.181	-0.033
-356.581	-195.911	0.489	-0.003
-355.566	-200.000	-0.014	0.176
-354.552	81.537	0.297	-0.320
-353.537	691.998	-0.065	0.171
-352.523	800.000	0.036	0.134
-351.508	29.027	0.109	0.092
-350.493	-200.000	0.016	-0.254
-349.479	-144.915	0.264	0.024
-348.464	-172.966	-0.267	-0.008
-347.450	-128.075	-0.164	0.023
-346.435	54.076	-0.172	0.165
-345.420	73.304	0.222	-0.231
-344.406	800.000	-0.046	0.171
-343.391	552.983	0.119	-0.284
-342.377	-135.453	0.381	0.045
-341.362	43.034	-0.025	0.023
-340.348	-104.332	0.165	0.038
-339.333	236.073	-0.141	-0.233
-338.318	404.477	0.133	0.279
-337.304	204.596	-0.103	-0.159
-336.289	-24.835	0.086	0.051
-335.275	-28.833	-0.432	-0.247
-334.260	800.000	0.039	-0.149
-333.245	-60.129	0.175	-0.074
-332.231	169.488	-0.167	-0.237
-331.216	749.941	-0.095	-0.255
-330.202	-83.592	0.050	0.016
-329.187	453.539	0.108	0.237
-328.172	374.851	0.070	-0.141
-327.158	310.209	-0.124	-0.231
-326.143	-200.000	-0.022	0.215
-325.129	-57.284	-0.239	-0.105
-324.114	-49.796	-0.250	-0.118
-323.099	-200.000	0.003	0.184
-322.085	-106.741	-0.262	0.058
-321.070	-137.662	-0.157	-0.018
-320.056	-200.000	0.003	-0.203
-319.041	-125.785	-0.227	0.034
-318.026	78.063	-0.435	0.461
-317.012	-40.405	0.140	-0.072
-315.997	590.354	0.195	0.478
-314.983	800.000	0.045	-0.167
-313.968	450.412	-0.165	-0.362
-312.953	800.000	0.082	0.326
-311.939	-64.874	0.185	-0.074
-310.924	-97.216	0.251	0.065
-309.910	271.727	-0.182	-0.319
-308.895	-200.000	0.021	-0.142
-307.880	-200.000	-0.065	-0.356
-306.866	-108.548	0.515	-0.110
-305.851	-40.429	-0.309	-0.160
-304.837	193.131	0.160	-0.241
-303.822	10.334	0.039	0.029
-302.807	-197.292	-0.158	0.001
-301.793	-200.000	0.063	-0.306
-300.778	-200.000	0.030	-0.278
-299.764	800.000	0.099	0.306
-298.749	169.254	-0.136	-0.193
-297.735	382.940	-0.044	0.090
-296.720	-26.498	-0.271	0.158
-295.705	-2.144	-0.232	0.162
-294.691	-154.246	0.289	0.019
-293.676	193.734	-0.143	-0.215
-292.662	453.743	0.070	-0.155
-291.647	-62.282	0.284	0.117
-290.632	524.587	-0.139	0.324
-289.618	15.477	-0.093	0.072
-288.603	800.000	-0.080	0.278
-287.589	-134.389	0.298	0.036
-286.574	-200.000	0.009	-0.175
-285.559	70.049	-0.126	-0.130
-284.545	122.146	0.070	0.087
-283.530	24.198	-0.223	-0.183
-282.516	74.559	-0.361	0.377
-281.501	-200.000	0.011	0.341
-280.486	395.392	-0.082	-0.170
-279.472	-105.800	-0.320	0.072
-278.457	-200.000	-0.001	0.079
-277.443	-124.376	-0.118	0.018
-276.428	196.388	-0.160	0.242
-275.413	322.203	0.114	-0.216
-274.399	-93.719	-0.246	0.067
-273.384	-200.000	-0.020	0.120
-272.370	553.622	-0.125	0.298
-271.355	-200.000	0.038	0.172
-270.340	-200.000	0.008	-0.428
-269.326	344.630	0.152	0.296
-268.311	-134.989	0.253	0.030
-267.297	90.806	-0.195	0.217
-266.282	-200.000	-0.018	-0.100
-265.267	-135.279	0.153	0.018
-264.253	800.000	0.083	0.269
-263.238	55.236	-0.094	-0.090
-262.224	-40.682	-0.160	0.082
-261.209	-20.316	-0.139	-0.085
-260.195	254.844	-0.079	0.135
-259.180	-44.678	0.093	-0.046
-258.165	-200.000	0.041	-0.195
-257.151	-156.503	0.059	0.004
-256.136	81.412	-0.207	0.222
-255.122	507.691	-0.131	0.301
-254.107	706.665	-0.048	-0.125
-253.092	135.302	-0.158	0.204
-252.078	-200.000	0.014	0.231
-251.063	508.632	0.035	0.081
-250.049	-13.238	0.100	0.065
-249.034	-112.304	-0.228	0.045
-248.019	319.915	-0.133	0.250
-247.005	631.894	-0.096	0.240
-245.990	3.675	0.349	0.253
-244.976	-200.000	0.031	-0.243
-243.961	800.000	0.067	-0.224
-242.946	177.661	-0.045	0.065
-241.932	-30.374	0.067	0.038
-240.917	20.115	-0.104	-0.083
-239.903	33.437	0.291	-0.251
-238.888	515.123	0.029	-0.067
-237.873	16.073	0.192	0.150
-236.859	110.547	0.089	-0.106
-235.844	-69.500	0.158	0.060
-234.830	-200.000	0.004	0.033
-233.815	-89.903	-0.153	0.044
-232.800	-148.131	0.197	0.016
-231.786	-200.000	0.024	0.150
-230.771	-200.000	-0.008	-0.127
-229.757	309.593	-0.075	0.139
-228.742	139.492	0.071	-0.093
-227.727	104.552	-0.141	0.165
-226.713	-84.892	0.314	0.098
-225.698	-200.000	-0.004	0.258
-224.684	217.885	0.188	0.297
-223.669	118.655	-0.080	0.098
-222.655	800.000	0.099	0.365
-221.640	-200.000	-0.004	0.028
-220.625	-146.934	-0.224	0.019
-219.611	-120.120	-0.312	0.053
-218.596	-64.641	0.114	-0.046
-217.582	398.929	-0.047	-0.098
-216.567	414.725	-0.123	0.259
-215.552	-79.832	-0.193	0.064
-214.538	145.483	0.075	0.100
-213.523	-200.000	-0.035	0.318
-212.509	-87.228	0.191	-0.057
-211.494	-73.675	0.138	-0.050
-210.479	110.704	0.182	0.217
-209.465	800.000	-0.033	0.121
-208.450	-8.609	-0.198	0.132
-207.436	-17.709	-0.184	0.115
-206.421	30.778	0.056	-0.047
-205.406	-142.513	0.036	0.004
-204.392	-78.955	0.037	0.012
-203.377	-200.000	-0.006	-0.170
-202.363	583.557	0.075	-0.182
-201.348	13.578	0.036	-0.027
-200.333	53.739	-0.290	0.276
-199.319	800.000	0.088	0.362
-198.304	-99.870	0.344	-0.085
-197.290	360.406	0.148	0.294
-196.275	173.403	0.113	-0.162
-195.260	25.548	-0.130	-0.107
-194.246	71.206	0.086	0.088
-193.231	800.000	-0.028	-0.094
-192.217	173.473	-0.119	0.170
-191.202	-200.000	0.084	0.390
-190.187	-21.850	-0.235	0.142
-189.173	202.846	-0.073	0.112
-188.158	0.165	0.289	0.204
-187.144	-143.426	0.343	-0.032
-186.129	-106.989	0.125	0.027
-185.114	350.471	-0.097	-0.189
-184.100	556.182	-0.085	-0.204
-183.085	-23.672	0.232	-0.137
-182.071	-64.479	0.220	-0.089
-181.056	-200.000	-0.000	-0.131
-180.042	-55.082	-0.067	0.030
-179.027	305.454	-0.046	-0.085
-178.012	-38.523	0.253	0.132
-176.998	213.217	-0.081	0.127
-175.983	-25.398	-0.162	-0.095
-174.969	800.000	0.072	0.253
-173.954	111.511	0.136	0.163
-172.939	76.003	0.112	0.117
-171.925	31.531	-0.307	0.261
-170.910	-64.159	0.098	-0.039
-169.896	-12.469	-0.213	-0.137
-168.881	-70.146	-0.209	-0.079
-167.866	-187.061	0.135	-0.002
-166.852	391.561	0.083	0.171
-165.837	800.000	-0.059	-0.209
-164.823	190.598	0.063	0.094
-163.808	0.890	0.145	-0.103
-162.793	53.848	0.244	-0.232
-161.779	35.552	0.284	-0.246
-160.764	218.787	0.076	-0.120
-159.750	-200.000	-0.016	-0.278
-158.735	149.838	0.226	0.302
-157.720	504.756	-0.102	0.234
-156.706	-72.978	0.187	-0.068
-155.691	-75.722	-0.086	0.030
-154.677	-121.209	-0.357	0.059
-153.662	-165.348	-0.080	-0.003
-152.647	122.869	-0.174	-0.215
-151.633	305.885	-0.110	0.202
-150.618	-133.769	-0.125	0.015
-149.604	800.000	-0.095	0.294
-148.589	-129.679	0.061	0.008
-147.574	111.165	-0.210	-0.250
-146.560	-153.655	0.322	0.022
-145.545	800.000	-0.015	-0.059
-144.531	74.577	0.064	0.067
-143.516	800.000	-0.021	0.064
-142.502	734.498	0.089	-0.235
-141.487	53.802	-0.253	0.240
-140.472	56.142	-0.192	-0.184
-139.458	-39.234	-0.153	-0.080
-138.443	-74.428	0.097	-0.035
-137.429	-130.542	0.288	0.038
-136.414	160.941	-0.198	0.274
-135.399	71.619	-0.113	0.116
-134.385	-60.229	0.088	0.037
-133.370	10.116	0.238	0.179
-132.356	800.000	-0.027	-0.088
-131.341	-129.548	-0.150	0.020
-130.326	800.000	0.059	0.171
-129.312	81.018	0.179	0.191
-128.297	218.131	-0.107	0.168
-127.283	119.115	-0.195	0.238
-126.268	237.322	0.070	-0.115
-125.253	128.794	0.156	0.197
-124.239	-95.197	-0.437	0.116
-123.224	-200.000	-0.048	0.344
-122.210	-59.601	0.215	0.091
-121.195	-105.480	0.143	0.032
-120.180	133.315	0.175	0.224
