DTS Sentinel unit serial number:	SN413079Multiplexer serial number:	ORYXHardware model number:	OX4-SRSoftware version number:	ORYX F/W v4.00 Oryx Data Collector v3.7.2.0data status	okinstallation	princeton_trtdifferential loss correction	single-endedforward channel	channel 1reverse channel	N/Adate	2019/09/10time	20:12:11forward acquisition time	60.00reverse acquisition time	0.00gamma	496.2192k internal	0.2326k external	0.2326temperature offset calibration	0.9939default loss term (dB/km)	0.3790temperature slope calibration	1.0000multiplexer offset coefficient	1.0000multiplexer slope coefficient	1.0000fibre end	0.00T internal ref (°C)	32.37T ext. ref 1 (°C)	-0.30T ext. ref 2 (°C)	25.27length (m)	temperature (°C)	Stokes	anti-Stokes-747.200	100.862	-0.091	-0.106
-746.185	58.530	-0.147	-0.145
-745.171	755.693	-0.008	0.022
-744.156	23.717	-0.181	0.150
-743.142	150.469	0.002	-0.003
-742.127	-33.441	0.122	-0.068
-741.112	-68.551	0.367	-0.143
-740.098	-200.000	0.000	0.140
-739.083	-111.484	0.158	-0.032
-738.069	-13.219	-0.281	0.184
-737.054	-200.000	-0.056	0.305
-736.039	-176.964	-0.276	-0.007
-735.025	-200.000	-0.031	0.484
-734.010	85.312	0.202	0.223
-732.996	-60.181	0.214	0.092
-731.981	54.720	-0.199	-0.193
-730.966	135.540	0.055	-0.073
-729.952	800.000	0.051	0.158
-728.937	134.147	-0.157	-0.206
-727.923	-88.638	-0.209	-0.063
-726.908	-124.422	-0.384	-0.060
-725.894	-200.000	0.039	-0.287
-724.879	800.000	-0.009	-0.034
-723.864	383.005	0.086	-0.178
-722.850	22.647	0.152	0.125
-721.835	-57.343	-0.180	0.080
-720.821	-200.000	-0.020	-0.166
-719.806	70.787	-0.234	-0.245
-718.791	-70.508	-0.160	0.061
-717.777	-26.480	0.160	-0.095
-716.762	86.645	0.271	0.301
-715.748	-122.002	-0.100	0.017
-714.733	-26.001	-0.138	0.082
-713.718	-200.000	-0.038	-0.247
-712.704	-200.000	-0.029	0.204
-711.689	85.571	0.105	0.117
-710.675	3.696	0.124	-0.091
-709.660	-114.673	-0.184	-0.035
-708.645	-158.786	-0.147	0.008
-707.631	-200.000	-0.019	-0.247
-706.616	-9.388	-0.269	0.181
-705.602	-160.212	-0.141	0.008
-704.587	-93.518	-0.498	0.139
-703.572	-114.660	0.212	-0.041
-702.558	376.080	0.094	0.194
-701.543	-129.981	0.358	0.049
-700.529	150.483	0.134	0.183
-699.514	-80.164	0.199	-0.067
-698.499	82.437	-0.062	-0.068
-697.485	332.745	0.096	-0.187
-696.470	-105.987	-0.378	-0.086
-695.456	409.536	-0.060	0.129
-694.441	-126.356	0.163	0.025
-693.426	303.789	0.113	-0.211
-692.412	-35.800	0.201	0.110
-691.397	81.978	0.074	0.080
-690.383	113.661	-0.072	-0.088
-689.368	-200.000	-0.055	-0.371
-688.354	-88.416	-0.210	0.063
-687.339	32.210	0.184	0.160
-686.324	-72.872	-0.262	-0.097
-685.310	-0.355	0.368	-0.264
-684.295	269.093	-0.200	-0.353
-683.281	19.351	-0.078	0.063
-682.266	800.000	-0.048	-0.207
-681.251	29.918	0.226	-0.194
-680.237	-200.000	-0.021	-0.130
-679.222	800.000	0.090	-0.265
-678.208	-117.892	0.371	0.067
-677.193	-76.710	-0.300	0.106
-676.178	-200.000	0.004	-0.285
-675.164	-200.000	-0.012	-0.159
-674.149	-36.238	0.138	-0.075
-673.135	297.775	0.188	-0.348
-672.120	-151.965	-0.178	-0.013
-671.105	-200.000	0.004	-0.520
-670.091	-60.601	-0.479	-0.205
-669.076	-76.744	-0.412	-0.145
-668.062	-89.559	0.269	0.079
-667.047	3.482	-0.174	-0.127
-666.032	800.000	0.051	0.183
-665.018	29.620	0.260	-0.222
-664.003	-89.319	0.137	0.041
-662.989	-116.255	-0.098	-0.018
-661.974	-40.973	-0.116	0.060
-660.959	-38.308	-0.104	-0.055
-659.945	-48.984	-0.065	0.031
-658.930	131.955	0.129	-0.167
-657.916	185.733	0.301	-0.449
-656.901	16.577	0.428	-0.340
-655.886	-200.000	0.034	-0.172
-654.872	86.603	-0.206	0.228
-653.857	192.693	0.113	0.171
-652.843	222.175	-0.227	-0.367
-651.828	658.587	0.163	0.422
-650.814	36.050	-0.333	0.294
-649.799	322.812	-0.081	0.155
-648.784	800.000	0.077	-0.329
-647.770	-200.000	-0.034	0.225
-646.755	82.307	0.315	-0.344
-645.741	119.958	0.182	-0.227
-644.726	-200.000	0.018	-0.164
-643.711	-200.000	-0.015	-0.186
-642.697	90.903	-0.258	0.291
-641.682	-200.000	0.020	0.143
-640.668	-68.227	0.220	0.086
-639.653	800.000	-0.053	-0.202
-638.638	-66.655	-0.306	0.122
-637.624	453.966	0.069	0.154
-636.609	14.848	-0.046	0.036
-635.595	-200.000	0.069	-0.327
-634.580	23.895	-0.131	0.108
-633.565	290.714	-0.156	-0.285
-632.551	-71.729	0.103	-0.038
-631.536	109.753	0.075	-0.090
-630.522	110.100	0.155	-0.187
-629.507	-67.799	-0.077	0.030
-628.492	15.786	0.170	0.134
-627.478	-148.899	0.174	0.014
-626.463	381.521	0.087	-0.180
-625.449	-200.000	-0.033	-0.317
-624.434	142.115	-0.135	0.179
-623.419	219.199	-0.158	-0.254
-622.405	-51.558	0.231	-0.108
-621.390	19.436	0.051	-0.041
-620.376	-94.827	-0.460	-0.125
-619.361	-105.306	-0.153	0.035
-618.346	158.081	0.084	0.117
-617.332	59.178	-0.054	-0.053
-616.317	56.473	-0.162	0.158
-615.303	-147.287	0.076	-0.007
-614.288	800.000	-0.086	0.274
-613.273	-4.202	-0.162	-0.113
-612.259	475.081	0.045	0.101
-611.244	40.398	-0.196	-0.177
-610.230	-185.916	-0.148	0.002
-609.215	-18.447	0.043	-0.027
-608.201	-200.000	-0.099	-0.472
-607.186	305.908	0.047	0.087
-606.171	800.000	0.026	0.091
-605.157	-17.257	-0.019	0.012
-604.142	165.157	0.143	-0.203
-603.128	-79.377	0.201	-0.068
-602.113	-200.000	0.013	0.075
-601.098	800.000	0.029	0.114
-600.084	-200.000	-0.005	0.118
-599.069	-117.805	0.319	0.057
-598.055	-127.302	0.335	0.049
-597.040	665.555	0.186	0.482
-596.025	27.362	-0.098	0.083
-595.011	752.317	0.064	-0.174
-593.996	-22.533	0.148	0.090
-592.982	50.815	-0.287	0.273
-591.967	-54.532	0.214	0.097
-590.952	-4.516	-0.307	-0.212
-589.938	800.000	0.091	-0.291
-588.923	206.316	0.244	-0.381
-587.909	-137.189	-0.161	0.018
-586.894	472.078	0.145	-0.328
-585.879	800.000	-0.056	0.159
-584.865	-42.971	0.296	0.151
-583.850	800.000	0.064	-0.270
-582.836	-15.586	0.145	0.093
-581.821	114.088	-0.128	0.156
-580.806	274.400	0.123	-0.219
-579.792	-151.576	-0.272	0.020
-578.777	172.677	-0.168	0.242
-577.763	58.328	0.147	0.145
-576.748	232.154	0.075	0.123
-575.733	183.829	-0.127	0.189
-574.719	800.000	0.030	-0.097
-573.704	419.776	-0.220	-0.472
-572.690	-115.354	-0.078	-0.015
-571.675	-71.642	-0.089	-0.033
-570.661	-60.503	-0.216	-0.092
-569.646	115.281	-0.167	-0.204
-568.631	-30.919	0.184	0.104
-567.617	-56.328	-0.130	0.058
-566.602	-71.880	-0.333	0.124
-565.588	-29.591	-0.185	-0.106
-564.573	800.000	-0.150	-0.576
-563.558	69.947	-0.209	0.216
-562.544	163.788	0.107	0.152
-561.529	-200.000	-0.088	-0.447
-560.515	-200.000	0.021	0.204
-559.500	193.066	-0.223	0.337
-558.485	-17.562	-0.357	-0.225
-557.471	26.329	0.093	0.078
-556.456	-146.182	-0.111	-0.010
-555.442	-27.969	0.202	0.117
-554.427	-111.370	-0.094	-0.019
-553.412	256.318	0.192	-0.331
-552.398	-54.138	-0.181	0.082
-551.383	-102.398	0.363	0.087
-550.369	-200.000	0.030	0.182
-549.354	267.092	-0.083	0.146
-548.339	271.268	0.050	0.089
-547.325	800.000	-0.008	-0.029
-546.310	152.883	0.188	0.257
-545.296	800.000	0.067	-0.273
-544.281	189.630	-0.102	-0.153
-543.266	357.585	0.076	-0.152
-542.252	240.348	-0.123	0.205
-541.237	185.491	-0.056	0.083
-540.223	800.000	0.135	-0.430
-539.208	800.000	0.125	0.405
-538.193	4.184	-0.175	0.128
-537.179	21.732	-0.217	-0.177
-536.164	4.070	-0.343	-0.251
-535.150	-5.398	0.045	-0.031
-534.135	-117.421	0.219	0.040
-533.121	-200.000	0.029	0.131
-532.106	-123.270	0.122	0.019
-531.091	-196.219	-0.176	-0.001
-530.077	-83.970	0.092	0.029
-529.062	163.683	-0.093	0.131
-528.048	-92.711	0.209	-0.059
-527.033	-58.440	0.343	0.149
-526.018	91.696	-0.119	0.134
-525.004	-200.000	-0.043	-0.362
-523.989	-200.000	-0.001	0.175
-522.975	-200.000	0.071	0.466
-521.960	15.255	-0.087	-0.068
-520.945	800.000	0.102	-0.420
-519.931	-116.048	-0.252	0.047
-518.916	-60.919	-0.145	0.061
-517.902	8.952	0.156	-0.118
-516.887	102.068	-0.113	0.132
-515.872	-109.364	0.299	0.063
-514.858	800.000	0.061	0.241
-513.843	800.000	0.033	-0.107
-512.829	20.285	-0.036	0.029
-511.814	-200.000	0.020	0.245
-510.799	-200.000	-0.011	0.164
-509.785	-30.617	0.079	0.045
-508.770	-79.847	-0.272	0.091
-507.756	-131.034	-0.256	-0.034
-506.741	314.679	-0.087	0.165
-505.726	364.628	0.047	-0.094
-504.712	-134.030	-0.259	0.032
-503.697	-63.696	-0.145	0.059
-502.683	25.125	-0.056	-0.046
-501.668	133.765	-0.172	0.223
-500.653	-92.572	0.074	-0.021
-499.639	-90.244	-0.112	-0.033
-498.624	-200.000	0.058	0.270
-497.610	-24.747	0.289	-0.172
-496.595	-125.472	0.502	0.076
-495.581	98.926	-0.301	0.347
-494.566	-150.887	-0.135	0.010
-493.551	22.252	0.161	0.131
-492.537	359.617	0.074	0.148
-491.522	-47.924	-0.594	-0.287
-490.508	-19.631	0.366	0.226
-489.493	-56.432	0.151	0.067
-488.478	-85.031	0.060	0.019
-487.464	-66.161	0.161	-0.064
-486.449	-60.642	0.335	-0.142
-485.435	-97.417	-0.137	0.036
-484.420	204.907	0.154	0.239
-483.405	800.000	0.100	-0.345
-482.391	245.172	0.099	0.167
-481.376	800.000	0.071	0.259
-480.362	-117.962	0.299	0.053
-479.347	-200.000	0.040	0.215
-478.332	794.757	0.083	-0.228
-477.318	800.000	0.038	0.109
-476.303	-68.930	-0.064	-0.025
-475.289	-136.510	-0.230	-0.027
-474.274	316.785	-0.044	-0.083
-473.259	37.669	0.054	-0.048
-472.245	269.161	-0.255	0.446
-471.230	-67.223	0.137	0.054
-470.216	800.000	0.055	0.191
-469.201	90.527	-0.163	0.182
-468.186	800.000	0.051	0.151
-467.172	-84.231	-0.303	0.096
-466.157	7.455	0.123	0.092
-465.143	110.355	-0.070	0.084
-464.128	-136.788	0.273	0.031
-463.113	190.917	-0.179	-0.268
-462.099	800.000	-0.095	-0.311
-461.084	-100.248	0.241	-0.060
-460.070	301.675	-0.088	-0.162
-459.055	-157.845	0.093	0.006
-458.040	-1.162	0.281	-0.198
-457.026	-200.000	-0.037	-0.197
-456.011	-200.000	0.019	-0.085
-454.997	-158.583	0.227	-0.013
-453.982	-56.723	-0.036	0.016
-452.968	348.475	-0.056	0.109
-451.953	38.607	-0.211	-0.187
-450.938	800.000	0.091	0.294
-449.924	-97.519	0.263	-0.068
-448.909	47.883	-0.115	-0.107
-447.895	-10.398	-0.100	0.066
-446.880	-9.340	-0.150	0.100
-445.865	-200.000	0.090	-0.504
-444.851	-200.000	0.025	0.265
-443.836	-69.142	0.042	0.016
-442.822	-8.311	0.428	0.287
-441.807	-33.691	0.157	-0.086
-440.792	106.791	-0.200	-0.237
-439.778	3.509	-0.148	0.108
-438.763	80.860	-0.213	-0.229
-437.749	336.300	-0.057	0.111
-436.734	360.393	-0.082	-0.163
-435.719	112.651	-0.049	0.060
-434.705	438.968	-0.108	0.235
-433.690	-143.024	-0.066	0.006
-432.676	-200.000	-0.071	0.473
-431.661	63.336	-0.036	0.036
-430.646	79.190	0.214	0.228
-429.632	-38.581	-0.105	-0.055
-428.617	432.676	-0.144	-0.311
-427.603	-200.000	-0.007	0.233
-426.588	-128.225	-0.220	0.031
-425.573	240.529	-0.104	-0.172
-424.559	20.670	0.335	-0.270
-423.544	520.870	0.151	-0.352
-422.530	145.001	-0.133	-0.177
-421.515	-200.000	-0.032	0.221
-420.500	-177.940	-0.063	0.001
-419.486	94.282	0.117	-0.133
-418.471	209.586	0.211	-0.330
-417.457	234.922	-0.079	-0.129
-416.442	-93.170	0.191	0.053
-415.428	165.715	-0.151	0.213
-414.413	-44.989	-0.123	0.061
-413.398	230.136	-0.074	-0.121
-412.384	94.668	-0.058	-0.066
-411.369	-9.357	-0.075	0.050
-410.355	192.737	-0.173	0.261
-409.340	225.135	-0.047	-0.076
-408.325	331.902	0.072	-0.139
-407.311	64.960	-0.107	0.108
-406.296	125.001	-0.195	0.245
-405.282	-90.245	0.245	0.071
-404.267	20.417	0.271	-0.218
-403.252	800.000	0.073	-0.301
-402.238	-200.000	0.027	0.167
-401.223	22.658	-0.105	-0.085
-400.209	59.552	-0.128	0.126
-399.194	-29.724	-0.097	0.055
-398.179	48.029	0.171	0.159
-397.165	-166.737	-0.308	-0.013
-396.150	332.839	0.020	-0.039
-395.136	255.871	-0.109	0.186
-394.121	-135.475	0.531	0.063
-393.106	-158.460	0.252	0.015
-392.092	-47.178	0.185	0.090
-391.077	-66.992	0.170	-0.067
-390.063	-200.000	0.056	-0.411
-389.048	24.866	-0.161	0.133
-388.033	16.322	-0.129	-0.102
-387.019	-42.280	0.117	0.060
-386.004	478.489	0.076	-0.172
-384.990	800.000	0.036	-0.110
-383.975	15.334	0.263	-0.206
-382.960	-64.091	-0.086	0.035
-381.946	70.568	-0.102	-0.105
-380.931	217.608	0.122	0.193
-379.917	-23.983	0.182	0.108
-378.902	12.399	0.045	-0.034
-377.888	6.712	-0.034	0.025
-376.873	191.231	-0.135	0.201
-375.858	35.334	0.058	0.050
-374.844	-80.534	-0.282	-0.093
-373.829	515.944	0.034	-0.079
-372.815	99.179	-0.211	-0.242
-371.800	447.375	-0.175	-0.382
-370.785	133.741	0.167	-0.215
-369.771	107.562	0.182	0.216
-368.756	5.455	0.310	0.228
-367.742	384.060	-0.176	0.361
-366.727	-75.980	0.200	-0.070
-365.712	379.475	-0.089	-0.181
-364.698	-13.114	-0.187	-0.121
-363.683	53.406	0.071	0.068
-362.669	254.023	0.083	0.141
-361.654	-40.557	0.110	-0.057
-360.639	-72.145	-0.247	-0.091
-359.625	-108.010	-0.417	0.090
-358.610	800.000	0.091	0.255
-357.596	-93.457	-0.200	0.055
-356.581	135.821	-0.083	0.108
-355.566	800.000	0.087	0.319
-354.552	-126.221	-0.371	-0.055
-353.537	-9.830	-0.111	0.073
-352.523	88.225	-0.185	0.204
-351.508	-56.762	0.176	-0.077
-350.493	183.047	-0.214	0.314
-349.479	-200.000	-0.025	-0.206
-348.464	-93.151	-0.161	0.045
-347.450	-110.566	0.304	-0.063
-346.435	-134.470	0.236	-0.029
-345.420	549.382	0.049	-0.118
-344.406	-73.619	-0.206	0.074
-343.391	-170.747	0.173	-0.006
-342.377	-143.302	0.225	-0.021
-341.362	-142.144	-0.223	-0.022
-340.348	255.412	-0.144	-0.244
-339.333	-200.000	0.016	0.390
-338.318	-2.371	0.262	0.183
-337.304	215.974	0.246	0.387
-336.289	-23.898	0.090	-0.053
-335.275	-12.968	-0.134	0.086
-334.260	-200.000	0.049	-0.331
-333.245	-84.463	0.155	-0.049
-332.231	800.000	-0.115	-0.322
-331.216	489.380	0.032	0.072
-330.202	-107.930	-0.194	0.042
-329.187	-108.518	0.317	0.068
-328.172	240.021	0.134	-0.222
-327.158	800.000	0.063	-0.175
-326.143	43.554	-0.036	0.032
-325.129	-122.376	-0.095	-0.015
-324.114	-175.849	-0.083	0.002
-323.099	800.000	-0.056	-0.191
-322.085	14.560	0.310	-0.240
-321.070	-71.191	0.290	0.108
-320.056	-11.320	0.080	0.052
-319.041	150.937	0.200	-0.269
-318.026	-77.416	0.251	0.087
-317.012	-117.552	-0.301	-0.054
-315.997	170.794	-0.169	-0.241
-314.983	-7.832	-0.087	-0.058
-313.968	65.419	0.135	-0.135
-312.953	-200.000	0.041	-0.253
-311.939	504.970	-0.095	-0.218
-310.924	49.421	-0.167	-0.156
-309.910	-105.982	0.454	-0.101
-308.895	34.162	0.305	0.264
-307.880	-107.814	-0.139	-0.030
-306.866	77.896	-0.075	0.079
-305.851	-115.270	0.382	0.072
-304.837	718.097	0.026	0.068
-303.822	11.140	0.104	0.079
-302.807	40.815	0.035	-0.031
-301.793	-162.102	0.151	0.008
-300.778	151.053	-0.089	0.121
-299.764	-99.940	-0.108	-0.027
-298.749	52.937	0.088	0.083
-297.735	85.137	-0.153	0.166
-296.720	86.436	0.092	-0.100
-295.705	-28.676	0.389	0.222
-294.691	-55.902	0.235	0.104
-293.676	51.953	0.291	0.274
-292.662	-14.891	0.161	-0.102
-291.647	45.485	0.171	-0.156
-290.632	-58.174	0.062	-0.027
-289.618	116.096	0.089	0.108
-288.603	-151.599	-0.390	0.029
-287.589	189.527	0.201	-0.298
-286.574	-1.173	0.133	0.093
-285.559	70.178	0.173	0.177
-284.545	135.540	0.169	0.218
-283.530	-104.421	-0.101	-0.023
-282.516	-8.973	0.252	-0.167
-281.501	425.942	0.082	0.174
-280.486	-200.000	0.006	-0.076
-279.472	-27.480	-0.163	0.094
-278.457	8.461	-0.169	0.126
-277.443	-57.894	0.244	-0.105
-276.428	-140.571	0.162	-0.017
-275.413	-66.225	-0.186	0.073
-274.399	-200.000	0.035	0.203
-273.384	208.498	-0.166	0.257
-272.370	-9.587	-0.175	-0.116
-271.355	800.000	0.011	-0.029
-270.340	-77.602	-0.257	0.088
-269.326	67.320	-0.160	0.161
-268.311	800.000	0.034	0.099
-267.297	58.464	0.165	-0.160
-266.282	289.439	0.046	-0.083
-265.267	44.503	-0.170	-0.155
-264.253	52.304	-0.214	-0.202
-263.238	99.363	-0.169	0.194
-262.224	-29.999	-0.057	0.032
-261.209	-85.534	0.319	-0.098
-260.195	-200.000	0.009	0.041
-259.180	305.472	-0.118	-0.217
-258.165	-200.000	-0.013	-0.263
-257.151	800.000	-0.057	0.241
-256.136	740.568	0.068	0.181
-255.122	-10.620	-0.083	0.054
-254.107	-57.720	0.176	0.076
-253.092	40.581	0.256	0.228
-252.078	88.148	-0.136	-0.149
-251.063	285.782	0.058	-0.103
-250.049	-44.055	-0.292	0.145
-249.034	208.657	0.074	0.115
-248.019	-45.229	0.056	0.028
-247.005	-200.000	-0.038	0.230
-245.990	44.830	-0.083	0.076
-244.976	-122.775	-0.360	-0.058
-243.961	-200.000	0.004	0.319
-242.946	53.363	-0.078	0.074
-241.932	442.246	0.021	0.046
-240.917	99.398	-0.210	0.241
-239.903	-79.083	0.409	-0.138
-238.888	335.493	-0.090	-0.172
-237.873	26.760	-0.063	0.052
-236.859	124.147	-0.266	-0.330
-235.844	-200.000	-0.018	-0.177
-234.830	-114.743	-0.166	-0.031
-233.815	800.000	-0.028	0.123
-232.800	-65.685	-0.196	0.078
-231.786	-200.000	0.033	-0.256
-230.771	-200.000	-0.002	0.025
-229.757	800.000	-0.026	-0.082
-228.742	53.326	-0.161	0.153
-227.727	-200.000	-0.015	-0.211
-226.713	161.747	-0.075	0.104
-225.698	51.355	-0.146	-0.137
-224.684	41.204	-0.239	-0.214
-223.669	-65.968	0.272	-0.108
-222.655	113.781	0.181	-0.218
-221.640	-200.000	0.019	0.247
-220.625	307.069	0.192	-0.354
-219.611	-200.000	0.024	-0.127
-218.596	-200.000	-0.059	0.281
-217.582	-200.000	0.029	0.167
-216.567	-200.000	-0.032	-0.148
-215.552	797.099	0.042	0.114
-214.538	800.000	-0.073	-0.299
-213.523	800.000	0.040	-0.143
-212.509	229.502	0.178	0.287
-211.494	218.613	-0.126	0.199
-210.479	116.957	-0.351	-0.426
-209.465	-17.749	0.062	-0.039
-208.450	800.000	-0.086	-0.283
-207.436	239.204	-0.127	-0.208
-206.421	-131.438	-0.035	0.005
-205.406	-76.241	0.085	0.030
-204.392	52.780	-0.104	0.098
-203.377	27.840	-0.120	0.100
-202.363	550.188	0.104	0.247
-201.348	741.604	0.048	-0.128
-200.333	68.617	0.141	-0.143
-199.319	-200.000	-0.019	-0.119
-198.304	-58.847	0.299	0.128
-197.290	-200.000	0.011	-0.157
-196.275	457.659	-0.052	-0.115
-195.260	-31.647	0.060	0.033
-194.246	-75.696	0.328	0.115
-193.231	-200.000	0.392	-0.002
-192.217	-154.498	-0.014	-0.001
-191.202	-59.459	-0.234	0.099
-190.187	75.913	0.065	-0.068
-189.173	303.225	-0.144	0.263
-188.158	-200.000	-0.009	-0.229
-187.144	-155.695	-0.211	-0.013
-186.129	427.256	-0.091	0.193
-185.114	-95.175	-0.290	-0.077
-184.100	126.172	0.282	-0.352
-183.085	-125.524	0.104	0.016
-182.071	-200.000	-0.004	-0.095
-181.056	78.522	-0.133	-0.140
-180.042	-62.231	0.369	0.152
-179.027	11.680	0.097	-0.073
-178.012	51.589	-0.359	0.337
-176.998	800.000	0.102	0.290
-175.983	346.436	0.067	-0.129
-174.969	32.364	0.309	0.263
-173.954	-200.000	0.021	-0.167
-172.939	800.000	-0.084	0.325
-171.925	-62.571	0.109	0.045
-170.910	151.171	-0.075	0.101
-169.896	800.000	0.145	0.420
-168.881	800.000	0.047	-0.149
-167.866	425.286	-0.097	-0.205
-166.852	109.479	-0.106	-0.125
-165.837	-41.614	0.259	-0.131
-164.823	-155.278	-0.220	0.014
-163.808	784.157	-0.056	0.153
-162.793	-44.780	-0.256	0.126
-161.779	800.000	-0.063	-0.264
-160.764	-95.393	-0.336	0.089
-159.750	162.446	-0.191	-0.265
-158.735	484.532	0.023	-0.053
-157.720	-147.543	-0.489	0.041
-156.706	205.000	-0.020	-0.030
-155.691	15.228	-0.213	-0.165
-154.677	800.000	0.041	-0.139
-153.662	-200.000	-0.091	0.401
-152.647	76.955	0.074	-0.077
-151.633	-114.721	-0.302	0.057
-150.618	-70.717	-0.276	-0.103
-149.604	37.007	-0.120	-0.105
-148.589	190.529	-0.157	0.232
-147.574	-147.685	0.309	-0.026
-146.560	276.923	0.053	0.094
-145.545	-200.000	-0.030	0.324
-144.531	-39.794	-0.270	0.139
-143.516	800.000	0.071	-0.234
-142.502	-200.000	-0.010	-0.079
-141.487	-87.755	-0.118	-0.035
-140.472	-73.140	-0.166	0.060
-139.458	-102.771	-0.135	-0.032
-138.443	24.399	-0.030	0.024
-137.429	-95.898	0.570	-0.150
-136.414	-72.042	0.122	0.045
-135.399	-83.589	-0.409	-0.129
-134.385	90.871	-0.033	0.036
-133.370	274.948	-0.111	0.194
-132.356	-83.318	-0.069	0.022
-131.341	48.249	-0.259	0.239
-130.326	-200.000	0.019	0.161
-129.312	-200.000	-0.022	0.142
-128.297	-93.026	-0.415	-0.114
-127.283	-200.000	-0.038	-0.258
-126.268	159.463	-0.216	0.296
-125.253	800.000	0.030	0.120
-124.239	-128.450	0.371	-0.052
-123.224	253.123	-0.176	-0.295
-122.210	-14.086	0.229	0.145
-121.195	-144.574	0.245	-0.022
-120.180	-200.000	-0.071	0.485
-119.166	-200.000	-0.001	0.284
