DTS Sentinel unit serial number:	SN413079Multiplexer serial number:	ORYXHardware model number:	OX4-SRSoftware version number:	ORYX F/W v4.00 Oryx Data Collector v3.7.2.0data status	okinstallation	princeton_trtdifferential loss correction	single-endedforward channel	channel 1reverse channel	N/Adate	2019/09/19time	03:30:35forward acquisition time	60.00reverse acquisition time	0.00gamma	496.2192k internal	0.2343k external	0.2343temperature offset calibration	1.0021default loss term (dB/km)	0.3790temperature slope calibration	1.0000multiplexer offset coefficient	1.0000multiplexer slope coefficient	1.0000fibre end	0.00T internal ref (°C)	20.62T ext. ref 1 (°C)	0.65T ext. ref 2 (°C)	14.30length (m)	temperature (°C)	Stokes	anti-Stokes-747.200	-113.049	-0.423	-0.084
-746.185	0.199	0.118	-0.084
-745.171	800.000	0.065	0.264
-744.156	-67.150	-0.240	0.095
-743.142	-75.104	-0.121	0.043
-742.127	-71.010	-0.424	0.160
-741.112	800.000	-0.053	0.203
-740.098	-200.000	0.030	0.287
-739.083	200.967	-0.153	-0.235
-738.069	-33.421	-0.157	0.087
-737.054	-200.000	0.004	-0.088
-736.039	-138.600	0.129	0.014
-735.025	45.723	0.077	0.071
-734.010	-65.850	-0.254	-0.102
-732.996	800.000	0.070	-0.211
-731.981	-200.000	-0.007	-0.209
-730.966	800.000	-0.104	-0.387
-729.952	-200.000	-0.030	0.268
-728.937	115.912	-0.263	-0.321
-727.923	800.000	0.122	-0.373
-726.908	-197.195	-0.170	-0.001
-725.894	-6.376	-0.386	-0.264
-724.879	-200.000	0.001	-0.168
-723.864	14.149	0.160	-0.125
-722.850	-69.345	-0.328	0.126
-721.835	223.123	-0.290	0.468
-720.821	349.402	-0.177	-0.349
-719.806	800.000	0.054	-0.194
-718.791	274.397	-0.155	-0.274
-717.777	-200.000	0.011	-0.140
-716.762	-51.667	0.275	-0.128
-715.748	23.699	-0.094	0.077
-714.733	-28.124	-0.221	-0.128
-713.718	-200.000	0.046	0.254
-712.704	45.182	-0.320	0.295
-711.689	566.374	0.048	-0.117
-710.675	-200.000	-0.021	-0.201
-709.660	253.970	0.212	-0.362
-708.645	-76.426	-0.059	0.021
-707.631	148.467	-0.045	-0.061
-706.616	800.000	-0.062	-0.236
-705.602	123.055	0.125	-0.156
-704.587	607.771	0.056	0.139
-703.572	-70.004	0.266	-0.101
-702.558	113.914	-0.202	-0.246
-701.543	-169.001	-0.078	-0.003
-700.529	800.000	0.115	0.358
-699.514	-200.000	-0.019	0.101
-698.499	122.868	-0.062	0.078
-697.485	800.000	-0.094	0.383
-696.470	-1.239	-0.154	-0.108
-695.456	800.000	0.072	0.250
-694.441	124.515	0.094	-0.118
-693.426	174.233	-0.115	0.166
-692.412	-18.922	-0.144	0.090
-691.397	104.786	-0.221	-0.260
-690.383	-8.583	-0.154	0.103
-689.368	166.789	-0.317	-0.449
-688.354	-2.655	0.483	-0.337
-687.339	-134.483	0.132	-0.016
-686.324	123.142	0.055	-0.069
-685.310	-200.000	0.001	0.036
-684.295	480.459	-0.085	0.192
-683.281	-200.000	-0.051	0.438
-682.266	635.537	-0.109	0.277
-681.251	68.021	-0.189	-0.193
-680.237	119.755	-0.112	0.139
-679.222	-70.272	0.301	0.114
-678.208	-133.418	0.116	0.015
-677.193	800.000	0.055	0.222
-676.178	-86.515	0.058	0.018
-675.164	11.752	-0.031	0.024
-674.149	619.523	-0.080	0.201
-673.135	38.680	-0.063	-0.056
-672.120	-27.358	0.121	0.070
-671.105	-200.000	0.018	-0.091
-670.091	-200.000	0.000	0.160
-669.076	11.576	-0.153	-0.117
-668.062	-200.000	0.038	-0.291
-667.047	-2.223	0.066	0.046
-666.032	-200.000	0.029	0.385
-665.018	167.226	0.047	0.067
-664.003	-50.494	0.122	0.058
-662.989	278.932	-0.050	-0.089
-661.974	128.894	-0.149	-0.189
-660.959	-200.000	-0.021	0.132
-659.945	-89.751	-0.118	0.035
-658.930	-19.456	0.065	-0.040
-657.916	286.993	-0.020	0.036
-656.901	129.146	-0.119	-0.152
-655.886	-48.190	0.177	0.085
-654.872	-200.000	0.015	-0.168
-653.857	321.332	0.150	-0.284
-652.843	206.495	0.167	-0.260
-651.828	84.997	0.105	0.115
-650.814	800.000	-0.089	0.254
-649.799	7.006	-0.061	0.046
-648.784	160.513	-0.090	-0.125
-647.770	800.000	-0.035	0.138
-646.755	35.863	0.205	-0.180
-645.741	152.391	0.020	0.027
-644.726	96.732	0.134	-0.153
-643.711	-200.000	-0.002	0.094
-642.697	34.386	0.205	-0.179
-641.682	-26.714	0.206	0.120
-640.668	800.000	-0.092	-0.308
-639.653	-101.435	-0.142	-0.035
-638.638	62.989	0.037	-0.037
-637.624	1.765	-0.347	-0.249
-636.609	10.716	-0.264	-0.201
-635.595	-200.000	-0.048	-0.237
-634.580	800.000	0.049	0.200
-633.565	-137.973	-0.255	0.028
-632.551	800.000	0.064	-0.180
-631.536	146.899	-0.310	-0.416
-630.522	113.434	0.213	-0.258
-629.507	170.992	-0.228	-0.326
-628.492	32.602	0.033	0.028
-627.478	210.762	0.055	-0.087
-626.463	21.195	-0.084	-0.068
-625.449	-74.993	-0.340	0.121
-624.434	113.595	0.123	0.149
-623.419	85.123	0.269	0.294
-622.405	-200.000	-0.006	0.152
-621.390	486.704	0.030	-0.069
-620.376	736.882	0.109	-0.290
-619.361	100.949	0.216	-0.250
-618.346	-10.798	-0.210	0.138
-617.332	-122.023	-0.065	-0.011
-616.317	5.627	-0.144	0.106
-615.303	33.273	0.168	0.145
-614.288	-19.133	-0.076	0.047
-613.273	-200.000	-0.024	-0.335
-612.259	303.067	0.171	-0.315
-611.244	498.130	0.033	-0.075
-610.230	-55.638	-0.253	0.113
-609.215	-119.504	0.272	0.047
-608.201	320.102	-0.078	0.147
-607.186	124.441	-0.079	0.099
-606.171	463.011	-0.143	-0.319
-605.157	2.679	-0.155	-0.112
-604.142	-37.669	0.068	0.036
-603.128	80.697	0.185	0.199
-602.113	-29.034	-0.282	0.161
-601.098	-200.000	-0.008	-0.151
-600.084	-200.000	0.007	-0.203
-599.069	-118.003	0.553	0.098
-598.055	-77.091	-0.198	-0.069
-597.040	-200.000	0.001	0.258
-596.025	-85.415	0.058	-0.018
-595.011	-81.746	0.342	0.112
-593.996	-108.502	-0.044	0.009
-592.982	-41.557	-0.235	-0.120
-591.967	649.569	0.047	-0.121
-590.952	800.000	0.063	0.175
-589.938	190.833	0.061	-0.091
-588.923	57.874	-0.186	0.181
-587.909	330.677	-0.188	-0.360
-586.894	-35.840	-0.161	-0.087
-585.879	623.239	0.135	0.339
-584.865	-62.784	-0.424	-0.175
-583.850	628.830	0.040	-0.100
-582.836	800.000	0.019	-0.078
-581.821	57.977	-0.128	0.125
-580.806	800.000	-0.095	0.359
-579.792	47.886	-0.093	-0.086
-578.777	149.438	0.211	-0.285
-577.763	800.000	0.028	0.105
-576.748	800.000	0.070	0.272
-575.733	800.000	0.121	0.349
-574.719	-111.940	-0.185	0.037
-573.704	-78.226	0.231	0.079
-572.690	-145.572	0.270	0.024
-571.675	1.931	0.095	-0.068
-570.661	-178.054	-0.216	-0.005
-569.646	67.125	0.237	-0.240
-568.631	178.891	0.080	0.116
-567.617	20.057	0.100	0.080
-566.602	381.590	0.119	-0.244
-565.588	194.501	-0.169	0.254
-564.573	-200.000	0.013	-0.223
-563.558	-32.916	-0.249	-0.137
-562.544	125.047	-0.129	0.162
-561.529	-80.586	-0.384	0.127
-560.515	-67.391	-0.205	0.080
-559.500	800.000	-0.035	-0.148
-558.485	800.000	-0.072	-0.274
-557.471	107.871	0.211	0.250
-556.456	800.000	-0.043	-0.135
-555.442	-45.364	-0.123	-0.061
-554.427	-200.000	-0.063	-0.312
-553.412	-180.014	0.136	0.003
-552.398	538.396	0.118	-0.278
-551.383	17.724	-0.192	0.152
-550.369	158.297	-0.114	0.157
-549.354	35.628	0.200	-0.175
-548.339	-106.420	-0.454	0.101
-547.325	-200.000	-0.075	0.400
-546.310	-83.338	-0.226	-0.072
-545.296	266.600	-0.212	0.368
-544.281	91.976	-0.102	-0.114
-543.266	142.757	0.017	-0.022
-542.252	354.744	0.042	0.083
-541.237	-200.000	-0.051	-0.322
-540.223	73.547	0.125	-0.130
-539.208	-128.206	-0.175	0.025
-538.193	226.269	0.064	0.103
-537.179	259.365	-0.130	-0.223
-536.164	346.751	0.195	0.380
-535.150	-66.789	0.308	-0.121
-534.135	800.000	0.035	-0.130
-533.121	296.437	0.048	-0.088
-532.106	646.889	-0.125	-0.317
-531.091	446.230	0.121	-0.264
-530.077	-79.949	0.165	-0.055
-529.062	-200.000	-0.013	-0.368
-528.048	309.428	0.156	-0.290
-527.033	-200.000	-0.037	-0.204
-526.018	-42.736	-0.184	0.093
-525.004	134.202	0.125	-0.161
-523.989	-111.491	0.271	-0.055
-522.975	-104.150	0.049	-0.011
-521.960	-36.282	0.274	0.147
-520.945	532.802	-0.130	0.305
-519.931	110.010	0.225	0.268
-518.916	800.000	0.044	0.143
-517.902	-120.525	0.186	0.031
-516.887	14.666	-0.072	-0.056
-515.872	-31.317	-0.351	0.196
-514.858	800.000	-0.049	0.143
-513.843	-200.000	0.018	0.140
-512.829	446.692	-0.122	-0.265
-511.814	96.697	-0.204	-0.231
-510.799	800.000	-0.048	0.184
-509.785	47.414	-0.046	-0.042
-508.770	11.069	0.112	0.085
-507.756	-5.643	-0.375	-0.255
-506.741	-200.000	0.019	-0.091
-505.726	36.563	-0.199	0.174
-504.712	163.759	0.283	0.395
-503.697	-200.000	0.084	0.369
-502.683	-113.753	-0.173	-0.034
-501.668	-105.248	-0.155	0.035
-500.653	-38.792	0.206	0.108
-499.639	-163.144	0.421	-0.020
-498.624	-166.501	-0.117	-0.005
-497.610	-161.348	-0.247	-0.013
-496.595	-62.262	-0.114	0.047
-495.581	-95.469	0.375	0.100
-494.566	228.779	-0.093	-0.150
-493.551	-44.972	-0.129	0.064
-492.537	324.694	-0.122	-0.231
-491.522	234.081	-0.072	-0.117
-490.508	173.063	-0.358	-0.512
-489.493	-200.000	-0.016	0.109
-488.478	-17.296	0.208	0.130
-487.464	-148.860	0.124	0.010
-486.449	-94.981	-0.232	0.062
-485.435	272.469	0.098	-0.171
-484.420	-169.702	0.159	0.006
-483.405	-200.000	-0.013	0.066
-482.391	26.202	0.094	0.078
-481.376	308.548	0.066	0.121
-480.362	-115.354	0.287	0.054
-479.347	800.000	-0.129	0.443
-478.332	-200.000	-0.045	-0.268
-477.318	783.900	-0.129	-0.349
-476.303	-105.152	-0.150	0.034
-475.289	-200.000	-0.034	0.280
-474.274	195.416	0.120	0.180
-473.259	5.868	-0.113	0.083
-472.245	26.508	0.043	0.036
-471.230	156.891	-0.073	0.099
-470.216	-200.000	0.016	-0.094
-469.201	-100.659	0.121	-0.030
-468.186	-200.000	0.004	-0.114
-467.172	-105.582	0.252	-0.056
-466.157	37.162	-0.172	-0.150
-465.143	800.000	-0.052	0.144
-464.128	-39.990	-0.035	0.018
-463.113	800.000	0.078	0.335
-462.099	-108.308	0.220	-0.047
-461.084	-91.468	0.216	0.061
-460.070	229.908	-0.007	-0.011
-459.055	-200.000	-0.010	-0.106
-458.040	97.806	-0.162	-0.184
-457.026	29.290	0.094	-0.079
-456.011	-109.862	-0.314	-0.065
-454.997	-5.599	-0.049	0.034
-453.982	242.206	0.061	0.101
-452.968	-50.532	-0.132	-0.062
-451.953	-200.000	0.052	-0.275
-450.938	-5.468	0.157	-0.106
-449.924	-136.226	0.430	-0.050
-448.909	1.541	0.299	0.213
-447.895	153.952	-0.229	-0.311
-446.880	-200.000	-0.017	-0.295
-445.865	-200.000	0.034	-0.253
-444.851	800.000	-0.036	-0.141
-443.836	-19.346	-0.273	-0.168
-442.822	-17.004	0.035	0.022
-441.807	-184.291	-0.195	0.003
-440.792	167.085	-0.244	-0.343
-439.778	-148.355	0.472	0.038
-438.763	597.286	0.033	0.081
-437.749	293.195	0.073	-0.131
-436.734	111.403	-0.019	-0.023
-435.719	41.276	-0.061	0.055
-434.705	20.831	0.126	-0.101
-433.690	44.999	0.308	0.281
-432.676	-200.000	0.062	0.000
-431.661	-200.000	0.012	0.125
-430.646	245.776	0.200	-0.333
-429.632	-62.658	-0.290	0.119
-428.617	800.000	0.076	-0.264
-427.603	-200.000	0.008	0.044
-426.588	330.797	0.111	0.212
-425.573	-200.000	0.048	0.404
-424.559	85.586	-0.145	0.157
-423.544	40.523	-0.078	-0.069
-422.530	-151.047	0.218	-0.016
-421.515	-163.239	0.155	0.007
-420.500	73.049	0.053	-0.055
-419.486	140.860	0.094	0.123
-418.471	800.000	0.036	0.135
-417.457	-81.157	0.179	-0.059
-416.442	20.868	-0.240	-0.193
-415.428	-126.938	0.186	0.027
-414.413	-59.323	-0.241	-0.103
-413.398	-109.928	0.074	0.015
-412.384	5.572	-0.101	-0.074
-411.369	45.785	-0.156	0.142
-410.355	-200.000	0.001	-0.101
-409.340	-200.000	0.012	0.213
-408.325	-200.000	0.015	0.142
-407.311	595.272	0.034	-0.083
-406.296	-49.706	0.130	-0.061
-405.282	-75.377	0.403	-0.142
-404.267	46.598	0.143	0.131
-403.252	800.000	-0.017	0.063
-402.238	639.056	0.099	-0.248
-401.223	-200.000	-0.013	-0.301
-400.209	-182.681	0.287	0.005
-399.194	-63.666	0.080	0.032
-398.179	229.393	-0.187	0.301
-397.165	-18.165	-0.157	-0.097
-396.150	-109.400	0.185	0.039
-395.136	64.759	-0.134	-0.133
-394.121	-40.296	-0.326	0.167
-393.106	-137.925	-0.200	-0.022
-392.092	-200.000	-0.024	0.122
-391.077	-77.090	0.072	0.025
-390.063	-200.000	0.034	-0.288
-389.048	-162.558	-0.261	-0.013
-388.033	-6.183	-0.079	0.053
-387.019	154.022	0.123	0.166
-386.004	800.000	-0.077	0.247
-384.990	-68.748	-0.182	0.069
-383.975	-18.917	0.226	-0.139
-382.960	-61.619	-0.208	-0.086
-381.946	-16.338	-0.204	-0.128
-380.931	-41.101	0.090	0.046
-379.917	-10.104	-0.252	-0.165
-378.902	-200.000	-0.049	0.470
-377.888	800.000	0.016	-0.068
-376.873	176.498	-0.067	0.095
-375.858	-150.357	-0.010	-0.001
-374.844	734.418	-0.063	-0.167
-373.829	-59.455	-0.225	0.095
-372.815	-156.984	-0.311	0.019
-371.800	52.352	0.124	-0.117
-370.785	-50.229	0.255	0.119
-369.771	-200.000	-0.064	-0.530
-368.756	518.130	-0.128	-0.295
-367.742	800.000	0.157	-0.617
-366.727	-123.969	-0.239	0.037
-365.712	-85.274	-0.050	-0.015
-364.698	-200.000	-0.011	-0.170
-363.683	-96.397	0.139	-0.036
-362.669	-64.802	0.306	0.122
-361.654	257.396	0.025	0.042
-360.639	217.771	0.026	-0.040
-359.625	229.247	0.141	0.226
-358.610	76.007	0.097	0.102
-357.596	-200.000	-0.041	-0.427
-356.581	-32.030	0.411	0.227
-355.566	-20.497	0.035	0.021
-354.552	51.239	-0.149	-0.139
-353.537	-90.135	0.240	-0.069
-352.523	-28.870	0.074	-0.042
-351.508	194.206	-0.147	-0.219
-350.493	41.049	-0.182	-0.162
-349.479	-34.906	0.379	-0.204
-348.464	-24.559	-0.116	-0.068
-347.450	-7.099	0.043	-0.029
-346.435	-15.328	-0.113	-0.071
-345.420	-79.637	-0.145	-0.048
-344.406	-30.151	0.247	0.138
-343.391	47.196	-0.140	0.128
-342.377	2.152	-0.215	-0.153
-341.362	-200.000	-0.006	0.067
-340.348	-122.718	0.128	-0.020
-339.333	262.994	-0.116	0.199
-338.318	800.000	-0.041	-0.126
-337.304	562.897	-0.120	0.286
-336.289	-122.572	0.295	0.047
-335.275	-69.833	0.331	0.125
-334.260	26.435	-0.046	-0.038
-333.245	213.203	-0.197	0.307
-332.231	-126.971	0.241	0.035
-331.216	-20.186	-0.067	-0.041
-330.202	-51.778	-0.451	0.207
-329.187	-115.019	0.252	0.047
-328.172	141.622	0.137	-0.178
-327.158	386.785	-0.053	-0.107
-326.143	53.695	-0.064	0.061
-325.129	276.327	-0.134	-0.235
-324.114	704.825	-0.027	0.069
-323.099	-100.813	-0.221	-0.054
-322.085	-200.000	0.020	-0.257
-321.070	800.000	0.085	0.280
-320.056	-200.000	0.020	0.092
-319.041	178.451	-0.115	0.165
-318.026	-200.000	-0.035	0.221
-317.012	38.864	-0.256	0.225
-315.997	-200.000	0.050	0.360
-314.983	-200.000	-0.031	-0.166
-313.968	235.903	0.071	0.115
-312.953	800.000	-0.099	0.328
-311.939	-200.000	-0.032	0.196
-310.924	800.000	0.021	0.060
-309.910	-31.717	-0.121	0.067
-308.895	800.000	0.092	0.302
-307.880	-200.000	0.009	0.359
-306.866	-200.000	-0.035	0.210
-305.851	-167.292	0.144	0.006
-304.837	-21.885	-0.182	0.109
-303.822	71.816	-0.067	0.069
-302.807	800.000	0.049	-0.177
-301.793	297.871	0.119	0.215
-300.778	-99.656	0.228	-0.056
-299.764	-68.919	-0.058	-0.022
-298.749	-80.939	0.509	0.166
-297.735	162.918	-0.052	0.072
-296.720	-92.914	-0.156	-0.043
-295.705	-25.700	0.167	-0.097
-294.691	499.650	0.054	-0.122
-293.676	800.000	0.055	-0.193
-292.662	-163.057	0.193	0.009
-291.647	34.645	-0.204	-0.176
-290.632	21.423	-0.102	-0.082
-289.618	-124.846	-0.381	-0.058
-288.603	-167.260	-0.461	-0.018
-287.589	-200.000	-0.019	-0.199
-286.574	52.184	0.142	0.133
-285.559	800.000	-0.023	0.068
-284.545	207.883	-0.106	-0.163
-283.530	77.918	-0.088	0.092
-282.516	-72.734	0.258	0.094
-281.501	-200.000	-0.031	0.197
-280.486	-200.000	0.034	0.389
-279.472	499.229	0.172	0.389
-278.457	18.970	-0.127	-0.100
-277.443	-21.109	0.055	0.033
-276.428	-127.917	-0.177	-0.025
-275.413	42.750	-0.115	-0.103
-274.399	-200.000	0.013	0.345
-273.384	-74.236	-0.081	0.029
-272.370	61.161	0.172	0.168
-271.355	800.000	0.067	-0.196
-270.340	-200.000	-0.068	0.344
-269.326	-200.000	0.048	0.269
-268.311	-200.000	-0.016	0.164
-267.297	-200.000	-0.058	0.258
-266.282	-200.000	0.267	-0.000
-265.267	-200.000	0.014	0.276
-264.253	83.413	0.214	0.229
-263.238	717.175	0.036	-0.095
-262.224	-200.000	-0.009	-0.227
-261.209	187.058	-0.114	0.167
-260.195	174.395	0.172	0.245
-259.180	-200.000	0.077	0.589
-258.165	-79.241	0.377	0.125
-257.151	-200.000	-0.018	0.135
-256.136	800.000	0.070	0.263
-255.122	800.000	0.064	0.242
-254.107	87.758	0.118	0.129
-253.092	800.000	0.101	0.364
-252.078	-46.814	-0.216	0.104
-251.063	285.189	0.157	0.278
-250.049	-67.344	0.107	0.041
-249.034	-200.000	-0.027	0.137
-248.019	-92.001	0.258	0.072
-247.005	-98.336	-0.251	0.063
-245.990	-200.000	-0.074	-0.387
-244.976	527.934	0.087	-0.202
-243.961	4.618	-0.169	-0.122
-242.946	-168.387	-0.088	0.003
-241.932	679.974	-0.165	-0.420
-240.917	264.956	-0.092	-0.158
-239.903	-113.473	-0.311	0.060
-238.888	-9.601	0.206	0.135
-237.873	-100.902	-0.099	-0.024
-236.859	27.649	-0.025	0.021
-235.844	18.412	0.291	-0.228
-234.830	99.695	-0.024	0.028
-233.815	800.000	-0.131	0.388
-232.800	-200.000	-0.005	-0.110
-231.786	800.000	-0.081	-0.274
-230.771	373.612	0.097	-0.194
-229.757	-200.000	-0.037	-0.420
-228.742	-89.698	0.183	0.052
-227.727	-200.000	-0.066	-0.331
-226.713	800.000	0.064	-0.207
-225.698	-59.958	0.189	0.079
-224.684	106.897	0.231	-0.269
-223.669	37.141	-0.253	-0.220
-222.655	-51.497	-0.138	-0.063
-221.640	431.327	0.025	0.053
-220.625	800.000	0.066	-0.212
-219.611	37.438	0.102	0.089
-218.596	12.215	-0.188	0.142
-217.582	457.133	0.025	-0.055
-216.567	-103.472	0.111	0.026
-215.552	-152.323	0.351	-0.025
-214.538	-112.366	0.255	0.050
-213.523	-125.846	-0.202	-0.030
-212.509	-200.000	-0.017	0.095
-211.494	-200.000	-0.041	-0.190
-210.479	191.076	0.073	0.108
-209.465	132.506	0.240	-0.303
-208.450	-76.149	0.094	0.032
-207.436	-30.053	0.315	0.176
-206.421	-200.000	0.039	0.199
-205.406	-112.302	0.347	-0.068
-204.392	-200.000	-0.002	-0.589
-203.377	-126.230	-0.105	0.015
-202.363	487.148	0.062	0.138
-201.348	161.750	-0.097	-0.133
-200.333	-181.636	0.107	-0.002
-199.319	56.225	-0.207	-0.197
-198.304	-147.017	-0.305	0.026
-197.290	170.017	0.120	0.169
-196.275	-200.000	-0.019	-0.112
-195.260	-82.875	-0.156	0.049
-194.246	-181.867	0.289	0.005
-193.231	-200.000	0.058	0.333
-192.217	73.382	0.207	0.212
-191.202	-200.000	-0.011	0.104
-190.187	-79.575	-0.127	0.042
-189.173	-31.308	-0.223	0.123
-188.158	-112.715	0.125	0.024
-187.144	-200.000	0.004	-0.050
-186.129	-200.000	0.040	-0.188
-185.114	800.000	-0.116	0.384
-184.100	-120.165	0.085	-0.014
-183.085	86.317	0.224	0.242
-182.071	726.739	0.113	-0.295
-181.056	-200.000	-0.010	-0.115
-180.042	-200.000	-0.030	-0.260
-179.027	800.000	0.121	0.410
-178.012	800.000	0.049	0.144
-176.998	-69.315	-0.229	-0.086
-175.983	-200.000	0.003	-0.063
-174.969	-122.468	0.144	-0.023
-173.954	-200.000	-0.007	-0.092
-172.939	26.938	-0.177	0.146
-171.925	-200.000	-0.028	-0.176
-170.910	46.493	-0.397	-0.360
-169.896	-200.000	-0.010	-0.098
-168.881	-54.352	0.123	-0.055
-167.866	3.716	-0.180	0.128
-166.852	-147.437	0.304	-0.025
-165.837	-64.274	-0.298	0.119
-164.823	-34.668	0.334	0.179
-163.808	-23.545	-0.150	0.088
-162.793	800.000	0.027	0.080
-161.779	-59.320	0.209	0.088
-160.764	-101.539	-0.220	0.052
-159.750	224.455	-0.053	-0.084
-158.735	523.650	-0.140	-0.323
-157.720	800.000	0.055	-0.211
-156.706	800.000	-0.047	-0.142
-155.691	800.000	0.038	0.134
-154.677	-116.447	-0.362	0.065
-153.662	-179.179	-0.200	0.004
-152.647	42.928	-0.127	0.114
-151.633	800.000	0.067	0.207
-150.618	-132.264	-0.126	-0.016
-149.604	-200.000	0.008	-0.098
-148.589	180.526	0.129	-0.185
-147.574	-122.372	0.241	0.038
-146.560	-200.000	-0.025	0.155
-145.545	-200.000	0.055	0.246
-144.531	108.511	-0.044	0.052
-143.516	129.051	0.219	-0.274
-142.502	-61.823	0.157	0.064
-141.487	26.296	0.271	0.221
-140.472	648.293	0.086	-0.214
-139.458	-200.000	-0.016	0.195
-138.443	57.813	-0.167	0.159
-137.429	594.056	-0.033	0.080
-136.414	-64.423	0.230	-0.091
-135.399	20.688	-0.121	-0.096
-134.385	18.571	0.154	0.121
-133.370	-200.000	-0.046	-0.204
-132.356	42.617	0.181	0.161
-131.341	-59.513	-0.228	-0.096
-130.326	65.383	-0.136	-0.134
-129.312	-167.813	0.041	-0.002
-128.297	-117.205	0.322	0.057
-127.283	462.583	0.035	-0.076
-126.268	60.271	-0.200	0.193
-125.253	-200.000	-0.011	0.184
-124.239	182.925	0.073	-0.106
-123.224	-65.222	0.053	0.021
-122.210	227.088	0.127	0.202
-121.195	47.189	0.293	0.267
