DTS Sentinel unit serial number:	SN413079Multiplexer serial number:	ORYXHardware model number:	OX4-SRSoftware version number:	ORYX F/W v4.00 Oryx Data Collector v3.7.2.0data status	okinstallation	princeton_trtdifferential loss correction	single-endedforward channel	channel 1reverse channel	N/Adate	2019/09/19time	12:42:35forward acquisition time	60.00reverse acquisition time	0.00gamma	496.2192k internal	0.2330k external	0.2330temperature offset calibration	1.0013default loss term (dB/km)	0.3790temperature slope calibration	1.0000multiplexer offset coefficient	1.0000multiplexer slope coefficient	1.0000fibre end	0.00T internal ref (°C)	27.64T ext. ref 1 (°C)	0.89T ext. ref 2 (°C)	25.73length (m)	temperature (°C)	Stokes	anti-Stokes-747.200	-95.830	-0.203	0.055
-746.185	6.589	-0.046	-0.034
-745.171	190.423	0.237	0.359
-744.156	42.349	-0.199	0.182
-743.142	-7.206	-0.266	0.181
-742.127	11.075	-0.060	0.046
-741.112	-200.000	-0.003	-0.505
-740.098	-134.649	-0.489	-0.060
-739.083	-13.437	0.135	-0.088
-738.069	-81.754	-0.304	-0.100
-737.054	30.939	0.139	0.120
-736.039	-195.667	0.296	-0.002
-735.025	127.995	0.276	-0.354
-734.010	-63.388	-0.109	0.045
-732.996	100.768	-0.125	-0.146
-731.981	46.398	-0.326	-0.304
-730.966	325.987	0.161	-0.310
-729.952	15.870	-0.149	-0.118
-728.937	-43.798	-0.193	0.098
-727.923	-200.000	0.003	0.147
-726.908	-182.501	-0.366	0.007
-725.894	-139.612	-0.207	-0.022
-724.879	50.553	-0.217	-0.206
-723.864	711.005	-0.072	0.191
-722.850	57.495	-0.209	0.206
-721.835	800.000	-0.079	-0.248
-720.821	58.103	-0.095	-0.094
-719.806	77.406	0.429	0.459
-718.791	-114.908	-0.239	0.046
-717.777	-178.464	-0.468	-0.011
-716.762	-28.911	-0.309	-0.179
-715.748	-107.296	0.348	0.077
-714.733	622.517	0.201	0.508
-713.718	21.343	-0.422	0.345
-712.704	304.122	-0.081	-0.150
-711.689	-200.000	-0.021	0.203
-710.675	156.884	-0.108	0.150
-709.660	97.978	-0.158	0.183
-708.645	-200.000	-0.003	0.027
-707.631	-22.674	-0.035	-0.021
-706.616	-45.805	-0.125	0.062
-705.602	328.243	-0.039	-0.075
-704.587	-36.016	-0.043	0.024
-703.572	-200.000	0.020	0.125
-702.558	586.279	-0.081	-0.200
-701.543	35.150	0.155	0.137
-700.529	67.198	0.151	0.155
-699.514	-200.000	-0.057	-0.283
-698.499	-21.610	-0.221	-0.136
-697.485	151.133	0.181	-0.247
-696.470	27.928	0.319	0.270
-695.456	103.027	-0.261	0.307
-694.441	18.621	0.135	-0.109
-693.426	-69.380	0.340	-0.131
-692.412	185.552	-0.103	-0.154
-691.397	335.553	0.094	-0.183
-690.383	-200.000	0.026	0.124
-689.368	125.441	0.176	-0.223
-688.354	134.478	-0.031	-0.040
-687.339	-73.249	0.354	-0.130
-686.324	131.305	-0.178	0.229
-685.310	-96.592	-0.162	0.043
-684.295	-114.071	-0.275	0.053
-683.281	-200.000	0.011	0.286
-682.266	523.104	-0.059	-0.140
-681.251	-200.000	-0.023	0.278
-680.237	690.072	0.116	0.304
-679.222	-200.000	0.034	0.175
-678.208	-132.659	-0.271	-0.035
-677.193	-18.113	0.283	-0.178
-676.178	-82.329	0.234	0.076
-675.164	-200.000	-0.050	0.228
-674.149	50.075	-0.191	-0.181
-673.135	40.310	0.118	0.106
-672.120	418.497	-0.174	-0.373
-671.105	-57.870	-0.089	-0.039
-670.091	-200.000	-0.030	0.262
-669.076	72.355	-0.198	-0.207
-668.062	-200.000	0.062	-0.297
-667.047	54.026	-0.407	0.393
-666.032	800.000	0.059	-0.218
-665.018	-133.108	-0.318	-0.040
-664.003	146.977	-0.038	0.051
-662.989	800.000	0.047	-0.201
-661.974	-82.523	-0.341	0.111
-660.959	-11.508	-0.261	-0.172
-659.945	-80.016	-0.037	-0.012
-658.930	86.954	-0.249	-0.276
-657.916	-200.000	0.023	-0.116
-656.901	643.505	0.091	-0.232
-655.886	181.493	-0.053	0.079
-654.872	-124.302	0.078	0.012
-653.857	-29.217	-0.140	-0.080
-652.843	-116.016	-0.246	0.046
-651.828	-154.430	-0.257	0.017
-650.814	-200.000	-0.107	0.472
-649.799	-200.000	-0.018	-0.104
-648.784	144.340	0.072	-0.097
-647.770	-141.187	0.156	-0.016
-646.755	29.149	-0.169	-0.144
-645.741	-68.140	0.137	-0.053
-644.726	-155.387	-0.202	-0.013
-643.711	-61.012	-0.253	0.107
-642.697	-119.396	0.208	-0.036
-641.682	-80.160	-0.250	0.084
-640.668	103.484	0.200	-0.235
-639.653	38.602	-0.097	0.087
-638.638	-200.000	0.027	-0.186
-637.624	-156.935	0.195	0.012
-636.609	-29.436	-0.078	0.045
-635.595	-200.000	0.007	-0.289
-634.580	-200.000	0.056	-0.600
-633.565	23.618	-0.099	0.081
-632.551	467.938	0.176	0.395
-631.536	566.831	-0.033	0.080
-630.522	349.604	0.108	0.213
-629.507	-128.714	0.156	0.022
-628.492	420.700	0.214	0.460
-627.478	255.000	0.109	0.188
-626.463	-94.507	0.323	0.088
-625.449	74.752	-0.108	-0.114
-624.434	164.911	-0.190	-0.269
-623.419	-95.321	0.362	0.098
-622.405	-131.339	0.237	-0.031
-621.390	-65.219	-0.225	0.091
-620.376	-200.000	-0.055	0.405
-619.361	260.590	0.099	0.172
-618.346	-200.000	0.081	0.380
-617.332	-200.000	0.039	-0.309
-616.317	-46.259	0.277	0.137
-615.303	-200.000	0.043	0.243
-614.288	273.286	0.058	0.103
-613.273	-82.527	0.092	0.030
-612.259	16.235	-0.237	0.188
-611.244	-6.530	-0.261	0.178
-610.230	800.000	0.084	0.366
-609.215	479.453	0.066	-0.149
-608.201	-200.000	0.026	0.209
-607.186	420.320	-0.110	0.237
-606.171	-24.939	0.161	0.096
-605.157	-17.701	0.190	0.119
-604.142	162.866	0.041	-0.058
-603.128	245.374	-0.150	-0.253
-602.113	257.380	-0.109	-0.187
-601.098	40.555	-0.167	-0.151
-600.084	-200.000	-0.009	-0.171
-599.069	800.000	-0.090	0.327
-598.055	-37.614	-0.321	0.171
-597.040	16.735	0.166	0.132
-596.025	-200.000	0.141	0.000
-595.011	515.332	-0.023	-0.053
-593.996	-200.000	-0.022	-0.188
-592.982	44.708	-0.068	0.062
-591.967	-141.894	0.097	-0.010
-590.952	-28.425	0.279	0.161
-589.938	-98.435	0.139	-0.036
-588.923	496.833	0.081	-0.186
-587.909	782.157	0.101	-0.278
-586.894	224.143	0.093	-0.150
-585.879	-100.018	0.015	0.004
-584.865	186.664	0.154	0.230
-583.850	-75.318	-0.310	0.111
-582.836	-133.217	-0.088	0.011
-581.821	7.540	-0.042	0.032
-580.806	-159.808	0.277	-0.015
-579.792	800.000	0.039	-0.151
-578.777	-133.042	0.240	-0.031
-577.763	-48.593	-0.370	-0.178
-576.748	218.118	-0.120	0.192
-575.733	-105.510	0.144	-0.033
-574.719	464.767	0.044	-0.098
-573.704	-12.614	0.117	0.077
-572.690	800.000	-0.030	0.122
-571.675	-12.283	-0.014	0.009
-570.661	225.971	-0.331	0.537
-569.646	208.978	0.016	0.024
-568.631	800.000	-0.070	-0.280
-567.617	144.693	0.056	0.075
-566.602	-87.615	0.210	-0.063
-565.588	-94.703	-0.212	-0.058
-564.573	-200.000	-0.021	0.183
-563.558	800.000	-0.120	-0.456
-562.544	-102.066	0.198	-0.048
-561.529	32.401	-0.244	0.211
-560.515	-63.063	0.255	0.105
-559.500	-63.776	-0.118	0.048
-558.485	-71.520	0.218	-0.081
-557.471	65.581	-0.154	0.156
-556.456	800.000	-0.086	0.286
-555.442	-200.000	0.023	0.176
-554.427	-118.845	-0.122	0.021
-553.412	50.885	-0.348	-0.329
-552.398	-200.000	-0.072	0.420
-551.383	-152.764	0.060	0.004
-550.369	-200.000	-0.032	0.206
-549.354	3.478	-0.238	-0.173
-548.339	-29.368	0.274	-0.156
-547.325	800.000	-0.082	0.353
-546.310	324.796	0.057	-0.109
-545.296	-118.163	0.099	0.018
-544.281	-188.762	-0.382	-0.005
-543.266	-25.561	0.207	-0.122
-542.252	-88.743	0.251	-0.074
-541.237	-138.484	0.117	0.013
-540.223	255.533	-0.049	-0.083
-539.208	16.106	-0.100	-0.079
-538.193	96.836	0.089	0.102
-537.179	190.353	-0.060	0.090
-536.164	-200.000	0.050	-0.534
-535.150	-85.868	0.256	-0.079
-534.135	49.798	0.280	-0.264
-533.121	114.501	0.013	0.015
-532.106	358.156	-0.026	-0.051
-531.091	64.258	-0.043	0.044
-530.077	-25.038	-0.047	0.028
-529.062	-34.652	-0.183	-0.100
-528.048	12.355	-0.190	0.146
-527.033	-20.264	0.264	-0.162
-526.018	165.800	0.152	0.215
-525.004	197.558	-0.258	0.393
-523.989	26.406	0.052	-0.043
-522.975	800.000	-0.070	-0.208
-521.960	23.988	-0.161	-0.132
-520.945	800.000	-0.026	0.076
-519.931	800.000	-0.045	-0.149
-518.916	-200.000	-0.029	0.206
-517.902	297.178	0.218	-0.400
-516.887	299.383	-0.056	0.103
-515.872	-57.010	0.268	0.118
-514.858	-155.232	-0.193	0.013
-513.843	376.195	-0.156	0.318
-512.829	357.085	0.023	0.046
-511.814	-37.415	-0.135	0.072
-510.799	7.932	-0.148	-0.110
-509.785	-161.616	0.350	0.018
-508.770	-196.967	-0.150	-0.001
-507.756	58.704	0.139	-0.136
-506.741	-200.000	-0.040	0.210
-505.726	-74.555	0.360	0.129
-504.712	213.374	-0.023	0.036
-503.697	800.000	0.071	-0.261
-502.683	-7.943	-0.263	-0.177
-501.668	141.936	-0.128	-0.169
-500.653	118.102	0.200	0.246
-499.639	800.000	-0.020	0.084
-498.624	-200.000	0.014	0.087
-497.610	277.519	0.142	-0.251
-496.595	-55.015	0.085	-0.038
-495.581	96.910	0.018	0.021
-494.566	-56.906	-0.052	-0.023
-493.551	112.722	-0.081	0.098
-492.537	331.601	-0.176	-0.339
-491.522	3.149	0.309	-0.224
-490.508	-40.157	-0.182	-0.095
-489.493	-53.616	0.343	0.156
-488.478	-200.000	0.060	-0.527
-487.464	253.858	-0.285	0.486
-486.449	105.433	0.240	0.282
-485.435	392.929	-0.087	0.181
-484.420	135.860	-0.267	-0.346
-483.405	15.251	-0.127	-0.099
-482.391	-200.000	-0.045	0.312
-481.376	90.508	-0.084	0.094
-480.362	-113.754	-0.195	0.038
-479.347	-45.218	0.080	-0.039
-478.332	102.822	-0.066	-0.077
-477.318	800.000	-0.050	-0.200
-476.303	197.625	-0.056	-0.085
-475.289	146.455	0.062	0.083
-474.274	157.112	-0.253	0.349
-473.259	-200.000	-0.015	0.177
-472.245	800.000	-0.045	-0.132
-471.230	38.233	0.048	0.043
-470.216	-39.123	-0.460	0.241
-469.201	-200.000	-0.015	-0.096
-468.186	-85.293	-0.136	-0.042
-467.172	800.000	-0.073	0.203
-466.157	-24.385	-0.124	-0.073
-465.143	51.749	0.197	-0.187
-464.128	-200.000	-0.102	-0.501
-463.113	-81.268	0.195	0.064
-462.099	45.051	-0.105	-0.096
-461.084	800.000	-0.021	0.082
-460.070	104.952	0.114	0.133
-459.055	-184.228	0.529	0.009
-458.040	-116.958	-0.177	-0.032
-457.026	-84.219	0.325	-0.103
-456.011	-115.660	0.152	-0.028
-454.997	-95.558	-0.507	0.135
-453.982	45.184	0.109	0.100
-452.968	342.486	-0.080	0.156
-451.953	112.955	-0.101	0.122
-450.938	29.539	-0.125	-0.106
-449.924	243.940	-0.090	-0.150
-448.909	96.373	-0.077	0.088
-447.895	14.185	0.256	0.199
-446.880	-143.564	-0.215	-0.020
-445.865	62.735	0.142	-0.141
-444.851	-23.319	0.095	-0.057
-443.836	195.999	0.073	0.110
-442.822	65.447	-0.208	0.210
-441.807	-200.000	0.007	0.076
-440.792	-106.594	0.299	0.066
-439.778	-33.855	-0.150	-0.082
-438.763	-140.316	-0.192	0.020
-437.749	800.000	0.133	0.365
-436.734	102.056	-0.258	0.300
-435.719	-200.000	0.004	-0.198
-434.705	-200.000	-0.037	0.164
-433.690	-200.000	-0.010	-0.097
-432.676	-200.000	-0.288	0.001
-431.661	-13.990	-0.287	-0.184
-430.646	38.266	0.146	-0.130
-429.632	81.555	0.301	-0.324
-428.617	-18.434	-0.011	-0.007
-427.603	123.641	0.179	-0.223
-426.588	-200.000	0.013	-0.248
-425.573	31.553	-0.353	-0.301
-424.559	79.342	-0.271	-0.289
-423.544	-25.148	0.267	0.157
-422.530	-141.714	-0.045	-0.005
-421.515	60.504	0.198	0.194
-420.500	105.968	-0.043	-0.050
-419.486	219.281	-0.199	-0.317
-418.471	-111.584	-0.292	0.059
-417.457	-133.315	-0.183	0.023
-416.442	297.945	-0.023	0.042
-415.428	103.125	0.128	-0.149
-414.413	800.000	0.157	-0.444
-413.398	-107.862	0.258	0.056
-412.384	-80.182	0.355	-0.118
-411.369	800.000	-0.040	-0.167
-410.355	-27.542	0.138	0.080
-409.340	800.000	0.132	0.377
-408.325	800.000	-0.061	0.211
-407.311	-149.527	0.180	0.014
-406.296	708.665	0.048	0.126
-405.282	-51.717	0.317	-0.147
-404.267	57.894	-0.147	-0.143
-403.252	6.676	0.235	0.174
-402.238	-200.000	-0.038	0.249
-401.223	-18.581	-0.197	-0.122
-400.209	-87.167	-0.319	0.096
-399.194	48.580	0.122	0.113
-398.179	285.243	-0.167	-0.298
-397.165	-90.134	0.284	-0.082
-396.150	143.916	-0.080	-0.107
-395.136	-19.831	0.044	-0.027
-394.121	-188.847	-0.276	-0.003
-393.106	268.178	-0.175	-0.304
-392.092	-68.276	0.076	0.029
-391.077	325.747	-0.133	-0.252
-390.063	-41.055	0.137	0.070
-389.048	104.577	-0.106	-0.125
-388.033	-200.000	0.034	-0.222
-387.019	-200.000	-0.006	-0.129
-386.004	-58.294	-0.246	-0.106
-384.990	-200.000	0.002	0.111
-383.975	-128.829	0.049	0.007
-382.960	131.482	-0.106	0.135
-381.946	95.995	-0.175	-0.198
-380.931	800.000	-0.086	0.331
-379.917	-147.440	0.275	-0.023
-378.902	5.564	-0.257	0.189
-377.888	7.727	0.030	0.022
-376.873	-200.000	-0.001	-0.214
-375.858	-116.379	0.338	0.062
-374.844	86.560	-0.043	-0.047
-373.829	-200.000	0.035	-0.164
-372.815	13.854	-0.287	-0.222
-371.800	410.237	0.121	0.254
-370.785	188.359	0.118	0.176
-369.771	-118.278	0.267	0.047
-368.756	800.000	0.055	-0.164
-367.742	800.000	-0.072	0.280
-366.727	800.000	-0.074	-0.206
-365.712	-74.344	-0.236	-0.084
-364.698	53.973	-0.200	-0.190
-363.683	-200.000	0.002	-0.022
-362.669	10.927	-0.098	-0.074
-361.654	-200.000	0.028	0.327
-360.639	163.555	-0.090	-0.126
-359.625	75.244	0.065	-0.068
-358.610	-200.000	-0.045	0.270
-357.596	-200.000	0.144	0.000
-356.581	123.680	-0.315	0.392
-355.566	-27.271	0.096	-0.055
-354.552	-200.000	0.057	0.248
-353.537	-137.551	-0.137	0.015
-352.523	-29.257	0.135	0.077
-351.508	27.689	-0.228	0.190
-350.493	-63.224	0.132	-0.054
-349.479	-94.997	-0.317	-0.085
-348.464	-200.000	-0.037	-0.375
-347.450	232.456	-0.105	0.171
-346.435	51.436	0.190	-0.179
-345.420	-14.297	-0.255	0.163
-344.406	116.250	0.089	-0.108
-343.391	280.866	0.055	0.098
-342.377	-131.487	0.190	-0.025
-341.362	-78.399	0.419	0.142
-340.348	112.507	0.076	-0.092
-339.333	141.150	0.032	-0.042
-338.318	-30.512	0.303	-0.170
-337.304	170.799	0.106	0.151
-336.289	-85.348	-0.161	0.050
-335.275	-140.216	0.062	-0.006
-334.260	4.958	-0.152	0.111
-333.245	-152.269	-0.271	0.019
-332.231	-169.456	-0.236	-0.009
-331.216	396.809	-0.085	0.176
-330.202	-33.546	0.236	-0.129
-329.187	-67.554	-0.184	-0.071
-328.172	-200.000	-0.034	-0.231
-327.158	-200.000	0.006	-0.063
-326.143	124.480	0.218	0.272
-325.129	-142.635	-0.097	-0.009
-324.114	-200.000	-0.003	-0.092
-323.099	55.409	-0.279	-0.268
-322.085	142.378	0.150	0.198
-321.070	-52.179	-0.211	0.097
-320.056	-11.711	-0.179	-0.116
-319.041	82.120	0.260	0.279
-318.026	38.736	0.157	-0.139
-317.012	-59.711	-0.283	-0.120
-315.997	406.832	-0.055	-0.115
-314.983	-200.000	0.044	0.233
-313.968	181.107	0.192	0.279
-312.953	9.868	0.229	-0.172
-311.939	-15.740	-0.174	-0.110
-310.924	800.000	0.143	0.399
-309.910	-200.000	0.005	-0.188
-308.895	-71.743	-0.301	0.111
-307.880	-108.943	0.128	-0.027
-306.866	-82.714	-0.146	-0.047
-305.851	220.900	-0.107	-0.170
-304.837	439.592	0.047	0.102
-303.822	360.627	0.063	0.125
-302.807	-126.188	0.188	-0.028
-301.793	-177.280	-0.155	-0.004
-300.778	16.307	-0.220	0.172
-299.764	-200.000	0.063	0.274
-298.749	156.227	-0.093	-0.126
-297.735	-166.388	0.134	0.006
-296.720	-82.795	0.022	-0.007
-295.705	475.498	-0.109	-0.243
-294.691	536.392	-0.067	0.157
-293.676	-42.269	0.197	-0.099
-292.662	230.273	-0.115	-0.187
-291.647	-88.838	0.323	0.095
-290.632	-105.619	0.245	-0.055
-289.618	86.631	-0.161	0.175
-288.603	313.829	0.075	-0.139
-287.589	140.170	0.264	0.344
-286.574	263.079	0.267	-0.459
-285.559	-115.374	-0.179	0.033
-284.545	17.783	-0.161	-0.127
-283.530	-200.000	-0.013	0.437
-282.516	800.000	-0.025	0.106
-281.501	800.000	-0.088	-0.301
-280.486	90.279	-0.092	0.102
-279.472	104.244	0.163	0.190
-278.457	33.502	-0.179	-0.154
-277.443	98.688	-0.075	0.085
-276.428	-135.703	-0.140	-0.016
-275.413	800.000	0.064	0.230
-274.399	450.136	0.080	-0.175
-273.384	-200.000	0.007	0.055
-272.370	-116.776	0.097	-0.018
-271.355	57.701	0.308	0.298
-270.340	-129.802	-0.249	-0.034
-269.326	-156.918	-0.188	-0.011
-268.311	-81.921	-0.125	-0.040
-267.297	-0.732	0.125	0.087
-266.282	800.000	0.092	0.293
-265.267	-133.197	0.065	0.008
-264.253	334.423	0.077	-0.147
-263.238	-200.000	0.016	0.140
-262.224	-200.000	0.009	-0.177
-261.209	800.000	0.033	-0.141
-260.195	548.912	-0.019	0.046
-259.180	-200.000	0.039	-0.385
-258.165	-95.672	-0.439	-0.116
-257.151	353.051	-0.233	-0.457
-256.136	-155.711	0.379	-0.024
-255.122	286.221	-0.036	0.064
-254.107	-200.000	-0.012	-0.198
-253.092	800.000	-0.038	-0.106
-252.078	783.454	0.092	0.250
-251.063	-130.768	0.114	0.015
-250.049	-41.994	0.271	0.137
-249.034	13.945	-0.171	-0.131
-248.019	98.942	0.170	0.194
-247.005	-200.000	0.012	-0.098
-245.990	118.120	0.211	-0.257
-244.976	800.000	-0.104	0.375
-243.961	194.920	-0.130	-0.194
-242.946	-85.299	0.056	-0.017
-241.932	0.489	-0.067	-0.047
-240.917	-27.091	0.104	0.060
-239.903	-200.000	-0.028	0.238
-238.888	111.392	0.111	-0.132
-237.873	141.492	0.048	-0.063
-236.859	-200.000	0.093	0.415
-235.844	-157.859	-0.281	-0.016
-234.830	800.000	0.101	-0.314
-233.815	-52.249	-0.176	-0.081
-232.800	638.237	0.083	-0.208
-231.786	651.137	-0.067	-0.169
-230.771	445.752	-0.078	-0.170
-229.757	65.908	-0.195	0.195
-228.742	800.000	-0.003	0.011
-227.727	-200.000	-0.014	-0.094
-226.713	772.191	-0.080	0.216
-225.698	-141.826	0.504	0.050
-224.684	-175.445	0.251	0.007
-223.669	-200.000	0.034	0.149
-222.655	7.217	0.110	0.081
-221.640	-90.322	-0.346	0.099
-220.625	64.154	0.255	0.253
-219.611	-153.631	-0.036	-0.002
-218.596	92.246	-0.043	0.048
-217.582	294.250	-0.142	-0.256
-216.567	-200.000	0.001	-0.268
-215.552	7.029	0.142	0.105
-214.538	800.000	-0.042	-0.158
-213.523	800.000	-0.012	-0.047
-212.509	256.731	0.081	-0.137
-211.494	-200.000	0.051	0.299
-210.479	800.000	-0.113	0.394
-209.465	-200.000	-0.030	0.213
-208.450	-68.476	-0.389	0.149
-207.436	-31.445	-0.149	0.083
-206.421	800.000	0.043	0.149
-205.406	-39.450	0.366	-0.189
-204.392	-37.897	-0.136	0.071
-203.377	103.169	0.211	-0.244
-202.363	-46.014	0.042	-0.021
-201.348	-200.000	0.027	0.240
-200.333	-200.000	-0.035	0.314
-199.319	800.000	0.031	-0.132
-198.304	-123.215	-0.225	0.036
-197.290	-200.000	0.004	-0.294
-196.275	-107.375	0.354	-0.077
-195.260	-20.455	0.182	-0.110
-194.246	-200.000	-0.013	0.162
-193.231	800.000	-0.047	0.184
-192.217	-88.089	0.333	0.098
-191.202	60.642	-0.221	-0.216
-190.187	162.863	-0.256	-0.355
-189.173	-200.000	-0.031	-0.192
-188.158	800.000	-0.061	0.250
-187.144	800.000	0.069	0.254
-186.129	-90.736	-0.134	-0.038
-185.114	800.000	-0.152	-0.443
-184.100	-200.000	0.064	-0.283
-183.085	-200.000	0.075	-0.436
-182.071	-43.684	0.108	0.053
-181.056	-200.000	-0.019	-0.394
-180.042	-200.000	-0.018	0.289
-179.027	800.000	0.113	0.378
-178.012	-190.530	0.091	-0.001
-176.998	-40.917	-0.136	-0.069
-175.983	386.024	-0.127	-0.257
-174.969	800.000	-0.016	0.051
-173.954	0.103	0.259	0.182
-172.939	467.384	0.095	-0.210
-171.925	90.646	-0.116	-0.128
-170.910	-143.128	-0.235	-0.022
-169.896	-83.364	0.365	0.115
-168.881	711.884	0.075	-0.196
-167.866	-200.000	-0.033	-0.232
-166.852	-141.344	-0.099	-0.010
-165.837	505.018	-0.171	-0.390
-164.823	800.000	-0.042	-0.162
-163.808	-200.000	-0.038	0.207
-162.793	209.660	-0.117	-0.180
-161.779	800.000	-0.109	0.367
-160.764	-97.027	0.051	-0.013
-159.750	-69.017	0.337	0.128
-158.735	-200.000	0.020	0.167
-157.720	-115.786	0.021	-0.004
-156.706	490.321	-0.079	-0.178
-155.691	800.000	0.031	0.113
-154.677	-76.453	0.036	-0.012
-153.662	-200.000	-0.013	-0.163
-152.647	1.918	-0.194	-0.138
-151.633	800.000	0.052	0.202
-150.618	-146.836	-0.232	-0.020
-149.604	555.708	-0.111	0.262
-148.589	-51.247	0.247	-0.114
-147.574	115.887	0.123	-0.148
-146.560	-200.000	-0.004	-0.204
-145.545	169.490	0.108	0.152
-144.531	173.677	-0.140	-0.199
-143.516	-200.000	0.011	-0.159
-142.502	78.922	0.066	-0.069
-141.487	-93.564	0.318	-0.086
-140.472	-179.294	-0.242	-0.005
-139.458	-41.507	0.318	0.161
-138.443	-0.239	-0.038	0.027
-137.429	-29.296	0.359	0.202
-136.414	-46.706	-0.240	-0.116
-135.399	-47.663	0.107	0.051
-134.385	-62.054	0.200	-0.082
-133.370	-200.000	0.019	0.195
-132.356	55.157	0.181	-0.172
-131.341	-107.666	-0.158	0.034
-130.326	30.367	-0.181	-0.152
-129.312	13.301	-0.048	-0.037
-128.297	427.333	0.132	0.279
-127.283	8.680	-0.289	0.214
-126.268	-47.830	-0.216	0.103
-125.253	-16.849	-0.197	0.122
-124.239	-131.809	0.211	0.027
-123.224	-21.399	-0.077	0.046
-122.210	-39.355	0.076	0.039
-121.195	-138.878	0.274	0.029
