DTS Sentinel unit serial number:	SN413079Multiplexer serial number:	ORYXHardware model number:	OX4-SRSoftware version number:	ORYX F/W v4.00 Oryx Data Collector v3.7.2.0data status	okinstallation	princeton_trtdifferential loss correction	single-endedforward channel	channel 1reverse channel	N/Adate	2019/09/12time	03:12:11forward acquisition time	60.00reverse acquisition time	0.00gamma	496.2192k internal	0.2322k external	0.2322temperature offset calibration	1.0084default loss term (dB/km)	0.3790temperature slope calibration	1.0000multiplexer offset coefficient	1.0000multiplexer slope coefficient	1.0000fibre end	0.00T internal ref (°C)	32.27T ext. ref 1 (°C)	2.10T ext. ref 2 (°C)	27.04length (m)	temperature (°C)	Stokes	anti-Stokes-747.200	800.000	0.069	0.288
-746.185	-103.691	0.365	0.086
-745.171	-70.160	0.330	-0.127
-744.156	800.000	-0.083	0.283
-743.142	-200.000	0.011	0.055
-742.127	-200.000	0.073	0.375
-741.112	-77.985	0.364	0.127
-740.098	-200.000	0.017	0.309
-739.083	-30.560	-0.077	0.044
-738.069	144.679	-0.212	0.286
-737.054	-7.582	-0.135	-0.092
-736.039	-76.609	-0.154	-0.055
-735.025	-152.440	0.438	0.032
-734.010	435.394	-0.160	-0.351
-732.996	-200.000	0.021	0.207
-731.981	74.542	0.253	-0.268
-730.966	28.079	-0.078	-0.066
-729.952	-107.628	-0.190	-0.042
-728.937	-44.003	-0.144	-0.073
-727.923	113.368	-0.252	-0.308
-726.908	-13.174	-0.209	-0.137
-725.894	18.529	-0.127	-0.103
-724.879	800.000	0.042	0.165
-723.864	-160.092	0.260	-0.014
-722.850	102.612	-0.132	-0.156
-721.835	-2.405	-0.277	-0.196
-720.821	800.000	0.022	-0.095
-719.806	42.042	-0.137	0.125
-718.791	567.131	0.017	-0.041
-717.777	-200.000	-0.043	-0.352
-716.762	435.030	-0.057	0.125
-715.748	-200.000	-0.069	0.351
-714.733	-200.000	0.008	-0.150
-713.718	367.553	-0.068	0.139
-712.704	-32.417	-0.171	-0.096
-711.689	456.199	-0.074	-0.166
-710.675	389.576	0.272	-0.568
-709.660	134.605	0.257	-0.336
-708.645	33.805	-0.175	0.154
-707.631	516.791	-0.096	0.226
-706.616	-200.000	0.025	-0.109
-705.602	338.340	0.160	0.315
-704.587	-24.347	-0.141	0.085
-703.572	370.258	0.201	-0.411
-702.558	178.228	-0.224	-0.330
-701.543	19.771	0.104	-0.085
-700.529	-164.218	0.409	0.019
-699.514	800.000	0.032	0.106
-698.499	-53.792	-0.203	0.093
-697.485	-7.439	0.174	-0.119
-696.470	-200.000	-0.021	-0.497
-695.456	-89.486	-0.072	-0.021
-694.441	-95.810	-0.230	0.062
-693.426	-111.112	-0.102	0.021
-692.412	25.136	-0.032	0.027
-691.397	-40.482	-0.006	0.003
-690.383	-73.030	-0.345	0.128
-689.368	56.819	-0.150	0.147
-688.354	-42.659	0.191	0.098
-687.339	-48.631	-0.092	0.045
-686.324	800.000	-0.039	-0.125
-685.310	-200.000	-0.055	-0.338
-684.295	-102.114	-0.114	-0.028
-683.281	18.178	-0.286	0.230
-682.266	-109.357	0.267	-0.057
-681.251	51.340	-0.108	0.103
-680.237	148.575	-0.157	-0.214
-679.222	-200.000	0.090	-0.411
-678.208	-200.000	0.013	-0.080
-677.193	147.467	0.202	-0.274
-676.178	1.791	-0.268	-0.195
-675.164	18.016	0.201	0.162
-674.149	523.124	0.106	0.250
-673.135	-43.478	0.314	0.160
-672.120	13.048	-0.335	-0.261
-671.105	-200.000	0.023	-0.273
-670.091	-91.668	-0.220	0.063
-669.076	520.634	0.066	-0.156
-668.062	-75.794	0.263	0.094
-667.047	309.819	0.126	-0.238
-666.032	656.509	-0.067	-0.174
-665.018	-200.000	0.009	0.060
-664.003	-103.110	0.118	-0.028
-662.989	-130.214	0.413	-0.057
-661.974	-49.079	-0.084	-0.041
-660.959	188.089	0.061	0.092
-659.945	-200.000	-0.005	0.116
-658.930	-25.463	-0.231	-0.137
-657.916	285.252	-0.023	-0.041
-656.901	800.000	0.024	0.067
-655.886	800.000	-0.018	-0.052
-654.872	188.204	-0.032	-0.049
-653.857	-183.071	0.209	-0.004
-652.843	144.827	0.080	-0.107
-651.828	-192.121	0.214	0.002
-650.814	100.622	0.298	-0.348
-649.799	-149.487	-0.308	-0.025
-648.784	132.288	0.195	-0.253
-647.770	-200.000	-0.017	0.119
-646.755	-200.000	0.070	0.340
-645.741	-102.571	-0.203	0.049
-644.726	800.000	-0.118	0.374
-643.711	450.391	-0.080	-0.177
-642.697	-41.346	-0.269	0.140
-641.682	18.215	0.024	-0.019
-640.668	-157.092	0.303	0.019
-639.653	-47.232	-0.038	0.018
-638.638	-200.000	-0.038	-0.252
-637.624	-128.701	-0.311	-0.044
-636.609	-105.854	0.493	-0.112
-635.595	79.869	0.189	-0.204
-634.580	-53.049	-0.044	-0.020
-633.565	-200.000	-0.021	0.163
-632.551	593.988	-0.094	0.233
-631.536	-200.000	0.003	0.107
-630.522	-200.000	0.041	-0.332
-629.507	-180.923	0.197	0.004
-628.492	590.377	-0.110	-0.272
-627.478	357.116	-0.100	-0.201
-626.463	-200.000	0.029	-0.286
-625.449	372.155	-0.026	0.053
-624.434	-15.957	0.158	0.101
-623.419	-200.000	-0.011	-0.221
-622.405	2.587	-0.383	-0.279
-621.390	800.000	-0.061	0.247
-620.376	100.768	-0.171	0.200
-619.361	-126.112	-0.227	0.034
-618.346	-98.795	-0.347	-0.089
-617.332	-200.000	-0.012	-0.168
-616.317	-200.000	-0.037	-0.226
-615.303	116.202	0.136	0.167
-614.288	61.742	-0.272	-0.272
-613.273	800.000	0.073	-0.218
-612.259	-146.029	-0.345	0.031
-611.244	222.744	-0.163	-0.264
-610.230	352.615	0.092	-0.183
-609.215	367.007	-0.122	0.248
-608.201	199.300	0.056	-0.087
-607.186	-132.152	0.041	0.005
-606.171	-200.000	0.013	-0.541
-605.157	-122.624	0.313	0.051
-604.142	-20.318	-0.135	0.084
-603.128	800.000	0.155	-0.552
-602.113	-200.000	-0.016	0.157
-601.098	-200.000	-0.021	0.202
-600.084	29.688	0.214	0.183
-599.069	18.041	0.252	0.202
-598.055	800.000	0.035	0.099
-597.040	-200.000	-0.023	-0.103
-596.025	-97.831	0.244	0.063
-595.011	-82.748	-0.184	-0.060
-593.996	200.134	-0.074	0.114
-592.982	-95.878	0.300	-0.080
-591.967	60.693	0.183	0.183
-590.952	-94.813	0.466	-0.127
-589.938	800.000	-0.013	-0.051
-588.923	66.519	0.282	-0.288
-587.909	-141.813	0.067	0.007
-586.894	500.468	-0.041	-0.095
-585.879	-120.710	-0.223	-0.038
-584.865	-101.517	-0.144	-0.035
-583.850	211.236	-0.230	0.364
-582.836	-31.589	-0.245	-0.138
-581.821	800.000	0.045	-0.177
-580.806	-200.000	0.028	-0.225
-579.792	-115.625	-0.103	0.019
-578.777	500.790	0.135	-0.313
-577.763	425.726	-0.096	-0.209
-576.748	73.065	-0.219	0.229
-575.733	202.138	0.094	0.145
-574.719	-64.971	0.375	0.152
-573.704	-200.000	0.025	-0.282
-572.690	-200.000	0.031	-0.329
-571.675	-126.969	0.240	-0.035
-570.661	133.481	0.069	-0.090
-569.646	275.277	-0.054	-0.095
-568.631	20.117	-0.178	-0.144
-567.617	-126.554	-0.362	0.054
-566.602	57.543	0.168	-0.165
-565.588	-7.926	0.085	0.058
-564.573	57.050	0.090	-0.088
-563.558	-65.367	-0.263	-0.106
-562.544	-83.403	-0.362	0.116
-561.529	157.397	0.149	0.207
-560.515	206.481	-0.192	-0.300
-559.500	-22.293	-0.219	-0.133
-558.485	72.041	-0.085	0.089
-557.471	800.000	0.065	0.210
-556.456	-154.907	-0.332	0.022
-555.442	109.767	-0.036	-0.044
-554.427	800.000	0.022	-0.091
-553.412	-163.867	-0.152	-0.007
-552.398	-150.065	-0.200	-0.016
-551.383	89.300	-0.251	0.281
-550.369	206.115	-0.238	0.371
-549.354	-200.000	0.017	0.227
-548.339	800.000	0.039	0.141
-547.325	-104.479	0.126	-0.029
-546.310	800.000	0.108	0.327
-545.296	-101.306	0.322	-0.079
-544.281	78.141	0.294	-0.314
-543.266	6.215	-0.360	-0.268
-542.252	-200.000	-0.014	-0.065
-541.237	-93.681	-0.061	0.017
-540.223	-83.217	0.150	-0.048
-539.208	49.133	-0.077	0.073
-538.193	402.694	-0.040	-0.084
-537.179	-200.000	-0.011	0.077
-536.164	800.000	0.053	-0.165
-535.150	-45.977	-0.067	0.033
-534.135	30.877	0.208	0.179
-533.121	-200.000	0.016	0.224
-532.106	399.386	0.077	0.161
-531.091	-107.521	0.132	0.029
-530.077	-200.000	-0.010	-0.318
-529.062	201.646	-0.072	0.111
-528.048	-125.630	-0.202	-0.031
-527.033	233.724	0.109	-0.181
-526.018	-200.000	0.081	-0.388
-525.004	-103.113	-0.150	0.036
-523.989	-200.000	0.074	0.398
-522.975	-103.796	-0.150	0.035
-521.960	733.509	-0.165	0.442
-520.945	45.591	-0.201	-0.186
-519.931	-200.000	-0.092	-0.424
-518.916	186.522	0.255	0.380
-517.902	-84.429	0.210	0.067
-516.887	340.949	-0.143	-0.280
-515.872	-102.405	-0.418	-0.100
-514.858	126.706	-0.042	0.053
-513.843	-200.000	0.010	0.128
-512.829	-172.635	0.212	-0.007
-511.814	13.599	-0.279	-0.217
-510.799	-104.854	0.079	-0.018
-509.785	-61.881	0.222	0.093
-508.770	-200.000	0.003	-0.255
-507.756	179.134	-0.133	-0.195
-506.741	539.480	0.019	-0.046
-505.726	309.364	-0.116	-0.216
-504.712	213.709	-0.014	-0.023
-503.697	36.293	0.067	0.059
-502.683	-107.329	0.126	0.028
-501.668	78.674	0.150	-0.160
-500.653	88.942	-0.108	0.120
-499.639	-13.398	-0.215	-0.139
-498.624	-131.474	0.196	0.026
-497.610	-96.806	-0.192	0.051
-496.595	-36.854	0.260	-0.140
-495.581	-162.252	-0.306	0.015
-494.566	800.000	-0.049	0.211
-493.551	-11.921	0.198	0.130
-492.537	-120.701	0.116	0.020
-491.522	-200.000	0.026	0.126
-490.508	-36.408	0.327	-0.176
-489.493	228.139	0.182	0.296
-488.478	-150.336	0.185	0.014
-487.464	34.179	-0.083	-0.073
-486.449	-116.457	-0.014	0.003
-485.435	-112.997	0.129	-0.025
-484.420	34.528	0.323	0.282
-483.405	-200.000	0.027	0.205
-482.391	-200.000	-0.001	0.137
-481.376	-200.000	0.018	-0.272
-480.362	743.075	-0.142	-0.382
-479.347	14.750	-0.108	0.085
-478.332	30.558	0.141	-0.121
-477.318	-200.000	0.059	-0.323
-476.303	-50.216	0.275	-0.130
-475.289	46.124	0.151	-0.140
-474.274	-44.107	0.202	-0.101
-473.259	-102.298	-0.164	-0.039
-472.245	141.953	0.192	-0.255
-471.230	-195.045	0.372	-0.003
-470.216	144.235	0.102	0.136
-469.201	53.369	-0.262	0.251
-468.186	-54.485	0.305	0.138
-467.172	186.361	0.021	-0.032
-466.157	49.258	-0.092	-0.086
-465.143	362.346	-0.169	0.340
-464.128	-200.000	0.200	0.000
-463.113	297.018	0.120	-0.220
-462.099	-81.788	0.207	0.068
-461.084	-200.000	-0.023	0.464
-460.070	-67.165	-0.273	-0.108
-459.055	-178.084	0.114	-0.003
-458.040	-22.486	-0.258	0.156
-457.026	-106.812	0.125	0.028
-456.011	223.158	0.267	0.429
-454.997	334.867	-0.022	-0.042
-453.982	49.163	0.164	-0.154
-452.968	-18.954	0.161	0.100
-451.953	228.138	-0.226	0.367
-450.938	526.063	-0.056	-0.131
-449.924	-4.225	0.027	-0.019
-448.909	-42.340	0.121	-0.062
-447.895	-180.298	-0.221	0.005
-446.880	800.000	0.033	-0.108
-445.865	-70.188	0.173	0.066
-444.851	-200.000	-0.008	0.326
-443.836	36.044	-0.171	0.150
-442.822	130.448	-0.088	-0.112
-441.807	30.518	0.166	0.142
-440.792	-200.000	0.031	0.229
-439.778	-200.000	0.243	0.001
-438.763	-65.946	0.189	0.075
-437.749	60.861	-0.095	-0.094
-436.734	-61.415	-0.184	0.077
-435.719	-200.000	0.022	-0.238
-434.705	-38.386	0.291	-0.154
-433.690	-102.624	0.307	-0.073
-432.676	-45.150	-0.192	0.095
-431.661	60.687	-0.100	-0.099
-430.646	-68.340	-0.306	0.119
-429.632	33.358	-0.080	0.070
-428.617	-200.000	-0.006	0.234
-427.603	50.261	-0.136	-0.128
-426.588	15.742	-0.038	0.030
-425.573	-160.948	0.102	0.005
-424.559	-127.557	0.356	0.052
-423.544	-35.124	0.130	0.071
-422.530	-200.000	0.037	0.202
-421.515	146.502	-0.157	0.210
-420.500	207.425	-0.105	-0.163
-419.486	-119.651	-0.268	-0.046
-418.471	177.987	0.093	0.135
-417.457	-85.387	-0.159	-0.049
-416.442	-32.163	0.156	0.087
-415.428	800.000	-0.104	-0.301
-414.413	-83.763	0.091	-0.029
-413.398	-200.000	0.026	-0.193
-412.384	-35.920	0.066	-0.035
-411.369	238.412	0.139	0.230
-410.355	-101.365	0.134	0.033
-409.340	-37.827	0.279	-0.148
-408.325	109.202	-0.156	-0.186
-407.311	-200.000	0.034	0.461
-406.296	86.640	-0.089	0.098
-405.282	-118.686	0.213	-0.037
-404.267	-200.000	-0.015	-0.236
-403.252	-20.264	-0.221	-0.136
-402.238	371.379	0.140	0.282
-401.223	-200.000	0.040	-0.198
-400.209	-27.378	0.288	0.167
-399.194	161.489	-0.177	0.247
-398.179	-124.781	0.108	0.017
-397.165	-18.046	0.096	0.060
-396.150	800.000	0.085	-0.260
-395.136	769.512	-0.053	-0.143
-394.121	167.631	-0.203	-0.288
-393.106	41.331	0.090	0.081
-392.092	800.000	-0.030	0.090
-391.077	800.000	-0.051	-0.160
-390.063	-200.000	-0.002	-0.046
-389.048	-200.000	-0.005	-0.305
-388.033	-61.350	-0.158	0.066
-387.019	-200.000	-0.040	-0.181
-386.004	359.163	-0.098	0.196
-384.990	32.216	-0.219	-0.189
-383.975	-73.190	0.090	0.033
-382.960	-200.000	0.058	0.355
-381.946	59.887	-0.133	-0.131
-380.931	-200.000	-0.005	-0.127
-379.917	-61.199	-0.100	0.042
-378.902	1.724	0.256	-0.184
-377.888	58.525	0.122	0.119
-376.873	-49.443	-0.098	0.047
-375.858	-75.030	0.192	-0.069
-374.844	-65.716	-0.380	0.152
-373.829	-57.777	-0.221	-0.096
-372.815	192.567	0.105	-0.158
-371.800	10.200	-0.157	0.119
-370.785	-14.344	0.146	-0.093
-369.771	187.982	-0.243	0.361
-368.756	33.147	-0.137	0.118
-367.742	-51.580	-0.080	0.037
-366.727	-200.000	-0.070	0.410
-365.712	-173.042	-0.188	0.006
-364.698	800.000	-0.027	-0.098
-363.683	210.543	-0.076	-0.119
-362.669	-19.052	-0.334	-0.207
-361.654	-2.664	-0.267	0.186
-360.639	-137.286	0.214	0.024
-359.625	-200.000	0.008	-0.392
-358.610	-0.773	0.320	-0.226
-357.596	-39.466	-0.410	0.214
-356.581	403.504	-0.053	-0.110
-355.566	51.690	-0.149	0.141
-354.552	-130.632	-0.091	-0.012
-353.537	78.549	0.126	-0.134
-352.523	123.011	-0.248	-0.308
-351.508	126.494	-0.086	0.108
-350.493	-104.033	0.291	0.067
-349.479	474.868	0.113	0.253
-348.464	10.894	-0.264	0.200
-347.450	-57.003	-0.314	-0.138
-346.435	-154.493	-0.228	0.015
-345.420	800.000	-0.039	0.119
-344.406	-59.790	0.335	0.143
-343.391	-149.158	-0.434	0.035
-342.377	117.609	0.088	0.107
-341.362	-200.000	0.022	0.255
-340.348	260.193	0.044	-0.076
-339.333	-200.000	-0.073	-0.383
-338.318	142.373	0.066	0.087
-337.304	-114.164	-0.050	0.010
-336.289	-200.000	0.017	-0.125
-335.275	800.000	0.075	-0.236
-334.260	-67.934	-0.188	-0.073
-333.245	-106.162	0.149	-0.033
-332.231	-200.000	-0.004	0.060
-331.216	10.132	0.232	-0.175
-330.202	-200.000	-0.010	0.088
-329.187	-182.624	0.050	-0.001
-328.172	-200.000	-0.056	0.274
-327.158	-200.000	-0.011	0.046
-326.143	52.039	0.094	-0.089
-325.129	-87.393	-0.172	-0.052
-324.114	-109.991	0.098	0.020
-323.099	634.001	0.076	0.192
-322.085	-137.274	-0.180	0.020
-321.070	-123.312	0.134	0.021
-320.056	-45.841	-0.067	-0.033
-319.041	-200.000	-0.011	0.146
-318.026	-123.316	-0.101	-0.016
-317.012	324.259	0.151	-0.286
-315.997	-200.000	0.014	-0.137
-314.983	62.370	-0.220	0.218
-313.968	-200.000	-0.002	0.154
-312.953	61.480	-0.157	-0.155
-311.939	180.739	-0.056	-0.081
-310.924	-38.392	0.325	0.171
-309.910	-200.000	-0.010	0.244
-308.895	179.498	0.123	0.179
-307.880	-200.000	-0.012	-0.210
-306.866	800.000	0.015	0.045
-305.851	-113.931	-0.230	-0.044
-304.837	-80.483	-0.127	-0.042
-303.822	62.402	-0.113	-0.112
-302.807	440.152	-0.108	-0.234
-301.793	24.410	-0.195	0.160
-300.778	132.550	0.302	0.387
-299.764	-84.967	-0.364	0.114
-298.749	281.862	-0.080	0.143
-297.735	-141.189	-0.370	-0.037
-296.720	-127.668	0.152	-0.022
-295.705	-16.775	-0.225	-0.141
-294.691	326.019	-0.166	0.316
-293.676	107.728	-0.099	0.116
-292.662	800.000	0.067	0.187
-291.647	36.836	0.127	-0.111
-290.632	-200.000	-0.065	-0.287
-289.618	800.000	0.024	-0.067
-288.603	-59.458	0.267	0.114
-287.589	39.193	-0.155	0.138
-286.574	296.114	-0.038	-0.069
-285.559	51.713	-0.377	0.356
-284.545	64.453	0.292	-0.292
-283.530	-11.396	0.227	0.148
-282.516	-51.734	0.372	0.172
-281.501	693.086	-0.096	0.249
-280.486	85.156	-0.158	0.172
-279.472	-127.439	0.104	-0.015
-278.457	67.872	0.140	0.142
-277.443	-57.154	-0.290	-0.127
-276.428	-13.827	0.247	0.158
-275.413	-200.000	0.014	0.194
-274.399	3.839	-0.161	-0.116
-273.384	-200.000	-0.042	-0.189
-272.370	424.214	-0.061	-0.130
-271.355	143.930	0.132	-0.174
-270.340	166.504	-0.065	0.091
-269.326	61.240	0.230	-0.227
-268.311	800.000	-0.058	0.160
-267.297	173.841	-0.122	0.174
-266.282	-198.469	0.213	-0.001
-265.267	-135.950	0.428	-0.050
-264.253	14.379	-0.157	0.122
-263.238	-143.268	0.175	0.017
-262.224	-10.108	0.190	0.125
-261.209	15.087	0.398	0.309
-260.195	80.010	0.065	0.069
-259.180	63.896	-0.052	0.052
-258.165	-200.000	0.002	0.027
-257.151	675.180	-0.145	-0.374
-256.136	-9.851	0.122	-0.081
-255.122	-52.176	-0.248	-0.114
-254.107	-200.000	-0.018	-0.234
-253.092	-133.518	-0.255	0.032
-252.078	800.000	0.063	0.196
-251.063	800.000	-0.037	-0.135
-250.049	-200.000	-0.013	0.071
-249.034	-200.000	-0.014	-0.269
-248.019	-117.488	-0.164	-0.029
-247.005	86.715	-0.190	-0.208
-245.990	-105.476	0.374	-0.084
-244.976	-136.348	-0.287	0.033
-243.961	120.821	-0.058	0.071
-242.946	126.792	-0.080	-0.101
-241.932	50.569	0.216	0.203
-240.917	800.000	0.100	0.376
-239.903	75.972	0.192	0.201
-238.888	800.000	-0.055	0.179
-237.873	-200.000	-0.038	0.276
-236.859	12.040	-0.278	0.212
-235.844	-25.426	-0.067	0.039
-234.830	-200.000	0.001	-0.110
-233.815	157.564	0.195	-0.268
-232.800	170.424	0.111	0.157
-231.786	-200.000	-0.015	-0.191
-230.771	800.000	-0.141	0.385
-229.757	-54.384	-0.180	-0.081
-228.742	365.076	-0.085	0.169
-227.727	-200.000	-0.025	-0.127
-226.713	7.897	-0.179	0.133
-225.698	800.000	-0.041	0.145
-224.684	716.766	0.071	-0.187
-223.669	-200.000	-0.007	0.090
-222.655	67.423	0.161	-0.163
-221.640	225.612	-0.138	-0.222
-220.625	-65.040	0.223	-0.089
-219.611	800.000	-0.077	0.299
-218.596	-200.000	0.040	0.308
-217.582	-44.917	-0.275	-0.135
-216.567	179.869	0.194	0.282
-215.552	-200.000	0.061	-0.396
-214.538	74.796	-0.010	0.010
-213.523	-120.747	-0.306	0.051
-212.509	-95.000	0.254	-0.068
-211.494	113.737	0.187	-0.225
-210.479	-136.493	0.229	0.026
-209.465	58.723	0.054	-0.052
-208.450	44.179	-0.216	-0.196
-207.436	349.784	-0.077	0.150
-206.421	-83.377	0.279	0.088
-205.406	-122.237	0.344	-0.056
-204.392	-98.438	0.094	-0.024
-203.377	-128.271	-0.017	0.002
-202.363	-200.000	0.017	0.092
-201.348	-27.683	0.208	-0.119
-200.333	130.445	0.251	0.319
-199.319	-60.787	0.440	0.184
-198.304	-164.469	-0.396	0.018
-197.290	-30.213	0.315	0.177
-196.275	337.324	0.117	0.225
-195.260	-200.000	0.215	0.000
-194.246	-122.269	0.200	-0.032
-193.231	13.346	0.170	0.130
-192.217	167.948	0.157	-0.221
-191.202	-45.282	-0.289	-0.142
-190.187	-23.465	0.308	0.183
-189.173	357.788	-0.113	0.223
-188.158	509.430	0.057	-0.131
-187.144	-200.000	-0.035	0.216
-186.129	-127.592	0.274	-0.039
-185.114	-87.778	0.140	-0.042
-184.100	-37.755	-0.651	0.342
-183.085	-63.144	0.092	-0.037
-182.071	58.627	0.185	0.179
-181.056	-73.305	-0.278	-0.101
-180.042	-200.000	-0.008	0.296
-179.027	800.000	-0.055	0.151
-178.012	800.000	0.036	-0.129
-176.998	-200.000	0.018	0.150
-175.983	-12.545	0.087	0.056
-174.969	122.570	-0.095	-0.118
-173.954	108.011	0.215	-0.253
-172.939	636.260	-0.109	-0.272
-171.925	156.969	-0.227	0.309
-170.910	607.679	-0.032	-0.079
-169.896	1.040	0.178	-0.126
-168.881	-125.519	-0.217	0.033
-167.866	-200.000	-0.054	-0.497
-166.852	-126.037	-0.130	-0.019
-165.837	-65.577	0.192	-0.076
-164.823	2.170	0.112	0.080
-163.808	24.393	0.065	0.053
-162.793	-36.735	0.156	-0.083
-161.779	-71.208	-0.145	0.054
-160.764	460.513	0.089	0.195
-159.750	-90.274	-0.207	0.059
-158.735	316.588	0.189	-0.353
-157.720	-135.006	0.363	-0.043
-156.706	67.924	-0.138	0.139
-155.691	141.118	0.301	-0.393
-154.677	35.096	-0.300	-0.259
-153.662	279.950	0.051	-0.089
-152.647	72.955	-0.225	-0.232
-151.633	82.555	-0.197	-0.212
-150.618	-200.000	0.010	-0.136
-149.604	-21.635	-0.050	0.030
-148.589	-96.987	0.406	-0.105
-147.574	-123.485	0.563	0.088
-146.560	-17.843	-0.180	-0.111
-145.545	686.286	0.029	0.075
-144.531	199.283	0.049	-0.074
-143.516	783.165	0.082	0.221
-142.502	-54.763	-0.076	-0.034
-141.487	800.000	0.100	0.324
-140.472	800.000	0.022	0.070
-139.458	363.645	-0.158	-0.312
-138.443	-144.744	-0.280	0.025
-137.429	123.737	-0.087	-0.108
-136.414	176.614	0.177	0.254
-135.399	401.752	0.091	-0.190
-134.385	-88.442	0.401	-0.118
-133.370	207.972	-0.040	-0.062
-132.356	217.970	-0.121	-0.190
-131.341	-45.268	0.106	0.052
-130.326	32.762	0.163	-0.140
-129.312	-200.000	0.006	-0.268
-128.297	0.485	0.247	0.174
-127.283	146.209	0.091	-0.120
-126.268	-141.998	0.329	0.032
-125.253	-87.470	-0.084	0.025
-124.239	-43.482	-0.521	0.259
-123.224	-44.746	-0.245	0.121
-122.210	422.542	0.116	0.245
