DTS Sentinel unit serial number:	SN413079Multiplexer serial number:	ORYXHardware model number:	OX4-SRSoftware version number:	ORYX F/W v4.00 Oryx Data Collector v3.7.2.0data status	okinstallation	princeton_trtdifferential loss correction	single-endedforward channel	channel 1reverse channel	N/Adate	2019/09/15time	12:38:35forward acquisition time	60.00reverse acquisition time	0.00gamma	496.2192k internal	0.2297k external	0.2297temperature offset calibration	0.9985default loss term (dB/km)	0.3790temperature slope calibration	1.0000multiplexer offset coefficient	1.0000multiplexer slope coefficient	1.0000fibre end	0.00T internal ref (°C)	35.47T ext. ref 1 (°C)	5.03T ext. ref 2 (°C)	33.53length (m)	temperature (°C)	Stokes	anti-Stokes-747.200	-200.000	0.027	-0.139
-746.185	553.814	-0.052	0.127
-745.171	800.000	-0.055	0.165
-744.156	369.320	-0.016	-0.033
-743.142	-33.026	0.276	0.156
-742.127	800.000	-0.079	0.223
-741.112	64.321	0.075	0.077
-740.098	-135.457	-0.250	-0.030
-739.083	37.058	-0.161	0.145
-738.069	-200.000	0.046	0.273
-737.054	-51.228	0.357	-0.171
-736.039	-169.504	-0.502	-0.019
-735.025	408.532	-0.066	0.143
-734.010	-41.093	-0.139	0.073
-732.996	-103.813	-0.332	-0.079
-731.981	-69.499	-0.313	0.123
-730.966	-155.400	-0.072	-0.005
-729.952	-9.308	-0.265	-0.181
-728.937	-200.000	0.004	-0.157
-727.923	-29.724	-0.297	-0.173
-726.908	-61.615	-0.182	-0.078
-725.894	-90.221	-0.087	-0.026
-724.879	-156.408	0.149	-0.010
-723.864	69.397	0.365	-0.384
-722.850	85.114	0.108	0.120
-721.835	800.000	-0.032	-0.096
-720.821	-157.041	-0.276	0.017
-719.806	50.433	-0.098	0.094
-718.791	-200.000	0.024	-0.437
-717.777	341.111	-0.116	0.232
-716.762	-200.000	-0.021	-0.195
-715.748	-200.000	0.003	-0.151
-714.733	-88.493	-0.280	-0.085
-713.718	-55.751	0.549	0.250
-712.704	136.056	-0.187	-0.248
-711.689	-102.596	-0.129	0.031
-710.675	-56.961	-0.043	-0.019
-709.660	35.139	-0.243	0.217
-708.645	-14.300	-0.145	0.095
-707.631	-76.959	-0.268	0.095
-706.616	-200.000	0.006	0.086
-705.602	451.056	-0.085	0.192
-704.587	-129.551	-0.423	0.060
-703.572	665.002	-0.044	0.117
-702.558	512.577	-0.077	-0.184
-701.543	-2.674	-0.158	0.112
-700.529	-110.461	0.100	0.021
-699.514	800.000	0.045	-0.176
-698.499	105.450	0.147	-0.176
-697.485	-8.370	-0.129	-0.089
-696.470	-29.983	0.161	0.093
-695.456	-200.000	0.033	0.240
-694.441	-162.295	0.228	-0.012
-693.426	-17.619	0.412	-0.264
-692.412	-139.329	0.186	0.020
-691.397	-200.000	0.002	-0.032
-690.383	105.414	-0.201	-0.242
-689.368	-200.000	0.000	0.054
-688.354	-10.354	-0.153	0.103
-687.339	-200.000	0.026	-0.175
-686.324	644.193	-0.093	0.241
-685.310	-131.246	0.252	0.034
-684.295	-143.783	-0.333	-0.032
-683.281	-1.731	-0.099	-0.071
-682.266	-78.779	0.297	0.103
-681.251	451.240	-0.114	-0.257
-680.237	-103.615	0.116	0.028
-679.222	0.306	-0.163	-0.119
-678.208	-133.054	-0.487	-0.063
-677.193	-34.417	0.167	0.093
-676.178	-69.844	-0.139	-0.054
-675.164	56.819	-0.116	-0.115
-674.149	-200.000	0.043	-0.469
-673.135	181.108	0.107	-0.160
-672.120	44.537	0.070	-0.066
-671.105	34.388	-0.209	0.185
-670.091	-182.178	0.157	-0.003
-669.076	68.568	-0.066	-0.069
-668.062	88.013	-0.221	-0.249
-667.047	-186.935	-0.358	0.005
-666.032	800.000	-0.024	0.102
-665.018	515.394	-0.087	-0.207
-664.003	-12.016	0.054	0.036
-662.989	-200.000	-0.047	-0.348
-661.974	800.000	0.038	-0.167
-660.959	40.243	-0.289	-0.264
-659.945	-200.000	-0.067	-0.464
-658.930	15.733	0.134	0.108
-657.916	102.326	0.252	0.300
-656.901	800.000	0.056	0.188
-655.886	18.470	0.081	-0.066
-654.872	130.968	-0.100	0.131
-653.857	-200.000	-0.093	0.519
-652.843	-118.616	0.249	-0.045
-651.828	97.182	-0.039	-0.045
-650.814	-200.000	0.003	0.137
-649.799	-200.000	0.081	0.425
-648.784	89.425	0.109	0.123
-647.770	265.345	-0.211	-0.374
-646.755	-51.116	-0.130	-0.062
-645.741	-96.873	0.028	-0.008
-644.726	285.786	-0.071	-0.131
-643.711	-200.000	0.037	0.225
-642.697	-200.000	-0.020	-0.231
-641.682	-200.000	0.032	0.164
-640.668	-200.000	0.002	-0.265
-639.653	-158.547	-0.286	-0.017
-638.638	-180.122	-0.214	-0.005
-637.624	800.000	0.080	0.254
-636.609	0.573	-0.298	-0.217
-635.595	124.616	-0.127	-0.163
-634.580	-77.172	-0.106	0.038
-633.565	-51.878	-0.068	0.032
-632.551	81.012	0.204	0.223
-631.536	109.434	-0.136	0.166
-630.522	76.945	-0.165	-0.179
-629.507	-200.000	0.019	-0.087
-628.492	-200.000	0.009	-0.101
-627.478	160.033	-0.112	0.158
-626.463	-200.000	-0.037	-0.288
-625.449	426.837	-0.130	0.285
-624.434	-83.831	-0.122	0.040
-623.419	3.237	-0.200	-0.148
-622.405	11.420	0.083	-0.065
-621.390	-200.000	0.015	0.230
-620.376	-57.007	0.272	0.122
-619.361	-15.410	0.231	-0.150
-618.346	425.004	-0.148	-0.323
-617.332	-118.834	0.137	0.024
-616.317	-39.716	-0.343	0.182
-615.303	636.256	0.060	-0.155
-614.288	-55.331	-0.134	0.061
-613.273	-176.148	0.294	0.008
-612.259	13.149	0.136	0.107
-611.244	56.122	0.199	-0.196
-610.230	271.013	-0.160	-0.286
-609.215	-200.000	0.014	0.349
-608.201	-14.575	0.183	-0.120
-607.186	574.323	0.127	-0.316
-606.171	-148.557	-0.414	-0.034
-605.157	324.151	0.063	-0.123
-604.142	-200.000	-0.019	-0.396
-603.128	-200.000	0.010	-0.081
-602.113	-56.517	0.252	0.113
-601.098	-200.000	-0.008	-0.204
-600.084	-200.000	-0.050	-0.510
-599.069	-200.000	0.004	0.101
-598.055	-84.121	-0.073	-0.024
-597.040	-130.044	0.206	0.029
-596.025	-147.702	-0.171	-0.015
-595.011	571.510	-0.054	0.133
-593.996	-5.388	0.121	0.085
-592.982	-62.075	-0.059	0.025
-591.967	38.529	0.190	0.172
-590.952	7.698	-0.258	0.196
-589.938	-41.175	-0.036	-0.019
-588.923	-121.578	-0.197	0.033
-587.909	-163.964	-0.201	-0.010
-586.894	-103.880	0.170	0.040
-585.879	-21.051	-0.100	0.062
-584.865	800.000	0.019	0.072
-583.850	386.316	-0.139	0.292
-582.836	105.168	-0.245	0.294
-581.821	114.157	-0.130	0.161
-580.806	-42.760	-0.205	-0.106
-579.792	-181.599	-0.310	0.006
-578.777	4.287	-0.141	-0.105
-577.763	318.863	-0.116	-0.224
-576.748	-200.000	0.014	-0.161
-575.733	14.029	-0.283	0.223
-574.719	-200.000	0.034	-0.197
-573.704	283.352	0.174	0.317
-572.690	-176.964	-0.088	-0.002
-571.675	-36.922	-0.399	0.217
-570.661	-143.186	0.471	0.046
-569.646	-136.914	-0.121	0.014
-568.631	-103.800	0.306	-0.072
-567.617	-163.879	-0.135	-0.006
-566.602	-104.517	0.215	-0.050
-565.588	20.062	0.124	0.101
-564.573	-102.533	-0.156	-0.038
-563.558	17.729	0.307	0.248
-562.544	88.760	0.079	0.090
-561.529	87.806	-0.040	0.045
-560.515	-50.458	0.245	0.117
-559.500	489.126	-0.062	-0.143
-558.485	-200.000	0.027	-0.321
-557.471	205.365	-0.058	-0.091
-556.456	-41.231	-0.167	0.087
-555.442	-200.000	-0.022	-0.330
-554.427	100.302	-0.256	0.301
-553.412	46.253	-0.160	0.150
-552.398	-51.493	-0.409	0.194
-551.383	140.338	-0.263	0.352
-550.369	800.000	0.030	0.086
-549.354	-20.975	0.208	0.129
-548.339	195.688	0.029	0.045
-547.325	85.721	-0.078	0.087
-546.310	-117.866	-0.360	-0.065
-545.296	87.625	0.123	-0.138
-544.281	-35.560	-0.083	-0.046
-543.266	-200.000	-0.032	0.203
-542.252	-128.132	-0.381	-0.055
-541.237	-200.000	-0.025	-0.230
-540.223	800.000	0.028	-0.119
-539.208	-64.138	-0.158	-0.065
-538.193	65.822	0.223	0.229
-537.179	-63.921	0.152	-0.063
-536.164	72.365	-0.073	0.077
-535.150	-200.000	0.004	-0.296
-534.135	428.308	-0.025	-0.054
-533.121	32.657	-0.165	0.145
-532.106	-109.591	-0.058	-0.012
-531.091	-55.340	-0.281	0.128
-530.077	-184.217	0.220	0.004
-529.062	-40.056	0.214	-0.113
-528.048	46.777	0.095	0.089
-527.033	421.143	-0.094	-0.204
-526.018	761.380	-0.035	-0.095
-525.004	-175.206	-0.218	0.006
-523.989	70.152	0.103	-0.108
-522.975	273.172	-0.092	-0.164
-521.960	-200.000	-0.071	-0.327
-520.945	800.000	-0.070	-0.226
-519.931	-129.322	-0.095	-0.013
-518.916	49.115	-0.137	0.131
-517.902	-133.769	0.103	0.013
-516.887	28.228	-0.078	0.067
-515.872	-145.164	0.082	0.008
-514.858	-82.135	0.039	0.013
-513.843	-71.922	-0.401	-0.151
-512.829	-200.000	-0.017	0.108
-511.814	-77.286	0.127	0.045
-510.799	185.394	0.255	0.383
-509.785	-110.987	-0.199	0.041
-508.770	60.152	0.159	-0.159
-507.756	127.489	-0.051	-0.066
-506.741	-33.348	-0.168	-0.094
-505.726	11.476	0.287	0.223
-504.712	49.096	-0.205	0.194
-503.697	-135.691	-0.210	0.025
-502.683	10.928	-0.180	0.139
-501.668	247.269	-0.132	0.226
-500.653	-200.000	0.027	-0.292
-499.639	-196.018	-0.080	0.001
-498.624	-93.043	0.171	0.048
-497.610	800.000	0.100	-0.410
-496.595	165.264	-0.244	-0.349
-495.581	-200.000	-0.090	-0.478
-494.566	-175.637	-0.206	-0.006
-493.551	17.315	0.138	-0.111
-492.537	800.000	-0.074	-0.209
-491.522	-200.000	-0.016	0.195
-490.508	149.360	-0.142	0.194
-489.493	162.553	0.139	0.197
-488.478	-200.000	0.064	0.327
-487.464	-200.000	-0.001	0.171
-486.449	669.001	-0.056	-0.148
-485.435	-106.517	-0.337	0.076
-484.420	502.608	0.131	-0.306
-483.405	485.234	-0.151	-0.348
-482.391	-15.740	-0.097	0.062
-481.376	418.232	-0.056	0.122
-480.362	-139.630	-0.510	-0.055
-479.347	293.506	0.027	0.050
-478.332	-200.000	0.013	0.075
-477.318	11.474	0.080	-0.062
-476.303	-16.278	0.197	-0.127
-475.289	-125.773	-0.311	0.047
-474.274	173.773	0.016	-0.023
-473.259	-93.839	-0.223	-0.062
-472.245	109.938	-0.112	-0.135
-471.230	187.076	-0.212	-0.319
-470.216	-200.000	-0.018	-0.091
-469.201	-112.777	-0.094	0.019
-468.186	118.455	-0.161	0.200
-467.172	-62.072	0.266	-0.112
-466.157	800.000	-0.030	0.088
-465.143	-133.623	-0.197	-0.025
-464.128	42.893	0.145	0.134
-463.113	41.786	-0.187	-0.171
-462.099	314.290	-0.085	0.162
-461.084	174.952	-0.070	-0.103
-460.070	800.000	-0.100	-0.424
-459.055	-200.000	-0.017	-0.093
-458.040	161.929	0.041	-0.057
-457.026	36.284	-0.152	-0.135
-456.011	-200.000	0.045	-0.320
-454.997	-107.881	-0.468	-0.103
-453.982	-15.567	0.025	0.016
-452.968	461.621	0.022	0.050
-451.953	-200.000	0.044	0.296
-450.938	24.152	0.005	0.004
-449.924	209.054	0.142	-0.225
-448.909	124.808	0.080	-0.102
-447.895	-200.000	0.009	-0.047
-446.880	-81.734	0.277	0.092
-445.865	-43.384	-0.151	0.077
-444.851	800.000	-0.087	-0.306
-443.836	91.875	-0.088	-0.100
-442.822	-200.000	0.009	-0.093
-441.807	103.173	-0.097	0.115
-440.792	-34.432	-0.131	-0.073
-439.778	800.000	-0.006	-0.021
-438.763	81.105	-0.095	0.104
-437.749	266.346	0.196	-0.346
-436.734	304.555	0.030	-0.057
-435.719	378.356	-0.038	0.078
-434.705	68.969	-0.210	0.217
-433.690	-21.343	0.135	-0.083
-432.676	255.057	0.081	0.140
-431.661	-138.032	-0.197	-0.022
-430.646	-65.248	0.348	-0.141
-429.632	-100.552	0.142	0.035
-428.617	-89.665	-0.081	-0.024
-427.603	103.485	0.197	0.233
-426.588	-200.000	0.016	-0.093
-425.573	305.738	-0.070	0.131
-424.559	-95.235	-0.062	0.017
-423.544	-200.000	0.040	0.179
-422.530	181.841	0.087	0.130
-421.515	800.000	-0.049	0.165
-420.500	639.007	0.077	0.197
-419.486	51.559	0.127	0.122
-418.471	23.644	0.193	0.160
-417.457	-18.146	0.205	-0.129
-416.442	-200.000	0.050	-0.275
-415.428	-16.559	0.313	0.200
-414.413	-200.000	-0.055	0.274
-413.398	181.771	0.114	0.169
-412.384	90.475	-0.097	0.109
-411.369	-42.873	-0.197	0.101
-410.355	2.570	-0.245	0.179
-409.340	40.802	0.128	0.117
-408.325	-200.000	0.030	-0.184
-407.311	207.883	0.170	0.267
-406.296	18.055	-0.046	-0.037
-405.282	90.505	-0.034	0.039
-404.267	234.883	0.077	-0.128
-403.252	-17.368	0.114	0.072
-402.238	-152.229	-0.208	-0.015
-401.223	195.939	-0.197	-0.301
-400.209	-80.988	0.231	-0.077
-399.194	251.523	-0.100	0.171
-398.179	392.382	0.110	0.230
-397.165	-200.000	0.021	0.132
-396.150	-94.147	0.437	0.121
-395.136	117.447	0.085	-0.105
-394.121	-200.000	-0.030	0.308
-393.106	82.031	-0.228	-0.249
-392.092	-147.721	0.105	0.009
-391.077	0.214	0.277	0.199
-390.063	-200.000	0.040	0.302
-389.048	-42.194	0.340	0.175
-388.033	423.570	-0.082	-0.177
-387.019	-200.000	-0.004	-0.243
-386.004	-200.000	-0.018	0.209
-384.990	-167.074	0.156	0.006
-383.975	800.000	-0.049	0.167
-382.960	133.192	-0.144	0.187
-381.946	31.369	0.174	0.151
-380.931	-80.140	0.143	0.048
-379.917	-93.971	0.239	-0.066
-378.902	251.808	0.099	-0.170
-377.888	-37.484	0.160	0.086
-376.873	-90.100	0.104	0.031
-375.858	-200.000	0.000	-0.165
-374.844	35.666	0.219	0.194
-373.829	-135.845	0.145	-0.017
-372.815	175.089	0.166	0.242
-371.800	29.304	-0.068	0.058
-370.785	219.351	-0.183	0.295
-369.771	800.000	0.074	-0.323
-368.756	-200.000	0.020	-0.140
-367.742	-143.907	0.109	0.010
-366.727	494.095	-0.052	0.120
-365.712	-200.000	0.029	-0.422
-364.698	-76.507	0.082	-0.029
-363.683	-200.000	0.067	0.360
-362.669	329.768	-0.096	0.186
-361.654	-200.000	-0.017	-0.089
-360.639	-64.738	0.488	0.199
-359.625	5.089	0.106	0.078
-358.610	29.515	0.126	0.108
-357.596	269.586	-0.068	-0.120
-356.581	253.283	-0.160	-0.275
-355.566	800.000	0.064	-0.199
-354.552	-20.577	0.010	0.006
-353.537	-109.305	0.186	0.040
-352.523	8.302	-0.238	-0.180
-351.508	-200.000	0.018	0.144
-350.493	550.485	0.142	-0.342
-349.479	171.241	-0.091	0.131
-348.464	-76.383	-0.152	0.054
-347.450	-200.000	-0.002	-0.164
-346.435	60.263	0.178	0.177
-345.420	36.825	-0.210	0.187
-344.406	-83.763	0.189	0.061
-343.391	800.000	0.075	0.214
-342.377	800.000	0.057	-0.191
-341.362	800.000	-0.046	0.181
-340.348	174.228	0.106	-0.155
-339.333	-60.061	-0.166	0.071
-338.318	379.621	-0.061	0.125
-337.304	-142.050	0.082	-0.008
-336.289	204.913	0.068	0.105
-335.275	120.631	0.139	-0.173
-334.260	328.047	0.134	0.259
-333.245	120.213	-0.105	-0.131
-332.231	-200.000	-0.001	-0.322
-331.216	65.266	-0.100	-0.101
-330.202	-200.000	0.022	-0.193
-329.187	128.038	-0.110	-0.141
-328.172	49.629	-0.106	0.100
-327.158	35.185	0.075	-0.066
-326.143	-128.399	-0.199	0.028
-325.129	6.831	0.205	-0.153
-324.114	-11.010	-0.131	-0.087
-323.099	-106.793	0.101	-0.023
-322.085	536.774	-0.135	-0.321
-321.070	18.018	-0.172	-0.138
-320.056	-27.319	0.094	0.055
-319.041	800.000	-0.029	0.101
-318.026	-136.211	0.097	-0.011
-317.012	-200.000	0.031	0.469
-315.997	353.443	0.197	0.392
-314.983	-200.000	0.000	0.090
-313.968	-14.865	0.113	0.073
-312.953	399.874	0.154	0.324
-311.939	40.751	-0.040	-0.036
-310.924	-61.511	-0.276	0.116
-309.910	-47.288	0.218	0.106
-308.895	176.404	-0.081	-0.117
-307.880	-48.941	0.182	-0.088
-306.866	382.380	-0.034	-0.070
-305.851	-81.118	0.125	0.042
-304.837	49.380	-0.400	-0.378
-303.822	180.430	0.095	-0.140
-302.807	252.219	-0.080	0.137
-301.793	-67.373	0.133	0.053
-300.778	-64.413	-0.095	-0.039
-299.764	-200.000	-0.007	-0.079
-298.749	11.992	0.137	-0.106
-297.735	208.777	0.171	0.269
-296.720	-90.891	-0.170	-0.049
-295.705	42.203	-0.145	-0.132
-294.691	-161.191	0.120	-0.006
-293.676	18.103	0.188	0.150
-292.662	800.000	-0.038	-0.122
-291.647	-132.502	-0.314	0.041
-290.632	175.672	-0.201	-0.292
-289.618	-191.142	0.129	-0.001
-288.603	154.734	0.181	-0.249
-287.589	-29.221	-0.373	0.214
-286.574	-11.237	0.289	-0.191
-285.559	24.394	0.114	-0.095
-284.545	700.389	0.087	-0.229
-283.530	371.165	-0.053	0.108
-282.516	-63.270	0.248	-0.102
-281.501	-164.413	0.133	-0.006
-280.486	-106.383	-0.335	-0.075
-279.472	66.433	0.190	0.194
-278.457	-200.000	-0.040	-0.232
-277.443	95.398	0.127	-0.145
-276.428	-200.000	-0.021	0.125
-275.413	-33.287	0.152	0.084
-274.399	-40.716	0.446	0.232
-273.384	53.567	-0.196	0.189
-272.370	-103.945	-0.177	-0.041
-271.355	-200.000	0.031	0.230
-270.340	616.729	-0.017	-0.042
-269.326	-118.985	-0.292	0.051
-268.311	-115.066	0.249	0.047
-267.297	42.751	-0.204	0.186
-266.282	29.513	-0.132	0.113
-265.267	-200.000	0.014	0.081
-264.253	556.086	-0.010	0.023
-263.238	-0.463	0.415	-0.295
-262.224	78.203	0.306	0.327
-261.209	-143.010	0.178	0.017
-260.195	800.000	0.053	0.231
-259.180	130.419	0.135	0.174
-258.165	2.458	0.042	-0.031
-257.151	446.384	0.196	0.431
-256.136	-200.000	0.001	-0.137
-255.122	800.000	0.113	-0.321
-254.107	-62.509	-0.076	0.032
-253.092	-110.502	0.090	-0.019
-252.078	0.417	0.268	-0.192
-251.063	416.613	0.076	0.163
-250.049	452.328	0.080	-0.178
-249.034	518.762	0.074	0.173
-248.019	155.852	0.137	-0.190
-247.005	53.074	-0.224	-0.215
-245.990	-200.000	0.004	0.104
-244.976	59.620	-0.355	-0.351
-243.961	37.398	-0.245	0.218
-242.946	6.322	-0.159	-0.118
-241.932	229.405	0.050	-0.082
-240.917	-46.736	0.179	-0.088
-239.903	545.101	0.084	-0.202
-238.888	-164.863	0.341	0.015
-237.873	57.321	-0.199	0.195
-236.859	152.107	0.111	-0.152
-235.844	196.334	-0.017	0.026
-234.830	504.940	-0.095	0.220
-233.815	-20.285	0.101	0.062
-232.800	154.666	-0.277	-0.382
-231.786	-112.068	0.341	0.069
-230.771	-98.114	0.160	-0.041
-229.757	-200.000	0.061	0.280
-228.742	-53.606	-0.125	-0.057
-227.727	26.677	-0.071	-0.059
-226.713	-63.816	-0.083	-0.034
-225.698	366.414	-0.041	0.083
-224.684	9.987	0.214	0.163
-223.669	-200.000	-0.001	0.245
-222.655	351.602	-0.108	-0.215
-221.640	-200.000	0.019	0.277
-220.625	144.509	-0.097	-0.130
-219.611	131.422	-0.242	-0.311
-218.596	71.143	-0.234	-0.243
-217.582	-79.064	-0.218	-0.074
-216.567	-137.767	-0.242	0.027
-215.552	-34.818	0.179	0.098
-214.538	116.139	0.131	-0.160
-213.523	55.203	0.240	-0.232
-212.509	-168.842	0.091	-0.003
-211.494	-140.810	-0.216	0.022
-210.479	-65.949	0.077	0.031
-209.465	-200.000	0.085	-0.444
-208.450	800.000	-0.080	-0.324
-207.436	148.454	-0.055	-0.074
-206.421	-52.858	0.312	-0.144
-205.406	-48.417	-0.016	-0.008
-204.392	-200.000	0.016	-0.078
-203.377	-199.551	0.321	-0.002
-202.363	74.285	0.075	0.079
-201.348	-13.933	-0.072	0.046
-200.333	-90.415	0.040	0.012
-199.319	800.000	0.047	0.159
-198.304	-200.000	0.012	-0.093
-197.290	207.719	-0.156	0.244
-196.275	-121.315	-0.435	-0.073
-195.260	594.357	0.105	0.260
-194.246	-85.582	0.133	0.041
-193.231	-133.154	0.349	-0.044
-192.217	-13.612	0.087	-0.056
-191.202	-200.000	0.039	-0.236
-190.187	-200.000	0.045	0.340
-189.173	-50.315	0.112	0.053
-188.158	-72.964	-0.360	0.132
-187.144	44.411	0.201	-0.184
-186.129	-103.170	0.212	0.050
-185.114	-17.629	-0.382	0.240
-184.100	-12.291	0.075	-0.049
-183.085	-200.000	-0.030	-0.408
-182.071	55.022	0.168	0.162
-181.056	-69.280	0.137	0.053
-180.042	800.000	-0.020	0.077
-179.027	800.000	0.125	0.367
-178.012	-200.000	0.035	0.192
-176.998	-200.000	0.007	0.366
-175.983	800.000	0.062	0.172
-174.969	800.000	0.049	-0.211
-173.954	800.000	-0.067	-0.276
-172.939	-72.318	0.079	0.029
-171.925	-82.889	0.215	-0.069
-170.910	-166.025	-0.369	0.016
-169.896	131.457	0.137	0.176
-168.881	87.974	0.117	0.129
-167.866	-13.400	0.071	-0.046
-166.852	-94.643	-0.170	-0.046
-165.837	117.228	0.241	-0.296
-164.823	-200.000	0.025	-0.115
-163.808	453.329	0.036	-0.080
-162.793	-131.852	0.367	0.048
-161.779	184.675	-0.037	-0.054
-160.764	-33.244	0.324	0.179
-159.750	248.771	0.076	0.129
-158.735	68.950	-0.240	-0.246
-157.720	-200.000	0.034	0.154
-156.706	-200.000	-0.003	-0.100
-155.691	272.144	-0.035	0.062
-154.677	459.682	0.073	0.162
-153.662	-190.123	0.295	0.003
-152.647	-84.656	-0.166	-0.052
-151.633	-104.399	-0.110	0.025
-150.618	-101.398	-0.221	-0.054
-149.604	800.000	0.086	0.270
-148.589	-112.603	-0.240	0.048
-147.574	33.875	-0.060	-0.052
-146.560	216.928	-0.037	0.058
-145.545	126.081	-0.081	-0.102
-144.531	-200.000	-0.002	-0.127
-143.516	-179.710	-0.372	0.008
-142.502	120.067	0.072	0.088
-141.487	-54.634	0.156	0.070
-140.472	83.737	-0.080	0.087
-139.458	-169.972	-0.238	0.008
-138.443	334.201	0.032	-0.062
-137.429	95.424	0.063	0.072
-136.414	-200.000	-0.021	-0.284
-135.399	-200.000	-0.020	-0.108
-134.385	-69.223	-0.206	0.079
-133.370	800.000	0.026	0.092
-132.356	79.885	0.186	0.199
-131.341	-117.721	-0.083	-0.015
-130.326	418.051	-0.012	-0.025
-129.312	800.000	0.062	-0.185
-128.297	86.819	-0.193	0.212
-127.283	-27.692	-0.123	0.071
-126.268	-131.036	-0.181	-0.024
-125.253	-200.000	-0.147	-0.000
-124.239	-24.902	-0.304	-0.180
-123.224	800.000	-0.082	-0.296
-122.210	-176.303	-0.250	0.007
-121.195	-119.474	-0.090	0.016
