DTS Sentinel unit serial number:	SN413079Multiplexer serial number:	ORYXHardware model number:	OX4-SRSoftware version number:	ORYX F/W v4.00 Oryx Data Collector v3.7.2.0data status	okinstallation	princeton_trtdifferential loss correction	single-endedforward channel	channel 1reverse channel	N/Adate	2019/09/14time	08:06:35forward acquisition time	60.00reverse acquisition time	0.00gamma	496.2192k internal	0.2331k external	0.2331temperature offset calibration	1.0070default loss term (dB/km)	0.3790temperature slope calibration	1.0000multiplexer offset coefficient	1.0000multiplexer slope coefficient	1.0000fibre end	0.00T internal ref (°C)	27.14T ext. ref 1 (°C)	3.55T ext. ref 2 (°C)	25.50length (m)	temperature (°C)	Stokes	anti-Stokes-747.200	-200.000	0.017	0.235
-746.185	800.000	-0.056	0.174
-745.171	-200.000	0.012	0.146
-744.156	800.000	0.036	0.122
-743.142	87.798	-0.274	0.306
-742.127	-33.708	-0.219	-0.122
-741.112	-167.318	0.474	0.019
-740.098	26.061	0.146	-0.123
-739.083	-37.055	-0.187	-0.101
-738.069	420.791	-0.046	-0.099
-737.054	101.046	0.122	-0.143
-736.039	-200.000	-0.010	-0.192
-735.025	-63.719	0.105	-0.043
-734.010	800.000	0.028	-0.081
-732.996	-200.000	-0.016	0.074
-731.981	-166.032	-0.560	0.024
-730.966	0.055	-0.089	0.064
-729.952	800.000	0.087	0.260
-728.937	-200.000	0.001	-0.253
-727.923	-200.000	-0.017	-0.181
-726.908	109.973	-0.145	-0.175
-725.894	-200.000	-0.029	0.131
-724.879	-7.512	-0.293	-0.200
-723.864	-72.810	0.222	-0.082
-722.850	115.090	0.147	0.181
-721.835	379.113	-0.125	0.258
-720.821	62.519	0.357	0.359
-719.806	36.225	-0.133	0.118
-718.791	-200.000	0.019	-0.160
-717.777	-200.000	-0.036	0.198
-716.762	94.413	0.167	0.190
-715.748	426.805	-0.044	-0.095
-714.733	49.367	0.136	-0.129
-713.718	214.927	-0.089	0.141
-712.704	800.000	0.099	0.399
-711.689	389.991	0.112	-0.233
-710.675	-66.932	-0.166	0.066
-709.660	74.369	-0.206	0.217
-708.645	80.663	-0.237	-0.257
-707.631	199.961	-0.060	-0.093
-706.616	-99.706	0.181	-0.046
-705.602	49.048	0.111	-0.104
-704.587	114.972	0.319	-0.392
-703.572	384.841	-0.118	-0.244
-702.558	-148.822	-0.333	-0.027
-701.543	800.000	-0.031	0.131
-700.529	-132.688	0.392	-0.050
-699.514	-46.518	-0.339	-0.167
-698.499	-85.278	0.182	-0.057
-697.485	-62.793	-0.273	-0.114
-696.470	-79.209	-0.091	-0.031
-695.456	-200.000	-0.004	0.069
-694.441	-58.791	0.052	-0.022
-693.426	743.067	-0.106	-0.286
-692.412	395.371	0.032	-0.068
-691.397	3.291	-0.194	-0.142
-690.383	-200.000	0.021	-0.264
-689.368	800.000	0.087	-0.255
-688.354	-200.000	0.023	-0.171
-687.339	-83.686	0.187	0.060
-686.324	800.000	0.043	-0.140
-685.310	-32.329	-0.304	0.170
-684.295	-41.209	0.189	-0.098
-683.281	800.000	-0.068	0.237
-682.266	-8.208	0.010	0.007
-681.251	268.672	-0.089	0.157
-680.237	-200.000	-0.042	0.498
-679.222	-30.049	-0.238	-0.136
-678.208	68.725	0.143	-0.147
-677.193	161.359	-0.084	0.118
-676.178	-150.364	0.182	0.014
-675.164	70.534	0.249	0.258
-674.149	-171.366	0.091	0.003
-673.135	-153.229	0.176	-0.012
-672.120	365.927	-0.053	-0.106
-671.105	-62.383	-0.235	-0.098
-670.091	43.946	-0.216	0.199
-669.076	141.931	-0.182	-0.242
-668.062	-148.972	-0.480	-0.039
-667.047	-158.676	0.333	-0.019
-666.032	246.176	-0.180	0.305
-665.018	86.120	0.219	0.242
-664.003	-7.498	-0.306	-0.208
-662.989	-200.000	0.026	-0.177
-661.974	800.000	-0.050	0.185
-660.959	114.903	0.069	-0.085
-659.945	-14.895	0.291	-0.187
-658.930	-200.000	-0.024	-0.232
-657.916	138.033	-0.070	-0.092
-656.901	-200.000	0.052	-0.233
-655.886	59.258	-0.171	-0.169
-654.872	30.352	-0.205	0.175
-653.857	-59.343	0.050	0.022
-652.843	-200.000	0.002	0.216
-651.828	-200.000	0.018	-0.290
-650.814	323.442	0.074	-0.142
-649.799	6.460	-0.205	-0.153
-648.784	-18.204	0.113	0.071
-647.770	18.593	-0.245	-0.197
-646.755	-200.000	-0.009	-0.159
-645.741	-200.000	0.030	0.138
-644.726	98.853	-0.193	0.224
-643.711	-175.871	0.070	0.002
-642.697	-200.000	-0.003	-0.089
-641.682	-119.619	-0.228	-0.040
-640.668	-192.869	0.299	-0.003
-639.653	-109.554	0.135	0.029
-638.638	10.008	-0.161	0.122
-637.624	-27.838	0.124	-0.072
-636.609	-120.631	0.187	-0.032
-635.595	-98.022	0.160	-0.041
-634.580	2.387	-0.224	0.163
-633.565	-200.000	-0.008	-0.040
-632.551	-200.000	0.001	0.164
-631.536	-49.316	-0.146	0.070
-630.522	-46.081	-0.321	-0.158
-629.507	-6.290	-0.111	0.076
-628.492	-54.693	-0.368	-0.167
-627.478	-114.625	0.212	-0.041
-626.463	56.984	-0.342	0.334
-625.449	481.405	-0.074	-0.168
-624.434	-200.000	0.041	-0.307
-623.419	-59.956	0.619	-0.265
-622.405	800.000	-0.055	0.229
-621.390	-200.000	-0.037	-0.314
-620.376	-51.088	0.159	0.075
-619.361	-177.040	-0.080	0.002
-618.346	27.170	-0.147	0.123
-617.332	-200.000	0.011	-0.103
-616.317	800.000	0.025	-0.086
-615.303	-101.746	-0.372	-0.090
-614.288	-123.708	0.114	-0.018
-613.273	5.822	-0.144	0.107
-612.259	-33.545	-0.254	0.140
-611.244	676.200	0.082	0.215
-610.230	800.000	-0.082	-0.299
-609.215	-88.252	-0.184	0.055
-608.201	24.164	0.399	0.330
-607.186	800.000	0.082	-0.300
-606.171	53.474	0.155	-0.149
-605.157	29.114	0.200	0.170
-604.142	-142.557	-0.119	0.012
-603.128	-200.000	-0.008	0.103
-602.113	-200.000	0.012	-0.268
-601.098	-200.000	0.001	-0.049
-600.084	-87.068	0.183	0.056
-599.069	-8.225	-0.174	-0.118
-598.055	-106.619	-0.343	0.076
-597.040	-200.000	0.488	0.001
-596.025	59.156	-0.111	0.109
-595.011	-200.000	-0.005	0.089
-593.996	211.949	-0.190	0.300
-592.982	522.252	-0.025	0.059
-591.967	800.000	0.050	0.197
-590.952	201.410	-0.037	0.057
-589.938	11.541	0.109	-0.084
-588.923	-200.000	0.021	-0.246
-587.909	159.691	0.185	-0.258
-586.894	-60.639	-0.422	0.179
-585.879	800.000	0.085	-0.253
-584.865	137.112	0.121	-0.158
-583.850	550.395	0.090	0.217
-582.836	-36.338	-0.166	-0.089
-581.821	392.256	-0.038	-0.080
-580.806	167.737	-0.036	-0.051
-579.792	-48.177	0.192	0.093
-578.777	247.260	-0.206	-0.348
-577.763	16.830	-0.373	0.296
-576.748	175.669	0.116	0.169
-575.733	51.232	-0.281	-0.267
-574.719	-10.487	0.176	-0.117
-573.704	-200.000	-0.012	-0.226
-572.690	102.242	0.092	0.108
-571.675	52.471	-0.111	0.106
-570.661	-105.283	0.118	0.027
-569.646	-200.000	0.019	-0.139
-568.631	5.037	0.103	-0.076
-567.617	-77.256	-0.271	0.094
-566.602	102.126	0.128	0.150
-565.588	54.257	-0.096	-0.093
-564.573	-117.108	-0.328	0.060
-563.558	18.731	-0.079	0.063
-562.544	800.000	0.054	0.157
-561.529	-200.000	-0.041	-0.324
-560.515	-200.000	-0.021	-0.286
-559.500	-73.404	0.275	0.100
-558.485	446.147	-0.148	-0.326
-557.471	-100.075	0.255	0.063
-556.456	-32.339	0.131	-0.073
-555.442	17.137	-0.180	0.143
-554.427	-200.000	0.021	-0.348
-553.412	44.047	0.195	0.178
-552.398	-200.000	-0.011	-0.224
-551.383	-123.886	-0.379	0.060
-550.369	3.785	0.257	0.188
-549.354	40.634	0.212	-0.191
-548.339	-119.787	-0.086	-0.015
-547.325	-22.375	0.104	-0.063
-546.310	-58.617	0.232	-0.101
-545.296	-106.965	-0.265	0.058
-544.281	-200.000	-0.028	-0.270
-543.266	-200.000	-0.021	-0.200
-542.252	110.344	-0.093	0.111
-541.237	-171.404	0.128	0.004
-540.223	-200.000	-0.036	-0.374
-539.208	-116.205	0.282	-0.052
-538.193	317.736	0.048	0.091
-537.179	-78.443	-0.085	-0.029
-536.164	-23.068	0.187	0.112
-535.150	223.581	0.067	0.107
-534.135	800.000	-0.020	0.087
-533.121	-85.061	-0.110	-0.035
-532.106	-113.761	0.118	-0.023
-531.091	-149.346	0.279	-0.022
-530.077	-200.000	0.000	-0.145
-529.062	311.565	0.061	0.113
-528.048	89.243	0.147	-0.164
-527.033	-87.176	-0.413	0.125
-526.018	386.074	0.124	0.255
-525.004	-178.422	0.181	-0.004
-523.989	-119.134	-0.147	0.026
-522.975	198.907	-0.031	-0.047
-521.960	26.729	-0.176	-0.147
-520.945	-39.831	0.381	-0.198
-519.931	-138.069	-0.208	0.023
-518.916	800.000	0.103	0.290
-517.902	138.033	0.015	-0.020
-516.887	-50.062	-0.169	-0.080
-515.872	-39.010	0.181	0.095
-514.858	-124.936	-0.460	-0.071
-513.843	-38.865	0.202	0.106
-512.829	104.885	-0.178	0.209
-511.814	-66.648	0.153	-0.061
-510.799	-90.874	-0.161	-0.046
-509.785	-14.956	0.179	-0.114
-508.770	-95.754	-0.144	0.038
-507.756	-93.667	0.214	-0.059
-506.741	-200.000	-0.052	-0.279
-505.726	-160.376	-0.248	-0.013
-504.712	-200.000	-0.000	-0.028
-503.697	365.030	0.114	-0.228
-502.683	-59.815	-0.240	-0.102
-501.668	800.000	-0.059	-0.241
-500.653	129.237	-0.030	-0.038
-499.639	-57.306	0.069	0.030
-498.624	-97.375	0.292	-0.076
-497.610	-131.246	-0.183	0.024
-496.595	-193.765	-0.323	-0.003
-495.581	-76.157	-0.223	0.079
-494.566	-200.000	0.013	0.198
-493.551	800.000	0.127	0.441
-492.537	-37.972	0.268	0.142
-491.522	49.902	-0.200	-0.188
-490.508	-183.256	0.193	0.003
-489.493	-200.000	-0.005	0.267
-488.478	-171.713	-0.187	-0.006
-487.464	-200.000	0.062	0.342
-486.449	-0.967	-0.113	-0.080
-485.435	800.000	0.045	-0.168
-484.420	-184.476	0.195	-0.003
-483.405	-9.571	-0.063	-0.042
-482.391	-46.187	-0.188	0.092
-481.376	184.959	0.073	0.107
-480.362	-102.971	-0.179	-0.042
-479.347	800.000	0.027	0.075
-478.332	292.512	0.059	-0.106
-477.318	-125.218	-0.070	-0.011
-476.303	-200.000	-0.047	-0.209
-475.289	-200.000	-0.035	-0.299
-474.274	-200.000	0.006	-0.379
-473.259	186.065	-0.042	0.063
-472.245	690.560	0.093	-0.242
-471.230	-200.000	-0.027	-0.158
-470.216	31.347	0.300	0.256
-469.201	-189.468	-0.159	-0.002
-468.186	-200.000	-0.012	0.080
-467.172	-48.069	0.088	-0.043
-466.157	-16.677	-0.115	0.072
-465.143	-200.000	-0.036	0.379
-464.128	-22.700	-0.217	-0.131
-463.113	-200.000	0.035	0.196
-462.099	8.713	0.217	-0.163
-461.084	-107.464	0.277	-0.060
-460.070	-200.000	0.037	0.286
-459.055	-76.635	0.127	0.044
-458.040	-200.000	-0.029	-0.147
-457.026	69.705	0.267	-0.274
-456.011	-88.461	-0.155	-0.046
-454.997	276.123	-0.072	0.128
-453.982	28.518	0.206	0.173
-452.968	-122.376	-0.235	-0.038
-451.953	800.000	0.043	0.175
-450.938	-24.745	0.236	0.140
-449.924	4.875	0.229	0.168
-448.909	-200.000	-0.058	0.392
-447.895	-42.014	0.203	-0.103
-446.880	-130.699	0.240	-0.032
-445.865	200.844	0.135	-0.206
-444.851	-72.529	-0.319	-0.117
-443.836	543.687	0.115	-0.273
-442.822	-50.460	0.146	0.069
-441.807	210.274	0.102	-0.160
-440.792	552.501	-0.018	-0.044
-439.778	-200.000	0.009	-0.296
-438.763	-65.401	0.194	0.077
-437.749	-74.898	-0.172	-0.061
-436.734	800.000	-0.051	0.178
-435.719	129.423	-0.203	-0.258
-434.705	-39.568	-0.058	-0.030
-433.690	1.602	0.403	-0.288
-432.676	-161.929	-0.164	0.008
-431.661	800.000	-0.110	0.378
-430.646	212.423	0.150	-0.235
-429.632	-182.508	0.258	0.005
-428.617	120.288	0.258	-0.318
-427.603	3.197	0.018	0.013
-426.588	-106.654	0.195	-0.043
-425.573	-61.687	0.137	0.057
-424.559	36.896	-0.182	0.160
-423.544	-200.000	-0.059	0.259
-422.530	-65.622	-0.137	0.055
-421.515	800.000	0.073	0.240
-420.500	800.000	-0.038	-0.154
-419.486	800.000	0.035	-0.097
-418.471	-200.000	-0.059	-0.389
-417.457	-200.000	0.031	0.192
-416.442	64.881	-0.038	-0.038
-415.428	42.423	-0.157	0.142
-414.413	-83.789	-0.170	0.054
-413.398	-200.000	-0.039	0.297
-412.384	-43.709	-0.167	0.084
-411.369	800.000	0.027	-0.101
-410.355	-200.000	-0.025	0.236
-409.340	800.000	0.090	-0.257
-408.325	-200.000	0.071	-0.403
-407.311	-67.704	-0.150	-0.058
-406.296	-116.885	-0.296	-0.054
-405.282	9.756	0.089	0.067
-404.267	231.902	0.014	-0.022
-403.252	-60.627	-0.239	-0.101
-402.238	162.496	-0.183	-0.255
-401.223	-200.000	0.025	0.169
-400.209	800.000	0.099	-0.367
-399.194	274.593	-0.031	0.055
-398.179	-31.533	-0.107	0.060
-397.165	-128.043	0.176	0.025
-396.150	-200.000	0.008	-0.047
-395.136	-135.096	-0.130	0.016
-394.121	-123.922	0.051	0.008
-393.106	800.000	0.051	0.177
-392.092	92.677	0.186	-0.209
-391.077	-7.392	0.114	-0.076
-390.063	-200.000	-0.009	-0.133
-389.048	-31.198	-0.102	0.057
-388.033	-192.104	0.147	-0.001
-387.019	800.000	0.048	-0.154
-386.004	35.883	-0.156	0.136
-384.990	2.369	-0.159	0.114
-383.975	-98.102	-0.066	0.017
-382.960	562.962	-0.065	-0.157
-381.946	47.930	0.223	0.207
-380.931	-108.125	-0.047	0.010
-379.917	-93.957	0.188	-0.051
-378.902	158.487	-0.126	-0.173
-377.888	800.000	0.065	-0.187
-376.873	800.000	0.081	0.278
-375.858	-187.222	0.347	0.005
-374.844	180.014	-0.109	0.159
-373.829	184.947	0.145	0.213
-372.815	39.704	-0.186	-0.165
-371.800	-45.903	-0.280	0.137
-370.785	43.645	-0.113	0.102
-369.771	183.512	-0.151	0.221
-368.756	-68.243	0.433	0.167
-367.742	-170.408	-0.233	0.008
-366.727	-105.911	-0.352	-0.079
-365.712	-200.000	0.064	0.392
-364.698	-16.753	-0.078	-0.049
-363.683	6.175	-0.226	0.166
-362.669	64.871	-0.217	-0.217
-361.654	-131.376	-0.129	0.017
-360.639	-20.782	-0.200	0.122
-359.625	-133.372	-0.424	-0.053
-358.610	800.000	0.068	0.235
-357.596	19.109	0.178	0.141
-356.581	-118.317	0.382	0.067
-355.566	80.332	-0.206	0.220
-354.552	800.000	0.062	-0.202
-353.537	20.745	-0.126	0.101
-352.523	152.681	0.047	-0.063
-351.508	86.290	0.062	-0.067
-350.493	-200.000	0.019	0.194
-349.479	-138.018	-0.384	-0.042
-348.464	-80.214	-0.055	0.018
-347.450	-137.783	0.282	0.031
-346.435	664.850	0.053	0.135
-345.420	-78.476	0.411	-0.140
-344.406	90.214	0.280	0.310
-343.391	-8.336	0.135	-0.090
-342.377	-23.143	0.133	-0.079
-341.362	2.602	0.213	-0.153
-340.348	-3.293	-0.301	0.208
-339.333	84.495	0.115	0.125
-338.318	-87.029	0.235	-0.071
-337.304	-200.000	-0.042	0.399
-336.289	-126.016	-0.085	-0.013
-335.275	515.954	-0.080	0.184
-334.260	380.684	0.162	0.329
-333.245	800.000	-0.052	-0.178
-332.231	-200.000	-0.044	-0.408
-331.216	-6.716	0.110	0.074
-330.202	-145.526	-0.387	0.034
-329.187	211.380	-0.082	0.128
-328.172	12.242	0.249	0.189
-327.158	37.627	0.039	0.034
-326.143	-200.000	0.012	0.173
-325.129	-40.583	-0.251	-0.129
-324.114	153.563	-0.101	-0.137
-323.099	277.061	-0.139	0.244
-322.085	106.252	0.126	-0.147
-321.070	-200.000	0.049	-0.251
-320.056	572.400	0.077	0.187
-319.041	-134.633	-0.251	0.030
-318.026	484.473	-0.034	-0.076
-317.012	-200.000	-0.053	0.000
-315.997	325.135	0.079	0.150
-314.983	62.422	-0.131	-0.129
-313.968	-83.029	0.239	0.076
-312.953	266.941	0.179	-0.310
-311.939	-78.851	0.102	0.034
-310.924	449.079	-0.190	-0.415
-309.910	539.886	-0.055	-0.130
-308.895	-200.000	0.013	0.068
-307.880	60.497	0.299	-0.293
-306.866	468.983	0.017	0.037
-305.851	352.691	0.118	0.231
-304.837	-128.009	0.295	0.042
-303.822	100.815	-0.112	0.128
-302.807	16.067	-0.287	-0.224
-301.793	-200.000	0.028	0.158
-300.778	-140.181	0.208	0.022
-299.764	13.913	-0.241	0.185
-298.749	-200.000	0.033	0.146
-297.735	-67.119	0.127	0.050
-296.720	-140.627	-0.160	-0.016
-295.705	237.137	0.082	0.134
-294.691	-156.475	-0.418	-0.026
-293.676	-200.000	0.004	0.358
-292.662	-96.533	-0.134	0.035
-291.647	303.066	-0.067	-0.122
-290.632	-92.888	-0.194	-0.054
-289.618	116.686	0.268	0.325
-288.603	748.489	0.113	0.302
-287.589	-74.507	0.151	0.054
-286.574	-105.192	0.171	0.039
-285.559	-38.038	0.070	0.037
-284.545	-200.000	0.000	0.174
-283.530	39.495	0.145	-0.129
-282.516	-63.777	-0.242	0.098
-281.501	269.903	0.077	0.134
-280.486	270.449	0.034	-0.058
-279.472	-115.643	-0.242	0.045
-278.457	26.997	0.253	-0.210
-277.443	-200.000	-0.059	-0.260
-276.428	336.226	0.085	0.164
-275.413	-130.158	-0.098	-0.013
-274.399	-200.000	0.017	-0.162
-273.384	-200.000	0.009	0.209
-272.370	12.156	-0.101	0.076
-271.355	139.807	0.162	0.211
-270.340	508.336	0.092	0.211
-269.326	96.145	-0.056	-0.063
-268.311	-200.000	-0.009	0.173
-267.297	-105.115	-0.116	0.026
-266.282	-20.566	-0.094	0.057
-265.267	220.656	0.141	-0.224
-264.253	112.068	0.073	-0.087
-263.238	-37.476	-0.296	-0.156
-262.224	-144.813	-0.196	-0.018
-261.209	-21.862	-0.120	-0.072
-260.195	202.350	-0.130	0.199
-259.180	84.120	-0.176	0.190
-258.165	-167.775	0.055	-0.002
-257.151	-84.586	-0.243	0.076
-256.136	142.072	0.131	0.171
-255.122	-14.686	-0.449	0.285
-254.107	-196.539	-0.258	0.002
-253.092	-200.000	-0.002	0.102
-252.078	505.528	0.075	0.171
-251.063	-200.000	0.065	-0.448
-250.049	75.128	0.088	-0.092
-249.034	-64.250	0.170	-0.069
-248.019	-55.035	0.180	0.080
-247.005	-95.864	0.096	-0.025
-245.990	-200.000	-0.014	0.282
-244.976	443.140	-0.057	0.124
-243.961	46.669	0.108	0.099
-242.946	332.424	0.074	-0.140
-241.932	-130.117	0.195	-0.026
-240.917	-44.730	-0.214	0.105
-239.903	-200.000	0.004	0.020
-238.888	-97.580	-0.209	-0.054
-237.873	-81.048	-0.044	0.014
-236.859	800.000	0.048	-0.146
-235.844	-116.445	-0.124	-0.023
-234.830	-200.000	-0.033	-0.165
-233.815	35.079	-0.024	0.021
-232.800	-12.098	-0.084	-0.054
-231.786	-133.615	0.228	-0.028
-230.771	148.655	0.145	-0.193
-229.757	-102.592	0.150	0.035
-228.742	-143.077	0.078	-0.007
-227.727	725.302	0.086	0.226
-226.713	65.529	-0.311	0.311
-225.698	-197.032	-0.363	0.002
-224.684	175.317	-0.022	-0.032
-223.669	-108.499	-0.310	0.066
-222.655	-112.494	-0.146	0.029
-221.640	75.378	0.052	0.054
-220.625	140.134	0.046	-0.059
-219.611	178.099	-0.276	0.397
-218.596	800.000	-0.025	-0.070
-217.582	-72.995	0.192	0.069
-216.567	239.384	0.131	0.215
-215.552	-97.399	0.284	-0.073
-214.538	-200.000	0.022	-0.260
-213.523	2.647	0.101	0.072
-212.509	-200.000	0.009	-0.102
-211.494	57.038	0.307	0.295
-210.479	194.371	0.342	0.511
-209.465	50.286	0.108	-0.100
-208.450	-200.000	-0.105	0.000
-207.436	-129.830	-0.464	0.063
-206.421	25.543	0.210	-0.172
-205.406	-200.000	-0.039	-0.179
-204.392	5.293	0.093	0.067
-203.377	-147.399	-0.480	0.040
-202.363	670.387	0.016	0.041
-201.348	-113.164	0.125	0.024
-200.333	-105.326	0.376	0.084
-199.319	-2.931	-0.290	0.199
-198.304	-200.000	0.035	-0.177
-197.290	-200.000	-0.014	0.440
-196.275	26.082	-0.051	-0.042
-195.260	-200.000	0.007	-0.293
-194.246	-200.000	0.044	-0.223
-193.231	49.411	0.103	0.095
-192.217	-84.457	0.102	0.032
-191.202	293.883	0.143	-0.257
-190.187	9.151	-0.082	0.061
-189.173	-96.076	-0.125	0.033
-188.158	8.439	-0.076	0.057
-187.144	-20.284	0.332	0.201
-186.129	-200.000	0.046	-0.606
-185.114	179.452	-0.181	-0.261
-184.100	238.156	-0.111	-0.182
-183.085	800.000	-0.086	0.269
-182.071	-129.246	0.199	0.027
-181.056	-77.358	0.107	-0.037
-180.042	-200.000	-0.037	0.231
-179.027	18.626	0.146	0.115
-178.012	-158.425	0.144	-0.008
-176.998	-80.540	-0.327	0.107
-175.983	-17.457	0.148	-0.092
-174.969	53.547	0.277	-0.262
-173.954	701.233	0.103	0.267
-172.939	408.565	0.048	0.101
-171.925	-21.842	0.125	-0.075
-170.910	-110.420	-0.110	0.023
-169.896	-121.763	-0.157	0.026
-168.881	34.012	-0.211	0.181
-167.866	-47.428	0.385	-0.184
-166.852	40.740	0.171	-0.152
-165.837	-94.947	0.204	-0.054
-164.823	-136.221	0.269	0.031
-163.808	274.798	0.060	0.105
-162.793	-107.597	0.272	-0.058
-161.779	213.579	0.095	0.147
-160.764	-107.306	0.303	0.066
-159.750	159.304	-0.245	-0.336
-158.735	552.278	-0.111	-0.262
-157.720	-200.000	0.032	-0.362
-156.706	-112.016	0.171	0.034
-155.691	519.229	-0.089	-0.204
-154.677	124.870	-0.038	-0.047
-153.662	445.926	-0.162	-0.349
-152.647	144.175	-0.225	-0.295
-151.633	88.310	-0.086	-0.094
-150.618	348.744	-0.039	-0.076
-149.604	-116.849	0.197	-0.035
-148.589	-200.000	0.002	0.043
-147.574	22.759	-0.318	0.256
-146.560	-69.383	-0.207	0.078
-145.545	-52.188	0.323	0.147
-144.531	-153.386	-0.344	-0.024
-143.516	110.604	0.396	0.468
-142.502	-95.735	-0.544	0.143
-141.487	800.000	0.090	-0.260
-140.472	-200.000	0.052	0.255
-139.458	-200.000	-0.011	0.062
-138.443	-200.000	0.047	0.322
-137.429	54.035	0.048	-0.045
-136.414	47.306	0.224	0.205
-135.399	-200.000	0.012	-0.107
-134.385	-69.012	-0.273	-0.103
-133.370	-102.017	0.020	-0.005
-132.356	800.000	-0.042	-0.155
-131.341	-113.383	-0.163	0.031
-130.326	-81.900	-0.452	0.145
-129.312	146.757	-0.042	-0.056
-128.297	-200.000	0.040	0.318
-127.283	608.445	0.149	0.366
-126.268	-200.000	-0.039	0.344
-125.253	-116.455	0.304	-0.055
-124.239	18.518	-0.203	0.160
-123.224	69.660	0.277	0.281
-122.210	468.077	-0.173	0.382
-121.195	-141.584	0.219	-0.022
