DTS Sentinel unit serial number:	SN413079Multiplexer serial number:	ORYXHardware model number:	OX4-SRSoftware version number:	ORYX F/W v4.00 Oryx Data Collector v3.7.2.0data status	okinstallation	princeton_trtdifferential loss correction	single-endedforward channel	channel 1reverse channel	N/Adate	2019/09/13time	00:14:35forward acquisition time	60.00reverse acquisition time	0.00gamma	496.2192k internal	0.2328k external	0.2328temperature offset calibration	1.0147default loss term (dB/km)	0.3790temperature slope calibration	1.0000multiplexer offset coefficient	1.0000multiplexer slope coefficient	1.0000fibre end	0.00T internal ref (°C)	28.55T ext. ref 1 (°C)	3.76T ext. ref 2 (°C)	23.15length (m)	temperature (°C)	Stokes	anti-Stokes-747.200	-200.000	-0.063	-0.305
-746.185	-127.243	-0.535	0.079
-745.171	-190.823	-0.277	0.003
-744.156	800.000	0.063	0.253
-743.142	-200.000	0.036	0.171
-742.127	-200.000	-0.033	0.230
-741.112	6.712	0.192	0.144
-740.098	-113.977	-0.237	0.046
-739.083	22.789	-0.188	0.155
-738.069	-120.899	-0.231	0.039
-737.054	63.956	0.256	0.259
-736.039	616.676	-0.045	0.115
-735.025	-41.381	0.352	0.183
-734.010	-200.000	0.016	0.166
-732.996	-69.768	-0.184	-0.071
-731.981	-17.348	0.257	-0.163
-730.966	61.017	-0.150	0.150
-729.952	117.888	0.098	-0.121
-728.937	-124.842	-0.095	0.015
-727.923	-40.121	-0.266	-0.140
-726.908	-200.000	-0.020	0.133
-725.894	739.058	0.139	-0.377
-724.879	27.208	0.094	0.080
-723.864	-200.000	0.017	0.117
-722.850	392.359	0.106	0.222
-721.835	-11.874	-0.414	0.274
-720.821	-31.922	-0.352	0.198
-719.806	-200.000	-0.068	-0.306
-718.791	-200.000	0.040	-0.272
-717.777	-180.814	0.172	0.004
-716.762	14.444	0.114	0.090
-715.748	-15.527	-0.123	-0.079
-714.733	507.221	0.040	0.093
-713.718	284.035	-0.131	-0.238
-712.704	800.000	0.062	0.261
-711.689	13.521	0.339	0.264
-710.675	-200.000	0.040	0.366
-709.660	-137.697	0.207	-0.023
-708.645	-200.000	0.024	0.121
-707.631	-200.000	0.196	-0.000
-706.616	-171.886	-0.058	0.002
-705.602	-12.916	0.082	0.054
-704.587	-200.000	0.082	-0.390
-703.572	-18.898	0.352	-0.220
-702.558	40.523	-0.080	0.072
-701.543	26.499	0.218	-0.183
-700.529	82.343	0.143	0.156
-699.514	157.351	0.190	0.265
-698.499	-200.000	-0.009	-0.144
-697.485	-3.400	0.281	0.197
-696.470	-200.000	-0.002	0.287
-695.456	-200.000	0.027	0.325
-694.441	421.786	0.057	-0.123
-693.426	-150.942	-0.177	-0.013
-692.412	338.621	-0.121	-0.238
-691.397	-69.077	0.061	-0.024
-690.383	-200.000	0.004	-0.140
-689.368	-199.888	-0.169	0.001
-688.354	-73.707	-0.234	-0.086
-687.339	165.974	-0.083	0.118
-686.324	-200.000	0.015	-0.213
-685.310	-75.986	0.212	-0.075
-684.295	274.206	0.117	-0.207
-683.281	-200.000	-0.020	-0.141
-682.266	311.221	-0.059	0.110
-681.251	-51.326	-0.112	-0.052
-680.237	-119.659	0.398	-0.069
-679.222	125.801	0.076	-0.096
-678.208	-98.520	0.226	-0.058
-677.193	-165.243	-0.264	0.012
-676.178	-200.000	-0.063	-0.425
-675.164	386.287	-0.081	-0.169
-674.149	68.087	-0.078	-0.080
-673.135	-200.000	0.055	-0.458
-672.120	800.000	-0.078	-0.237
-671.105	15.059	-0.024	-0.019
-670.091	28.473	0.066	0.056
-669.076	-10.595	-0.285	0.189
-668.062	-138.312	-0.486	0.054
-667.047	83.802	0.242	-0.265
-666.032	-200.000	-0.031	-0.316
-665.018	-169.319	0.178	-0.007
-664.003	23.410	0.231	-0.191
-662.989	800.000	0.051	-0.182
-661.974	-180.873	0.155	-0.003
-660.959	-200.000	0.027	-0.409
-659.945	800.000	0.042	-0.126
-658.930	-53.876	-0.029	-0.013
-657.916	131.158	0.079	-0.102
-656.901	428.441	0.156	-0.338
-655.886	347.604	0.180	-0.356
-654.872	-36.342	-0.228	-0.123
-653.857	297.509	-0.141	-0.261
-652.843	800.000	-0.065	-0.274
-651.828	-96.312	0.121	0.032
-650.814	533.602	0.134	-0.318
-649.799	800.000	0.036	-0.116
-648.784	800.000	-0.009	0.036
-647.770	21.524	0.106	-0.086
-646.755	-130.726	-0.170	-0.023
-645.741	-200.000	0.003	0.367
-644.726	-67.442	-0.196	0.077
-643.711	800.000	0.069	0.197
-642.697	-200.000	-0.026	-0.358
-641.682	-78.224	0.261	-0.090
-640.668	-200.000	-0.045	-0.339
-639.653	800.000	0.064	-0.185
-638.638	-200.000	-0.004	0.350
-637.624	-181.554	-0.192	-0.004
-636.609	800.000	-0.039	0.119
-635.595	-102.325	0.126	0.030
-634.580	82.277	0.229	0.249
-633.565	-187.848	-0.263	-0.003
-632.551	-200.000	0.001	0.287
-631.536	-151.418	-0.065	0.005
-630.522	-200.000	-0.063	0.300
-629.507	800.000	0.131	-0.384
-628.492	-104.164	0.190	0.044
-627.478	75.498	0.152	0.161
-626.463	682.052	-0.108	0.282
-625.449	673.867	0.033	0.085
-624.434	51.956	-0.145	-0.139
-623.419	-15.031	0.083	-0.053
-622.405	147.427	-0.165	-0.223
-621.390	149.196	-0.024	0.033
-620.376	800.000	0.092	-0.352
-619.361	-48.503	-0.348	-0.168
-618.346	-78.465	-0.333	0.114
-617.332	-93.983	0.152	0.042
-616.317	210.387	0.207	0.326
-615.303	52.571	-0.497	-0.476
-614.288	-1.824	0.176	0.124
-613.273	-139.086	0.119	0.013
-612.259	-7.241	-0.140	-0.095
-611.244	18.565	0.111	-0.089
-610.230	-138.046	-0.293	-0.033
-609.215	-164.013	0.371	-0.017
-608.201	-67.751	-0.252	0.099
-607.186	-111.554	-0.341	-0.069
-606.171	-200.000	0.011	0.069
-605.157	-78.778	0.324	0.111
-604.142	-182.964	-0.097	0.002
-603.128	-200.000	0.030	-0.212
-602.113	800.000	0.006	0.024
-601.098	36.819	0.110	-0.097
-600.084	419.505	-0.063	0.135
-599.069	-84.395	-0.287	-0.091
-598.055	800.000	0.034	0.112
-597.040	-200.000	0.001	0.348
-596.025	800.000	-0.065	0.192
-595.011	800.000	0.099	-0.277
-593.996	118.212	-0.123	0.152
-592.982	-30.177	0.240	-0.137
-591.967	-164.490	0.219	-0.010
-590.952	800.000	0.056	0.238
-589.938	792.602	-0.082	0.227
-588.923	-115.946	-0.114	-0.021
-587.909	-200.000	-0.018	0.183
-586.894	-200.000	-0.006	0.418
-585.879	-74.794	0.131	0.047
-584.865	-124.794	0.135	-0.021
-583.850	-149.033	-0.068	0.005
-582.836	-200.000	0.015	-0.248
-581.821	-12.486	-0.177	0.116
-580.806	-31.208	-0.262	0.148
-579.792	-200.000	-0.008	0.077
-578.777	72.580	0.242	0.253
-577.763	-77.019	0.219	-0.076
-576.748	-121.647	0.227	0.038
-575.733	10.242	0.135	0.102
-574.719	307.006	-0.063	0.118
-573.704	-12.559	-0.157	-0.102
-572.690	122.227	0.145	0.181
-571.675	-44.677	0.119	0.060
-570.661	-116.000	-0.178	0.033
-569.646	-200.000	-0.003	-0.222
-568.631	-45.412	-0.137	-0.068
-567.617	37.922	0.225	-0.200
-566.602	170.282	0.117	-0.167
-565.588	-154.351	0.197	-0.013
-564.573	109.546	0.111	0.133
-563.558	800.000	-0.065	-0.195
-562.544	-184.230	-0.250	0.004
-561.529	-64.565	-0.218	-0.089
-560.515	92.648	-0.116	-0.131
-559.500	189.240	0.062	0.093
-558.485	-74.579	-0.194	0.070
-557.471	-114.398	-0.423	-0.081
-556.456	15.180	0.210	0.164
-555.442	22.404	-0.151	-0.123
-554.427	-200.000	-0.042	0.189
-553.412	14.346	0.122	-0.095
-552.398	-0.345	-0.098	-0.069
-551.383	0.137	-0.248	0.177
-550.369	-89.354	-0.136	-0.040
-549.354	432.682	0.168	0.364
-548.339	-1.385	-0.212	0.149
-547.325	77.552	-0.099	-0.106
-546.310	-185.738	0.111	-0.002
-545.296	318.548	-0.111	-0.210
-544.281	-38.674	0.115	0.061
-543.266	-133.685	0.178	-0.022
-542.252	10.269	-0.179	-0.136
-541.237	-200.000	0.018	-0.142
-540.223	800.000	-0.098	0.279
-539.208	-200.000	0.009	-0.203
-538.193	-59.853	0.077	0.033
-537.179	-128.973	0.395	0.055
-536.164	191.808	0.095	-0.143
-535.150	-56.451	0.228	-0.101
-534.135	81.737	0.201	-0.217
-533.121	-67.620	0.435	-0.170
-532.106	-17.039	0.109	0.069
-531.091	-116.619	0.458	0.084
-530.077	-134.436	0.319	0.039
-529.062	-59.697	0.345	-0.148
-528.048	-200.000	-0.028	-0.210
-527.033	145.701	-0.183	0.245
-526.018	67.572	-0.050	-0.051
-525.004	-17.366	-0.230	-0.145
-523.989	93.100	0.109	0.123
-522.975	63.369	-0.127	0.127
-521.960	-42.190	-0.162	-0.082
-520.945	-200.000	0.035	-0.167
-519.931	7.955	-0.207	0.155
-518.916	800.000	-0.013	-0.052
-517.902	-0.308	-0.050	-0.036
-516.887	-200.000	-0.008	0.039
-515.872	69.370	-0.073	0.075
-514.858	89.979	-0.042	0.047
-513.843	170.486	0.318	-0.455
-512.829	-150.432	-0.095	-0.007
-511.814	4.599	0.309	-0.227
-510.799	800.000	0.058	0.195
-509.785	111.756	0.371	-0.447
-508.770	80.654	0.080	0.086
-507.756	-106.457	0.170	-0.038
-506.741	393.432	-0.085	0.176
-505.726	-200.000	-0.060	-0.425
-504.712	-62.139	0.303	-0.126
-503.697	-200.000	0.035	-0.192
-502.683	234.274	-0.171	-0.281
-501.668	-135.347	-0.222	-0.026
-500.653	-113.073	0.065	-0.013
-499.639	523.630	0.087	-0.205
-498.624	-139.351	-0.583	-0.062
-497.610	-200.000	0.023	0.187
-496.595	374.434	-0.074	-0.150
-495.581	54.592	-0.106	-0.102
-494.566	-200.000	-0.040	-0.299
-493.551	-82.600	-0.228	-0.074
-492.537	182.417	0.038	-0.056
-491.522	-66.834	0.200	-0.079
-490.508	-34.723	0.076	0.042
-489.493	-25.227	0.243	0.144
-488.478	213.359	0.044	0.069
-487.464	14.017	0.277	-0.215
-486.449	187.903	-0.110	-0.164
-485.435	-114.984	-0.220	-0.042
-484.420	-200.000	0.056	-0.287
-483.405	-200.000	0.013	-0.251
-482.391	63.576	0.188	-0.188
-481.376	-169.695	0.235	-0.008
-480.362	-200.000	0.017	0.211
-479.347	-157.020	-0.274	-0.017
-478.332	204.831	-0.113	0.175
-477.318	-92.348	-0.233	-0.065
-476.303	-200.000	0.030	-0.197
-475.289	131.707	0.084	-0.108
-474.274	189.753	0.083	-0.124
-473.259	-122.491	-0.276	-0.045
-472.245	-200.000	-0.054	0.295
-471.230	-143.507	-0.330	-0.031
-470.216	-58.736	-0.476	0.206
-469.201	800.000	0.096	-0.336
-468.186	-48.003	-0.296	-0.143
-467.172	-22.238	-0.217	0.131
-466.157	800.000	-0.065	-0.269
-465.143	-200.000	0.016	-0.237
-464.128	-56.909	-0.273	0.120
-463.113	-105.165	-0.249	0.057
-462.099	-73.095	0.205	0.075
-461.084	74.447	-0.218	0.228
-460.070	215.363	0.161	-0.255
-459.055	174.886	-0.065	0.093
-458.040	-75.653	0.085	0.030
-457.026	800.000	0.037	0.106
-456.011	-200.000	-0.026	0.176
-454.997	-200.000	0.011	0.189
-453.982	127.291	-0.097	-0.122
-452.968	533.880	0.094	-0.223
-451.953	800.000	0.063	-0.244
-450.938	101.812	0.242	-0.282
-449.924	-200.000	0.036	-0.209
-448.909	-166.867	-0.229	-0.009
-447.895	545.760	-0.134	-0.318
-446.880	715.096	0.155	-0.410
-445.865	-31.994	-0.278	0.155
-444.851	-200.000	-0.006	-0.094
-443.836	-200.000	-0.016	-0.165
-442.822	-65.844	-0.096	0.038
-441.807	800.000	-0.073	-0.316
-440.792	50.488	-0.044	-0.041
-439.778	-178.492	0.176	-0.004
-438.763	188.149	-0.179	0.267
-437.749	-137.656	-0.342	0.038
-436.734	76.114	0.202	0.213
-435.719	-99.845	-0.115	-0.029
-434.705	56.897	0.116	-0.113
-433.690	-57.169	0.336	-0.147
-432.676	-56.531	-0.132	-0.058
-431.661	-56.139	0.102	-0.045
-430.646	-109.273	-0.242	-0.051
-429.632	-62.473	0.329	-0.136
-428.617	52.172	0.158	-0.150
-427.603	-179.524	0.179	-0.004
-426.588	-22.261	-0.480	0.290
-425.573	36.410	0.288	-0.252
-424.559	-106.166	-0.193	-0.043
-423.544	-200.000	-0.005	0.047
-422.530	-133.474	-0.200	-0.025
-421.515	-102.291	-0.401	-0.096
-420.500	-117.523	0.362	0.065
-419.486	241.662	-0.164	-0.273
-418.471	-145.846	-0.250	0.022
-417.457	-10.286	0.197	0.130
-416.442	-73.979	-0.200	0.072
-415.428	-41.911	0.392	-0.200
-414.413	-132.099	0.307	-0.040
-413.398	657.281	0.135	0.345
-412.384	-47.517	0.249	0.120
-411.369	48.466	-0.042	0.039
-410.355	-200.000	-0.058	-0.415
-409.340	-67.075	-0.209	-0.082
-408.325	31.502	-0.220	-0.188
-407.311	-200.000	0.033	0.289
-406.296	-130.735	-0.335	-0.045
-405.282	504.727	-0.106	-0.243
-404.267	113.112	-0.084	-0.102
-403.252	374.304	0.162	-0.328
-402.238	-158.086	0.214	-0.013
-401.223	800.000	0.069	-0.268
-400.209	148.535	-0.127	0.170
-399.194	-94.853	-0.233	0.063
-398.179	-100.502	0.102	-0.025
-397.165	-41.578	-0.137	0.070
-396.150	-99.381	-0.240	-0.060
-395.136	800.000	-0.079	0.263
-394.121	306.353	0.178	0.329
-393.106	-200.000	-0.058	0.425
-392.092	-116.316	-0.161	-0.030
-391.077	135.227	-0.100	-0.130
-390.063	-101.482	-0.263	-0.064
-389.048	-46.075	-0.262	-0.128
-388.033	-200.000	0.024	0.288
-387.019	370.173	-0.117	0.235
-386.004	-200.000	-0.015	-0.105
-384.990	-114.869	-0.404	0.076
-383.975	-79.687	-0.231	-0.077
-382.960	-32.221	-0.307	-0.170
-381.946	13.298	0.107	0.082
-380.931	800.000	-0.063	0.204
-379.917	24.712	0.146	-0.120
-378.902	162.476	0.133	0.185
-377.888	306.443	-0.037	0.068
-376.873	-15.788	0.206	0.130
-375.858	-155.403	-0.174	-0.011
-374.844	-8.613	-0.251	0.167
-373.829	-88.009	0.129	0.038
-372.815	-99.735	0.125	0.031
-371.800	-56.878	0.392	-0.172
-370.785	-164.562	0.288	-0.013
-369.771	-149.709	-0.236	0.018
-368.756	800.000	0.064	-0.264
-367.742	498.705	-0.100	-0.228
-366.727	32.181	-0.063	0.054
-365.712	-110.219	0.126	0.026
-364.698	223.257	0.090	-0.144
-363.683	-5.940	-0.182	-0.124
-362.669	317.502	-0.075	-0.142
-361.654	-200.000	-0.009	-0.070
-360.639	-24.228	0.293	-0.174
-359.625	800.000	0.068	0.201
-358.610	-39.874	0.222	-0.115
-357.596	249.552	0.212	0.356
-356.581	-54.727	0.346	-0.155
-355.566	132.524	-0.048	0.061
-354.552	800.000	-0.051	-0.142
-353.537	-200.000	0.053	0.243
-352.523	647.893	0.043	-0.109
-351.508	106.715	0.208	-0.245
-350.493	800.000	-0.049	0.161
-349.479	38.025	-0.183	-0.162
-348.464	82.212	0.264	0.284
-347.450	161.887	0.164	-0.228
-346.435	-102.349	0.120	0.028
-345.420	104.071	0.028	-0.033
-344.406	-200.000	0.027	-0.221
-343.391	-13.980	-0.360	-0.230
-342.377	181.888	-0.254	0.372
-341.362	-110.742	-0.167	-0.034
-340.348	-5.821	0.216	-0.146
-339.333	-117.399	-0.372	-0.067
-338.318	-143.373	0.198	0.019
-337.304	-200.000	0.017	0.432
-336.289	-200.000	0.503	-0.001
-335.275	-48.965	0.107	0.051
-334.260	-200.000	-0.125	0.001
-333.245	125.597	-0.094	-0.117
-332.231	-200.000	0.016	-0.102
-331.216	-86.542	-0.139	0.042
-330.202	800.000	-0.071	0.272
-329.187	76.477	0.255	0.268
-328.172	-60.019	0.055	0.023
-327.158	-200.000	-0.040	-0.206
-326.143	98.972	0.114	-0.131
-325.129	-200.000	0.017	-0.079
-324.114	121.182	0.163	0.201
-323.099	-86.355	-0.262	0.080
-322.085	-200.000	0.001	-0.167
-321.070	-110.547	0.103	0.021
-320.056	564.099	-0.135	-0.324
-319.041	800.000	-0.164	0.580
-318.026	92.207	0.047	0.053
-317.012	-37.869	0.087	-0.046
-315.997	800.000	-0.062	0.257
-314.983	-90.720	-0.124	-0.036
-313.968	142.690	-0.096	-0.127
-312.953	66.181	-0.125	-0.125
-311.939	-102.569	-0.434	-0.103
-310.924	800.000	-0.062	-0.206
-309.910	203.582	0.047	0.073
-308.895	-160.190	0.070	-0.004
-307.880	-6.581	-0.089	-0.060
-306.866	-39.554	0.127	0.066
-305.851	800.000	-0.017	0.050
-304.837	104.986	-0.062	-0.072
-303.822	55.689	0.126	0.120
-302.807	82.828	-0.310	0.333
-301.793	-200.000	-0.032	-0.304
-300.778	1.014	0.209	-0.149
-299.764	363.405	-0.031	-0.061
-298.749	-200.000	-0.027	0.147
-297.735	-49.076	-0.155	0.074
-296.720	58.865	-0.214	0.208
-295.705	800.000	-0.049	-0.183
-294.691	-151.088	-0.125	0.009
-293.676	127.439	-0.295	-0.371
-292.662	8.603	0.218	0.162
-291.647	-46.383	0.251	-0.122
-290.632	162.949	0.151	0.210
-289.618	-156.063	0.154	0.010
-288.603	-122.771	0.133	-0.021
-287.589	800.000	-0.071	0.300
-286.574	800.000	-0.098	0.380
-285.559	-200.000	-0.036	0.205
-284.545	-13.812	0.130	-0.083
-283.530	800.000	-0.088	0.300
-282.516	42.012	0.048	0.043
-281.501	-75.077	-0.279	-0.099
-280.486	-200.000	-0.042	-0.297
-279.472	800.000	0.100	-0.276
-278.457	-148.650	0.212	0.017
-277.443	14.175	0.206	-0.159
-276.428	109.648	0.214	0.254
-275.413	800.000	0.068	0.218
-274.399	-55.334	0.231	-0.103
-273.384	25.064	-0.226	-0.185
-272.370	800.000	-0.049	0.176
-271.355	-25.895	-0.192	0.112
-270.340	239.713	-0.080	-0.132
-269.326	-118.824	-0.157	0.027
-268.311	-200.000	-0.000	0.049
-267.297	25.414	-0.286	0.235
-266.282	84.975	0.186	-0.202
-265.267	122.862	0.124	-0.154
-264.253	16.429	-0.147	0.115
-263.238	-84.050	-0.439	0.138
-262.224	-168.048	-0.043	-0.002
-261.209	-7.612	-0.151	0.101
-260.195	-109.049	0.385	0.081
-259.180	800.000	-0.037	-0.157
-258.165	5.258	0.168	0.123
-257.151	121.870	-0.132	0.163
-256.136	800.000	0.044	0.132
-255.122	-99.584	-0.270	0.067
-254.107	-105.570	0.108	-0.024
-253.092	-103.233	0.150	-0.035
-252.078	149.814	0.178	0.238
-251.063	-200.000	-0.033	0.267
-250.049	-92.899	0.074	0.020
-249.034	-34.384	-0.211	0.115
-248.019	-164.222	0.216	-0.010
-247.005	-74.186	0.065	-0.023
-245.990	-34.408	0.436	0.236
-244.976	148.087	0.226	0.301
-243.961	152.736	-0.147	0.199
-242.946	800.000	-0.034	0.132
-241.932	-149.325	0.328	0.026
-240.917	-65.031	0.092	-0.037
-239.903	119.816	0.240	0.293
-238.888	42.007	-0.039	0.035
-237.873	242.605	0.155	0.257
-236.859	338.160	0.090	-0.174
-235.844	800.000	0.074	0.299
-234.830	109.749	-0.287	0.339
-233.815	-200.000	0.004	0.127
-232.800	91.408	0.119	-0.132
-231.786	508.155	0.146	-0.335
-230.771	181.397	0.014	0.020
-229.757	23.665	-0.033	-0.027
-228.742	39.395	0.131	-0.115
-227.727	71.040	0.104	-0.107
-226.713	55.333	0.111	-0.106
-225.698	-126.468	0.124	-0.018
-224.684	800.000	-0.133	0.384
-223.669	92.803	-0.080	0.089
-222.655	510.124	0.096	0.220
-221.640	7.129	-0.172	0.126
-220.625	-64.910	0.083	-0.033
-219.611	-135.246	0.156	-0.018
-218.596	-39.301	0.289	-0.150
-217.582	256.476	-0.140	-0.237
-216.567	-200.000	-0.042	-0.230
-215.552	217.256	0.177	0.279
-214.538	-85.606	-0.232	-0.071
-213.523	-200.000	0.085	0.409
-212.509	-68.176	0.250	-0.096
-211.494	-55.545	-0.231	0.102
-210.479	19.985	0.128	-0.102
-209.465	-136.186	0.075	-0.009
-208.450	800.000	0.049	0.209
-207.436	157.129	-0.115	0.157
-206.421	-54.277	0.273	0.122
-205.406	605.429	0.053	-0.131
-204.392	-124.426	-0.081	-0.013
-203.377	748.520	0.073	0.194
-202.363	-104.479	-0.246	-0.056
-201.348	-66.474	-0.211	-0.083
-200.333	-200.000	0.068	-0.404
-199.319	13.573	-0.331	-0.253
-198.304	-78.213	0.105	-0.036
-197.290	-134.672	-0.113	-0.014
-196.275	800.000	-0.022	-0.085
-195.260	800.000	0.042	-0.136
-194.246	-29.158	0.437	0.247
-193.231	789.505	-0.011	-0.030
-192.217	800.000	0.041	0.141
-191.202	-200.000	0.001	0.064
-190.187	40.452	-0.173	-0.154
-189.173	800.000	-0.069	0.217
-188.158	-200.000	-0.014	-0.083
-187.144	-85.020	-0.321	0.099
-186.129	-155.460	0.475	0.030
-185.114	-123.940	0.409	-0.063
-184.100	-33.986	0.192	0.104
-183.085	-127.448	-0.445	-0.064
-182.071	94.272	0.140	0.156
-181.056	-108.360	-0.138	-0.029
-180.042	-26.195	-0.258	0.149
-179.027	302.162	0.111	0.203
-178.012	-174.601	-0.377	-0.011
-176.998	107.069	-0.024	-0.028
-175.983	-141.495	0.288	-0.029
-174.969	-119.459	0.223	0.038
-173.954	-140.409	-0.104	0.011
-172.939	-200.000	0.026	-0.153
-171.925	123.190	-0.119	0.148
-170.910	-38.600	-0.370	-0.193
-169.896	510.223	-0.054	0.124
-168.881	-200.000	0.032	0.216
-167.866	-166.283	0.394	-0.016
-166.852	143.075	-0.033	-0.044
-165.837	506.881	0.051	-0.116
-164.823	-200.000	-0.025	0.200
-163.808	265.486	0.031	0.053
-162.793	-109.211	-0.116	0.024
-161.779	800.000	0.210	0.575
-160.764	800.000	0.005	-0.020
-159.750	-200.000	-0.020	0.422
-158.735	7.548	0.193	-0.142
-157.720	-100.556	0.196	-0.048
-156.706	-7.180	0.122	-0.082
-155.691	51.527	-0.234	-0.219
-154.677	0.679	0.207	-0.145
-153.662	360.611	-0.093	0.183
-152.647	-98.298	-0.308	-0.078
-151.633	-29.050	0.441	-0.249
-150.618	51.455	0.100	-0.094
-149.604	129.019	0.167	0.209
-148.589	178.095	-0.050	0.072
-147.574	-49.761	-0.108	0.050
-146.560	-119.706	0.227	-0.039
-145.545	218.122	0.098	-0.154
-144.531	-200.000	-0.014	-0.075
-143.516	800.000	0.146	-0.454
-142.502	-200.000	0.055	-0.274
-141.487	94.964	0.242	-0.271
-140.472	160.795	0.170	-0.234
-139.458	306.666	-0.105	0.193
-138.443	-69.790	0.060	0.023
-137.429	-200.000	-0.053	0.271
-136.414	-32.085	0.312	-0.172
-135.399	-158.250	0.281	0.016
-134.385	125.377	0.139	-0.172
-133.370	-6.553	-0.174	-0.117
-132.356	-84.280	0.148	0.046
-131.341	8.694	0.288	0.213
-130.326	-200.000	-0.012	0.313
-129.312	-200.000	0.007	0.129
-128.297	-200.000	-0.006	-0.130
-127.283	10.484	-0.293	-0.219
-126.268	-52.452	-0.178	-0.081
-125.253	68.910	0.130	0.131
-124.239	477.563	-0.077	-0.171
-123.224	-82.559	0.280	0.089
-122.210	568.417	0.059	-0.142
