DTS Sentinel unit serial number:	SN413079Multiplexer serial number:	ORYXHardware model number:	OX4-SRSoftware version number:	ORYX F/W v4.00 Oryx Data Collector v3.7.2.0data status	okinstallation	princeton_trtdifferential loss correction	single-endedforward channel	channel 1reverse channel	N/Adate	2019/09/13time	21:02:35forward acquisition time	60.00reverse acquisition time	0.00gamma	496.2192k internal	0.2331k external	0.2331temperature offset calibration	1.0077default loss term (dB/km)	0.3790temperature slope calibration	1.0000multiplexer offset coefficient	1.0000multiplexer slope coefficient	1.0000fibre end	0.00T internal ref (°C)	28.61T ext. ref 1 (°C)	3.04T ext. ref 2 (°C)	23.21length (m)	temperature (°C)	Stokes	anti-Stokes-747.200	-141.469	0.217	-0.022
-746.185	-200.000	-0.026	0.173
-745.171	-75.022	0.275	0.099
-744.156	-200.000	-0.015	0.106
-743.142	-200.000	-0.034	0.273
-742.127	-200.000	-0.044	0.228
-741.112	800.000	0.014	0.057
-740.098	230.549	0.183	0.302
-739.083	-200.000	-0.020	-0.178
-738.069	-6.587	-0.164	-0.113
-737.054	-116.219	0.243	-0.045
-736.039	74.454	-0.266	-0.281
-735.025	-200.000	0.058	0.261
-734.010	800.000	-0.084	0.260
-732.996	322.359	-0.035	0.067
-731.981	271.879	-0.070	0.125
-730.966	-112.685	-0.177	0.035
-729.952	800.000	-0.046	0.136
-728.937	-96.252	-0.291	0.078
-727.923	-81.474	-0.355	-0.118
-726.908	-75.388	0.166	0.059
-725.894	190.925	-0.158	-0.240
-724.879	-200.000	0.054	-0.304
-723.864	-200.000	0.039	0.283
-722.850	-48.032	0.441	-0.215
-721.835	-131.263	-0.130	-0.017
-720.821	-19.701	-0.212	-0.132
-719.806	-200.000	0.035	-0.401
-718.791	310.205	0.118	0.223
-717.777	-8.255	-0.234	0.159
-716.762	27.031	-0.076	0.064
-715.748	800.000	0.018	-0.064
-714.733	-93.843	-0.100	-0.028
-713.718	800.000	-0.026	0.074
-712.704	333.236	-0.083	0.161
-711.689	-198.198	-0.290	0.002
-710.675	-46.330	-0.139	-0.069
-709.660	-141.790	0.339	0.034
-708.645	160.652	0.110	-0.154
-707.631	-73.367	0.133	0.049
-706.616	800.000	-0.057	-0.177
-705.602	-13.822	0.049	-0.032
-704.587	-106.355	-0.325	0.073
-703.572	-200.000	0.034	-0.253
-702.558	170.646	-0.153	0.220
-701.543	305.355	-0.037	0.069
-700.529	77.037	0.605	0.646
-699.514	73.568	0.196	0.206
-698.499	-31.805	-0.175	0.099
-697.485	-86.579	0.227	0.070
-696.470	800.000	-0.056	0.164
-695.456	-60.630	0.262	-0.112
-694.441	-37.378	-0.118	-0.063
-693.426	41.056	0.149	-0.135
-692.412	156.960	-0.026	-0.036
-691.397	-141.578	-0.181	-0.018
-690.383	-92.845	0.246	-0.069
-689.368	89.425	-0.132	0.147
-688.354	113.822	-0.181	0.221
-687.339	540.352	-0.170	0.407
-686.324	800.000	-0.094	0.298
-685.310	439.812	0.157	0.345
-684.295	-109.630	-0.316	0.067
-683.281	-167.332	-0.185	0.007
-682.266	250.457	0.061	0.104
-681.251	-200.000	-0.003	0.232
-680.237	-200.000	-0.028	0.154
-679.222	549.196	-0.051	0.123
-678.208	501.609	0.151	-0.349
-677.193	800.000	-0.145	0.514
-676.178	125.275	0.046	0.058
-675.164	800.000	0.040	0.134
-674.149	105.664	-0.125	0.149
-673.135	-47.843	-0.226	0.110
-672.120	-40.060	-0.137	-0.072
-671.105	-119.427	-0.161	-0.028
-670.091	-76.631	0.176	-0.062
-669.076	-44.540	-0.285	0.143
-668.062	4.585	0.192	-0.141
-667.047	40.114	-0.112	0.101
-666.032	-96.780	-0.267	-0.070
-665.018	554.553	0.099	0.239
-664.003	-153.738	0.179	0.012
-662.989	45.448	0.269	0.249
-661.974	-33.399	0.191	0.106
-660.959	800.000	-0.057	0.215
-659.945	-85.967	-0.226	0.070
-658.930	-200.000	-0.011	0.285
-657.916	379.630	-0.087	-0.179
-656.901	-200.000	-0.079	-0.391
-655.886	47.871	-0.200	-0.187
-654.872	-200.000	0.037	0.251
-653.857	-16.550	0.244	-0.155
-652.843	-200.000	0.006	0.120
-651.828	-130.019	0.111	0.015
-650.814	62.133	-0.130	-0.130
-649.799	-200.000	-0.028	-0.299
-648.784	239.532	0.139	0.232
-647.770	-74.711	0.030	0.011
-646.755	-163.327	-0.163	0.008
-645.741	-115.818	0.305	-0.057
-644.726	-74.880	-0.232	-0.083
-643.711	-126.453	0.185	0.028
-642.697	-144.105	0.408	0.038
-641.682	-200.000	-0.010	0.113
-640.668	-34.039	-0.082	-0.045
-639.653	800.000	0.026	-0.091
-638.638	165.136	0.147	0.209
-637.624	-90.470	0.165	-0.048
-636.609	-200.000	0.006	0.072
-635.595	-200.000	-0.010	-0.085
-634.580	44.146	-0.102	-0.094
-633.565	149.054	0.146	-0.198
-632.551	800.000	0.037	-0.116
-631.536	-97.808	0.100	-0.026
-630.522	-156.309	0.197	-0.012
-629.507	309.202	0.123	0.229
-628.492	66.885	0.117	-0.119
-627.478	800.000	0.029	-0.108
-626.463	123.720	-0.032	-0.040
-625.449	79.724	-0.039	-0.042
-624.434	29.081	-0.089	-0.075
-623.419	-155.104	-0.509	0.033
-622.405	-60.018	-0.334	0.143
-621.390	-200.000	0.004	0.062
-620.376	645.267	0.134	0.342
-619.361	49.837	0.098	0.092
-618.346	-52.576	-0.189	-0.088
-617.332	-121.430	-0.280	-0.047
-616.317	-147.607	0.339	-0.029
-615.303	-152.368	-0.255	-0.018
-614.288	-127.583	0.037	-0.005
-613.273	336.964	-0.032	0.062
-612.259	533.809	0.156	-0.371
-611.244	800.000	0.031	0.131
-610.230	-195.245	-0.385	-0.003
-609.215	-122.771	0.083	-0.014
-608.201	-36.442	0.124	0.067
-607.186	-53.647	0.266	0.122
-606.171	-26.572	-0.338	-0.198
-605.157	33.798	-0.450	-0.392
-604.142	-92.505	-0.171	-0.048
-603.128	-44.955	0.084	0.042
-602.113	-200.000	0.104	0.513
-601.098	-200.000	-0.006	-0.072
-600.084	50.952	0.061	-0.058
-599.069	-151.660	-0.330	0.024
-598.055	-200.000	0.029	0.279
-597.040	125.227	0.215	0.271
-596.025	189.071	-0.107	0.160
-595.011	-68.978	-0.402	-0.155
-593.996	-50.002	0.228	0.108
-592.982	232.394	0.143	-0.234
-591.967	-161.922	-0.424	0.021
-590.952	-56.956	0.132	0.058
-589.938	-200.000	0.020	-0.225
-588.923	718.728	0.116	-0.307
-587.909	-200.000	0.005	-0.398
-586.894	-200.000	0.002	-0.088
-585.879	-200.000	-0.048	-0.260
-584.865	1.218	-0.128	-0.092
-583.850	624.011	-0.011	-0.029
-582.836	501.713	0.081	0.187
-581.821	-200.000	0.009	-0.048
-580.806	90.878	-0.069	-0.078
-579.792	736.566	0.129	-0.346
-578.777	-200.000	-0.057	-0.408
-577.763	-148.571	-0.130	-0.011
-576.748	-200.000	0.021	-0.146
-575.733	800.000	-0.091	-0.314
-574.719	34.912	0.047	-0.041
-573.704	-22.013	0.260	-0.158
-572.690	-200.000	-0.036	-0.255
-571.675	724.159	0.047	-0.126
-570.661	-157.005	-0.192	0.012
-569.646	-35.586	0.304	0.165
-568.631	-15.922	0.119	-0.076
-567.617	-102.698	0.103	-0.025
-566.602	-200.000	-0.018	-0.246
-565.588	-63.601	0.114	0.047
-564.573	40.454	-0.340	0.306
-563.558	347.090	0.071	-0.141
-562.544	-200.000	-0.012	-0.158
-561.529	800.000	0.133	-0.434
-560.515	16.726	-0.359	-0.284
-559.500	800.000	-0.051	-0.221
-558.485	-200.000	-0.004	0.135
-557.471	-69.058	0.254	-0.098
-556.456	181.029	-0.116	0.171
-555.442	-98.609	-0.497	-0.127
-554.427	-61.651	0.116	0.049
-553.412	-200.000	0.003	-0.257
-552.398	-200.000	0.029	-0.250
-551.383	82.687	0.202	-0.219
-550.369	-131.107	0.224	0.030
-549.354	-200.000	-0.011	0.374
-548.339	-200.000	-0.036	-0.359
-547.325	-126.243	0.449	0.067
-546.310	-41.219	-0.240	-0.124
-545.296	-38.492	-0.295	0.156
-544.281	-93.627	0.399	-0.110
-543.266	23.647	0.073	0.060
-542.252	800.000	-0.027	0.113
-541.237	185.945	0.080	0.119
-540.223	-200.000	-0.060	0.292
-539.208	10.740	0.206	0.157
-538.193	-24.569	-0.102	-0.061
-537.179	-200.000	0.024	0.218
-536.164	-84.456	-0.160	-0.050
-535.150	231.413	0.038	-0.062
-534.135	-9.492	-0.114	-0.076
-533.121	-200.000	-0.033	-0.268
-532.106	46.382	0.194	-0.180
-531.091	36.218	0.204	0.180
-530.077	46.249	-0.188	-0.174
-529.062	-119.716	0.285	-0.049
-528.048	-45.543	0.176	0.087
-527.033	-200.000	-0.000	0.132
-526.018	79.359	0.241	-0.257
-525.004	-104.381	-0.467	-0.108
-523.989	-200.000	-0.070	0.323
-522.975	155.709	0.070	0.096
-521.960	-78.842	-0.212	-0.072
-520.945	262.099	0.162	-0.280
-519.931	83.582	0.146	0.159
-518.916	47.758	0.082	-0.076
-517.902	800.000	0.110	0.375
-516.887	-10.094	0.195	-0.129
-515.872	300.318	-0.140	0.258
-514.858	-200.000	0.001	0.078
-513.843	87.765	-0.125	0.138
-512.829	557.499	0.052	0.125
-511.814	27.219	-0.254	0.213
-510.799	-200.000	0.020	-0.152
-509.785	525.650	0.043	-0.102
-508.770	-185.341	0.073	-0.001
-507.756	-99.245	-0.374	-0.094
-506.741	16.885	-0.121	-0.096
-505.726	-28.323	0.143	0.082
-504.712	335.672	-0.061	-0.118
-503.697	258.663	0.061	-0.105
-502.683	-55.176	0.287	-0.129
-501.668	13.693	-0.197	0.153
-500.653	-28.364	0.209	-0.120
-499.639	31.103	-0.153	-0.131
-498.624	26.331	-0.202	-0.168
-497.610	-74.751	0.273	-0.098
-496.595	161.451	-0.119	0.166
-495.581	-91.249	0.240	0.069
-494.566	-200.000	-0.010	-0.072
-493.551	141.578	-0.200	0.264
-492.537	53.764	-0.165	0.158
-491.522	-200.000	-0.018	0.173
-490.508	64.775	0.106	-0.106
-489.493	-200.000	0.140	-0.000
-488.478	325.771	0.014	0.026
-487.464	800.000	-0.061	0.219
-486.449	-41.855	0.221	0.113
-485.435	57.091	0.165	-0.160
-484.420	54.742	-0.106	0.102
-483.405	-105.508	-0.415	0.094
-482.391	-114.577	0.390	-0.075
-481.376	95.188	0.120	0.137
-480.362	111.093	0.201	-0.241
-479.347	-200.000	-0.010	-0.126
-478.332	770.144	-0.030	0.081
-477.318	-200.000	-0.002	-0.025
-476.303	-200.000	0.014	-0.069
-475.289	-200.000	-0.006	-0.139
-474.274	724.037	-0.188	0.498
-473.259	-126.939	-0.447	-0.065
-472.245	-74.103	-0.346	0.125
-471.230	-200.000	0.074	-0.348
-470.216	354.288	-0.166	-0.327
-469.201	782.456	0.190	-0.517
-468.186	97.081	-0.128	0.146
-467.172	-100.840	0.152	0.037
-466.157	-150.735	-0.277	0.021
-465.143	-60.785	0.129	-0.054
-464.128	-35.397	0.151	0.082
-463.113	142.440	0.028	0.037
-462.099	-50.458	-0.227	-0.106
-461.084	-130.230	-0.262	0.035
-460.070	-200.000	0.079	-0.372
-459.055	-200.000	-0.010	0.115
-458.040	-49.382	0.281	0.133
-457.026	-68.213	0.221	-0.085
-456.011	-169.440	-0.030	0.001
-454.997	-105.623	0.118	0.027
-453.982	-189.401	0.236	-0.003
-452.968	295.031	-0.100	0.182
-451.953	96.270	-0.032	0.037
-450.938	89.819	-0.212	-0.236
-449.924	24.573	0.229	-0.189
-448.909	-200.000	0.034	0.154
-447.895	300.234	-0.076	0.140
-446.880	446.123	0.049	0.107
-445.865	-200.000	-0.011	-0.114
-444.851	531.449	-0.059	0.138
-443.836	123.134	-0.263	0.328
-442.822	-200.000	0.001	-0.220
-441.807	134.853	0.074	-0.096
-440.792	125.808	0.151	0.190
-439.778	101.123	-0.218	0.252
-438.763	635.975	-0.059	-0.148
-437.749	-60.310	0.219	-0.093
-436.734	-123.350	-0.107	0.017
-435.719	800.000	-0.028	0.087
-434.705	-62.398	0.124	-0.051
-433.690	110.388	-0.077	0.092
-432.676	-36.250	0.156	0.084
-431.661	87.980	-0.233	-0.257
-430.646	-111.996	-0.115	0.023
-429.632	91.064	-0.126	0.141
-428.617	800.000	0.044	-0.121
-427.603	12.904	0.046	0.036
-426.588	-200.000	-0.008	0.186
-425.573	-121.379	-0.474	0.079
-424.559	256.474	-0.090	0.153
-423.544	-66.137	0.343	-0.136
-422.530	-143.459	0.256	0.024
-421.515	209.642	-0.207	0.323
-420.500	-72.575	-0.312	0.115
-419.486	534.005	-0.039	0.092
-418.471	-100.622	-0.394	0.097
-417.457	-17.185	0.294	0.184
-416.442	800.000	0.106	0.448
-415.428	57.153	-0.254	-0.246
-414.413	-22.508	0.238	-0.143
-413.398	-108.438	-0.051	0.011
-412.384	-4.811	-0.174	0.119
-411.369	319.716	0.180	0.339
-410.355	-24.392	0.187	-0.111
-409.340	-45.441	0.132	-0.065
-408.325	-200.000	-0.032	0.263
-407.311	-54.152	-0.216	-0.098
-406.296	19.200	-0.140	0.112
-405.282	-88.444	0.185	-0.055
-404.267	220.282	0.171	0.273
-403.252	522.491	0.116	-0.270
-402.238	-23.639	0.140	0.083
-401.223	52.071	-0.099	-0.093
-400.209	-200.000	0.029	0.152
-399.194	-21.783	0.075	-0.045
-398.179	250.978	0.067	-0.113
-397.165	-200.000	0.016	-0.150
-396.150	-71.944	-0.268	-0.099
-395.136	-98.884	0.337	-0.085
-394.121	-121.553	-0.074	0.012
-393.106	-43.475	-0.146	-0.073
-392.092	-165.567	-0.392	-0.017
-391.077	-13.431	0.117	-0.076
-390.063	-200.000	0.028	0.218
-389.048	-75.931	-0.218	-0.077
-388.033	25.619	0.319	-0.263
-387.019	93.296	-0.128	-0.144
-386.004	484.628	-0.057	-0.130
-384.990	79.757	0.280	0.298
-383.975	35.568	-0.242	0.211
-382.960	800.000	0.054	0.219
-381.946	-200.000	0.050	0.296
-380.931	142.087	0.177	0.232
-379.917	154.548	-0.057	-0.078
-378.902	152.327	-0.137	0.186
-377.888	22.989	-0.059	0.048
-376.873	39.329	0.077	-0.068
-375.858	71.778	-0.065	-0.067
-374.844	-199.695	-0.191	-0.001
-373.829	42.017	0.212	0.191
-372.815	800.000	0.107	0.372
-371.800	680.269	-0.019	-0.050
-370.785	111.159	0.144	-0.172
-369.771	-145.719	0.246	0.022
-368.756	-113.789	0.167	-0.032
-367.742	-82.977	-0.093	0.030
-366.727	151.858	-0.093	0.126
-365.712	29.141	0.222	0.187
-364.698	-63.504	-0.336	0.137
-363.683	1.567	0.325	-0.232
-362.669	371.071	-0.051	-0.102
-361.654	-83.079	-0.088	-0.028
-360.639	-200.000	-0.037	0.355
-359.625	-200.000	-0.007	0.115
-358.610	64.830	-0.038	-0.038
-357.596	34.117	0.177	0.153
-356.581	27.303	-0.241	0.201
-355.566	800.000	-0.052	-0.160
-354.552	-18.565	0.254	-0.157
-353.537	-90.499	0.377	-0.108
-352.523	28.351	0.082	0.069
-351.508	-61.945	0.117	0.048
-350.493	-80.640	-0.210	0.069
-349.479	11.530	0.141	-0.107
-348.464	-52.927	0.114	-0.052
-347.450	328.886	-0.106	0.203
-346.435	-33.401	-0.293	0.161
-345.420	-4.563	0.041	0.028
-344.406	228.463	-0.196	-0.316
-343.391	2.713	0.036	-0.026
-342.377	76.929	0.225	0.237
-341.362	-65.822	-0.156	0.062
-340.348	-53.957	-0.166	-0.075
-339.333	570.206	-0.039	-0.095
-338.318	82.110	0.062	0.067
-337.304	111.231	-0.238	-0.284
-336.289	420.395	-0.121	0.257
-335.275	284.391	0.085	0.151
-334.260	-58.534	0.194	0.083
-333.245	-200.000	0.044	0.364
-332.231	-191.385	0.037	-0.000
-331.216	377.243	0.062	0.125
-330.202	-200.000	-0.010	0.056
-329.187	461.041	-0.068	-0.151
-328.172	-96.138	-0.271	-0.071
-327.158	375.765	0.059	0.118
-326.143	51.381	-0.176	-0.166
-325.129	26.553	-0.100	0.083
-324.114	338.621	-0.289	-0.558
-323.099	61.279	0.196	-0.193
-322.085	0.062	-0.149	-0.105
-321.070	86.676	0.049	0.053
-320.056	-75.654	-0.169	-0.059
-319.041	-8.193	-0.206	-0.137
-318.026	243.000	-0.031	-0.052
-317.012	87.518	-0.044	0.049
-315.997	29.903	0.281	0.237
-314.983	42.334	0.205	-0.184
-313.968	800.000	0.069	0.239
-312.953	800.000	-0.085	-0.253
-311.939	800.000	0.075	0.255
-310.924	253.842	0.206	0.348
-309.910	-200.000	-0.008	0.161
-308.895	-45.659	-0.467	0.228
-307.880	-200.000	-0.008	-0.097
-306.866	63.794	0.091	0.091
-305.851	331.001	-0.153	0.291
-304.837	-151.762	-0.110	-0.008
-303.822	349.738	-0.146	0.286
-302.807	-80.045	0.082	-0.027
-301.793	226.432	-0.146	0.234
-300.778	-200.000	0.016	0.123
-299.764	77.610	-0.098	0.103
-298.749	29.360	-0.016	-0.014
-297.735	-36.010	-0.147	0.079
-296.720	-85.559	-0.104	-0.032
-295.705	-200.000	-0.037	-0.185
-294.691	-200.000	0.023	0.289
-293.676	-200.000	-0.048	-0.372
-292.662	-109.597	-0.239	0.050
-291.647	800.000	-0.091	-0.319
-290.632	-183.089	0.187	-0.003
-289.618	-164.494	0.262	-0.012
-288.603	800.000	0.035	-0.100
-287.589	-67.728	0.153	0.059
-286.574	143.850	-0.109	-0.143
-285.559	-74.728	-0.082	-0.029
-284.545	-200.000	0.003	0.090
-283.530	10.981	-0.027	0.020
-282.516	-73.989	0.455	-0.163
-281.501	132.231	0.086	0.109
-280.486	800.000	-0.088	-0.339
-279.472	24.859	0.185	-0.151
-278.457	-57.468	0.031	0.013
-277.443	-67.426	-0.220	-0.085
-276.428	238.846	-0.140	0.230
-275.413	800.000	-0.022	-0.078
-274.399	13.270	-0.130	0.100
-273.384	-151.846	0.296	-0.021
-272.370	-200.000	-0.046	-0.274
-271.355	-23.091	-0.279	-0.166
-270.340	-119.027	-0.124	-0.022
-269.326	-200.000	-0.031	0.248
-268.311	59.145	0.154	0.149
-267.297	269.456	0.188	0.326
-266.282	-145.355	-0.247	-0.022
-265.267	341.323	0.042	-0.081
-264.253	-80.052	0.213	0.071
-263.238	302.948	0.058	-0.106
-262.224	-200.000	0.066	-0.321
-261.209	106.785	0.116	-0.136
-260.195	800.000	-0.022	-0.086
-259.180	-200.000	-0.033	0.167
-258.165	684.630	-0.031	0.080
-257.151	86.364	-0.105	0.114
-256.136	-200.000	-0.068	0.423
-255.122	66.265	0.103	0.103
-254.107	493.110	0.089	0.201
-253.092	800.000	-0.104	0.331
-252.078	-200.000	0.009	0.145
-251.063	800.000	0.019	0.071
-250.049	181.862	0.057	-0.083
-249.034	-200.000	-0.011	0.120
-248.019	-200.000	-0.038	0.356
-247.005	-159.296	0.135	-0.007
-245.990	390.415	-0.136	0.278
-244.976	-200.000	-0.077	-0.419
-243.961	800.000	0.076	0.220
-242.946	79.570	-0.081	-0.086
-241.932	-117.345	-0.071	0.013
-240.917	75.656	0.276	-0.288
-239.903	-30.948	0.069	-0.039
-238.888	-14.021	0.060	0.038
-237.873	-200.000	-0.020	0.131
-236.859	-176.931	-0.206	0.005
-235.844	457.981	-0.086	-0.188
-234.830	102.977	0.136	-0.158
-233.815	-78.404	0.217	0.073
-232.800	71.842	-0.346	0.355
-231.786	800.000	0.055	0.194
-230.771	-178.891	-0.109	0.002
-229.757	-187.421	0.112	0.001
-228.742	-82.563	0.359	-0.115
-227.727	90.284	-0.192	-0.212
-226.713	184.608	0.181	-0.265
-225.698	-10.489	0.220	0.144
-224.684	-167.748	-0.356	-0.014
-223.669	11.089	0.215	-0.162
-222.655	-66.805	-0.028	0.011
-221.640	295.978	-0.193	-0.349
-220.625	561.184	-0.022	-0.051
-219.611	36.048	-0.175	-0.152
-218.596	-200.000	-0.009	-0.334
-217.582	134.460	0.179	-0.228
-216.567	-145.444	-0.153	0.014
-215.552	800.000	-0.081	-0.291
-214.538	54.146	0.250	0.237
-213.523	-109.652	-0.114	0.024
-212.509	36.888	-0.266	0.231
-211.494	-91.352	-0.213	-0.060
-210.479	-200.000	0.023	0.213
-209.465	-170.791	-0.237	-0.008
-208.450	-67.199	-0.262	0.102
-207.436	-14.991	0.142	-0.089
-206.421	86.183	0.134	0.145
-205.406	-171.300	-0.399	0.013
-204.392	19.478	0.124	0.098
-203.377	233.541	-0.078	0.126
-202.363	-200.000	-0.001	-0.280
-201.348	-159.436	0.310	0.017
-200.333	-41.892	-0.053	0.027
-199.319	-58.817	-0.144	-0.061
-198.304	-31.974	0.211	-0.116
-197.290	800.000	0.113	-0.315
-196.275	-200.000	-0.013	0.401
-195.260	54.729	0.190	0.180
-194.246	-120.366	-0.208	-0.035
-193.231	-11.141	0.175	-0.114
-192.217	-72.980	0.163	-0.059
-191.202	37.448	0.065	0.057
-190.187	79.656	0.148	-0.156
-189.173	180.115	-0.111	0.161
-188.158	-200.000	0.023	0.366
-187.144	74.479	-0.201	-0.208
-186.129	-39.189	0.215	-0.111
-185.114	143.253	0.346	-0.454
-184.100	64.964	0.159	0.159
-183.085	397.887	0.057	-0.117
-182.071	730.661	-0.127	0.333
-181.056	800.000	-0.017	0.051
-180.042	800.000	0.054	0.184
-179.027	-111.802	0.408	0.081
-178.012	-10.324	-0.234	0.153
-176.998	-111.934	-0.088	-0.018
-175.983	510.804	-0.046	-0.105
-174.969	514.311	0.103	0.236
-173.954	800.000	0.057	0.171
-172.939	800.000	0.091	0.269
-171.925	441.140	0.063	-0.137
-170.910	409.381	-0.126	-0.262
-169.896	-64.086	-0.159	-0.064
-168.881	-90.157	0.137	0.039
-167.866	-200.000	-0.030	-0.242
-166.852	199.847	-0.184	0.278
-165.837	-75.964	-0.306	-0.106
-164.823	230.081	0.055	-0.088
-163.808	28.577	0.080	0.066
-162.793	-120.575	0.186	-0.031
-161.779	-200.000	-0.002	0.151
-160.764	188.139	0.049	-0.072
-159.750	-58.234	-0.261	-0.112
-158.735	-128.247	0.321	0.045
-157.720	232.569	0.195	-0.315
-156.706	426.578	-0.056	-0.118
-155.691	203.692	-0.144	-0.218
-154.677	226.537	0.083	0.133
-153.662	27.521	0.182	-0.151
-152.647	152.933	0.069	-0.092
-151.633	-147.722	0.235	0.019
-150.618	384.558	-0.098	0.199
-149.604	-72.314	-0.403	0.147
-148.589	45.730	0.183	0.167
-147.574	15.405	-0.051	-0.040
-146.560	800.000	-0.024	0.094
-145.545	-200.000	-0.009	-0.266
-144.531	200.250	0.031	-0.046
-143.516	218.718	-0.247	0.388
-142.502	-8.929	-0.046	-0.030
-141.487	-200.000	0.014	0.113
-140.472	244.732	0.071	-0.118
-139.458	547.917	0.035	-0.083
-138.443	292.250	-0.051	0.091
-137.429	416.335	-0.049	-0.102
-136.414	-82.423	0.411	0.131
-135.399	242.903	0.165	0.272
-134.385	-157.826	0.367	-0.021
-133.370	3.024	-0.325	-0.232
-132.356	68.240	0.126	-0.127
-131.341	67.496	-0.100	0.100
-130.326	-24.253	0.115	0.068
-129.312	529.921	-0.227	0.526
-128.297	-200.000	0.023	-0.292
-127.283	-108.477	0.261	-0.055
-126.268	7.672	0.079	0.058
-125.253	-9.300	0.037	-0.024
-124.239	800.000	-0.025	-0.084
-123.224	675.763	0.017	-0.044
-122.210	245.158	-0.119	0.196
-121.195	46.753	-0.184	0.168
