DTS Sentinel unit serial number:	SN413079Multiplexer serial number:	ORYXHardware model number:	OX4-SRSoftware version number:	ORYX F/W v4.00 Oryx Data Collector v3.7.2.0data status	okinstallation	princeton_trtdifferential loss correction	single-endedforward channel	channel 1reverse channel	N/Adate	2019/09/16time	07:34:35forward acquisition time	60.00reverse acquisition time	0.00gamma	496.2192k internal	0.2329k external	0.2329temperature offset calibration	0.9984default loss term (dB/km)	0.3790temperature slope calibration	1.0000multiplexer offset coefficient	1.0000multiplexer slope coefficient	1.0000fibre end	0.00T internal ref (°C)	27.69T ext. ref 1 (°C)	11.65T ext. ref 2 (°C)	24.20length (m)	temperature (°C)	Stokes	anti-Stokes-747.200	-23.358	0.249	-0.150
-746.185	800.000	-0.132	0.442
-745.171	-152.886	0.297	0.021
-744.156	202.876	-0.188	0.292
-743.142	-200.000	-0.013	0.117
-742.127	205.088	-0.150	0.234
-741.112	-179.092	-0.312	0.007
-740.098	-71.377	-0.065	0.025
-739.083	-58.649	0.138	-0.060
-738.069	261.121	-0.105	-0.183
-737.054	7.440	-0.077	0.058
-736.039	14.263	-0.192	-0.151
-735.025	-200.000	-0.036	0.273
-734.010	-200.000	-0.010	0.145
-732.996	-22.035	-0.210	-0.129
-731.981	-101.307	-0.268	-0.066
-730.966	-200.000	0.023	-0.120
-729.952	575.004	-0.188	0.461
-728.937	80.022	-0.108	0.117
-727.923	-8.801	-0.244	-0.165
-726.908	-84.854	0.180	-0.057
-725.894	362.780	0.069	-0.140
-724.879	800.000	0.051	-0.204
-723.864	34.400	-0.338	-0.297
-722.850	11.637	-0.145	-0.112
-721.835	558.463	0.070	0.171
-720.821	-200.000	0.012	0.184
-719.806	800.000	-0.017	0.071
-718.791	110.646	0.033	0.040
-717.777	-200.000	-0.064	-0.329
-716.762	-76.156	0.197	-0.070
-715.748	-33.765	0.050	0.028
-714.733	206.464	0.174	0.273
-713.718	800.000	0.028	0.102
-712.704	221.017	0.155	-0.250
-711.689	-200.000	0.065	0.336
-710.675	-106.360	0.145	-0.033
-709.660	40.957	-0.159	0.144
-708.645	99.126	0.225	0.262
-707.631	95.275	-0.417	0.477
-706.616	-70.406	0.228	0.087
-705.602	88.009	0.187	-0.209
-704.587	800.000	-0.075	-0.284
-703.572	800.000	-0.079	0.277
-702.558	-68.761	0.341	0.133
-701.543	354.347	-0.052	0.104
-700.529	-145.864	-0.300	0.027
-699.514	371.312	0.120	0.245
-698.499	-93.657	-0.191	0.053
-697.485	-95.608	-0.401	0.108
-696.470	-200.000	0.033	-0.156
-695.456	37.846	0.155	-0.138
-694.441	61.761	0.207	-0.207
-693.426	63.170	-0.251	-0.253
-692.412	-200.000	0.003	0.080
-691.397	448.512	0.163	0.361
-690.383	-161.991	-0.282	0.014
-689.368	-200.000	-0.389	-0.001
-688.354	10.322	-0.204	-0.156
-687.339	68.366	-0.115	-0.119
-686.324	103.718	0.062	-0.073
-685.310	800.000	-0.066	-0.193
-684.295	800.000	-0.067	0.263
-683.281	-200.000	-0.044	-0.238
-682.266	-93.187	0.060	0.017
-681.251	450.693	-0.047	-0.104
-680.237	-200.000	-0.004	-0.163
-679.222	40.469	0.174	-0.157
-678.208	682.097	-0.071	0.186
-677.193	184.777	-0.090	-0.134
-676.178	56.467	0.215	-0.210
-675.164	800.000	-0.017	-0.048
-674.149	-159.256	-0.378	-0.021
-673.135	-200.000	0.001	-0.063
-672.120	427.694	0.104	0.226
-671.105	17.936	0.084	0.067
-670.091	648.063	0.014	0.035
-669.076	-48.871	-0.227	-0.109
-668.062	117.258	0.254	-0.313
-667.047	-28.165	-0.135	-0.078
-666.032	800.000	0.072	0.311
-665.018	-200.000	0.030	0.145
-664.003	-130.910	-0.090	0.012
-662.989	93.572	0.289	-0.329
-661.974	-200.000	-0.019	-0.124
-660.959	-68.367	-0.185	0.072
-659.945	-200.000	-0.032	-0.164
-658.930	-200.000	0.005	-0.290
-657.916	-153.235	-0.405	0.028
-656.901	376.800	0.119	-0.244
-655.886	-171.443	0.366	0.012
-654.872	-99.048	-0.300	-0.076
-653.857	137.598	0.137	0.180
-652.843	83.240	-0.191	0.209
-651.828	-105.813	0.509	-0.115
-650.814	252.712	-0.081	-0.138
-649.799	3.360	-0.188	-0.137
-648.784	-124.312	-0.167	0.026
-647.770	-8.385	0.179	-0.121
-646.755	-191.914	0.309	-0.003
-645.741	-106.117	-0.232	0.052
-644.726	-200.000	0.067	-0.390
-643.711	-200.000	-0.032	0.148
-642.697	620.175	-0.041	0.104
-641.682	84.951	-0.164	-0.180
-640.668	108.270	-0.114	0.136
-639.653	-3.582	-0.233	0.162
-638.638	387.263	-0.086	0.178
-637.624	76.505	-0.160	-0.170
-636.609	-47.046	-0.155	0.076
-635.595	396.116	0.145	-0.303
-634.580	-43.064	-0.188	-0.096
-633.565	316.262	-0.068	0.129
-632.551	-29.626	-0.111	-0.063
-631.536	-151.692	-0.055	0.004
-630.522	18.745	0.210	-0.169
-629.507	67.912	-0.296	0.303
-628.492	-77.091	-0.167	0.058
-627.478	8.993	-0.206	-0.156
-626.463	800.000	0.039	0.147
-625.449	800.000	-0.081	-0.236
-624.434	277.639	-0.134	-0.238
-623.419	-154.322	0.160	-0.011
-622.405	-200.000	0.008	-0.125
-621.390	287.506	-0.082	0.149
-620.376	38.918	-0.099	0.088
-619.361	12.721	0.108	0.083
-618.346	-200.000	0.049	-0.374
-617.332	-135.896	-0.191	0.023
-616.317	-200.000	-0.022	-0.151
-615.303	54.508	-0.075	0.072
-614.288	296.568	0.135	0.249
-613.273	-85.053	0.195	-0.061
-612.259	-173.460	-0.146	0.004
-611.244	-47.541	-0.184	0.089
-610.230	37.802	0.080	-0.071
-609.215	59.558	-0.148	-0.146
-608.201	13.834	0.228	0.177
-607.186	800.000	0.067	0.206
-606.171	800.000	0.055	-0.236
-605.157	-127.184	0.190	-0.028
-604.142	222.592	-0.027	0.043
-603.128	-31.842	0.161	0.091
-602.113	-200.000	-0.011	0.055
-601.098	-200.000	-0.007	-0.143
-600.084	139.361	0.055	-0.072
-599.069	-94.146	0.363	0.100
-598.055	453.677	-0.053	0.117
-597.040	-200.000	0.249	-0.000
-596.025	-146.050	-0.278	-0.025
-595.011	31.249	-0.083	-0.071
-593.996	-7.861	-0.106	0.072
-592.982	-76.728	-0.243	0.085
-591.967	37.746	0.257	0.229
-590.952	-88.787	-0.325	-0.097
-589.938	-52.490	-0.169	-0.078
-588.923	173.051	0.103	-0.148
-587.909	67.236	-0.129	-0.132
-586.894	-162.375	0.193	-0.010
-585.879	-200.000	0.022	-0.306
-584.865	175.262	-0.115	0.167
-583.850	0.285	-0.457	0.326
-582.836	-156.729	-0.176	0.011
-581.821	-168.747	-0.288	-0.011
-580.806	224.595	0.060	0.098
-579.792	-157.803	0.183	-0.011
-578.777	-200.000	0.022	0.138
-577.763	-200.000	0.041	0.248
-576.748	-177.967	-0.259	-0.006
-575.733	-8.826	-0.153	0.103
-574.719	59.121	0.192	0.189
-573.704	21.481	-0.106	0.087
-572.690	-87.364	-0.329	0.100
-571.675	140.758	0.017	0.023
-570.661	-22.044	-0.110	0.067
-569.646	152.353	0.288	0.393
-568.631	-106.755	-0.336	0.075
-567.617	84.383	0.018	-0.020
-566.602	52.327	-0.053	0.050
-565.588	-45.736	-0.127	-0.063
-564.573	-126.592	-0.077	0.011
-563.558	-49.402	-0.074	0.035
-562.544	800.000	0.116	-0.366
-561.529	6.494	0.205	0.152
-560.515	97.520	-0.100	-0.115
-559.500	-200.000	0.003	-0.193
-558.485	302.300	0.051	0.093
-557.471	-200.000	-0.010	0.369
-556.456	700.716	0.016	-0.043
-555.442	93.575	0.064	0.072
-554.427	278.242	-0.143	0.255
-553.412	93.616	-0.116	-0.131
-552.398	-116.431	0.332	0.061
-551.383	-200.000	-0.000	0.031
-550.369	48.354	0.298	0.278
-549.354	-200.000	-0.038	0.311
-548.339	-58.149	-0.164	-0.072
-547.325	-200.000	-0.042	-0.225
-546.310	23.764	-0.304	0.250
-545.296	316.568	-0.112	-0.212
-544.281	15.057	0.082	-0.065
-543.266	-24.151	0.128	-0.076
-542.252	800.000	0.025	0.101
-541.237	-101.984	0.107	-0.026
-540.223	800.000	-0.169	-0.632
-539.208	100.730	-0.125	-0.146
-538.193	-200.000	0.077	0.396
-537.179	298.853	-0.057	0.104
-536.164	49.466	0.173	-0.163
-535.150	-87.065	-0.277	0.084
-534.135	23.585	0.081	-0.066
-533.121	61.280	-0.197	-0.195
-532.106	36.967	0.229	-0.202
-531.091	-53.678	0.077	-0.035
-530.077	534.348	0.151	-0.357
-529.062	800.000	-0.080	0.235
-528.048	61.604	0.164	0.163
-527.033	-109.183	-0.067	-0.014
-526.018	-200.000	-0.028	-0.226
-525.004	-3.719	0.235	-0.163
-523.989	-85.956	0.157	-0.048
-522.975	800.000	0.059	-0.233
-521.960	-7.577	-0.221	-0.149
-520.945	-5.349	-0.180	0.123
-519.931	-169.227	0.216	-0.008
-518.916	308.744	-0.137	0.255
-517.902	-40.796	-0.022	0.011
-516.887	665.518	-0.019	0.050
-515.872	-32.298	-0.207	0.116
-514.858	65.137	0.321	0.323
-513.843	-123.064	-0.173	0.028
-512.829	-200.000	0.018	0.108
-511.814	-142.593	-0.215	-0.021
-510.799	229.080	0.111	-0.181
-509.785	-161.772	0.084	-0.004
-508.770	32.077	-0.105	-0.090
-507.756	43.006	-0.162	-0.147
-506.741	138.465	0.167	-0.219
-505.726	-200.000	-0.021	-0.108
-504.712	403.528	-0.111	-0.234
-503.697	-116.811	0.134	0.025
-502.683	19.331	-0.125	0.100
-501.668	-82.052	-0.352	-0.115
-500.653	-103.938	0.496	-0.115
-499.639	-90.046	-0.122	0.035
-498.624	-49.185	-0.207	-0.098
-497.610	-200.000	0.102	-0.459
-496.595	800.000	-0.015	0.047
-495.581	272.863	-0.048	-0.084
-494.566	-131.897	0.211	0.027
-493.551	78.682	-0.131	0.140
-492.537	481.554	-0.047	0.106
-491.522	-200.000	-0.010	0.089
-490.508	215.769	0.112	0.177
-489.493	-4.376	0.204	0.141
-488.478	-92.680	0.299	0.084
-487.464	-200.000	-0.085	-0.415
-486.449	369.238	-0.074	-0.150
-485.435	23.501	-0.083	0.068
-484.420	587.344	-0.029	0.070
-483.405	-87.837	-0.231	0.069
-482.391	-86.234	0.226	-0.070
-481.376	-126.356	0.144	0.021
-480.362	-74.207	0.267	-0.096
-479.347	-200.000	0.030	-0.205
-478.332	211.444	-0.041	0.064
-477.318	-46.326	0.136	0.067
-476.303	3.510	-0.242	-0.176
-475.289	-200.000	-0.045	-0.247
-474.274	172.362	0.055	0.078
-473.259	-139.910	0.209	0.022
-472.245	33.041	-0.201	0.173
-471.230	-77.534	0.198	-0.068
-470.216	10.257	-0.328	-0.249
-469.201	411.967	-0.109	-0.231
-468.186	18.765	-0.140	-0.112
-467.172	800.000	0.061	0.181
-466.157	251.828	0.090	0.153
-465.143	24.517	0.147	-0.122
-464.128	-2.477	0.124	0.087
-463.113	-129.851	-0.367	0.050
-462.099	-32.754	0.122	0.068
-461.084	-132.170	-0.380	-0.049
-460.070	143.078	-0.208	-0.275
-459.055	521.784	0.112	-0.262
-458.040	-72.960	0.241	0.088
-457.026	247.735	0.122	0.206
-456.011	66.359	-0.031	0.032
-454.997	-200.000	-0.097	0.518
-453.982	-108.977	-0.102	-0.022
-452.968	-107.854	-0.230	0.050
-451.953	348.995	0.213	-0.419
-450.938	410.775	0.155	-0.328
-449.924	93.229	0.143	-0.161
-448.909	-7.827	0.210	-0.141
-447.895	-102.647	-0.100	0.024
-446.880	-2.881	0.166	0.115
-445.865	53.030	-0.086	0.082
-444.851	-175.633	0.499	0.013
-443.836	800.000	-0.039	-0.154
-442.822	800.000	-0.106	-0.350
-441.807	-200.000	0.018	0.283
-440.792	-115.500	0.399	0.075
-439.778	12.732	-0.124	0.095
-438.763	105.869	-0.079	-0.093
-437.749	103.902	0.068	0.080
-436.734	2.639	0.091	-0.066
-435.719	800.000	-0.020	0.074
-434.705	-33.356	0.157	0.086
-433.690	-33.602	0.443	0.244
-432.676	-200.000	0.027	-0.233
-431.661	-30.624	0.099	0.056
-430.646	-14.265	0.170	0.109
-429.632	-200.000	-0.005	0.025
-428.617	602.571	0.082	0.204
-427.603	-149.991	-0.146	-0.011
-426.588	-7.333	0.113	0.076
-425.573	-200.000	-0.008	0.071
-424.559	-59.472	-0.310	0.133
-423.544	252.616	0.268	0.454
-422.530	662.746	-0.080	0.204
-421.515	114.228	0.185	-0.224
-420.500	-101.059	0.100	0.024
-419.486	-135.889	0.250	0.029
-418.471	-163.560	-0.187	0.009
-417.457	463.904	0.159	-0.353
-416.442	89.710	-0.238	-0.264
-415.428	-55.430	0.147	-0.066
-414.413	42.151	0.099	0.090
-413.398	25.072	-0.137	0.113
-412.384	-125.994	0.340	0.051
-411.369	-200.000	-0.011	0.061
-410.355	-56.454	-0.180	0.079
-409.340	800.000	-0.055	0.154
-408.325	0.614	-0.246	0.175
-407.311	-7.603	-0.204	-0.137
-406.296	-200.000	-0.017	-0.171
-405.282	800.000	0.048	0.140
-404.267	-34.055	0.170	0.093
-403.252	82.588	-0.199	-0.214
-402.238	-200.000	-0.004	-0.066
-401.223	-76.665	0.224	0.078
-400.209	69.462	-0.121	0.123
-399.194	-186.388	0.284	-0.004
-398.179	-43.724	0.173	0.087
-397.165	-29.652	0.107	-0.061
-396.150	-100.123	0.110	-0.027
-395.136	800.000	0.099	0.367
-394.121	-60.846	-0.406	-0.171
-393.106	203.157	-0.035	0.053
-392.092	-200.000	-0.011	0.124
-391.077	166.777	0.094	-0.133
-390.063	-60.589	0.098	-0.042
-389.048	-200.000	0.133	0.000
-388.033	-61.229	0.132	0.055
-387.019	3.396	0.073	-0.053
-386.004	240.564	0.140	0.231
-384.990	291.463	0.131	-0.237
-383.975	800.000	-0.044	-0.138
-382.960	302.902	-0.191	-0.352
-381.946	800.000	-0.059	0.219
-380.931	-200.000	-0.023	-0.219
-379.917	-178.019	-0.191	0.005
-378.902	800.000	0.105	-0.393
-377.888	800.000	0.063	-0.236
-376.873	-155.956	0.349	-0.022
-375.858	-17.375	-0.202	0.127
-374.844	-2.526	-0.070	0.049
-373.829	-84.320	-0.240	-0.075
-372.815	46.456	0.104	-0.096
-371.800	-141.117	0.233	0.024
-370.785	170.039	-0.087	0.123
-369.771	-200.000	-0.033	0.244
-368.756	800.000	-0.074	-0.205
-367.742	800.000	0.044	0.181
-366.727	171.773	-0.070	0.100
-365.712	-65.458	-0.292	0.116
-364.698	-69.160	0.118	0.045
-363.683	156.881	-0.159	-0.218
-362.669	-200.000	-0.014	-0.255
-361.654	244.598	0.128	-0.213
-360.639	308.041	-0.106	-0.196
-359.625	-54.752	0.179	-0.080
-358.610	-86.517	0.102	0.031
-357.596	31.311	-0.170	-0.145
-356.581	-7.838	-0.305	0.205
-355.566	328.453	-0.081	-0.154
-354.552	-200.000	-0.006	0.182
-353.537	800.000	-0.051	-0.178
-352.523	68.363	0.063	0.064
-351.508	-39.844	-0.229	-0.118
-350.493	86.620	0.208	-0.227
-349.479	-164.242	0.047	0.002
-348.464	23.468	-0.188	0.153
-347.450	800.000	0.069	0.220
-346.435	800.000	0.065	-0.223
-345.420	-200.000	0.025	-0.139
-344.406	-74.835	-0.257	-0.091
-343.391	334.742	-0.052	-0.100
-342.377	-148.040	0.221	0.018
-341.362	-200.000	0.035	0.220
-340.348	800.000	-0.068	0.243
-339.333	-123.692	0.067	0.010
-338.318	-81.562	0.309	-0.101
-337.304	-33.054	-0.297	-0.163
-336.289	303.694	0.135	-0.249
-335.275	258.968	-0.074	0.127
-334.260	77.155	-0.185	0.195
-333.245	-25.160	-0.164	-0.096
-332.231	-24.661	0.236	-0.139
-331.216	206.084	0.197	0.304
-330.202	-130.555	0.116	-0.015
-329.187	-178.098	0.186	0.004
-328.172	-146.819	-0.230	-0.020
-327.158	337.610	0.207	0.398
-326.143	73.964	-0.205	0.213
-325.129	368.052	0.137	-0.274
-324.114	800.000	-0.027	-0.075
-323.099	-19.060	0.164	-0.101
-322.085	699.728	0.113	-0.294
-321.070	-190.215	-0.222	0.002
-320.056	-63.454	0.226	0.092
-319.041	-81.096	0.204	-0.067
-318.026	-110.877	0.240	0.049
-317.012	-200.000	-0.006	0.105
-315.997	-107.139	0.238	-0.052
-314.983	-200.000	0.014	0.277
-313.968	800.000	-0.047	0.154
-312.953	-55.711	0.081	-0.036
-311.939	-56.550	-0.274	0.120
-310.924	522.116	0.047	-0.110
-309.910	392.333	-0.089	-0.183
-308.895	-200.000	0.019	-0.177
-307.880	-200.000	0.099	-0.551
-306.866	-200.000	0.031	-0.204
-305.851	-200.000	0.008	0.071
-304.837	193.658	-0.061	0.091
-303.822	800.000	0.085	-0.251
-302.807	-67.155	-0.194	-0.076
-301.793	-94.246	0.249	-0.067
-300.778	-200.000	-0.016	-0.169
-299.764	-126.643	0.129	0.019
-298.749	112.688	0.149	0.179
-297.735	47.405	0.260	0.240
-296.720	-23.942	0.134	0.079
-295.705	0.605	-0.130	-0.092
-294.691	-151.264	0.298	0.022
-293.676	628.215	-0.090	0.224
-292.662	-181.721	0.245	0.005
-291.647	-52.363	-0.150	-0.069
-290.632	-106.124	0.107	-0.024
-289.618	-71.484	-0.093	0.034
-288.603	382.148	-0.050	-0.103
-287.589	180.231	0.127	-0.184
-286.574	-65.354	-0.110	0.044
-285.559	-117.293	-0.281	-0.051
-284.545	-117.309	-0.260	-0.047
-283.530	186.700	-0.109	0.160
-282.516	-34.405	-0.141	0.076
-281.501	155.528	-0.106	0.144
-280.486	-25.075	0.221	-0.130
-279.472	15.791	-0.263	0.204
-278.457	41.784	0.081	-0.073
-277.443	-50.357	0.188	-0.088
-276.428	714.815	0.057	0.149
-275.413	59.118	-0.241	0.234
-274.399	136.461	0.223	0.288
-273.384	155.060	-0.165	0.225
-272.370	-185.016	-0.350	-0.005
-271.355	177.322	-0.148	-0.213
-270.340	800.000	0.065	-0.234
-269.326	-200.000	0.028	-0.260
-268.311	318.060	-0.028	0.052
-267.297	800.000	0.085	-0.284
-266.282	-182.047	0.108	-0.002
-265.267	86.867	-0.158	0.173
-264.253	-200.000	-0.000	-0.196
-263.238	615.658	-0.144	0.356
-262.224	800.000	-0.134	0.430
-261.209	-192.394	0.117	-0.001
-260.195	-200.000	-0.006	0.251
-259.180	-33.124	-0.058	-0.032
-258.165	-121.673	-0.113	-0.019
-257.151	-11.473	-0.126	-0.082
-256.136	-114.770	-0.070	0.013
-255.122	-200.000	-0.008	0.428
-254.107	-6.709	-0.112	0.075
-253.092	83.186	-0.111	0.119
-252.078	-200.000	-0.024	-0.164
-251.063	2.910	0.302	0.216
-250.049	205.227	0.051	-0.078
-249.034	59.216	-0.149	0.145
-248.019	265.754	-0.012	0.020
-247.005	-200.000	0.066	-0.310
-245.990	-35.564	-0.217	-0.116
-244.976	-97.409	0.153	0.039
-243.961	90.552	0.086	0.095
-242.946	-200.000	0.019	0.106
-241.932	-200.000	-0.000	-0.401
-240.917	-134.089	0.146	0.018
-239.903	-200.000	-0.018	-0.180
-238.888	34.677	-0.148	0.128
-237.873	35.429	-0.141	-0.122
-236.859	-142.630	-0.368	0.036
-235.844	800.000	0.047	0.158
-234.830	800.000	-0.111	-0.434
-233.815	-27.321	0.162	0.093
-232.800	427.631	0.085	0.182
-231.786	-173.791	0.316	0.009
-230.771	-54.115	0.103	-0.046
-229.757	-100.002	0.096	0.024
-228.742	-16.300	0.129	-0.081
-227.727	34.450	0.238	0.205
-226.713	46.201	-0.145	0.132
-225.698	-200.000	-0.007	0.248
-224.684	-98.560	-0.419	0.106
-223.669	538.268	0.055	-0.129
-222.655	800.000	0.056	0.239
-221.640	49.960	0.172	0.160
-220.625	-117.569	-0.134	0.024
-219.611	800.000	0.096	0.374
-218.596	528.056	-0.084	-0.195
-217.582	203.879	0.019	0.028
-216.567	-89.416	-0.131	0.038
-215.552	231.042	0.151	-0.243
-214.538	-28.003	-0.182	-0.104
-213.523	-200.000	-0.007	-0.540
-212.509	-200.000	0.002	0.157
-211.494	-200.000	-0.010	-0.193
-210.479	91.919	-0.187	0.207
-209.465	705.233	0.065	0.169
-208.450	-84.140	0.329	-0.103
-207.436	-55.463	-0.069	0.031
-206.421	280.906	0.063	-0.112
-205.406	98.424	-0.295	-0.335
-204.392	77.443	0.183	-0.192
-203.377	-200.000	-0.053	-0.310
-202.363	-34.171	-0.246	0.133
-201.348	-200.000	0.014	0.301
-200.333	-152.596	-0.126	0.009
-199.319	327.028	0.072	0.135
-198.304	172.589	-0.055	-0.078
-197.290	46.857	-0.359	0.328
-196.275	-113.871	0.128	-0.025
-195.260	36.834	-0.217	0.189
-194.246	-63.538	-0.443	0.179
-193.231	65.123	0.101	-0.100
-192.217	-54.402	-0.089	-0.040
-191.202	-200.000	-0.020	-0.191
-190.187	-200.000	0.023	-0.310
-189.173	800.000	-0.097	0.278
-188.158	-139.506	0.167	-0.018
-187.144	196.381	-0.236	-0.354
-186.129	218.487	0.208	-0.327
-185.114	-150.045	0.287	0.022
-184.100	0.645	0.164	-0.115
-183.085	47.163	0.399	0.366
-182.071	-53.690	0.202	0.091
-181.056	-87.596	-0.211	-0.063
-180.042	-174.300	0.134	0.004
-179.027	800.000	-0.078	0.247
-178.012	-23.439	0.375	0.222
-176.998	-86.532	0.063	-0.019
-175.983	70.448	-0.126	0.128
-174.969	-53.205	0.399	0.180
-173.954	-166.877	-0.284	-0.011
-172.939	-52.680	0.384	0.175
-171.925	800.000	0.007	-0.028
-170.910	-30.012	0.161	0.090
-169.896	45.337	0.119	0.108
-168.881	38.237	0.087	0.076
-167.866	87.453	-0.012	-0.013
-166.852	-88.819	-0.190	-0.056
-165.837	82.850	-0.287	-0.307
-164.823	-200.000	-0.035	0.215
-163.808	-18.555	0.199	0.122
-162.793	100.132	0.284	0.324
-161.779	-148.650	0.140	-0.011
-160.764	-200.000	-0.022	-0.266
-159.750	-200.000	-0.043	0.325
-158.735	-102.772	-0.031	0.007
-157.720	-161.653	-0.025	-0.001
-156.706	-74.633	-0.162	-0.057
-155.691	-134.548	-0.323	0.039
-154.677	-50.553	0.179	0.083
-153.662	13.204	0.246	0.188
-152.647	259.296	-0.073	-0.124
-151.633	-200.000	-0.011	0.070
-150.618	800.000	-0.045	-0.122
-149.604	24.414	-0.098	0.079
-148.589	137.720	0.148	-0.191
-147.574	-124.259	-0.219	-0.034
-146.560	243.560	0.043	0.070
-145.545	116.054	-0.207	0.250
-144.531	-99.202	0.217	0.054
-143.516	-100.111	0.137	-0.033
-142.502	543.520	0.192	0.450
-141.487	366.302	-0.146	-0.290
-140.472	-132.853	0.156	-0.020
-139.458	-153.389	0.060	0.004
-138.443	162.154	0.082	0.114
-137.429	314.194	0.096	-0.178
-136.414	-167.501	0.399	-0.016
-135.399	-200.000	-0.019	0.251
-134.385	13.348	-0.319	-0.243
-133.370	-200.000	-0.018	0.086
-132.356	-200.000	0.002	-0.053
-131.341	80.629	0.249	0.263
-130.326	130.252	0.106	0.134
-129.312	475.492	-0.168	-0.374
-128.297	207.601	-0.163	-0.251
-127.283	800.000	0.036	-0.134
-126.268	-39.730	0.071	0.037
-125.253	-200.000	-0.014	0.254
-124.239	58.409	0.266	0.256
-123.224	800.000	0.044	0.164
-122.210	177.206	0.166	0.237
-121.195	800.000	0.040	-0.169
-120.180	37.385	0.312	-0.272
