DTS Sentinel unit serial number:	SN413079Multiplexer serial number:	ORYXHardware model number:	OX4-SRSoftware version number:	ORYX F/W v4.00 Oryx Data Collector v3.7.2.0data status	okinstallation	princeton_trtdifferential loss correction	single-endedforward channel	channel 1reverse channel	N/Adate	2019/09/17time	01:10:35forward acquisition time	60.00reverse acquisition time	0.00gamma	496.2192k internal	0.2324k external	0.2324temperature offset calibration	0.9955default loss term (dB/km)	0.3790temperature slope calibration	1.0000multiplexer offset coefficient	1.0000multiplexer slope coefficient	1.0000fibre end	0.00T internal ref (°C)	29.48T ext. ref 1 (°C)	0.11T ext. ref 2 (°C)	24.20length (m)	temperature (°C)	Stokes	anti-Stokes-747.200	2.302	-0.190	0.139
-746.185	542.454	0.074	0.177
-745.171	0.386	-0.066	-0.048
-744.156	31.396	-0.317	0.275
-743.142	-200.000	0.031	0.156
-742.127	22.012	-0.118	0.097
-741.112	-200.000	-0.076	0.409
-740.098	29.008	0.059	0.051
-739.083	-200.000	-0.017	0.111
-738.069	-200.000	0.020	0.236
-737.054	225.422	-0.032	0.053
-736.039	-123.430	-0.413	-0.066
-735.025	-79.852	0.195	0.066
-734.010	198.301	0.124	-0.192
-732.996	91.368	-0.296	-0.335
-731.981	208.019	0.126	-0.198
-730.966	-94.763	0.056	0.015
-729.952	297.810	-0.085	-0.158
-728.937	348.535	-0.091	-0.181
-727.923	-200.000	0.038	0.304
-726.908	-122.718	0.097	0.016
-725.894	800.000	0.066	-0.284
-724.879	-200.000	0.044	-0.408
-723.864	637.741	-0.095	-0.243
-722.850	-79.098	-0.400	-0.137
-721.835	148.524	-0.191	-0.260
-720.821	-83.850	-0.363	0.117
-719.806	92.147	-0.158	0.180
-718.791	-200.000	-0.027	0.187
-717.777	-200.000	0.014	0.160
-716.762	800.000	-0.016	0.064
-715.748	-38.538	0.297	-0.158
-714.733	-139.502	-0.062	-0.007
-713.718	-57.343	0.312	0.138
-712.704	220.112	-0.183	0.295
-711.689	309.204	-0.039	-0.073
-710.675	-162.206	0.153	-0.008
-709.660	545.691	0.209	-0.503
-708.645	526.369	-0.143	-0.339
-707.631	323.734	0.133	0.256
-706.616	-41.134	-0.311	-0.162
-705.602	-200.000	-0.001	-0.197
-704.587	66.381	0.105	0.107
-703.572	-200.000	0.043	0.321
-702.558	800.000	0.049	-0.216
-701.543	240.557	0.039	-0.066
-700.529	-7.988	0.178	-0.121
-699.514	-128.386	-0.129	-0.018
-698.499	6.751	-0.048	-0.036
-697.485	177.132	-0.048	0.070
-696.470	-60.460	-0.198	0.085
-695.456	-134.241	-0.350	0.043
-694.441	-200.000	0.021	-0.107
-693.426	443.066	0.157	-0.346
-692.412	114.573	-0.153	-0.187
-691.397	19.947	-0.230	-0.187
-690.383	-200.000	0.021	0.170
-689.368	-200.000	0.052	0.267
-688.354	-55.295	-0.231	-0.104
-687.339	-10.990	0.246	-0.164
-686.324	-163.729	-0.160	-0.008
-685.310	111.484	0.173	-0.210
-684.295	-7.479	0.284	0.194
-683.281	800.000	0.045	-0.147
-682.266	-53.686	-0.317	-0.146
-681.251	800.000	-0.127	-0.413
-680.237	-200.000	0.030	0.178
-679.222	-105.877	-0.220	0.050
-678.208	4.993	0.136	0.101
-677.193	-154.515	-0.349	-0.023
-676.178	800.000	-0.056	0.240
-675.164	-200.000	-0.032	-0.379
-674.149	702.801	-0.155	-0.411
-673.135	113.349	0.095	0.116
-672.120	-200.000	-0.005	0.033
-671.105	77.222	0.082	-0.088
-670.091	-200.000	-0.018	-0.171
-669.076	-18.298	-0.163	0.102
-668.062	-46.243	-0.217	0.107
-667.047	-200.000	-0.079	-0.360
-666.032	89.801	-0.223	-0.251
-665.018	726.044	-0.146	-0.392
-664.003	-27.953	-0.225	-0.131
-662.989	79.013	-0.107	0.116
-661.974	157.972	-0.175	0.244
-660.959	305.528	0.155	0.291
-659.945	221.096	0.113	-0.182
-658.930	-34.136	-0.152	-0.084
-657.916	93.810	-0.191	-0.218
-656.901	-78.364	-0.076	-0.026
-655.886	-66.600	0.087	0.035
-654.872	-200.000	-0.004	0.210
-653.857	-200.000	0.001	-0.297
-652.843	190.672	-0.076	-0.115
-651.828	-25.733	-0.134	-0.079
-650.814	-111.916	-0.073	-0.015
-649.799	93.094	-0.122	-0.139
-648.784	434.882	-0.074	0.162
-647.770	-163.006	0.106	0.005
-646.755	70.615	-0.164	-0.170
-645.741	-82.639	0.437	0.142
-644.726	88.497	-0.301	-0.336
-643.711	695.586	-0.066	-0.174
-642.697	-52.729	-0.279	0.129
-641.682	-70.298	0.142	0.054
-640.668	800.000	-0.038	-0.134
-639.653	-200.000	0.061	-0.334
-638.638	-11.468	-0.293	-0.194
-637.624	10.299	-0.131	-0.100
-636.609	110.989	-0.171	0.208
-635.595	-75.425	-0.234	-0.084
-634.580	-55.465	-0.224	0.101
-633.565	-200.000	0.008	0.071
-632.551	138.115	0.184	0.242
-631.536	-200.000	0.031	0.154
-630.522	-166.244	-0.125	0.005
-629.507	-100.384	0.262	0.065
-628.492	226.872	-0.180	0.293
-627.478	81.359	0.316	-0.343
-626.463	42.261	0.197	0.180
-625.449	41.758	-0.072	0.065
-624.434	800.000	-0.110	-0.311
-623.419	14.896	-0.095	0.074
-622.405	-200.000	0.031	0.271
-621.390	-117.984	-0.215	-0.039
-620.376	100.151	-0.110	0.128
-619.361	177.583	0.142	-0.208
-618.346	800.000	0.065	0.198
-617.332	505.203	-0.140	0.326
-616.317	205.346	-0.082	-0.127
-615.303	-200.000	0.010	0.066
-614.288	-114.480	0.185	-0.036
-613.273	-48.348	0.180	-0.087
-612.259	0.604	0.054	-0.039
-611.244	31.352	0.148	0.127
-610.230	129.837	-0.188	0.242
-609.215	800.000	-0.056	-0.197
-608.201	143.906	-0.081	-0.108
-607.186	800.000	0.075	-0.293
-606.171	-200.000	-0.023	0.316
-605.157	-0.399	-0.086	-0.061
-604.142	96.750	-0.261	0.300
-603.128	-200.000	-0.019	-0.231
-602.113	10.124	-0.111	0.085
-601.098	-33.283	0.225	-0.125
-600.084	30.061	0.218	-0.186
-599.069	-200.000	0.046	0.228
-598.055	-200.000	0.014	0.115
-597.040	-80.785	-0.121	-0.040
-596.025	-12.651	0.123	0.081
-595.011	-200.000	0.028	0.464
-593.996	10.230	0.114	-0.087
-592.982	-161.409	-0.266	-0.014
-591.967	800.000	-0.029	0.103
-590.952	494.966	-0.178	-0.410
-589.938	24.528	-0.061	0.051
-588.923	612.183	0.122	0.306
-587.909	-200.000	-0.050	-0.263
-586.894	-200.000	-0.050	0.226
-585.879	130.474	-0.264	-0.339
-584.865	800.000	-0.079	-0.226
-583.850	-200.000	-0.006	0.313
-582.836	-200.000	0.052	-0.351
-581.821	-119.152	0.276	0.048
-580.806	225.117	-0.076	-0.124
-579.792	-108.562	-0.288	0.062
-578.777	66.109	-0.238	0.243
-577.763	-1.263	-0.195	-0.138
-576.748	-200.000	0.009	0.105
-575.733	280.154	-0.040	0.071
-574.719	-170.606	0.448	0.016
-573.704	-82.437	-0.163	-0.053
-572.690	106.378	-0.156	0.185
-571.675	-165.113	0.323	0.014
-570.661	25.040	-0.160	-0.133
-569.646	-200.000	-0.020	0.173
-568.631	-90.549	0.221	-0.064
-567.617	-1.485	-0.376	-0.266
-566.602	-16.199	-0.088	-0.056
-565.588	800.000	0.086	-0.253
-564.573	-200.000	0.029	0.226
-563.558	800.000	0.043	-0.145
-562.544	-200.000	0.018	-0.298
-561.529	-31.313	-0.150	-0.084
-560.515	333.553	-0.111	-0.215
-559.500	800.000	0.031	0.104
-558.485	295.282	0.269	-0.494
-557.471	-117.574	-0.269	-0.049
-556.456	271.045	-0.177	0.312
-555.442	-145.538	0.307	-0.028
-554.427	800.000	-0.064	-0.232
-553.412	-32.414	0.102	0.057
-552.398	-36.198	0.129	0.070
-551.383	-3.393	0.042	-0.029
-550.369	183.039	0.162	-0.240
-549.354	-162.562	0.307	-0.015
-548.339	182.592	0.038	-0.056
-547.325	-3.690	0.074	-0.052
-546.310	22.360	0.227	0.186
-545.296	171.620	0.034	0.049
-544.281	147.648	0.132	0.178
-543.266	-200.000	-0.001	0.258
-542.252	-4.213	-0.371	0.257
-541.237	-115.085	-0.139	-0.026
-540.223	494.946	-0.237	0.545
-539.208	390.099	-0.194	-0.402
-538.193	-200.000	0.021	-0.173
-537.179	-8.622	0.130	0.087
-536.164	-150.232	-0.332	-0.026
-535.150	-117.532	-0.085	-0.015
-534.135	800.000	-0.043	-0.156
-533.121	116.932	0.121	0.149
-532.106	-66.270	0.043	0.017
-531.091	-76.070	-0.481	-0.170
-530.077	230.339	-0.135	0.222
-529.062	-40.523	-0.351	-0.182
-528.048	171.346	-0.088	0.126
-527.033	800.000	0.081	0.268
-526.018	798.770	-0.060	0.167
-525.004	-87.000	-0.302	-0.092
-523.989	280.887	-0.092	0.164
-522.975	-179.207	0.258	0.006
-521.960	-92.524	-0.196	-0.055
-520.945	170.488	-0.078	0.112
-519.931	-97.909	-0.131	0.034
-518.916	-9.438	0.191	0.127
-517.902	92.666	-0.053	0.059
-516.887	800.000	-0.158	-0.451
-515.872	-196.271	0.256	0.002
-514.858	119.072	-0.142	-0.176
-513.843	-76.171	-0.098	-0.035
-512.829	-71.978	0.221	0.082
-511.814	-200.000	0.012	-0.133
-510.799	-39.631	0.020	0.010
-509.785	-12.805	-0.163	0.106
-508.770	37.576	-0.311	0.276
-507.756	-10.570	-0.128	0.085
-506.741	-200.000	0.157	-0.001
-505.726	-93.205	0.279	0.078
-504.712	800.000	0.082	0.234
-503.697	9.501	0.160	0.121
-502.683	-200.000	-0.068	-0.328
-501.668	-84.496	-0.147	0.046
-500.653	10.014	-0.085	-0.064
-499.639	365.887	-0.211	-0.425
-498.624	800.000	-0.030	-0.125
-497.610	-45.438	0.079	-0.039
-496.595	-200.000	0.024	-0.148
-495.581	-200.000	-0.014	0.214
-494.566	-90.774	-0.173	0.050
-493.551	800.000	0.082	-0.318
-492.537	800.000	-0.115	0.390
-491.522	171.775	0.097	0.139
-490.508	73.249	-0.129	-0.135
-489.493	9.570	-0.090	0.068
-488.478	30.537	-0.147	-0.126
-487.464	-200.000	-0.016	-0.091
-486.449	-200.000	-0.026	-0.314
-485.435	-184.475	-0.154	0.003
-484.420	-19.345	-0.259	0.161
-483.405	-26.388	0.009	0.005
-482.391	782.427	0.086	-0.236
-481.376	192.198	0.037	-0.056
-480.362	-119.576	0.284	0.049
-479.347	2.004	0.004	-0.003
-478.332	230.351	-0.059	0.096
-477.318	-133.022	0.179	-0.023
-476.303	-46.829	-0.366	0.179
-475.289	-90.541	-0.342	-0.099
-474.274	800.000	0.149	0.461
-473.259	-117.897	0.117	-0.021
-472.245	-36.175	-0.179	-0.097
-471.230	71.916	-0.343	-0.357
-470.216	800.000	-0.051	-0.189
-469.201	43.248	-0.085	0.077
-468.186	236.816	0.107	0.178
-467.172	110.009	-0.150	0.180
-466.157	2.892	-0.123	0.089
-465.143	137.222	-0.013	-0.017
-464.128	242.297	-0.138	-0.231
-463.113	-104.261	0.148	0.034
-462.099	800.000	0.094	0.283
-461.084	-60.104	-0.088	-0.038
-460.070	-133.440	0.041	0.005
-459.055	800.000	-0.064	-0.210
-458.040	63.277	-0.227	0.227
-457.026	194.527	0.120	0.181
-456.011	-48.760	0.287	-0.138
-454.997	-92.634	0.044	-0.012
-453.982	-200.000	0.018	0.089
-452.968	-200.000	0.011	-0.221
-451.953	32.814	-0.175	0.151
-450.938	363.269	0.035	0.070
-449.924	306.208	-0.228	0.422
-448.909	-200.000	-0.006	0.181
-447.895	11.834	-0.096	-0.074
-446.880	305.759	0.112	-0.209
-445.865	121.885	0.177	0.221
-444.851	12.332	0.062	0.047
-443.836	-200.000	0.019	-0.143
-442.822	157.092	0.059	-0.081
-441.807	-14.959	0.130	0.083
-440.792	-24.363	0.165	0.098
-439.778	-1.402	-0.156	-0.110
-438.763	45.418	0.131	0.120
-437.749	-14.063	0.083	0.053
-436.734	203.548	-0.155	0.239
-435.719	-200.000	-0.066	0.392
-434.705	-200.000	0.033	-0.252
-433.690	59.599	-0.077	-0.075
-432.676	800.000	0.116	0.452
-431.661	800.000	0.096	0.341
-430.646	362.879	0.128	0.257
-429.632	195.428	-0.139	0.210
-428.617	800.000	-0.086	0.296
-427.603	-116.077	0.215	-0.040
-426.588	416.096	0.093	0.197
-425.573	-65.091	0.199	0.080
-424.559	5.711	0.207	-0.153
-423.544	-92.442	0.072	0.020
-422.530	-137.926	-0.083	0.009
-421.515	-144.072	-0.236	0.022
-420.500	800.000	0.082	-0.227
-419.486	-200.000	0.036	0.233
-418.471	106.287	-0.046	0.054
-417.457	532.475	-0.058	-0.136
-416.442	564.823	0.058	-0.140
-415.428	-200.000	0.047	-0.336
-414.413	800.000	-0.048	-0.160
-413.398	-200.000	-0.026	-0.123
-412.384	217.666	0.050	0.080
-411.369	-84.837	-0.170	0.053
-410.355	-6.054	0.105	-0.071
-409.340	14.138	-0.058	-0.045
-408.325	41.328	0.157	-0.142
-407.311	120.107	-0.076	-0.094
-406.296	-200.000	0.021	0.161
-405.282	339.713	0.091	-0.177
-404.267	-200.000	-0.005	-0.047
-403.252	800.000	0.040	-0.171
-402.238	-51.000	-0.192	-0.090
-401.223	-200.000	0.015	-0.295
-400.209	-95.496	-0.077	0.020
-399.194	-30.965	0.098	-0.055
-398.179	-200.000	-0.019	0.123
-397.165	79.659	-0.229	-0.245
-396.150	-97.144	-0.031	0.008
-395.136	286.504	0.102	-0.183
-394.121	48.090	-0.095	-0.088
-393.106	6.456	0.409	-0.302
-392.092	320.306	-0.215	-0.406
-391.077	-45.181	0.069	-0.034
-390.063	-200.000	0.021	-0.265
-389.048	95.951	0.135	0.153
-388.033	-26.404	0.191	0.112
-387.019	711.072	-0.105	-0.276
-386.004	60.797	-0.183	-0.181
-384.990	-100.230	0.498	0.123
-383.975	678.655	-0.077	-0.199
-382.960	-121.416	-0.290	-0.048
-381.946	-200.000	-0.029	-0.349
-380.931	-54.994	0.102	-0.046
-379.917	-200.000	0.022	-0.218
-378.902	28.027	0.060	-0.050
-377.888	-25.933	0.176	0.103
-376.873	-200.000	-0.021	0.119
-375.858	16.906	-0.143	0.113
-374.844	-200.000	-0.004	0.164
-373.829	201.594	0.086	0.132
-372.815	-101.169	-0.195	0.047
-371.800	-91.797	-0.214	0.060
-370.785	-200.000	0.030	-0.204
-369.771	-60.954	-0.113	0.048
-368.756	-109.533	-0.233	-0.049
-367.742	-200.000	-0.000	-0.087
-366.727	-200.000	-0.006	0.101
-365.712	36.229	0.156	0.137
-364.698	800.000	-0.089	-0.278
-363.683	126.877	-0.039	0.049
-362.669	-86.125	0.297	0.091
-361.654	62.462	-0.135	-0.135
-360.639	-12.151	0.166	-0.108
-359.625	86.204	-0.157	-0.172
-358.610	-100.958	-0.075	-0.018
-357.596	21.744	-0.263	-0.213
-356.581	291.882	-0.117	0.212
-355.566	-67.573	-0.160	-0.062
-354.552	-8.085	-0.132	0.088
-353.537	308.973	-0.156	0.290
-352.523	800.000	0.040	-0.123
-351.508	-65.287	-0.172	0.069
-350.493	-52.426	-0.095	-0.044
-349.479	-20.506	0.067	0.041
-348.464	-200.000	0.044	0.214
-347.450	-22.896	0.081	-0.048
-346.435	133.094	0.091	0.116
-345.420	17.685	-0.190	0.150
-344.406	0.357	-0.131	0.093
-343.391	107.088	0.206	0.243
-342.377	800.000	-0.020	-0.083
-341.362	-200.000	0.013	-0.178
-340.348	-88.470	-0.118	0.035
-339.333	-200.000	0.050	0.301
-338.318	93.935	-0.115	0.129
-337.304	-200.000	-0.002	0.400
-336.289	28.458	0.122	-0.102
-335.275	-95.514	0.347	0.092
-334.260	-68.132	0.235	-0.091
-333.245	800.000	-0.022	0.092
-332.231	-74.317	0.173	-0.062
-331.216	183.717	0.070	-0.103
-330.202	-200.000	0.027	-0.230
-329.187	-200.000	0.045	0.213
-328.172	-85.215	0.175	0.054
-327.158	0.114	0.322	0.228
-326.143	189.234	-0.089	0.132
-325.129	435.172	0.156	-0.336
-324.114	-49.907	0.077	0.036
-323.099	-129.022	-0.230	0.032
-322.085	-200.000	-0.014	0.131
-321.070	768.128	-0.130	-0.351
-320.056	-81.002	-0.202	0.066
-319.041	-116.436	-0.144	0.026
-318.026	-39.228	0.153	-0.080
-317.012	158.311	0.217	0.298
-315.997	537.142	-0.082	-0.194
-314.983	-111.667	0.217	0.044
-313.968	-200.000	0.082	0.388
-312.953	-138.940	0.015	-0.002
-311.939	800.000	0.061	-0.192
-310.924	-116.831	0.084	0.015
-309.910	800.000	-0.010	0.040
-308.895	-45.584	-0.204	-0.100
-307.880	106.499	-0.169	0.199
-306.866	-174.630	-0.295	-0.008
-305.851	-85.559	0.070	0.022
-304.837	348.220	0.146	0.285
-303.822	66.921	0.261	0.263
-302.807	-76.211	0.198	-0.069
-301.793	-200.000	0.011	-0.052
-300.778	103.257	0.033	0.038
-299.764	454.470	-0.023	-0.051
-298.749	272.818	0.037	0.065
-297.735	-79.759	-0.275	-0.092
-296.720	-67.296	-0.120	-0.047
-295.705	-200.000	0.054	-0.275
-294.691	-70.398	-0.263	-0.099
-293.676	-115.798	0.439	0.081
-292.662	-36.220	0.198	0.106
-291.647	197.685	0.089	0.135
-290.632	-200.000	-0.049	-0.291
-289.618	328.454	0.116	-0.220
-288.603	-193.109	0.271	-0.002
-287.589	64.670	-0.100	0.100
-286.574	-112.785	-0.297	0.058
-285.559	-200.000	-0.044	0.527
-284.545	-108.185	0.140	-0.030
-283.530	-74.520	0.185	-0.066
-282.516	106.815	0.101	-0.119
-281.501	-39.915	0.213	-0.110
-280.486	-164.016	-0.067	0.003
-279.472	239.891	-0.105	-0.173
-278.457	632.892	0.105	0.263
-277.443	-65.042	0.244	-0.098
-276.428	800.000	-0.033	-0.118
-275.413	-72.037	-0.141	0.052
-274.399	-193.708	0.442	-0.004
-273.384	44.079	-0.107	0.097
-272.370	-99.302	-0.199	0.050
-271.355	221.108	-0.151	-0.240
-270.340	105.227	0.066	0.077
-269.326	-200.000	0.038	-0.274
-268.311	267.080	0.204	-0.353
-267.297	-79.567	0.101	-0.034
-266.282	-78.157	0.096	-0.033
-265.267	800.000	-0.083	-0.236
-264.253	-100.489	-0.057	0.014
-263.238	36.759	-0.097	-0.085
-262.224	-200.000	-0.031	0.190
-261.209	297.527	0.057	0.104
-260.195	800.000	0.036	0.137
-259.180	28.759	-0.375	-0.315
-258.165	-200.000	0.013	-0.159
-257.151	120.456	0.189	-0.233
-256.136	12.682	-0.220	0.168
-255.122	17.849	-0.185	0.146
-254.107	108.761	0.205	0.242
-253.092	86.811	0.199	-0.217
-252.078	-4.288	0.089	-0.061
-251.063	362.792	0.086	0.172
-250.049	54.357	-0.071	0.068
-249.034	415.003	0.112	-0.236
-248.019	259.128	0.067	-0.115
-247.005	-200.000	0.038	-0.252
-245.990	-51.598	-0.151	0.070
-244.976	14.873	-0.151	0.117
-243.961	-200.000	0.035	0.245
-242.946	800.000	0.036	0.148
-241.932	800.000	0.040	0.172
-240.917	-200.000	0.031	-0.234
-239.903	97.796	0.114	-0.130
-238.888	49.063	-0.087	-0.081
-237.873	-83.779	-0.141	0.044
-236.859	-90.902	-0.345	-0.098
-235.844	-200.000	0.049	-0.541
-234.830	176.427	0.176	0.253
-233.815	150.722	0.075	0.101
-232.800	-200.000	-0.025	0.165
-231.786	-39.242	0.281	-0.146
-230.771	86.282	0.064	-0.070
-229.757	-58.708	0.081	-0.035
-228.742	794.924	0.080	-0.219
-227.727	-95.716	-0.083	-0.022
-226.713	-142.843	-0.076	-0.007
-225.698	145.884	0.197	-0.262
-224.684	-158.084	0.352	0.020
-223.669	-140.489	0.206	0.021
-222.655	-115.739	0.289	0.054
-221.640	800.000	-0.013	0.044
-220.625	367.575	0.203	-0.405
-219.611	-79.621	0.402	-0.134
-218.596	437.401	0.112	-0.242
-217.582	126.726	0.100	0.125
-216.567	800.000	-0.041	0.179
-215.552	49.204	-0.128	-0.119
-214.538	-57.927	-0.116	-0.050
-213.523	106.193	-0.107	-0.126
-212.509	406.066	0.129	0.269
-211.494	68.787	0.269	0.273
-210.479	-200.000	0.126	0.000
-209.465	187.028	0.085	-0.125
-208.450	157.581	0.125	-0.171
-207.436	800.000	-0.016	0.056
-206.421	-133.083	0.581	0.073
-205.406	-150.887	-0.309	0.023
-204.392	120.739	0.020	0.024
-203.377	270.235	-0.104	-0.180
-202.363	800.000	-0.017	-0.048
-201.348	99.627	-0.107	-0.123
-200.333	-28.458	0.445	0.254
-199.319	800.000	-0.066	0.261
-198.304	-102.963	0.369	0.087
-197.290	-200.000	-0.043	-0.213
-196.275	-27.941	0.009	-0.005
-195.260	-200.000	0.025	0.236
-194.246	-126.884	0.072	0.011
-193.231	-111.389	0.263	0.053
-192.217	-200.000	0.031	-0.282
-191.202	-200.000	-0.029	-0.210
-190.187	-49.172	0.085	0.040
-189.173	9.773	-0.141	-0.106
-188.158	19.667	-0.069	0.055
-187.144	80.329	-0.209	-0.222
-186.129	504.671	0.136	0.312
-185.114	-29.457	0.368	-0.208
-184.100	34.502	0.083	0.071
-183.085	-200.000	0.004	-0.147
-182.071	-200.000	-0.017	-0.169
-181.056	-200.000	0.031	0.333
-180.042	547.151	0.056	-0.133
-179.027	-88.831	0.219	0.064
-178.012	-200.000	-0.030	0.326
-176.998	800.000	-0.045	-0.129
-175.983	47.150	0.112	0.103
-174.969	80.917	-0.173	0.184
-173.954	94.875	0.194	0.218
-172.939	-116.731	0.160	0.029
-171.925	290.281	-0.034	-0.061
-170.910	-200.000	-0.007	0.201
-169.896	61.198	0.209	0.205
-168.881	446.215	-0.140	-0.303
-167.866	-35.416	0.145	0.078
-166.852	-166.344	-0.283	-0.012
-165.837	108.519	0.242	-0.285
-164.823	-29.585	-0.186	0.105
-163.808	-16.280	0.154	-0.096
-162.793	-114.205	-0.344	0.066
-161.779	-119.178	-0.215	-0.037
-160.764	-200.000	0.040	0.382
-159.750	547.812	-0.123	-0.291
-158.735	99.343	-0.308	0.352
-157.720	152.665	-0.189	-0.255
-156.706	14.825	-0.088	0.068
-155.691	-200.000	-0.036	0.358
-154.677	-200.000	-0.047	0.244
-153.662	80.527	-0.303	0.322
-152.647	-50.047	0.218	-0.102
-151.633	-200.000	0.007	0.080
-150.618	800.000	-0.060	0.192
-149.604	-147.676	-0.025	-0.002
-148.589	680.241	-0.113	-0.290
-147.574	445.966	-0.101	0.218
-146.560	-154.009	0.281	-0.019
-145.545	110.456	0.080	0.094
-144.531	-65.292	-0.116	-0.046
-143.516	800.000	-0.052	0.187
-142.502	800.000	0.015	-0.060
-141.487	-36.431	-0.100	-0.053
-140.472	-135.053	-0.207	0.025
-139.458	137.978	-0.144	0.186
-138.443	800.000	-0.037	0.136
-137.429	-126.075	0.096	-0.014
-136.414	-200.000	-0.051	-0.234
-135.399	-84.134	-0.160	0.050
-134.385	27.720	0.202	0.167
-133.370	-146.481	0.514	0.044
-132.356	45.711	-0.167	-0.152
-131.341	-173.940	-0.050	0.001
-130.326	686.131	0.104	0.269
-129.312	-32.575	-0.185	-0.101
-128.297	-200.000	-0.015	0.079
-127.283	-162.128	-0.095	0.005
-126.268	249.459	-0.038	0.063
-125.253	22.237	0.187	0.150
-124.239	297.391	-0.046	0.084
-123.224	47.750	-0.061	0.056
-122.210	-200.000	0.006	-0.324
-121.195	800.000	-0.022	-0.078
