DTS Sentinel unit serial number:	SN413079Multiplexer serial number:	ORYXHardware model number:	OX4-SRSoftware version number:	ORYX F/W v4.00 Oryx Data Collector v3.7.2.0data status	okinstallation	princeton_trtdifferential loss correction	single-endedforward channel	channel 1reverse channel	N/Adate	2019/09/19time	13:02:35forward acquisition time	60.00reverse acquisition time	0.00gamma	496.2192k internal	0.2328k external	0.2328temperature offset calibration	1.0014default loss term (dB/km)	0.3790temperature slope calibration	1.0000multiplexer offset coefficient	1.0000multiplexer slope coefficient	1.0000fibre end	0.00T internal ref (°C)	28.75T ext. ref 1 (°C)	0.92T ext. ref 2 (°C)	26.82length (m)	temperature (°C)	Stokes	anti-Stokes-747.200	800.000	-0.026	-0.097
-746.185	-107.433	0.174	0.038
-745.171	-140.128	0.067	-0.007
-744.156	-128.954	-0.214	0.030
-743.142	-200.000	0.021	-0.394
-742.127	800.000	-0.042	0.160
-741.112	-79.934	0.523	-0.177
-740.098	-108.274	-0.285	-0.062
-739.083	-200.000	0.159	0.001
-738.069	-136.726	-0.200	-0.023
-737.054	800.000	0.032	0.089
-736.039	-144.651	-0.303	-0.028
-735.025	-39.947	0.210	0.111
-734.010	-22.686	-0.203	0.123
-732.996	-113.276	-0.453	-0.090
-731.981	-78.850	0.064	-0.022
-730.966	-39.863	-0.079	0.042
-729.952	-200.000	0.004	0.389
-728.937	-125.931	0.058	-0.009
-727.923	-76.819	-0.240	0.084
-726.908	-47.862	-0.051	-0.025
-725.894	60.896	-0.274	0.274
-724.879	-110.739	-0.125	0.026
-723.864	-123.982	-0.397	0.063
-722.850	-200.000	-0.020	-0.336
-721.835	148.375	-0.085	-0.116
-720.821	-200.000	0.018	-0.104
-719.806	-123.621	-0.350	-0.056
-718.791	-200.000	-0.029	-0.288
-717.777	-200.000	0.007	-0.366
-716.762	221.249	-0.344	0.556
-715.748	-95.184	0.159	0.043
-714.733	131.113	0.212	-0.275
-713.718	-138.264	-0.241	-0.027
-712.704	-63.544	-0.162	0.067
-711.689	-22.713	0.256	0.155
-710.675	216.822	0.122	-0.196
-709.660	31.218	-0.303	-0.262
-708.645	-171.339	0.097	-0.003
-707.631	-3.933	-0.243	0.170
-706.616	-30.150	-0.465	-0.266
-705.602	469.432	0.114	-0.258
-704.587	50.405	-0.277	-0.264
-703.572	-166.531	0.294	0.012
-702.558	-200.000	-0.015	-0.170
-701.543	800.000	0.027	0.115
-700.529	39.601	-0.291	0.262
-699.514	-148.377	-0.437	0.036
-698.499	12.857	-0.110	0.085
-697.485	-200.000	-0.001	-0.085
-696.470	227.504	-0.082	-0.134
-695.456	182.084	-0.148	0.219
-694.441	-90.033	-0.137	0.040
-693.426	156.757	-0.118	0.165
-692.412	-49.376	0.101	-0.049
-691.397	-200.000	0.029	-0.326
-690.383	42.891	-0.052	-0.048
-689.368	141.653	-0.213	-0.284
-688.354	-100.648	0.236	-0.059
-687.339	667.207	0.174	-0.452
-686.324	-200.000	-0.014	0.132
-685.310	177.980	0.051	-0.075
-684.295	115.069	-0.225	-0.276
-683.281	800.000	-0.042	-0.141
-682.266	-173.416	0.322	-0.010
-681.251	-98.625	-0.295	0.076
-680.237	-132.968	0.100	0.013
-679.222	-40.619	-0.224	0.117
-678.208	-200.000	-0.046	0.234
-677.193	-200.000	-0.062	-0.298
-676.178	79.825	-0.061	-0.065
-675.164	-200.000	-0.005	0.127
-674.149	-8.037	0.238	-0.161
-673.135	-200.000	0.012	0.227
-672.120	-200.000	-0.072	-0.371
-671.105	-86.648	-0.328	0.101
-670.091	21.072	-0.162	0.132
-669.076	-200.000	0.007	-0.156
-668.062	417.057	-0.189	0.405
-667.047	-7.484	0.017	0.011
-666.032	-103.945	0.142	-0.033
-665.018	93.984	0.144	-0.164
-664.003	122.169	-0.098	-0.123
-662.989	297.174	-0.060	-0.110
-661.974	-86.854	0.225	0.069
-660.959	126.110	-0.198	-0.252
-659.945	-191.032	0.226	-0.002
-658.930	-200.000	-0.043	0.197
-657.916	38.024	0.067	0.060
-656.901	521.918	0.039	0.091
-655.886	114.991	0.075	0.092
-654.872	195.093	-0.160	-0.245
-653.857	33.972	0.068	0.059
-652.843	-76.852	-0.269	-0.094
-651.828	-200.000	-0.000	-0.348
-650.814	-105.584	0.210	-0.048
-649.799	181.210	0.262	0.386
-648.784	172.578	0.151	0.218
-647.770	2.457	-0.135	0.098
-646.755	800.000	0.049	0.166
-645.741	80.151	-0.129	-0.140
-644.726	306.314	0.201	0.375
-643.711	-63.153	-0.209	0.087
-642.697	-35.872	-0.115	0.063
-641.682	171.828	0.124	0.179
-640.668	-114.848	-0.145	0.028
-639.653	800.000	0.076	-0.318
-638.638	116.469	-0.100	0.123
-637.624	22.732	0.213	-0.175
-636.609	-200.000	0.038	-0.356
-635.595	800.000	0.039	-0.113
-634.580	-60.722	-0.205	-0.087
-633.565	268.093	0.189	-0.331
-632.551	12.523	0.033	-0.026
-631.536	800.000	0.028	-0.086
-630.522	-38.526	0.213	0.113
-629.507	800.000	0.021	0.080
-628.492	-121.982	-0.140	-0.023
-627.478	-39.942	-0.059	0.031
-626.463	800.000	0.101	-0.311
-625.449	-74.797	-0.217	-0.078
-624.434	-16.303	-0.104	-0.066
-623.419	-200.000	-0.007	0.069
-622.405	-200.000	0.004	-0.041
-621.390	-122.645	-0.101	-0.016
-620.376	-40.396	-0.134	-0.070
-619.361	52.761	-0.223	-0.214
-618.346	-200.000	0.030	-0.206
-617.332	800.000	-0.011	0.043
-616.317	800.000	0.082	-0.281
-615.303	-172.754	-0.389	0.012
-614.288	-128.091	0.351	-0.050
-613.273	-200.000	0.016	-0.092
-612.259	-200.000	0.001	0.148
-611.244	-71.098	0.260	0.098
-610.230	800.000	-0.068	-0.193
-609.215	800.000	-0.046	0.143
-608.201	143.455	-0.068	-0.091
-607.186	-80.639	0.157	0.052
-606.171	62.518	-0.156	-0.156
-605.157	-118.481	-0.151	0.027
-604.142	12.161	-0.200	-0.154
-603.128	432.886	0.080	-0.174
-602.113	42.860	-0.150	-0.137
-601.098	634.100	-0.118	-0.299
-600.084	185.865	-0.213	-0.317
-599.069	20.588	-0.181	0.147
-598.055	288.073	0.038	-0.068
-597.040	-8.365	-0.200	-0.135
-596.025	-200.000	0.010	0.045
-595.011	-4.738	-0.288	-0.199
-593.996	167.594	0.058	-0.082
-592.982	-42.184	0.256	0.131
-591.967	24.109	-0.099	-0.082
-590.952	172.332	-0.107	-0.154
-589.938	204.032	-0.038	-0.059
-588.923	-80.428	-0.126	-0.042
-587.909	-111.949	-0.257	-0.052
-586.894	59.585	0.103	-0.102
-585.879	-52.219	-0.216	0.100
-584.865	43.079	0.095	-0.087
-583.850	385.770	0.147	-0.305
-582.836	-120.193	-0.156	0.027
-581.821	668.172	0.101	0.261
-580.806	-95.050	-0.444	-0.120
-579.792	-200.000	0.062	-0.360
-578.777	800.000	-0.066	-0.283
-577.763	-200.000	0.003	-0.050
-576.748	204.316	0.148	0.229
-575.733	-132.517	-0.069	-0.009
-574.719	800.000	0.047	0.159
-573.704	449.578	-0.125	0.276
-572.690	316.345	-0.052	0.099
-571.675	156.191	-0.084	0.116
-570.661	-23.690	0.099	0.060
-569.646	-158.683	-0.273	-0.016
-568.631	-18.501	-0.048	-0.030
-567.617	-96.864	-0.324	-0.085
-566.602	447.500	0.020	-0.043
-565.588	632.085	0.171	0.433
-564.573	800.000	0.064	-0.259
-563.558	142.229	-0.171	0.227
-562.544	-38.167	0.227	-0.120
-561.529	77.663	0.193	-0.206
-560.515	712.930	-0.111	0.295
-559.500	-200.000	-0.026	0.372
-558.485	86.975	0.114	-0.126
-557.471	-13.742	0.153	0.099
-556.456	32.523	-0.291	0.252
-555.442	169.883	0.197	0.282
-554.427	-200.000	-0.019	0.419
-553.412	14.410	-0.216	0.169
-552.398	-20.596	-0.252	-0.155
-551.383	423.413	-0.105	0.225
-550.369	-200.000	0.005	0.185
-549.354	14.851	0.144	0.113
-548.339	-44.137	-0.096	-0.048
-547.325	-82.317	0.197	0.064
-546.310	800.000	-0.011	0.032
-545.296	5.277	0.166	-0.122
-544.281	228.363	-0.393	-0.640
-543.266	81.670	-0.195	-0.211
-542.252	-75.438	0.133	-0.047
-541.237	144.811	0.110	0.147
-540.223	186.902	0.067	0.100
-539.208	-12.974	0.283	0.184
-538.193	-200.000	-0.012	0.153
-537.179	-92.031	0.360	-0.102
-536.164	609.596	-0.096	0.240
-535.150	800.000	0.033	-0.095
-534.135	800.000	0.009	0.037
-533.121	800.000	-0.071	0.221
-532.106	-93.177	0.392	-0.109
-531.091	-29.294	-0.420	-0.241
-530.077	-200.000	0.028	-0.140
-529.062	-200.000	0.024	-0.175
-528.048	50.742	-0.026	0.024
-527.033	-107.282	0.257	0.057
-526.018	-199.619	0.056	-0.000
-525.004	163.957	-0.072	0.102
-523.989	432.827	0.082	0.179
-522.975	10.231	0.089	-0.067
-521.960	-200.000	-0.012	0.184
-520.945	213.005	-0.252	-0.397
-519.931	350.631	0.061	-0.121
-518.916	274.211	-0.090	0.160
-517.902	148.591	0.104	-0.141
-516.887	-200.000	0.024	-0.406
-515.872	-41.795	-0.251	0.129
-514.858	800.000	-0.076	-0.235
-513.843	727.782	-0.102	0.272
-512.829	125.964	0.233	0.294
-511.814	169.943	0.134	0.191
-510.799	-85.352	0.166	-0.052
-509.785	40.685	0.089	-0.080
-508.770	-200.000	-0.001	-0.132
-507.756	-200.000	0.007	0.177
-506.741	39.049	-0.190	-0.170
-505.726	-93.917	-0.331	-0.091
-504.712	-200.000	-0.008	0.081
-503.697	800.000	-0.095	-0.283
-502.683	-200.000	0.014	0.135
-501.668	214.832	-0.056	0.089
-500.653	15.585	0.242	0.190
-499.639	800.000	-0.042	-0.129
-498.624	-200.000	-0.014	-0.163
-497.610	153.626	-0.106	-0.145
-496.595	525.890	0.031	-0.073
-495.581	-140.713	0.102	-0.011
-494.566	-144.447	-0.261	-0.024
-493.551	321.149	-0.041	0.079
-492.537	-131.198	-0.305	-0.040
-491.522	-142.362	0.305	-0.030
-490.508	391.172	-0.138	0.287
-489.493	58.335	-0.099	-0.097
-488.478	-111.399	-0.174	0.035
-487.464	-132.506	-0.128	-0.016
-486.449	-92.866	-0.235	-0.065
-485.435	364.061	0.173	0.346
-484.420	341.642	-0.086	-0.167
-483.405	34.180	0.238	-0.207
-482.391	-118.223	0.143	-0.025
-481.376	-116.945	0.074	0.014
-480.362	-126.707	-0.078	0.011
-479.347	-200.000	-0.022	0.345
-478.332	10.411	0.240	0.182
-477.318	-120.206	-0.255	0.043
-476.303	-61.198	0.227	0.096
-475.289	-200.000	-0.007	-0.210
-474.274	800.000	-0.080	0.223
-473.259	-86.632	-0.382	-0.117
-472.245	-200.000	-0.003	0.194
-471.230	800.000	0.114	0.316
-470.216	800.000	-0.075	0.261
-469.201	-17.032	0.296	0.186
-468.186	-26.360	-0.241	-0.141
-467.172	-121.670	-0.346	0.057
-466.157	-58.877	0.236	-0.102
-465.143	-200.000	-0.013	-0.192
-464.128	-200.000	0.013	-0.249
-463.113	415.045	0.076	-0.161
-462.099	173.951	0.175	-0.251
-461.084	-91.701	-0.087	-0.025
-460.070	-200.000	-0.030	0.169
-459.055	1.268	-0.164	0.117
-458.040	76.862	0.168	-0.177
-457.026	800.000	-0.089	0.265
-456.011	-200.000	0.037	0.321
-454.997	800.000	-0.049	0.149
-453.982	161.724	0.186	-0.259
-452.968	76.713	0.045	-0.048
-451.953	-200.000	0.003	-0.094
-450.938	-68.502	-0.178	-0.069
-449.924	800.000	0.095	0.285
-448.909	88.838	-0.256	-0.284
-447.895	-200.000	-0.030	-0.192
-446.880	-5.746	-0.150	0.102
-445.865	5.355	0.130	0.095
-444.851	513.956	-0.152	0.353
-443.836	89.490	-0.137	0.152
-442.822	-102.215	0.226	-0.054
-441.807	800.000	-0.048	0.134
-440.792	-115.587	-0.156	0.029
-439.778	79.365	-0.051	-0.055
-438.763	800.000	-0.056	-0.235
-437.749	551.898	-0.200	0.478
-436.734	-200.000	-0.039	0.252
-435.719	-200.000	-0.194	-0.001
-434.705	27.142	0.233	0.195
-433.690	44.076	0.184	0.168
-432.676	-142.498	-0.422	0.041
-431.661	371.331	0.066	-0.133
-430.646	87.299	-0.151	-0.166
-429.632	13.700	-0.343	0.265
-428.617	-200.000	-0.036	0.225
-427.603	122.235	0.052	-0.065
-426.588	-52.164	-0.117	-0.054
-425.573	282.621	0.015	-0.026
-424.559	67.197	-0.078	0.079
-423.544	-172.543	0.308	0.010
-422.530	-85.015	0.141	0.044
-421.515	330.907	-0.013	-0.024
-420.500	-38.362	0.082	0.043
-419.486	97.479	-0.172	-0.196
-418.471	323.102	-0.090	-0.171
-417.457	-68.295	0.114	0.044
-416.442	-200.000	0.043	-0.307
-415.428	106.365	0.198	0.233
-414.413	-200.000	-0.077	-0.419
-413.398	-48.256	-0.128	-0.061
-412.384	-10.523	0.112	0.073
-411.369	157.714	0.029	-0.040
-410.355	182.368	-0.375	-0.550
-409.340	26.975	0.065	-0.054
-408.325	176.117	0.058	-0.084
-407.311	-160.516	0.174	0.009
-406.296	148.700	0.116	-0.156
-405.282	191.337	-0.117	0.176
-404.267	-47.444	0.097	-0.047
-403.252	-166.457	0.334	-0.014
-402.238	216.502	-0.079	0.125
-401.223	528.296	0.113	-0.265
-400.209	800.000	0.095	-0.351
-399.194	-46.099	0.086	-0.042
-398.179	240.740	0.087	0.144
-397.165	-200.000	0.022	0.129
-396.150	180.882	0.194	0.283
-395.136	-72.863	-0.424	-0.155
-394.121	-200.000	0.006	0.100
-393.106	293.884	0.071	0.128
-392.092	-95.857	-0.315	-0.084
-391.077	-115.923	-0.072	0.013
-390.063	-145.338	0.384	-0.034
-389.048	-200.000	-0.005	0.170
-388.033	621.344	0.092	-0.231
-387.019	800.000	-0.046	0.194
-386.004	407.599	0.034	-0.071
-384.990	-76.625	-0.143	-0.050
-383.975	-156.370	0.244	0.015
-382.960	367.435	-0.095	-0.190
-381.946	-2.853	0.182	0.126
-380.931	-118.177	-0.276	-0.049
-379.917	-23.173	0.146	0.087
-378.902	493.410	0.078	-0.177
-377.888	-38.598	-0.158	0.083
-376.873	-93.262	0.330	0.091
-375.858	164.152	0.044	-0.062
-374.844	-1.568	-0.047	0.033
-373.829	-10.538	0.368	0.242
-372.815	-43.950	-0.091	-0.046
-371.800	1.418	0.026	-0.018
-370.785	287.077	-0.104	0.186
-369.771	800.000	0.070	0.206
-368.756	-132.326	-0.140	-0.018
-367.742	800.000	-0.017	0.066
-366.727	-104.086	0.423	-0.098
-365.712	-13.048	-0.086	0.056
-364.698	-149.029	-0.046	-0.004
-363.683	669.682	0.069	-0.178
-362.669	-59.508	0.105	0.045
-361.654	-92.239	0.256	-0.072
-360.639	143.689	0.128	-0.169
-359.625	800.000	-0.075	-0.222
-358.610	800.000	0.064	0.262
-357.596	800.000	-0.023	-0.086
-356.581	683.147	0.066	-0.172
-355.566	282.626	0.108	-0.192
-354.552	153.533	-0.044	0.060
-353.537	-74.863	0.248	0.088
-352.523	523.123	0.149	-0.347
-351.508	15.054	-0.347	0.270
-350.493	-200.000	0.007	0.144
-349.479	8.022	0.205	0.153
-348.464	523.104	-0.072	0.169
-347.450	240.565	0.155	-0.257
-346.435	-183.512	0.102	-0.002
-345.420	-200.000	-0.007	-0.187
-344.406	-179.764	0.140	0.003
-343.391	-60.686	-0.031	0.013
-342.377	-200.000	0.011	-0.059
-341.362	213.390	0.248	-0.389
-340.348	-200.000	0.035	-0.156
-339.333	58.536	0.254	0.248
-338.318	-200.000	0.009	0.160
-337.304	782.164	0.069	0.188
-336.289	-200.000	-0.078	-0.389
-335.275	339.583	-0.142	0.274
-334.260	37.098	0.323	0.284
-333.245	-34.555	-0.213	-0.116
-332.231	-104.467	0.156	-0.036
-331.216	78.092	-0.086	-0.091
-330.202	-11.778	-0.345	-0.225
-329.187	-125.532	-0.103	-0.016
-328.172	269.778	0.139	-0.242
-327.158	-163.635	-0.076	-0.004
-326.143	-138.108	-0.266	0.029
-325.129	189.953	-0.078	0.116
-324.114	-200.000	-0.031	-0.155
-323.099	-103.852	-0.190	0.044
-322.085	-10.115	-0.566	0.372
-321.070	800.000	0.015	-0.052
-320.056	208.367	0.099	-0.153
-319.041	40.564	0.153	0.137
-318.026	-120.654	0.125	-0.021
-317.012	-200.000	-0.011	0.157
-315.997	23.773	-0.102	-0.084
-314.983	-155.967	-0.305	0.019
-313.968	528.310	0.029	-0.067
-312.953	790.452	-0.113	0.308
-311.939	-123.962	0.170	0.026
-310.924	475.347	-0.114	-0.255
-309.910	-68.157	0.239	0.092
-308.895	3.050	0.248	-0.178
-307.880	-159.518	-0.235	0.013
-306.866	800.000	-0.032	0.121
-305.851	-200.000	-0.007	-0.118
-304.837	177.059	0.064	-0.093
-303.822	-173.565	-0.069	-0.002
-302.807	-13.411	0.185	-0.119
-301.793	-200.000	0.003	0.306
-300.778	800.000	-0.073	0.265
-299.764	5.746	-0.354	0.259
-298.749	360.156	0.188	0.373
-297.735	125.800	0.223	-0.278
-296.720	-200.000	0.057	-0.329
-295.705	79.774	-0.166	0.176
-294.691	-108.456	-0.207	-0.044
-293.676	56.742	-0.261	-0.252
-292.662	426.284	-0.068	-0.145
-291.647	-200.000	0.044	0.353
-290.632	178.602	-0.094	0.135
-289.618	58.998	-0.192	0.187
-288.603	93.668	0.026	0.030
-287.589	-129.435	-0.083	0.011
-286.574	77.347	0.069	0.073
-285.559	-34.262	0.326	-0.177
-284.545	800.000	-0.029	0.099
-283.530	329.130	-0.030	-0.058
-282.516	10.513	0.084	-0.063
-281.501	800.000	-0.050	0.180
-280.486	41.304	0.014	-0.012
-279.472	158.595	-0.226	-0.311
-278.457	-200.000	-0.024	-0.304
-277.443	641.161	0.125	-0.316
-276.428	800.000	-0.077	-0.333
-275.413	55.845	-0.035	-0.034
-274.399	-41.741	-0.414	-0.210
-273.384	8.054	0.081	0.060
-272.370	665.552	0.199	0.508
-271.355	800.000	0.086	0.235
-270.340	79.088	-0.351	-0.372
-269.326	-42.710	0.473	0.238
-268.311	-154.263	-0.191	0.013
-267.297	800.000	0.094	0.270
-266.282	-58.123	0.217	0.093
-265.267	10.284	0.084	-0.063
-264.253	445.305	-0.013	0.029
-263.238	-73.814	-0.045	-0.016
-262.224	800.000	0.041	-0.133
-261.209	259.474	-0.141	-0.240
-260.195	-200.000	0.009	0.403
-259.180	320.199	0.078	-0.146
-258.165	-200.000	0.020	0.137
-257.151	-60.619	0.084	0.035
-256.136	-200.000	0.044	-0.262
-255.122	205.437	-0.119	-0.183
-254.107	-200.000	0.002	0.052
-253.092	39.358	0.339	-0.300
-252.078	-64.846	-0.130	-0.052
-251.063	-200.000	0.001	-0.059
-250.049	-47.606	0.120	-0.058
-249.034	-44.965	0.256	0.126
-248.019	250.688	0.146	-0.246
-247.005	-118.485	-0.308	-0.054
-245.990	606.106	-0.064	-0.157
-244.976	-38.946	0.288	-0.150
-243.961	-116.987	-0.138	-0.025
-242.946	312.175	0.088	0.163
-241.932	252.379	0.158	-0.266
-240.917	800.000	-0.074	0.213
-239.903	17.994	-0.113	0.089
-238.888	723.348	-0.139	0.365
-237.873	158.781	0.304	0.417
-236.859	101.405	0.384	0.442
-235.844	-95.463	-0.160	-0.042
-234.830	392.894	0.144	0.297
-233.815	-200.000	0.066	-0.438
-232.800	113.902	-0.176	-0.212
-231.786	-200.000	-0.005	0.103
-230.771	1.528	-0.228	-0.162
-229.757	313.206	0.068	0.127
-228.742	-94.614	0.265	-0.071
-227.727	-91.468	-0.270	-0.076
-226.713	-139.232	0.484	-0.051
-225.698	6.115	0.270	-0.197
-224.684	800.000	0.056	0.171
-223.669	44.569	0.424	0.384
-222.655	-152.202	-0.425	-0.030
-221.640	85.294	0.143	0.155
-220.625	-58.381	-0.158	0.068
-219.611	-88.689	0.087	0.026
-218.596	-81.442	-0.220	-0.071
-217.582	-97.147	-0.340	0.088
-216.567	800.000	0.015	-0.058
-215.552	800.000	0.118	-0.344
-214.538	800.000	-0.049	0.183
-213.523	72.723	-0.121	-0.125
-212.509	-200.000	0.049	0.289
-211.494	403.322	0.060	-0.124
-210.479	405.350	0.093	-0.193
-209.465	231.826	-0.168	0.272
-208.450	-149.575	0.314	-0.024
-207.436	13.444	0.321	0.246
-206.421	-200.000	0.002	0.285
-205.406	9.500	-0.396	0.296
-204.392	-85.234	-0.179	0.055
-203.377	-66.498	0.166	0.065
-202.363	659.819	-0.146	0.370
-201.348	-157.263	0.311	0.019
-200.333	137.539	0.029	-0.038
-199.319	-93.113	-0.305	-0.084
-198.304	800.000	-0.061	-0.213
-197.290	-42.022	0.336	-0.170
-196.275	472.103	-0.051	-0.113
-195.260	745.734	0.065	0.173
-194.246	266.588	0.033	-0.057
-193.231	47.825	-0.160	-0.147
-192.217	10.596	-0.150	-0.113
-191.202	64.672	-0.122	-0.121
-190.187	-200.000	-0.040	-0.185
-189.173	-100.668	0.071	-0.017
-188.158	42.166	0.181	0.162
-187.144	24.177	-0.177	0.144
-186.129	-25.857	-0.050	0.029
-185.114	-121.480	-0.035	0.006
-184.100	-110.461	-0.075	-0.015
-183.085	-200.000	-0.026	0.210
-182.071	166.202	0.103	-0.143
-181.056	-55.357	0.211	0.093
-180.042	-43.894	-0.104	-0.051
-179.027	800.000	0.106	-0.417
-178.012	800.000	-0.055	-0.217
-176.998	800.000	0.022	-0.085
-175.983	-200.000	0.002	-0.172
-174.969	73.126	0.244	0.251
-173.954	107.600	-0.186	0.218
-172.939	800.000	0.081	0.240
-171.925	-72.408	0.152	-0.055
-170.910	-61.947	0.382	-0.157
-169.896	-57.955	-0.394	0.169
-168.881	0.928	-0.043	0.030
-167.866	26.554	0.227	-0.187
-166.852	800.000	0.041	-0.154
-165.837	24.264	0.198	0.161
-164.823	-171.788	0.161	0.005
-163.808	-166.699	-0.179	0.007
-162.793	-112.459	0.448	-0.088
-161.779	96.029	-0.132	-0.148
-160.764	-21.742	0.260	-0.156
-159.750	13.217	-0.080	0.061
-158.735	264.768	-0.208	0.357
-157.720	800.000	0.047	-0.160
-156.706	56.775	0.294	0.282
-155.691	426.602	0.060	-0.127
-154.677	-200.000	-0.059	0.428
-153.662	39.480	0.269	-0.238
-152.647	-51.298	-0.069	0.032
-151.633	543.045	0.047	0.111
-150.618	-29.272	0.263	-0.148
-149.604	232.252	0.171	0.276
-148.589	48.057	0.066	0.061
-147.574	-69.393	0.121	-0.046
-146.560	-187.498	0.227	0.003
-145.545	-57.597	-0.140	-0.060
-144.531	423.934	0.057	0.121
-143.516	182.143	0.011	-0.015
-142.502	6.405	-0.264	-0.193
-141.487	-28.058	0.266	-0.152
-140.472	110.313	0.124	-0.147
-139.458	150.988	0.121	-0.162
-138.443	-200.000	-0.017	-0.222
-137.429	26.506	-0.310	0.256
-136.414	-200.000	0.017	-0.224
-135.399	-200.000	-0.023	-0.135
-134.385	262.106	0.114	-0.194
-133.370	-36.800	-0.085	-0.045
-132.356	11.099	-0.203	-0.153
-131.341	-200.000	-0.027	-0.179
-130.326	-117.340	0.287	-0.051
-129.312	762.374	0.124	0.331
-128.297	13.874	0.076	0.058
-127.283	-125.886	-0.141	0.021
-126.268	-39.792	-0.185	0.095
-125.253	336.443	0.074	0.140
-124.239	800.000	0.063	-0.227
-123.224	-82.016	0.524	0.168
-122.210	255.266	-0.102	0.171
-121.195	-109.425	-0.232	-0.048
