DTS Sentinel unit serial number:	SN413079Multiplexer serial number:	ORYXHardware model number:	OX4-SRSoftware version number:	ORYX F/W v4.00 Oryx Data Collector v3.7.2.0data status	okinstallation	princeton_trtdifferential loss correction	single-endedforward channel	channel 1reverse channel	N/Adate	2019/09/14time	08:50:35forward acquisition time	60.00reverse acquisition time	0.00gamma	496.2192k internal	0.2325k external	0.2325temperature offset calibration	1.0067default loss term (dB/km)	0.3790temperature slope calibration	1.0000multiplexer offset coefficient	1.0000multiplexer slope coefficient	1.0000fibre end	0.00T internal ref (°C)	29.39T ext. ref 1 (°C)	3.70T ext. ref 2 (°C)	27.25length (m)	temperature (°C)	Stokes	anti-Stokes-747.200	19.369	0.162	0.131
-746.185	-90.235	-0.131	0.038
-745.171	21.051	-0.069	-0.056
-744.156	-200.000	0.010	-0.110
-743.142	-23.200	0.250	-0.152
-742.127	713.171	-0.079	0.210
-741.112	257.514	0.141	-0.244
-740.098	56.051	-0.180	-0.177
-739.083	-200.000	0.012	0.280
-738.069	-89.685	-0.145	0.043
-737.054	47.634	-0.173	-0.163
-736.039	1.765	-0.033	-0.024
-735.025	-40.821	-0.135	-0.071
-734.010	-68.997	-0.129	-0.050
-732.996	-99.939	-0.530	0.133
-731.981	-60.678	-0.201	0.086
-730.966	-97.287	-0.251	-0.066
-729.952	-16.285	-0.157	-0.100
-728.937	188.418	-0.154	-0.232
-727.923	-78.524	0.103	-0.036
-726.908	-168.321	-0.114	0.004
-725.894	-60.420	0.154	0.066
-724.879	-116.556	-0.166	0.031
-723.864	446.152	-0.053	0.118
-722.850	800.000	0.061	-0.191
-721.835	-126.817	0.326	0.049
-720.821	161.787	-0.158	0.223
-719.806	47.755	-0.093	0.087
-718.791	-58.599	-0.102	0.045
-717.777	-121.780	-0.337	-0.056
-716.762	-200.000	-0.003	-0.113
-715.748	360.706	0.196	0.396
-714.733	0.934	0.099	-0.071
-713.718	355.561	0.032	-0.063
-712.704	-20.120	-0.234	-0.145
-711.689	-42.319	0.234	0.120
-710.675	-200.000	-0.032	0.434
-709.660	-92.908	-0.234	-0.066
-708.645	345.770	0.060	-0.119
-707.631	41.631	-0.252	-0.230
-706.616	185.661	0.234	-0.351
-705.602	-7.584	0.081	0.055
-704.587	127.181	0.076	-0.097
-703.572	-15.363	0.299	-0.192
-702.558	625.089	-0.084	-0.212
-701.543	-200.000	-0.011	0.176
-700.529	-55.849	0.253	0.114
-699.514	800.000	-0.108	0.411
-698.499	-113.478	-0.320	-0.063
-697.485	-69.368	-0.270	0.104
-696.470	62.898	0.203	0.205
-695.456	-200.000	0.012	-0.089
-694.441	-200.000	0.028	-0.288
-693.426	800.000	0.064	-0.217
-692.412	-97.118	-0.449	-0.118
-691.397	22.102	0.130	0.106
-690.383	-13.394	0.236	-0.154
-689.368	-99.734	0.277	0.070
-688.354	-58.491	-0.047	-0.020
-687.339	-200.000	0.013	-0.061
-686.324	-49.370	0.257	0.124
-685.310	-200.000	-0.009	-0.302
-684.295	-96.783	-0.062	-0.016
-683.281	800.000	-0.104	0.355
-682.266	63.913	-0.052	-0.053
-681.251	-20.079	-0.263	-0.163
-680.237	145.105	0.043	0.058
-679.222	800.000	0.037	0.147
-678.208	-114.646	0.212	-0.041
-677.193	2.215	-0.347	-0.252
-676.178	532.830	-0.053	-0.127
-675.164	-200.000	0.028	0.193
-674.149	-200.000	-0.042	-0.292
-673.135	125.128	0.131	0.167
-672.120	-191.970	-0.348	0.003
-671.105	-200.000	-0.042	0.348
-670.091	-200.000	0.012	0.232
-669.076	-128.553	0.078	-0.011
-668.062	-80.610	-0.198	-0.066
-667.047	297.160	-0.242	-0.447
-666.032	23.630	0.241	-0.199
-665.018	557.558	0.097	-0.235
-664.003	-200.000	0.006	-0.056
-662.989	-111.511	0.131	0.027
-661.974	-66.940	-0.272	-0.108
-660.959	-175.884	0.458	-0.012
-659.945	-200.000	0.024	-0.215
-658.930	-19.591	-0.057	-0.036
-657.916	-12.672	-0.173	0.113
-656.901	-14.693	0.134	0.087
-655.886	-143.304	0.502	-0.048
-654.872	-7.934	-0.301	-0.204
-653.857	-37.352	0.256	-0.138
-652.843	-155.270	-0.163	-0.011
-651.828	-200.000	0.021	-0.108
-650.814	-200.000	-0.022	0.148
-649.799	-10.660	-0.074	0.049
-648.784	-122.701	0.048	0.008
-647.770	6.888	-0.482	-0.361
-646.755	-75.447	0.116	0.042
-645.741	530.021	0.180	0.428
-644.726	308.586	0.175	0.328
-643.711	287.900	-0.056	-0.102
-642.697	-97.783	-0.103	0.027
-641.682	-200.000	-0.015	-0.173
-640.668	-200.000	0.025	-0.243
-639.653	369.038	-0.080	0.164
-638.638	444.348	-0.061	0.134
-637.624	-200.000	-0.010	-0.048
-636.609	48.478	-0.348	0.327
-635.595	-74.301	0.082	-0.030
-634.580	-200.000	0.012	-0.072
-633.565	-200.000	0.010	0.059
-632.551	699.137	-0.006	0.016
-631.536	800.000	0.045	-0.176
-630.522	800.000	-0.083	-0.264
-629.507	-187.055	-0.256	0.004
-628.492	-200.000	-0.057	-0.320
-627.478	-200.000	-0.001	-0.105
-626.463	-112.603	0.086	0.017
-625.449	85.867	-0.184	0.203
-624.434	54.017	0.197	0.190
-623.419	-25.096	0.272	0.162
-622.405	-19.150	0.302	0.188
-621.390	-41.036	0.082	0.042
-620.376	-200.000	-0.044	-0.282
-619.361	150.260	0.069	-0.094
-618.346	735.534	-0.077	0.206
-617.332	193.440	0.091	-0.139
-616.317	-95.441	0.272	-0.073
-615.303	58.235	-0.029	0.028
-614.288	82.275	-0.038	-0.041
-613.273	11.570	0.188	0.145
-612.259	800.000	-0.090	0.250
-611.244	-200.000	0.014	-0.199
-610.230	-54.480	-0.116	0.053
-609.215	-9.772	-0.081	0.054
-608.201	665.671	-0.044	-0.114
-607.186	252.446	0.057	-0.098
-606.171	-75.849	0.276	0.098
-605.157	133.819	0.099	-0.129
-604.142	800.000	0.095	-0.306
-603.128	45.175	0.246	0.227
-602.113	9.334	-0.102	-0.077
-601.098	679.530	-0.067	0.176
-600.084	800.000	-0.064	-0.246
-599.069	416.747	0.096	-0.205
-598.055	537.143	0.060	-0.142
-597.040	-200.000	-0.062	-0.401
-596.025	-200.000	-0.011	0.120
-595.011	-88.925	0.027	-0.008
-593.996	-149.787	0.156	-0.012
-592.982	-89.189	0.199	-0.059
-591.967	418.679	0.071	0.153
-590.952	-200.000	-0.014	0.084
-589.938	183.349	-0.075	0.110
-588.923	-110.992	0.342	0.070
-587.909	10.329	0.088	0.067
-586.894	-119.088	0.359	-0.063
-585.879	800.000	-0.043	0.121
-584.865	51.320	0.102	-0.097
-583.850	-200.000	0.000	-0.085
-582.836	142.713	-0.227	0.303
-581.821	57.526	-0.247	0.242
-580.806	800.000	-0.030	-0.106
-579.792	-89.138	0.161	0.048
-578.777	36.127	0.084	0.074
-577.763	-167.812	0.149	-0.006
-576.748	-200.000	-0.009	-0.171
-575.733	-107.678	-0.113	0.025
-574.719	-21.951	-0.160	0.098
-573.704	373.554	-0.041	0.084
-572.690	389.492	0.141	0.292
-571.675	77.653	0.069	0.074
-570.661	-123.904	-0.211	-0.033
-569.646	-126.482	0.512	0.076
-568.631	160.723	0.151	-0.211
-567.617	281.269	0.070	0.126
-566.602	-76.199	-0.186	-0.066
-565.588	-200.000	0.007	0.136
-564.573	-70.596	-0.190	-0.072
-563.558	736.925	-0.151	0.407
-562.544	60.292	0.187	0.185
-561.529	800.000	0.097	-0.354
-560.515	-200.000	0.018	-0.320
-559.500	11.424	-0.065	-0.050
-558.485	-200.000	-0.029	0.138
-557.471	99.483	0.303	-0.351
-556.456	425.989	0.064	-0.138
-555.442	4.637	0.196	-0.144
-554.427	-129.060	-0.275	0.039
-553.412	-106.307	-0.071	0.016
-552.398	-69.729	0.219	-0.084
-551.383	-200.000	-0.060	-0.269
-550.369	-125.875	-0.341	-0.052
-549.354	16.286	-0.014	0.011
-548.339	311.593	-0.156	-0.294
-547.325	-67.345	-0.048	0.019
-546.310	-41.202	-0.274	0.141
-545.296	800.000	-0.084	-0.245
-544.281	-79.513	-0.129	0.043
-543.266	300.041	-0.041	0.075
-542.252	23.583	0.158	0.131
-541.237	-34.308	-0.257	-0.141
-540.223	18.162	0.252	-0.201
-539.208	-51.165	0.166	-0.078
-538.193	151.076	-0.083	-0.114
-537.179	96.218	-0.323	-0.370
-536.164	-102.606	-0.207	-0.049
-535.150	487.514	-0.086	0.196
-534.135	-200.000	0.021	0.117
-533.121	-49.263	-0.160	-0.077
-532.106	8.949	-0.034	-0.026
-531.091	-97.826	0.229	-0.059
-530.077	92.138	-0.087	-0.098
-529.062	15.506	-0.202	0.158
-528.048	-200.000	-0.021	0.117
-527.033	-164.440	0.090	-0.004
-526.018	-115.284	0.178	-0.034
-525.004	155.868	-0.077	0.106
-523.989	-200.000	0.027	-0.127
-522.975	-141.818	0.097	0.010
-521.960	800.000	0.054	-0.180
-520.945	111.036	0.221	-0.266
-519.931	-10.499	0.153	-0.101
-518.916	-77.759	-0.297	0.103
-517.902	-64.102	-0.167	-0.068
-516.887	-200.000	0.026	-0.307
-515.872	17.917	-0.300	-0.239
-514.858	80.333	0.306	0.329
-513.843	677.582	-0.143	0.373
-512.829	7.210	-0.159	0.118
-511.814	-200.000	-0.013	0.333
-510.799	-30.709	-0.069	0.039
-509.785	-200.000	-0.031	-0.660
-508.770	-200.000	-0.058	-0.442
-507.756	-11.709	-0.045	0.030
-506.741	433.167	0.176	0.381
-505.726	576.720	-0.084	0.206
-504.712	-40.500	-0.106	0.055
-503.697	800.000	-0.009	0.039
-502.683	-200.000	-0.028	-0.140
-501.668	-133.788	0.174	-0.022
-500.653	27.435	-0.212	-0.178
-499.639	30.426	-0.259	-0.221
-498.624	800.000	-0.023	0.101
-497.610	-123.327	0.330	0.053
-496.595	-141.141	0.283	-0.029
-495.581	26.599	0.156	-0.130
-494.566	-200.000	-0.259	-0.001
-493.551	-28.890	-0.486	0.279
-492.537	800.000	0.033	-0.092
-491.522	-200.000	0.009	-0.122
-490.508	68.277	-0.055	-0.056
-489.493	-200.000	0.009	0.105
-488.478	-27.285	-0.425	0.247
-487.464	-22.665	0.123	0.074
-486.449	-123.472	0.240	0.038
-485.435	-104.674	0.085	0.020
-484.420	35.513	0.151	0.133
-483.405	191.567	-0.134	0.201
-482.391	151.635	0.207	0.282
-481.376	-200.000	-0.048	-0.216
-480.362	267.554	-0.190	0.331
-479.347	-94.710	-0.102	-0.028
-478.332	-37.808	0.134	0.071
-477.318	-130.980	-0.563	-0.075
-476.303	-120.791	0.288	-0.048
-475.289	177.058	0.125	0.182
-474.274	800.000	-0.089	-0.287
-473.259	-106.071	0.126	0.028
-472.245	191.094	-0.136	0.204
-471.230	-48.111	0.145	-0.070
-470.216	285.327	0.032	-0.058
-469.201	-112.094	0.086	0.017
-468.186	-13.445	0.117	0.076
-467.172	47.064	-0.239	0.222
-466.157	285.450	-0.209	-0.375
-465.143	-63.392	-0.128	-0.053
-464.128	-111.122	0.311	0.064
-463.113	-50.258	-0.273	0.129
-462.099	-75.517	-0.356	-0.126
-461.084	-27.449	0.144	-0.083
-460.070	151.138	0.178	-0.241
-459.055	-200.000	-0.004	-0.179
-458.040	800.000	0.061	0.205
-457.026	-200.000	0.376	0.000
-456.011	-68.431	-0.098	-0.038
-454.997	-200.000	-0.030	0.494
-453.982	2.903	-0.113	-0.082
-452.968	-200.000	0.033	0.287
-451.953	26.715	-0.287	-0.240
-450.938	-84.579	0.089	-0.028
-449.924	127.171	0.025	-0.031
-448.909	-49.045	0.252	-0.120
-447.895	-200.000	0.024	0.278
-446.880	-101.313	-0.138	-0.034
-445.865	352.876	0.057	0.112
-444.851	33.122	0.040	0.034
-443.836	301.478	-0.032	-0.058
-442.822	-41.357	-0.295	-0.152
-441.807	-81.941	-0.121	-0.040
-440.792	-19.594	0.081	0.050
-439.778	146.437	0.075	0.100
-438.763	-116.599	0.082	0.015
-437.749	17.255	0.134	-0.106
-436.734	800.000	0.009	0.025
-435.719	-200.000	0.005	-0.168
-434.705	800.000	0.113	-0.378
-433.690	171.442	0.223	-0.319
-432.676	-200.000	-0.103	-0.491
-431.661	39.533	-0.252	-0.225
-430.646	-195.944	-0.039	0.000
-429.632	523.696	0.094	0.221
-428.617	157.248	-0.150	0.207
-427.603	761.568	0.043	-0.117
-426.588	99.158	0.172	0.198
-425.573	800.000	-0.098	-0.275
-424.559	800.000	0.068	-0.228
-423.544	77.579	0.169	0.180
-422.530	800.000	-0.079	0.292
-421.515	-69.557	-0.119	0.046
-420.500	-91.555	0.186	-0.053
-419.486	-121.885	-0.163	-0.027
-418.471	-1.087	-0.298	0.210
-417.457	541.218	0.137	-0.326
-416.442	220.407	-0.183	0.293
-415.428	-136.061	-0.254	0.030
-414.413	-200.000	-0.072	-0.340
-413.398	231.279	0.124	-0.203
-412.384	795.025	-0.029	0.081
-411.369	-47.195	0.063	0.031
-410.355	37.647	0.228	0.202
-409.340	-138.806	0.141	-0.015
-408.325	-7.779	0.206	0.139
-407.311	-0.516	-0.422	0.298
-406.296	54.162	-0.057	0.054
-405.282	-110.088	0.385	0.080
-404.267	51.565	0.124	-0.118
-403.252	44.895	-0.209	-0.191
-402.238	-190.137	-0.216	-0.002
-401.223	617.218	-0.116	0.290
-400.209	115.510	0.089	0.108
-399.194	60.429	-0.102	0.100
-398.179	-200.000	0.046	-0.216
-397.165	67.974	0.146	-0.149
-396.150	-18.912	0.169	-0.105
-395.136	96.337	0.137	0.155
-394.121	-54.157	-0.240	-0.108
-393.106	25.446	0.259	0.214
-392.092	-146.637	-0.184	-0.016
-391.077	-62.960	0.202	0.083
-390.063	376.601	0.028	-0.058
-389.048	-200.000	-0.013	-0.346
-388.033	-200.000	0.002	-0.213
-387.019	-200.000	-0.022	-0.097
-386.004	50.634	-0.257	0.242
-384.990	-111.470	0.224	-0.045
-383.975	16.633	-0.104	-0.082
-382.960	-128.445	0.289	0.041
-381.946	263.589	0.105	-0.182
-380.931	-200.000	0.024	0.169
-379.917	-200.000	0.037	-0.242
-378.902	-200.000	-0.010	0.059
-377.888	-200.000	0.017	0.106
-376.873	96.557	-0.095	-0.108
-375.858	132.692	0.139	0.179
-374.844	-200.000	0.006	0.059
-373.829	-200.000	-0.047	-0.314
-372.815	-200.000	0.020	0.110
-371.800	800.000	-0.023	0.093
-370.785	-89.152	0.212	-0.062
-369.771	540.240	0.096	0.227
-368.756	-113.124	-0.138	-0.027
-367.742	418.287	-0.072	-0.154
-366.727	800.000	-0.063	-0.224
-365.712	22.990	0.259	-0.211
-364.698	-39.699	0.055	-0.029
-363.683	321.809	0.043	0.081
-362.669	-152.807	-0.085	0.006
-361.654	-41.107	0.358	0.184
-360.639	-26.128	-0.220	0.128
-359.625	-56.964	-0.248	0.109
-358.610	-61.771	0.059	0.025
-357.596	99.691	-0.107	-0.123
-356.581	-98.639	-0.178	-0.045
-355.566	182.587	0.081	0.119
-354.552	-200.000	-0.011	-0.152
-353.537	-99.799	-0.159	-0.039
-352.523	-93.953	0.240	0.065
-351.508	30.466	0.127	0.108
-350.493	-79.692	0.543	0.182
-349.479	-1.949	0.182	-0.127
-348.464	64.130	-0.171	-0.171
-347.450	-200.000	-0.025	0.286
-346.435	-107.222	0.255	-0.056
-345.420	60.701	-0.318	0.313
-344.406	615.833	-0.178	-0.443
-343.391	-200.000	-0.014	-0.197
-342.377	-42.084	-0.121	-0.062
-341.362	134.833	0.100	-0.130
-340.348	-76.469	0.262	-0.092
-339.333	165.335	0.144	-0.202
-338.318	-200.000	0.016	0.518
-337.304	-200.000	0.016	-0.229
-336.289	-169.366	-0.245	0.009
-335.275	6.997	0.191	-0.141
-334.260	7.247	0.186	0.138
-333.245	-48.411	-0.212	0.101
-332.231	800.000	0.026	0.090
-331.216	-104.423	0.107	-0.025
-330.202	-54.940	-0.327	-0.146
-329.187	-89.663	-0.057	0.016
-328.172	-169.644	-0.425	0.015
-327.158	57.868	-0.130	0.126
-326.143	219.244	0.164	0.261
-325.129	-138.839	0.220	-0.024
-324.114	-200.000	-0.056	-0.249
-323.099	446.022	-0.039	-0.086
-322.085	-4.754	-0.230	0.157
-321.070	-200.000	-0.048	0.280
-320.056	-200.000	0.020	0.264
-319.041	-0.976	0.081	0.057
-318.026	102.284	-0.102	-0.118
-317.012	-151.540	0.174	-0.013
-315.997	-200.000	-0.063	-0.292
-314.983	265.487	-0.123	-0.213
-313.968	-200.000	-0.052	-0.335
-312.953	-142.007	0.284	0.028
-311.939	19.577	0.264	0.211
-310.924	-30.604	-0.175	-0.099
-309.910	800.000	-0.019	0.061
-308.895	339.503	-0.159	0.307
-307.880	25.627	0.058	0.048
-306.866	-200.000	0.034	0.204
-305.851	-200.000	0.015	-0.211
-304.837	45.554	0.169	-0.155
-303.822	800.000	0.076	-0.275
-302.807	-200.000	0.021	0.149
-301.793	375.815	0.161	0.325
-300.778	258.907	0.106	0.181
-299.764	-171.735	0.350	-0.011
-298.749	249.325	-0.148	0.248
-297.735	405.809	0.025	0.053
-296.720	-200.000	0.020	-0.124
-295.705	33.578	-0.087	0.075
-294.691	583.106	0.149	0.361
-293.676	-165.189	0.064	-0.003
-292.662	800.000	0.080	0.251
-291.647	-131.140	0.221	-0.029
-290.632	662.471	0.114	0.292
-289.618	-110.242	-0.369	0.076
-288.603	-94.446	0.277	-0.075
-287.589	-92.101	-0.364	-0.102
-286.574	-144.696	0.278	-0.025
-285.559	-173.061	0.084	0.003
-284.545	-125.360	-0.247	0.037
-283.530	-37.722	0.174	-0.092
-282.516	-151.541	0.224	0.016
-281.501	442.893	0.024	-0.051
-280.486	800.000	-0.112	0.368
-279.472	-89.450	0.570	-0.166
-278.457	100.472	0.036	-0.041
-277.443	-51.391	0.053	0.025
-276.428	-200.000	0.001	0.061
-275.413	-200.000	0.020	0.247
-274.399	390.313	0.024	0.049
-273.384	154.141	-0.189	-0.257
-272.370	128.240	0.039	0.049
-271.355	131.874	0.078	-0.100
-270.340	-200.000	0.008	-0.386
-269.326	-60.761	-0.294	0.123
-268.311	-172.961	0.271	0.008
-267.297	-5.029	0.238	-0.162
-266.282	-57.395	-0.262	0.114
-265.267	113.824	-0.056	-0.067
-264.253	302.791	-0.086	-0.158
-263.238	-29.289	-0.011	0.006
-262.224	-41.474	0.131	0.067
-261.209	-79.373	-0.485	0.163
-260.195	108.029	-0.185	-0.219
-259.180	-31.744	-0.091	0.051
-258.165	-87.197	-0.147	-0.044
-257.151	458.109	-0.044	0.096
-256.136	800.000	-0.051	-0.156
-255.122	-200.000	0.005	0.082
-254.107	-108.458	0.087	-0.019
-253.092	-200.000	0.000	-0.180
-252.078	30.966	0.108	-0.092
-251.063	-52.133	0.307	-0.141
-250.049	26.634	0.141	0.117
-249.034	-200.000	0.027	-0.160
-248.019	-40.012	0.059	0.030
-247.005	-23.440	-0.209	-0.124
-245.990	800.000	-0.050	0.165
-244.976	-175.916	-0.367	0.010
-243.961	-200.000	-0.019	-0.155
-242.946	-48.856	-0.124	0.059
-241.932	91.426	0.144	-0.160
-240.917	552.229	-0.043	-0.102
-239.903	345.311	0.052	-0.101
-238.888	670.310	-0.089	-0.227
-237.873	491.571	-0.107	-0.242
-236.859	720.403	0.072	-0.190
-235.844	-200.000	0.002	-0.071
-234.830	-46.445	0.135	-0.066
-233.815	80.919	0.146	-0.156
-232.800	-58.446	0.061	0.026
-231.786	104.823	-0.203	0.237
-230.771	183.521	-0.202	0.296
-229.757	-200.000	0.028	-0.203
-228.742	501.936	0.126	-0.288
-227.727	-109.622	-0.305	0.064
-226.713	92.748	0.048	0.053
-225.698	800.000	-0.093	-0.301
-224.684	5.858	-0.175	0.128
-223.669	-95.336	0.281	0.075
-222.655	-200.000	-0.003	-0.042
-221.640	-60.326	0.471	-0.198
-220.625	-200.000	0.003	-0.038
-219.611	303.115	-0.105	-0.192
-218.596	35.638	0.284	0.246
-217.582	-200.000	0.033	0.180
-216.567	800.000	-0.026	0.112
-215.552	-111.817	0.103	-0.020
-214.538	444.716	0.097	-0.210
-213.523	-45.910	0.219	0.107
-212.509	800.000	-0.068	-0.216
-211.494	-20.413	0.175	0.107
-210.479	-59.494	-0.179	0.076
-209.465	800.000	0.039	0.111
-208.450	497.553	-0.087	0.197
-207.436	-53.610	-0.131	-0.059
-206.421	225.502	-0.224	0.358
-205.406	366.935	-0.025	0.049
-204.392	59.388	-0.108	-0.105
-203.377	-92.098	-0.178	-0.050
-202.363	8.045	-0.108	0.080
-201.348	70.883	-0.136	-0.140
-200.333	-48.103	-0.148	-0.071
-199.319	-137.703	0.110	-0.012
-198.304	689.491	0.058	0.151
-197.290	385.413	0.180	0.366
-196.275	-169.851	-0.122	0.004
-195.260	339.612	-0.115	0.222
-194.246	-182.026	-0.161	0.003
-193.231	143.534	-0.204	0.269
-192.217	800.000	0.072	-0.207
-191.202	800.000	0.010	0.036
-190.187	67.537	0.181	-0.182
-189.173	82.995	0.074	0.079
-188.158	707.706	-0.141	0.367
-187.144	151.262	-0.085	0.115
-186.129	-200.000	-0.036	0.275
-185.114	354.065	0.118	0.232
-184.100	510.538	0.046	-0.105
-183.085	-140.741	-0.355	0.036
-182.071	-43.050	-0.184	0.092
-181.056	60.733	-0.131	0.128
-180.042	-55.520	0.252	-0.112
-179.027	-200.000	0.026	0.115
-178.012	139.865	0.103	0.134
-176.998	-108.858	-0.167	0.035
-175.983	88.673	-0.161	-0.177
-174.969	-200.000	0.020	-0.261
-173.954	-148.534	0.148	0.012
-172.939	800.000	0.037	-0.141
-171.925	-76.681	-0.302	0.104
-170.910	-100.900	-0.214	0.052
-169.896	172.662	-0.090	0.128
-168.881	800.000	0.067	-0.221
-167.866	-200.000	-0.002	-0.121
-166.852	10.097	-0.158	-0.118
-165.837	800.000	0.031	0.126
-164.823	397.379	-0.043	0.089
-163.808	331.572	-0.028	0.053
-162.793	93.222	-0.082	0.092
-161.779	54.754	0.149	0.141
-160.764	470.046	0.087	0.193
-159.750	800.000	0.050	0.177
-158.735	-15.900	-0.027	-0.017
-157.720	-123.442	0.395	0.062
-156.706	309.358	0.033	-0.061
-155.691	800.000	-0.122	0.438
-154.677	107.249	-0.113	-0.133
-153.662	-187.812	-0.256	0.003
-152.647	800.000	0.048	-0.146
-151.633	-200.000	-0.018	0.261
-150.618	-43.118	-0.201	0.101
-149.604	-161.752	0.307	-0.015
-148.589	-200.000	-0.018	0.324
-147.574	-130.937	0.279	0.037
-146.560	-41.264	-0.103	-0.052
-145.545	-117.597	0.119	0.021
-144.531	167.460	0.291	0.407
-143.516	-118.575	-0.281	0.049
-142.502	800.000	0.037	0.129
-141.487	-114.588	0.266	-0.050
-140.472	62.002	0.150	-0.148
-139.458	800.000	0.028	-0.091
-138.443	-183.704	-0.122	0.002
-137.429	-112.101	0.112	-0.022
-136.414	541.345	-0.198	-0.464
-135.399	-21.925	0.094	-0.056
-134.385	422.941	-0.077	-0.163
-133.370	-20.933	-0.323	-0.195
-132.356	1.504	0.283	0.200
-131.341	380.426	-0.176	0.355
-130.326	321.991	-0.083	-0.155
-129.312	67.512	-0.052	0.053
-128.297	197.241	-0.101	0.152
-127.283	-63.456	-0.132	0.053
-126.268	800.000	0.071	0.195
-125.253	446.927	-0.021	0.046
-124.239	-200.000	-0.017	-0.088
-123.224	-107.547	-0.270	0.058
-122.210	-200.000	0.052	0.271
-121.195	316.605	0.132	0.245
