DTS Sentinel unit serial number:	SN413079Multiplexer serial number:	ORYXHardware model number:	OX4-SRSoftware version number:	ORYX F/W v4.00 Oryx Data Collector v3.7.2.0data status	okinstallation	princeton_trtdifferential loss correction	single-endedforward channel	channel 1reverse channel	N/Adate	2019/09/11time	19:48:11forward acquisition time	60.00reverse acquisition time	0.00gamma	496.2192k internal	0.2300k external	0.2300temperature offset calibration	1.0030default loss term (dB/km)	0.3790temperature slope calibration	1.0000multiplexer offset coefficient	1.0000multiplexer slope coefficient	1.0000fibre end	0.00T internal ref (°C)	39.41T ext. ref 1 (°C)	1.36T ext. ref 2 (°C)	32.22length (m)	temperature (°C)	Stokes	anti-Stokes-747.200	-200.000	0.005	0.238
-746.185	50.242	-0.314	0.303
-745.171	-200.000	0.039	0.284
-744.156	800.000	-0.083	0.265
-743.142	-137.585	0.134	-0.015
-742.127	800.000	-0.086	0.265
-741.112	-13.604	-0.234	-0.155
-740.098	-200.000	0.048	0.253
-739.083	152.091	0.079	0.111
-738.069	135.564	0.189	0.251
-737.054	76.450	-0.114	0.123
-736.039	-200.000	-0.026	0.119
-735.025	592.307	0.123	-0.310
-734.010	-200.000	-0.025	-0.411
-732.996	-111.110	-0.194	0.041
-731.981	512.381	-0.070	0.166
-730.966	-74.348	-0.079	0.029
-729.952	221.139	-0.075	-0.122
-728.937	-200.000	0.027	-0.161
-727.923	1.961	0.099	0.073
-726.908	61.537	-0.145	-0.147
-725.894	87.322	0.082	0.092
-724.879	800.000	-0.073	0.264
-723.864	-148.976	-0.018	-0.001
-722.850	442.996	-0.079	0.176
-721.835	800.000	0.075	-0.304
-720.821	171.116	0.132	0.192
-719.806	59.175	0.200	0.200
-718.791	164.984	-0.040	-0.058
-717.777	110.162	0.125	-0.153
-716.762	18.570	-0.147	-0.120
-715.748	-200.000	0.044	-0.319
-714.733	-200.000	0.013	-0.285
-713.718	800.000	0.077	-0.240
-712.704	-190.037	-0.241	-0.003
-711.689	-77.968	-0.392	-0.138
-710.675	-143.462	-0.152	-0.015
-709.660	316.974	0.184	-0.354
-708.645	-34.893	0.268	-0.149
-707.631	-23.879	0.222	-0.135
-706.616	-200.000	0.001	0.356
-705.602	-190.080	-0.184	0.002
-704.587	569.847	0.058	-0.143
-703.572	236.499	0.031	-0.051
-702.558	-17.233	-0.340	-0.218
-701.543	-40.564	0.280	-0.148
-700.529	-200.000	-0.009	-0.179
-699.514	103.298	0.087	-0.103
-698.499	399.859	-0.106	0.226
-697.485	-127.573	-0.324	-0.048
-696.470	119.899	0.112	-0.142
-695.456	126.551	-0.189	-0.244
-694.441	800.000	0.049	0.146
-693.426	800.000	0.023	0.088
-692.412	103.239	-0.070	0.083
-691.397	-65.649	0.396	-0.161
-690.383	114.205	-0.129	-0.160
-689.368	-160.009	-0.040	-0.002
-688.354	-54.053	0.212	-0.098
-687.339	-200.000	-0.002	-0.098
-686.324	-46.364	-0.426	0.213
-685.310	800.000	0.048	0.198
-684.295	207.216	0.092	0.145
-683.281	-110.760	-0.282	-0.059
-682.266	53.947	-0.272	-0.267
-681.251	-98.231	0.203	-0.053
-680.237	-27.190	0.076	-0.045
-679.222	21.902	0.228	-0.189
-678.208	4.009	-0.047	-0.035
-677.193	-30.523	-0.274	-0.158
-676.178	-161.428	0.233	-0.012
-675.164	-144.851	0.247	0.023
-674.149	320.535	-0.171	0.331
-673.135	-151.118	-0.169	-0.013
-672.120	-31.823	-0.046	0.026
-671.105	-11.933	-0.198	-0.132
-670.091	-158.142	-0.096	-0.006
-669.076	218.629	-0.066	-0.107
-668.062	44.202	-0.151	-0.141
-667.047	166.418	-0.026	-0.037
-666.032	316.107	0.193	-0.371
-665.018	-200.000	0.005	-0.160
-664.003	221.841	0.048	-0.078
-662.989	6.472	0.267	0.202
-661.974	-200.000	0.018	0.123
-660.959	-35.888	-0.050	0.028
-659.945	-136.268	-0.134	0.016
-658.930	322.091	-0.065	-0.126
-657.916	-200.000	-0.015	-0.238
-656.901	293.467	-0.101	0.187
-655.886	470.467	-0.132	-0.302
-654.872	-57.486	-0.166	-0.074
-653.857	77.217	0.167	0.180
-652.843	-53.296	-0.160	0.075
-651.828	-200.000	-0.034	-0.311
-650.814	-26.655	-0.181	-0.108
-649.799	21.491	-0.145	-0.120
-648.784	49.436	0.152	0.145
-647.770	-60.556	-0.349	0.151
-646.755	-28.840	0.198	-0.115
-645.741	-14.743	-0.084	0.055
-644.726	-68.772	-0.102	0.040
-643.711	131.196	0.094	0.123
-642.697	223.309	-0.140	-0.230
-641.682	300.571	-0.084	-0.158
-640.668	329.725	-0.076	0.148
-639.653	-137.920	-0.207	-0.024
-638.638	65.678	-0.239	-0.246
-637.624	488.071	-0.158	-0.367
-636.609	12.385	-0.197	-0.154
-635.595	233.827	-0.047	-0.078
-634.580	-68.005	-0.182	-0.072
-633.565	-34.283	-0.270	-0.151
-632.551	-157.872	-0.197	-0.012
-631.536	-19.979	0.136	-0.085
-630.522	304.376	0.047	-0.089
-629.507	-123.964	0.215	0.034
-628.492	800.000	-0.029	-0.090
-627.478	254.101	-0.092	-0.159
-626.463	72.495	-0.149	0.158
-625.449	58.824	0.186	-0.185
-624.434	-35.932	0.127	-0.070
-623.419	800.000	0.083	0.233
-622.405	234.314	0.191	-0.320
-621.390	800.000	-0.054	-0.212
-620.376	-62.249	-0.162	-0.069
-619.361	329.762	0.037	-0.073
-618.346	-89.476	0.057	-0.017
-617.332	-200.000	-0.004	-0.060
-616.317	-144.720	-0.269	0.025
-615.303	175.529	0.084	0.124
-614.288	-200.000	0.024	0.138
-613.273	-119.521	0.300	0.053
-612.259	286.909	0.015	0.027
-611.244	-15.053	0.278	-0.181
-610.230	524.030	0.143	-0.342
-609.215	-116.800	-0.316	-0.059
-608.201	-140.475	0.055	-0.006
-607.186	15.779	-0.410	0.328
-606.171	-99.630	-0.128	0.033
-605.157	409.359	0.082	-0.176
-604.142	-72.002	0.096	-0.036
-603.128	87.639	-0.026	0.029
-602.113	199.259	-0.127	0.198
-601.098	-76.521	-0.187	0.067
-600.084	-6.935	0.125	0.086
-599.069	-200.000	0.079	0.404
-598.055	-74.483	0.357	-0.131
-597.040	328.652	0.014	-0.027
-596.025	16.782	0.136	-0.109
-595.011	-43.809	-0.564	0.288
-593.996	-200.000	0.038	0.212
-592.982	-159.158	0.105	-0.006
-591.967	800.000	-0.064	-0.200
-590.952	-200.000	-0.044	-0.236
-589.938	-52.684	0.282	-0.132
-588.923	39.057	0.195	0.176
-587.909	260.148	0.037	-0.065
-586.894	-41.048	0.112	-0.059
-585.879	-200.000	0.012	-0.069
-584.865	88.924	-0.195	-0.220
-583.850	800.000	-0.101	-0.283
-582.836	-40.497	-0.066	0.035
-581.821	-77.135	0.240	0.085
-580.806	-29.371	0.352	0.204
-579.792	564.318	-0.058	0.141
-578.777	-4.906	-0.075	0.052
-577.763	238.235	-0.014	0.023
-576.748	7.374	-0.190	0.144
-575.733	-79.252	-0.183	-0.063
-574.719	-45.932	0.234	-0.117
-573.704	-118.176	-0.030	0.005
-572.690	4.866	0.198	0.147
-571.675	205.696	-0.114	0.179
-570.661	-29.295	-0.187	-0.109
-569.646	-69.202	-0.034	0.013
-568.631	-16.276	0.023	0.015
-567.617	112.140	0.093	-0.114
-566.602	-200.000	-0.034	-0.214
-565.588	121.015	0.078	-0.098
-564.573	156.260	0.042	0.059
-563.558	196.482	-0.065	-0.100
-562.544	6.914	-0.234	-0.176
-561.529	146.673	-0.087	-0.118
-560.515	484.293	-0.095	-0.220
-559.500	632.469	-0.073	-0.187
-558.485	200.515	0.137	-0.214
-557.471	62.917	0.276	-0.280
-556.456	-124.579	0.239	-0.038
-555.442	161.927	0.247	-0.350
-554.427	-69.679	-0.213	-0.082
-553.412	691.651	0.087	-0.229
-552.398	187.547	-0.134	-0.203
-551.383	147.451	-0.032	-0.043
-550.369	-73.559	0.431	-0.159
-549.354	-155.342	0.183	-0.012
-548.339	252.232	-0.082	-0.142
-547.325	-200.000	0.027	-0.210
-546.310	126.401	0.167	0.214
-545.296	701.963	-0.024	-0.065
-544.281	800.000	-0.027	0.082
-543.266	69.863	-0.186	-0.194
-542.252	23.958	-0.099	0.083
-541.237	800.000	0.063	-0.236
-540.223	98.316	0.417	-0.487
-539.208	284.097	-0.228	0.414
-538.193	-89.870	0.243	-0.072
-537.179	440.951	0.076	0.169
-536.164	-22.425	0.087	-0.053
-535.150	-200.000	-0.002	-0.199
-534.135	554.442	0.006	-0.013
-533.121	-121.661	-0.159	-0.027
-532.106	-129.410	-0.315	-0.044
-531.091	61.119	-0.060	-0.061
-530.077	15.899	0.206	0.164
-529.062	-114.736	-0.167	0.032
-528.048	-200.000	0.008	0.194
-527.033	800.000	-0.055	-0.213
-526.018	208.271	0.118	-0.186
-525.004	24.038	-0.060	0.050
-523.989	4.245	-0.208	0.154
-522.975	628.387	0.011	0.027
-521.960	-112.987	0.485	-0.097
-520.945	800.000	-0.089	0.284
-519.931	-75.954	-0.202	-0.072
-518.916	166.258	0.109	-0.156
-517.902	-26.589	0.220	0.130
-516.887	222.628	-0.091	0.148
-515.872	-124.535	0.385	-0.060
-514.858	-73.564	-0.192	0.071
-513.843	192.335	0.136	0.208
-512.829	-23.624	-0.172	-0.104
-511.814	-15.335	-0.090	0.058
-510.799	-62.448	-0.323	0.136
-509.785	47.426	0.155	-0.146
-508.770	17.917	-0.100	-0.080
-507.756	800.000	-0.110	0.312
-506.741	50.906	0.104	0.100
-505.726	-200.000	-0.042	-0.207
-504.712	15.657	-0.176	-0.140
-503.697	74.424	-0.081	-0.086
-502.683	-126.512	0.285	-0.043
-501.668	-109.438	-0.108	0.023
-500.653	800.000	0.007	0.029
-499.639	-123.290	0.091	-0.015
-498.624	-156.198	0.343	-0.022
-497.610	-38.767	-0.258	0.138
-496.595	24.186	0.191	-0.160
-495.581	146.365	0.223	0.302
-494.566	318.493	0.012	-0.022
-493.551	-78.866	-0.300	-0.103
-492.537	-200.000	-0.002	-0.171
-491.522	-9.170	0.125	-0.084
-490.508	153.238	-0.066	0.091
-489.493	-200.000	0.040	0.205
-488.478	183.954	-0.109	0.162
-487.464	-200.000	-0.020	0.394
-486.449	10.378	-0.368	0.283
-485.435	-81.330	0.206	0.069
-484.420	800.000	0.036	0.131
-483.405	87.178	-0.040	0.045
-482.391	-200.000	0.003	0.111
-481.376	-111.110	0.142	-0.029
-480.362	25.075	0.036	-0.030
-479.347	-134.883	0.302	-0.037
-478.332	-193.225	-0.284	0.003
-477.318	800.000	0.130	-0.444
-476.303	800.000	0.013	-0.039
-475.289	-42.245	-0.300	0.154
-474.274	760.930	-0.103	0.282
-473.259	-171.246	-0.326	0.011
-472.245	269.791	0.127	-0.226
-471.230	-58.780	0.159	-0.069
-470.216	-184.620	-0.374	-0.006
-469.201	417.501	0.052	-0.111
-468.186	-200.000	0.011	-0.065
-467.172	339.073	0.077	0.152
-466.157	800.000	-0.014	-0.050
-465.143	108.163	0.105	-0.127
-464.128	-110.325	-0.280	0.059
-463.113	454.335	0.135	0.303
-462.099	198.782	-0.152	-0.235
-461.084	28.350	-0.163	0.139
-460.070	-169.237	0.438	0.016
-459.055	-115.947	-0.482	-0.091
-458.040	-200.000	-0.036	0.310
-457.026	66.324	-0.113	0.116
-456.011	-67.215	0.162	-0.064
-454.997	69.783	0.196	-0.203
-453.982	-141.914	0.295	0.030
-452.968	98.065	-0.121	0.140
-451.953	36.715	-0.113	-0.101
-450.938	-61.701	0.161	-0.068
-449.924	349.600	0.013	-0.027
-448.909	-112.771	-0.241	0.048
-447.895	1.817	0.246	0.179
-446.880	-150.009	0.177	-0.014
-445.865	-200.000	-0.083	0.426
-444.851	182.675	0.154	0.229
-443.836	-159.510	0.336	0.019
-442.822	-147.459	0.151	0.013
-441.807	738.135	0.099	0.266
-440.792	-127.946	0.161	-0.023
-439.778	-200.000	-0.027	0.118
-438.763	296.800	-0.134	-0.248
-437.749	-200.000	0.020	0.367
-436.734	-108.947	0.198	0.043
-435.719	81.438	0.174	-0.190
-434.705	-94.084	-0.145	0.040
-433.690	-200.000	0.020	0.114
-432.676	30.511	0.260	0.224
-431.661	331.897	0.125	-0.242
-430.646	-19.357	0.096	0.060
-429.632	71.666	-0.044	-0.046
-428.617	-121.436	-0.102	-0.017
-427.603	-52.916	-0.103	-0.048
-426.588	28.474	0.095	-0.081
-425.573	800.000	0.035	-0.136
-424.559	-102.319	0.225	-0.054
-423.544	-200.000	-0.007	-0.154
-422.530	-122.529	-0.074	-0.012
-421.515	55.419	0.152	-0.148
-420.500	46.183	0.185	-0.173
-419.486	97.678	-0.106	0.123
-418.471	9.828	-0.278	-0.212
-417.457	-200.000	-0.003	-0.368
-416.442	84.992	0.140	0.155
-415.428	-102.396	-0.256	0.062
-414.413	289.894	-0.053	-0.096
-413.398	-103.538	-0.195	-0.046
-412.384	-200.000	-0.007	-0.045
-411.369	-200.000	-0.002	0.243
-410.355	-200.000	0.052	0.337
-409.340	-93.719	0.288	0.080
-408.325	331.293	0.065	0.126
-407.311	-200.000	0.051	-0.312
-406.296	101.639	-0.282	0.331
-405.282	12.396	-0.158	0.122
-404.267	111.571	0.236	0.287
-403.252	194.240	0.271	0.413
-402.238	-47.739	-0.116	0.056
-401.223	-167.033	0.268	0.011
-400.209	-87.288	-0.144	0.044
-399.194	800.000	-0.044	-0.171
-398.179	66.789	0.240	-0.246
-397.165	10.827	0.271	0.208
-396.150	240.578	-0.225	-0.378
-395.136	34.347	0.065	0.057
-394.121	237.129	-0.148	-0.246
-393.106	-102.506	0.249	0.060
-392.092	-141.430	-0.312	-0.032
-391.077	173.239	-0.170	-0.246
-390.063	171.096	0.272	0.392
-389.048	-200.000	-0.050	0.240
-388.033	800.000	-0.060	0.242
-387.019	-138.670	-0.152	-0.017
-386.004	51.893	0.181	-0.173
-384.990	-104.277	-0.205	0.048
-383.975	-131.153	-0.163	-0.022
-382.960	391.558	0.020	-0.043
-381.946	47.360	-0.090	-0.085
-380.931	-90.979	0.116	0.034
-379.917	800.000	-0.010	0.035
-378.902	-100.688	-0.166	0.041
-377.888	-21.215	0.140	-0.086
-376.873	-50.877	0.143	0.067
-375.858	34.831	-0.062	-0.055
-374.844	-76.997	-0.422	-0.148
-373.829	-146.157	0.454	-0.040
-372.815	220.412	0.118	-0.191
-371.800	-132.737	0.253	-0.033
-370.785	-112.707	0.322	0.064
-369.771	800.000	-0.023	0.099
-368.756	-200.000	0.001	-0.522
-367.742	29.500	0.201	-0.172
-366.727	151.876	-0.105	0.144
-365.712	124.122	0.101	-0.128
-364.698	261.257	0.080	0.140
-363.683	-200.000	-0.021	-0.160
-362.669	-40.317	-0.229	-0.120
-361.654	291.259	-0.044	0.081
-360.639	-117.917	-0.232	-0.042
-359.625	800.000	0.122	0.347
-358.610	8.023	0.101	-0.076
-357.596	-200.000	-0.002	0.179
-356.581	-200.000	0.043	0.207
-355.566	786.888	-0.093	0.257
-354.552	-200.000	-0.046	0.238
-353.537	-9.461	-0.304	0.204
-352.523	108.950	-0.196	0.236
-351.508	223.934	-0.064	0.103
-350.493	800.000	-0.028	0.085
-349.479	-23.086	0.358	0.217
-348.464	-123.588	-0.159	-0.025
-347.450	416.321	0.079	0.170
-346.435	-113.238	0.588	-0.116
-345.420	-200.000	-0.030	0.265
-344.406	-40.489	-0.120	-0.063
-343.391	800.000	0.118	-0.408
-342.377	27.455	0.350	-0.295
-341.362	61.114	-0.211	0.210
-340.348	-94.152	0.213	-0.059
-339.333	-116.224	0.168	-0.031
-338.318	80.377	0.052	0.056
-337.304	-200.000	0.041	0.334
-336.289	-200.000	-0.049	0.529
-335.275	-53.322	-0.186	-0.086
-334.260	15.130	-0.136	-0.107
-333.245	-159.764	-0.262	0.014
-332.231	87.279	-0.135	-0.149
-331.216	-200.000	-0.030	0.135
-330.202	105.567	0.081	-0.096
-329.187	-109.919	-0.357	-0.075
-328.172	-36.529	0.273	-0.147
-327.158	-123.808	-0.309	0.049
-326.143	475.022	0.103	-0.234
-325.129	-184.320	0.302	0.005
-324.114	-29.469	0.154	0.088
-323.099	269.638	0.185	-0.325
-322.085	-200.000	-0.037	-0.243
-321.070	-174.670	-0.372	-0.011
-320.056	-200.000	0.013	0.288
-319.041	78.748	0.100	-0.108
-318.026	395.487	-0.031	-0.066
-317.012	74.483	-0.092	0.097
-315.997	-42.942	0.309	-0.157
-314.983	212.203	-0.214	0.338
-313.968	800.000	-0.107	0.436
-312.953	-0.725	0.093	-0.066
-311.939	-200.000	0.030	-0.132
-310.924	-56.670	-0.183	-0.081
-309.910	800.000	0.077	0.267
-308.895	292.519	-0.095	-0.173
-307.880	71.855	0.101	0.106
-306.866	-200.000	0.091	0.450
-305.851	159.163	0.160	0.223
-304.837	109.839	0.315	0.379
-303.822	-200.000	0.038	0.202
-302.807	-56.445	-0.038	-0.017
-301.793	-110.648	-0.155	0.032
-300.778	-140.014	-0.280	0.030
-299.764	-74.312	0.395	-0.143
-298.749	-65.268	0.303	0.122
-297.735	67.128	0.165	0.169
-296.720	-42.119	0.116	0.060
-295.705	-95.765	-0.029	0.008
-294.691	-146.885	-0.312	-0.027
-293.676	16.849	0.103	0.082
-292.662	-32.096	-0.092	0.052
-291.647	229.134	-0.029	0.047
-290.632	-200.000	-0.012	-0.133
-289.618	-125.809	0.172	0.026
-288.603	-73.241	-0.149	0.055
-287.589	800.000	0.062	-0.171
-286.574	63.876	-0.099	0.100
-285.559	195.314	-0.177	0.270
-284.545	283.648	0.112	-0.202
-283.530	800.000	0.073	0.240
-282.516	-200.000	-0.034	0.595
-281.501	-200.000	0.010	0.100
-280.486	208.294	-0.169	-0.264
-279.472	-61.987	-0.232	0.097
-278.457	-7.880	0.208	-0.140
-277.443	-74.636	-0.300	-0.108
-276.428	-127.721	0.176	-0.025
-275.413	-200.000	-0.033	-0.305
-274.399	800.000	-0.107	-0.393
-273.384	-149.651	0.128	-0.010
-272.370	800.000	0.029	-0.109
-271.355	-51.611	-0.375	0.175
-270.340	163.971	-0.062	-0.088
-269.326	-200.000	0.003	-0.072
-268.311	34.887	-0.275	-0.241
-267.297	527.923	-0.216	0.509
-266.282	28.266	-0.265	-0.224
-265.267	251.198	-0.075	0.128
-264.253	800.000	0.068	-0.277
-263.238	210.291	-0.086	-0.135
-262.224	26.443	-0.046	-0.038
-261.209	-200.000	0.000	0.061
-260.195	-200.000	0.052	0.288
-259.180	205.802	-0.126	-0.196
-258.165	75.842	-0.140	-0.148
-257.151	-64.274	0.184	-0.075
-256.136	-14.237	0.229	0.147
-255.122	-200.000	0.053	0.341
-254.107	-75.799	-0.223	-0.079
-253.092	800.000	-0.082	-0.334
-252.078	181.180	-0.034	-0.050
-251.063	84.764	-0.065	-0.071
-250.049	-65.301	0.208	-0.084
-249.034	353.507	-0.138	0.274
-248.019	120.823	-0.062	-0.078
-247.005	45.797	-0.101	-0.094
-245.990	560.512	-0.096	0.231
-244.976	-31.150	-0.054	0.031
-243.961	-72.362	-0.072	-0.027
-242.946	629.368	-0.086	0.216
-241.932	800.000	-0.100	-0.373
-240.917	-200.000	-0.004	0.066
-239.903	800.000	0.039	-0.114
-238.888	-66.998	0.140	-0.055
-237.873	-54.501	0.134	0.061
-236.859	191.985	-0.132	0.200
-235.844	-95.601	-0.455	0.122
-234.830	-91.154	-0.343	-0.098
-233.815	8.497	0.038	-0.029
-232.800	-60.978	-0.175	0.074
-231.786	229.799	0.240	0.393
-230.771	178.086	-0.131	0.192
-229.757	-70.995	0.095	-0.036
-228.742	-156.208	0.302	0.019
-227.727	-67.255	-0.332	-0.131
-226.713	-88.081	-0.306	0.092
-225.698	143.487	-0.060	-0.080
-224.684	264.426	0.106	0.184
-223.669	-200.000	0.055	-0.246
-222.655	-102.408	0.359	-0.086
-221.640	-11.339	0.239	-0.158
-220.625	158.641	-0.109	0.151
-219.611	-5.795	0.230	0.158
-218.596	-3.414	-0.073	-0.051
-217.582	800.000	0.050	-0.176
-216.567	-188.245	-0.270	0.003
-215.552	-134.968	-0.167	0.020
-214.538	800.000	-0.024	-0.069
-213.523	35.319	0.092	0.081
-212.509	800.000	-0.006	0.025
-211.494	-99.859	-0.504	0.126
-210.479	-83.242	-0.173	-0.055
-209.465	-200.000	-0.000	-0.077
-208.450	-55.780	-0.126	-0.056
-207.436	191.676	0.037	-0.056
-206.421	-14.156	0.309	0.199
-205.406	-72.206	0.361	0.134
-204.392	-70.676	0.159	0.060
-203.377	2.359	-0.161	0.116
-202.363	205.289	0.220	-0.342
-201.348	-182.168	0.202	-0.004
-200.333	800.000	-0.019	-0.062
-199.319	278.294	0.139	-0.247
-198.304	-71.061	0.237	-0.089
-197.290	-159.907	0.257	0.014
-196.275	-200.000	-0.019	0.309
-195.260	8.732	0.121	0.091
-194.246	-35.535	-0.205	-0.111
-193.231	695.134	0.048	0.125
-192.217	-87.939	0.235	-0.071
-191.202	-200.000	0.036	0.265
-190.187	533.831	0.041	-0.096
-189.173	800.000	0.088	-0.252
-188.158	-117.138	-0.127	0.023
-187.144	77.517	-0.126	0.134
-186.129	800.000	-0.070	-0.208
-185.114	-63.711	-0.351	0.143
-184.100	-83.904	-0.180	0.057
-183.085	-82.477	0.267	-0.087
-182.071	536.688	0.124	-0.295
-181.056	73.759	-0.051	-0.053
-180.042	-200.000	0.005	0.022
-179.027	-87.808	-0.270	0.081
-178.012	19.329	0.293	0.235
-176.998	209.780	-0.202	-0.316
-175.983	280.246	0.100	-0.178
-174.969	-200.000	-0.022	0.281
-173.954	-131.263	-0.145	0.019
-172.939	-109.330	-0.266	0.056
-171.925	-200.000	0.006	0.108
-170.910	6.941	0.340	-0.253
-169.896	6.157	0.251	0.186
-168.881	-200.000	0.033	-0.297
-167.866	-129.916	-0.321	0.044
-166.852	-73.576	-0.152	0.055
-165.837	-102.976	0.230	-0.054
-164.823	100.224	0.204	-0.236
-163.808	463.237	-0.095	-0.211
-162.793	-200.000	-0.013	0.090
-161.779	377.032	-0.072	0.147
-160.764	-200.000	0.002	0.118
-159.750	122.804	-0.059	-0.073
-158.735	44.613	0.165	-0.151
-157.720	-200.000	-0.049	0.248
-156.706	-117.536	-0.475	-0.086
-155.691	57.947	-0.155	-0.151
-154.677	-104.196	0.270	0.063
-153.662	-153.914	0.174	-0.012
-152.647	-131.107	0.035	-0.005
-151.633	-79.720	-0.061	0.020
-150.618	800.000	0.124	-0.343
-149.604	-200.000	0.030	0.372
-148.589	260.792	0.080	-0.138
-147.574	-53.736	-0.184	0.084
-146.560	137.369	-0.127	0.166
-145.545	-200.000	-0.002	0.051
-144.531	-200.000	-0.030	0.324
-143.516	-200.000	0.035	0.170
-142.502	800.000	-0.139	0.431
-141.487	-49.431	-0.407	0.193
-140.472	800.000	0.164	-0.535
-139.458	-200.000	-0.001	0.009
-138.443	-118.569	-0.320	0.056
-137.429	-92.174	0.110	-0.031
-136.414	-2.960	-0.154	0.107
-135.399	-200.000	-0.015	0.077
-134.385	-57.265	-0.467	0.204
-133.370	-67.676	-0.196	0.076
-132.356	-178.812	0.285	-0.006
-131.341	-46.454	-0.140	0.069
-130.326	128.760	-0.160	-0.203
-129.312	-119.851	0.175	0.030
-128.297	-200.000	0.013	0.247
-127.283	-109.958	0.423	-0.088
-126.268	63.637	-0.136	0.136
-125.253	-55.274	-0.155	0.069
-124.239	-16.386	-0.173	0.109
-123.224	280.195	0.181	0.321
-122.210	27.459	0.350	0.293
