DTS Sentinel unit serial number:	SN413079Multiplexer serial number:	ORYXHardware model number:	OX4-SRSoftware version number:	ORYX F/W v4.00 Oryx Data Collector v3.7.2.0data status	okinstallation	princeton_trtdifferential loss correction	single-endedforward channel	channel 1reverse channel	N/Adate	2019/09/12time	20:10:34forward acquisition time	15.00reverse acquisition time	0.00gamma	496.2192k internal	0.2324k external	0.2324temperature offset calibration	1.0131default loss term (dB/km)	0.3790temperature slope calibration	1.0000multiplexer offset coefficient	1.0000multiplexer slope coefficient	1.0000fibre end	0.00T internal ref (°C)	31.62T ext. ref 1 (°C)	3.47T ext. ref 2 (°C)	26.30length (m)	temperature (°C)	Stokes	anti-Stokes-747.200	-46.716	-0.197	0.098
-746.185	80.555	-0.595	-0.647
-745.171	-200.000	0.046	0.622
-744.156	291.424	-0.105	-0.192
-743.142	169.542	0.207	-0.298
-742.127	210.566	0.319	0.506
-741.112	-47.130	0.767	0.378
-740.098	16.033	0.327	-0.260
-739.083	-66.690	-0.470	0.188
-738.069	158.849	-0.546	0.766
-737.054	195.530	-0.091	-0.140
-736.039	-96.585	-0.975	0.259
-735.025	765.544	0.230	0.631
-734.010	283.845	-0.315	-0.572
-732.996	58.183	0.059	-0.058
-731.981	-5.168	-0.411	-0.285
-730.966	21.054	-0.065	-0.054
-729.952	48.233	0.274	0.258
-728.937	45.498	-0.872	0.812
-727.923	-57.652	-0.627	0.277
-726.908	395.106	0.433	0.910
-725.894	722.524	-0.223	-0.600
-724.879	-146.814	-0.504	0.044
-723.864	800.000	-0.319	0.914
-722.850	560.262	-0.088	-0.214
-721.835	-200.000	-0.143	-0.643
-720.821	800.000	-0.097	-0.321
-719.806	-200.000	0.066	-0.409
-718.791	800.000	-0.286	-0.825
-717.777	-49.684	-0.629	0.301
-716.762	-109.954	1.050	0.222
-715.748	-55.118	-0.598	-0.272
-714.733	-132.761	-0.200	0.026
-713.718	165.200	-0.238	0.339
-712.704	667.883	0.225	0.588
-711.689	-200.000	-0.173	-0.827
-710.675	52.309	0.250	-0.240
-709.660	608.075	-0.345	-0.868
-708.645	13.282	-0.645	-0.504
-707.631	-200.000	0.113	-0.808
-706.616	88.265	-0.231	-0.258
-705.602	-200.000	0.033	0.230
-704.587	800.000	-0.142	0.544
-703.572	12.054	0.212	0.165
-702.558	70.466	-0.309	-0.322
-701.543	17.457	-0.227	0.182
-700.529	-144.721	0.635	-0.059
-699.514	-200.000	0.002	-0.232
-698.499	-160.660	-0.307	0.016
-697.485	-193.378	-0.484	0.004
-696.470	-131.678	0.464	-0.061
-695.456	800.000	0.145	0.419
-694.441	-22.742	1.068	0.650
-693.426	-7.780	0.418	0.285
-692.412	-5.515	0.375	-0.259
-691.397	181.504	-0.091	0.135
-690.383	302.754	-0.296	-0.552
-689.368	800.000	0.219	0.918
-688.354	23.589	0.293	-0.243
-687.339	-6.002	-0.787	0.542
-686.324	-200.000	-0.053	0.619
-685.310	746.278	0.072	0.195
-684.295	-146.083	-0.303	0.027
-683.281	-200.000	0.023	-0.194
-682.266	-36.042	-0.521	0.283
-681.251	154.880	0.463	0.641
-680.237	9.922	-0.492	-0.376
-679.222	-96.428	-0.732	0.195
-678.208	-114.914	0.444	0.085
-677.193	288.884	-0.185	-0.337
-676.178	258.057	-0.284	-0.493
-675.164	214.967	-0.527	-0.840
-674.149	183.902	0.298	-0.443
-673.135	-200.000	-0.034	-1.690
-672.120	-2.220	0.580	0.410
-671.105	-200.000	-0.046	-0.269
-670.091	800.000	0.287	0.828
-669.076	-56.218	0.437	-0.195
-668.062	-200.000	-0.049	0.226
-667.047	-1.960	-0.333	0.236
-666.032	-112.818	-0.742	0.148
-665.018	121.199	-0.317	0.397
-664.003	33.985	0.660	0.579
-662.989	-55.879	0.119	0.054
-661.974	-124.953	0.695	0.108
-660.959	-17.616	-0.669	-0.423
-659.945	-134.646	0.482	-0.059
-658.930	-152.071	-0.336	-0.025
-657.916	-200.000	-0.059	-0.362
-656.901	-61.062	0.530	0.225
-655.886	-36.443	-0.250	-0.135
-654.872	-63.997	1.085	-0.446
-653.857	170.964	0.515	-0.742
-652.843	-200.000	0.007	-0.140
-651.828	477.310	-0.137	-0.311
-650.814	122.479	0.398	0.500
-649.799	59.411	-1.036	-1.026
-648.784	319.413	-0.335	-0.638
-647.770	-200.000	0.024	-0.121
-646.755	28.668	0.472	0.402
-645.741	23.942	0.522	0.433
-644.726	269.173	-0.252	-0.446
-643.711	-200.000	0.019	-0.271
-642.697	-200.000	0.037	-0.396
-641.682	-3.067	0.361	0.253
-640.668	451.043	0.083	0.184
-639.653	-184.659	0.657	0.011
-638.638	-117.359	0.227	-0.041
-637.624	-22.649	-0.685	-0.416
-636.609	141.712	-0.505	-0.673
-635.595	-6.579	0.792	-0.543
-634.580	-95.437	-0.802	-0.216
-633.565	-57.449	0.331	-0.146
-632.551	-44.639	0.594	0.298
-631.536	-200.000	0.024	-0.630
-630.522	-153.948	0.629	0.043
-629.507	-200.000	-0.148	-0.916
-628.492	50.665	-0.766	-0.729
-627.478	-200.000	0.106	0.570
-626.463	-84.605	0.872	0.276
-625.449	-0.852	-0.453	-0.323
-624.434	-44.892	-0.212	0.106
-623.419	520.068	-0.265	0.623
-622.405	-200.000	0.122	-0.776
-621.390	-21.772	-0.210	0.128
-620.376	124.233	-0.189	0.238
-619.361	-200.000	0.047	-0.284
-618.346	32.985	-0.488	0.425
-617.332	53.451	-0.280	-0.270
-616.317	-200.000	0.001	-0.524
-615.303	-200.000	-0.062	-0.635
-614.288	352.397	0.489	0.973
-613.273	-200.000	0.099	0.512
-612.259	-114.583	-0.311	0.060
-611.244	-34.766	0.701	-0.384
-610.230	-84.039	0.077	0.025
-609.215	-146.745	0.752	0.065
-608.201	-79.095	-0.426	-0.145
-607.186	286.788	-0.185	-0.335
-606.171	-123.298	-0.606	0.097
-605.157	-17.172	0.101	0.064
-604.142	88.821	0.015	0.017
-603.128	338.603	0.687	-1.342
-602.113	-200.000	0.084	-0.436
-601.098	-100.858	-0.319	0.079
-600.084	-81.899	0.391	-0.128
-599.069	800.000	0.273	1.178
-598.055	128.281	0.529	-0.676
-597.040	161.469	-0.177	-0.249
-596.025	-30.940	0.301	0.171
-595.011	-116.512	-0.645	-0.119
-593.996	-70.383	0.491	-0.187
-592.982	-74.060	0.679	-0.247
-591.967	-53.680	0.733	0.336
-590.952	157.377	-0.087	-0.120
-589.938	-200.000	-0.032	-0.172
-588.923	-41.066	0.934	0.484
-587.909	-63.600	-0.742	-0.306
-586.894	-14.934	0.175	-0.113
-585.879	-88.830	0.146	0.043
-584.865	227.547	-0.194	0.317
-583.850	157.032	0.521	0.723
-582.836	800.000	0.138	0.390
-581.821	102.166	0.482	-0.565
-580.806	800.000	0.054	0.217
-579.792	40.043	0.502	-0.452
-578.777	-170.198	-0.646	-0.023
-577.763	-107.533	-0.061	-0.013
-576.748	175.722	0.107	-0.155
-575.733	-62.247	0.870	-0.364
-574.719	-200.000	0.106	0.535
-573.704	-71.954	0.170	0.064
-572.690	800.000	0.144	-0.530
-571.675	573.672	-0.282	0.689
-570.661	128.349	-0.217	0.277
-569.646	-28.318	0.221	0.128
-568.631	-194.247	-0.602	-0.005
-567.617	553.394	0.247	-0.596
-566.602	-37.800	0.617	0.329
-565.588	275.740	0.172	0.306
-564.573	-101.995	0.693	0.168
-563.558	-62.531	0.231	-0.096
-562.544	444.479	0.149	0.327
-561.529	55.847	-0.030	0.029
-560.515	-176.373	-0.789	-0.021
-559.500	-75.745	-0.461	-0.164
-558.485	-126.644	-0.757	0.112
-557.471	800.000	-0.253	0.755
-556.456	-60.576	-0.566	-0.241
-555.442	227.562	0.405	0.660
-554.427	-47.032	0.614	0.300
-553.412	800.000	-0.086	-0.336
-552.398	-200.000	-0.020	0.265
-551.383	-70.062	-0.446	-0.170
-550.369	-63.783	0.384	-0.158
-549.354	-179.910	-0.923	0.020
-548.339	800.000	0.065	-0.213
-547.325	800.000	0.127	0.470
-546.310	403.528	-0.518	-1.092
-545.296	40.704	-0.763	-0.689
-544.281	-167.732	-0.364	-0.014
-543.266	-175.708	-0.257	-0.007
-542.252	96.696	-0.160	-0.184
-541.237	-8.491	-0.237	0.160
-540.223	-29.663	0.707	0.404
-539.208	800.000	0.045	-0.175
-538.193	-200.000	0.000	0.329
-537.179	800.000	-0.161	0.640
-536.164	-200.000	-0.184	0.930
-535.150	127.271	0.471	-0.598
-534.135	-128.004	0.482	0.069
-533.121	37.979	0.779	0.693
-532.106	-14.093	0.307	0.198
-531.091	591.590	-0.286	0.706
-530.077	760.539	0.177	0.482
-529.062	-57.383	0.316	0.139
-528.048	-17.447	0.416	-0.262
-527.033	148.752	-0.679	-0.919
-526.018	4.568	-0.506	0.372
-525.004	-200.000	0.020	-0.777
-523.989	-106.970	0.819	-0.181
-522.975	79.770	0.455	-0.489
-521.960	-141.318	0.335	-0.034
-520.945	102.558	-0.191	0.223
-519.931	214.534	-0.155	-0.245
-518.916	-38.689	-0.379	-0.200
-517.902	-147.684	0.201	0.017
-516.887	-171.350	-0.093	-0.003
-515.872	-200.000	-0.073	-0.381
-514.858	6.552	-0.254	0.189
-513.843	-200.000	-0.018	0.472
-512.829	-200.000	0.014	0.272
-511.814	800.000	-0.072	-0.297
-510.799	-137.786	0.461	-0.052
-509.785	488.995	-0.158	-0.361
-508.770	-122.033	-0.286	-0.047
-507.756	-123.119	0.738	-0.118
-506.741	800.000	0.057	0.217
-505.726	225.587	-0.345	0.560
-504.712	38.341	-0.448	0.399
-503.697	800.000	-0.176	0.494
-502.683	88.362	0.228	0.253
-501.668	734.867	-0.048	-0.128
-500.653	800.000	0.140	-0.452
-499.639	60.907	-0.506	0.502
-498.624	222.074	-0.084	0.135
-497.610	283.882	0.403	0.725
-496.595	125.458	0.072	0.091
-495.581	-11.471	0.298	-0.196
-494.566	224.334	-0.377	-0.609
-493.551	104.951	-0.276	0.325
-492.537	25.678	0.374	0.311
-491.522	-200.000	0.075	0.903
-490.508	800.000	-0.164	0.474
-489.493	357.533	-0.130	0.259
-488.478	63.580	0.338	-0.339
-487.464	-90.604	0.198	0.057
-486.449	571.874	0.201	-0.488
-485.435	-23.408	0.475	-0.285
-484.420	800.000	0.238	0.764
-483.405	71.312	-0.359	0.372
-482.391	-121.918	-0.337	0.055
-481.376	-83.655	-1.119	-0.357
-480.362	-112.982	0.558	0.110
-479.347	-74.650	-0.403	-0.145
-478.332	61.657	0.499	-0.496
-477.318	495.679	-0.103	0.237
-476.303	92.472	-0.250	-0.282
-475.289	62.347	-0.691	-0.689
-474.274	-85.976	0.370	-0.114
-473.259	800.000	-0.050	-0.202
-472.245	-200.000	-0.053	0.521
-471.230	-105.621	-0.351	0.079
-470.216	-140.533	0.183	-0.019
-469.201	422.474	-0.165	0.354
-468.186	147.416	-0.529	-0.711
-467.172	-58.539	-0.271	-0.117
-466.157	154.899	-0.215	-0.295
-465.143	-53.178	-1.150	0.527
-464.128	23.459	-0.464	-0.381
-463.113	800.000	-0.118	-0.508
-462.099	369.437	0.209	-0.422
-461.084	243.523	0.143	-0.239
-460.070	-200.000	0.002	-0.365
-459.055	59.768	0.769	0.758
-458.040	-200.000	0.165	0.852
-457.026	-145.599	-0.586	-0.052
-456.011	68.309	0.097	-0.099
-454.997	-78.300	0.762	0.261
-453.982	64.363	0.225	-0.226
-452.968	-200.000	0.120	0.936
-451.953	-200.000	-0.545	0.001
-450.938	-200.000	0.082	-0.832
-449.924	382.358	0.356	-0.730
-448.909	282.555	0.329	-0.590
-447.895	69.719	-0.219	0.225
-446.880	-90.691	0.375	0.108
-445.865	-200.000	-0.043	0.231
-444.851	800.000	0.209	0.645
-443.836	800.000	-0.112	-0.389
-442.822	769.397	-0.216	-0.585
-441.807	-8.409	0.294	0.197
-440.792	-200.000	0.051	0.259
-439.778	449.381	0.128	-0.282
-438.763	-200.000	-0.002	-0.539
-437.749	-181.078	0.302	0.006
-436.734	-62.421	0.458	0.190
-435.719	127.934	-0.484	-0.614
-434.705	-85.159	0.365	0.114
-433.690	-200.000	0.016	0.090
-432.676	83.577	-0.138	0.150
-431.661	108.128	-0.533	0.634
-430.646	660.834	-0.199	-0.511
-429.632	-137.334	-0.444	-0.050
-428.617	65.673	-0.246	0.249
-427.603	-97.465	-0.468	0.121
-426.588	-66.646	-0.374	-0.148
-425.573	-122.985	-0.743	0.119
-424.559	35.080	-0.175	-0.153
-423.544	-143.719	0.785	0.074
-422.530	-200.000	0.121	0.603
-421.515	767.141	-0.057	0.154
-420.500	-112.940	0.403	-0.079
-419.486	16.573	-0.711	0.560
-418.471	-55.294	-0.966	0.433
-417.457	-20.782	0.858	-0.524
-416.442	-135.890	0.685	0.080
-415.428	551.861	0.168	0.401
-414.413	-200.000	-0.016	-0.343
-413.398	558.034	0.210	-0.505
-412.384	800.000	-0.246	-0.716
-411.369	-168.739	-0.513	-0.019
-410.355	-105.732	0.416	-0.094
-409.340	-200.000	0.261	0.001
-408.325	-113.403	-0.578	-0.113
-407.311	-46.423	0.818	-0.400
-406.296	-200.000	-0.031	-0.276
-405.282	412.318	-0.206	-0.436
-404.267	552.547	-0.113	0.269
-403.252	-200.000	-0.128	1.089
-402.238	-75.433	0.988	-0.350
-401.223	31.535	-0.349	0.299
-400.209	76.135	-0.560	-0.590
-399.194	14.774	0.734	0.571
-398.179	-200.000	0.032	0.801
-397.165	-38.603	0.169	-0.089
-396.150	-200.000	-0.008	0.321
-395.136	800.000	-0.076	0.266
-394.121	-200.000	-0.010	-1.013
-393.106	-57.796	1.324	0.577
-392.092	3.566	-0.277	-0.201
-391.077	-61.161	0.406	-0.171
-390.063	-38.725	0.254	-0.134
-389.048	322.147	-0.224	0.424
-388.033	-7.673	-0.325	-0.218
-387.019	800.000	0.294	0.930
-386.004	-30.939	0.761	0.428
-384.990	800.000	-0.099	0.325
-383.975	-200.000	0.168	0.867
-382.960	-115.998	-0.090	-0.017
-381.946	93.936	-0.574	0.648
-380.931	-200.000	0.015	-0.462
-379.917	54.463	-0.112	-0.107
-378.902	32.675	-0.319	0.274
-377.888	73.222	-0.123	0.129
-376.873	422.397	0.250	0.535
-375.858	41.293	0.286	-0.257
-374.844	800.000	-0.131	-0.502
-373.829	-8.735	-0.227	-0.151
-372.815	-57.588	-0.771	-0.336
-371.800	-54.023	0.174	-0.079
-370.785	-5.608	-0.777	-0.530
-369.771	113.020	-0.267	0.321
-368.756	-5.885	-0.505	0.344
-367.742	47.184	0.227	-0.211
-366.727	117.497	-0.266	0.325
-365.712	359.994	0.292	0.580
-364.698	432.081	0.127	0.273
-363.683	-103.906	-0.663	0.154
-362.669	-200.000	-0.006	1.048
-361.654	-2.795	-0.204	0.142
-360.639	255.544	0.152	-0.258
-359.625	73.538	-0.048	-0.050
-358.610	25.931	0.745	-0.618
-357.596	-10.614	-0.076	-0.050
-356.581	410.396	0.285	0.601
-355.566	36.055	0.217	0.190
-354.552	800.000	-0.016	-0.060
-353.537	-177.623	0.180	-0.004
-352.523	-139.122	0.774	-0.083
-351.508	-200.000	-0.052	0.589
-350.493	-200.000	0.111	0.519
-349.479	397.523	-0.433	0.900
-348.464	-121.023	-0.245	-0.041
-347.450	-200.000	0.108	-0.486
-346.435	241.236	-0.169	-0.280
-345.420	-200.000	-0.033	0.171
-344.406	161.882	-0.153	-0.213
-343.391	-174.002	1.244	0.036
-342.377	-200.000	-0.091	0.530
-341.362	514.812	-0.356	0.825
-340.348	2.337	-0.357	0.257
-339.333	-200.000	-0.072	-0.550
-338.318	-50.505	-0.493	-0.231
-337.304	-105.129	0.395	-0.090
-336.289	-44.607	-0.502	0.249
-335.275	640.525	0.033	-0.082
-334.260	-37.967	-0.386	-0.204
-333.245	-92.142	0.314	0.088
-332.231	5.569	0.167	-0.122
-331.216	74.420	0.599	0.625
-330.202	-8.648	-0.358	0.239
-329.187	-21.331	0.414	-0.251
-328.172	800.000	-0.135	-0.388
-327.158	302.885	-0.469	-0.863
-326.143	95.487	-0.483	-0.547
-325.129	220.061	0.257	-0.409
-324.114	-167.541	-1.074	-0.043
-323.099	-134.764	-0.321	0.039
-322.085	-200.000	0.067	-0.672
-321.070	-68.732	-0.434	0.167
-320.056	-74.778	0.593	0.211
-319.041	96.025	-0.222	-0.252
-318.026	322.937	0.270	0.511
-317.012	698.067	0.207	0.541
-315.997	800.000	0.099	-0.369
-314.983	-25.154	-0.934	0.549
-313.968	-104.573	-0.678	-0.155
-312.953	800.000	-0.146	0.575
-311.939	324.846	0.332	0.629
-310.924	76.434	0.279	-0.294
-309.910	109.951	0.132	0.157
-308.895	59.091	0.498	-0.487
-307.880	351.316	0.084	-0.166
-306.866	-83.069	-0.213	0.068
-305.851	-83.088	0.165	-0.053
-304.837	23.304	-0.561	0.457
-303.822	-81.441	0.254	0.083
-302.807	648.866	-0.055	-0.138
-301.793	150.764	-0.329	0.444
-300.778	-79.211	0.354	-0.119
-299.764	-9.552	0.412	-0.272
-298.749	-103.864	-0.731	-0.170
-297.735	1.856	-0.329	0.235
-296.720	-112.729	-0.680	0.134
-295.705	-200.000	0.062	-0.418
-294.691	4.299	0.219	-0.159
-293.676	-162.289	0.154	-0.008
-292.662	512.297	-0.199	-0.460
-291.647	-168.086	0.139	0.005
-290.632	800.000	0.211	0.811
-289.618	35.002	-0.872	0.757
-288.603	-1.227	0.379	-0.266
-287.589	-115.034	-0.287	0.054
-286.574	98.630	0.395	-0.451
-285.559	636.133	0.178	-0.448
-284.545	151.561	0.327	0.441
-283.530	800.000	-0.225	0.644
-282.516	2.776	-0.522	-0.375
-281.501	-200.000	0.140	0.610
-280.486	61.703	-0.213	0.210
-279.472	-84.387	-0.639	0.200
-278.457	-200.000	0.057	0.497
-277.443	159.543	-0.287	-0.395
-276.428	132.202	0.170	0.218
-275.413	156.007	-0.408	0.557
-274.399	318.763	-0.085	-0.160
-273.384	-92.720	0.458	0.127
-272.370	800.000	0.060	-0.203
-271.355	623.704	0.114	0.284
-270.340	217.650	-0.503	-0.794
-269.326	19.719	-0.279	-0.223
-268.311	-28.493	0.486	-0.278
-267.297	-88.436	0.062	0.018
-266.282	761.715	-0.339	0.911
-265.267	-193.966	0.393	-0.003
-264.253	-120.737	0.437	-0.073
-263.238	32.209	-0.362	-0.310
-262.224	-79.024	-0.897	-0.302
-261.209	24.187	0.486	0.398
-260.195	-115.274	0.492	-0.092
-259.180	-134.182	0.950	-0.116
-258.165	0.672	-0.404	0.286
-257.151	138.132	0.511	0.664
-256.136	-46.599	-0.613	-0.297
-255.122	-113.708	0.432	0.083
-254.107	800.000	0.051	-0.174
-253.092	-96.052	-0.123	0.032
-252.078	22.987	-0.243	-0.198
-251.063	-200.000	0.004	-0.323
-250.049	-200.000	0.073	-0.322
-249.034	161.769	0.213	0.295
-248.019	-200.000	0.058	-0.852
-247.005	-59.929	-0.648	0.274
-245.990	147.443	-0.265	-0.353
-244.976	-111.177	-0.497	-0.101
-243.961	107.927	-0.670	0.790
-242.946	-148.081	0.594	0.049
-241.932	533.431	0.373	-0.873
-240.917	-200.000	0.046	-0.567
-239.903	73.560	-0.563	0.584
-238.888	-146.609	0.575	0.049
-237.873	105.944	0.210	-0.245
-236.859	735.438	0.067	-0.177
-235.844	800.000	-0.184	-0.514
-234.830	-135.845	-0.687	-0.080
-233.815	-200.000	-0.011	0.131
-232.800	800.000	0.129	-0.409
-231.786	800.000	0.321	-0.909
-230.771	-200.000	0.056	-0.895
-229.757	800.000	0.154	-0.505
-228.742	236.281	-0.404	-0.661
-227.727	88.406	0.289	-0.317
-226.713	581.915	0.322	0.780
-225.698	-200.000	-0.059	0.386
-224.684	-5.984	0.434	-0.294
-223.669	-200.000	0.051	0.252
-222.655	82.478	-0.348	-0.374
-221.640	800.000	0.314	1.081
-220.625	800.000	-0.150	-0.488
-219.611	324.625	-0.098	-0.186
-218.596	-200.000	0.023	0.426
-217.582	36.922	0.256	0.224
-216.567	-200.000	0.047	-0.463
-215.552	-200.000	0.117	-0.792
-214.538	-200.000	-0.023	0.246
-213.523	800.000	0.173	0.564
-212.509	493.503	0.324	-0.736
-211.494	1.554	0.139	0.099
-210.479	-200.000	-0.067	-0.958
-209.465	-200.000	-0.002	-0.151
-208.450	243.340	-0.519	0.860
-207.436	-200.000	-0.012	0.137
-206.421	-92.103	-0.579	-0.162
-205.406	462.657	-0.169	0.373
-204.392	282.186	-0.281	0.498
-203.377	-32.095	0.664	-0.367
-202.363	-200.000	-0.031	-0.227
-201.348	800.000	0.309	-0.863
-200.333	-90.670	0.596	0.170
-199.319	574.822	-0.314	-0.757
-198.304	788.773	0.058	0.158
-197.290	-59.374	0.236	0.100
-196.275	793.837	0.186	0.505
-195.260	50.972	-0.152	-0.142
-194.246	-200.000	0.099	0.892
-193.231	16.783	-0.269	-0.210
-192.217	-200.000	0.093	-0.565
-191.202	-42.201	-0.505	0.255
-190.187	70.341	0.311	0.317
-189.173	59.077	-0.160	-0.155
-188.158	-200.000	0.091	-0.867
-187.144	-200.000	0.028	-0.451
-186.129	799.176	-0.120	0.326
-185.114	-26.306	0.277	0.160
-184.100	-142.894	-0.340	0.033
-183.085	171.629	-0.335	0.475
-182.071	-200.000	-0.078	0.882
-181.056	1.138	-0.310	0.220
-180.042	-14.242	-0.585	-0.372
-179.027	-34.762	0.322	0.174
-178.012	360.999	-0.199	-0.393
-176.998	-52.972	1.037	0.471
-175.983	-34.464	-0.188	0.101
-174.969	-122.808	0.423	-0.067
-173.954	800.000	0.109	0.399
-172.939	134.574	-0.225	-0.288
-171.925	64.406	0.367	0.365
-170.910	800.000	-0.105	0.347
-169.896	-146.766	0.336	-0.029
-168.881	-64.857	-0.502	-0.201
-167.866	-200.000	-0.065	-0.281
-166.852	800.000	0.148	0.636
-165.837	22.044	0.283	-0.228
-164.823	198.330	0.371	0.560
-163.808	-54.973	-0.504	0.224
-162.793	-136.524	-0.592	0.068
-161.779	-56.295	0.901	-0.395
-160.764	635.976	0.110	0.275
-159.750	-140.016	-0.754	0.078
-158.735	183.222	0.419	-0.611
-157.720	57.983	-0.126	-0.122
-156.706	-200.000	0.022	-0.327
-155.691	-45.430	0.482	0.236
-154.677	22.035	-0.306	0.246
-153.662	-15.130	0.016	-0.010
-152.647	-200.000	-0.030	-0.436
-151.633	767.828	0.252	-0.676
-150.618	161.940	-0.255	0.352
-149.604	-50.527	0.376	0.175
-148.589	-55.711	0.424	0.187
-147.574	226.317	-0.373	-0.597
-146.560	-75.228	0.296	0.104
-145.545	-102.551	-0.745	-0.176
-144.531	96.529	0.525	-0.592
-143.516	98.201	-0.357	-0.405
-142.502	243.010	0.635	-1.049
-141.487	-16.508	-0.325	0.203
-140.472	-15.015	0.193	-0.122
-139.458	197.647	0.218	0.328
-138.443	-94.232	0.343	-0.092
-137.429	33.238	-0.599	-0.512
-136.414	0.445	-0.454	0.320
-135.399	129.927	0.215	-0.271
-134.385	67.203	-0.511	-0.513
-133.370	-200.000	-0.063	-0.336
-132.356	42.707	-0.314	-0.282
-131.341	-39.302	0.438	0.227
-130.326	-200.000	0.019	0.569
-129.312	-200.000	-0.097	-0.761
-128.297	-200.000	-0.003	-0.370
-127.283	505.078	-0.251	0.573
-126.268	80.916	-0.289	0.307
-125.253	126.689	-0.075	0.094
-124.239	83.388	0.354	-0.380
-123.224	692.877	0.225	-0.581
-122.210	800.000	0.094	0.258
-121.195	549.964	-0.116	0.274
