DTS Sentinel unit serial number:	SN413079Multiplexer serial number:	ORYXHardware model number:	OX4-SRSoftware version number:	ORYX F/W v4.00 Oryx Data Collector v3.7.2.0data status	okinstallation	princeton_trtdifferential loss correction	single-endedforward channel	channel 1reverse channel	N/Adate	2019/09/16time	02:42:35forward acquisition time	60.00reverse acquisition time	0.00gamma	496.2192k internal	0.2331k external	0.2331temperature offset calibration	0.9976default loss term (dB/km)	0.3790temperature slope calibration	1.0000multiplexer offset coefficient	1.0000multiplexer slope coefficient	1.0000fibre end	0.00T internal ref (°C)	27.75T ext. ref 1 (°C)	10.33T ext. ref 2 (°C)	22.41length (m)	temperature (°C)	Stokes	anti-Stokes-747.200	242.854	-0.052	0.087
-746.185	70.019	-0.298	0.309
-745.171	-200.000	0.030	0.251
-744.156	-200.000	-0.054	0.255
-743.142	403.050	-0.078	0.165
-742.127	800.000	-0.067	0.206
-741.112	-42.756	0.164	-0.084
-740.098	72.830	-0.080	0.084
-739.083	800.000	-0.025	-0.104
-738.069	13.901	-0.526	0.412
-737.054	45.312	-0.261	0.243
-736.039	-124.398	0.233	-0.037
-735.025	231.221	-0.167	-0.275
-734.010	-145.277	0.097	0.009
-732.996	-200.000	-0.012	-0.310
-731.981	55.693	-0.214	0.208
-730.966	-150.685	-0.186	0.014
-729.952	71.876	-0.133	0.140
-728.937	-17.192	-0.101	-0.064
-727.923	26.009	0.130	0.109
-726.908	11.968	-0.237	-0.183
-725.894	21.335	-0.299	-0.245
-724.879	800.000	0.033	0.096
-723.864	-140.527	0.110	0.011
-722.850	383.792	-0.075	-0.155
-721.835	139.304	-0.080	-0.106
-720.821	-65.006	0.202	-0.082
-719.806	368.593	-0.153	-0.311
-718.791	-87.658	0.171	-0.052
-717.777	119.618	-0.243	0.303
-716.762	10.348	-0.107	0.082
-715.748	-17.756	0.122	-0.077
-714.733	13.911	-0.324	-0.253
-713.718	-200.000	-0.049	-0.323
-712.704	-200.000	0.040	0.427
-711.689	389.866	-0.141	0.295
-710.675	2.725	0.022	0.016
-709.660	-98.478	0.157	0.040
-708.645	104.647	-0.204	-0.242
-707.631	800.000	-0.036	0.133
-706.616	497.280	0.043	-0.100
-705.602	-200.000	-0.087	0.493
-704.587	-200.000	-0.037	0.221
-703.572	800.000	-0.069	-0.236
-702.558	-70.977	-0.337	-0.128
-701.543	-200.000	0.154	0.000
-700.529	800.000	0.109	-0.400
-699.514	181.013	-0.323	0.477
-698.499	-68.832	-0.138	0.053
-697.485	107.360	0.250	-0.299
-696.470	800.000	0.143	0.401
-695.456	-170.674	-0.243	-0.008
-694.441	-46.896	-0.138	0.068
-693.426	-110.918	-0.267	0.055
-692.412	-81.711	0.296	-0.098
-691.397	30.105	0.307	-0.263
-690.383	-76.140	-0.272	-0.096
-689.368	800.000	0.080	-0.340
-688.354	273.639	-0.129	-0.228
-687.339	82.002	-0.043	0.047
-686.324	160.239	-0.113	-0.158
-685.310	549.761	-0.051	0.122
-684.295	-178.750	0.104	0.002
-683.281	37.745	0.184	-0.164
-682.266	-200.000	-0.014	0.065
-681.251	256.132	0.008	-0.014
-680.237	1.839	-0.185	-0.134
-679.222	430.605	0.211	-0.459
-678.208	-38.943	0.233	-0.123
-677.193	-200.000	-0.030	-0.162
-676.178	-200.000	0.050	-0.294
-675.164	240.679	-0.073	-0.123
-674.149	197.638	-0.240	0.368
-673.135	13.735	0.420	0.327
-672.120	31.744	-0.361	-0.312
-671.105	-91.320	0.133	0.038
-670.091	5.433	-0.073	-0.054
-669.076	209.469	-0.148	-0.233
-668.062	86.514	-0.105	0.116
-667.047	434.495	0.056	-0.123
-666.032	-60.126	-0.293	0.126
-665.018	-106.477	0.449	0.101
-664.003	-200.000	0.000	-0.235
-662.989	-63.814	-0.486	0.200
-661.974	-200.000	0.044	0.261
-660.959	-33.873	0.210	-0.116
-659.945	800.000	0.030	0.087
-658.930	47.565	0.030	0.028
-657.916	-123.726	0.256	0.041
-656.901	-134.188	0.189	-0.023
-655.886	213.013	-0.067	0.106
-654.872	-200.000	-0.006	-0.277
-653.857	138.110	-0.086	-0.113
-652.843	-7.539	-0.070	-0.048
-651.828	800.000	0.098	-0.403
-650.814	-89.278	-0.068	-0.020
-649.799	78.321	0.166	0.177
-648.784	-1.321	0.224	-0.159
-647.770	60.655	0.117	0.117
-646.755	-200.000	0.061	0.320
-645.741	-200.000	-0.006	0.278
-644.726	-200.000	-0.012	0.252
-643.711	-98.487	-0.187	-0.048
-642.697	-200.000	0.012	-0.133
-641.682	-200.000	0.013	-0.271
-640.668	-200.000	0.003	0.156
-639.653	62.078	0.046	0.046
-638.638	310.437	-0.224	0.420
-637.624	107.134	-0.278	-0.331
-636.609	-32.179	-0.127	-0.071
-635.595	248.315	0.046	-0.079
-634.580	-48.100	0.265	0.128
-633.565	-43.902	-0.225	0.113
-632.551	-193.587	-0.039	0.000
-631.536	262.050	0.072	0.126
-630.522	254.490	0.131	0.225
-629.507	-178.715	0.304	-0.007
-628.492	-200.000	0.032	-0.145
-627.478	-45.863	-0.134	0.066
-626.463	-133.381	0.316	0.040
-625.449	12.576	-0.158	0.122
-624.434	-6.765	0.094	-0.064
-623.419	-10.337	-0.117	-0.077
-622.405	800.000	0.062	0.218
-621.390	243.858	-0.089	0.149
-620.376	-171.224	0.210	-0.007
-619.361	92.435	-0.047	0.053
-618.346	-200.000	0.031	-0.356
-617.332	-200.000	-0.005	0.226
-616.317	-200.000	0.007	-0.032
-615.303	-12.641	-0.206	0.134
-614.288	181.050	0.091	0.133
-613.273	-200.000	0.016	0.127
-612.259	-62.562	0.156	0.065
-611.244	-94.607	-0.218	0.059
-610.230	-113.636	-0.267	0.052
-609.215	630.472	0.079	0.201
-608.201	-200.000	-0.046	-0.351
-607.186	-15.996	0.132	-0.084
-606.171	94.056	0.176	0.200
-605.157	-126.534	-0.045	0.007
-604.142	29.459	0.156	0.133
-603.128	-200.000	0.023	-0.226
-602.113	-200.000	0.044	-0.327
-601.098	71.391	-0.131	0.136
-600.084	159.286	0.047	0.066
-599.069	-200.000	0.028	0.296
-598.055	-200.000	0.028	-0.271
-597.040	-9.439	-0.056	-0.037
-596.025	310.985	-0.104	0.194
-595.011	-137.339	-0.153	0.017
-593.996	225.159	-0.109	0.177
-592.982	-23.279	-0.152	-0.091
-591.967	-86.659	-0.044	0.014
-590.952	2.138	0.210	0.152
-589.938	-74.229	-0.197	0.071
-588.923	161.226	-0.194	0.271
-587.909	800.000	0.028	-0.100
-586.894	79.583	-0.198	-0.213
-585.879	202.445	0.034	0.052
-584.865	-9.211	-0.263	0.176
-583.850	167.112	-0.206	-0.292
-582.836	263.637	-0.047	-0.082
-581.821	28.976	-0.232	0.196
-580.806	-54.298	0.150	0.068
-579.792	-75.030	0.331	-0.119
-578.777	-160.388	0.160	0.009
-577.763	-8.591	-0.189	0.127
-576.748	-118.374	0.301	-0.053
-575.733	-130.770	-0.257	0.034
-574.719	87.933	-0.055	-0.061
-573.704	-131.005	0.282	-0.038
-572.690	66.665	-0.247	0.251
-571.675	-71.941	-0.229	0.085
-570.661	-17.340	-0.148	0.093
-569.646	201.818	0.150	-0.231
-568.631	-114.072	-0.378	0.073
-567.617	-87.857	-0.302	-0.091
-566.602	155.097	-0.037	-0.051
-565.588	-200.000	-0.016	-0.083
-564.573	-97.796	-0.457	-0.118
-563.558	674.862	-0.147	-0.381
-562.544	-200.000	0.066	-0.396
-561.529	138.539	0.173	0.227
-560.515	-32.205	-0.223	-0.124
-559.500	90.915	-0.099	0.111
-558.485	-42.678	0.122	-0.062
-557.471	-91.458	-0.170	-0.048
-556.456	308.071	0.080	-0.149
-555.442	-119.468	0.172	-0.030
-554.427	160.474	0.157	0.219
-553.412	174.107	-0.235	0.339
-552.398	-40.967	0.371	-0.191
-551.383	557.888	-0.020	-0.048
-550.369	-200.000	-0.014	-0.454
-549.354	-200.000	0.002	-0.090
-548.339	-41.049	0.111	-0.057
-547.325	-200.000	0.007	0.058
-546.310	287.947	-0.238	0.430
-545.296	-131.573	0.180	-0.024
-544.281	800.000	-0.058	-0.237
-543.266	265.877	-0.078	-0.135
-542.252	-127.660	-0.121	-0.018
-541.237	-61.867	0.177	0.074
-540.223	59.122	-0.041	-0.040
-539.208	35.748	-0.076	-0.067
-538.193	-128.284	0.163	0.023
-537.179	-81.182	0.237	-0.078
-536.164	34.723	-0.112	-0.097
-535.150	800.000	-0.047	0.142
-534.135	-7.905	0.163	-0.110
-533.121	-87.697	0.054	-0.016
-532.106	575.449	0.140	-0.341
-531.091	657.768	-0.141	-0.361
-530.077	-25.199	0.072	-0.042
-529.062	-104.995	-0.114	0.026
-528.048	-42.766	0.493	-0.250
-527.033	69.176	0.100	-0.103
-526.018	-200.000	-0.062	-0.331
-525.004	18.834	-0.133	0.106
-523.989	-200.000	-0.005	0.147
-522.975	87.032	-0.444	0.490
-521.960	-200.000	0.005	0.085
-520.945	-23.771	-0.066	0.039
-519.931	42.423	-0.187	0.169
-518.916	181.394	0.191	-0.281
-517.902	30.457	-0.171	-0.146
-516.887	-200.000	0.025	0.193
-515.872	63.764	-0.013	-0.013
-514.858	-63.469	0.382	0.157
-513.843	-107.803	-0.298	0.065
-512.829	196.402	0.189	-0.288
-511.814	-200.000	0.036	-0.223
-510.799	-73.888	0.303	0.110
-509.785	37.288	-0.099	0.088
-508.770	-81.935	-0.100	-0.032
-507.756	-200.000	0.005	-0.248
-506.741	66.440	-0.194	0.196
-505.726	141.681	0.165	0.217
-504.712	-122.375	-0.213	0.035
-503.697	-92.643	-0.420	-0.117
-502.683	-53.792	0.133	0.060
-501.668	37.928	0.158	0.140
-500.653	5.962	-0.173	-0.128
-499.639	7.850	0.253	-0.189
-498.624	-200.000	-0.010	-0.177
-497.610	-106.551	0.325	-0.072
-496.595	-200.000	0.035	0.160
-495.581	-94.755	-0.326	0.088
-494.566	-135.136	0.235	0.028
-493.551	-44.220	-0.254	0.127
-492.537	-113.970	0.317	-0.061
-491.522	337.201	0.034	0.065
-490.508	800.000	0.075	-0.241
-489.493	34.379	0.059	-0.052
-488.478	28.745	-0.184	-0.155
-487.464	-105.037	-0.169	-0.039
-486.449	-38.680	0.078	-0.041
-485.435	800.000	0.094	0.352
-484.420	800.000	-0.124	-0.536
-483.405	-200.000	-0.056	0.437
-482.391	800.000	-0.090	0.309
-481.376	202.055	0.126	-0.194
-480.362	34.747	0.114	-0.100
-479.347	-0.582	-0.154	0.109
-478.332	-74.441	-0.294	0.106
-477.318	800.000	-0.056	0.193
-476.303	800.000	-0.056	0.207
-475.289	-83.951	-0.272	-0.086
-474.274	24.934	0.173	-0.143
-473.259	-200.000	0.053	-0.421
-472.245	52.496	-0.218	0.207
-471.230	202.052	0.187	0.287
-470.216	134.151	-0.101	-0.130
-469.201	58.522	-0.259	-0.253
-468.186	-200.000	0.085	-0.382
-467.172	145.987	0.119	0.159
-466.157	-14.490	-0.085	0.054
-465.143	-200.000	0.004	-0.044
-464.128	120.356	0.142	0.175
-463.113	90.546	-0.136	-0.152
-462.099	43.056	-0.090	0.081
-461.084	800.000	-0.003	0.010
-460.070	-60.507	0.215	0.091
-459.055	-21.424	0.083	0.050
-458.040	70.799	-0.139	0.143
-457.026	30.945	0.176	-0.150
-456.011	-170.219	-0.181	-0.006
-454.997	95.643	0.114	0.129
-453.982	64.220	0.101	0.102
-452.968	-200.000	-0.085	-0.441
-451.953	298.698	-0.083	0.153
-450.938	-57.558	0.201	-0.088
-449.924	800.000	-0.052	0.159
-448.909	-42.797	0.142	-0.072
-447.895	34.603	-0.063	0.055
-446.880	-48.344	0.228	-0.109
-445.865	800.000	-0.019	-0.069
-444.851	800.000	-0.070	-0.210
-443.836	800.000	-0.052	0.205
-442.822	-200.000	0.063	0.552
-441.807	-65.366	-0.170	-0.068
-440.792	24.558	-0.114	0.094
-439.778	800.000	-0.049	0.179
-438.763	-200.000	-0.048	-0.238
-437.749	-107.875	0.309	0.067
-436.734	415.101	0.056	-0.118
-435.719	291.097	0.181	-0.328
-434.705	-35.644	-0.129	0.070
-433.690	10.098	0.057	-0.043
-432.676	43.967	0.185	0.169
-431.661	-200.000	-0.042	-0.325
-430.646	800.000	-0.038	-0.120
-429.632	68.854	0.176	-0.179
-428.617	-105.578	0.061	0.014
-427.603	-200.000	0.017	0.084
-426.588	800.000	-0.104	-0.320
-425.573	-132.233	-0.419	0.054
-424.559	-200.000	0.006	-0.222
-423.544	-8.738	0.365	-0.243
-422.530	-51.709	0.240	0.111
-421.515	710.223	0.006	0.016
-420.500	171.758	-0.117	-0.167
-419.486	-27.177	-0.148	0.086
-418.471	800.000	0.067	0.258
-417.457	-200.000	-0.002	0.044
-416.442	-135.492	-0.313	0.037
-415.428	-16.391	0.211	0.133
-414.413	-41.640	-0.244	0.124
-413.398	-88.797	0.428	-0.126
-412.384	42.216	-0.319	-0.288
-411.369	800.000	0.049	-0.199
-410.355	-200.000	-0.023	0.103
-409.340	-200.000	0.021	-0.209
-408.325	-89.604	-0.039	0.011
-407.311	800.000	-0.087	-0.244
-406.296	-45.289	0.375	-0.185
-405.282	-200.000	-0.012	0.051
-404.267	-200.000	-0.060	-0.404
-403.252	-15.539	-0.291	-0.184
-402.238	-57.295	0.449	0.196
-401.223	-3.849	0.119	-0.082
-400.209	234.848	-0.076	-0.125
-399.194	124.480	0.212	0.265
-398.179	-144.911	-0.103	-0.009
-397.165	-14.623	0.195	0.125
-396.150	188.397	-0.064	0.095
-395.136	800.000	-0.066	-0.216
-394.121	-63.719	-0.045	0.018
-393.106	-200.000	0.049	-0.294
-392.092	-47.405	-0.146	0.070
-391.077	800.000	-0.088	-0.309
-390.063	-13.745	0.166	-0.107
-389.048	19.645	0.032	0.025
-388.033	138.523	-0.304	0.396
-387.019	-9.807	0.137	0.090
-386.004	267.900	0.058	0.102
-384.990	83.743	0.147	0.160
-383.975	-114.853	0.294	-0.056
-382.960	-117.027	0.222	-0.040
-381.946	-175.506	-0.143	0.004
-380.931	-200.000	0.018	0.104
-379.917	207.863	-0.017	-0.027
-378.902	-57.396	-0.183	-0.080
-377.888	652.880	0.075	-0.191
-376.873	-15.467	0.381	0.241
-375.858	-200.000	-0.004	-0.238
-374.844	14.559	-0.189	0.147
-373.829	-200.000	0.003	0.178
-372.815	-97.535	-0.172	-0.044
-371.800	-156.621	-0.036	-0.002
-370.785	47.390	-0.058	0.053
-369.771	683.352	-0.076	-0.197
-368.756	800.000	0.047	-0.161
-367.742	-178.176	0.254	0.006
-366.727	141.889	-0.114	0.150
-365.712	-200.000	-0.045	0.327
-364.698	-119.084	0.140	-0.024
-363.683	800.000	0.026	0.111
-362.669	-87.344	-0.226	0.068
-361.654	400.388	-0.152	0.316
-360.639	800.000	0.032	0.101
-359.625	-176.267	-0.137	-0.004
-358.610	140.147	-0.233	-0.304
-357.596	-10.550	0.367	-0.241
-356.581	800.000	-0.115	-0.346
-355.566	-193.641	0.052	-0.000
-354.552	74.332	-0.327	-0.340
-353.537	-200.000	-0.030	0.190
-352.523	87.293	0.092	-0.101
-351.508	-50.492	-0.116	0.054
-350.493	-200.000	-0.056	-0.274
-349.479	-200.000	-0.091	-0.428
-348.464	-51.384	-0.256	0.118
-347.450	586.757	0.072	0.175
-346.435	80.207	0.205	0.218
-345.420	433.596	0.137	-0.295
-344.406	-200.000	0.009	0.178
-343.391	-200.000	-0.001	0.182
-342.377	800.000	-0.115	-0.370
-341.362	-3.078	0.258	0.178
-340.348	52.606	0.207	0.195
-339.333	79.146	-0.117	0.124
-338.318	-29.733	-0.100	0.056
-337.304	-200.000	-0.026	-0.498
-336.289	-40.298	-0.174	0.090
-335.275	-200.000	0.006	-0.076
-334.260	800.000	-0.066	0.212
-333.245	-105.636	-0.235	-0.053
-332.231	-109.297	-0.110	-0.023
-331.216	56.309	0.099	-0.095
-330.202	75.669	-0.177	-0.185
-329.187	-73.581	0.212	-0.077
-328.172	-154.340	0.370	0.025
-327.158	386.870	0.185	0.378
-326.143	533.831	0.126	-0.297
-325.129	-59.149	0.259	0.110
-324.114	27.872	-0.235	-0.196
-323.099	86.928	0.084	0.092
-322.085	-200.000	0.013	-0.148
-321.070	-200.000	-0.023	0.550
-320.056	800.000	-0.072	0.224
-319.041	-96.506	-0.237	0.062
-318.026	-69.364	-0.226	0.086
-317.012	-145.025	0.398	-0.036
-315.997	-158.543	-0.315	0.018
-314.983	349.159	0.027	-0.052
-313.968	-200.000	0.005	0.302
-312.953	-130.261	-0.280	-0.038
-311.939	-135.578	0.260	0.031
-310.924	9.667	-0.254	0.191
-309.910	-151.027	0.302	-0.023
-308.895	178.112	0.098	0.141
-307.880	-121.898	-0.130	0.021
-306.866	-132.032	0.244	-0.031
-305.851	190.641	-0.085	0.126
-304.837	-35.940	-0.307	-0.164
-303.822	-66.191	0.078	-0.031
-302.807	800.000	0.079	-0.220
-301.793	11.546	-0.029	0.022
-300.778	-200.000	-0.007	0.072
-299.764	-111.205	0.164	0.033
-298.749	55.612	-0.094	-0.090
-297.735	-56.460	-0.515	-0.226
-296.720	225.468	-0.098	0.157
-295.705	-100.460	-0.078	0.019
-294.691	137.430	0.111	0.144
-293.676	800.000	0.043	-0.158
-292.662	-15.350	0.076	0.048
-291.647	-200.000	-0.020	0.108
-290.632	-18.451	0.025	-0.015
-289.618	33.405	0.271	0.233
-288.603	-138.815	-0.186	-0.020
-287.589	-118.453	-0.286	0.050
-286.574	800.000	0.117	0.387
-285.559	732.416	0.077	-0.204
-284.545	-71.746	-0.132	-0.049
-283.530	3.872	-0.214	-0.154
-282.516	-24.630	-0.051	-0.030
-281.501	109.969	0.230	0.273
-280.486	-200.000	-0.013	0.097
-279.472	40.625	0.131	-0.116
-278.457	-33.516	0.205	-0.112
-277.443	423.255	0.149	0.317
-276.428	-128.966	0.095	0.013
-275.413	250.825	-0.092	0.155
-274.399	-122.500	-0.139	-0.022
-273.384	-200.000	0.038	0.243
-272.370	-74.344	0.213	0.076
-271.355	0.059	0.083	0.058
-270.340	343.332	0.042	0.082
-269.326	-8.268	0.166	-0.110
-268.311	169.575	0.131	0.185
-267.297	-200.000	0.026	0.227
-266.282	-102.355	-0.059	-0.014
-265.267	-200.000	-0.017	0.077
-264.253	724.534	-0.109	0.288
-263.238	-42.115	0.206	-0.104
-262.224	-200.000	-0.021	-0.189
-261.209	-200.000	0.061	-0.317
-260.195	33.693	0.109	0.094
-259.180	-86.301	-0.223	-0.068
-258.165	-5.145	-0.340	-0.231
-257.151	-200.000	0.027	0.141
-256.136	-3.959	-0.121	-0.083
-255.122	14.669	0.158	-0.122
-254.107	159.072	-0.167	-0.229
-253.092	249.763	-0.156	-0.262
-252.078	-95.095	0.211	0.056
-251.063	83.250	0.063	-0.067
-250.049	182.798	-0.112	-0.163
-249.034	-29.725	0.095	0.054
-248.019	185.021	0.061	-0.090
-247.005	800.000	0.101	0.304
-245.990	42.232	-0.050	-0.045
-244.976	23.468	-0.160	0.130
-243.961	-200.000	0.012	0.488
-242.946	38.619	0.254	0.224
-241.932	456.190	0.126	-0.277
-240.917	224.402	0.218	0.347
-239.903	77.773	0.185	0.194
-238.888	58.802	-0.071	0.069
-237.873	339.639	0.146	-0.281
-236.859	792.043	0.033	-0.089
-235.844	-67.178	-0.329	-0.128
-234.830	359.623	-0.063	0.124
-233.815	800.000	-0.054	0.166
-232.800	663.048	0.091	0.230
-231.786	38.097	0.041	0.036
-230.771	342.107	0.075	-0.144
-229.757	-200.000	-0.037	0.190
-228.742	-122.717	0.163	-0.026
-227.727	-190.084	0.216	0.002
-226.713	65.386	-0.200	-0.200
-225.698	-53.941	0.149	0.067
-224.684	800.000	0.087	-0.243
-223.669	-154.562	-0.437	-0.029
-222.655	10.171	0.303	-0.227
-221.640	-200.000	-0.009	-0.043
-220.625	683.572	-0.027	-0.070
-219.611	149.382	0.073	0.097
-218.596	-163.625	0.367	0.017
-217.582	-44.016	-0.093	-0.046
-216.567	-31.124	-0.034	-0.019
-215.552	20.547	-0.157	0.125
-214.538	-113.279	-0.152	0.029
-213.523	-200.000	0.022	-0.170
-212.509	284.289	0.156	0.277
-211.494	-200.000	-0.012	-0.156
-210.479	-29.166	-0.177	0.100
-209.465	-50.054	-0.121	-0.057
-208.450	-94.347	0.387	-0.104
-207.436	-11.367	0.386	-0.251
-206.421	-103.385	-0.370	0.086
-205.406	-168.805	0.427	-0.016
-204.392	-200.000	-0.037	-0.215
-203.377	1.889	0.273	0.194
-202.363	340.038	-0.130	0.250
-201.348	142.012	0.071	0.093
-200.333	-22.239	-0.151	0.090
-199.319	-72.894	0.207	0.075
-198.304	-66.070	-0.113	0.044
-197.290	-200.000	0.003	-0.308
-196.275	-93.923	0.092	-0.025
-195.260	800.000	0.044	0.136
-194.246	-128.060	-0.281	-0.040
-193.231	88.536	0.128	-0.141
-192.217	126.288	0.035	-0.043
-191.202	-117.236	0.315	-0.056
-190.187	169.348	0.146	0.205
-189.173	800.000	0.087	0.347
-188.158	-200.000	0.030	0.194
-187.144	678.838	-0.120	0.307
-186.129	-200.000	-0.009	0.044
-185.114	229.787	-0.090	-0.145
-184.100	366.498	0.069	-0.138
-183.085	271.495	0.042	-0.072
-182.071	20.121	0.133	0.106
-181.056	-171.781	-0.166	0.005
-180.042	367.568	-0.130	0.259
-179.027	121.371	-0.101	-0.124
-178.012	-200.000	0.000	-0.019
-176.998	110.193	0.284	-0.335
-175.983	33.810	-0.297	-0.254
-174.969	-128.413	0.122	0.017
-173.954	496.561	0.114	-0.258
-172.939	65.404	0.180	-0.179
-171.925	175.891	-0.101	0.144
-170.910	-51.625	0.167	0.077
-169.896	603.390	-0.115	0.280
-168.881	336.924	-0.103	0.197
-167.866	122.401	0.195	0.239
-166.852	5.649	0.135	-0.099
-165.837	595.430	-0.139	-0.339
-164.823	-200.000	-0.048	-0.424
-163.808	-100.574	0.167	-0.041
-162.793	-152.900	0.286	-0.020
-161.779	58.855	-0.180	-0.174
-160.764	-54.887	0.219	0.097
-159.750	161.710	-0.213	-0.293
-158.735	362.920	-0.268	0.529
-157.720	-200.000	0.010	-0.243
-156.706	-89.033	-0.214	0.062
-155.691	-200.000	-0.031	0.190
-154.677	-93.923	-0.425	0.115
-153.662	-31.683	-0.240	0.132
-152.647	28.025	0.165	-0.137
-151.633	-107.485	-0.252	-0.054
-150.618	258.369	-0.035	0.059
-149.604	148.254	0.157	0.208
-148.589	-13.177	0.095	-0.060
-147.574	92.157	-0.231	-0.255
-146.560	186.700	0.175	-0.256
-145.545	158.406	0.117	0.160
-144.531	119.481	0.170	0.207
-143.516	-83.103	0.267	0.084
-142.502	-200.000	-0.059	0.428
-141.487	0.770	-0.350	0.246
-140.472	60.274	0.231	0.225
-139.458	417.598	-0.123	0.258
-138.443	234.768	0.073	0.118
-137.429	-137.531	0.265	0.029
-136.414	-97.004	0.160	0.041
-135.399	-116.545	0.165	0.030
-134.385	-79.826	-0.357	-0.118
-133.370	-1.694	-0.101	-0.070
-132.356	25.814	0.154	0.126
-131.341	168.384	-0.153	-0.214
-130.326	-200.000	0.040	0.225
-129.312	-34.141	-0.165	-0.089
-128.297	800.000	0.094	-0.323
-127.283	-76.520	-0.288	-0.100
-126.268	-200.000	0.021	0.393
-125.253	345.999	-0.086	-0.166
-124.239	800.000	0.096	-0.343
-123.224	-79.979	0.096	-0.032
-122.210	19.420	0.190	-0.150
-121.195	792.466	-0.004	-0.010
-120.180	454.046	0.107	0.234
