DTS Sentinel unit serial number:	SN413079Multiplexer serial number:	ORYXHardware model number:	OX4-SRSoftware version number:	ORYX F/W v4.00 Oryx Data Collector v3.7.2.0data status	okinstallation	princeton_trtdifferential loss correction	single-endedforward channel	channel 1reverse channel	N/Adate	2019/09/15time	10:26:35forward acquisition time	60.00reverse acquisition time	0.00gamma	496.2192k internal	0.2309k external	0.2309temperature offset calibration	0.9989default loss term (dB/km)	0.3790temperature slope calibration	1.0000multiplexer offset coefficient	1.0000multiplexer slope coefficient	1.0000fibre end	0.00T internal ref (°C)	34.25T ext. ref 1 (°C)	5.04T ext. ref 2 (°C)	29.48length (m)	temperature (°C)	Stokes	anti-Stokes-747.200	-160.347	-0.156	-0.009
-746.185	-171.952	-0.458	0.015
-745.171	-200.000	0.010	-0.179
-744.156	-114.177	-0.128	0.025
-743.142	182.335	-0.205	0.307
-742.127	-92.802	-0.374	-0.106
-741.112	265.869	0.076	0.134
-740.098	157.192	-0.166	0.233
-739.083	-88.206	0.118	0.036
-738.069	177.888	0.134	-0.198
-737.054	-72.890	-0.432	-0.161
-736.039	-135.778	-0.452	-0.054
-735.025	-66.585	0.218	-0.088
-734.010	20.916	-0.409	-0.337
-732.996	-200.000	-0.026	0.178
-731.981	223.794	-0.073	0.120
-730.966	313.373	0.101	0.193
-729.952	268.103	-0.080	0.143
-728.937	-200.000	-0.015	-0.291
-727.923	-200.000	-0.037	-0.202
-726.908	-200.000	-0.049	0.260
-725.894	26.252	-0.261	0.222
-724.879	163.410	-0.088	-0.126
-723.864	-200.000	0.046	-0.279
-722.850	-200.000	0.091	-0.467
-721.835	-114.342	-0.257	-0.050
-720.821	322.173	0.059	-0.114
-719.806	34.435	-0.223	0.198
-718.791	-199.361	-0.150	-0.001
-717.777	-200.000	0.005	-0.206
-716.762	-191.882	0.278	0.003
-715.748	-94.835	-0.230	-0.063
-714.733	115.116	-0.159	-0.197
-713.718	-78.378	-0.230	0.080
-712.704	-92.516	-0.439	-0.125
-711.689	800.000	-0.048	-0.135
-710.675	78.810	0.174	-0.189
-709.660	-106.643	-0.413	0.093
-708.645	-89.933	-0.171	0.051
-707.631	-164.091	0.214	0.010
-706.616	-37.490	-0.110	0.060
-705.602	-200.000	-0.023	-0.174
-704.587	180.704	0.064	0.096
-703.572	309.445	0.147	0.278
-702.558	175.874	-0.093	-0.136
-701.543	-94.426	-0.128	-0.035
-700.529	283.176	0.150	0.274
-699.514	110.093	-0.110	0.134
-698.499	551.579	-0.082	-0.199
-697.485	242.235	-0.023	-0.040
-696.470	509.001	0.100	-0.237
-695.456	-200.000	-0.064	0.382
-694.441	273.648	0.145	0.259
-693.426	-132.163	0.218	-0.029
-692.412	426.979	0.065	0.141
-691.397	-99.824	0.239	-0.061
-690.383	43.482	-0.072	0.066
-689.368	22.914	0.265	-0.220
-688.354	-23.096	-0.082	-0.050
-687.339	-12.771	-0.294	0.194
-686.324	48.183	-0.191	-0.181
-685.310	-9.771	-0.248	0.167
-684.295	-200.000	0.050	0.263
-683.281	-89.884	-0.264	-0.078
-682.266	-200.000	-0.057	-0.341
-681.251	-200.000	0.040	-0.225
-680.237	158.825	0.162	-0.227
-679.222	-108.995	-0.349	0.075
-678.208	3.071	-0.114	-0.084
-677.193	-200.000	0.007	-0.275
-676.178	-200.000	0.067	-0.308
-675.164	-68.243	0.217	-0.085
-674.149	-147.575	-0.149	0.013
-673.135	76.261	0.058	-0.062
-672.120	-200.000	0.034	0.241
-671.105	-16.996	-0.136	0.087
-670.091	46.107	-0.234	-0.219
-669.076	-179.390	-0.305	0.007
-668.062	24.446	0.029	0.024
-667.047	800.000	-0.058	0.176
-666.032	-112.687	0.058	-0.012
-665.018	213.163	-0.128	0.205
-664.003	6.073	0.073	0.055
-662.989	331.389	0.080	0.156
-661.974	-63.342	-0.190	-0.079
-660.959	518.690	-0.106	-0.251
-659.945	378.764	-0.203	0.422
-658.930	-12.684	-0.105	-0.069
-657.916	229.988	-0.058	0.095
-656.901	3.196	0.325	-0.240
-655.886	-40.611	-0.120	-0.063
-654.872	8.810	-0.090	0.069
-653.857	277.140	0.118	0.212
-652.843	491.923	-0.168	0.389
-651.828	197.807	0.152	-0.235
-650.814	-200.000	0.028	-0.335
-649.799	252.282	-0.269	-0.464
-648.784	-200.000	0.002	-0.154
-647.770	-145.815	0.260	0.023
-646.755	800.000	-0.117	0.458
-645.741	-200.000	-0.041	-0.345
-644.726	414.437	-0.082	0.178
-643.711	383.395	-0.235	0.489
-642.697	800.000	-0.033	0.132
-641.682	-94.692	0.314	0.086
-640.668	800.000	-0.080	-0.241
-639.653	-200.000	0.007	0.076
-638.638	-43.036	-0.160	0.082
-637.624	-56.604	-0.355	0.159
-636.609	-122.985	-0.312	0.051
-635.595	103.363	-0.171	0.202
-634.580	36.437	-0.173	-0.154
-633.565	138.896	-0.125	0.166
-632.551	800.000	-0.027	0.110
-631.536	36.883	0.074	-0.066
-630.522	44.981	0.196	-0.183
-629.507	-30.284	0.149	-0.086
-628.492	54.736	-0.137	-0.133
-627.478	-68.380	0.264	-0.104
-626.463	-200.000	0.017	-0.398
-625.449	-200.000	0.007	0.179
-624.434	283.153	0.128	-0.232
-623.419	-129.941	-0.102	0.014
-622.405	41.358	0.417	-0.381
-621.390	-33.206	0.421	-0.236
-620.376	-53.194	-0.257	-0.119
-619.361	623.950	-0.047	0.121
-618.346	-200.000	0.022	-0.268
-617.332	800.000	0.117	0.435
-616.317	-127.361	-0.130	-0.019
-615.303	-200.000	-0.009	0.076
-614.288	-128.050	-0.113	0.016
-613.273	-36.806	-0.139	-0.075
-612.259	-47.271	-0.157	-0.077
-611.244	124.312	-0.219	-0.278
-610.230	-95.900	0.294	0.079
-609.215	-6.189	0.048	-0.033
-608.201	304.074	0.024	0.045
-607.186	289.474	0.054	0.099
-606.171	-200.000	0.018	-0.291
-605.157	36.315	-0.277	-0.246
-604.142	599.961	-0.089	0.223
-603.128	-60.980	0.137	0.059
-602.113	-200.000	0.002	0.055
-601.098	780.829	-0.076	0.211
-600.084	-10.917	-0.237	0.158
-599.069	-171.069	-0.085	0.003
-598.055	-19.703	0.029	-0.018
-597.040	-63.218	0.266	-0.111
-596.025	11.732	-0.098	0.076
-595.011	186.738	-0.105	0.157
-593.996	633.536	0.091	-0.233
-592.982	-111.614	0.427	0.088
-591.967	9.895	0.373	-0.286
-590.952	-200.000	-0.008	-0.127
-589.938	720.404	0.071	0.190
-588.923	11.818	0.189	0.147
-587.909	132.856	0.150	0.196
-586.894	-104.824	-0.207	-0.048
-585.879	396.240	0.008	-0.017
-584.865	-81.215	-0.108	-0.036
-583.850	130.853	0.064	-0.083
-582.836	512.262	0.014	0.032
-581.821	52.610	-0.119	0.115
-580.806	-24.866	0.203	0.122
-579.792	11.925	-0.164	0.127
-578.777	-123.432	-0.611	-0.098
-577.763	800.000	-0.066	-0.258
-576.748	26.112	-0.126	-0.106
-575.733	-200.000	0.036	0.245
-574.719	-200.000	0.026	0.125
-573.704	800.000	0.084	0.293
-572.690	800.000	-0.068	0.195
-571.675	-147.356	-0.588	-0.050
-570.661	103.260	0.067	-0.079
-569.646	153.071	0.221	-0.305
-568.631	-11.220	0.147	-0.098
-567.617	-200.000	-0.031	0.152
-566.602	-84.411	0.321	0.102
-565.588	437.773	0.007	-0.015
-564.573	56.651	-0.232	0.228
-563.558	148.079	0.104	0.142
-562.544	-200.000	0.031	0.159
-561.529	-111.051	0.131	0.027
-560.515	8.374	-0.161	0.122
-559.500	-46.130	-0.394	-0.196
-558.485	85.336	0.057	-0.063
-557.471	-51.136	-0.246	-0.116
-556.456	-72.316	0.127	-0.047
-555.442	-131.914	-0.269	0.035
-554.427	800.000	0.041	0.118
-553.412	-79.592	-0.105	-0.036
-552.398	-55.909	-0.359	0.162
-551.383	185.238	0.104	-0.156
-550.369	630.818	-0.092	-0.234
-549.354	9.023	-0.130	0.099
-548.339	74.664	-0.216	0.230
-547.325	-84.633	0.076	0.024
-546.310	-165.961	-0.283	-0.012
-545.296	587.358	0.069	0.172
-544.281	-144.533	0.314	-0.029
-543.266	800.000	0.060	-0.168
-542.252	-200.000	-0.022	-0.109
-541.237	800.000	-0.016	-0.070
-540.223	800.000	-0.089	-0.287
-539.208	-142.090	-0.232	0.023
-538.193	-200.000	-0.020	-0.256
-537.179	800.000	-0.050	0.170
-536.164	-73.741	-0.181	0.066
-535.150	-108.581	0.088	-0.019
-534.135	217.484	-0.107	-0.172
-533.121	-61.626	-0.113	-0.048
-532.106	800.000	-0.086	0.246
-531.091	16.840	-0.251	-0.200
-530.077	800.000	-0.160	-0.492
-529.062	550.060	0.023	-0.055
-528.048	23.862	-0.111	0.092
-527.033	-59.741	0.309	0.133
-526.018	546.826	-0.106	-0.256
-525.004	221.753	0.118	-0.191
-523.989	-161.602	0.269	0.014
-522.975	-57.412	-0.274	-0.121
-521.960	-132.034	-0.244	-0.032
-520.945	-94.629	0.601	0.165
-519.931	47.939	0.227	0.214
-518.916	-200.000	-0.015	0.219
-517.902	116.083	-0.031	-0.038
-516.887	32.762	0.251	-0.219
-515.872	-46.672	0.188	0.093
-514.858	800.000	-0.072	0.200
-513.843	402.864	-0.076	-0.162
-512.829	800.000	0.014	-0.046
-511.814	800.000	-0.114	0.341
-510.799	591.668	-0.088	0.218
-509.785	-86.845	-0.323	-0.099
-508.770	214.067	0.069	0.111
-507.756	-2.948	0.110	0.077
-506.741	-199.880	-0.174	0.001
-505.726	339.230	0.126	-0.248
-504.712	-200.000	0.000	0.120
-503.697	-125.673	-0.238	-0.036
-502.683	67.622	-0.098	0.100
-501.668	-78.546	-0.131	-0.045
-500.653	-200.000	-0.050	0.568
-499.639	-16.846	-0.074	-0.047
-498.624	35.886	0.067	-0.059
-497.610	120.954	-0.200	0.251
-496.595	800.000	0.076	-0.290
-495.581	-200.000	-0.025	0.166
-494.566	-200.000	-0.004	0.228
-493.551	-129.464	0.121	-0.017
-492.537	800.000	-0.122	-0.351
-491.522	-14.015	0.110	-0.071
-490.508	800.000	0.054	0.201
-489.493	800.000	0.073	0.293
-488.478	3.043	0.073	0.053
-487.464	-152.849	-0.151	0.011
-486.449	80.184	0.293	0.317
-485.435	60.523	-0.126	0.125
-484.420	198.366	0.016	0.024
-483.405	-106.942	-0.286	0.064
-482.391	-41.160	0.116	-0.060
-481.376	-200.000	-0.030	0.182
-480.362	45.723	0.100	-0.093
-479.347	131.276	0.136	-0.176
-478.332	-200.000	-0.067	0.313
-477.318	-87.723	0.176	0.053
-476.303	75.972	0.024	0.026
-475.289	195.310	0.146	0.223
-474.274	268.143	0.148	-0.261
-473.259	-81.853	0.122	0.040
-472.245	800.000	-0.085	0.241
-471.230	800.000	-0.122	0.474
-470.216	4.204	-0.263	-0.193
-469.201	-200.000	0.068	-0.325
-468.186	208.188	-0.125	0.197
-467.172	-200.000	0.024	-0.141
-466.157	214.839	0.166	0.264
-465.143	-200.000	-0.023	-0.132
-464.128	-200.000	0.306	-0.001
-463.113	800.000	-0.030	-0.124
-462.099	-88.286	0.248	0.074
-461.084	-153.149	0.235	0.017
-460.070	-73.523	-0.161	0.059
-459.055	83.990	0.134	0.147
-458.040	800.000	-0.119	0.369
-457.026	-59.195	0.361	-0.156
-456.011	222.042	-0.105	-0.170
-454.997	800.000	-0.037	-0.144
-453.982	-200.000	-0.003	0.293
-452.968	-170.101	-0.218	-0.008
-451.953	49.057	0.120	-0.113
-450.938	-130.415	0.282	-0.038
-449.924	338.408	0.043	-0.085
-448.909	800.000	0.154	-0.442
-447.895	-200.000	0.037	-0.191
-446.880	-200.000	0.023	-0.159
-445.865	33.254	0.141	-0.123
-444.851	27.073	-0.281	-0.236
-443.836	800.000	-0.115	-0.345
-442.822	103.043	0.146	-0.171
-441.807	47.813	0.163	-0.153
-440.792	-200.000	-0.006	-0.078
-439.778	249.343	0.095	0.162
-438.763	-60.356	0.124	0.053
-437.749	60.482	0.192	0.191
-436.734	-163.199	-0.205	0.010
-435.719	-36.926	0.091	0.049
-434.705	-200.000	-0.050	0.327
-433.690	-200.000	0.043	0.415
-432.676	-76.096	-0.194	0.069
-431.661	-200.000	0.081	0.405
-430.646	77.172	0.261	-0.278
-429.632	800.000	0.048	-0.167
-428.617	-72.264	-0.236	-0.088
-427.603	65.475	-0.109	0.110
-426.588	-78.028	0.391	0.135
-425.573	41.867	-0.088	-0.080
-424.559	-62.081	0.135	-0.056
-423.544	522.438	0.132	-0.310
-422.530	-200.000	0.009	0.216
-421.515	-193.195	-0.286	-0.003
-420.500	-40.546	-0.211	-0.110
-419.486	265.279	-0.019	-0.034
-418.471	16.872	0.260	-0.207
-417.457	553.932	0.075	0.182
-416.442	-200.000	-0.036	-0.279
-415.428	-106.666	-0.360	0.080
-414.413	-115.043	0.200	-0.038
-413.398	84.457	0.072	0.079
-412.384	-113.553	0.225	-0.044
-411.369	84.528	-0.068	-0.075
-410.355	33.590	0.152	0.132
-409.340	10.676	-0.068	-0.052
-408.325	252.796	0.120	0.206
-407.311	8.978	0.130	0.099
-406.296	-56.862	0.360	-0.159
-405.282	-200.000	0.018	-0.445
-404.267	561.040	-0.086	-0.208
-403.252	-22.120	-0.300	0.183
-402.238	-145.375	-0.165	0.015
-401.223	60.076	-0.232	-0.230
-400.209	-67.784	-0.283	0.111
-399.194	124.282	0.195	0.245
-398.179	331.914	0.080	0.155
-397.165	542.887	0.064	-0.154
-396.150	-71.098	-0.364	-0.137
-395.136	-16.126	0.178	-0.114
-394.121	-141.107	-0.387	0.040
-393.106	-142.394	0.297	0.029
-392.092	-200.000	0.013	0.175
-391.077	-200.000	0.033	0.200
-390.063	110.937	0.204	-0.247
-389.048	-163.646	-0.308	-0.015
-388.033	-16.093	0.144	0.092
-387.019	77.699	0.089	-0.095
-386.004	521.761	-0.075	-0.177
-384.990	30.174	-0.260	0.223
-383.975	-200.000	0.035	-0.257
-382.960	-18.145	0.119	0.075
-381.946	0.351	-0.205	-0.147
-380.931	-77.772	-0.264	-0.091
-379.917	270.046	-0.135	-0.238
-378.902	-200.000	-0.040	0.230
-377.888	170.677	-0.148	0.213
-376.873	-200.000	-0.013	0.083
-375.858	-10.510	0.166	-0.110
-374.844	29.451	-0.172	0.147
-373.829	89.502	-0.189	0.211
-372.815	108.239	0.103	-0.123
-371.800	-19.465	0.128	-0.080
-370.785	-154.067	-0.299	0.020
-369.771	800.000	0.118	-0.405
-368.756	450.790	0.085	-0.187
-367.742	55.221	0.090	0.087
-366.727	-200.000	0.005	-0.056
-365.712	77.493	-0.004	0.004
-364.698	42.695	0.152	0.139
-363.683	-200.000	0.000	0.431
-362.669	-40.979	0.279	-0.144
-361.654	-44.051	-0.193	0.097
-360.639	-200.000	0.042	0.275
-359.625	-167.931	-0.039	-0.002
-358.610	-200.000	-0.032	0.202
-357.596	-71.300	0.204	-0.077
-356.581	554.527	0.211	0.507
-355.566	268.330	-0.060	0.106
-354.552	234.363	-0.258	0.425
-353.537	-200.000	0.039	-0.230
-352.523	-96.460	0.268	-0.071
-351.508	-120.794	0.153	-0.026
-350.493	45.502	0.143	0.132
-349.479	-200.000	0.037	-0.191
-348.464	-101.593	0.283	-0.069
-347.450	264.750	0.214	0.373
-346.435	190.909	0.072	-0.108
-345.420	81.611	0.234	0.253
-344.406	-23.579	0.153	0.092
-343.391	491.349	-0.136	-0.312
-342.377	-174.624	0.161	0.005
-341.362	305.794	-0.079	-0.146
-340.348	-76.553	-0.148	0.052
-339.333	58.253	0.194	-0.191
-338.318	13.266	-0.172	-0.133
-337.304	-200.000	0.053	0.338
-336.289	-18.634	0.325	0.203
-335.275	-80.862	0.061	-0.020
-334.260	-40.923	-0.025	-0.013
-333.245	-86.416	0.040	0.012
-332.231	3.704	0.046	0.034
-331.216	-125.636	-0.124	-0.019
-330.202	23.301	-0.093	0.076
-329.187	-200.000	-0.025	-0.156
-328.172	184.686	0.236	0.350
-327.158	-11.186	0.353	0.232
-326.143	-140.587	-0.187	0.019
-325.129	360.217	0.087	0.174
-324.114	-86.060	-0.353	0.109
-323.099	800.000	0.035	0.099
-322.085	-200.000	-0.017	-0.436
-321.070	-83.967	0.268	-0.085
-320.056	-200.000	-0.033	-0.159
-319.041	157.205	-0.121	0.167
-318.026	105.012	0.070	-0.083
-317.012	482.560	-0.031	0.071
-315.997	-200.000	0.012	0.131
-314.983	-34.463	-0.047	0.026
-313.968	-136.453	0.231	0.027
-312.953	16.450	0.217	0.171
-311.939	-106.104	-0.163	-0.037
-310.924	534.613	-0.009	0.022
-309.910	-129.675	0.329	-0.045
-308.895	-78.775	0.204	0.070
-307.880	-16.420	0.210	-0.133
-306.866	443.744	0.123	-0.270
-305.851	144.788	-0.201	-0.268
-304.837	-59.225	-0.185	0.079
-303.822	800.000	0.060	-0.185
-302.807	-141.219	-0.262	-0.027
-301.793	48.425	-0.157	0.147
-300.778	409.335	-0.046	0.098
-299.764	-200.000	0.010	-0.248
-298.749	-200.000	0.045	-0.207
-297.735	66.503	-0.113	0.115
-296.720	-131.030	0.392	0.052
-295.705	145.545	-0.076	0.101
-294.691	-134.007	-0.082	0.010
-293.676	-28.573	-0.193	0.111
-292.662	-83.177	0.260	-0.083
-291.647	-200.000	0.016	-0.108
-290.632	-200.000	-0.008	-0.121
-289.618	-48.793	0.202	-0.097
-288.603	-80.878	0.131	-0.044
-287.589	65.561	-0.092	0.093
-286.574	-127.538	-0.184	-0.027
-285.559	-71.502	-0.244	-0.091
-284.545	-200.000	0.049	0.274
-283.530	679.986	0.102	0.265
-282.516	-0.040	-0.074	-0.052
-281.501	-7.625	0.183	0.124
-280.486	224.473	-0.096	-0.155
-279.472	-153.907	0.140	-0.010
-278.457	-135.350	0.091	-0.011
-277.443	331.321	-0.067	-0.130
-276.428	-11.554	0.288	-0.189
-275.413	198.187	0.047	0.072
-274.399	171.392	-0.160	0.229
-273.384	-200.000	0.034	-0.210
-272.370	-22.706	-0.173	-0.104
-271.355	144.353	-0.106	0.142
-270.340	-33.756	-0.166	-0.091
-269.326	232.054	-0.057	-0.093
-268.311	-200.000	-0.052	0.445
-267.297	800.000	-0.064	-0.222
-266.282	263.202	0.076	-0.131
-265.267	59.893	0.083	-0.082
-264.253	94.599	-0.072	0.082
-263.238	289.264	0.186	0.336
-262.224	33.839	0.055	0.048
-261.209	-133.708	0.186	-0.023
-260.195	-200.000	-0.043	0.316
-259.180	-126.571	0.313	-0.046
-258.165	306.633	-0.020	-0.037
-257.151	-32.853	-0.241	0.134
-256.136	-52.649	-0.462	-0.213
-255.122	94.917	0.072	-0.082
-254.107	390.614	-0.115	0.238
-253.092	201.785	-0.113	-0.173
-252.078	67.796	0.067	0.068
-251.063	249.327	0.049	-0.082
-250.049	-200.000	0.039	0.205
-249.034	80.878	-0.124	-0.133
-248.019	-105.306	-0.326	-0.074
-247.005	-103.693	0.154	-0.036
-245.990	-23.461	0.173	-0.104
-244.976	237.955	0.135	-0.223
-243.961	112.389	-0.076	-0.092
-242.946	-200.000	0.002	-0.043
-241.932	21.859	0.143	-0.116
-240.917	-125.500	-0.086	-0.013
-239.903	-59.417	-0.295	0.126
-238.888	83.853	-0.091	-0.099
-237.873	-191.815	-0.203	-0.002
-236.859	800.000	-0.078	-0.250
-235.844	-113.380	-0.026	0.005
-234.830	365.321	0.070	-0.140
-233.815	-181.836	0.075	0.001
-232.800	-200.000	-0.037	0.177
-231.786	-200.000	0.016	-0.166
-230.771	-200.000	-0.096	-0.425
-229.757	-200.000	0.031	-0.274
-228.742	-200.000	0.006	-0.353
-227.727	800.000	-0.097	-0.288
-226.713	91.142	0.141	0.157
-225.698	-146.005	-0.358	-0.032
-224.684	-31.136	-0.160	-0.090
-223.669	800.000	0.075	0.257
-222.655	38.526	0.203	-0.180
-221.640	-70.370	0.118	-0.044
-220.625	-200.000	-0.070	-0.362
-219.611	-78.744	-0.057	-0.019
-218.596	800.000	-0.123	-0.435
-217.582	-200.000	0.022	0.122
-216.567	-145.088	0.267	0.024
-215.552	94.580	-0.213	-0.241
-214.538	674.125	0.140	0.362
-213.523	316.831	0.084	-0.158
-212.509	800.000	-0.076	-0.238
-211.494	34.590	0.028	-0.024
-210.479	88.796	0.214	0.237
-209.465	-200.000	-0.020	0.207
-208.450	255.886	-0.053	0.090
-207.436	210.210	0.130	0.203
-206.421	585.379	0.024	-0.059
-205.406	800.000	-0.130	-0.530
-204.392	-138.575	-0.178	0.019
-203.377	-83.270	0.215	0.069
-202.363	43.545	-0.071	-0.065
-201.348	-200.000	-0.073	-0.697
-200.333	13.108	0.278	-0.214
-199.319	-200.000	0.014	-0.152
-198.304	211.214	0.076	0.119
-197.290	69.336	0.142	-0.145
-196.275	-17.896	-0.302	-0.188
-195.260	-26.701	0.183	0.107
-194.246	-174.533	-0.245	0.007
-193.231	-200.000	-0.012	-0.103
-192.217	73.489	-0.114	-0.119
-191.202	800.000	-0.108	0.325
-190.187	50.944	0.161	0.152
-189.173	-112.026	0.320	0.064
-188.158	-200.000	-0.003	-0.229
-187.144	55.721	-0.240	0.232
-186.129	-200.000	0.010	0.247
-185.114	124.357	-0.176	-0.220
-184.100	246.975	-0.075	0.126
-183.085	223.883	0.087	0.140
-182.071	-200.000	0.021	0.401
-181.056	-200.000	0.068	0.558
-180.042	800.000	-0.055	0.226
-179.027	-81.260	-0.211	-0.069
-178.012	133.120	0.062	-0.080
-176.998	-55.122	-0.311	0.139
-175.983	251.853	-0.105	0.177
-174.969	-200.000	0.011	0.088
-173.954	645.776	0.163	0.415
-172.939	-9.016	0.419	0.279
-171.925	114.765	0.151	0.183
-170.910	-200.000	-0.023	0.142
-169.896	-200.000	-0.028	-0.404
-168.881	-69.351	0.131	-0.050
-167.866	-131.607	-0.151	-0.020
-166.852	-136.491	0.159	0.018
-165.837	-35.307	-0.295	0.159
-164.823	-200.000	0.014	0.287
-163.808	800.000	0.165	-0.489
-162.793	103.406	0.196	-0.229
-161.779	454.116	0.071	-0.157
-160.764	490.314	0.086	-0.196
-159.750	-60.666	-0.391	-0.165
-158.735	-42.953	0.050	-0.025
-157.720	-200.000	0.043	-0.268
-156.706	800.000	-0.032	0.101
-155.691	14.419	-0.101	0.078
-154.677	-92.524	-0.039	0.011
-153.662	-200.000	0.013	0.133
-152.647	289.739	-0.092	0.166
-151.633	313.406	0.028	0.053
-150.618	-200.000	0.018	0.097
-149.604	800.000	-0.077	-0.239
-148.589	24.503	-0.057	0.047
-147.574	96.013	0.056	-0.063
-146.560	-25.676	-0.209	0.122
-145.545	107.752	-0.059	0.070
-144.531	-33.578	0.301	0.165
-143.516	-3.006	0.346	-0.240
-142.502	-35.734	-0.303	0.163
-141.487	800.000	-0.053	0.144
-140.472	148.888	0.126	0.169
-139.458	-38.108	-0.150	-0.079
-138.443	-118.808	0.232	-0.041
-137.429	-159.614	-0.324	0.018
-136.414	-179.564	-0.045	0.001
-135.399	-94.226	-0.287	0.078
-134.385	499.317	-0.113	-0.257
-133.370	-121.346	0.355	0.059
-132.356	-60.441	-0.335	0.141
-131.341	-32.861	0.155	-0.085
-130.326	-62.057	0.273	0.113
-129.312	76.365	-0.139	-0.146
-128.297	-15.987	0.179	-0.113
-127.283	63.060	-0.207	-0.206
-126.268	221.342	0.115	-0.183
-125.253	-4.643	-0.060	0.041
-124.239	166.547	-0.304	0.428
-123.224	-125.446	0.156	-0.024
-122.210	316.470	0.144	-0.270
-121.195	-42.683	-0.236	0.119
