DTS Sentinel unit serial number:	SN413079Multiplexer serial number:	ORYXHardware model number:	OX4-SRSoftware version number:	ORYX F/W v4.00 Oryx Data Collector v3.7.2.0data status	okinstallation	princeton_trtdifferential loss correction	single-endedforward channel	channel 1reverse channel	N/Adate	2019/09/11time	20:16:11forward acquisition time	60.00reverse acquisition time	0.00gamma	496.2192k internal	0.2303k external	0.2303temperature offset calibration	1.0039default loss term (dB/km)	0.3790temperature slope calibration	1.0000multiplexer offset coefficient	1.0000multiplexer slope coefficient	1.0000fibre end	0.00T internal ref (°C)	38.12T ext. ref 1 (°C)	1.46T ext. ref 2 (°C)	31.48length (m)	temperature (°C)	Stokes	anti-Stokes-747.200	91.710	0.139	0.159
-746.185	-61.531	-0.477	0.204
-745.171	567.431	0.021	-0.051
-744.156	-200.000	-0.031	0.181
-743.142	-200.000	-0.001	0.296
-742.127	50.685	0.184	0.177
-741.112	17.483	0.389	-0.315
-740.098	83.471	-0.127	-0.141
-739.083	91.591	0.089	0.102
-738.069	-26.678	-0.304	0.181
-737.054	199.840	-0.102	-0.160
-736.039	-15.518	-0.098	0.064
-735.025	-88.317	0.197	0.060
-734.010	-158.378	-0.229	0.014
-732.996	-63.389	0.089	0.037
-731.981	-143.266	-0.085	-0.008
-730.966	800.000	-0.090	-0.283
-729.952	379.782	-0.043	0.091
-728.937	-86.147	-0.397	0.125
-727.923	800.000	0.055	-0.216
-726.908	-47.830	-0.192	-0.095
-725.894	64.318	0.164	0.168
-724.879	205.198	0.006	-0.009
-723.864	210.890	0.109	0.174
-722.850	287.929	-0.083	-0.153
-721.835	800.000	-0.099	-0.283
-720.821	-29.780	-0.203	0.118
-719.806	-121.632	-0.478	-0.081
-718.791	-200.000	0.023	-0.110
-717.777	-22.623	-0.168	0.103
-716.762	-68.427	0.067	-0.026
-715.748	-33.026	-0.286	-0.161
-714.733	-200.000	0.065	-0.305
-713.718	110.057	-0.318	-0.388
-712.704	-200.000	-0.041	-0.265
-711.689	-110.152	0.323	-0.069
-710.675	-73.980	0.062	0.023
-709.660	-200.000	-0.023	-0.359
-708.645	738.353	0.005	-0.013
-707.631	-189.985	0.118	0.001
-706.616	100.684	-0.114	-0.135
-705.602	540.222	0.147	-0.357
-704.587	34.332	0.160	-0.142
-703.572	-77.635	-0.188	-0.066
-702.558	149.032	-0.168	-0.231
-701.543	315.204	0.042	0.080
-700.529	-131.235	-0.118	0.016
-699.514	514.952	0.119	-0.282
-698.499	-29.511	0.076	-0.044
-697.485	-80.677	-0.248	-0.084
-696.470	-200.000	0.047	-0.337
-695.456	-10.260	-0.110	-0.074
-694.441	43.798	0.168	-0.157
-693.426	-200.000	-0.007	0.313
-692.412	130.562	-0.259	-0.338
-691.397	268.537	0.056	0.100
-690.383	129.745	-0.200	0.259
-689.368	373.740	-0.148	0.306
-688.354	-69.057	-0.213	0.083
-687.339	-40.893	-0.218	-0.114
-686.324	-94.847	0.123	0.034
-685.310	-167.770	0.384	-0.015
-684.295	272.997	0.116	-0.208
-683.281	10.957	-0.063	-0.049
-682.266	36.749	0.148	0.133
-681.251	800.000	-0.075	0.219
-680.237	-200.000	0.034	0.208
-679.222	26.043	0.324	-0.275
-678.208	138.188	-0.209	-0.279
-677.193	-22.115	-0.090	-0.056
-676.178	23.879	-0.335	-0.281
-675.164	-200.000	0.004	-0.224
-674.149	-200.000	-0.050	0.237
-673.135	800.000	0.035	-0.136
-672.120	-13.272	0.051	-0.034
-671.105	-59.369	-0.172	0.075
-670.091	-77.347	0.281	-0.099
-669.076	-37.975	-0.162	0.087
-668.062	141.293	0.116	0.156
-667.047	-200.000	-0.003	-0.283
-666.032	-36.827	0.174	-0.095
-665.018	137.142	0.105	0.139
-664.003	800.000	-0.059	0.169
-662.989	132.306	0.137	-0.179
-661.974	641.299	0.182	-0.471
-660.959	-133.443	-0.414	0.053
-659.945	-90.748	-0.102	-0.030
-658.930	216.453	0.062	0.100
-657.916	-108.046	-0.058	-0.013
-656.901	-176.238	-0.374	-0.010
-655.886	800.000	-0.096	-0.331
-654.872	-75.578	-0.016	-0.006
-653.857	-66.398	-0.294	0.119
-652.843	-57.373	-0.243	-0.108
-651.828	-32.290	0.253	0.143
-650.814	618.475	0.143	0.363
-649.799	800.000	-0.143	-0.501
-648.784	128.418	0.107	-0.138
-647.770	-200.000	0.000	-0.018
-646.755	9.588	0.316	-0.243
-645.741	159.671	-0.075	-0.106
-644.726	-72.612	-0.142	0.053
-643.711	571.605	-0.069	-0.170
-642.697	110.213	0.063	-0.077
-641.682	-84.655	0.042	0.013
-640.668	390.523	0.197	-0.415
-639.653	-84.681	-0.144	0.046
-638.638	59.597	0.156	-0.156
-637.624	132.084	0.102	-0.133
-636.609	-162.534	-0.228	0.011
-635.595	-200.000	-0.055	-0.383
-634.580	26.672	0.263	-0.223
-633.565	206.593	-0.053	-0.083
-632.551	101.686	0.271	-0.321
-631.536	800.000	-0.041	-0.118
-630.522	127.657	0.206	0.265
-629.507	-94.999	-0.166	-0.046
-628.492	-164.376	-0.083	0.004
-627.478	-50.251	-0.127	0.061
-626.463	800.000	-0.084	0.298
-625.449	-0.216	-0.107	0.077
-624.434	-56.548	0.102	-0.046
-623.419	240.694	-0.179	-0.303
-622.405	127.284	0.116	0.150
-621.390	800.000	0.036	-0.110
-620.376	4.121	-0.022	-0.017
-619.361	-70.457	-0.276	0.106
-618.346	-200.000	0.023	0.211
-617.332	49.548	0.132	0.126
-616.317	-200.000	-0.176	-0.000
-615.303	-112.306	-0.064	-0.013
-614.288	298.208	0.069	-0.129
-613.273	513.941	-0.125	0.295
-612.259	-98.594	-0.321	-0.083
-611.244	-45.251	-0.208	-0.105
-610.230	346.506	0.104	0.207
-609.215	419.512	0.170	0.370
-608.201	-83.387	-0.287	0.093
-607.186	273.479	-0.059	-0.106
-606.171	-7.449	0.092	0.063
-605.157	80.121	0.028	0.030
-604.142	-133.284	0.212	-0.027
-603.128	-26.263	0.207	0.123
-602.113	297.856	-0.084	0.157
-601.098	167.077	0.060	-0.086
-600.084	293.132	0.061	0.113
-599.069	800.000	-0.029	0.118
-598.055	381.891	0.109	-0.227
-597.040	800.000	-0.068	-0.223
-596.025	93.270	0.145	-0.167
-595.011	320.221	-0.099	-0.191
-593.996	584.859	0.082	-0.203
-592.982	217.777	-0.133	0.214
-591.967	67.304	-0.117	-0.121
-590.952	-148.204	-0.137	0.011
-589.938	-200.000	0.015	0.260
-588.923	56.147	-0.104	-0.102
-587.909	-55.538	-0.263	-0.119
-586.894	-33.632	-0.138	-0.077
-585.879	-47.111	-0.073	-0.036
-584.865	254.496	-0.166	-0.287
-583.850	590.249	0.076	-0.191
-582.836	231.606	-0.108	0.180
-581.821	-200.000	0.026	-0.313
-580.806	-42.752	-0.287	0.148
-579.792	-142.459	0.304	0.030
-578.777	800.000	0.090	-0.365
-577.763	406.891	0.049	0.105
-576.748	-200.000	-0.080	0.358
-575.733	41.469	-0.274	-0.251
-574.719	586.528	-0.088	0.219
-573.704	-2.864	0.088	0.062
-572.690	-38.491	0.358	0.192
-571.675	65.562	0.054	0.055
-570.661	117.235	0.189	-0.235
-569.646	22.179	0.122	-0.101
-568.631	-117.507	0.093	-0.017
-567.617	98.315	0.321	-0.375
-566.602	-200.000	0.031	0.238
-565.588	-200.000	-0.126	-0.001
-564.573	-193.754	0.450	0.004
-563.558	457.044	-0.164	0.370
-562.544	-116.713	-0.082	-0.015
-561.529	37.212	-0.167	-0.150
-560.515	106.113	0.213	0.255
-559.500	32.093	-0.174	0.152
-558.485	557.210	-0.039	0.096
-557.471	215.469	-0.094	0.151
-556.456	-125.686	0.260	-0.040
-555.442	29.828	0.274	-0.236
-554.427	122.935	-0.124	-0.157
-553.412	391.470	0.112	-0.235
-552.398	-200.000	-0.058	-0.293
-551.383	37.544	-0.098	0.088
-550.369	-70.874	-0.195	-0.074
-549.354	646.726	-0.065	0.168
-548.339	63.850	-0.121	0.123
-547.325	-47.491	-0.204	0.100
-546.310	-148.933	0.177	-0.014
-545.296	138.952	0.199	0.265
-544.281	81.787	-0.179	0.196
-543.266	1.792	-0.092	-0.067
-542.252	-149.653	0.264	0.021
-541.237	-40.512	0.206	-0.108
-540.223	82.294	-0.185	0.203
-539.208	-36.868	-0.327	0.177
-538.193	38.845	0.149	0.134
-537.179	-14.660	0.420	0.273
-536.164	599.037	0.041	-0.102
-535.150	-103.891	-0.291	0.069
-534.135	-26.794	0.140	-0.083
-533.121	-22.386	-0.160	0.098
-532.106	414.682	0.091	-0.197
-531.091	-200.000	-0.001	-0.203
-530.077	-128.550	0.384	0.055
-529.062	225.073	0.189	-0.308
-528.048	-162.047	0.494	-0.025
-527.033	51.545	-0.276	-0.265
-526.018	-25.898	-0.237	0.141
-525.004	246.957	0.078	-0.132
-523.989	-126.520	0.292	-0.044
-522.975	-85.691	0.217	-0.068
-521.960	27.711	0.125	-0.107
-520.945	-78.795	0.263	0.090
-519.931	-169.528	0.351	-0.013
-518.916	218.512	-0.059	0.095
-517.902	-66.616	0.158	0.063
-516.887	-62.079	0.033	-0.014
-515.872	-11.627	-0.121	0.080
-514.858	100.533	0.126	-0.148
-513.843	-187.751	0.257	0.003
-512.829	79.953	-0.054	-0.059
-511.814	15.559	0.147	-0.116
-510.799	-200.000	-0.082	0.412
-509.785	-200.000	0.061	-0.367
-508.770	-200.000	0.012	0.183
-507.756	-6.136	-0.147	0.101
-506.741	-6.013	-0.098	0.067
-505.726	800.000	0.119	0.339
-504.712	88.078	0.056	0.062
-503.697	262.511	-0.073	0.127
-502.683	-87.424	-0.516	-0.158
-501.668	19.214	-0.099	0.080
-500.653	-200.000	0.017	-0.181
-499.639	225.478	-0.131	0.214
-498.624	-104.117	-0.292	0.068
-497.610	800.000	0.044	-0.184
-496.595	20.542	0.242	-0.198
-495.581	-133.233	0.300	-0.038
-494.566	-75.093	0.247	-0.089
-493.551	800.000	0.066	0.201
-492.537	200.942	-0.304	-0.472
-491.522	-144.179	0.361	-0.034
-490.508	-175.104	-0.333	-0.009
-489.493	114.687	0.073	-0.090
-488.478	434.610	0.071	-0.157
-487.464	533.917	0.073	-0.174
-486.449	-104.313	-0.123	0.029
-485.435	126.009	-0.081	0.103
-484.420	54.120	-0.298	0.289
-483.405	-85.877	0.126	0.039
-482.391	255.173	-0.060	0.104
-481.376	-62.129	-0.320	0.135
-480.362	-17.123	-0.162	-0.103
-479.347	-200.000	0.010	0.073
-478.332	-113.026	-0.411	0.082
-477.318	-25.281	0.132	-0.079
-476.303	-43.616	0.310	-0.158
-475.289	380.029	0.135	0.278
-474.274	-0.631	-0.158	0.113
-473.259	-200.000	0.050	0.229
-472.245	196.530	0.088	-0.135
-471.230	-200.000	0.166	-0.000
-470.216	-49.481	0.251	-0.121
-469.201	0.620	0.290	-0.209
-468.186	28.683	-0.096	-0.082
-467.172	-200.000	0.021	0.233
-466.157	27.830	0.168	0.142
-465.143	-200.000	-0.026	0.346
-464.128	355.126	-0.113	0.227
-463.113	46.116	0.138	-0.129
-462.099	79.500	-0.033	0.036
-461.084	800.000	-0.047	-0.157
-460.070	-23.963	-0.232	-0.140
-459.055	495.239	-0.136	-0.315
-458.040	256.883	-0.081	0.141
-457.026	139.047	0.112	-0.148
-456.011	282.773	-0.069	0.125
-454.997	296.787	0.178	-0.330
-453.982	39.025	-0.173	0.156
-452.968	-101.890	-0.296	0.072
-451.953	-76.673	0.161	-0.057
-450.938	-200.000	0.017	-0.184
-449.924	759.744	-0.037	0.100
-448.909	97.351	0.032	-0.037
-447.895	-86.845	0.347	-0.107
-446.880	-200.000	0.020	-0.141
-445.865	800.000	0.084	-0.281
-444.851	-200.000	-0.013	-0.208
-443.836	-136.331	0.252	0.030
-442.822	-200.000	-0.031	0.322
-441.807	-107.906	-0.205	0.045
-440.792	-200.000	0.009	0.325
-439.778	-200.000	-0.014	0.361
-438.763	22.834	-0.389	0.321
-437.749	181.126	-0.074	0.110
-436.734	-50.905	-0.150	-0.071
-435.719	-89.937	0.129	0.038
-434.705	-90.793	-0.146	0.042
-433.690	196.314	-0.147	0.225
-432.676	-200.000	-0.018	0.263
-431.661	-200.000	0.008	0.061
-430.646	-73.592	0.128	-0.047
-429.632	97.191	-0.065	-0.075
-428.617	74.759	-0.247	-0.261
-427.603	85.131	-0.139	0.154
-426.588	7.741	-0.084	-0.063
-425.573	499.757	0.041	0.095
-424.559	-200.000	-0.002	-0.070
-423.544	-93.315	0.340	-0.095
-422.530	-200.000	0.024	-0.139
-421.515	18.229	-0.114	-0.092
-420.500	-116.650	-0.407	0.075
-419.486	-73.547	-0.184	-0.068
-418.471	476.922	-0.102	-0.232
-417.457	799.224	-0.142	-0.395
-416.442	337.519	-0.029	0.056
-415.428	-22.150	-0.272	-0.166
-414.413	142.888	0.166	0.222
-413.398	-19.409	-0.155	0.097
-412.384	-163.080	-0.242	-0.012
-411.369	159.854	0.236	0.330
-410.355	28.706	0.190	-0.162
-409.340	24.169	-0.261	0.216
-408.325	800.000	0.079	0.319
-407.311	180.716	0.286	-0.422
-406.296	-160.572	-0.216	0.012
-405.282	369.086	-0.165	-0.335
-404.267	323.240	0.057	0.109
-403.252	-200.000	-0.018	-0.093
-402.238	-45.284	0.093	-0.046
-401.223	-200.000	-0.008	0.130
-400.209	-44.575	-0.164	-0.082
-399.194	-175.183	-0.273	0.008
-398.179	-94.864	0.237	0.064
-397.165	114.407	0.067	-0.083
-396.150	68.282	0.124	-0.128
-395.136	800.000	-0.046	-0.138
-394.121	-27.325	-0.245	0.143
-393.106	-105.267	-0.266	-0.061
-392.092	22.717	-0.192	-0.158
-391.077	800.000	-0.014	-0.049
-390.063	49.189	-0.109	0.103
-389.048	-94.393	0.148	-0.041
-388.033	360.948	0.050	0.101
-387.019	313.298	-0.126	0.239
-386.004	-19.902	-0.372	-0.231
-384.990	10.428	0.175	-0.134
-383.975	800.000	-0.092	0.323
-382.960	-200.000	-0.027	0.168
-381.946	800.000	0.006	-0.019
-380.931	-141.274	-0.161	0.016
-379.917	-117.575	-0.166	-0.030
-378.902	75.519	-0.256	-0.271
-377.888	-200.000	0.020	0.393
-376.873	-77.106	-0.182	-0.064
-375.858	-97.438	-0.322	-0.084
-374.844	89.690	-0.393	0.441
-373.829	-74.124	0.425	0.155
-372.815	116.274	0.293	0.361
-371.800	-200.000	-0.257	0.000
-370.785	80.052	0.244	0.264
-369.771	287.909	0.099	-0.180
-368.756	533.234	0.146	-0.347
-367.742	-66.049	0.215	-0.086
-366.727	-72.168	0.292	0.109
-365.712	60.925	-0.178	0.177
-364.698	33.163	-0.034	0.030
-363.683	-89.438	0.233	-0.069
-362.669	30.919	0.047	-0.040
-361.654	800.000	-0.012	-0.053
-360.639	-165.340	0.249	0.011
-359.625	44.988	0.134	-0.124
-358.610	-20.815	0.293	-0.180
-357.596	-1.752	-0.154	-0.109
-356.581	-64.151	-0.217	-0.089
-355.566	-188.451	0.212	0.003
-354.552	-64.925	-0.417	0.169
-353.537	265.590	0.059	-0.102
-352.523	-49.504	-0.131	0.063
-351.508	140.992	-0.049	-0.065
-350.493	-200.000	-0.015	0.077
-349.479	-36.172	-0.113	0.061
-348.464	-200.000	0.013	0.237
-347.450	620.660	0.076	0.192
-346.435	81.023	-0.235	0.255
-345.420	255.399	-0.108	0.186
-344.406	700.222	-0.031	-0.082
-343.391	518.376	-0.075	-0.176
-342.377	800.000	-0.056	0.217
-341.362	800.000	0.052	0.156
-340.348	-71.644	0.140	0.052
-339.333	414.372	-0.026	-0.055
-338.318	-148.897	-0.132	0.011
-337.304	32.055	-0.156	0.135
-336.289	-150.095	-0.223	0.017
-335.275	105.566	0.062	-0.074
-334.260	-86.787	0.359	0.110
-333.245	-27.904	0.148	-0.086
-332.231	163.406	0.075	-0.106
-331.216	45.643	0.085	-0.079
-330.202	-78.519	-0.214	0.073
-329.187	768.538	0.102	-0.278
-328.172	-81.662	-0.209	-0.069
-327.158	93.860	-0.169	0.192
-326.143	-88.605	0.283	-0.084
-325.129	-200.000	0.001	0.022
-324.114	34.745	0.302	0.264
-323.099	761.627	0.061	0.165
-322.085	103.014	-0.186	0.219
-321.070	-200.000	-0.012	-0.088
-320.056	-200.000	-0.020	0.243
-319.041	21.627	-0.081	-0.066
-318.026	166.973	0.109	0.155
-317.012	138.666	-0.215	0.283
-315.997	742.209	0.036	0.096
-314.983	-200.000	-0.013	-0.116
-313.968	-112.107	0.287	-0.058
-312.953	-52.395	-0.185	-0.086
-311.939	348.517	0.064	-0.126
-310.924	-4.795	0.182	-0.126
-309.910	-200.000	0.020	0.120
-308.895	598.350	0.119	-0.295
-307.880	-85.046	0.366	-0.115
-306.866	230.621	-0.059	0.096
-305.851	-147.662	-0.247	0.021
-304.837	-119.778	0.195	0.034
-303.822	800.000	-0.043	-0.160
-302.807	-6.969	0.096	0.065
-301.793	-200.000	-0.013	0.334
-300.778	-75.059	-0.263	0.094
-299.764	-200.000	0.007	0.043
-298.749	3.967	0.236	0.173
-297.735	60.306	0.083	-0.082
-296.720	-51.587	-0.225	-0.105
-295.705	27.486	-0.072	0.061
-294.691	800.000	-0.096	0.308
-293.676	-133.488	0.132	0.017
-292.662	335.733	0.103	0.200
-291.647	-110.256	0.151	0.031
-290.632	800.000	-0.113	-0.313
-289.618	112.291	-0.096	-0.116
-288.603	-44.042	0.254	0.128
-287.589	-97.335	0.145	0.038
-286.574	117.758	0.326	-0.402
-285.559	-132.708	0.272	-0.035
-284.545	-200.000	-0.054	0.291
-283.530	-26.026	-0.095	0.056
-282.516	-200.000	0.020	0.099
-281.501	-128.885	-0.051	0.007
-280.486	-48.111	0.335	-0.162
-279.472	-83.389	-0.256	-0.082
-278.457	-200.000	0.071	-0.369
-277.443	-6.672	-0.149	-0.102
-276.428	23.089	0.184	-0.151
-275.413	-46.262	-0.278	-0.137
-274.399	558.284	0.129	-0.312
-273.384	-200.000	0.072	0.342
-272.370	-175.619	0.138	-0.004
-271.355	94.945	0.177	0.201
-270.340	-144.454	0.133	0.012
-269.326	-200.000	0.014	-0.105
-268.311	-200.000	-0.005	0.218
-267.297	-150.760	0.252	0.019
-266.282	51.684	-0.206	0.196
-265.267	-30.063	0.277	-0.158
-264.253	-113.958	-0.081	-0.016
-263.238	-136.049	0.207	-0.024
-262.224	-164.177	-0.081	-0.004
-261.209	-200.000	-0.061	-0.319
-260.195	800.000	-0.122	0.449
-259.180	-103.567	0.162	-0.038
-258.165	-200.000	0.008	-0.123
-257.151	-200.000	-0.003	0.069
-256.136	-10.823	-0.342	0.226
-255.122	-200.000	0.021	-0.124
-254.107	105.578	0.120	0.142
-253.092	532.406	0.126	-0.299
-252.078	-200.000	-0.025	0.229
-251.063	800.000	-0.023	0.093
-250.049	-200.000	0.023	-0.139
-249.034	-123.537	-0.118	-0.019
-248.019	-39.511	0.110	-0.058
-247.005	-110.702	0.173	0.036
-245.990	-163.377	-0.193	-0.009
-244.976	800.000	0.033	-0.127
-243.961	370.841	-0.181	-0.367
-242.946	-200.000	0.114	0.530
-241.932	79.617	0.037	-0.039
-240.917	252.178	0.103	-0.176
-239.903	3.433	-0.031	0.023
-238.888	6.343	0.333	0.247
-237.873	800.000	-0.122	-0.396
-236.859	43.086	0.104	0.095
-235.844	24.998	0.108	-0.089
-234.830	-31.224	-0.315	0.177
-233.815	-200.000	-0.006	0.112
-232.800	-39.517	-0.054	-0.028
-231.786	119.524	0.202	0.250
-230.771	-200.000	-0.008	-0.063
-229.757	9.524	0.135	-0.102
-228.742	124.912	-0.192	-0.242
-227.727	-32.505	-0.224	0.124
-226.713	-41.387	0.312	-0.161
-225.698	800.000	-0.012	-0.034
-224.684	800.000	0.035	0.146
-223.669	80.854	-0.169	-0.182
-222.655	-200.000	-0.049	-0.253
-221.640	55.757	0.130	0.125
-220.625	-42.507	0.082	-0.042
-219.611	-117.264	-0.145	-0.026
-218.596	-86.882	0.159	0.048
-217.582	10.683	0.263	0.200
-216.567	-177.943	-0.156	0.004
-215.552	-182.713	0.173	-0.003
-214.538	198.547	-0.155	0.236
-213.523	130.801	-0.224	-0.287
-212.509	-154.488	0.180	0.012
-211.494	125.803	-0.099	0.125
-210.479	346.024	0.052	-0.102
-209.465	35.616	-0.265	-0.232
-208.450	724.543	-0.034	0.090
-207.436	206.488	0.029	0.045
-206.421	-14.238	-0.109	-0.070
-205.406	-48.115	0.203	0.098
-204.392	-200.000	0.024	-0.117
-203.377	-58.599	-0.065	-0.028
-202.363	10.688	-0.141	-0.107
-201.348	-200.000	0.026	-0.124
-200.333	-200.000	0.061	-0.656
-199.319	453.078	-0.102	-0.226
-198.304	-12.056	-0.081	-0.053
-197.290	69.977	0.137	-0.141
-196.275	-151.604	0.219	-0.016
-195.260	-42.349	0.186	0.095
-194.246	367.919	0.217	0.437
-193.231	97.564	0.048	-0.055
-192.217	-59.588	-0.146	-0.062
-191.202	787.533	0.031	0.085
-190.187	-40.253	-0.360	0.187
-189.173	-73.219	-0.264	-0.096
-188.158	800.000	-0.055	0.157
-187.144	240.841	-0.053	-0.088
-186.129	208.745	0.152	0.237
-185.114	-32.592	0.083	0.046
-184.100	361.678	-0.095	-0.189
-183.085	259.528	0.144	0.247
-182.071	-154.093	0.299	0.020
-181.056	-200.000	0.034	0.200
-180.042	-75.987	0.043	-0.015
-179.027	-200.000	0.049	0.263
-178.012	-60.229	-0.102	0.043
-176.998	595.394	-0.133	0.328
-175.983	-200.000	-0.023	-0.117
-174.969	800.000	0.038	-0.126
-173.954	-200.000	0.009	0.117
-172.939	259.995	0.132	-0.228
-171.925	-44.656	-0.185	-0.092
-170.910	-200.000	0.044	-0.240
-169.896	-146.218	0.182	0.016
-168.881	-200.000	0.062	0.280
-167.866	71.606	-0.269	0.279
-166.852	800.000	0.059	-0.218
-165.837	-9.826	-0.080	-0.053
-164.823	-134.804	-0.205	-0.025
-163.808	-200.000	-0.017	-0.114
-162.793	-35.791	-0.320	0.173
-161.779	270.114	0.037	-0.065
-160.764	365.714	0.120	-0.240
-159.750	-124.174	-0.173	-0.027
-158.735	-200.000	0.005	0.230
-157.720	-89.773	-0.221	0.064
-156.706	-39.733	-0.160	-0.083
-155.691	57.550	0.105	0.102
-154.677	-55.626	-0.144	-0.064
-153.662	-200.000	-0.010	-0.075
-152.647	146.653	-0.100	0.134
-151.633	-141.289	0.198	0.020
-150.618	-200.000	0.009	-0.342
-149.604	-67.987	-0.194	-0.075
-148.589	-150.556	-0.269	0.020
-147.574	800.000	0.083	-0.291
-146.560	800.000	0.036	-0.133
-145.545	-92.227	-0.035	0.010
-144.531	-200.000	-0.038	0.249
-143.516	122.902	-0.056	-0.070
-142.502	800.000	0.050	-0.205
-141.487	195.430	-0.051	-0.077
-140.472	44.870	-0.149	-0.137
-139.458	265.600	0.095	-0.164
-138.443	-191.949	0.385	-0.004
-137.429	-200.000	-0.021	0.283
-136.414	-26.398	0.129	-0.075
-135.399	-138.777	0.055	0.006
-134.385	357.049	-0.122	0.242
-133.370	-200.000	0.073	-0.369
-132.356	331.996	0.043	-0.083
-131.341	-151.114	-0.191	-0.014
-130.326	800.000	0.063	0.207
-129.312	-1.413	0.161	-0.113
-128.297	800.000	-0.100	0.338
-127.283	-195.536	-0.185	0.001
-126.268	-77.608	0.169	-0.058
-125.253	-70.032	-0.152	0.058
-124.239	800.000	-0.124	0.381
-123.224	-130.408	-0.421	-0.057
-122.210	-63.119	0.141	0.058
-121.195	697.169	0.114	-0.298
