DTS Sentinel unit serial number:	SN413079Multiplexer serial number:	ORYXHardware model number:	OX4-SRSoftware version number:	ORYX F/W v4.00 Oryx Data Collector v3.7.2.0data status	okinstallation	princeton_trtdifferential loss correction	single-endedforward channel	channel 1reverse channel	N/Adate	2019/09/12time	12:08:11forward acquisition time	60.00reverse acquisition time	0.00gamma	496.2192k internal	0.2292k external	0.2292temperature offset calibration	1.0046default loss term (dB/km)	0.3790temperature slope calibration	1.0000multiplexer offset coefficient	1.0000multiplexer slope coefficient	1.0000fibre end	0.00T internal ref (°C)	40.56T ext. ref 1 (°C)	2.04T ext. ref 2 (°C)	36.44length (m)	temperature (°C)	Stokes	anti-Stokes-747.200	-128.743	0.254	-0.037
-746.185	132.991	-0.099	0.131
-745.171	45.055	-0.281	-0.265
-744.156	-200.000	-0.011	0.086
-743.142	179.461	0.056	0.084
-742.127	-200.000	0.000	0.404
-741.112	-140.496	-0.357	0.038
-740.098	231.561	-0.089	0.149
-739.083	508.235	-0.122	0.290
-738.069	-200.000	0.029	0.325
-737.054	-87.802	0.338	0.104
-736.039	360.968	0.073	0.151
-735.025	65.568	-0.190	0.197
-734.010	-17.134	-0.199	-0.128
-732.996	800.000	0.116	-0.361
-731.981	800.000	0.124	0.487
-730.966	-200.000	0.037	-0.296
-729.952	1.334	-0.132	0.097
-728.937	95.975	-0.265	0.310
-727.923	16.898	-0.044	0.036
-726.908	-132.116	-0.163	0.022
-725.894	-200.000	0.018	-0.081
-724.879	800.000	-0.095	-0.279
-723.864	-54.651	0.187	0.087
-722.850	-200.000	-0.002	-0.139
-721.835	6.199	-0.044	-0.034
-720.821	101.040	-0.126	-0.149
-719.806	-99.200	-0.349	-0.090
-718.791	-71.910	-0.124	0.047
-717.777	-200.000	0.035	-0.303
-716.762	800.000	0.082	-0.309
-715.748	800.000	0.058	-0.187
-714.733	78.432	0.035	0.038
-713.718	800.000	0.015	0.054
-712.704	-69.163	-0.236	-0.093
-711.689	-35.569	-0.370	0.205
-710.675	241.509	-0.124	-0.212
-709.660	-102.009	-0.466	-0.115
-708.645	800.000	0.045	0.200
-707.631	-7.473	-0.196	-0.136
-706.616	-120.567	0.267	0.046
-705.602	-75.585	-0.089	0.032
-704.587	-121.275	0.213	0.036
-703.572	-73.357	0.117	0.044
-702.558	215.794	-0.061	0.099
-701.543	-103.500	0.022	-0.005
-700.529	-91.295	-0.125	0.037
-699.514	-33.942	-0.170	0.096
-698.499	348.157	0.053	-0.107
-697.485	189.704	0.030	0.046
-696.470	-28.450	-0.228	0.134
-695.456	-200.000	-0.037	0.263
-694.441	69.721	0.149	0.157
-693.426	-6.769	-0.205	0.142
-692.412	-200.000	0.051	0.280
-691.397	800.000	-0.007	-0.029
-690.383	-126.740	0.382	-0.058
-689.368	-130.951	0.305	-0.042
-688.354	-157.019	-0.235	0.015
-687.339	166.185	-0.170	0.245
-686.324	-16.321	-0.217	0.140
-685.310	3.973	0.043	0.032
-684.295	-200.000	-0.040	0.235
-683.281	-159.256	0.282	-0.016
-682.266	458.119	0.055	0.125
-681.251	-200.000	-0.018	-0.286
-680.237	-65.545	-0.251	-0.103
-679.222	8.978	0.421	-0.324
-678.208	-200.000	0.009	-0.184
-677.193	-71.455	-0.114	-0.043
-676.178	-96.456	-0.186	-0.050
-675.164	-40.901	0.155	0.082
-674.149	-146.530	0.069	-0.006
-673.135	221.874	0.047	-0.078
-672.120	-113.685	0.078	-0.016
-671.105	296.770	-0.045	-0.084
-670.091	-162.314	0.176	-0.009
-669.076	550.181	0.123	-0.301
-668.062	465.367	-0.023	-0.053
-667.047	15.549	-0.224	-0.180
-666.032	-200.000	0.020	0.251
-665.018	-200.000	0.088	0.401
-664.003	-200.000	0.051	-0.311
-662.989	140.609	0.135	0.182
-661.974	800.000	0.059	-0.186
-660.959	110.242	-0.086	-0.106
-659.945	-58.051	-0.094	-0.042
-658.930	61.447	0.210	0.213
-657.916	-200.000	-0.000	-0.096
-656.901	800.000	-0.024	0.079
-655.886	-85.380	0.232	-0.074
-654.872	241.280	-0.094	0.160
-653.857	142.380	0.081	0.110
-652.843	800.000	0.080	-0.334
-651.828	800.000	-0.024	-0.079
-650.814	-89.644	-0.360	-0.108
-649.799	29.770	0.171	0.148
-648.784	-125.483	0.167	-0.026
-647.770	-98.540	-0.284	-0.074
-646.755	-66.145	0.552	-0.224
-645.741	269.046	0.146	0.262
-644.726	153.628	0.110	0.153
-643.711	-76.530	0.169	-0.060
-642.697	183.727	0.127	0.191
-641.682	14.839	-0.273	-0.217
-640.668	71.236	-0.061	0.065
-639.653	-200.000	-0.094	-0.519
-638.638	-102.164	-0.096	-0.023
-637.624	-17.849	-0.301	-0.192
-636.609	-63.848	0.189	-0.079
-635.595	52.113	-0.221	-0.215
-634.580	44.456	-0.249	-0.234
-633.565	381.278	-0.036	-0.075
-632.551	-79.818	-0.029	-0.010
-631.536	351.917	-0.152	0.308
-630.522	59.559	0.167	0.168
-629.507	-43.727	-0.132	0.068
-628.492	-65.473	0.155	-0.064
-627.478	62.811	0.148	-0.150
-626.463	-62.456	0.189	-0.080
-625.449	800.000	-0.109	-0.321
-624.434	-200.000	-0.055	-0.258
-623.419	71.156	-0.143	-0.151
-622.405	55.050	0.099	0.098
-621.390	337.627	0.109	0.215
-620.376	95.077	-0.012	0.014
-619.361	-37.068	-0.270	-0.147
-618.346	-22.838	0.546	-0.335
-617.332	-200.000	-0.038	-0.234
-616.317	-107.849	-0.456	-0.101
-615.303	-200.000	0.018	-0.251
-614.288	59.636	-0.056	0.056
-613.273	-90.042	-0.183	-0.054
-612.259	-137.014	0.254	0.030
-611.244	800.000	-0.063	0.185
-610.230	-100.518	-0.341	0.086
-609.215	70.922	-0.226	-0.239
-608.201	-200.000	0.016	-0.232
-607.186	-176.647	-0.229	-0.006
-606.171	11.349	0.174	-0.136
-605.157	53.417	-0.172	-0.168
-604.142	-200.000	0.001	-0.118
-603.128	3.617	-0.297	0.220
-602.113	32.247	0.086	0.076
-601.098	17.632	-0.100	0.081
-600.084	-76.904	0.153	-0.055
-599.069	-200.000	-0.029	-0.342
-598.055	154.158	-0.219	-0.306
-597.040	-200.000	-0.015	-0.102
-596.025	537.786	0.045	-0.108
-595.011	4.345	-0.029	0.022
-593.996	220.941	0.158	0.258
-592.982	-181.801	-0.062	-0.001
-591.967	177.449	-0.107	-0.159
-590.952	-87.139	-0.063	0.019
-589.938	-19.548	-0.125	-0.079
-588.923	20.002	-0.091	-0.074
-587.909	181.808	-0.089	-0.134
-586.894	491.050	0.097	-0.227
-585.879	120.994	-0.176	0.223
-584.865	23.290	-0.128	-0.107
-583.850	800.000	-0.061	0.243
-582.836	166.362	0.163	0.234
-581.821	255.482	-0.133	0.232
-580.806	-71.058	-0.370	0.141
-579.792	-133.248	-0.240	-0.031
-578.777	-90.058	-0.165	0.049
-577.763	111.127	-0.110	-0.135
-576.748	366.447	0.134	0.275
-575.733	207.743	-0.163	0.259
-574.719	-153.560	0.112	-0.008
-573.704	-74.178	-0.078	-0.029
-572.690	-162.150	-0.266	-0.014
-571.675	94.898	0.184	-0.213
-570.661	70.985	0.267	0.281
-569.646	800.000	-0.078	-0.229
-568.631	-47.263	-0.139	0.069
-567.617	-200.000	0.000	-0.316
-566.602	593.831	0.089	-0.223
-565.588	232.421	-0.077	-0.128
-564.573	108.821	0.161	-0.195
-563.558	165.253	-0.076	-0.109
-562.544	414.188	-0.044	0.094
-561.529	-200.000	-0.025	-0.193
-560.515	800.000	-0.016	-0.064
-559.500	-187.202	0.504	-0.007
-558.485	549.295	0.207	-0.505
-557.471	134.826	0.111	0.146
-556.456	-200.000	-0.000	0.296
-555.442	110.597	-0.143	0.175
-554.427	390.521	0.055	0.116
-553.412	-125.791	0.101	0.015
-552.398	756.704	-0.041	-0.114
-551.383	11.857	-0.177	-0.138
-550.369	-152.536	0.361	0.026
-549.354	-133.495	0.553	-0.070
-548.339	-78.619	-0.249	0.086
-547.325	13.488	0.096	0.075
-546.310	-200.000	0.014	0.136
-545.296	355.191	0.049	0.100
-544.281	81.940	-0.273	-0.301
-543.266	-65.153	-0.077	0.031
-542.252	376.118	-0.079	-0.164
-541.237	58.524	-0.058	-0.057
-540.223	53.425	0.067	-0.065
-539.208	-200.000	0.014	-0.302
-538.193	-26.456	-0.206	0.123
-537.179	-200.000	0.053	-0.323
-536.164	-200.000	0.025	-0.159
-535.150	-28.244	-0.179	0.105
-534.135	-200.000	-0.086	-0.487
-533.121	145.341	0.197	-0.267
-532.106	-90.501	-0.384	0.113
-531.091	198.887	-0.334	0.518
-530.077	-69.081	-0.171	0.067
-529.062	-14.492	0.131	0.086
-528.048	482.222	0.131	-0.302
-527.033	800.000	0.083	0.244
-526.018	62.194	0.252	-0.255
-525.004	800.000	-0.032	0.129
-523.989	800.000	-0.088	0.302
-522.975	-144.705	0.107	-0.010
-521.960	-51.569	0.150	0.071
-520.945	-1.642	-0.098	0.070
-519.931	41.316	-0.106	0.098
-518.916	-200.000	0.018	0.124
-517.902	800.000	-0.081	0.329
-516.887	-0.250	0.056	-0.040
-515.872	703.884	-0.106	0.283
-514.858	214.277	-0.007	-0.011
-513.843	110.065	-0.187	0.228
-512.829	152.915	0.088	0.123
-511.814	-8.720	-0.167	-0.114
-510.799	231.980	-0.046	-0.077
-509.785	-200.000	0.016	0.243
-508.770	-127.890	-0.164	-0.024
-507.756	-9.342	-0.143	0.097
-506.741	-200.000	0.009	0.045
-505.726	-200.000	-0.005	0.140
-504.712	-105.447	0.336	-0.077
-503.697	800.000	0.114	-0.363
-502.683	-173.207	-0.244	0.008
-501.668	-176.622	-0.136	0.004
-500.653	736.233	0.166	0.452
-499.639	128.684	-0.175	0.226
-498.624	301.901	-0.095	0.178
-497.610	16.409	-0.168	-0.134
-496.595	-159.287	0.324	-0.018
-495.581	79.043	0.150	-0.163
-494.566	71.702	-0.256	0.269
-493.551	-200.000	0.038	0.171
-492.537	-55.195	0.067	-0.030
-491.522	119.224	-0.180	-0.226
-490.508	79.968	-0.118	-0.128
-489.493	189.336	-0.102	-0.155
-488.478	-200.000	-0.028	0.363
-487.464	13.711	0.243	-0.191
-486.449	309.737	0.056	-0.105
-485.435	-132.266	0.237	0.031
-484.420	-50.317	0.258	0.124
-483.405	22.506	-0.146	0.121
-482.391	324.063	0.012	0.023
-481.376	46.779	0.248	0.233
-480.362	484.653	0.162	-0.374
-479.347	800.000	-0.052	0.154
-478.332	-104.790	-0.151	0.035
-477.318	96.978	0.236	-0.274
-476.303	93.393	0.234	-0.268
-475.289	1.121	-0.057	0.041
-474.274	-20.212	-0.264	0.164
-473.259	-12.458	0.286	-0.189
-472.245	-92.679	-0.214	-0.061
-471.230	-87.085	-0.218	-0.067
-470.216	460.963	0.153	-0.344
-469.201	351.662	0.052	0.105
-468.186	800.000	0.128	0.479
-467.172	180.044	0.016	0.024
-466.157	-135.574	0.079	0.010
-465.143	227.723	0.101	-0.166
-464.128	-0.974	0.166	-0.119
-463.113	-200.000	0.004	0.403
-462.099	704.669	-0.049	0.131
-461.084	599.686	-0.062	0.157
-460.070	90.393	-0.107	-0.121
-459.055	-36.537	0.107	-0.058
-458.040	-200.000	-0.020	-0.224
-457.026	54.812	0.203	-0.198
-456.011	-6.915	-0.027	0.018
-454.997	-82.244	0.219	-0.072
-453.982	-44.589	0.147	-0.075
-452.968	-41.569	0.091	0.047
-451.953	-200.000	0.020	-0.096
-450.938	-119.550	-0.483	-0.085
-449.924	-200.000	-0.006	-0.128
-448.909	800.000	0.048	0.183
-447.895	-49.341	0.059	-0.029
-446.880	111.608	-0.134	0.164
-445.865	39.163	0.103	0.093
-444.851	-48.736	0.133	-0.065
-443.836	13.329	-0.209	-0.164
-442.822	-200.000	0.060	-0.295
-441.807	800.000	0.101	-0.374
-440.792	133.441	0.201	-0.263
-439.778	167.054	-0.194	-0.279
-438.763	263.970	0.143	0.252
-437.749	188.530	-0.130	-0.197
-436.734	54.852	-0.141	-0.138
-435.719	-200.000	0.006	0.119
-434.705	25.724	-0.038	0.032
-433.690	359.349	0.073	0.148
-432.676	128.891	-0.089	0.115
-431.661	-200.000	-0.037	-0.432
-430.646	-133.125	-0.172	-0.022
-429.632	-200.000	0.014	0.207
-428.617	-123.048	0.217	-0.035
-427.603	52.453	-0.149	0.144
-426.588	-15.148	-0.092	0.060
-425.573	74.361	-0.057	-0.060
-424.559	20.604	0.216	-0.177
-423.544	553.201	0.148	0.360
-422.530	127.020	-0.148	-0.190
-421.515	800.000	-0.030	0.099
-420.500	-5.761	0.282	0.195
-419.486	-11.523	0.121	-0.080
-418.471	5.753	-0.169	0.127
-417.457	800.000	0.130	0.483
-416.442	800.000	-0.059	0.220
-415.428	126.175	0.157	-0.201
-414.413	-200.000	0.012	-0.157
-413.398	-130.573	-0.193	-0.026
-412.384	-40.801	-0.521	0.272
-411.369	-161.609	-0.227	-0.012
-410.355	800.000	-0.068	-0.213
-409.340	1.710	-0.132	-0.096
-408.325	-112.643	-0.261	0.052
-407.311	767.028	-0.084	0.232
-406.296	-26.488	0.206	0.122
-405.282	203.080	0.071	-0.110
-404.267	800.000	0.074	-0.278
-403.252	80.925	-0.177	0.193
-402.238	74.096	-0.191	0.202
-401.223	125.762	-0.214	-0.273
-400.209	-2.850	-0.095	0.067
-399.194	-200.000	-0.042	0.233
-398.179	-200.000	0.030	-0.366
-397.165	94.447	-0.166	-0.191
-396.150	203.011	0.114	-0.177
-395.136	-106.711	-0.309	0.069
-394.121	-62.438	-0.190	0.080
-393.106	800.000	-0.108	0.348
-392.092	-10.017	-0.176	-0.118
-391.077	8.701	-0.127	-0.097
-390.063	64.156	0.225	0.228
-389.048	112.256	0.022	-0.027
-388.033	181.829	-0.138	0.205
-387.019	-42.099	0.202	0.104
-386.004	514.153	-0.105	0.248
-384.990	381.559	-0.032	-0.065
-383.975	-78.659	-0.192	-0.066
-382.960	39.179	-0.065	-0.058
-381.946	-107.325	-0.236	0.052
-380.931	800.000	-0.028	-0.110
-379.917	-136.848	0.332	-0.038
-378.902	253.924	0.055	0.094
-377.888	-76.257	-0.541	-0.193
-376.873	-56.159	0.247	0.111
-375.858	56.449	0.263	-0.258
-374.844	402.996	-0.219	-0.464
-373.829	28.902	0.198	-0.169
-372.815	31.426	0.268	-0.232
-371.800	-34.010	0.135	0.075
-370.785	70.350	0.124	0.129
-369.771	-109.136	0.374	0.080
-368.756	-158.850	-0.300	0.017
-367.742	-200.000	0.036	-0.200
-366.727	-64.769	0.031	0.012
-365.712	356.875	-0.014	0.028
-364.698	-77.501	-0.195	-0.068
-363.683	-186.129	-0.210	0.003
-362.669	-10.737	-0.151	-0.101
-361.654	-138.482	0.332	0.037
-360.639	-94.356	0.393	-0.108
-359.625	800.000	0.109	-0.315
-358.610	653.745	0.027	-0.071
-357.596	-11.855	-0.269	0.178
-356.581	-141.776	0.398	0.040
-355.566	218.311	-0.049	-0.078
-354.552	-150.964	-0.211	0.016
-353.537	-56.245	-0.136	-0.061
-352.523	-200.000	0.035	0.165
-351.508	800.000	-0.035	0.131
-350.493	-46.442	-0.133	-0.066
-349.479	-31.678	-0.226	0.128
-348.464	135.723	0.198	-0.260
-347.450	-200.000	-0.010	0.101
-346.435	-94.375	-0.375	0.103
-345.420	64.364	0.287	0.292
-344.406	571.442	0.168	0.411
-343.391	386.248	0.040	0.084
-342.377	-200.000	-0.012	0.203
-341.362	-94.785	0.243	-0.066
-340.348	640.322	0.081	0.207
-339.333	-60.035	-0.257	-0.111
-338.318	-200.000	0.016	0.236
-337.304	-96.257	0.261	0.070
-336.289	-179.074	0.145	0.003
-335.275	-144.621	-0.098	-0.009
-334.260	113.535	0.056	0.068
-333.245	162.578	-0.120	0.170
-332.231	40.302	-0.197	0.178
-331.216	-142.843	-0.180	0.018
-330.202	800.000	-0.102	0.390
-329.187	25.619	0.038	-0.032
-328.172	-77.271	-0.165	0.058
-327.158	800.000	0.034	0.126
-326.143	-63.350	-0.189	0.078
-325.129	-73.321	0.259	-0.095
-324.114	191.149	-0.050	0.075
-323.099	103.252	0.066	-0.078
-322.085	800.000	0.110	-0.355
-321.070	-130.291	0.066	0.009
-320.056	4.277	-0.259	0.191
-319.041	-10.414	-0.067	0.044
-318.026	102.514	0.082	-0.096
-317.012	214.034	0.143	-0.228
-315.997	-200.000	0.013	-0.327
-314.983	-81.659	-0.210	-0.070
-313.968	-147.905	0.338	0.028
-312.953	-33.075	-0.183	-0.102
-311.939	-55.895	0.081	-0.037
-310.924	-97.934	-0.217	-0.056
-309.910	800.000	-0.127	0.408
-308.895	-136.054	0.611	-0.072
-307.880	-101.650	0.189	-0.046
-306.866	-40.041	0.436	-0.229
-305.851	-36.813	0.238	0.129
-304.837	-190.420	-0.124	-0.001
-303.822	800.000	0.046	-0.133
-302.807	21.285	0.138	-0.113
-301.793	-39.705	-0.102	-0.053
-300.778	37.191	0.093	0.083
-299.764	-200.000	-0.045	0.209
-298.749	-200.000	0.007	0.264
-297.735	-101.848	-0.217	0.053
-296.720	49.803	0.046	0.044
-295.705	69.292	-0.200	-0.207
-294.691	54.459	0.171	-0.166
-293.676	279.526	-0.156	0.280
-292.662	-34.011	0.058	0.032
-291.647	148.433	-0.076	0.104
-290.632	342.158	-0.063	0.124
-289.618	340.191	-0.065	0.127
-288.603	73.704	0.280	0.295
-287.589	-116.373	0.101	0.019
-286.574	10.874	0.045	0.034
-285.559	-60.245	-0.199	0.085
-284.545	178.811	0.185	-0.272
-283.530	-164.495	-0.192	-0.009
-282.516	27.531	0.090	-0.076
-281.501	-13.808	0.223	-0.145
-280.486	398.160	0.075	-0.158
-279.472	-200.000	0.003	-0.126
-278.457	-44.347	0.092	-0.046
-277.443	84.224	0.306	0.336
-276.428	-165.749	0.304	0.013
-275.413	34.965	0.149	0.131
-274.399	-200.000	0.000	0.062
-273.384	143.121	-0.071	0.095
-272.370	362.369	-0.099	0.199
-271.355	-44.620	0.164	0.082
-270.340	41.127	0.182	0.165
-269.326	74.004	0.119	0.126
-268.311	551.897	-0.012	0.029
-267.297	5.088	0.094	0.070
-266.282	-28.226	0.166	-0.096
-265.267	130.211	-0.097	-0.125
-264.253	-50.083	0.190	-0.090
-263.238	800.000	0.019	0.052
-262.224	175.615	0.111	-0.161
-261.209	-11.173	0.068	0.045
-260.195	800.000	0.061	-0.236
-259.180	-128.030	-0.627	-0.090
-258.165	-46.721	-0.145	0.071
-257.151	-25.292	0.315	0.187
-256.136	268.776	0.052	-0.091
-255.122	800.000	0.054	0.238
-254.107	323.240	-0.101	0.193
-253.092	-82.712	0.156	-0.051
-252.078	-56.046	0.106	-0.047
-251.063	-91.487	-0.098	-0.028
-250.049	-86.292	0.223	0.069
-249.034	264.087	-0.066	0.115
-248.019	-168.474	-0.278	0.011
-247.005	87.838	0.067	0.074
-245.990	-60.152	-0.193	-0.082
-244.976	800.000	0.039	0.139
-243.961	321.400	0.018	-0.034
-242.946	-68.773	0.116	-0.045
-241.932	-152.994	-0.185	-0.013
-240.917	-96.563	-0.128	-0.034
-239.903	6.199	-0.021	-0.016
-238.888	-137.019	-0.256	-0.029
-237.873	509.085	0.141	0.329
-236.859	-5.362	-0.080	0.055
-235.844	61.109	0.241	0.240
-234.830	93.749	-0.121	-0.138
-233.815	-95.366	-0.046	-0.012
-232.800	-99.131	0.262	-0.067
-231.786	50.821	0.242	0.230
-230.771	112.617	-0.075	-0.091
-229.757	-146.083	0.296	-0.026
-228.742	-139.988	0.121	0.013
-227.727	-200.000	-0.073	0.391
-226.713	429.297	-0.026	0.056
-225.698	800.000	0.076	-0.215
-224.684	346.494	-0.058	-0.115
-223.669	195.866	-0.152	0.232
-222.655	-50.461	0.538	-0.255
-221.640	-106.031	0.176	0.040
-220.625	560.793	-0.050	0.121
-219.611	-25.182	-0.187	0.111
-218.596	800.000	0.047	0.137
-217.582	-74.974	-0.101	0.036
-216.567	-16.472	-0.154	0.098
-215.552	-35.167	0.210	-0.115
-214.538	187.996	0.152	-0.228
-213.523	-200.000	0.007	-0.041
-212.509	-45.676	-0.164	-0.081
-211.494	-110.567	0.266	-0.055
-210.479	-93.277	-0.143	-0.040
-209.465	-104.827	0.186	-0.043
-208.450	-107.102	-0.249	0.055
-207.436	81.313	0.168	0.182
-206.421	-200.000	0.005	0.067
-205.406	59.407	-0.081	-0.080
-204.392	-68.211	-0.149	0.058
-203.377	67.166	0.205	0.210
-202.363	146.282	-0.170	0.228
-201.348	-200.000	0.024	-0.153
-200.333	70.191	0.177	-0.183
-199.319	489.323	-0.153	0.350
-198.304	-200.000	0.055	0.291
-197.290	-84.827	-0.141	-0.044
-196.275	50.440	-0.170	-0.161
-195.260	-134.632	0.304	0.037
-194.246	-200.000	-0.005	0.351
-193.231	800.000	-0.058	0.229
-192.217	-200.000	0.038	0.392
-191.202	-39.920	-0.154	-0.081
-190.187	254.830	0.126	-0.216
-189.173	-127.177	0.422	0.062
-188.158	110.550	0.263	-0.317
-187.144	-200.000	0.038	0.215
-186.129	645.514	0.084	0.214
-185.114	9.711	0.261	0.198
-184.100	73.195	-0.113	-0.118
-183.085	-62.291	-0.103	-0.043
-182.071	165.547	0.209	-0.296
-181.056	64.841	-0.328	-0.332
-180.042	-153.741	-0.244	-0.017
-179.027	299.036	0.167	0.309
-178.012	-38.038	0.119	-0.063
-176.998	-55.415	-0.119	-0.054
-175.983	-200.000	0.020	0.098
-174.969	-200.000	-0.002	-0.219
-173.954	800.000	-0.034	-0.123
-172.939	86.104	-0.160	0.177
-171.925	-151.808	-0.146	-0.011
-170.910	-176.345	-0.235	-0.006
-169.896	126.780	-0.291	-0.369
-168.881	-79.839	-0.131	0.044
-167.866	-63.199	-0.065	-0.027
-166.852	-89.278	0.440	0.130
-165.837	91.812	-0.091	-0.102
-164.823	371.648	0.081	0.165
-163.808	-200.000	-0.007	0.081
-162.793	-74.749	-0.271	0.097
-161.779	800.000	0.058	-0.218
-160.764	-47.546	0.165	0.080
-159.750	-170.631	-0.176	0.006
-158.735	313.701	0.124	-0.234
-157.720	485.186	0.082	-0.187
-156.706	74.023	0.078	-0.082
-155.691	109.032	-0.206	-0.247
-154.677	584.726	0.053	0.131
-153.662	-200.000	-0.028	0.230
-152.647	-200.000	-0.046	0.292
-151.633	4.179	0.265	-0.194
-150.618	101.685	-0.194	0.226
-149.604	-122.675	0.504	0.082
-148.589	-200.000	-0.030	0.164
-147.574	-73.453	-0.441	-0.161
-146.560	800.000	0.067	-0.200
-145.545	366.551	0.166	0.334
-144.531	-123.663	0.304	0.048
-143.516	219.592	0.255	-0.409
-142.502	-109.832	-0.619	-0.130
-141.487	-49.919	-0.221	0.105
-140.472	143.063	0.239	-0.318
-139.458	253.258	0.085	-0.144
-138.443	-49.325	-0.307	-0.146
-137.429	-91.785	0.214	0.061
-136.414	-200.000	-0.008	0.250
-135.399	10.657	0.273	0.208
-134.385	-200.000	0.016	-0.411
-133.370	-164.801	0.083	-0.004
-132.356	-78.903	0.095	-0.032
-131.341	-143.610	-0.161	0.015
-130.326	193.550	0.098	0.148
-129.312	-90.356	-0.062	-0.018
-128.297	-58.378	0.412	0.179
-127.283	-200.000	-0.030	-0.201
-126.268	-43.560	-0.265	0.134
-125.253	348.573	-0.209	-0.413
-124.239	-200.000	0.025	-0.399
-123.224	-6.633	0.294	-0.200
-122.210	67.449	-0.083	0.085
-121.195	-69.142	-0.129	-0.049
-120.180	13.185	-0.304	-0.235
