DTS Sentinel unit serial number:	SN413079Multiplexer serial number:	ORYXHardware model number:	OX4-SRSoftware version number:	ORYX F/W v4.00 Oryx Data Collector v3.7.2.0data status	okinstallation	princeton_trtdifferential loss correction	single-endedforward channel	channel 1reverse channel	N/Adate	2019/09/14time	03:58:35forward acquisition time	60.00reverse acquisition time	0.00gamma	496.2192k internal	0.2335k external	0.2335temperature offset calibration	1.0076default loss term (dB/km)	0.3790temperature slope calibration	1.0000multiplexer offset coefficient	1.0000multiplexer slope coefficient	1.0000fibre end	0.00T internal ref (°C)	26.67T ext. ref 1 (°C)	3.31T ext. ref 2 (°C)	21.77length (m)	temperature (°C)	Stokes	anti-Stokes-747.200	269.358	0.100	0.176
-746.185	28.549	-0.031	-0.027
-745.171	-200.000	0.025	0.228
-744.156	-200.000	-0.027	0.258
-743.142	7.260	-0.161	0.121
-742.127	-200.000	0.037	-0.239
-741.112	-200.000	-0.015	-0.248
-740.098	-71.017	-0.401	0.152
-739.083	42.730	-0.128	0.118
-738.069	-200.000	0.019	0.230
-737.054	-10.756	-0.248	0.165
-736.039	-100.307	-0.299	-0.074
-735.025	-66.936	0.401	0.159
-734.010	-121.669	-0.398	0.066
-732.996	292.022	-0.193	-0.352
-731.981	-48.952	0.131	-0.063
-730.966	366.696	0.130	0.263
-729.952	55.312	-0.164	0.159
-728.937	0.330	-0.298	-0.214
-727.923	22.156	0.273	-0.223
-726.908	70.651	-0.168	-0.174
-725.894	-74.860	-0.445	0.160
-724.879	-151.827	-0.358	0.026
-723.864	-117.419	-0.413	0.075
-722.850	-200.000	0.015	-0.135
-721.835	-115.047	-0.159	0.030
-720.821	759.362	0.034	0.093
-719.806	-23.271	-0.176	0.106
-718.791	-91.515	-0.076	0.022
-717.777	-69.835	0.150	-0.057
-716.762	-36.066	-0.279	-0.151
-715.748	-89.773	-0.296	-0.087
-714.733	276.283	0.096	0.172
-713.718	108.673	-0.306	0.367
-712.704	322.293	-0.014	-0.027
-711.689	-200.000	0.009	0.153
-710.675	-28.999	-0.160	-0.092
-709.660	-67.271	-0.088	-0.035
-708.645	374.606	-0.080	0.163
-707.631	104.450	-0.111	-0.131
-706.616	-129.194	0.131	0.018
-705.602	48.810	-0.153	-0.144
-704.587	224.428	0.064	-0.103
-703.572	37.633	0.372	0.331
-702.558	-132.999	-0.032	0.004
-701.543	-122.821	0.136	0.022
-700.529	-75.359	-0.356	0.127
-699.514	-2.830	-0.258	-0.181
-698.499	294.136	-0.156	0.285
-697.485	-70.688	0.341	-0.129
-696.470	-105.140	-0.053	0.012
-695.456	800.000	-0.034	0.118
-694.441	-200.000	0.058	-0.277
-693.426	-200.000	-0.032	-0.174
-692.412	12.360	0.125	-0.097
-691.397	-27.759	-0.118	-0.069
-690.383	651.241	-0.141	0.361
-689.368	136.292	-0.143	-0.187
-688.354	-68.264	0.033	-0.013
-687.339	28.571	0.037	0.032
-686.324	513.158	0.022	0.051
-685.310	-52.070	-0.267	0.124
-684.295	78.726	0.100	0.107
-683.281	-151.798	-0.346	0.025
-682.266	-119.846	0.130	0.022
-681.251	800.000	0.096	0.357
-680.237	152.834	-0.202	-0.276
-679.222	-121.312	0.225	-0.038
-678.208	-10.918	0.097	-0.064
-677.193	-69.057	0.231	0.089
-676.178	41.262	0.046	-0.042
-675.164	3.998	0.092	0.068
-674.149	-114.693	0.263	-0.050
-673.135	112.050	-0.126	-0.152
-672.120	-51.156	-0.154	0.073
-671.105	800.000	0.054	-0.167
-670.091	240.994	0.050	0.084
-669.076	-137.769	-0.146	-0.016
-668.062	484.333	0.145	0.331
-667.047	-200.000	0.028	-0.262
-666.032	-200.000	-0.015	-0.100
-665.018	-69.765	0.149	-0.057
-664.003	25.843	0.120	0.100
-662.989	-181.373	0.389	-0.008
-661.974	-97.800	-0.175	0.045
-660.959	-120.856	0.336	-0.057
-659.945	370.694	0.019	-0.039
-658.930	-77.039	0.354	0.124
-657.916	227.342	-0.121	-0.196
-656.901	-200.000	0.037	-0.317
-655.886	55.895	-0.068	-0.066
-654.872	-200.000	0.036	0.245
-653.857	-116.769	0.415	0.076
-652.843	136.079	0.100	0.131
-651.828	800.000	-0.078	0.256
-650.814	-20.875	0.499	-0.306
-649.799	99.696	-0.101	-0.117
-648.784	-130.516	0.172	-0.023
-647.770	-64.125	-0.105	0.043
-646.755	-111.023	-0.092	0.019
-645.741	-5.860	-0.165	-0.113
-644.726	24.525	-0.005	-0.004
-643.711	19.518	-0.166	-0.133
-642.697	393.608	-0.120	-0.250
-641.682	84.491	-0.123	0.134
-640.668	-70.804	0.157	-0.059
-639.653	-71.381	-0.446	0.167
-638.638	156.432	0.165	-0.227
-637.624	-1.792	0.300	0.212
-636.609	-122.068	-0.049	-0.008
-635.595	-123.211	-0.272	-0.043
-634.580	229.349	0.165	-0.270
-633.565	1.726	-0.072	0.052
-632.551	696.110	-0.124	-0.325
-631.536	124.234	-0.118	-0.148
-630.522	-107.881	0.095	-0.021
-629.507	-1.885	-0.145	0.102
-628.492	29.625	-0.189	-0.161
-627.478	-26.301	0.241	-0.142
-626.463	-9.341	0.215	-0.144
-625.449	221.777	0.155	-0.249
-624.434	-60.160	0.087	-0.037
-623.419	-43.751	-0.253	-0.128
-622.405	-109.830	0.424	-0.089
-621.390	800.000	0.137	-0.472
-620.376	800.000	0.038	0.166
-619.361	-64.722	-0.108	-0.044
-618.346	621.166	-0.089	-0.224
-617.332	-200.000	-0.001	0.191
-616.317	-38.911	-0.196	-0.103
-615.303	675.474	0.105	0.272
-614.288	113.582	-0.088	-0.107
-613.273	3.450	-0.326	-0.237
-612.259	-47.297	-0.174	0.085
-611.244	21.654	0.124	-0.101
-610.230	-83.022	-0.223	0.072
-609.215	14.402	-0.165	-0.129
-608.201	6.139	-0.265	0.196
-607.186	39.641	0.098	0.088
-606.171	780.513	0.133	0.364
-605.157	103.093	-0.068	0.080
-604.142	-66.371	-0.291	0.116
-603.128	-88.506	-0.134	-0.040
-602.113	312.363	0.068	0.128
-601.098	-80.777	0.135	0.045
-600.084	-200.000	-0.004	0.043
-599.069	-116.738	0.349	-0.064
-598.055	65.514	-0.151	-0.153
-597.040	-91.668	-0.309	-0.088
-596.025	-200.000	0.017	0.154
-595.011	-64.885	-0.176	0.071
-593.996	80.721	0.091	-0.098
-592.982	42.666	-0.318	-0.289
-591.967	-77.878	0.148	-0.051
-590.952	-134.418	0.183	-0.022
-589.938	345.105	-0.102	-0.200
-588.923	61.398	0.154	0.153
-587.909	-51.927	0.185	0.086
-586.894	-200.000	0.059	-0.273
-585.879	800.000	0.017	-0.055
-584.865	-65.406	-0.186	-0.075
-583.850	800.000	-0.057	0.163
-582.836	-72.894	0.207	-0.076
-581.821	412.862	-0.123	0.261
-580.806	-94.136	-0.047	-0.013
-579.792	246.742	-0.127	0.214
-578.777	-200.000	-0.004	0.059
-577.763	-200.000	0.014	0.200
-576.748	-67.262	0.075	0.029
-575.733	12.757	0.212	-0.163
-574.719	-153.476	-0.240	-0.017
-573.704	-58.313	0.245	0.107
-572.690	-200.000	0.051	-0.248
-571.675	-200.000	0.045	-0.449
-570.661	71.985	-0.147	-0.152
-569.646	-19.150	0.302	0.187
-568.631	-200.000	0.030	0.208
-567.617	32.321	0.192	0.165
-566.602	-200.000	-0.009	-0.116
-565.588	-148.919	-0.226	-0.018
-564.573	800.000	-0.093	0.358
-563.558	-77.719	-0.133	-0.046
-562.544	-23.064	-0.039	0.024
-561.529	732.068	0.060	-0.159
-560.515	-62.576	0.428	0.177
-559.500	-200.000	-0.002	0.171
-558.485	192.082	-0.080	-0.121
-557.471	-125.301	-0.299	-0.046
-556.456	12.145	0.320	-0.246
-555.442	-75.312	0.241	-0.086
-554.427	178.128	0.045	-0.065
-553.412	-91.991	-0.148	0.042
-552.398	55.291	0.146	-0.141
-551.383	-98.740	-0.052	0.013
-550.369	-132.398	0.239	0.031
-549.354	571.653	-0.093	0.226
-548.339	-33.892	-0.283	-0.155
-547.325	-38.071	-0.288	0.152
-546.310	-78.304	-0.282	-0.096
-545.296	-18.331	0.150	0.093
-544.281	-43.583	-0.243	-0.122
-543.266	800.000	0.016	-0.054
-542.252	-200.000	0.001	0.206
-541.237	154.267	-0.174	0.238
-540.223	558.428	-0.136	0.328
-539.208	-52.613	-0.101	0.047
-538.193	132.291	-0.205	-0.263
-537.179	-200.000	-0.001	-0.165
-536.164	12.160	0.047	0.036
-535.150	523.980	-0.055	0.129
-534.135	-200.000	0.009	-0.194
-533.121	-200.000	0.002	-0.120
-532.106	6.839	-0.182	0.135
-531.091	-122.901	0.107	-0.017
-530.077	-74.161	-0.211	0.076
-529.062	351.266	0.057	-0.112
-528.048	-9.773	0.155	-0.103
-527.033	-5.843	-0.038	0.026
-526.018	-185.360	-0.230	-0.004
-525.004	363.298	-0.269	-0.539
-523.989	329.223	0.093	0.179
-522.975	-39.980	-0.059	0.031
-521.960	-85.779	-0.230	-0.071
-520.945	123.637	-0.095	0.118
-519.931	-200.000	0.037	0.195
-518.916	-89.231	-0.077	-0.023
-517.902	-200.000	-0.011	0.119
-516.887	401.603	-0.078	-0.164
-515.872	-185.655	-0.363	-0.005
-514.858	15.364	0.301	0.235
-513.843	280.269	-0.054	0.096
-512.829	-145.773	-0.261	-0.023
-511.814	16.498	-0.181	0.142
-510.799	-8.426	-0.288	0.193
-509.785	20.961	-0.204	0.164
-508.770	52.627	-0.063	-0.059
-507.756	-200.000	0.028	0.244
-506.741	199.791	0.070	0.107
-505.726	-88.880	-0.067	-0.020
-504.712	1.983	0.208	0.150
-503.697	-136.814	0.071	-0.008
-502.683	153.325	-0.158	-0.215
-501.668	-200.000	0.008	0.316
-500.653	-11.017	0.206	-0.136
-499.639	-59.417	0.095	0.041
-498.624	-100.203	0.190	-0.047
-497.610	-47.418	-0.173	-0.084
-496.595	-16.791	-0.134	-0.085
-495.581	800.000	-0.022	0.081
-494.566	65.185	-0.165	0.166
-493.551	800.000	-0.033	0.101
-492.537	-61.463	-0.399	-0.167
-491.522	-11.366	0.258	0.169
-490.508	130.951	-0.120	0.153
-489.493	-200.000	-0.008	-0.391
-488.478	21.047	-0.106	0.085
-487.464	-93.520	0.312	-0.086
-486.449	-122.051	-0.137	0.022
-485.435	-200.000	0.020	-0.444
-484.420	-51.938	-0.236	0.109
-483.405	158.739	0.186	-0.256
-482.391	800.000	-0.044	-0.152
-481.376	-28.950	0.131	-0.075
-480.362	800.000	0.034	0.110
-479.347	10.212	-0.176	0.133
-478.332	636.756	0.073	0.184
-477.318	-98.851	0.190	-0.048
-476.303	-73.657	0.120	0.043
-475.289	327.244	0.131	-0.250
-474.274	-4.814	0.212	0.145
-473.259	-200.000	0.064	0.310
-472.245	-200.000	-0.019	0.214
-471.230	-118.588	0.155	-0.027
-470.216	-86.275	0.377	-0.115
-469.201	-200.000	0.072	-0.344
-468.186	259.863	0.017	0.029
-467.172	-18.121	0.359	-0.223
-466.157	-136.708	-0.255	-0.029
-465.143	-200.000	0.008	0.114
-464.128	29.576	-0.184	0.156
-463.113	-28.153	0.139	-0.080
-462.099	-200.000	-0.006	-0.171
-461.084	-94.406	0.329	-0.089
-460.070	-118.730	-0.460	-0.081
-459.055	-55.733	-0.574	-0.255
-458.040	800.000	0.071	-0.216
-457.026	-73.851	-0.393	-0.142
-456.011	85.774	0.095	-0.104
-454.997	800.000	0.034	-0.113
-453.982	-49.433	-0.139	0.066
-452.968	78.199	-0.159	0.169
-451.953	-108.523	0.167	0.036
-450.938	-33.317	-0.044	-0.024
-449.924	-116.515	0.049	-0.009
-448.909	87.278	-0.049	0.054
-447.895	396.735	0.078	0.162
-446.880	-100.780	0.215	0.053
-445.865	-150.392	-0.275	-0.021
-444.851	-83.672	0.262	0.083
-443.836	296.447	-0.032	0.057
-442.822	-11.104	0.082	-0.054
-441.807	691.817	0.051	-0.133
-440.792	-200.000	0.054	0.296
-439.778	22.262	-0.021	-0.017
-438.763	-32.860	0.233	-0.128
-437.749	-6.712	0.312	0.211
-436.734	-63.411	-0.081	0.033
-435.719	303.187	-0.086	0.157
-434.705	246.103	0.093	-0.155
-433.690	-25.350	0.126	0.074
-432.676	46.650	-0.076	-0.070
-431.661	9.979	0.312	-0.235
-430.646	-22.313	-0.158	0.095
-429.632	-200.000	-0.031	0.259
-428.617	273.025	0.035	-0.062
-427.603	-67.476	0.326	0.127
-426.588	-66.038	-0.309	0.122
-425.573	577.366	0.118	-0.286
-424.559	120.766	-0.059	-0.073
-423.544	800.000	-0.071	0.194
-422.530	-73.846	0.274	-0.099
-421.515	77.023	0.160	-0.169
-420.500	7.289	-0.225	-0.166
-419.486	204.801	0.084	0.129
-418.471	-62.816	0.305	0.125
-417.457	800.000	0.065	0.192
-416.442	800.000	-0.056	0.203
-415.428	196.688	0.217	0.327
-414.413	-126.528	0.091	-0.013
-413.398	23.674	0.091	0.074
-412.384	-50.965	-0.222	-0.103
-411.369	26.942	0.156	-0.130
-410.355	800.000	-0.094	-0.342
-409.340	-64.050	-0.180	-0.073
-408.325	-100.818	0.531	-0.130
-407.311	-89.729	-0.184	-0.053
-406.296	124.489	0.261	0.325
-405.282	-3.005	-0.246	0.170
-404.267	-200.000	0.023	0.238
-403.252	-200.000	-0.021	-0.119
-402.238	213.030	-0.079	0.124
-401.223	15.654	-0.464	0.361
-400.209	-83.452	-0.359	-0.114
-399.194	-120.441	0.325	-0.055
-398.179	800.000	0.034	-0.111
-397.165	-71.591	0.112	0.042
-396.150	329.756	0.133	0.253
-395.136	5.129	0.107	-0.078
-394.121	-200.000	0.054	0.275
-393.106	-200.000	-0.004	-0.202
-392.092	800.000	-0.074	0.275
-391.077	-74.720	0.346	-0.123
-390.063	-200.000	-0.014	0.240
-389.048	31.759	-0.117	0.100
-388.033	-32.555	0.237	0.131
-387.019	-76.704	0.082	-0.029
-386.004	-86.349	0.100	-0.030
-384.990	-37.679	0.033	0.017
-383.975	288.159	-0.075	-0.134
-382.960	2.826	0.122	0.087
-381.946	103.224	-0.110	0.128
-380.931	800.000	-0.110	0.344
-379.917	20.319	0.246	0.196
-378.902	-200.000	0.063	0.294
-377.888	-60.606	0.303	-0.127
-376.873	-200.000	-0.008	0.049
-375.858	-200.000	-0.005	0.077
-374.844	-44.247	0.282	-0.140
-373.829	-72.105	-0.098	0.036
-372.815	-59.088	0.117	0.050
-371.800	56.994	-0.109	0.105
-370.785	-59.884	0.190	-0.080
-369.771	-88.174	0.316	0.094
-368.756	27.658	0.098	-0.082
-367.742	-28.724	0.065	0.037
-366.727	-200.000	-0.044	-0.283
-365.712	800.000	-0.056	-0.158
-364.698	-200.000	0.002	0.080
-363.683	327.005	-0.184	-0.348
-362.669	8.311	-0.150	0.112
-361.654	-200.000	-0.002	-0.026
-360.639	245.449	0.089	0.148
-359.625	462.659	0.037	0.082
-358.610	-48.272	0.185	0.088
-357.596	104.115	0.055	0.064
-356.581	739.577	0.110	-0.293
-355.566	-16.414	-0.124	-0.078
-354.552	-200.000	-0.024	0.126
-353.537	-106.048	0.360	0.080
-352.523	49.544	-0.123	-0.114
-351.508	257.115	0.088	-0.149
-350.493	-111.995	-0.333	0.066
-349.479	67.280	-0.070	0.071
-348.464	456.490	-0.035	-0.077
-347.450	-117.848	0.143	0.025
-346.435	-163.448	-0.030	-0.001
-345.420	-200.000	-0.007	-0.122
-344.406	451.459	-0.094	-0.206
-343.391	559.765	0.019	-0.045
-342.377	-200.000	0.015	0.106
-341.362	-200.000	0.012	0.093
-340.348	458.941	0.059	0.129
-339.333	-141.965	0.249	0.025
-338.318	50.351	0.200	-0.186
-337.304	7.189	0.130	0.096
-336.289	206.567	-0.079	-0.122
-335.275	39.582	-0.192	-0.170
-334.260	-120.229	-0.291	-0.049
-333.245	-138.016	-0.226	0.025
-332.231	4.060	0.114	-0.083
-331.216	172.810	0.092	0.131
-330.202	-27.796	0.286	0.164
-329.187	50.719	-0.075	-0.070
-328.172	64.289	-0.083	-0.083
-327.158	165.998	-0.160	0.224
-326.143	-80.124	-0.492	-0.163
-325.129	-132.424	-0.298	0.038
-324.114	-200.000	0.016	0.213
-323.099	-12.912	0.051	0.033
-322.085	527.810	0.140	-0.325
-321.070	40.527	-0.319	-0.284
-320.056	174.706	-0.245	0.350
-319.041	233.689	-0.127	0.206
-318.026	-38.402	0.170	0.089
-317.012	393.246	0.069	-0.142
-315.997	203.265	0.175	0.267
-314.983	-82.519	-0.212	-0.068
-313.968	410.114	0.029	0.060
-312.953	-78.838	-0.120	-0.041
-311.939	-62.374	0.280	-0.115
-310.924	-200.000	-0.034	0.157
-309.910	-200.000	0.008	-0.067
-308.895	59.843	-0.112	0.109
-307.880	296.871	-0.159	-0.287
-306.866	531.927	0.097	0.228
-305.851	-59.271	-0.285	-0.121
-304.837	57.265	0.121	0.117
-303.822	121.485	0.149	0.183
-302.807	250.269	-0.033	0.055
-301.793	-200.000	-0.011	0.051
-300.778	95.993	0.257	0.290
-299.764	198.721	0.058	0.087
-298.749	-132.825	0.074	-0.009
-297.735	49.010	0.147	0.136
-296.720	-108.417	0.348	-0.074
-295.705	-73.598	0.219	-0.079
-294.691	-200.000	-0.089	0.520
-293.676	-45.099	-0.367	-0.180
-292.662	-200.000	0.027	0.216
-291.647	-200.000	-0.069	0.353
-290.632	800.000	-0.018	-0.066
-289.618	-161.350	0.158	0.008
-288.603	-200.000	-0.026	-0.199
-287.589	-200.000	0.056	0.294
-286.574	68.968	-0.116	-0.117
-285.559	-107.592	-0.291	0.063
-284.545	-126.880	0.306	-0.045
-283.530	138.438	-0.206	0.267
-282.516	626.079	-0.034	0.084
-281.501	64.598	0.060	-0.059
-280.486	-13.650	0.087	0.055
-279.472	243.492	-0.078	-0.129
-278.457	114.223	-0.072	-0.087
-277.443	-2.273	0.198	-0.137
-276.428	189.894	-0.128	0.190
-275.413	-21.249	0.099	0.060
-274.399	-101.734	-0.271	-0.065
-273.384	800.000	0.046	-0.177
-272.370	800.000	0.086	-0.254
-271.355	-128.094	0.202	0.029
-270.340	-200.000	-0.019	-0.202
-269.326	-23.466	0.156	-0.092
-268.311	9.147	-0.228	0.170
-267.297	-108.635	-0.183	-0.039
-266.282	-19.332	0.308	0.188
-265.267	-81.201	-0.178	-0.058
-264.253	-27.927	-0.065	0.037
-263.238	607.977	0.069	-0.169
-262.224	-200.000	0.015	0.090
-261.209	8.929	-0.154	0.115
-260.195	-50.208	0.253	-0.118
-259.180	-200.000	-0.014	0.360
-258.165	91.537	0.218	0.242
-257.151	-147.554	0.094	-0.008
-256.136	189.672	-0.049	0.073
-255.122	-113.043	-0.175	-0.034
-254.107	-14.342	-0.135	0.086
-253.092	-82.640	0.056	-0.018
-252.078	221.115	-0.078	0.124
-251.063	415.929	-0.139	-0.293
-250.049	2.236	0.249	0.177
-249.034	-65.447	-0.083	0.033
-248.019	-141.212	-0.169	0.017
-247.005	273.629	0.158	-0.275
-245.990	595.152	-0.109	0.266
-244.976	-200.000	0.017	0.215
-243.961	134.057	0.183	-0.233
-242.946	-97.476	-0.389	0.100
-241.932	120.570	-0.124	0.151
-240.917	29.429	0.233	0.195
-239.903	-38.613	-0.145	0.075
-238.888	-200.000	-0.000	-0.276
-237.873	-64.712	0.248	0.099
-236.859	800.000	0.080	-0.251
-235.844	77.734	0.134	0.141
-234.830	97.651	0.097	0.109
-233.815	-33.759	-0.217	-0.118
-232.800	-164.873	-0.028	0.001
-231.786	166.514	0.105	-0.146
-230.771	-160.228	0.222	-0.012
-229.757	62.085	-0.141	-0.139
-228.742	800.000	0.111	-0.316
-227.727	-200.000	-0.012	0.084
-226.713	-200.000	-0.075	-0.419
-225.698	69.318	-0.188	0.191
-224.684	-112.111	0.216	-0.043
-223.669	-200.000	0.001	-0.127
-222.655	-108.646	-0.071	0.015
-221.640	-177.994	0.224	0.005
-220.625	-90.522	-0.248	-0.071
-219.611	-200.000	-0.004	0.063
-218.596	10.832	-0.172	0.130
-217.582	508.818	0.159	-0.363
-216.567	498.885	0.062	-0.141
-215.552	60.424	-0.130	0.127
-214.538	11.457	0.167	-0.126
-213.523	800.000	-0.059	-0.252
-212.509	-200.000	0.001	0.006
-211.494	-18.377	0.272	-0.167
-210.479	185.900	-0.102	-0.150
-209.465	8.430	0.252	0.187
-208.450	296.377	-0.126	0.228
-207.436	-123.143	-0.060	-0.009
-206.421	53.051	0.127	-0.120
-205.406	-123.589	0.163	0.025
-204.392	-192.224	0.025	-0.000
-203.377	-200.000	-0.002	0.060
-202.363	800.000	0.063	-0.267
-201.348	76.253	-0.157	-0.163
-200.333	800.000	0.048	-0.205
-199.319	-22.884	-0.130	-0.077
-198.304	58.990	0.204	0.198
-197.290	150.256	0.047	0.063
-196.275	-165.316	-0.215	0.009
-195.260	771.613	-0.054	-0.144
-194.246	376.010	0.052	0.105
-193.231	-145.658	0.334	-0.029
-192.217	800.000	-0.054	-0.162
-191.202	528.735	-0.039	0.091
-190.187	800.000	0.162	0.478
-189.173	-30.142	-0.217	-0.121
-188.158	-200.000	0.005	-0.061
-187.144	-86.110	0.324	0.098
-186.129	800.000	0.038	0.107
-185.114	-18.429	0.242	0.148
-184.100	626.048	-0.087	0.215
-183.085	6.762	-0.106	0.078
-182.071	112.033	-0.198	-0.236
-181.056	-200.000	0.028	-0.194
-180.042	112.804	0.154	-0.183
-179.027	77.134	-0.132	0.138
-178.012	493.390	-0.111	0.251
-176.998	-134.431	0.092	-0.011
-175.983	-125.141	0.173	0.026
-174.969	129.514	-0.011	-0.014
-173.954	-118.280	0.346	-0.060
-172.939	-200.000	-0.017	-0.208
-171.925	-200.000	0.058	0.000
-170.910	-200.000	-0.072	-0.456
-169.896	-172.964	-0.359	-0.011
-168.881	-200.000	-0.006	0.082
-167.866	201.601	-0.035	-0.054
-166.852	-139.523	0.082	-0.009
-165.837	-91.504	-0.307	-0.086
-164.823	-200.000	0.022	0.163
-163.808	-127.732	0.263	-0.037
-162.793	74.109	-0.052	-0.053
-161.779	101.090	-0.081	-0.092
-160.764	-46.778	0.215	0.103
-159.750	115.887	0.119	0.143
-158.735	90.561	0.165	0.181
-157.720	-200.000	0.023	-0.266
-156.706	66.126	-0.178	-0.177
-155.691	73.364	-0.051	-0.052
-154.677	37.143	-0.181	-0.157
-153.662	362.663	0.076	0.149
-152.647	-200.000	0.015	-0.187
-151.633	-131.514	-0.119	0.015
-150.618	-74.148	-0.093	-0.033
-149.604	686.338	0.077	-0.199
-148.589	800.000	0.011	0.036
-147.574	-200.000	0.007	0.178
-146.560	-74.382	-0.195	-0.069
-145.545	1.742	-0.281	-0.199
-144.531	513.769	0.024	0.055
-143.516	-170.963	-0.145	-0.005
-142.502	363.490	-0.205	0.404
-141.487	100.036	0.133	-0.151
-140.472	-42.856	0.154	0.077
-139.458	-55.899	0.296	0.130
-138.443	-125.807	0.421	0.062
-137.429	-186.544	-0.059	-0.001
-136.414	-200.000	0.005	0.108
-135.399	72.562	0.179	0.183
-134.385	-118.124	0.201	0.035
-133.370	-200.000	0.067	-0.551
-132.356	299.640	-0.072	-0.130
-131.341	90.785	-0.186	-0.205
-130.326	-110.911	-0.123	0.025
-129.312	-200.000	0.010	0.205
-128.297	-200.000	-0.014	0.095
-127.283	-200.000	-0.006	-0.326
-126.268	373.400	0.081	-0.161
-125.253	-200.000	-0.010	0.387
-124.239	-24.631	-0.130	0.076
-123.224	-85.023	-0.130	-0.040
-122.210	44.663	0.149	0.134
-121.195	318.773	-0.073	0.136
-120.180	-112.470	0.272	0.053
