DTS Sentinel unit serial number:	SN413079Multiplexer serial number:	ORYXHardware model number:	OX4-SRSoftware version number:	ORYX F/W v4.00 Oryx Data Collector v3.7.2.0data status	okinstallation	princeton_trtdifferential loss correction	single-endedforward channel	channel 1reverse channel	N/Adate	2019/09/14time	16:14:35forward acquisition time	60.00reverse acquisition time	0.00gamma	496.2192k internal	0.2296k external	0.2296temperature offset calibration	1.0064default loss term (dB/km)	0.3790temperature slope calibration	1.0000multiplexer offset coefficient	1.0000multiplexer slope coefficient	1.0000fibre end	0.00T internal ref (°C)	38.27T ext. ref 1 (°C)	5.08T ext. ref 2 (°C)	32.87length (m)	temperature (°C)	Stokes	anti-Stokes-747.200	179.595	0.047	0.070
-746.185	-194.637	0.090	0.001
-745.171	-68.197	-0.280	0.111
-744.156	800.000	0.125	0.405
-743.142	-97.627	-0.154	0.041
-742.127	800.000	-0.036	0.159
-741.112	-67.752	0.267	0.107
-740.098	800.000	-0.214	0.664
-739.083	-157.947	-0.183	0.011
-738.069	184.953	-0.086	0.130
-737.054	-143.596	-0.171	-0.017
-736.039	-91.895	-0.494	0.143
-735.025	800.000	0.052	0.217
-734.010	-50.051	-0.156	-0.076
-732.996	-200.000	-0.005	0.175
-731.981	800.000	-0.074	-0.251
-730.966	172.683	0.056	0.082
-729.952	-99.785	-0.064	0.016
-728.937	71.828	-0.270	-0.287
-727.923	-64.455	-0.313	0.130
-726.908	-25.278	-0.088	-0.053
-725.894	-200.000	0.014	-0.116
-724.879	-149.821	-0.229	0.018
-723.864	-200.000	-0.093	0.528
-722.850	297.857	-0.061	0.114
-721.835	-129.102	-0.320	0.046
-720.821	253.098	-0.102	-0.177
-719.806	322.508	-0.047	0.091
-718.791	63.403	0.021	0.022
-717.777	15.272	-0.231	-0.185
-716.762	-18.579	-0.173	0.110
-715.748	-32.319	-0.065	-0.037
-714.733	-88.434	0.131	-0.040
-713.718	-62.716	-0.079	-0.033
-712.704	800.000	-0.038	-0.167
-711.689	-109.764	0.227	0.049
-710.675	-86.213	-0.216	0.068
-709.660	800.000	-0.073	0.274
-708.645	-35.284	-0.167	-0.093
-707.631	30.813	0.069	0.060
-706.616	-2.674	0.256	-0.182
-705.602	728.802	0.047	0.128
-704.587	43.947	-0.104	0.097
-703.572	-24.784	0.158	0.096
-702.558	28.748	-0.050	0.043
-701.543	612.123	-0.090	-0.228
-700.529	224.350	-0.119	-0.197
-699.514	-200.000	-0.010	0.165
-698.499	-73.754	-0.121	0.045
-697.485	317.918	0.121	-0.233
-696.470	-45.750	0.300	0.151
-695.456	-200.000	0.013	-0.330
-694.441	-200.000	0.022	0.131
-693.426	-200.000	-0.027	-0.247
-692.412	112.753	-0.100	0.123
-691.397	14.326	-0.114	-0.091
-690.383	278.126	-0.157	-0.284
-689.368	-170.475	0.213	-0.008
-688.354	-200.000	-0.025	-0.244
-687.339	-134.064	0.340	0.043
-686.324	-119.459	-0.176	0.031
-685.310	-200.000	0.007	-0.062
-684.295	800.000	0.113	-0.423
-683.281	800.000	-0.031	-0.116
-682.266	-140.847	0.326	-0.034
-681.251	-200.000	-0.008	-0.071
-680.237	-106.173	0.250	-0.057
-679.222	-129.582	-0.248	-0.035
-678.208	-178.168	0.089	0.002
-677.193	156.177	-0.185	-0.259
-676.178	-200.000	-0.031	-0.303
-675.164	421.861	0.160	-0.350
-674.149	14.277	-0.141	-0.112
-673.135	-200.000	-0.048	-0.230
-672.120	174.270	-0.142	-0.209
-671.105	800.000	0.040	-0.160
-670.091	-125.267	-0.096	-0.015
-669.076	-200.000	-0.402	0.002
-668.062	-134.624	-0.407	-0.051
-667.047	256.977	0.101	-0.177
-666.032	359.063	0.071	0.145
-665.018	276.474	0.057	-0.102
-664.003	205.931	-0.095	0.150
-662.989	85.970	-0.096	0.108
-661.974	130.103	-0.113	-0.148
-660.959	-87.659	-0.061	0.019
-659.945	102.429	-0.318	0.379
-658.930	-200.000	-0.009	0.334
-657.916	-170.142	-0.178	0.006
-656.901	-200.000	-0.047	0.533
-655.886	-110.317	-0.552	0.117
-654.872	484.617	0.198	0.459
-653.857	781.739	-0.133	-0.371
-652.843	-162.286	0.334	-0.017
-651.828	358.433	-0.250	-0.507
-650.814	14.568	-0.259	-0.206
-649.799	-143.568	0.214	-0.021
-648.784	-29.201	-0.273	-0.159
-647.770	205.802	-0.075	-0.119
-646.755	57.037	0.282	-0.279
-645.741	417.599	-0.034	-0.075
-644.726	-158.286	-0.080	0.005
-643.711	-41.204	-0.270	-0.142
-642.697	-120.679	-0.086	-0.015
-641.682	430.857	-0.087	-0.192
-640.668	-200.000	0.026	-0.246
-639.653	71.060	-0.163	0.172
-638.638	65.821	0.135	-0.140
-637.624	120.737	0.368	-0.466
-636.609	-200.000	-0.010	-0.207
-635.595	58.676	0.082	-0.082
-634.580	-155.359	0.133	-0.009
-633.565	-200.000	0.016	-0.089
-632.551	297.830	0.119	-0.223
-631.536	113.584	0.237	0.292
-630.522	800.000	0.046	0.138
-629.507	800.000	0.065	0.205
-628.492	800.000	0.098	0.314
-627.478	-60.265	-0.101	0.044
-626.463	800.000	0.020	0.061
-625.449	-115.621	-0.182	0.035
-624.434	-183.621	-0.341	-0.006
-623.419	-29.463	-0.173	-0.101
-622.405	-69.320	0.227	-0.089
-621.390	-26.911	-0.319	0.189
-620.376	-140.259	-0.241	0.026
-619.361	-45.089	-0.085	0.043
-618.346	800.000	0.088	-0.351
-617.332	-49.877	-0.132	-0.064
-616.317	179.379	-0.181	-0.270
-615.303	800.000	0.046	-0.182
-614.288	-200.000	0.030	-0.183
-613.273	21.009	0.253	0.208
-612.259	800.000	0.037	0.151
-611.244	800.000	0.056	-0.224
-610.230	303.570	-0.109	-0.206
-609.215	163.763	0.073	-0.105
-608.201	236.406	-0.055	-0.092
-607.186	-200.000	-0.005	-0.160
-606.171	486.630	-0.087	-0.202
-605.157	-43.611	0.043	-0.022
-604.142	120.935	-0.157	0.198
-603.128	96.750	-0.151	-0.175
-602.113	194.837	-0.060	-0.093
-601.098	-200.000	0.024	0.172
-600.084	135.739	0.158	-0.209
-599.069	-101.546	-0.294	-0.073
-598.055	564.559	0.052	-0.128
-597.040	-51.836	-0.303	0.143
-596.025	-200.000	0.060	0.372
-595.011	-200.000	0.055	-0.308
-593.996	404.986	0.080	-0.172
-592.982	-126.014	0.144	-0.022
-591.967	-138.469	0.266	0.030
-590.952	-200.000	0.052	-0.288
-589.938	-162.656	0.509	-0.025
-588.923	310.870	-0.125	0.238
-587.909	800.000	-0.043	0.191
-586.894	-200.000	0.004	0.234
-585.879	3.579	0.315	0.233
-584.865	-128.385	0.101	-0.015
-583.850	255.014	-0.099	0.172
-582.836	-149.252	0.067	-0.005
-581.821	251.807	-0.083	-0.144
-580.806	-161.675	-0.161	0.008
-579.792	-200.000	0.011	0.065
-578.777	-200.000	-0.017	0.091
-577.763	-47.072	0.393	-0.195
-576.748	-58.584	-0.216	0.095
-575.733	83.954	-0.235	-0.260
-574.719	517.964	-0.087	0.208
-573.704	-200.000	-0.047	-0.288
-572.690	11.875	-0.272	-0.212
-571.675	377.240	-0.017	0.036
-570.661	-175.318	0.151	0.004
-569.646	223.129	-0.040	0.066
-568.631	-1.414	0.178	0.128
-567.617	800.000	-0.047	-0.179
-566.602	800.000	0.052	0.221
-565.588	86.649	-0.234	0.262
-564.573	165.729	-0.127	-0.183
-563.558	-3.729	-0.214	0.151
-562.544	-200.000	-0.029	-0.258
-561.529	-102.400	-0.304	-0.074
-560.515	800.000	-0.040	0.167
-559.500	-124.116	0.151	-0.024
-558.485	-116.239	0.282	-0.053
-557.471	71.844	0.070	-0.074
-556.456	-128.298	-0.080	-0.012
-555.442	-200.000	-0.017	-0.226
-554.427	-77.989	-0.124	-0.043
-553.412	51.932	-0.124	-0.120
-552.398	-9.461	0.290	-0.196
-551.383	-75.825	0.036	-0.013
-550.369	-200.000	-0.108	0.690
-549.354	-143.646	-0.131	-0.013
-548.339	-46.821	0.126	-0.063
-547.325	-104.529	-0.274	-0.064
-546.310	292.389	-0.068	0.126
-545.296	249.639	0.142	0.244
-544.281	86.277	0.123	-0.137
-543.266	-42.137	0.214	0.111
-542.252	-120.330	0.134	-0.023
-541.237	800.000	0.068	0.241
-540.223	14.764	-0.127	0.101
-539.208	77.933	-0.186	0.201
-538.193	800.000	-0.137	-0.513
-537.179	-200.000	0.052	-0.317
-536.164	-25.647	0.122	-0.073
-535.150	-45.736	-0.222	0.111
-534.135	-30.967	-0.100	0.057
-533.121	10.965	-0.062	0.048
-532.106	-72.992	0.186	0.069
-531.091	287.036	-0.125	-0.229
-530.077	180.322	-0.132	-0.196
-529.062	402.344	-0.076	-0.163
-528.048	485.643	0.108	-0.250
-527.033	57.284	0.275	0.272
-526.018	-154.704	-0.164	0.011
-525.004	-184.533	-0.071	0.001
-523.989	122.782	-0.244	-0.309
-522.975	-147.566	-0.162	-0.014
-521.960	-145.322	-0.298	0.027
-520.945	-70.900	0.416	0.159
-519.931	-149.580	-0.145	0.012
-518.916	260.802	-0.138	0.242
-517.902	-95.413	0.234	0.064
-516.887	168.292	-0.172	-0.248
-515.872	-200.000	-0.002	-0.255
-514.858	-200.000	-0.011	-0.087
-513.843	125.218	0.104	0.133
-512.829	-200.000	0.019	0.149
-511.814	262.573	-0.072	-0.127
-510.799	-129.196	-0.186	-0.026
-509.785	208.247	-0.026	-0.041
-508.770	185.508	-0.092	0.139
-507.756	459.750	0.025	0.057
-506.741	-30.747	0.305	-0.175
-505.726	267.839	0.183	-0.324
-504.712	800.000	-0.059	0.262
-503.697	-125.783	0.240	-0.037
-502.683	42.496	-0.040	-0.037
-501.668	-42.812	0.091	0.047
-500.653	694.792	0.153	0.405
-499.639	195.505	-0.075	0.115
-498.624	-200.000	-0.017	-0.156
-497.610	-124.781	0.230	-0.036
-496.595	-145.126	0.150	0.014
-495.581	19.959	-0.220	-0.179
-494.566	642.437	0.059	-0.152
-493.551	18.266	0.160	0.130
-492.537	800.000	-0.067	-0.194
-491.522	663.148	-0.092	0.239
-490.508	-72.415	0.170	0.064
-489.493	263.413	-0.054	0.095
-488.478	-54.932	-0.080	-0.037
-487.464	-28.116	-0.324	-0.190
-486.449	-36.366	-0.367	0.200
-485.435	-72.991	0.171	0.064
-484.420	-115.539	-0.077	-0.015
-483.405	-200.000	0.030	-0.180
-482.391	-3.425	-0.212	-0.149
-481.376	-151.002	0.092	0.007
-480.362	-200.000	0.006	0.162
-479.347	-52.142	-0.337	0.158
-478.332	61.279	0.293	-0.295
-477.318	-163.369	0.288	-0.014
-476.303	-122.267	-0.179	-0.030
-475.289	357.092	-0.103	0.207
-474.274	800.000	0.058	-0.184
-473.259	-114.550	-0.143	0.028
-472.245	-116.145	-0.187	0.035
-471.230	-58.132	0.255	0.112
-470.216	-200.000	-0.018	0.102
-469.201	-30.644	0.183	0.105
-468.186	-179.571	-0.067	0.001
-467.172	63.361	0.029	-0.030
-466.157	4.752	0.157	-0.117
-465.143	-168.210	-0.355	-0.014
-464.128	-144.149	-0.190	-0.018
-463.113	-54.363	0.122	0.056
-462.099	-167.191	-0.098	-0.004
-461.084	-200.000	0.028	0.178
-460.070	382.896	-0.010	0.022
-459.055	27.705	-0.219	-0.186
-458.040	-128.126	0.284	-0.041
-457.026	-68.283	-0.110	0.043
-456.011	-57.859	0.161	-0.071
-454.997	-106.418	-0.277	0.062
-453.982	-87.156	-0.396	0.122
-452.968	423.416	0.167	-0.363
-451.953	-200.000	-0.036	0.394
-450.938	-200.000	-0.026	0.116
-449.924	295.963	0.056	-0.104
-448.909	-9.231	0.352	0.237
-447.895	148.733	-0.158	0.216
-446.880	-20.189	-0.202	-0.125
-445.865	800.000	0.070	0.229
-444.851	800.000	-0.049	0.204
-443.836	-200.000	0.053	-0.235
-442.822	-200.000	0.000	0.115
-441.807	38.630	-0.105	0.094
-440.792	239.867	-0.028	0.048
-439.778	-200.000	0.046	0.358
-438.763	576.166	-0.122	0.301
-437.749	-14.949	0.320	0.207
-436.734	730.978	-0.112	-0.303
-435.719	1.844	-0.296	0.216
-434.705	800.000	-0.111	0.339
-433.690	-106.773	0.340	-0.076
-432.676	-41.556	0.268	0.139
-431.661	-117.188	-0.169	-0.031
-430.646	335.818	0.100	-0.196
-429.632	14.134	-0.195	-0.153
-428.617	-12.080	-0.300	0.198
-427.603	-58.006	0.129	-0.057
-426.588	14.737	0.111	0.088
-425.573	-51.143	0.127	-0.060
-424.559	81.830	-0.219	-0.239
-423.544	-139.809	0.154	0.016
-422.530	-200.000	-0.056	-0.255
-421.515	800.000	0.027	-0.088
-420.500	681.126	-0.045	0.118
-419.486	-10.056	0.495	-0.332
-418.471	-104.942	0.217	0.050
-417.457	-17.909	0.213	-0.135
-416.442	-58.490	-0.213	0.093
-415.428	139.061	-0.202	-0.268
-414.413	-73.305	0.209	0.077
-413.398	-89.558	-0.318	-0.094
-412.384	20.048	-0.213	0.174
-411.369	-200.000	0.027	0.190
-410.355	-98.353	-0.058	0.015
-409.340	-200.000	0.003	-0.385
-408.325	-131.513	0.132	0.018
-407.311	52.298	0.118	-0.113
-406.296	-66.897	-0.320	-0.128
-405.282	-200.000	0.048	-0.376
-404.267	-96.408	0.164	-0.044
-403.252	51.750	0.099	-0.095
-402.238	-200.000	-0.003	-0.177
-401.223	-68.716	-0.288	-0.112
-400.209	185.992	-0.077	-0.115
-399.194	-200.000	-0.007	-0.170
-398.179	-121.606	0.149	-0.025
-397.165	-200.000	-0.012	0.092
-396.150	90.924	-0.202	0.228
-395.136	420.894	0.106	0.228
-394.121	800.000	0.081	0.292
-393.106	777.085	0.125	0.344
-392.092	-200.000	0.033	0.316
-391.077	-102.221	-0.235	0.057
-390.063	141.145	0.166	0.221
-389.048	2.917	-0.234	0.171
-388.033	16.929	0.162	0.129
-387.019	-200.000	-0.043	-0.268
-386.004	9.762	-0.240	0.184
-384.990	-141.389	0.161	-0.017
-383.975	-111.608	0.219	0.045
-382.960	-200.000	0.044	0.201
-381.946	800.000	0.050	-0.139
-380.931	142.447	0.230	-0.307
-379.917	-200.000	-0.004	-0.093
-378.902	-118.608	0.294	-0.052
-377.888	-200.000	-0.046	0.233
-376.873	-195.419	0.142	-0.001
-375.858	13.967	-0.154	-0.121
-374.844	34.332	-0.324	-0.285
-373.829	-101.827	-0.363	-0.088
-372.815	-112.097	-0.203	0.041
-371.800	677.443	-0.104	0.272
-370.785	-135.009	-0.111	-0.014
-369.771	-86.748	-0.121	0.037
-368.756	800.000	0.116	0.336
-367.742	-5.725	0.024	0.016
-366.727	-63.088	-0.302	0.125
-365.712	-89.750	-0.131	-0.039
-364.698	-75.553	0.101	0.036
-363.683	126.828	-0.110	-0.140
-362.669	-200.000	-0.006	0.044
-361.654	18.203	-0.175	0.141
-360.639	-200.000	-0.023	0.177
-359.625	-52.962	0.047	0.022
-358.610	82.306	0.243	0.265
-357.596	800.000	-0.069	-0.268
-356.581	-103.072	0.260	-0.062
-355.566	-86.680	-0.210	-0.065
-354.552	328.527	0.095	-0.183
-353.537	800.000	-0.029	0.108
-352.523	-93.832	0.361	-0.100
-351.508	403.613	0.128	0.270
-350.493	4.634	-0.149	-0.110
-349.479	-200.000	0.024	-0.334
-348.464	0.927	-0.164	-0.119
-347.450	-200.000	-0.025	0.205
-346.435	-200.000	-0.028	0.180
-345.420	9.098	0.171	0.130
-344.406	174.915	-0.109	-0.158
-343.391	-200.000	0.044	0.226
-342.377	-139.537	0.079	-0.008
-341.362	10.859	-0.171	0.131
-340.348	74.198	-0.072	-0.077
-339.333	-53.757	0.319	-0.146
-338.318	125.249	0.204	-0.259
-337.304	-168.018	0.275	-0.011
-336.289	800.000	-0.028	-0.093
-335.275	-101.032	0.292	0.072
-334.260	-39.102	0.086	0.046
-333.245	-139.185	-0.121	-0.013
-332.231	727.909	-0.015	0.041
-331.216	4.768	0.176	0.130
-330.202	-69.081	0.352	0.136
-329.187	-56.056	-0.021	-0.009
-328.172	240.016	0.171	0.286
-327.158	-200.000	0.026	-0.135
-326.143	185.528	-0.118	-0.176
-325.129	-200.000	0.005	-0.095
-324.114	-88.715	-0.144	0.043
-323.099	-134.301	-0.292	-0.036
-322.085	-200.000	-0.013	0.133
-321.070	-23.172	0.085	-0.051
-320.056	-81.617	0.140	-0.046
-319.041	-200.000	0.096	0.424
-318.026	-28.045	-0.014	0.008
-317.012	-81.498	-0.091	0.030
-315.997	800.000	0.039	-0.125
-314.983	-96.550	-0.077	0.020
-313.968	441.450	0.050	0.109
-312.953	-200.000	-0.018	-0.169
-311.939	-98.286	-0.218	0.056
-310.924	800.000	0.075	0.315
-309.910	-63.246	0.259	0.107
-308.895	-46.738	-0.335	-0.165
-307.880	95.770	-0.123	0.141
-306.866	-200.000	0.003	-0.143
-305.851	-78.015	-0.328	-0.113
-304.837	-26.591	0.279	-0.164
-303.822	-46.925	0.208	0.102
-302.807	-200.000	-0.039	0.525
-301.793	-139.460	0.080	-0.009
-300.778	-99.085	0.389	-0.099
-299.764	-200.000	0.021	0.124
-298.749	50.039	-0.118	-0.111
-297.735	-24.568	-0.314	0.188
-296.720	-200.000	-0.008	0.238
-295.705	361.958	-0.058	0.116
-294.691	-200.000	0.018	0.152
-293.676	193.925	-0.212	0.322
-292.662	-200.000	0.025	-0.201
-291.647	150.343	-0.083	-0.113
-290.632	800.000	-0.028	-0.109
-289.618	-200.000	-0.044	0.434
-288.603	205.120	-0.195	0.303
-287.589	218.807	0.013	0.022
-286.574	-148.818	0.311	0.025
-285.559	-9.414	0.159	0.107
-284.545	129.543	-0.061	-0.078
-283.530	-200.000	-0.028	-0.222
-282.516	227.689	-0.090	-0.146
-281.501	19.688	0.097	-0.078
-280.486	26.676	-0.203	0.171
-279.472	-200.000	0.029	-0.160
-278.457	27.694	0.165	-0.139
-277.443	-84.062	-0.346	0.110
-276.428	520.420	-0.125	0.295
-275.413	-200.000	-0.042	0.224
-274.399	456.513	0.045	0.101
-273.384	-31.414	-0.241	-0.136
-272.370	-192.168	0.191	0.002
-271.355	32.448	0.186	0.162
-270.340	800.000	-0.060	-0.201
-269.326	800.000	-0.049	0.215
-268.311	-17.681	0.256	0.161
-267.297	-121.216	-0.328	0.055
-266.282	90.524	-0.120	-0.135
-265.267	-200.000	-0.020	0.118
-264.253	-200.000	0.034	0.239
-263.238	-67.617	0.369	-0.145
-262.224	234.743	0.223	-0.369
-261.209	800.000	-0.027	-0.116
-260.195	72.342	0.048	0.050
-259.180	545.184	-0.055	0.133
-258.165	-200.000	0.061	-0.347
-257.151	-24.227	-0.222	0.133
-256.136	-110.388	0.330	-0.069
-255.122	-200.000	-0.024	0.250
-254.107	-200.000	-0.022	0.153
-253.092	341.072	0.120	0.235
-252.078	-94.164	0.163	-0.045
-251.063	-200.000	-0.002	0.078
-250.049	-39.623	0.285	-0.149
-249.034	205.324	0.173	-0.269
-248.019	-6.754	-0.317	-0.216
-247.005	-120.141	-0.088	-0.015
-245.990	-161.595	-0.285	-0.015
-244.976	-72.950	-0.365	0.134
-243.961	-37.382	0.290	-0.155
-242.946	-2.503	0.185	-0.130
-241.932	-33.782	-0.383	-0.212
-240.917	-38.268	-0.117	-0.062
-239.903	23.111	-0.188	0.155
-238.888	-145.671	0.168	-0.015
-237.873	-14.593	-0.393	-0.253
-236.859	153.251	0.170	-0.233
-235.844	-70.041	-0.174	-0.066
-234.830	254.126	0.057	-0.097
-233.815	-17.555	0.163	-0.102
-232.800	198.485	-0.113	0.174
-231.786	-200.000	0.025	-0.331
-230.771	170.235	0.072	-0.103
-229.757	159.718	0.108	-0.150
-228.742	69.099	-0.209	-0.215
-227.727	-57.664	0.467	-0.205
-226.713	-99.755	-0.303	0.076
-225.698	168.120	-0.082	0.117
-224.684	-200.000	0.047	-0.216
-223.669	7.493	0.123	-0.092
-222.655	37.020	0.182	0.161
-221.640	62.132	-0.157	-0.156
-220.625	-131.682	-0.216	-0.028
-219.611	-79.341	-0.288	0.098
-218.596	800.000	-0.093	-0.310
-217.582	-200.000	-0.005	-0.063
-216.567	587.645	0.054	0.133
-215.552	-44.513	-0.317	0.159
-214.538	-120.392	0.036	-0.006
-213.523	-42.501	0.130	0.066
-212.509	-102.198	-0.155	0.037
-211.494	800.000	-0.087	0.243
-210.479	-200.000	-0.009	0.112
-209.465	-120.357	0.225	0.038
-208.450	800.000	-0.084	-0.289
-207.436	69.168	0.075	-0.078
-206.421	-128.836	-0.107	0.015
-205.406	-66.279	-0.254	-0.101
-204.392	157.314	-0.069	0.095
-203.377	194.890	-0.081	-0.122
-202.363	285.838	0.222	-0.401
-201.348	-106.822	-0.120	-0.027
-200.333	35.472	0.222	0.195
-199.319	-57.194	0.344	0.152
-198.304	11.016	-0.086	0.065
-197.290	800.000	-0.150	-0.426
-196.275	213.337	0.137	0.216
-195.260	113.111	0.199	0.242
-194.246	-200.000	0.009	0.321
-193.231	240.994	0.041	-0.068
-192.217	77.485	-0.123	0.131
-191.202	-44.844	0.294	-0.147
-190.187	44.932	0.171	0.158
-189.173	11.774	0.195	0.150
-188.158	-117.721	0.241	0.043
-187.144	181.579	0.161	-0.237
-186.129	-200.000	-0.006	0.318
-185.114	157.802	0.075	-0.103
-184.100	13.892	0.130	-0.101
-183.085	361.939	0.132	-0.264
-182.071	-38.308	0.118	-0.063
-181.056	-24.580	0.510	0.304
-180.042	-93.850	0.046	-0.013
-179.027	-48.581	-0.099	-0.047
-178.012	254.556	-0.091	-0.155
-176.998	152.056	0.208	-0.284
-175.983	-200.000	-0.009	0.118
-174.969	-200.000	0.003	0.034
-173.954	-97.955	0.096	-0.025
-172.939	-9.645	-0.175	-0.116
-171.925	250.817	0.162	0.276
-170.910	800.000	0.108	0.402
-169.896	-54.496	-0.203	0.092
-168.881	-200.000	0.012	0.098
-167.866	-43.393	0.221	-0.112
-166.852	-200.000	-0.010	-0.106
-165.837	119.114	0.129	-0.159
-164.823	-69.221	0.247	0.095
-163.808	-24.319	0.067	-0.040
-162.793	169.368	-0.081	0.115
-161.779	-200.000	-0.037	0.197
-160.764	174.557	0.159	0.229
-159.750	443.204	0.066	-0.145
-158.735	-62.391	-0.130	0.054
-157.720	-89.768	0.286	0.084
-156.706	800.000	0.049	0.187
-155.691	23.064	-0.136	0.111
-154.677	800.000	0.146	0.434
-153.662	27.270	-0.105	-0.088
-152.647	800.000	-0.108	-0.403
-151.633	-140.733	-0.284	-0.029
-150.618	-200.000	-0.016	-0.163
-149.604	8.606	-0.116	0.087
-148.589	-200.000	-0.028	-0.131
-147.574	208.897	0.013	0.020
-146.560	27.432	-0.163	-0.137
-145.545	-133.093	-0.257	-0.033
-144.531	25.077	-0.317	0.263
-143.516	-200.000	-0.021	0.171
-142.502	-200.000	-0.035	0.358
-141.487	800.000	0.115	0.483
-140.472	-152.813	0.213	-0.015
-139.458	261.121	-0.080	-0.138
-138.443	800.000	0.062	-0.234
-137.429	583.448	-0.111	0.271
-136.414	800.000	0.044	0.152
-135.399	-86.571	0.092	-0.028
-134.385	69.458	0.122	0.125
-133.370	-200.000	0.026	-0.129
-132.356	-36.817	0.153	-0.082
-131.341	52.083	0.247	-0.235
-130.326	382.325	0.085	-0.174
-129.312	-200.000	0.009	0.059
-128.297	-73.536	0.366	0.133
-127.283	800.000	-0.017	0.072
-126.268	-200.000	0.057	0.000
-125.253	314.881	-0.057	0.108
-124.239	-43.502	0.200	0.101
-123.224	323.394	-0.111	-0.212
