DTS Sentinel unit serial number:	SN413079Multiplexer serial number:	ORYXHardware model number:	OX4-SRSoftware version number:	ORYX F/W v4.00 Oryx Data Collector v3.7.2.0data status	okinstallation	princeton_trtdifferential loss correction	single-endedforward channel	channel 1reverse channel	N/Adate	2019/09/16time	09:18:35forward acquisition time	60.00reverse acquisition time	0.00gamma	496.2192k internal	0.2323k external	0.2323temperature offset calibration	0.9977default loss term (dB/km)	0.3790temperature slope calibration	1.0000multiplexer offset coefficient	1.0000multiplexer slope coefficient	1.0000fibre end	0.00T internal ref (°C)	31.27T ext. ref 1 (°C)	12.15T ext. ref 2 (°C)	28.77length (m)	temperature (°C)	Stokes	anti-Stokes-747.200	122.338	-0.087	0.109
-746.185	-97.672	-0.431	-0.113
-745.171	-200.000	-0.022	-0.359
-744.156	232.290	0.164	0.272
-743.142	130.658	0.224	0.290
-742.127	234.419	0.125	0.208
-741.112	294.096	0.123	0.226
-740.098	-200.000	0.005	0.102
-739.083	361.444	-0.013	-0.027
-738.069	-200.000	0.009	0.158
-737.054	18.867	0.265	-0.214
-736.039	-185.016	-0.278	-0.004
-735.025	-25.877	0.293	0.174
-734.010	156.314	-0.182	-0.253
-732.996	800.000	0.066	-0.261
-731.981	30.893	-0.200	-0.173
-730.966	-2.575	-0.327	-0.231
-729.952	800.000	0.089	-0.264
-728.937	800.000	-0.173	-0.498
-727.923	295.598	0.085	-0.157
-726.908	82.139	0.071	0.077
-725.894	-82.034	-0.272	0.090
-724.879	117.549	0.140	-0.174
-723.864	-200.000	-0.029	0.138
-722.850	-109.213	0.086	-0.018
-721.835	127.497	-0.063	-0.081
-720.821	-9.730	-0.184	-0.124
-719.806	267.784	-0.100	-0.176
-718.791	-97.532	0.067	0.017
-717.777	-145.276	0.229	0.021
-716.762	306.647	0.054	-0.102
-715.748	216.181	0.052	-0.083
-714.733	-166.031	0.233	-0.010
-713.718	-97.444	0.497	0.130
-712.704	800.000	-0.034	0.124
-711.689	229.903	0.097	0.159
-710.675	800.000	-0.087	-0.312
-709.660	319.994	-0.131	-0.251
-708.645	280.360	-0.050	-0.091
-707.631	-56.480	-0.059	0.027
-706.616	201.630	0.210	-0.325
-705.602	-153.940	0.182	0.013
-704.587	-62.542	0.373	0.156
-703.572	-63.525	0.120	0.050
-702.558	169.609	-0.140	-0.202
-701.543	-104.084	-0.255	0.060
-700.529	139.649	0.067	0.088
-699.514	19.685	0.046	0.037
-698.499	-115.809	0.309	0.058
-697.485	800.000	-0.076	-0.264
-696.470	-19.932	0.084	-0.053
-695.456	603.552	-0.167	-0.419
-694.441	-12.093	0.162	0.107
-693.426	-52.338	0.158	0.074
-692.412	-45.081	0.306	0.154
-691.397	800.000	-0.071	0.207
-690.383	0.044	-0.222	-0.159
-689.368	46.539	-0.229	-0.214
-688.354	63.880	0.076	-0.077
-687.339	131.139	0.127	0.164
-686.324	63.815	0.189	0.191
-685.310	800.000	0.068	-0.245
-684.295	327.148	0.184	0.356
-683.281	155.152	-0.251	0.347
-682.266	58.840	-0.117	-0.116
-681.251	-75.311	-0.282	-0.101
-680.237	-11.488	0.126	-0.084
-679.222	-140.421	-0.223	-0.023
-678.208	234.391	0.103	0.171
-677.193	242.655	0.195	0.329
-676.178	-200.000	-0.000	0.135
-675.164	-139.976	0.166	-0.018
-674.149	-200.000	-0.105	-0.475
-673.135	243.153	0.176	-0.296
-672.120	800.000	-0.069	0.277
-671.105	110.124	-0.243	-0.293
-670.091	7.296	-0.136	-0.102
-669.076	-22.212	0.321	-0.196
-668.062	-200.000	-0.029	0.187
-667.047	97.805	0.205	-0.237
-666.032	-28.662	0.127	0.074
-665.018	800.000	0.031	-0.103
-664.003	-10.052	0.116	-0.078
-662.989	-68.244	0.272	-0.106
-661.974	122.590	0.222	0.280
-660.959	-200.000	-0.019	0.317
-659.945	-200.000	0.013	0.136
-658.930	-200.000	-0.047	0.219
-657.916	800.000	-0.078	0.277
-656.901	800.000	-0.021	0.062
-655.886	259.782	0.093	-0.162
-654.872	5.625	-0.362	0.269
-653.857	348.709	0.064	-0.126
-652.843	46.679	-0.079	-0.074
-651.828	356.423	0.055	-0.109
-650.814	29.712	0.081	-0.070
-649.799	-200.000	-0.069	0.312
-648.784	-111.077	-0.314	0.065
-647.770	-108.773	-0.127	0.027
-646.755	20.066	-0.207	-0.168
-645.741	208.269	-0.111	-0.175
-644.726	-200.000	-0.031	0.145
-643.711	-75.313	0.141	-0.050
-642.697	-26.057	0.138	0.082
-641.682	-24.800	0.142	0.085
-640.668	-200.000	-0.023	-0.112
-639.653	-200.000	-0.058	-0.365
-638.638	137.426	-0.078	0.103
-637.624	30.067	-0.161	0.138
-636.609	238.600	0.168	-0.281
-635.595	88.938	-0.325	-0.363
-634.580	-107.604	0.376	-0.083
-633.565	800.000	0.043	0.160
-632.551	-46.601	-0.135	0.067
-631.536	24.486	0.238	0.198
-630.522	134.293	-0.212	0.276
-629.507	185.434	-0.074	0.111
-628.492	-89.930	0.124	0.036
-627.478	97.973	-0.272	-0.315
-626.463	132.470	-0.295	0.382
-625.449	-108.135	-0.007	0.001
-624.434	-200.000	0.019	0.153
-623.419	145.387	0.211	0.283
-622.405	-148.855	-0.414	0.034
-621.390	36.494	0.106	-0.094
-620.376	280.547	-0.168	0.301
-619.361	-200.000	0.043	0.413
-618.346	-98.950	0.103	0.026
-617.332	-108.188	0.097	0.021
-616.317	-17.152	0.362	-0.229
-615.303	-138.568	0.084	0.009
-614.288	167.702	-0.234	-0.334
-613.273	25.820	0.123	0.103
-612.259	708.412	-0.067	-0.177
-611.244	112.025	0.123	-0.149
-610.230	582.479	-0.037	0.091
-609.215	-131.574	-0.059	-0.008
-608.201	12.771	-0.137	-0.106
-607.186	9.409	-0.162	0.123
-606.171	50.044	0.136	-0.129
-605.157	155.407	0.148	-0.204
-604.142	800.000	0.123	0.360
-603.128	-125.789	-0.217	-0.033
-602.113	101.686	0.057	0.066
-601.098	800.000	-0.121	-0.343
-600.084	800.000	-0.038	0.113
-599.069	14.059	-0.081	-0.063
-598.055	-200.000	0.035	0.157
-597.040	123.697	-0.205	0.258
-596.025	68.712	0.055	-0.057
-595.011	-200.000	0.028	-0.242
-593.996	2.113	-0.161	-0.116
-592.982	491.968	0.028	0.065
-591.967	-46.980	-0.176	0.086
-590.952	134.576	0.100	0.130
-589.938	-13.741	-0.294	-0.191
-588.923	107.381	0.216	-0.258
-587.909	-121.707	0.174	-0.029
-586.894	-5.570	-0.181	0.125
-585.879	-200.000	-0.006	-0.098
-584.865	12.991	0.311	-0.241
-583.850	51.870	0.211	-0.202
-582.836	-128.915	0.344	-0.049
-581.821	37.742	0.024	-0.021
-580.806	249.700	0.182	0.310
-579.792	13.595	0.052	0.040
-578.777	-91.109	0.160	0.046
-577.763	66.409	-0.188	0.191
-576.748	-13.141	-0.082	0.054
-575.733	-159.810	0.357	0.020
-574.719	451.266	-0.110	-0.244
-573.704	210.180	-0.144	-0.227
-572.690	-59.500	-0.079	-0.034
-571.675	-51.752	-0.252	0.118
-570.661	800.000	0.052	-0.146
-569.646	-67.428	0.288	-0.114
-568.631	135.006	0.163	-0.213
-567.617	447.926	0.043	-0.095
-566.602	-137.075	0.321	0.037
-565.588	800.000	0.091	0.344
-564.573	-200.000	-0.017	0.242
-563.558	-81.632	-0.192	-0.063
-562.544	800.000	0.071	-0.202
-561.529	-200.000	0.009	0.236
-560.515	115.706	-0.211	0.259
-559.500	-200.000	-0.026	0.545
-558.485	-200.000	-0.012	0.099
-557.471	267.187	-0.084	0.147
-556.456	35.212	0.162	-0.143
-555.442	314.843	-0.167	-0.315
-554.427	21.452	-0.114	-0.093
-553.412	229.791	0.082	-0.135
-552.398	-7.838	0.141	-0.096
-551.383	-134.047	0.138	0.017
-550.369	-102.797	-0.261	0.062
-549.354	-98.581	0.096	-0.025
-548.339	51.370	-0.254	-0.242
-547.325	-122.645	-0.215	-0.035
-546.310	-75.126	0.222	0.080
-545.296	145.226	-0.048	0.064
-544.281	220.624	0.114	0.182
-543.266	-31.466	0.284	0.160
-542.252	-200.000	-0.019	0.085
-541.237	-200.000	0.062	-0.315
-540.223	-51.380	-0.248	-0.116
-539.208	-17.501	-0.101	-0.064
-538.193	-145.006	0.362	-0.033
-537.179	800.000	0.027	-0.102
-536.164	-104.149	0.194	0.045
-535.150	-96.019	0.180	0.048
-534.135	196.482	-0.101	0.154
-533.121	156.588	0.129	-0.179
-532.106	-10.022	-0.259	-0.172
-531.091	32.561	-0.134	-0.116
-530.077	-36.049	-0.292	-0.158
-529.062	-31.740	-0.204	-0.115
-528.048	662.722	-0.075	-0.195
-527.033	-200.000	0.009	-0.146
-526.018	-200.000	-0.040	0.209
-525.004	504.132	-0.020	0.047
-523.989	760.190	-0.020	0.053
-522.975	244.882	0.197	0.331
-521.960	11.046	-0.044	-0.034
-520.945	-200.000	0.004	-0.227
-519.931	98.358	0.136	-0.157
-518.916	14.881	-0.215	0.169
-517.902	-114.218	-0.106	0.020
-516.887	-200.000	0.016	0.113
-515.872	-5.820	-0.108	0.074
-514.858	409.819	-0.128	0.272
-513.843	192.591	-0.175	0.264
-512.829	-200.000	-0.013	0.093
-511.814	800.000	0.099	0.318
-510.799	62.466	-0.108	0.108
-509.785	609.137	0.067	-0.168
-508.770	-30.976	-0.066	-0.037
-507.756	800.000	0.111	0.318
-506.741	83.544	0.054	0.059
-505.726	61.042	0.091	0.091
-504.712	98.479	-0.070	-0.080
-503.697	42.819	-0.246	-0.225
-502.683	125.035	0.239	-0.301
-501.668	41.187	-0.084	0.076
-500.653	76.999	-0.317	-0.337
-499.639	-200.000	0.014	0.133
-498.624	800.000	-0.091	0.275
-497.610	-136.793	0.203	-0.023
-496.595	544.584	0.102	0.244
-495.581	-78.266	-0.195	0.067
-494.566	334.275	-0.019	0.036
-493.551	61.956	-0.121	-0.121
-492.537	-200.000	-0.001	-0.019
-491.522	-108.604	0.023	0.005
-490.508	-57.963	0.207	-0.091
-489.493	-179.558	0.120	0.003
-488.478	64.792	0.201	0.203
-487.464	-9.384	-0.251	0.168
-486.449	449.779	-0.073	0.161
-485.435	432.959	0.024	0.053
-484.420	553.800	0.052	-0.125
-483.405	-6.662	-0.079	-0.054
-482.391	-17.619	-0.105	-0.066
-481.376	-62.323	-0.302	-0.125
-480.362	-55.757	-0.173	0.077
-479.347	-84.756	0.144	0.045
-478.332	-106.401	0.286	0.064
-477.318	89.854	0.164	0.183
-476.303	91.332	-0.088	0.099
-475.289	-132.511	0.402	-0.052
-474.274	-50.949	-0.470	-0.221
-473.259	-60.591	0.241	0.102
-472.245	29.540	0.361	-0.307
-471.230	101.359	-0.168	-0.196
-470.216	-89.794	-0.247	-0.072
-469.201	-135.994	-0.364	0.043
-468.186	-18.263	-0.117	0.073
-467.172	800.000	0.172	0.529
-466.157	32.410	0.120	-0.103
-465.143	34.303	-0.221	0.193
-464.128	215.882	0.139	0.220
-463.113	22.728	0.108	-0.088
-462.099	800.000	0.041	0.129
-461.084	-133.893	-0.077	-0.010
-460.070	-193.737	0.257	-0.002
-459.055	-115.962	-0.402	-0.075
-458.040	-177.723	-0.343	-0.008
-457.026	-64.751	0.160	-0.065
-456.011	183.222	0.226	0.334
-454.997	-59.700	-0.117	-0.050
-453.982	450.009	0.041	-0.090
-452.968	-126.841	-0.168	-0.025
-451.953	700.901	-0.093	0.246
-450.938	-98.566	-0.257	-0.065
-449.924	707.101	0.024	0.063
-448.909	-200.000	-0.013	0.143
-447.895	236.210	-0.252	-0.416
-446.880	-27.655	0.311	-0.180
-445.865	-131.467	-0.366	0.048
-444.851	-115.230	-0.155	-0.029
-443.836	1.900	0.185	0.133
-442.822	-200.000	-0.028	0.234
-441.807	-31.489	0.179	-0.100
-440.792	33.751	-0.243	0.211
-439.778	-136.961	0.039	0.005
-438.763	-78.172	0.035	0.012
-437.749	-11.401	0.122	0.080
-436.734	100.870	0.212	-0.246
-435.719	800.000	0.091	0.344
-434.705	225.991	0.096	0.156
-433.690	-68.332	-0.185	-0.072
-432.676	-133.709	-0.286	-0.036
-431.661	800.000	-0.053	0.205
-430.646	-51.214	0.299	0.139
-429.632	-10.172	-0.152	-0.101
-428.617	-200.000	0.010	-0.120
-427.603	-45.391	0.348	-0.172
-426.588	120.279	0.021	-0.026
-425.573	-96.480	0.053	-0.014
-424.559	203.443	-0.052	0.080
-423.544	-200.000	0.020	-0.325
-422.530	-4.035	-0.173	-0.120
-421.515	67.173	0.098	0.100
-420.500	-200.000	0.015	0.239
-419.486	129.668	-0.358	-0.457
-418.471	57.373	-0.244	0.238
-417.457	-90.967	0.167	0.048
-416.442	-200.000	-0.032	0.327
-415.428	-118.308	0.300	0.053
-414.413	300.500	-0.132	-0.243
-413.398	44.525	-0.064	-0.058
-412.384	1.873	-0.116	-0.083
-411.369	4.834	0.202	-0.148
-410.355	800.000	-0.038	-0.140
-409.340	-191.668	-0.170	0.002
-408.325	-200.000	-0.001	0.011
-407.311	232.541	0.116	0.189
-406.296	-10.393	-0.136	0.090
-405.282	48.489	0.109	0.102
-404.267	-200.000	-0.009	0.130
-403.252	6.674	-0.277	-0.205
-402.238	-79.739	0.130	0.043
-401.223	597.529	0.089	0.220
-400.209	342.244	-0.014	-0.028
-399.194	-200.000	0.018	0.102
-398.179	74.475	-0.174	-0.182
-397.165	-52.200	-0.290	-0.134
-396.150	365.963	-0.154	0.308
-395.136	174.780	-0.150	-0.216
-394.121	-122.025	-0.179	-0.029
-393.106	-29.846	-0.117	-0.066
-392.092	171.869	0.297	-0.425
-391.077	671.048	-0.113	-0.292
-390.063	500.208	-0.092	0.212
-389.048	90.660	0.207	0.231
-388.033	272.848	0.111	0.196
-387.019	-102.033	-0.407	0.098
-386.004	331.162	-0.199	-0.382
-384.990	-123.549	0.060	-0.009
-383.975	-40.467	0.108	-0.056
-382.960	800.000	-0.075	0.209
-381.946	-29.915	-0.177	0.100
-380.931	144.010	0.233	0.309
-379.917	800.000	-0.038	0.120
-378.902	-88.693	-0.475	-0.141
-377.888	-200.000	-0.004	0.174
-376.873	-43.590	-0.238	0.119
-375.858	750.997	0.107	0.287
-374.844	142.404	-0.205	-0.271
-373.829	800.000	0.019	0.061
-372.815	219.315	-0.255	0.405
-371.800	79.215	-0.064	0.068
-370.785	-107.568	0.103	-0.023
-369.771	31.049	-0.469	0.401
-368.756	320.340	0.053	0.100
-367.742	64.028	-0.088	0.088
-366.727	407.418	-0.094	0.197
-365.712	432.646	0.129	0.279
-364.698	-163.563	0.141	-0.007
-363.683	89.070	0.131	0.145
-362.669	-63.222	-0.023	-0.010
-361.654	800.000	0.068	0.244
-360.639	27.225	0.146	0.122
-359.625	-73.130	0.278	-0.102
-358.610	-83.470	-0.304	-0.097
-357.596	800.000	0.108	-0.325
-356.581	-200.000	0.024	-0.118
-355.566	-78.237	0.174	-0.059
-354.552	-108.726	0.340	-0.072
-353.537	676.338	0.148	-0.383
-352.523	-98.973	-0.107	0.027
-351.508	800.000	0.126	-0.362
-350.493	395.142	-0.075	0.155
-349.479	-50.222	-0.265	-0.124
-348.464	-200.000	-0.005	-0.088
-347.450	-142.363	0.187	0.018
-346.435	558.617	0.050	-0.119
-345.420	800.000	-0.071	0.257
-344.406	-55.447	0.113	-0.050
-343.391	399.889	-0.048	-0.100
-342.377	232.712	0.146	0.238
-341.362	-144.813	0.415	0.038
-340.348	19.310	0.079	0.063
-339.333	800.000	0.036	-0.150
-338.318	-43.247	-0.113	-0.057
-337.304	-109.064	0.309	0.065
-336.289	-21.030	-0.180	0.109
-335.275	-131.810	-0.373	-0.049
-334.260	195.588	0.163	-0.246
-333.245	-104.880	0.064	0.015
-332.231	639.065	-0.036	0.092
-331.216	65.322	0.141	0.142
-330.202	800.000	0.043	-0.136
-329.187	-55.489	0.123	0.055
-328.172	-180.999	-0.310	-0.006
-327.158	592.751	-0.048	0.117
-326.143	89.039	-0.273	0.302
-325.129	-200.000	-0.014	0.145
-324.114	0.049	0.112	0.080
-323.099	421.903	-0.071	-0.152
-322.085	-79.496	0.101	0.034
-321.070	355.609	0.020	0.039
-320.056	-77.701	-0.301	0.103
-319.041	23.805	-0.410	0.336
-318.026	261.472	-0.053	0.090
-317.012	800.000	0.016	-0.063
-315.997	83.288	0.238	-0.257
-314.983	-7.005	-0.476	0.321
-313.968	-104.238	0.167	-0.039
-312.953	208.154	0.165	0.256
-311.939	-113.897	0.111	0.021
-310.924	-125.587	0.007	0.001
-309.910	-99.816	-0.167	-0.042
-308.895	-98.690	0.094	-0.024
-307.880	-115.392	-0.093	0.017
-306.866	800.000	-0.117	-0.426
-305.851	800.000	0.067	0.195
-304.837	-17.833	0.213	-0.133
-303.822	40.335	0.154	-0.138
-302.807	-200.000	-0.025	-0.157
-301.793	-26.588	0.204	0.119
-300.778	800.000	-0.034	-0.107
-299.764	174.895	0.106	0.152
-298.749	46.015	0.245	-0.225
-297.735	-88.287	0.499	0.148
-296.720	-54.955	-0.149	0.067
-295.705	208.253	0.113	0.176
-294.691	-3.363	0.276	-0.191
-293.676	-59.538	-0.069	-0.029
-292.662	-200.000	0.063	-0.332
-291.647	-119.920	-0.215	0.037
-290.632	-36.350	-0.136	-0.073
-289.618	800.000	-0.008	0.026
-288.603	-200.000	0.045	-0.387
-287.589	-69.101	-0.212	-0.081
-286.574	-200.000	-0.041	0.332
-285.559	-48.053	-0.178	-0.085
-284.545	-114.405	0.112	-0.021
-283.530	160.804	0.049	0.067
-282.516	-135.720	0.168	0.020
-281.501	79.500	-0.295	-0.314
-280.486	261.239	-0.083	-0.143
-279.472	0.528	-0.101	-0.071
-278.457	-74.142	0.082	-0.029
-277.443	517.529	-0.092	0.214
-276.428	613.014	-0.085	-0.211
-275.413	-60.377	0.401	0.169
-274.399	-92.839	0.188	-0.052
-273.384	-15.775	0.105	0.066
-272.370	654.043	0.049	-0.124
-271.355	361.885	0.076	-0.152
-270.340	800.000	-0.082	0.346
-269.326	-126.672	-0.375	0.055
-268.311	-29.060	-0.195	-0.111
-267.297	-3.695	0.105	0.072
-266.282	-51.883	0.163	-0.075
-265.267	-111.103	0.107	0.022
-264.253	121.044	-0.065	0.080
-263.238	156.171	0.120	-0.165
-262.224	65.552	0.079	0.079
-261.209	-105.423	0.348	0.078
-260.195	-200.000	-0.019	-0.409
-259.180	-173.889	0.430	-0.013
-258.165	768.353	-0.032	-0.087
-257.151	189.681	0.054	0.080
-256.136	-94.883	-0.290	-0.078
-255.122	-25.444	-0.012	-0.007
-254.107	-107.095	-0.073	-0.016
-253.092	800.000	0.030	-0.094
-252.078	66.149	-0.148	0.149
-251.063	31.791	-0.327	-0.279
-250.049	83.865	0.074	-0.080
-249.034	289.008	0.216	-0.387
-248.019	-73.493	0.248	0.090
-247.005	-36.530	-0.302	0.161
-245.990	-108.117	0.104	-0.022
-244.976	399.151	0.043	0.090
-243.961	44.501	-0.092	-0.084
-242.946	-4.950	0.091	0.062
-241.932	66.194	-0.035	-0.035
-240.917	800.000	0.043	0.121
-239.903	-1.320	0.178	-0.124
-238.888	85.533	0.274	-0.298
-237.873	800.000	-0.020	-0.084
-236.859	701.650	-0.116	-0.303
-235.844	227.161	-0.165	0.266
-234.830	262.092	0.099	0.170
-233.815	-200.000	0.016	-0.124
-232.800	143.954	0.174	-0.230
-231.786	-107.009	0.218	0.048
-230.771	117.355	-0.122	0.148
-229.757	-200.000	-0.005	0.130
-228.742	409.872	0.113	0.237
-227.727	537.623	-0.185	-0.436
-226.713	-127.008	0.170	0.025
-225.698	127.751	0.115	-0.144
-224.684	-125.234	0.602	-0.091
-223.669	173.332	0.257	0.367
-222.655	156.035	0.180	-0.246
-221.640	634.355	-0.057	-0.144
-220.625	-200.000	-0.003	0.018
-219.611	-200.000	0.001	0.270
-218.596	17.336	-0.318	-0.250
-217.582	275.096	0.141	-0.247
-216.567	-70.808	0.022	0.008
-215.552	-48.355	0.182	-0.087
-214.538	-94.497	0.090	0.024
-213.523	-200.000	0.013	-0.177
-212.509	674.031	-0.087	-0.224
-211.494	299.636	0.105	-0.191
-210.479	1.121	0.023	-0.017
-209.465	-93.086	0.185	-0.051
-208.450	45.728	-0.190	-0.174
-207.436	-122.908	-0.091	-0.014
-206.421	-200.000	-0.065	0.320
-205.406	-200.000	0.036	0.242
-204.392	-6.514	0.178	-0.120
-203.377	150.057	0.233	-0.312
-202.363	489.772	-0.125	0.282
-201.348	186.800	0.119	-0.176
-200.333	-200.000	0.015	-0.172
-199.319	-200.000	-0.001	0.257
-198.304	163.528	0.102	0.142
-197.290	-200.000	0.042	0.204
-196.275	800.000	0.069	-0.217
-195.260	-115.833	0.082	0.015
-194.246	-49.191	-0.189	-0.089
-193.231	94.961	-0.040	0.045
-192.217	172.700	-0.085	-0.122
-191.202	-95.582	-0.283	-0.075
-190.187	-200.000	-0.001	-0.171
-189.173	-7.257	0.196	-0.131
-188.158	109.156	0.095	0.112
-187.144	-200.000	0.066	0.431
-186.129	-20.437	-0.087	-0.053
-185.114	208.290	-0.110	0.170
-184.100	3.398	0.111	0.080
-183.085	641.420	-0.086	0.216
-182.071	-50.353	-0.016	-0.008
-181.056	-44.529	0.057	0.028
-180.042	-200.000	-0.012	0.148
-179.027	-68.576	-0.194	0.074
-178.012	-93.083	0.396	0.109
-176.998	-7.712	-0.206	-0.138
-175.983	5.219	0.161	0.117
-174.969	723.218	0.012	-0.031
-173.954	-68.431	-0.288	-0.110
-172.939	5.798	0.208	-0.152
-171.925	-35.732	0.250	-0.134
-170.910	-1.062	-0.433	0.303
-169.896	-92.083	0.268	0.075
-168.881	-137.992	-0.152	-0.017
-167.866	85.104	-0.154	0.166
-166.852	-44.174	0.113	-0.056
-165.837	-15.304	0.183	-0.116
-164.823	-90.572	0.329	0.094
-163.808	469.786	-0.218	-0.484
-162.793	-200.000	-0.010	-0.391
-161.779	-200.000	0.002	-0.153
-160.764	800.000	0.055	-0.160
-159.750	48.583	-0.202	-0.187
-158.735	66.246	-0.098	0.098
-157.720	-86.366	-0.232	-0.070
-156.706	51.506	0.137	-0.129
-155.691	-200.000	0.020	-0.158
-154.677	-156.131	0.161	0.010
-153.662	-33.227	0.413	-0.226
-152.647	-200.000	0.011	-0.146
-151.633	800.000	-0.090	0.325
-150.618	-56.312	-0.136	-0.059
-149.604	-132.037	-0.096	-0.012
-148.589	8.409	-0.239	-0.177
-147.574	66.253	-0.298	0.299
-146.560	800.000	-0.058	-0.222
-145.545	-77.554	0.281	-0.096
-144.531	226.749	-0.116	-0.185
-143.516	-7.883	0.183	0.122
-142.502	-80.689	-0.265	0.087
-141.487	54.112	0.255	0.242
-140.472	159.122	-0.172	0.236
-139.458	-200.000	-0.018	-0.093
-138.443	-143.684	-0.362	0.034
-137.429	290.222	0.098	0.175
-136.414	-100.224	-0.051	0.012
-135.399	-200.000	-0.012	0.256
-134.385	44.558	-0.207	0.187
-133.370	255.335	0.053	0.090
-132.356	464.748	0.055	-0.121
-131.341	30.994	0.076	-0.065
-130.326	-200.000	-0.034	0.302
-129.312	104.635	0.091	-0.106
-128.297	-183.858	-0.424	0.007
-127.283	-26.963	0.106	-0.061
-126.268	-121.188	0.059	0.010
-125.253	-200.000	0.001	0.178
-124.239	-200.000	0.066	0.603
-123.224	232.668	-0.123	0.200
-122.210	800.000	0.086	-0.292
-121.195	442.499	0.175	-0.378
-120.180	-90.188	0.316	0.091
-119.166	218.081	-0.114	-0.180
