DTS Sentinel unit serial number:	SN413079Multiplexer serial number:	ORYXHardware model number:	OX4-SRSoftware version number:	ORYX F/W v4.00 Oryx Data Collector v3.7.2.0data status	okinstallation	princeton_trtdifferential loss correction	single-endedforward channel	channel 1reverse channel	N/Adate	2019/09/16time	14:30:35forward acquisition time	60.00reverse acquisition time	0.00gamma	496.2192k internal	0.2293k external	0.2293temperature offset calibration	0.9953default loss term (dB/km)	0.3790temperature slope calibration	1.0000multiplexer offset coefficient	1.0000multiplexer slope coefficient	1.0000fibre end	0.00T internal ref (°C)	41.89T ext. ref 1 (°C)	14.24T ext. ref 2 (°C)	36.29length (m)	temperature (°C)	Stokes	anti-Stokes-747.200	-103.292	0.117	0.028
-746.185	638.531	-0.173	0.450
-745.171	-114.522	0.311	0.061
-744.156	-106.323	0.121	-0.028
-743.142	-11.907	-0.135	0.091
-742.127	800.000	-0.087	0.298
-741.112	17.433	-0.064	0.052
-740.098	54.152	-0.250	0.246
-739.083	96.850	0.098	-0.115
-738.069	800.000	0.062	0.207
-737.054	-31.418	-0.199	-0.115
-736.039	31.822	-0.155	-0.136
-735.025	440.295	0.039	0.087
-734.010	234.312	0.185	0.311
-732.996	110.759	-0.086	-0.106
-731.981	84.009	-0.150	-0.167
-730.966	-200.000	-0.004	-0.097
-729.952	185.924	-0.187	-0.285
-728.937	24.545	-0.168	0.143
-727.923	214.065	-0.137	0.222
-726.908	-141.135	0.136	-0.014
-725.894	-95.462	-0.076	0.021
-724.879	-10.243	-0.026	-0.018
-723.864	-87.579	-0.159	0.049
-722.850	-151.811	-0.145	-0.011
-721.835	60.639	-0.077	-0.078
-720.821	44.691	-0.188	-0.177
-719.806	-2.946	-0.195	-0.139
-718.791	800.000	0.022	0.093
-717.777	-32.270	0.355	0.203
-716.762	-28.892	-0.206	0.121
-715.748	-122.713	0.226	0.037
-714.733	10.154	0.209	-0.162
-713.718	800.000	0.125	-0.355
-712.704	800.000	0.051	-0.187
-711.689	77.472	0.113	-0.123
-710.675	-200.000	0.295	-0.001
-709.660	-104.618	0.227	-0.054
-708.645	-152.714	0.265	0.019
-707.631	-183.051	0.359	0.007
-706.616	26.962	-0.262	0.224
-705.602	-160.005	-0.229	0.013
-704.587	-15.102	-0.035	-0.023
-703.572	-78.803	0.102	0.036
-702.558	-171.563	-0.370	-0.013
-701.543	90.341	-0.097	0.111
-700.529	800.000	0.114	-0.459
-699.514	189.817	0.108	-0.166
-698.499	800.000	0.083	0.313
-697.485	-106.863	-0.270	-0.061
-696.470	-200.000	-0.013	0.285
-695.456	-181.003	-0.173	0.004
-694.441	-156.220	0.115	0.007
-693.426	-200.000	0.038	-0.249
-692.412	-200.000	0.022	0.218
-691.397	-76.146	-0.203	-0.073
-690.383	-200.000	-0.061	-0.349
-689.368	66.361	0.189	0.196
-688.354	800.000	-0.044	0.159
-687.339	-142.915	-0.200	-0.020
-686.324	159.711	-0.092	-0.131
-685.310	-200.000	-0.002	0.051
-684.295	-200.000	-0.041	-0.292
-683.281	49.125	-0.216	0.207
-682.266	285.887	0.120	-0.222
-681.251	-200.000	0.006	0.061
-680.237	-200.000	0.004	0.068
-679.222	-200.000	0.018	0.252
-678.208	232.893	-0.035	0.059
-677.193	-10.920	0.161	-0.108
-676.178	-200.000	-0.016	-0.226
-675.164	54.815	0.119	-0.117
-674.149	-134.401	0.202	0.025
-673.135	-57.602	0.356	0.159
-672.120	-34.176	0.278	-0.156
-671.105	-76.201	0.277	0.099
-670.091	-200.000	0.006	-0.080
-669.076	41.435	-0.095	-0.088
-668.062	-200.000	0.077	-0.599
-667.047	406.391	-0.148	-0.319
-666.032	-89.004	0.242	0.073
-665.018	2.466	0.196	0.145
-664.003	-67.007	0.546	-0.220
-662.989	800.000	-0.036	-0.124
-661.974	40.164	-0.234	-0.215
-660.959	136.654	-0.135	-0.179
-659.945	371.164	0.080	-0.166
-658.930	72.686	0.077	0.082
-657.916	-200.000	0.021	-0.141
-656.901	-149.373	-0.258	0.021
-655.886	800.000	-0.079	-0.312
-654.872	-130.836	-0.128	-0.018
-653.857	-100.847	-0.425	-0.107
-652.843	319.369	-0.199	0.384
-651.828	544.617	0.114	0.277
-650.814	800.000	0.033	-0.099
-649.799	227.406	-0.153	0.253
-648.784	162.291	0.154	0.219
-647.770	342.610	-0.099	-0.198
-646.755	280.684	-0.206	0.375
-645.741	177.166	0.243	0.361
-644.726	-81.444	-0.271	-0.091
-643.711	-80.047	0.275	0.094
-642.697	-105.908	-0.222	0.051
-641.682	254.506	0.093	-0.162
-640.668	-119.043	0.138	-0.025
-639.653	34.393	0.372	-0.331
-638.638	0.135	-0.116	-0.085
-637.624	-200.000	-0.013	0.091
-636.609	205.318	0.086	0.136
-635.595	-129.122	-0.050	-0.007
-634.580	-1.790	0.189	0.136
-633.565	-87.789	0.208	-0.064
-632.551	17.855	0.229	0.186
-631.536	-186.264	0.248	0.004
-630.522	284.816	-0.199	0.365
-629.507	335.219	-0.149	0.295
-628.492	-200.000	-0.003	0.151
-627.478	-142.579	0.128	0.013
-626.463	-22.384	-0.103	-0.063
-625.449	-200.000	0.002	0.252
-624.434	-79.874	0.312	0.107
-623.419	22.107	-0.084	-0.069
-622.405	186.174	0.052	0.078
-621.390	-200.000	-0.045	-0.262
-620.376	34.804	-0.092	0.082
-619.361	53.040	-0.134	-0.130
-618.346	36.293	0.104	0.093
-617.332	46.868	0.062	-0.058
-616.317	-42.136	-0.169	-0.088
-615.303	186.533	-0.078	0.119
-614.288	355.213	-0.118	0.240
-613.273	86.596	-0.186	-0.209
-612.259	-42.211	0.176	-0.092
-611.244	19.061	0.168	-0.137
-610.230	-200.000	-0.001	-0.127
-609.215	158.181	-0.157	0.222
-608.201	164.209	0.090	-0.129
-607.186	226.976	0.082	0.136
-606.171	393.940	0.097	0.206
-605.157	122.544	-0.170	0.217
-604.142	122.481	0.273	-0.347
-603.128	-22.373	0.115	0.071
-602.113	122.468	0.185	-0.235
-601.098	136.488	-0.293	-0.389
-600.084	28.556	0.151	0.130
-599.069	137.112	0.152	0.202
-598.055	403.246	-0.082	0.176
-597.040	-65.220	-0.108	0.044
-596.025	-35.315	0.294	0.163
-595.011	36.487	-0.214	0.192
-593.996	72.863	-0.202	0.214
-592.982	167.377	0.025	0.036
-591.967	-167.016	-0.282	0.012
-590.952	361.108	-0.086	0.176
-589.938	69.345	-0.103	0.108
-588.923	82.032	-0.174	0.192
-587.909	-76.382	-0.230	0.082
-586.894	592.682	-0.036	0.090
-585.879	-200.000	0.001	0.156
-584.865	-141.517	-0.092	-0.009
-583.850	-31.711	-0.178	-0.101
-582.836	56.495	-0.153	0.151
-581.821	800.000	-0.036	-0.145
-580.806	-200.000	-0.040	-0.235
-579.792	52.964	-0.069	0.067
-578.777	34.126	0.186	0.165
-577.763	334.686	-0.066	-0.130
-576.748	-72.013	-0.280	0.106
-575.733	9.212	0.245	0.188
-574.719	305.737	-0.106	0.201
-573.704	-118.668	-0.200	0.036
-572.690	-130.237	0.270	-0.037
-571.675	55.552	0.257	0.253
-570.661	166.538	0.057	-0.081
-569.646	-200.000	0.005	-0.314
-568.631	-163.275	-0.367	-0.018
-567.617	-200.000	-0.017	0.186
-566.602	-26.666	-0.124	0.074
-565.588	-79.692	-0.256	0.088
-564.573	-33.454	0.291	0.164
-563.558	-87.576	-0.243	-0.075
-562.544	-200.000	-0.013	-0.266
-561.529	192.822	-0.045	0.070
-560.515	-200.000	0.060	-0.352
-559.500	463.442	0.074	0.168
-558.485	67.116	0.196	-0.203
-557.471	10.584	-0.043	0.033
-556.456	28.024	0.268	-0.229
-555.442	5.917	-0.104	-0.078
-554.427	-92.567	0.149	0.043
-553.412	-124.343	-0.071	-0.011
-552.398	44.096	0.125	0.116
-551.383	-200.000	0.083	-0.435
-550.369	24.626	-0.194	0.163
-549.354	-49.552	-0.231	-0.112
-548.339	800.000	0.046	0.171
-547.325	322.328	-0.114	0.221
-546.310	126.063	0.142	0.182
-545.296	-128.466	-0.259	0.037
-544.281	-17.142	0.199	0.128
-543.266	-200.000	-0.027	-0.162
-542.252	-29.089	0.269	-0.157
-541.237	800.000	-0.074	-0.218
-540.223	-200.000	-0.028	-0.209
-539.208	800.000	0.076	-0.219
-538.193	-97.786	0.383	0.101
-537.179	-200.000	-0.404	0.000
-536.164	800.000	-0.070	-0.307
-535.150	800.000	-0.036	-0.133
-534.135	-41.007	-0.311	0.163
-533.121	298.550	-0.105	0.196
-532.106	150.668	0.116	-0.160
-531.091	162.162	-0.094	0.134
-530.077	-200.000	0.050	-0.294
-529.062	-108.465	0.072	0.016
-528.048	31.083	-0.331	-0.288
-527.033	468.180	0.096	0.218
-526.018	-57.860	0.082	-0.036
-525.004	-200.000	-0.023	-0.144
-523.989	-69.037	-0.461	-0.180
-522.975	-1.758	-0.034	-0.024
-521.960	-61.576	-0.167	-0.071
-520.945	-22.253	0.180	0.111
-519.931	800.000	0.071	0.205
-518.916	427.316	0.134	-0.292
-517.902	-93.146	-0.220	0.062
-516.887	105.917	-0.052	0.063
-515.872	800.000	0.082	0.296
-514.858	461.164	0.068	0.153
-513.843	-200.000	-0.009	-0.062
-512.829	-1.834	-0.164	0.117
-511.814	-70.143	0.034	-0.013
-510.799	-32.800	0.203	0.115
-509.785	-52.618	-0.331	0.155
-508.770	-200.000	0.024	-0.410
-507.756	-200.000	0.008	-0.058
-506.741	-44.990	0.035	0.018
-505.726	272.378	0.006	-0.011
-504.712	-200.000	-0.012	0.307
-503.697	667.017	-0.131	0.344
-502.683	5.513	0.263	-0.197
-501.668	343.657	-0.032	0.064
-500.653	71.337	-0.192	-0.202
-499.639	800.000	-0.054	-0.151
-498.624	281.765	0.195	-0.354
-497.610	-83.575	-0.087	-0.028
-496.595	800.000	-0.109	-0.358
-495.581	800.000	0.017	0.065
-494.566	239.258	-0.154	-0.260
-493.551	5.091	0.068	0.051
-492.537	-101.753	0.364	-0.089
-491.522	-67.503	0.128	-0.051
-490.508	10.331	-0.141	0.109
-489.493	-200.000	-0.019	0.200
-488.478	800.000	0.032	-0.091
-487.464	-119.630	-0.098	-0.017
-486.449	50.465	0.044	0.043
-485.435	-33.491	-0.376	-0.211
-484.420	800.000	0.070	-0.199
-483.405	-200.000	0.010	0.068
-482.391	298.275	-0.066	0.123
-481.376	-28.226	0.186	-0.109
-480.362	-20.079	0.141	-0.088
-479.347	-200.000	-0.005	-0.082
-478.332	-153.587	-0.246	0.017
-477.318	373.171	-0.080	-0.165
-476.303	-200.000	0.017	-0.176
-475.289	-26.754	-0.110	-0.065
-474.274	232.011	0.060	-0.100
-473.259	-132.430	-0.041	-0.005
-472.245	-58.927	0.060	0.026
-471.230	194.894	0.034	-0.052
-470.216	51.536	0.171	0.164
-469.201	98.964	0.143	0.167
-468.186	230.479	0.076	0.126
-467.172	116.160	0.060	0.074
-466.157	-88.295	-0.259	-0.078
-465.143	-16.427	0.335	-0.215
-464.128	-102.567	-0.248	-0.060
-463.113	177.880	-0.048	0.070
-462.099	-89.696	0.257	0.076
-461.084	-86.354	0.319	-0.099
-460.070	10.334	-0.294	0.226
-459.055	75.865	0.148	-0.159
-458.040	148.963	-0.130	-0.178
-457.026	-162.044	-0.043	0.002
-456.011	287.178	-0.063	0.116
-454.997	-200.000	0.034	0.160
-453.982	-200.000	-0.032	-0.256
-452.968	212.718	0.098	-0.156
-451.953	800.000	-0.032	0.118
-450.938	20.489	-0.250	-0.205
-449.924	488.551	0.115	0.265
-448.909	-19.716	0.248	0.155
-447.895	-76.930	0.161	-0.057
-446.880	190.386	-0.173	-0.263
-445.865	-66.318	0.089	-0.036
-444.851	327.157	0.123	-0.239
-443.836	-200.000	-0.014	-0.306
-442.822	153.675	-0.106	-0.147
-441.807	5.122	-0.209	-0.156
-440.792	-175.720	0.113	0.003
-439.778	-19.438	-0.223	0.140
-438.763	-48.580	-0.121	-0.059
-437.749	-200.000	-0.028	0.124
-436.734	414.318	-0.138	0.296
-435.719	6.601	-0.145	-0.109
-434.705	27.459	-0.094	-0.080
-433.690	800.000	-0.065	-0.229
-432.676	-52.558	-0.173	0.081
-431.661	-200.000	0.030	0.165
-430.646	72.411	-0.137	0.145
-429.632	604.058	0.130	0.326
-428.617	33.290	-0.071	0.062
-427.603	-91.798	0.072	-0.021
-426.588	-82.642	-0.118	-0.039
-425.573	-106.432	-0.207	0.047
-424.559	-26.838	-0.158	0.093
-423.544	-69.352	-0.110	0.043
-422.530	49.912	-0.091	-0.087
-421.515	131.554	-0.122	-0.158
-420.500	-87.154	-0.277	-0.085
-419.486	-200.000	0.009	-0.306
-418.471	-200.000	-0.031	0.165
-417.457	102.589	0.122	-0.145
-416.442	-169.501	-0.063	0.002
-415.428	-55.752	-0.199	-0.090
-414.413	-200.000	-0.022	-0.260
-413.398	69.467	-0.111	-0.115
-412.384	-28.554	-0.109	-0.063
-411.369	800.000	0.145	-0.433
-410.355	160.617	0.106	0.149
-409.340	183.301	-0.109	0.163
-408.325	-121.573	-0.166	0.028
-407.311	-160.290	-0.150	-0.008
-406.296	-46.357	0.101	0.050
-405.282	-177.116	-0.211	0.005
-404.267	270.541	-0.087	0.154
-403.252	56.969	-0.090	0.088
-402.238	71.158	-0.306	0.321
-401.223	-96.395	0.227	0.061
-400.209	800.000	0.065	-0.241
-399.194	800.000	-0.035	-0.146
-398.179	-200.000	0.015	-0.113
-397.165	13.895	-0.177	-0.139
-396.150	-9.282	-0.035	0.023
-395.136	262.417	-0.166	0.291
-394.121	800.000	0.047	0.133
-393.106	-123.268	-0.151	-0.024
-392.092	-47.610	0.332	0.162
-391.077	7.940	0.240	0.182
-390.063	800.000	-0.065	0.256
-389.048	68.798	0.235	-0.243
-388.033	-62.236	0.073	-0.031
-387.019	-148.074	0.170	0.014
-386.004	98.759	-0.351	-0.409
-384.990	-116.832	0.276	-0.051
-383.975	-160.273	0.154	-0.008
-382.960	800.000	-0.028	-0.119
-381.946	-200.000	-0.001	-0.073
-380.931	721.255	-0.019	-0.051
-379.917	-22.364	0.231	-0.141
-378.902	-8.856	0.199	0.134
-377.888	81.281	0.050	0.054
-376.873	-200.000	0.042	-0.496
-375.858	-39.697	0.333	-0.175
-374.844	106.938	-0.137	-0.164
-373.829	-131.252	0.040	0.005
-372.815	330.583	-0.118	-0.229
-371.800	-27.874	-0.059	-0.035
-370.785	216.176	-0.091	-0.146
-369.771	-27.273	-0.036	0.021
-368.756	33.223	0.146	0.128
-367.742	-200.000	0.020	-0.335
-366.727	-168.249	-0.144	0.006
-365.712	800.000	0.074	0.208
-364.698	-152.940	0.259	-0.018
-363.683	41.807	0.094	-0.086
-362.669	-65.076	-0.154	0.063
-361.654	-200.000	0.033	0.199
-360.639	-29.514	0.047	-0.027
-359.625	-200.000	-0.047	0.211
-358.610	800.000	0.041	-0.130
-357.596	800.000	0.023	0.097
-356.581	0.699	-0.197	-0.142
-355.566	-22.308	0.257	-0.157
-354.552	-113.973	0.141	-0.028
-353.537	256.739	0.172	-0.298
-352.523	-79.713	0.129	-0.044
-351.508	-200.000	-0.004	0.058
-350.493	125.217	-0.100	0.127
-349.479	-34.000	0.490	0.271
-348.464	-200.000	-0.003	-0.253
-347.450	-78.350	0.532	0.184
-346.435	535.631	0.114	0.273
-345.420	219.233	-0.126	0.203
-344.406	43.999	0.256	0.237
-343.391	800.000	0.074	0.256
-342.377	-104.333	0.042	-0.010
-341.362	-72.772	0.285	-0.106
-340.348	4.789	-0.326	0.241
-339.333	462.596	-0.091	0.205
-338.318	800.000	-0.072	0.214
-337.304	-5.838	-0.226	0.155
-336.289	-155.171	0.286	0.019
-335.275	-200.000	0.053	0.417
-334.260	245.848	-0.191	0.323
-333.245	77.144	-0.176	-0.189
-332.231	70.095	-0.071	-0.073
-331.216	-177.749	-0.126	0.003
-330.202	142.123	0.115	0.154
-329.187	-119.823	0.094	0.016
-328.172	-95.721	-0.162	-0.044
-327.158	-9.379	0.296	0.199
-326.143	-61.811	0.157	0.066
-325.129	-200.000	-0.025	0.112
-324.114	-200.000	0.078	0.345
-323.099	-200.000	0.008	0.277
-322.085	800.000	0.094	0.269
-321.070	44.262	-0.058	0.053
-320.056	342.193	-0.230	-0.453
-319.041	-200.000	0.010	-0.174
-318.026	-110.175	0.212	0.045
-317.012	-73.908	0.110	-0.040
-315.997	-131.010	0.127	-0.017
-314.983	-86.730	0.160	0.049
-313.968	-187.323	0.140	0.002
-312.953	-38.599	0.076	-0.040
-311.939	-200.000	-0.032	-0.352
-310.924	128.010	0.178	0.227
-309.910	-82.722	0.113	-0.037
-308.895	-130.752	-0.077	-0.010
-307.880	38.223	0.148	-0.133
-306.866	516.361	-0.114	0.269
-305.851	-200.000	-0.011	0.061
-304.837	-200.000	0.016	-0.258
-303.822	-142.479	0.255	0.025
-302.807	-9.290	-0.304	-0.204
-301.793	-79.376	-0.312	-0.106
-300.778	-60.027	0.281	0.121
-299.764	-91.193	-0.189	0.054
-298.749	380.935	0.047	-0.097
-297.735	800.000	0.048	-0.202
-296.720	-197.256	-0.109	0.001
-295.705	-138.079	-0.381	0.043
-294.691	307.682	-0.057	0.106
-293.676	-200.000	-0.002	0.180
-292.662	39.082	-0.115	0.104
-291.647	233.858	-0.099	0.163
-290.632	63.502	-0.145	0.146
-289.618	-200.000	0.009	-0.343
-288.603	-188.423	-0.204	-0.003
-287.589	79.743	-0.138	-0.149
-286.574	32.370	-0.110	-0.096
-285.559	-115.448	0.115	0.022
-284.545	-200.000	-0.018	-0.188
-283.530	150.123	-0.194	-0.265
-282.516	189.894	-0.132	-0.199
-281.501	-89.587	0.228	0.067
-280.486	800.000	0.073	-0.252
-279.472	-200.000	-0.026	-0.338
-278.457	259.470	0.054	-0.094
-277.443	-200.000	0.028	-0.304
-276.428	-7.366	0.132	-0.090
-275.413	800.000	0.050	0.180
-274.399	31.438	-0.302	-0.260
-273.384	8.687	-0.162	-0.123
-272.370	553.993	0.043	0.104
-271.355	15.082	0.175	0.137
-270.340	-111.361	-0.013	0.003
-269.326	-200.000	0.017	0.297
-268.311	800.000	-0.034	0.142
-267.297	-200.000	-0.030	0.387
-266.282	-200.000	-0.013	-0.095
-265.267	100.580	0.081	0.094
-264.253	392.038	0.093	-0.193
-263.238	46.223	-0.249	0.231
-262.224	800.000	-0.063	0.175
-261.209	-200.000	-0.069	-0.589
-260.195	63.734	0.241	-0.243
-259.180	528.399	0.117	-0.278
-258.165	267.439	0.149	0.261
-257.151	-28.107	-0.122	-0.071
-256.136	-47.875	0.161	0.078
-255.122	-95.556	0.075	-0.020
-254.107	-149.954	-0.272	0.021
-253.092	-114.125	-0.405	0.079
-252.078	-200.000	0.051	0.396
-251.063	-93.220	-0.165	-0.046
-250.049	800.000	0.046	-0.198
-249.034	800.000	0.039	0.134
-248.019	-20.469	0.143	0.088
-247.005	-200.000	0.019	0.242
-245.990	670.780	-0.102	0.265
-244.976	48.896	-0.065	0.062
-243.961	-200.000	-0.009	-0.083
-242.946	-200.000	0.020	0.326
-241.932	-24.771	-0.160	0.095
-240.917	-101.989	-0.249	0.060
-239.903	800.000	-0.060	0.213
-238.888	-80.142	0.127	0.043
-237.873	194.977	0.127	-0.193
-236.859	-25.315	0.102	-0.061
-235.844	-200.000	-0.057	0.506
-234.830	-200.000	0.004	-0.328
-233.815	800.000	-0.039	-0.130
-232.800	579.136	0.056	-0.137
-231.786	-53.525	0.195	-0.089
-230.771	151.638	0.174	0.238
-229.757	-33.923	-0.282	-0.155
-228.742	-37.113	-0.333	-0.179
-227.727	-200.000	0.021	-0.104
-226.713	-72.042	0.416	-0.155
-225.698	126.089	-0.120	-0.152
-224.684	-45.982	0.531	-0.263
-223.669	-19.961	0.173	-0.107
-222.655	211.997	0.111	0.175
-221.640	-85.921	-0.076	0.023
-220.625	108.910	-0.037	0.044
-219.611	411.942	0.053	-0.113
-218.596	-200.000	-0.009	0.184
-217.582	800.000	-0.049	-0.145
-216.567	-81.995	-0.051	-0.017
-215.552	-171.593	-0.048	0.002
-214.538	-58.132	-0.146	-0.064
-213.523	135.009	0.248	0.322
-212.509	-94.898	-0.291	-0.079
-211.494	800.000	0.041	-0.179
-210.479	-89.741	0.356	-0.104
-209.465	80.455	-0.371	0.400
-208.450	-200.000	-0.002	0.079
-207.436	-200.000	-0.039	-0.321
-206.421	-14.527	-0.048	0.031
-205.406	-159.567	0.380	-0.021
-204.392	57.687	0.234	-0.229
-203.377	-104.592	0.227	-0.052
-202.363	-103.295	0.245	-0.058
-201.348	-124.477	-0.428	-0.067
-200.333	778.612	0.032	-0.089
-199.319	-158.221	0.245	0.014
-198.304	527.279	0.085	0.201
-197.290	153.786	0.050	0.068
-196.275	-104.653	0.604	0.139
-195.260	203.540	0.028	-0.043
-194.246	-102.262	-0.074	-0.018
-193.231	-200.000	0.012	-0.094
-192.217	510.378	-0.089	0.208
-191.202	-90.713	0.393	-0.114
-190.187	576.903	-0.139	0.339
-189.173	800.000	0.058	-0.169
-188.158	301.301	0.092	-0.171
-187.144	23.833	0.339	0.279
-186.129	652.958	-0.028	-0.071
-185.114	360.375	-0.100	-0.200
-184.100	-6.537	0.200	0.136
-183.085	56.370	0.182	-0.177
-182.071	48.463	-0.163	0.153
-181.056	-43.978	-0.195	0.098
-180.042	-66.235	-0.119	0.048
-179.027	72.854	0.052	-0.054
-178.012	-84.113	0.299	-0.095
-176.998	6.572	0.213	0.159
-175.983	800.000	0.111	0.311
-174.969	-200.000	0.025	-0.149
-173.954	-119.354	-0.106	-0.018
-172.939	-174.889	-0.567	-0.016
-171.925	61.869	0.165	0.165
-170.910	-71.319	0.292	-0.110
-169.896	70.603	0.159	0.165
-168.881	-199.944	0.069	-0.000
-167.866	-64.187	0.171	-0.070
-166.852	-200.000	0.013	-0.095
-165.837	-54.413	-0.369	-0.167
-164.823	-88.237	-0.453	-0.136
-163.808	-200.000	-0.016	0.211
-162.793	-91.772	-0.494	0.140
-161.779	95.789	-0.131	0.150
-160.764	-46.624	-0.253	-0.124
-159.750	277.742	-0.082	-0.145
-158.735	-28.052	0.167	0.097
-157.720	-54.360	0.177	0.080
-156.706	-102.681	-0.056	0.013
-155.691	38.756	0.048	0.043
-154.677	30.403	-0.250	-0.213
-153.662	-5.641	0.240	0.164
-152.647	-200.000	0.016	-0.317
-151.633	-109.870	0.258	-0.054
-150.618	800.000	0.051	0.159
-149.604	-200.000	-0.035	0.225
-148.589	73.857	0.073	-0.077
-147.574	787.413	-0.085	-0.232
-146.560	-146.545	0.201	0.017
-145.545	-138.213	0.173	-0.019
-144.531	800.000	-0.079	0.267
-143.516	-200.000	0.004	0.160
-142.502	-135.948	0.344	0.041
-141.487	114.523	0.115	0.140
-140.472	38.142	0.143	0.128
-139.458	304.679	0.090	0.167
-138.443	392.009	-0.113	0.235
-137.429	800.000	-0.094	0.324
-136.414	-17.850	-0.146	0.091
-135.399	-87.674	-0.218	-0.066
-134.385	170.424	-0.027	-0.039
-133.370	696.955	0.078	0.204
-132.356	70.538	-0.011	0.011
-131.341	-25.058	0.372	0.220
-130.326	-200.000	0.002	0.403
-129.312	-200.000	-0.025	0.207
-128.297	211.225	0.109	-0.172
-127.283	-1.055	0.155	0.110
-126.268	356.202	0.076	0.152
-125.253	263.522	-0.083	-0.144
-124.239	-200.000	0.008	-0.216
-123.224	79.771	-0.038	-0.041
-122.210	-200.000	0.029	0.160
-121.195	-155.009	-0.480	0.031
-120.180	-51.501	-0.348	-0.162
