DTS Sentinel unit serial number:	SN413079Multiplexer serial number:	ORYXHardware model number:	OX4-SRSoftware version number:	ORYX F/W v4.00 Oryx Data Collector v3.7.2.0data status	okinstallation	princeton_trtdifferential loss correction	single-endedforward channel	channel 1reverse channel	N/Adate	2019/09/17time	18:38:35forward acquisition time	60.00reverse acquisition time	0.00gamma	496.2192k internal	0.2289k external	0.2289temperature offset calibration	0.9961default loss term (dB/km)	0.3790temperature slope calibration	1.0000multiplexer offset coefficient	1.0000multiplexer slope coefficient	1.0000fibre end	0.00T internal ref (°C)	42.66T ext. ref 1 (°C)	0.29T ext. ref 2 (°C)	35.16length (m)	temperature (°C)	Stokes	anti-Stokes-747.200	236.500	-0.072	-0.121
-746.185	-27.154	0.102	-0.061
-745.171	37.140	0.139	0.126
-744.156	-98.648	-0.171	0.045
-743.142	4.322	-0.257	0.193
-742.127	-168.741	-0.112	-0.004
-741.112	-120.889	-0.221	0.038
-740.098	-35.231	0.109	0.061
-739.083	-152.434	-0.283	-0.021
-738.069	209.459	-0.080	0.128
-737.054	-200.000	0.004	0.111
-736.039	-19.768	-0.166	0.105
-735.025	800.000	-0.118	0.413
-734.010	-94.151	-0.461	-0.129
-732.996	112.555	-0.265	-0.329
-731.981	49.704	-0.284	-0.274
-730.966	-200.000	0.001	-0.152
-729.952	123.011	0.114	0.146
-728.937	331.950	-0.115	0.226
-727.923	-200.000	-0.014	-0.180
-726.908	800.000	0.059	0.178
-725.894	-64.874	0.487	-0.202
-724.879	-200.000	-0.014	-0.243
-723.864	-200.000	0.009	0.117
-722.850	-94.812	-0.230	0.064
-721.835	6.539	-0.083	-0.063
-720.821	76.169	-0.211	0.229
-719.806	25.988	-0.388	0.332
-718.791	19.945	0.301	-0.248
-717.777	435.802	0.150	-0.333
-716.762	-200.000	0.007	-0.338
-715.748	-200.000	0.032	-0.151
-714.733	677.466	-0.177	-0.471
-713.718	124.515	-0.160	-0.206
-712.704	333.880	0.088	-0.175
-711.689	-121.186	-0.184	0.032
-710.675	5.339	0.290	0.219
-709.660	-200.000	-0.001	0.229
-708.645	-96.571	-0.247	-0.067
-707.631	-121.110	-0.531	-0.091
-706.616	97.243	-0.160	-0.188
-705.602	351.050	-0.263	-0.533
-704.587	-200.000	-0.019	-0.567
-703.572	-200.000	-0.001	-0.259
-702.558	-170.602	0.231	-0.008
-701.543	800.000	0.103	0.367
-700.529	285.329	-0.068	-0.125
-699.514	-200.000	0.014	-0.081
-698.499	-68.759	-0.148	0.059
-697.485	800.000	-0.193	-0.632
-696.470	88.276	0.148	-0.167
-695.456	-169.035	0.290	0.011
-694.441	-200.000	0.004	-0.234
-693.426	303.488	0.119	0.225
-692.412	-200.000	0.039	0.288
-691.397	-200.000	-0.001	0.182
-690.383	409.207	-0.036	-0.079
-689.368	-132.825	0.498	-0.065
-688.354	-200.000	0.018	0.281
-687.339	-24.704	-0.241	0.147
-686.324	189.358	0.188	0.287
-685.310	290.917	0.204	0.378
-684.295	-93.511	-0.219	0.062
-683.281	800.000	-0.041	-0.184
-682.266	627.046	-0.076	-0.197
-681.251	0.641	0.123	-0.090
-680.237	-100.845	0.021	-0.005
-679.222	29.815	-0.124	-0.108
-678.208	-200.000	-0.021	0.122
-677.193	-140.235	-0.236	-0.025
-676.178	175.633	-0.258	-0.382
-675.164	-161.030	-0.248	0.013
-674.149	-200.000	-0.023	0.226
-673.135	800.000	-0.043	-0.179
-672.120	-33.785	-0.228	-0.128
-671.105	55.512	-0.034	0.034
-670.091	-200.000	0.014	0.279
-669.076	5.437	-0.123	-0.093
-668.062	215.700	-0.011	0.019
-667.047	-127.258	-0.269	0.040
-666.032	129.771	-0.176	-0.230
-665.018	-36.686	0.154	-0.085
-664.003	-54.178	-0.168	-0.078
-662.989	-3.064	0.103	0.074
-661.974	-106.873	0.143	-0.032
-660.959	-114.052	0.101	-0.020
-659.945	22.983	-0.121	0.102
-658.930	-45.931	0.203	-0.102
-657.916	-136.960	-0.076	-0.009
-656.901	-132.204	-0.257	-0.034
-655.886	655.687	0.056	-0.146
-654.872	-68.713	-0.380	-0.150
-653.857	27.983	-0.099	0.085
-652.843	-16.542	-0.132	-0.085
-651.828	-144.257	-0.335	-0.032
-650.814	-163.154	-0.461	0.023
-649.799	-200.000	0.000	0.112
-648.784	-48.573	-0.031	0.015
-647.770	793.971	0.081	-0.229
-646.755	-17.207	-0.365	-0.235
-645.741	-23.821	-0.076	0.046
-644.726	179.824	-0.054	0.080
-643.711	-200.000	0.008	0.185
-642.697	180.743	0.067	0.100
-641.682	-78.484	-0.047	0.017
-640.668	-52.552	-0.188	0.088
-639.653	-38.833	0.154	0.083
-638.638	800.000	0.028	-0.091
-637.624	-200.000	-0.011	-0.253
-636.609	336.675	0.149	-0.296
-635.595	-152.084	0.235	-0.017
-634.580	369.221	0.071	0.146
-633.565	-200.000	-0.020	0.145
-632.551	-76.143	0.247	-0.089
-631.536	472.358	0.095	0.219
-630.522	-27.910	0.204	-0.121
-629.507	0.798	0.100	-0.073
-628.492	-170.611	-0.228	-0.008
-627.478	56.110	-0.032	-0.032
-626.463	-25.180	0.267	-0.162
-625.449	-13.710	-0.104	-0.069
-624.434	125.040	-0.161	-0.206
-623.419	410.142	-0.057	0.122
-622.405	-74.013	0.114	0.042
-621.390	230.566	0.235	-0.393
-620.376	96.278	-0.187	-0.219
-619.361	-93.811	-0.085	-0.024
-618.346	65.937	0.111	-0.114
-617.332	224.732	-0.142	-0.235
-616.317	-155.426	-0.157	0.010
-615.303	-101.663	0.213	0.053
-614.288	-121.948	0.314	0.053
-613.273	-52.737	0.336	-0.158
-612.259	118.015	-0.210	0.264
-611.244	14.936	0.234	-0.187
-610.230	-106.592	-0.288	-0.065
-609.215	-107.031	0.232	0.052
-608.201	-200.000	0.010	-0.309
-607.186	197.361	0.037	0.057
-606.171	-200.000	0.027	-0.325
-605.157	89.375	0.130	-0.148
-604.142	104.254	0.223	0.268
-603.128	-100.112	0.177	0.045
-602.113	-20.673	-0.052	0.033
-601.098	-200.000	-0.002	0.138
-600.084	800.000	0.054	-0.196
-599.069	329.913	0.045	-0.087
-598.055	311.310	-0.081	-0.155
-597.040	101.604	-0.196	-0.233
-596.025	-1.161	-0.192	-0.138
-595.011	-5.756	-0.025	0.018
-593.996	147.809	0.151	0.207
-592.982	-55.389	-0.227	0.104
-591.967	800.000	0.109	0.340
-590.952	77.321	-0.112	-0.121
-589.938	-14.114	0.264	0.173
-588.923	185.948	0.135	-0.204
-587.909	-200.000	0.008	0.128
-586.894	-24.787	-0.162	-0.098
-585.879	-108.103	-0.284	-0.063
-584.865	14.079	-0.293	-0.232
-583.850	-42.241	-0.232	-0.120
-582.836	-43.390	-0.248	-0.128
-581.821	795.679	0.051	-0.143
-580.806	370.526	0.004	0.008
-579.792	78.362	-0.184	0.200
-578.777	-146.190	-0.200	0.018
-577.763	-16.984	-0.019	0.012
-576.748	-138.575	-0.297	-0.033
-575.733	-109.104	-0.418	-0.091
-574.719	375.654	0.069	-0.143
-573.704	-200.000	0.005	0.185
-572.690	800.000	-0.044	0.143
-571.675	618.741	-0.089	-0.229
-570.661	143.203	-0.175	0.237
-569.646	-200.000	0.004	0.110
-568.631	265.073	-0.091	0.162
-567.617	32.397	-0.066	-0.058
-566.602	-200.000	-0.025	0.168
-565.588	-104.551	0.118	0.028
-564.573	-141.292	-0.124	0.013
-563.558	46.412	-0.115	0.108
-562.544	195.550	0.140	-0.216
-561.529	-200.000	0.004	-0.075
-560.515	776.765	-0.022	-0.062
-559.500	-200.000	0.005	-0.198
-558.485	89.972	0.102	0.116
-557.471	1.658	-0.138	0.101
-556.456	-176.594	0.265	0.007
-555.442	-17.203	-0.151	0.097
-554.427	-200.000	0.002	-0.100
-553.412	-8.445	0.158	0.108
-552.398	-49.717	0.103	-0.050
-551.383	176.904	0.109	-0.161
-550.369	141.101	0.146	-0.197
-549.354	-114.542	0.183	0.036
-548.339	624.255	0.092	0.236
-547.325	-118.840	0.254	0.045
-546.310	-151.524	-0.324	0.024
-545.296	-200.000	-0.034	0.180
-544.281	56.581	-0.236	-0.233
-543.266	-54.659	-0.078	-0.036
-542.252	-140.535	-0.245	-0.026
-541.237	800.000	-0.126	-0.366
-540.223	800.000	-0.142	-0.569
-539.208	-72.372	-0.244	0.092
-538.193	800.000	-0.059	-0.193
-537.179	-88.982	-0.239	0.072
-536.164	159.041	-0.026	0.036
-535.150	-2.671	0.109	0.078
-534.135	572.394	-0.238	-0.590
-533.121	105.830	-0.079	-0.095
-532.106	145.286	0.142	0.194
-531.091	-98.861	-0.356	-0.092
-530.077	94.925	0.053	-0.061
-529.062	3.361	-0.296	0.219
-528.048	212.588	-0.208	-0.333
-527.033	641.781	-0.028	0.073
-526.018	-19.459	-0.100	0.063
-525.004	-90.375	0.160	0.047
-523.989	219.757	-0.051	-0.083
-522.975	-89.245	-0.175	0.052
-521.960	-50.996	0.247	-0.118
-520.945	-70.501	-0.187	0.072
-519.931	-200.000	0.036	-0.196
-518.916	-167.956	0.154	-0.006
-517.902	2.595	-0.360	0.265
-516.887	-101.995	-0.198	0.049
-515.872	-40.831	-0.135	0.071
-514.858	-103.673	0.250	0.059
-513.843	-113.573	0.161	-0.032
-512.829	-172.618	-0.345	-0.011
-511.814	-92.039	0.210	-0.060
-510.799	-89.108	0.147	0.044
-509.785	-200.000	0.012	0.061
-508.770	800.000	0.043	-0.125
-507.756	782.299	0.120	-0.333
-506.741	66.687	-0.027	-0.028
-505.726	27.164	0.084	-0.071
-504.712	-16.163	0.540	-0.348
-503.697	-200.000	-0.009	-0.148
-502.683	38.761	-0.062	0.057
-501.668	57.652	-0.172	0.171
-500.653	-42.315	-0.054	-0.028
-499.639	-200.000	0.064	0.485
-498.624	127.757	-0.133	0.171
-497.610	-200.000	-0.004	0.065
-496.595	172.907	0.047	0.068
-495.581	-36.010	0.006	-0.003
-494.566	-70.762	-0.134	0.051
-493.551	-24.851	0.107	0.064
-492.537	-139.100	0.194	-0.021
-491.522	800.000	0.115	-0.416
-490.508	296.405	0.276	-0.514
-489.493	800.000	0.064	0.181
-488.478	-18.340	0.078	0.050
-487.464	-127.773	-0.161	-0.024
-486.449	679.929	0.061	0.160
-485.435	800.000	-0.106	-0.332
-484.420	-200.000	0.034	-0.227
-483.405	-26.492	-0.242	0.144
-482.391	-60.068	-0.142	-0.062
-481.376	800.000	-0.049	0.152
-480.362	256.651	0.183	0.318
-479.347	-75.222	-0.143	-0.052
-478.332	-22.442	0.102	0.063
-477.318	402.323	0.014	0.030
-476.303	-111.038	-0.329	0.068
-475.289	39.224	-0.229	0.208
-474.274	-178.552	0.220	0.005
-473.259	72.143	0.229	0.242
-472.245	-132.716	0.248	-0.032
-471.230	-40.524	-0.034	-0.018
-470.216	-200.000	-0.013	-0.313
-469.201	175.382	-0.138	0.203
-468.186	-6.639	-0.218	0.150
-467.172	-22.377	-0.120	0.074
-466.157	-80.587	-0.381	0.129
-465.143	-108.355	-0.214	0.047
-464.128	-64.540	-0.307	-0.127
-463.113	-78.074	0.157	-0.055
-462.099	-14.606	-0.027	0.018
-461.084	-200.000	-0.020	0.103
-460.070	-78.649	-0.430	-0.149
-459.055	16.371	-0.163	-0.131
-458.040	32.564	0.268	0.235
-457.026	-46.530	0.099	-0.049
-456.011	173.246	-0.097	-0.141
-454.997	-200.000	0.010	0.427
-453.982	-173.372	0.330	-0.010
-452.968	-163.861	-0.265	0.013
-451.953	-200.000	0.013	0.324
-450.938	-37.141	0.285	-0.154
-449.924	187.862	-0.109	-0.165
-448.909	114.554	0.078	0.096
-447.895	-161.597	-0.238	-0.012
-446.880	-101.157	0.422	-0.105
-445.865	176.141	-0.152	-0.224
-444.851	-200.000	-0.028	-0.303
-443.836	302.151	-0.125	-0.235
-442.822	-200.000	0.012	0.167
-441.807	-200.000	-0.010	0.446
-440.792	-80.997	-0.368	0.123
-439.778	-38.662	-0.144	-0.077
-438.763	269.138	-0.153	0.272
-437.749	676.691	-0.062	-0.164
-436.734	369.658	-0.100	0.204
-435.719	270.066	0.114	0.203
-434.705	-89.234	0.196	0.059
-433.690	125.003	-0.166	0.212
-432.676	132.992	0.129	-0.169
-431.661	800.000	0.080	0.341
-430.646	111.732	-0.094	0.115
-429.632	-116.163	-0.224	-0.042
-428.617	170.168	-0.110	-0.159
-427.603	-81.698	0.148	0.049
-426.588	299.250	-0.133	-0.249
-425.573	726.121	0.100	-0.270
-424.559	32.380	0.260	0.227
-423.544	354.944	0.109	0.218
-422.530	161.785	-0.085	0.120
-421.515	-129.348	0.250	0.035
-420.500	220.612	-0.163	0.265
-419.486	248.910	-0.093	-0.160
-418.471	114.239	-0.128	0.157
-417.457	-200.000	-0.215	-0.001
-416.442	414.356	-0.129	-0.277
-415.428	67.749	0.220	-0.228
-414.413	-23.518	0.178	0.108
-413.398	51.871	0.050	-0.048
-412.384	-66.936	-0.109	0.043
-411.369	-3.013	-0.119	0.084
-410.355	-19.320	0.294	-0.184
-409.340	44.988	0.190	-0.177
-408.325	31.274	0.309	-0.268
-407.311	-149.840	-0.475	0.038
-406.296	-17.080	0.389	0.248
-405.282	37.595	0.169	0.152
-404.267	23.165	-0.316	0.262
-403.252	-46.078	0.059	0.029
-402.238	-200.000	0.024	0.507
-401.223	-200.000	0.068	0.317
-400.209	-200.000	-0.005	0.033
-399.194	57.906	-0.192	0.190
-398.179	-200.000	-0.002	-0.246
-397.165	-200.000	-0.023	-0.222
-396.150	88.536	0.173	-0.194
-395.136	-24.029	0.021	0.013
-394.121	-200.000	0.022	-0.106
-393.106	-200.000	-0.027	0.333
-392.092	-200.000	0.044	-0.244
-391.077	-40.067	-0.227	0.120
-390.063	513.883	0.031	-0.074
-389.048	175.464	0.114	-0.167
-388.033	800.000	0.018	0.075
-387.019	-200.000	0.003	-0.359
-386.004	-200.000	0.000	0.193
-384.990	-200.000	0.042	0.272
-383.975	0.558	-0.125	-0.090
-382.960	-124.279	-0.346	0.055
-381.946	5.803	-0.140	0.105
-380.931	3.588	-0.188	0.138
-379.917	-200.000	-0.040	0.475
-378.902	42.373	0.108	-0.099
-377.888	-107.098	0.130	0.029
-376.873	195.163	-0.180	0.276
-375.858	-108.560	-0.251	0.055
-374.844	-200.000	-0.001	0.013
-373.829	345.653	-0.120	0.237
-372.815	-146.117	0.247	-0.022
-371.800	-3.488	0.097	0.068
-370.785	65.740	-0.105	0.107
-369.771	-200.000	-0.029	0.217
-368.756	301.703	0.088	-0.164
-367.742	-27.671	0.335	-0.196
-366.727	-16.291	-0.169	-0.108
-365.712	-15.531	0.112	-0.072
-364.698	-18.961	0.183	-0.115
-363.683	-200.000	-0.268	-0.001
-362.669	-200.000	0.002	0.286
-361.654	-123.280	-0.193	-0.031
-360.639	712.739	0.038	0.101
-359.625	422.416	0.119	0.259
-358.610	354.138	0.216	-0.434
-357.596	90.865	0.142	0.161
-356.581	222.997	-0.093	-0.151
-355.566	-139.805	-0.135	-0.014
-354.552	39.066	-0.131	-0.118
-353.537	-200.000	-0.002	-0.073
-352.523	-156.987	0.244	0.015
-351.508	-132.072	0.042	-0.006
-350.493	-113.345	0.264	-0.052
-349.479	259.237	0.087	-0.152
-348.464	159.828	0.249	0.350
-347.450	800.000	0.102	-0.431
-346.435	-39.991	0.180	-0.095
-345.420	332.107	-0.088	0.171
-344.406	288.369	-0.164	-0.299
-343.391	-180.728	-0.449	-0.009
-342.377	193.514	0.105	-0.160
-341.362	-38.117	-0.219	0.117
-340.348	-200.000	0.016	-0.096
-339.333	-200.000	-0.039	0.323
-338.318	112.324	0.116	0.141
-337.304	-163.342	0.072	-0.003
-336.289	-65.194	-0.184	-0.075
-335.275	360.637	-0.036	0.072
-334.260	-128.786	-0.464	-0.066
-333.245	76.043	0.088	-0.094
-332.231	-86.487	0.322	0.100
-331.216	-200.000	0.018	0.108
-330.202	-101.114	0.277	0.068
-329.187	338.206	0.179	-0.351
-328.172	-183.162	-0.294	-0.005
-327.158	24.571	0.130	0.108
-326.143	47.937	0.136	0.128
-325.129	-97.560	-0.069	-0.018
-324.114	-159.080	-0.145	0.008
-323.099	365.196	-0.096	-0.194
-322.085	0.954	0.212	0.153
-321.070	310.564	-0.093	0.175
-320.056	196.789	0.072	-0.110
-319.041	-58.610	-0.337	0.147
-318.026	-200.000	0.276	0.000
-317.012	83.351	-0.043	0.047
-315.997	-117.331	0.307	0.056
-314.983	357.612	-0.132	-0.266
-313.968	-200.000	-0.001	-0.123
-312.953	617.700	-0.058	0.146
-311.939	65.096	-0.184	0.188
-310.924	-20.924	-0.088	-0.054
-309.910	-62.829	0.071	-0.030
-308.895	70.362	0.022	0.023
-307.880	250.427	0.116	0.198
-306.866	-200.000	0.008	0.230
-305.851	686.293	-0.132	-0.347
-304.837	87.663	0.132	0.148
-303.822	-65.867	-0.116	-0.047
-302.807	4.256	-0.172	0.127
-301.793	-114.550	-0.107	0.021
-300.778	-200.000	-0.020	0.294
-299.764	55.606	-0.323	0.315
-298.749	-200.000	-0.058	0.306
-297.735	264.837	0.056	-0.098
-296.720	257.287	0.126	-0.219
-295.705	800.000	-0.040	0.160
-294.691	-200.000	0.041	0.248
-293.676	6.249	-0.266	0.199
-292.662	753.136	0.050	0.137
-291.647	-178.695	0.407	-0.009
-290.632	-72.494	-0.044	0.016
-289.618	129.006	-0.042	0.054
-288.603	158.255	0.150	0.209
-287.589	500.231	-0.181	-0.419
-286.574	-35.635	-0.119	0.065
-285.559	504.630	0.089	0.208
-284.545	224.489	0.060	-0.097
-283.530	-200.000	-0.144	0.000
-282.516	-13.144	-0.410	0.268
-281.501	505.000	-0.093	0.218
-280.486	37.929	0.152	0.136
-279.472	-200.000	0.000	-0.150
-278.457	-200.000	-0.007	0.345
-277.443	414.356	0.049	0.105
-276.428	-111.566	0.506	-0.103
-275.413	-157.966	0.173	-0.010
-274.399	-134.295	-0.052	-0.006
-273.384	7.361	0.265	-0.199
-272.370	612.317	-0.059	-0.148
-271.355	-36.814	-0.284	0.153
-270.340	-71.822	-0.246	-0.092
-269.326	-110.864	-0.130	0.027
-268.311	-15.965	0.108	-0.069
-267.297	347.445	0.102	0.201
-266.282	800.000	0.113	0.317
-265.267	-193.349	0.299	0.003
-264.253	96.059	0.109	-0.125
-263.238	-200.000	0.006	-0.297
-262.224	-200.000	-0.017	-0.536
-261.209	-156.329	0.195	0.012
-260.195	-131.407	-0.051	0.007
-259.180	69.478	0.254	-0.263
-258.165	800.000	0.115	-0.465
-257.151	27.024	-0.072	0.060
-256.136	367.687	-0.079	-0.160
-255.122	-126.291	-0.316	0.047
-254.107	16.870	-0.135	0.107
-253.092	-200.000	-0.040	0.330
-252.078	-131.372	0.099	0.013
-251.063	486.715	-0.061	-0.139
-250.049	-200.000	-0.057	-0.359
-249.034	-111.604	0.077	-0.016
-248.019	35.624	0.133	0.117
-247.005	185.544	0.186	0.277
-245.990	-200.000	0.016	0.101
-244.976	-142.899	0.223	0.022
-243.961	138.168	0.178	0.235
-242.946	-200.000	0.068	0.329
-241.932	123.845	-0.107	0.135
-240.917	26.564	-0.210	0.177
-239.903	-151.150	0.318	0.024
-238.888	-26.319	-0.123	0.073
-237.873	-75.269	-0.171	-0.061
-236.859	-180.122	0.382	0.008
-235.844	-112.466	0.124	0.025
-234.830	-54.673	-0.043	0.020
-233.815	-37.066	0.125	0.067
-232.800	-48.905	0.134	0.064
-231.786	502.663	-0.094	0.217
-230.771	-192.978	0.176	0.002
-229.757	-107.561	0.104	0.023
-228.742	-6.514	0.118	-0.081
-227.727	-8.643	-0.245	-0.165
-226.713	-55.571	-0.057	0.026
-225.698	-182.611	0.426	0.008
-224.684	288.688	-0.288	0.523
-223.669	171.417	0.160	0.231
-222.655	-110.288	-0.129	-0.027
-221.640	-122.784	-0.041	-0.007
-220.625	-200.000	0.000	0.060
-219.611	156.855	-0.055	-0.076
-218.596	800.000	0.085	-0.320
-217.582	349.737	-0.181	-0.358
-216.567	540.472	-0.014	-0.034
-215.552	76.215	0.108	-0.115
-214.538	181.784	-0.179	-0.264
-213.523	-77.463	-0.302	-0.105
-212.509	-106.891	0.264	-0.059
-211.494	-75.602	0.259	0.092
-210.479	238.176	0.113	0.188
-209.465	-146.859	-0.188	0.016
-208.450	787.381	0.132	-0.364
-207.436	-68.982	0.053	-0.021
-206.421	-200.000	0.052	-0.311
-205.406	640.089	0.045	0.115
-204.392	-175.881	-0.170	0.005
-203.377	78.475	-0.072	-0.077
-202.363	-59.114	0.499	0.216
-201.348	-200.000	-0.016	-0.196
-200.333	711.235	-0.072	-0.191
-199.319	-200.000	0.022	-0.243
-198.304	-41.014	0.087	0.045
-197.290	-38.834	0.281	-0.149
-196.275	-107.132	0.191	0.042
-195.260	800.000	0.042	-0.176
-194.246	-101.551	0.096	0.023
-193.231	-61.324	0.048	-0.020
-192.217	145.551	0.113	0.151
-191.202	-115.243	-0.280	0.053
-190.187	518.453	-0.134	-0.314
-189.173	-200.000	-0.005	-0.034
-188.158	800.000	-0.042	-0.167
-187.144	6.876	0.155	-0.116
-186.129	7.029	-0.244	-0.183
-185.114	32.293	0.080	0.070
-184.100	-200.000	-0.003	-0.173
-183.085	-133.435	0.223	0.028
-182.071	-176.805	0.112	-0.003
-181.056	-167.623	0.129	0.005
-180.042	334.573	0.232	0.450
-179.027	-12.222	0.082	-0.054
-178.012	-83.677	0.305	0.098
-176.998	-94.692	0.183	-0.050
-175.983	-124.405	0.288	0.045
-174.969	68.338	0.115	-0.118
-173.954	259.858	0.163	0.281
-172.939	-200.000	0.069	0.420
-171.925	-72.178	0.108	-0.040
-170.910	-2.468	-0.045	-0.031
-169.896	800.000	0.044	-0.136
-168.881	93.477	0.178	0.202
-167.866	543.858	0.058	0.139
-166.852	618.746	0.097	-0.245
-165.837	-53.070	-0.422	-0.194
-164.823	-68.337	-0.254	-0.099
-163.808	-200.000	-0.002	-0.102
-162.793	-83.649	0.050	0.016
-161.779	374.566	0.048	0.099
-160.764	-56.861	0.301	0.133
-159.750	-200.000	0.068	-0.430
-158.735	-82.660	0.025	-0.008
-157.720	770.746	-0.114	0.311
-156.706	-19.639	-0.225	0.140
-155.691	134.975	0.093	0.121
-154.677	406.794	0.070	0.149
-153.662	165.665	-0.154	-0.218
-152.647	-200.000	-0.019	-0.205
-151.633	107.680	-0.123	-0.146
-150.618	800.000	0.038	0.112
-149.604	-7.631	0.083	-0.056
-148.589	-37.916	-0.301	-0.160
-147.574	-200.000	-0.022	0.154
-146.560	49.581	0.067	0.063
-145.545	-200.000	0.009	-0.079
-144.531	418.089	-0.096	0.206
-143.516	-200.000	-0.031	-0.209
-142.502	-89.551	-0.154	0.045
-141.487	504.036	0.065	-0.151
-140.472	-57.362	-0.158	0.070
-139.458	-200.000	-0.094	-0.526
-138.443	-178.755	-0.147	0.003
-137.429	-40.126	-0.196	-0.102
-136.414	-46.556	-0.298	0.146
-135.399	-15.762	0.181	-0.115
-134.385	66.668	-0.181	-0.184
-133.370	-47.166	-0.266	-0.130
-132.356	32.306	-0.115	-0.100
-131.341	-58.032	0.105	0.046
-130.326	9.783	0.134	0.102
-129.312	161.530	-0.090	-0.126
-128.297	75.156	0.166	0.175
-127.283	800.000	-0.034	-0.113
-126.268	-138.026	-0.316	-0.035
-125.253	104.021	-0.093	0.110
-124.239	-153.214	0.235	0.016
-123.224	-145.939	-0.113	-0.010
-122.210	5.820	-0.161	0.119
