DTS Sentinel unit serial number:	SN413079Multiplexer serial number:	ORYXHardware model number:	OX4-SRSoftware version number:	ORYX F/W v4.00 Oryx Data Collector v3.7.2.0data status	okinstallation	princeton_trtdifferential loss correction	single-endedforward channel	channel 1reverse channel	N/Adate	2019/09/18time	16:34:35forward acquisition time	60.00reverse acquisition time	0.00gamma	496.2192k internal	0.2292k external	0.2292temperature offset calibration	0.9990default loss term (dB/km)	0.3790temperature slope calibration	1.0000multiplexer offset coefficient	1.0000multiplexer slope coefficient	1.0000fibre end	0.00T internal ref (°C)	39.42T ext. ref 1 (°C)	0.83T ext. ref 2 (°C)	36.74length (m)	temperature (°C)	Stokes	anti-Stokes-747.200	103.143	-0.228	0.273
-746.185	153.836	-0.082	0.114
-745.171	-124.918	0.071	-0.011
-744.156	293.494	0.252	0.471
-743.142	-111.189	0.139	0.029
-742.127	152.085	-0.213	0.298
-741.112	164.658	-0.136	-0.196
-740.098	-69.588	0.276	-0.108
-739.083	800.000	0.064	-0.234
-738.069	800.000	-0.088	0.358
-737.054	-107.593	0.048	0.011
-736.039	-151.595	-0.378	-0.029
-735.025	-103.629	-0.193	0.046
-734.010	-57.877	0.047	-0.021
-732.996	27.621	0.114	-0.099
-731.981	109.958	-0.078	-0.096
-730.966	-98.525	0.210	-0.055
-729.952	167.556	0.058	-0.085
-728.937	-65.501	-0.335	-0.137
-727.923	220.638	0.134	-0.220
-726.908	-200.000	-0.019	0.095
-725.894	-72.339	-0.299	0.113
-724.879	-93.990	0.336	0.094
-723.864	-11.786	-0.098	-0.066
-722.850	800.000	-0.088	-0.359
-721.835	-78.900	0.075	0.026
-720.821	-114.992	-0.245	-0.048
-719.806	758.273	-0.085	-0.234
-718.791	800.000	-0.118	-0.387
-717.777	-65.291	0.311	-0.128
-716.762	-158.719	0.177	0.010
-715.748	-200.000	0.013	0.271
-714.733	-200.000	-0.047	-0.245
-713.718	515.141	-0.050	0.119
-712.704	-200.000	0.010	-0.081
-711.689	494.788	-0.137	-0.321
-710.675	800.000	0.064	-0.262
-709.660	800.000	0.142	-0.576
-708.645	-200.000	0.006	0.089
-707.631	-14.992	0.114	0.075
-706.616	-46.145	-0.070	-0.035
-705.602	-51.910	0.220	0.104
-704.587	-33.355	-0.047	-0.026
-703.572	-134.930	-0.177	-0.022
-702.558	603.578	-0.116	-0.295
-701.543	-200.000	-0.010	0.053
-700.529	-200.000	-0.013	-0.233
-699.514	193.466	-0.054	0.084
-698.499	149.916	0.121	-0.168
-697.485	-147.423	-0.145	-0.013
-696.470	320.408	-0.052	-0.100
-695.456	-17.752	-0.188	0.121
-694.441	-43.659	0.105	-0.054
-693.426	184.448	-0.056	-0.084
-692.412	-98.523	-0.183	-0.048
-691.397	28.907	0.158	-0.137
-690.383	171.442	-0.217	-0.318
-689.368	11.991	0.184	-0.144
-688.354	-135.910	0.227	0.027
-687.339	-84.575	0.300	0.097
-686.324	-200.000	0.078	-0.427
-685.310	293.428	0.153	-0.285
-684.295	-94.035	0.208	0.058
-683.281	-200.000	-0.011	0.051
-682.266	45.544	-0.055	-0.052
-681.251	148.345	-0.183	0.253
-680.237	-84.035	-0.335	0.109
-679.222	-61.249	0.185	-0.079
-678.208	-162.869	0.267	-0.013
-677.193	-73.400	0.103	-0.039
-676.178	-51.743	-0.207	-0.098
-675.164	487.630	-0.031	0.073
-674.149	297.056	-0.091	0.170
-673.135	-132.600	0.177	0.023
-672.120	-44.436	0.132	-0.068
-671.105	48.854	0.195	0.187
-670.091	-137.772	-0.169	-0.019
-669.076	-200.000	0.003	0.072
-668.062	-125.002	-0.159	0.025
-667.047	-96.463	0.154	0.042
-666.032	30.626	-0.065	0.057
-665.018	99.732	-0.174	-0.206
-664.003	800.000	-0.118	-0.419
-662.989	-116.720	-0.268	-0.050
-661.974	699.310	0.141	-0.379
-660.959	469.464	0.029	0.067
-659.945	205.110	-0.002	0.004
-658.930	-15.061	-0.279	-0.182
-657.916	51.171	-0.121	-0.117
-656.901	-200.000	0.036	-0.412
-655.886	-200.000	0.030	-0.460
-654.872	318.794	-0.123	-0.238
-653.857	-99.071	-0.161	0.042
-652.843	-13.959	-0.493	0.325
-651.828	-200.000	0.049	0.000
-650.814	-33.908	0.375	0.210
-649.799	-200.000	0.056	0.315
-648.784	-92.665	-0.085	0.024
-647.770	131.403	0.130	-0.171
-646.755	163.734	-0.042	-0.061
-645.741	111.988	0.062	-0.077
-644.726	251.446	-0.125	-0.217
-643.711	-128.133	0.536	-0.078
-642.697	-182.662	0.227	-0.004
-641.682	64.156	0.117	0.120
-640.668	163.783	0.152	-0.219
-639.653	51.804	0.013	0.013
-638.638	776.580	-0.106	0.295
-637.624	800.000	-0.057	0.227
-636.609	-200.000	-0.019	-0.163
-635.595	338.594	-0.177	-0.351
-634.580	697.967	-0.062	-0.167
-633.565	-165.065	-0.442	0.020
-632.551	101.206	0.142	-0.169
-631.536	200.007	-0.218	-0.341
-630.522	374.417	0.023	-0.048
-629.507	352.993	0.261	0.528
-628.492	308.384	-0.013	0.025
-627.478	-200.000	0.020	0.000
-626.463	147.908	0.207	-0.285
-625.449	-122.861	0.187	-0.031
-624.434	-200.000	-0.023	-0.144
-623.419	-134.903	0.128	-0.016
-622.405	-132.698	-0.256	-0.033
-621.390	-200.000	-0.018	0.098
-620.376	-34.146	0.410	-0.230
-619.361	-87.184	0.334	-0.103
-618.346	-124.643	0.100	0.016
-617.332	-13.025	0.250	-0.165
-616.317	395.536	0.095	0.203
-615.303	132.690	-0.132	0.173
-614.288	-42.318	0.026	0.013
-613.273	-141.611	0.100	-0.010
-612.259	-131.635	0.115	0.015
-611.244	-133.311	-0.428	-0.055
-610.230	-106.700	0.147	-0.033
-609.215	296.420	0.113	-0.211
-608.201	800.000	0.102	0.387
-607.186	-81.162	-0.327	-0.110
-606.171	-17.396	-0.261	-0.167
-605.157	-200.000	-0.026	0.208
-604.142	-40.340	-0.168	-0.089
-603.128	-37.495	-0.233	-0.127
-602.113	-200.000	0.031	-0.248
-601.098	-71.787	-0.156	-0.059
-600.084	99.116	0.099	-0.116
-599.069	-72.277	-0.117	0.044
-598.055	800.000	0.063	-0.237
-597.040	-139.121	0.113	-0.012
-596.025	288.330	0.060	0.111
-595.011	233.978	-0.077	0.129
-593.996	-200.000	-0.064	0.303
-592.982	3.580	0.152	-0.113
-591.967	-94.658	0.160	0.044
-590.952	120.813	-0.102	0.128
-589.938	314.081	0.150	0.287
-588.923	-200.000	0.020	-0.090
-587.909	-151.683	-0.100	0.008
-586.894	-200.000	-0.028	0.306
-585.879	-12.479	-0.184	0.122
-584.865	727.754	-0.113	0.308
-583.850	136.438	-0.225	0.299
-582.836	800.000	0.055	-0.171
-581.821	800.000	0.053	-0.192
-580.806	87.001	0.061	-0.069
-579.792	243.307	0.221	0.376
-578.777	-162.263	0.315	0.016
-577.763	-158.699	0.025	0.001
-576.748	-107.376	0.212	0.047
-575.733	194.862	-0.129	-0.200
-574.719	800.000	0.050	-0.192
-573.704	794.576	-0.036	0.102
-572.690	-121.317	-0.276	0.047
-571.675	155.111	0.085	0.119
-570.661	-26.581	-0.279	0.166
-569.646	89.645	-0.075	0.085
-568.631	-34.442	-0.244	0.136
-567.617	322.988	-0.120	0.232
-566.602	-200.000	-0.001	0.101
-565.588	-4.774	-0.250	-0.175
-564.573	451.124	0.117	0.262
-563.558	60.854	0.175	0.177
-562.544	447.160	-0.063	-0.141
-561.529	800.000	-0.031	-0.120
-560.515	-200.000	0.005	0.334
-559.500	-35.657	0.046	-0.025
-558.485	59.274	-0.287	0.287
-557.471	165.937	0.155	0.223
-556.456	-16.041	-0.089	0.058
-555.442	236.487	0.160	0.270
-554.427	800.000	-0.061	-0.184
-553.412	359.865	-0.094	0.190
-552.398	-107.369	0.371	0.083
-551.383	-200.000	-0.020	0.143
-550.369	47.381	0.099	0.094
-549.354	-8.152	-0.167	-0.114
-548.339	-200.000	-0.005	0.029
-547.325	-200.000	-0.050	0.235
-546.310	-200.000	-0.031	0.300
-545.296	503.337	0.048	-0.112
-544.281	-87.882	-0.140	0.043
-543.266	357.559	-0.099	-0.200
-542.252	-181.017	0.111	-0.002
-541.237	105.035	-0.049	0.058
-540.223	490.487	0.130	0.302
-539.208	-200.000	0.040	-0.202
-538.193	-56.085	0.110	-0.050
-537.179	129.635	0.106	-0.137
-536.164	-200.000	0.021	-0.109
-535.150	778.463	0.013	0.036
-534.135	579.499	0.073	0.183
-533.121	-106.701	-0.216	0.049
-532.106	514.371	0.081	-0.192
-531.091	-200.000	-0.009	-0.194
-530.077	-48.915	0.343	-0.167
-529.062	-72.679	-0.124	0.046
-528.048	-30.983	0.174	-0.100
-527.033	272.264	0.065	-0.116
-526.018	142.741	-0.196	-0.264
-525.004	-200.000	0.009	-0.157
-523.989	800.000	0.064	0.221
-522.975	-200.000	-0.004	-0.065
-521.960	759.742	-0.074	0.202
-520.945	157.939	-0.076	-0.107
-519.931	800.000	-0.071	0.206
-518.916	512.346	0.181	0.428
-517.902	-137.083	0.128	0.015
-516.887	800.000	0.049	-0.192
-515.872	-30.749	0.138	-0.079
-514.858	-155.872	-0.385	-0.025
-513.843	-200.000	0.001	-0.270
-512.829	-11.998	-0.242	-0.161
-511.814	-125.379	-0.056	0.009
-510.799	590.175	-0.045	-0.112
-509.785	24.063	0.106	-0.088
-508.770	125.936	-0.258	-0.331
-507.756	151.599	-0.173	0.239
-506.741	-154.091	-0.232	0.016
-505.726	-101.900	-0.265	-0.065
-504.712	-200.000	-0.064	-0.437
-503.697	-200.000	-0.068	0.000
-502.683	800.000	-0.061	-0.179
-501.668	36.547	0.183	0.164
-500.653	-4.769	-0.138	0.097
-499.639	-200.000	0.045	-0.219
-498.624	-74.871	-0.216	0.079
-497.610	-90.360	-0.139	-0.041
-496.595	-131.887	-0.396	-0.052
-495.581	-24.910	-0.067	-0.040
-494.566	-53.055	0.155	0.072
-493.551	800.000	0.079	0.235
-492.537	-200.000	0.002	-0.050
-491.522	524.386	0.063	0.150
-490.508	405.813	0.089	-0.190
-489.493	161.176	0.264	-0.374
-488.478	-117.820	0.231	-0.042
-487.464	284.661	-0.096	-0.175
-486.449	220.105	-0.033	0.054
-485.435	62.139	-0.340	0.344
-484.420	-118.357	0.238	0.043
-483.405	630.059	-0.085	0.218
-482.391	158.399	0.118	-0.165
-481.376	-200.000	-0.015	-0.206
-480.362	-200.000	-0.034	-0.201
-479.347	-119.083	-0.027	0.005
-478.332	5.731	-0.044	0.033
-477.318	800.000	0.070	0.222
-476.303	10.061	-0.182	0.140
-475.289	-200.000	-0.013	-0.209
-474.274	-62.017	0.267	0.113
-473.259	-200.000	-0.054	0.249
-472.245	800.000	-0.100	-0.285
-471.230	24.143	-0.180	-0.151
-470.216	88.525	-0.042	-0.048
-469.201	-150.801	0.328	0.025
-468.186	776.566	0.043	0.120
-467.172	-64.835	0.143	-0.059
-466.157	363.493	0.063	-0.128
-465.143	-59.565	0.147	-0.064
-464.128	-81.475	-0.133	-0.044
-463.113	800.000	0.077	0.316
-462.099	49.917	-0.125	-0.120
-461.084	-200.000	-0.001	0.443
-460.070	62.043	-0.049	0.050
-459.055	-193.011	-0.126	0.001
-458.040	-200.000	-0.025	0.157
-457.026	259.230	0.096	-0.167
-456.011	170.418	-0.223	-0.323
-454.997	50.756	0.192	-0.184
-453.982	-200.000	-0.004	0.177
-452.968	-87.927	-0.071	0.021
-451.953	370.727	-0.059	0.121
-450.938	800.000	-0.027	0.093
-449.924	506.316	0.063	0.148
-448.909	-25.463	-0.241	-0.144
-447.895	-200.000	-0.016	-0.103
-446.880	153.462	-0.127	0.176
-445.865	134.333	-0.146	-0.191
-444.851	-167.394	-0.242	-0.010
-443.836	197.059	0.087	0.135
-442.822	531.438	0.052	-0.124
-441.807	13.298	-0.112	-0.087
-440.792	12.364	0.037	0.029
-439.778	-166.891	0.134	-0.006
-438.763	-58.301	0.033	-0.015
-437.749	-200.000	0.009	0.042
-436.734	714.513	-0.047	0.125
-435.719	-19.098	-0.155	-0.098
-434.705	791.605	-0.103	0.287
-433.690	-99.955	0.185	-0.047
-432.676	-55.907	0.105	-0.047
-431.661	109.452	-0.084	-0.102
-430.646	-47.490	-0.240	-0.118
-429.632	351.805	-0.073	-0.147
-428.617	800.000	-0.099	-0.278
-427.603	274.748	0.013	0.023
-426.588	-200.000	-0.013	0.092
-425.573	-76.765	-0.100	-0.035
-424.559	-97.403	-0.248	0.065
-423.544	-98.940	-0.198	0.051
-422.530	-61.247	-0.191	0.082
-421.515	-76.538	-0.295	0.105
-420.500	-52.134	0.112	0.053
-419.486	-200.000	-0.019	-0.140
-418.471	54.163	-0.231	-0.225
-417.457	53.991	0.133	0.130
-416.442	-150.104	0.107	-0.008
-415.428	71.317	0.195	0.204
-414.413	800.000	-0.045	0.137
-413.398	107.448	0.074	-0.089
-412.384	173.616	0.189	-0.276
-411.369	499.161	-0.041	-0.095
-410.355	27.923	-0.059	-0.051
-409.340	-200.000	-0.025	-0.129
-408.325	182.312	-0.028	-0.041
-407.311	-185.488	-0.170	0.003
-406.296	-200.000	-0.016	0.254
-405.282	-11.139	0.112	-0.075
-404.267	84.141	-0.270	-0.297
-403.252	-21.823	-0.184	-0.113
-402.238	-75.727	0.196	0.070
-401.223	-70.033	-0.304	0.117
-400.209	-96.513	-0.282	-0.075
-399.194	800.000	0.039	0.127
-398.179	272.551	0.132	-0.235
-397.165	41.058	-0.179	-0.163
-396.150	46.973	-0.139	-0.131
-395.136	-49.242	0.040	-0.020
-394.121	502.006	0.070	-0.162
-393.106	452.762	-0.042	-0.093
-392.092	-200.000	-0.021	0.351
-391.077	109.584	0.133	-0.160
-390.063	509.188	0.083	-0.194
-389.048	-130.272	0.179	0.025
-388.033	-52.851	-0.206	-0.096
-387.019	-200.000	0.073	-0.346
-386.004	140.801	-0.135	-0.180
-384.990	-118.274	-0.336	0.060
-383.975	110.599	-0.104	-0.126
-382.960	800.000	0.018	0.056
-381.946	676.582	-0.098	-0.258
-380.931	-60.691	0.168	0.072
-379.917	800.000	0.059	0.246
-378.902	-116.568	-0.184	0.034
-377.888	-58.368	0.337	-0.148
-376.873	-47.595	0.262	0.128
-375.858	-124.316	0.160	-0.025
-374.844	68.281	-0.155	-0.160
-373.829	259.250	-0.107	-0.186
-372.815	39.203	0.277	-0.250
-371.800	102.409	-0.098	0.116
-370.785	-200.000	0.018	0.083
-369.771	118.058	0.226	-0.280
-368.756	-126.993	-0.250	-0.037
-367.742	-200.000	0.029	-0.493
-366.727	-200.000	0.076	-0.401
-365.712	425.763	0.124	0.270
-364.698	-130.478	0.517	0.071
-363.683	26.550	0.093	-0.079
-362.669	-200.000	-0.009	-0.120
-361.654	800.000	-0.125	-0.374
-360.639	219.199	0.039	0.063
-359.625	283.756	-0.113	-0.205
-358.610	-127.605	-0.253	-0.037
-357.596	400.366	-0.042	0.089
-356.581	165.889	0.070	0.101
-355.566	800.000	-0.082	0.247
-354.552	-116.821	0.113	0.021
-353.537	99.029	-0.069	0.080
-352.523	332.219	0.169	0.330
-351.508	800.000	0.055	-0.236
-350.493	141.468	-0.141	-0.188
-349.479	-16.824	0.174	0.111
-348.464	26.172	0.123	0.104
-347.450	-7.185	0.140	0.096
-346.435	800.000	0.084	-0.234
-345.420	-200.000	0.065	-0.510
-344.406	27.654	0.192	0.163
-343.391	-200.000	0.055	0.523
-342.377	800.000	0.116	-0.328
-341.362	-200.000	0.020	-0.281
-340.348	312.446	0.147	0.277
-339.333	-175.080	-0.352	-0.010
-338.318	50.283	-0.081	-0.077
-337.304	800.000	-0.093	0.345
-336.289	1.927	0.151	-0.109
-335.275	120.246	-0.098	-0.122
-334.260	272.094	0.172	0.305
-333.245	446.710	0.079	-0.174
-332.231	-20.538	-0.157	0.097
-331.216	-200.000	-0.049	0.412
-330.202	-134.008	0.072	0.009
-329.187	49.864	-0.192	-0.182
-328.172	196.170	0.176	0.269
-327.158	-58.046	0.214	-0.094
-326.143	111.573	-0.045	-0.054
-325.129	73.728	-0.140	0.148
-324.114	-200.000	0.060	-0.320
-323.099	57.823	0.346	-0.341
-322.085	-200.000	-0.049	-0.325
-321.070	-50.945	-0.297	-0.141
-320.056	2.492	0.219	-0.160
-319.041	-126.898	0.164	0.024
-318.026	-51.387	0.010	0.005
-317.012	-200.000	-0.010	-0.129
-315.997	-135.895	0.097	0.012
-314.983	-31.299	-0.020	0.011
-313.968	500.885	0.121	-0.282
-312.953	-17.972	-0.214	0.135
-311.939	800.000	0.113	0.342
-310.924	-151.479	0.094	-0.007
-309.910	608.707	0.152	0.381
-308.895	-8.982	-0.207	-0.140
-307.880	800.000	-0.018	0.060
-306.866	-200.000	0.055	0.318
-305.851	159.592	-0.195	-0.274
-304.837	9.990	0.339	-0.259
-303.822	89.238	0.253	-0.284
-302.807	-23.650	-0.129	0.078
-301.793	800.000	-0.028	0.096
-300.778	142.026	-0.165	-0.220
-299.764	800.000	-0.020	0.055
-298.749	-200.000	0.005	-0.515
-297.735	59.929	0.150	0.149
-296.720	-113.108	0.053	0.011
-295.705	536.012	0.086	-0.206
-294.691	-200.000	0.001	0.430
-293.676	23.161	0.034	-0.028
-292.662	-3.764	0.343	-0.240
-291.647	-59.249	0.174	0.075
-290.632	84.610	-0.310	-0.341
-289.618	-200.000	-0.018	-0.158
-288.603	-200.000	-0.002	-0.044
-287.589	-46.703	-0.144	-0.071
-286.574	41.518	0.262	0.238
-285.559	182.768	-0.105	0.155
-284.545	-200.000	-0.035	0.238
-283.530	-200.000	0.002	-0.033
-282.516	-114.390	0.071	0.014
-281.501	800.000	-0.051	0.143
-280.486	-200.000	0.001	0.097
-279.472	595.109	0.188	-0.467
-278.457	425.254	0.092	0.200
-277.443	249.746	0.065	0.112
-276.428	189.065	-0.058	-0.087
-275.413	-200.000	0.081	0.359
-274.399	128.860	0.098	-0.125
-273.384	800.000	-0.015	0.051
-272.370	-93.469	-0.158	-0.044
-271.355	-39.398	-0.496	0.262
-270.340	-200.000	-0.007	-0.218
-269.326	18.192	-0.169	0.136
-268.311	242.288	0.102	-0.171
-267.297	-200.000	-0.014	-0.246
-266.282	-32.449	-0.335	-0.188
-265.267	487.660	-0.100	0.229
-264.253	276.942	0.064	0.114
-263.238	800.000	0.081	-0.265
-262.224	-77.167	-0.268	-0.094
-261.209	187.885	-0.080	-0.120
-260.195	-200.000	-0.008	-0.070
-259.180	186.361	0.071	-0.106
-258.165	-120.085	0.197	-0.034
-257.151	800.000	0.117	0.394
-256.136	-94.209	0.107	0.029
-255.122	-200.000	-0.068	0.308
-254.107	-200.000	-0.019	-0.286
-253.092	-58.611	0.198	-0.086
-252.078	-81.134	-0.188	0.062
-251.063	-22.535	-0.185	0.112
-250.049	-123.729	0.116	-0.018
-249.034	800.000	-0.099	0.355
-248.019	-55.978	0.289	-0.129
-247.005	61.065	-0.164	0.163
-245.990	800.000	0.100	0.378
-244.976	-200.000	0.003	0.231
-243.961	50.426	-0.146	-0.139
-242.946	58.996	-0.141	-0.139
-241.932	18.461	0.137	-0.110
-240.917	-6.857	-0.307	-0.210
-239.903	-40.678	0.108	-0.056
-238.888	-54.285	0.370	-0.168
-237.873	134.034	-0.115	0.150
-236.859	115.355	-0.251	0.307
-235.844	-200.000	0.006	-0.096
-234.830	800.000	0.122	0.350
-233.815	800.000	0.043	0.121
-232.800	305.737	-0.109	-0.203
-231.786	800.000	-0.036	-0.111
-230.771	-11.607	0.156	-0.103
-229.757	-200.000	-0.051	-0.382
-228.742	-80.587	0.182	0.061
-227.727	800.000	-0.058	0.174
-226.713	-90.044	0.060	0.017
-225.698	800.000	-0.068	-0.257
-224.684	654.062	0.122	0.313
-223.669	-200.000	0.002	0.127
-222.655	17.662	0.267	-0.213
-221.640	82.321	0.214	0.232
-220.625	257.509	0.151	-0.260
-219.611	-200.000	0.012	0.143
-218.596	800.000	-0.082	-0.282
-217.582	-123.957	0.352	0.056
-216.567	355.279	0.029	0.057
-215.552	-150.643	0.224	-0.017
-214.538	44.247	-0.156	0.143
-213.523	-65.520	-0.256	0.103
-212.509	-4.963	-0.269	0.186
-211.494	-118.421	0.087	0.015
-210.479	-200.000	0.015	0.119
-209.465	-95.174	-0.019	-0.005
-208.450	-193.042	0.160	0.001
-207.436	-81.123	-0.188	0.062
-206.421	-200.000	0.006	0.083
-205.406	-200.000	-0.005	-0.350
-204.392	-44.316	0.213	0.107
-203.377	402.478	0.070	0.147
-202.363	-195.194	0.125	-0.001
-201.348	-96.754	-0.037	-0.010
-200.333	-200.000	-0.044	0.329
-199.319	725.693	0.068	0.182
-198.304	800.000	-0.082	0.355
-197.290	270.549	-0.120	-0.211
-196.275	-44.064	-0.217	-0.109
-195.260	-127.758	-0.496	0.072
-194.246	86.186	0.214	0.236
-193.231	-98.731	0.380	0.097
-192.217	-200.000	-0.043	0.220
-191.202	-45.888	-0.118	-0.058
-190.187	800.000	-0.069	0.244
-189.173	-168.571	0.332	-0.013
-188.158	-200.000	0.033	0.165
-187.144	640.334	0.092	0.235
-186.129	-141.887	0.167	0.017
-185.114	571.977	0.066	0.162
-184.100	-54.707	0.064	0.029
-183.085	180.732	-0.145	-0.213
-182.071	-7.020	-0.320	0.218
-181.056	193.391	-0.067	-0.101
-180.042	-200.000	-0.025	0.201
-179.027	-200.000	-0.053	0.406
-178.012	50.508	0.156	-0.148
-176.998	78.703	0.074	-0.079
-175.983	-53.770	-0.333	-0.152
-174.969	27.751	0.180	0.152
-173.954	47.031	-0.321	-0.299
-172.939	177.121	-0.158	0.231
-171.925	10.041	0.146	-0.111
-170.910	443.392	-0.048	0.105
-169.896	125.693	-0.236	-0.298
-168.881	-200.000	0.031	-0.220
-167.866	-146.825	-0.110	0.009
-166.852	800.000	0.020	-0.066
-165.837	-89.726	0.213	-0.062
-164.823	-53.325	0.181	-0.083
-163.808	440.104	-0.019	0.041
-162.793	-200.000	0.016	0.176
-161.779	60.493	0.079	-0.078
-160.764	-200.000	-0.004	0.129
-159.750	386.160	0.075	0.156
-158.735	-200.000	-0.049	0.305
-157.720	65.426	0.200	0.203
-156.706	800.000	-0.078	0.220
-155.691	-77.138	0.276	0.096
-154.677	-117.162	0.066	0.012
-153.662	800.000	0.067	0.241
-152.647	-113.795	0.111	-0.022
-151.633	435.604	-0.047	0.102
-150.618	57.039	0.125	-0.121
-149.604	254.902	0.139	0.238
-148.589	182.711	-0.103	0.151
-147.574	129.907	0.161	-0.206
-146.560	-58.500	-0.020	-0.009
-145.545	336.784	0.028	0.055
-144.531	-16.314	0.255	-0.162
-143.516	-200.000	-0.005	-0.034
-142.502	800.000	-0.093	-0.320
-141.487	-200.000	0.029	0.150
-140.472	178.311	-0.209	0.306
-139.458	120.307	-0.107	0.132
-138.443	800.000	-0.122	-0.366
-137.429	103.454	0.223	0.262
-136.414	102.668	0.112	-0.131
-135.399	-139.949	0.289	0.031
-134.385	71.930	0.263	-0.273
-133.370	-200.000	-0.024	0.198
-132.356	-134.721	0.336	0.041
-131.341	-108.660	0.131	-0.028
-130.326	4.732	-0.193	0.142
-129.312	675.043	-0.063	0.164
-128.297	-99.185	0.340	-0.086
-127.283	-6.911	0.249	0.169
-126.268	-97.399	-0.314	-0.082
-125.253	-6.406	-0.102	-0.069
-124.239	137.185	-0.197	-0.257
-123.224	-119.076	-0.182	-0.032
-122.210	-105.481	-0.043	0.010
