DTS Sentinel unit serial number:	SN413079Multiplexer serial number:	ORYXHardware model number:	OX4-SRSoftware version number:	ORYX F/W v4.00 Oryx Data Collector v3.7.2.0data status	okinstallation	princeton_trtdifferential loss correction	single-endedforward channel	channel 1reverse channel	N/Adate	2019/09/13time	11:10:35forward acquisition time	60.00reverse acquisition time	0.00gamma	496.2192k internal	0.2318k external	0.2318temperature offset calibration	1.0160default loss term (dB/km)	0.3790temperature slope calibration	1.0000multiplexer offset coefficient	1.0000multiplexer slope coefficient	1.0000fibre end	0.00T internal ref (°C)	32.11T ext. ref 1 (°C)	4.68T ext. ref 2 (°C)	29.66length (m)	temperature (°C)	Stokes	anti-Stokes-747.200	-200.000	0.000	-0.036
-746.185	509.704	-0.147	0.346
-745.171	-173.834	-0.040	0.001
-744.156	-200.000	0.020	-0.134
-743.142	-34.134	0.308	0.171
-742.127	-30.699	-0.112	0.064
-741.112	-47.105	-0.488	0.241
-740.098	345.308	0.104	0.207
-739.083	8.636	0.256	-0.195
-738.069	-40.808	0.250	0.131
-737.054	43.401	-0.130	0.121
-736.039	341.572	-0.191	0.379
-735.025	288.151	0.193	0.353
-734.010	-73.666	0.119	0.044
-732.996	800.000	-0.084	0.291
-731.981	-66.478	0.219	0.088
-730.966	-200.000	-0.002	0.067
-729.952	-164.709	-0.158	0.007
-728.937	665.986	-0.099	-0.259
-727.923	-200.000	0.020	0.102
-726.908	-61.222	-0.277	-0.118
-725.894	-62.151	0.170	-0.072
-724.879	800.000	0.110	-0.338
-723.864	-63.906	0.130	-0.054
-722.850	-200.000	0.022	-0.140
-721.835	-200.000	0.009	-0.197
-720.821	-100.062	0.298	0.075
-719.806	13.361	-0.119	0.093
-718.791	170.809	-0.176	-0.255
-717.777	182.245	-0.108	0.161
-716.762	-51.977	-0.223	0.105
-715.748	-82.974	-0.227	-0.074
-714.733	-137.682	-0.131	-0.015
-713.718	23.733	0.170	0.141
-712.704	-111.280	-0.259	0.053
-711.689	-10.727	-0.334	-0.223
-710.675	117.401	0.081	-0.100
-709.660	70.927	-0.097	-0.102
-708.645	26.169	0.200	-0.169
-707.631	800.000	-0.026	0.099
-706.616	-1.954	-0.165	-0.117
-705.602	-133.300	-0.140	-0.018
-704.587	-55.989	-0.118	-0.053
-703.572	-200.000	-0.011	-0.079
-702.558	-76.420	0.160	0.057
-701.543	-200.000	0.051	-0.231
-700.529	-200.000	0.001	-0.141
-699.514	193.383	0.076	-0.116
-698.499	-200.000	-0.070	-0.354
-697.485	-65.225	-0.146	-0.059
-696.470	-200.000	-0.033	-0.230
-695.456	239.259	-0.064	0.108
-694.441	-200.000	0.029	0.242
-693.426	-127.277	-0.115	-0.017
-692.412	-200.000	0.076	-0.342
-691.397	-112.720	0.199	-0.040
-690.383	-96.666	-0.242	-0.064
-689.368	117.795	0.109	0.136
-688.354	-200.000	0.020	0.127
-687.339	619.304	-0.114	-0.289
-686.324	-13.823	0.323	-0.211
-685.310	-52.790	-0.240	0.112
-684.295	-66.290	0.072	0.029
-683.281	-177.187	0.110	0.003
-682.266	-200.000	-0.002	-0.351
-681.251	18.609	-0.112	-0.091
-680.237	800.000	-0.095	0.332
-679.222	-127.747	-0.260	0.038
-678.208	-14.438	-0.196	-0.127
-677.193	-84.499	-0.327	-0.104
-676.178	-41.598	-0.212	0.110
-675.164	8.495	-0.016	-0.012
-674.149	-200.000	0.015	-0.166
-673.135	-156.918	-0.193	-0.012
-672.120	800.000	0.019	-0.062
-671.105	400.515	-0.135	-0.285
-670.091	-79.768	0.212	-0.072
-669.076	-109.513	0.315	0.067
-668.062	79.576	-0.162	-0.176
-667.047	-200.000	-0.001	0.021
-666.032	-104.061	-0.203	0.048
-665.018	-71.276	0.262	-0.099
-664.003	-9.633	0.175	-0.118
-662.989	-130.242	0.266	-0.036
-661.974	353.228	0.154	-0.309
-660.959	-200.000	0.006	0.100
-659.945	48.687	0.352	-0.333
-658.930	-104.577	-0.128	-0.030
-657.916	-74.483	0.245	-0.089
-656.901	83.361	-0.167	0.183
-655.886	-177.256	-0.332	-0.008
-654.872	800.000	-0.062	0.206
-653.857	-200.000	-0.008	-0.071
-652.843	-81.633	0.274	0.091
-651.828	120.849	-0.146	-0.184
-650.814	-18.527	0.266	-0.168
-649.799	-4.170	0.364	-0.255
-648.784	800.000	-0.077	0.247
-647.770	800.000	0.020	-0.070
-646.755	800.000	-0.021	-0.061
-645.741	-200.000	-0.005	-0.191
-644.726	310.908	0.050	0.095
-643.711	-12.288	0.327	0.216
-642.697	445.844	0.199	-0.440
-641.682	-32.178	-0.278	-0.157
-640.668	35.100	0.207	0.183
-639.653	-200.000	-0.054	-0.349
-638.638	-200.000	0.000	-0.355
-637.624	-200.000	-0.019	-0.131
-636.609	394.580	-0.094	-0.196
-635.595	-200.000	-0.003	0.163
-634.580	-157.940	0.228	-0.014
-633.565	14.092	-0.148	0.116
-632.551	52.978	-0.080	-0.077
-631.536	-56.399	-0.406	-0.182
-630.522	-148.536	-0.214	-0.018
-629.507	545.774	-0.095	-0.230
-628.492	447.497	0.098	-0.218
-627.478	800.000	-0.058	-0.244
-626.463	12.385	-0.099	-0.077
-625.449	-64.940	-0.308	-0.125
-624.434	249.018	-0.157	-0.269
-623.419	237.597	0.082	0.136
-622.405	-200.000	0.034	-0.283
-621.390	-144.007	0.447	0.042
-620.376	758.813	0.181	-0.494
-619.361	-200.000	-0.003	-0.077
-618.346	52.949	-0.181	-0.174
-617.332	-200.000	0.016	-0.099
-616.317	-12.841	0.120	-0.079
-615.303	494.792	0.010	-0.023
-614.288	-128.196	-0.229	-0.033
-613.273	800.000	0.102	-0.375
-612.259	-200.000	-0.009	0.331
-611.244	-167.309	-0.223	0.009
-610.230	24.827	-0.225	-0.188
-609.215	307.155	0.009	-0.018
-608.201	168.798	-0.079	0.113
-607.186	-89.484	0.341	-0.101
-606.171	335.957	-0.151	0.295
-605.157	-52.975	-0.164	0.076
-604.142	81.970	-0.250	-0.273
-603.128	-200.000	-0.016	-0.250
-602.113	62.149	0.076	0.076
-601.098	-3.788	-0.161	0.112
-600.084	-200.000	-0.011	0.110
-599.069	-200.000	0.082	-0.382
-598.055	659.314	-0.087	-0.224
-597.040	100.946	-0.094	-0.110
-596.025	17.810	0.196	0.157
-595.011	495.610	-0.104	0.240
-593.996	75.505	0.083	-0.088
-592.982	668.787	0.037	-0.096
-591.967	-11.003	0.122	0.081
-590.952	26.635	-0.361	-0.304
-589.938	-60.179	0.109	-0.047
-588.923	-123.550	0.056	-0.009
-587.909	365.633	-0.084	-0.170
-586.894	-140.842	0.192	0.020
-585.879	-200.000	-0.036	0.170
-584.865	-200.000	-0.008	0.142
-583.850	72.744	-0.099	0.103
-582.836	-37.619	-0.191	0.103
-581.821	800.000	-0.078	-0.254
-580.806	-200.000	-0.027	-0.133
-579.792	15.414	-0.099	-0.078
-578.777	2.641	-0.134	-0.098
-577.763	-5.064	-0.353	-0.244
-576.748	38.813	-0.083	-0.075
-575.733	-67.582	0.166	-0.065
-574.719	-200.000	-0.040	-0.184
-573.704	800.000	0.140	0.433
-572.690	-114.605	0.082	-0.016
-571.675	28.164	-0.168	-0.143
-570.661	-200.000	0.001	0.053
-569.646	-65.025	0.212	-0.086
-568.631	60.730	-0.046	0.046
-567.617	101.893	-0.196	-0.230
-566.602	-148.078	0.289	-0.024
-565.588	-200.000	0.002	0.106
-564.573	-87.354	-0.363	-0.111
-563.558	800.000	0.156	0.676
-562.544	25.252	0.264	0.221
-561.529	-69.648	0.136	-0.052
-560.515	800.000	0.049	-0.174
-559.500	-151.338	0.199	-0.015
-558.485	-58.885	0.121	-0.053
-557.471	-30.249	0.342	0.195
-556.456	-200.000	0.050	-0.278
-555.442	551.515	-0.161	-0.389
-554.427	586.334	0.077	-0.190
-553.412	-82.239	-0.158	-0.052
-552.398	5.787	-0.270	-0.201
-551.383	-200.000	-0.017	0.272
-550.369	207.777	0.085	0.133
-549.354	-58.763	0.477	0.208
-548.339	800.000	-0.095	-0.277
-547.325	-48.170	-0.401	0.195
-546.310	-132.298	0.117	0.015
-545.296	-97.263	-0.383	-0.100
-544.281	-200.000	0.021	0.145
-543.266	7.708	0.223	0.167
-542.252	-58.827	-0.065	0.028
-541.237	-124.880	-0.014	0.002
-540.223	16.410	-0.060	0.047
-539.208	-74.841	-0.128	-0.046
-538.193	196.138	0.176	-0.269
-537.179	-200.000	-0.008	0.207
-536.164	-62.846	0.337	-0.140
-535.150	-129.487	0.271	-0.038
-534.135	800.000	-0.091	0.315
-533.121	270.928	0.074	0.130
-532.106	-81.796	-0.185	-0.061
-531.091	-108.275	0.247	-0.054
-530.077	800.000	0.098	-0.383
-529.062	-37.739	-0.226	0.121
-528.048	-200.000	-0.019	0.140
-527.033	86.185	-0.179	0.198
-526.018	800.000	0.098	-0.292
-525.004	-32.992	-0.241	0.134
-523.989	-74.651	-0.193	-0.070
-522.975	-48.604	0.219	-0.106
-521.960	187.617	-0.121	-0.181
-520.945	-14.505	0.131	-0.085
-519.931	124.356	0.126	0.159
-518.916	-104.865	0.091	-0.021
-517.902	423.511	-0.077	-0.165
-516.887	-117.809	0.151	-0.027
-515.872	-156.236	0.137	0.009
-514.858	96.135	-0.101	0.116
-513.843	-63.783	0.379	0.156
-512.829	-87.350	-0.114	-0.035
-511.814	-124.109	0.129	-0.020
-510.799	-102.830	-0.156	-0.037
-509.785	-65.190	-0.272	0.110
-508.770	537.859	0.040	0.095
-507.756	-87.226	-0.364	0.111
-506.741	-200.000	0.023	-0.228
-505.726	365.118	-0.089	-0.179
-504.712	139.373	0.018	-0.024
-503.697	185.338	0.108	0.161
-502.683	237.625	0.051	0.085
-501.668	-155.494	-0.160	-0.010
-500.653	-200.000	0.004	-0.114
-499.639	-200.000	-0.012	0.127
-498.624	-108.590	0.064	-0.014
-497.610	-24.427	-0.429	-0.256
-496.595	31.589	0.152	-0.131
-495.581	-33.574	-0.211	0.117
-494.566	-55.907	0.149	0.066
-493.551	-200.000	-0.013	-0.353
-492.537	222.381	-0.068	-0.110
-491.522	646.938	0.012	0.031
-490.508	-200.000	-0.027	-0.171
-489.493	800.000	-0.036	0.142
-488.478	-23.547	0.074	0.044
-487.464	-131.106	-0.126	0.017
-486.449	443.364	-0.131	0.288
-485.435	-200.000	0.373	0.002
-484.420	-16.054	0.068	0.043
-483.405	197.014	0.105	0.160
-482.391	-142.157	0.214	-0.021
-481.376	390.660	-0.060	-0.124
-480.362	13.920	-0.174	-0.136
-479.347	-200.000	0.002	-0.225
-478.332	-155.982	0.232	-0.015
-477.318	-200.000	0.024	0.174
-476.303	79.138	-0.148	-0.159
-475.289	-136.788	0.085	0.010
-474.274	-5.398	-0.155	-0.106
-473.259	-21.908	-0.137	-0.083
-472.245	244.211	0.051	-0.085
-471.230	16.369	0.091	-0.072
-470.216	692.570	0.131	-0.343
-469.201	-7.749	0.264	0.179
-468.186	132.684	-0.152	-0.196
-467.172	71.982	0.142	-0.148
-466.157	800.000	-0.031	0.109
-465.143	-57.656	-0.038	-0.017
-464.128	-67.822	-0.149	-0.058
-463.113	54.546	0.089	-0.086
-462.099	184.787	-0.208	-0.309
-461.084	-113.369	0.189	-0.037
-460.070	135.972	-0.134	-0.175
-459.055	702.593	-0.049	-0.128
-458.040	445.331	-0.063	0.138
-457.026	800.000	-0.053	-0.183
-456.011	800.000	-0.097	-0.363
-454.997	-185.299	-0.126	0.002
-453.982	1.133	0.227	-0.163
-452.968	-130.154	-0.207	0.028
-451.953	191.761	-0.154	0.232
-450.938	-155.135	-0.227	0.015
-449.924	-65.348	-0.083	0.033
-448.909	-104.240	-0.279	0.065
-447.895	236.829	0.034	0.057
-446.880	-200.000	-0.002	-0.103
-445.865	-48.139	0.242	-0.117
-444.851	-200.000	0.019	-0.160
-443.836	-135.931	0.095	-0.011
-442.822	-200.000	-0.004	-0.165
-441.807	800.000	-0.032	-0.108
-440.792	617.825	0.052	0.129
-439.778	-200.000	-0.025	0.287
-438.763	104.242	0.128	0.150
-437.749	-200.000	0.125	0.572
-436.734	314.761	0.033	-0.062
-435.719	-130.071	0.225	0.031
-434.705	-65.543	0.243	-0.098
-433.690	89.450	0.107	-0.119
-432.676	-200.000	-0.048	-0.260
-431.661	800.000	-0.057	0.229
-430.646	-96.529	-0.301	-0.079
-429.632	-135.190	-0.157	0.019
-428.617	-200.000	-0.007	-0.205
-427.603	-1.549	-0.034	0.024
-426.588	-149.021	0.451	-0.036
-425.573	-25.086	0.293	-0.174
-424.559	55.066	-0.118	-0.114
-423.544	222.487	0.084	-0.134
-422.530	-175.954	0.117	-0.003
-421.515	-82.412	-0.083	-0.027
-420.500	-200.000	-0.041	0.674
-419.486	-155.453	-0.291	0.019
-418.471	-2.350	0.218	0.153
-417.457	-150.234	0.383	-0.030
-416.442	278.216	-0.091	0.162
-415.428	-200.000	0.047	-0.246
-414.413	-83.019	0.092	-0.030
-413.398	-58.816	-0.078	0.034
-412.384	-162.438	-0.072	0.004
-411.369	-78.364	0.119	-0.041
-410.355	-118.105	-0.197	0.035
-409.340	282.664	-0.063	-0.114
-408.325	800.000	0.077	-0.307
-407.311	7.294	-0.037	0.027
-406.296	-95.612	-0.296	-0.079
-405.282	139.860	0.141	0.185
-404.267	251.251	0.107	0.182
-403.252	-161.210	-0.092	-0.005
-402.238	194.038	0.161	-0.244
-401.223	-148.012	0.110	-0.009
-400.209	-109.886	0.235	-0.049
-399.194	-48.180	0.132	-0.064
-398.179	663.319	0.100	0.257
-397.165	-93.740	-0.128	-0.035
-396.150	616.239	0.093	-0.232
-395.136	20.653	-0.123	-0.100
-394.121	1.630	-0.180	-0.130
-393.106	87.360	0.182	-0.201
-392.092	135.241	-0.323	0.419
-391.077	-200.000	-0.015	0.150
-390.063	-102.825	-0.228	0.054
-389.048	-200.000	-0.011	0.342
-388.033	98.885	-0.224	-0.258
-387.019	-6.792	-0.292	0.198
-386.004	-99.096	0.329	0.083
-384.990	800.000	-0.077	0.284
-383.975	-3.090	-0.262	0.182
-382.960	-4.623	-0.266	-0.183
-381.946	-11.883	-0.111	0.072
-380.931	-200.000	0.018	-0.333
-379.917	-80.690	0.175	-0.058
-378.902	-128.101	-0.062	-0.009
-377.888	-200.000	-0.029	0.197
-376.873	800.000	-0.087	-0.268
-375.858	800.000	-0.081	0.303
-374.844	576.915	0.056	0.137
-373.829	-55.215	0.158	0.071
-372.815	-180.327	0.366	-0.008
-371.800	-200.000	0.042	0.358
-370.785	-200.000	-0.015	0.080
-369.771	-113.524	-0.384	0.075
-368.756	2.319	0.185	-0.134
-367.742	33.168	-0.259	-0.224
-366.727	13.195	0.208	0.160
-365.712	-54.134	-0.119	-0.054
-364.698	150.334	-0.096	-0.131
-363.683	141.511	-0.119	-0.158
-362.669	361.450	0.079	0.158
-361.654	800.000	0.127	0.396
-360.639	800.000	-0.075	-0.243
-359.625	-200.000	-0.017	0.160
-358.610	96.648	0.253	-0.289
-357.596	800.000	0.120	0.339
-356.581	-56.385	0.179	0.079
-355.566	800.000	0.023	0.090
-354.552	30.489	-0.346	0.295
-353.537	-58.417	-0.174	-0.075
-352.523	548.061	-0.098	-0.235
-351.508	38.427	0.117	-0.104
-350.493	-94.526	0.073	0.020
-349.479	61.636	0.070	0.070
-348.464	20.651	0.128	-0.103
-347.450	119.294	-0.112	0.138
-346.435	38.104	-0.228	-0.203
-345.420	-115.527	0.280	-0.053
-344.406	18.035	-0.080	-0.064
-343.391	-76.293	0.093	0.033
-342.377	23.642	0.289	0.237
-341.362	69.129	0.190	0.195
-340.348	664.775	-0.075	0.193
-339.333	-200.000	-0.051	0.251
-338.318	-200.000	0.032	0.156
-337.304	190.980	0.023	0.034
-336.289	89.554	-0.259	-0.287
-335.275	-173.757	0.151	0.004
-334.260	-124.835	0.190	0.029
-333.245	800.000	0.078	-0.246
-332.231	-41.690	-0.115	0.059
-331.216	-102.540	0.136	0.032
-330.202	254.985	-0.168	0.286
-329.187	-85.283	0.202	-0.063
-328.172	-200.000	-0.018	0.098
-327.158	-177.867	0.192	-0.005
-326.143	-120.968	-0.093	-0.016
-325.129	56.303	-0.275	0.266
-324.114	1.487	-0.271	0.194
-323.099	800.000	0.039	0.138
-322.085	-96.975	-0.299	0.078
-321.070	-135.447	0.135	0.016
-320.056	-32.341	-0.139	-0.077
-319.041	-43.210	-0.201	0.101
-318.026	-125.103	0.285	0.043
-317.012	800.000	-0.086	-0.287
-315.997	363.532	0.070	-0.139
-314.983	722.092	0.051	-0.135
-313.968	-68.655	-0.387	0.149
-312.953	-200.000	0.013	0.329
-311.939	-200.000	0.262	-0.001
-310.924	-200.000	0.001	-0.198
-309.910	67.087	-0.407	0.413
-308.895	163.568	0.109	0.153
-307.880	800.000	-0.079	-0.271
-306.866	-68.300	0.405	-0.157
-305.851	23.839	-0.062	-0.051
-304.837	-27.853	0.171	-0.098
-303.822	800.000	0.027	0.091
-302.807	-43.385	0.236	0.119
-301.793	-63.950	0.209	0.085
-300.778	-200.000	-0.070	0.329
-299.764	-119.346	-0.119	-0.021
-298.749	800.000	0.021	0.082
-297.735	-117.098	0.128	-0.023
-296.720	401.796	-0.059	-0.124
-295.705	-121.176	-0.145	-0.024
-294.691	66.531	-0.170	0.172
-293.676	15.834	0.232	0.182
-292.662	-46.216	0.084	-0.041
-291.647	-87.209	-0.166	-0.050
-290.632	27.474	-0.106	-0.089
-289.618	-137.329	-0.036	-0.004
-288.603	-122.705	-0.316	-0.051
-287.589	-107.071	0.270	0.059
-286.574	-190.128	-0.241	-0.003
-285.559	-36.015	-0.337	0.181
-284.545	800.000	0.045	-0.148
-283.530	-44.854	0.021	0.010
-282.516	181.469	-0.153	0.223
-281.501	607.736	0.020	0.049
-280.486	-78.307	0.097	0.033
-279.472	-62.171	0.235	0.097
-278.457	231.048	-0.038	0.061
-277.443	-176.595	0.062	0.002
-276.428	38.385	0.148	-0.131
-275.413	-145.359	-0.264	-0.024
-274.399	-200.000	0.027	0.334
-273.384	503.351	-0.125	-0.287
-272.370	-18.573	-0.217	-0.135
-271.355	-6.489	0.140	0.095
-270.340	484.235	-0.139	0.313
-269.326	-69.067	0.133	-0.051
-268.311	-200.000	0.008	0.121
-267.297	800.000	-0.060	0.249
-266.282	-200.000	-0.043	-0.242
-265.267	-200.000	0.026	-0.349
-264.253	26.803	0.099	0.082
-263.238	-200.000	0.017	0.162
-262.224	163.650	-0.118	0.165
-261.209	25.408	0.155	0.128
-260.195	244.071	-0.093	0.156
-259.180	-149.519	-0.116	-0.009
-258.165	238.278	0.081	-0.134
-257.151	70.929	-0.279	0.287
-256.136	-65.769	-0.261	0.104
-255.122	173.822	0.173	-0.247
-254.107	-75.446	0.150	0.053
-253.092	-20.851	0.213	0.130
-252.078	285.784	-0.110	-0.197
-251.063	-84.184	0.152	0.048
-250.049	-154.910	0.179	-0.012
-249.034	-40.617	0.307	0.158
-248.019	291.748	-0.084	-0.151
-247.005	-200.000	-0.065	0.331
-245.990	87.835	-0.179	-0.197
-244.976	-131.862	-0.048	-0.006
-243.961	126.156	0.134	0.168
-242.946	-53.353	-0.126	-0.058
-241.932	210.344	-0.085	0.132
-240.917	622.061	-0.096	0.241
-239.903	-89.446	-0.292	0.085
-238.888	-200.000	-0.043	0.337
-237.873	-200.000	0.012	0.182
-236.859	-200.000	0.014	0.308
-235.844	654.694	-0.083	0.211
-234.830	27.212	-0.119	-0.099
-233.815	107.228	0.076	-0.090
-232.800	-33.351	0.088	0.048
-231.786	265.688	-0.045	-0.079
-230.771	-84.217	-0.306	0.096
-229.757	-13.448	0.225	0.145
-228.742	56.146	0.363	0.350
-227.727	-105.759	0.225	-0.050
-226.713	416.070	0.184	0.390
-225.698	-185.066	0.259	0.004
-224.684	364.609	0.065	-0.130
-223.669	-58.039	0.166	0.072
-222.655	460.246	-0.116	0.257
-221.640	800.000	-0.096	0.380
-220.625	-200.000	0.003	0.322
-219.611	62.922	0.116	0.115
-218.596	800.000	-0.027	-0.076
-217.582	-102.472	-0.085	0.020
-216.567	-163.790	-0.120	0.006
-215.552	47.591	0.280	-0.259
-214.538	-83.772	-0.378	0.119
-213.523	-87.168	0.143	-0.043
-212.509	-200.000	-0.075	0.332
-211.494	-126.702	0.176	-0.026
-210.479	-68.744	0.273	-0.105
-209.465	77.360	-0.150	0.158
-208.450	621.795	0.076	0.189
-207.436	-120.254	0.213	0.036
-206.421	-200.000	0.073	0.359
-205.406	-4.767	0.139	0.095
-204.392	-169.718	0.152	0.005
-203.377	-154.132	0.312	0.021
-202.363	-200.000	-0.007	-0.257
-201.348	354.952	0.023	0.046
-200.333	-200.000	0.009	0.158
-199.319	-80.138	-0.332	0.110
-198.304	479.892	-0.111	-0.250
-197.290	800.000	0.027	0.110
-196.275	124.486	-0.061	-0.077
-195.260	-200.000	-0.029	0.163
-194.246	67.072	0.017	0.017
-193.231	-118.360	-0.188	-0.033
-192.217	-200.000	0.069	-0.430
-191.202	-200.000	0.023	-0.102
-190.187	-32.458	0.012	-0.006
-189.173	-154.222	-0.209	0.014
-188.158	-200.000	0.029	-0.329
-187.144	-48.705	0.272	-0.129
-186.129	606.437	0.094	-0.233
-185.114	-89.443	0.284	-0.083
-184.100	352.221	0.034	-0.067
-183.085	53.479	-0.361	0.343
-182.071	-200.000	-0.021	-0.317
-181.056	-39.338	0.179	0.093
-180.042	-60.745	0.129	-0.054
-179.027	-200.000	-0.020	0.211
-178.012	54.183	0.138	0.131
-176.998	-200.000	0.015	-0.224
-175.983	-178.443	0.325	-0.007
-174.969	4.759	0.210	0.153
-173.954	800.000	0.064	0.178
-172.939	-200.000	-0.302	-0.001
-171.925	800.000	-0.105	-0.299
-170.910	-42.034	-0.089	0.045
-169.896	96.382	0.139	0.158
-168.881	26.983	-0.040	-0.033
-167.866	-96.179	0.026	-0.007
-166.852	-140.780	0.140	0.014
-165.837	41.761	0.124	0.111
-164.823	47.217	-0.089	-0.082
-163.808	-200.000	0.031	0.213
-162.793	-200.000	0.022	0.324
-161.779	-54.552	-0.359	-0.161
-160.764	217.755	-0.138	-0.218
-159.750	800.000	-0.120	-0.381
-158.735	-2.846	0.231	0.160
-157.720	-200.000	-0.062	-0.327
-156.706	-100.414	-0.257	0.063
-155.691	-165.548	0.284	-0.012
-154.677	-82.011	0.210	-0.068
-153.662	27.175	-0.187	0.156
-152.647	196.162	0.102	0.153
-151.633	300.354	-0.104	-0.191
-150.618	44.968	-0.107	0.097
-149.604	85.837	-0.165	0.179
-148.589	324.714	-0.179	0.339
-147.574	-27.468	-0.118	0.068
-146.560	144.104	-0.106	0.140
-145.545	172.144	-0.260	-0.369
-144.531	-200.000	0.008	-0.046
-143.516	-80.795	-0.184	-0.060
-142.502	-116.041	-0.434	-0.080
-141.487	800.000	0.051	0.150
-140.472	800.000	-0.078	0.299
-139.458	800.000	-0.055	-0.199
-138.443	-200.000	-0.001	0.153
-137.429	126.659	0.054	0.068
-136.414	800.000	0.055	-0.172
-135.399	-68.602	0.202	0.077
-134.385	72.715	-0.089	0.092
-133.370	-48.189	0.171	-0.082
-132.356	-200.000	0.006	-0.407
-131.341	-30.093	-0.132	-0.074
-130.326	502.728	0.062	-0.141
-129.312	-123.296	0.410	-0.065
-128.297	-106.196	-0.515	-0.114
-127.283	-22.512	0.189	0.113
-126.268	-200.000	-0.045	0.201
-125.253	-161.266	-0.080	0.004
-124.239	125.907	0.190	0.237
-123.224	-119.840	-0.157	-0.027
