DTS Sentinel unit serial number:	SN413079Multiplexer serial number:	ORYXHardware model number:	OX4-SRSoftware version number:	ORYX F/W v4.00 Oryx Data Collector v3.7.2.0data status	okinstallation	princeton_trtdifferential loss correction	single-endedforward channel	channel 1reverse channel	N/Adate	2019/09/18time	02:14:35forward acquisition time	60.00reverse acquisition time	0.00gamma	496.2192k internal	0.2341k external	0.2341temperature offset calibration	0.9977default loss term (dB/km)	0.3790temperature slope calibration	1.0000multiplexer offset coefficient	1.0000multiplexer slope coefficient	1.0000fibre end	0.00T internal ref (°C)	22.87T ext. ref 1 (°C)	0.17T ext. ref 2 (°C)	16.71length (m)	temperature (°C)	Stokes	anti-Stokes-747.200	-142.216	0.341	0.034
-746.185	-25.640	0.258	0.152
-745.171	92.471	-0.077	0.087
-744.156	-77.569	-0.376	-0.131
-743.142	-128.705	0.383	0.054
-742.127	7.497	-0.398	0.298
-741.112	-152.997	0.459	0.032
-740.098	-102.279	-0.547	0.132
-739.083	171.399	0.269	-0.387
-738.069	-108.378	-0.513	0.111
-737.054	-200.000	0.084	0.382
-736.039	234.289	0.133	-0.220
-735.025	-145.363	-0.049	0.004
-734.010	-200.000	-0.068	-0.316
-732.996	-35.090	-0.567	-0.310
-731.981	-200.000	-0.023	-0.179
-730.966	512.458	0.070	-0.164
-729.952	-80.743	0.148	-0.049
-728.937	241.694	-0.075	0.125
-727.923	7.600	0.109	-0.081
-726.908	-99.512	0.040	0.010
-725.894	-55.178	0.106	0.048
-724.879	132.314	-0.070	-0.091
-723.864	408.681	0.024	0.051
-722.850	97.409	-0.068	-0.078
-721.835	-43.716	0.132	-0.067
-720.821	800.000	-0.063	0.268
-719.806	-37.851	0.225	-0.120
-718.791	800.000	-0.052	-0.174
-717.777	-200.000	-0.002	0.203
-716.762	271.832	-0.217	0.382
-715.748	460.452	-0.123	0.275
-714.733	74.776	-0.271	0.285
-713.718	-61.977	0.169	0.071
-712.704	-200.000	0.016	-0.456
-711.689	-24.818	-0.119	-0.071
-710.675	186.189	-0.308	-0.458
-709.660	-103.071	0.038	0.009
-708.645	204.238	0.112	0.174
-707.631	-62.452	-0.122	0.051
-706.616	-5.459	0.090	0.062
-705.602	-6.817	-0.177	0.120
-704.587	-200.000	0.001	0.214
-703.572	56.071	0.244	0.237
-702.558	-116.666	0.168	0.031
-701.543	8.239	-0.055	0.042
-700.529	-27.661	-0.098	0.057
-699.514	-52.851	0.119	-0.055
-698.499	14.764	0.250	-0.196
-697.485	-0.856	-0.172	-0.122
-696.470	-47.443	0.115	0.056
-695.456	-82.705	-0.141	0.046
-694.441	237.717	0.182	-0.302
-693.426	800.000	0.102	-0.408
-692.412	334.824	-0.145	0.281
-691.397	210.698	0.032	-0.050
-690.383	-48.867	0.113	-0.054
-689.368	336.657	-0.026	-0.051
-688.354	259.977	0.088	-0.152
-687.339	-80.239	0.138	0.046
-686.324	412.150	0.076	-0.162
-685.310	-94.238	-0.244	-0.067
-684.295	800.000	0.040	-0.114
-683.281	-200.000	-0.001	0.199
-682.266	-108.745	0.118	0.025
-681.251	260.171	-0.100	-0.172
-680.237	-97.670	0.558	-0.145
-679.222	-102.859	-0.260	-0.062
-678.208	-5.626	0.183	0.126
-677.193	-146.249	-0.084	0.007
-676.178	-120.086	-0.247	-0.042
-675.164	-52.861	-0.271	0.125
-674.149	-2.933	-0.245	-0.171
-673.135	-142.539	0.269	-0.026
-672.120	242.707	-0.102	-0.170
-671.105	-10.949	0.020	0.013
-670.091	-200.000	0.016	-0.149
-669.076	-141.771	0.474	0.047
-668.062	-166.531	-0.349	-0.015
-667.047	470.324	-0.067	-0.150
-666.032	-29.363	-0.037	0.021
-665.018	-49.752	0.442	0.210
-664.003	-63.481	-0.124	0.051
-662.989	68.852	0.118	0.121
-661.974	365.302	-0.135	0.271
-660.959	-200.000	0.087	-0.518
-659.945	718.517	0.073	0.194
-658.930	-85.084	-0.383	0.120
-657.916	46.368	0.173	-0.160
-656.901	724.813	-0.061	0.162
-655.886	800.000	0.019	-0.068
-654.872	800.000	0.036	-0.126
-653.857	31.317	0.182	0.156
-652.843	-25.694	-0.100	0.059
-651.828	-39.569	0.088	0.046
-650.814	-68.606	-0.092	-0.035
-649.799	-74.585	0.330	0.119
-648.784	701.446	0.046	0.122
-647.770	44.876	-0.214	-0.196
-646.755	800.000	0.045	-0.147
-645.741	800.000	-0.099	-0.348
-644.726	272.818	-0.063	-0.110
-643.711	36.740	0.242	-0.213
-642.697	800.000	0.048	0.166
-641.682	-127.974	0.195	-0.028
-640.668	196.980	-0.134	-0.204
-639.653	206.746	-0.057	-0.088
-638.638	800.000	-0.059	0.216
-637.624	-11.193	-0.086	-0.057
-636.609	43.198	0.299	0.273
-635.595	481.135	-0.086	-0.194
-634.580	-200.000	0.030	-0.141
-633.565	800.000	0.005	0.021
-632.551	-200.000	0.027	-0.144
-631.536	-200.000	-0.041	0.196
-630.522	9.584	-0.224	-0.169
-629.507	800.000	-0.043	-0.137
-628.492	-94.227	-0.311	-0.085
-627.478	296.884	-0.169	-0.310
-626.463	-200.000	0.017	0.188
-625.449	-200.000	-0.014	-0.070
-624.434	-200.000	-0.035	-0.336
-623.419	800.000	-0.064	-0.189
-622.405	15.707	0.155	0.122
-621.390	85.026	-0.101	0.110
-620.376	-102.960	0.201	0.048
-619.361	-53.469	-0.021	0.010
-618.346	-115.262	-0.315	-0.059
-617.332	110.764	0.085	0.102
-616.317	215.246	-0.205	-0.325
-615.303	-66.102	-0.402	0.160
-614.288	-200.000	0.003	0.025
-613.273	651.755	0.092	-0.236
-612.259	-91.990	-0.315	-0.089
-611.244	-45.294	-0.055	-0.027
-610.230	-78.917	0.264	0.089
-609.215	-75.244	0.085	-0.030
-608.201	-97.886	0.250	0.064
-607.186	78.845	-0.244	-0.260
-606.171	127.850	0.133	0.168
-605.157	-107.761	0.206	0.045
-604.142	-91.813	-0.203	0.057
-603.128	-116.478	0.271	-0.050
-602.113	-158.039	-0.115	0.007
-601.098	-95.735	-0.105	-0.028
-600.084	23.015	-0.117	-0.095
-599.069	-200.000	0.060	-0.271
-598.055	800.000	0.047	0.178
-597.040	59.101	-0.263	-0.258
-596.025	800.000	0.014	0.060
-595.011	249.399	0.149	-0.252
-593.996	-200.000	0.029	0.160
-592.982	121.158	0.152	0.188
-591.967	-65.064	0.255	-0.102
-590.952	-55.832	0.206	0.092
-589.938	-4.289	0.135	0.093
-588.923	41.438	-0.243	-0.219
-587.909	-138.333	-0.282	-0.031
-586.894	800.000	0.046	-0.164
-585.879	26.140	0.322	-0.268
-584.865	-99.871	-0.105	-0.026
-583.850	152.451	-0.104	-0.141
-582.836	20.221	0.102	0.082
-581.821	503.214	-0.052	0.121
-580.806	47.170	-0.368	-0.341
-579.792	54.095	0.223	-0.213
-578.777	-200.000	-0.006	-0.100
-577.763	-4.323	0.205	0.141
-576.748	-156.972	0.154	0.009
-575.733	-181.526	-0.226	0.004
-574.719	171.289	0.164	0.234
-573.704	800.000	-0.090	-0.353
-572.690	-58.974	-0.243	-0.104
-571.675	27.109	0.155	0.129
-570.661	370.950	0.053	0.107
-569.646	-79.106	0.014	0.005
-568.631	44.926	0.195	0.179
-567.617	-200.000	-0.051	0.369
-566.602	-71.571	-0.325	-0.121
-565.588	769.288	0.105	-0.284
-564.573	-115.961	0.303	-0.056
-563.558	-165.528	0.252	-0.011
-562.544	70.004	0.121	-0.124
-561.529	-200.000	0.011	0.087
-560.515	15.495	-0.179	-0.140
-559.500	-200.000	0.055	0.386
-558.485	-29.363	0.097	0.055
-557.471	-58.368	-0.096	0.041
-556.456	347.384	-0.132	0.258
-555.442	24.800	0.149	-0.123
-554.427	-200.000	0.013	-0.078
-553.412	91.382	-0.015	0.016
-552.398	800.000	0.020	0.056
-551.383	295.868	-0.219	0.398
-550.369	-59.120	0.129	-0.055
-549.354	298.117	-0.144	-0.264
-548.339	-110.489	0.110	0.023
-547.325	47.517	0.229	0.213
-546.310	-200.000	-0.028	0.132
-545.296	-112.731	0.165	-0.033
-544.281	23.325	0.133	0.109
-543.266	108.196	0.079	0.094
-542.252	-144.993	0.210	0.019
-541.237	125.375	-0.173	-0.217
-540.223	-156.854	0.331	-0.020
-539.208	-200.000	0.054	-0.250
-538.193	800.000	0.131	0.435
-537.179	800.000	-0.022	0.070
-536.164	9.126	0.234	-0.176
-535.150	136.465	-0.175	0.226
-534.135	-67.650	-0.131	0.051
-533.121	-68.768	-0.250	0.096
-532.106	-51.464	0.302	-0.140
-531.091	6.668	-0.200	-0.148
-530.077	-104.620	0.288	-0.066
-529.062	191.619	-0.038	-0.057
-528.048	-69.605	-0.132	-0.050
-527.033	800.000	0.053	0.159
-526.018	-200.000	-0.004	0.178
-525.004	800.000	-0.026	-0.102
-523.989	-107.553	0.115	-0.025
-522.975	260.594	0.092	-0.158
-521.960	-200.000	-0.074	-0.378
-520.945	72.726	0.289	0.300
-519.931	379.434	0.123	0.250
-518.916	519.743	0.069	-0.160
-517.902	105.839	0.189	0.222
-516.887	800.000	0.044	-0.131
-515.872	800.000	-0.073	-0.242
-514.858	-80.674	-0.336	-0.111
-513.843	94.964	0.071	-0.081
-512.829	136.375	-0.115	0.148
-511.814	14.993	0.278	0.216
-510.799	231.134	0.139	0.225
-509.785	359.371	0.106	0.209
-508.770	32.473	0.104	-0.089
-507.756	370.761	-0.029	-0.058
-506.741	-200.000	0.036	-0.169
-505.726	645.545	0.109	-0.276
-504.712	-153.821	-0.344	-0.023
-503.697	-200.000	0.032	-0.194
-502.683	126.832	-0.065	-0.082
-501.668	164.071	-0.135	-0.188
-500.653	-200.000	-0.054	0.261
-499.639	-200.000	0.002	-0.128
-498.624	-123.439	0.032	-0.005
-497.610	203.789	-0.059	-0.090
-496.595	-31.897	0.163	0.091
-495.581	-131.109	0.104	-0.014
-494.566	96.409	-0.397	0.451
-493.551	-61.311	-0.214	0.089
-492.537	76.132	0.167	-0.176
-491.522	215.693	-0.156	0.245
-490.508	-64.482	-0.056	-0.023
-489.493	-200.000	-0.023	-0.188
-488.478	-200.000	-0.034	-0.180
-487.464	19.277	0.250	-0.199
-486.449	33.625	0.179	-0.154
-485.435	-200.000	-0.030	-0.253
-484.420	166.398	-0.178	-0.250
-483.405	677.501	0.025	0.065
-482.391	49.397	0.095	0.088
-481.376	101.225	0.414	-0.478
-480.362	800.000	-0.041	-0.115
-479.347	-175.493	-0.462	-0.012
-478.332	237.477	-0.112	-0.184
-477.318	195.577	-0.038	-0.057
-476.303	-71.504	-0.152	0.057
-475.289	156.133	0.016	0.022
-474.274	639.602	-0.111	-0.281
-473.259	-72.139	0.354	-0.130
-472.245	155.574	0.071	0.097
-471.230	137.391	-0.177	0.229
-470.216	-200.000	-0.057	-0.280
-469.201	-200.000	0.028	0.205
-468.186	707.522	0.070	0.184
-467.172	-179.246	0.148	-0.003
-466.157	-200.000	-0.023	0.131
-465.143	-145.625	-0.426	0.038
-464.128	800.000	-0.012	-0.045
-463.113	-67.669	0.165	0.064
-462.099	-193.680	0.132	0.001
-461.084	-166.571	0.076	0.003
-460.070	-59.759	-0.266	0.113
-459.055	-24.599	-0.077	0.046
-458.040	-200.000	-0.011	-0.176
-457.026	-25.870	0.107	-0.063
-456.011	-200.000	-0.022	0.282
-454.997	33.128	-0.085	-0.073
-453.982	-30.780	-0.368	0.206
-452.968	800.000	-0.152	0.416
-451.953	800.000	0.043	0.184
-450.938	-200.000	0.019	-0.162
-449.924	-174.140	0.044	-0.001
-448.909	188.666	0.152	-0.225
-447.895	-200.000	-0.009	-0.268
-446.880	-117.707	-0.307	0.055
-445.865	52.293	-0.127	0.120
-444.851	-131.402	0.176	-0.023
-443.836	-137.698	-0.035	0.004
-442.822	-11.892	-0.512	-0.333
-441.807	-200.000	-0.005	0.416
-440.792	-200.000	-0.022	0.499
-439.778	800.000	0.010	-0.043
-438.763	338.866	0.080	0.154
-437.749	-26.329	0.270	0.157
-436.734	329.854	0.073	0.138
-435.719	23.598	-0.064	-0.053
-434.705	-0.197	-0.236	-0.167
-433.690	-59.886	0.031	-0.013
-432.676	123.807	0.128	-0.159
-431.661	101.816	0.183	-0.211
-430.646	-91.097	-0.233	0.066
-429.632	131.128	0.024	0.030
-428.617	238.811	0.325	0.534
-427.603	-5.701	-0.024	0.016
-426.588	69.214	0.166	0.168
-425.573	-200.000	-0.054	-0.402
-424.559	54.283	-0.159	0.151
-423.544	-181.448	-0.142	0.003
-422.530	800.000	-0.080	0.235
-421.515	403.243	-0.141	-0.294
-420.500	-200.000	0.010	-0.147
-419.486	26.802	-0.088	0.073
-418.471	-200.000	0.011	-0.294
-417.457	-21.799	0.202	-0.122
-416.442	-200.000	0.068	-0.401
-415.428	482.881	-0.118	0.266
-414.413	385.313	-0.132	0.270
-413.398	-186.401	0.089	0.001
-412.384	-200.000	-0.031	-0.261
-411.369	-200.000	0.004	0.139
-410.355	253.184	0.045	-0.076
-409.340	64.301	-0.086	0.086
-408.325	207.928	-0.216	0.334
-407.311	-79.966	0.217	-0.072
-406.296	224.357	-0.237	0.379
-405.282	-120.348	0.336	0.057
-404.267	-70.704	0.206	0.077
-403.252	-200.000	0.066	-0.319
-402.238	-92.217	-0.285	0.079
-401.223	-200.000	0.014	0.367
-400.209	-154.868	-0.132	-0.009
-399.194	-32.748	-0.351	0.193
-398.179	-200.000	-0.036	0.250
-397.165	33.106	-0.146	-0.125
-396.150	248.786	-0.283	0.474
-395.136	396.663	0.196	0.405
-394.121	421.165	-0.095	0.202
-393.106	800.000	0.049	0.173
-392.092	-53.692	0.275	0.124
-391.077	-9.418	0.176	-0.116
-390.063	-74.012	0.261	0.094
-389.048	121.602	-0.160	-0.197
-388.033	-14.571	0.172	-0.109
-387.019	-122.028	-0.335	-0.054
-386.004	89.997	-0.297	0.328
-384.990	181.900	0.116	0.168
-383.975	-200.000	0.051	-0.242
-382.960	-35.713	0.061	-0.032
-381.946	59.964	-0.238	0.233
-380.931	448.037	0.115	-0.249
-379.917	-110.693	-0.070	0.014
-378.902	99.787	-0.046	-0.053
-377.888	-114.850	-0.189	0.036
-376.873	-36.445	-0.172	0.092
-375.858	-200.000	-0.020	0.483
-374.844	234.283	0.211	-0.344
-373.829	325.408	-0.085	0.160
-372.815	-78.194	-0.263	0.089
-371.800	8.633	0.156	0.116
-370.785	-110.105	0.202	-0.042
-369.771	-34.086	-0.089	-0.048
-368.756	425.579	0.078	0.165
-367.742	800.000	-0.018	0.051
-366.727	-138.561	0.176	-0.019
-365.712	320.152	0.043	0.081
-364.698	439.357	-0.122	0.263
-363.683	-101.305	-0.372	0.090
-362.669	79.182	0.251	-0.265
-361.654	167.608	-0.124	-0.174
-360.639	583.700	0.131	-0.317
-359.625	31.786	-0.232	-0.197
-358.610	79.693	-0.158	-0.168
-357.596	800.000	0.029	-0.087
-356.581	93.384	-0.070	-0.078
-355.566	44.858	-0.322	-0.292
-354.552	105.188	0.149	0.174
-353.537	11.394	0.149	-0.113
-352.523	314.475	0.100	-0.186
-351.508	151.206	0.067	-0.090
-350.493	-186.283	-0.193	-0.003
-349.479	-102.231	-0.223	0.053
-348.464	-200.000	0.008	0.366
-347.450	800.000	-0.016	-0.057
-346.435	92.868	0.213	-0.237
-345.420	186.323	0.048	-0.071
-344.406	139.949	0.052	-0.068
-343.391	613.536	0.074	0.183
-342.377	800.000	-0.068	0.266
-341.362	154.946	-0.210	0.285
-340.348	-200.000	0.047	0.354
-339.333	-173.848	0.443	0.013
-338.318	-38.984	-0.171	-0.089
-337.304	109.977	0.116	-0.137
-336.289	-200.000	0.049	0.270
-335.275	98.350	-0.202	-0.229
-334.260	-200.000	0.028	0.299
-333.245	269.014	-0.151	0.262
-332.231	564.819	-0.138	-0.329
-331.216	32.218	0.250	0.213
-330.202	377.146	-0.039	0.078
-329.187	389.397	0.113	0.232
-328.172	-151.285	0.344	-0.025
-327.158	-145.504	-0.258	-0.023
-326.143	-3.381	0.199	0.137
-325.129	-27.105	-0.161	0.093
-324.114	-18.234	0.216	-0.133
-323.099	48.512	-0.019	-0.018
-322.085	-134.707	-0.198	-0.024
-321.070	201.627	0.085	-0.129
-320.056	138.040	-0.138	-0.179
-319.041	351.827	-0.023	0.045
-318.026	-27.169	-0.152	0.087
-317.012	-71.317	-0.188	-0.070
-315.997	800.000	-0.105	0.290
-314.983	229.515	-0.076	0.123
-313.968	386.116	0.081	-0.164
-312.953	-23.778	-0.165	-0.097
-311.939	-22.991	0.251	0.149
-310.924	14.990	0.205	0.158
-309.910	464.617	0.024	-0.054
-308.895	282.567	-0.183	0.323
-307.880	500.693	0.026	0.058
-306.866	790.326	-0.017	-0.047
-305.851	126.695	-0.228	0.284
-304.837	-6.546	-0.177	-0.119
-303.822	90.966	0.154	0.170
-302.807	30.335	-0.223	-0.188
-301.793	80.993	0.051	0.054
-300.778	-30.497	-0.030	0.017
-299.764	722.048	0.032	0.083
-298.749	23.507	0.244	0.198
-297.735	-67.875	0.084	-0.032
-296.720	31.505	-0.215	0.182
-295.705	88.072	0.097	0.106
-294.691	376.627	0.006	-0.012
-293.676	264.248	-0.086	-0.148
-292.662	140.388	0.211	-0.274
-291.647	-122.314	0.201	0.032
-290.632	-13.493	-0.249	0.159
-289.618	800.000	-0.028	0.077
-288.603	-94.417	-0.190	-0.051
-287.589	-175.904	-0.292	0.008
-286.574	-14.830	0.112	0.071
-285.559	-94.101	-0.180	0.048
-284.545	45.620	-0.269	0.245
-283.530	440.100	-0.051	-0.110
-282.516	103.415	-0.045	-0.052
-281.501	800.000	0.071	0.284
-280.486	429.499	-0.089	-0.189
-279.472	-24.852	0.108	0.063
-278.457	34.546	-0.094	0.081
-277.443	-170.010	0.286	0.010
-276.428	-200.000	0.001	0.010
-275.413	134.591	0.223	-0.284
-274.399	-59.414	0.218	-0.092
-273.384	-147.427	-0.177	0.015
-272.370	63.108	0.205	0.202
-271.355	160.724	0.125	0.172
-270.340	-107.915	0.137	0.029
-269.326	-48.858	0.217	-0.103
-268.311	18.850	0.302	0.238
-267.297	574.761	-0.121	0.290
-266.282	800.000	-0.029	0.090
-265.267	-57.589	-0.137	0.059
-264.253	-90.984	-0.232	-0.065
-263.238	-200.000	0.071	-0.396
-262.224	384.956	-0.074	-0.150
-261.209	80.822	-0.115	-0.122
-260.195	800.000	0.114	-0.384
-259.180	-200.000	-0.013	-0.150
-258.165	-125.274	-0.133	0.020
-257.151	-200.000	0.051	0.327
-256.136	8.263	-0.145	-0.107
-255.122	-95.299	-0.322	0.085
-254.107	137.162	0.107	-0.138
-253.092	-34.837	0.104	0.056
-252.078	85.563	-0.174	0.187
-251.063	-73.353	-0.222	-0.080
-250.049	50.777	0.147	-0.136
-249.034	675.497	0.068	-0.173
-248.019	-18.636	-0.250	0.153
-247.005	-20.693	-0.101	0.061
-245.990	-13.817	-0.288	-0.183
-244.976	-73.848	0.308	0.110
-243.961	800.000	0.088	0.367
-242.946	800.000	-0.080	-0.251
-241.932	90.767	0.080	-0.089
-240.917	52.270	0.185	-0.173
-239.903	-135.681	0.486	-0.057
-238.888	156.762	0.154	0.208
-237.873	315.257	-0.104	0.192
-236.859	-28.318	0.362	-0.205
-235.844	-200.000	0.003	-0.091
-234.830	7.188	0.316	0.231
-233.815	-200.000	0.000	-0.108
-232.800	225.186	0.139	0.222
-231.786	-200.000	0.037	-0.200
-230.771	14.145	-0.313	-0.240
-229.757	-200.000	-0.076	-0.328
-228.742	402.697	0.097	-0.200
-227.727	33.824	0.121	0.103
-226.713	-18.731	-0.170	-0.104
-225.698	800.000	-0.024	0.071
-224.684	-200.000	-0.023	0.239
-223.669	-200.000	0.031	0.148
-222.655	113.793	0.040	0.048
-221.640	-200.000	-0.014	-0.213
-220.625	800.000	-0.069	-0.249
-219.611	-26.612	-0.030	-0.017
-218.596	-76.061	-0.350	0.121
-217.582	-200.000	-0.025	0.229
-216.567	-200.000	-0.044	-0.295
-215.552	174.768	-0.038	0.054
-214.538	-30.658	0.342	0.190
-213.523	800.000	0.078	0.293
-212.509	135.399	-0.142	-0.181
-211.494	-9.381	0.338	-0.221
-210.479	102.160	-0.027	0.031
-209.465	29.185	-0.143	0.119
-208.450	-200.000	-0.010	0.165
-207.436	-99.397	0.134	0.033
-206.421	-200.000	0.068	-0.333
-205.406	-79.155	-0.242	0.081
-204.392	-200.000	-0.023	0.107
-203.377	-165.438	0.180	0.008
-202.363	122.865	-0.176	-0.216
-201.348	396.361	-0.088	-0.179
-200.333	2.569	-0.068	-0.049
-199.319	314.028	0.084	-0.154
-198.304	-200.000	0.059	-0.390
-197.290	-200.000	0.015	0.110
-196.275	-58.442	0.059	0.025
-195.260	104.055	0.101	-0.116
-194.246	-126.905	-0.116	0.017
-193.231	-66.819	0.111	0.043
-192.217	25.888	-0.201	0.164
-191.202	-126.964	-0.189	-0.027
-190.187	118.225	0.153	0.185
-189.173	-91.928	0.100	-0.028
-188.158	-104.273	0.060	0.014
-187.144	-3.025	0.133	-0.091
-186.129	800.000	0.146	0.412
-185.114	22.349	0.120	-0.096
-184.100	-200.000	-0.041	-0.220
-183.085	-133.302	0.299	-0.037
-182.071	127.973	-0.089	-0.111
-181.056	12.791	0.186	0.141
-180.042	-200.000	0.004	0.217
-179.027	32.672	0.267	-0.226
-178.012	422.438	-0.118	-0.248
-176.998	-200.000	0.001	0.148
-175.983	-200.000	-0.003	0.144
-174.969	-200.000	-0.027	0.195
-173.954	108.106	-0.128	0.150
-172.939	800.000	0.056	0.171
-171.925	-200.000	-0.003	-0.048
-170.910	-190.660	-0.256	0.003
-169.896	-132.811	-0.092	-0.012
-168.881	800.000	0.135	0.372
-167.866	113.351	-0.106	-0.126
-166.852	200.602	0.151	-0.228
-165.837	-200.000	-0.009	-0.177
-164.823	296.935	-0.059	0.106
-163.808	-58.883	0.220	-0.093
-162.793	-127.914	0.211	0.030
-161.779	80.065	0.093	-0.098
-160.764	-14.030	-0.061	0.038
-159.750	22.171	0.114	-0.091
-158.735	178.167	0.123	-0.176
-157.720	34.396	-0.053	0.045
-156.706	134.838	0.144	-0.183
-155.691	-108.796	-0.434	0.091
-154.677	-141.537	-0.110	-0.011
-153.662	-200.000	0.052	-0.247
-152.647	-200.000	-0.027	-0.224
-151.633	-75.132	0.144	-0.050
-150.618	800.000	-0.063	-0.172
-149.604	611.175	-0.140	-0.344
-148.589	-200.000	-0.029	0.202
-147.574	448.636	-0.123	-0.265
-146.560	-200.000	0.026	0.182
-145.545	116.982	0.166	0.200
-144.531	-65.226	0.242	0.095
-143.516	-59.322	-0.127	0.054
-142.502	800.000	-0.049	0.186
-141.487	39.557	-0.038	0.033
-140.472	220.113	0.102	-0.159
-139.458	-54.766	-0.063	0.028
-138.443	800.000	0.134	0.475
-137.429	-37.962	0.145	0.076
-136.414	800.000	0.100	0.304
-135.399	-67.502	-0.215	0.083
-134.385	2.303	-0.203	-0.143
-133.370	132.661	0.109	0.138
-132.356	523.509	-0.133	-0.305
-131.341	-38.373	0.295	0.153
-130.326	-139.265	0.323	0.034
-129.312	161.619	0.116	-0.158
-128.297	-200.000	-0.017	-0.246
-127.283	-144.671	-0.390	0.035
-126.268	800.000	0.034	0.100
-125.253	101.535	-0.247	0.282
-124.239	218.158	0.231	-0.361
-123.224	-121.000	-0.321	0.053
-122.210	-124.099	0.140	-0.022
-121.195	-143.507	-0.254	-0.024
-120.180	207.958	0.190	0.291
