DTS Sentinel unit serial number:	SN413079Multiplexer serial number:	ORYXHardware model number:	OX4-SRSoftware version number:	ORYX F/W v4.00 Oryx Data Collector v3.7.2.0data status	okinstallation	princeton_trtdifferential loss correction	single-endedforward channel	channel 1reverse channel	N/Adate	2019/09/17time	09:26:35forward acquisition time	60.00reverse acquisition time	0.00gamma	496.2192k internal	0.2325k external	0.2325temperature offset calibration	0.9957default loss term (dB/km)	0.3790temperature slope calibration	1.0000multiplexer offset coefficient	1.0000multiplexer slope coefficient	1.0000fibre end	0.00T internal ref (°C)	28.87T ext. ref 1 (°C)	0.14T ext. ref 2 (°C)	25.60length (m)	temperature (°C)	Stokes	anti-Stokes-747.200	208.479	-0.227	0.358
-746.185	-180.413	-0.159	-0.003
-745.171	-200.000	-0.002	-0.331
-744.156	-187.572	0.005	0.000
-743.142	-200.000	0.050	0.250
-742.127	-200.000	-0.075	0.345
-741.112	-200.000	-0.019	0.113
-740.098	168.266	-0.193	0.278
-739.083	-91.616	-0.092	0.026
-738.069	211.383	0.046	0.073
-737.054	229.348	0.206	0.340
-736.039	-15.150	-0.437	0.282
-735.025	800.000	-0.004	-0.014
-734.010	-48.068	0.160	-0.078
-732.996	-200.000	0.079	-0.425
-731.981	-179.393	-0.083	-0.002
-730.966	-40.197	-0.139	0.073
-729.952	130.922	0.093	-0.121
-728.937	-172.737	-0.177	0.006
-727.923	157.104	-0.086	-0.121
-726.908	74.965	-0.034	-0.036
-725.894	433.022	-0.018	-0.039
-724.879	800.000	-0.050	-0.147
-723.864	187.076	0.153	0.231
-722.850	-56.000	-0.081	-0.037
-721.835	-53.485	0.187	0.086
-720.821	-57.593	-0.172	-0.076
-719.806	89.159	-0.440	-0.494
-718.791	-149.512	-0.159	-0.013
-717.777	-200.000	-0.008	-0.237
-716.762	-200.000	0.022	-0.255
-715.748	-50.085	-0.267	-0.128
-714.733	800.000	-0.053	0.225
-713.718	-46.678	0.143	-0.070
-712.704	-50.982	0.345	0.163
-711.689	23.118	-0.136	-0.113
-710.675	-200.000	0.011	-0.246
-709.660	173.639	0.279	0.405
-708.645	129.758	-0.431	0.555
-707.631	-200.000	0.023	0.284
-706.616	-139.726	0.242	-0.026
-705.602	-200.000	0.031	0.139
-704.587	-200.000	0.010	0.211
-703.572	-2.873	-0.268	-0.189
-702.558	-9.480	0.216	0.145
-701.543	-173.036	-0.199	0.006
-700.529	-200.000	0.008	-0.335
-699.514	-200.000	-0.002	0.021
-698.499	590.217	-0.110	0.272
-697.485	-8.973	-0.473	0.319
-696.470	800.000	0.023	-0.088
-695.456	-102.907	-0.006	0.001
-694.441	800.000	0.011	-0.042
-693.426	277.041	-0.123	-0.220
-692.412	-116.950	0.251	-0.046
-691.397	-77.326	-0.191	-0.067
-690.383	-21.268	0.163	-0.100
-689.368	-50.830	-0.120	0.057
-688.354	-200.000	0.014	0.081
-687.339	67.537	-0.051	0.052
-686.324	-117.325	0.367	-0.067
-685.310	-83.704	-0.263	-0.084
-684.295	800.000	-0.088	-0.262
-683.281	-200.000	-0.031	0.194
-682.266	217.594	0.141	0.227
-681.251	-48.476	-0.248	0.120
-680.237	-200.000	-0.069	0.422
-679.222	270.682	-0.087	0.154
-678.208	255.265	-0.073	-0.125
-677.193	-14.303	-0.093	0.060
-676.178	-104.483	-0.177	-0.041
-675.164	800.000	-0.096	-0.424
-674.149	-200.000	0.028	-0.239
-673.135	-116.441	0.252	0.047
-672.120	-53.542	-0.153	0.071
-671.105	-51.960	0.256	-0.120
-670.091	-23.213	0.053	-0.032
-669.076	-76.116	-0.271	0.096
-668.062	-120.822	-0.253	-0.043
-667.047	-33.028	-0.322	-0.180
-666.032	110.371	0.224	0.271
-665.018	800.000	-0.059	-0.190
-664.003	800.000	-0.042	0.143
-662.989	48.921	0.151	-0.142
-661.974	-112.710	-0.071	-0.014
-660.959	41.243	-0.212	-0.193
-659.945	800.000	0.093	0.320
-658.930	-85.815	-0.109	-0.034
-657.916	46.469	-0.092	0.086
-656.901	-200.000	-0.002	-0.108
-655.886	-200.000	0.012	-0.123
-654.872	207.152	-0.076	0.119
-653.857	-53.824	0.202	0.093
-652.843	592.182	-0.041	0.103
-651.828	-200.000	-0.024	0.135
-650.814	431.764	0.028	0.061
-649.799	-160.399	0.196	-0.011
-648.784	-29.116	-0.081	-0.046
-647.770	260.318	-0.147	-0.256
-646.755	326.474	0.073	-0.140
-645.741	-200.000	0.014	-0.182
-644.726	-149.385	-0.062	0.005
-643.711	17.851	0.072	-0.058
-642.697	80.751	0.148	0.161
-641.682	213.374	0.071	0.112
-640.668	2.871	-0.290	-0.211
-639.653	-84.820	0.045	0.014
-638.638	477.907	-0.084	-0.191
-637.624	-104.321	0.157	-0.037
-636.609	-200.000	-0.052	0.250
-635.595	93.403	-0.082	-0.093
-634.580	-148.918	-0.327	0.027
-633.565	-200.000	0.009	0.057
-632.551	-100.278	0.128	0.032
-631.536	-156.312	0.091	0.006
-630.522	260.451	0.259	-0.449
-629.507	473.363	0.019	-0.043
-628.492	196.445	-0.182	-0.278
-627.478	429.543	0.152	-0.330
-626.463	4.022	-0.074	0.054
-625.449	-55.140	-0.243	-0.110
-624.434	-200.000	-0.010	-0.128
-623.419	800.000	0.021	0.076
-622.405	800.000	-0.041	0.157
-621.390	800.000	0.042	0.158
-620.376	148.341	0.123	-0.166
-619.361	800.000	0.060	-0.257
-618.346	60.922	0.057	0.057
-617.332	336.989	0.045	0.088
-616.317	33.697	-0.276	-0.241
-615.303	137.863	0.125	0.164
-614.288	-200.000	0.297	0.001
-613.273	698.340	-0.135	0.355
-612.259	-200.000	-0.009	-0.149
-611.244	800.000	0.031	0.108
-610.230	-143.162	-0.437	-0.042
-609.215	-200.000	0.033	0.150
-608.201	389.318	-0.101	0.209
-607.186	-200.000	0.005	0.306
-606.171	49.447	-0.175	-0.165
-605.157	232.438	-0.177	0.291
-604.142	800.000	-0.077	-0.317
-603.128	-173.356	-0.222	-0.007
-602.113	800.000	0.023	0.084
-601.098	661.015	-0.043	0.112
-600.084	99.462	0.029	0.034
-599.069	-17.355	-0.153	0.097
-598.055	-32.711	-0.123	0.069
-597.040	734.277	0.050	-0.135
-596.025	30.837	-0.067	-0.058
-595.011	4.190	-0.325	0.239
-593.996	165.244	-0.105	0.148
-592.982	-54.167	0.300	-0.137
-591.967	19.443	0.218	-0.176
-590.952	-107.152	0.307	-0.068
-589.938	554.099	0.131	-0.317
-588.923	-200.000	-0.046	-0.234
-587.909	580.996	0.098	-0.240
-586.894	-117.160	-0.136	0.025
-585.879	471.187	0.062	0.139
-584.865	-200.000	-0.028	-0.180
-583.850	590.587	0.123	0.305
-582.836	30.643	-0.147	-0.126
-581.821	-39.729	0.263	-0.138
-580.806	-99.341	-0.094	0.024
-579.792	-200.000	0.014	-0.068
-578.777	-200.000	-0.014	-0.241
-577.763	9.728	0.249	-0.189
-576.748	-3.083	0.305	-0.213
-575.733	77.412	0.019	0.020
-574.719	463.307	-0.070	-0.156
-573.704	-193.118	0.193	0.002
-572.690	159.309	0.049	-0.068
-571.675	230.585	-0.100	0.163
-570.661	-200.000	-0.015	-0.196
-569.646	44.138	0.196	0.180
-568.631	28.167	0.123	0.104
-567.617	-178.898	-0.056	0.001
-566.602	103.641	-0.077	0.091
-565.588	241.774	-0.103	0.172
-564.573	189.483	0.218	0.328
-563.558	-81.796	-0.160	0.052
-562.544	64.086	-0.121	0.122
-561.529	-200.000	-0.041	0.208
-560.515	-10.427	0.244	-0.162
-559.500	-145.438	-0.339	-0.031
-558.485	37.689	0.148	-0.132
-557.471	-140.210	0.087	-0.009
-556.456	201.008	-0.026	0.041
-555.442	447.526	0.146	-0.323
-554.427	-54.980	0.438	-0.198
-553.412	-49.803	-0.165	0.079
-552.398	-99.190	-0.145	-0.037
-551.383	-111.519	0.046	0.009
-550.369	390.063	-0.045	-0.093
-549.354	518.502	-0.103	-0.242
-548.339	20.453	0.316	0.256
-547.325	-200.000	-0.040	-0.294
-546.310	-144.583	0.293	-0.027
-545.296	187.859	0.077	0.116
-544.281	800.000	-0.082	0.265
-543.266	36.381	0.209	0.184
-542.252	-200.000	0.026	-0.172
-541.237	-78.404	-0.234	-0.080
-540.223	23.442	0.302	0.248
-539.208	-200.000	0.056	-0.398
-538.193	315.006	0.196	-0.370
-537.179	-34.734	0.277	0.152
-536.164	-8.642	-0.206	0.138
-535.150	203.073	-0.105	-0.162
-534.135	-41.583	0.108	-0.056
-533.121	-200.000	-0.000	0.036
-532.106	739.261	0.032	0.085
-531.091	49.538	-0.075	0.071
-530.077	-175.059	-0.194	-0.005
-529.062	-200.000	-0.049	-0.243
-528.048	-61.995	0.211	0.088
-527.033	594.106	0.046	0.113
-526.018	66.449	-0.135	-0.137
-525.004	-103.793	0.167	0.039
-523.989	-16.485	0.102	-0.065
-522.975	161.133	0.080	-0.112
-521.960	800.000	0.025	-0.106
-520.945	-92.550	-0.265	-0.074
-519.931	-35.533	-0.204	0.111
-518.916	18.861	-0.292	0.234
-517.902	296.482	-0.130	0.239
-516.887	800.000	-0.035	-0.099
-515.872	-58.125	-0.123	0.054
-514.858	75.700	0.070	0.074
-513.843	-200.000	-0.002	0.213
-512.829	3.458	0.229	0.167
-511.814	139.435	0.144	0.190
-510.799	-59.512	0.321	-0.138
-509.785	-145.885	-0.368	0.033
-508.770	159.185	-0.101	-0.140
-507.756	-95.367	-0.092	0.025
-506.741	112.200	-0.079	-0.095
-505.726	248.669	0.175	0.296
-504.712	-68.066	-0.206	0.080
-503.697	541.175	-0.051	-0.121
-502.683	-200.000	0.011	-0.286
-501.668	21.721	-0.163	-0.133
-500.653	50.698	0.319	-0.302
-499.639	-200.000	-0.037	0.199
-498.624	39.275	-0.016	0.014
-497.610	-200.000	0.033	-0.233
-496.595	594.665	-0.055	-0.135
-495.581	-58.485	-0.185	-0.080
-494.566	800.000	-0.098	0.333
-493.551	22.818	0.230	0.188
-492.537	-200.000	0.066	-0.460
-491.522	341.150	0.112	-0.218
-490.508	12.807	0.114	-0.088
-489.493	543.599	0.062	-0.147
-488.478	-5.892	0.220	0.151
-487.464	-176.941	-0.363	0.009
-486.449	19.761	-0.242	0.195
-485.435	225.694	-0.115	-0.186
-484.420	-106.157	-0.329	0.074
-483.405	518.811	-0.119	-0.279
-482.391	415.896	-0.136	-0.289
-481.376	-129.218	-0.114	-0.016
-480.362	70.567	-0.070	-0.072
-479.347	-200.000	-0.062	-0.324
-478.332	-74.092	-0.077	-0.028
-477.318	79.803	-0.073	0.078
-476.303	-181.382	0.208	-0.004
-475.289	209.951	-0.194	-0.304
-474.274	605.533	0.064	0.159
-473.259	800.000	0.041	-0.165
-472.245	457.936	-0.059	0.131
-471.230	-200.000	0.025	0.151
-470.216	376.355	0.034	0.068
-469.201	-200.000	-0.000	-0.161
-468.186	-152.904	-0.232	-0.016
-467.172	-70.225	0.249	-0.094
-466.157	174.538	0.086	0.124
-465.143	-170.872	0.267	-0.009
-464.128	-73.206	-0.234	-0.086
-463.113	29.831	-0.094	-0.080
-462.099	-200.000	-0.021	0.317
-461.084	-130.316	-0.246	-0.033
-460.070	800.000	-0.068	0.238
-459.055	222.781	-0.082	0.132
-458.040	-2.495	0.151	-0.105
-457.026	7.472	-0.129	0.096
-456.011	189.127	-0.167	0.250
-454.997	-85.676	0.081	-0.025
-453.982	-151.076	-0.363	-0.027
-452.968	430.247	-0.015	-0.032
-451.953	638.707	-0.161	-0.409
-450.938	335.875	0.042	-0.081
-449.924	223.810	0.313	0.504
-448.909	-59.639	0.262	0.112
-447.895	-199.316	0.153	-0.001
-446.880	-10.919	-0.133	0.088
-445.865	-96.157	0.234	0.062
-444.851	439.173	0.145	-0.315
-443.836	104.832	-0.228	0.268
-442.822	567.801	0.104	0.251
-441.807	24.910	-0.099	0.082
-440.792	-13.347	-0.254	-0.164
-439.778	-16.592	0.275	0.174
-438.763	437.279	-0.146	0.316
-437.749	-59.760	0.323	0.138
-436.734	-24.327	-0.123	-0.073
-435.719	174.365	0.075	-0.108
-434.705	-84.732	0.197	0.062
-433.690	-63.972	0.339	-0.138
-432.676	-190.093	-0.393	-0.004
-431.661	-92.158	0.178	-0.050
-430.646	800.000	0.042	-0.131
-429.632	-173.211	-0.427	0.013
-428.617	-55.255	0.191	-0.085
-427.603	-94.744	0.049	0.013
-426.588	224.452	-0.288	-0.464
-425.573	-36.976	-0.048	0.026
-424.559	-179.768	0.065	-0.001
-423.544	-24.410	-0.197	-0.117
-422.530	179.650	-0.132	0.192
-421.515	159.107	0.121	0.168
-420.500	161.925	0.153	-0.214
-419.486	-150.057	-0.056	-0.004
-418.471	-47.016	-0.188	-0.091
-417.457	-92.217	-0.420	-0.118
-416.442	-200.000	0.056	0.305
-415.428	203.728	0.185	0.285
-414.413	135.871	0.093	0.120
-413.398	586.362	-0.056	-0.138
-412.384	123.668	-0.029	-0.036
-411.369	-168.772	0.223	-0.008
-410.355	6.792	-0.293	0.217
-409.340	-200.000	-0.014	-0.231
-408.325	800.000	0.137	0.565
-407.311	269.608	0.051	-0.089
-406.296	-9.471	-0.071	-0.047
-405.282	-34.373	0.110	0.060
-404.267	55.619	-0.124	-0.120
-403.252	22.851	0.217	0.177
-402.238	43.285	0.119	-0.108
-401.223	225.101	-0.154	-0.248
-400.209	-54.257	-0.104	0.047
-399.194	-200.000	0.019	-0.485
-398.179	-200.000	-0.001	-0.150
-397.165	-167.915	0.279	-0.011
-396.150	-71.643	-0.099	0.037
-395.136	-200.000	-0.008	0.221
-394.121	10.696	0.163	-0.123
-393.106	149.732	-0.128	0.172
-392.092	42.002	0.132	0.119
-391.077	-200.000	0.046	0.353
-390.063	-54.924	-0.272	0.122
-389.048	42.259	0.237	-0.214
-388.033	-160.005	0.305	-0.017
-387.019	13.872	0.097	0.075
-386.004	87.324	0.197	-0.217
-384.990	50.448	-0.107	-0.100
-383.975	-200.000	-0.019	0.136
-382.960	281.800	0.106	-0.190
-381.946	-117.375	-0.130	-0.023
-380.931	85.364	0.193	0.211
-379.917	-42.601	-0.171	0.087
-378.902	-28.232	0.142	0.082
-377.888	202.302	-0.050	-0.076
-376.873	175.292	0.156	-0.224
-375.858	107.830	-0.132	0.157
-374.844	-157.940	-0.189	0.011
-373.829	-127.512	-0.181	0.026
-372.815	-163.054	0.100	-0.005
-371.800	-123.972	0.306	-0.048
-370.785	15.469	0.110	-0.085
-369.771	-108.326	-0.054	0.012
-368.756	-119.081	-0.284	0.049
-367.742	800.000	-0.024	0.086
-366.727	428.557	0.150	0.323
-365.712	-23.143	-0.155	0.093
-364.698	-158.150	0.272	0.016
-363.683	-137.967	-0.360	0.040
-362.669	-133.504	0.213	0.027
-361.654	-74.862	0.198	0.071
-360.639	734.823	-0.095	0.252
-359.625	-136.796	0.197	0.023
-358.610	-200.000	-0.061	0.339
-357.596	-200.000	-0.012	-0.192
-356.581	-40.869	-0.214	-0.110
-355.566	194.069	0.091	0.137
-354.552	-200.000	0.032	0.162
-353.537	-103.193	-0.262	-0.062
-352.523	-200.000	0.036	0.401
-351.508	273.669	0.116	0.204
-350.493	233.361	-0.055	0.091
-349.479	48.382	0.137	-0.128
-348.464	-200.000	-0.037	-0.522
-347.450	-200.000	0.048	0.215
-346.435	-170.625	-0.063	0.002
-345.420	-3.362	0.023	-0.016
-344.406	-146.825	-0.183	-0.016
-343.391	-200.000	0.010	0.131
-342.377	-98.452	0.260	0.066
-341.362	-200.000	0.040	0.185
-340.348	800.000	-0.071	0.213
-339.333	800.000	-0.071	-0.268
-338.318	-125.640	0.353	0.053
-337.304	-66.076	0.340	0.135
-336.289	-0.327	0.253	-0.179
-335.275	-200.000	0.027	0.356
-334.260	654.182	-0.072	0.184
-333.245	345.961	-0.080	-0.156
-332.231	-85.441	-0.259	0.080
-331.216	-76.721	-0.043	0.015
-330.202	-57.616	-0.298	0.129
-329.187	-77.841	-0.329	-0.113
-328.172	486.521	0.156	0.354
-327.158	268.198	-0.040	-0.069
-326.143	133.832	-0.019	0.024
-325.129	-123.983	0.296	0.046
-324.114	800.000	0.041	-0.147
-323.099	-14.829	0.151	-0.096
-322.085	263.606	0.109	-0.188
-321.070	226.362	0.076	-0.123
-320.056	-71.726	-0.044	-0.016
-319.041	214.611	0.034	0.053
-318.026	793.242	-0.049	0.134
-317.012	800.000	0.058	-0.213
-315.997	800.000	0.024	-0.073
-314.983	103.825	0.078	0.091
-313.968	-117.479	-0.195	0.035
-312.953	-87.023	0.188	0.057
-311.939	-200.000	-0.018	-0.198
-310.924	-42.833	0.147	-0.074
-309.910	800.000	0.127	-0.484
-308.895	-137.979	0.237	-0.026
-307.880	-200.000	0.026	-0.208
-306.866	187.001	0.084	-0.125
-305.851	51.933	-0.183	0.173
-304.837	-6.950	-0.227	0.153
-303.822	11.860	-0.053	-0.040
-302.807	-107.580	0.139	-0.030
-301.793	16.396	0.159	0.125
-300.778	-26.042	-0.079	-0.046
-299.764	-57.722	-0.288	-0.125
-298.749	-46.292	-0.181	-0.088
-297.735	-200.000	0.000	-0.146
-296.720	-200.000	0.032	0.231
-295.705	87.407	-0.241	0.265
-294.691	521.626	0.037	0.087
-293.676	-34.008	0.096	-0.053
-292.662	33.124	-0.155	-0.133
-291.647	-23.615	-0.119	-0.070
-290.632	45.080	-0.185	-0.169
-289.618	-68.195	0.099	0.038
-288.603	-157.011	-0.185	-0.011
-287.589	-157.800	-0.524	0.031
-286.574	-200.000	0.004	0.117
-285.559	-156.869	-0.165	-0.010
-284.545	344.689	-0.040	0.077
-283.530	172.670	0.159	0.227
-282.516	800.000	-0.096	0.273
-281.501	232.782	0.040	-0.065
-280.486	9.785	0.075	-0.056
-279.472	511.532	-0.030	-0.070
-278.457	101.875	0.164	0.189
-277.443	317.853	0.117	0.219
-276.428	51.436	0.286	-0.269
-275.413	-54.860	0.089	-0.040
-274.399	800.000	-0.099	0.290
-273.384	-66.778	0.226	-0.088
-272.370	-70.847	-0.155	0.058
-271.355	-147.024	-0.181	0.015
-270.340	553.886	0.036	0.085
-269.326	-86.273	0.267	-0.081
-268.311	-147.344	0.164	0.014
-267.297	12.239	0.204	0.155
-266.282	250.901	0.112	0.188
-265.267	-164.750	0.212	0.009
-264.253	-128.129	0.086	0.012
-263.238	800.000	0.026	0.083
-262.224	196.296	0.220	-0.331
-261.209	133.360	0.061	0.078
-260.195	-158.769	0.373	-0.021
-259.180	-38.716	-0.275	0.144
-258.165	164.976	0.085	0.119
-257.151	800.000	0.089	0.303
-256.136	412.267	-0.054	-0.113
-255.122	367.641	-0.116	-0.232
-254.107	-130.506	-0.171	-0.023
-253.092	-129.966	0.235	-0.032
-252.078	76.886	-0.051	0.054
-251.063	66.905	-0.068	0.069
-250.049	3.721	0.045	0.032
-249.034	-200.000	0.030	-0.262
-248.019	3.867	-0.221	-0.160
-247.005	176.605	0.088	0.127
-245.990	-164.959	-0.328	0.014
-244.976	446.924	-0.101	-0.221
-243.961	229.348	0.122	0.197
-242.946	-34.098	0.056	-0.030
-241.932	210.635	-0.076	-0.118
-240.917	498.339	0.023	0.053
-239.903	147.368	-0.068	0.091
-238.888	-78.825	0.383	-0.129
-237.873	-54.287	-0.094	-0.042
-236.859	-18.901	0.074	-0.046
-235.844	-200.000	-0.038	-0.425
-234.830	-200.000	0.034	-0.205
-233.815	-200.000	-0.005	-0.287
-232.800	-200.000	-0.013	0.080
-231.786	24.521	-0.161	-0.132
-230.771	-200.000	0.027	0.258
-229.757	-81.075	0.347	0.114
-228.742	-200.000	0.002	0.078
-227.727	-75.967	-0.209	0.073
-226.713	220.185	-0.045	-0.071
-225.698	238.454	-0.066	0.108
-224.684	800.000	0.078	0.272
-223.669	-84.509	-0.163	-0.051
-222.655	-16.928	-0.219	-0.137
-221.640	-123.091	-0.163	-0.026
-220.625	800.000	-0.082	-0.274
-219.611	61.307	-0.131	0.129
-218.596	-200.000	-0.011	0.144
-217.582	122.091	0.072	0.088
-216.567	-151.839	0.311	-0.022
-215.552	-26.504	-0.158	0.091
-214.538	-71.721	-0.371	0.137
-213.523	28.544	0.106	-0.089
-212.509	66.901	0.223	0.224
-211.494	-35.523	-0.168	-0.090
-210.479	-85.702	-0.290	-0.089
-209.465	-200.000	0.001	-0.072
-208.450	-90.417	0.135	0.039
-207.436	-200.000	0.025	-0.115
-206.421	192.622	0.165	-0.246
-205.406	120.785	0.140	-0.172
-204.392	-132.851	-0.199	0.025
-203.377	-57.488	0.164	0.071
-202.363	187.529	-0.178	-0.262
-201.348	800.000	-0.181	-0.650
-200.333	79.822	-0.092	0.097
-199.319	48.843	0.110	0.102
-198.304	-200.000	0.053	0.435
-197.290	237.700	0.164	-0.268
-196.275	-157.293	0.170	-0.010
-195.260	95.271	0.229	0.257
-194.246	-200.000	0.025	0.110
-193.231	107.782	0.184	0.216
-192.217	800.000	-0.023	-0.067
-191.202	54.358	0.213	-0.202
-190.187	302.825	-0.142	0.259
-189.173	800.000	-0.033	-0.120
-188.158	-26.540	-0.163	-0.094
-187.144	-98.866	-0.139	-0.035
-186.129	-125.171	0.242	0.037
-185.114	58.879	-0.361	-0.350
-184.100	-105.616	-0.146	0.033
-183.085	-200.000	-0.046	0.358
-182.071	800.000	-0.028	0.118
-181.056	-85.080	0.266	0.082
-180.042	-200.000	-0.040	0.296
-179.027	-200.000	0.049	0.303
-178.012	158.764	-0.169	-0.232
-176.998	-79.400	-0.142	0.047
-175.983	37.038	0.194	-0.169
-174.969	-200.000	-0.081	0.384
-173.954	92.367	0.231	0.257
-172.939	215.122	0.093	0.145
-171.925	463.205	-0.085	0.188
-170.910	163.374	-0.054	0.074
-169.896	-150.917	-0.330	-0.025
-168.881	5.847	0.089	-0.065
-167.866	-117.757	-0.210	-0.037
-166.852	-174.865	-0.196	0.005
-165.837	-121.735	0.252	-0.041
-164.823	282.206	0.061	0.108
-163.808	-186.979	0.115	0.002
-162.793	800.000	0.102	0.281
-161.779	-200.000	-0.005	0.115
-160.764	-42.961	0.203	0.102
-159.750	-200.000	0.006	-0.085
-158.735	-114.906	-0.264	0.050
-157.720	800.000	-0.037	-0.135
-156.706	800.000	0.099	-0.274
-155.691	-76.679	-0.275	-0.095
-154.677	-50.590	-0.202	0.094
-153.662	-82.910	-0.169	-0.054
-152.647	-138.275	-0.125	-0.014
-151.633	-103.111	0.094	-0.022
-150.618	-137.938	0.252	-0.028
-149.604	-45.085	0.132	-0.065
-148.589	-200.000	-0.028	0.127
-147.574	254.626	0.017	-0.029
-146.560	-17.733	-0.087	-0.054
-145.545	-200.000	-0.010	0.067
-144.531	-123.907	0.126	-0.020
-143.516	-200.000	0.047	0.334
-142.502	-121.237	0.155	0.025
-141.487	438.082	0.020	0.044
-140.472	-124.183	-0.340	-0.053
-139.458	-200.000	-0.002	0.210
-138.443	424.409	-0.134	-0.284
-137.429	-136.564	0.103	-0.012
-136.414	93.955	0.108	-0.121
-135.399	17.212	0.011	-0.009
-134.385	-93.159	-0.232	-0.064
-133.370	97.349	0.233	0.263
-132.356	800.000	0.085	-0.256
-131.341	638.488	-0.069	-0.172
-130.326	253.396	0.125	0.211
-129.312	543.585	0.059	-0.140
-128.297	44.373	-0.093	0.084
-127.283	52.693	0.231	0.217
-126.268	253.425	-0.063	-0.107
-125.253	-106.461	0.204	-0.045
-124.239	61.502	-0.078	-0.077
-123.224	-162.824	-0.246	0.012
-122.210	800.000	-0.073	-0.221
