DTS Sentinel unit serial number:	SN413079Multiplexer serial number:	ORYXHardware model number:	OX4-SRSoftware version number:	ORYX F/W v4.00 Oryx Data Collector v3.7.2.0data status	okinstallation	princeton_trtdifferential loss correction	single-endedforward channel	channel 1reverse channel	N/Adate	2019/09/15time	08:10:35forward acquisition time	60.00reverse acquisition time	0.00gamma	496.2192k internal	0.2324k external	0.2324temperature offset calibration	0.9994default loss term (dB/km)	0.3790temperature slope calibration	1.0000multiplexer offset coefficient	1.0000multiplexer slope coefficient	1.0000fibre end	0.00T internal ref (°C)	30.95T ext. ref 1 (°C)	4.99T ext. ref 2 (°C)	27.67length (m)	temperature (°C)	Stokes	anti-Stokes-747.200	-152.260	-0.254	-0.019
-746.185	-127.659	0.313	0.046
-745.171	88.480	0.109	0.122
-744.156	146.626	-0.216	0.292
-743.142	-200.000	0.075	-0.392
-742.127	-200.000	0.013	-0.252
-741.112	677.332	-0.079	-0.208
-740.098	-70.157	0.279	0.107
-739.083	58.957	-0.137	0.136
-738.069	-75.955	-0.314	-0.112
-737.054	-200.000	0.045	0.372
-736.039	-200.000	-0.052	0.234
-735.025	68.215	0.089	0.092
-734.010	25.515	-0.196	0.164
-732.996	-105.615	0.184	0.042
-731.981	124.023	0.069	0.088
-730.966	800.000	-0.091	0.299
-729.952	-191.208	0.272	0.003
-728.937	41.447	-0.090	0.082
-727.923	330.784	-0.168	-0.327
-726.908	650.183	0.120	-0.309
-725.894	438.216	-0.024	0.052
-724.879	30.512	-0.251	-0.217
-723.864	-167.753	0.346	-0.014
-722.850	800.000	-0.093	-0.299
-721.835	-3.569	0.267	0.187
-720.821	-200.000	0.036	-0.201
-719.806	164.317	-0.013	0.018
-718.791	20.744	-0.134	-0.110
-717.777	70.772	-0.164	0.171
-716.762	-154.223	-0.312	0.021
-715.748	-118.412	-0.258	0.046
-714.733	-168.117	0.405	0.016
-713.718	800.000	-0.078	-0.344
-712.704	96.597	-0.170	-0.197
-711.689	81.670	-0.157	0.172
-710.675	52.344	-0.050	-0.048
-709.660	-29.324	0.274	0.158
-708.645	163.119	-0.209	0.296
-707.631	-36.806	-0.082	0.044
-706.616	-200.000	-0.030	0.403
-705.602	-141.749	0.142	0.014
-704.587	-200.000	0.039	-0.283
-703.572	-53.056	-0.305	0.141
-702.558	421.588	-0.113	0.244
-701.543	-41.070	0.128	0.067
-700.529	-117.337	0.059	0.011
-699.514	130.640	-0.244	0.316
-698.499	73.535	0.256	0.270
-697.485	154.722	-0.136	-0.188
-696.470	-200.000	-0.007	-0.107
-695.456	-180.653	0.166	-0.003
-694.441	-76.709	0.208	-0.073
-693.426	-200.000	0.045	0.000
-692.412	148.691	0.201	-0.273
-691.397	47.401	-0.098	0.092
-690.383	47.195	0.308	0.288
-689.368	-200.000	-0.027	-0.363
-688.354	-182.055	0.195	-0.004
-687.339	-152.737	-0.162	0.012
-686.324	236.971	0.141	-0.235
-685.310	-35.413	-0.126	-0.069
-684.295	800.000	0.065	0.218
-683.281	7.979	0.096	-0.073
-682.266	40.064	-0.298	-0.270
-681.251	563.122	0.137	-0.334
-680.237	-103.571	0.395	0.094
-679.222	-55.907	0.175	-0.079
-678.208	-87.226	-0.173	-0.053
-677.193	-39.176	0.131	0.069
-676.178	-200.000	-0.008	-0.060
-675.164	488.034	0.148	-0.340
-674.149	24.600	-0.118	0.099
-673.135	-200.000	0.131	0.648
-672.120	-47.317	0.239	-0.117
-671.105	402.817	-0.084	-0.178
-670.091	262.792	-0.023	-0.040
-669.076	800.000	-0.031	0.127
-668.062	800.000	0.086	-0.294
-667.047	-31.648	-0.022	-0.013
-666.032	-99.586	-0.268	0.068
-665.018	800.000	0.041	-0.118
-664.003	0.945	0.186	-0.135
-662.989	-94.236	0.099	-0.027
-661.974	445.972	0.088	-0.194
-660.959	514.934	0.120	-0.283
-659.945	-86.027	0.375	0.117
-658.930	-118.731	-0.338	0.060
-657.916	-200.000	-0.052	-0.342
-656.901	88.153	-0.104	0.116
-655.886	-200.000	-0.057	0.274
-654.872	-200.000	0.037	-0.240
-653.857	118.891	0.135	-0.168
-652.843	800.000	0.075	0.231
-651.828	-200.000	-0.012	-0.117
-650.814	-200.000	0.007	0.095
-649.799	-143.133	-0.326	0.032
-648.784	250.295	0.358	-0.612
-647.770	-164.171	0.179	0.008
-646.755	-91.786	-0.203	-0.058
-645.741	800.000	0.124	-0.370
-644.726	253.998	-0.062	-0.107
-643.711	-200.000	0.009	-0.259
-642.697	73.041	-0.066	0.069
-641.682	-200.000	-0.005	-0.060
-640.668	-5.844	-0.271	-0.186
-639.653	800.000	-0.114	-0.412
-638.638	100.605	-0.148	0.173
-637.624	-63.018	0.217	-0.090
-636.609	-78.128	-0.220	-0.076
-635.595	-15.856	-0.119	0.076
-634.580	80.955	0.140	-0.151
-633.565	-109.411	-0.200	0.042
-632.551	15.894	0.140	-0.110
-631.536	800.000	-0.065	0.247
-630.522	-5.420	0.089	0.061
-629.507	-135.889	0.043	0.005
-628.492	-200.000	0.007	0.206
-627.478	-70.765	-0.333	-0.126
-626.463	122.219	-0.180	0.226
-625.449	-200.000	-0.027	-0.129
-624.434	264.590	0.020	-0.035
-623.419	800.000	0.049	0.139
-622.405	-37.250	0.113	-0.061
-621.390	-39.330	0.218	-0.115
-620.376	-142.470	0.143	-0.014
-619.361	89.924	-0.249	-0.280
-618.346	-200.000	0.012	-0.058
-617.332	800.000	0.025	-0.079
-616.317	-98.356	-0.028	-0.007
-615.303	-4.229	0.180	0.125
-614.288	-200.000	0.033	0.212
-613.273	-173.973	0.075	-0.002
-612.259	-96.376	0.147	0.039
-611.244	57.040	0.135	0.132
-610.230	800.000	-0.065	-0.186
-609.215	-200.000	-0.003	-0.168
-608.201	64.970	0.101	-0.103
-607.186	99.784	-0.068	0.080
-606.171	217.860	0.066	0.106
-605.157	800.000	-0.050	-0.158
-604.142	-116.781	-0.235	0.043
-603.128	800.000	0.032	-0.129
-602.113	253.739	0.178	0.306
-601.098	33.583	0.228	0.199
-600.084	83.146	-0.088	-0.096
-599.069	-200.000	-0.018	0.251
-598.055	-94.865	0.120	-0.033
-597.040	118.291	0.148	-0.183
-596.025	800.000	-0.076	-0.242
-595.011	-156.070	-0.393	-0.025
-593.996	-117.042	0.112	0.020
-592.982	-190.565	0.165	-0.002
-591.967	-143.815	-0.186	-0.018
-590.952	614.687	0.193	0.486
-589.938	-74.498	0.258	-0.093
-588.923	455.242	-0.082	-0.183
-587.909	-200.000	-0.065	0.368
-586.894	-102.739	-0.074	0.018
-585.879	-5.911	-0.400	-0.275
-584.865	140.579	0.070	0.093
-583.850	152.919	-0.235	-0.322
-582.836	221.112	0.044	0.071
-581.821	-1.493	-0.267	0.189
-580.806	-200.000	0.015	0.212
-579.792	-101.504	-0.089	-0.022
-578.777	-138.917	0.229	-0.025
-577.763	5.996	-0.138	0.102
-576.748	800.000	-0.113	0.346
-575.733	-29.163	0.412	-0.237
-574.719	-63.286	-0.148	-0.061
-573.704	99.041	-0.098	-0.114
-572.690	-65.638	-0.277	0.111
-571.675	800.000	0.032	0.123
-570.661	163.561	0.156	0.219
-569.646	222.834	-0.029	-0.047
-568.631	-73.436	-0.125	0.046
-567.617	-200.000	0.027	-0.178
-566.602	-69.126	0.128	0.049
-565.588	606.356	-0.112	-0.279
-564.573	-196.989	0.160	0.001
-563.558	313.747	0.029	0.054
-562.544	-128.943	0.409	-0.058
-561.529	800.000	0.029	0.098
-560.515	-131.271	-0.434	-0.058
-559.500	800.000	-0.068	0.248
-558.485	576.646	-0.053	0.130
-557.471	236.709	-0.148	0.246
-556.456	-200.000	-0.034	-0.294
-555.442	-127.733	-0.293	-0.042
-554.427	245.102	0.250	-0.421
-553.412	800.000	0.065	0.239
-552.398	370.767	-0.109	-0.222
-551.383	-137.284	0.098	0.011
-550.369	-99.568	-0.216	-0.054
-549.354	-159.617	0.289	0.016
-548.339	-105.972	-0.157	-0.035
-547.325	104.858	0.100	0.119
-546.310	-28.329	-0.045	0.026
-545.296	43.973	0.261	-0.240
-544.281	8.684	-0.305	-0.230
-543.266	158.176	0.079	0.110
-542.252	139.651	0.132	-0.174
-541.237	136.889	0.164	-0.214
-540.223	-88.559	-0.144	0.043
-539.208	288.991	0.173	0.315
-538.193	0.016	0.117	0.083
-537.179	174.298	0.161	0.234
-536.164	55.521	0.219	-0.212
-535.150	-91.580	0.158	0.045
-534.135	-93.363	-0.418	-0.116
-533.121	-141.730	0.081	-0.008
-532.106	-132.327	-0.188	0.024
-531.091	70.390	0.182	-0.189
-530.077	70.109	0.098	0.101
-529.062	-200.000	-0.034	-0.232
-528.048	-57.598	-0.137	-0.060
-527.033	-167.795	0.169	-0.007
-526.018	-37.905	0.095	-0.050
-525.004	-129.645	-0.286	0.039
-523.989	-4.568	0.175	0.121
-522.975	800.000	-0.051	-0.180
-521.960	-200.000	0.046	-0.279
-520.945	-76.207	0.228	0.081
-519.931	68.662	-0.106	-0.109
-518.916	-34.556	0.285	-0.156
-517.902	28.790	-0.046	-0.039
-516.887	-147.272	-0.269	-0.023
-515.872	-71.904	-0.140	0.052
-514.858	-200.000	-0.036	0.316
-513.843	-133.103	0.208	-0.026
-512.829	173.609	-0.125	-0.181
-511.814	117.730	0.077	-0.095
-510.799	800.000	0.100	0.302
-509.785	-54.271	-0.259	0.117
-508.770	-2.563	-0.091	-0.064
-507.756	-200.000	0.029	0.392
-506.741	800.000	-0.050	0.199
-505.726	800.000	0.188	-0.649
-504.712	-19.433	-0.275	0.170
-503.697	234.674	-0.070	0.115
-502.683	-121.375	-0.364	0.061
-501.668	-24.775	-0.169	-0.100
-500.653	-54.438	-0.348	0.158
-499.639	-122.041	-0.180	0.030
-498.624	-1.779	-0.191	0.134
-497.610	-191.457	0.132	-0.001
-496.595	-118.992	0.209	0.037
-495.581	708.640	-0.174	-0.461
-494.566	-38.499	0.155	-0.082
-493.551	325.642	-0.135	0.259
-492.537	-75.552	-0.314	0.111
-491.522	-58.968	0.045	-0.019
-490.508	800.000	0.041	-0.123
-489.493	163.912	-0.309	0.435
-488.478	-24.979	-0.062	0.037
-487.464	757.772	-0.041	-0.110
-486.449	800.000	-0.017	0.063
-485.435	54.619	0.102	0.098
-484.420	254.414	-0.203	-0.347
-483.405	144.911	-0.061	0.082
-482.391	-200.000	-0.014	0.122
-481.376	-91.795	-0.152	-0.043
-480.362	800.000	0.040	0.127
-479.347	78.088	-0.217	0.231
-478.332	-12.793	-0.153	-0.099
-477.318	329.792	0.023	0.044
-476.303	-200.000	-0.042	-0.260
-475.289	-200.000	0.019	-0.083
-474.274	-43.740	0.103	0.052
-473.259	-6.035	-0.132	0.090
-472.245	-200.000	0.017	-0.113
-471.230	800.000	0.048	0.192
-470.216	705.380	-0.092	0.242
-469.201	-37.697	-0.084	-0.045
-468.186	800.000	0.030	-0.107
-467.172	-57.605	-0.304	-0.133
-466.157	144.629	0.159	-0.213
-465.143	-69.064	0.324	0.125
-464.128	800.000	0.029	-0.103
-463.113	246.118	-0.064	0.108
-462.099	-120.996	0.042	-0.007
-461.084	-86.426	-0.234	0.072
-460.070	-200.000	0.050	0.364
-459.055	-59.120	0.118	-0.051
-458.040	-52.286	-0.076	-0.035
-457.026	-200.000	-0.090	0.405
-456.011	348.963	0.152	0.300
-454.997	28.861	0.215	-0.182
-453.982	627.485	0.189	0.477
-452.968	-92.864	0.143	0.040
-451.953	-97.143	-0.125	0.033
-450.938	115.111	0.274	0.333
-449.924	396.460	-0.142	-0.295
-448.909	58.039	-0.208	-0.204
-447.895	800.000	-0.045	-0.181
-446.880	416.370	-0.178	-0.378
-445.865	-200.000	0.008	0.272
-444.851	172.293	0.038	-0.054
-443.836	800.000	0.079	0.335
-442.822	-200.000	-0.015	-0.118
-441.807	35.841	-0.096	-0.084
-440.792	190.725	0.039	-0.058
-439.778	-138.139	-0.098	-0.011
-438.763	-106.861	0.221	-0.049
-437.749	148.613	-0.240	-0.324
-436.734	-52.937	0.256	-0.117
-435.719	-175.687	-0.287	-0.008
-434.705	383.015	0.066	-0.136
-433.690	33.484	-0.092	-0.079
-432.676	-173.861	0.246	-0.007
-431.661	-113.654	0.229	-0.045
-430.646	-95.415	0.122	-0.033
-429.632	28.428	0.087	-0.074
-428.617	-72.903	0.368	0.135
-427.603	-192.376	-0.268	0.003
-426.588	-200.000	0.018	0.160
-425.573	397.430	0.243	0.507
-424.559	187.970	0.076	-0.114
-423.544	-78.243	-0.373	-0.128
-422.530	152.713	0.254	-0.346
-421.515	58.928	0.138	0.136
-420.500	13.008	-0.190	-0.147
-419.486	-62.399	-0.151	-0.063
-418.471	91.420	0.176	0.197
-417.457	-52.503	0.428	-0.197
-416.442	552.140	-0.083	0.198
-415.428	29.232	-0.057	-0.049
-414.413	-110.527	0.141	-0.029
-413.398	-200.000	-0.007	0.032
-412.384	311.298	-0.146	0.273
-411.369	-137.165	0.182	0.021
-410.355	-139.900	0.221	0.023
-409.340	84.027	-0.176	0.192
-408.325	-200.000	0.009	-0.294
-407.311	-72.265	-0.060	0.022
-406.296	322.722	0.053	0.100
-405.282	6.812	0.136	0.101
-404.267	-9.393	-0.435	0.289
-403.252	-97.297	-0.293	0.076
-402.238	-200.000	-0.012	-0.147
-401.223	-1.593	-0.213	-0.150
-400.209	152.671	-0.193	-0.263
-399.194	-6.756	-0.065	-0.044
-398.179	4.062	0.201	-0.146
-397.165	576.130	-0.108	-0.264
-396.150	-109.711	0.230	-0.048
-395.136	-65.539	-0.088	-0.035
-394.121	28.590	0.300	0.253
-393.106	-162.874	0.386	0.019
-392.092	206.917	-0.102	-0.158
-391.077	-200.000	0.093	0.446
-390.063	-83.505	0.334	0.106
-389.048	-90.966	0.104	0.030
-388.033	-200.000	0.025	0.175
-387.019	-88.894	-0.203	-0.060
-386.004	440.295	-0.111	0.241
-384.990	581.720	0.082	-0.200
-383.975	-72.485	0.171	0.063
-382.960	-23.175	0.072	-0.043
-381.946	-200.000	-0.003	0.285
-380.931	0.399	-0.150	0.107
-379.917	226.252	0.137	-0.222
-378.902	120.055	0.092	0.113
-377.888	125.774	0.351	-0.442
-376.873	25.989	0.255	0.211
-375.858	47.556	-0.183	0.170
-374.844	14.881	0.095	-0.074
-373.829	183.798	0.061	-0.089
-372.815	-200.000	-0.010	-0.357
-371.800	700.682	-0.041	0.107
-370.785	317.945	-0.070	0.131
-369.771	-71.663	-0.141	0.052
-368.756	357.678	-0.030	0.059
-367.742	114.090	-0.299	-0.362
-366.727	74.034	-0.046	-0.048
-365.712	-153.266	-0.165	0.011
-364.698	-6.095	0.296	0.201
-363.683	139.393	0.264	0.346
-362.669	-64.864	-0.284	-0.114
-361.654	-22.075	0.211	0.127
-360.639	-200.000	0.049	0.231
-359.625	180.956	0.133	0.194
-358.610	-200.000	0.046	0.219
-357.596	-3.111	0.132	0.092
-356.581	360.931	-0.127	-0.254
-355.566	-200.000	-0.001	0.157
-354.552	-200.000	-0.019	0.455
-353.537	-152.571	-0.353	-0.025
-352.523	-193.045	0.066	0.001
-351.508	-200.000	0.013	0.144
-350.493	-117.474	0.398	-0.072
-349.479	242.765	0.217	-0.361
-348.464	65.033	0.165	0.165
-347.450	43.659	0.229	0.209
-346.435	-76.947	-0.073	0.025
-345.420	37.344	0.223	-0.196
-344.406	763.281	0.100	0.271
-343.391	180.813	-0.108	0.157
-342.377	-6.951	0.166	-0.112
-341.362	-62.051	-0.151	-0.063
-340.348	800.000	0.108	0.340
-339.333	800.000	0.052	-0.217
-338.318	527.451	0.085	0.200
-337.304	752.416	0.207	-0.555
-336.289	295.899	-0.105	-0.191
-335.275	159.334	-0.121	0.167
-334.260	-81.539	-0.285	0.093
-333.245	-200.000	-0.001	0.169
-332.231	-145.039	0.220	-0.020
-331.216	-152.976	-0.545	0.038
-330.202	-200.000	0.079	0.443
-329.187	154.286	-0.167	-0.228
-328.172	393.872	-0.048	-0.099
-327.158	634.030	-0.149	0.375
-326.143	141.780	-0.051	-0.067
-325.129	-82.682	-0.225	0.072
-324.114	50.558	-0.128	-0.121
-323.099	184.555	0.172	-0.253
-322.085	-200.000	0.001	0.156
-321.070	-25.262	-0.343	-0.201
-320.056	121.921	0.084	-0.104
-319.041	-116.639	0.236	0.043
-318.026	162.715	-0.219	-0.305
-317.012	121.718	-0.239	-0.296
-315.997	-77.085	0.631	-0.218
-314.983	274.807	-0.164	0.288
-313.968	-200.000	0.038	0.180
-312.953	-200.000	-0.015	0.215
-311.939	283.946	0.286	0.510
-310.924	-40.203	-0.201	0.104
-309.910	-200.000	0.002	-0.106
-308.895	192.052	-0.080	0.120
-307.880	51.870	0.178	-0.168
-306.866	-200.000	-0.015	0.235
-305.851	-64.391	-0.183	-0.074
-304.837	-200.000	-0.007	-0.104
-303.822	-200.000	-0.010	-0.273
-302.807	9.944	0.190	0.143
-301.793	-200.000	-0.075	-0.534
-300.778	454.939	0.064	0.141
-299.764	-200.000	0.015	0.290
-298.749	448.530	-0.068	-0.149
-297.735	800.000	-0.054	0.198
-296.720	800.000	0.038	0.142
-295.705	-58.178	-0.130	-0.056
-294.691	-25.551	-0.125	-0.073
-293.676	240.424	0.168	-0.279
-292.662	-200.000	-0.040	-0.190
-291.647	536.038	-0.136	0.320
-290.632	138.162	-0.105	-0.136
-289.618	-73.160	0.343	0.125
-288.603	60.975	-0.203	0.200
-287.589	-44.931	-0.372	-0.184
-286.574	-83.989	-0.153	0.048
-285.559	-31.528	-0.068	-0.038
-284.545	6.646	-0.120	0.088
-283.530	-96.569	0.240	0.063
-282.516	-200.000	-0.018	-0.085
-281.501	504.323	-0.043	0.098
-280.486	-128.057	0.060	-0.008
-279.472	-200.000	-0.036	-0.326
-278.457	263.933	-0.054	0.093
-277.443	-87.157	-0.214	-0.065
-276.428	-197.521	0.338	-0.002
-275.413	-128.905	0.194	-0.027
-274.399	-165.183	0.342	0.015
-273.384	192.382	0.208	0.311
-272.370	482.825	0.103	-0.233
-271.355	739.336	0.070	-0.185
-270.340	-200.000	-0.006	-0.158
-269.326	-58.196	-0.124	-0.054
-268.311	514.545	0.071	0.165
-267.297	43.859	-0.102	-0.092
-266.282	5.981	0.103	-0.076
-265.267	-15.874	0.088	-0.056
-264.253	466.384	0.035	0.078
-263.238	104.178	-0.220	0.256
-262.224	46.056	0.070	-0.064
-261.209	800.000	-0.021	-0.070
-260.195	40.587	-0.155	0.138
-259.180	179.183	0.329	0.477
-258.165	570.116	-0.040	-0.096
-257.151	-45.717	0.284	0.139
-256.136	-200.000	-0.018	-0.143
-255.122	-84.258	0.216	0.068
-254.107	800.000	0.136	0.400
-253.092	20.907	-0.100	0.080
-252.078	-200.000	-0.021	-0.239
-251.063	-147.381	0.235	0.020
-250.049	-19.737	0.109	0.067
-249.034	478.612	-0.322	-0.722
-248.019	-165.058	-0.138	0.006
-247.005	99.236	0.235	-0.269
-245.990	-58.981	0.383	0.164
-244.976	800.000	0.096	0.323
-243.961	-129.449	-0.185	0.025
-242.946	-64.152	0.162	-0.065
-241.932	-200.000	0.040	0.264
-240.917	-107.804	0.129	0.028
-239.903	141.428	-0.074	0.097
-238.888	527.733	-0.073	-0.169
-237.873	-200.000	-0.006	-0.220
-236.859	800.000	0.051	-0.192
-235.844	-51.552	0.191	-0.088
-234.830	683.587	0.110	-0.285
-233.815	-19.503	0.193	0.118
-232.800	612.467	-0.023	-0.056
-231.786	-75.884	-0.128	0.045
-230.771	-200.000	-0.039	0.214
-229.757	-83.353	0.310	-0.098
-228.742	-16.182	-0.175	0.110
-227.727	224.974	0.158	0.254
-226.713	58.165	-0.085	-0.082
-225.698	-184.366	-0.485	-0.008
-224.684	209.583	-0.021	0.033
-223.669	800.000	0.017	-0.052
-222.655	17.071	-0.146	-0.114
-221.640	292.986	-0.107	0.194
-220.625	-200.000	-0.028	0.193
-219.611	71.045	0.065	0.067
-218.596	-186.504	-0.505	0.007
-217.582	-200.000	0.005	0.164
-216.567	18.805	-0.124	0.098
-215.552	-200.000	0.023	-0.214
-214.538	290.295	-0.107	-0.192
-213.523	335.896	-0.049	0.093
-212.509	-83.657	-0.182	0.058
-211.494	1.742	0.070	-0.050
-210.479	-181.572	-0.155	-0.003
-209.465	-200.000	-0.005	0.258
-208.450	484.211	0.155	0.349
-207.436	469.546	-0.100	-0.221
-206.421	-150.153	0.163	0.012
-205.406	611.647	-0.110	-0.271
-204.392	-21.673	0.200	0.120
-203.377	-53.817	-0.092	0.041
-202.363	-200.000	-0.024	-0.200
-201.348	-105.827	-0.221	-0.049
-200.333	32.005	0.296	-0.252
-199.319	-200.000	0.001	-0.046
-198.304	26.818	0.047	-0.039
-197.290	800.000	0.045	0.143
-196.275	-103.854	0.314	-0.072
-195.260	67.930	-0.043	-0.043
-194.246	-200.000	0.028	0.149
-193.231	86.845	-0.169	0.184
-192.217	-57.478	0.188	-0.082
-191.202	-200.000	-0.000	-0.267
-190.187	11.409	-0.177	0.134
-189.173	37.424	0.012	-0.011
-188.158	-43.868	-0.332	-0.165
-187.144	49.568	0.110	0.103
-186.129	555.972	0.127	0.303
-185.114	-14.979	0.055	0.035
-184.100	-150.002	-0.384	-0.030
-183.085	-200.000	0.009	0.238
-182.071	196.931	-0.218	-0.328
-181.056	12.170	0.232	-0.176
-180.042	555.884	-0.078	0.186
-179.027	-110.743	-0.291	0.059
-178.012	-200.000	-0.022	-0.368
-176.998	-200.000	-0.007	0.122
-175.983	10.981	-0.175	-0.132
-174.969	-51.743	-0.046	0.021
-173.954	175.358	0.183	0.261
-172.939	-200.000	0.012	-0.179
-171.925	800.000	-0.076	-0.237
-170.910	-71.532	0.348	-0.128
-169.896	-200.000	-0.027	0.241
-168.881	-200.000	-0.007	-0.031
-167.866	-119.892	0.268	0.046
-166.852	-200.000	0.012	0.114
-165.837	-200.000	-0.027	-0.151
-164.823	674.645	0.163	-0.416
-163.808	262.866	-0.017	-0.028
-162.793	-200.000	-0.025	0.186
-161.779	-74.498	-0.146	-0.052
-160.764	-7.249	0.157	0.105
-159.750	411.271	-0.149	-0.312
-158.735	772.495	-0.073	0.195
-157.720	757.318	0.025	0.066
-156.706	733.654	0.048	0.127
-155.691	-200.000	-0.003	-0.380
-154.677	800.000	-0.041	0.141
-153.662	-113.847	0.133	0.026
-152.647	317.191	0.085	-0.158
-151.633	-200.000	0.030	-0.309
-150.618	-200.000	-0.043	-0.333
-149.604	571.564	-0.109	0.262
-148.589	237.988	0.181	-0.296
-147.574	-21.529	-0.096	0.057
-146.560	1.082	-0.112	-0.079
-145.545	-102.900	0.131	-0.031
-144.531	-8.322	0.228	0.151
-143.516	117.372	0.156	-0.189
-142.502	-107.768	0.039	-0.008
-141.487	117.266	0.049	0.060
-140.472	38.797	-0.231	0.203
-139.458	-200.000	0.404	-0.001
-138.443	-61.281	0.105	-0.044
-137.429	32.696	0.238	0.203
-136.414	-200.000	0.069	0.372
-135.399	670.775	0.090	0.230
-134.385	800.000	0.078	-0.320
-133.370	-119.063	-0.171	0.030
-132.356	-2.766	0.276	0.190
-131.341	-92.245	0.295	0.082
-130.326	-200.000	-0.026	0.193
-129.312	264.833	0.194	0.334
-128.297	-166.862	-0.110	-0.004
-127.283	195.833	0.203	0.305
-126.268	-94.519	0.496	0.133
-125.253	-200.000	0.098	0.439
-124.239	-66.809	0.058	0.023
-123.224	-117.101	0.163	-0.029
-122.210	-200.000	0.054	0.315
-121.195	656.418	0.056	0.142
