DTS Sentinel unit serial number:	SN413079Multiplexer serial number:	ORYXHardware model number:	OX4-SRSoftware version number:	ORYX F/W v4.00 Oryx Data Collector v3.7.2.0data status	okinstallation	princeton_trtdifferential loss correction	single-endedforward channel	channel 1reverse channel	N/Adate	2019/09/18time	17:02:35forward acquisition time	60.00reverse acquisition time	0.00gamma	496.2192k internal	0.2293k external	0.2293temperature offset calibration	1.0004default loss term (dB/km)	0.3790temperature slope calibration	1.0000multiplexer offset coefficient	1.0000multiplexer slope coefficient	1.0000fibre end	0.00T internal ref (°C)	40.02T ext. ref 1 (°C)	0.86T ext. ref 2 (°C)	33.43length (m)	temperature (°C)	Stokes	anti-Stokes-747.200	-58.552	-0.492	0.219
-746.185	-200.000	0.015	0.523
-745.171	89.812	-0.116	0.132
-744.156	-28.173	-0.366	0.216
-743.142	-126.450	0.091	-0.014
-742.127	-56.918	-0.197	0.089
-741.112	-200.000	0.022	0.232
-740.098	-61.473	0.344	0.148
-739.083	-24.929	0.108	-0.066
-738.069	-200.000	-0.037	0.389
-737.054	-200.000	-0.032	0.256
-736.039	-160.280	-0.303	-0.017
-735.025	201.666	0.120	-0.189
-734.010	-129.365	-0.506	-0.072
-732.996	-67.766	0.273	-0.109
-731.981	-26.559	-0.293	-0.175
-730.966	-31.946	-0.053	-0.031
-729.952	258.474	-0.028	0.050
-728.937	-98.606	0.090	0.024
-727.923	-129.012	-0.240	-0.034
-726.908	-122.383	-0.085	0.014
-725.894	-200.000	0.014	0.120
-724.879	-138.258	-0.184	-0.021
-723.864	-136.235	-0.213	-0.025
-722.850	664.957	0.052	0.138
-721.835	123.729	-0.149	-0.192
-720.821	137.013	0.026	0.035
-719.806	-12.182	-0.120	0.080
-718.791	-200.000	-0.015	0.174
-717.777	286.449	0.069	-0.128
-716.762	800.000	-0.042	0.131
-715.748	180.733	0.092	0.138
-714.733	800.000	-0.062	0.220
-713.718	-200.000	-0.009	-0.355
-712.704	58.742	-0.124	-0.125
-711.689	-200.000	0.023	-0.183
-710.675	240.524	-0.044	-0.075
-709.660	-133.895	-0.348	-0.044
-708.645	-23.586	-0.257	-0.158
-707.631	595.863	0.147	-0.372
-706.616	-155.953	-0.437	-0.028
-705.602	-200.000	-0.011	0.211
-704.587	460.891	0.103	-0.236
-703.572	-200.000	-0.021	-0.209
-702.558	-200.000	-0.058	0.329
-701.543	54.985	0.268	0.265
-700.529	800.000	0.073	-0.227
-699.514	-43.774	-0.225	-0.116
-698.499	-200.000	0.004	-0.066
-697.485	97.042	0.259	0.303
-696.470	102.758	0.098	0.117
-695.456	28.842	0.243	-0.210
-694.441	-200.000	-0.040	-0.208
-693.426	51.034	-0.049	0.048
-692.412	96.483	-0.088	-0.103
-691.397	800.000	-0.048	0.211
-690.383	-200.000	0.042	-0.237
-689.368	-200.000	0.012	0.053
-688.354	514.233	0.126	0.300
-687.339	-200.000	0.068	0.336
-686.324	282.818	0.035	0.064
-685.310	-62.119	0.052	0.022
-684.295	52.316	0.186	0.181
-683.281	-112.178	0.130	0.027
-682.266	5.991	0.047	0.035
-681.251	-200.000	0.014	0.072
-680.237	-200.000	0.013	0.110
-679.222	800.000	0.059	-0.206
-678.208	-200.000	-0.019	-0.285
-677.193	-99.978	0.244	-0.062
-676.178	221.999	-0.151	0.248
-675.164	-26.735	-0.172	0.103
-674.149	16.737	-0.132	0.107
-673.135	-104.869	0.225	0.053
-672.120	474.277	-0.176	0.404
-671.105	118.951	-0.136	0.172
-670.091	-146.205	-0.255	-0.023
-669.076	-19.599	-0.167	-0.105
-668.062	225.649	0.098	-0.161
-667.047	86.391	0.113	-0.127
-666.032	-166.543	0.115	0.005
-665.018	-131.254	-0.216	-0.029
-664.003	33.070	-0.080	-0.071
-662.989	254.518	0.069	-0.120
-661.974	56.313	-0.288	-0.286
-660.959	357.582	0.053	0.108
-659.945	224.697	-0.056	-0.092
-658.930	100.892	0.088	-0.105
-657.916	193.371	0.133	-0.206
-656.901	462.835	-0.071	0.161
-655.886	-124.563	0.299	0.047
-654.872	686.453	-0.080	0.213
-653.857	35.782	0.182	0.163
-652.843	96.878	0.043	0.050
-651.828	-118.729	-0.296	0.053
-650.814	800.000	-0.125	0.368
-649.799	-136.035	-0.167	-0.020
-648.784	-41.064	0.184	0.097
-647.770	-124.248	-0.243	0.039
-646.755	112.925	-0.144	-0.178
-645.741	-9.354	-0.189	-0.129
-644.726	-3.134	-0.228	-0.162
-643.711	-127.888	-0.114	-0.017
-642.697	49.176	-0.139	0.133
-641.682	800.000	-0.086	0.352
-640.668	290.752	-0.090	0.166
-639.653	-42.107	0.255	-0.133
-638.638	-200.000	0.509	0.000
-637.624	-162.332	0.076	0.004
-636.609	65.475	0.156	-0.161
-635.595	103.546	-0.133	-0.159
-634.580	162.584	-0.115	-0.164
-633.565	-5.128	0.081	-0.057
-632.551	-175.460	-0.483	0.013
-631.536	-39.703	-0.196	-0.104
-630.522	-37.088	-0.187	-0.102
-629.507	-81.238	-0.261	-0.088
-628.492	-129.750	-0.337	0.047
-627.478	-88.765	0.349	0.106
-626.463	54.448	-0.065	-0.064
-625.449	-116.462	-0.077	0.014
-624.434	-9.025	-0.393	-0.268
-623.419	-1.673	-0.146	-0.105
-622.405	-0.425	0.058	-0.042
-621.390	-32.701	0.296	-0.168
-620.376	152.805	-0.163	0.227
-619.361	-200.000	-0.029	-0.216
-618.346	-128.524	0.081	0.012
-617.332	39.434	-0.107	-0.098
-616.317	-200.000	-0.010	-0.096
-615.303	-50.272	-0.158	0.076
-614.288	-200.000	0.023	-0.119
-613.273	-159.979	0.086	-0.005
-612.259	-14.120	0.374	-0.246
-611.244	-168.947	-0.078	0.003
-610.230	327.961	0.015	0.029
-609.215	-85.054	-0.234	-0.075
-608.201	-200.000	0.052	0.230
-607.186	185.534	-0.115	-0.174
-606.171	208.405	0.171	-0.272
-605.157	-200.000	-0.009	0.126
-604.142	-200.000	-0.024	0.258
-603.128	352.090	-0.088	-0.178
-602.113	-87.680	-0.084	0.026
-601.098	-134.206	-0.136	-0.017
-600.084	-28.883	-0.420	0.246
-599.069	-120.318	-0.090	-0.016
-598.055	127.055	-0.067	0.086
-597.040	-87.050	-0.346	0.107
-596.025	-200.000	-0.023	-0.116
-595.011	20.794	0.072	-0.059
-593.996	1.735	-0.160	0.117
-592.982	40.276	0.244	-0.224
-591.967	121.198	0.114	-0.145
-590.952	800.000	-0.070	-0.268
-589.938	79.058	-0.037	0.041
-588.923	3.446	-0.194	0.143
-587.909	-63.966	0.176	-0.073
-586.894	146.944	-0.100	-0.137
-585.879	52.230	0.191	-0.185
-584.865	-130.775	-0.361	0.049
-583.850	800.000	0.054	-0.211
-582.836	28.696	0.251	-0.216
-581.821	-148.526	0.033	0.003
-580.806	125.048	-0.224	-0.287
-579.792	-31.663	0.118	-0.067
-578.777	158.692	0.121	0.171
-577.763	800.000	-0.046	-0.147
-576.748	-200.000	0.022	-0.103
-575.733	2.039	-0.129	0.094
-574.719	-200.000	0.018	-0.099
-573.704	-150.896	0.258	-0.020
-572.690	-109.188	0.205	0.044
-571.675	41.785	-0.129	0.119
-570.661	-200.000	-0.025	-0.203
-569.646	150.365	-0.024	-0.033
-568.631	800.000	-0.029	0.085
-567.617	-57.310	-0.057	-0.025
-566.602	65.210	0.043	-0.044
-565.588	-145.636	0.010	0.001
-564.573	185.203	0.094	-0.141
-563.558	-200.000	0.038	-0.225
-562.544	-45.414	-0.330	-0.166
-561.529	800.000	0.055	-0.202
-560.515	265.446	0.196	-0.347
-559.500	-159.637	-0.218	-0.012
-558.485	-59.073	0.109	-0.048
-557.471	-45.591	0.129	0.065
-556.456	-200.000	-0.058	-0.376
-555.442	-200.000	-0.013	-0.101
-554.427	154.830	-0.040	0.056
-553.412	268.860	-0.062	0.110
-552.398	800.000	-0.071	0.235
-551.383	159.519	0.138	0.195
-550.369	-123.996	-0.260	0.042
-549.354	-133.932	-0.135	0.017
-548.339	260.303	0.158	-0.277
-547.325	-200.000	-0.014	-0.145
-546.310	82.934	-0.152	-0.167
-545.296	-200.000	-0.050	0.279
-544.281	-7.391	-0.158	0.109
-543.266	133.011	0.121	0.158
-542.252	-90.223	-0.248	0.073
-541.237	-26.864	-0.252	-0.150
-540.223	-19.304	-0.295	0.186
-539.208	214.575	-0.107	0.172
-538.193	-105.466	0.176	0.041
-537.179	-0.090	-0.206	-0.149
-536.164	205.730	0.185	-0.291
-535.150	190.210	-0.124	-0.189
-534.135	-123.865	-0.387	0.062
-533.121	-126.339	0.153	0.023
-532.106	800.000	-0.065	0.261
-531.091	-53.048	0.311	-0.145
-530.077	-77.123	0.126	0.045
-529.062	800.000	0.066	-0.195
-528.048	-61.167	0.261	0.112
-527.033	-99.287	0.260	0.067
-526.018	-200.000	-0.011	0.354
-525.004	-200.000	0.018	-0.088
-523.989	29.273	0.161	0.138
-522.975	85.441	-0.157	0.175
-521.960	101.896	-0.084	0.100
-520.945	538.658	-0.118	-0.283
-519.931	285.831	-0.095	0.174
-518.916	-200.000	-0.034	-0.185
-517.902	-200.000	-0.028	-0.389
-516.887	-200.000	0.039	0.383
-515.872	401.017	-0.102	0.218
-514.858	-25.219	-0.173	0.104
-513.843	800.000	-0.050	0.145
-512.829	-161.862	0.412	-0.021
-511.814	-27.234	-0.127	0.075
-510.799	-200.000	0.074	0.381
-509.785	79.940	0.237	-0.258
-508.770	-73.905	0.091	0.034
-507.756	133.692	0.188	-0.246
-506.741	-134.997	0.350	0.043
-505.726	667.934	0.160	0.418
-504.712	556.590	-0.020	-0.048
-503.697	-80.308	-0.266	-0.090
-502.683	-200.000	0.043	0.224
-501.668	-61.087	-0.218	0.093
-500.653	128.486	0.176	-0.228
-499.639	55.016	-0.090	0.088
-498.624	129.942	0.178	-0.231
-497.610	-111.455	-0.283	-0.058
-496.595	-17.421	0.214	-0.136
-495.581	800.000	-0.101	-0.333
-494.566	470.757	0.155	-0.352
-493.551	-77.449	0.278	0.098
-492.537	16.658	0.080	0.064
-491.522	800.000	-0.030	-0.119
-490.508	-155.377	-0.381	-0.025
-489.493	-34.518	-0.317	0.176
-488.478	23.120	-0.019	0.016
-487.464	-114.472	0.169	-0.033
-486.449	0.536	0.213	0.154
-485.435	750.857	0.107	-0.293
-484.420	-200.000	0.017	-0.250
-483.405	102.566	0.154	-0.182
-482.391	-200.000	-0.005	-0.083
-481.376	109.865	0.043	0.052
-480.362	-200.000	-0.079	0.395
-479.347	-89.455	-0.249	0.074
-478.332	-93.611	0.023	0.006
-477.318	-72.198	0.155	-0.058
-476.303	133.828	-0.166	0.218
-475.289	292.774	0.239	-0.440
-474.274	-13.990	-0.274	-0.179
-473.259	800.000	-0.044	0.165
-472.245	48.179	-0.158	0.149
-471.230	347.335	-0.191	0.380
-470.216	769.176	-0.062	-0.170
-469.201	-154.453	-0.337	0.023
-468.186	-200.000	-0.018	0.213
-467.172	-200.000	0.069	0.491
-466.157	-200.000	-0.081	0.366
-465.143	-200.000	-0.035	0.196
-464.128	-126.061	0.450	-0.068
-463.113	-200.000	-0.034	0.218
-462.099	-96.316	0.228	0.061
-461.084	-130.036	-0.302	-0.042
-460.070	-186.782	-0.049	-0.001
-459.055	-60.997	0.394	-0.168
-458.040	-148.413	0.444	0.037
-457.026	-61.691	-0.378	-0.160
-456.011	-19.547	0.186	-0.116
-454.997	-37.414	-0.114	-0.061
-453.982	800.000	-0.083	-0.358
-452.968	-62.947	0.096	-0.040
-451.953	800.000	-0.074	0.246
-450.938	800.000	0.118	0.353
-449.924	800.000	-0.041	0.131
-448.909	-136.207	0.103	0.012
-447.895	-96.212	0.198	0.053
-446.880	-92.093	0.110	-0.031
-445.865	95.117	-0.290	0.334
-444.851	-95.776	0.070	0.019
-443.836	-149.772	-0.039	-0.003
-442.822	-31.748	-0.076	0.043
-441.807	68.805	-0.093	-0.096
-440.792	155.106	-0.139	0.194
-439.778	549.806	0.101	-0.245
-438.763	185.230	-0.143	-0.215
-437.749	-50.149	0.278	0.133
-436.734	-61.623	-0.160	0.068
-435.719	63.007	0.301	0.304
-434.705	-200.000	-0.007	-0.285
-433.690	101.137	-0.098	0.115
-432.676	-125.016	0.187	0.029
-431.661	-134.108	0.398	-0.050
-430.646	398.745	0.114	-0.241
-429.632	-169.196	-0.161	-0.006
-428.617	800.000	0.130	0.497
-427.603	-200.000	-0.013	-0.077
-426.588	-129.609	0.221	0.031
-425.573	126.994	-0.271	-0.347
-424.559	-5.188	0.371	-0.258
-423.544	800.000	0.006	0.024
-422.530	67.311	-0.186	-0.191
-421.515	-107.171	-0.106	-0.024
-420.500	-200.000	0.012	0.325
-419.486	-200.000	0.049	0.450
-418.471	76.171	-0.075	0.081
-417.457	-126.717	-0.308	-0.046
-416.442	-38.496	-0.101	0.054
-415.428	-200.000	0.000	0.192
-414.413	-115.744	0.191	-0.036
-413.398	-108.322	-0.158	0.034
-412.384	-157.399	-0.256	-0.016
-411.369	259.959	0.122	0.213
-410.355	13.865	-0.226	0.177
-409.340	337.071	-0.103	0.202
-408.325	-27.798	0.213	0.125
-407.311	-200.000	-0.023	0.198
-406.296	-9.713	-0.046	-0.031
-405.282	-200.000	0.007	-0.161
-404.267	-23.914	0.056	-0.034
-403.252	-52.006	-0.087	0.041
-402.238	410.497	-0.085	-0.182
-401.223	-47.625	-0.203	-0.100
-400.209	-200.000	0.033	-0.302
-399.194	-200.000	-0.008	-0.072
-398.179	29.510	-0.233	0.200
-397.165	93.186	-0.113	-0.129
-396.150	11.905	-0.077	-0.059
-395.136	-200.000	-0.001	0.092
-394.121	242.523	-0.152	0.256
-393.106	-164.613	0.210	-0.010
-392.092	344.766	0.086	0.171
-391.077	-67.151	-0.133	0.053
-390.063	-28.185	-0.139	-0.081
-389.048	71.962	0.127	0.133
-388.033	-66.507	0.178	-0.071
-387.019	-200.000	-0.019	-0.183
-386.004	-198.299	-0.304	0.002
-384.990	327.462	-0.192	0.371
-383.975	-200.000	-0.021	0.203
-382.960	-79.255	0.162	0.055
-381.946	88.303	0.120	0.134
-380.931	286.942	-0.152	0.277
-379.917	227.437	0.026	0.042
-378.902	8.374	-0.043	0.033
-377.888	-130.027	0.241	0.033
-376.873	284.741	0.040	-0.072
-375.858	152.150	-0.176	-0.242
-374.844	-7.003	-0.258	-0.176
-373.829	357.753	-0.139	0.280
-372.815	-200.000	0.006	0.258
-371.800	59.173	-0.135	0.134
-370.785	108.127	0.138	-0.166
-369.771	-200.000	-0.022	-0.100
-368.756	14.655	-0.178	0.140
-367.742	186.719	0.301	-0.452
-366.727	-122.449	-0.193	-0.032
-365.712	-25.862	0.201	-0.119
-364.698	715.293	0.088	0.235
-363.683	107.042	0.301	0.360
-362.669	13.344	-0.207	-0.162
-361.654	85.174	0.212	-0.234
-360.639	85.368	0.150	0.166
-359.625	-200.000	0.004	0.121
-358.610	-189.866	0.109	0.001
-357.596	800.000	0.039	0.162
-356.581	175.272	-0.102	0.149
-355.566	-34.287	0.270	-0.149
-354.552	-200.000	-0.015	-0.277
-353.537	-56.589	0.180	-0.080
-352.523	-110.934	-0.340	-0.070
-351.508	5.881	0.207	0.154
-350.493	-128.708	0.172	0.024
-349.479	-200.000	-0.001	-0.325
-348.464	12.139	0.272	0.211
-347.450	-143.790	-0.011	-0.001
-346.435	-48.882	0.376	-0.181
-345.420	-11.017	-0.188	-0.125
-344.406	718.496	0.132	-0.354
-343.391	90.454	-0.169	0.191
-342.377	169.062	-0.050	-0.072
-341.362	374.078	-0.028	0.057
-340.348	-200.000	0.002	-0.208
-339.333	800.000	-0.050	-0.182
-338.318	44.204	-0.174	-0.161
-337.304	670.287	0.040	0.105
-336.289	-136.368	-0.212	-0.025
-335.275	166.275	-0.136	-0.194
-334.260	-34.686	0.078	-0.043
-333.245	12.807	-0.183	0.142
-332.231	-111.275	-0.267	-0.055
-331.216	-200.000	0.057	0.463
-330.202	783.450	0.089	0.244
-329.187	42.189	0.274	0.250
-328.172	-38.925	0.282	-0.149
-327.158	-82.544	-0.084	-0.027
-326.143	-43.426	-0.413	-0.210
-325.129	213.578	0.218	0.348
-324.114	-23.661	0.370	-0.223
-323.099	615.485	0.192	-0.483
-322.085	160.381	-0.095	-0.134
-321.070	-200.000	0.016	-0.210
-320.056	-200.000	0.007	0.101
-319.041	672.777	0.072	0.189
-318.026	412.240	0.079	0.169
-317.012	241.211	0.072	0.120
-315.997	110.661	-0.095	-0.114
-314.983	800.000	0.117	-0.333
-313.968	134.966	0.071	-0.093
-312.953	-200.000	0.014	-0.115
-311.939	-200.000	-0.048	-0.377
-310.924	-200.000	0.030	0.234
-309.910	-78.956	-0.254	-0.087
-308.895	-108.916	0.323	0.069
-307.880	-200.000	-0.006	0.286
-306.866	-200.000	0.007	0.277
-305.851	788.850	0.068	0.187
-304.837	-61.177	-0.152	0.065
-303.822	119.233	0.090	-0.112
-302.807	-200.000	-0.032	-0.453
-301.793	394.887	0.107	-0.225
-300.778	173.299	0.130	-0.189
-299.764	18.542	-0.245	-0.197
-298.749	-131.157	0.180	0.024
-297.735	60.833	-0.222	0.221
-296.720	-200.000	-0.010	0.226
-295.705	-200.000	0.007	-0.088
-294.691	-64.262	0.044	-0.018
-293.676	298.805	-0.195	0.360
-292.662	125.661	0.094	-0.120
-291.647	-79.366	0.173	0.059
-290.632	800.000	0.090	0.267
-289.618	89.119	-0.226	0.253
-288.603	6.261	0.189	0.141
-287.589	48.861	0.176	0.166
-286.574	-142.834	-0.288	0.028
-285.559	-200.000	-0.035	-0.305
-284.545	800.000	-0.063	-0.239
-283.530	-200.000	-0.039	0.254
-282.516	-29.161	-0.307	-0.177
-281.501	-200.000	0.027	-0.363
-280.486	-19.149	0.243	0.152
-279.472	15.173	0.106	-0.083
-278.457	764.141	-0.070	0.190
-277.443	457.166	0.099	-0.222
-276.428	22.088	0.296	-0.242
-275.413	122.549	0.155	0.194
-274.399	-80.031	0.240	0.081
-273.384	46.632	0.160	0.149
-272.370	79.522	-0.243	0.262
-271.355	800.000	0.058	0.186
-270.340	57.198	-0.131	0.128
-269.326	162.954	-0.114	0.161
-268.311	135.830	-0.189	-0.247
-267.297	800.000	-0.077	-0.292
-266.282	-41.180	0.213	-0.111
-265.267	128.260	0.146	0.187
-264.253	-200.000	-0.015	0.165
-263.238	800.000	-0.064	-0.273
-262.224	-200.000	-0.028	0.210
-261.209	-79.932	-0.040	0.013
-260.195	28.019	0.082	0.069
-259.180	800.000	-0.023	-0.095
-258.165	-36.641	0.106	0.057
-257.151	40.996	0.251	-0.227
-256.136	54.158	0.203	-0.196
-255.122	3.194	-0.235	-0.172
-254.107	65.983	-0.233	-0.237
-253.092	486.311	0.101	-0.232
-252.078	227.450	0.109	0.178
-251.063	-200.000	0.014	0.080
-250.049	38.612	0.265	0.237
-249.034	119.933	0.180	-0.224
-248.019	153.072	0.198	-0.272
-247.005	800.000	-0.037	-0.126
-245.990	-19.181	0.345	0.215
-244.976	190.255	0.035	-0.053
-243.961	160.226	0.282	-0.395
-242.946	-166.086	-0.427	-0.018
-241.932	23.913	-0.166	0.138
-240.917	-122.804	0.161	-0.026
-239.903	-88.610	-0.325	0.097
-238.888	8.723	0.344	0.260
-237.873	-200.000	-0.014	0.263
-236.859	-35.216	0.129	0.070
-235.844	-200.000	0.058	0.273
-234.830	100.563	0.178	-0.207
-233.815	-200.000	0.105	0.493
-232.800	-152.434	-0.141	0.010
-231.786	29.487	-0.183	-0.156
-230.771	800.000	-0.129	-0.398
-229.757	-145.828	-0.135	-0.012
-228.742	117.929	0.181	-0.223
-227.727	-28.228	-0.218	-0.126
-226.713	37.905	-0.163	-0.145
-225.698	-200.000	0.012	0.077
-224.684	790.163	-0.044	0.121
-223.669	453.246	0.079	0.175
-222.655	-200.000	-0.036	-0.376
-221.640	42.574	-0.111	-0.101
-220.625	-131.559	-0.048	0.006
-219.611	136.812	0.151	-0.198
-218.596	-12.429	0.148	0.097
-217.582	-40.335	-0.116	0.061
-216.567	-190.535	0.362	0.004
-215.552	132.878	0.220	-0.285
-214.538	-63.375	-0.263	0.109
-213.523	199.187	0.143	0.220
-212.509	-172.029	0.175	0.006
-211.494	331.453	0.178	-0.343
-210.479	800.000	-0.120	0.351
-209.465	800.000	-0.074	-0.231
-208.450	-96.960	0.261	-0.069
-207.436	4.726	-0.202	0.149
-206.421	113.344	0.148	-0.180
-205.406	561.962	0.119	0.288
-204.392	-200.000	0.011	0.124
-203.377	52.861	-0.161	-0.154
-202.363	-114.470	0.347	-0.067
-201.348	25.282	0.423	-0.352
-200.333	362.569	0.219	0.440
-199.319	394.809	-0.104	0.217
-198.304	92.697	-0.104	-0.118
-197.290	-200.000	0.004	0.413
-196.275	-90.687	-0.109	-0.031
-195.260	0.647	-0.038	0.027
-194.246	800.000	0.109	0.320
-193.231	800.000	0.031	-0.110
-192.217	83.183	-0.209	-0.228
-191.202	145.832	-0.208	0.280
-190.187	800.000	-0.089	0.248
-189.173	-104.442	-0.368	-0.085
-188.158	204.477	-0.031	0.049
-187.144	-33.805	0.345	0.190
-186.129	-200.000	0.028	-0.149
-185.114	-111.242	0.269	-0.055
-184.100	174.115	-0.037	-0.053
-183.085	800.000	0.105	-0.378
-182.071	-31.587	-0.131	-0.073
-181.056	-180.178	0.225	-0.005
-180.042	7.153	-0.125	0.093
-179.027	800.000	-0.041	0.165
-178.012	257.365	-0.197	0.339
-176.998	322.168	0.064	-0.123
-175.983	-200.000	0.035	0.166
-174.969	289.342	0.076	-0.138
-173.954	52.420	-0.317	0.302
-172.939	-200.000	-0.019	-0.114
-171.925	-200.000	0.013	-0.169
-170.910	-200.000	0.037	0.218
-169.896	-200.000	-0.002	0.466
-168.881	86.199	-0.060	0.066
-167.866	-37.352	-0.258	-0.138
-166.852	417.524	0.125	-0.267
-165.837	-100.834	-0.033	0.008
-164.823	-119.742	0.257	-0.044
-163.808	800.000	0.089	0.270
-162.793	136.711	-0.077	-0.101
-161.779	-28.068	0.061	0.035
-160.764	-200.000	-0.002	-0.021
-159.750	498.844	0.111	0.255
-158.735	-2.028	-0.160	0.112
-157.720	-200.000	-0.025	0.234
-156.706	75.566	-0.120	-0.127
-155.691	-82.090	0.309	-0.101
-154.677	-57.771	0.202	0.088
-153.662	61.792	-0.144	-0.143
-152.647	514.238	-0.168	0.392
-151.633	800.000	-0.054	-0.158
-150.618	-2.768	-0.093	0.065
-149.604	383.889	0.089	-0.182
-148.589	-200.000	-0.059	-0.263
-147.574	-200.000	-0.004	0.116
-146.560	33.513	-0.312	-0.271
-145.545	-85.448	0.043	0.013
-144.531	147.578	0.248	0.333
-143.516	20.150	-0.228	0.184
-142.502	44.869	0.102	0.094
-141.487	529.731	-0.091	-0.214
-140.472	37.663	0.156	0.139
-139.458	467.418	0.059	0.132
-138.443	-147.472	-0.111	0.009
-137.429	800.000	-0.061	-0.191
-136.414	39.148	0.060	-0.054
-135.399	56.819	-0.331	0.322
-134.385	-87.407	0.152	-0.046
-133.370	100.691	-0.271	-0.314
-132.356	128.300	0.069	0.088
-131.341	421.336	0.108	0.231
-130.326	-86.553	-0.031	0.009
-129.312	-46.570	-0.091	-0.045
-128.297	-82.437	0.404	0.131
-127.283	-49.336	0.407	0.194
-126.268	95.403	-0.077	-0.088
-125.253	-80.735	-0.343	-0.114
-124.239	-136.087	-0.086	-0.010
-123.224	-200.000	0.004	0.284
-122.210	-115.550	-0.413	0.078
-121.195	-66.848	0.176	0.070
