DTS Sentinel unit serial number:	SN413079Multiplexer serial number:	ORYXHardware model number:	OX4-SRSoftware version number:	ORYX F/W v4.00 Oryx Data Collector v3.7.2.0data status	okinstallation	princeton_trtdifferential loss correction	single-endedforward channel	channel 1reverse channel	N/Adate	2019/09/12time	04:48:11forward acquisition time	60.00reverse acquisition time	0.00gamma	496.2192k internal	0.2323k external	0.2323temperature offset calibration	1.0078default loss term (dB/km)	0.3790temperature slope calibration	1.0000multiplexer offset coefficient	1.0000multiplexer slope coefficient	1.0000fibre end	0.00T internal ref (°C)	31.62T ext. ref 1 (°C)	2.06T ext. ref 2 (°C)	27.33length (m)	temperature (°C)	Stokes	anti-Stokes-747.200	800.000	0.090	0.272
-746.185	13.190	-0.070	0.054
-745.171	-94.806	-0.134	-0.037
-744.156	-200.000	-0.044	0.380
-743.142	-104.419	0.114	-0.027
-742.127	18.257	-0.161	0.130
-741.112	-133.652	-0.276	-0.035
-740.098	-71.319	0.084	-0.032
-739.083	-73.933	0.389	0.143
-738.069	-116.695	0.029	-0.005
-737.054	-41.652	0.144	0.075
-736.039	-142.268	-0.143	0.014
-735.025	-83.974	0.493	0.158
-734.010	-39.966	-0.190	0.100
-732.996	82.230	-0.171	-0.187
-731.981	-45.329	-0.192	-0.096
-730.966	-56.757	-0.092	0.041
-729.952	76.737	-0.087	-0.093
-728.937	-200.000	-0.011	0.229
-727.923	348.760	-0.095	-0.190
-726.908	-200.000	-0.019	-0.204
-725.894	800.000	0.130	-0.477
-724.879	-50.792	0.190	-0.090
-723.864	-111.192	-0.261	0.054
-722.850	92.769	-0.150	0.171
-721.835	271.637	-0.197	0.350
-720.821	-200.000	0.007	-0.146
-719.806	-141.919	0.288	0.029
-718.791	-200.000	0.048	-0.256
-717.777	-200.000	0.031	-0.410
-716.762	379.622	0.153	0.316
-715.748	93.990	0.167	0.191
-714.733	81.482	-0.021	-0.023
-713.718	-133.664	-0.331	-0.042
-712.704	-200.000	-0.064	-0.348
-711.689	800.000	-0.073	-0.207
-710.675	-200.000	0.070	-0.376
-709.660	11.156	-0.051	0.039
-708.645	156.187	0.065	0.090
-707.631	-56.286	-0.541	-0.242
-706.616	800.000	0.111	-0.319
-705.602	-69.240	0.313	-0.121
-704.587	-200.000	0.006	-0.428
-703.572	367.357	-0.188	-0.383
-702.558	800.000	-0.157	-0.440
-701.543	266.662	-0.115	-0.203
-700.529	685.927	-0.031	0.082
-699.514	800.000	-0.038	-0.130
-698.499	-200.000	0.039	0.387
-697.485	-94.762	0.207	0.057
-696.470	642.219	-0.018	0.047
-695.456	-140.707	0.073	0.008
-694.441	255.531	-0.183	-0.316
-693.426	-138.161	0.208	-0.023
-692.412	-200.000	-0.029	-0.150
-691.397	-115.981	0.181	-0.034
-690.383	-35.640	-0.190	-0.104
-689.368	-200.000	0.034	0.185
-688.354	271.071	0.126	0.223
-687.339	320.584	0.128	0.246
-686.324	318.371	-0.085	-0.162
-685.310	-200.000	0.025	-0.130
-684.295	-116.475	-0.069	0.013
-683.281	-0.885	-0.105	0.075
-682.266	800.000	-0.115	0.362
-681.251	-200.000	-0.232	-0.001
-680.237	800.000	-0.051	-0.163
-679.222	-6.319	-0.067	-0.046
-678.208	-23.366	-0.100	0.060
-677.193	1.235	-0.257	0.186
-676.178	177.478	0.164	-0.240
-675.164	-200.000	-0.038	-0.286
-674.149	-34.027	0.318	-0.176
-673.135	-129.869	0.207	0.029
-672.120	-200.000	0.027	0.152
-671.105	81.474	-0.172	0.188
-670.091	800.000	0.066	-0.271
-669.076	-200.000	0.036	-0.486
-668.062	-200.000	0.049	-0.235
-667.047	-49.033	-0.098	-0.047
-666.032	173.091	0.071	0.104
-665.018	-110.759	-0.243	0.050
-664.003	-135.306	0.050	-0.006
-662.989	-132.085	0.033	-0.004
-661.974	187.517	-0.086	-0.129
-660.959	290.025	-0.234	-0.427
-659.945	-39.355	0.525	0.277
-658.930	82.378	-0.214	-0.233
-657.916	15.346	0.237	0.187
-656.901	-141.012	-0.416	-0.043
-655.886	-200.000	-0.016	-0.099
-654.872	-34.729	0.149	-0.082
-653.857	536.643	-0.005	-0.013
-652.843	-121.835	-0.178	0.030
-651.828	253.121	0.092	0.157
-650.814	-125.348	-0.199	0.031
-649.799	-200.000	0.026	0.118
-648.784	156.277	0.176	-0.244
-647.770	800.000	0.112	-0.428
-646.755	800.000	0.028	0.092
-645.741	672.194	0.085	0.222
-644.726	800.000	0.089	-0.267
-643.711	-37.257	0.113	-0.061
-642.697	5.617	-0.124	0.092
-641.682	468.967	-0.139	0.313
-640.668	33.743	-0.240	-0.210
-639.653	-116.782	-0.317	0.058
-638.638	-200.000	-0.004	0.062
-637.624	37.046	0.181	-0.161
-636.609	-82.098	-0.262	0.086
-635.595	-30.420	0.198	0.113
-634.580	-171.998	0.261	0.009
-633.565	-68.230	0.297	0.116
-632.551	-43.519	-0.159	0.081
-631.536	55.139	-0.123	0.120
-630.522	63.185	0.050	0.050
-629.507	800.000	-0.023	-0.091
-628.492	261.668	0.054	-0.095
-627.478	-112.525	-0.382	-0.077
-626.463	-126.695	-0.080	-0.012
-625.449	-32.536	-0.344	-0.192
-624.434	155.144	0.204	0.282
-623.419	54.609	-0.096	-0.093
-622.405	-181.778	-0.206	-0.004
-621.390	-200.000	0.010	-0.046
-620.376	800.000	0.062	-0.243
-619.361	-30.309	0.188	0.108
-618.346	192.721	-0.134	0.203
-617.332	-39.188	0.189	-0.100
-616.317	-38.041	-0.216	-0.115
-615.303	45.620	0.089	0.083
-614.288	166.114	0.163	-0.231
-613.273	-59.394	-0.038	-0.017
-612.259	2.697	-0.253	0.184
-611.244	-118.832	-0.031	0.006
-610.230	25.757	-0.208	0.174
-609.215	-200.000	-0.017	0.105
-608.201	35.740	-0.088	-0.078
-607.186	-141.118	-0.093	0.010
-606.171	114.671	0.116	0.142
-605.157	-23.900	0.117	-0.070
-604.142	-16.588	-0.021	-0.014
-603.128	22.187	0.192	-0.157
-602.113	-46.202	-0.150	0.074
-601.098	410.602	0.160	0.341
-600.084	800.000	0.021	0.086
-599.069	-19.014	-0.240	-0.150
-598.055	-200.000	-0.013	-0.230
-597.040	-25.719	-0.147	0.087
-596.025	116.941	-0.280	0.345
-595.011	449.394	0.110	0.244
-593.996	163.589	-0.130	-0.183
-592.982	-11.613	-0.220	-0.145
-591.967	-128.082	-0.508	0.073
-590.952	-68.767	-0.202	-0.079
-589.938	-200.000	-0.022	-0.239
-588.923	443.013	0.043	0.094
-587.909	60.996	-0.226	0.225
-586.894	-38.966	-0.250	0.132
-585.879	-200.000	-0.015	0.203
-584.865	-200.000	0.008	0.042
-583.850	-200.000	0.008	0.085
-582.836	499.317	-0.103	0.238
-581.821	-163.170	0.158	0.008
-580.806	-200.000	-0.015	0.129
-579.792	522.436	0.049	0.115
-578.777	-200.000	0.022	-0.363
-577.763	-200.000	0.008	-0.092
-576.748	-200.000	-0.025	0.266
-575.733	-157.178	0.092	-0.006
-574.719	147.703	0.106	0.143
-573.704	104.405	-0.062	0.074
-572.690	800.000	0.017	0.066
-571.675	305.205	0.073	0.136
-570.661	-200.000	0.044	0.238
-569.646	800.000	0.026	-0.076
-568.631	188.476	0.145	-0.217
-567.617	138.627	0.272	-0.358
-566.602	-200.000	0.003	0.053
-565.588	21.132	0.252	0.205
-564.573	-30.726	0.139	-0.079
-563.558	-102.388	-0.288	-0.069
-562.544	35.910	0.302	0.267
-561.529	-36.564	-0.133	0.071
-560.515	-51.863	-0.273	-0.128
-559.500	800.000	0.082	-0.331
-558.485	21.546	-0.195	-0.159
-557.471	191.171	-0.179	0.270
-556.456	6.942	0.153	-0.115
-555.442	237.352	0.103	-0.170
-554.427	-40.601	-0.159	0.083
-553.412	-98.972	0.346	0.088
-552.398	-67.118	0.136	-0.054
-551.383	-192.365	-0.216	-0.002
-550.369	-179.129	0.389	-0.009
-549.354	70.673	-0.070	-0.073
-548.339	-8.169	0.175	0.118
-547.325	-20.086	-0.045	0.028
-546.310	-104.787	-0.557	0.128
-545.296	-120.270	-0.106	-0.018
-544.281	-200.000	-0.046	-0.370
-543.266	96.377	-0.086	0.099
-542.252	387.712	-0.094	-0.194
-541.237	-66.751	0.170	-0.068
-540.223	604.355	0.113	-0.282
-539.208	800.000	0.067	0.216
-538.193	-200.000	0.008	-0.226
-537.179	-168.980	0.360	-0.013
-536.164	-57.427	0.323	-0.142
-535.150	-53.748	-0.279	0.127
-534.135	-200.000	0.375	-0.002
-533.121	85.041	0.154	-0.170
-532.106	-200.000	-0.014	-0.090
-531.091	-138.007	-0.158	-0.018
-530.077	-62.444	-0.057	-0.024
-529.062	55.289	-0.233	-0.226
-528.048	-2.101	-0.127	0.090
-527.033	251.594	-0.156	-0.266
-526.018	-67.342	0.211	0.083
-525.004	411.504	-0.233	-0.495
-523.989	800.000	0.069	0.206
-522.975	530.955	0.027	-0.064
-521.960	800.000	0.080	-0.252
-520.945	-100.068	0.183	-0.046
-519.931	-51.608	-0.367	-0.171
-518.916	-188.784	0.143	-0.002
-517.902	106.291	-0.084	-0.099
-516.887	6.852	0.058	-0.043
-515.872	-57.662	0.116	0.051
-514.858	-200.000	-0.009	0.180
-513.843	-200.000	-0.001	-0.016
-512.829	-1.337	-0.258	-0.182
-511.814	11.823	0.082	-0.063
-510.799	131.042	-0.087	-0.112
-509.785	-6.243	0.224	0.153
-508.770	508.835	-0.041	-0.095
-507.756	800.000	-0.043	0.127
-506.741	800.000	0.031	-0.132
-505.726	-67.318	-0.417	-0.164
-504.712	-200.000	0.001	-0.219
-503.697	-121.304	-0.149	0.025
-502.683	19.917	-0.150	0.121
-501.668	-115.382	-0.357	0.067
-500.653	-144.414	0.272	0.025
-499.639	-88.612	-0.279	-0.083
-498.624	275.778	-0.083	0.148
-497.610	-14.024	-0.200	0.129
-496.595	800.000	0.103	-0.381
-495.581	-38.649	0.491	0.259
-494.566	84.601	-0.148	-0.162
-493.551	430.475	0.033	0.072
-492.537	-89.453	0.157	-0.046
-491.522	-130.471	0.041	-0.006
-490.508	-82.653	0.452	0.146
-489.493	-52.135	0.045	-0.021
-488.478	-200.000	-0.008	-0.159
-487.464	-200.000	0.247	0.000
-486.449	156.240	-0.059	0.082
-485.435	113.555	0.169	-0.205
-484.420	-76.194	0.582	-0.205
-483.405	366.937	-0.118	0.238
-482.391	308.841	-0.118	0.219
-481.376	65.709	0.301	-0.304
-480.362	-71.121	0.255	-0.096
-479.347	-127.249	-0.181	-0.026
-478.332	-200.000	0.055	-0.342
-477.318	133.954	0.053	0.069
-476.303	-88.967	-0.045	-0.013
-475.289	-143.135	0.160	-0.015
-474.274	-200.000	0.026	0.138
-473.259	554.361	0.059	0.142
-472.245	-200.000	-0.007	-0.165
-471.230	390.875	0.069	-0.144
-470.216	800.000	-0.037	-0.104
-469.201	134.654	0.145	-0.187
-468.186	800.000	-0.011	-0.047
-467.172	-200.000	-0.006	0.154
-466.157	16.667	-0.203	-0.160
-465.143	800.000	0.092	-0.380
-464.128	8.036	0.198	0.148
-463.113	-200.000	-0.004	-0.102
-462.099	800.000	0.022	0.080
-461.084	-200.000	-0.031	0.143
-460.070	-7.368	-0.199	0.135
-459.055	-20.148	-0.090	0.055
-458.040	55.340	-0.111	-0.107
-457.026	-148.892	-0.065	0.005
-456.011	-9.904	-0.242	0.160
-454.997	-174.723	-0.083	-0.002
-453.982	177.145	-0.080	0.116
-452.968	-80.895	-0.279	-0.092
-451.953	23.229	0.226	-0.185
-450.938	65.592	0.103	-0.104
-449.924	800.000	-0.017	-0.065
-448.909	-55.731	0.235	-0.105
-447.895	-32.918	-0.163	0.090
-446.880	-133.383	-0.236	-0.030
-445.865	25.466	-0.441	-0.366
-444.851	800.000	-0.038	0.163
-443.836	-45.304	0.165	-0.081
-442.822	48.605	0.200	0.187
-441.807	-56.503	-0.401	0.177
-440.792	24.267	0.470	0.388
-439.778	-121.424	-0.160	-0.027
-438.763	-112.489	0.611	0.122
-437.749	38.222	0.188	0.167
-436.734	194.236	0.140	-0.212
-435.719	73.385	0.135	-0.141
-434.705	597.835	0.035	0.087
-433.690	-126.486	-0.266	0.039
-432.676	800.000	-0.104	0.301
-431.661	-66.137	0.215	-0.086
-430.646	385.662	0.074	0.151
-429.632	15.450	-0.126	0.099
-428.617	-112.087	-0.149	0.030
-427.603	-71.943	0.161	0.060
-426.588	-35.955	-0.226	-0.122
-425.573	-95.239	0.170	0.046
-424.559	-85.346	0.086	0.027
-423.544	191.006	0.130	-0.195
-422.530	-104.518	-0.126	0.029
-421.515	22.265	0.250	0.204
-420.500	218.148	-0.044	-0.070
-419.486	129.954	-0.068	-0.086
-418.471	644.075	0.127	0.324
-417.457	-144.332	0.341	0.032
-416.442	0.150	-0.069	0.049
-415.428	161.414	-0.037	-0.051
-414.413	515.456	-0.197	-0.459
-413.398	-61.632	-0.125	0.052
-412.384	-200.000	-0.043	-0.194
-411.369	53.240	0.209	0.200
-410.355	-79.622	-0.283	-0.095
-409.340	233.908	0.204	-0.334
-408.325	30.274	-0.059	-0.050
-407.311	-72.737	0.072	0.026
-406.296	-200.000	-0.060	0.348
-405.282	-178.347	-0.043	-0.001
-404.267	102.964	-0.129	-0.150
-403.252	165.965	0.091	-0.128
-402.238	-15.155	-0.151	0.096
-401.223	166.058	0.044	-0.062
-400.209	-200.000	0.025	-0.233
-399.194	-131.329	-0.117	-0.015
-398.179	177.391	0.270	0.392
-397.165	-141.566	-0.214	-0.021
-396.150	-7.271	-0.057	-0.039
-395.136	-200.000	0.043	0.230
-394.121	-46.996	-0.307	-0.150
-393.106	-200.000	0.069	-0.342
-392.092	523.638	0.107	0.250
-391.077	-104.570	-0.220	-0.051
-390.063	-95.970	-0.324	-0.086
-389.048	-122.827	0.207	0.033
-388.033	61.915	0.349	0.346
-387.019	59.814	-0.096	0.095
-386.004	118.791	-0.282	0.346
-384.990	356.610	0.185	-0.367
-383.975	67.072	0.050	0.051
-382.960	800.000	0.088	0.261
-381.946	-200.000	-0.018	-0.138
-380.931	10.498	0.086	0.066
-379.917	-103.559	-0.214	0.050
-378.902	-33.433	-0.216	-0.119
-377.888	-105.808	0.155	-0.035
-376.873	-200.000	-0.001	0.202
-375.858	12.250	-0.123	-0.095
-374.844	608.946	-0.033	-0.082
-373.829	800.000	-0.085	-0.291
-372.815	139.848	0.207	0.271
-371.800	170.065	-0.053	-0.075
-370.785	-69.720	0.013	-0.005
-369.771	-200.000	0.094	0.544
-368.756	-200.000	-0.018	0.217
-367.742	280.193	-0.062	0.111
-366.727	-180.022	0.160	-0.003
-365.712	-181.789	-0.317	-0.006
-364.698	117.923	0.125	0.153
-363.683	608.576	0.096	0.239
-362.669	-45.627	-0.094	0.046
-361.654	-29.416	0.235	-0.133
-360.639	-200.000	0.006	0.074
-359.625	-200.000	0.008	0.188
-358.610	-71.062	0.241	0.090
-357.596	-200.000	0.003	-0.098
-356.581	-172.474	-0.281	-0.009
-355.566	-113.780	-0.449	-0.087
-354.552	-146.776	0.242	0.021
-353.537	52.151	0.054	0.051
-352.523	279.436	-0.113	-0.200
-351.508	693.185	-0.144	0.377
-350.493	-176.030	-0.131	0.003
-349.479	-54.162	0.201	0.091
-348.464	800.000	-0.111	0.347
-347.450	-4.403	0.119	-0.081
-346.435	77.714	-0.062	-0.065
-345.420	418.578	-0.082	0.175
-344.406	-200.000	0.008	-0.371
-343.391	-200.000	0.018	-0.267
-342.377	311.572	-0.101	0.188
-341.362	-107.116	0.162	-0.036
-340.348	92.263	-0.058	-0.064
-339.333	193.921	-0.188	0.283
-338.318	-200.000	-0.014	-0.436
-337.304	-35.697	-0.149	-0.080
-336.289	101.545	0.293	-0.339
-335.275	-200.000	-0.044	-0.208
-334.260	-62.689	0.058	0.024
-333.245	43.056	-0.077	0.070
-332.231	161.238	0.128	-0.178
-331.216	-131.802	-0.219	0.029
-330.202	-54.235	0.066	0.030
-329.187	371.458	-0.178	-0.359
-328.172	-96.428	-0.326	-0.086
-327.158	-114.137	-0.154	-0.030
-326.143	147.472	-0.231	-0.308
-325.129	252.611	-0.112	-0.190
-324.114	-200.000	0.468	0.002
-323.099	-93.463	-0.218	0.060
-322.085	287.112	-0.194	0.349
-321.070	250.311	0.128	0.216
-320.056	800.000	-0.112	0.352
-319.041	425.827	0.089	-0.189
-318.026	2.565	0.307	0.221
-317.012	315.324	-0.212	0.397
-315.997	-200.000	-0.015	0.175
-314.983	-12.249	-0.149	0.097
-313.968	175.066	-0.247	-0.355
-312.953	-118.775	-0.358	-0.063
-311.939	-126.079	-0.200	-0.030
-310.924	-69.831	-0.179	-0.068
-309.910	800.000	0.070	0.242
-308.895	-16.914	-0.103	-0.065
-307.880	-200.000	0.070	-0.316
-306.866	-32.005	-0.398	0.221
-305.851	-28.827	0.118	0.068
-304.837	-99.373	-0.217	0.054
-303.822	305.450	-0.038	0.071
-302.807	-121.928	0.324	-0.053
-301.793	800.000	-0.135	0.397
-300.778	137.394	0.100	-0.130
-299.764	207.280	-0.246	0.380
-298.749	-81.038	-0.154	0.051
-297.735	-123.945	-0.109	-0.017
-296.720	148.747	0.173	-0.232
-295.705	800.000	-0.040	0.133
-294.691	-200.000	0.066	-0.346
-293.676	68.610	-0.125	0.128
-292.662	90.842	0.239	-0.266
-291.647	-86.325	0.156	-0.048
-290.632	-63.153	-0.080	0.033
-289.618	5.098	0.048	0.035
-288.603	1.039	-0.311	0.221
-287.589	87.886	0.219	0.240
-286.574	161.727	0.204	-0.283
-285.559	-105.333	-0.358	0.081
-284.545	77.241	0.097	-0.102
-283.530	-134.479	0.262	-0.032
-282.516	-166.592	-0.253	0.010
-281.501	130.192	-0.058	0.073
-280.486	-75.467	0.177	0.062
-279.472	24.825	0.071	0.059
-278.457	357.495	0.201	-0.398
-277.443	120.432	0.069	-0.085
-276.428	-116.887	0.196	0.036
-275.413	-200.000	0.008	-0.209
-274.399	183.411	-0.229	-0.336
-273.384	-200.000	0.011	0.121
-272.370	-67.761	0.135	-0.053
-271.355	-96.921	0.194	-0.050
-270.340	130.392	0.245	0.311
-269.326	106.891	0.251	0.296
-268.311	-100.158	0.125	0.031
-267.297	240.963	0.151	0.250
-266.282	-200.000	0.022	0.343
-265.267	6.006	-0.261	0.191
-264.253	-105.550	-0.330	0.074
-263.238	-37.222	0.153	-0.081
-262.224	168.415	0.110	-0.155
-261.209	212.707	0.072	0.112
-260.195	90.575	0.081	0.090
-259.180	45.018	-0.107	0.098
-258.165	-100.337	0.134	-0.033
-257.151	-7.230	0.188	0.127
-256.136	-200.000	0.008	0.310
-255.122	44.993	-0.265	-0.242
-254.107	-117.617	-0.237	0.042
-253.092	-83.662	-0.231	-0.073
-252.078	14.642	-0.031	-0.024
-251.063	-49.833	-0.306	-0.144
-250.049	-25.205	0.379	0.222
-249.034	-200.000	0.043	0.368
-248.019	-92.424	-0.209	-0.058
-247.005	-200.000	0.006	-0.088
-245.990	143.405	0.197	0.260
-244.976	800.000	0.033	-0.125
-243.961	-200.000	0.096	0.455
-242.946	-57.660	0.249	0.108
-241.932	-35.763	-0.238	-0.128
-240.917	37.965	0.139	-0.122
-239.903	-68.006	-0.321	0.124
-238.888	752.691	0.069	0.185
-237.873	304.781	-0.053	0.097
-236.859	167.400	0.070	0.099
-235.844	800.000	-0.056	0.242
-234.830	17.646	-0.080	-0.063
-233.815	-200.000	0.035	-0.280
-232.800	131.202	0.070	0.089
-231.786	255.349	0.080	0.136
-230.771	83.522	0.223	0.241
-229.757	-16.253	-0.130	0.082
-228.742	-13.473	0.043	0.028
-227.727	716.526	0.137	-0.360
-226.713	-87.083	-0.145	-0.044
-225.698	-200.000	0.045	-0.370
-224.684	-110.629	-0.338	0.069
-223.669	-8.542	0.276	-0.184
-222.655	-100.946	-0.033	0.008
-221.640	-47.105	0.273	-0.132
-220.625	-36.209	0.238	-0.127
-219.611	800.000	0.116	-0.421
-218.596	-200.000	-0.003	-0.336
-217.582	-74.862	0.356	-0.126
-216.567	109.466	-0.147	-0.174
-215.552	-118.461	-0.209	0.037
-214.538	-200.000	-0.006	-0.178
-213.523	-43.091	-0.213	-0.107
-212.509	182.081	-0.047	-0.068
-211.494	-200.000	-0.005	-0.226
-210.479	-23.685	-0.239	0.141
-209.465	-100.444	-0.383	-0.094
-208.450	631.651	0.113	0.283
-207.436	-93.987	0.146	0.040
-206.421	-73.269	0.167	-0.061
-205.406	-112.153	-0.351	0.070
-204.392	-149.608	0.308	-0.024
-203.377	-107.639	0.144	0.031
-202.363	402.231	-0.046	-0.096
-201.348	67.130	-0.048	0.048
-200.333	-74.324	-0.239	0.085
-199.319	639.183	0.059	-0.148
-198.304	160.300	-0.176	-0.242
-197.290	8.353	0.164	-0.122
-196.275	800.000	0.016	0.044
-195.260	800.000	-0.056	0.194
-194.246	644.675	0.107	0.271
-193.231	-200.000	-0.027	0.439
-192.217	800.000	0.056	0.156
-191.202	-110.242	0.343	0.071
-190.187	800.000	0.023	-0.070
-189.173	-13.037	0.088	0.057
-188.158	-82.852	0.136	0.043
-187.144	800.000	-0.005	0.015
-186.129	22.540	0.207	-0.167
-185.114	-32.111	0.408	0.225
-184.100	104.778	0.223	0.260
-183.085	-30.101	-0.237	0.133
-182.071	800.000	-0.101	0.336
-181.056	-63.724	0.242	-0.098
-180.042	-200.000	-0.036	0.203
-179.027	-64.156	0.080	0.032
-178.012	720.610	-0.044	-0.116
-176.998	800.000	-0.073	-0.218
-175.983	-54.003	-0.079	-0.036
-174.969	-73.621	0.170	-0.061
-173.954	-6.660	0.426	-0.287
-172.939	65.937	0.156	-0.156
-171.925	103.153	-0.085	-0.099
-170.910	-145.617	0.233	-0.021
-169.896	-20.064	0.154	-0.094
-168.881	453.461	0.075	-0.163
-167.866	62.957	0.076	-0.075
-166.852	800.000	0.054	-0.148
-165.837	13.609	0.251	0.192
-164.823	800.000	-0.051	-0.175
-163.808	-137.815	-0.153	0.017
-162.793	-200.000	-0.052	-0.373
-161.779	-34.574	-0.218	-0.118
-160.764	330.169	-0.085	0.162
-159.750	-119.869	-0.166	0.028
-158.735	-140.948	0.093	-0.009
-157.720	184.060	-0.267	0.390
-156.706	-24.759	0.162	0.095
-155.691	98.124	0.070	0.080
-154.677	276.938	0.081	-0.142
-153.662	80.508	0.158	-0.168
-152.647	418.162	0.072	0.151
-151.633	458.516	0.058	-0.128
-150.618	639.290	0.041	-0.102
-149.604	32.803	0.155	0.132
-148.589	49.706	-0.231	0.214
-147.574	-107.409	-0.175	-0.038
-146.560	-200.000	-0.050	0.396
-145.545	502.523	-0.092	0.210
-144.531	56.771	0.158	0.152
-143.516	492.126	-0.113	0.255
-142.502	215.042	0.086	0.134
-141.487	-85.871	0.345	-0.105
-140.472	800.000	0.082	0.237
-139.458	142.107	-0.120	0.157
-138.443	-35.464	0.298	-0.160
-137.429	-174.096	0.091	-0.003
-136.414	-200.000	-0.009	-0.050
-135.399	-33.135	0.191	-0.104
-134.385	-58.977	-0.228	-0.097
-133.370	-175.763	-0.108	0.003
-132.356	-82.604	0.213	0.068
-131.341	9.929	-0.042	-0.031
-130.326	-123.147	0.260	-0.041
-129.312	-200.000	-0.001	-0.005
-128.297	-180.056	-0.162	-0.003
-127.283	60.767	-0.062	-0.061
-126.268	800.000	-0.015	0.063
-125.253	32.760	0.233	0.198
-124.239	58.614	0.078	0.076
-123.224	800.000	-0.045	0.140
-122.210	-1.471	0.225	0.156
-121.195	-125.400	-0.222	-0.033
