DTS Sentinel unit serial number:	SN413079Multiplexer serial number:	ORYXHardware model number:	OX4-SRSoftware version number:	ORYX F/W v4.00 Oryx Data Collector v3.7.2.0data status	okinstallation	princeton_trtdifferential loss correction	single-endedforward channel	channel 1reverse channel	N/Adate	2019/09/18time	21:22:35forward acquisition time	60.00reverse acquisition time	0.00gamma	496.2192k internal	0.2341k external	0.2341temperature offset calibration	1.0023default loss term (dB/km)	0.3790temperature slope calibration	1.0000multiplexer offset coefficient	1.0000multiplexer slope coefficient	1.0000fibre end	0.00T internal ref (°C)	25.56T ext. ref 1 (°C)	0.83T ext. ref 2 (°C)	18.17length (m)	temperature (°C)	Stokes	anti-Stokes-747.200	-132.896	0.285	-0.036
-746.185	-42.947	0.111	-0.057
-745.171	-34.070	-0.074	-0.041
-744.156	57.571	-0.062	0.061
-743.142	-200.000	0.011	-0.137
-742.127	1.642	0.047	-0.034
-741.112	-3.096	0.206	0.144
-740.098	-32.362	-0.517	0.289
-739.083	-200.000	-0.013	-0.093
-738.069	-113.956	-0.112	0.022
-737.054	-135.230	-0.089	0.011
-736.039	-144.706	-0.240	-0.022
-735.025	-94.354	0.387	0.106
-734.010	48.693	-0.183	-0.172
-732.996	800.000	0.069	-0.199
-731.981	-153.975	-0.201	-0.014
-730.966	800.000	0.048	0.155
-729.952	-113.444	0.128	-0.025
-728.937	57.791	-0.309	-0.302
-727.923	800.000	0.100	-0.397
-726.908	-91.596	-0.053	0.015
-725.894	113.427	-0.162	-0.197
-724.879	-200.000	0.022	-0.104
-723.864	-112.388	-0.092	0.018
-722.850	73.633	0.131	-0.138
-721.835	-94.024	-0.154	0.042
-720.821	800.000	0.058	-0.209
-719.806	78.423	-0.063	0.067
-718.791	38.456	-0.054	0.048
-717.777	19.600	0.192	0.155
-716.762	-200.000	-0.074	0.377
-715.748	800.000	-0.155	0.523
-714.733	800.000	-0.090	-0.340
-713.718	-153.312	0.224	-0.016
-712.704	-33.322	-0.160	0.089
-711.689	-200.000	-0.033	0.197
-710.675	31.015	0.245	0.210
-709.660	-200.000	-0.008	-0.173
-708.645	192.124	-0.044	-0.066
-707.631	-200.000	-0.004	0.143
-706.616	688.903	0.081	0.213
-705.602	-23.815	0.164	-0.099
-704.587	121.059	0.194	-0.241
-703.572	34.645	0.051	0.044
-702.558	48.183	0.078	0.073
-701.543	-82.444	0.286	-0.093
-700.529	-200.000	-0.039	-0.408
-699.514	-69.681	0.331	0.127
-698.499	-71.674	-0.114	-0.042
-697.485	-140.869	-0.202	-0.021
-696.470	-200.000	0.008	0.091
-695.456	-3.975	0.212	-0.147
-694.441	66.127	-0.185	-0.188
-693.426	171.700	-0.053	0.076
-692.412	52.548	0.184	-0.175
-691.397	133.689	-0.141	0.183
-690.383	-33.115	0.088	-0.049
-689.368	47.411	-0.379	-0.353
-688.354	271.026	-0.139	-0.246
-687.339	-200.000	-0.008	-0.249
-686.324	35.777	-0.122	-0.107
-685.310	291.715	-0.174	0.316
-684.295	-200.000	-0.022	-0.224
-683.281	471.045	-0.066	0.148
-682.266	800.000	-0.041	-0.159
-681.251	582.446	-0.090	-0.222
-680.237	-77.738	0.343	-0.119
-679.222	-0.101	0.161	0.115
-678.208	137.432	0.236	0.308
-677.193	-165.995	-0.140	-0.006
-676.178	126.898	0.063	0.080
-675.164	-60.302	-0.211	-0.090
-674.149	-87.141	-0.253	0.077
-673.135	160.771	-0.107	-0.149
-672.120	7.797	0.107	-0.080
-671.105	46.881	-0.081	-0.075
-670.091	-23.600	0.040	0.024
-669.076	-200.000	-0.002	-0.039
-668.062	-200.000	-0.046	0.000
-667.047	-188.758	-0.226	0.003
-666.032	717.379	-0.121	-0.321
-665.018	493.732	-0.080	-0.184
-664.003	407.282	0.101	-0.213
-662.989	-38.687	0.152	-0.080
-661.974	-200.000	0.035	-0.237
-660.959	800.000	-0.103	-0.436
-659.945	767.241	0.036	0.099
-658.930	266.903	-0.150	-0.261
-657.916	-67.780	0.066	0.026
-656.901	800.000	0.076	0.221
-655.886	550.694	-0.111	0.265
-654.872	800.000	-0.032	-0.121
-653.857	800.000	0.082	-0.244
-652.843	242.542	-0.116	0.194
-651.828	27.574	0.136	-0.114
-650.814	100.178	0.142	-0.165
-649.799	-114.731	0.208	-0.040
-648.784	-86.074	0.126	0.039
-647.770	-200.000	-0.051	-0.335
-646.755	538.940	-0.096	0.229
-645.741	799.678	0.085	-0.233
-644.726	-50.731	0.219	-0.103
-643.711	-143.097	-0.171	0.016
-642.697	500.022	0.137	0.316
-641.682	-84.518	-0.243	-0.077
-640.668	-3.825	0.135	-0.094
-639.653	-200.000	-0.015	-0.287
-638.638	-115.997	-0.215	-0.040
-637.624	49.056	0.277	0.259
-636.609	-110.239	0.120	-0.025
-635.595	-123.459	-0.192	-0.031
-634.580	85.972	0.113	-0.124
-633.565	-81.912	0.086	0.028
-632.551	254.889	0.132	0.225
-631.536	-147.293	0.255	0.022
-630.522	-200.000	-0.032	-0.158
-629.507	275.696	0.149	-0.263
-628.492	-90.906	0.197	0.056
-627.478	-96.457	0.256	-0.067
-626.463	-39.663	0.383	-0.200
-625.449	-117.433	-0.259	-0.047
-624.434	421.070	-0.030	-0.064
-623.419	681.015	-0.052	0.135
-622.405	295.511	0.165	-0.302
-621.390	800.000	0.033	0.100
-620.376	-77.948	-0.157	0.054
-619.361	800.000	0.137	-0.580
-618.346	-200.000	-0.010	0.157
-617.332	346.802	-0.053	-0.103
-616.317	-48.281	0.140	-0.067
-615.303	-50.051	-0.008	-0.004
-614.288	-200.000	0.010	0.256
-613.273	-120.901	-0.239	0.040
-612.259	641.662	0.031	-0.077
-611.244	53.008	0.216	0.206
-610.230	417.794	-0.127	-0.272
-609.215	-200.000	0.010	0.165
-608.201	447.900	-0.104	-0.229
-607.186	-52.777	-0.186	0.085
-606.171	800.000	0.036	0.101
-605.157	373.516	-0.132	0.268
-604.142	-185.717	-0.182	-0.003
-603.128	-200.000	-0.063	0.400
-602.113	33.510	-0.166	0.144
-601.098	-200.000	0.034	0.245
-600.084	148.200	-0.107	0.144
-599.069	-133.825	-0.341	0.042
-598.055	634.754	-0.123	0.311
-597.040	800.000	-0.053	0.190
-596.025	-137.705	-0.097	-0.011
-595.011	100.662	0.075	0.087
-593.996	-200.000	0.129	-0.683
-592.982	-200.000	0.020	-0.241
-591.967	-200.000	-0.030	-0.351
-590.952	18.952	0.225	-0.180
-589.938	754.266	0.069	0.186
-588.923	-200.000	0.016	0.079
-587.909	-200.000	-0.008	0.067
-586.894	-113.793	0.103	-0.020
-585.879	800.000	0.013	0.046
-584.865	119.944	-0.066	-0.081
-583.850	-85.850	0.282	-0.087
-582.836	136.182	-0.106	-0.138
-581.821	-85.251	0.399	-0.124
-580.806	-36.176	0.257	0.138
-579.792	800.000	-0.062	0.227
-578.777	102.810	0.067	0.078
-577.763	480.665	0.112	-0.254
-576.748	54.852	-0.198	-0.190
-575.733	-65.995	-0.216	-0.086
-574.719	-200.000	0.025	-0.397
-573.704	221.313	0.104	-0.166
-572.690	103.567	0.175	-0.204
-571.675	-200.000	-0.017	-0.265
-570.661	128.199	0.231	0.293
-569.646	-200.000	-0.028	0.309
-568.631	232.770	0.067	0.109
-567.617	71.529	-0.195	-0.201
-566.602	-200.000	-0.008	-0.061
-565.588	11.312	0.147	-0.112
-564.573	-200.000	-0.009	0.337
-563.558	-108.623	-0.061	0.013
-562.544	-13.947	0.422	0.271
-561.529	-43.497	0.123	-0.062
-560.515	290.603	0.092	0.167
-559.500	130.603	-0.211	0.269
-558.485	-200.000	-0.019	0.168
-557.471	-121.317	-0.156	0.026
-556.456	-200.000	0.060	-0.329
-555.442	69.209	0.062	-0.064
-554.427	-136.425	-0.127	0.015
-553.412	-150.162	0.308	-0.024
-552.398	22.428	-0.399	-0.324
-551.383	165.935	-0.196	0.275
-550.369	244.519	0.171	0.285
-549.354	800.000	-0.064	-0.237
-548.339	235.244	-0.223	-0.366
-547.325	-200.000	0.048	-0.376
-546.310	34.553	0.134	0.117
-545.296	678.373	-0.156	-0.402
-544.281	-60.716	-0.140	0.059
-543.266	-58.261	0.223	0.097
-542.252	113.566	0.215	0.260
-541.237	800.000	-0.090	0.312
-540.223	158.003	-0.115	0.158
-539.208	-8.843	-0.113	0.075
-538.193	101.062	0.078	-0.090
-537.179	250.820	-0.062	0.104
-536.164	207.817	-0.126	-0.195
-535.150	-67.524	0.080	0.031
-534.135	800.000	0.147	-0.434
-533.121	-57.635	-0.197	0.086
-532.106	-101.266	0.452	0.110
-531.091	370.071	0.216	0.434
-530.077	287.512	0.054	-0.098
-529.062	800.000	-0.050	-0.203
-528.048	-94.133	0.074	-0.020
-527.033	800.000	-0.071	0.217
-526.018	-200.000	0.013	0.067
-525.004	-200.000	-0.014	-0.146
-523.989	78.017	0.053	-0.056
-522.975	-200.000	0.010	0.068
-521.960	-0.394	0.183	-0.129
-520.945	-200.000	-0.010	-0.161
-519.931	-15.680	0.227	-0.144
-518.916	-47.438	0.031	-0.015
-517.902	332.145	0.130	-0.249
-516.887	-49.644	-0.275	-0.130
-515.872	-115.498	-0.170	-0.032
-514.858	26.262	-0.118	-0.098
-513.843	85.788	-0.178	0.195
-512.829	-200.000	0.010	0.176
-511.814	-44.614	-0.117	-0.058
-510.799	800.000	-0.130	0.469
-509.785	189.869	-0.252	-0.375
-508.770	134.319	0.167	0.215
-507.756	199.553	0.132	0.201
-506.741	800.000	0.051	-0.214
-505.726	590.214	0.029	0.071
-504.712	-175.860	-0.181	-0.005
-503.697	-56.681	-0.113	-0.050
-502.683	800.000	0.052	0.192
-501.668	-200.000	0.008	0.128
-500.653	-137.021	0.203	-0.023
-499.639	-80.571	0.413	-0.137
-498.624	495.897	0.120	-0.274
-497.610	-200.000	-0.025	-0.124
-496.595	26.409	0.195	-0.162
-495.581	-200.000	-0.009	0.062
-494.566	-200.000	0.000	0.002
-493.551	61.144	-0.154	-0.152
-492.537	800.000	-0.062	-0.203
-491.522	-93.503	0.356	-0.098
-490.508	29.591	0.235	-0.199
-489.493	41.290	-0.130	0.117
-488.478	22.432	0.189	0.154
-487.464	-200.000	-0.063	-0.279
-486.449	-26.460	0.251	0.146
-485.435	-114.531	0.112	-0.021
-484.420	-16.613	-0.350	-0.220
-483.405	-78.321	0.192	-0.065
-482.391	9.372	-0.456	-0.342
-481.376	-75.021	-0.120	-0.043
-480.362	49.854	-0.100	0.093
-479.347	320.359	0.156	-0.294
-478.332	216.693	0.142	-0.225
-477.318	72.542	-0.072	0.075
-476.303	-174.703	-0.257	0.007
-475.289	9.927	0.175	0.131
-474.274	800.000	-0.063	-0.218
-473.259	-200.000	0.022	0.238
-472.245	374.532	0.255	0.516
-471.230	-61.103	0.169	0.071
-470.216	-147.297	-0.377	-0.032
-469.201	325.760	0.126	-0.239
-468.186	-188.245	0.122	-0.002
-467.172	88.877	-0.121	-0.133
-466.157	-145.941	-0.068	-0.006
-465.143	81.911	0.079	-0.085
-464.128	-200.000	-0.188	-0.001
-463.113	-33.464	-0.026	-0.014
-462.099	-176.047	0.376	-0.010
-461.084	-200.000	0.019	-0.138
-460.070	-200.000	0.073	-0.389
-459.055	-175.289	-0.125	0.003
-458.040	411.503	0.077	-0.163
-457.026	-144.055	0.191	0.018
-456.011	0.152	-0.175	-0.124
-454.997	17.661	-0.111	0.087
-453.982	180.495	0.191	-0.278
-452.968	-200.000	-0.043	-0.300
-451.953	-64.447	-0.072	0.029
-450.938	-200.000	-0.015	0.152
-449.924	74.600	0.133	-0.139
-448.909	800.000	0.021	-0.089
-447.895	122.450	-0.097	0.120
-446.880	702.984	-0.033	0.085
-445.865	109.338	-0.174	0.207
-444.851	-42.995	-0.208	-0.104
-443.836	237.905	0.153	0.251
-442.822	-149.190	-0.079	-0.006
-441.807	-78.306	0.242	0.082
-440.792	-69.779	0.181	-0.069
-439.778	430.610	0.079	0.169
-438.763	148.687	0.099	0.133
-437.749	152.700	0.031	0.041
-436.734	800.000	0.081	-0.250
-435.719	18.670	0.158	0.125
-434.705	-164.824	-0.344	-0.015
-433.690	-3.839	0.088	-0.061
-432.676	800.000	0.021	-0.059
-431.661	-200.000	0.035	-0.324
-430.646	-173.779	0.211	0.006
-429.632	41.120	-0.188	-0.168
-428.617	16.996	-0.070	0.055
-427.603	-200.000	0.025	-0.200
-426.588	622.259	0.121	-0.303
-425.573	-200.000	0.031	-0.240
-424.559	-16.246	0.209	-0.131
-423.544	154.259	-0.150	-0.204
-422.530	-200.000	0.001	0.025
-421.515	-87.158	0.344	-0.103
-420.500	-90.035	0.106	-0.031
-419.486	-119.207	0.282	0.049
-418.471	-71.361	0.104	0.039
-417.457	800.000	-0.138	0.388
-416.442	-103.259	-0.412	-0.096
-415.428	326.193	-0.129	-0.245
-414.413	-7.538	0.166	-0.111
-413.398	-176.778	0.144	-0.004
-412.384	476.488	-0.080	-0.180
-411.369	183.249	-0.126	0.183
-410.355	-18.705	-0.315	-0.194
-409.340	-86.697	0.051	0.016
-408.325	-53.596	0.254	-0.115
-407.311	-10.030	0.172	-0.113
-406.296	686.285	0.107	-0.276
-405.282	800.000	-0.056	0.181
-404.267	-16.978	-0.180	0.113
-403.252	47.309	-0.141	-0.130
-402.238	162.065	0.140	0.194
-401.223	-93.124	0.137	0.038
-400.209	-16.593	0.249	0.156
-399.194	718.080	0.132	0.346
-398.179	-196.140	-0.321	0.002
-397.165	-112.327	0.154	0.031
-396.150	261.931	-0.150	0.258
-395.136	-200.000	-0.013	-0.257
-394.121	800.000	0.062	0.246
-393.106	-93.444	0.053	0.014
-392.092	-137.810	-0.303	0.034
-391.077	-127.930	0.062	-0.009
-390.063	-82.649	0.146	0.047
-389.048	-107.682	-0.206	0.044
-388.033	-31.933	-0.317	0.175
-387.019	69.653	-0.408	-0.415
-386.004	255.638	0.103	0.174
-384.990	-200.000	0.007	-0.289
-383.975	-65.904	-0.237	-0.093
-382.960	174.223	0.145	0.207
-381.946	-42.595	-0.378	-0.190
-380.931	54.460	0.167	0.159
-379.917	-129.553	0.301	-0.041
-378.902	-200.000	0.011	-0.321
-377.888	-134.167	0.079	0.010
-376.873	-200.000	-0.023	0.103
-375.858	-156.437	0.089	0.005
-374.844	800.000	0.021	0.068
-373.829	-200.000	-0.018	-0.119
-372.815	-128.896	0.214	-0.030
-371.800	350.958	0.082	-0.161
-370.785	-89.843	0.167	0.048
-369.771	221.065	0.144	0.228
-368.756	-76.483	0.221	0.077
-367.742	-200.000	0.041	0.456
-366.727	535.456	-0.127	0.296
-365.712	435.559	-0.094	0.201
-364.698	-200.000	-0.003	0.105
-363.683	-200.000	-0.006	-0.082
-362.669	-200.000	-0.049	0.262
-361.654	-81.299	-0.126	0.041
-360.639	-200.000	-0.017	0.152
-359.625	-41.060	-0.060	-0.030
-358.610	800.000	-0.009	-0.032
-357.596	-137.718	-0.068	0.008
-356.581	-74.799	-0.373	-0.132
-355.566	83.423	0.205	0.220
-354.552	491.503	0.079	-0.178
-353.537	108.110	0.172	-0.203
-352.523	133.359	-0.207	-0.264
-351.508	404.892	0.075	0.156
-350.493	800.000	-0.095	0.360
-349.479	19.295	-0.165	0.131
-348.464	-102.664	-0.283	0.067
-347.450	-104.563	-0.064	0.015
-346.435	-88.111	-0.212	-0.063
-345.420	119.673	-0.316	-0.386
-344.406	-200.000	-0.002	0.136
-343.391	-72.868	-0.171	-0.062
-342.377	-200.000	-0.068	0.324
-341.362	-75.591	-0.140	-0.049
-340.348	-197.115	0.062	0.000
-339.333	-45.364	0.250	0.122
-338.318	20.349	0.258	-0.206
-337.304	-200.000	-0.034	0.183
-336.289	-87.899	0.124	0.037
-335.275	65.621	0.083	-0.083
-334.260	362.488	-0.255	-0.505
-333.245	800.000	0.053	0.206
-332.231	62.052	0.195	0.191
-331.216	800.000	0.073	0.308
-330.202	259.945	0.128	0.218
-329.187	-8.637	-0.291	-0.193
-328.172	-114.179	-0.262	0.050
-327.158	53.175	-0.112	-0.106
-326.143	-200.000	-0.056	-0.243
-325.129	-200.000	0.025	-0.161
-324.114	-129.584	-0.073	-0.010
-323.099	547.431	0.050	0.118
-322.085	-59.239	0.172	-0.073
-321.070	-200.000	0.071	0.392
-320.056	-200.000	0.026	0.193
-319.041	11.923	-0.208	0.158
-318.026	28.032	0.144	0.120
-317.012	-119.181	-0.300	0.052
-315.997	-21.591	0.080	-0.048
-314.983	34.919	0.247	0.213
-313.968	-145.637	-0.236	-0.021
-312.953	-198.734	0.273	-0.001
-311.939	-200.000	-0.002	0.033
-310.924	-83.862	-0.164	0.051
-309.910	-200.000	-0.036	0.236
-308.895	-132.279	0.128	-0.016
-307.880	346.444	-0.025	-0.048
-306.866	-200.000	-0.044	-0.226
-305.851	172.919	0.123	-0.175
-304.837	57.873	0.078	0.075
-303.822	45.152	0.198	0.180
-302.807	-200.000	-0.000	0.630
-301.793	654.325	0.097	0.245
-300.778	-109.056	0.233	0.049
-299.764	24.818	0.232	-0.189
-298.749	-138.455	-0.159	0.017
-297.735	800.000	-0.029	0.094
-296.720	27.335	-0.058	0.048
-295.705	52.645	0.135	0.127
-294.691	315.908	-0.075	0.139
-293.676	-200.000	0.027	-0.200
-292.662	-66.698	-0.183	-0.072
-291.647	152.970	-0.118	-0.159
-290.632	-78.899	-0.353	-0.118
-289.618	-29.643	-0.325	0.183
-288.603	207.799	0.213	-0.327
-287.589	-111.253	-0.181	-0.036
-286.574	-115.222	0.260	0.048
-285.559	-131.928	0.033	-0.004
-284.545	800.000	-0.043	-0.171
-283.530	-200.000	-0.047	-0.213
-282.516	-92.674	0.169	-0.047
-281.501	238.394	-0.021	-0.034
-280.486	-149.824	0.327	0.025
-279.472	-200.000	-0.075	0.409
-278.457	-141.690	-0.087	-0.009
-277.443	800.000	-0.125	-0.442
-276.428	-200.000	-0.016	-0.184
-275.413	167.330	0.089	0.124
-274.399	-8.600	0.286	0.189
-273.384	-200.000	-0.041	0.431
-272.370	-69.429	0.421	-0.159
-271.355	-30.426	-0.144	-0.080
-270.340	68.996	0.195	0.197
-269.326	53.931	-0.203	0.192
-268.311	149.658	0.230	0.306
-267.297	800.000	0.106	0.335
-266.282	152.910	-0.277	0.373
-265.267	-18.206	-0.271	0.167
-264.253	192.627	-0.157	0.234
-263.238	-122.058	0.327	0.053
-262.224	142.980	-0.227	0.297
-261.209	800.000	-0.134	-0.488
-260.195	14.070	-0.298	-0.228
-259.180	-105.532	-0.272	-0.061
-258.165	233.221	0.126	-0.204
-257.151	-75.195	-0.129	-0.045
-256.136	776.371	-0.043	0.116
-255.122	-200.000	0.010	0.081
-254.107	-123.128	0.223	-0.035
-253.092	-9.527	-0.179	-0.118
-252.078	-16.871	0.028	0.017
-251.063	-11.635	-0.108	0.070
-250.049	-109.275	0.292	0.061
-249.034	-40.747	-0.351	-0.179
-248.019	0.250	-0.298	0.209
-247.005	-73.185	0.082	0.029
-245.990	-51.070	-0.117	0.054
-244.976	110.673	0.080	-0.094
-243.961	-57.390	-0.124	0.054
-242.946	-159.651	-0.032	0.002
-241.932	-200.000	-0.080	0.344
-240.917	-123.809	-0.214	-0.033
-239.903	800.000	-0.034	-0.118
-238.888	800.000	0.058	-0.169
-237.873	506.921	-0.048	-0.110
-236.859	-200.000	-0.097	0.418
-235.844	5.887	-0.327	0.238
-234.830	-200.000	0.021	0.163
-233.815	-89.840	0.361	-0.104
-232.800	-200.000	-0.011	-0.214
-231.786	269.848	-0.115	-0.198
-230.771	-200.000	-0.009	0.307
-229.757	-89.172	0.200	0.058
-228.742	-106.400	-0.232	-0.051
-227.727	-85.421	-0.177	0.054
-226.713	320.032	-0.032	-0.060
-225.698	800.000	-0.079	-0.234
-224.684	599.316	0.124	0.301
-223.669	65.739	-0.238	-0.237
-222.655	-40.382	0.148	0.075
-221.640	-24.588	-0.421	-0.246
-220.625	273.855	0.039	0.068
-219.611	-200.000	0.000	0.250
-218.596	517.443	-0.035	0.080
-217.582	800.000	-0.018	-0.065
-216.567	-32.182	0.046	-0.025
-215.552	264.933	-0.016	-0.027
-214.538	-200.000	-0.003	0.301
-213.523	800.000	-0.023	0.098
-212.509	190.156	-0.164	-0.241
-211.494	497.882	-0.136	0.307
-210.479	-190.125	-0.114	-0.001
-209.465	177.866	0.051	-0.073
-208.450	-52.882	-0.012	0.006
-207.436	37.939	-0.359	0.314
-206.421	187.648	-0.129	0.190
-205.406	16.349	0.393	0.305
-204.392	-68.835	0.043	0.016
-203.377	159.803	-0.092	0.126
-202.363	-200.000	0.009	-0.123
-201.348	-26.754	0.134	-0.077
-200.333	132.368	-0.088	0.111
-199.319	-200.000	-0.001	0.360
-198.304	-200.000	-0.008	-0.263
-197.290	787.428	-0.118	-0.318
-196.275	-168.265	0.127	-0.005
-195.260	34.207	-0.205	-0.175
-194.246	800.000	-0.008	0.026
-193.231	-28.590	-0.048	0.027
-192.217	800.000	0.052	0.148
-191.202	-200.000	-0.002	0.270
-190.187	45.659	0.239	-0.217
-189.173	-122.873	-0.017	0.003
-188.158	-67.217	0.210	-0.081
-187.144	-88.122	-0.406	-0.119
-186.129	-174.992	-0.551	0.015
-185.114	-33.180	0.158	0.086
-184.100	-58.831	-0.250	0.106
-183.085	32.109	-0.068	0.058
-182.071	-158.636	0.277	-0.016
-181.056	112.958	0.192	-0.228
-180.042	-150.604	-0.094	0.007
-179.027	97.894	0.095	0.108
-178.012	-200.000	-0.053	0.261
-176.998	94.239	0.094	0.104
-175.983	102.642	0.195	-0.223
-174.969	800.000	-0.054	-0.203
-173.954	-128.634	0.189	-0.026
-172.939	-200.000	0.065	-0.399
-171.925	112.466	0.230	0.273
-170.910	313.119	-0.056	0.103
-169.896	-69.038	-0.220	0.083
-168.881	-70.768	-0.229	0.085
-167.866	105.763	0.186	0.215
-166.852	800.000	0.038	-0.122
-165.837	-62.742	-0.254	-0.103
-164.823	-87.149	-0.475	-0.141
-163.808	39.853	-0.100	-0.088
-162.793	-166.516	0.032	0.001
-161.779	-2.027	-0.156	0.107
-160.764	-200.000	0.008	0.036
-159.750	800.000	0.049	0.193
-158.735	46.860	-0.065	0.059
-157.720	0.498	0.377	-0.264
-156.706	-173.401	0.421	-0.012
-155.691	-50.389	0.272	0.126
-154.677	50.458	-0.124	-0.115
-153.662	800.000	0.077	0.280
-152.647	-200.000	-0.045	-0.337
-151.633	-200.000	-0.056	-0.308
-150.618	1.660	-0.108	0.076
-149.604	192.153	-0.049	-0.072
-148.589	-153.601	0.358	0.024
-147.574	-157.807	0.160	0.009
-146.560	48.402	-0.153	-0.140
-145.545	21.286	-0.203	0.161
-144.531	-158.430	0.447	-0.025
-143.516	-114.708	0.282	-0.053
-142.502	33.932	0.116	-0.099
-141.487	595.485	0.101	0.245
-140.472	102.864	-0.182	0.208
-139.458	-20.808	0.327	-0.196
-138.443	-144.198	-0.205	-0.019
-137.429	-32.233	0.166	0.091
-136.414	-200.000	0.054	-0.502
-135.399	-131.187	0.108	0.014
-134.385	-59.851	0.224	0.094
-133.370	404.660	-0.204	-0.420
-132.356	70.971	0.079	-0.080
-131.341	800.000	-0.093	-0.271
-130.326	184.412	-0.182	-0.264
-129.312	-163.917	0.118	-0.005
-128.297	-77.742	0.221	0.075
-127.283	-109.395	0.390	0.081
-126.268	50.330	-0.220	0.204
-125.253	800.000	0.072	-0.265
-124.239	800.000	-0.043	0.165
-123.224	-12.363	0.215	0.137
-122.210	-99.167	0.213	0.053
