DTS Sentinel unit serial number:	SN413079Multiplexer serial number:	ORYXHardware model number:	OX4-SRSoftware version number:	ORYX F/W v4.00 Oryx Data Collector v3.7.2.0data status	okinstallation	princeton_trtdifferential loss correction	single-endedforward channel	channel 1reverse channel	N/Adate	2019/09/15time	04:50:35forward acquisition time	60.00reverse acquisition time	0.00gamma	496.2192k internal	0.2324k external	0.2324temperature offset calibration	0.9999default loss term (dB/km)	0.3790temperature slope calibration	1.0000multiplexer offset coefficient	1.0000multiplexer slope coefficient	1.0000fibre end	0.00T internal ref (°C)	30.75T ext. ref 1 (°C)	4.79T ext. ref 2 (°C)	25.25length (m)	temperature (°C)	Stokes	anti-Stokes-747.200	-200.000	0.032	0.241
-746.185	-1.547	-0.124	0.088
-745.171	-103.926	0.623	-0.147
-744.156	-167.190	-0.361	-0.015
-743.142	-107.646	0.331	-0.073
-742.127	-50.094	0.317	0.152
-741.112	800.000	-0.023	0.087
-740.098	-167.651	-0.220	0.009
-739.083	-200.000	-0.000	0.068
-738.069	203.211	-0.073	0.114
-737.054	800.000	-0.046	0.141
-736.039	-98.365	-0.190	-0.049
-735.025	213.312	0.098	-0.157
-734.010	224.036	-0.176	-0.286
-732.996	68.128	-0.287	-0.297
-731.981	-26.197	0.204	0.121
-730.966	-146.638	0.107	-0.009
-729.952	17.129	-0.077	0.061
-728.937	-200.000	0.003	-0.127
-727.923	14.387	0.235	0.185
-726.908	205.479	0.203	-0.318
-725.894	-159.485	0.102	-0.006
-724.879	-170.427	0.223	0.008
-723.864	16.731	0.076	0.061
-722.850	-200.000	-0.054	-0.241
-721.835	800.000	-0.065	0.194
-720.821	548.569	0.068	-0.164
-719.806	364.106	-0.090	-0.183
-718.791	-183.542	-0.146	-0.003
-717.777	591.959	0.117	-0.291
-716.762	800.000	-0.074	-0.242
-715.748	800.000	0.068	-0.296
-714.733	800.000	0.084	-0.346
-713.718	800.000	-0.042	0.184
-712.704	143.355	-0.056	-0.076
-711.689	800.000	0.027	0.080
-710.675	800.000	0.029	0.101
-709.660	34.951	0.151	-0.133
-708.645	-151.872	0.227	-0.017
-707.631	-181.612	0.306	0.006
-706.616	-63.877	0.087	0.036
-705.602	800.000	0.035	0.149
-704.587	24.771	-0.404	0.337
-703.572	384.021	0.098	0.203
-702.558	800.000	-0.086	0.318
-701.543	-200.000	0.018	-0.148
-700.529	-13.013	-0.145	0.095
-699.514	117.165	-0.203	0.252
-698.499	800.000	-0.033	0.101
-697.485	800.000	0.015	-0.059
-696.470	-72.491	0.447	0.166
-695.456	-166.705	-0.193	0.008
-694.441	64.772	0.129	-0.131
-693.426	-4.067	0.167	0.117
-692.412	-119.137	0.116	-0.020
-691.397	-200.000	0.054	0.277
-690.383	9.143	-0.272	0.207
-689.368	800.000	0.147	-0.433
-688.354	800.000	-0.080	-0.253
-687.339	266.408	-0.142	-0.250
-686.324	-200.000	-0.052	0.282
-685.310	-6.082	-0.260	0.179
-684.295	50.062	0.119	-0.113
-683.281	-31.183	0.093	0.053
-682.266	800.000	-0.089	0.279
-681.251	-200.000	-0.070	-0.368
-680.237	228.675	0.173	0.283
-679.222	773.087	0.123	0.339
-678.208	76.951	0.207	-0.221
-677.193	-200.000	-0.011	0.082
-676.178	-192.579	0.301	0.003
-675.164	-190.063	-0.348	0.004
-674.149	115.735	0.238	-0.293
-673.135	-23.854	-0.131	0.079
-672.120	-147.976	-0.142	-0.012
-671.105	800.000	-0.029	0.125
-670.091	37.709	-0.273	0.244
-669.076	-60.120	0.231	0.099
-668.062	-9.533	0.196	0.132
-667.047	101.647	-0.205	0.241
-666.032	-40.707	-0.278	0.145
-665.018	-200.000	-0.047	0.346
-664.003	-48.427	-0.102	-0.049
-662.989	46.923	0.087	-0.081
-661.974	-82.580	0.308	-0.100
-660.959	105.665	-0.136	0.162
-659.945	375.917	0.121	0.247
-658.930	69.526	0.037	0.039
-657.916	-88.612	-0.146	0.044
-656.901	107.661	0.180	-0.216
-655.886	-91.498	-0.049	0.014
-654.872	-53.599	-0.168	0.077
-653.857	-135.605	0.065	-0.008
-652.843	77.458	-0.181	-0.194
-651.828	-200.000	-0.006	-0.361
-650.814	800.000	-0.074	0.230
-649.799	800.000	0.099	0.281
-648.784	341.600	-0.047	-0.092
-647.770	-17.161	-0.240	-0.152
-646.755	-127.116	-0.269	-0.040
-645.741	-157.244	-0.283	-0.017
-644.726	35.893	-0.111	0.098
-643.711	800.000	-0.039	-0.169
-642.697	-186.763	-0.193	0.003
-641.682	358.263	-0.146	-0.293
-640.668	58.482	-0.177	-0.175
-639.653	339.480	-0.080	0.156
-638.638	-65.309	-0.188	0.076
-637.624	800.000	0.192	0.605
-636.609	-14.612	-0.112	-0.072
-635.595	-28.640	0.028	0.016
-634.580	-200.000	0.009	-0.210
-633.565	800.000	-0.063	-0.243
-632.551	-41.867	0.180	-0.093
-631.536	4.359	0.247	0.182
-630.522	51.121	-0.162	-0.154
-629.507	42.321	-0.259	0.237
-628.492	-54.655	-0.337	0.153
-627.478	749.080	0.006	0.017
-626.463	-200.000	0.013	-0.187
-625.449	-38.110	-0.109	0.058
-624.434	279.320	-0.009	-0.016
-623.419	-44.489	-0.254	-0.128
-622.405	-83.063	-0.206	-0.067
-621.390	800.000	-0.078	-0.240
-620.376	-117.296	-0.098	-0.018
-619.361	-112.289	-0.433	0.087
-618.346	-53.312	-0.254	0.117
-617.332	-116.382	-0.204	-0.038
-616.317	494.185	0.032	-0.073
-615.303	-64.979	0.433	0.176
-614.288	-31.856	0.217	0.122
-613.273	-110.788	-0.276	-0.057
-612.259	-81.132	0.274	-0.091
-611.244	-57.296	0.207	-0.091
-610.230	-200.000	0.005	-0.309
-609.215	11.867	0.211	-0.163
-608.201	-200.000	0.015	0.101
-607.186	-108.196	0.287	0.062
-606.171	800.000	-0.028	-0.097
-605.157	-123.429	-0.205	0.033
-604.142	-200.000	0.014	-0.192
-603.128	-76.377	0.201	0.071
-602.113	371.467	-0.121	-0.247
-601.098	152.109	0.227	-0.311
-600.084	76.171	0.245	0.260
-599.069	800.000	-0.069	-0.227
-598.055	-157.372	0.158	0.010
-597.040	-200.000	0.012	-0.160
-596.025	-74.619	-0.017	0.006
-595.011	112.828	0.147	-0.179
-593.996	-200.000	-0.037	0.184
-592.982	259.920	-0.086	0.148
-591.967	-123.452	0.177	0.028
-590.952	362.124	0.131	0.263
-589.938	-50.289	0.127	-0.060
-588.923	-140.017	0.254	0.027
-587.909	-200.000	-0.022	-0.158
-586.894	800.000	0.137	-0.419
-585.879	-114.590	-0.182	-0.035
-584.865	-200.000	0.079	-0.355
-583.850	-66.384	0.201	-0.080
-582.836	-200.000	0.031	-0.336
-581.821	-200.000	-0.000	-0.054
-580.806	41.817	0.140	0.128
-579.792	576.327	-0.169	0.413
-578.777	-6.275	-0.301	-0.206
-577.763	-95.691	0.293	0.079
-576.748	-138.676	0.191	-0.021
-575.733	-88.999	-0.317	-0.094
-574.719	79.707	-0.228	-0.245
-573.704	-200.000	0.075	0.454
-572.690	228.298	-0.087	0.142
-571.675	-9.009	-0.070	-0.047
-570.661	275.965	0.080	0.143
-569.646	-161.402	0.157	-0.008
-568.631	319.165	0.114	-0.216
-567.617	800.000	0.123	0.350
-566.602	205.934	0.038	-0.059
-565.588	-2.089	0.135	0.095
-564.573	-85.374	0.247	-0.077
-563.558	136.682	0.196	0.257
-562.544	-19.911	0.289	-0.179
-561.529	622.190	-0.119	-0.299
-560.515	628.451	0.106	0.268
-559.500	-122.001	-0.278	0.046
-558.485	-33.693	0.294	-0.163
-557.471	800.000	-0.029	0.098
-556.456	236.890	0.071	-0.118
-555.442	103.097	-0.148	-0.174
-554.427	5.503	-0.030	0.022
-553.412	-200.000	0.029	-0.309
-552.398	-200.000	0.012	0.323
-551.383	105.424	0.063	0.075
-550.369	308.040	-0.066	-0.124
-549.354	-146.651	-0.469	0.041
-548.339	800.000	-0.059	0.251
-547.325	-200.000	0.018	0.084
-546.310	800.000	0.084	-0.264
-545.296	165.644	-0.055	0.079
-544.281	-200.000	-0.018	0.186
-543.266	-200.000	0.001	-0.110
-542.252	-97.287	-0.135	0.035
-541.237	89.614	0.076	-0.085
-540.223	-96.624	-0.155	-0.041
-539.208	-200.000	-0.095	0.464
-538.193	100.659	-0.123	0.143
-537.179	646.258	0.075	0.192
-536.164	-135.728	-0.429	-0.051
-535.150	-9.814	0.174	-0.116
-534.135	-135.817	0.489	-0.058
-533.121	240.189	0.154	0.257
-532.106	-84.778	0.322	-0.101
-531.091	709.968	0.048	-0.127
-530.077	-134.794	0.426	0.052
-529.062	-103.222	-0.239	-0.057
-528.048	44.047	0.170	-0.156
-527.033	118.498	0.179	-0.221
-526.018	-140.478	-0.132	0.014
-525.004	-17.170	0.084	-0.053
-523.989	-200.000	0.081	0.431
-522.975	32.652	0.061	0.052
-521.960	-155.072	-0.278	-0.018
-520.945	-66.601	-0.501	-0.199
-519.931	-170.612	0.253	-0.009
-518.916	-129.579	0.419	0.058
-517.902	800.000	0.056	0.169
-516.887	9.252	-0.106	0.080
-515.872	-82.889	-0.551	0.178
-514.858	158.915	-0.119	-0.165
-513.843	452.205	-0.143	-0.317
-512.829	182.063	0.156	-0.230
-511.814	-2.175	-0.228	0.160
-510.799	769.058	-0.083	-0.225
-509.785	-73.375	0.039	0.014
-508.770	-4.997	-0.051	0.035
-507.756	54.061	-0.257	-0.247
-506.741	8.097	0.381	0.286
-505.726	119.036	0.067	0.083
-504.712	10.241	-0.279	0.212
-503.697	27.477	0.188	-0.158
-502.683	102.797	-0.302	-0.353
-501.668	126.741	-0.146	-0.184
-500.653	800.000	-0.058	0.160
-499.639	800.000	0.028	-0.079
-498.624	41.837	-0.229	-0.207
-497.610	355.397	0.168	-0.333
-496.595	17.663	0.083	0.066
-495.581	138.443	0.050	-0.065
-494.566	235.495	0.164	0.271
-493.551	36.803	0.105	-0.093
-492.537	52.413	-0.036	-0.034
-491.522	-157.152	-0.166	-0.010
-490.508	-40.949	-0.162	-0.084
-489.493	-66.733	-0.064	-0.025
-488.478	-200.000	0.075	-0.424
-487.464	-87.317	-0.331	-0.100
-486.449	-118.710	0.145	0.026
-485.435	152.711	0.192	-0.262
-484.420	-200.000	0.252	0.000
-483.405	-100.726	-0.150	-0.037
-482.391	191.163	0.092	-0.138
-481.376	-200.000	0.009	-0.276
-480.362	-53.246	0.175	-0.080
-479.347	28.282	0.216	0.183
-478.332	-197.329	0.157	-0.001
-477.318	77.076	-0.145	-0.153
-476.303	5.628	0.095	0.070
-475.289	315.715	-0.041	0.077
-474.274	-9.466	-0.180	0.120
-473.259	97.047	-0.164	0.188
-472.245	-84.970	-0.248	0.078
-471.230	-87.130	0.026	-0.008
-470.216	-57.386	-0.262	-0.115
-469.201	37.846	-0.193	0.171
-468.186	-200.000	-0.011	0.106
-467.172	-103.382	-0.217	-0.051
-466.157	3.362	0.112	-0.082
-465.143	121.184	0.167	0.208
-464.128	-167.259	-0.170	0.007
-463.113	-81.334	0.141	0.047
-462.099	800.000	-0.097	-0.302
-461.084	-200.000	0.046	-0.313
-460.070	468.885	-0.058	0.131
-459.055	-129.215	0.320	-0.045
-458.040	117.929	0.214	0.263
-457.026	27.164	-0.160	0.134
-456.011	65.942	0.138	-0.140
-454.997	331.789	0.001	0.002
-453.982	40.003	-0.043	-0.039
-452.968	-91.257	0.141	0.040
-451.953	-92.207	0.126	-0.035
-450.938	800.000	-0.085	0.256
-449.924	-9.749	-0.106	-0.070
-448.909	427.283	-0.073	-0.158
-447.895	-109.813	0.452	0.095
-446.880	800.000	-0.133	0.390
-445.865	27.241	0.221	-0.185
-444.851	12.035	-0.394	0.303
-443.836	33.437	-0.219	0.190
-442.822	-176.146	-0.357	-0.009
-441.807	-200.000	-0.044	-0.289
-440.792	170.881	0.198	0.284
-439.778	-200.000	0.006	0.083
-438.763	18.068	-0.338	-0.269
-437.749	-46.366	0.134	-0.066
-436.734	102.783	-0.299	0.349
-435.719	261.476	0.073	0.126
-434.705	-88.745	-0.173	0.051
-433.690	-60.212	0.351	-0.149
-432.676	-200.000	0.016	-0.321
-431.661	131.906	0.101	-0.130
-430.646	-142.384	-0.417	0.041
-429.632	-55.435	0.273	0.122
-428.617	29.976	0.294	0.250
-427.603	267.539	0.039	-0.068
-426.588	189.579	0.128	-0.191
-425.573	800.000	0.087	0.308
-424.559	2.708	-0.101	-0.073
-423.544	110.141	-0.203	-0.243
-422.530	-200.000	0.004	-0.231
-421.515	-190.735	-0.303	-0.003
-420.500	-54.542	0.121	-0.055
-419.486	800.000	0.070	0.296
-418.471	-200.000	0.003	-0.059
-417.457	800.000	0.046	0.129
-416.442	179.230	-0.055	0.080
-415.428	341.929	0.066	-0.129
-414.413	-6.534	-0.059	-0.040
-413.398	-52.954	-0.260	0.119
-412.384	33.351	-0.174	-0.150
-411.369	-6.337	-0.259	0.176
-410.355	232.432	-0.253	0.414
-409.340	800.000	-0.023	-0.094
-408.325	14.747	-0.217	0.169
-407.311	-20.693	-0.134	0.082
-406.296	-200.000	0.043	-0.219
-405.282	-170.513	0.258	0.009
-404.267	-34.813	-0.122	0.066
-403.252	341.498	-0.119	-0.232
-402.238	-141.255	0.321	-0.033
-401.223	-116.602	-0.439	-0.081
-400.209	-43.153	0.069	0.035
-399.194	800.000	0.137	0.426
-398.179	12.538	-0.150	0.115
-397.165	-50.022	-0.327	-0.155
-396.150	-135.867	-0.143	-0.017
-395.136	-200.000	0.006	0.457
-394.121	454.917	-0.031	0.069
-393.106	101.036	-0.038	0.044
-392.092	281.623	0.048	-0.086
-391.077	500.059	-0.015	-0.034
-390.063	-58.844	0.325	0.140
-389.048	-117.580	-0.370	0.067
-388.033	-81.846	0.147	0.048
-387.019	-21.720	0.261	-0.158
-386.004	-152.268	0.285	-0.020
-384.990	-66.770	-0.215	-0.085
-383.975	281.075	0.053	0.095
-382.960	28.990	0.153	0.129
-381.946	-6.323	0.055	-0.038
-380.931	-200.000	0.001	0.339
-379.917	540.605	0.138	-0.327
-378.902	18.669	0.054	-0.043
-377.888	-55.720	-0.065	0.029
-376.873	-11.039	0.086	-0.057
-375.858	207.163	0.092	0.142
-374.844	800.000	0.078	0.241
-373.829	-105.116	0.322	-0.073
-372.815	560.274	-0.068	-0.163
-371.800	111.603	0.148	-0.178
-370.785	487.118	0.186	-0.421
-369.771	616.833	0.062	0.154
-368.756	-77.243	-0.159	0.055
-367.742	225.298	-0.166	-0.267
-366.727	67.974	0.088	-0.089
-365.712	64.486	-0.048	-0.048
-364.698	-32.121	0.222	-0.124
-363.683	-200.000	-0.042	0.370
-362.669	-33.947	-0.059	0.033
-361.654	406.030	-0.083	0.175
-360.639	344.132	0.108	0.210
-359.625	-200.000	-0.002	-0.173
-358.610	132.511	-0.121	-0.156
-357.596	5.659	0.292	0.215
-356.581	-46.360	-0.136	0.066
-355.566	-118.381	0.357	-0.063
-354.552	212.752	-0.181	-0.284
-353.537	-89.178	0.282	0.083
-352.523	-144.897	-0.225	-0.020
-351.508	-30.522	0.151	-0.085
-350.493	-200.000	-0.004	-0.312
-349.479	26.557	-0.253	0.211
-348.464	253.656	0.045	0.077
-347.450	-200.000	-0.008	0.265
-346.435	-46.756	-0.186	0.091
-345.420	54.422	-0.161	-0.154
-344.406	-47.417	-0.166	-0.080
-343.391	-72.880	-0.442	-0.161
-342.377	211.114	0.173	-0.271
-341.362	-200.000	-0.007	0.131
-340.348	-26.940	0.321	0.186
-339.333	-5.671	-0.354	-0.241
-338.318	394.416	0.093	0.192
-337.304	69.996	0.026	-0.027
-336.289	-200.000	-0.041	0.309
-335.275	-27.310	0.191	0.110
-334.260	-30.635	0.135	0.076
-333.245	-95.803	0.308	0.082
-332.231	-93.147	-0.074	-0.021
-331.216	800.000	-0.014	-0.048
-330.202	-9.329	0.240	0.159
-329.187	652.455	-0.110	0.281
-328.172	386.722	-0.119	-0.244
-327.158	-200.000	0.003	0.100
-326.143	175.274	-0.323	0.465
-325.129	-110.169	0.317	-0.066
-324.114	86.799	0.076	0.083
-323.099	75.477	-0.240	-0.251
-322.085	-62.348	-0.112	-0.046
-321.070	-21.502	0.399	0.242
-320.056	-200.000	0.023	-0.210
-319.041	-13.085	-0.314	0.202
-318.026	-25.485	0.057	-0.033
-317.012	-96.127	0.164	-0.043
-315.997	-200.000	0.039	-0.259
-314.983	561.390	0.102	0.244
-313.968	-200.000	-0.016	0.079
-312.953	76.277	0.346	0.364
-311.939	-117.287	-0.211	0.038
-310.924	800.000	0.010	0.035
-309.910	41.724	0.178	0.160
-308.895	93.755	-0.160	0.180
-307.880	556.115	0.177	0.422
-306.866	476.166	0.030	0.068
-305.851	800.000	0.056	-0.235
-304.837	55.687	0.210	-0.202
-303.822	772.498	0.027	0.073
-302.807	800.000	-0.064	0.193
-301.793	-93.350	-0.147	0.040
-300.778	-200.000	0.047	0.249
-299.764	-75.552	0.121	0.043
-298.749	-173.062	0.063	-0.002
-297.735	-13.263	-0.186	0.120
-296.720	222.396	0.106	0.169
-295.705	-4.074	0.046	-0.032
-294.691	499.687	0.052	-0.118
-293.676	345.621	-0.075	-0.146
-292.662	800.000	-0.043	-0.128
-291.647	-200.000	-0.000	0.238
-290.632	-0.289	0.062	-0.043
-289.618	800.000	-0.099	0.289
-288.603	-200.000	-0.013	0.076
-287.589	-71.220	0.066	0.025
-286.574	800.000	0.082	0.270
-285.559	-103.871	0.305	0.071
-284.545	161.352	-0.190	0.264
-283.530	-122.333	0.433	-0.070
-282.516	-141.095	-0.108	0.011
-281.501	-107.070	0.186	0.041
-280.486	-55.190	-0.218	-0.097
-279.472	-200.000	-0.039	-0.252
-278.457	-106.568	-0.111	0.025
-277.443	-76.428	-0.234	-0.082
-276.428	181.230	0.158	0.230
-275.413	-100.245	-0.151	0.037
-274.399	-58.483	-0.209	0.090
-273.384	145.123	-0.163	0.217
-272.370	26.099	-0.095	0.078
-271.355	-40.284	0.125	-0.064
-270.340	-200.000	0.004	-0.070
-269.326	329.763	0.157	-0.299
-268.311	-48.081	-0.116	-0.055
-267.297	-81.501	0.316	-0.103
-266.282	-145.908	0.361	-0.032
-265.267	-200.000	0.025	0.141
-264.253	-53.157	0.133	0.061
-263.238	-76.741	0.140	-0.049
-262.224	46.093	0.187	-0.172
-261.209	398.805	-0.086	0.179
-260.195	-35.431	-0.252	0.135
-259.180	98.446	-0.125	0.143
-258.165	-131.696	0.248	-0.032
-257.151	-119.461	-0.053	-0.009
-256.136	800.000	0.112	0.369
-255.122	-200.000	-0.002	-0.213
-254.107	-200.000	-0.002	0.074
-253.092	6.852	0.158	0.116
-252.078	-36.564	-0.067	0.036
-251.063	800.000	-0.095	0.269
-250.049	234.825	0.109	-0.177
-249.034	-92.811	0.260	0.072
-248.019	-200.000	0.076	-0.470
-247.005	-200.000	-0.279	0.000
-245.990	149.731	0.283	-0.380
-244.976	14.851	-0.087	-0.068
-243.961	800.000	-0.097	0.311
-242.946	-17.952	-0.196	0.122
-241.932	489.258	0.137	0.309
-240.917	-104.516	-0.101	0.023
-239.903	244.974	-0.109	-0.181
-238.888	-200.000	-0.024	-0.161
-237.873	-59.539	-0.253	0.108
-236.859	-40.189	0.240	0.124
-235.844	123.283	-0.185	-0.230
-234.830	202.232	0.029	-0.044
-233.815	-148.168	-0.283	0.023
-232.800	-178.207	0.155	0.004
-231.786	-200.000	0.029	-0.244
-230.771	777.499	-0.143	-0.386
-229.757	-70.799	0.099	0.037
-228.742	19.239	0.192	-0.153
-227.727	-6.602	0.145	0.098
-226.713	800.000	-0.032	-0.129
-225.698	-200.000	0.061	-0.308
-224.684	-129.104	0.310	0.043
-223.669	291.170	-0.177	0.319
-222.655	-141.450	-0.229	-0.023
-221.640	266.480	-0.018	-0.032
-220.625	-158.131	-0.385	0.022
-219.611	-200.000	-0.005	-0.137
-218.596	-200.000	-0.021	-0.246
-217.582	-200.000	-0.011	-0.103
-216.567	-200.000	0.052	-0.362
-215.552	114.036	-0.042	0.051
-214.538	-200.000	-0.023	0.110
-213.523	567.470	-0.128	0.308
-212.509	-20.716	-0.087	0.053
-211.494	52.986	0.170	0.160
-210.479	800.000	-0.071	-0.263
-209.465	-71.806	-0.340	-0.125
-208.450	-16.994	0.161	-0.101
-207.436	391.023	0.054	-0.110
-206.421	-20.623	0.076	0.046
-205.406	-178.069	-0.164	0.004
-204.392	-81.786	-0.229	-0.074
-203.377	58.114	0.069	0.067
-202.363	140.189	-0.197	0.257
-201.348	102.462	-0.072	-0.084
-200.333	-200.000	0.030	0.180
-199.319	-200.000	-0.035	-0.328
-198.304	108.514	0.195	0.230
-197.290	21.953	0.292	-0.235
-196.275	255.493	0.179	0.303
-195.260	6.835	-0.257	0.189
-194.246	119.160	0.124	-0.151
-193.231	-14.130	-0.230	0.147
-192.217	-200.000	0.020	0.141
-191.202	-200.000	0.011	-0.366
-190.187	-147.885	0.055	0.005
-189.173	116.485	-0.071	0.086
-188.158	-192.187	0.210	0.002
-187.144	455.683	-0.038	-0.084
-186.129	-42.063	-0.172	-0.087
-185.114	19.188	0.156	0.123
-184.100	310.668	-0.039	0.071
-183.085	152.999	0.041	0.055
-182.071	-200.000	0.110	-0.522
-181.056	159.557	-0.205	-0.281
-180.042	4.763	0.131	0.095
-179.027	-28.070	0.193	0.110
-178.012	-136.889	0.397	-0.045
-176.998	-79.143	-0.256	0.086
-175.983	-118.120	0.176	-0.031
-174.969	456.370	-0.088	0.193
-173.954	255.908	-0.141	-0.239
-172.939	40.379	-0.088	0.078
-171.925	800.000	-0.078	0.297
-170.910	-200.000	0.032	-0.295
-169.896	-167.093	-0.257	-0.010
-168.881	-200.000	0.031	0.148
-167.866	-25.573	-0.138	0.080
-166.852	-200.000	0.006	0.087
-165.837	-10.257	0.241	-0.158
-164.823	-6.345	-0.153	0.103
-163.808	106.312	0.282	0.330
-162.793	-200.000	-0.006	-0.281
-161.779	483.455	-0.052	-0.118
-160.764	-34.092	0.207	0.112
-159.750	-31.277	0.271	-0.150
-158.735	-76.583	0.452	0.156
-157.720	-200.000	-0.039	0.176
-156.706	174.161	0.151	-0.215
-155.691	3.425	-0.160	-0.115
-154.677	-200.000	-0.082	-0.627
-153.662	-29.501	0.100	0.057
-152.647	-38.420	-0.032	0.017
-151.633	-65.107	-0.193	0.077
-150.618	84.640	-0.059	-0.064
-149.604	61.614	0.255	0.250
-148.589	-53.373	-0.329	-0.149
-147.574	212.239	-0.017	-0.026
-146.560	132.245	-0.156	0.198
-145.545	-17.404	0.256	-0.159
-144.531	800.000	-0.082	-0.231
-143.516	331.734	0.207	-0.395
-142.502	-21.257	-0.140	0.084
-141.487	78.670	-0.240	0.253
-140.472	328.575	0.083	-0.157
-139.458	178.536	0.223	-0.321
-138.443	2.662	0.075	0.053
-137.429	-200.000	-0.053	0.300
-136.414	-200.000	0.027	0.201
-135.399	-110.036	-0.063	0.013
-134.385	800.000	-0.095	-0.264
-133.370	199.393	-0.095	-0.144
-132.356	591.490	0.152	0.371
-131.341	-46.359	-0.235	0.114
-130.326	518.463	0.040	-0.093
-129.312	-71.360	-0.277	0.102
-128.297	139.913	0.181	0.236
-127.283	-112.364	-0.206	-0.041
-126.268	-62.018	-0.254	-0.105
-125.253	568.836	0.115	0.276
-124.239	583.954	-0.019	-0.046
-123.224	146.630	-0.081	0.107
-122.210	-81.129	0.607	-0.198
-121.195	476.187	-0.190	0.424
-120.180	16.004	-0.121	-0.094
