DTS Sentinel unit serial number:	SN413079Multiplexer serial number:	ORYXHardware model number:	OX4-SRSoftware version number:	ORYX F/W v4.00 Oryx Data Collector v3.7.2.0data status	okinstallation	princeton_trtdifferential loss correction	single-endedforward channel	channel 1reverse channel	N/Adate	2019/09/15time	02:22:35forward acquisition time	60.00reverse acquisition time	0.00gamma	496.2192k internal	0.2323k external	0.2323temperature offset calibration	0.9983default loss term (dB/km)	0.3790temperature slope calibration	1.0000multiplexer offset coefficient	1.0000multiplexer slope coefficient	1.0000fibre end	0.00T internal ref (°C)	31.61T ext. ref 1 (°C)	4.55T ext. ref 2 (°C)	26.13length (m)	temperature (°C)	Stokes	anti-Stokes-747.200	-0.298	-0.185	-0.133
-746.185	-55.231	0.235	0.107
-745.171	-15.563	0.064	-0.041
-744.156	-200.000	-0.010	0.095
-743.142	-134.591	0.242	-0.030
-742.127	75.289	-0.060	-0.063
-741.112	679.694	-0.089	-0.234
-740.098	95.020	0.066	0.076
-739.083	800.000	0.027	-0.102
-738.069	-150.698	-0.269	0.021
-737.054	-200.000	0.020	-0.460
-736.039	-58.492	-0.148	0.065
-735.025	44.218	-0.079	-0.073
-734.010	20.842	-0.157	-0.129
-732.996	163.768	-0.285	-0.405
-731.981	35.177	-0.023	-0.020
-730.966	12.360	0.182	-0.141
-729.952	261.853	0.058	-0.102
-728.937	-36.845	-0.105	-0.057
-727.923	67.983	-0.140	0.145
-726.908	44.920	-0.179	-0.166
-725.894	287.522	-0.083	0.151
-724.879	-200.000	-0.061	0.592
-723.864	-14.343	-0.191	0.124
-722.850	800.000	-0.067	0.198
-721.835	13.206	0.180	0.141
-720.821	800.000	0.118	-0.343
-719.806	183.023	-0.059	-0.088
-718.791	-109.827	-0.313	-0.066
-717.777	-104.363	0.536	-0.125
-716.762	800.000	-0.120	-0.356
-715.748	-128.549	-0.084	-0.012
-714.733	-10.083	-0.280	0.188
-713.718	-200.000	0.004	-0.394
-712.704	209.804	0.125	-0.197
-711.689	246.889	-0.137	-0.234
-710.675	155.363	-0.196	0.273
-709.660	-111.910	0.393	-0.080
-708.645	-122.651	0.063	0.010
-707.631	800.000	-0.047	0.166
-706.616	240.171	0.157	0.264
-705.602	-131.900	-0.169	-0.022
-704.587	194.360	-0.014	0.021
-703.572	-68.488	-0.546	-0.214
-702.558	-63.432	-0.038	-0.016
-701.543	800.000	-0.068	0.236
-700.529	362.452	-0.048	0.096
-699.514	-200.000	-0.002	0.339
-698.499	766.388	0.127	0.348
-697.485	-25.769	-0.172	0.102
-696.470	800.000	0.042	-0.172
-695.456	-53.859	0.239	-0.110
-694.441	-165.931	-0.275	0.012
-693.426	247.116	0.037	-0.064
-692.412	234.877	-0.144	-0.239
-691.397	-200.000	-0.024	0.166
-690.383	98.679	0.116	-0.135
-689.368	228.753	0.037	0.061
-688.354	-114.416	-0.141	0.027
-687.339	-83.471	0.115	0.037
-686.324	-145.211	0.486	0.044
-685.310	-4.737	-0.247	-0.172
-684.295	-31.142	-0.222	-0.126
-683.281	800.000	-0.095	-0.365
-682.266	-200.000	0.003	-0.116
-681.251	-200.000	0.033	-0.431
-680.237	-142.740	0.335	-0.033
-679.222	537.294	0.130	0.312
-678.208	295.028	-0.084	-0.156
-677.193	-28.992	0.315	-0.182
-676.178	-166.307	-0.119	-0.005
-675.164	371.194	0.148	0.303
-674.149	-13.326	-0.111	-0.073
-673.135	68.584	0.082	-0.084
-672.120	-156.582	-0.074	0.005
-671.105	-200.000	0.062	0.280
-670.091	-89.704	-0.302	0.089
-669.076	532.331	0.073	-0.174
-668.062	28.200	-0.194	0.165
-667.047	800.000	0.152	0.454
-666.032	-200.000	0.017	0.231
-665.018	16.273	0.119	-0.095
-664.003	25.807	-0.182	-0.152
-662.989	-6.358	-0.071	0.049
-661.974	-113.682	-0.235	0.046
-660.959	99.256	-0.174	-0.203
-659.945	223.324	0.083	-0.134
-658.930	800.000	-0.026	0.087
-657.916	89.697	-0.249	-0.279
-656.901	36.793	-0.322	-0.287
-655.886	222.317	-0.136	-0.221
-654.872	-200.000	-0.050	-0.263
-653.857	800.000	-0.038	0.130
-652.843	800.000	0.037	0.129
-651.828	-13.248	-0.178	0.116
-650.814	429.585	-0.091	0.199
-649.799	-200.000	0.017	0.188
-648.784	5.692	0.089	-0.066
-647.770	-200.000	-0.010	0.048
-646.755	377.241	0.183	-0.376
-645.741	282.947	0.186	-0.336
-644.726	-81.452	0.149	-0.049
-643.711	-21.918	-0.355	-0.217
-642.697	-200.000	0.054	-0.245
-641.682	-154.630	0.186	-0.012
-640.668	-117.446	0.028	0.005
-639.653	800.000	-0.085	-0.298
-638.638	-33.734	-0.100	-0.056
-637.624	-200.000	-0.047	0.346
-636.609	165.869	-0.083	-0.118
-635.595	555.205	0.082	-0.198
-634.580	-159.442	-0.297	0.017
-633.565	-200.000	-0.021	0.097
-632.551	235.700	-0.115	0.192
-631.536	-33.668	0.269	0.149
-630.522	-67.473	0.109	-0.043
-629.507	73.963	0.141	-0.149
-628.492	321.866	0.121	-0.231
-627.478	41.886	0.153	-0.139
-626.463	-66.417	-0.403	-0.161
-625.449	233.683	-0.212	-0.350
-624.434	96.592	-0.219	0.252
-623.419	-200.000	-0.007	-0.118
-622.405	-9.585	0.316	0.212
-621.390	170.348	-0.147	0.212
-620.376	-127.368	-0.088	0.013
-619.361	-88.911	-0.203	-0.060
-618.346	-200.000	0.017	-0.077
-617.332	800.000	-0.088	-0.353
-616.317	-200.000	0.000	0.305
-615.303	-109.657	-0.173	-0.037
-614.288	214.147	-0.101	-0.160
-613.273	-113.779	-0.085	0.017
-612.259	-200.000	0.005	-0.164
-611.244	800.000	-0.090	-0.385
-610.230	-98.085	0.194	-0.050
-609.215	-26.144	0.045	-0.026
-608.201	-111.849	0.116	-0.024
-607.186	-33.728	0.039	0.021
-606.171	-104.161	0.265	-0.062
-605.157	-200.000	0.026	-0.142
-604.142	-18.158	0.472	-0.297
-603.128	756.307	0.097	-0.264
-602.113	85.892	0.264	0.292
-601.098	-56.480	-0.146	0.065
-600.084	-5.422	-0.173	-0.119
-599.069	26.103	-0.195	-0.163
-598.055	-157.252	0.091	0.006
-597.040	479.252	-0.064	-0.146
-596.025	-200.000	-0.012	-0.078
-595.011	-32.261	0.190	-0.106
-593.996	-184.518	0.294	0.005
-592.982	-187.326	-0.285	-0.004
-591.967	161.675	-0.084	-0.118
-590.952	43.255	0.162	0.149
-589.938	15.203	-0.198	-0.156
-588.923	-200.000	-0.007	-0.043
-587.909	29.919	-0.063	0.054
-586.894	-0.177	0.119	0.085
-585.879	-112.892	0.336	0.067
-584.865	-36.805	0.287	-0.155
-583.850	486.351	0.049	-0.112
-582.836	256.083	0.217	-0.373
-581.821	74.158	-0.218	0.230
-580.806	-47.645	-0.264	0.129
-579.792	-41.522	0.220	-0.114
-578.777	-200.000	0.005	-0.312
-577.763	-7.334	0.218	0.148
-576.748	422.233	-0.119	-0.257
-575.733	-15.147	-0.076	0.049
-574.719	-2.574	-0.092	-0.065
-573.704	-157.643	-0.261	0.016
-572.690	800.000	0.022	-0.068
-571.675	569.703	0.103	0.252
-570.661	257.105	0.095	0.164
-569.646	134.267	-0.117	-0.152
-568.631	142.916	0.100	0.134
-567.617	800.000	0.094	0.328
-566.602	716.477	0.049	0.132
-565.588	10.347	-0.114	-0.087
-564.573	-123.231	-0.152	-0.024
-563.558	-50.380	0.195	-0.092
-562.544	745.716	0.085	0.229
-561.529	-11.787	-0.401	0.264
-560.515	59.468	0.178	0.176
-559.500	-163.446	0.007	0.000
-558.485	-65.422	0.389	0.157
-557.471	800.000	-0.101	-0.413
-556.456	-200.000	0.007	0.033
-555.442	-93.799	-0.016	-0.004
-554.427	-40.031	-0.362	-0.189
-553.412	-200.000	-0.101	-0.481
-552.398	126.773	-0.087	0.110
-551.383	-115.550	-0.175	0.033
-550.369	-4.567	-0.117	0.081
-549.354	-143.315	0.316	-0.030
-548.339	120.949	0.156	0.195
-547.325	-137.500	0.096	0.011
-546.310	-140.134	-0.457	-0.048
-545.296	747.339	0.028	0.075
-544.281	-200.000	-0.011	0.132
-543.266	33.526	-0.157	0.137
-542.252	-166.888	0.195	0.008
-541.237	34.366	0.131	-0.115
-540.223	533.457	-0.065	0.155
-539.208	-200.000	0.027	0.343
-538.193	-183.363	-0.162	-0.003
-537.179	-5.710	-0.060	0.041
-536.164	-42.941	0.149	0.076
-535.150	78.179	-0.277	0.296
-534.135	-94.996	0.282	-0.076
-533.121	-71.097	0.121	-0.046
-532.106	289.079	0.023	0.042
-531.091	33.864	0.231	0.201
-530.077	-200.000	-0.023	0.345
-529.062	533.984	0.039	0.093
-528.048	792.314	-0.025	0.069
-527.033	-124.588	-0.237	-0.037
-526.018	-123.098	0.098	-0.016
-525.004	-80.292	-0.048	0.016
-523.989	-114.516	-0.353	-0.068
-522.975	800.000	-0.028	-0.121
-521.960	62.009	-0.097	0.097
-520.945	61.435	-0.161	-0.161
-519.931	800.000	-0.057	-0.216
-518.916	-200.000	-0.008	-0.361
-517.902	-200.000	0.004	0.148
-516.887	37.998	-0.240	-0.214
-515.872	-159.823	0.283	0.016
-514.858	246.587	-0.164	-0.278
-513.843	378.348	0.088	-0.181
-512.829	-57.328	-0.198	-0.087
-511.814	-200.000	-0.048	0.236
-510.799	-200.000	-0.021	-0.177
-509.785	118.739	-0.059	0.073
-508.770	332.911	-0.185	0.358
-507.756	105.633	-0.047	-0.056
-506.741	582.908	0.032	-0.079
-505.726	-74.378	0.258	0.093
-504.712	-157.295	0.072	0.004
-503.697	23.097	-0.240	0.197
-502.683	1.217	0.119	-0.085
-501.668	229.796	-0.052	-0.084
-500.653	186.128	-0.112	-0.167
-499.639	-81.350	0.079	-0.026
-498.624	63.364	-0.131	0.131
-497.610	-105.265	-0.115	-0.026
-496.595	800.000	0.046	-0.195
-495.581	-35.070	-0.298	0.163
-494.566	371.934	-0.161	0.327
-493.551	182.466	0.072	-0.106
-492.537	-200.000	-0.003	-0.090
-491.522	-16.344	-0.112	0.071
-490.508	-149.395	-0.185	0.015
-489.493	102.140	-0.083	-0.097
-488.478	-200.000	0.010	-0.143
-487.464	660.849	-0.014	0.036
-486.449	187.035	-0.168	0.250
-485.435	-56.794	0.188	-0.083
-484.420	-42.450	0.196	-0.100
-483.405	800.000	-0.012	0.050
-482.391	-5.768	-0.137	0.094
-481.376	800.000	-0.067	-0.281
-480.362	-76.618	-0.292	0.102
-479.347	312.737	0.122	0.230
-478.332	365.662	-0.161	0.323
-477.318	800.000	0.034	-0.098
-476.303	800.000	-0.041	-0.123
-475.289	-200.000	-0.018	-0.201
-474.274	-200.000	0.010	-0.090
-473.259	-200.000	-0.011	0.268
-472.245	-121.134	-0.153	0.026
-471.230	115.405	-0.186	-0.227
-470.216	74.442	0.101	-0.106
-469.201	609.990	0.140	0.350
-468.186	800.000	-0.144	0.466
-467.172	101.390	-0.201	0.234
-466.157	-25.177	0.080	-0.047
-465.143	177.190	-0.206	0.300
-464.128	-49.109	0.225	-0.108
-463.113	24.744	0.334	-0.276
-462.099	-200.000	-0.019	0.134
-461.084	656.420	-0.056	0.144
-460.070	-151.719	-0.304	-0.022
-459.055	-116.400	-0.030	0.005
-458.040	78.621	-0.049	-0.052
-457.026	674.833	-0.065	-0.169
-456.011	-200.000	-0.006	-0.033
-454.997	-200.000	0.039	0.214
-453.982	-200.000	0.118	-0.562
-452.968	-81.402	-0.195	0.064
-451.953	353.114	-0.107	0.212
-450.938	215.566	-0.116	0.183
-449.924	-38.639	0.126	0.066
-448.909	347.805	-0.093	0.183
-447.895	-68.270	0.145	0.056
-446.880	639.899	0.062	-0.159
-445.865	-200.000	-0.070	0.354
-444.851	-65.491	-0.138	0.055
-443.836	-97.814	-0.075	-0.019
-442.822	-92.785	0.514	-0.144
-441.807	454.197	-0.044	-0.098
-440.792	-127.586	0.081	0.012
-439.778	-109.866	-0.180	-0.038
-438.763	-11.484	0.134	0.088
-437.749	-81.912	-0.040	0.013
-436.734	-200.000	-0.013	0.063
-435.719	71.241	0.060	-0.062
-434.705	-0.675	0.205	0.145
-433.690	323.013	0.138	-0.263
-432.676	-98.740	0.450	0.114
-431.661	-60.761	-0.264	-0.112
-430.646	-79.572	0.258	0.087
-429.632	5.574	0.298	-0.219
-428.617	-200.000	-0.005	-0.275
-427.603	81.532	0.075	0.081
-426.588	12.069	-0.055	-0.042
-425.573	312.359	0.067	0.126
-424.559	11.506	-0.209	-0.160
-423.544	-31.638	-0.080	-0.045
-422.530	-127.664	0.111	-0.016
-421.515	-93.499	-0.268	0.074
-420.500	-2.430	0.031	0.022
-419.486	-40.444	-0.075	0.039
-418.471	212.951	0.154	-0.243
-417.457	-43.515	-0.170	-0.086
-416.442	702.751	-0.027	-0.071
-415.428	251.432	-0.100	0.170
-414.413	800.000	-0.108	0.418
-413.398	-200.000	-0.011	-0.115
-412.384	-115.741	0.323	0.060
-411.369	-108.689	-0.200	-0.043
-410.355	694.709	0.144	-0.377
-409.340	27.552	0.108	0.090
-408.325	88.807	0.123	-0.136
-407.311	-200.000	0.051	0.278
-406.296	-119.349	-0.330	0.057
-405.282	800.000	-0.096	-0.270
-404.267	-200.000	-0.045	-0.205
-403.252	135.174	0.037	0.047
-402.238	-200.000	0.061	-0.327
-401.223	-47.135	-0.112	-0.054
-400.209	-200.000	0.022	0.161
-399.194	-50.393	-0.166	0.078
-398.179	3.909	-0.031	-0.023
-397.165	800.000	0.061	-0.254
-396.150	-200.000	-0.028	-0.522
-395.136	97.689	0.227	-0.260
-394.121	-200.000	-0.005	0.028
-393.106	31.250	-0.198	0.169
-392.092	-200.000	-0.012	0.111
-391.077	84.367	0.314	-0.342
-390.063	-69.052	0.313	-0.120
-389.048	216.732	0.112	-0.177
-388.033	499.985	0.069	-0.159
-387.019	395.761	0.113	-0.235
-386.004	-154.607	-0.387	0.026
-384.990	-200.000	-0.005	0.054
-383.975	177.112	0.185	0.268
-382.960	356.011	0.136	0.270
-381.946	-80.768	0.113	-0.037
-380.931	5.432	-0.262	-0.192
-379.917	81.988	-0.109	-0.118
-378.902	-168.902	0.265	-0.010
-377.888	-54.896	0.266	-0.120
-376.873	-81.937	-0.112	0.037
-375.858	-72.932	0.258	0.095
-374.844	-41.379	0.110	-0.057
-373.829	-5.738	-0.174	-0.118
-372.815	-110.613	-0.250	0.051
-371.800	-34.913	0.218	0.118
-370.785	-172.088	-0.326	-0.010
-369.771	-150.094	0.328	0.025
-368.756	64.658	-0.165	-0.166
-367.742	-115.694	0.268	0.050
-366.727	-51.291	0.212	0.099
-365.712	799.027	0.029	-0.081
-364.698	404.197	0.099	-0.207
-363.683	-200.000	-0.004	0.135
-362.669	-103.695	0.115	0.027
-361.654	327.067	-0.015	0.029
-360.639	581.658	0.039	0.096
-359.625	482.257	0.090	-0.203
-358.610	387.771	0.096	0.198
-357.596	-196.964	-0.047	-0.000
-356.581	268.592	-0.099	-0.173
-355.566	236.931	-0.145	-0.239
-354.552	-182.531	0.320	0.006
-353.537	-44.030	0.270	0.135
-352.523	800.000	-0.043	0.141
-351.508	41.858	0.101	0.091
-350.493	-157.571	-0.151	-0.009
-349.479	-200.000	0.018	-0.089
-348.464	800.000	-0.036	-0.155
-347.450	560.027	-0.057	0.136
-346.435	102.640	-0.132	-0.153
-345.420	-140.812	-0.434	-0.045
-344.406	156.830	-0.106	-0.146
-343.391	-200.000	0.019	-0.215
-342.377	-1.300	0.237	0.167
-341.362	-149.601	0.333	-0.026
-340.348	-200.000	0.009	0.336
-339.333	-200.000	-0.015	0.104
-338.318	-176.589	-0.143	-0.004
-337.304	800.000	-0.120	0.366
-336.289	-200.000	0.041	0.336
-335.275	-110.068	0.315	-0.065
-334.260	63.582	-0.272	0.272
-333.245	115.709	-0.056	-0.068
-332.231	75.615	-0.095	0.100
-331.216	800.000	-0.121	0.520
-330.202	-44.369	-0.068	-0.034
-329.187	-30.239	0.163	0.092
-328.172	436.991	0.023	0.049
-327.158	-25.842	-0.179	0.105
-326.143	107.152	-0.095	-0.113
-325.129	-200.000	0.033	0.207
-324.114	132.119	-0.243	0.311
-323.099	20.962	-0.167	0.135
-322.085	-200.000	-0.000	-0.211
-321.070	-53.214	-0.083	0.038
-320.056	800.000	-0.112	0.320
-319.041	-110.259	0.220	0.045
-318.026	167.178	0.116	0.163
-317.012	-2.888	-0.212	0.147
-315.997	-200.000	-0.002	-0.029
-314.983	141.204	0.141	0.186
-313.968	-84.441	-0.189	0.059
-312.953	52.703	-0.201	-0.191
-311.939	-122.532	-0.078	0.013
-310.924	33.989	-0.158	0.137
-309.910	271.704	0.350	0.612
-308.895	73.813	-0.112	-0.116
-307.880	-166.088	0.131	0.006
-306.866	470.534	-0.095	-0.212
-305.851	230.811	-0.132	0.214
-304.837	-200.000	0.002	-0.015
-303.822	-97.165	0.296	0.077
-302.807	49.318	0.239	0.223
-301.793	27.245	0.195	0.162
-300.778	-200.000	0.079	-0.373
-299.764	1.702	0.036	-0.026
-298.749	-200.000	-0.032	-0.263
-297.735	-143.250	-0.082	-0.008
-296.720	103.331	0.083	0.097
-295.705	148.397	-0.162	0.217
-294.691	-106.545	-0.113	-0.025
-293.676	205.800	0.033	-0.050
-292.662	-115.317	-0.348	-0.065
-291.647	-200.000	-0.043	-0.222
-290.632	-128.562	-0.287	0.040
-289.618	604.994	-0.145	-0.358
-288.603	132.402	-0.184	-0.235
-287.589	800.000	-0.002	0.005
-286.574	-100.857	-0.058	0.014
-285.559	-133.882	-0.116	0.014
-284.545	-200.000	0.019	0.489
-283.530	7.562	0.281	0.208
-282.516	-7.657	0.286	0.192
-281.501	-124.764	0.219	0.034
-280.486	-48.653	-0.257	-0.122
-279.472	-3.312	-0.119	-0.082
-278.457	123.215	0.214	0.265
-277.443	488.760	0.266	0.602
-276.428	800.000	-0.055	-0.220
-275.413	-200.000	-0.018	0.102
-274.399	48.536	0.221	-0.206
-273.384	212.572	-0.259	-0.405
-272.370	352.236	0.083	-0.163
-271.355	326.717	-0.099	0.187
-270.340	141.248	-0.163	0.213
-269.326	-118.320	0.201	0.035
-268.311	-200.000	0.024	-0.324
-267.297	-95.213	-0.205	0.055
-266.282	585.653	-0.053	0.130
-265.267	245.136	-0.117	-0.196
-264.253	95.957	-0.314	0.355
-263.238	-110.019	0.185	-0.038
-262.224	-14.371	0.076	-0.048
-261.209	485.459	-0.095	0.214
-260.195	-200.000	-0.019	0.125
-259.180	-200.000	0.039	0.210
-258.165	98.337	0.148	-0.169
-257.151	-200.000	0.002	0.070
-256.136	-40.240	0.011	-0.005
-255.122	-90.262	0.131	-0.038
-254.107	-19.217	-0.168	-0.103
-253.092	84.246	0.165	-0.179
-252.078	-124.641	-0.261	0.040
-251.063	66.790	0.191	0.193
-250.049	-22.278	-0.259	-0.156
-249.034	487.055	0.050	-0.113
-248.019	-200.000	-0.011	-0.063
-247.005	-200.000	0.001	-0.091
-245.990	-117.688	-0.268	0.048
-244.976	-92.596	0.070	0.019
-243.961	121.289	0.174	-0.215
-242.946	65.247	0.193	0.193
-241.932	-130.761	-0.181	-0.024
-240.917	-200.000	-0.034	0.242
-239.903	800.000	-0.127	0.402
-238.888	-200.000	-0.003	-0.206
-237.873	21.976	0.134	-0.108
-236.859	-100.880	-0.261	0.064
-235.844	-90.225	-0.312	-0.090
-234.830	218.142	-0.068	-0.107
-233.815	-97.152	-0.356	0.092
-232.800	-35.052	0.168	-0.091
-231.786	-69.198	0.172	0.066
-230.771	-110.463	-0.221	0.045
-229.757	-36.863	0.201	0.107
-228.742	58.238	-0.139	-0.135
-227.727	-134.546	-0.206	-0.025
-226.713	-200.000	-0.037	-0.254
-225.698	-81.065	0.244	-0.080
-224.684	-47.042	0.106	-0.051
-223.669	136.404	0.072	-0.092
-222.655	800.000	0.055	-0.187
-221.640	97.790	-0.258	-0.294
-220.625	-17.549	-0.212	-0.132
-219.611	-100.840	0.156	-0.038
-218.596	-102.071	0.087	0.021
-217.582	-27.013	0.250	0.145
-216.567	-152.294	0.206	0.015
-215.552	-200.000	0.012	0.090
-214.538	86.953	-0.168	-0.184
-213.523	206.188	0.069	0.106
-212.509	-50.310	0.277	0.129
-211.494	273.745	0.292	-0.511
-210.479	33.309	0.166	-0.143
-209.465	21.745	-0.204	0.164
-208.450	127.271	0.163	-0.205
-207.436	-105.758	0.060	0.014
-206.421	-23.336	-0.222	0.132
-205.406	159.134	-0.054	0.074
-204.392	-175.592	0.292	-0.008
-203.377	9.856	-0.315	0.236
-202.363	408.546	0.086	-0.181
-201.348	-200.000	-0.025	-0.110
-200.333	-50.832	-0.302	0.140
-199.319	41.913	-0.079	-0.071
-198.304	-35.457	0.038	-0.020
-197.290	800.000	0.071	0.259
-196.275	-63.235	0.123	0.050
-195.260	468.974	0.042	0.094
-194.246	800.000	0.070	0.220
-193.231	-101.339	-0.130	-0.031
-192.217	800.000	0.054	-0.197
-191.202	-59.227	0.100	-0.042
-190.187	-37.051	-0.285	-0.151
-189.173	98.319	0.077	-0.088
-188.158	-22.865	0.274	0.163
-187.144	-163.289	-0.474	-0.022
-186.129	132.188	-0.265	0.337
-185.114	-9.655	0.334	0.220
-184.100	-200.000	-0.045	-0.239
-183.085	-119.003	0.061	0.011
-182.071	800.000	0.016	0.067
-181.056	7.074	-0.257	-0.189
-180.042	-78.928	0.171	0.057
-179.027	81.662	0.056	-0.060
-178.012	-200.000	-0.076	-0.345
-176.998	71.571	0.046	0.047
-175.983	211.295	0.009	-0.015
-174.969	-200.000	-0.012	0.227
-173.954	-200.000	-0.052	0.397
-172.939	33.064	-0.277	-0.238
-171.925	-116.034	0.074	0.014
-170.910	-200.000	0.049	0.321
-169.896	-147.609	0.383	-0.032
-168.881	-93.035	0.081	0.022
-167.866	192.267	0.110	-0.164
-166.852	-45.131	0.434	0.213
-165.837	-200.000	0.077	0.349
-164.823	495.068	0.250	0.566
-163.808	33.383	0.257	0.220
-162.793	17.156	-0.141	0.110
-161.779	11.049	-0.061	0.046
-160.764	582.838	-0.095	-0.229
-159.750	-101.201	0.180	-0.043
-158.735	800.000	0.121	-0.338
-157.720	666.005	0.131	-0.333
-156.706	9.435	-0.160	0.120
-155.691	690.460	-0.050	0.130
-154.677	-13.989	0.209	-0.133
-153.662	-118.163	0.121	-0.021
-152.647	-200.000	0.032	0.190
-151.633	-96.936	0.238	-0.062
-150.618	165.111	-0.196	-0.273
-149.604	-54.460	0.245	0.110
-148.589	-200.000	0.002	0.039
-147.574	-79.012	0.213	-0.071
-146.560	51.404	0.160	0.150
-145.545	800.000	-0.107	0.335
-144.531	99.513	-0.032	-0.037
-143.516	-50.591	0.135	0.063
-142.502	-56.172	0.116	0.051
-141.487	331.953	-0.154	-0.294
-140.472	-94.124	-0.211	0.057
-139.458	-200.000	0.015	-0.099
-138.443	122.662	-0.293	-0.361
-137.429	-99.575	0.071	0.018
-136.414	288.794	0.118	-0.210
-135.399	508.457	-0.064	-0.146
-134.385	-35.642	-0.272	0.145
-133.370	-48.029	-0.293	0.140
-132.356	189.797	-0.156	-0.230
-131.341	-78.239	-0.095	0.032
-130.326	70.223	-0.257	-0.262
-129.312	77.862	-0.131	0.137
-128.297	766.620	0.136	-0.366
-127.283	56.675	-0.069	-0.066
-126.268	-200.000	-0.065	0.418
-125.253	-200.000	0.020	-0.155
-124.239	-152.723	0.165	-0.012
-123.224	-200.000	-0.046	0.349
-122.210	-12.503	-0.318	0.205
