DTS Sentinel unit serial number:	SN413079Multiplexer serial number:	ORYXHardware model number:	OX4-SRSoftware version number:	ORYX F/W v4.00 Oryx Data Collector v3.7.2.0data status	okinstallation	princeton_trtdifferential loss correction	single-endedforward channel	channel 1reverse channel	N/Adate	2019/09/15time	00:30:35forward acquisition time	60.00reverse acquisition time	0.00gamma	496.2192k internal	0.2320k external	0.2320temperature offset calibration	0.9993default loss term (dB/km)	0.3790temperature slope calibration	1.0000multiplexer offset coefficient	1.0000multiplexer slope coefficient	1.0000fibre end	0.00T internal ref (°C)	32.12T ext. ref 1 (°C)	4.59T ext. ref 2 (°C)	27.19length (m)	temperature (°C)	Stokes	anti-Stokes-747.200	-67.435	-0.116	-0.046
-746.185	-2.597	-0.269	0.190
-745.171	800.000	0.136	0.482
-744.156	1.500	-0.159	0.115
-743.142	-69.736	0.008	0.003
-742.127	-146.480	-0.525	-0.046
-741.112	-121.223	0.143	-0.024
-740.098	-22.921	-0.247	0.151
-739.083	254.214	-0.111	-0.191
-738.069	528.537	-0.084	-0.199
-737.054	-35.014	-0.196	-0.108
-736.039	-200.000	-0.007	-0.127
-735.025	-57.569	0.261	-0.116
-734.010	483.184	0.087	0.201
-732.996	162.035	-0.103	-0.147
-731.981	800.000	-0.068	0.286
-730.966	-56.958	0.091	-0.041
-729.952	95.610	0.189	-0.218
-728.937	-167.102	0.095	-0.004
-727.923	-24.699	-0.138	0.083
-726.908	-105.992	0.218	0.050
-725.894	17.980	0.154	-0.124
-724.879	209.960	-0.144	-0.228
-723.864	259.007	0.058	-0.101
-722.850	-76.876	-0.259	-0.092
-721.835	-200.000	-0.005	-0.263
-720.821	-117.788	-0.357	0.065
-719.806	-200.000	0.023	-0.108
-718.791	-200.000	0.051	0.298
-717.777	102.274	-0.214	0.252
-716.762	800.000	0.024	0.084
-715.748	-59.445	0.148	-0.064
-714.733	233.807	0.156	-0.260
-713.718	-96.323	-0.292	0.078
-712.704	-90.900	-0.090	-0.026
-711.689	-53.747	-0.070	-0.032
-710.675	-77.752	-0.409	-0.143
-709.660	13.755	0.070	-0.055
-708.645	-3.635	-0.290	-0.204
-707.631	-130.712	-0.238	0.032
-706.616	112.503	-0.092	0.112
-705.602	148.833	-0.030	-0.041
-704.587	-124.764	0.294	-0.046
-703.572	57.795	-0.159	-0.157
-702.558	-200.000	0.040	0.382
-701.543	46.667	0.141	-0.132
-700.529	-31.108	0.194	-0.110
-699.514	-118.041	0.347	-0.063
-698.499	192.427	-0.184	-0.280
-697.485	-146.207	-0.260	-0.023
-696.470	-200.000	-0.082	-0.394
-695.456	17.855	-0.074	0.060
-694.441	-70.151	0.171	0.065
-693.426	218.673	-0.124	0.200
-692.412	138.349	0.144	-0.190
-691.397	184.369	-0.130	-0.195
-690.383	-200.000	-0.010	-0.102
-689.368	431.132	0.039	-0.084
-688.354	-200.000	0.103	0.455
-687.339	-123.494	-0.264	-0.042
-686.324	-50.891	-0.116	0.055
-685.310	62.946	-0.267	-0.270
-684.295	-9.858	0.051	0.034
-683.281	521.670	0.097	-0.229
-682.266	-200.000	0.028	0.225
-681.251	-72.770	-0.164	-0.061
-680.237	-200.000	0.013	0.105
-679.222	-200.000	-0.013	-0.098
-678.208	453.695	-0.112	-0.249
-677.193	-9.566	-0.413	0.278
-676.178	-65.469	-0.176	0.071
-675.164	-112.309	-0.303	-0.061
-674.149	-99.284	-0.359	0.091
-673.135	-67.194	0.231	-0.092
-672.120	-131.128	-0.360	0.048
-671.105	800.000	0.063	-0.226
-670.091	-17.616	0.255	0.161
-669.076	-51.647	-0.305	0.144
-668.062	-140.975	-0.129	-0.013
-667.047	388.783	-0.047	0.099
-666.032	800.000	-0.089	-0.317
-665.018	-59.817	-0.089	-0.038
-664.003	68.370	0.384	0.396
-662.989	-18.379	0.122	-0.077
-661.974	88.038	0.174	-0.195
-660.959	521.860	0.119	0.281
-659.945	411.198	0.101	-0.217
-658.930	-58.554	0.122	0.053
-657.916	800.000	0.016	0.065
-656.901	-36.854	0.131	0.071
-655.886	-127.422	0.202	0.030
-654.872	-176.715	0.170	0.004
-653.857	-130.658	-0.448	-0.061
-652.843	410.102	-0.035	-0.074
-651.828	26.540	-0.180	0.152
-650.814	44.790	0.101	0.093
-649.799	-122.590	0.135	-0.022
-648.784	57.168	0.245	-0.241
-647.770	-117.057	-0.163	0.030
-646.755	-47.962	-0.087	-0.042
-645.741	-200.000	0.070	0.356
-644.726	-200.000	-0.077	0.360
-643.711	-100.081	0.054	0.013
-642.697	228.107	-0.064	0.105
-641.682	-200.000	0.055	0.316
-640.668	-85.231	-0.118	0.037
-639.653	-10.774	-0.165	0.110
-638.638	-146.353	-0.161	-0.014
-637.624	76.500	0.227	0.243
-636.609	182.849	0.066	-0.098
-635.595	-74.450	-0.209	-0.076
-634.580	-200.000	-0.081	0.366
-633.565	800.000	-0.054	0.169
-632.551	199.116	0.104	0.161
-631.536	-200.000	0.010	0.092
-630.522	-0.661	-0.094	0.067
-629.507	280.665	-0.174	-0.314
-628.492	-200.000	-0.022	-0.454
-627.478	-200.000	0.029	0.161
-626.463	-102.900	0.246	0.059
-625.449	800.000	-0.054	-0.195
-624.434	481.860	-0.012	0.027
-623.419	-116.046	0.168	-0.032
-622.405	-200.000	-0.001	0.121
-621.390	-97.324	-0.032	-0.008
-620.376	-200.000	0.014	0.289
-619.361	-99.860	-0.230	0.058
-618.346	-200.000	-0.023	0.122
-617.332	-144.530	-0.240	0.022
-616.317	95.119	0.195	0.223
-615.303	59.817	0.099	-0.098
-614.288	578.087	0.016	0.041
-613.273	-31.214	-0.159	0.090
-612.259	-200.000	0.027	0.133
-611.244	-200.000	-0.005	0.107
-610.230	-145.866	0.436	0.039
-609.215	-114.635	-0.293	0.057
-608.201	800.000	-0.074	-0.263
-607.186	-114.505	-0.073	-0.014
-606.171	-200.000	0.013	0.356
-605.157	-115.103	-0.161	-0.031
-604.142	-200.000	0.002	0.258
-603.128	528.047	-0.188	-0.447
-602.113	19.878	-0.108	-0.088
-601.098	304.083	-0.192	0.358
-600.084	-127.285	0.204	-0.030
-599.069	-10.989	0.408	-0.270
-598.055	48.306	-0.172	0.162
-597.040	-154.414	0.262	-0.018
-596.025	-49.147	-0.072	-0.035
-595.011	14.020	-0.210	0.164
-593.996	-132.422	-0.467	0.060
-592.982	-198.835	-0.086	-0.000
-591.967	167.802	-0.203	-0.290
-590.952	-200.000	0.032	-0.270
-589.938	-147.935	0.196	-0.016
-588.923	48.655	-0.136	-0.128
-587.909	-18.773	-0.104	0.065
-586.894	-61.331	-0.161	-0.068
-585.879	-53.974	-0.199	0.091
-584.865	-32.512	-0.425	-0.238
-583.850	-200.000	0.037	-0.238
-582.836	-103.471	-0.115	0.027
-581.821	64.129	-0.253	-0.256
-580.806	-90.802	-0.055	-0.016
-579.792	-200.000	-0.016	0.177
-578.777	301.450	0.010	-0.018
-577.763	-39.921	0.094	-0.049
-576.748	-155.616	-0.144	0.009
-575.733	204.623	0.084	0.131
-574.719	-24.524	-0.211	-0.126
-573.704	33.585	-0.106	0.092
-572.690	356.230	-0.127	0.255
-571.675	-83.833	-0.213	0.068
-570.661	-118.707	0.102	0.018
-569.646	-121.877	0.155	-0.026
-568.631	-9.592	0.117	0.078
-567.617	35.420	0.345	-0.304
-566.602	131.028	-0.129	-0.167
-565.588	800.000	-0.047	-0.195
-564.573	-158.562	0.113	-0.007
-563.558	-42.414	-0.074	0.038
-562.544	-170.081	-0.257	0.009
-561.529	-126.103	0.122	0.018
-560.515	97.675	0.118	0.136
-559.500	111.026	0.124	-0.150
-558.485	238.672	-0.041	0.069
-557.471	-54.073	-0.176	0.080
-556.456	-200.000	0.008	0.344
-555.442	-200.000	0.021	-0.117
-554.427	168.992	-0.189	-0.270
-553.412	27.941	0.211	-0.178
-552.398	15.936	-0.174	-0.137
-551.383	4.321	-0.328	-0.241
-550.369	-200.000	0.042	0.372
-549.354	-200.000	0.049	0.216
-548.339	-23.437	0.149	0.090
-547.325	-139.178	0.271	-0.029
-546.310	-121.690	-0.141	0.023
-545.296	317.437	0.192	-0.364
-544.281	-128.520	-0.230	0.033
-543.266	65.328	-0.108	-0.109
-542.252	324.569	-0.046	-0.089
-541.237	-153.839	-0.191	-0.013
-540.223	3.353	-0.183	0.134
-539.208	706.297	0.079	-0.209
-538.193	-71.138	0.222	0.084
-537.179	69.906	0.092	-0.095
-536.164	334.231	-0.062	0.121
-535.150	800.000	0.067	0.264
-534.135	199.463	-0.037	0.057
-533.121	-39.983	0.032	0.017
-532.106	-9.625	0.106	0.071
-531.091	-83.165	0.294	-0.095
-530.077	222.831	-0.202	-0.327
-529.062	276.737	0.158	-0.282
-528.048	462.424	0.072	-0.162
-527.033	-200.000	0.030	0.438
-526.018	800.000	0.033	-0.129
-525.004	139.899	0.033	-0.044
-523.989	-45.004	0.024	-0.012
-522.975	259.274	0.109	0.188
-521.960	472.341	0.067	0.151
-520.945	-22.393	-0.029	-0.018
-519.931	-28.364	-0.181	-0.105
-518.916	-94.103	0.145	-0.040
-517.902	19.084	-0.408	-0.328
-516.887	-43.938	0.243	-0.122
-515.872	198.295	-0.054	-0.083
-514.858	313.779	-0.113	-0.213
-513.843	352.855	-0.055	0.109
-512.829	3.500	-0.294	0.214
-511.814	-200.000	0.002	-0.055
-510.799	800.000	0.094	0.334
-509.785	718.446	0.027	0.073
-508.770	-136.499	0.136	0.016
-507.756	-200.000	-0.003	0.144
-506.741	-200.000	0.021	-0.094
-505.726	800.000	0.066	0.191
-504.712	756.760	0.160	0.434
-503.697	47.976	-0.168	0.157
-502.683	141.456	0.041	0.055
-501.668	-33.062	-0.073	0.040
-500.653	-23.318	-0.166	0.100
-499.639	499.377	-0.125	-0.289
-498.624	-11.024	0.109	0.072
-497.610	-133.087	0.420	-0.053
-496.595	508.403	0.078	-0.181
-495.581	-192.918	0.217	-0.002
-494.566	476.196	0.037	0.085
-493.551	5.841	-0.173	0.128
-492.537	269.614	0.137	-0.242
-491.522	-70.878	0.163	-0.061
-490.508	-109.684	-0.140	-0.029
-489.493	-200.000	0.002	0.186
-488.478	285.014	-0.097	-0.176
-487.464	533.454	-0.058	0.137
-486.449	-200.000	-0.001	0.258
-485.435	-97.313	0.127	0.033
-484.420	800.000	-0.075	-0.308
-483.405	-200.000	-0.081	0.539
-482.391	-82.396	0.114	0.037
-481.376	110.777	-0.057	-0.068
-480.362	-25.496	0.183	-0.108
-479.347	-133.943	-0.148	0.018
-478.332	562.368	0.192	-0.465
-477.318	734.135	-0.093	-0.248
-476.303	336.437	-0.062	0.121
-475.289	-121.486	0.078	0.013
-474.274	-43.957	0.021	0.011
-473.259	-200.000	0.009	-0.296
-472.245	341.637	0.056	-0.110
-471.230	122.286	0.106	0.132
-470.216	-73.339	-0.201	0.073
-469.201	238.702	-0.044	0.073
-468.186	88.532	-0.086	-0.096
-467.172	32.458	-0.217	-0.188
-466.157	-23.417	0.177	0.106
-465.143	306.127	0.177	-0.330
-464.128	241.818	-0.021	-0.036
-463.113	-51.749	0.168	-0.078
-462.099	-200.000	-0.003	-0.325
-461.084	-85.554	0.139	0.043
-460.070	-200.000	0.007	-0.079
-459.055	25.603	-0.151	-0.126
-458.040	347.313	-0.159	-0.313
-457.026	-30.751	0.253	0.143
-456.011	-119.719	0.125	0.022
-454.997	17.327	-0.265	-0.210
-453.982	-126.912	-0.136	0.020
-452.968	-200.000	-0.007	0.047
-451.953	-25.785	-0.206	-0.122
-450.938	182.350	0.114	-0.168
-449.924	54.312	0.196	-0.188
-448.909	-10.066	-0.074	-0.049
-447.895	-107.325	-0.099	-0.022
-446.880	-40.929	0.237	0.122
-445.865	-200.000	0.002	0.066
-444.851	207.541	0.061	-0.095
-443.836	110.259	0.237	0.284
-442.822	-12.103	0.287	-0.188
-441.807	-200.000	-0.034	0.181
-440.792	334.087	0.089	0.172
-439.778	73.409	-0.132	0.138
-438.763	800.000	-0.101	0.285
-437.749	469.569	-0.062	-0.140
-436.734	74.608	-0.216	-0.227
-435.719	800.000	-0.058	-0.167
-434.705	-22.476	-0.170	-0.103
-433.690	-131.432	0.101	0.013
-432.676	-30.610	0.226	0.128
-431.661	235.024	-0.229	0.377
-430.646	-200.000	0.007	0.060
-429.632	800.000	-0.022	0.077
-428.617	3.910	0.412	-0.301
-427.603	-108.247	0.171	-0.037
-426.588	86.067	0.068	-0.075
-425.573	402.830	0.089	0.188
-424.559	-82.657	0.080	-0.026
-423.544	-125.025	-0.302	-0.046
-422.530	143.954	-0.090	0.120
-421.515	-128.242	-0.246	-0.035
-420.500	-5.684	0.202	0.138
-419.486	-147.932	-0.263	0.022
-418.471	-200.000	-0.018	-0.293
-417.457	-64.125	-0.273	0.111
-416.442	-21.340	0.057	0.035
-415.428	147.029	-0.149	0.200
-414.413	22.852	-0.349	-0.286
-413.398	-81.748	-0.271	0.089
-412.384	54.689	-0.347	0.334
-411.369	230.601	0.112	-0.183
-410.355	-116.484	0.144	0.027
-409.340	90.108	0.026	-0.029
-408.325	800.000	-0.052	-0.175
-407.311	115.437	-0.171	-0.208
-406.296	169.816	0.084	0.120
-405.282	-135.054	0.294	0.035
-404.267	365.809	0.036	-0.073
-403.252	746.456	-0.082	0.219
-402.238	47.381	-0.086	-0.080
-401.223	348.879	-0.100	-0.197
-400.209	-200.000	0.051	-0.231
-399.194	8.475	0.041	-0.031
-398.179	-68.774	0.205	-0.079
-397.165	637.136	-0.085	0.215
-396.150	340.530	0.108	0.211
-395.136	156.672	0.082	-0.112
-394.121	-103.649	0.219	-0.051
-393.106	-81.161	-0.177	-0.058
-392.092	800.000	0.067	-0.206
-391.077	10.073	-0.126	0.096
-390.063	-44.016	0.186	-0.093
-389.048	-59.224	0.088	0.038
-388.033	0.178	-0.037	-0.026
-387.019	-54.153	-0.130	-0.059
-386.004	800.000	-0.033	-0.132
-384.990	-200.000	0.070	-0.414
-383.975	13.581	0.032	0.025
-382.960	-200.000	0.024	-0.234
-381.946	575.920	0.072	0.176
-380.931	113.110	0.162	0.195
-379.917	-200.000	-0.012	0.157
-378.902	-9.917	-0.208	0.138
-377.888	800.000	-0.074	-0.320
-376.873	-200.000	-0.048	-0.296
-375.858	268.464	0.104	-0.182
-374.844	-200.000	-0.007	0.112
-373.829	-61.071	-0.197	-0.083
-372.815	15.187	0.165	-0.129
-371.800	7.587	0.284	0.212
-370.785	-200.000	0.003	0.133
-369.771	-41.627	0.246	0.126
-368.756	134.617	-0.044	-0.057
-367.742	359.931	-0.190	-0.378
-366.727	71.080	-0.212	-0.219
-365.712	800.000	0.076	0.214
-364.698	142.656	0.165	-0.219
-363.683	53.948	0.161	0.154
-362.669	-110.713	0.324	-0.067
-361.654	800.000	0.090	-0.280
-360.639	-40.985	0.349	-0.180
-359.625	347.153	-0.079	0.154
-358.610	-45.237	-0.123	0.061
-357.596	31.506	0.389	0.333
-356.581	-19.001	0.074	0.046
-355.566	800.000	0.070	-0.273
-354.552	-36.021	0.277	-0.149
-353.537	-128.945	0.139	0.019
-352.523	800.000	-0.060	0.188
-351.508	169.720	-0.213	-0.303
-350.493	-42.863	-0.170	-0.086
-349.479	-52.353	0.179	0.083
-348.464	84.422	-0.131	-0.143
-347.450	800.000	0.053	-0.192
-346.435	-109.693	0.316	-0.066
-345.420	-127.136	0.250	0.036
-344.406	159.052	0.083	-0.114
-343.391	142.340	-0.136	0.180
-342.377	341.558	-0.161	-0.314
-341.362	-200.000	0.039	0.177
-340.348	-128.325	0.051	-0.007
-339.333	800.000	0.181	0.528
-338.318	800.000	0.117	0.356
-337.304	800.000	0.092	-0.367
-336.289	101.888	-0.156	-0.181
-335.275	-112.061	0.426	-0.085
-334.260	-43.143	-0.147	-0.074
-333.245	10.661	-0.162	0.123
-332.231	800.000	-0.050	-0.203
-331.216	54.755	-0.103	-0.099
-330.202	-66.682	-0.359	-0.142
-329.187	186.399	0.202	-0.299
-328.172	-50.552	-0.048	0.022
-327.158	-137.157	-0.263	-0.030
-326.143	-171.749	0.311	-0.010
-325.129	-139.791	-0.207	-0.022
-324.114	49.349	0.114	0.107
-323.099	800.000	0.030	0.092
-322.085	-200.000	0.039	0.239
-321.070	-150.457	-0.224	-0.017
-320.056	435.328	-0.174	0.376
-319.041	-200.000	-0.001	0.187
-318.026	800.000	-0.087	0.242
-317.012	800.000	-0.048	-0.175
-315.997	-103.880	-0.188	0.044
-314.983	-132.430	0.097	0.012
-313.968	-148.234	-0.196	0.016
-312.953	127.985	-0.225	0.284
-311.939	91.752	-0.224	0.251
-310.924	56.144	-0.166	-0.161
-309.910	-33.331	0.182	-0.100
-308.895	-35.226	-0.385	0.209
-307.880	157.186	0.233	0.320
-306.866	107.436	0.227	0.268
-305.851	-33.684	-0.091	-0.050
-304.837	-112.781	0.272	-0.054
-303.822	73.984	0.109	0.114
-302.807	-81.484	-0.054	0.018
-301.793	-9.215	-0.262	0.174
-300.778	-118.302	0.231	-0.041
-299.764	57.310	0.181	0.176
-298.749	45.411	0.264	-0.242
-297.735	-200.000	-0.006	0.248
-296.720	143.077	-0.185	-0.245
-295.705	800.000	-0.019	-0.083
-294.691	38.280	0.048	-0.043
-293.676	35.663	-0.068	0.059
-292.662	-50.830	-0.114	0.053
-291.647	-92.015	-0.123	-0.035
-290.632	-200.000	-0.036	-0.235
-289.618	-111.805	-0.214	-0.043
-288.603	-43.874	-0.201	0.101
-287.589	78.120	0.163	-0.172
-286.574	690.267	-0.033	0.086
-285.559	686.157	-0.084	0.218
-284.545	162.064	0.084	-0.117
-283.530	10.391	-0.101	0.076
-282.516	164.029	-0.222	0.311
-281.501	-55.767	0.214	0.095
-280.486	139.041	-0.029	-0.037
-279.472	-30.408	0.193	-0.109
-278.457	-17.662	-0.208	0.130
-277.443	1.940	-0.222	0.159
-276.428	17.749	0.048	-0.038
-275.413	187.640	-0.063	-0.094
-274.399	-1.214	-0.230	-0.161
-273.384	121.227	0.244	0.302
-272.370	-65.672	0.106	0.042
-271.355	100.467	-0.080	-0.092
-270.340	555.925	-0.109	0.261
-269.326	-127.904	0.159	0.023
-268.311	86.778	-0.135	-0.148
-267.297	45.328	0.240	0.220
-266.282	236.452	0.048	0.078
-265.267	23.835	0.175	-0.143
-264.253	-200.000	-0.026	-0.173
-263.238	498.573	-0.051	0.117
-262.224	93.672	0.157	0.176
-261.209	194.917	-0.055	-0.083
-260.195	-200.000	-0.038	-0.316
-259.180	283.983	0.196	-0.349
-258.165	-51.753	-0.125	0.058
-257.151	-197.396	0.131	0.001
-256.136	800.000	0.022	0.091
-255.122	-200.000	-0.022	0.138
-254.107	607.213	-0.035	0.087
-253.092	-45.891	-0.077	0.038
-252.078	-121.847	0.218	0.036
-251.063	272.821	-0.032	0.056
-250.049	65.414	0.341	0.342
-249.034	-200.000	0.001	0.297
-248.019	-106.065	0.192	-0.043
-247.005	-200.000	0.007	0.249
-245.990	-200.000	0.030	0.156
-244.976	-200.000	0.021	-0.156
-243.961	36.956	-0.208	-0.182
-242.946	-96.387	-0.270	-0.071
-241.932	-96.128	-0.405	-0.107
-240.917	-51.888	-0.336	-0.155
-239.903	-13.547	0.278	-0.178
-238.888	286.942	-0.099	0.177
-237.873	-45.447	0.080	-0.039
-236.859	20.054	-0.284	0.227
-235.844	83.856	-0.107	-0.116
-234.830	-144.417	-0.083	-0.008
-233.815	61.768	0.251	0.247
-232.800	-200.000	0.002	-0.066
-231.786	195.215	0.074	0.111
-230.771	-44.869	0.394	0.195
-229.757	-200.000	0.017	0.426
-228.742	10.779	0.146	0.110
-227.727	189.541	0.190	-0.282
-226.713	-36.262	-0.192	0.103
-225.698	516.052	0.076	0.176
-224.684	-200.000	0.010	-0.168
-223.669	-35.258	-0.109	-0.059
-222.655	368.456	0.157	0.315
-221.640	800.000	-0.034	-0.102
-220.625	-103.450	0.284	-0.066
-219.611	10.690	-0.175	-0.132
-218.596	-35.706	0.026	-0.014
-217.582	-58.122	-0.144	-0.062
-216.567	6.021	-0.083	-0.061
-215.552	-108.604	-0.118	0.025
-214.538	800.000	-0.081	0.257
-213.523	-65.018	0.198	-0.079
-212.509	76.887	-0.051	-0.054
-211.494	-53.060	0.113	-0.052
-210.479	-55.856	0.073	0.032
-209.465	-163.362	0.279	0.013
-208.450	-57.383	0.144	-0.063
-207.436	-196.347	0.092	-0.001
-206.421	643.611	-0.104	-0.263
-205.406	140.068	-0.134	0.175
-204.392	3.204	-0.511	0.368
-203.377	-152.152	0.365	0.026
-202.363	267.406	0.070	-0.122
-201.348	274.754	0.084	0.146
-200.333	800.000	0.067	-0.212
-199.319	-48.739	-0.160	0.076
-198.304	147.293	-0.181	-0.241
-197.290	0.474	-0.199	-0.141
-196.275	-117.650	-0.051	-0.009
-195.260	-98.684	0.410	-0.103
-194.246	120.375	0.055	0.068
-193.231	480.384	0.116	0.261
-192.217	-200.000	0.031	-0.273
-191.202	152.461	-0.102	-0.138
-190.187	-61.704	-0.291	-0.121
-189.173	-159.569	0.137	0.008
-188.158	411.691	0.104	0.218
-187.144	100.138	-0.270	0.309
-186.129	88.018	0.205	-0.225
-185.114	-50.595	-0.378	-0.176
-184.100	-200.000	0.075	-0.423
-183.085	30.230	-0.126	0.107
-182.071	-99.059	0.175	-0.044
-181.056	800.000	-0.045	0.138
-180.042	-59.176	-0.167	0.071
-179.027	102.541	0.208	-0.240
-178.012	-27.104	0.318	-0.184
-176.998	87.531	0.096	-0.105
-175.983	202.081	-0.060	-0.092
-174.969	-44.324	0.070	-0.035
-173.954	-144.436	0.323	-0.030
-172.939	-74.245	-0.203	0.073
-171.925	-82.665	-0.182	-0.058
-170.910	-73.634	0.160	-0.058
-169.896	-67.732	-0.123	0.047
-168.881	-200.000	-0.021	0.146
-167.866	800.000	0.050	-0.144
-166.852	-106.314	0.112	-0.025
-165.837	41.014	0.252	0.225
-164.823	399.198	0.146	0.302
-163.808	69.539	-0.146	0.149
-162.793	-122.296	-0.165	-0.027
-161.779	624.023	-0.026	-0.065
-160.764	-200.000	0.004	0.292
-159.750	-89.114	-0.149	-0.044
-158.735	-150.886	0.455	-0.034
-157.720	550.540	0.065	0.153
-156.706	800.000	-0.037	0.123
-155.691	397.772	-0.091	-0.188
-154.677	800.000	0.078	-0.265
-153.662	-65.105	0.123	0.049
-152.647	800.000	0.081	-0.276
-151.633	-54.737	0.259	-0.116
-150.618	-100.585	0.443	-0.108
-149.604	-200.000	-0.017	-0.196
-148.589	-125.044	0.457	0.069
-147.574	-48.945	-0.588	0.278
-146.560	190.286	0.080	0.118
-145.545	391.415	0.111	0.228
-144.531	-121.366	0.197	-0.032
-143.516	174.043	-0.167	-0.238
-142.502	800.000	-0.103	-0.417
-141.487	-22.298	-0.226	-0.135
-140.472	-200.000	-0.008	0.059
-139.458	682.008	-0.041	-0.106
-138.443	286.976	-0.028	-0.049
-137.429	358.038	0.060	-0.119
-136.414	352.150	0.117	-0.229
-135.399	-99.139	-0.180	0.045
-134.385	800.000	-0.048	-0.171
-133.370	-15.113	-0.110	-0.069
-132.356	-86.937	0.099	0.030
-131.341	-129.912	0.367	-0.050
-130.326	-200.000	0.000	0.118
-129.312	286.426	-0.085	0.152
-128.297	13.098	-0.154	-0.118
-127.283	-142.732	-0.155	-0.015
-126.268	-85.939	0.171	0.052
-125.253	-82.662	0.236	0.075
-124.239	-200.000	0.012	0.104
-123.224	-55.877	-0.260	-0.114
-122.210	336.216	0.118	-0.226
-121.195	-200.000	0.012	-0.093
