DTS Sentinel unit serial number:	SN413079Multiplexer serial number:	ORYXHardware model number:	OX4-SRSoftware version number:	ORYX F/W v4.00 Oryx Data Collector v3.7.2.0data status	okinstallation	princeton_trtdifferential loss correction	single-endedforward channel	channel 1reverse channel	N/Adate	2019/09/12time	21:58:35forward acquisition time	60.00reverse acquisition time	0.00gamma	496.2192k internal	0.2327k external	0.2327temperature offset calibration	1.0154default loss term (dB/km)	0.3790temperature slope calibration	1.0000multiplexer offset coefficient	1.0000multiplexer slope coefficient	1.0000fibre end	0.00T internal ref (°C)	30.09T ext. ref 1 (°C)	3.73T ext. ref 2 (°C)	24.66length (m)	temperature (°C)	Stokes	anti-Stokes-747.200	85.065	-0.144	-0.159
-746.185	341.311	0.297	0.585
-745.171	-200.000	-0.101	-0.520
-744.156	295.928	0.239	0.441
-743.142	21.202	-0.160	0.131
-742.127	25.611	-0.306	0.257
-741.112	20.461	-0.089	-0.072
-740.098	-58.621	-0.514	0.225
-739.083	76.537	-0.299	0.319
-738.069	798.601	0.076	0.211
-737.054	-63.720	-0.212	-0.088
-736.039	139.295	-0.145	0.193
-735.025	-30.328	0.116	0.067
-734.010	786.662	0.063	-0.173
-732.996	-54.528	-0.213	-0.097
-731.981	-26.530	0.140	-0.083
-730.966	84.049	0.097	-0.107
-729.952	508.134	-0.064	-0.149
-728.937	73.382	-0.228	-0.240
-727.923	135.447	-0.004	0.006
-726.908	115.273	-0.107	-0.131
-725.894	664.484	-0.139	-0.361
-724.879	-1.864	-0.233	-0.165
-723.864	-91.567	-0.341	0.098
-722.850	40.892	0.113	-0.103
-721.835	-147.505	-0.147	-0.012
-720.821	-124.753	-0.072	0.011
-719.806	-200.000	0.048	0.300
-718.791	23.611	0.312	0.259
-717.777	33.020	0.111	-0.097
-716.762	-59.145	-0.275	-0.119
-715.748	800.000	0.040	0.146
-714.733	-156.157	-0.313	0.020
-713.718	-200.000	-0.025	0.116
-712.704	-73.066	-0.234	0.086
-711.689	58.053	-0.152	-0.149
-710.675	44.289	-0.346	-0.320
-709.660	-200.000	0.014	-0.189
-708.645	208.828	-0.149	-0.235
-707.631	683.216	0.077	0.203
-706.616	400.922	-0.105	0.222
-705.602	195.599	-0.064	-0.097
-704.587	7.185	0.172	-0.129
-703.572	572.305	-0.027	0.065
-702.558	215.044	0.249	0.398
-701.543	-200.000	0.020	-0.242
-700.529	-100.519	0.171	-0.043
-699.514	-48.443	0.232	-0.113
-698.499	-60.605	0.324	-0.139
-697.485	-98.590	-0.170	0.044
-696.470	-200.000	0.009	-0.336
-695.456	-184.346	0.207	-0.003
-694.441	800.000	-0.088	-0.331
-693.426	-200.000	-0.068	-0.326
-692.412	800.000	0.017	-0.055
-691.397	9.421	0.116	-0.088
-690.383	-107.129	-0.266	-0.059
-689.368	48.766	-0.275	0.259
-688.354	-56.625	-0.059	0.026
-687.339	-55.026	0.279	-0.127
-686.324	74.216	0.110	-0.116
-685.310	268.755	-0.031	0.056
-684.295	237.836	-0.185	-0.309
-683.281	800.000	0.056	-0.176
-682.266	-87.433	-0.261	0.079
-681.251	279.096	0.077	-0.138
-680.237	-126.873	-0.147	0.022
-679.222	-63.126	0.214	-0.089
-678.208	609.866	-0.062	0.155
-677.193	-127.479	-0.564	0.082
-676.178	-145.531	0.232	-0.021
-675.164	-200.000	0.006	-0.107
-674.149	800.000	0.049	-0.145
-673.135	427.378	-0.090	0.196
-672.120	-130.946	-0.285	0.038
-671.105	-200.000	0.053	0.284
-670.091	-33.484	-0.150	0.083
-669.076	64.099	-0.221	-0.223
-668.062	-110.887	-0.246	-0.051
-667.047	-75.378	-0.420	0.151
-666.032	800.000	0.024	-0.091
-665.018	-42.719	0.170	0.087
-664.003	-36.943	0.168	-0.090
-662.989	-123.434	0.156	0.025
-661.974	239.441	-0.140	-0.235
-660.959	800.000	0.045	-0.129
-659.945	97.360	0.110	-0.127
-658.930	299.549	0.201	-0.372
-657.916	-128.521	0.174	-0.025
-656.901	-28.123	-0.239	0.139
-655.886	-148.394	-0.142	0.012
-654.872	-200.000	0.022	-0.213
-653.857	178.859	-0.209	0.307
-652.843	-32.376	0.159	0.089
-651.828	-200.000	-0.058	-0.000
-650.814	187.640	-0.161	-0.241
-649.799	-4.309	-0.195	-0.135
-648.784	169.400	-0.026	0.037
-647.770	-200.000	-0.021	-0.455
-646.755	-80.492	-0.301	0.101
-645.741	16.522	-0.279	0.222
-644.726	-28.299	-0.227	-0.132
-643.711	-25.574	0.374	0.222
-642.697	-4.684	-0.157	0.109
-641.682	-14.800	0.035	-0.022
-640.668	189.377	0.188	0.282
-639.653	-92.720	0.236	-0.066
-638.638	136.393	0.030	-0.039
-637.624	39.698	0.214	0.192
-636.609	800.000	-0.093	0.289
-635.595	-57.151	-0.070	-0.031
-634.580	257.178	0.094	-0.163
-633.565	282.066	-0.194	-0.350
-632.551	182.617	-0.201	-0.298
-631.536	-200.000	-0.004	0.100
-630.522	-200.000	-0.045	0.265
-629.507	-33.117	-0.032	0.018
-628.492	218.292	-0.188	0.301
-627.478	800.000	-0.014	0.046
-626.463	-113.587	-0.255	-0.050
-625.449	-200.000	-0.013	0.072
-624.434	-38.794	0.241	0.128
-623.419	800.000	-0.098	-0.417
-622.405	-75.787	0.308	-0.110
-621.390	-85.322	0.231	0.072
-620.376	-13.930	-0.173	0.112
-619.361	-4.592	-0.250	0.173
-618.346	-107.111	0.250	0.055
-617.332	-200.000	-0.044	-0.375
-616.317	-87.147	-0.072	0.022
-615.303	662.215	0.101	0.261
-614.288	57.567	0.205	0.201
-613.273	-144.098	-0.090	-0.008
-612.259	-200.000	0.014	-0.231
-611.244	47.971	-0.468	-0.438
-610.230	-36.787	-0.224	-0.121
-609.215	94.240	-0.167	-0.190
-608.201	800.000	-0.132	-0.412
-607.186	-70.783	-0.298	-0.113
-606.171	156.651	0.228	-0.316
-605.157	71.202	0.138	0.144
-604.142	-87.392	-0.363	-0.110
-603.128	-0.149	-0.148	0.106
-602.113	-85.582	-0.287	-0.090
-601.098	-126.066	0.130	-0.019
-600.084	-50.513	0.173	0.082
-599.069	-54.395	0.315	-0.143
-598.055	-62.729	0.158	0.066
-597.040	319.815	0.030	-0.058
-596.025	-9.572	0.107	-0.072
-595.011	-200.000	0.042	0.336
-593.996	10.451	-0.363	0.277
-592.982	-86.951	-0.054	-0.016
-591.967	-65.046	0.306	-0.124
-590.952	-85.960	0.115	0.036
-589.938	800.000	-0.056	0.171
-588.923	-163.656	0.012	0.001
-587.909	-84.340	0.180	-0.057
-586.894	800.000	0.050	-0.197
-585.879	-110.257	0.263	-0.055
-584.865	59.834	0.158	-0.156
-583.850	178.583	0.078	0.114
-582.836	95.499	0.070	0.080
-581.821	67.523	-0.052	0.053
-580.806	433.247	-0.031	-0.067
-579.792	-200.000	-0.004	-0.048
-578.777	-86.179	-0.156	0.048
-577.763	800.000	-0.086	0.312
-576.748	25.759	0.138	-0.115
-575.733	-59.609	0.057	-0.025
-574.719	368.851	0.114	-0.231
-573.704	-65.561	-0.152	-0.061
-572.690	-200.000	0.021	-0.617
-571.675	618.171	0.079	-0.198
-570.661	-200.000	-0.005	-0.049
-569.646	-121.476	-0.127	-0.021
-568.631	-123.593	-0.079	0.013
-567.617	-200.000	0.011	0.508
-566.602	-200.000	-0.040	-0.186
-565.588	174.096	0.103	-0.149
-564.573	-20.831	0.283	0.174
-563.558	86.847	-0.118	-0.131
-562.544	215.962	-0.126	0.200
-561.529	158.584	-0.109	0.151
-560.515	323.591	-0.109	0.208
-559.500	-200.000	-0.016	-0.142
-558.485	0.340	0.147	-0.105
-557.471	-200.000	0.018	-0.140
-556.456	800.000	-0.036	-0.136
-555.442	-47.975	0.362	0.175
-554.427	-200.000	0.010	-0.208
-553.412	800.000	-0.110	0.359
-552.398	-200.000	0.045	-0.383
-551.383	-188.287	0.328	0.004
-550.369	-6.193	-0.114	-0.078
-549.354	744.556	0.070	-0.189
-548.339	-88.791	-0.274	-0.081
-547.325	-152.256	0.207	0.015
-546.310	296.806	-0.148	0.272
-545.296	-166.527	0.092	0.004
-544.281	437.059	-0.015	-0.033
-543.266	-200.000	0.013	0.078
-542.252	133.337	-0.044	0.057
-541.237	50.735	0.270	0.256
-540.223	-99.744	-0.286	0.072
-539.208	174.395	0.220	-0.318
-538.193	303.594	0.126	0.234
-537.179	39.306	-0.189	-0.169
-536.164	-200.000	-0.005	0.341
-535.150	800.000	0.037	0.116
-534.135	-173.185	-0.438	-0.013
-533.121	-200.000	-0.003	0.041
-532.106	800.000	0.003	-0.011
-531.091	-178.091	0.125	0.003
-530.077	222.594	0.086	0.139
-529.062	-24.856	0.091	-0.054
-528.048	-200.000	-0.011	-0.135
-527.033	669.857	-0.109	0.283
-526.018	800.000	0.058	0.218
-525.004	69.583	-0.160	-0.165
-523.989	-18.935	-0.091	-0.057
-522.975	-110.538	0.201	-0.042
-521.960	414.099	0.033	-0.070
-520.945	-62.744	-0.585	0.243
-519.931	-75.952	0.341	0.120
-518.916	-107.049	-0.100	-0.022
-517.902	-44.850	-0.131	-0.065
-516.887	86.577	-0.100	-0.111
-515.872	29.171	-0.288	-0.244
-514.858	-89.373	-0.045	-0.013
-513.843	60.432	0.212	-0.209
-512.829	82.690	-0.219	0.237
-511.814	76.971	-0.239	0.253
-510.799	-189.288	0.037	0.000
-509.785	13.117	0.202	0.156
-508.770	-45.112	0.072	0.036
-507.756	755.476	-0.068	0.183
-506.741	36.173	0.092	-0.081
-505.726	-61.624	-0.081	0.034
-504.712	247.327	-0.073	0.123
-503.697	800.000	0.015	0.056
-502.683	676.710	-0.124	0.322
-501.668	-61.225	0.234	0.098
-500.653	16.777	-0.166	0.131
-499.639	26.087	-0.204	0.170
-498.624	-97.438	0.053	0.014
-497.610	800.000	0.011	0.038
-496.595	42.874	-0.046	-0.042
-495.581	800.000	-0.053	-0.185
-494.566	179.997	0.102	-0.150
-493.551	-172.291	0.410	-0.013
-492.537	-49.745	-0.219	-0.104
-491.522	-74.236	-0.390	0.141
-490.508	243.941	-0.062	-0.104
-489.493	-175.447	-0.157	0.004
-488.478	-200.000	0.028	0.279
-487.464	-62.168	0.342	0.142
-486.449	158.829	0.081	0.113
-485.435	-59.716	-0.340	0.145
-484.420	265.199	0.118	-0.206
-483.405	400.815	-0.066	-0.139
-482.391	-149.080	-0.208	-0.017
-481.376	-106.401	0.175	-0.039
-480.362	-148.890	0.245	-0.020
-479.347	226.331	0.201	-0.326
-478.332	800.000	-0.030	0.110
-477.318	-9.505	-0.181	-0.120
-476.303	148.278	-0.161	0.217
-475.289	800.000	0.115	-0.466
-474.274	-188.903	0.049	-0.001
-473.259	-200.000	0.037	-0.182
-472.245	157.036	-0.230	-0.317
-471.230	198.383	0.364	-0.555
-470.216	4.243	0.098	0.072
-469.201	-200.000	0.000	-0.032
-468.186	-171.340	-0.218	0.007
-467.172	-72.669	0.266	0.098
-466.157	161.382	-0.212	-0.296
-465.143	-28.686	-0.191	0.109
-464.128	-200.000	0.038	0.217
-463.113	-200.000	-0.004	0.251
-462.099	800.000	0.086	0.249
-461.084	51.782	0.178	-0.169
-460.070	457.433	-0.016	0.035
-459.055	8.103	0.324	0.242
-458.040	-200.000	0.013	0.072
-457.026	-86.392	0.092	-0.028
-456.011	-95.568	-0.305	0.081
-454.997	800.000	-0.067	0.203
-453.982	-43.289	-0.067	0.034
-452.968	-50.469	0.173	0.082
-451.953	-74.204	0.172	0.062
-450.938	56.025	-0.015	-0.014
-449.924	-115.513	0.206	0.039
-448.909	-52.503	-0.197	-0.091
-447.895	800.000	-0.047	-0.184
-446.880	-73.522	-0.172	0.062
-445.865	-26.080	-0.141	0.082
-444.851	-98.435	-0.137	0.035
-443.836	50.987	-0.105	0.099
-442.822	37.018	-0.283	-0.250
-441.807	-60.684	0.313	-0.132
-440.792	800.000	-0.028	-0.107
-439.778	-147.652	0.041	-0.003
-438.763	-55.428	0.047	0.021
-437.749	-200.000	-0.026	0.169
-436.734	-88.569	0.245	-0.073
-435.719	800.000	-0.042	-0.135
-434.705	42.364	0.190	0.172
-433.690	-117.425	-0.234	-0.042
-432.676	-200.000	-0.014	-0.078
-431.661	475.082	-0.071	-0.159
-430.646	-45.380	-0.285	0.141
-429.632	-104.373	-0.242	-0.056
-428.617	-151.318	0.136	0.010
-427.603	-7.528	0.234	0.158
-426.588	-39.150	-0.048	0.025
-425.573	-200.000	0.006	0.048
-424.559	25.937	-0.111	-0.092
-423.544	-200.000	-0.019	0.088
-422.530	-4.510	-0.076	-0.052
-421.515	154.051	-0.206	0.281
-420.500	343.238	-0.044	-0.086
-419.486	27.555	0.153	0.128
-418.471	-49.456	-0.167	-0.079
-417.457	-200.000	-0.007	-0.519
-416.442	-19.527	-0.182	0.112
-415.428	408.133	0.104	0.219
-414.413	397.274	0.173	0.359
-413.398	658.731	-0.076	-0.195
-412.384	-200.000	0.030	-0.333
-411.369	-4.566	0.191	0.131
-410.355	97.053	0.038	0.044
-409.340	800.000	-0.060	0.173
-408.325	-85.940	0.481	0.148
-407.311	-171.574	-0.063	0.002
-406.296	-200.000	0.015	0.222
-405.282	3.640	0.331	0.240
-404.267	72.162	-0.258	-0.268
-403.252	800.000	-0.038	0.117
-402.238	-49.451	0.280	0.133
-401.223	45.267	-0.058	0.053
-400.209	205.102	0.145	0.224
-399.194	-112.621	0.219	-0.043
-398.179	197.380	-0.146	-0.221
-397.165	432.757	0.104	-0.225
-396.150	-160.058	0.316	-0.017
-395.136	800.000	0.122	-0.449
-394.121	-158.148	-0.198	0.012
-393.106	-13.070	0.062	-0.040
-392.092	800.000	0.130	-0.382
-391.077	105.507	0.232	-0.272
-390.063	-105.341	0.526	0.119
-389.048	134.938	-0.319	-0.412
-388.033	-200.000	0.018	0.256
-387.019	220.768	-0.145	-0.231
-386.004	162.197	0.022	0.030
-384.990	35.403	0.149	-0.130
-383.975	-64.071	-0.279	0.113
-382.960	161.495	-0.113	-0.157
-381.946	-13.291	0.101	0.065
-380.931	-69.145	-0.092	-0.035
-379.917	-200.000	-0.002	-0.096
-378.902	800.000	-0.108	-0.333
-377.888	26.614	-0.295	-0.245
-376.873	-42.767	-0.097	0.049
-375.858	-138.160	-0.155	-0.017
-374.844	-155.801	-0.091	-0.006
-373.829	800.000	0.019	0.077
-372.815	418.414	-0.020	-0.043
-371.800	10.315	-0.171	0.129
-370.785	-40.251	0.373	0.193
-369.771	-129.222	0.148	-0.021
-368.756	202.487	0.171	0.262
-367.742	50.145	-0.207	-0.194
-366.727	-105.742	0.299	-0.067
-365.712	-111.963	0.360	-0.072
-364.698	-38.273	0.045	-0.024
-363.683	101.047	0.236	0.273
-362.669	-91.122	0.175	-0.050
-361.654	-129.900	0.390	-0.053
-360.639	664.354	0.129	-0.332
-359.625	14.075	-0.297	-0.230
-358.610	-62.985	0.147	0.060
-357.596	-200.000	-0.005	0.090
-356.581	116.918	-0.127	0.154
-355.566	50.450	0.314	0.295
-354.552	60.710	0.351	0.345
-353.537	-200.000	0.023	-0.147
-352.523	-111.600	-0.267	0.054
-351.508	360.158	0.074	0.147
-350.493	50.741	-0.102	-0.096
-349.479	800.000	0.068	0.224
-348.464	-200.000	-0.020	-0.245
-347.450	-93.372	-0.178	-0.049
-346.435	41.106	-0.192	-0.172
-345.420	601.894	-0.031	0.077
-344.406	800.000	0.084	-0.271
-343.391	800.000	-0.111	-0.350
-342.377	-200.000	-0.004	0.442
-341.362	-200.000	-0.002	-0.403
-340.348	-52.487	0.206	-0.095
-339.333	-13.365	0.021	-0.013
-338.318	-101.209	0.192	-0.047
-337.304	26.653	-0.269	-0.224
-336.289	119.165	0.140	0.172
-335.275	800.000	-0.085	-0.298
-334.260	-130.165	-0.320	-0.043
-333.245	120.077	0.363	0.446
-332.231	-15.033	0.148	-0.094
-331.216	414.134	0.070	0.148
-330.202	79.952	-0.027	0.029
-329.187	291.232	0.128	0.231
-328.172	101.872	-0.168	0.194
-327.158	-131.345	-0.444	0.058
-326.143	419.028	-0.124	-0.263
-325.129	206.950	-0.060	-0.092
-324.114	-33.406	-0.282	-0.155
-323.099	-83.669	-0.195	0.062
-322.085	-200.000	0.037	-0.209
-321.070	652.613	-0.108	-0.275
-320.056	80.344	0.185	-0.197
-319.041	64.465	-0.148	0.148
-318.026	800.000	0.054	-0.172
-317.012	-31.746	-0.186	0.104
-315.997	185.773	-0.067	0.099
-314.983	381.965	0.059	0.121
-313.968	298.156	0.049	-0.090
-312.953	-200.000	-0.027	0.314
-311.939	-167.459	-0.239	0.010
-310.924	800.000	0.022	-0.061
-309.910	-84.494	0.061	-0.019
-308.895	14.416	-0.088	0.068
-307.880	246.205	-0.088	0.147
-306.866	-105.036	0.293	-0.066
-305.851	-27.363	0.402	-0.232
-304.837	-200.000	-0.035	-0.302
-303.822	-121.503	0.203	0.033
-302.807	54.897	-0.150	0.144
-301.793	-39.458	0.241	-0.125
-300.778	-70.030	-0.270	-0.102
-299.764	366.148	0.153	-0.305
-298.749	-200.000	-0.003	-0.016
-297.735	-87.071	-0.150	0.045
-296.720	800.000	-0.137	0.400
-295.705	-34.568	0.231	0.125
-294.691	12.564	-0.222	-0.170
-293.676	-40.097	0.269	0.139
-292.662	-98.037	-0.475	0.121
-291.647	-50.092	-0.147	-0.069
-290.632	-200.000	0.001	0.338
-289.618	-24.646	-0.219	0.129
-288.603	-200.000	0.004	-0.115
-287.589	800.000	0.048	0.179
-286.574	34.774	-0.063	0.055
-285.559	532.594	0.068	-0.159
-284.545	800.000	0.022	0.079
-283.530	-122.396	-0.184	0.030
-282.516	63.008	0.094	-0.093
-281.501	784.916	-0.093	0.253
-280.486	800.000	-0.027	0.115
-279.472	11.690	0.329	0.250
-278.457	800.000	0.091	0.254
-277.443	193.481	-0.034	0.051
-276.428	31.447	-0.236	0.200
-275.413	-144.892	-0.274	-0.025
-274.399	149.693	-0.075	0.101
-273.384	87.860	0.116	0.127
-272.370	-200.000	0.084	0.392
-271.355	746.762	0.052	0.139
-270.340	-28.155	0.335	0.192
-269.326	-74.051	-0.184	-0.066
-268.311	-8.394	0.154	-0.103
-267.297	-141.654	0.198	0.020
-266.282	39.199	-0.140	-0.124
-265.267	4.315	-0.196	0.142
-264.253	609.068	-0.070	0.174
-263.238	90.546	-0.245	-0.271
-262.224	-31.020	0.231	-0.129
-261.209	-66.334	-0.056	0.022
-260.195	-200.000	0.021	0.173
-259.180	-200.000	0.051	0.448
-258.165	-84.869	-0.235	0.073
-257.151	134.315	-0.057	-0.074
-256.136	79.871	0.028	-0.029
-255.122	-200.000	-0.002	0.070
-254.107	779.615	0.067	0.181
-253.092	30.569	-0.364	-0.308
-252.078	-62.686	-0.106	0.043
-251.063	54.681	0.126	-0.120
-250.049	-200.000	-0.004	0.188
-249.034	130.448	-0.097	-0.123
-248.019	-55.314	-0.195	0.087
-247.005	305.036	0.013	-0.023
-245.990	-83.337	-0.015	-0.005
-244.976	-200.000	-0.002	-0.212
-243.961	-101.555	0.465	-0.112
-242.946	-76.085	-0.174	-0.061
-241.932	-83.901	0.112	0.035
-240.917	800.000	0.056	0.240
-239.903	80.807	-0.073	0.077
-238.888	-98.935	-0.260	0.065
-237.873	800.000	-0.033	0.137
-236.859	-154.249	-0.425	0.028
-235.844	-62.173	0.124	-0.051
-234.830	280.886	-0.083	-0.146
-233.815	266.811	-0.071	-0.122
-232.800	99.437	0.125	0.143
-231.786	-61.426	0.221	0.092
-230.771	-71.426	-0.127	0.047
-229.757	434.488	0.030	0.064
-228.742	50.587	0.137	-0.128
-227.727	-193.611	0.267	-0.002
-226.713	423.185	0.086	0.182
-225.698	29.647	-0.202	0.170
-224.684	606.598	-0.166	0.410
-223.669	276.239	-0.108	0.189
-222.655	30.842	-0.297	0.251
-221.640	283.789	0.014	-0.026
-220.625	-200.000	-0.004	-0.557
-219.611	-200.000	-0.013	-0.430
-218.596	800.000	0.086	0.291
-217.582	22.668	-0.017	-0.014
-216.567	256.670	0.214	0.364
-215.552	-37.242	-0.293	0.155
-214.538	8.388	0.062	0.046
-213.523	34.145	0.334	0.288
-212.509	160.373	0.057	-0.079
-211.494	-107.022	0.193	-0.042
-210.479	6.649	-0.131	-0.096
-209.465	-200.000	-0.005	-0.055
-208.450	15.070	0.271	-0.210
-207.436	-200.000	-0.074	0.338
-206.421	800.000	-0.046	0.154
-205.406	-200.000	0.023	-0.122
-204.392	-200.000	0.010	-0.172
-203.377	97.623	0.219	-0.249
-202.363	800.000	-0.069	0.198
-201.348	42.754	0.102	-0.092
-200.333	-200.000	-0.005	0.085
-199.319	-26.552	0.261	-0.151
-198.304	-60.462	0.119	-0.050
-197.290	-82.509	0.440	-0.141
-196.275	800.000	0.139	-0.381
-195.260	-76.433	-0.156	-0.054
-194.246	-103.698	0.595	-0.138
-193.231	128.834	-0.093	0.118
-192.217	-105.597	-0.248	-0.056
-191.202	184.266	0.192	-0.280
-190.187	-10.164	-0.112	0.074
-189.173	-91.254	-0.387	0.109
-188.158	121.279	0.151	-0.186
-187.144	800.000	0.048	0.148
-186.129	1.548	-0.072	-0.051
-185.114	73.606	0.070	-0.072
-184.100	52.805	-0.089	0.084
-183.085	-7.311	-0.210	0.141
-182.071	771.102	0.055	-0.147
-181.056	800.000	-0.102	-0.335
-180.042	106.351	-0.044	0.051
-179.027	25.421	0.089	-0.073
-178.012	-200.000	-0.049	0.259
-176.998	800.000	0.021	-0.061
-175.983	447.713	0.145	-0.315
-174.969	-74.793	-0.124	-0.044
-173.954	-113.180	-0.041	-0.008
-172.939	-29.925	-0.145	0.081
-171.925	-96.099	0.251	-0.066
-170.910	-200.000	0.020	0.275
-169.896	-85.750	0.189	0.058
-168.881	-200.000	0.022	0.211
-167.866	36.441	-0.190	-0.166
-166.852	800.000	0.084	-0.243
-165.837	-200.000	0.006	-0.048
-164.823	800.000	0.078	-0.243
-163.808	58.433	0.171	-0.166
-162.793	-200.000	0.021	-0.214
-161.779	-200.000	-0.054	0.424
-160.764	13.665	0.144	-0.110
-159.750	-105.417	0.040	0.009
-158.735	717.417	-0.114	-0.298
-157.720	377.131	-0.103	-0.207
-156.706	452.531	0.091	0.198
-155.691	299.500	0.096	-0.174
-154.677	-42.169	0.377	0.190
-153.662	60.392	-0.054	0.053
-152.647	-44.764	-0.387	0.190
-151.633	800.000	-0.090	0.291
-150.618	-136.914	0.142	0.016
-149.604	-200.000	-0.040	0.220
-148.589	113.427	0.163	0.195
-147.574	-73.270	0.221	-0.080
-146.560	-200.000	-0.039	-0.200
-145.545	-200.000	0.021	0.117
-144.531	800.000	-0.058	-0.206
-143.516	-135.392	0.170	0.020
-142.502	493.900	-0.110	0.248
-141.487	-200.000	0.002	-0.208
-140.472	73.915	-0.121	-0.125
-139.458	-200.000	0.023	0.130
-138.443	-200.000	0.037	-0.289
-137.429	-62.010	-0.196	-0.081
-136.414	190.988	-0.229	-0.339
-135.399	-84.757	0.332	-0.103
-134.385	-149.164	0.143	0.011
-133.370	-80.649	0.355	-0.116
-132.356	-200.000	-0.006	-0.179
-131.341	143.640	0.068	-0.089
-130.326	70.296	-0.142	0.145
-129.312	-200.000	0.001	0.191
-128.297	-33.831	0.293	-0.159
-127.283	20.057	-0.210	0.167
-126.268	800.000	-0.050	-0.198
-125.253	-200.000	0.008	0.090
-124.239	-150.242	0.192	-0.015
-123.224	40.809	-0.071	0.063
-122.210	-101.712	-0.084	-0.020
-121.195	-145.145	-0.032	-0.003
