DTS Sentinel unit serial number:	SN413079Multiplexer serial number:	ORYXHardware model number:	OX4-SRSoftware version number:	ORYX F/W v4.00 Oryx Data Collector v3.7.2.0data status	okinstallation	princeton_trtdifferential loss correction	single-endedforward channel	channel 1reverse channel	N/Adate	2019/09/13time	22:14:35forward acquisition time	60.00reverse acquisition time	0.00gamma	496.2192k internal	0.2333k external	0.2333temperature offset calibration	1.0087default loss term (dB/km)	0.3790temperature slope calibration	1.0000multiplexer offset coefficient	1.0000multiplexer slope coefficient	1.0000fibre end	0.00T internal ref (°C)	27.89T ext. ref 1 (°C)	3.25T ext. ref 2 (°C)	22.60length (m)	temperature (°C)	Stokes	anti-Stokes-747.200	120.813	-0.149	-0.186
-746.185	-36.534	-0.357	0.193
-745.171	-115.480	-0.220	-0.042
-744.156	-200.000	0.037	0.175
-743.142	35.678	-0.176	0.155
-742.127	-55.112	-0.052	-0.024
-741.112	800.000	0.137	0.397
-740.098	-24.784	-0.104	0.062
-739.083	-194.071	0.187	0.002
-738.069	453.569	0.056	0.125
-737.054	-3.336	-0.292	0.205
-736.039	25.038	-0.088	0.074
-735.025	0.289	0.211	0.151
-734.010	618.174	-0.118	-0.298
-732.996	677.596	-0.143	-0.375
-731.981	145.167	0.084	0.113
-730.966	-200.000	0.055	-0.269
-729.952	28.889	-0.347	-0.296
-728.937	-200.000	0.021	0.192
-727.923	-173.340	0.284	0.009
-726.908	295.944	-0.249	-0.458
-725.894	800.000	0.045	-0.199
-724.879	-200.000	0.028	0.199
-723.864	209.452	0.071	-0.113
-722.850	128.519	-0.112	0.143
-721.835	76.437	-0.151	0.161
-720.821	-200.000	0.006	0.098
-719.806	800.000	0.031	-0.106
-718.791	-46.671	-0.211	-0.104
-717.777	632.872	-0.075	0.190
-716.762	-200.000	-0.009	0.074
-715.748	-20.287	0.228	0.141
-714.733	-76.919	-0.176	-0.062
-713.718	679.337	-0.024	0.063
-712.704	-57.109	-0.135	0.060
-711.689	-200.000	-0.021	0.172
-710.675	-111.775	0.250	-0.051
-709.660	92.442	0.181	-0.205
-708.645	-102.359	0.137	0.033
-707.631	-107.501	0.241	0.053
-706.616	-170.272	-0.199	0.007
-705.602	-200.000	0.043	-0.323
-704.587	546.492	-0.181	-0.435
-703.572	406.721	0.058	-0.123
-702.558	263.353	-0.203	0.355
-701.543	800.000	0.026	-0.100
-700.529	109.722	-0.128	0.154
-699.514	-143.934	-0.275	-0.026
-698.499	-6.812	-0.105	0.072
-697.485	362.930	-0.071	-0.142
-696.470	27.328	0.213	0.179
-695.456	-77.800	-0.209	-0.072
-694.441	56.538	-0.111	0.109
-693.426	-190.803	0.077	-0.001
-692.412	-200.000	-0.032	-0.202
-691.397	174.731	-0.078	-0.113
-690.383	101.504	0.092	-0.107
-689.368	157.717	-0.267	-0.371
-688.354	-19.766	-0.161	-0.100
-687.339	72.826	0.080	0.084
-686.324	-94.876	-0.670	0.182
-685.310	-90.681	-0.128	-0.037
-684.295	-8.731	0.129	0.087
-683.281	-200.000	0.014	0.328
-682.266	-133.874	-0.286	-0.036
-681.251	-132.257	-0.307	-0.040
-680.237	-37.366	-0.155	0.083
-679.222	383.065	0.031	0.064
-678.208	-176.080	0.300	0.008
-677.193	3.897	-0.188	0.138
-676.178	253.124	0.043	-0.074
-675.164	45.520	-0.120	-0.111
-674.149	192.164	0.171	-0.258
-673.135	475.288	0.047	-0.106
-672.120	8.037	-0.064	0.048
-671.105	-200.000	0.056	0.398
-670.091	-29.528	-0.164	0.094
-669.076	-200.000	0.045	-0.288
-668.062	93.024	-0.226	-0.257
-667.047	12.407	0.238	-0.184
-666.032	45.692	-0.129	-0.119
-665.018	577.495	0.025	-0.061
-664.003	-26.357	0.315	-0.185
-662.989	46.254	-0.458	0.425
-661.974	43.973	0.252	-0.232
-660.959	-37.834	0.329	-0.175
-659.945	-50.417	-0.231	0.110
-658.930	-200.000	-0.023	-0.128
-657.916	800.000	-0.095	0.325
-656.901	-81.554	-0.128	-0.042
-655.886	346.265	0.016	-0.031
-654.872	-24.007	-0.236	-0.141
-653.857	-200.000	-0.014	0.084
-652.843	54.006	0.155	0.149
-651.828	-15.071	0.395	0.254
-650.814	-57.926	-0.192	0.084
-649.799	-14.394	0.085	0.055
-648.784	-158.501	0.047	0.003
-647.770	-200.000	-0.019	0.169
-646.755	99.232	0.099	0.115
-645.741	-37.464	0.103	0.055
-644.726	800.000	0.018	0.055
-643.711	800.000	-0.072	-0.200
-642.697	-107.332	0.013	0.003
-641.682	-139.991	-0.409	0.043
-640.668	-80.770	-0.076	0.025
-639.653	-7.413	-0.141	-0.096
-638.638	-104.149	-0.324	0.075
-637.624	22.663	0.064	-0.053
-636.609	-200.000	-0.021	0.223
-635.595	13.951	0.464	0.361
-634.580	43.844	0.061	0.056
-633.565	800.000	0.028	0.091
-632.551	800.000	-0.111	-0.372
-631.536	-94.851	0.217	0.059
-630.522	284.387	0.087	-0.156
-629.507	551.758	0.081	0.195
-628.492	-156.909	-0.231	0.014
-627.478	41.548	-0.239	-0.217
-626.463	-40.064	-0.162	0.084
-625.449	198.084	-0.169	0.259
-624.434	229.217	-0.024	0.040
-623.419	-25.833	-0.131	-0.077
-622.405	115.273	-0.152	0.186
-621.390	800.000	-0.039	0.160
-620.376	-200.000	-0.026	-0.152
-619.361	-200.000	0.009	-0.073
-618.346	-200.000	0.067	-0.331
-617.332	23.817	0.054	0.045
-616.317	-178.396	0.207	0.005
-615.303	114.475	0.120	-0.147
-614.288	113.470	-0.236	-0.287
-613.273	-126.014	-0.347	-0.052
-612.259	800.000	0.091	-0.327
-611.244	-102.715	-0.184	-0.044
-610.230	24.540	-0.062	0.051
-609.215	131.323	-0.037	0.047
-608.201	-136.748	-0.240	0.028
-607.186	-200.000	-0.035	0.162
-606.171	-58.325	0.212	0.092
-605.157	80.300	-0.165	0.178
-604.142	-200.000	-0.026	-0.341
-603.128	57.665	-0.092	-0.090
-602.113	-75.860	0.082	0.029
-601.098	164.716	0.140	-0.198
-600.084	-200.000	0.009	-0.101
-599.069	-200.000	0.003	0.073
-598.055	214.905	0.065	-0.104
-597.040	800.000	0.057	-0.199
-596.025	-200.000	0.009	0.114
-595.011	-83.814	0.193	-0.062
-593.996	320.451	-0.114	-0.216
-592.982	70.800	0.049	0.051
-591.967	117.736	-0.052	0.064
-590.952	800.000	-0.043	0.130
-589.938	-46.698	0.247	-0.121
-588.923	358.294	0.159	-0.317
-587.909	-4.257	-0.072	0.050
-586.894	800.000	-0.049	0.162
-585.879	-127.358	0.204	-0.030
-584.865	12.819	-0.201	-0.155
-583.850	-129.015	0.173	0.024
-582.836	-148.939	-0.286	-0.023
-581.821	-107.036	-0.438	0.097
-580.806	-62.328	0.296	-0.123
-579.792	-90.392	0.124	-0.036
-578.777	-73.949	-0.319	0.116
-577.763	-59.426	0.129	0.055
-576.748	-163.489	-0.308	0.015
-575.733	-107.409	-0.137	-0.030
-574.719	-30.024	0.183	0.104
-573.704	-31.199	-0.195	-0.110
-572.690	-188.689	0.248	-0.003
-571.675	-67.550	-0.235	-0.092
-570.661	-156.293	-0.143	0.009
-569.646	150.999	0.223	-0.303
-568.631	19.437	-0.189	-0.151
-567.617	-60.736	-0.126	-0.053
-566.602	132.328	0.096	-0.123
-565.588	178.738	0.064	-0.093
-564.573	224.646	0.087	0.141
-563.558	-130.232	-0.118	-0.016
-562.544	57.007	0.175	0.170
-561.529	732.696	-0.054	-0.144
-560.515	29.844	-0.055	0.047
-559.500	166.406	-0.032	-0.045
-558.485	-62.917	-0.204	0.084
-557.471	-81.826	-0.304	0.099
-556.456	103.145	-0.109	0.128
-555.442	-54.009	0.102	0.046
-554.427	-200.000	0.012	-0.172
-553.412	19.357	-0.261	0.210
-552.398	800.000	-0.020	0.078
-551.383	492.825	-0.110	-0.252
-550.369	320.131	0.144	0.273
-549.354	-94.683	0.055	0.015
-548.339	-200.000	-0.001	0.394
-547.325	-200.000	0.049	-0.227
-546.310	25.882	-0.164	0.136
-545.296	-130.425	-0.016	0.002
-544.281	649.483	-0.037	-0.095
-543.266	375.264	-0.125	0.255
-542.252	-57.955	0.197	0.086
-541.237	-37.932	0.305	-0.162
-540.223	-88.584	-0.168	0.050
-539.208	176.470	0.179	0.260
-538.193	-117.677	-0.207	-0.037
-537.179	-152.015	-0.164	0.012
-536.164	-76.692	-0.279	0.098
-535.150	-200.000	-0.012	-0.169
-534.135	-107.619	0.316	-0.069
-533.121	63.639	-0.204	-0.204
-532.106	373.126	0.068	0.139
-531.091	-92.833	-0.318	0.089
-530.077	-191.830	-0.189	0.002
-529.062	-200.000	0.015	0.231
-528.048	-84.723	-0.373	-0.117
-527.033	8.447	-0.205	-0.154
-526.018	705.686	-0.096	0.251
-525.004	252.485	0.187	0.317
-523.989	620.226	-0.021	-0.051
-522.975	-200.000	-0.039	-0.306
-521.960	-130.835	0.317	-0.042
-520.945	-45.613	-0.208	-0.102
-519.931	-16.123	-0.190	-0.121
-518.916	285.342	-0.102	0.182
-517.902	-112.887	-0.473	-0.093
-516.887	198.373	0.176	-0.269
-515.872	56.028	-0.194	-0.188
-514.858	38.270	-0.123	0.109
-513.843	227.797	0.186	-0.302
-512.829	-200.000	0.040	0.185
-511.814	-95.327	0.534	-0.143
-510.799	277.045	-0.096	0.171
-509.785	-149.465	0.442	0.035
-508.770	800.000	0.011	-0.044
-507.756	-153.638	0.049	-0.003
-506.741	-51.403	-0.185	-0.086
-505.726	26.905	0.125	-0.105
-504.712	287.931	-0.124	0.223
-503.697	-116.082	0.304	0.056
-502.683	33.749	0.156	-0.135
-501.668	-137.105	-0.328	-0.037
-500.653	222.623	0.213	0.342
-499.639	108.739	-0.150	0.178
-498.624	-104.640	-0.172	-0.040
-497.610	-61.954	0.195	-0.081
-496.595	-59.890	0.462	0.197
-495.581	112.341	0.233	0.281
-494.566	170.655	0.236	-0.337
-493.551	800.000	-0.034	-0.113
-492.537	137.149	0.123	-0.160
-491.522	25.199	0.242	-0.200
-490.508	328.065	0.098	0.188
-489.493	-200.000	0.007	-0.121
-488.478	-56.901	-0.209	-0.092
-487.464	-48.018	-0.308	-0.148
-486.449	2.453	0.161	0.116
-485.435	-200.000	-0.038	0.258
-484.420	-200.000	-0.009	-0.252
-483.405	-152.171	0.157	0.011
-482.391	161.162	0.105	-0.145
-481.376	-200.000	-0.012	-0.486
-480.362	-125.229	-0.549	-0.084
-479.347	373.023	-0.082	0.166
-478.332	-117.423	-0.045	-0.008
-477.318	-175.221	0.019	0.001
-476.303	-162.304	-0.238	0.012
-475.289	640.940	0.044	-0.111
-474.274	-84.196	-0.263	-0.083
-473.259	800.000	0.075	-0.230
-472.245	-29.172	-0.192	0.110
-471.230	71.712	0.025	0.026
-470.216	3.083	0.130	0.094
-469.201	-115.794	0.267	-0.050
-468.186	-38.520	0.618	-0.325
-467.172	4.426	-0.298	-0.218
-466.157	289.989	-0.079	-0.143
-465.143	-200.000	0.015	-0.126
-464.128	-155.012	-0.060	-0.004
-463.113	14.372	0.080	-0.062
-462.099	-82.246	0.154	-0.050
-461.084	-69.154	0.430	0.165
-460.070	-48.550	0.431	0.206
-459.055	800.000	-0.101	-0.281
-458.040	-106.544	0.052	0.011
-457.026	-113.775	-0.144	0.028
-456.011	535.010	0.058	0.137
-454.997	378.237	-0.039	0.080
-453.982	105.074	0.084	-0.098
-452.968	74.540	0.061	-0.064
-451.953	88.404	-0.348	-0.385
-450.938	-21.981	0.138	-0.083
-449.924	112.585	-0.179	-0.216
-448.909	117.039	-0.285	-0.348
-447.895	2.050	0.363	0.260
-446.880	-200.000	0.002	-0.277
-445.865	19.928	-0.442	0.354
-444.851	-148.720	0.291	0.024
-443.836	699.509	-0.061	0.159
-442.822	-130.586	0.141	0.019
-441.807	-92.637	-0.109	0.030
-440.792	-132.714	0.190	-0.024
-439.778	18.145	-0.263	-0.208
-438.763	-200.000	0.019	0.086
-437.749	-200.000	0.042	-0.307
-436.734	26.194	-0.373	-0.309
-435.719	800.000	0.059	0.170
-434.705	800.000	-0.074	-0.251
-433.690	11.276	0.098	-0.075
-432.676	-200.000	-0.014	-0.427
-431.661	-120.963	-0.178	-0.030
-430.646	-66.326	0.285	-0.113
-429.632	800.000	0.023	-0.081
-428.617	148.049	0.179	0.239
-427.603	-200.000	-0.065	0.288
-426.588	0.229	0.254	0.180
-425.573	-159.348	-0.084	-0.005
-424.559	124.762	-0.127	-0.159
-423.544	-45.586	0.273	-0.134
-422.530	-200.000	-0.039	-0.287
-421.515	-39.288	-0.127	-0.066
-420.500	-82.585	0.249	0.080
-419.486	-35.065	-0.111	-0.060
-418.471	600.930	-0.104	0.256
-417.457	128.678	-0.189	-0.239
-416.442	-200.000	0.076	0.338
-415.428	-153.653	-0.079	-0.005
-414.413	328.027	-0.031	-0.060
-413.398	-200.000	-0.030	-0.373
-412.384	-69.202	0.100	0.038
-411.369	-71.729	0.188	0.070
-410.355	800.000	0.127	0.448
-409.340	0.749	0.153	0.109
-408.325	-91.074	-0.199	-0.057
-407.311	-200.000	-0.025	-0.211
-406.296	234.744	-0.068	-0.111
-405.282	9.718	-0.056	-0.042
-404.267	168.450	-0.115	0.162
-403.252	-198.019	0.240	0.001
-402.238	800.000	-0.036	0.099
-401.223	224.202	0.078	0.126
-400.209	350.412	0.094	0.184
-399.194	-200.000	-0.010	-0.185
-398.179	-105.433	0.234	0.053
-397.165	-157.282	0.342	0.021
-396.150	135.618	0.075	-0.096
-395.136	-57.309	-0.502	0.219
-394.121	-147.149	-0.215	0.018
-393.106	-75.763	0.146	0.052
-392.092	-200.000	0.026	0.246
-391.077	-200.000	0.074	0.447
-390.063	366.882	-0.090	0.181
-389.048	55.327	-0.281	-0.270
-388.033	-69.489	-0.255	-0.097
-387.019	-200.000	-0.032	-0.260
-386.004	-64.752	-0.393	0.158
-384.990	-99.520	-0.198	0.049
-383.975	-93.842	0.155	0.042
-382.960	800.000	-0.057	-0.210
-381.946	-71.898	-0.109	0.040
-380.931	-200.000	0.037	0.167
-379.917	-86.930	-0.193	0.059
-378.902	-200.000	-0.047	0.479
-377.888	-200.000	-0.021	0.099
-376.873	24.551	-0.200	-0.164
-375.858	800.000	0.087	0.296
-374.844	-138.228	0.302	0.033
-373.829	-55.003	-0.441	0.197
-372.815	-44.077	-0.384	-0.191
-371.800	-115.667	-0.145	-0.027
-370.785	130.954	-0.037	-0.047
-369.771	293.447	-0.201	0.364
-368.756	227.521	-0.066	-0.107
-367.742	-19.895	0.119	-0.073
-366.727	148.829	-0.154	-0.207
-365.712	800.000	-0.055	-0.212
-364.698	-101.206	0.407	-0.099
-363.683	388.370	-0.132	0.270
-362.669	-60.976	0.141	-0.059
-361.654	542.814	0.087	0.206
-360.639	-60.548	0.390	0.164
-359.625	-200.000	-0.025	0.424
-358.610	-122.044	0.253	0.041
-357.596	30.183	-0.173	0.146
-356.581	-50.773	0.292	0.136
-355.566	-127.896	-0.053	0.007
-354.552	-150.174	0.399	0.031
-353.537	-200.000	-0.038	-0.323
-352.523	-112.144	-0.436	0.087
-351.508	108.429	0.054	-0.063
-350.493	46.575	-0.130	-0.120
-349.479	1.215	-0.145	-0.103
-348.464	800.000	0.054	-0.184
-347.450	-200.000	-0.030	0.142
-346.435	21.175	0.170	0.137
-345.420	-200.000	-0.030	-0.231
-344.406	419.634	0.176	-0.374
-343.391	156.328	0.085	0.115
-342.377	-200.000	0.016	0.294
-341.362	167.351	-0.128	0.180
-340.348	-179.045	0.203	-0.005
-339.333	-19.464	0.075	0.046
-338.318	-15.459	-0.221	0.140
-337.304	800.000	0.032	0.091
-336.289	-95.103	-0.174	0.047
-335.275	139.372	-0.078	0.101
-334.260	-15.820	0.127	-0.080
-333.245	-49.118	-0.045	0.021
-332.231	160.261	0.107	0.148
-331.216	-200.000	-0.057	-0.492
-330.202	144.501	0.076	-0.100
-329.187	-200.000	-0.001	-0.043
-328.172	-200.000	0.058	-0.312
-327.158	-200.000	-0.010	-0.304
-326.143	800.000	0.093	-0.264
-325.129	-87.373	-0.250	-0.075
-324.114	-49.618	0.193	-0.091
-323.099	107.705	0.100	-0.118
-322.085	699.786	0.085	-0.221
-321.070	-200.000	-0.012	-0.110
-320.056	457.120	-0.163	-0.359
-319.041	-200.000	0.004	-0.183
-318.026	307.595	0.101	0.186
-317.012	-33.310	-0.190	0.104
-315.997	561.033	0.010	-0.023
-314.983	-200.000	0.032	0.275
-313.968	-200.000	0.011	0.180
-312.953	800.000	-0.108	-0.366
-311.939	-24.365	0.400	0.236
-310.924	663.958	-0.080	0.205
-309.910	252.751	0.078	-0.132
-308.895	-123.738	0.244	0.038
-307.880	800.000	0.076	0.312
-306.866	-76.430	0.061	0.021
-305.851	-118.428	0.221	0.039
-304.837	205.845	0.214	-0.329
-303.822	800.000	-0.102	-0.374
-302.807	78.133	-0.101	-0.107
-301.793	-41.288	-0.184	-0.094
-300.778	19.024	-0.354	-0.280
-299.764	102.097	-0.098	0.113
-298.749	-127.967	-0.259	0.037
-297.735	-76.924	0.164	0.057
-296.720	-17.513	-0.018	0.011
-295.705	564.502	0.078	-0.186
-294.691	-104.149	0.286	-0.066
-293.676	-20.595	0.130	-0.079
-292.662	-64.576	-0.416	-0.167
-291.647	-200.000	0.011	-0.264
-290.632	-36.939	0.078	0.041
-289.618	-200.000	-0.013	0.188
-288.603	-200.000	-0.061	-0.299
-287.589	-56.639	-0.256	-0.112
-286.574	-200.000	-0.055	0.272
-285.559	85.248	0.127	0.138
-284.545	-200.000	0.029	0.331
-283.530	13.755	-0.153	0.118
-282.516	384.877	-0.037	0.076
-281.501	-200.000	0.070	0.316
-280.486	-200.000	0.019	0.139
-279.472	-81.447	0.115	0.037
-278.457	800.000	0.040	-0.131
-277.443	-74.101	0.357	0.128
-276.428	267.888	0.137	0.237
-275.413	416.955	-0.075	-0.158
-274.399	-102.788	0.250	0.059
-273.384	-47.790	-0.108	0.052
-272.370	131.144	-0.182	0.231
-271.355	-27.920	-0.135	-0.077
-270.340	-200.000	-0.059	-0.306
-269.326	-126.596	0.213	-0.031
-268.311	-200.000	0.042	0.262
-267.297	-200.000	0.036	0.170
-266.282	-82.030	-0.243	-0.078
-265.267	-75.258	0.293	-0.103
-264.253	800.000	-0.034	-0.140
-263.238	348.833	-0.184	-0.359
-262.224	-158.258	0.053	0.003
-261.209	-178.294	-0.138	-0.003
-260.195	-15.579	0.342	-0.216
-259.180	-200.000	0.024	0.186
-258.165	-70.183	-0.157	-0.059
-257.151	28.239	0.249	0.208
-256.136	-19.813	-0.245	0.149
-255.122	-200.000	0.040	0.353
-254.107	-166.406	-0.260	0.011
-253.092	731.502	-0.011	-0.030
-252.078	59.847	0.174	0.169
-251.063	-200.000	-0.020	-0.110
-250.049	800.000	-0.064	-0.242
-249.034	-34.134	0.399	0.216
-248.019	192.173	-0.126	-0.188
-247.005	-200.000	-0.041	-0.229
-245.990	70.032	0.155	0.158
-244.976	-21.007	-0.202	0.122
-243.961	800.000	0.072	0.248
-242.946	-93.381	-0.186	0.051
-241.932	800.000	-0.077	0.268
-240.917	-110.919	-0.220	0.045
-239.903	105.397	0.155	-0.180
-238.888	-12.276	-0.114	-0.073
-237.873	140.711	0.131	-0.171
-236.859	-23.148	-0.184	0.109
-235.844	119.251	-0.280	-0.342
-234.830	159.672	-0.192	0.264
-233.815	437.715	-0.083	0.177
-232.800	131.907	-0.248	0.315
-231.786	42.555	0.271	0.243
-230.771	-78.973	-0.193	-0.065
-229.757	-16.558	0.249	0.155
-228.742	73.495	0.157	0.162
-227.727	205.713	0.225	-0.344
-226.713	800.000	0.117	0.414
-225.698	132.236	0.105	-0.134
-224.684	0.420	0.231	0.163
-223.669	600.727	-0.056	0.138
-222.655	-36.813	-0.135	-0.071
-221.640	-7.360	-0.128	-0.085
-220.625	36.645	-0.320	0.278
-219.611	93.099	0.170	-0.190
-218.596	-27.854	0.202	0.115
-217.582	-136.787	-0.177	0.020
-216.567	-61.756	0.235	0.097
-215.552	119.705	0.218	-0.266
-214.538	369.145	0.153	-0.306
-213.523	-115.488	0.164	-0.030
-212.509	701.417	0.057	-0.149
-211.494	300.985	-0.038	0.068
-210.479	-200.000	-0.025	0.282
-209.465	-76.650	-0.087	-0.030
-208.450	-21.739	-0.330	-0.198
-207.436	721.002	0.070	-0.184
-206.421	800.000	-0.067	-0.215
-205.406	127.989	0.110	-0.138
-204.392	608.362	0.100	-0.245
-203.377	-132.058	0.276	0.035
-202.363	14.489	0.212	0.163
-201.348	-110.889	-0.114	0.023
-200.333	-200.000	-0.060	0.299
-199.319	-27.087	0.057	-0.033
-198.304	-200.000	-0.009	0.104
-197.290	800.000	-0.081	0.337
-196.275	800.000	-0.017	0.058
-195.260	229.754	0.120	-0.193
-194.246	-94.007	-0.162	0.044
-193.231	-71.447	0.520	0.191
-192.217	-143.177	-0.106	0.010
-191.202	-74.555	0.179	0.064
-190.187	-85.311	-0.255	0.078
-189.173	-138.746	0.133	0.014
-188.158	-200.000	-0.068	0.552
-187.144	-78.216	-0.269	-0.091
-186.129	122.184	-0.232	0.285
-185.114	107.261	-0.128	0.149
-184.100	-59.944	0.107	-0.045
-183.085	176.158	0.198	-0.283
-182.071	800.000	0.045	-0.168
-181.056	800.000	0.031	0.100
-180.042	800.000	0.037	-0.130
-179.027	386.044	-0.054	0.109
-178.012	800.000	-0.060	-0.218
-176.998	-155.501	0.424	-0.027
-175.983	80.273	0.207	0.220
-174.969	-147.426	0.135	0.011
-173.954	230.898	0.161	0.259
-172.939	-133.029	0.123	0.015
-171.925	-76.096	0.222	0.077
-170.910	208.135	0.120	0.185
-169.896	800.000	0.051	0.169
-168.881	799.235	0.059	0.161
-167.866	202.366	0.068	-0.103
-166.852	-29.034	-0.114	-0.064
-165.837	210.372	-0.023	0.036
-164.823	-16.547	-0.155	0.096
-163.808	582.690	-0.095	-0.229
-162.793	800.000	0.126	0.366
-161.779	-117.615	0.192	0.034
-160.764	-29.642	0.018	0.010
-159.750	-200.000	0.003	0.145
-158.735	54.152	0.203	-0.192
-157.720	60.264	0.258	0.251
-156.706	-87.959	-0.220	0.065
-155.691	-107.153	0.145	0.032
-154.677	390.033	0.145	-0.296
-153.662	316.076	-0.155	0.287
-152.647	-38.829	0.132	-0.069
-151.633	-107.666	0.026	-0.006
-150.618	-134.523	0.343	0.041
-149.604	-61.632	-0.360	-0.148
-148.589	-119.387	0.385	-0.066
-147.574	-82.882	0.178	-0.057
-146.560	-103.572	0.410	-0.095
-145.545	-116.753	-0.334	-0.060
-144.531	-15.636	0.142	-0.089
-143.516	800.000	-0.072	0.287
-142.502	237.071	-0.125	0.203
-141.487	70.175	0.144	0.146
-140.472	800.000	-0.080	-0.309
-139.458	800.000	-0.047	-0.198
-138.443	107.047	0.084	-0.098
-137.429	255.468	0.177	0.299
-136.414	48.370	-0.152	0.140
-135.399	389.339	0.104	-0.211
-134.385	-120.043	0.266	0.045
-133.370	-27.572	0.130	-0.074
-132.356	138.236	-0.140	0.180
-131.341	800.000	-0.123	0.344
-130.326	-81.895	-0.335	-0.108
-129.312	-200.000	-0.050	0.364
-128.297	-119.875	-0.349	0.059
-127.283	5.586	-0.273	-0.198
-126.268	-138.892	-0.219	-0.023
-125.253	800.000	0.031	-0.092
-124.239	-95.769	0.168	-0.044
-123.224	800.000	0.040	0.156
-122.210	13.170	-0.268	0.204
-121.195	800.000	0.066	-0.281
