DTS Sentinel unit serial number:	SN413079Multiplexer serial number:	ORYXHardware model number:	OX4-SRSoftware version number:	ORYX F/W v4.00 Oryx Data Collector v3.7.2.0data status	okinstallation	princeton_trtdifferential loss correction	single-endedforward channel	channel 1reverse channel	N/Adate	2019/09/10time	15:48:11forward acquisition time	60.00reverse acquisition time	0.00gamma	496.2192k internal	0.2299k external	0.2299temperature offset calibration	0.9914default loss term (dB/km)	0.3790temperature slope calibration	1.0000multiplexer offset coefficient	1.0000multiplexer slope coefficient	1.0000fibre end	0.00T internal ref (°C)	38.06T ext. ref 1 (°C)	-0.29T ext. ref 2 (°C)	32.60length (m)	temperature (°C)	Stokes	anti-Stokes-747.200	-37.556	-0.137	0.075
-746.185	720.090	-0.054	-0.146
-745.171	15.610	-0.208	-0.166
-744.156	-200.000	0.018	0.273
-743.142	97.560	0.290	0.340
-742.127	-200.000	-0.044	0.234
-741.112	-19.218	0.237	-0.150
-740.098	-122.016	0.181	-0.030
-739.083	-200.000	-0.091	-0.464
-738.069	533.525	-0.060	0.146
-737.054	572.098	-0.123	-0.305
-736.039	134.384	0.103	0.136
-735.025	353.393	0.023	-0.046
-734.010	-131.462	0.127	-0.017
-732.996	9.248	0.110	-0.085
-731.981	-110.022	-0.080	-0.017
-730.966	-169.720	-0.379	-0.014
-729.952	-200.000	0.003	-0.118
-728.937	-60.281	-0.280	-0.122
-727.923	-200.000	-0.070	-0.481
-726.908	113.214	-0.167	-0.206
-725.894	-63.601	-0.242	-0.101
-724.879	-200.000	0.015	-0.131
-723.864	-200.000	0.009	-0.181
-722.850	67.531	0.104	-0.109
-721.835	-41.157	0.185	0.097
-720.821	-200.000	0.002	0.077
-719.806	800.000	-0.046	-0.191
-718.791	-120.679	-0.240	-0.041
-717.777	-110.311	-0.166	-0.035
-716.762	-50.659	0.191	-0.092
-715.748	-15.742	0.266	-0.173
-714.733	196.690	-0.151	0.235
-713.718	-21.844	0.247	0.153
-712.704	-7.739	-0.225	0.155
-711.689	-92.992	-0.260	-0.074
-710.675	-200.000	-0.028	-0.252
-709.660	-48.805	0.172	0.084
-708.645	-25.729	0.239	-0.144
-707.631	-62.039	-0.205	0.087
-706.616	-140.242	0.401	-0.043
-705.602	18.559	0.195	-0.159
-704.587	55.017	-0.256	0.252
-703.572	-124.522	0.245	0.039
-702.558	-15.486	-0.203	0.132
-701.543	19.496	0.149	0.122
-700.529	-200.000	0.012	0.216
-699.514	24.330	-0.224	0.188
-698.499	161.179	0.247	-0.352
-697.485	17.106	-0.098	0.079
-696.470	-200.000	-0.001	0.206
-695.456	608.980	0.078	-0.199
-694.441	800.000	0.069	0.259
-693.426	151.471	-0.114	0.157
-692.412	-124.288	-0.056	0.009
-691.397	36.997	-0.101	0.091
-690.383	-112.815	0.473	0.096
-689.368	-94.298	-0.169	0.047
-688.354	800.000	0.041	-0.168
-687.339	-99.721	-0.096	0.024
-686.324	166.829	-0.180	-0.259
-685.310	216.707	-0.108	0.175
-684.295	-107.314	-0.350	-0.078
-683.281	474.494	-0.095	-0.219
-682.266	107.044	0.152	-0.183
-681.251	57.173	-0.306	0.304
-680.237	-92.619	0.022	-0.006
-679.222	200.833	-0.065	-0.101
-678.208	-76.150	-0.198	-0.071
-677.193	-69.875	-0.276	0.107
-676.178	-199.970	0.386	-0.002
-675.164	-65.097	-0.237	-0.097
-674.149	-58.254	-0.568	0.252
-673.135	689.466	0.065	0.174
-672.120	-102.775	-0.143	0.035
-671.105	-125.937	0.235	0.036
-670.091	-17.361	0.088	0.056
-669.076	-200.000	-0.006	0.116
-668.062	-200.000	0.007	-0.120
-667.047	-17.890	-0.103	-0.066
-666.032	193.793	0.190	-0.293
-665.018	-200.000	0.018	-0.379
-664.003	445.685	0.167	-0.374
-662.989	800.000	0.047	-0.200
-661.974	259.421	0.190	-0.334
-660.959	278.051	-0.142	0.258
-659.945	-200.000	-0.080	-0.367
-658.930	-144.608	0.059	-0.006
-657.916	711.110	-0.058	-0.156
-656.901	-36.343	-0.045	0.025
-655.886	-42.427	-0.247	-0.128
-654.872	-200.000	0.029	0.167
-653.857	-200.000	-0.049	-0.354
-652.843	593.182	0.066	-0.166
-651.828	-54.318	0.028	0.013
-650.814	-45.441	-0.208	0.105
-649.799	228.676	-0.123	-0.204
-648.784	-32.700	0.193	0.109
-647.770	20.569	0.188	0.154
-646.755	91.749	-0.158	0.181
-645.741	20.080	-0.200	-0.164
-644.726	-200.000	0.009	0.056
-643.711	270.398	-0.209	-0.374
-642.697	156.666	0.146	-0.205
-641.682	-27.474	0.220	-0.130
-640.668	-47.926	0.133	-0.066
-639.653	52.353	0.216	-0.210
-638.638	543.909	-0.080	-0.195
-637.624	-97.853	0.199	-0.052
-636.609	129.177	-0.080	0.104
-635.595	-200.000	0.033	-0.265
-634.580	82.720	-0.050	-0.055
-633.565	-12.919	-0.163	-0.108
-632.551	38.016	0.094	0.085
-631.536	-6.173	-0.291	0.202
-630.522	637.297	0.075	-0.194
-629.507	290.946	-0.092	0.170
-628.492	-111.871	0.045	0.009
-627.478	1.611	-0.114	0.084
-626.463	800.000	0.143	0.430
-625.449	157.745	0.275	-0.386
-624.434	224.365	0.167	0.274
-623.419	-200.000	0.018	0.188
-622.405	213.167	-0.220	0.353
-621.390	37.098	-0.160	-0.144
-620.376	108.430	-0.087	-0.106
-619.361	180.392	0.242	-0.361
-618.346	504.879	-0.142	-0.335
-617.332	800.000	0.044	-0.146
-616.317	-200.000	0.050	0.235
-615.303	-145.189	0.365	-0.034
-614.288	158.896	-0.215	-0.303
-613.273	-141.974	0.219	-0.022
-612.259	11.866	0.122	0.095
-611.244	42.911	0.176	-0.162
-610.230	45.333	0.305	-0.285
-609.215	-200.000	0.006	-0.109
-608.201	664.822	-0.040	-0.104
-607.186	-3.643	-0.116	0.082
-606.171	-174.520	0.212	-0.006
-605.157	-81.213	-0.199	0.067
-604.142	-81.548	0.262	0.087
-603.128	800.000	-0.023	-0.091
-602.113	-118.893	-0.195	-0.035
-601.098	-200.000	0.008	-0.178
-600.084	116.503	0.030	0.037
-599.069	-200.000	-0.004	-0.053
-598.055	644.326	-0.020	0.051
-597.040	-92.438	-0.129	0.037
-596.025	69.965	0.190	0.199
-595.011	-37.885	-0.118	-0.063
-593.996	-70.818	0.279	-0.107
-592.982	-97.280	-0.109	-0.029
-591.967	367.185	-0.149	-0.306
-590.952	8.285	-0.362	0.276
-589.938	46.887	-0.159	-0.150
-588.923	-56.916	0.332	-0.149
-587.909	-37.050	0.427	-0.232
-586.894	250.757	0.220	0.379
-585.879	-200.000	0.001	-0.134
-584.865	58.420	-0.080	-0.080
-583.850	-174.702	-0.204	0.006
-582.836	40.630	-0.255	-0.233
-581.821	-61.144	0.247	0.106
-580.806	89.744	-0.133	-0.151
-579.792	-91.803	-0.305	0.088
-578.777	-57.028	0.222	-0.099
-577.763	145.243	-0.124	0.168
-576.748	64.463	0.162	0.165
-575.733	-94.280	0.036	-0.010
-574.719	-62.901	0.177	0.074
-573.704	800.000	-0.032	0.106
-572.690	91.623	0.157	-0.179
-571.675	493.292	-0.100	0.233
-570.661	800.000	-0.111	-0.376
-569.646	-200.000	-0.002	0.169
-568.631	310.082	-0.124	0.234
-567.617	89.225	-0.136	0.153
-566.602	-171.993	-0.189	0.006
-565.588	-91.344	0.215	-0.062
-564.573	-39.076	0.220	-0.117
-563.558	108.305	-0.082	-0.100
-562.544	-85.362	0.255	-0.081
-561.529	-18.267	0.086	0.055
-560.515	396.036	0.070	0.149
-559.500	-103.970	-0.319	-0.076
-558.485	77.589	0.184	0.199
-557.471	-138.909	0.257	0.028
-556.456	-200.000	0.004	-0.068
-555.442	-64.800	0.010	-0.004
-554.427	-29.849	0.127	0.073
-553.412	-0.780	-0.284	0.204
-552.398	-149.514	0.024	-0.002
-551.383	-124.645	0.506	-0.080
-550.369	68.353	0.098	-0.102
-549.354	2.322	-0.129	0.095
-548.339	-14.957	0.106	0.069
-547.325	-101.800	-0.158	0.039
-546.310	206.139	-0.173	-0.273
-545.296	800.000	-0.064	-0.195
-544.281	218.070	0.033	0.054
-543.266	446.932	0.131	0.292
-542.252	-121.648	-0.236	-0.040
-541.237	84.725	-0.086	-0.095
-540.223	-94.793	-0.019	0.005
-539.208	98.863	0.207	-0.242
-538.193	-54.204	-0.151	-0.070
-537.179	-102.253	-0.221	-0.054
-536.164	-112.139	0.356	-0.072
-535.150	-200.000	0.061	-0.505
-534.135	30.086	-0.157	0.135
-533.121	-27.426	-0.171	0.101
-532.106	-56.270	0.186	-0.083
-531.091	-36.883	-0.030	-0.016
-530.077	-200.000	0.007	0.168
-529.062	-200.000	-0.003	0.129
-528.048	131.388	-0.128	0.166
-527.033	127.031	0.177	0.227
-526.018	-63.600	-0.084	0.035
-525.004	-111.914	-0.313	0.064
-523.989	-200.000	-0.006	-0.264
-522.975	-0.464	0.235	-0.169
-521.960	72.253	-0.358	0.377
-520.945	18.039	0.121	-0.097
-519.931	8.039	-0.323	-0.245
-518.916	267.150	0.110	-0.195
-517.902	-122.126	0.397	0.066
-516.887	-45.172	0.229	-0.115
-515.872	-97.340	0.143	0.038
-514.858	-159.096	0.116	0.007
-513.843	-163.712	-0.219	-0.010
-512.829	5.741	-0.260	0.194
-511.814	-98.157	-0.284	-0.074
-510.799	-31.650	0.270	-0.153
-509.785	-165.262	-0.260	-0.012
-508.770	190.968	-0.040	-0.061
-507.756	-49.717	0.292	0.140
-506.741	132.367	0.134	0.175
-505.726	189.348	-0.117	0.178
-504.712	-156.955	-0.181	-0.011
-503.697	-74.670	-0.132	0.048
-502.683	-39.040	-0.120	0.064
-501.668	-3.766	-0.223	0.157
-500.653	350.646	0.113	-0.227
-499.639	800.000	0.044	0.138
-498.624	-200.000	-0.020	-0.183
-497.610	60.285	0.033	-0.033
-496.595	800.000	0.081	0.260
-495.581	-82.485	-0.334	-0.110
-494.566	189.676	0.115	0.175
-493.551	-125.567	0.216	-0.033
-492.537	-26.724	0.124	-0.073
-491.522	-52.959	-0.124	-0.058
-490.508	118.158	0.120	0.150
-489.493	14.997	0.171	-0.136
-488.478	800.000	-0.016	-0.065
-487.464	-200.000	0.046	0.284
-486.449	284.371	0.076	-0.139
-485.435	800.000	0.055	0.178
-484.420	-142.816	0.383	0.038
-483.405	-140.280	0.180	0.019
-482.391	-200.000	0.005	-0.312
-481.376	-50.709	-0.230	-0.109
-480.362	-102.560	-0.481	0.116
-479.347	-139.566	0.270	-0.029
-478.332	-40.818	0.216	0.113
-477.318	122.429	-0.028	-0.036
-476.303	143.743	-0.108	0.145
-475.289	68.079	0.026	-0.027
-474.274	-106.783	-0.225	-0.050
-473.259	-101.608	-0.228	-0.056
-472.245	-98.174	0.405	0.105
-471.230	430.370	0.106	-0.232
-470.216	-89.627	-0.327	0.097
-469.201	469.645	0.093	-0.212
-468.186	24.088	-0.282	-0.235
-467.172	-70.513	0.294	0.112
-466.157	-160.156	-0.332	0.018
-465.143	333.675	-0.008	-0.015
-464.128	20.156	-0.257	-0.210
-463.113	187.446	-0.087	0.132
-462.099	-200.000	-0.029	0.303
-461.084	603.573	-0.146	-0.367
-460.070	-76.953	-0.164	-0.058
-459.055	119.204	0.038	0.047
-458.040	-200.000	0.015	-0.098
-457.026	-141.526	-0.091	-0.009
-456.011	800.000	0.043	-0.126
-454.997	-200.000	-0.006	-0.350
-453.982	174.237	0.086	0.126
-452.968	234.391	0.077	0.128
-451.953	-6.632	-0.157	-0.108
-450.938	800.000	-0.058	-0.224
-449.924	-50.250	-0.031	-0.015
-448.909	800.000	0.019	-0.065
-447.895	-62.356	-0.171	0.072
-446.880	179.770	0.151	0.223
-445.865	800.000	0.101	-0.384
-444.851	188.400	-0.339	0.511
-443.836	76.714	-0.112	-0.120
-442.822	-22.637	0.242	-0.148
-441.807	-200.000	0.039	-0.321
-440.792	-200.000	-0.041	-0.208
-439.778	-200.000	0.016	-0.201
-438.763	-177.698	-0.236	0.006
-437.749	-105.158	-0.245	-0.057
-436.734	-104.663	0.370	-0.086
-435.719	164.744	-0.174	-0.247
-434.705	-85.923	0.374	0.117
-433.690	-200.000	0.000	-0.078
-432.676	776.892	-0.059	-0.162
-431.661	112.156	0.185	0.226
-430.646	800.000	0.040	0.170
-429.632	-45.763	0.228	0.114
-428.617	58.641	-0.207	0.205
-427.603	-119.310	-0.209	-0.037
-426.588	-68.201	0.114	-0.045
-425.573	-1.832	0.320	-0.227
-424.559	-200.000	0.012	0.085
-423.544	-104.354	-0.136	0.032
-422.530	-200.000	0.013	0.123
-421.515	51.932	-0.092	0.088
-420.500	-137.269	0.346	-0.040
-419.486	-192.320	0.070	0.001
-418.471	-200.000	0.010	0.325
-417.457	172.832	-0.155	-0.224
-416.442	-166.069	0.387	0.017
-415.428	60.348	-0.305	0.304
-414.413	10.594	0.057	0.044
-413.398	9.947	0.234	0.179
-412.384	374.752	-0.182	0.374
-411.369	-200.000	0.022	0.113
-410.355	76.126	0.105	-0.112
-409.340	-200.000	0.039	0.205
-408.325	-12.408	0.386	0.254
-407.311	-44.134	0.260	0.132
-406.296	793.626	-0.056	-0.154
-405.282	-180.244	0.306	0.006
-404.267	53.918	-0.143	0.139
-403.252	-194.281	-0.354	0.003
-402.238	-115.009	-0.214	-0.041
-401.223	-137.468	0.114	-0.013
-400.209	800.000	0.016	-0.059
-399.194	-48.373	0.443	-0.215
-398.179	-78.236	-0.172	0.059
-397.165	-200.000	0.085	-0.405
-396.150	-79.211	-0.107	-0.037
-395.136	8.509	-0.309	0.234
-394.121	800.000	-0.082	0.339
-393.106	800.000	0.077	-0.338
-392.092	-200.000	0.015	0.187
-391.077	-63.816	0.442	0.182
-390.063	-200.000	0.003	-0.030
-389.048	800.000	-0.078	0.317
-388.033	-200.000	-0.013	0.311
-387.019	-200.000	-0.026	-0.379
-386.004	-81.685	0.091	-0.030
-384.990	-200.000	0.010	0.217
-383.975	-41.111	0.101	0.052
-382.960	-66.525	0.167	0.067
-381.946	-139.414	0.136	0.015
-380.931	-200.000	-0.023	0.137
-379.917	-5.155	-0.256	-0.177
-378.902	-200.000	-0.013	-0.082
-377.888	-30.603	-0.247	-0.141
-376.873	-145.889	0.101	-0.009
-375.858	-200.000	0.001	-0.030
-374.844	-200.000	-0.057	0.381
-373.829	13.970	0.232	0.182
-372.815	-200.000	-0.012	0.119
-371.800	-23.322	-0.184	-0.111
-370.785	-95.810	-0.115	0.031
-369.771	204.720	0.054	-0.084
-368.756	-131.023	0.106	-0.014
-367.742	198.604	-0.065	0.100
-366.727	569.835	-0.100	-0.244
-365.712	-200.000	0.003	-0.066
-364.698	122.109	-0.177	0.222
-363.683	644.385	0.049	-0.127
-362.669	32.383	-0.297	0.258
-361.654	101.301	-0.234	-0.274
-360.639	66.521	-0.053	0.055
-359.625	-200.000	-0.020	0.169
-358.610	-57.541	0.280	0.123
-357.596	-152.334	0.113	-0.008
-356.581	150.524	0.177	-0.241
-355.566	380.145	-0.049	0.102
-354.552	709.108	0.144	0.383
-353.537	-75.518	-0.470	0.168
-352.523	-200.000	0.003	-0.112
-351.508	-200.000	-0.007	-0.049
-350.493	143.812	0.163	0.218
-349.479	-141.889	-0.188	-0.019
-348.464	181.711	0.076	-0.113
-347.450	800.000	-0.064	0.210
-346.435	86.394	0.155	0.171
-345.420	-97.536	0.217	0.057
-344.406	344.988	-0.025	0.049
-343.391	-112.533	-0.344	-0.069
-342.377	-191.979	0.373	0.004
-341.362	117.014	-0.016	0.020
-340.348	366.469	0.133	0.269
-339.333	86.926	-0.080	-0.089
-338.318	-200.000	0.094	0.599
-337.304	-171.606	0.254	0.008
-336.289	-150.769	-0.246	-0.019
-335.275	-134.032	0.262	-0.033
-334.260	23.481	0.135	0.111
-333.245	255.168	0.085	-0.145
-332.231	196.367	0.019	0.029
-331.216	-38.954	-0.280	0.148
-330.202	-105.416	0.258	0.059
-329.187	244.329	0.191	0.322
-328.172	800.000	-0.053	-0.195
-327.158	-92.479	-0.109	0.031
-326.143	-34.771	0.101	-0.056
-325.129	274.447	-0.090	-0.160
-324.114	-200.000	-0.011	0.049
-323.099	490.515	0.100	0.230
-322.085	147.611	0.151	0.204
-321.070	-52.634	-0.288	-0.133
-320.056	-19.026	-0.393	-0.245
-319.041	-32.360	0.204	0.114
-318.026	-134.228	-0.165	-0.020
-317.012	-156.536	0.180	0.011
-315.997	-137.761	-0.291	0.033
-314.983	-169.908	-0.268	0.010
-313.968	121.712	0.190	0.238
-312.953	-200.000	0.028	0.210
-311.939	-93.927	0.197	-0.054
-310.924	161.209	-0.098	0.138
-309.910	-53.385	0.276	0.127
-308.895	-79.510	-0.093	0.032
-307.880	800.000	0.069	-0.266
-306.866	55.361	-0.064	-0.062
-305.851	-129.442	-0.154	-0.021
-304.837	-200.000	-0.048	0.244
-303.822	-156.819	0.477	0.029
-302.807	646.892	0.136	0.349
-301.793	36.469	-0.238	-0.210
-300.778	377.260	-0.131	-0.268
-299.764	-43.147	0.479	-0.243
-298.749	171.653	-0.049	-0.070
-297.735	-114.188	-0.237	0.046
-296.720	-200.000	0.002	-0.476
-295.705	800.000	-0.060	-0.213
-294.691	136.519	-0.080	0.105
-293.676	800.000	-0.065	-0.286
-292.662	800.000	-0.121	-0.362
-291.647	-159.042	0.158	0.009
-290.632	-99.071	0.153	-0.039
-289.618	-47.609	0.254	-0.124
-288.603	246.656	0.044	-0.074
-287.589	-152.942	-0.358	-0.025
-286.574	507.061	-0.116	0.270
-285.559	661.167	-0.069	-0.177
-284.545	-97.875	-0.347	0.090
-283.530	45.666	-0.217	-0.201
-282.516	-200.000	0.025	-0.113
-281.501	-22.034	0.407	0.247
-280.486	-164.525	0.355	0.016
-279.472	-67.216	-0.238	0.094
-278.457	70.822	-0.175	-0.181
-277.443	800.000	-0.048	-0.204
-276.428	5.324	-0.187	0.138
-275.413	54.613	-0.140	0.136
-274.399	-17.415	0.307	-0.194
-273.384	800.000	-0.115	0.350
-272.370	-188.522	0.177	0.002
-271.355	6.000	-0.101	0.075
-270.340	44.609	-0.217	-0.200
-269.326	-168.977	0.101	-0.004
-268.311	-189.883	0.133	-0.002
-267.297	-86.491	0.416	0.128
-266.282	-68.301	0.506	0.197
-265.267	-16.313	0.222	-0.141
-264.253	131.657	-0.062	0.080
-263.238	-138.307	0.360	-0.040
-262.224	-200.000	0.032	-0.271
-261.209	77.602	-0.110	0.117
-260.195	50.745	-0.186	-0.176
-259.180	-163.356	-0.076	0.004
-258.165	800.000	0.123	-0.375
-257.151	-200.000	0.002	-0.020
-256.136	800.000	0.089	0.319
-255.122	-103.808	0.220	-0.051
-254.107	-37.631	0.110	0.058
-253.092	471.905	0.114	0.257
-252.078	-151.123	0.120	0.009
-251.063	-200.000	-0.002	0.059
-250.049	5.909	0.174	-0.129
-249.034	800.000	-0.046	0.147
-248.019	411.472	-0.051	-0.108
-247.005	-34.070	-0.064	0.035
-245.990	511.505	0.042	0.098
-244.976	529.511	-0.107	-0.253
-243.961	-187.956	0.296	0.004
-242.946	-101.538	0.164	-0.040
-241.932	-124.453	0.096	-0.015
-240.917	-92.102	-0.125	0.035
-239.903	81.515	0.122	0.132
-238.888	553.792	-0.094	-0.226
-237.873	-161.447	-0.166	0.009
-236.859	2.420	-0.274	-0.198
-235.844	-5.886	-0.251	-0.172
-234.830	800.000	0.009	-0.037
-233.815	-61.850	0.193	0.081
-232.800	-59.175	-0.235	-0.101
-231.786	-162.237	-0.185	-0.009
-230.771	-105.731	-0.290	0.066
-229.757	-147.033	-0.246	-0.021
-228.742	-173.411	-0.459	0.014
-227.727	-200.000	0.036	0.173
-226.713	800.000	-0.071	0.294
-225.698	-200.000	0.013	0.070
-224.684	627.648	0.050	0.127
-223.669	-7.857	-0.395	0.267
-222.655	-87.906	-0.100	0.030
-221.640	151.758	0.261	0.356
-220.625	800.000	0.008	0.030
-219.611	122.199	-0.077	-0.096
-218.596	-200.000	0.019	-0.352
-217.582	263.574	0.107	0.187
-216.567	193.306	0.066	0.099
-215.552	322.050	-0.057	-0.109
-214.538	-131.107	0.129	0.017
-213.523	73.902	0.106	0.111
-212.509	-173.403	-0.370	0.011
-211.494	-75.543	-0.269	-0.096
-210.479	-83.929	-0.101	0.032
-209.465	605.009	0.111	-0.276
-208.450	46.845	-0.173	-0.161
-207.436	25.058	-0.124	-0.103
-206.421	800.000	0.012	-0.048
-205.406	-30.694	0.213	-0.120
-204.392	-130.959	-0.302	-0.040
-203.377	800.000	-0.017	-0.057
-202.363	-25.529	0.163	0.096
-201.348	-113.793	-0.205	-0.040
-200.333	800.000	0.078	-0.304
-199.319	800.000	0.063	0.219
-198.304	-150.613	0.110	-0.008
-197.290	-156.943	-0.243	-0.015
-196.275	-18.748	0.285	0.177
-195.260	-93.536	0.225	-0.062
-194.246	22.949	-0.142	0.116
-193.231	527.674	-0.056	0.131
-192.217	-78.382	-0.373	-0.128
-191.202	457.733	0.078	-0.172
-190.187	-86.335	-0.150	-0.046
-189.173	-200.000	-0.017	0.115
-188.158	155.332	-0.202	-0.277
-187.144	386.929	-0.086	-0.177
-186.129	800.000	0.010	0.037
-185.114	113.326	0.054	0.065
-184.100	-74.582	-0.214	0.077
-183.085	-127.214	-0.252	0.037
-182.071	181.254	0.216	0.317
-181.056	-163.370	0.225	-0.011
-180.042	-88.415	-0.340	-0.101
-179.027	166.576	-0.160	-0.227
-178.012	-200.000	0.001	-0.284
-176.998	33.793	0.061	0.053
-175.983	348.050	-0.062	-0.122
-174.969	-13.818	-0.049	-0.032
-173.954	-31.501	-0.165	-0.092
-172.939	-200.000	-0.006	0.292
-171.925	-30.108	-0.076	-0.043
-170.910	-200.000	-0.036	0.199
-169.896	267.880	0.216	0.378
-168.881	127.457	-0.186	-0.236
-167.866	48.991	0.005	0.004
-166.852	12.961	-0.449	-0.347
-165.837	-26.982	-0.036	0.021
-164.823	147.768	-0.091	-0.122
-163.808	800.000	0.075	0.288
-162.793	-200.000	0.074	0.432
-161.779	-200.000	0.002	0.262
-160.764	-29.694	0.243	-0.138
-159.750	384.640	0.007	-0.014
-158.735	-40.818	0.324	0.167
-157.720	-43.663	-0.296	-0.149
-156.706	0.579	0.074	-0.052
-155.691	-198.946	0.150	0.001
-154.677	24.607	0.171	0.141
-153.662	6.260	-0.194	-0.143
-152.647	-200.000	0.012	0.596
-151.633	800.000	-0.087	-0.273
-150.618	-200.000	-0.050	-0.233
-149.604	366.427	-0.073	0.146
-148.589	-115.879	0.230	-0.043
-147.574	-28.946	0.358	-0.205
-146.560	-68.564	-0.097	0.037
-145.545	800.000	0.061	0.218
-144.531	-200.000	0.001	0.093
-143.516	46.833	0.268	-0.249
-142.502	-94.062	0.207	0.057
-141.487	-200.000	0.031	0.420
-140.472	-78.491	0.232	-0.079
-139.458	271.817	-0.081	0.142
-138.443	142.780	0.097	0.129
-137.429	-84.770	0.167	-0.052
-136.414	117.406	0.074	0.091
-135.399	120.065	0.225	0.278
-134.385	-25.352	0.187	0.110
-133.370	-1.781	0.162	-0.113
-132.356	-200.000	-0.102	0.485
-131.341	-200.000	0.005	-0.075
-130.326	-138.630	0.250	0.027
-129.312	-94.318	0.203	-0.055
-128.297	-200.000	0.058	-0.260
-127.283	-165.304	-0.388	0.017
-126.268	406.149	0.062	0.129
-125.253	-200.000	-0.103	0.469
-124.239	-200.000	0.003	0.165
-123.224	642.358	-0.105	-0.267
-122.210	-133.812	0.350	0.043
