DTS Sentinel unit serial number:	SN413079Multiplexer serial number:	ORYXHardware model number:	OX4-SRSoftware version number:	ORYX F/W v4.00 Oryx Data Collector v3.7.2.0data status	okinstallation	princeton_trtdifferential loss correction	single-endedforward channel	channel 1reverse channel	N/Adate	2019/09/11time	02:24:11forward acquisition time	60.00reverse acquisition time	0.00gamma	496.2192k internal	0.2331k external	0.2331temperature offset calibration	0.9931default loss term (dB/km)	0.3790temperature slope calibration	1.0000multiplexer offset coefficient	1.0000multiplexer slope coefficient	1.0000fibre end	0.00T internal ref (°C)	29.20T ext. ref 1 (°C)	-0.29T ext. ref 2 (°C)	23.53length (m)	temperature (°C)	Stokes	anti-Stokes-747.200	-200.000	0.018	0.209
-746.185	476.941	-0.051	0.116
-745.171	72.672	0.094	-0.099
-744.156	50.078	-0.334	-0.318
-743.142	77.203	-0.178	0.190
-742.127	-87.899	0.406	0.123
-741.112	800.000	-0.042	0.144
-740.098	-4.690	-0.312	0.217
-739.083	160.252	-0.094	0.132
-738.069	45.916	-0.200	0.186
-737.054	-200.000	0.004	-0.107
-736.039	-200.000	0.009	-0.463
-735.025	-70.366	-0.117	-0.045
-734.010	-146.655	0.117	0.010
-732.996	-8.250	0.062	0.042
-731.981	-87.144	-0.401	0.123
-730.966	-19.210	-0.122	0.076
-729.952	-133.024	-0.273	0.035
-728.937	-200.000	-0.044	0.330
-727.923	231.697	-0.055	0.091
-726.908	-165.349	-0.313	0.014
-725.894	212.622	0.074	-0.117
-724.879	-200.000	0.052	0.273
-723.864	321.837	0.074	-0.142
-722.850	126.049	-0.169	0.215
-721.835	-200.000	0.035	-0.296
-720.821	9.648	0.406	-0.309
-719.806	-200.000	0.003	-0.257
-718.791	26.349	-0.132	0.111
-717.777	-109.597	-0.313	0.066
-716.762	535.946	0.098	-0.234
-715.748	-60.813	0.057	-0.024
-714.733	-67.000	0.442	0.175
-713.718	158.502	-0.144	-0.201
-712.704	103.079	-0.208	-0.245
-711.689	-39.027	0.135	-0.072
-710.675	-200.000	0.010	-0.197
-709.660	222.773	0.082	-0.133
-708.645	-39.649	0.192	-0.101
-707.631	800.000	0.043	0.122
-706.616	-37.569	0.230	0.123
-705.602	-11.464	-0.173	0.114
-704.587	800.000	-0.070	0.257
-703.572	42.643	0.151	-0.138
-702.558	-110.112	0.207	0.043
-701.543	800.000	0.097	-0.293
-700.529	-51.616	0.334	-0.157
-699.514	800.000	-0.133	-0.421
-698.499	800.000	-0.055	-0.161
-697.485	-119.859	-0.110	-0.019
-696.470	-128.299	0.239	-0.034
-695.456	-25.118	0.122	0.073
-694.441	605.761	-0.068	-0.171
-693.426	44.110	-0.331	0.305
-692.412	174.863	0.152	-0.221
-691.397	-200.000	0.023	0.168
-690.383	87.661	-0.129	0.143
-689.368	32.479	-0.117	-0.101
-688.354	-134.236	0.382	-0.047
-687.339	-136.974	0.126	0.015
-686.324	-57.227	0.165	-0.073
-685.310	-200.000	0.031	-0.270
-684.295	229.121	-0.132	-0.216
-683.281	-163.918	-0.107	0.005
-682.266	92.867	0.147	0.167
-681.251	-19.751	-0.197	0.122
-680.237	-96.372	-0.276	-0.073
-679.222	-55.041	0.098	0.044
-678.208	-108.955	-0.164	0.035
-677.193	-8.322	-0.110	0.074
-676.178	-200.000	-0.002	-0.345
-675.164	383.210	0.102	0.211
-674.149	-3.594	-0.034	0.024
-673.135	-145.360	0.076	-0.007
-672.120	-38.104	0.105	-0.056
-671.105	288.958	0.092	-0.167
-670.091	-91.401	0.155	-0.044
-669.076	61.546	0.068	0.067
-668.062	-173.656	-0.163	0.005
-667.047	-13.784	-0.144	0.094
-666.032	359.920	-0.136	0.272
-665.018	-162.800	-0.454	0.022
-664.003	800.000	-0.044	-0.156
-662.989	-141.580	-0.221	0.022
-661.974	84.218	0.052	-0.057
-660.959	10.583	-0.117	-0.089
-659.945	-200.000	-0.026	-0.138
-658.930	34.601	-0.221	-0.194
-657.916	-200.000	-0.003	-0.128
-656.901	431.795	-0.120	-0.262
-655.886	800.000	-0.078	0.242
-654.872	214.485	-0.197	-0.312
-653.857	322.557	0.118	-0.226
-652.843	-200.000	0.005	-0.117
-651.828	-200.000	-0.036	-0.233
-650.814	800.000	0.159	-0.445
-649.799	163.801	-0.129	0.183
-648.784	2.787	-0.055	0.040
-647.770	-47.039	-0.185	-0.090
-646.755	253.257	-0.092	-0.158
-645.741	64.328	0.011	-0.011
-644.726	28.299	-0.146	-0.124
-643.711	111.788	0.102	0.124
-642.697	-8.685	0.150	-0.101
-641.682	-200.000	-0.022	-0.137
-640.668	-2.960	0.106	0.074
-639.653	42.704	-0.161	0.147
-638.638	111.800	0.012	0.015
-637.624	86.215	0.259	0.285
-636.609	-200.000	0.032	-0.140
-635.595	78.987	-0.358	0.384
-634.580	-6.236	-0.208	0.142
-633.565	-15.995	-0.183	-0.117
-632.551	800.000	0.031	-0.097
-631.536	-119.517	0.107	0.019
-630.522	-2.475	0.173	-0.121
-629.507	105.686	-0.317	0.375
-628.492	-37.394	-0.225	-0.121
-627.478	-200.000	0.071	0.377
-626.463	-200.000	-0.005	-0.075
-625.449	-12.746	0.151	-0.099
-624.434	-32.966	0.202	0.112
-623.419	800.000	0.037	0.135
-622.405	162.352	0.249	0.350
-621.390	-4.406	-0.138	-0.096
-620.376	-102.073	-0.357	0.086
-619.361	19.449	0.057	0.046
-618.346	37.095	0.279	0.248
-617.332	-25.303	-0.117	-0.069
-616.317	128.171	-0.223	-0.284
-615.303	800.000	0.105	0.291
-614.288	-60.188	-0.316	-0.135
-613.273	-161.156	-0.213	-0.011
-612.259	-200.000	0.038	-0.243
-611.244	-52.671	-0.250	0.115
-610.230	-200.000	-0.040	0.299
-609.215	-37.721	-0.133	0.071
-608.201	-4.819	0.116	-0.080
-607.186	-200.000	0.007	-0.093
-606.171	-8.393	0.226	-0.152
-605.157	-31.585	0.039	0.022
-604.142	-200.000	0.010	-0.348
-603.128	-200.000	-0.002	-0.227
-602.113	-200.000	0.057	-0.314
-601.098	800.000	0.053	-0.218
-600.084	11.205	-0.047	0.036
-599.069	181.192	-0.227	0.333
-598.055	55.769	0.220	0.214
-597.040	20.554	-0.404	0.327
-596.025	-40.797	-0.206	-0.107
-595.011	591.172	0.123	0.304
-593.996	68.987	0.072	-0.074
-592.982	-194.102	0.179	0.001
-591.967	35.479	-0.123	0.108
-590.952	800.000	0.064	-0.188
-589.938	53.755	0.209	-0.201
-588.923	-52.927	-0.198	-0.091
-587.909	-107.680	0.164	0.036
-586.894	133.393	-0.111	-0.143
-585.879	800.000	0.062	0.187
-584.865	-119.162	0.417	0.073
-583.850	116.862	-0.129	-0.158
-582.836	257.353	0.051	-0.088
-581.821	-131.155	0.200	0.027
-580.806	-200.000	0.001	0.025
-579.792	800.000	-0.051	-0.158
-578.777	3.230	0.114	0.083
-577.763	-119.994	-0.176	0.030
-576.748	-200.000	-0.044	-0.416
-575.733	394.726	-0.116	0.242
-574.719	-143.253	0.487	0.047
-573.704	-49.694	0.232	0.110
-572.690	380.014	0.101	0.207
-571.675	185.827	-0.057	0.085
-570.661	-30.502	0.179	0.101
-569.646	-200.000	0.085	-0.378
-568.631	-121.298	0.036	0.006
-567.617	-27.254	0.129	0.075
-566.602	17.052	-0.093	0.073
-565.588	-141.066	-0.125	-0.013
-564.573	800.000	0.092	-0.402
-563.558	102.467	0.080	0.094
-562.544	-126.276	0.209	-0.031
-561.529	-45.007	-0.388	-0.193
-560.515	-128.612	-0.113	-0.016
-559.500	800.000	-0.119	-0.376
-558.485	90.205	-0.031	-0.035
-557.471	-200.000	-0.003	0.020
-556.456	-163.611	-0.258	-0.012
-555.442	190.978	0.063	-0.095
-554.427	253.588	-0.209	-0.356
-553.412	-3.623	0.120	0.084
-552.398	800.000	-0.119	0.457
-551.383	-167.383	-0.099	0.004
-550.369	196.284	0.137	0.208
-549.354	-200.000	-0.016	-0.246
-548.339	-200.000	0.016	-0.292
-547.325	-142.103	-0.202	-0.020
-546.310	-78.296	-0.352	0.121
-545.296	72.949	0.232	0.242
-544.281	-200.000	-0.055	0.290
-543.266	441.372	0.039	0.085
-542.252	-200.000	0.036	-0.292
-541.237	-10.967	0.098	-0.064
-540.223	-16.464	-0.084	-0.053
-539.208	30.206	-0.144	0.123
-538.193	-21.954	0.231	0.140
-537.179	351.286	0.130	-0.256
-536.164	135.718	-0.144	0.187
-535.150	381.376	-0.181	-0.370
-534.135	-152.501	-0.135	-0.010
-533.121	-200.000	-0.012	0.075
-532.106	156.806	0.129	-0.178
-531.091	113.709	-0.073	0.089
-530.077	800.000	-0.045	-0.154
-529.062	-132.030	-0.235	-0.030
-528.048	-42.467	0.109	-0.056
-527.033	487.788	0.019	0.043
-526.018	249.002	-0.182	-0.307
-525.004	12.377	0.254	0.196
-523.989	45.387	0.292	-0.269
-522.975	-26.705	-0.160	-0.093
-521.960	116.807	-0.062	0.076
-520.945	800.000	0.102	0.344
-519.931	-141.920	-0.133	0.013
-518.916	200.929	0.144	0.221
-517.902	-190.104	-0.162	-0.002
-516.887	303.740	-0.180	0.332
-515.872	-73.931	0.112	-0.041
-514.858	406.969	-0.077	-0.163
-513.843	-43.633	-0.210	0.106
-512.829	-34.827	0.174	0.095
-511.814	-90.563	-0.301	0.087
-510.799	7.153	-0.168	-0.125
-509.785	-114.656	-0.279	-0.053
-508.770	45.641	-0.138	0.127
-507.756	10.543	-0.245	-0.186
-506.741	-134.548	-0.019	0.002
-505.726	316.849	0.076	0.144
-504.712	-200.000	-0.013	-0.141
-503.697	66.613	0.145	0.147
-502.683	114.436	-0.146	-0.178
-501.668	-115.740	0.283	0.053
-500.653	-138.038	0.167	-0.019
-499.639	-34.955	-0.172	-0.094
-498.624	128.741	-0.142	-0.181
-497.610	544.107	-0.128	0.305
-496.595	298.266	-0.164	0.301
-495.581	-18.408	0.053	-0.033
-494.566	-200.000	0.007	-0.323
-493.551	800.000	0.060	0.184
-492.537	-39.495	-0.218	-0.114
-491.522	179.661	0.068	0.099
-490.508	-117.875	0.182	0.033
-489.493	-83.713	0.233	-0.074
-488.478	-176.110	0.446	0.012
-487.464	800.000	-0.080	0.230
-486.449	75.120	-0.044	-0.046
-485.435	-122.231	-0.080	0.013
-484.420	-111.707	-0.166	-0.033
-483.405	-133.550	-0.179	-0.022
-482.391	420.346	0.025	0.053
-481.376	-200.000	0.008	0.188
-480.362	143.975	-0.204	-0.270
-479.347	800.000	0.054	-0.199
-478.332	62.488	0.226	0.224
-477.318	-200.000	0.178	-0.000
-476.303	274.998	0.073	-0.128
-475.289	175.871	-0.089	-0.128
-474.274	-123.009	-0.023	0.004
-473.259	-9.343	0.165	-0.109
-472.245	-121.656	0.249	-0.041
-471.230	-141.273	-0.312	-0.032
-470.216	63.387	-0.136	0.136
-469.201	-200.000	0.022	-0.111
-468.186	18.264	-0.224	0.178
-467.172	255.700	-0.070	0.120
-466.157	151.382	-0.173	-0.235
-465.143	800.000	0.045	-0.168
-464.128	800.000	-0.034	0.127
-463.113	154.492	0.082	0.113
-462.099	-200.000	0.002	-0.014
-461.084	-53.590	0.124	-0.056
-460.070	590.570	-0.121	0.297
-459.055	-61.705	-0.170	-0.071
-458.040	-6.006	-0.093	-0.063
-457.026	-54.533	-0.291	0.131
-456.011	800.000	-0.078	0.261
-454.997	420.231	0.100	0.213
-453.982	-157.635	0.135	0.008
-452.968	-150.567	0.115	-0.009
-451.953	-200.000	-0.034	0.206
-450.938	0.325	0.093	-0.066
-449.924	466.545	-0.100	-0.222
-448.909	-55.950	0.367	-0.163
-447.895	508.749	-0.068	-0.158
-446.880	55.961	-0.151	0.146
-445.865	-82.699	-0.272	-0.088
-444.851	112.700	0.266	0.320
-443.836	-131.812	-0.229	-0.030
-442.822	154.653	-0.117	-0.160
-441.807	-47.469	0.221	-0.107
-440.792	-125.743	0.065	0.010
-439.778	-200.000	0.054	-0.297
-438.763	220.752	-0.103	0.164
-437.749	31.256	-0.114	-0.097
-436.734	-200.000	-0.014	-0.477
-435.719	321.742	0.171	0.323
-434.705	800.000	-0.009	-0.031
-433.690	-123.844	0.393	0.062
-432.676	800.000	-0.118	-0.324
-431.661	203.252	0.121	-0.185
-430.646	12.106	0.268	0.205
-429.632	-137.604	-0.260	0.029
-428.617	-2.809	-0.029	0.020
-427.603	82.163	0.411	-0.442
-426.588	-11.130	0.328	0.215
-425.573	-29.397	0.135	-0.077
-424.559	127.163	-0.109	-0.138
-423.544	155.165	-0.046	-0.063
-422.530	-36.621	0.173	-0.092
-421.515	-63.994	0.352	0.143
-420.500	-200.000	0.000	-0.155
-419.486	-154.004	0.024	-0.002
-418.471	35.158	0.165	0.143
-417.457	1.695	0.101	0.072
-416.442	800.000	0.069	-0.245
-415.428	19.053	-0.169	-0.135
-414.413	184.887	0.091	-0.134
-413.398	87.210	0.181	-0.198
-412.384	-106.441	0.139	0.031
-411.369	-72.589	-0.121	-0.044
-410.355	-200.000	-0.026	-0.172
-409.340	-170.298	-0.242	0.008
-408.325	-156.956	0.132	-0.008
-407.311	-51.451	-0.121	0.056
-406.296	55.469	0.311	-0.299
-405.282	-31.313	0.055	-0.031
-404.267	-200.000	-0.027	-0.223
-403.252	-200.000	0.024	-0.297
-402.238	22.901	0.157	-0.128
-401.223	213.700	-0.097	-0.153
-400.209	-167.376	0.216	0.009
-399.194	171.325	-0.070	-0.100
-398.179	-200.000	0.013	-0.200
-397.165	71.405	0.289	0.298
-396.150	-198.647	0.211	0.001
-395.136	-153.365	-0.208	0.014
-394.121	-44.868	0.106	0.052
-393.106	800.000	0.035	-0.146
-392.092	5.660	-0.055	-0.041
-391.077	101.262	0.078	-0.090
-390.063	782.428	-0.028	-0.077
-389.048	800.000	-0.123	-0.351
-388.033	-200.000	-0.009	0.128
-387.019	800.000	-0.148	-0.462
-386.004	477.141	-0.022	-0.049
-384.990	-47.420	-0.166	-0.080
-383.975	-168.470	-0.161	-0.006
-382.960	-94.629	0.229	-0.062
-381.946	-95.890	0.266	-0.070
-380.931	-34.328	0.223	0.121
-379.917	644.904	-0.107	0.271
-378.902	89.080	0.155	0.171
-377.888	-76.980	0.121	-0.042
-376.873	-42.980	0.045	0.023
-375.858	-73.518	0.305	-0.110
-374.844	-117.712	0.304	0.054
-373.829	393.047	0.076	-0.157
-372.815	-200.000	-0.130	0.000
-371.800	35.690	0.409	0.357
-370.785	410.118	0.136	0.286
-369.771	-130.390	-0.128	-0.017
-368.756	-200.000	-0.011	0.135
-367.742	-32.699	0.249	0.138
-366.727	-200.000	0.006	0.043
-365.712	535.694	0.010	-0.023
-364.698	-77.307	0.133	-0.046
-363.683	28.309	0.134	-0.112
-362.669	-200.000	-0.015	-0.391
-361.654	-200.000	0.019	0.110
-360.639	44.093	-0.172	0.156
-359.625	488.377	-0.070	0.159
-358.610	-39.850	0.084	0.043
-357.596	82.162	0.123	-0.132
-356.581	-16.274	0.156	-0.098
-355.566	74.148	-0.030	0.032
-354.552	603.437	0.100	0.247
-353.537	-5.552	0.110	0.075
-352.523	29.154	0.153	0.129
-351.508	-87.394	-0.124	0.037
-350.493	84.201	-0.173	-0.188
-349.479	-200.000	-0.039	0.207
-348.464	-118.742	0.321	0.056
-347.450	652.913	0.039	0.099
-346.435	-77.909	-0.345	-0.118
-345.420	-200.000	0.027	-0.374
-344.406	-200.000	0.045	0.313
-343.391	148.493	0.177	0.237
-342.377	-140.957	0.094	-0.010
-341.362	19.415	-0.193	-0.153
-340.348	800.000	-0.044	0.182
-339.333	-200.000	-0.030	-0.339
-338.318	-21.442	0.395	-0.239
-337.304	800.000	0.012	-0.038
-336.289	-200.000	-0.032	-0.382
-335.275	-97.553	-0.275	-0.071
-334.260	-114.780	-0.356	0.067
-333.245	28.174	0.055	-0.046
-332.231	601.803	-0.094	0.230
-331.216	14.603	0.108	-0.084
-330.202	-200.000	-0.041	-0.250
-329.187	-66.713	0.262	0.103
-328.172	-83.940	-0.167	-0.053
-327.158	27.877	0.211	0.176
-326.143	800.000	0.156	0.567
-325.129	-78.583	-0.177	-0.060
-324.114	-52.578	-0.273	-0.125
-323.099	384.384	-0.105	0.214
-322.085	763.132	-0.097	-0.261
-321.070	-130.861	-0.236	-0.031
-320.056	-200.000	0.002	0.459
-319.041	-200.000	-0.005	-0.150
-318.026	-64.766	0.232	-0.093
-317.012	-29.036	0.283	0.161
-315.997	399.820	-0.035	0.072
-314.983	-200.000	-0.034	0.193
-313.968	-200.000	-0.025	0.220
-312.953	-131.647	-0.321	-0.042
-311.939	301.163	-0.171	-0.313
-310.924	69.640	-0.210	0.214
-309.910	-200.000	-0.005	-0.103
-308.895	-200.000	-0.006	0.060
-307.880	2.823	-0.134	0.097
-306.866	69.648	0.122	-0.124
-305.851	-81.962	0.373	0.121
-304.837	-74.923	-0.212	0.075
-303.822	-102.729	-0.127	0.030
-302.807	-137.633	0.380	0.042
-301.793	25.602	-0.163	0.134
-300.778	-23.236	-0.292	-0.174
-299.764	-65.102	0.380	0.152
-298.749	-200.000	0.025	-0.231
-297.735	-73.843	0.323	-0.116
-296.720	-87.462	0.378	0.113
-295.705	34.829	0.127	0.110
-294.691	16.008	0.085	-0.067
-293.676	34.426	-0.286	0.246
-292.662	203.691	0.274	-0.419
-291.647	-200.000	-0.018	-0.267
-290.632	-163.556	-0.121	-0.006
-289.618	-73.020	0.098	-0.036
-288.603	-39.417	-0.229	-0.119
-287.589	-13.386	0.227	0.145
-286.574	-122.701	-0.250	0.040
-285.559	-82.945	0.161	-0.051
-284.545	120.426	-0.092	-0.113
-283.530	-200.000	-0.011	-0.050
-282.516	800.000	0.059	0.256
-281.501	-96.303	-0.165	-0.043
-280.486	26.938	0.276	0.229
-279.472	-182.398	0.237	-0.004
-278.457	-152.193	-0.386	0.028
-277.443	184.587	-0.057	-0.084
-276.428	-153.807	-0.195	-0.013
-275.413	716.639	0.065	0.169
-274.399	-200.000	0.002	-0.166
-273.384	-20.536	-0.302	-0.183
-272.370	-9.132	0.038	-0.025
-271.355	-200.000	-0.003	0.108
-270.340	618.833	0.151	0.375
-269.326	401.174	0.114	0.237
-268.311	-165.362	-0.422	-0.018
-267.297	800.000	0.076	0.226
-266.282	300.368	-0.181	0.330
-265.267	95.388	0.157	0.177
-264.253	449.417	0.078	-0.170
-263.238	-35.679	0.224	-0.120
-262.224	-6.403	0.156	0.105
-261.209	169.388	-0.068	0.095
-260.195	-105.114	-0.234	0.053
-259.180	-137.599	-0.319	0.035
-258.165	800.000	-0.035	-0.115
-257.151	-72.871	-0.401	-0.146
-256.136	-145.586	-0.200	0.018
-255.122	81.290	0.103	-0.110
-254.107	-200.000	-0.010	-0.051
-253.092	-88.521	-0.278	0.082
-252.078	-161.233	0.390	0.020
-251.063	-200.000	-0.038	0.185
-250.049	117.526	0.194	-0.235
-249.034	71.649	0.094	0.097
-248.019	-148.433	0.094	-0.008
-247.005	216.932	-0.091	0.143
-245.990	431.428	-0.102	0.218
-244.976	493.528	-0.116	0.262
-243.961	124.586	0.134	0.167
-242.946	50.669	-0.217	0.202
-241.932	238.580	0.043	-0.070
-240.917	335.054	-0.114	0.218
-239.903	-123.066	-0.136	-0.022
-238.888	-134.912	0.242	0.029
-237.873	800.000	-0.073	0.203
-236.859	-200.000	0.019	0.176
-235.844	800.000	0.065	0.222
-234.830	-38.774	-0.169	-0.088
-233.815	-6.937	-0.079	0.053
-232.800	58.819	-0.123	0.119
-231.786	-109.332	-0.158	-0.033
-230.771	-160.258	-0.229	-0.012
-229.757	-27.953	0.293	-0.168
-228.742	231.635	-0.031	-0.050
-227.727	-58.527	-0.128	-0.055
-226.713	244.442	0.053	0.088
-225.698	-200.000	-0.005	0.121
-224.684	444.983	0.047	-0.101
-223.669	95.104	-0.045	0.051
-222.655	-78.337	-0.122	-0.041
-221.640	-200.000	0.000	-0.035
-220.625	-35.520	-0.226	0.121
-219.611	787.823	-0.027	0.074
-218.596	-200.000	-0.018	0.081
-217.582	-22.668	-0.114	-0.068
-216.567	-0.517	-0.184	-0.129
-215.552	-200.000	-0.038	0.170
-214.538	123.147	0.303	0.374
-213.523	227.676	-0.057	0.092
-212.509	13.186	0.144	0.110
-211.494	123.942	-0.173	-0.215
-210.479	10.605	0.067	0.051
-209.465	58.974	-0.113	-0.110
-208.450	-141.301	-0.200	0.020
-207.436	-68.387	-0.201	0.077
-206.421	-200.000	0.012	0.099
-205.406	143.028	0.185	-0.243
-204.392	-200.000	0.011	-0.168
-203.377	-14.668	0.132	-0.083
-202.363	-200.000	-0.037	0.212
-201.348	-165.844	0.336	0.014
-200.333	-30.048	-0.359	-0.201
-199.319	12.157	-0.127	0.096
-198.304	169.039	0.043	0.060
-197.290	88.688	0.338	-0.371
-196.275	26.766	0.071	-0.059
-195.260	-132.671	-0.155	0.020
-194.246	26.485	0.083	0.069
-193.231	-200.000	-0.014	0.483
-192.217	-115.089	-0.083	-0.015
-191.202	173.048	-0.218	-0.309
-190.187	580.823	0.100	-0.242
-189.173	494.067	-0.031	0.069
-188.158	-200.000	-0.014	-0.195
-187.144	-4.199	0.328	-0.223
-186.129	120.510	0.041	0.051
-185.114	-149.296	-0.061	-0.005
-184.100	800.000	0.124	-0.410
-183.085	36.965	-0.187	-0.163
-182.071	64.222	-0.088	0.087
-181.056	-14.276	0.284	0.180
-180.042	150.593	0.334	0.447
-179.027	-50.253	0.188	0.088
-178.012	763.659	0.042	-0.113
-176.998	-86.727	0.309	-0.093
-175.983	484.308	0.039	0.088
-174.969	-95.387	-0.285	0.075
-173.954	-187.283	0.110	0.001
-172.939	16.308	-0.066	0.051
-171.925	-78.983	0.170	0.057
-170.910	35.275	-0.063	-0.055
-169.896	-24.439	0.079	-0.046
-168.881	-49.551	-0.296	-0.139
-167.866	-170.151	0.128	-0.004
-166.852	-200.000	0.011	-0.284
-165.837	312.808	0.064	0.118
-164.823	-200.000	-0.009	-0.514
-163.808	109.841	-0.034	-0.040
-162.793	-194.876	-0.291	0.002
-161.779	22.076	0.191	0.153
-160.764	-175.043	-0.027	0.001
-159.750	-69.555	-0.149	0.056
-158.735	185.948	-0.192	0.281
-157.720	-200.000	0.045	0.270
-156.706	-150.527	0.045	0.003
-155.691	-114.682	-0.371	-0.070
-154.677	29.063	-0.165	0.138
-153.662	-200.000	0.009	0.076
-152.647	800.000	0.050	-0.201
-151.633	-200.000	0.045	-0.218
-150.618	38.372	-0.259	-0.227
-149.604	-75.938	-0.136	-0.047
-148.589	71.980	-0.146	-0.149
-147.574	-25.154	0.101	0.059
-146.560	800.000	0.022	-0.060
-145.545	-200.000	0.077	0.347
-144.531	-30.442	0.125	0.069
-143.516	800.000	0.062	0.246
-142.502	12.210	0.337	0.255
-141.487	46.696	-0.412	-0.376
-140.472	-84.840	-0.223	-0.069
-139.458	-174.135	0.331	0.009
-138.443	-12.147	0.220	0.141
-137.429	800.000	0.043	-0.169
-136.414	-29.609	0.386	0.217
-135.399	-20.810	0.113	-0.068
-134.385	-19.662	0.073	-0.044
-133.370	-25.085	0.163	-0.095
-132.356	353.621	-0.051	-0.100
-131.341	-68.424	0.441	-0.168
-130.326	-167.152	-0.190	-0.008
-129.312	800.000	0.079	0.235
-128.297	725.130	-0.082	0.215
-127.283	-200.000	0.031	-0.447
-126.268	37.029	0.079	0.068
-125.253	-82.624	-0.235	0.075
-124.239	-200.000	0.045	0.204
-123.224	-155.210	0.260	-0.017
-122.210	-76.154	0.209	-0.072
-121.195	800.000	0.090	-0.258
