DTS Sentinel unit serial number:	SN413079Multiplexer serial number:	ORYXHardware model number:	OX4-SRSoftware version number:	ORYX F/W v4.00 Oryx Data Collector v3.7.2.0data status	okinstallation	princeton_trtdifferential loss correction	single-endedforward channel	channel 1reverse channel	N/Adate	2019/09/14time	13:14:35forward acquisition time	60.00reverse acquisition time	0.00gamma	496.2192k internal	0.2294k external	0.2294temperature offset calibration	1.0087default loss term (dB/km)	0.3790temperature slope calibration	1.0000multiplexer offset coefficient	1.0000multiplexer slope coefficient	1.0000fibre end	0.00T internal ref (°C)	37.98T ext. ref 1 (°C)	4.90T ext. ref 2 (°C)	33.97length (m)	temperature (°C)	Stokes	anti-Stokes-747.200	-31.289	-0.083	0.048
-746.185	800.000	-0.051	0.189
-745.171	0.221	0.159	-0.116
-744.156	-42.027	-0.394	0.206
-743.142	-24.187	-0.153	0.093
-742.127	147.890	-0.191	0.263
-741.112	512.072	0.114	0.270
-740.098	800.000	-0.045	-0.135
-739.083	92.831	0.194	0.224
-738.069	800.000	-0.081	0.265
-737.054	278.763	0.085	-0.155
-736.039	-200.000	-0.021	0.239
-735.025	-52.092	0.394	0.187
-734.010	-118.354	-0.493	0.090
-732.996	-11.725	-0.260	-0.174
-731.981	-64.929	0.059	-0.024
-730.966	-119.509	-0.183	0.032
-729.952	-46.106	-0.251	0.126
-728.937	62.749	0.087	0.089
-727.923	800.000	0.043	-0.187
-726.908	-107.038	-0.268	-0.061
-725.894	-200.000	-0.004	0.166
-724.879	521.311	0.007	-0.016
-723.864	409.815	-0.220	-0.476
-722.850	401.819	0.114	0.246
-721.835	-200.000	-0.010	0.150
-720.821	-19.752	-0.166	-0.105
-719.806	177.341	-0.161	0.239
-718.791	-84.972	-0.231	0.074
-717.777	61.214	-0.217	-0.221
-716.762	-1.509	-0.182	-0.131
-715.748	-200.000	0.028	-0.232
-714.733	-104.180	-0.103	-0.024
-713.718	143.837	-0.062	-0.084
-712.704	103.995	0.212	-0.254
-711.689	800.000	-0.110	-0.330
-710.675	800.000	-0.050	-0.209
-709.660	-3.515	0.424	0.301
-708.645	-156.183	0.316	-0.020
-707.631	-1.932	-0.133	0.095
-706.616	405.862	-0.102	0.219
-705.602	173.247	0.033	-0.048
-704.587	-9.459	-0.107	0.073
-703.572	-17.393	-0.318	-0.204
-702.558	-32.241	0.305	-0.174
-701.543	800.000	0.008	0.027
-700.529	138.905	0.273	0.366
-699.514	128.679	0.194	0.252
-698.499	-97.310	-0.071	-0.019
-697.485	-200.000	-0.064	-0.318
-696.470	7.121	-0.104	0.079
-695.456	40.689	-0.142	0.131
-694.441	128.723	0.015	-0.020
-693.426	800.000	-0.091	-0.284
-692.412	800.000	-0.113	-0.348
-691.397	113.332	-0.069	0.085
-690.383	-42.482	0.264	-0.137
-689.368	-64.183	-0.167	-0.070
-688.354	-42.269	-0.190	-0.099
-687.339	-118.177	0.166	-0.030
-686.324	-52.101	-0.066	0.031
-685.310	-129.553	-0.208	-0.029
-684.295	337.731	0.087	-0.172
-683.281	800.000	0.065	-0.259
-682.266	-2.337	-0.200	0.143
-681.251	-200.000	0.090	-0.418
-680.237	178.327	0.086	-0.127
-679.222	-25.827	-0.067	0.040
-678.208	32.196	-0.199	0.175
-677.193	-200.000	-0.019	-0.145
-676.178	81.414	-0.079	0.087
-675.164	19.165	-0.111	-0.091
-674.149	800.000	0.022	0.097
-673.135	-200.000	-0.031	-0.297
-672.120	-200.000	-0.003	-0.241
-671.105	203.600	-0.187	-0.295
-670.091	-112.892	0.198	0.040
-669.076	41.711	0.213	0.197
-668.062	481.332	-0.126	-0.291
-667.047	86.345	-0.085	-0.095
-666.032	40.478	0.158	0.145
-665.018	105.903	0.159	-0.192
-664.003	-5.306	0.069	-0.049
-662.989	-123.443	-0.219	-0.035
-661.974	264.792	-0.207	-0.368
-660.959	203.806	0.210	-0.331
-659.945	800.000	0.088	0.276
-658.930	43.792	0.103	-0.096
-657.916	800.000	-0.055	0.219
-656.901	800.000	-0.107	-0.407
-655.886	184.326	0.116	-0.175
-654.872	109.778	-0.178	-0.218
-653.857	800.000	0.115	-0.425
-652.843	-91.363	-0.251	0.073
-651.828	-200.000	-0.016	0.113
-650.814	-97.566	0.207	-0.055
-649.799	20.381	-0.146	0.120
-648.784	-200.000	-0.005	-0.283
-647.770	-200.000	-0.003	-0.151
-646.755	82.916	0.097	-0.108
-645.741	105.185	-0.086	-0.103
-644.726	800.000	-0.057	0.167
-643.711	-200.000	0.003	-0.281
-642.697	238.666	0.074	0.125
-641.682	-131.051	-0.128	-0.017
-640.668	-95.974	0.504	0.137
-639.653	180.200	0.075	-0.112
-638.638	-56.303	-0.173	-0.078
-637.624	413.783	-0.030	-0.064
-636.609	-60.981	-0.282	-0.121
-635.595	800.000	-0.055	-0.198
-634.580	19.113	0.025	-0.021
-633.565	-175.876	0.142	-0.004
-632.551	9.487	-0.231	-0.178
-631.536	800.000	0.061	-0.179
-630.522	-200.000	0.003	-0.158
-629.507	-5.158	-0.339	0.237
-628.492	800.000	-0.083	0.327
-627.478	-110.875	-0.248	-0.052
-626.463	800.000	-0.008	-0.031
-625.449	443.764	0.035	-0.078
-624.434	-136.627	0.158	-0.019
-623.419	31.488	-0.129	-0.113
-622.405	478.088	-0.041	0.095
-621.390	111.509	-0.184	-0.226
-620.376	800.000	-0.062	0.181
-619.361	125.262	0.076	-0.097
-618.346	-82.752	0.193	0.064
-617.332	800.000	0.048	-0.210
-616.317	311.744	0.156	0.297
-615.303	-150.833	0.370	0.029
-614.288	-20.669	0.261	0.163
-613.273	240.280	-0.061	-0.103
-612.259	151.378	-0.293	-0.405
-611.244	420.335	-0.085	0.185
-610.230	16.796	-0.121	-0.097
-609.215	6.418	-0.110	0.083
-608.201	800.000	0.051	0.142
-607.186	6.698	-0.150	0.113
-606.171	800.000	0.037	0.109
-605.157	-72.505	-0.175	-0.066
-604.142	74.927	0.037	-0.039
-603.128	255.782	-0.085	0.148
-602.113	509.214	0.065	-0.154
-601.098	800.000	-0.058	-0.168
-600.084	-200.000	-0.034	0.169
-599.069	141.343	0.095	0.128
-598.055	511.332	-0.185	-0.439
-597.040	-135.390	-0.354	-0.043
-596.025	58.458	0.267	0.266
-595.011	-200.000	-0.019	0.164
-593.996	286.938	-0.031	0.057
-592.982	-138.768	0.268	-0.030
-591.967	-150.874	0.343	-0.026
-590.952	-86.593	0.208	-0.065
-589.938	-131.943	-0.330	0.044
-588.923	-102.142	-0.141	0.034
-587.909	363.001	-0.090	-0.184
-586.894	-94.855	-0.263	-0.072
-585.879	-104.692	-0.162	0.038
-584.865	-43.441	-0.157	0.081
-583.850	-200.000	-0.040	-0.229
-582.836	408.125	0.175	-0.376
-581.821	-80.526	0.136	-0.046
-580.806	-200.000	-0.016	0.301
-579.792	253.254	0.140	-0.242
-578.777	17.060	-0.116	-0.093
-577.763	-18.059	0.165	0.105
-576.748	67.034	-0.043	0.045
-575.733	-200.000	-0.005	-0.056
-574.719	277.073	0.143	0.259
-573.704	-70.387	0.173	-0.067
-572.690	-84.149	0.218	0.070
-571.675	780.460	0.072	0.200
-570.661	-57.071	0.121	0.054
-569.646	32.349	-0.242	0.212
-568.631	656.892	-0.087	0.228
-567.617	-188.183	-0.206	0.003
-566.602	800.000	-0.011	0.033
-565.588	-62.591	0.226	0.095
-564.573	-105.828	0.123	0.028
-563.558	104.984	0.100	0.120
-562.544	-57.217	0.490	-0.219
-561.529	95.390	-0.352	-0.408
-560.515	4.722	-0.228	-0.170
-559.500	-200.000	0.098	0.489
-558.485	44.709	0.139	0.130
-557.471	-48.850	0.408	0.198
-556.456	-170.787	-0.290	0.010
-555.442	800.000	0.063	-0.206
-554.427	-56.633	-0.250	-0.112
-553.412	116.660	-0.136	0.169
-552.398	183.072	-0.084	-0.125
-551.383	-138.721	0.067	0.007
-550.369	-76.408	-0.207	-0.074
-549.354	-13.883	0.026	-0.017
-548.339	420.147	0.218	-0.474
-547.325	-117.544	-0.118	0.022
-546.310	-32.118	-0.202	-0.114
-545.296	539.257	-0.015	-0.036
-544.281	-111.273	0.362	0.075
-543.266	145.082	-0.117	-0.158
-542.252	440.794	0.025	0.055
-541.237	-87.072	-0.166	-0.051
-540.223	-121.623	-0.250	0.042
-539.208	5.399	-0.057	-0.043
-538.193	800.000	-0.066	0.215
-537.179	294.383	-0.162	-0.301
-536.164	-200.000	-0.016	-0.160
-535.150	800.000	-0.032	0.121
-534.135	800.000	-0.037	-0.133
-533.121	-43.725	-0.139	-0.071
-532.106	-121.595	0.384	0.065
-531.091	31.661	0.349	0.305
-530.077	6.069	-0.169	-0.127
-529.062	-200.000	-0.038	-0.199
-528.048	-112.156	-0.373	-0.076
-527.033	22.839	-0.134	-0.111
-526.018	67.444	0.136	0.141
-525.004	19.514	0.228	-0.186
-523.989	-116.963	0.219	-0.041
-522.975	91.627	0.040	0.045
-521.960	-23.516	-0.193	0.117
-520.945	-141.058	0.285	0.030
-519.931	60.128	-0.081	-0.082
-518.916	-200.000	-0.062	-0.288
-517.902	269.901	0.116	-0.207
-516.887	-80.800	0.332	-0.112
-515.872	-200.000	-0.035	-0.298
-514.858	800.000	0.028	0.120
-513.843	-86.695	-0.133	-0.041
-512.829	-127.243	0.331	-0.049
-511.814	800.000	-0.093	-0.278
-510.799	462.944	0.015	-0.033
-509.785	-117.033	-0.296	0.055
-508.770	-159.655	0.278	-0.016
-507.756	800.000	-0.084	0.280
-506.741	-200.000	-0.018	-0.136
-505.726	70.068	0.110	-0.115
-504.712	-134.321	0.101	-0.013
-503.697	-200.000	0.007	-0.201
-502.683	601.953	-0.049	-0.124
-501.668	183.523	-0.114	0.170
-500.653	-185.384	-0.105	0.002
-499.639	-160.651	0.108	0.006
-498.624	800.000	0.014	-0.059
-497.610	-64.408	0.189	-0.078
-496.595	272.483	-0.148	-0.264
-495.581	-200.000	-0.002	0.026
-494.566	104.489	0.119	-0.141
-493.551	-160.678	0.041	-0.002
-492.537	33.029	-0.244	0.214
-491.522	-76.591	0.074	0.026
-490.508	109.645	-0.256	0.310
-489.493	100.099	0.070	0.082
-488.478	580.050	-0.184	-0.455
-487.464	-200.000	0.004	-0.164
-486.449	800.000	0.026	0.092
-485.435	800.000	0.021	-0.072
-484.420	299.766	-0.052	0.097
-483.405	-200.000	0.006	0.227
-482.391	-200.000	-0.003	-0.079
-481.376	19.549	0.235	-0.191
-480.362	-56.588	-0.382	0.171
-479.347	-170.496	-0.139	0.005
-478.332	800.000	0.093	0.390
-477.318	-200.000	0.061	-0.391
-476.303	110.037	0.081	-0.099
-475.289	-87.193	0.275	-0.084
-474.274	800.000	-0.015	-0.063
-473.259	-200.000	-0.030	0.249
-472.245	0.914	0.199	-0.145
-471.230	214.579	0.069	0.111
-470.216	-200.000	0.021	0.330
-469.201	-14.385	0.046	0.030
-468.186	-200.000	0.006	0.107
-467.172	52.132	-0.231	-0.222
-466.157	-110.179	-0.400	-0.084
-465.143	415.535	-0.028	0.060
-464.128	-49.227	0.143	-0.069
-463.113	-182.309	0.332	0.006
-462.099	-68.304	-0.121	0.048
-461.084	561.685	0.038	-0.093
-460.070	19.930	0.191	-0.155
-459.055	-140.466	-0.195	0.020
-458.040	244.274	0.200	-0.340
-457.026	204.979	-0.053	0.084
-456.011	-61.294	-0.364	0.155
-454.997	530.778	0.136	-0.325
-453.982	-15.586	0.089	-0.058
-452.968	21.790	0.107	-0.088
-451.953	-147.401	-0.395	-0.034
-450.938	-200.000	-0.011	0.072
-449.924	-80.074	-0.234	-0.079
-448.909	-35.764	0.227	-0.124
-447.895	-59.990	-0.196	-0.085
-446.880	20.673	0.106	0.087
-445.865	-2.729	-0.213	0.151
-444.851	-144.863	-0.250	-0.023
-443.836	3.634	0.172	-0.127
-442.822	800.000	-0.083	0.306
-441.807	-200.000	0.006	0.085
-440.792	800.000	-0.073	0.212
-439.778	239.191	0.072	0.121
-438.763	348.478	0.168	0.334
-437.749	-200.000	-0.015	0.109
-436.734	-110.164	0.287	-0.061
-435.719	-109.118	0.389	0.084
-434.705	-44.703	-0.224	-0.113
-433.690	116.857	-0.204	-0.253
-432.676	-195.635	-0.285	0.002
-431.661	-24.939	-0.208	0.125
-430.646	-200.000	-0.028	0.143
-429.632	415.244	0.108	-0.233
-428.617	-43.002	-0.156	-0.080
-427.603	75.245	-0.115	0.123
-426.588	32.556	-0.098	0.085
-425.573	-161.828	0.200	0.010
-424.559	-77.301	-0.164	-0.057
-423.544	-55.966	0.246	0.111
-422.530	12.528	-0.239	0.186
-421.515	-43.374	-0.225	-0.115
-420.500	-133.417	0.175	-0.022
-419.486	-200.000	0.004	-0.138
-418.471	-200.000	-0.023	-0.364
-417.457	-200.000	0.025	-0.377
-416.442	502.137	-0.042	-0.098
-415.428	242.760	0.054	-0.091
-414.413	-176.793	0.457	-0.012
-413.398	-200.000	0.027	-0.249
-412.384	-200.000	0.002	0.068
-411.369	-105.128	0.304	-0.070
-410.355	213.929	0.025	-0.040
-409.340	145.912	-0.181	0.245
-408.325	-53.449	0.131	0.061
-407.311	-26.781	-0.192	0.114
-406.296	-124.125	0.235	0.037
-405.282	800.000	0.063	-0.191
-404.267	-150.092	0.046	0.004
-403.252	56.718	-0.188	-0.184
-402.238	580.905	-0.082	-0.203
-401.223	37.490	0.205	-0.184
-400.209	-78.352	0.177	-0.061
-399.194	-200.000	0.033	-0.269
-398.179	717.189	-0.075	-0.201
-397.165	-111.963	0.240	-0.049
-396.150	-13.438	0.112	-0.073
-395.136	583.267	0.093	-0.231
-394.121	204.392	0.113	-0.176
-393.106	780.950	0.082	-0.228
-392.092	-200.000	0.036	-0.358
-391.077	-43.650	0.093	-0.047
-390.063	341.467	0.093	0.183
-389.048	-102.127	-0.193	0.047
-388.033	-63.821	0.490	-0.202
-387.019	-152.069	-0.032	0.002
-386.004	-41.157	-0.060	0.031
-384.990	33.966	-0.085	-0.074
-383.975	-86.960	0.029	0.009
-382.960	-20.918	-0.130	-0.080
-381.946	343.841	-0.061	-0.121
-380.931	176.663	-0.088	-0.128
-379.917	-143.334	0.387	0.037
-378.902	-200.000	-0.003	0.050
-377.888	800.000	0.142	0.426
-376.873	-97.427	-0.324	-0.085
-375.858	-30.338	-0.183	-0.105
-374.844	224.551	0.256	0.416
-373.829	800.000	-0.019	0.074
-372.815	-69.002	-0.195	-0.076
-371.800	-200.000	0.006	-0.115
-370.785	407.145	-0.045	0.095
-369.771	11.709	-0.177	0.137
-368.756	163.834	-0.259	0.367
-367.742	117.174	-0.077	-0.095
-366.727	196.801	-0.161	0.247
-365.712	800.000	0.021	-0.068
-364.698	-200.000	-0.005	-0.082
-363.683	-62.738	0.186	-0.077
-362.669	-30.534	0.144	-0.082
-361.654	-155.191	0.176	-0.012
-360.639	-7.226	0.143	-0.098
-359.625	320.771	0.090	0.173
-358.610	-89.912	-0.200	-0.059
-357.596	448.937	-0.171	0.380
-356.581	-25.192	-0.476	-0.284
-355.566	24.747	-0.321	-0.268
-354.552	-65.837	0.034	-0.014
-353.537	-144.262	-0.367	0.034
-352.523	800.000	0.077	-0.278
-351.508	-85.508	0.148	-0.046
-350.493	76.794	-0.118	-0.126
-349.479	375.200	-0.115	0.236
-348.464	-25.490	-0.227	-0.135
-347.450	-30.039	-0.184	-0.106
-346.435	-200.000	0.004	0.239
-345.420	800.000	0.025	-0.071
-344.406	-54.705	0.268	0.122
-343.391	3.879	-0.063	-0.047
-342.377	25.764	0.221	0.185
-341.362	-200.000	-0.004	-0.078
-340.348	-104.389	-0.089	0.021
-339.333	-2.746	0.334	0.235
-338.318	-49.335	0.118	-0.057
-337.304	-158.414	0.110	0.006
-336.289	800.000	0.106	0.421
-335.275	107.804	0.014	0.017
-334.260	598.707	0.070	-0.176
-333.245	15.519	-0.240	-0.190
-332.231	90.591	0.036	0.040
-331.216	-200.000	0.032	0.174
-330.202	800.000	0.061	0.191
-329.187	-200.000	-0.017	0.299
-328.172	-12.412	-0.122	0.080
-327.158	-43.147	-0.273	0.139
-326.143	86.726	-0.114	-0.126
-325.129	62.042	-0.057	-0.057
-324.114	229.339	0.038	-0.063
-323.099	-76.417	0.214	-0.076
-322.085	110.075	0.191	-0.231
-321.070	63.036	-0.172	0.173
-320.056	-39.520	-0.134	0.071
-319.041	-200.000	0.015	-0.273
-318.026	800.000	0.037	-0.147
-317.012	-104.573	0.470	0.109
-315.997	-113.593	0.045	-0.009
-314.983	-43.226	-0.234	0.119
-313.968	-67.061	-0.226	0.090
-312.953	-154.397	0.127	-0.009
-311.939	-63.408	0.105	0.043
-310.924	-152.054	0.171	0.012
-309.910	-31.143	-0.265	-0.150
-308.895	52.109	-0.123	-0.118
-307.880	136.162	0.166	0.217
-306.866	627.262	-0.045	0.114
-305.851	-143.339	-0.254	-0.024
-304.837	800.000	0.087	-0.352
-303.822	800.000	-0.137	0.415
-302.807	-200.000	-0.036	0.173
-301.793	800.000	-0.060	-0.238
-300.778	-17.197	0.292	0.185
-299.764	-114.055	-0.065	0.013
-298.749	800.000	-0.085	0.283
-297.735	-198.215	0.483	-0.003
-296.720	784.565	-0.091	-0.252
-295.705	-19.542	-0.396	0.247
-294.691	-200.000	-0.009	-0.258
-293.676	129.720	-0.069	0.089
-292.662	-22.139	0.218	0.133
-291.647	-200.000	-0.034	0.303
-290.632	87.477	-0.116	0.129
-289.618	-166.702	0.036	-0.001
-288.603	-200.000	-0.042	0.266
-287.589	-119.839	-0.139	0.024
-286.574	-160.457	0.027	-0.001
-285.559	-8.411	-0.276	-0.187
-284.545	88.831	0.170	0.189
-283.530	-200.000	0.295	-0.001
-282.516	81.400	0.135	-0.146
-281.501	-105.307	0.121	-0.028
-280.486	-90.012	0.290	-0.085
-279.472	-190.476	-0.205	-0.002
-278.457	800.000	-0.068	0.226
-277.443	-200.000	0.019	-0.428
-276.428	-39.918	0.367	0.193
-275.413	-200.000	0.015	0.085
-274.399	-200.000	-0.016	-0.181
-273.384	20.075	0.155	0.125
-272.370	-95.597	0.345	0.093
-271.355	-16.938	0.176	0.112
-270.340	800.000	-0.079	-0.227
-269.326	-70.032	-0.238	-0.091
-268.311	654.292	0.054	0.140
-267.297	632.629	0.088	0.224
-266.282	166.480	-0.251	0.358
-265.267	-200.000	0.035	0.246
-264.253	-200.000	-0.035	0.245
-263.238	116.705	-0.074	-0.091
-262.224	259.142	-0.147	-0.255
-261.209	-200.000	0.020	0.222
-260.195	-200.000	-0.007	0.149
-259.180	-126.281	0.208	-0.031
-258.165	148.660	0.060	-0.081
-257.151	257.440	-0.120	0.207
-256.136	93.255	0.067	-0.076
-255.122	42.008	-0.168	0.153
-254.107	-137.319	-0.310	0.035
-253.092	-69.743	-0.267	-0.102
-252.078	-26.301	0.245	-0.144
-251.063	81.348	0.049	-0.053
-250.049	9.190	0.244	-0.185
-249.034	-130.986	0.136	-0.018
-248.019	31.248	0.206	0.177
-247.005	800.000	0.107	-0.324
-245.990	-122.460	-0.202	-0.033
-244.976	150.997	0.062	0.084
-243.961	778.126	-0.107	0.292
-242.946	-179.088	0.059	0.001
-241.932	-29.332	-0.210	-0.120
-240.917	-61.028	-0.113	-0.048
-239.903	48.299	-0.043	-0.040
-238.888	350.402	-0.066	-0.131
-237.873	-71.593	-0.164	-0.062
-236.859	800.000	0.048	-0.170
-235.844	719.009	-0.052	0.138
-234.830	-54.909	0.075	-0.034
-233.815	-200.000	0.031	-0.143
-232.800	-200.000	0.052	0.344
-231.786	-68.893	0.325	0.126
-230.771	33.404	-0.119	-0.104
-229.757	44.207	0.118	-0.109
-228.742	560.937	-0.091	0.221
-227.727	-6.751	0.214	0.146
-226.713	213.913	0.082	0.129
-225.698	-104.091	0.198	-0.046
-224.684	800.000	0.138	0.462
-223.669	-200.000	0.017	-0.095
-222.655	500.224	-0.101	0.234
-221.640	206.831	-0.128	0.200
-220.625	132.834	-0.108	0.140
-219.611	-40.871	-0.147	0.076
-218.596	800.000	-0.079	-0.236
-217.582	-101.220	-0.054	0.013
-216.567	636.057	0.095	-0.241
-215.552	96.222	-0.343	-0.392
-214.538	318.702	-0.152	-0.289
-213.523	-42.703	0.094	0.048
-212.509	-200.000	0.066	0.331
-211.494	119.988	0.158	0.197
-210.479	184.331	0.055	0.081
-209.465	-8.919	-0.381	-0.255
-208.450	800.000	-0.063	-0.226
-207.436	-68.429	0.195	0.076
-206.421	180.523	-0.147	0.216
-205.406	800.000	-0.083	0.333
-204.392	-139.092	-0.251	0.027
-203.377	42.201	-0.247	0.224
-202.363	-108.907	0.335	-0.072
-201.348	-170.113	-0.087	-0.003
-200.333	-200.000	0.032	0.312
-199.319	-145.939	0.172	-0.015
-198.304	-43.150	0.447	0.227
-197.290	-31.494	0.218	-0.122
-196.275	80.000	-0.236	0.254
-195.260	-9.643	-0.085	0.057
-194.246	46.425	-0.197	-0.183
-193.231	-97.029	0.085	-0.022
-192.217	-109.678	-0.088	-0.019
-191.202	31.354	-0.081	-0.070
-190.187	188.000	0.075	-0.112
-189.173	-125.188	-0.257	0.039
-188.158	-101.366	0.162	-0.039
-187.144	180.241	0.192	0.281
-186.129	80.532	0.085	0.092
-185.114	800.000	0.094	0.385
-184.100	59.129	-0.081	-0.080
-183.085	-200.000	-0.014	0.160
-182.071	-58.759	-0.065	-0.028
-181.056	-60.036	0.215	-0.092
-180.042	16.834	0.327	-0.259
-179.027	217.443	0.110	0.175
-178.012	-183.394	-0.076	0.001
-176.998	-194.823	-0.266	-0.002
-175.983	-69.959	-0.183	0.070
-174.969	-39.121	-0.329	-0.173
-173.954	-15.392	0.397	-0.254
-172.939	-54.479	-0.180	-0.081
-171.925	-59.540	0.186	-0.080
-170.910	147.494	-0.276	0.372
-169.896	-90.334	0.126	0.037
-168.881	38.831	-0.095	-0.085
-167.866	-45.149	0.330	0.164
-166.852	-200.000	-0.009	0.095
-165.837	580.289	-0.056	0.138
-164.823	621.296	-0.125	0.314
-163.808	-200.000	0.025	0.189
-162.793	-200.000	0.030	-0.150
-161.779	692.916	-0.068	-0.179
-160.764	-49.009	0.277	0.132
-159.750	-86.999	-0.159	-0.048
-158.735	22.924	-0.214	-0.175
-157.720	8.423	0.292	0.219
-156.706	20.829	-0.118	0.096
-155.691	90.751	0.135	0.151
-154.677	243.087	0.044	-0.074
-153.662	-174.493	0.337	0.010
-152.647	38.210	0.193	0.172
-151.633	417.368	-0.207	0.443
-150.618	-96.477	0.199	-0.053
-149.604	-200.000	-0.055	-0.408
-148.589	-6.016	0.046	-0.032
-147.574	697.594	-0.112	-0.295
-146.560	-64.836	0.353	-0.143
-145.545	-200.000	0.016	-0.265
-144.531	800.000	0.041	0.169
-143.516	-200.000	-0.048	-0.299
-142.502	118.514	0.145	0.178
-141.487	-102.968	0.310	0.073
-140.472	230.967	0.059	0.097
-139.458	21.179	0.376	0.305
-138.443	180.717	0.078	0.114
-137.429	-145.365	0.285	-0.026
-136.414	-200.000	0.000	-0.101
-135.399	-6.520	-0.333	0.227
-134.385	-200.000	-0.057	-0.296
-133.370	-80.958	0.086	-0.029
-132.356	-74.345	0.373	-0.134
-131.341	231.795	0.050	0.081
-130.326	-44.461	0.146	0.073
-129.312	246.314	-0.159	0.267
-128.297	527.395	-0.162	0.380
-127.283	-105.549	-0.297	-0.067
-126.268	-146.590	-0.368	0.032
-125.253	70.838	0.105	-0.108
-124.239	-200.000	0.014	0.088
-123.224	-13.216	-0.152	-0.099
-122.210	-200.000	-0.006	-0.141
