DTS Sentinel unit serial number:	SN413079Multiplexer serial number:	ORYXHardware model number:	OX4-SRSoftware version number:	ORYX F/W v4.00 Oryx Data Collector v3.7.2.0data status	okinstallation	princeton_trtdifferential loss correction	single-endedforward channel	channel 1reverse channel	N/Adate	2019/09/15time	05:26:35forward acquisition time	60.00reverse acquisition time	0.00gamma	496.2192k internal	0.2324k external	0.2324temperature offset calibration	0.9994default loss term (dB/km)	0.3790temperature slope calibration	1.0000multiplexer offset coefficient	1.0000multiplexer slope coefficient	1.0000fibre end	0.00T internal ref (°C)	30.56T ext. ref 1 (°C)	4.76T ext. ref 2 (°C)	25.65length (m)	temperature (°C)	Stokes	anti-Stokes-747.200	800.000	-0.081	0.252
-746.185	360.745	0.092	0.187
-745.171	-25.667	0.298	-0.178
-744.156	668.669	-0.058	0.150
-743.142	238.978	-0.125	0.210
-742.127	-81.613	0.225	-0.075
-741.112	122.227	0.164	-0.207
-740.098	59.655	-0.184	-0.183
-739.083	240.686	0.152	-0.256
-738.069	17.039	-0.146	0.117
-737.054	-100.645	-0.329	0.082
-736.039	-13.021	-0.173	0.113
-735.025	-51.713	0.193	-0.091
-734.010	-200.000	-0.012	-0.222
-732.996	-6.941	-0.047	0.032
-731.981	-200.000	-0.022	0.185
-730.966	79.345	0.118	-0.128
-729.952	-138.150	-0.473	-0.053
-728.937	-95.794	-0.125	0.034
-727.923	71.977	-0.189	0.198
-726.908	-78.803	-0.278	-0.096
-725.894	-200.000	0.081	-0.391
-724.879	9.031	-0.163	-0.124
-723.864	-114.315	-0.128	-0.025
-722.850	-61.205	-0.095	-0.040
-721.835	44.420	0.185	0.172
-720.821	-102.264	-0.309	-0.075
-719.806	-19.087	0.293	-0.184
-718.791	-36.516	-0.117	-0.064
-717.777	87.803	0.029	-0.033
-716.762	800.000	-0.129	0.466
-715.748	-200.000	-0.020	-0.199
-714.733	112.159	0.315	0.384
-713.718	154.966	0.153	-0.213
-712.704	-125.475	0.209	0.032
-711.689	300.642	0.100	0.186
-710.675	165.001	0.175	-0.250
-709.660	-49.695	0.070	0.034
-708.645	751.390	0.041	-0.111
-707.631	-7.019	-0.294	-0.201
-706.616	-200.000	-0.142	0.000
-705.602	-4.629	0.336	-0.234
-704.587	-200.000	0.033	-0.351
-703.572	-172.686	-0.309	0.010
-702.558	-0.655	0.151	0.108
-701.543	800.000	-0.073	-0.265
-700.529	800.000	0.079	-0.241
-699.514	800.000	-0.046	0.150
-698.499	-86.759	-0.222	-0.068
-697.485	-47.716	-0.274	-0.134
-696.470	-200.000	0.027	0.389
-695.456	-24.466	-0.305	0.183
-694.441	-5.878	0.168	-0.116
-693.426	-200.000	0.003	-0.156
-692.412	365.647	-0.151	0.306
-691.397	-113.056	0.212	-0.042
-690.383	-100.456	-0.071	-0.018
-689.368	-200.000	-0.057	-0.345
-688.354	190.752	0.181	0.275
-687.339	-52.124	-0.344	0.161
-686.324	-189.358	-0.136	0.002
-685.310	-74.283	0.245	0.089
-684.295	-124.352	-0.278	-0.044
-683.281	-200.000	-0.025	-0.247
-682.266	-200.000	0.023	-0.153
-681.251	-22.725	0.098	-0.059
-680.237	233.782	-0.140	-0.232
-679.222	-50.676	-0.382	-0.181
-678.208	627.443	0.035	0.090
-677.193	-65.867	0.185	-0.074
-676.178	-200.000	0.030	-0.143
-675.164	-200.000	0.001	0.322
-674.149	90.798	-0.142	-0.160
-673.135	-200.000	0.013	-0.083
-672.120	27.718	-0.146	-0.123
-671.105	560.835	-0.036	-0.087
-670.091	270.347	-0.093	0.164
-669.076	259.746	0.045	0.078
-668.062	-186.287	-0.212	0.003
-667.047	70.500	-0.192	-0.200
-666.032	-20.731	-0.256	-0.158
-665.018	-200.000	-0.008	0.185
-664.003	-134.179	-0.068	-0.008
-662.989	-12.840	0.138	0.091
-661.974	275.704	-0.091	-0.162
-660.959	-200.000	-0.018	-0.110
-659.945	-200.000	-0.001	-0.148
-658.930	136.610	-0.223	-0.293
-657.916	209.650	-0.257	0.406
-656.901	699.171	-0.088	0.233
-655.886	386.091	-0.053	0.109
-654.872	170.905	0.051	0.073
-653.857	292.251	0.039	-0.071
-652.843	-33.364	0.219	-0.122
-651.828	90.122	-0.111	-0.125
-650.814	800.000	-0.114	0.377
-649.799	283.509	0.088	-0.160
-648.784	8.512	0.104	-0.078
-647.770	-53.770	0.278	0.128
-646.755	-75.544	-0.278	0.099
-645.741	-70.848	-0.346	-0.131
-644.726	-36.747	-0.155	-0.084
-643.711	-69.324	-0.210	0.081
-642.697	-63.790	-0.256	0.106
-641.682	-200.000	0.063	-0.360
-640.668	800.000	-0.046	0.200
-639.653	-13.568	-0.084	0.055
-638.638	542.139	0.236	-0.565
-637.624	-161.013	0.056	0.003
-636.609	-1.788	-0.075	-0.053
-635.595	362.691	0.176	-0.354
-634.580	380.688	-0.150	0.309
-633.565	-104.012	-0.283	-0.066
-632.551	176.257	-0.160	-0.233
-631.536	68.037	-0.215	0.221
-630.522	-44.312	-0.163	0.082
-629.507	48.471	-0.169	0.159
-628.492	-55.419	0.153	0.069
-627.478	-23.168	0.049	0.030
-626.463	368.259	0.128	0.259
-625.449	43.885	0.212	-0.195
-624.434	-157.679	-0.155	0.009
-623.419	-165.665	-0.198	-0.009
-622.405	22.804	0.235	0.193
-621.390	7.590	-0.148	-0.111
-620.376	-200.000	-0.046	-0.261
-619.361	-144.925	0.439	0.040
-618.346	-28.105	-0.169	0.098
-617.332	-200.000	0.022	0.162
-616.317	-200.000	-0.032	0.240
-615.303	333.993	-0.151	0.294
-614.288	-56.739	0.232	0.103
-613.273	-28.554	-0.149	0.086
-612.259	66.504	-0.039	-0.039
-611.244	743.171	-0.188	-0.508
-610.230	-108.726	0.403	0.087
-609.215	38.924	-0.049	0.044
-608.201	396.402	-0.149	0.313
-607.186	-118.793	0.037	0.007
-606.171	-102.906	-0.421	0.100
-605.157	-143.599	-0.121	-0.012
-604.142	-200.000	-0.033	0.170
-603.128	-22.810	0.295	-0.179
-602.113	-28.074	-0.196	0.114
-601.098	-64.787	-0.195	-0.079
-600.084	800.000	-0.075	-0.209
-599.069	-200.000	-0.020	0.137
-598.055	800.000	0.030	-0.084
-597.040	800.000	0.035	-0.134
-596.025	-82.393	-0.591	-0.193
-595.011	-157.284	0.112	0.007
-593.996	-104.235	0.279	0.065
-592.982	160.224	0.133	-0.186
-591.967	800.000	0.012	0.040
-590.952	-200.000	0.035	0.210
-589.938	28.281	-0.007	-0.006
-588.923	-200.000	0.014	-0.083
-587.909	-117.356	0.198	-0.036
-586.894	-81.752	0.139	0.046
-585.879	13.931	-0.157	-0.123
-584.865	76.354	-0.221	-0.235
-583.850	-80.584	-0.133	-0.045
-582.836	-170.116	0.078	0.003
-581.821	-200.000	-0.056	0.364
-580.806	39.481	-0.121	0.109
-579.792	-78.156	0.320	-0.110
-578.777	-200.000	-0.004	0.071
-577.763	-200.000	0.083	-0.536
-576.748	328.136	-0.212	-0.409
-575.733	-200.000	0.058	0.424
-574.719	101.286	-0.054	0.063
-573.704	800.000	-0.087	-0.332
-572.690	800.000	0.042	0.166
-571.675	-12.626	-0.209	-0.137
-570.661	-97.503	-0.222	-0.058
-569.646	180.680	0.141	-0.208
-568.631	166.481	0.049	-0.070
-567.617	368.975	-0.125	-0.254
-566.602	-0.707	-0.197	-0.140
-565.588	800.000	-0.038	-0.114
-564.573	800.000	0.098	0.280
-563.558	258.073	-0.041	-0.070
-562.544	-167.322	0.159	-0.006
-561.529	-62.467	-0.215	0.090
-560.515	-175.984	-0.096	-0.003
-559.500	-200.000	-0.003	-0.075
-558.485	-61.488	-0.075	-0.031
-557.471	-200.000	-0.060	0.270
-556.456	-73.753	-0.325	-0.118
-555.442	-165.566	0.229	-0.010
-554.427	477.277	0.030	-0.068
-553.412	-96.391	0.121	-0.032
-552.398	99.491	-0.123	0.143
-551.383	-96.865	0.306	-0.080
-550.369	606.016	0.109	-0.273
-549.354	128.787	-0.166	-0.212
-548.339	-80.612	0.179	0.060
-547.325	47.738	-0.187	0.175
-546.310	35.339	-0.143	0.125
-545.296	800.000	-0.070	-0.221
-544.281	800.000	0.010	-0.030
-543.266	800.000	-0.104	0.354
-542.252	-52.292	0.217	0.101
-541.237	97.029	0.105	-0.121
-540.223	800.000	-0.048	-0.170
-539.208	11.333	0.350	0.268
-538.193	-200.000	0.043	-0.356
-537.179	68.569	-0.146	-0.150
-536.164	59.823	-0.141	0.139
-535.150	-84.011	0.388	0.124
-534.135	108.213	-0.060	0.072
-533.121	134.647	0.174	-0.226
-532.106	7.111	0.054	0.040
-531.091	-200.000	0.057	-0.294
-530.077	59.076	0.194	-0.191
-529.062	-159.630	0.263	-0.015
-528.048	3.777	-0.201	0.147
-527.033	143.331	0.142	-0.189
-526.018	557.604	-0.063	0.152
-525.004	159.733	-0.136	0.190
-523.989	-165.712	0.116	0.005
-522.975	-200.000	0.006	-0.376
-521.960	-12.619	-0.227	-0.148
-520.945	436.799	0.021	0.046
-519.931	-146.926	0.129	0.011
-518.916	-120.077	0.165	-0.028
-517.902	800.000	-0.092	0.368
-516.887	-46.319	0.355	0.174
-515.872	680.294	-0.039	-0.101
-514.858	-200.000	0.010	0.105
-513.843	800.000	0.044	0.156
-512.829	-200.000	-0.004	0.063
-511.814	711.980	-0.058	0.154
-510.799	-56.040	-0.126	-0.056
-509.785	61.983	-0.097	0.097
-508.770	-60.223	0.231	-0.098
-507.756	-56.456	-0.139	-0.062
-506.741	89.092	-0.095	-0.105
-505.726	150.813	0.113	-0.154
-504.712	800.000	-0.073	0.205
-503.697	-183.279	0.044	-0.001
-502.683	280.663	-0.108	0.193
-501.668	87.027	-0.276	-0.304
-500.653	800.000	-0.076	0.211
-499.639	800.000	-0.041	0.168
-498.624	-107.008	-0.245	-0.054
-497.610	-200.000	-0.002	-0.123
-496.595	-149.704	0.232	-0.018
-495.581	800.000	0.043	-0.172
-494.566	303.640	-0.134	0.248
-493.551	219.393	-0.072	-0.116
-492.537	546.765	0.084	-0.201
-491.522	126.075	0.073	-0.092
-490.508	-60.478	0.310	-0.131
-489.493	539.025	0.122	0.290
-488.478	-29.982	0.202	-0.115
-487.464	-200.000	-0.006	0.049
-486.449	-200.000	0.003	0.198
-485.435	185.946	0.089	0.132
-484.420	-186.325	-0.177	-0.003
-483.405	-200.000	-0.006	-0.098
-482.391	-130.819	-0.151	-0.020
-481.376	70.800	0.151	0.156
-480.362	-17.010	-0.326	0.206
-479.347	-185.857	0.151	-0.002
-478.332	417.689	-0.055	-0.117
-477.318	-200.000	0.027	0.373
-476.303	699.391	0.117	-0.308
-475.289	4.341	-0.087	0.064
-474.274	-200.000	0.313	0.001
-473.259	-136.260	0.280	-0.033
-472.245	-49.236	-0.244	0.116
-471.230	30.565	0.262	-0.224
-470.216	183.540	0.195	-0.288
-469.201	-117.479	-0.340	-0.061
-468.186	-42.307	0.200	-0.102
-467.172	57.402	-0.030	0.029
-466.157	49.748	0.120	-0.113
-465.143	-95.498	0.097	-0.026
-464.128	26.622	0.506	0.422
-463.113	-37.612	-0.111	0.059
-462.099	-200.000	0.010	0.126
-461.084	-122.557	0.531	-0.086
-460.070	-20.661	0.325	-0.199
-459.055	569.203	0.128	-0.311
-458.040	-153.538	0.295	-0.020
-457.026	-139.282	-0.077	0.008
-456.011	-200.000	-0.016	0.153
-454.997	-8.718	-0.064	0.043
-453.982	-118.208	0.083	0.015
-452.968	-123.453	-0.343	-0.054
-451.953	-196.810	-0.175	0.001
-450.938	215.630	-0.125	-0.198
-449.924	220.519	0.170	0.272
-448.909	225.473	-0.201	0.325
-447.895	9.201	-0.135	-0.102
-446.880	373.811	-0.050	0.101
-445.865	800.000	0.051	-0.215
-444.851	-106.640	0.114	0.025
-443.836	-200.000	0.054	0.333
-442.822	290.003	-0.180	0.326
-441.807	-200.000	-0.017	-0.079
-440.792	-25.246	-0.189	-0.112
-439.778	219.709	-0.077	-0.122
-438.763	485.362	0.073	0.166
-437.749	800.000	0.050	-0.217
-436.734	19.934	0.266	-0.214
-435.719	120.959	-0.168	0.209
-434.705	113.386	-0.098	0.119
-433.690	-113.019	0.300	-0.059
-432.676	800.000	0.073	0.244
-431.661	-107.232	0.079	-0.017
-430.646	185.404	0.210	-0.311
-429.632	119.306	0.210	-0.259
-428.617	60.354	0.058	0.057
-427.603	123.522	-0.132	-0.165
-426.588	220.510	0.073	-0.117
-425.573	-163.458	-0.076	-0.004
-424.559	-97.219	0.490	-0.128
-423.544	-40.380	-0.221	-0.114
-422.530	-94.916	0.362	-0.098
-421.515	-200.000	0.035	-0.272
-420.500	27.000	-0.110	0.092
-419.486	-145.019	0.148	0.013
-418.471	-200.000	0.005	-0.031
-417.457	-13.720	0.263	-0.170
-416.442	800.000	-0.097	-0.286
-415.428	65.722	-0.045	0.046
-414.413	-200.000	-0.015	0.156
-413.398	-94.419	0.445	0.121
-412.384	-200.000	0.052	-0.378
-411.369	-115.986	0.370	0.069
-410.355	-22.120	0.312	-0.189
-409.340	165.463	0.082	-0.116
-408.325	282.011	-0.010	0.019
-407.311	800.000	-0.038	-0.114
-406.296	-80.922	0.089	-0.029
-405.282	800.000	-0.058	0.221
-404.267	-139.595	0.154	-0.016
-403.252	-33.149	-0.179	-0.099
-402.238	19.589	-0.296	0.237
-401.223	-154.298	-0.310	-0.021
-400.209	204.885	0.079	-0.122
-399.194	-79.291	0.075	0.025
-398.179	800.000	-0.017	0.062
-397.165	-4.568	0.301	-0.207
-396.150	-128.417	-0.058	-0.008
-395.136	-200.000	0.024	-0.197
-394.121	-200.000	-0.011	0.192
-393.106	-62.581	0.068	0.028
-392.092	-25.240	0.126	-0.074
-391.077	211.575	0.251	0.393
-390.063	-200.000	0.000	0.031
-389.048	800.000	-0.065	-0.187
-388.033	800.000	-0.039	0.121
-387.019	65.143	-0.377	0.380
-386.004	161.860	0.125	-0.174
-384.990	519.924	-0.120	-0.281
-383.975	-200.000	-0.068	0.328
-382.960	424.019	0.077	0.164
-381.946	-87.164	0.343	-0.104
-380.931	-6.746	-0.147	0.100
-379.917	-200.000	0.035	-0.218
-378.902	800.000	-0.055	0.166
-377.888	-200.000	-0.014	0.146
-376.873	-200.000	0.023	-0.231
-375.858	-200.000	-0.033	-0.231
-374.844	-200.000	0.005	-0.174
-373.829	-14.331	-0.176	-0.113
-372.815	438.529	0.032	-0.070
-371.800	-200.000	-0.044	0.208
-370.785	800.000	0.041	-0.124
-369.771	329.909	0.067	-0.129
-368.756	-34.817	-0.169	0.092
-367.742	800.000	0.027	0.093
-366.727	530.481	0.117	0.274
-365.712	-122.433	0.460	-0.074
-364.698	4.108	-0.086	0.062
-363.683	295.429	-0.048	-0.087
-362.669	12.616	-0.058	-0.045
-361.654	766.930	0.072	-0.195
-360.639	-200.000	0.021	0.145
-359.625	-43.333	0.167	-0.084
-358.610	-59.477	-0.382	-0.163
-357.596	-98.148	-0.189	-0.048
-356.581	80.509	0.105	-0.112
-355.566	-34.089	-0.256	-0.140
-354.552	-81.078	0.110	0.036
-353.537	397.773	0.038	-0.078
-352.523	46.949	-0.380	0.351
-351.508	327.489	-0.047	0.090
-350.493	-200.000	0.012	0.079
-349.479	-6.525	0.087	-0.059
-348.464	800.000	-0.093	-0.339
-347.450	41.195	0.098	0.088
-346.435	-200.000	-0.008	-0.079
-345.420	625.506	0.049	0.122
-344.406	800.000	-0.089	0.251
-343.391	-159.277	-0.162	0.009
-342.377	33.063	-0.076	0.065
-341.362	-103.295	-0.079	-0.019
-340.348	677.702	-0.206	-0.533
-339.333	-4.555	0.412	-0.283
-338.318	-146.417	-0.124	-0.011
-337.304	-115.818	-0.373	0.069
-336.289	-138.358	-0.257	0.028
-335.275	-200.000	0.021	0.152
-334.260	800.000	0.067	-0.287
-333.245	-200.000	-0.042	0.205
-332.231	76.386	-0.166	-0.175
-331.216	156.666	0.133	0.183
-330.202	800.000	0.053	0.221
-329.187	-175.832	-0.303	-0.008
-328.172	65.531	0.032	-0.032
-327.158	-136.757	0.081	0.009
-326.143	800.000	0.089	0.254
-325.129	290.397	-0.022	-0.040
-324.114	126.629	-0.156	-0.196
-323.099	227.243	0.063	-0.102
-322.085	675.887	0.024	-0.063
-321.070	800.000	-0.071	0.255
-320.056	-178.069	0.036	0.001
-319.041	167.477	-0.093	-0.131
-318.026	-200.000	-0.031	0.175
-317.012	790.874	-0.032	0.086
-315.997	-146.142	-0.091	0.008
-314.983	-200.000	-0.033	0.242
-313.968	-200.000	-0.098	-0.471
-312.953	37.222	0.131	0.116
-311.939	506.013	-0.045	-0.103
-310.924	800.000	-0.050	0.166
-309.910	-47.045	0.164	-0.079
-308.895	361.250	0.091	-0.181
-307.880	-140.870	-0.145	0.015
-306.866	126.901	-0.257	-0.323
-305.851	533.999	0.026	0.062
-304.837	800.000	-0.108	-0.325
-303.822	108.595	0.124	-0.147
-302.807	89.671	-0.068	0.075
-301.793	53.113	0.205	0.194
-300.778	-167.605	0.150	0.006
-299.764	135.310	-0.080	-0.103
-298.749	-132.010	0.145	0.019
-297.735	772.085	-0.137	-0.369
-296.720	19.338	0.010	0.008
-295.705	488.762	-0.079	0.180
-294.691	800.000	0.041	0.157
-293.676	-102.833	0.139	0.033
-292.662	-200.000	0.013	0.175
-291.647	800.000	0.082	0.352
-290.632	-70.055	0.103	0.039
-289.618	800.000	-0.050	0.215
-288.603	124.570	-0.108	0.135
-287.589	-5.289	-0.215	0.146
-286.574	179.021	0.106	-0.154
-285.559	-120.026	-0.205	0.035
-284.545	-200.000	0.002	-0.028
-283.530	367.985	-0.100	0.201
-282.516	-200.000	0.004	-0.090
-281.501	-200.000	-0.014	-0.158
-280.486	800.000	-0.088	0.329
-279.472	-197.887	0.293	0.002
-278.457	58.909	-0.111	0.108
-277.443	-81.282	-0.250	-0.082
-276.428	-83.462	0.079	0.025
-275.413	330.043	0.012	0.023
-274.399	-200.000	0.003	0.081
-273.384	229.971	0.179	0.289
-272.370	152.326	0.138	0.186
-271.355	-132.184	0.245	0.031
-270.340	57.924	-0.172	0.167
-269.326	147.632	0.124	0.166
-268.311	272.955	0.196	0.342
-267.297	236.044	0.015	0.024
-266.282	120.508	-0.115	0.141
-265.267	16.279	0.055	-0.043
-264.253	-200.000	0.011	0.061
-263.238	800.000	0.044	0.147
-262.224	-100.720	0.230	-0.056
-261.209	-121.421	0.323	0.053
-260.195	-154.945	-0.355	0.023
-259.180	42.102	-0.069	0.062
-258.165	-163.067	0.409	0.020
-257.151	-143.612	-0.299	0.028
-256.136	-200.000	-0.015	-0.103
-255.122	-30.425	0.421	0.237
-254.107	294.642	-0.040	0.072
-253.092	333.858	0.061	-0.118
-252.078	-114.775	0.157	0.030
-251.063	800.000	-0.021	0.074
-250.049	-200.000	-0.029	0.162
-249.034	-126.762	-0.390	0.057
-248.019	248.936	-0.099	0.166
-247.005	-200.000	-0.003	-0.088
-245.990	-200.000	0.028	-0.161
-244.976	-113.443	-0.279	-0.054
-243.961	-52.571	-0.063	0.029
-242.946	800.000	-0.058	-0.170
-241.932	-70.514	0.191	-0.072
-240.917	800.000	-0.125	-0.342
-239.903	-5.545	-0.113	-0.076
-238.888	33.378	0.152	0.131
-237.873	49.961	-0.271	-0.253
-236.859	-200.000	-0.010	0.454
-235.844	-127.708	0.019	-0.003
-234.830	240.243	0.070	-0.115
-233.815	-165.822	0.212	0.009
-232.800	669.256	-0.046	0.117
-231.786	800.000	0.085	0.273
-230.771	-150.743	-0.222	0.017
-229.757	-200.000	-0.075	0.340
-228.742	-125.533	0.157	0.024
-227.727	-50.331	0.174	0.081
-226.713	143.172	0.333	-0.438
-225.698	546.507	0.035	-0.084
-224.684	152.711	-0.297	-0.402
-223.669	-200.000	-0.005	0.249
-222.655	352.776	0.070	0.138
-221.640	-131.617	0.255	0.033
-220.625	193.377	-0.068	-0.102
-219.611	-200.000	-0.029	0.329
-218.596	-200.000	0.026	0.123
-217.582	238.315	-0.094	-0.154
-216.567	-106.963	-0.243	-0.053
-215.552	800.000	-0.079	-0.242
-214.538	-200.000	0.002	0.070
-213.523	-200.000	0.024	-0.155
-212.509	-118.869	-0.161	-0.028
-211.494	-89.740	-0.285	-0.082
-210.479	49.530	-0.145	0.135
-209.465	800.000	-0.037	-0.140
-208.450	261.115	-0.144	-0.247
-207.436	-136.297	0.226	0.026
-206.421	27.286	0.224	-0.186
-205.406	-25.557	-0.092	-0.054
-204.392	-159.161	0.239	0.013
-203.377	-34.045	0.163	0.089
-202.363	-58.700	0.218	0.093
-201.348	-77.986	-0.319	0.109
-200.333	244.463	-0.126	-0.210
-199.319	-167.820	0.184	-0.007
-198.304	-56.664	-0.114	0.050
-197.290	88.337	0.226	0.248
-196.275	137.130	-0.285	0.367
-195.260	232.544	-0.160	-0.259
-194.246	44.867	-0.030	-0.028
-193.231	800.000	-0.048	0.144
-192.217	-76.820	0.327	0.113
-191.202	-1.732	0.149	-0.103
-190.187	256.126	-0.167	0.282
-189.173	-200.000	-0.005	-0.334
-188.158	-200.000	-0.041	0.225
-187.144	-200.000	0.028	0.217
-186.129	527.917	-0.216	0.503
-185.114	800.000	0.040	-0.127
-184.100	59.568	-0.060	-0.058
-183.085	-79.810	-0.110	0.037
-182.071	-60.901	-0.184	0.077
-181.056	12.122	0.231	-0.176
-180.042	-200.000	-0.001	0.385
-179.027	-200.000	0.020	-0.101
-178.012	-66.146	0.053	0.021
-176.998	81.943	0.139	-0.149
-175.983	-63.542	0.246	0.100
-174.969	-200.000	0.002	-0.112
-173.954	568.115	0.130	-0.311
-172.939	-54.645	-0.095	-0.042
-171.925	800.000	0.020	-0.070
-170.910	-137.580	-0.448	-0.050
-169.896	-107.632	0.186	0.040
-168.881	-89.423	-0.229	0.067
-167.866	-14.582	0.120	-0.076
-166.852	-39.477	0.123	-0.063
-165.837	-81.713	-0.269	0.087
-164.823	-48.949	-0.625	0.296
-163.808	-3.087	0.129	-0.089
-162.793	468.430	0.082	0.181
-161.779	20.408	-0.206	0.165
-160.764	18.793	0.071	0.056
-159.750	741.277	-0.074	0.195
-158.735	125.765	-0.154	0.192
-157.720	-162.752	0.325	0.016
-156.706	29.347	0.194	0.163
-155.691	77.093	0.072	-0.075
-154.677	-200.000	-0.033	-0.145
-153.662	7.693	-0.491	-0.363
-152.647	362.807	-0.073	-0.144
-151.633	2.742	0.035	0.025
-150.618	28.643	0.229	0.191
-149.604	714.353	0.060	-0.158
-148.589	-98.888	-0.197	-0.049
-147.574	42.729	-0.140	-0.126
-146.560	-125.565	0.309	-0.046
-145.545	-63.479	0.146	0.059
-144.531	222.159	-0.050	-0.080
-143.516	27.099	0.079	-0.065
-142.502	178.867	-0.219	-0.316
-141.487	800.000	0.035	-0.115
-140.472	256.645	-0.115	-0.195
-139.458	-128.179	0.223	0.031
-138.443	77.295	0.192	-0.201
-137.429	15.154	0.076	-0.058
-136.414	-153.033	0.188	0.013
-135.399	731.422	-0.017	0.044
-134.385	87.997	-0.224	-0.245
-133.370	117.459	-0.093	-0.113
-132.356	800.000	-0.106	0.364
-131.341	120.017	-0.137	-0.168
-130.326	32.343	0.216	0.184
-129.312	-200.000	0.031	0.165
-128.297	-171.478	-0.557	-0.018
-127.283	298.607	-0.168	0.305
-126.268	-48.858	0.146	0.069
-125.253	-200.000	-0.030	-0.169
-124.239	24.278	-0.178	-0.145
-123.224	-150.311	-0.050	0.004
-122.210	-200.000	0.018	-0.119
