DTS Sentinel unit serial number:	SN413079Multiplexer serial number:	ORYXHardware model number:	OX4-SRSoftware version number:	ORYX F/W v4.00 Oryx Data Collector v3.7.2.0data status	okinstallation	princeton_trtdifferential loss correction	single-endedforward channel	channel 1reverse channel	N/Adate	2019/09/12time	08:04:11forward acquisition time	60.00reverse acquisition time	0.00gamma	496.2192k internal	0.2314k external	0.2314temperature offset calibration	1.0042default loss term (dB/km)	0.3790temperature slope calibration	1.0000multiplexer offset coefficient	1.0000multiplexer slope coefficient	1.0000fibre end	0.00T internal ref (°C)	33.12T ext. ref 1 (°C)	1.66T ext. ref 2 (°C)	29.63length (m)	temperature (°C)	Stokes	anti-Stokes-747.200	-43.279	0.254	0.130
-746.185	800.000	0.065	0.281
-745.171	800.000	-0.052	0.157
-744.156	-200.000	-0.052	0.257
-743.142	-99.220	-0.273	-0.070
-742.127	132.251	-0.223	0.291
-741.112	-163.945	-0.237	0.011
-740.098	70.553	-0.089	0.093
-739.083	-173.905	-0.077	-0.002
-738.069	800.000	0.024	-0.100
-737.054	-125.028	0.091	-0.014
-736.039	800.000	0.120	-0.395
-735.025	-200.000	-0.008	0.114
-734.010	-5.636	-0.243	-0.169
-732.996	-23.050	0.129	-0.079
-731.981	287.122	-0.117	-0.214
-730.966	-172.522	0.049	-0.002
-729.952	152.584	0.012	-0.017
-728.937	506.268	0.097	0.227
-727.923	-85.348	-0.595	-0.188
-726.908	-36.428	-0.047	0.026
-725.894	-55.893	0.134	-0.061
-724.879	407.973	0.055	0.118
-723.864	800.000	-0.043	-0.131
-722.850	-200.000	-0.084	-0.451
-721.835	-83.338	0.308	-0.100
-720.821	-41.858	-0.201	-0.104
-719.806	-48.726	-0.079	0.038
-718.791	30.464	-0.064	0.056
-717.777	-200.000	-0.024	-0.228
-716.762	25.423	-0.135	-0.114
-715.748	278.619	-0.140	-0.253
-714.733	39.300	-0.083	-0.075
-713.718	493.452	-0.095	-0.222
-712.704	14.399	-0.112	-0.089
-711.689	-154.007	-0.268	0.018
-710.675	-200.000	0.010	-0.154
-709.660	180.863	0.081	0.121
-708.645	672.293	-0.039	0.102
-707.631	25.131	0.170	-0.143
-706.616	-20.104	0.091	0.057
-705.602	395.786	0.077	-0.163
-704.587	281.863	0.172	-0.311
-703.572	557.826	-0.101	-0.246
-702.558	-86.753	-0.156	-0.048
-701.543	56.551	-0.193	-0.190
-700.529	-200.000	0.017	0.082
-699.514	169.275	-0.044	-0.064
-698.499	-200.000	-0.096	-0.471
-697.485	800.000	-0.006	0.020
-696.470	-200.000	0.021	0.112
-695.456	192.324	0.024	-0.037
-694.441	-53.830	-0.248	0.114
-693.426	-102.557	-0.311	-0.075
-692.412	79.156	0.274	0.297
-691.397	-16.905	0.195	0.125
-690.383	-140.644	0.248	0.026
-689.368	53.247	0.058	-0.056
-688.354	129.544	-0.090	-0.117
-687.339	-115.495	-0.431	-0.082
-686.324	-61.364	0.284	-0.121
-685.310	-24.351	0.118	0.071
-684.295	-200.000	0.017	0.155
-683.281	-85.132	-0.154	-0.049
-682.266	414.807	-0.042	0.091
-681.251	0.489	-0.198	0.143
-680.237	40.851	0.215	-0.196
-679.222	-69.488	-0.262	-0.102
-678.208	56.320	0.118	0.116
-677.193	62.475	0.193	0.195
-676.178	800.000	-0.078	-0.236
-675.164	304.246	-0.198	-0.372
-674.149	-117.538	0.091	0.017
-673.135	28.628	-0.089	-0.076
-672.120	800.000	-0.142	-0.413
-671.105	195.896	0.201	-0.310
-670.091	800.000	0.042	0.166
-669.076	800.000	-0.010	0.039
-668.062	-159.023	0.247	0.014
-667.047	120.751	-0.092	0.116
-666.032	72.350	-0.309	0.325
-665.018	4.961	-0.228	-0.169
-664.003	-200.000	0.009	-0.248
-662.989	-72.150	0.178	0.067
-661.974	87.678	-0.097	0.108
-660.959	99.587	-0.082	-0.096
-659.945	-200.000	-0.017	-0.330
-658.930	800.000	-0.079	0.309
-657.916	36.907	0.203	0.182
-656.901	-61.262	-0.063	-0.027
-655.886	210.550	0.121	0.192
-654.872	-200.000	-0.003	-0.190
-653.857	800.000	-0.072	-0.297
-652.843	-0.347	-0.222	-0.159
-651.828	800.000	-0.046	-0.154
-650.814	-71.203	-0.413	0.157
-649.799	290.927	-0.117	0.215
-648.784	551.571	0.066	-0.161
-647.770	411.450	-0.042	0.091
-646.755	-124.202	0.067	0.011
-645.741	-70.522	0.231	-0.088
-644.726	450.219	-0.078	-0.174
-643.711	-72.546	0.058	-0.022
-642.697	260.419	-0.209	0.364
-641.682	73.333	-0.186	-0.197
-640.668	-29.444	0.255	0.147
-639.653	121.654	-0.266	0.335
-638.638	49.462	0.089	-0.085
-637.624	191.311	0.060	0.091
-636.609	266.043	-0.142	0.249
-635.595	77.809	-0.237	-0.255
-634.580	103.210	-0.410	-0.485
-633.565	-123.013	-0.150	-0.024
-632.551	304.935	-0.164	0.308
-631.536	354.442	0.223	0.448
-630.522	800.000	-0.029	0.107
-629.507	-200.000	0.002	0.085
-628.492	-200.000	0.004	0.047
-627.478	440.542	0.023	0.051
-626.463	15.774	-0.166	0.131
-625.449	191.674	-0.299	-0.454
-624.434	215.146	0.074	-0.118
-623.419	-200.000	0.006	0.137
-622.405	92.210	0.166	0.189
-621.390	-200.000	-0.017	0.237
-620.376	84.487	-0.038	-0.042
-619.361	800.000	0.043	0.130
-618.346	12.778	0.042	-0.033
-617.332	242.347	0.094	0.159
-616.317	-90.490	-0.398	0.116
-615.303	-88.348	0.085	0.026
-614.288	242.056	0.084	-0.141
-613.273	-107.225	0.086	0.019
-612.259	-28.322	0.108	0.063
-611.244	-85.748	-0.450	-0.141
-610.230	-200.000	-0.060	-0.329
-609.215	-137.715	0.090	0.010
-608.201	513.939	0.103	-0.242
-607.186	6.085	0.120	-0.090
-606.171	-200.000	0.010	0.044
-605.157	-20.605	-0.149	0.093
-604.142	642.060	-0.139	-0.357
-603.128	309.946	-0.050	0.093
-602.113	-152.469	-0.128	0.009
-601.098	5.679	0.310	0.231
-600.084	-133.104	-0.134	0.017
-599.069	17.456	-0.102	-0.082
-598.055	-64.406	0.415	0.170
-597.040	-0.705	-0.097	0.069
-596.025	155.648	0.050	-0.070
-595.011	20.474	-0.092	-0.075
-593.996	93.074	0.153	0.174
-592.982	-41.618	-0.113	0.058
-591.967	319.724	0.139	0.266
-590.952	38.704	0.227	-0.204
-589.938	436.079	0.037	-0.082
-588.923	414.914	-0.083	0.178
-587.909	-36.090	-0.056	-0.030
-586.894	-98.997	0.140	-0.036
-585.879	800.000	0.052	-0.226
-584.865	-25.877	0.351	0.208
-583.850	21.345	0.099	0.081
-582.836	-190.424	-0.453	0.005
-581.821	-31.718	-0.257	-0.146
-580.806	672.414	-0.057	0.148
-579.792	339.650	0.100	0.196
-578.777	-75.206	0.060	-0.022
-577.763	-33.533	0.287	-0.160
-576.748	-85.422	0.117	0.037
-575.733	-81.076	-0.454	0.151
-574.719	244.383	0.133	-0.225
-573.704	-127.455	0.194	0.028
-572.690	-111.501	0.221	-0.045
-571.675	381.172	-0.123	-0.254
-570.661	-129.586	-0.051	-0.007
-569.646	-200.000	-0.070	0.341
-568.631	-114.560	-0.186	0.036
-567.617	101.622	0.121	0.142
-566.602	800.000	-0.031	-0.121
-565.588	126.223	0.066	-0.084
-564.573	-43.544	0.216	0.110
-563.558	161.883	0.130	0.183
-562.544	56.219	0.345	-0.337
-561.529	-97.362	0.074	-0.020
-560.515	800.000	0.135	-0.395
-559.500	-37.620	0.246	0.132
-558.485	120.788	-0.047	-0.059
-557.471	-200.000	0.004	-0.077
-556.456	-119.700	-0.275	0.048
-555.442	171.832	-0.080	0.116
-554.427	-157.264	-0.128	-0.008
-553.412	40.189	-0.153	0.138
-552.398	-200.000	0.021	0.367
-551.383	105.813	0.137	0.163
-550.369	800.000	0.020	-0.067
-549.354	-78.181	0.071	-0.024
-548.339	69.957	0.251	-0.261
-547.325	16.831	-0.307	-0.244
-546.310	28.326	0.307	-0.261
-545.296	110.769	0.064	0.078
-544.281	61.760	0.100	0.101
-543.266	-109.646	0.169	-0.036
-542.252	800.000	-0.062	-0.254
-541.237	-161.900	-0.249	0.013
-540.223	20.125	-0.185	-0.150
-539.208	61.845	0.162	-0.163
-538.193	155.531	-0.093	0.129
-537.179	800.000	0.057	-0.171
-536.164	180.261	0.101	0.148
-535.150	368.194	-0.211	-0.430
-534.135	-32.132	0.207	-0.117
-533.121	396.915	0.033	0.070
-532.106	-197.692	-0.400	-0.002
-531.091	45.009	-0.119	-0.110
-530.077	-25.176	-0.386	-0.230
-529.062	800.000	-0.087	0.329
-528.048	47.451	-0.241	0.226
-527.033	800.000	0.046	0.139
-526.018	23.850	0.311	0.257
-525.004	800.000	-0.087	0.346
-523.989	-84.621	-0.221	-0.070
-522.975	601.343	0.168	0.419
-521.960	-143.244	0.051	0.005
-520.945	-117.660	-0.344	-0.062
-519.931	-5.085	-0.414	0.287
-518.916	-200.000	-0.056	0.445
-517.902	494.009	0.041	0.095
-516.887	-97.563	-0.086	-0.022
-515.872	106.831	0.238	0.284
-514.858	-61.181	-0.194	0.082
-513.843	-90.603	0.499	0.145
-512.829	-72.971	-0.235	-0.087
-511.814	-200.000	-0.015	0.131
-510.799	790.882	-0.055	0.153
-509.785	800.000	0.062	-0.265
-508.770	-200.000	0.019	-0.127
-507.756	50.803	-0.119	-0.114
-506.741	-129.707	0.089	0.012
-505.726	-200.000	-0.056	-0.276
-504.712	-147.615	-0.136	-0.011
-503.697	-94.721	-0.515	0.140
-502.683	242.832	-0.095	-0.159
-501.668	-52.160	0.240	0.112
-500.653	-200.000	-0.014	-0.258
-499.639	73.149	0.194	0.204
-498.624	-200.000	-0.018	0.297
-497.610	182.119	0.096	-0.142
-496.595	-33.153	-0.055	0.030
-495.581	-108.349	-0.107	-0.023
-494.566	-200.000	-0.001	-0.147
-493.551	63.175	0.253	0.255
-492.537	-139.384	-0.333	0.036
-491.522	24.126	-0.083	0.069
-490.508	-68.104	-0.048	0.019
-489.493	82.300	0.099	0.108
-488.478	800.000	0.039	-0.155
-487.464	-38.840	-0.090	-0.048
-486.449	-8.090	0.049	-0.033
-485.435	184.768	-0.093	0.139
-484.420	494.856	0.056	-0.129
-483.405	-151.625	-0.145	0.011
-482.391	-152.558	0.125	0.009
-481.376	800.000	-0.084	0.319
-480.362	-72.138	0.256	0.095
-479.347	8.437	0.010	-0.008
-478.332	-38.254	-0.144	0.077
-477.318	-42.842	0.380	-0.194
-476.303	-77.502	0.146	0.051
-475.289	-0.899	-0.195	0.138
-474.274	288.481	-0.161	-0.292
-473.259	-200.000	0.030	0.142
-472.245	-120.522	0.273	-0.047
-471.230	312.078	0.192	0.362
-470.216	10.133	-0.339	0.258
-469.201	69.824	0.035	0.037
-468.186	115.560	0.124	0.151
-467.172	73.061	-0.163	0.170
-466.157	-200.000	0.050	-0.289
-465.143	-161.043	0.258	0.014
-464.128	-200.000	-0.025	-0.141
-463.113	276.576	0.131	0.234
-462.099	37.907	0.224	-0.199
-461.084	79.481	0.391	-0.421
-460.070	51.276	-0.086	0.082
-459.055	-98.827	0.138	0.035
-458.040	-104.515	0.193	-0.045
-457.026	-200.000	0.004	-0.042
-456.011	-200.000	-0.028	-0.342
-454.997	-200.000	0.003	-0.201
-453.982	-132.612	0.083	0.011
-452.968	800.000	-0.038	-0.145
-451.953	-7.020	0.305	-0.207
-450.938	-140.634	-0.104	0.011
-449.924	-138.982	0.128	-0.014
-448.909	-135.216	0.082	-0.010
-447.895	25.582	0.061	-0.051
-446.880	800.000	-0.011	-0.044
-445.865	415.444	0.064	0.137
-444.851	-66.597	-0.181	0.072
-443.836	728.052	0.000	-0.001
-442.822	111.376	0.300	-0.362
-441.807	-13.878	0.200	-0.130
-440.792	-54.663	-0.248	0.112
-439.778	75.295	0.074	0.078
-438.763	192.047	-0.118	0.178
-437.749	-200.000	0.080	-0.476
-436.734	-160.976	-0.346	-0.018
-435.719	-28.060	-0.109	-0.063
-434.705	-52.106	-0.345	0.160
-433.690	213.160	0.030	-0.047
-432.676	-200.000	-0.012	0.097
-431.661	800.000	-0.090	-0.288
-430.646	-116.112	-0.172	-0.032
-429.632	800.000	0.049	0.144
-428.617	418.126	-0.089	-0.190
-427.603	800.000	0.055	0.197
-426.588	91.261	-0.125	-0.141
-425.573	381.475	0.097	-0.200
-424.559	658.528	0.033	-0.085
-423.544	-157.791	0.146	-0.009
-422.530	104.761	-0.036	-0.043
-421.515	-200.000	0.087	-0.395
-420.500	-200.000	0.023	-0.115
-419.486	-6.419	-0.310	0.212
-418.471	800.000	0.059	0.243
-417.457	-92.762	-0.217	-0.061
-416.442	155.130	-0.194	-0.267
-415.428	-95.058	-0.124	-0.034
-414.413	-192.749	0.139	-0.001
-413.398	583.613	-0.056	-0.137
-412.384	-122.738	-0.165	0.027
-411.369	414.550	0.235	0.502
-410.355	800.000	0.060	-0.226
-409.340	-200.000	0.021	-0.146
-408.325	800.000	0.022	-0.064
-407.311	321.841	-0.126	0.240
-406.296	5.964	0.110	0.082
-405.282	-200.000	0.003	-0.226
-404.267	204.131	0.143	-0.222
-403.252	-88.438	0.040	-0.012
-402.238	-35.220	-0.061	-0.033
-401.223	368.313	-0.197	0.398
-400.209	107.287	-0.128	-0.153
-399.194	556.282	0.042	-0.101
-398.179	-41.968	-0.135	-0.069
-397.165	-46.526	-0.186	0.091
-396.150	-143.230	0.123	0.012
-395.136	-26.845	-0.167	0.098
-394.121	-25.007	0.296	-0.176
-393.106	153.528	0.087	-0.119
-392.092	163.820	-0.079	-0.112
-391.077	226.076	-0.064	-0.104
-390.063	177.117	0.173	-0.251
-389.048	177.198	-0.193	0.281
-388.033	-32.133	0.137	-0.077
-387.019	614.268	-0.068	-0.171
-386.004	-141.059	-0.368	-0.038
-384.990	-82.721	-0.215	0.070
-383.975	-2.744	0.183	0.128
-382.960	12.444	-0.105	0.081
-381.946	372.358	0.087	-0.178
-380.931	134.662	-0.089	-0.115
-379.917	206.169	0.019	-0.030
-378.902	-200.000	-0.010	0.056
-377.888	723.876	0.067	0.177
-376.873	-200.000	-0.034	0.282
-375.858	652.964	0.104	0.266
-374.844	-94.085	0.181	-0.050
-373.829	-14.908	0.106	0.068
-372.815	-200.000	0.070	-0.312
-371.800	800.000	-0.076	-0.322
-370.785	-200.000	-0.006	0.267
-369.771	279.804	-0.054	-0.097
-368.756	-106.128	0.334	-0.075
-367.742	-81.746	0.077	0.025
-366.727	136.378	0.103	-0.135
-365.712	126.188	0.208	-0.263
-364.698	383.081	0.197	-0.405
-363.683	131.849	-0.077	-0.100
-362.669	-200.000	-0.054	0.323
-361.654	710.034	0.012	0.032
-360.639	-60.735	-0.266	-0.113
-359.625	-48.310	-0.264	0.127
-358.610	25.815	0.142	0.118
-357.596	12.255	0.223	-0.171
-356.581	-115.723	-0.203	-0.038
-355.566	-144.220	0.284	0.026
-354.552	189.247	-0.053	-0.079
-353.537	-120.371	-0.154	-0.026
-352.523	-1.311	0.246	0.174
-351.508	267.727	0.090	0.158
-350.493	-193.590	0.044	0.000
-349.479	-120.170	-0.349	-0.060
-348.464	100.459	-0.073	0.084
-347.450	245.134	-0.136	0.228
-346.435	115.662	0.056	-0.068
-345.420	-141.514	-0.049	-0.005
-344.406	-66.582	0.083	-0.033
-343.391	-132.821	-0.311	-0.040
-342.377	-90.696	-0.191	-0.055
-341.362	-79.384	-0.214	-0.072
-340.348	-18.614	-0.305	0.190
-339.333	-200.000	-0.004	0.086
-338.318	-130.641	-0.177	-0.024
-337.304	35.499	0.147	-0.129
-336.289	35.858	-0.232	-0.203
-335.275	321.352	0.075	-0.143
-334.260	444.535	0.025	0.054
-333.245	-69.571	0.374	0.143
-332.231	-69.588	-0.274	0.105
-331.216	-200.000	0.036	-0.306
-330.202	-105.792	0.201	0.045
-329.187	89.025	0.028	0.032
-328.172	53.433	-0.174	-0.167
-327.158	160.254	0.286	-0.398
-326.143	-200.000	0.010	-0.195
-325.129	-129.047	-0.203	-0.028
-324.114	-150.949	0.044	0.003
-323.099	-157.501	-0.195	-0.012
-322.085	786.456	-0.007	-0.019
-321.070	-105.287	-0.210	-0.048
-320.056	-115.788	0.066	0.012
-319.041	-107.632	0.215	0.047
-318.026	-200.000	0.006	-0.125
-317.012	153.023	-0.157	-0.214
-315.997	-60.809	0.046	-0.020
-314.983	-48.432	0.098	-0.047
-313.968	-200.000	-0.006	-0.201
-312.953	-60.198	-0.128	-0.054
-311.939	-66.531	0.256	0.101
-310.924	-57.502	0.226	0.099
-309.910	-200.000	-0.008	-0.050
-308.895	-200.000	0.016	0.143
-307.880	9.480	-0.363	0.274
-306.866	-102.286	-0.065	0.016
-305.851	-200.000	0.041	-0.216
-304.837	800.000	0.061	-0.261
-303.822	-57.667	0.045	-0.020
-302.807	800.000	-0.023	0.079
-301.793	-66.969	0.235	0.092
-300.778	363.152	0.086	-0.173
-299.764	247.611	0.154	0.260
-298.749	51.705	-0.032	-0.030
-297.735	6.729	0.173	-0.128
-296.720	677.111	-0.043	-0.111
-295.705	-185.143	-0.100	-0.002
-294.691	-200.000	-0.064	-0.374
-293.676	-94.320	0.255	-0.069
-292.662	800.000	-0.055	-0.213
-291.647	-39.500	0.066	-0.034
-290.632	-198.472	-0.067	-0.000
-289.618	-64.034	-0.104	0.042
-288.603	-200.000	0.004	-0.129
-287.589	-71.271	0.379	0.142
-286.574	-43.693	-0.241	0.121
-285.559	-103.042	-0.086	0.020
-284.545	-11.614	0.113	0.074
-283.530	-78.710	0.208	-0.071
-282.516	543.555	0.040	-0.095
-281.501	-200.000	0.016	-0.215
-280.486	-138.624	-0.291	-0.032
-279.472	196.127	-0.060	0.091
-278.457	800.000	-0.061	-0.216
-277.443	547.841	0.055	0.132
-276.428	-200.000	-0.034	0.320
-275.413	800.000	0.090	0.259
-274.399	-82.244	-0.433	0.140
-273.384	-109.770	0.148	-0.031
-272.370	118.324	0.126	0.155
-271.355	55.002	-0.223	-0.214
-270.340	53.445	0.097	-0.092
-269.326	800.000	-0.136	0.387
-268.311	99.735	-0.279	0.322
-267.297	257.324	0.133	-0.228
-266.282	78.713	0.262	0.278
-265.267	227.529	0.104	0.167
-264.253	-147.634	0.090	-0.008
-263.238	-200.000	-0.012	-0.155
-262.224	-200.000	-0.004	0.331
-261.209	-200.000	-0.068	-0.421
-260.195	-2.498	0.190	-0.133
-259.180	-200.000	0.010	0.166
-258.165	-150.507	0.141	0.011
-257.151	-200.000	-0.011	0.263
-256.136	213.915	0.167	0.262
-255.122	436.243	-0.118	-0.255
-254.107	-111.642	0.237	-0.048
-253.092	800.000	-0.063	-0.205
-252.078	800.000	-0.030	0.096
-251.063	-155.452	0.220	-0.014
-250.049	219.645	0.182	0.289
-249.034	-10.678	0.345	-0.227
-248.019	-200.000	-0.015	-0.136
-247.005	63.382	0.098	0.098
-245.990	-24.213	-0.107	-0.063
-244.976	167.217	-0.059	-0.083
-243.961	33.664	0.230	0.198
-242.946	-200.000	-0.003	0.201
-241.932	-76.173	-0.130	0.045
-240.917	560.830	-0.165	-0.396
-239.903	-7.420	0.099	0.067
-238.888	352.256	0.149	-0.294
-237.873	27.497	-0.036	-0.030
-236.859	-200.000	-0.009	0.117
-235.844	95.259	-0.179	0.203
-234.830	93.965	0.177	-0.199
-233.815	-132.954	0.215	0.027
-232.800	-200.000	0.005	-0.230
-231.786	-77.897	-0.422	0.145
-230.771	216.597	0.005	0.009
-229.757	800.000	0.065	-0.232
-228.742	-200.000	0.014	-0.105
-227.727	-72.893	0.309	0.113
-226.713	-200.000	-0.057	0.470
-225.698	800.000	-0.138	0.415
-224.684	152.600	0.154	-0.209
-223.669	25.138	0.271	0.223
-222.655	94.863	-0.184	0.207
-221.640	510.961	-0.066	-0.152
-220.625	-200.000	-0.007	-0.067
-219.611	800.000	-0.064	-0.248
-218.596	-200.000	0.059	0.502
-217.582	-48.316	0.053	-0.025
-216.567	800.000	0.038	0.107
-215.552	-102.317	0.251	-0.060
-214.538	-200.000	-0.028	-0.368
-213.523	277.336	0.081	-0.144
-212.509	800.000	-0.003	-0.012
-211.494	-200.000	-0.019	-0.227
-210.479	-145.592	-0.291	-0.026
-209.465	-148.120	0.106	-0.009
-208.450	47.499	-0.307	-0.284
-207.436	-200.000	-0.016	0.158
-206.421	431.939	0.033	-0.071
-205.406	-200.000	0.062	-0.292
-204.392	42.770	-0.138	0.125
-203.377	-200.000	-0.033	-0.317
-202.363	-68.661	0.124	0.048
-201.348	536.923	-0.110	0.260
-200.333	372.474	0.143	0.288
-199.319	-136.158	0.261	-0.030
-198.304	-26.104	-0.301	0.176
-197.290	132.877	-0.197	0.252
-196.275	42.046	0.128	0.116
-195.260	-90.237	-0.122	0.035
-194.246	4.685	0.078	-0.057
-193.231	41.983	-0.170	0.153
-192.217	-200.000	0.002	0.130
-191.202	253.728	-0.033	-0.057
-190.187	-31.149	0.218	-0.122
-189.173	-89.911	0.195	0.057
-188.158	18.763	-0.165	0.131
-187.144	-111.730	0.297	-0.060
-186.129	263.052	-0.194	0.334
-185.114	160.209	-0.105	-0.145
-184.100	-113.691	-0.135	0.026
-183.085	166.873	-0.061	0.086
-182.071	-141.315	0.248	-0.025
-181.056	-200.000	0.033	0.179
-180.042	-200.000	-0.025	0.200
-179.027	519.822	0.062	0.145
-178.012	37.374	0.110	0.097
-176.998	-122.186	0.103	-0.017
-175.983	19.217	-0.097	0.078
-174.969	17.421	-0.104	0.082
-173.954	-200.000	-0.050	0.249
-172.939	-200.000	-0.001	-0.038
-171.925	-141.295	0.205	-0.021
-170.910	-8.286	-0.210	0.140
-169.896	245.738	-0.187	0.313
-168.881	-146.890	0.170	0.014
-167.866	-72.075	0.162	-0.060
-166.852	370.070	-0.059	-0.119
-165.837	143.418	0.145	-0.191
-164.823	-46.434	-0.221	0.108
-163.808	44.355	0.234	-0.213
-162.793	120.979	-0.263	-0.324
-161.779	670.373	-0.032	0.081
-160.764	-200.000	-0.047	0.310
-159.750	62.163	0.256	0.253
-158.735	461.548	0.004	-0.009
-157.720	-134.959	-0.411	-0.049
-156.706	-125.012	0.294	-0.045
-155.691	-40.208	0.337	-0.174
-154.677	252.894	-0.205	-0.347
-153.662	-147.542	-0.248	0.021
-152.647	-131.210	0.076	-0.010
-151.633	18.046	0.047	-0.037
-150.618	131.899	-0.085	-0.108
-149.604	106.567	0.054	-0.064
-148.589	247.177	0.081	-0.135
-147.574	-171.614	0.165	-0.005
-146.560	795.837	0.071	-0.194
-145.545	-59.767	-0.051	-0.021
-144.531	800.000	0.003	-0.011
-143.516	-91.626	-0.260	-0.073
-142.502	-143.706	0.368	0.034
-141.487	44.367	-0.046	0.042
-140.472	287.341	-0.016	-0.029
-139.458	26.201	0.408	-0.337
-138.443	-200.000	0.015	-0.244
-137.429	137.656	0.254	-0.329
-136.414	-112.504	0.402	-0.079
-135.399	-183.084	0.190	-0.003
-134.385	-200.000	-0.069	0.350
-133.370	142.100	-0.017	-0.022
-132.356	474.818	0.022	-0.050
-131.341	-126.871	-0.159	-0.023
-130.326	-108.924	-0.047	-0.010
-129.312	465.294	-0.188	-0.415
-128.297	-200.000	0.025	-0.402
-127.283	-96.585	0.528	0.138
-126.268	800.000	0.078	0.292
-125.253	144.173	0.042	0.055
-124.239	-200.000	0.015	-0.280
-123.224	-200.000	-0.010	-0.114
-122.210	-2.489	-0.210	-0.146
