DTS Sentinel unit serial number:	SN413079Multiplexer serial number:	ORYXHardware model number:	OX4-SRSoftware version number:	ORYX F/W v4.00 Oryx Data Collector v3.7.2.0data status	okinstallation	princeton_trtdifferential loss correction	single-endedforward channel	channel 1reverse channel	N/Adate	2019/09/13time	15:22:35forward acquisition time	60.00reverse acquisition time	0.00gamma	496.2192k internal	0.2304k external	0.2304temperature offset calibration	1.0164default loss term (dB/km)	0.3790temperature slope calibration	1.0000multiplexer offset coefficient	1.0000multiplexer slope coefficient	1.0000fibre end	0.00T internal ref (°C)	35.33T ext. ref 1 (°C)	4.73T ext. ref 2 (°C)	29.26length (m)	temperature (°C)	Stokes	anti-Stokes-747.200	255.372	-0.173	-0.301
-746.185	-200.000	0.031	0.200
-745.171	-87.879	-0.385	0.118
-744.156	379.610	0.116	0.241
-743.142	-200.000	-0.049	-0.331
-742.127	472.079	-0.029	0.067
-741.112	-12.279	-0.057	-0.038
-740.098	125.729	0.126	-0.162
-739.083	-200.000	-0.061	-0.395
-738.069	137.102	-0.196	0.261
-737.054	592.694	-0.132	-0.333
-736.039	-178.697	-0.465	-0.011
-735.025	-129.390	0.335	0.047
-734.010	-68.441	-0.206	0.081
-732.996	75.658	0.055	0.059
-731.981	-56.707	-0.242	0.109
-730.966	-200.000	-0.000	-0.111
-729.952	22.986	-0.138	-0.115
-728.937	800.000	0.019	0.085
-727.923	-200.000	-0.010	0.125
-726.908	523.555	0.157	-0.375
-725.894	-200.000	0.000	0.028
-724.879	176.880	-0.053	-0.078
-723.864	27.822	0.188	0.161
-722.850	-52.822	0.191	-0.089
-721.835	170.741	-0.107	0.156
-720.821	-63.811	0.217	-0.090
-719.806	105.310	-0.345	-0.414
-718.791	-11.305	-0.246	-0.165
-717.777	130.381	-0.054	0.070
-716.762	-56.071	-0.340	-0.154
-715.748	-81.709	-0.118	-0.039
-714.733	-119.686	0.299	0.053
-713.718	-147.261	0.191	0.016
-712.704	-86.233	-0.157	0.049
-711.689	-23.420	-0.280	0.171
-710.675	117.955	-0.090	0.113
-709.660	191.629	0.110	0.169
-708.645	-80.308	0.133	-0.045
-707.631	-60.233	0.454	-0.197
-706.616	-23.186	-0.098	0.060
-705.602	-48.674	0.451	0.221
-704.587	-23.326	0.218	-0.134
-703.572	-3.219	0.320	0.227
-702.558	97.430	-0.223	0.260
-701.543	400.033	0.119	-0.254
-700.529	24.793	0.184	-0.155
-699.514	-4.111	-0.091	0.064
-698.499	-137.469	0.263	-0.030
-697.485	253.561	-0.230	-0.399
-696.470	-27.538	-0.185	-0.109
-695.456	-94.349	0.288	-0.080
-694.441	-200.000	-0.039	-0.183
-693.426	-29.969	0.072	0.042
-692.412	379.972	-0.093	-0.193
-691.397	9.862	0.251	-0.194
-690.383	103.597	0.034	-0.041
-689.368	-168.873	-0.210	-0.008
-688.354	4.827	0.237	0.177
-687.339	800.000	0.080	-0.228
-686.324	-63.358	-0.065	0.027
-685.310	503.868	0.109	-0.257
-684.295	-137.920	-0.264	-0.030
-683.281	-200.000	-0.006	-0.195
-682.266	-181.317	-0.176	-0.004
-681.251	-174.597	0.143	0.004
-680.237	17.561	-0.172	0.139
-679.222	521.019	0.187	0.446
-678.208	-200.000	-0.018	-0.193
-677.193	800.000	0.007	-0.028
-676.178	800.000	0.071	-0.223
-675.164	93.016	-0.075	0.086
-674.149	800.000	0.076	-0.316
-673.135	800.000	-0.005	-0.017
-672.120	303.052	-0.157	-0.295
-671.105	246.568	0.005	-0.008
-670.091	-129.497	-0.323	0.045
-669.076	558.123	0.075	-0.183
-668.062	600.076	-0.036	-0.091
-667.047	-74.227	0.095	-0.035
-666.032	-124.973	0.252	0.039
-665.018	104.725	-0.069	0.082
-664.003	-200.000	-0.012	-0.294
-662.989	-76.465	0.200	-0.071
-661.974	267.344	-0.064	-0.113
-660.959	240.784	-0.013	-0.022
-659.945	-44.050	0.398	0.203
-658.930	22.754	-0.132	0.110
-657.916	269.370	0.021	0.038
-656.901	-200.000	-0.060	0.301
-655.886	206.496	-0.225	0.355
-654.872	800.000	0.107	-0.372
-653.857	-200.000	0.010	0.088
-652.843	31.071	-0.127	0.111
-651.828	-27.917	-0.272	-0.160
-650.814	800.000	0.030	-0.093
-649.799	209.345	-0.083	-0.132
-648.784	-200.000	-0.045	-0.345
-647.770	-8.774	0.113	0.077
-646.755	119.320	-0.135	0.169
-645.741	-17.354	-0.110	0.070
-644.726	-44.970	0.390	0.197
-643.711	51.337	-0.013	0.012
-642.697	-200.000	0.026	0.234
-641.682	-200.000	0.003	0.187
-640.668	-47.756	-0.268	0.132
-639.653	-200.000	-0.014	-0.168
-638.638	153.585	0.202	0.281
-637.624	207.851	-0.205	-0.324
-636.609	-139.226	0.162	-0.018
-635.595	-45.446	0.201	-0.101
-634.580	-79.295	0.270	0.093
-633.565	341.256	0.120	0.237
-632.551	-24.679	-0.216	-0.130
-631.536	-67.146	0.410	0.164
-630.522	151.375	-0.078	0.107
-629.507	214.746	0.099	-0.160
-628.492	214.975	0.085	-0.137
-627.478	-22.527	-0.388	0.238
-626.463	-66.960	-0.142	0.057
-625.449	21.093	-0.105	0.086
-624.434	800.000	-0.102	0.331
-623.419	-114.620	-0.286	0.055
-622.405	-2.841	0.116	-0.082
-621.390	390.826	0.043	-0.090
-620.376	800.000	0.102	0.304
-619.361	-42.129	-0.242	0.125
-618.346	113.590	0.056	-0.069
-617.332	-131.442	-0.162	-0.022
-616.317	57.383	-0.199	0.197
-615.303	-172.193	0.213	-0.007
-614.288	-54.024	0.213	-0.098
-613.273	-133.198	-0.041	-0.005
-612.259	-109.107	-0.415	-0.089
-611.244	265.075	0.104	-0.183
-610.230	269.950	-0.202	-0.360
-609.215	116.820	-0.191	-0.237
-608.201	-91.674	0.292	0.084
-607.186	96.207	-0.056	-0.064
-606.171	-109.090	0.108	0.023
-605.157	22.255	-0.007	-0.006
-604.142	-176.090	-0.189	-0.005
-603.128	-46.639	0.139	-0.069
-602.113	654.997	-0.072	0.186
-601.098	-46.128	0.112	-0.056
-600.084	662.721	0.079	-0.206
-599.069	322.150	0.117	-0.226
-598.055	798.631	-0.138	-0.385
-597.040	-65.417	-0.305	-0.124
-596.025	22.962	-0.084	-0.070
-595.011	155.030	0.205	-0.285
-593.996	-200.000	0.059	-0.277
-592.982	-60.137	-0.109	-0.047
-591.967	356.238	0.253	-0.509
-590.952	-105.562	0.121	-0.028
-589.938	-169.663	-0.187	-0.007
-588.923	-81.511	-0.270	-0.090
-587.909	-68.034	0.238	0.094
-586.894	248.103	-0.150	-0.257
-585.879	-99.958	-0.139	-0.035
-584.865	228.961	-0.098	0.162
-583.850	75.155	0.088	0.094
-582.836	-93.698	-0.241	0.067
-581.821	-129.912	-0.276	0.038
-580.806	-108.473	-0.413	-0.090
-579.792	800.000	-0.039	-0.163
-578.777	-107.649	-0.029	-0.006
-577.763	491.054	0.086	0.198
-576.748	152.101	-0.113	-0.156
-575.733	-155.234	-0.291	0.019
-574.719	-96.399	-0.263	0.070
-573.704	68.709	-0.163	0.169
-572.690	751.521	-0.014	-0.038
-571.675	-70.043	-0.215	-0.083
-570.661	191.454	-0.117	0.179
-569.646	80.282	-0.365	-0.397
-568.631	479.361	0.038	0.087
-567.617	209.153	0.127	-0.201
-566.602	-85.851	-0.183	-0.057
-565.588	800.000	-0.047	-0.168
-564.573	-200.000	-0.010	0.120
-563.558	-34.236	-0.236	-0.131
-562.544	-139.105	0.242	0.026
-561.529	-200.000	0.041	-0.376
-560.515	-200.000	-0.028	0.237
-559.500	-67.279	0.093	0.037
-558.485	67.283	-0.120	-0.124
-557.471	-71.274	-0.431	0.163
-556.456	-200.000	0.006	0.148
-555.442	-144.879	-0.085	-0.008
-554.427	-200.000	-0.032	0.235
-553.412	-200.000	-0.043	-0.264
-552.398	139.123	0.086	0.114
-551.383	102.661	-0.107	0.127
-550.369	-200.000	-0.004	-0.122
-549.354	168.615	-0.057	0.082
-548.339	-91.290	0.052	0.015
-547.325	217.298	-0.038	0.062
-546.310	800.000	0.073	-0.320
-545.296	-200.000	-0.244	0.000
-544.281	446.099	0.135	-0.299
-543.266	16.948	0.117	0.094
-542.252	-96.577	-0.224	0.060
-541.237	-200.000	-0.005	-0.129
-540.223	-20.059	-0.106	-0.066
-539.208	219.731	0.147	0.237
-538.193	125.540	-0.128	-0.163
-537.179	155.516	-0.026	0.036
-536.164	-200.000	-0.017	0.137
-535.150	-200.000	-0.046	0.275
-534.135	-75.288	0.074	0.027
-533.121	765.240	0.082	-0.224
-532.106	403.362	0.080	-0.169
-531.091	30.307	0.191	0.164
-530.077	-146.726	-0.181	0.016
-529.062	217.999	0.130	-0.209
-528.048	180.002	-0.159	-0.236
-527.033	-41.843	-0.066	-0.034
-526.018	800.000	-0.073	-0.309
-525.004	88.586	0.041	-0.046
-523.989	-16.493	0.088	0.057
-522.975	-177.628	0.061	-0.001
-521.960	-23.582	-0.161	0.097
-520.945	404.847	0.076	-0.161
-519.931	-46.172	-0.229	0.114
-518.916	514.088	0.160	0.377
-517.902	-200.000	-0.020	0.167
-516.887	800.000	-0.044	-0.180
-515.872	-200.000	0.033	0.430
-514.858	-59.095	0.198	-0.086
-513.843	-200.000	-0.024	0.528
-512.829	387.648	-0.114	-0.238
-511.814	-90.509	0.025	0.007
-510.799	-200.000	0.076	0.353
-509.785	-25.692	0.358	-0.213
-508.770	-122.346	-0.104	0.017
-507.756	127.172	0.146	-0.186
-506.741	-151.825	-0.066	0.005
-505.726	89.500	-0.377	-0.424
-504.712	206.585	-0.194	-0.304
-503.697	-75.392	-0.212	-0.076
-502.683	39.994	0.085	-0.077
-501.668	-31.768	-0.281	0.159
-500.653	-145.177	0.188	-0.017
-499.639	-52.616	-0.230	-0.107
-498.624	-200.000	0.016	0.273
-497.610	-200.000	-0.032	0.496
-496.595	-134.311	-0.080	0.010
-495.581	-119.474	0.175	0.031
-494.566	1.462	0.296	0.215
-493.551	-86.880	0.201	0.062
-492.537	800.000	0.044	-0.149
-491.522	-4.973	-0.283	-0.196
-490.508	297.348	-0.082	0.151
-489.493	800.000	0.084	0.265
-488.478	800.000	-0.062	-0.237
-487.464	-162.759	0.275	0.014
-486.449	-79.755	-0.337	0.114
-485.435	800.000	-0.039	-0.141
-484.420	800.000	-0.052	0.166
-483.405	800.000	0.042	-0.163
-482.391	127.471	-0.129	0.165
-481.376	-86.289	-0.160	-0.050
-480.362	121.057	0.084	0.106
-479.347	-91.684	-0.208	0.059
-478.332	-18.909	0.072	0.045
-477.318	791.224	0.063	0.173
-476.303	176.269	0.046	0.068
-475.289	87.477	0.094	0.105
-474.274	17.507	0.146	-0.117
-473.259	800.000	-0.043	-0.125
-472.245	421.353	0.149	-0.322
-471.230	-76.389	-0.201	0.071
-470.216	-73.610	0.048	-0.018
-469.201	-137.111	-0.488	-0.056
-468.186	-101.160	0.371	-0.092
-467.172	-200.000	-0.042	0.377
-466.157	-167.600	0.163	0.007
-465.143	-113.170	0.212	-0.042
-464.128	527.065	0.060	0.143
-463.113	61.851	0.370	0.371
-462.099	-115.687	-0.148	0.028
-461.084	-60.441	-0.280	-0.120
-460.070	71.717	0.101	-0.105
-459.055	-135.623	-0.271	-0.032
-458.040	-200.000	-0.043	0.295
-457.026	-200.000	0.071	0.371
-456.011	105.478	-0.208	-0.248
-454.997	-103.745	0.254	-0.060
-453.982	-53.788	0.229	0.105
-452.968	-200.000	0.096	0.465
-451.953	-14.502	-0.340	0.220
-450.938	108.918	0.101	-0.121
-449.924	-112.502	0.140	0.028
-448.909	-139.508	0.295	-0.032
-447.895	-70.265	-0.233	0.089
-446.880	-57.962	0.059	-0.026
-445.865	-74.755	-0.314	-0.114
-444.851	61.606	-0.014	-0.014
-443.836	226.060	0.186	0.303
-442.822	-165.616	0.223	-0.010
-441.807	340.130	-0.104	0.204
-440.792	-75.679	-0.067	-0.024
-439.778	-200.000	0.011	0.276
-438.763	-139.937	0.248	-0.026
-437.749	-109.385	-0.110	-0.023
-436.734	111.392	-0.174	-0.211
-435.719	-200.000	0.026	-0.329
-434.705	-200.000	-0.010	-0.068
-433.690	-2.711	-0.203	0.143
-432.676	-94.590	0.103	0.028
-431.661	-71.611	0.125	-0.047
-430.646	800.000	-0.058	0.177
-429.632	333.193	0.091	0.176
-428.617	-52.817	0.090	-0.042
-427.603	210.332	0.157	0.247
-426.588	154.976	-0.232	-0.321
-425.573	-200.000	0.002	0.275
-424.559	-200.000	-0.017	-0.133
-423.544	-129.488	0.132	-0.018
-422.530	-125.445	-0.118	0.018
-421.515	-151.342	-0.277	0.021
-420.500	-110.389	0.237	-0.050
-419.486	-133.071	0.306	0.039
-418.471	17.306	-0.083	-0.066
-417.457	111.318	0.179	-0.217
-416.442	-200.000	-0.011	-0.144
-415.428	-200.000	0.036	-0.210
-414.413	315.621	0.055	-0.104
-413.398	5.551	0.197	0.146
-412.384	208.366	0.052	-0.082
-411.369	31.891	-0.283	-0.245
-410.355	-38.057	-0.234	0.125
-409.340	132.943	-0.213	-0.277
-408.325	561.656	-0.114	0.278
-407.311	-56.873	-0.096	0.043
-406.296	-2.487	0.179	-0.126
-405.282	-92.162	-0.159	-0.045
-404.267	319.593	0.092	0.176
-403.252	-143.655	-0.363	0.035
-402.238	6.575	0.106	0.079
-401.223	-200.000	0.000	0.117
-400.209	423.219	0.135	0.290
-399.194	61.784	0.198	-0.198
-398.179	733.961	-0.097	0.261
-397.165	-6.958	0.037	0.025
-396.150	-12.466	0.322	0.211
-395.136	-200.000	0.039	-0.258
-394.121	-177.677	-0.258	0.006
-393.106	-148.908	0.204	-0.017
-392.092	800.000	0.073	-0.271
-391.077	-60.180	0.134	0.057
-390.063	800.000	0.095	-0.351
-389.048	-200.000	-0.032	0.164
-388.033	3.148	-0.147	0.107
-387.019	-102.248	0.185	0.045
-386.004	193.666	0.115	0.175
-384.990	61.403	-0.268	-0.267
-383.975	800.000	-0.029	0.104
-382.960	-200.000	-0.037	-0.176
-381.946	-150.530	0.191	-0.015
-380.931	-157.423	-0.143	0.009
-379.917	-0.935	-0.234	0.166
-378.902	-78.944	-0.183	-0.063
-377.888	-2.697	0.360	-0.252
-376.873	800.000	0.048	0.196
-375.858	-113.797	-0.097	-0.019
-374.844	-56.606	0.037	0.016
-373.829	800.000	0.066	0.225
-372.815	73.354	0.191	0.201
-371.800	-45.942	-0.073	0.036
-370.785	-67.548	-0.341	-0.134
-369.771	102.929	0.082	0.097
-368.756	115.438	-0.061	0.075
-367.742	-53.053	0.233	0.108
-366.727	-141.459	0.193	-0.020
-365.712	-147.199	0.437	0.037
-364.698	663.145	0.068	-0.175
-363.683	35.137	-0.098	-0.086
-362.669	-104.143	0.041	-0.010
-361.654	377.361	0.008	-0.017
-360.639	-200.000	0.058	0.361
-359.625	241.882	0.116	-0.194
-358.610	-93.619	-0.189	-0.052
-357.596	185.687	-0.039	-0.059
-356.581	-200.000	0.040	-0.319
-355.566	-107.258	0.460	0.102
-354.552	-200.000	0.040	0.472
-353.537	-32.316	-0.005	0.003
-352.523	-121.342	0.151	0.025
-351.508	-200.000	-0.006	0.133
-350.493	800.000	-0.120	-0.336
-349.479	24.309	0.279	-0.231
-348.464	-61.668	0.223	-0.094
-347.450	-29.965	0.154	-0.088
-346.435	-16.915	-0.038	-0.024
-345.420	-200.000	-0.003	-0.217
-344.406	-200.000	-0.181	0.000
-343.391	-121.944	0.196	0.032
-342.377	108.068	-0.321	0.384
-341.362	125.170	0.312	0.394
-340.348	112.159	-0.036	-0.043
-339.333	-123.133	0.139	0.022
-338.318	-50.245	0.161	-0.076
-337.304	449.222	-0.021	-0.046
-336.289	800.000	-0.106	-0.324
-335.275	208.716	-0.169	0.265
-334.260	43.290	0.129	0.118
-333.245	388.963	-0.094	0.195
-332.231	-101.773	0.234	-0.057
-331.216	216.974	0.142	-0.226
-330.202	-200.000	0.024	-0.110
-329.187	-182.105	-0.037	-0.001
-328.172	800.000	-0.069	0.226
-327.158	-21.889	0.250	0.152
-326.143	800.000	-0.035	-0.111
-325.129	-68.079	0.232	-0.091
-324.114	584.230	0.037	0.091
-323.099	800.000	-0.187	0.558
-322.085	-10.585	-0.148	0.098
-321.070	528.220	0.066	-0.157
-320.056	37.976	0.098	-0.088
-319.041	376.910	-0.083	0.170
-318.026	-183.861	-0.263	0.004
-317.012	800.000	0.077	-0.270
-315.997	800.000	0.031	0.127
-314.983	72.447	0.212	-0.221
-313.968	104.257	0.090	0.106
-312.953	75.024	-0.298	0.314
-311.939	283.576	-0.179	-0.323
-310.924	614.577	-0.053	-0.132
-309.910	8.511	-0.044	-0.033
-308.895	-112.517	-0.208	0.042
-307.880	94.284	0.222	0.252
-306.866	7.622	0.110	0.083
-305.851	-147.217	-0.284	-0.024
-304.837	50.124	-0.243	0.229
-303.822	189.698	0.018	0.026
-302.807	-91.714	-0.069	0.020
-301.793	-200.000	-0.011	-0.270
-300.778	581.989	-0.106	-0.260
-299.764	-69.859	0.158	-0.060
-298.749	129.201	-0.208	-0.265
-297.735	-200.000	0.007	-0.039
-296.720	28.201	0.204	0.172
-295.705	58.437	0.158	0.155
-294.691	45.649	0.318	-0.294
-293.676	-200.000	-0.081	0.515
-292.662	-142.427	0.240	0.024
-291.647	108.001	0.221	-0.264
-290.632	-120.665	-0.053	0.009
-289.618	-200.000	-0.029	0.132
-288.603	175.385	0.232	0.337
-287.589	-200.000	-0.011	0.449
-286.574	207.168	0.118	-0.185
-285.559	-95.041	-0.213	-0.058
-284.545	319.767	0.072	0.136
-283.530	71.524	0.191	0.198
-282.516	380.905	0.100	-0.205
-281.501	72.472	0.103	-0.108
-280.486	-145.996	-0.458	-0.041
-279.472	-200.000	0.052	-0.300
-278.457	-200.000	-0.201	-0.001
-277.443	95.224	-0.093	-0.106
-276.428	-200.000	0.068	-0.321
-275.413	333.744	-0.031	-0.060
-274.399	277.766	0.194	0.346
-273.384	800.000	0.209	0.737
-272.370	-23.867	0.194	-0.116
-271.355	16.519	0.316	-0.250
-270.340	713.362	-0.068	0.179
-269.326	58.816	0.196	-0.193
-268.311	528.547	0.112	-0.264
-267.297	800.000	0.016	-0.046
-266.282	239.537	0.227	-0.378
-265.267	174.603	-0.180	0.261
-264.253	34.796	0.199	0.174
-263.238	-67.854	0.133	-0.052
-262.224	-96.604	-0.175	-0.046
-261.209	385.323	-0.150	-0.310
-260.195	122.920	0.088	-0.111
-259.180	639.701	-0.132	-0.335
-258.165	-36.150	-0.172	0.093
-257.151	800.000	0.030	-0.112
-256.136	277.917	-0.027	0.047
-255.122	90.217	0.095	-0.106
-254.107	-112.209	-0.069	0.014
-253.092	-200.000	-0.045	0.525
-252.078	-66.277	0.183	0.073
-251.063	420.043	-0.078	0.167
-250.049	-113.999	0.187	-0.036
-249.034	-200.000	0.024	-0.164
-248.019	217.215	0.089	-0.141
-247.005	800.000	0.093	0.316
-245.990	-105.112	0.264	0.060
-244.976	-200.000	0.036	-0.198
-243.961	800.000	-0.026	0.082
-242.946	-200.000	-0.028	0.321
-241.932	800.000	0.154	0.460
-240.917	-69.310	0.373	0.143
-239.903	-102.942	-0.146	0.035
-238.888	-108.858	0.143	0.030
-237.873	113.669	-0.275	0.333
-236.859	-32.135	-0.083	0.046
-235.844	-200.000	0.018	-0.146
-234.830	196.794	0.183	-0.278
-233.815	-111.897	-0.236	0.048
-232.800	153.785	0.154	-0.211
-231.786	-200.000	0.042	0.302
-230.771	-23.519	-0.091	-0.055
-229.757	21.646	-0.142	-0.115
-228.742	-89.464	-0.236	-0.069
-227.727	-200.000	0.058	-0.353
-226.713	-200.000	0.001	-0.056
-225.698	230.709	-0.039	-0.064
-224.684	-160.215	-0.113	0.006
-223.669	61.789	0.118	0.117
-222.655	-26.046	-0.299	-0.175
-221.640	-120.855	0.255	-0.043
-220.625	574.199	0.022	0.054
-219.611	-200.000	0.013	-0.187
-218.596	10.516	-0.084	0.064
-217.582	270.495	-0.052	-0.091
-216.567	128.860	0.203	0.258
-215.552	43.271	-0.192	0.175
-214.538	9.643	0.272	0.205
-213.523	-200.000	0.005	-0.145
-212.509	115.920	0.051	0.063
-211.494	499.703	-0.095	0.218
-210.479	263.349	-0.262	-0.453
-209.465	-200.000	-0.027	-0.187
-208.450	420.889	0.101	-0.215
-207.436	-163.327	0.146	-0.007
-206.421	100.507	0.122	-0.141
-205.406	390.785	-0.016	0.032
-204.392	47.754	0.072	0.067
-203.377	-200.000	-0.004	-0.284
-202.363	-69.687	0.242	-0.092
-201.348	-200.000	0.052	0.334
-200.333	375.531	-0.102	0.207
-199.319	-200.000	-0.077	-0.405
-198.304	50.881	-0.204	-0.192
-197.290	-200.000	-0.007	-0.232
-196.275	95.327	-0.107	0.121
-195.260	-60.313	0.190	0.081
-194.246	98.291	0.104	-0.119
-193.231	155.504	0.138	-0.189
-192.217	-5.899	0.130	0.088
-191.202	-54.557	0.084	-0.038
-190.187	800.000	-0.068	0.200
-189.173	-105.780	-0.171	0.038
-188.158	-200.000	-0.005	-0.057
-187.144	518.527	-0.121	-0.281
-186.129	800.000	0.128	-0.467
-185.114	-145.370	0.110	0.010
-184.100	-154.426	0.316	-0.021
-183.085	9.442	-0.153	-0.116
-182.071	800.000	0.131	0.401
-181.056	11.786	0.166	0.127
-180.042	87.951	0.050	0.056
-179.027	-56.018	0.261	-0.116
-178.012	334.557	0.063	0.121
-176.998	189.537	0.126	-0.189
-175.983	-150.587	0.285	0.022
-174.969	-52.051	-0.279	-0.129
-173.954	222.599	0.084	-0.135
-172.939	-77.360	-0.264	-0.091
-171.925	-132.366	-0.123	0.016
-170.910	23.791	0.160	0.131
-169.896	-113.172	-0.480	-0.094
-168.881	24.689	-0.120	0.099
-167.866	216.077	-0.119	0.188
-166.852	454.288	-0.035	0.077
-165.837	5.610	-0.100	-0.073
-164.823	-165.212	-0.434	0.019
-163.808	-127.594	0.262	-0.038
-162.793	-44.464	0.139	0.069
-161.779	-15.132	0.176	0.112
-160.764	24.259	0.150	0.124
-159.750	90.071	-0.311	-0.345
-158.735	213.767	-0.180	-0.284
-157.720	232.331	0.134	-0.219
-156.706	296.391	-0.152	0.277
-155.691	178.054	-0.184	0.268
-154.677	-133.973	-0.131	0.016
-153.662	800.000	-0.053	0.182
-152.647	-10.373	-0.092	0.061
-151.633	-27.187	0.110	-0.064
-150.618	40.293	-0.300	-0.268
-149.604	-200.000	0.000	-0.057
-148.589	-188.100	-0.253	-0.003
-147.574	-200.000	0.004	-0.416
-146.560	-200.000	0.031	0.354
-145.545	455.730	0.122	0.269
-144.531	105.193	0.043	0.051
-143.516	-152.174	-0.052	-0.004
-142.502	-200.000	-0.030	-0.169
-141.487	800.000	0.012	0.046
-140.472	530.379	-0.101	-0.238
-139.458	75.492	0.139	0.146
-138.443	-18.835	-0.158	-0.098
-137.429	75.181	-0.264	0.276
-136.414	-137.713	0.193	0.022
-135.399	-99.832	0.097	-0.024
-134.385	237.127	0.156	0.257
-133.370	123.949	-0.071	-0.089
-132.356	800.000	0.016	-0.049
-131.341	-13.002	0.104	-0.067
-130.326	7.198	0.090	-0.067
-129.312	518.398	0.118	-0.274
-128.297	349.923	0.145	-0.284
-127.283	281.636	-0.130	-0.231
-126.268	636.736	0.054	0.136
-125.253	128.664	0.120	0.151
-124.239	81.187	0.107	0.115
-123.224	800.000	-0.070	-0.218
-122.210	-200.000	0.080	0.364
