DTS Sentinel unit serial number:	SN413079Multiplexer serial number:	ORYXHardware model number:	OX4-SRSoftware version number:	ORYX F/W v4.00 Oryx Data Collector v3.7.2.0data status	okinstallation	princeton_trtdifferential loss correction	single-endedforward channel	channel 1reverse channel	N/Adate	2019/09/17time	19:22:35forward acquisition time	60.00reverse acquisition time	0.00gamma	496.2192k internal	0.2304k external	0.2304temperature offset calibration	0.9971default loss term (dB/km)	0.3790temperature slope calibration	1.0000multiplexer offset coefficient	1.0000multiplexer slope coefficient	1.0000fibre end	0.00T internal ref (°C)	37.70T ext. ref 1 (°C)	0.26T ext. ref 2 (°C)	25.89length (m)	temperature (°C)	Stokes	anti-Stokes-747.200	-145.916	-0.318	-0.029
-746.185	-56.287	-0.336	0.152
-745.171	-200.000	0.101	0.506
-744.156	-112.955	-0.302	-0.061
-743.142	-200.000	0.002	-0.080
-742.127	-58.148	0.231	0.103
-741.112	-9.918	-0.256	0.173
-740.098	-200.000	0.039	0.525
-739.083	-83.990	0.295	-0.095
-738.069	-200.000	0.004	0.614
-737.054	800.000	0.018	-0.071
-736.039	196.473	0.116	0.179
-735.025	-132.824	0.256	-0.033
-734.010	-200.000	0.006	-0.496
-732.996	-78.487	-0.249	-0.087
-731.981	-34.517	0.200	-0.112
-730.966	560.943	-0.058	-0.142
-729.952	-38.369	-0.295	0.159
-728.937	-140.023	0.301	0.032
-727.923	-88.022	-0.271	0.083
-726.908	350.222	-0.074	-0.149
-725.894	-142.485	-0.089	0.009
-724.879	-200.000	-0.018	-0.198
-723.864	-65.270	-0.132	-0.054
-722.850	-39.279	0.367	0.196
-721.835	-57.011	-0.163	-0.073
-720.821	630.422	0.111	-0.286
-719.806	77.712	0.095	-0.103
-718.791	-68.411	0.240	0.095
-717.777	-117.331	0.309	-0.057
-716.762	77.115	-0.265	-0.286
-715.748	166.796	0.207	0.299
-714.733	-109.985	0.154	0.033
-713.718	-114.636	-0.243	-0.047
-712.704	-29.799	0.298	0.173
-711.689	355.110	-0.096	-0.194
-710.675	-120.106	-0.367	-0.064
-709.660	-200.000	-0.007	-0.294
-708.645	800.000	-0.050	-0.172
-707.631	-40.592	0.288	0.152
-706.616	517.339	0.081	-0.192
-705.602	234.430	-0.160	-0.268
-704.587	-200.000	0.059	-0.409
-703.572	-24.008	0.090	-0.055
-702.558	111.553	-0.018	-0.022
-701.543	4.927	0.092	-0.069
-700.529	0.212	0.333	-0.241
-699.514	10.685	0.046	-0.036
-698.499	-88.185	-0.299	0.091
-697.485	-200.000	-0.337	-0.000
-696.470	-80.627	0.204	-0.069
-695.456	-31.993	0.047	-0.027
-694.441	17.475	-0.246	-0.198
-693.426	-92.170	-0.335	-0.096
-692.412	-200.000	0.204	0.000
-691.397	-10.739	-0.239	-0.161
-690.383	12.071	-0.156	-0.122
-689.368	-21.952	0.028	-0.017
-688.354	144.601	0.097	0.131
-687.339	-200.000	-0.007	-0.072
-686.324	-200.000	-0.036	-0.361
-685.310	-40.679	0.228	0.120
-684.295	271.135	-0.212	-0.380
-683.281	156.709	0.011	0.016
-682.266	255.642	0.221	-0.385
-681.251	800.000	0.044	0.171
-680.237	800.000	0.060	0.221
-679.222	624.551	0.088	-0.226
-678.208	453.800	-0.110	0.248
-677.193	58.877	0.224	-0.224
-676.178	800.000	0.015	-0.051
-675.164	-200.000	-0.007	-0.041
-674.149	-73.946	-0.176	-0.065
-673.135	561.619	-0.097	0.237
-672.120	50.035	-0.198	-0.190
-671.105	43.329	0.119	0.111
-670.091	-200.000	-0.028	0.381
-669.076	-200.000	0.002	0.173
-668.062	671.534	0.073	-0.193
-667.047	29.796	0.186	-0.161
-666.032	-96.727	0.154	-0.041
-665.018	44.045	-0.291	-0.271
-664.003	153.668	-0.133	-0.185
-662.989	105.225	0.044	0.053
-661.974	61.424	-0.015	0.015
-660.959	-96.671	-0.270	-0.072
-659.945	-91.323	0.351	-0.102
-658.930	-88.539	-0.304	0.092
-657.916	-138.991	-0.245	0.027
-656.901	-162.540	-0.167	-0.008
-655.886	-64.152	-0.110	0.045
-654.872	-142.013	-0.315	-0.032
-653.857	17.870	-0.146	0.118
-652.843	21.985	-0.094	0.078
-651.828	143.466	-0.107	-0.144
-650.814	-200.000	-0.023	-0.116
-649.799	-71.460	-0.064	0.024
-648.784	-200.000	-0.070	-0.416
-647.770	179.178	0.097	-0.144
-646.755	-16.227	0.101	0.065
-645.741	-200.000	0.220	-0.000
-644.726	-200.000	-0.008	-0.294
-643.711	800.000	0.012	0.040
-642.697	-200.000	0.008	-0.236
-641.682	800.000	0.138	-0.388
-640.668	262.056	0.225	-0.395
-639.653	800.000	0.028	-0.091
-638.638	-125.921	-0.245	0.037
-637.624	-88.150	0.242	-0.073
-636.609	-200.000	0.017	0.138
-635.595	-47.528	0.152	-0.075
-634.580	-76.234	-0.146	0.052
-633.565	-137.324	-0.181	0.021
-632.551	-6.360	-0.236	0.163
-631.536	18.198	0.184	0.149
-630.522	70.026	-0.086	0.090
-629.507	-121.010	-0.056	0.010
-628.492	-154.694	-0.135	-0.009
-627.478	-72.530	-0.084	-0.031
-626.463	-200.000	0.023	0.286
-625.449	150.553	-0.192	-0.264
-624.434	-200.000	0.045	0.316
-623.419	-161.881	-0.308	0.016
-622.405	-48.394	-0.247	0.121
-621.390	-138.237	0.204	0.023
-620.376	8.947	0.331	-0.253
-619.361	-127.785	0.139	-0.020
-618.346	133.285	0.176	0.230
-617.332	62.363	-0.052	-0.053
-616.317	189.994	-0.134	-0.204
-615.303	-19.538	0.402	0.252
-614.288	76.406	-0.175	-0.188
-613.273	-53.574	-0.289	-0.134
-612.259	-99.330	0.472	0.121
-611.244	-84.768	-0.304	-0.097
-610.230	-200.000	-0.013	-0.214
-609.215	47.352	-0.084	-0.079
-608.201	-200.000	-0.021	-0.145
-607.186	56.346	0.075	0.074
-606.171	-34.723	0.299	0.166
-605.157	551.247	-0.087	0.212
-604.142	-85.318	0.223	0.070
-603.128	-22.536	-0.170	0.104
-602.113	-101.706	0.252	-0.062
-601.098	-53.622	0.290	0.134
-600.084	-100.794	0.115	0.029
-599.069	-200.000	-0.009	0.461
-598.055	800.000	-0.118	-0.387
-597.040	-19.755	-0.268	-0.168
-596.025	800.000	0.026	0.114
-595.011	259.855	-0.137	0.240
-593.996	-5.773	-0.132	-0.092
-592.982	800.000	-0.020	0.073
-591.967	27.896	-0.141	0.120
-590.952	217.724	0.040	-0.064
-589.938	175.499	-0.039	-0.057
-588.923	-141.419	0.193	0.020
-587.909	-200.000	-0.078	-0.385
-586.894	564.060	0.138	0.339
-585.879	508.467	0.023	-0.055
-584.865	185.052	0.182	0.274
-583.850	108.285	0.019	-0.023
-582.836	-200.000	0.003	-0.177
-581.821	-146.624	-0.325	-0.029
-580.806	87.078	0.072	-0.080
-579.792	409.892	0.200	-0.429
-578.777	800.000	-0.010	-0.034
-577.763	-122.125	-0.145	0.024
-576.748	-200.000	-0.017	0.195
-575.733	437.897	-0.071	0.156
-574.719	-200.000	0.014	0.109
-573.704	27.606	-0.277	0.236
-572.690	-18.449	0.054	0.034
-571.675	152.416	-0.153	0.211
-570.661	-200.000	-0.010	0.270
-569.646	114.592	-0.099	-0.122
-568.631	568.807	0.145	-0.356
-567.617	800.000	0.037	-0.128
-566.602	-30.218	0.228	-0.131
-565.588	-27.793	0.076	-0.045
-564.573	-200.000	0.009	0.152
-563.558	-50.149	0.432	0.207
-562.544	-200.000	0.006	0.211
-561.529	348.297	-0.135	0.270
-560.515	-4.534	-0.303	0.211
-559.500	-141.724	0.179	-0.018
-558.485	209.126	0.204	0.323
-557.471	-41.563	0.097	-0.050
-556.456	416.931	-0.128	-0.276
-555.442	-124.287	0.148	-0.023
-554.427	800.000	-0.045	0.126
-553.412	800.000	0.031	-0.102
-552.398	95.869	0.122	-0.140
-551.383	181.221	-0.011	-0.017
-550.369	366.330	-0.120	0.244
-549.354	21.258	-0.083	0.068
-548.339	120.384	-0.058	0.072
-547.325	-175.069	-0.160	-0.005
-546.310	-94.716	-0.097	-0.027
-545.296	111.920	-0.020	0.024
-544.281	-200.000	0.037	-0.363
-543.266	-200.000	-0.044	0.327
-542.252	-200.000	-0.016	0.236
-541.237	-200.000	0.059	-0.395
-540.223	-200.000	0.048	-0.730
-539.208	156.255	0.098	0.137
-538.193	-184.414	-0.067	0.001
-537.179	52.766	0.114	-0.110
-536.164	-200.000	0.029	-0.144
-535.150	800.000	0.069	0.223
-534.135	-105.361	-0.025	0.006
-533.121	796.897	-0.020	-0.056
-532.106	18.870	0.123	0.099
-531.091	-104.812	-0.339	-0.079
-530.077	227.551	-0.080	-0.132
-529.062	-200.000	-0.013	0.170
-528.048	800.000	0.039	0.120
-527.033	-106.896	0.142	-0.032
-526.018	-200.000	0.007	0.096
-525.004	-139.987	0.093	0.010
-523.989	37.610	0.108	0.097
-522.975	800.000	-0.064	0.201
-521.960	-22.722	0.130	-0.080
-520.945	560.556	0.125	0.306
-519.931	95.214	0.113	0.130
-518.916	233.898	-0.079	0.131
-517.902	104.490	0.173	0.206
-516.887	-200.000	0.000	0.263
-515.872	-123.914	0.129	0.021
-514.858	21.999	0.188	-0.155
-513.843	170.662	-0.112	-0.161
-512.829	36.588	-0.122	-0.108
-511.814	800.000	0.014	0.047
-510.799	102.129	-0.147	-0.173
-509.785	257.289	0.237	0.412
-508.770	-139.445	0.092	0.010
-507.756	222.927	0.095	0.154
-506.741	65.213	-0.133	0.136
-505.726	-140.104	-0.443	-0.047
-504.712	322.801	0.123	-0.237
-503.697	-59.283	-0.145	0.063
-502.683	-110.412	-0.228	-0.048
-501.668	138.270	0.082	0.109
-500.653	164.579	-0.174	-0.247
-499.639	-8.115	0.250	0.170
-498.624	613.090	-0.045	0.114
-497.610	-123.297	-0.271	0.044
-496.595	-129.416	-0.460	-0.064
-495.581	-139.821	-0.380	0.041
-494.566	-200.000	0.001	0.128
-493.551	-32.824	0.338	0.189
-492.537	-200.000	0.057	-0.337
-491.522	358.488	0.050	0.100
-490.508	-83.592	-0.295	0.095
-489.493	-60.009	-0.178	0.077
-488.478	800.000	-0.094	-0.270
-487.464	-124.581	-0.277	0.043
-486.449	-13.932	-0.299	0.195
-485.435	146.665	-0.248	-0.335
-484.420	605.155	0.062	0.155
-483.405	55.583	0.184	-0.180
-482.391	-85.629	-0.152	-0.048
-481.376	200.482	0.144	0.223
-480.362	90.711	-0.241	-0.272
-479.347	141.902	0.138	0.184
-478.332	-78.223	0.131	0.045
-477.318	47.295	0.272	0.255
-476.303	-200.000	-0.009	-0.083
-475.289	-200.000	-0.055	-0.293
-474.274	-158.817	0.220	-0.013
-473.259	-81.730	0.086	0.028
-472.245	374.817	-0.141	-0.289
-471.230	800.000	0.068	-0.297
-470.216	-105.016	-0.213	-0.049
-469.201	-200.000	0.024	0.147
-468.186	663.825	-0.065	0.169
-467.172	38.450	0.068	0.061
-466.157	-33.232	-0.315	0.176
-465.143	-22.019	0.326	-0.199
-464.128	76.669	0.211	0.225
-463.113	-176.479	0.226	-0.006
-462.099	4.929	0.090	0.066
-461.084	795.186	-0.189	-0.525
-460.070	-49.158	0.276	-0.133
-459.055	800.000	-0.065	-0.258
-458.040	187.415	-0.173	0.260
-457.026	-200.000	-0.034	-0.156
-456.011	149.972	0.053	-0.072
-454.997	21.206	0.037	0.030
-453.982	52.578	-0.248	-0.239
-452.968	5.029	-0.328	-0.243
-451.953	119.867	-0.122	-0.153
-450.938	-200.000	0.049	0.235
-449.924	-44.824	-0.108	-0.054
-448.909	-200.000	0.074	0.446
-447.895	8.042	-0.377	-0.285
-446.880	-155.631	-0.187	0.012
-445.865	-14.275	-0.030	0.019
-444.851	216.381	-0.243	-0.389
-443.836	-97.120	0.198	0.052
-442.822	-200.000	0.029	-0.146
-441.807	-98.437	-0.181	0.047
-440.792	-73.135	0.168	-0.062
-439.778	800.000	-0.035	0.147
-438.763	403.761	-0.162	0.343
-437.749	97.035	-0.225	0.259
-436.734	-40.229	-0.250	0.131
-435.719	444.574	0.078	0.173
-434.705	-173.618	0.146	-0.004
-433.690	-9.556	-0.205	-0.138
-432.676	178.958	-0.064	-0.094
-431.661	-200.000	-0.000	0.084
-430.646	-83.722	0.328	0.105
-429.632	-200.000	-0.080	0.383
-428.617	62.115	-0.052	-0.052
-427.603	251.367	-0.014	-0.023
-426.588	-200.000	0.006	-0.033
-425.573	-36.297	0.131	0.071
-424.559	-4.460	0.159	-0.111
-423.544	70.598	0.116	-0.121
-422.530	-28.775	0.216	-0.125
-421.515	-200.000	-0.013	-0.259
-420.500	44.775	-0.199	-0.184
-419.486	-89.683	0.261	0.077
-418.471	339.744	-0.110	-0.215
-417.457	-78.017	-0.027	0.009
-416.442	-10.229	0.157	0.104
-415.428	200.246	-0.123	-0.190
-414.413	177.760	0.069	0.101
-413.398	-94.940	0.209	0.057
-412.384	24.604	-0.148	-0.123
-411.369	-65.504	-0.381	-0.154
-410.355	17.675	0.135	-0.108
-409.340	-200.000	0.016	-0.159
-408.325	-200.000	0.074	0.347
-407.311	-52.623	-0.028	0.013
-406.296	102.721	-0.108	0.127
-405.282	-200.000	0.050	-0.223
-404.267	23.626	-0.227	-0.187
-403.252	344.752	-0.198	-0.390
-402.238	-38.025	0.121	0.065
-401.223	-123.566	-0.028	0.004
-400.209	-31.702	-0.208	0.117
-399.194	800.000	0.107	0.383
-398.179	-200.000	0.280	-0.001
-397.165	580.016	0.034	-0.084
-396.150	249.344	0.148	0.253
-395.136	9.804	0.261	-0.199
-394.121	-17.470	-0.073	-0.046
-393.106	272.917	0.159	0.283
-392.092	-200.000	-0.017	-0.268
-391.077	-88.322	0.215	-0.065
-390.063	-60.510	0.188	0.080
-389.048	601.092	-0.103	0.258
-388.033	-147.060	0.120	-0.010
-387.019	-15.055	-0.048	0.031
-386.004	-200.000	0.026	-0.213
-384.990	-200.000	-0.023	-0.417
-383.975	2.789	-0.144	-0.105
-382.960	-200.000	-0.061	0.325
-381.946	-61.821	0.230	-0.097
-380.931	-69.223	-0.129	-0.050
-379.917	-70.665	-0.214	-0.081
-378.902	-200.000	0.004	-0.044
-377.888	800.000	-0.093	-0.293
-376.873	-60.712	0.436	0.186
-375.858	-200.000	0.051	0.227
-374.844	-100.022	-0.107	0.027
-373.829	7.386	-0.393	-0.295
-372.815	198.517	-0.107	-0.164
-371.800	-63.263	0.221	0.091
-370.785	800.000	0.079	-0.326
-369.771	32.083	-0.134	-0.116
-368.756	800.000	-0.100	-0.362
-367.742	228.389	0.043	0.070
-366.727	-34.028	0.258	0.143
-365.712	800.000	0.097	-0.399
-364.698	-78.493	-0.157	-0.054
-363.683	-85.806	-0.114	-0.036
-362.669	48.552	0.083	-0.078
-361.654	712.165	0.047	0.126
-360.639	-37.418	0.070	0.037
-359.625	-104.775	0.399	0.092
-358.610	-69.495	-0.317	-0.122
-357.596	347.141	0.048	-0.095
-356.581	-59.671	-0.480	-0.206
-355.566	-57.583	-0.062	-0.027
-354.552	645.747	-0.060	0.153
-353.537	-80.673	0.207	0.069
-352.523	194.704	-0.150	0.228
-351.508	-133.123	-0.132	-0.017
-350.493	434.554	0.118	0.256
-349.479	78.985	-0.176	-0.189
-348.464	-103.850	0.296	0.069
-347.450	14.187	0.152	-0.119
-346.435	363.644	0.073	-0.147
-345.420	84.751	-0.044	0.048
-344.406	652.557	0.040	0.102
-343.391	56.332	-0.154	0.150
-342.377	-200.000	-0.038	-0.183
-341.362	479.812	-0.109	0.247
-340.348	800.000	-0.150	-0.470
-339.333	-150.833	-0.120	0.009
-338.318	-200.000	-0.022	-0.143
-337.304	32.469	-0.238	-0.206
-336.289	-200.000	0.038	0.292
-335.275	-134.692	0.203	-0.025
-334.260	51.877	0.156	-0.149
-333.245	-99.384	-0.190	-0.048
-332.231	-123.926	-0.109	-0.017
-331.216	16.677	-0.329	-0.260
-330.202	-37.840	-0.246	-0.131
-329.187	800.000	-0.050	-0.172
-328.172	800.000	-0.045	-0.151
-327.158	186.978	-0.038	0.057
-326.143	-114.360	0.419	-0.081
-325.129	-170.708	0.067	-0.002
-324.114	92.656	0.201	-0.227
-323.099	800.000	0.094	-0.282
-322.085	-35.948	0.140	-0.076
-321.070	-86.227	0.104	0.032
-320.056	80.007	-0.112	0.121
-319.041	-118.483	0.128	0.023
-318.026	581.679	0.106	0.259
-317.012	-124.347	0.078	0.012
-315.997	-200.000	-0.036	-0.167
-314.983	-102.258	-0.278	-0.067
-313.968	795.583	-0.045	-0.124
-312.953	800.000	0.054	0.160
-311.939	103.251	0.124	0.145
-310.924	-176.234	-0.042	0.001
-309.910	-200.000	-0.041	0.357
-308.895	-26.081	0.050	0.029
-307.880	-60.541	0.182	-0.078
-306.866	46.133	-0.250	0.232
-305.851	-112.324	0.158	0.032
-304.837	-130.066	0.409	0.056
-303.822	145.378	0.138	-0.185
-302.807	800.000	-0.094	0.316
-301.793	-200.000	-0.061	0.414
-300.778	-183.712	0.083	-0.001
-299.764	800.000	0.096	0.330
-298.749	131.644	0.020	0.025
-297.735	-41.950	0.075	-0.038
-296.720	428.455	-0.042	-0.091
-295.705	396.827	0.058	-0.122
-294.691	-31.192	0.260	0.147
-293.676	342.139	0.104	0.204
-292.662	28.233	-0.111	0.094
-291.647	230.183	-0.047	0.077
-290.632	163.583	-0.182	0.257
-289.618	-200.000	0.005	0.144
-288.603	358.893	-0.166	0.332
-287.589	-200.000	0.030	-0.178
-286.574	-33.241	0.285	-0.158
-285.559	-58.886	0.158	-0.068
-284.545	-86.723	0.211	-0.065
-283.530	-28.579	0.044	0.025
-282.516	203.000	0.141	0.217
-281.501	800.000	0.181	0.581
-280.486	388.207	0.127	-0.262
-279.472	-200.000	-0.067	-0.399
-278.457	-119.393	0.182	-0.032
-277.443	390.215	0.112	-0.233
-276.428	110.902	-0.148	0.178
-275.413	18.802	0.172	0.138
-274.399	800.000	0.054	0.233
-273.384	247.462	0.146	0.246
-272.370	64.057	0.055	0.055
-271.355	-85.456	0.090	0.028
-270.340	226.429	-0.038	0.062
-269.326	800.000	-0.051	0.171
-268.311	166.355	0.092	0.130
-267.297	522.046	-0.135	0.317
-266.282	-73.399	-0.051	0.019
-265.267	-200.000	-0.018	0.150
-264.253	-116.184	0.237	-0.044
-263.238	50.061	0.079	0.074
-262.224	-55.014	-0.146	-0.066
-261.209	-200.000	-0.016	-0.122
-260.195	101.021	-0.071	0.083
-259.180	-200.000	0.020	0.308
-258.165	727.312	-0.023	-0.062
-257.151	74.552	-0.146	-0.153
-256.136	-173.811	-0.122	0.004
-255.122	-133.050	-0.093	-0.012
-254.107	572.633	-0.096	-0.234
-253.092	-33.750	0.236	0.130
-252.078	318.575	0.263	0.497
-251.063	800.000	-0.036	-0.119
-250.049	-41.253	0.127	0.065
-249.034	109.893	0.062	-0.074
-248.019	-159.813	-0.129	-0.007
-247.005	31.480	0.212	0.182
-245.990	197.832	0.116	-0.177
-244.976	-117.806	0.123	0.022
-243.961	53.222	-0.133	-0.127
-242.946	-200.000	-0.008	0.221
-241.932	76.135	-0.297	-0.314
-240.917	190.389	-0.193	-0.289
-239.903	-200.000	-0.009	-0.173
-238.888	-46.566	-0.122	-0.060
-237.873	190.699	-0.043	0.065
-236.859	-118.172	0.218	0.039
-235.844	-96.691	0.147	0.039
-234.830	-38.932	0.149	0.078
-233.815	-129.360	0.611	0.085
-232.800	260.610	0.089	-0.153
-231.786	-89.611	-0.477	-0.140
-230.771	18.153	-0.129	0.103
-229.757	-200.000	0.014	0.276
-228.742	-200.000	-0.029	-0.271
-227.727	200.361	-0.021	-0.033
-226.713	800.000	0.082	-0.248
-225.698	-200.000	-0.010	0.093
-224.684	-54.204	-0.299	0.136
-223.669	-200.000	0.040	0.186
-222.655	-200.000	-0.024	0.289
-221.640	-12.550	0.214	0.139
-220.625	800.000	-0.075	0.280
-219.611	800.000	-0.044	0.158
-218.596	231.491	0.067	0.109
-217.582	-1.697	0.113	0.079
-216.567	110.903	0.194	-0.233
-215.552	-126.886	0.139	-0.020
-214.538	-13.501	0.102	0.066
-213.523	15.749	0.202	-0.158
-212.509	640.050	-0.068	0.174
-211.494	-200.000	0.033	-0.288
-210.479	-106.589	-0.331	-0.073
-209.465	-132.114	-0.263	-0.034
-208.450	723.583	0.088	0.233
-207.436	-27.230	0.005	0.003
-206.421	-86.425	-0.141	0.043
-205.406	77.533	-0.134	-0.142
-204.392	-200.000	-0.001	-0.083
-203.377	120.665	0.151	0.187
-202.363	20.512	-0.155	0.125
-201.348	56.227	-0.386	-0.374
-200.333	-118.132	0.282	-0.050
-199.319	-133.649	0.164	0.020
-198.304	376.124	0.063	-0.129
-197.290	-169.756	0.485	-0.017
-196.275	-161.510	-0.157	-0.008
-195.260	-7.602	-0.115	-0.078
-194.246	-36.482	-0.297	-0.159
-193.231	-200.000	0.012	-0.057
-192.217	-58.953	-0.178	0.077
-191.202	-29.346	-0.225	0.128
-190.187	-200.000	0.024	-0.165
-189.173	-19.212	0.279	0.173
-188.158	15.847	-0.065	-0.051
-187.144	132.027	0.014	0.018
-186.129	-108.936	0.182	0.039
-185.114	-61.314	-0.225	-0.094
-184.100	27.541	0.151	0.126
-183.085	800.000	0.028	0.118
-182.071	-45.625	0.307	0.151
-181.056	-200.000	0.020	-0.095
-180.042	-102.210	0.227	-0.054
-179.027	-42.497	-0.084	-0.043
-178.012	431.285	-0.141	-0.305
-176.998	24.422	-0.119	-0.098
-175.983	696.133	-0.090	0.236
-174.969	-161.290	-0.321	-0.017
-173.954	-139.761	0.134	0.014
-172.939	-200.000	0.019	0.387
-171.925	79.406	0.208	0.222
-170.910	97.195	0.060	0.069
-169.896	463.472	-0.079	0.177
-168.881	-162.406	-0.173	-0.009
-167.866	-48.324	0.256	0.123
-166.852	-160.703	-0.148	-0.008
-165.837	-31.647	0.173	0.097
-164.823	-57.415	-0.451	-0.197
-163.808	-33.595	0.152	-0.084
-162.793	103.630	-0.292	0.341
-161.779	-200.000	-0.062	-0.299
-160.764	-200.000	-0.029	-0.325
-159.750	-23.539	-0.204	-0.122
-158.735	737.965	0.112	-0.298
-157.720	-149.700	0.185	-0.014
-156.706	-24.946	-0.381	-0.225
-155.691	315.687	-0.088	0.166
-154.677	-19.083	-0.182	-0.113
-153.662	694.777	0.040	-0.104
-152.647	460.957	-0.114	-0.252
-151.633	-200.000	-0.000	0.205
-150.618	-200.000	-0.023	-0.128
-149.604	-80.338	0.207	-0.069
-148.589	-200.000	0.054	-0.357
-147.574	338.473	0.071	-0.138
-146.560	8.814	-0.074	-0.055
-145.545	800.000	0.031	-0.086
-144.531	-200.000	-0.036	-0.181
-143.516	25.064	0.305	-0.251
-142.502	-73.906	0.037	0.013
-141.487	-52.759	-0.162	0.074
-140.472	99.681	0.129	0.148
-139.458	117.422	0.044	0.054
-138.443	194.880	-0.046	-0.069
-137.429	-200.000	0.001	0.235
-136.414	800.000	-0.047	-0.191
-135.399	800.000	-0.043	-0.162
-134.385	265.453	-0.069	-0.119
-133.370	-84.005	-0.251	-0.079
-132.356	-200.000	0.022	-0.130
-131.341	351.780	-0.044	0.086
-130.326	109.545	-0.176	0.209
-129.312	-1.318	0.021	0.015
-128.297	-10.728	0.203	0.134
-127.283	-82.794	-0.278	-0.089
-126.268	44.657	-0.206	-0.189
-125.253	54.328	-0.255	0.244
-124.239	-118.243	-0.169	-0.030
-123.224	-200.000	0.010	0.126
-122.210	-200.000	-0.006	-0.065
