DTS Sentinel unit serial number:	SN413079Multiplexer serial number:	ORYXHardware model number:	OX4-SRSoftware version number:	ORYX F/W v4.00 Oryx Data Collector v3.7.2.0data status	okinstallation	princeton_trtdifferential loss correction	single-endedforward channel	channel 1reverse channel	N/Adate	2019/09/16time	11:58:35forward acquisition time	60.00reverse acquisition time	0.00gamma	496.2192k internal	0.2297k external	0.2297temperature offset calibration	0.9961default loss term (dB/km)	0.3790temperature slope calibration	1.0000multiplexer offset coefficient	1.0000multiplexer slope coefficient	1.0000fibre end	0.00T internal ref (°C)	38.62T ext. ref 1 (°C)	13.14T ext. ref 2 (°C)	35.82length (m)	temperature (°C)	Stokes	anti-Stokes-747.200	6.961	0.172	-0.131
-746.185	-47.214	-0.246	-0.122
-745.171	-200.000	-0.055	0.353
-744.156	-69.952	0.175	0.068
-743.142	-200.000	-0.013	0.274
-742.127	-18.161	0.162	0.104
-741.112	-7.500	0.086	-0.060
-740.098	72.778	-0.230	-0.246
-739.083	152.644	0.097	-0.136
-738.069	452.285	-0.092	0.208
-737.054	-200.000	0.038	-0.432
-736.039	-41.165	-0.256	-0.135
-735.025	-134.426	0.219	-0.027
-734.010	330.952	-0.174	-0.343
-732.996	517.372	-0.101	-0.240
-731.981	115.771	0.107	0.134
-730.966	800.000	-0.068	0.261
-729.952	-20.557	0.060	0.038
-728.937	-123.213	-0.319	-0.052
-727.923	127.884	0.024	-0.031
-726.908	101.634	-0.210	0.250
-725.894	94.094	-0.150	-0.174
-724.879	-200.000	-0.018	0.109
-723.864	-128.494	-0.293	0.042
-722.850	245.977	0.084	0.145
-721.835	51.063	0.122	0.118
-720.821	22.483	-0.258	0.215
-719.806	156.435	-0.165	-0.233
-718.791	-200.000	-0.030	-0.158
-717.777	800.000	0.058	-0.229
-716.762	-110.563	-0.260	0.055
-715.748	7.983	-0.119	-0.091
-714.733	256.765	0.082	-0.144
-713.718	321.209	-0.050	-0.096
-712.704	-79.098	-0.124	-0.043
-711.689	21.077	-0.071	-0.059
-710.675	106.983	0.034	-0.041
-709.660	-33.246	0.192	0.108
-708.645	110.005	0.179	-0.219
-707.631	673.401	0.060	-0.160
-706.616	-122.499	0.090	0.015
-705.602	663.487	0.084	-0.220
-704.587	-43.334	0.336	-0.173
-703.572	800.000	-0.147	-0.416
-702.558	-200.000	-0.024	-0.225
-701.543	87.995	0.147	0.166
-700.529	800.000	-0.119	-0.396
-699.514	-73.370	0.098	-0.037
-698.499	-125.424	-0.178	0.028
-697.485	-200.000	0.049	-0.354
-696.470	800.000	-0.053	-0.204
-695.456	-200.000	0.075	0.348
-694.441	163.426	-0.191	0.274
-693.426	-200.000	0.009	0.068
-692.412	800.000	-0.073	-0.218
-691.397	-200.000	0.011	0.083
-690.383	-100.853	0.177	0.044
-689.368	-144.787	0.089	0.008
-688.354	302.139	-0.067	-0.126
-687.339	259.545	-0.053	-0.093
-686.324	-31.271	-0.202	-0.116
-685.310	8.668	0.155	0.119
-684.295	183.596	-0.071	0.106
-683.281	37.648	-0.035	-0.032
-682.266	219.147	0.029	0.047
-681.251	94.662	-0.175	-0.203
-680.237	-139.922	-0.227	-0.024
-679.222	173.442	-0.260	-0.381
-678.208	60.461	0.038	0.038
-677.193	149.531	-0.069	-0.095
-676.178	-56.351	0.105	0.048
-675.164	-82.054	0.117	0.039
-674.149	800.000	-0.055	-0.217
-673.135	-200.000	0.065	-0.453
-672.120	66.841	0.292	-0.302
-671.105	800.000	0.093	0.315
-670.091	-3.602	-0.278	-0.197
-669.076	-200.000	0.051	-0.357
-668.062	-96.376	0.067	0.018
-667.047	-162.481	-0.436	0.022
-666.032	90.983	0.019	0.022
-665.018	-35.861	-0.132	0.073
-664.003	-75.999	-0.284	-0.102
-662.989	-18.656	0.165	0.105
-661.974	170.787	-0.085	-0.124
-660.959	-128.429	0.432	-0.063
-659.945	-155.567	-0.171	-0.011
-658.930	-63.085	-0.130	-0.055
-657.916	-200.000	0.070	-0.368
-656.901	275.448	-0.131	0.237
-655.886	-96.747	-0.058	0.016
-654.872	224.895	0.055	0.091
-653.857	-105.264	0.505	0.117
-652.843	-182.728	0.194	-0.004
-651.828	-86.954	0.198	0.062
-650.814	-104.521	-0.160	0.038
-649.799	124.512	-0.105	-0.134
-648.784	-64.020	-0.031	0.013
-647.770	386.167	0.151	0.317
-646.755	800.000	0.069	-0.228
-645.741	212.360	0.090	-0.144
-644.726	-8.175	0.130	0.089
-643.711	100.096	0.141	-0.166
-642.697	558.157	0.053	0.131
-641.682	-177.370	0.134	-0.003
-640.668	-98.184	-0.113	-0.030
-639.653	-106.742	-0.184	0.042
-638.638	-200.000	0.017	0.147
-637.624	800.000	-0.017	-0.069
-636.609	-65.181	0.154	-0.063
-635.595	739.596	0.057	0.155
-634.580	-200.000	-0.043	0.275
-633.565	-200.000	0.014	0.084
-632.551	-60.957	0.117	0.050
-631.536	-156.687	0.187	0.012
-630.522	-13.652	0.280	-0.185
-629.507	-56.492	0.126	-0.057
-628.492	423.384	0.095	0.207
-627.478	800.000	-0.010	0.035
-626.463	-77.633	0.138	0.049
-625.449	-34.802	0.169	-0.094
-624.434	-81.091	-0.168	0.056
-623.419	243.324	-0.183	0.313
-622.405	800.000	0.098	0.309
-621.390	800.000	0.147	0.427
-620.376	800.000	-0.057	0.166
-619.361	-121.652	-0.191	-0.032
-618.346	5.022	0.169	0.126
-617.332	546.558	0.016	0.039
-616.317	-167.169	0.216	0.009
-615.303	-39.256	0.317	0.169
-614.288	-200.000	-0.015	0.251
-613.273	-77.490	0.139	0.049
-612.259	206.289	0.152	-0.241
-611.244	112.941	-0.147	-0.181
-610.230	119.289	0.194	-0.244
-609.215	-15.562	-0.114	-0.074
-608.201	213.494	-0.143	-0.229
-607.186	308.146	0.143	-0.272
-606.171	-200.000	-0.031	-0.157
-605.157	-39.888	0.013	-0.007
-604.142	-200.000	0.006	-0.083
-603.128	-10.957	0.345	0.232
-602.113	800.000	0.092	0.326
-601.098	-29.370	-0.151	-0.088
-600.084	-51.169	-0.132	0.063
-599.069	147.789	-0.117	-0.161
-598.055	120.682	-0.083	-0.105
-597.040	500.243	-0.071	-0.166
-596.025	285.712	-0.130	-0.238
-595.011	171.820	-0.253	0.370
-593.996	-200.000	-0.013	0.090
-592.982	-8.994	0.182	-0.124
-591.967	-17.797	0.201	-0.128
-590.952	-11.698	-0.162	-0.108
-589.938	-65.849	0.150	-0.061
-588.923	800.000	0.058	0.226
-587.909	800.000	0.065	0.235
-586.894	-200.000	-0.009	-0.067
-585.879	8.336	-0.390	-0.297
-584.865	-37.605	-0.209	-0.113
-583.850	-200.000	0.028	0.190
-582.836	177.324	-0.288	-0.426
-581.821	-61.055	0.174	-0.074
-580.806	725.927	-0.053	-0.143
-579.792	-200.000	0.007	-0.258
-578.777	-28.320	0.223	-0.131
-577.763	-131.654	0.122	-0.016
-576.748	-96.809	0.211	-0.056
-575.733	-200.000	0.014	0.470
-574.719	-88.601	-0.263	-0.080
-573.704	800.000	-0.013	0.036
-572.690	253.346	-0.199	0.344
-571.675	763.847	-0.146	-0.403
-570.661	-119.707	-0.090	-0.016
-569.646	-116.038	0.329	0.062
-568.631	42.735	-0.260	-0.240
-567.617	800.000	-0.070	-0.280
-566.602	680.837	-0.105	-0.278
-565.588	-52.422	-0.217	0.102
-564.573	-151.457	0.259	0.020
-563.558	800.000	-0.053	0.152
-562.544	173.697	0.279	-0.408
-561.529	-21.816	-0.054	-0.033
-560.515	230.666	-0.132	-0.219
-559.500	422.648	-0.207	-0.450
-558.485	-69.952	-0.280	-0.108
-557.471	20.600	-0.311	-0.255
-556.456	-71.344	-0.219	-0.083
-555.442	-190.502	-0.367	-0.004
-554.427	-123.383	-0.098	0.016
-553.412	604.052	-0.130	-0.327
-552.398	-73.733	-0.102	0.038
-551.383	800.000	0.030	0.104
-550.369	492.084	0.067	0.156
-549.354	-117.519	-0.117	0.021
-548.339	-124.193	-0.241	-0.038
-547.325	-44.146	0.149	0.076
-546.310	-21.958	-0.389	-0.240
-545.296	169.173	0.179	-0.259
-544.281	51.340	0.098	0.094
-543.266	-200.000	0.013	0.270
-542.252	-66.245	-0.393	0.159
-541.237	-200.000	-0.103	0.481
-540.223	-98.402	-0.128	-0.033
-539.208	-65.802	0.462	0.187
-538.193	466.640	-0.151	-0.342
-537.179	-168.028	-0.251	0.010
-536.164	750.462	0.069	0.189
-535.150	-200.000	0.008	0.069
-534.135	-12.607	-0.193	0.127
-533.121	76.636	0.121	-0.130
-532.106	-104.361	0.174	0.041
-531.091	-48.473	0.156	-0.076
-530.077	594.564	0.013	0.033
-529.062	679.654	-0.061	0.160
-528.048	-51.188	0.147	0.070
-527.033	-200.000	-0.004	0.052
-526.018	-200.000	0.022	0.301
-525.004	800.000	-0.036	-0.154
-523.989	-200.000	-0.006	-0.087
-522.975	137.097	0.123	-0.163
-521.960	-49.425	0.248	0.120
-520.945	800.000	0.035	0.101
-519.931	182.051	0.251	-0.375
-518.916	166.759	-0.227	0.326
-517.902	274.251	-0.103	-0.184
-516.887	205.864	0.175	0.275
-515.872	-200.000	-0.081	0.377
-514.858	-22.390	-0.147	0.090
-513.843	36.810	0.204	0.183
-512.829	301.775	0.184	0.344
-511.814	-67.657	-0.195	-0.077
-510.799	-189.546	0.201	0.002
-509.785	-5.911	-0.154	-0.106
-508.770	-11.092	-0.081	0.054
-507.756	800.000	0.017	-0.062
-506.741	-89.111	0.362	-0.108
-505.726	-200.000	-0.198	-0.001
-504.712	800.000	0.022	0.067
-503.697	682.838	-0.114	-0.302
-502.683	-11.393	-0.040	0.027
-501.668	-137.819	-0.427	-0.048
-500.653	800.000	-0.009	-0.029
-499.639	-200.000	-0.055	0.304
-498.624	24.160	-0.296	-0.247
-497.610	15.032	0.123	-0.098
-496.595	-143.124	-0.178	-0.017
-495.581	-94.150	0.103	0.029
-494.566	-48.118	-0.070	0.034
-493.551	-80.648	0.088	-0.030
-492.537	-112.865	0.335	-0.067
-491.522	138.249	0.200	-0.265
-490.508	-41.920	-0.235	-0.122
-489.493	95.344	-0.128	-0.148
-488.478	78.251	-0.215	0.233
-487.464	67.138	0.152	-0.157
-486.449	739.629	0.086	0.233
-485.435	-78.254	-0.274	-0.095
-484.420	-107.030	0.459	-0.103
-483.405	-59.137	-0.314	0.137
-482.391	141.130	0.183	0.245
-481.376	-200.000	0.044	-0.289
-480.362	15.793	0.224	-0.178
-479.347	-200.000	0.119	0.000
-478.332	225.793	-0.139	0.227
-477.318	-163.376	0.161	0.008
-476.303	3.473	0.229	-0.168
-475.289	800.000	-0.149	-0.425
-474.274	73.553	-0.111	-0.117
-473.259	800.000	-0.049	0.187
-472.245	117.683	0.205	-0.255
-471.230	-103.837	0.093	-0.022
-470.216	189.549	0.110	-0.166
-469.201	-58.071	-0.398	-0.175
-468.186	-146.798	0.336	-0.029
-467.172	-200.000	0.021	-0.191
-466.157	-47.575	0.060	0.030
-465.143	-200.000	-0.063	0.347
-464.128	-157.091	-0.258	0.016
-463.113	-200.000	0.171	-0.000
-462.099	-124.301	0.557	-0.088
-461.084	40.058	0.125	0.114
-460.070	-94.639	0.110	0.030
-459.055	800.000	0.023	-0.098
-458.040	-26.528	0.225	-0.133
-457.026	-157.384	-0.248	-0.015
-456.011	-200.000	-0.037	0.521
-454.997	-98.363	-0.332	0.086
-453.982	-200.000	0.007	-0.199
-452.968	-36.882	-0.176	0.095
-451.953	-108.010	-0.083	-0.018
-450.938	-70.200	-0.294	-0.113
-449.924	111.756	0.146	0.177
-448.909	-20.907	-0.206	0.127
-447.895	365.672	0.140	-0.284
-446.880	-200.000	-0.005	-0.247
-445.865	181.340	0.033	-0.049
-444.851	118.866	-0.053	0.066
-443.836	800.000	0.104	-0.321
-442.822	12.503	0.157	0.123
-441.807	51.768	0.193	0.185
-440.792	800.000	-0.041	-0.120
-439.778	-69.575	-0.257	-0.099
-438.763	169.614	0.093	0.134
-437.749	-18.837	-0.082	0.052
-436.734	-108.729	-0.293	0.063
-435.719	-166.400	-0.452	0.019
-434.705	-103.950	0.183	-0.043
-433.690	-110.890	0.159	0.033
-432.676	-45.927	0.188	0.094
-431.661	13.583	0.214	0.167
-430.646	224.572	0.107	-0.175
-429.632	188.149	-0.134	0.203
-428.617	75.451	-0.173	0.184
-427.603	-200.000	-0.024	0.113
-426.588	800.000	0.071	0.235
-425.573	22.945	-0.090	-0.074
-424.559	-75.586	-0.198	-0.071
-423.544	-15.731	-0.341	-0.219
-422.530	-133.660	0.326	0.041
-421.515	129.268	-0.508	0.654
-420.500	-177.563	0.342	-0.008
-419.486	-151.460	0.044	-0.003
-418.471	-144.108	-0.446	0.042
-417.457	-125.088	0.250	-0.039
-416.442	-200.000	-0.035	-0.282
-415.428	-200.000	0.003	-0.286
-414.413	90.752	-0.394	-0.446
-413.398	-136.234	-0.141	0.017
-412.384	729.547	0.063	-0.169
-411.369	-26.279	0.331	-0.196
-410.355	-200.000	0.041	-0.217
-409.340	521.580	-0.116	-0.275
-408.325	98.303	0.092	0.107
-407.311	-59.227	-0.267	-0.116
-406.296	465.256	-0.034	-0.077
-405.282	111.344	-0.146	0.177
-404.267	263.081	0.185	-0.324
-403.252	546.634	-0.141	-0.341
-402.238	800.000	-0.048	-0.135
-401.223	800.000	-0.143	-0.471
-400.209	-24.576	0.046	-0.028
-399.194	-49.579	-0.117	0.056
-398.179	790.446	-0.125	0.347
-397.165	-159.462	-0.146	-0.008
-396.150	-59.040	0.466	0.203
-395.136	-200.000	-0.054	0.244
-394.121	800.000	0.074	-0.207
-393.106	-200.000	-0.008	0.173
-392.092	227.306	-0.135	0.221
-391.077	32.187	0.191	0.166
-390.063	-121.640	-0.222	-0.037
-389.048	-200.000	-0.030	0.214
-388.033	-13.691	0.273	-0.178
-387.019	286.687	-0.218	-0.397
-386.004	134.216	-0.228	0.298
-384.990	9.073	-0.034	-0.026
-383.975	-102.242	0.151	0.037
-382.960	-56.845	0.245	-0.109
-381.946	-35.635	0.075	0.041
-380.931	-200.000	-0.027	0.342
-379.917	220.216	-0.061	0.098
-378.902	-200.000	-0.025	-0.142
-377.888	17.694	-0.439	-0.352
-376.873	396.945	0.107	-0.224
-375.858	-80.875	0.142	0.048
-374.844	-105.741	-0.096	0.022
-373.829	-65.909	0.304	0.122
-372.815	-200.000	0.034	-0.390
-371.800	47.921	0.141	0.133
-370.785	-200.000	-0.007	-0.135
-369.771	-27.353	0.480	0.281
-368.756	-92.152	-0.067	-0.019
-367.742	194.506	0.225	0.343
-366.727	-200.000	-0.092	0.557
-365.712	68.011	0.137	-0.142
-364.698	-101.784	-0.271	-0.066
-363.683	480.711	-0.029	0.067
-362.669	800.000	0.099	-0.423
-361.654	-200.000	-0.009	0.119
-360.639	-129.062	0.183	-0.026
-359.625	316.466	-0.048	-0.091
-358.610	-164.330	0.235	-0.011
-357.596	28.728	-0.179	0.152
-356.581	800.000	-0.083	-0.288
-355.566	153.652	-0.065	-0.089
-354.552	-26.368	0.131	-0.077
-353.537	-200.000	0.011	0.455
-352.523	800.000	-0.035	-0.142
-351.508	800.000	-0.083	0.310
-350.493	147.674	-0.054	0.074
-349.479	-200.000	-0.022	0.384
-348.464	233.041	-0.199	0.328
-347.450	-139.306	0.293	0.032
-346.435	750.667	-0.070	0.190
-345.420	31.407	0.270	-0.233
-344.406	237.216	0.088	-0.147
-343.391	-61.654	0.118	0.050
-342.377	-52.945	-0.434	0.201
-341.362	-56.812	0.152	-0.068
-340.348	64.610	-0.219	0.222
-339.333	240.579	-0.093	0.157
-338.318	-200.000	0.023	0.131
-337.304	642.704	0.090	-0.231
-336.289	169.955	-0.021	-0.030
-335.275	173.581	0.166	0.240
-334.260	-29.782	-0.206	0.118
-333.245	-115.159	0.026	0.005
-332.231	208.309	0.093	-0.146
-331.216	-17.707	-0.096	-0.061
-330.202	-54.932	0.449	0.204
-329.187	-200.000	-0.046	0.250
-328.172	-200.000	-0.016	0.355
-327.158	-136.216	0.126	-0.015
-326.143	-173.243	0.291	-0.009
-325.129	199.422	0.170	-0.262
-324.114	-64.508	0.160	0.065
-323.099	-6.763	-0.190	-0.130
-322.085	-99.123	-0.224	-0.057
-321.070	37.853	-0.055	0.049
-320.056	-200.000	-0.045	-0.263
-319.041	-200.000	-0.025	-0.130
-318.026	159.842	0.114	0.160
-317.012	-200.000	-0.044	0.241
-315.997	-148.807	0.255	0.021
-314.983	494.822	0.053	-0.123
-313.968	-152.182	-0.315	-0.023
-312.953	-200.000	0.004	0.379
-311.939	372.762	-0.137	-0.280
-310.924	-58.265	0.122	0.053
-309.910	735.630	0.081	0.217
-308.895	-200.000	-0.013	0.102
-307.880	96.332	-0.146	0.168
-306.866	-200.000	0.010	0.058
-305.851	-17.228	0.119	0.075
-304.837	-200.000	-0.033	-0.243
-303.822	58.275	0.257	-0.253
-302.807	165.480	-0.047	0.066
-301.793	110.140	-0.130	0.156
-300.778	361.847	-0.089	-0.179
-299.764	39.786	0.035	-0.031
-298.749	-117.915	0.324	0.058
-297.735	210.029	0.108	0.170
-296.720	97.538	0.156	0.180
-295.705	100.582	-0.223	0.261
-294.691	47.616	-0.073	0.069
-293.676	-46.314	0.223	-0.110
-292.662	-37.797	0.019	0.010
-291.647	412.546	0.106	-0.226
-290.632	-200.000	0.016	-0.127
-289.618	-38.846	-0.335	0.177
-288.603	95.898	-0.147	0.169
-287.589	204.387	-0.122	0.190
-286.574	800.000	-0.039	-0.113
-285.559	205.693	0.118	-0.183
-284.545	-167.970	-0.039	0.002
-283.530	-200.000	0.015	0.096
-282.516	-53.939	0.235	0.108
-281.501	-200.000	0.023	-0.256
-280.486	-200.000	0.016	0.206
-279.472	-8.232	0.086	0.058
-278.457	499.831	-0.134	-0.310
-277.443	-2.852	0.185	0.130
-276.428	-84.590	0.223	0.070
-275.413	-200.000	0.003	0.095
-274.399	-200.000	-0.007	-0.290
-273.384	800.000	-0.111	0.467
-272.370	-200.000	-0.004	-0.250
-271.355	231.999	-0.109	-0.180
-270.340	-200.000	0.020	-0.121
-269.326	800.000	-0.035	0.100
-268.311	-135.084	-0.109	0.013
-267.297	297.667	0.053	-0.098
-266.282	127.609	0.119	-0.151
-265.267	-115.482	0.171	-0.032
-264.253	-52.752	0.093	0.043
-263.238	14.536	-0.214	-0.167
-262.224	-49.092	-0.136	-0.065
-261.209	18.601	0.110	0.089
-260.195	214.699	-0.256	-0.407
-259.180	358.925	0.020	-0.040
-258.165	-200.000	0.013	0.070
-257.151	-200.000	-0.015	-0.140
-256.136	-10.572	0.052	-0.035
-255.122	-130.535	-0.272	0.037
-254.107	798.011	-0.069	0.190
-253.092	547.183	0.085	-0.203
-252.078	190.169	-0.073	0.110
-251.063	280.678	-0.119	0.213
-250.049	-103.683	0.352	0.083
-249.034	517.249	-0.048	0.112
-248.019	16.139	0.100	0.079
-247.005	-19.155	0.203	-0.126
-245.990	331.948	-0.220	0.425
-244.976	-200.000	-0.007	-0.356
-243.961	-177.966	-0.172	-0.004
-242.946	26.980	0.181	0.152
-241.932	30.141	-0.127	-0.108
-240.917	644.168	-0.026	-0.066
-239.903	474.491	-0.110	-0.248
-238.888	-25.737	-0.225	-0.133
-237.873	-57.387	0.252	0.111
-236.859	-77.707	0.247	-0.085
-235.844	33.322	0.028	-0.024
-234.830	-140.051	-0.127	-0.013
-233.815	13.508	-0.068	0.052
-232.800	-95.046	-0.286	-0.077
-231.786	-14.500	-0.093	0.060
-230.771	-3.407	0.175	-0.122
-229.757	-200.000	-0.023	0.148
-228.742	625.812	0.064	0.161
-227.727	29.286	-0.122	0.104
-226.713	-200.000	0.005	-0.241
-225.698	54.066	-0.155	-0.150
-224.684	800.000	-0.035	-0.153
-223.669	-200.000	-0.036	-0.173
-222.655	-49.252	-0.191	-0.091
-221.640	-74.006	-0.317	0.115
-220.625	-23.258	0.160	0.096
-219.611	160.426	0.168	-0.234
-218.596	-63.531	-0.125	0.051
-217.582	800.000	0.014	0.049
-216.567	-74.626	0.260	0.094
-215.552	12.935	0.256	0.198
-214.538	-110.323	-0.121	-0.025
-213.523	-200.000	-0.057	0.326
-212.509	-62.977	-0.060	-0.025
-211.494	-200.000	0.000	-0.130
-210.479	278.316	-0.141	-0.251
-209.465	48.969	-0.123	0.116
-208.450	306.264	-0.085	0.158
-207.436	-105.699	0.247	-0.056
-206.421	-66.131	0.192	-0.077
-205.406	92.478	0.256	0.289
-204.392	800.000	0.062	-0.240
-203.377	800.000	-0.081	-0.343
-202.363	24.971	-0.114	-0.095
-201.348	-200.000	-0.108	0.556
-200.333	155.072	-0.046	0.064
-199.319	75.971	0.167	-0.176
-198.304	-200.000	-0.071	-0.393
-197.290	-200.000	-0.005	-0.035
-196.275	20.030	0.153	-0.124
-195.260	-77.545	0.176	0.061
-194.246	-31.876	-0.311	-0.174
-193.231	64.837	-0.042	0.043
-192.217	-200.000	0.020	0.199
-191.202	800.000	0.037	-0.119
-190.187	-200.000	0.028	0.122
-189.173	78.829	-0.254	0.271
-188.158	-147.481	-0.202	0.017
-187.144	-37.347	0.189	-0.101
-186.129	-122.854	-0.228	-0.037
-185.114	15.872	-0.163	-0.128
-184.100	-11.406	-0.267	-0.176
-183.085	-44.265	0.176	-0.088
-182.071	-200.000	0.003	-0.131
-181.056	240.345	0.134	-0.223
-180.042	605.584	-0.128	0.320
-179.027	-156.541	0.336	0.021
-178.012	-93.142	-0.200	0.056
-176.998	-160.069	-0.136	-0.007
-175.983	10.468	0.073	0.056
-174.969	-200.000	0.002	0.066
-173.954	539.992	-0.101	0.241
-172.939	10.861	0.229	0.175
-171.925	154.123	0.071	-0.098
-170.910	-90.792	0.106	-0.031
-169.896	789.850	0.033	-0.091
-168.881	-43.419	0.089	0.045
-167.866	-100.169	-0.285	0.071
-166.852	745.620	0.049	-0.133
-165.837	-200.000	-0.062	0.371
-164.823	-75.738	0.338	0.120
-163.808	60.466	0.149	0.147
-162.793	287.688	0.164	0.296
-161.779	383.396	-0.201	0.413
-160.764	442.915	0.097	0.213
-159.750	-143.398	0.212	-0.020
-158.735	-30.701	0.229	0.130
-157.720	-200.000	-0.038	0.286
-156.706	-138.991	-0.308	-0.033
-155.691	277.965	0.218	-0.387
-154.677	105.371	-0.280	-0.330
-153.662	9.440	-0.238	-0.180
-152.647	99.529	0.063	0.072
-151.633	-116.135	0.473	-0.088
-150.618	-44.699	-0.211	0.105
-149.604	-34.505	0.326	-0.178
-148.589	-86.550	-0.123	0.038
-147.574	-54.223	0.226	0.103
-146.560	-143.265	-0.275	-0.026
-145.545	-125.139	-0.128	-0.020
-144.531	-24.424	0.146	0.087
-143.516	214.190	0.194	0.306
-142.502	0.084	0.229	0.163
-141.487	610.669	0.088	0.219
-140.472	-200.000	-0.062	0.423
-139.458	-15.338	-0.150	0.096
-138.443	-99.176	-0.276	0.070
-137.429	198.153	-0.200	-0.306
-136.414	-200.000	-0.068	-0.304
-135.399	11.569	0.206	-0.158
-134.385	-200.000	-0.048	0.322
-133.370	-35.691	-0.101	0.054
-132.356	66.736	-0.136	0.138
-131.341	-200.000	0.006	-0.131
-130.326	800.000	-0.068	-0.212
-129.312	208.736	0.155	-0.241
-128.297	-5.235	0.245	0.168
-127.283	-77.551	-0.376	0.130
-126.268	-113.528	-0.336	-0.066
-125.253	138.460	-0.079	0.104
-124.239	391.361	0.037	-0.076
-123.224	737.606	0.062	-0.165
-122.210	-60.010	0.256	0.109
