DTS Sentinel unit serial number:	SN413079Multiplexer serial number:	ORYXHardware model number:	OX4-SRSoftware version number:	ORYX F/W v4.00 Oryx Data Collector v3.7.2.0data status	okinstallation	princeton_trtdifferential loss correction	single-endedforward channel	channel 1reverse channel	N/Adate	2019/09/13time	14:58:35forward acquisition time	60.00reverse acquisition time	0.00gamma	496.2192k internal	0.2300k external	0.2300temperature offset calibration	1.0165default loss term (dB/km)	0.3790temperature slope calibration	1.0000multiplexer offset coefficient	1.0000multiplexer slope coefficient	1.0000fibre end	0.00T internal ref (°C)	35.62T ext. ref 1 (°C)	4.70T ext. ref 2 (°C)	30.94length (m)	temperature (°C)	Stokes	anti-Stokes-747.200	323.583	0.043	0.085
-746.185	98.357	-0.375	0.441
-745.171	-83.706	-0.168	0.055
-744.156	-8.939	-0.272	0.186
-743.142	-106.830	-0.142	-0.032
-742.127	-91.282	0.167	0.049
-741.112	-141.139	0.182	-0.019
-740.098	-200.000	-0.003	0.287
-739.083	-39.362	-0.164	0.088
-738.069	39.869	-0.209	-0.192
-737.054	-200.000	0.043	0.313
-736.039	-15.233	-0.249	0.163
-735.025	110.277	-0.113	0.138
-734.010	-59.577	-0.217	-0.095
-732.996	-105.388	-0.225	-0.052
-731.981	78.059	-0.188	0.205
-730.966	266.551	0.125	0.223
-729.952	225.873	0.056	0.092
-728.937	-36.712	0.386	-0.211
-727.923	15.285	0.136	-0.109
-726.908	800.000	0.092	0.282
-725.894	-200.000	-0.005	-0.284
-724.879	-200.000	0.008	-0.194
-723.864	45.803	0.139	0.131
-722.850	-200.000	0.006	-0.061
-721.835	-104.346	-0.114	-0.027
-720.821	70.376	0.070	0.074
-719.806	-138.383	-0.187	-0.021
-718.791	-5.655	0.031	-0.022
-717.777	130.366	-0.305	-0.399
-716.762	-93.700	-0.272	0.076
-715.748	-200.000	0.042	-0.233
-714.733	-200.000	0.035	-0.176
-713.718	-60.881	0.135	-0.058
-712.704	-200.000	-0.020	0.273
-711.689	77.028	-0.088	-0.096
-710.675	-51.540	-0.096	0.045
-709.660	-200.000	0.017	-0.223
-708.645	-74.648	-0.167	-0.061
-707.631	800.000	-0.096	-0.385
-706.616	429.477	-0.068	-0.150
-705.602	-156.265	0.130	0.008
-704.587	-91.866	0.137	-0.040
-703.572	552.225	0.085	0.209
-702.558	-78.647	-0.058	-0.020
-701.543	445.965	-0.062	-0.139
-700.529	800.000	-0.060	-0.188
-699.514	-200.000	0.029	-0.167
-698.499	315.346	-0.096	0.184
-697.485	356.416	-0.135	-0.274
-696.470	44.812	-0.255	-0.238
-695.456	169.075	0.093	-0.135
-694.441	92.372	0.189	-0.217
-693.426	230.187	-0.047	-0.079
-692.412	-200.000	0.196	0.000
-691.397	-59.941	0.246	0.107
-690.383	182.312	0.254	-0.381
-689.368	-70.907	-0.275	-0.105
-688.354	-116.991	0.207	-0.039
-687.339	-76.086	0.133	0.048
-686.324	81.985	-0.120	0.133
-685.310	62.685	-0.255	0.259
-684.295	-192.744	-0.228	0.002
-683.281	-43.033	0.215	-0.111
-682.266	-161.347	-0.358	0.019
-681.251	-101.200	-0.137	0.034
-680.237	656.141	-0.068	-0.178
-679.222	559.716	0.113	-0.279
-678.208	121.081	-0.151	-0.191
-677.193	143.091	0.075	0.101
-676.178	-200.000	0.026	0.216
-675.164	118.485	0.062	0.078
-674.149	-127.159	0.360	-0.054
-673.135	800.000	-0.052	-0.213
-672.120	-56.749	-0.165	-0.074
-671.105	-62.633	0.108	-0.046
-670.091	117.183	0.066	0.083
-669.076	55.502	0.050	-0.050
-668.062	11.861	-0.146	0.114
-667.047	63.804	0.075	0.077
-666.032	104.247	0.192	-0.230
-665.018	252.389	0.184	-0.319
-664.003	-89.246	0.119	0.036
-662.989	106.335	-0.159	0.192
-661.974	392.963	0.092	-0.195
-660.959	-45.593	-0.301	0.151
-659.945	415.816	-0.088	-0.191
-658.930	-107.127	-0.286	-0.064
-657.916	152.278	-0.127	-0.176
-656.901	399.553	-0.093	0.197
-655.886	-200.000	-0.008	-0.255
-654.872	-86.502	-0.115	-0.036
-653.857	350.273	0.169	-0.339
-652.843	77.845	-0.061	0.066
-651.828	-200.000	-0.016	-0.140
-650.814	435.054	-0.093	0.207
-649.799	-34.858	-0.134	-0.074
-648.784	-69.434	0.186	0.073
-647.770	-52.063	-0.078	0.037
-646.755	199.857	0.100	0.155
-645.741	60.947	0.256	0.259
-644.726	24.236	-0.109	0.091
-643.711	83.146	0.085	-0.094
-642.697	-52.257	0.233	-0.110
-641.682	757.476	-0.081	0.222
-640.668	426.842	-0.083	-0.182
-639.653	114.029	0.176	0.217
-638.638	-5.779	-0.236	-0.164
-637.624	155.825	0.163	-0.229
-636.609	-177.594	-0.167	-0.004
-635.595	-67.413	0.077	0.031
-634.580	-200.000	0.011	-0.238
-633.565	196.168	-0.204	-0.315
-632.551	34.726	-0.294	0.261
-631.536	29.610	-0.409	0.353
-630.522	41.393	0.148	0.136
-629.507	151.958	-0.133	0.185
-628.492	696.257	-0.010	-0.026
-627.478	116.261	0.161	-0.200
-626.463	-92.323	-0.183	0.052
-625.449	800.000	0.047	-0.164
-624.434	-152.843	0.295	0.021
-623.419	-98.659	-0.091	-0.024
-622.405	-200.000	0.001	-0.029
-621.390	302.275	-0.077	-0.144
-620.376	800.000	0.090	-0.362
-619.361	551.013	0.185	0.450
-618.346	-36.707	-0.303	0.165
-617.332	-107.602	-0.328	0.073
-616.317	242.204	0.033	0.057
-615.303	-35.965	-0.283	0.155
-614.288	109.476	-0.137	-0.166
-613.273	173.616	-0.053	-0.078
-612.259	800.000	-0.022	0.064
-611.244	-112.126	-0.137	-0.028
-610.230	-10.113	0.209	0.141
-609.215	17.754	-0.282	-0.227
-608.201	-200.000	0.033	-0.158
-607.186	-162.160	0.142	-0.007
-606.171	391.363	-0.093	0.197
-605.157	401.183	-0.226	-0.481
-604.142	47.211	-0.179	-0.169
-603.128	289.313	-0.084	-0.155
-602.113	64.848	0.025	0.026
-601.098	-17.415	0.076	0.048
-600.084	193.829	-0.111	0.170
-599.069	800.000	-0.074	0.314
-598.055	-54.318	-0.219	-0.101
-597.040	33.932	-0.154	-0.136
-596.025	-110.316	0.061	0.013
-595.011	235.288	0.126	-0.212
-593.996	64.544	-0.193	-0.197
-592.982	-124.721	0.122	-0.019
-591.967	-37.277	0.304	0.165
-590.952	-191.195	-0.217	0.002
-589.938	233.615	0.098	-0.164
-588.923	43.791	-0.142	0.132
-587.909	-6.900	0.036	0.025
-586.894	-60.524	-0.390	-0.168
-585.879	60.076	0.081	0.082
-584.865	-67.627	0.144	0.057
-583.850	-95.323	0.173	0.047
-582.836	-80.787	-0.175	0.059
-581.821	55.680	-0.164	0.161
-580.806	-200.000	0.004	-0.262
-579.792	-165.705	0.060	-0.003
-578.777	-16.492	-0.065	0.042
-577.763	205.123	0.178	-0.280
-576.748	43.728	-0.186	0.172
-575.733	-81.334	-0.161	-0.054
-574.719	120.708	-0.105	0.133
-573.704	-97.699	0.233	-0.061
-572.690	-86.876	-0.186	0.057
-571.675	236.267	-0.130	-0.218
-570.661	-200.000	0.004	0.091
-569.646	-20.270	-0.207	0.129
-568.631	-200.000	-0.005	0.115
-567.617	49.304	0.094	0.089
-566.602	-81.908	-0.185	0.061
-565.588	600.331	0.161	-0.405
-564.573	-58.629	0.246	0.108
-563.558	-41.633	-0.310	0.161
-562.544	250.511	-0.168	0.289
-561.529	-62.979	-0.214	-0.090
-560.515	800.000	0.059	-0.195
-559.500	209.460	0.068	0.108
-558.485	123.989	0.057	0.073
-557.471	-200.000	-0.013	-0.088
-556.456	-200.000	0.009	-0.153
-555.442	172.863	-0.179	0.262
-554.427	90.240	-0.207	-0.234
-553.412	448.750	0.047	0.105
-552.398	800.000	-0.077	-0.333
-551.383	-200.000	-0.014	-0.190
-550.369	-84.057	0.092	-0.030
-549.354	-123.232	0.265	0.043
-548.339	32.731	-0.033	0.029
-547.325	11.608	0.240	-0.186
-546.310	-79.995	-0.252	0.086
-545.296	800.000	-0.017	0.054
-544.281	-200.000	-0.034	-0.269
-543.266	-41.242	-0.043	-0.023
-542.252	-200.000	-0.007	0.135
-541.237	-200.000	0.035	0.412
-540.223	-200.000	0.025	-0.159
-539.208	-36.826	0.087	-0.047
-538.193	-9.638	0.126	0.085
-537.179	-143.330	0.239	0.023
-536.164	23.850	0.170	-0.142
-535.150	32.093	0.333	-0.290
-534.135	138.090	-0.240	-0.319
-533.121	800.000	0.033	-0.122
-532.106	800.000	0.034	0.106
-531.091	-7.325	-0.395	0.270
-530.077	691.853	0.108	0.285
-529.062	48.829	-0.314	0.298
-528.048	223.451	0.106	-0.173
-527.033	-104.588	-0.340	0.079
-526.018	-99.648	0.194	-0.049
-525.004	606.422	-0.132	-0.332
-523.989	-200.000	-0.023	-0.161
-522.975	-127.424	-0.254	0.037
-521.960	599.674	0.097	0.243
-520.945	93.312	0.121	-0.139
-519.931	153.894	0.038	0.053
-518.916	800.000	-0.069	0.193
-517.902	17.147	-0.304	0.243
-516.887	-200.000	-0.005	0.052
-515.872	-98.121	-0.247	0.064
-514.858	63.626	-0.256	-0.260
-513.843	-47.943	0.161	-0.079
-512.829	408.033	0.038	-0.082
-511.814	112.725	-0.158	-0.193
-510.799	2.258	0.253	-0.185
-509.785	-116.953	-0.197	-0.036
-508.770	64.456	0.183	-0.186
-507.756	800.000	-0.037	-0.162
-506.741	-200.000	-0.020	0.251
-505.726	-42.944	-0.066	-0.034
-504.712	120.228	-0.140	0.176
-503.697	-109.927	-0.084	0.018
-502.683	362.756	0.029	-0.059
-501.668	-11.807	0.126	0.083
-500.653	608.913	0.127	-0.320
-499.639	-145.441	0.175	0.016
-498.624	463.823	0.100	0.226
-497.610	-200.000	-0.038	-0.243
-496.595	-200.000	-0.026	-0.172
-495.581	340.725	0.058	0.114
-494.566	-113.688	0.180	-0.035
-493.551	800.000	-0.009	0.040
-492.537	11.861	-0.093	-0.073
-491.522	-200.000	0.014	-0.283
-490.508	716.209	-0.037	0.099
-489.493	2.017	0.365	-0.266
-488.478	363.128	-0.146	0.296
-487.464	-200.000	0.018	0.297
-486.449	480.201	-0.110	0.251
-485.435	206.421	-0.089	0.140
-484.420	-200.000	-0.017	-0.128
-483.405	27.795	0.193	-0.164
-482.391	-129.990	-0.154	0.021
-481.376	-59.464	-0.332	0.144
-480.362	-200.000	-0.002	-0.184
-479.347	-91.269	-0.174	0.050
-478.332	-145.152	0.306	0.028
-477.318	-121.099	-0.208	-0.035
-476.303	800.000	0.080	0.306
-475.289	1.722	0.224	-0.163
-474.274	42.616	0.108	-0.099
-473.259	530.658	0.091	-0.217
-472.245	314.571	-0.149	0.284
-471.230	-35.839	-0.298	0.163
-470.216	-200.000	0.073	-0.357
-469.201	-200.000	0.016	0.266
-468.186	-115.574	-0.158	0.030
-467.172	-136.041	0.181	-0.021
-466.157	477.480	0.070	0.161
-465.143	-12.386	0.230	0.152
-464.128	-152.903	-0.372	-0.027
-463.113	-96.718	0.367	0.097
-462.099	-10.674	-0.037	0.025
-461.084	57.568	0.208	0.205
-460.070	10.189	-0.131	-0.101
-459.055	115.698	-0.031	0.039
-458.040	-73.874	0.216	0.079
-457.026	137.639	0.161	0.212
-456.011	-3.535	0.094	-0.066
-454.997	282.194	-0.027	0.049
-453.982	90.791	0.170	0.192
-452.968	-32.312	0.061	0.034
-451.953	6.713	-0.361	-0.271
-450.938	-95.799	-0.158	0.043
-449.924	428.300	-0.048	0.104
-448.909	99.281	-0.114	0.133
-447.895	167.733	0.148	0.213
-446.880	-200.000	0.046	0.404
-445.865	123.201	-0.263	-0.332
-444.851	211.165	-0.162	-0.257
-443.836	800.000	0.055	0.192
-442.822	-55.200	-0.298	0.135
-441.807	189.287	-0.145	0.219
-440.792	-47.223	0.199	-0.098
-439.778	-173.961	0.251	0.007
-438.763	477.698	0.129	-0.294
-437.749	-98.821	0.083	-0.021
-436.734	-57.571	0.243	0.108
-435.719	-200.000	0.022	0.232
-434.705	-135.925	-0.256	0.030
-433.690	800.000	-0.056	-0.225
-432.676	800.000	-0.040	0.144
-431.661	-74.451	0.509	-0.185
-430.646	386.776	0.022	0.046
-429.632	56.972	0.159	-0.156
-428.617	800.000	0.044	0.162
-427.603	-79.862	-0.276	-0.094
-426.588	800.000	-0.049	0.182
-425.573	800.000	0.128	0.435
-424.559	40.528	0.262	0.238
-423.544	-4.443	-0.243	0.169
-422.530	-48.507	0.172	0.083
-421.515	134.445	-0.129	0.168
-420.500	104.930	0.239	0.284
-419.486	-58.765	0.204	0.089
-418.471	-68.483	0.272	0.106
-417.457	800.000	0.068	0.273
-416.442	-200.000	0.039	0.358
-415.428	-133.889	-0.404	-0.051
-414.413	95.907	0.289	0.332
-413.398	-100.948	0.296	-0.073
-412.384	-9.014	-0.292	-0.197
-411.369	-185.529	-0.270	-0.004
-410.355	-92.877	-0.388	-0.109
-409.340	-200.000	-0.008	-0.165
-408.325	365.794	-0.055	-0.112
-407.311	-20.371	0.044	0.027
-406.296	800.000	0.045	-0.173
-405.282	43.268	-0.198	0.182
-404.267	-164.989	0.273	-0.012
-403.252	190.641	-0.051	-0.077
-402.238	2.874	0.046	-0.034
-401.223	116.475	-0.038	-0.047
-400.209	202.553	-0.020	0.031
-399.194	-200.000	0.005	-0.336
-398.179	-167.511	-0.392	0.016
-397.165	-145.596	0.385	0.035
-396.150	-200.000	-0.039	0.365
-395.136	-200.000	0.055	0.439
-394.121	85.736	-0.220	-0.244
-393.106	-115.499	0.263	0.050
-392.092	102.859	-0.127	-0.150
-391.077	-200.000	-0.017	0.256
-390.063	-200.000	0.021	-0.227
-389.048	17.642	-0.138	-0.110
-388.033	-200.000	0.027	-0.172
-387.019	85.872	0.194	0.214
-386.004	-200.000	0.036	-0.318
-384.990	-60.293	-0.286	-0.122
-383.975	65.491	0.125	0.128
-382.960	-200.000	-0.008	0.157
-381.946	-15.337	-0.282	-0.181
-380.931	-200.000	-0.003	-0.155
-379.917	34.483	0.157	-0.138
-378.902	-118.108	0.210	-0.038
-377.888	-59.768	-0.289	0.124
-376.873	-51.686	0.317	0.149
-375.858	-200.000	0.050	-0.269
-374.844	-200.000	0.044	0.211
-373.829	-50.543	0.076	0.036
-372.815	11.166	0.158	-0.121
-371.800	-53.407	-0.288	0.133
-370.785	87.949	0.365	0.407
-369.771	-128.515	0.068	0.010
-368.756	-171.762	-0.139	-0.005
-367.742	800.000	-0.069	-0.290
-366.727	-179.989	0.297	-0.006
-365.712	41.515	-0.024	0.022
-364.698	-63.729	-0.384	0.158
-363.683	-200.000	0.003	0.272
-362.669	-200.000	0.020	-0.202
-361.654	-147.087	0.088	-0.008
-360.639	133.210	-0.084	-0.109
-359.625	5.881	-0.146	0.109
-358.610	-81.592	-0.193	-0.064
-357.596	102.854	-0.109	0.128
-356.581	27.059	0.170	-0.144
-355.566	23.467	-0.262	-0.216
-354.552	-168.903	0.248	0.009
-353.537	514.638	-0.127	0.297
-352.523	31.999	0.177	0.153
-351.508	63.407	-0.123	0.124
-350.493	-101.950	-0.320	0.078
-349.479	506.680	0.012	-0.029
-348.464	63.303	-0.252	-0.254
-347.450	-200.000	0.025	-0.186
-346.435	-108.486	0.213	-0.046
-345.420	-115.084	-0.298	0.057
-344.406	-78.446	-0.385	-0.132
-343.391	362.489	0.101	-0.203
-342.377	103.118	-0.199	-0.234
-341.362	531.073	-0.014	-0.033
-340.348	573.122	-0.035	0.085
-339.333	-128.698	0.211	0.030
-338.318	-92.375	-0.104	-0.029
-337.304	35.752	0.277	0.245
-336.289	12.723	-0.115	-0.089
-335.275	-76.723	-0.320	-0.113
-334.260	245.757	0.046	-0.078
-333.245	636.782	-0.016	0.041
-332.231	-34.354	-0.268	-0.148
-331.216	484.617	-0.066	0.151
-330.202	-43.568	0.117	0.060
-329.187	-77.220	0.182	-0.064
-328.172	-200.000	0.035	-0.270
-327.158	-60.192	0.164	-0.070
-326.143	36.628	-0.077	-0.068
-325.129	18.464	-0.208	-0.167
-324.114	-97.792	-0.064	-0.017
-323.099	640.564	-0.087	0.222
-322.085	-142.242	0.320	0.032
-321.070	406.371	0.100	0.211
-320.056	90.845	-0.263	0.296
-319.041	250.206	0.052	0.089
-318.026	-90.818	-0.175	0.051
-317.012	21.332	0.255	-0.207
-315.997	75.416	-0.294	0.311
-314.983	-87.271	0.374	0.114
-313.968	15.677	-0.067	0.053
-312.953	692.676	0.012	0.032
-311.939	212.880	0.094	-0.149
-310.924	800.000	0.067	-0.218
-309.910	-79.089	0.016	-0.006
-308.895	66.640	0.290	0.295
-307.880	-33.729	0.045	0.025
-306.866	172.345	-0.092	0.133
-305.851	72.539	-0.147	0.153
-304.837	800.000	0.062	-0.228
-303.822	483.591	-0.039	0.090
-302.807	4.701	0.124	-0.091
-301.793	221.210	0.156	-0.251
-300.778	248.414	0.174	-0.295
-299.764	53.292	-0.155	-0.149
-298.749	-128.265	-0.176	-0.025
-297.735	271.095	-0.107	-0.188
-296.720	-113.485	0.180	-0.035
-295.705	-119.524	-0.323	-0.056
-294.691	-61.316	-0.113	0.048
-293.676	-200.000	0.007	0.221
-292.662	-78.791	0.255	0.087
-291.647	-18.559	-0.450	-0.282
-290.632	508.605	0.063	0.146
-289.618	-70.777	0.018	0.007
-288.603	-200.000	0.024	-0.124
-287.589	-56.211	-0.219	-0.098
-286.574	43.483	-0.110	-0.101
-285.559	231.472	0.066	0.109
-284.545	672.940	0.097	-0.252
-283.530	123.272	-0.153	-0.192
-282.516	-11.074	0.093	-0.062
-281.501	800.000	0.105	0.343
-280.486	-200.000	-0.029	-0.386
-279.472	800.000	-0.055	-0.199
-278.457	800.000	0.056	-0.208
-277.443	80.097	0.214	0.230
-276.428	-200.000	-0.035	0.256
-275.413	118.488	0.162	0.200
-274.399	-11.430	0.188	0.124
-273.384	-200.000	0.028	0.207
-272.370	800.000	0.033	-0.109
-271.355	-119.419	-0.194	0.034
-270.340	35.229	0.190	-0.167
-269.326	800.000	0.045	0.142
-268.311	-13.065	-0.269	0.175
-267.297	56.677	0.046	0.045
-266.282	-66.415	0.312	-0.124
-265.267	51.148	0.246	-0.233
-264.253	98.586	-0.117	-0.135
-263.238	634.675	-0.055	-0.139
-262.224	-139.876	0.133	-0.014
-261.209	-105.070	0.245	0.056
-260.195	10.839	0.154	-0.117
-259.180	29.741	0.148	-0.126
-258.165	-200.000	0.012	0.282
-257.151	-74.936	0.170	-0.061
-256.136	115.410	-0.193	0.236
-255.122	-35.065	-0.265	0.144
-254.107	-200.000	0.012	0.129
-253.092	-132.136	0.361	-0.047
-252.078	-114.213	0.202	-0.039
-251.063	-90.791	0.448	-0.129
-250.049	800.000	-0.140	-0.406
-249.034	800.000	-0.032	-0.097
-248.019	108.247	0.080	-0.095
-247.005	-180.427	0.213	-0.004
-245.990	800.000	0.087	-0.251
-244.976	54.246	0.059	0.057
-243.961	800.000	0.063	0.193
-242.946	-23.568	0.241	0.145
-241.932	-167.786	-0.104	-0.004
-240.917	-9.788	0.110	-0.073
-239.903	800.000	0.063	-0.214
-238.888	337.154	-0.083	0.162
-237.873	-80.503	-0.538	-0.179
-236.859	75.270	0.130	0.138
-235.844	-7.011	-0.040	0.027
-234.830	-180.688	-0.318	-0.007
-233.815	-200.000	0.059	0.270
-232.800	-200.000	-0.148	-0.687
-231.786	-139.102	0.174	-0.019
-230.771	-200.000	-0.016	0.119
-229.757	-152.904	0.286	0.020
-228.742	610.416	-0.053	0.133
-227.727	800.000	-0.112	-0.406
-226.713	-200.000	-0.044	-0.268
-225.698	-44.170	0.116	-0.058
-224.684	-200.000	-0.001	0.124
-223.669	-100.585	0.099	-0.024
-222.655	21.781	0.015	-0.012
-221.640	161.403	0.109	0.152
-220.625	56.080	0.228	0.221
-219.611	-35.792	-0.155	-0.084
-218.596	-153.524	-0.470	0.033
-217.582	454.330	-0.076	-0.169
-216.567	-165.938	0.062	-0.003
-215.552	186.015	-0.112	-0.166
-214.538	-200.000	-0.048	-0.242
-213.523	-35.085	0.179	-0.097
-212.509	-172.393	-0.195	-0.006
-211.494	61.127	-0.117	-0.116
-210.479	677.473	0.081	-0.211
-209.465	-51.755	-0.194	0.090
-208.450	188.351	-0.230	-0.343
-207.436	-65.275	0.047	-0.019
-206.421	-28.877	0.387	0.222
-205.406	-71.367	0.159	0.060
-204.392	-57.778	0.075	-0.033
-203.377	-200.000	0.004	0.114
-202.363	214.957	0.027	-0.043
-201.348	-200.000	0.059	0.432
-200.333	800.000	0.032	0.109
-199.319	-7.245	0.119	0.081
-198.304	8.404	0.100	0.075
-197.290	-200.000	0.006	0.063
-196.275	-109.067	0.375	-0.080
-195.260	-200.000	-0.009	0.088
-194.246	-200.000	0.015	0.096
-193.231	-78.592	0.306	0.104
-192.217	30.321	0.270	-0.230
-191.202	-91.473	-0.025	0.007
-190.187	-44.560	0.130	0.065
-189.173	-200.000	-0.002	-0.124
-188.158	125.792	0.015	0.019
-187.144	45.149	0.058	-0.053
-186.129	-191.623	0.256	0.003
-185.114	800.000	0.018	0.074
-184.100	-200.000	0.005	0.088
-183.085	-8.364	-0.141	0.094
-182.071	-140.026	-0.412	-0.043
-181.056	-78.562	-0.135	0.046
-180.042	-0.668	-0.179	0.127
-179.027	-110.945	0.130	-0.027
-178.012	-127.869	0.103	-0.015
-176.998	302.100	0.092	0.169
-175.983	79.521	-0.128	-0.137
-174.969	209.198	0.190	-0.297
-173.954	-77.813	-0.191	-0.066
-172.939	487.104	0.053	0.122
-171.925	126.380	0.155	0.196
-170.910	-200.000	-0.029	0.159
-169.896	-200.000	0.001	0.117
-168.881	-124.070	-0.072	0.011
-167.866	-200.000	0.030	0.302
-166.852	-148.341	0.209	0.017
-165.837	150.756	0.121	0.165
-164.823	23.964	-0.187	-0.154
-163.808	520.789	-0.092	-0.215
-162.793	143.544	0.199	0.264
-161.779	-160.681	0.148	-0.008
-160.764	-200.000	-0.001	-0.339
-159.750	42.297	-0.090	-0.082
-158.735	800.000	-0.043	0.161
-157.720	-98.335	0.301	-0.077
-156.706	-200.000	-0.015	0.321
-155.691	-52.416	0.238	-0.110
-154.677	-174.397	0.405	0.012
-153.662	-200.000	0.068	-0.419
-152.647	-200.000	-0.055	-0.289
-151.633	44.752	-0.162	0.149
-150.618	-48.829	0.319	0.153
-149.604	-137.335	0.211	0.024
-148.589	573.870	0.077	-0.186
-147.574	28.277	-0.200	0.169
-146.560	-42.977	0.163	-0.082
-145.545	142.822	0.071	0.094
-144.531	-200.000	0.023	-0.291
-143.516	-11.007	0.222	0.146
-142.502	-115.715	0.151	-0.028
-141.487	-200.000	-0.003	-0.080
-140.472	61.088	0.086	-0.085
-139.458	-192.460	-0.316	-0.003
-138.443	52.492	0.071	-0.067
-137.429	-150.554	0.082	0.006
-136.414	-10.085	0.152	-0.101
-135.399	251.232	0.119	-0.202
-134.385	578.532	0.083	0.203
-133.370	-160.172	0.393	0.021
-132.356	-136.323	-0.322	-0.037
-131.341	445.711	0.077	0.169
-130.326	113.884	-0.155	-0.187
-129.312	-200.000	-0.067	-0.335
-128.297	117.849	-0.113	0.138
-127.283	-52.836	0.301	-0.138
-126.268	-115.237	-0.203	-0.038
-125.253	160.263	0.175	-0.243
-124.239	-200.000	0.027	0.188
-123.224	99.030	-0.192	-0.221
-122.210	46.358	0.226	-0.209
-121.195	-21.174	-0.212	-0.129
-120.180	296.279	-0.136	0.248
