DTS Sentinel unit serial number:	SN413079Multiplexer serial number:	ORYXHardware model number:	OX4-SRSoftware version number:	ORYX F/W v4.00 Oryx Data Collector v3.7.2.0data status	okinstallation	princeton_trtdifferential loss correction	single-endedforward channel	channel 1reverse channel	N/Adate	2019/09/17time	23:30:35forward acquisition time	60.00reverse acquisition time	0.00gamma	496.2192k internal	0.2340k external	0.2340temperature offset calibration	0.9981default loss term (dB/km)	0.3790temperature slope calibration	1.0000multiplexer offset coefficient	1.0000multiplexer slope coefficient	1.0000fibre end	0.00T internal ref (°C)	24.27T ext. ref 1 (°C)	0.18T ext. ref 2 (°C)	17.58length (m)	temperature (°C)	Stokes	anti-Stokes-747.200	1.059	-0.204	-0.147
-746.185	26.457	-0.162	-0.135
-745.171	-68.469	0.197	0.076
-744.156	135.491	0.425	0.554
-743.142	2.961	-0.041	0.030
-742.127	-200.000	-0.012	0.300
-741.112	-125.113	0.162	-0.025
-740.098	-126.473	0.238	-0.036
-739.083	-105.340	0.084	0.019
-738.069	-27.949	0.029	0.017
-737.054	-200.000	-0.042	0.278
-736.039	4.865	-0.301	-0.222
-735.025	286.680	0.176	0.318
-734.010	-47.447	-0.412	0.201
-732.996	766.994	0.108	-0.294
-731.981	125.095	-0.220	-0.278
-730.966	238.008	0.045	0.074
-729.952	-200.000	-0.055	-0.392
-728.937	258.627	0.149	0.257
-727.923	-125.502	-0.173	-0.026
-726.908	753.364	-0.019	0.051
-725.894	150.293	-0.113	-0.153
-724.879	800.000	0.057	0.185
-723.864	52.542	0.138	-0.132
-722.850	253.083	0.204	-0.348
-721.835	-200.000	0.018	-0.355
-720.821	381.357	-0.266	-0.547
-719.806	652.838	-0.151	-0.387
-718.791	114.340	0.151	-0.184
-717.777	-25.310	0.054	-0.032
-716.762	-125.417	-0.205	-0.031
-715.748	-86.789	0.078	0.024
-714.733	-200.000	0.003	-0.079
-713.718	-200.000	0.003	0.054
-712.704	477.841	-0.076	-0.173
-711.689	-107.812	-0.073	-0.016
-710.675	800.000	-0.077	-0.229
-709.660	-8.732	0.294	0.198
-708.645	800.000	-0.089	-0.383
-707.631	-200.000	-0.023	0.194
-706.616	1.532	0.086	-0.062
-705.602	-68.422	0.071	0.028
-704.587	-200.000	-0.058	-0.621
-703.572	347.015	0.131	-0.258
-702.558	-200.000	-0.254	0.001
-701.543	-54.832	-0.231	0.104
-700.529	-23.595	0.105	0.063
-699.514	800.000	-0.112	-0.365
-698.499	724.288	-0.074	-0.198
-697.485	-200.000	0.034	-0.156
-696.470	-92.969	0.137	0.038
-695.456	-200.000	0.024	-0.135
-694.441	800.000	-0.087	-0.327
-693.426	63.927	0.124	0.125
-692.412	-93.960	-0.287	0.079
-691.397	-65.529	-0.085	0.034
-690.383	-79.569	-0.296	-0.100
-689.368	-14.000	-0.030	0.019
-688.354	-54.921	0.041	-0.019
-687.339	-72.815	-0.191	0.070
-686.324	-147.272	0.065	0.005
-685.310	639.888	0.024	0.060
-684.295	-200.000	0.037	0.232
-683.281	800.000	0.038	-0.146
-682.266	-91.870	0.187	-0.053
-681.251	-109.276	0.231	-0.049
-680.237	-83.883	-0.185	-0.059
-679.222	170.606	0.118	0.169
-678.208	-148.760	0.271	-0.022
-677.193	86.063	-0.245	-0.270
-676.178	800.000	-0.051	-0.159
-675.164	-42.248	-0.297	0.152
-674.149	-128.637	-0.223	-0.031
-673.135	-85.657	-0.217	-0.067
-672.120	-170.519	0.316	-0.011
-671.105	-200.000	-0.031	-0.201
-670.091	-200.000	-0.004	0.207
-669.076	-177.894	-0.308	0.007
-668.062	-86.456	-0.262	0.080
-667.047	-69.201	-0.314	0.121
-666.032	272.482	0.024	-0.043
-665.018	202.015	-0.166	-0.256
-664.003	-200.000	-0.016	-0.282
-662.989	-130.969	-0.243	-0.032
-661.974	464.265	-0.077	0.172
-660.959	63.624	-0.158	0.158
-659.945	-116.694	0.108	-0.020
-658.930	51.532	0.071	0.067
-657.916	273.570	0.136	-0.241
-656.901	41.666	-0.058	-0.052
-655.886	-200.000	0.016	0.223
-654.872	-139.816	-0.215	-0.023
-653.857	-74.009	-0.399	-0.145
-652.843	244.548	-0.101	0.169
-651.828	174.427	-0.013	0.019
-650.814	95.175	-0.051	0.058
-649.799	-14.295	-0.080	-0.052
-648.784	-99.774	-0.112	-0.028
-647.770	-168.963	-0.187	-0.007
-646.755	41.099	-0.226	-0.204
-645.741	89.588	-0.102	-0.113
-644.726	-200.000	-0.006	0.032
-643.711	-10.480	-0.082	-0.054
-642.697	-200.000	-0.015	0.113
-641.682	-200.000	0.021	0.164
-640.668	-200.000	-0.002	0.140
-639.653	-200.000	0.021	-0.252
-638.638	-134.503	-0.153	0.019
-637.624	-200.000	-0.052	-0.240
-636.609	-91.978	-0.200	0.057
-635.595	6.770	-0.276	0.205
-634.580	81.103	0.088	0.094
-633.565	597.774	0.069	0.172
-632.551	89.413	-0.166	-0.185
-631.536	-43.568	-0.129	0.065
-630.522	800.000	0.079	-0.304
-629.507	800.000	-0.037	0.154
-628.492	187.741	-0.033	0.048
-627.478	218.795	-0.060	-0.096
-626.463	73.206	0.121	-0.127
-625.449	-200.000	0.071	-0.413
-624.434	-41.569	0.326	-0.167
-623.419	762.995	0.133	-0.361
-622.405	76.695	-0.321	0.340
-621.390	100.280	0.162	0.187
-620.376	-200.000	-0.024	-0.224
-619.361	59.248	0.271	-0.267
-618.346	-153.847	-0.075	0.005
-617.332	-183.385	-0.094	0.002
-616.317	800.000	0.040	0.150
-615.303	800.000	0.002	0.008
-614.288	-200.000	-0.066	-0.298
-613.273	90.738	-0.081	-0.091
-612.259	-200.000	-0.014	-0.134
-611.244	-125.022	0.136	0.021
-610.230	598.266	-0.041	-0.103
-609.215	281.236	-0.121	0.216
-608.201	130.118	-0.155	0.198
-607.186	-81.485	-0.271	0.089
-606.171	68.549	-0.082	0.084
-605.157	154.938	0.087	-0.120
-604.142	401.852	-0.068	0.142
-603.128	13.584	-0.034	0.026
-602.113	-30.521	0.222	0.125
-601.098	-40.392	-0.223	0.116
-600.084	57.689	0.142	0.138
-599.069	-107.146	-0.248	0.054
-598.055	-200.000	0.036	0.238
-597.040	-108.167	-0.366	0.079
-596.025	-200.000	0.008	0.157
-595.011	102.135	0.098	0.115
-593.996	800.000	0.062	-0.228
-592.982	24.961	0.284	-0.235
-591.967	-140.435	-0.128	0.013
-590.952	-200.000	-0.011	0.197
-589.938	658.983	0.116	-0.298
-588.923	-95.018	-0.152	-0.041
-587.909	17.698	-0.276	-0.219
-586.894	127.658	-0.125	-0.159
-585.879	-200.000	-0.067	-0.301
-584.865	114.288	-0.053	-0.064
-583.850	214.523	0.115	-0.181
-582.836	-80.825	0.158	-0.052
-581.821	-147.717	-0.139	-0.012
-580.806	-148.261	0.127	-0.010
-579.792	-192.251	-0.163	-0.002
-578.777	-43.731	-0.172	-0.086
-577.763	709.399	-0.037	0.098
-576.748	-152.635	0.407	0.029
-575.733	317.922	-0.037	-0.071
-574.719	129.031	0.153	0.194
-573.704	71.015	-0.108	-0.111
-572.690	-133.019	-0.032	0.004
-571.675	141.532	-0.080	0.106
-570.661	150.869	-0.265	0.359
-569.646	-140.065	-0.080	0.008
-568.631	-58.977	-0.168	-0.072
-567.617	264.665	0.163	0.282
-566.602	-200.000	0.041	0.314
-565.588	-113.184	-0.231	-0.045
-564.573	31.223	0.165	-0.141
-563.558	-6.972	-0.077	-0.052
-562.544	800.000	-0.062	-0.186
-561.529	-115.151	-0.335	0.063
-560.515	291.080	0.079	-0.144
-559.500	260.749	-0.029	-0.050
-558.485	-50.754	0.118	-0.055
-557.471	-114.264	0.250	0.048
-556.456	92.811	-0.152	-0.170
-555.442	16.718	0.245	-0.193
-554.427	-192.953	0.215	-0.002
-553.412	56.875	0.127	0.123
-552.398	688.438	0.030	-0.079
-551.383	-200.000	0.055	0.256
-550.369	15.611	0.211	-0.165
-549.354	309.000	0.058	0.107
-548.339	321.681	-0.060	0.114
-547.325	-5.485	-0.150	-0.103
-546.310	-21.270	0.308	-0.187
-545.296	-200.000	0.009	0.204
-544.281	-154.864	-0.224	0.015
-543.266	651.723	0.111	0.282
-542.252	-197.202	0.094	0.001
-541.237	241.965	0.065	-0.108
-540.223	-52.786	0.322	-0.148
-539.208	-146.027	0.026	0.002
-538.193	28.054	0.030	0.025
-537.179	123.205	-0.150	-0.187
-536.164	526.732	-0.062	0.146
-535.150	23.755	0.093	-0.076
-534.135	-200.000	-0.002	-0.052
-533.121	-7.073	-0.235	-0.158
-532.106	77.790	0.062	-0.065
-531.091	-117.219	0.242	-0.044
-530.077	420.612	-0.084	0.179
-529.062	-200.000	0.009	0.177
-528.048	800.000	0.056	0.218
-527.033	-64.331	0.056	0.023
-526.018	-200.000	-0.004	-0.273
-525.004	58.470	-0.107	-0.105
-523.989	-8.045	0.336	0.225
-522.975	218.691	-0.145	0.230
-521.960	-200.000	-0.002	-0.275
-520.945	-200.000	0.026	0.180
-519.931	800.000	0.123	0.414
-518.916	-138.524	-0.167	0.018
-517.902	-156.139	-0.244	0.015
-516.887	-124.503	-0.222	0.034
-515.872	-31.292	-0.099	0.055
-514.858	800.000	0.050	0.164
-513.843	71.415	0.289	-0.298
-512.829	-101.763	-0.486	-0.117
-511.814	746.047	-0.103	0.276
-510.799	-200.000	-0.005	0.201
-509.785	800.000	-0.032	0.137
-508.770	63.843	0.198	-0.198
-507.756	800.000	0.155	-0.607
-506.741	-154.216	-0.284	-0.019
-505.726	-139.357	0.164	-0.018
-504.712	36.567	0.129	-0.113
-503.697	32.298	-0.260	0.223
-502.683	-77.583	0.162	0.056
-501.668	-199.397	-0.029	0.000
-500.653	236.195	0.079	-0.130
-499.639	-133.789	-0.418	0.052
-498.624	-200.000	0.035	0.227
-497.610	96.052	0.219	0.249
-496.595	71.915	0.130	-0.134
-495.581	-108.418	-0.024	0.005
-494.566	192.553	0.034	-0.050
-493.551	-90.099	-0.205	-0.059
-492.537	34.309	0.168	-0.145
-491.522	800.000	-0.024	-0.090
-490.508	-130.396	0.433	0.058
-489.493	-77.235	0.032	0.011
-488.478	153.945	-0.184	-0.251
-487.464	365.443	0.116	0.233
-486.449	301.769	0.088	-0.161
-485.435	-200.000	-0.005	0.149
-484.420	-43.407	-0.273	-0.137
-483.405	-200.000	0.019	0.147
-482.391	285.378	0.133	0.238
-481.376	-16.241	-0.217	0.137
-480.362	-149.981	-0.255	0.020
-479.347	-200.000	-0.009	-0.073
-478.332	56.170	-0.079	0.077
-477.318	-16.431	-0.338	0.212
-476.303	272.980	-0.212	-0.372
-475.289	-73.170	0.287	0.104
-474.274	-200.000	-0.025	0.190
-473.259	-97.297	0.063	-0.016
-472.245	140.403	-0.137	0.179
-471.230	-137.654	0.385	0.043
-470.216	800.000	-0.025	0.108
-469.201	493.013	0.124	0.282
-468.186	240.304	0.135	0.224
-467.172	800.000	-0.009	0.033
-466.157	-42.260	0.107	0.054
-465.143	-120.414	-0.192	0.032
-464.128	800.000	-0.068	-0.222
-463.113	-103.133	0.075	0.018
-462.099	800.000	-0.040	-0.162
-461.084	82.882	-0.244	0.263
-460.070	800.000	0.033	0.137
-459.055	362.542	-0.156	-0.310
-458.040	56.433	-0.110	-0.106
-457.026	-75.564	-0.246	0.087
-456.011	800.000	-0.075	0.244
-454.997	199.820	0.152	0.231
-453.982	-200.000	0.009	0.171
-452.968	370.063	0.237	-0.475
-451.953	-148.886	-0.177	0.014
-450.938	3.440	0.174	0.125
-449.924	-200.000	-0.061	-0.468
-448.909	31.982	0.171	-0.146
-447.895	-134.808	0.030	-0.004
-446.880	-4.871	-0.138	-0.095
-445.865	-200.000	-0.004	0.120
-444.851	-138.712	0.165	0.018
-443.836	-142.490	-0.214	-0.021
-442.822	-66.763	0.088	0.035
-441.807	-170.012	0.385	0.014
-440.792	-200.000	-0.023	-0.221
-439.778	-65.134	-0.329	0.131
-438.763	53.412	0.078	-0.074
-437.749	239.973	0.050	-0.083
-436.734	-18.715	-0.221	-0.136
-435.719	-107.128	-0.149	0.033
-434.705	800.000	-0.064	-0.257
-433.690	-42.078	0.236	0.119
-432.676	112.837	-0.151	0.181
-431.661	384.765	-0.120	0.245
-430.646	-136.825	-0.203	0.023
-429.632	-86.668	-0.056	-0.017
-428.617	86.812	-0.050	-0.054
-427.603	-200.000	0.122	0.594
-426.588	-37.400	0.297	0.157
-425.573	410.921	0.098	-0.205
-424.559	280.907	0.147	-0.261
-423.544	-200.000	0.022	-0.184
-422.530	-162.840	-0.185	0.009
-421.515	43.153	0.257	-0.233
-420.500	-147.113	-0.186	-0.016
-419.486	800.000	0.052	-0.191
-418.471	-200.000	0.013	0.088
-417.457	800.000	-0.036	-0.141
-416.442	-200.000	0.020	0.351
-415.428	-90.652	0.202	-0.058
-414.413	420.844	0.078	-0.165
-413.398	-69.492	-0.128	-0.049
-412.384	69.597	-0.017	-0.018
-411.369	-139.671	-0.085	-0.009
-410.355	-87.321	-0.250	-0.075
-409.340	-79.502	0.259	0.087
-408.325	-200.000	0.001	0.161
-407.311	-13.258	-0.123	-0.079
-406.296	-200.000	0.007	0.150
-405.282	-38.932	0.150	0.078
-404.267	107.752	0.089	-0.105
-403.252	93.730	0.127	-0.143
-402.238	-200.000	0.018	0.202
-401.223	158.068	-0.072	-0.099
-400.209	-108.905	-0.403	0.085
-399.194	682.408	0.086	-0.222
-398.179	107.361	-0.242	0.285
-397.165	800.000	-0.069	0.191
-396.150	609.034	-0.057	-0.140
-395.136	800.000	0.103	-0.322
-394.121	-144.904	-0.445	0.040
-393.106	231.505	-0.078	0.126
-392.092	184.449	0.175	0.256
-391.077	-54.706	-0.270	-0.121
-390.063	724.270	-0.120	-0.316
-389.048	5.076	0.210	0.153
-388.033	-200.000	-0.026	0.281
-387.019	77.093	-0.056	-0.059
-386.004	145.930	-0.145	0.192
-384.990	-95.567	0.321	0.085
-383.975	19.595	0.122	0.097
-382.960	-200.000	-0.008	-0.238
-381.946	244.160	-0.094	-0.156
-380.931	-92.050	-0.091	0.025
-379.917	-133.228	-0.172	0.022
-378.902	236.443	-0.120	0.197
-377.888	333.520	0.183	-0.349
-376.873	358.508	-0.095	0.188
-375.858	-167.154	-0.304	0.012
-374.844	-38.014	-0.255	0.134
-373.829	-1.299	0.315	-0.219
-372.815	-115.466	-0.286	0.053
-371.800	67.200	-0.065	-0.066
-370.785	-84.628	-0.081	-0.025
-369.771	800.000	0.062	0.196
-368.756	-48.978	-0.173	-0.082
-367.742	-175.626	-0.134	0.004
-366.727	48.635	-0.214	0.198
-365.712	19.188	-0.089	-0.071
-364.698	-148.060	-0.068	0.006
-363.683	-113.272	-0.323	-0.063
-362.669	-191.677	-0.085	0.001
-361.654	-200.000	0.026	0.186
-360.639	134.004	0.139	-0.177
-359.625	-200.000	0.131	0.616
-358.610	-141.075	0.330	-0.033
-357.596	-200.000	-0.000	0.054
-356.581	140.899	0.054	-0.071
-355.566	196.151	0.191	0.287
-354.552	258.970	-0.096	0.164
-353.537	800.000	-0.038	-0.152
-352.523	800.000	0.078	-0.293
-351.508	198.622	0.233	0.352
-350.493	-89.660	-0.142	0.041
-349.479	249.069	0.162	0.271
-348.464	213.257	0.245	0.382
-347.450	800.000	-0.066	0.228
-346.435	410.464	-0.013	0.027
-345.420	-200.000	0.008	-0.216
-344.406	-200.000	0.013	0.117
-343.391	-1.383	0.485	-0.338
-342.377	228.516	-0.112	0.180
-341.362	18.562	-0.228	-0.180
-340.348	14.644	-0.237	0.183
-339.333	800.000	-0.136	-0.417
-338.318	-91.468	0.103	-0.029
-337.304	16.528	-0.141	0.110
-336.289	-146.140	0.134	0.012
-335.275	104.573	-0.103	-0.120
-334.260	-42.407	-0.103	-0.052
-333.245	-169.161	-0.491	0.018
-332.231	32.975	0.051	0.044
-331.216	-71.987	-0.202	-0.074
-330.202	307.963	-0.162	-0.297
-329.187	350.231	0.134	0.262
-328.172	800.000	-0.067	0.198
-327.158	-200.000	0.039	0.264
-326.143	52.745	-0.328	0.309
-325.129	343.356	-0.093	0.179
-324.114	644.246	-0.048	0.120
-323.099	-70.537	0.027	0.010
-322.085	800.000	0.018	0.059
-321.070	-200.000	-0.012	0.053
-320.056	118.024	-0.172	0.208
-319.041	759.954	0.051	0.137
-318.026	-57.303	0.133	-0.058
-317.012	150.726	0.183	-0.245
-315.997	-53.912	-0.167	-0.075
-314.983	34.525	0.306	-0.263
-313.968	-62.213	0.100	0.041
-312.953	426.474	-0.023	0.049
-311.939	-121.981	0.092	0.015
-310.924	-36.871	-0.122	-0.064
-309.910	-160.308	-0.398	0.021
-308.895	-56.595	0.264	-0.115
-307.880	-99.853	0.055	0.014
-306.866	-200.000	0.043	-0.586
-305.851	-30.484	0.218	0.122
-304.837	-53.171	-0.057	-0.026
-303.822	-114.211	0.157	0.030
-302.807	399.623	0.056	0.116
-301.793	-200.000	-0.024	-0.308
-300.778	-78.745	-0.345	-0.116
-299.764	-23.412	-0.229	0.135
-298.749	-200.000	0.000	-0.052
-297.735	-126.938	0.283	-0.041
-296.720	591.890	-0.184	-0.448
-295.705	-161.279	0.181	-0.009
-294.691	-99.013	-0.246	0.061
-293.676	164.782	-0.055	-0.076
-292.662	-28.262	-0.073	0.041
-291.647	-116.399	-0.141	0.026
-290.632	800.000	-0.174	-0.544
-289.618	-58.271	0.125	-0.054
-288.603	-200.000	0.000	0.058
-287.589	3.242	0.101	-0.072
-286.574	800.000	-0.067	-0.186
-285.559	-200.000	-0.017	-0.230
-284.545	-52.715	0.088	0.040
-283.530	-122.191	-0.115	0.019
-282.516	-56.406	0.269	0.118
-281.501	-163.072	0.345	0.016
-280.486	-29.994	0.060	0.034
-279.472	60.963	0.193	0.189
-278.457	-5.998	0.094	-0.063
-277.443	-145.602	-0.202	0.018
-276.428	-97.472	0.395	-0.101
-275.413	690.929	-0.091	0.235
-274.399	262.792	-0.098	0.167
-273.384	-56.399	0.078	0.034
-272.370	5.131	0.153	0.111
-271.355	-95.965	0.276	-0.072
-270.340	153.527	0.089	-0.120
-269.326	27.142	0.195	-0.161
-268.311	-95.393	0.396	-0.105
-267.297	-49.211	-0.225	-0.106
-266.282	61.835	0.263	-0.258
-265.267	-153.736	-0.315	-0.021
-264.253	-200.000	0.063	-0.276
-263.238	800.000	0.061	0.227
-262.224	149.132	0.154	-0.205
-261.209	-14.601	0.354	-0.224
-260.195	-24.478	0.070	-0.041
-259.180	-44.575	-0.164	-0.081
-258.165	-200.000	-0.007	-0.102
-257.151	-200.000	-0.003	-0.159
-256.136	-154.211	-0.237	-0.016
-255.122	270.720	-0.152	0.263
-254.107	342.162	-0.092	0.178
-253.092	800.000	-0.078	-0.261
-252.078	-6.345	0.042	0.028
-251.063	507.260	0.139	-0.318
-250.049	-139.515	-0.422	0.044
-249.034	-200.000	-0.007	-0.269
-248.019	-85.249	-0.185	0.057
-247.005	428.347	0.040	0.084
-245.990	347.406	0.108	0.210
-244.976	-112.087	0.452	0.089
-243.961	-13.239	-0.321	0.205
-242.946	84.549	-0.216	0.233
-241.932	81.616	0.327	0.348
-240.917	-55.741	-0.121	-0.053
-239.903	-20.615	0.401	-0.242
-238.888	-119.179	0.171	0.029
-237.873	-144.529	0.082	0.007
-236.859	-200.000	-0.024	-0.237
-235.844	-46.387	0.096	0.046
-234.830	240.029	0.121	0.198
-233.815	82.664	-0.119	-0.127
-232.800	800.000	0.098	0.272
-231.786	800.000	-0.023	0.095
-230.771	-200.000	0.020	-0.134
-229.757	-112.063	0.215	0.042
-228.742	-33.275	0.131	0.071
-227.727	-13.109	0.328	0.210
-226.713	99.124	-0.044	-0.050
-225.698	-94.050	0.231	0.062
-224.684	425.959	0.057	0.122
-223.669	-19.237	-0.091	-0.055
-222.655	240.516	-0.110	-0.181
-221.640	-102.559	0.312	-0.073
-220.625	73.675	0.110	-0.113
-219.611	299.743	-0.059	-0.107
-218.596	250.653	-0.026	-0.043
-217.582	-200.000	0.173	-0.000
-216.567	70.942	-0.064	0.065
-215.552	-200.000	-0.008	0.355
-214.538	219.961	-0.136	0.214
-213.523	-70.632	-0.261	0.097
-212.509	-69.082	-0.145	-0.055
-211.494	800.000	0.057	-0.192
-210.479	24.222	0.147	-0.119
-209.465	76.144	-0.183	-0.190
-208.450	800.000	0.015	0.054
-207.436	-200.000	-0.033	0.144
-206.421	-98.907	0.290	-0.072
-205.406	21.093	0.208	0.166
-204.392	108.486	0.144	-0.169
-203.377	-200.000	-0.055	-0.372
-202.363	-79.269	0.276	0.092
-201.348	-57.378	0.066	0.029
-200.333	-40.667	0.280	-0.142
-199.319	49.323	0.189	-0.175
-198.304	-129.198	0.211	0.029
-197.290	-200.000	0.442	0.001
-196.275	800.000	0.109	-0.347
-195.260	-141.197	0.163	-0.016
-194.246	-64.672	-0.139	0.055
-193.231	-200.000	0.040	0.173
-192.217	-153.575	-0.093	-0.006
-191.202	800.000	0.108	-0.320
-190.187	228.081	0.118	-0.188
-189.173	488.121	0.028	-0.062
-188.158	11.803	0.159	-0.119
-187.144	-200.000	-0.005	-0.208
-186.129	-58.946	-0.058	-0.025
-185.114	-147.524	-0.009	0.001
-184.100	49.543	0.304	0.281
-183.085	319.527	-0.089	0.165
-182.071	48.731	0.098	0.090
-181.056	-82.068	-0.123	-0.039
-180.042	-128.157	0.275	-0.039
-179.027	-178.502	-0.144	-0.003
-178.012	800.000	0.083	0.260
-176.998	145.473	0.030	-0.039
-175.983	-39.903	-0.107	0.055
-174.969	332.548	-0.130	-0.246
-173.954	800.000	0.030	0.110
-172.939	-14.260	0.177	0.112
-171.925	267.238	0.118	-0.202
-170.910	73.569	0.177	-0.181
-169.896	-48.986	-0.011	-0.005
-168.881	122.651	-0.176	0.216
-167.866	-26.398	0.332	-0.191
-166.852	24.521	-0.322	0.261
-165.837	31.619	-0.103	0.087
-164.823	19.401	0.289	0.227
-163.808	289.168	-0.047	-0.084
-162.793	657.351	0.026	-0.064
-161.779	140.371	0.197	-0.255
-160.764	-200.000	0.014	-0.085
-159.750	-105.745	-0.189	0.042
-158.735	-108.356	-0.312	0.066
-157.720	139.287	-0.108	0.139
-156.706	800.000	-0.108	0.460
-155.691	-3.531	-0.330	0.225
-154.677	-28.829	-0.198	-0.111
-153.662	-200.000	-0.023	0.184
-152.647	-200.000	-0.026	0.122
-151.633	-112.276	0.283	0.055
-150.618	-123.552	0.262	0.041
-149.604	-78.680	-0.037	-0.012
-148.589	800.000	0.093	-0.367
-147.574	-200.000	0.006	0.080
-146.560	44.378	0.229	0.206
-145.545	-55.752	-0.152	-0.067
-144.531	-200.000	0.008	0.214
-143.516	-121.964	-0.184	0.030
-142.502	362.281	-0.116	0.228
-141.487	800.000	0.039	0.118
-140.472	8.303	-0.283	-0.208
-139.458	-15.354	0.411	0.257
-138.443	-200.000	0.036	-0.155
-137.429	-94.765	-0.217	-0.058
-136.414	-112.026	0.360	0.071
-135.399	-44.826	-0.137	0.067
-134.385	800.000	0.128	-0.369
-133.370	-50.514	-0.202	0.093
-132.356	55.065	-0.261	0.247
-131.341	64.886	0.250	0.247
-130.326	141.691	0.170	0.220
-129.312	297.163	0.107	-0.191
-128.297	100.844	-0.219	0.249
-127.283	-34.172	-0.202	0.108
-126.268	-200.000	-0.028	0.264
-125.253	800.000	0.034	-0.111
-124.239	-197.965	-0.306	0.002
-123.224	-120.026	0.330	0.055
-122.210	-122.205	0.270	-0.043
