DTS Sentinel unit serial number:	SN413079Multiplexer serial number:	ORYXHardware model number:	OX4-SRSoftware version number:	ORYX F/W v4.00 Oryx Data Collector v3.7.2.0data status	okinstallation	princeton_trtdifferential loss correction	single-endedforward channel	channel 1reverse channel	N/Adate	2019/09/16time	23:38:35forward acquisition time	60.00reverse acquisition time	0.00gamma	496.2192k internal	0.2325k external	0.2325temperature offset calibration	0.9958default loss term (dB/km)	0.3790temperature slope calibration	1.0000multiplexer offset coefficient	1.0000multiplexer slope coefficient	1.0000fibre end	0.00T internal ref (°C)	29.75T ext. ref 1 (°C)	0.08T ext. ref 2 (°C)	23.70length (m)	temperature (°C)	Stokes	anti-Stokes-747.200	-97.447	-0.173	0.045
-746.185	28.008	-0.300	0.255
-745.171	113.056	0.102	0.125
-744.156	-21.830	-0.133	0.082
-743.142	570.711	-0.137	-0.337
-742.127	-47.919	-0.323	0.158
-741.112	-123.372	-0.196	0.032
-740.098	14.858	-0.348	0.275
-739.083	52.225	-0.125	0.121
-738.069	-142.256	-0.082	-0.008
-737.054	-80.850	0.305	0.102
-736.039	-200.000	-0.033	0.166
-735.025	493.479	-0.105	0.243
-734.010	-125.313	-0.360	0.055
-732.996	-50.176	-0.422	-0.201
-731.981	651.423	-0.024	-0.063
-730.966	800.000	0.034	0.104
-729.952	-110.437	-0.279	0.059
-728.937	-200.000	-0.035	0.371
-727.923	66.285	-0.164	-0.168
-726.908	409.447	0.100	-0.215
-725.894	77.818	-0.061	-0.066
-724.879	800.000	0.072	0.293
-723.864	-200.000	-0.023	-0.130
-722.850	-200.000	-0.043	0.298
-721.835	-200.000	0.031	-0.175
-720.821	-145.224	0.198	0.018
-719.806	800.000	0.082	-0.265
-718.791	-200.000	0.018	-0.226
-717.777	16.007	-0.389	-0.309
-716.762	-69.502	0.119	-0.046
-715.748	-119.942	-0.427	-0.074
-714.733	-200.000	-0.064	-0.368
-713.718	308.270	0.110	-0.207
-712.704	4.324	-0.261	-0.193
-711.689	665.149	0.106	-0.276
-710.675	15.689	-0.180	0.143
-709.660	285.051	0.171	-0.311
-708.645	-168.978	-0.344	-0.013
-707.631	-113.589	-0.243	0.048
-706.616	-169.964	0.123	0.004
-705.602	-200.000	-0.015	-0.167
-704.587	242.094	0.186	-0.314
-703.572	-200.000	0.026	-0.180
-702.558	85.237	0.096	-0.106
-701.543	-106.443	0.273	0.061
-700.529	61.371	-0.303	0.303
-699.514	-200.000	0.031	0.145
-698.499	-52.230	0.089	0.042
-697.485	403.396	-0.014	0.029
-696.470	75.491	0.440	0.468
-695.456	327.379	-0.099	0.192
-694.441	-113.641	0.234	0.046
-693.426	-189.849	-0.311	0.004
-692.412	150.416	-0.257	0.351
-691.397	3.709	-0.405	-0.298
-690.383	-200.000	0.040	0.451
-689.368	-200.000	0.043	0.250
-688.354	800.000	0.108	-0.415
-687.339	41.295	0.047	-0.043
-686.324	-166.423	-0.048	0.002
-685.310	-200.000	-0.001	0.119
-684.295	-130.493	-0.219	0.030
-683.281	445.992	0.063	0.139
-682.266	-19.927	-0.076	0.047
-681.251	800.000	-0.079	-0.332
-680.237	-200.000	-0.016	-0.236
-679.222	161.073	0.130	-0.183
-678.208	183.160	-0.160	0.238
-677.193	-6.435	-0.179	-0.123
-676.178	228.619	-0.236	-0.387
-675.164	-200.000	0.056	0.277
-674.149	-193.956	0.288	-0.002
-673.135	-49.876	0.375	-0.179
-672.120	-200.000	-0.013	-0.104
-671.105	-70.240	-0.147	0.056
-670.091	-200.000	-0.002	-0.125
-669.076	-24.362	-0.176	-0.106
-668.062	-123.918	-0.120	-0.019
-667.047	-45.445	0.313	-0.156
-666.032	-42.049	0.216	-0.111
-665.018	500.946	0.186	0.431
-664.003	-17.869	0.390	-0.246
-662.989	328.797	-0.149	-0.289
-661.974	157.763	0.020	0.028
-660.959	-141.554	0.295	0.030
-659.945	800.000	0.095	0.353
-658.930	-200.000	0.067	0.302
-657.916	-200.000	-0.008	-0.041
-656.901	1.298	-0.252	0.182
-655.886	-134.524	-0.262	0.032
-654.872	419.982	-0.056	-0.122
-653.857	160.432	0.047	0.065
-652.843	125.709	-0.135	0.171
-651.828	198.936	-0.176	-0.272
-650.814	-113.045	0.382	-0.076
-649.799	-128.474	-0.073	0.010
-648.784	225.820	0.195	-0.317
-647.770	55.014	-0.167	-0.162
-646.755	504.762	0.153	0.356
-645.741	-41.354	-0.261	0.135
-644.726	5.496	0.149	-0.111
-643.711	800.000	0.014	0.053
-642.697	542.076	-0.136	-0.327
-641.682	-200.000	0.026	-0.389
-640.668	-200.000	-0.001	0.209
-639.653	99.131	-0.285	0.331
-638.638	487.809	0.071	-0.162
-637.624	65.301	0.246	-0.250
-636.609	-70.951	-0.278	0.105
-635.595	93.532	0.173	0.197
-634.580	-200.000	0.032	-0.157
-633.565	-200.000	-0.008	-0.092
-632.551	-91.354	-0.208	-0.060
-631.536	-87.789	-0.197	0.060
-630.522	-176.055	0.375	-0.010
-629.507	26.561	-0.093	0.078
-628.492	96.172	-0.169	0.194
-627.478	-86.858	0.310	-0.095
-626.463	120.584	-0.103	0.128
-625.449	-200.000	0.072	0.517
-624.434	168.112	0.115	0.164
-623.419	-125.632	-0.285	0.043
-622.405	135.782	0.146	-0.190
-621.390	204.450	0.068	-0.105
-620.376	375.679	-0.035	-0.072
-619.361	408.346	-0.064	-0.136
-618.346	511.965	0.039	0.091
-617.332	-200.000	0.032	-0.498
-616.317	785.113	-0.114	0.315
-615.303	-200.000	0.016	-0.112
-614.288	69.445	-0.131	0.135
-613.273	641.595	0.050	-0.128
-612.259	-200.000	-0.020	-0.382
-611.244	-119.270	-0.236	0.041
-610.230	-47.453	0.058	-0.029
-609.215	11.240	-0.107	-0.082
-608.201	376.220	-0.142	-0.292
-607.186	-143.151	-0.155	-0.015
-606.171	233.375	-0.180	-0.297
-605.157	543.078	-0.038	0.090
-604.142	197.715	0.077	-0.119
-603.128	642.738	-0.050	-0.129
-602.113	19.431	0.118	0.095
-601.098	-120.353	0.224	0.038
-600.084	468.770	-0.108	0.243
-599.069	800.000	-0.053	-0.173
-598.055	231.475	-0.066	-0.108
-597.040	71.815	0.014	-0.015
-596.025	-140.729	-0.476	0.049
-595.011	-20.312	-0.168	-0.104
-593.996	215.059	0.053	-0.085
-592.982	26.022	-0.148	-0.124
-591.967	-101.693	-0.468	0.114
-590.952	-154.176	0.026	0.002
-589.938	-133.613	0.175	0.022
-588.923	800.000	-0.095	0.270
-587.909	-13.006	-0.188	0.123
-586.894	64.940	-0.198	0.200
-585.879	-90.494	-0.411	0.119
-584.865	-200.000	-0.008	0.190
-583.850	-17.508	0.215	-0.136
-582.836	-54.690	0.227	-0.103
-581.821	119.372	0.132	-0.164
-580.806	-126.505	-0.186	-0.028
-579.792	108.548	-0.083	-0.099
-578.777	131.976	0.166	-0.214
-577.763	800.000	0.084	-0.305
-576.748	449.603	-0.122	0.270
-575.733	-50.213	0.390	0.185
-574.719	-171.064	-0.150	-0.005
-573.704	-41.184	0.303	0.157
-572.690	147.894	-0.147	0.198
-571.675	-43.719	0.090	0.045
-570.661	263.991	-0.033	0.057
-569.646	800.000	0.052	0.167
-568.631	138.143	-0.027	-0.036
-567.617	90.061	0.132	-0.148
-566.602	-87.460	-0.285	-0.086
-565.588	-31.519	-0.113	-0.063
-564.573	-106.056	0.258	0.058
-563.558	415.425	0.080	-0.170
-562.544	-29.739	-0.218	-0.125
-561.529	-30.938	-0.343	0.194
-560.515	-156.263	0.307	-0.019
-559.500	-197.117	-0.067	0.000
-558.485	12.936	0.202	0.157
-557.471	-66.033	0.191	0.076
-556.456	-54.891	-0.022	-0.010
-555.442	-200.000	-0.015	-0.077
-554.427	-116.680	-0.346	0.064
-553.412	-200.000	-0.021	0.153
-552.398	-148.390	0.002	-0.000
-551.383	800.000	0.065	0.207
-550.369	-118.034	-0.231	0.041
-549.354	53.321	-0.201	0.193
-548.339	-139.076	0.348	-0.038
-547.325	80.789	-0.306	-0.331
-546.310	135.362	0.128	0.167
-545.296	174.184	-0.122	-0.176
-544.281	-28.433	0.154	-0.089
-543.266	800.000	0.086	0.280
-542.252	111.197	0.155	0.186
-541.237	-5.617	0.319	0.219
-540.223	-6.402	-0.149	-0.101
-539.208	18.344	0.160	-0.128
-538.193	45.196	-0.186	-0.172
-537.179	-200.000	0.008	0.063
-536.164	-65.561	0.111	0.045
-535.150	-200.000	0.006	0.196
-534.135	-9.937	0.207	0.138
-533.121	108.080	-0.116	-0.138
-532.106	-200.000	-0.003	-0.132
-531.091	-106.920	0.187	-0.041
-530.077	-83.252	0.172	-0.055
-529.062	87.668	0.221	0.245
-528.048	34.239	-0.194	0.169
-527.033	152.684	0.092	0.126
-526.018	-99.340	0.235	0.059
-525.004	-158.656	-0.331	-0.019
-523.989	800.000	0.098	-0.320
-522.975	-200.000	-0.016	0.248
-521.960	155.308	-0.188	0.259
-520.945	-138.745	0.209	0.023
-519.931	-200.000	0.021	-0.277
-518.916	150.454	-0.109	0.148
-517.902	-58.242	-0.150	0.065
-516.887	-78.462	-0.332	0.114
-515.872	800.000	0.054	-0.159
-514.858	26.029	0.072	0.060
-513.843	-54.032	-0.269	0.122
-512.829	-73.956	0.034	0.012
-511.814	258.376	0.082	0.141
-510.799	176.589	0.099	-0.144
-509.785	800.000	0.079	-0.228
-508.770	160.921	0.164	0.229
-507.756	-18.474	0.175	0.109
-506.741	-42.599	-0.240	0.122
-505.726	361.997	0.091	0.182
-504.712	252.383	0.087	0.148
-503.697	138.003	0.176	-0.230
-502.683	140.484	-0.098	-0.130
-501.668	-102.389	-0.135	-0.032
-500.653	99.782	-0.069	0.080
-499.639	-86.886	-0.090	0.028
-498.624	-39.795	-0.326	-0.170
-497.610	77.606	-0.183	0.195
-496.595	-123.657	-0.204	0.032
-495.581	-14.693	0.078	-0.050
-494.566	-28.545	0.222	-0.128
-493.551	-200.000	0.023	-0.298
-492.537	800.000	0.079	-0.283
-491.522	-136.219	-0.233	-0.027
-490.508	-109.590	-0.014	0.003
-489.493	-200.000	0.006	-0.062
-488.478	-88.064	-0.174	-0.052
-487.464	97.582	-0.200	-0.230
-486.449	164.729	0.032	-0.045
-485.435	-98.128	-0.374	0.096
-484.420	217.632	-0.061	0.097
-483.405	298.108	0.119	-0.218
-482.391	60.750	0.239	0.236
-481.376	-200.000	-0.035	-0.183
-480.362	-200.000	-0.031	-0.196
-479.347	613.347	0.161	-0.404
-478.332	549.240	0.123	-0.294
-477.318	94.148	-0.069	0.078
-476.303	151.644	0.162	0.220
-475.289	800.000	-0.080	0.322
-474.274	-164.560	-0.321	-0.015
-473.259	-110.957	-0.251	-0.052
-472.245	-107.902	-0.284	-0.062
-471.230	-200.000	0.048	0.448
-470.216	747.745	-0.045	-0.120
-469.201	205.042	0.208	0.322
-468.186	-94.668	0.364	0.099
-467.172	-116.656	0.041	-0.008
-466.157	744.053	0.038	-0.101
-465.143	83.810	-0.198	0.216
-464.128	-136.985	-0.178	-0.020
-463.113	-200.000	0.032	0.163
-462.099	-16.923	0.049	-0.031
-461.084	-75.249	-0.299	-0.107
-460.070	-139.150	0.226	0.024
-459.055	-42.967	-0.239	-0.121
-458.040	800.000	0.026	0.093
-457.026	-81.430	-0.193	0.064
-456.011	-200.000	-0.006	0.177
-454.997	285.612	0.097	0.175
-453.982	-149.327	-0.189	0.015
-452.968	800.000	-0.042	0.178
-451.953	-172.658	0.057	-0.002
-450.938	-200.000	-0.065	-0.414
-449.924	45.587	0.279	0.257
-448.909	-200.000	0.031	0.170
-447.895	169.220	-0.104	0.149
-446.880	507.362	0.073	0.169
-445.865	800.000	-0.093	0.398
-444.851	-159.270	0.139	-0.008
-443.836	-200.000	-0.015	0.069
-442.822	-51.605	0.173	0.080
-441.807	-39.408	0.146	0.076
-440.792	590.813	-0.052	0.127
-439.778	-200.000	0.006	-0.113
-438.763	-50.262	0.291	-0.137
-437.749	800.000	-0.087	-0.326
-436.734	34.201	0.240	0.209
-435.719	-130.153	-0.102	0.014
-434.705	-40.096	0.256	0.133
-433.690	-33.047	0.316	-0.175
-432.676	800.000	0.014	0.063
-431.661	96.504	0.079	0.090
-430.646	19.801	0.211	0.169
-429.632	-200.000	0.048	-0.234
-428.617	-13.729	0.318	-0.205
-427.603	594.094	-0.028	-0.070
-426.588	481.686	0.115	-0.261
-425.573	-93.284	-0.238	-0.066
-424.559	30.342	-0.053	0.045
-423.544	366.280	-0.003	0.005
-422.530	194.255	0.101	-0.153
-421.515	23.543	-0.196	0.161
-420.500	-200.000	0.009	0.083
-419.486	-38.031	-0.217	-0.115
-418.471	-75.801	0.128	-0.045
-417.457	-117.298	-0.088	-0.016
-416.442	-136.715	0.142	-0.016
-415.428	567.588	-0.123	-0.297
-414.413	92.019	-0.268	-0.301
-413.398	108.899	-0.117	-0.139
-412.384	800.000	-0.024	0.072
-411.369	-200.000	-0.004	0.081
-410.355	-200.000	0.024	0.126
-409.340	-72.388	0.226	-0.083
-408.325	800.000	0.104	-0.345
-407.311	800.000	0.059	0.164
-406.296	532.907	-0.124	-0.292
-405.282	242.199	0.122	-0.204
-404.267	44.530	0.060	0.055
-403.252	114.730	0.157	-0.191
-402.238	-65.089	-0.118	0.047
-401.223	-111.521	-0.119	0.024
-400.209	800.000	0.096	-0.305
-399.194	-200.000	0.038	-0.180
-398.179	73.981	-0.157	0.164
-397.165	291.168	-0.049	-0.089
-396.150	-200.000	-0.020	-0.174
-395.136	251.475	-0.094	-0.159
-394.121	-105.161	-0.343	-0.078
-393.106	-147.164	-0.451	0.038
-392.092	-30.544	0.093	0.053
-391.077	500.707	-0.078	0.180
-390.063	41.511	0.160	0.144
-389.048	75.066	-0.213	-0.223
-388.033	17.669	-0.317	0.251
-387.019	-129.238	-0.164	0.023
-386.004	-100.177	0.332	0.082
-384.990	596.016	0.030	-0.075
-383.975	72.132	0.157	-0.163
-382.960	115.131	0.065	-0.079
-381.946	43.662	0.043	-0.039
-380.931	-200.000	-0.026	-0.205
-379.917	-42.553	-0.160	0.081
-378.902	-34.985	0.374	-0.203
-377.888	693.561	-0.043	-0.111
-376.873	449.983	-0.142	0.312
-375.858	-200.000	0.008	0.347
-374.844	187.000	-0.149	0.221
-373.829	-154.818	-0.258	-0.017
-372.815	-151.340	0.227	-0.017
-371.800	-200.000	0.040	-0.386
-370.785	793.195	0.106	-0.291
-369.771	250.324	-0.160	0.271
-368.756	-200.000	-0.032	0.169
-367.742	-117.873	-0.211	-0.038
-366.727	459.633	-0.100	-0.222
-365.712	728.716	-0.020	-0.054
-364.698	97.855	-0.068	0.078
-363.683	-153.923	0.109	0.007
-362.669	-161.017	-0.260	-0.014
-361.654	-200.000	-0.010	0.294
-360.639	-149.523	-0.053	-0.004
-359.625	76.544	-0.200	-0.211
-358.610	603.792	-0.025	0.062
-357.596	318.164	0.103	0.193
-356.581	570.124	0.049	0.119
-355.566	-9.599	-0.245	-0.162
-354.552	-117.096	-0.178	0.032
-353.537	-5.603	-0.099	0.067
-352.523	4.178	-0.127	-0.092
-351.508	-200.000	0.052	0.259
-350.493	710.765	-0.019	0.050
-349.479	-76.897	-0.114	0.040
-348.464	340.082	0.053	-0.104
-347.450	800.000	0.106	0.363
-346.435	800.000	-0.041	-0.113
-345.420	-200.000	0.030	-0.169
-344.406	800.000	-0.051	-0.149
-343.391	-54.830	-0.062	-0.028
-342.377	679.386	-0.053	0.137
-341.362	-54.739	0.256	-0.115
-340.348	-200.000	0.021	0.229
-339.333	-84.597	-0.055	0.017
-338.318	333.516	0.027	-0.051
-337.304	195.015	-0.162	-0.244
-336.289	94.551	-0.206	-0.233
-335.275	14.434	0.111	-0.086
-334.260	421.917	0.076	0.161
-333.245	265.901	0.051	0.088
-332.231	345.846	-0.168	-0.328
-331.216	-200.000	0.026	-0.338
-330.202	-19.444	0.206	0.127
-329.187	-200.000	0.011	-0.148
-328.172	53.556	0.203	0.193
-327.158	-31.345	0.223	0.124
-326.143	419.411	-0.165	-0.350
-325.129	-200.000	-0.043	0.252
-324.114	800.000	-0.130	0.392
-323.099	-45.179	-0.048	-0.024
-322.085	800.000	0.090	-0.287
-321.070	51.370	-0.131	-0.123
-320.056	524.765	-0.063	0.146
-319.041	262.314	0.141	-0.242
-318.026	598.441	0.085	-0.210
-317.012	-130.371	0.302	0.041
-315.997	-110.733	-0.197	-0.040
-314.983	800.000	0.163	0.490
-313.968	-77.977	0.231	-0.079
-312.953	-121.498	-0.116	0.019
-311.939	800.000	-0.073	-0.226
-310.924	142.456	0.122	0.161
-309.910	-200.000	-0.011	-0.219
-308.895	73.951	-0.109	0.114
-307.880	-59.206	0.202	0.086
-306.866	-200.000	0.000	-0.119
-305.851	172.526	0.260	-0.371
-304.837	800.000	0.104	0.326
-303.822	292.895	-0.167	0.302
-302.807	120.944	0.050	-0.062
-301.793	626.698	-0.029	-0.073
-300.778	-118.827	0.020	0.004
-299.764	-200.000	0.038	0.170
-298.749	-99.385	0.087	-0.022
-297.735	-200.000	-0.043	0.344
-296.720	800.000	0.118	-0.407
-295.705	67.328	0.313	-0.317
-294.691	-85.083	0.286	0.089
-293.676	-200.000	0.012	-0.369
-292.662	-200.000	-0.010	-0.067
-291.647	800.000	0.084	-0.268
-290.632	800.000	0.063	0.255
-289.618	-15.540	0.080	0.051
-288.603	555.171	-0.088	-0.211
-287.589	-200.000	0.000	-0.114
-286.574	115.838	-0.126	-0.153
-285.559	156.307	0.020	0.028
-284.545	-109.169	0.315	-0.066
-283.530	6.732	0.090	0.067
-282.516	-147.995	-0.311	-0.026
-281.501	122.689	-0.102	-0.126
-280.486	-97.162	-0.055	0.014
-279.472	262.534	-0.111	0.190
-278.457	-109.510	-0.294	0.062
-277.443	-85.123	0.241	0.075
-276.428	139.455	-0.242	-0.316
-275.413	189.314	-0.079	0.117
-274.399	-142.045	0.450	0.044
-273.384	-91.002	0.439	0.125
-272.370	-117.535	0.087	-0.016
-271.355	123.315	-0.200	0.248
-270.340	8.869	-0.224	0.167
-269.326	119.564	-0.197	0.242
-268.311	22.345	-0.243	0.197
-267.297	33.036	0.091	-0.078
-266.282	182.821	0.054	0.079
-265.267	328.153	0.145	0.276
-264.253	84.973	-0.155	-0.168
-263.238	74.886	0.216	0.225
-262.224	-200.000	0.013	0.072
-261.209	-145.983	0.051	-0.004
-260.195	112.060	-0.116	-0.139
-259.180	187.779	0.059	0.087
-258.165	-157.036	0.033	-0.002
-257.151	-200.000	-0.019	-0.251
-256.136	-200.000	-0.011	-0.107
-255.122	241.938	-0.037	-0.061
-254.107	-101.714	0.242	0.058
-253.092	241.438	-0.172	0.284
-252.078	-117.701	0.166	-0.030
-251.063	199.789	0.139	-0.211
-250.049	-166.259	0.294	0.012
-249.034	-107.346	-0.037	0.008
-248.019	-170.407	0.115	0.004
-247.005	-132.896	0.530	0.067
-245.990	-79.082	0.027	-0.009
-244.976	-138.907	0.040	-0.004
-243.961	101.064	-0.102	0.117
-242.946	114.576	0.148	0.179
-241.932	-43.856	-0.229	-0.114
-240.917	-103.288	-0.081	-0.019
-239.903	-6.107	0.089	0.060
-238.888	800.000	0.087	-0.274
-237.873	747.602	0.084	0.225
-236.859	463.608	0.030	-0.067
-235.844	-92.687	0.102	0.028
-234.830	81.416	-0.170	0.182
-233.815	439.507	0.062	0.133
-232.800	-113.470	0.225	0.044
-231.786	11.505	-0.214	0.163
-230.771	354.342	-0.158	0.310
-229.757	155.927	0.174	0.238
-228.742	800.000	-0.019	-0.064
-227.727	-139.662	0.105	-0.011
-226.713	108.164	-0.064	0.076
-225.698	33.032	0.198	-0.170
-224.684	-49.899	0.170	-0.080
-223.669	57.216	0.297	0.286
-222.655	604.673	-0.134	0.329
-221.640	-30.474	0.166	0.093
-220.625	-13.909	0.181	0.116
-219.611	-79.734	0.377	-0.126
-218.596	800.000	0.044	-0.122
-217.582	60.290	0.296	-0.290
-216.567	-25.196	-0.246	-0.144
-215.552	-101.039	0.361	0.087
-214.538	545.500	0.103	0.243
-213.523	-200.000	-0.022	0.121
-212.509	126.838	-0.161	0.202
-211.494	180.858	-0.064	0.094
-210.479	-60.963	-0.114	-0.048
-209.465	100.367	0.116	-0.133
-208.450	240.404	-0.135	0.223
-207.436	-200.000	-0.005	0.099
-206.421	-200.000	0.001	0.176
-205.406	35.900	-0.165	-0.144
-204.392	-109.648	-0.051	0.011
-203.377	381.648	0.038	0.077
-202.363	800.000	-0.088	0.280
-201.348	-39.174	-0.169	0.088
-200.333	103.830	0.074	0.086
-199.319	-148.065	-0.140	-0.011
-198.304	-154.198	-0.038	-0.003
-197.290	457.894	-0.075	-0.165
-196.275	68.552	0.212	-0.215
-195.260	-128.543	-0.256	-0.036
-194.246	201.157	-0.158	0.239
-193.231	108.678	0.102	0.120
-192.217	-57.894	0.389	-0.168
-191.202	319.173	-0.102	0.191
-190.187	-102.065	-0.074	0.018
-189.173	145.403	0.079	-0.105
-188.158	800.000	0.080	-0.255
-187.144	-200.000	-0.007	0.206
-186.129	100.379	-0.313	0.359
-185.114	-32.424	-0.132	0.072
-184.100	-66.717	-0.234	0.091
-183.085	203.792	0.134	-0.205
-182.071	-194.432	0.190	-0.002
-181.056	800.000	0.027	0.081
-180.042	-134.819	0.258	-0.031
-179.027	800.000	-0.091	-0.325
-178.012	-200.000	-0.041	-0.410
-176.998	94.527	-0.072	0.081
-175.983	20.216	-0.129	0.103
-174.969	-58.768	-0.267	-0.114
-173.954	371.373	0.118	-0.237
-172.939	-200.000	0.007	-0.126
-171.925	112.123	0.057	-0.068
-170.910	17.782	-0.054	0.042
-169.896	-200.000	-0.006	-0.051
-168.881	327.170	0.106	-0.200
-167.866	-59.491	0.120	-0.051
-166.852	-195.375	-0.127	-0.001
-165.837	-24.753	0.147	0.086
-164.823	-118.402	-0.150	0.026
-163.808	-181.842	-0.188	0.004
-162.793	-109.254	0.301	0.063
-161.779	-114.318	-0.233	0.044
-160.764	133.372	-0.134	0.171
-159.750	668.180	-0.022	-0.057
-158.735	800.000	-0.059	-0.201
-157.720	-98.223	0.302	0.076
-156.706	-113.337	0.118	-0.023
-155.691	228.640	0.139	-0.224
-154.677	-95.645	0.079	-0.021
-153.662	80.463	0.118	0.125
-152.647	111.391	-0.124	-0.147
-151.633	173.741	0.206	-0.293
-150.618	74.895	0.159	-0.166
-149.604	800.000	-0.074	-0.259
-148.589	-200.000	-0.009	0.361
-147.574	-136.373	0.299	-0.034
-146.560	-94.033	0.261	-0.071
-145.545	15.673	0.131	0.101
-144.531	409.471	0.073	0.153
-143.516	800.000	0.044	0.161
-142.502	-56.476	-0.192	0.084
-141.487	22.776	0.136	-0.110
-140.472	-106.817	-0.181	-0.040
-139.458	50.519	0.170	-0.158
-138.443	197.581	0.154	0.232
-137.429	2.803	0.075	-0.053
-136.414	-200.000	0.028	-0.477
-135.399	-102.156	0.225	-0.053
-134.385	-9.467	0.136	0.090
-133.370	97.458	0.104	0.118
-132.356	-200.000	0.016	-0.080
-131.341	-200.000	0.011	0.260
-130.326	-42.211	-0.207	0.104
-129.312	800.000	-0.041	-0.136
-128.297	800.000	-0.029	-0.089
-127.283	26.961	-0.162	0.134
-126.268	-110.280	0.079	0.016
-125.253	-200.000	-0.002	-0.037
-124.239	-200.000	0.006	-0.091
-123.224	93.474	0.227	0.253
-122.210	-200.000	-0.019	-0.112
