DTS Sentinel unit serial number:	SN413079Multiplexer serial number:	ORYXHardware model number:	OX4-SRSoftware version number:	ORYX F/W v4.00 Oryx Data Collector v3.7.2.0data status	okinstallation	princeton_trtdifferential loss correction	single-endedforward channel	channel 1reverse channel	N/Adate	2019/09/16time	23:50:35forward acquisition time	60.00reverse acquisition time	0.00gamma	496.2192k internal	0.2325k external	0.2325temperature offset calibration	0.9957default loss term (dB/km)	0.3790temperature slope calibration	1.0000multiplexer offset coefficient	1.0000multiplexer slope coefficient	1.0000fibre end	0.00T internal ref (°C)	29.64T ext. ref 1 (°C)	0.09T ext. ref 2 (°C)	23.86length (m)	temperature (°C)	Stokes	anti-Stokes-747.200	-70.322	-0.047	0.018
-746.185	42.663	0.205	-0.188
-745.171	239.220	0.103	0.173
-744.156	800.000	-0.110	0.342
-743.142	-122.404	0.499	0.082
-742.127	5.654	-0.393	0.293
-741.112	-108.944	-0.189	-0.041
-740.098	160.399	0.163	0.229
-739.083	-103.570	-0.075	-0.018
-738.069	15.411	0.030	-0.024
-737.054	-200.000	-0.017	-0.108
-736.039	36.346	-0.177	0.158
-735.025	800.000	-0.049	0.201
-734.010	800.000	0.031	0.125
-732.996	-51.960	-0.412	0.193
-731.981	83.744	-0.049	-0.054
-730.966	800.000	-0.114	-0.449
-729.952	-48.668	-0.074	-0.036
-728.937	800.000	-0.056	-0.218
-727.923	-200.000	0.004	0.155
-726.908	703.051	-0.004	-0.011
-725.894	357.324	-0.160	0.322
-724.879	19.654	0.124	0.100
-723.864	800.000	0.020	0.071
-722.850	474.212	-0.129	-0.293
-721.835	44.892	-0.082	-0.076
-720.821	271.819	-0.071	-0.127
-719.806	-91.855	0.086	-0.025
-718.791	445.497	-0.091	-0.203
-717.777	800.000	-0.044	-0.126
-716.762	204.019	0.211	0.330
-715.748	-72.644	-0.465	-0.173
-714.733	32.580	0.033	-0.028
-713.718	106.890	0.094	0.113
-712.704	-99.073	-0.299	-0.076
-711.689	114.021	-0.259	-0.318
-710.675	50.887	0.093	-0.089
-709.660	12.909	-0.398	-0.310
-708.645	-60.841	0.183	-0.078
-707.631	800.000	0.050	-0.185
-706.616	162.083	0.098	-0.138
-705.602	-200.000	0.017	0.219
-704.587	-200.000	-0.006	-0.227
-703.572	-81.491	-0.247	-0.082
-702.558	-73.020	0.105	-0.039
-701.543	-124.600	0.208	-0.033
-700.529	-200.000	-0.006	0.170
-699.514	109.937	0.134	0.162
-698.499	157.452	0.203	-0.283
-697.485	267.958	-0.185	0.326
-696.470	-200.000	-0.043	-0.226
-695.456	96.918	-0.234	-0.270
-694.441	-200.000	0.076	-0.469
-693.426	75.502	0.049	0.052
-692.412	-70.797	-0.285	-0.108
-691.397	-27.980	-0.277	-0.161
-690.383	44.306	-0.179	-0.165
-689.368	54.928	-0.324	-0.315
-688.354	146.503	-0.183	-0.247
-687.339	-6.125	-0.144	-0.099
-686.324	153.276	0.126	-0.174
-685.310	153.308	-0.100	-0.138
-684.295	-8.554	-0.176	-0.119
-683.281	660.416	-0.176	-0.457
-682.266	-200.000	0.042	-0.603
-681.251	-200.000	0.076	-0.407
-680.237	-38.251	-0.195	-0.104
-679.222	118.307	0.185	-0.229
-678.208	-3.058	-0.207	-0.145
-677.193	-200.000	0.009	-0.090
-676.178	-28.493	0.035	0.021
-675.164	157.662	-0.156	-0.217
-674.149	-30.770	0.255	-0.145
-673.135	523.101	-0.072	-0.171
-672.120	-19.803	0.144	-0.090
-671.105	800.000	0.138	-0.391
-670.091	667.068	0.107	-0.277
-669.076	-200.000	-0.055	-0.353
-668.062	621.766	0.021	0.052
-667.047	258.172	0.111	-0.192
-666.032	122.161	-0.267	-0.336
-665.018	-136.120	0.109	0.013
-664.003	1.897	0.167	0.121
-662.989	349.063	0.135	0.268
-661.974	4.780	-0.094	0.069
-660.959	-39.712	0.015	-0.008
-659.945	353.262	-0.034	-0.067
-658.930	-200.000	0.005	0.169
-657.916	-150.010	-0.326	-0.026
-656.901	-111.574	0.178	0.036
-655.886	-41.601	0.191	0.098
-654.872	-200.000	-0.018	-0.283
-653.857	-136.843	-0.188	0.022
-652.843	143.614	-0.114	-0.153
-651.828	-109.427	-0.184	0.039
-650.814	-55.112	-0.359	-0.162
-649.799	320.931	0.090	0.172
-648.784	10.856	0.236	-0.181
-647.770	-122.646	0.052	-0.008
-646.755	14.120	-0.262	-0.205
-645.741	-115.140	-0.071	-0.013
-644.726	65.692	0.188	-0.192
-643.711	70.881	0.112	-0.116
-642.697	137.607	-0.223	-0.293
-641.682	-88.048	-0.370	-0.112
-640.668	-100.396	-0.323	-0.080
-639.653	-32.499	-0.055	-0.031
-638.638	352.806	-0.168	0.334
-637.624	58.859	-0.252	0.249
-636.609	-46.559	-0.149	-0.073
-635.595	85.893	0.113	0.125
-634.580	103.891	0.108	0.128
-633.565	-200.000	0.024	0.172
-632.551	-200.000	0.038	-0.287
-631.536	-160.455	-0.248	0.013
-630.522	-200.000	-0.004	0.060
-629.507	-163.398	-0.186	-0.009
-628.492	-200.000	-0.038	-0.236
-627.478	-42.973	-0.305	-0.155
-626.463	-68.043	-0.205	0.080
-625.449	-89.061	0.119	-0.035
-624.434	-165.354	-0.307	-0.014
-623.419	-200.000	-0.008	0.141
-622.405	800.000	0.020	0.064
-621.390	-200.000	-0.007	-0.352
-620.376	65.133	-0.169	0.171
-619.361	14.842	0.237	-0.186
-618.346	28.636	-0.162	-0.138
-617.332	-35.378	-0.266	-0.145
-616.317	191.194	0.237	-0.358
-615.303	69.160	-0.171	0.177
-614.288	723.933	0.195	-0.521
-613.273	-200.000	0.038	-0.296
-612.259	598.300	-0.122	-0.304
-611.244	64.027	0.078	0.079
-610.230	114.512	-0.130	-0.158
-609.215	-56.028	-0.146	-0.065
-608.201	800.000	0.056	-0.190
-607.186	65.834	-0.128	-0.130
-606.171	-200.000	-0.047	-0.228
-605.157	-200.000	0.027	-0.222
-604.142	106.094	-0.093	-0.110
-603.128	-63.934	0.105	-0.043
-602.113	-200.000	-0.056	-0.257
-601.098	158.520	-0.124	-0.173
-600.084	367.498	0.169	-0.343
-599.069	35.014	0.233	-0.204
-598.055	-33.519	0.323	-0.179
-597.040	55.655	-0.053	-0.052
-596.025	93.736	0.128	0.145
-595.011	800.000	-0.080	0.249
-593.996	437.299	0.066	0.144
-592.982	-7.371	-0.049	0.033
-591.967	36.578	-0.215	-0.190
-590.952	-150.411	0.079	-0.006
-589.938	161.658	0.193	-0.271
-588.923	-159.170	-0.405	0.023
-587.909	-200.000	0.059	0.375
-586.894	-184.832	0.129	-0.002
-585.879	800.000	0.061	-0.195
-584.865	235.673	0.260	0.430
-583.850	-200.000	-0.017	-0.426
-582.836	95.285	0.218	0.249
-581.821	-3.524	0.049	-0.034
-580.806	-84.736	0.126	-0.040
-579.792	-138.849	0.153	0.017
-578.777	-155.849	-0.272	-0.017
-577.763	25.413	0.119	-0.100
-576.748	42.948	-0.077	0.071
-575.733	-147.313	-0.340	0.029
-574.719	-60.612	0.268	-0.114
-573.704	306.008	-0.088	-0.165
-572.690	800.000	-0.040	-0.155
-571.675	-200.000	-0.026	-0.393
-570.661	20.547	0.045	-0.036
-569.646	116.230	-0.207	0.254
-568.631	-17.767	0.130	-0.082
-567.617	-200.000	0.010	0.325
-566.602	371.131	0.064	0.130
-565.588	-36.098	-0.168	-0.091
-564.573	177.259	0.148	0.216
-563.558	-200.000	-0.030	-0.268
-562.544	-35.354	-0.154	-0.084
-561.529	219.668	-0.214	0.343
-560.515	243.085	0.037	0.062
-559.500	-200.000	0.049	-0.279
-558.485	143.697	-0.135	-0.180
-557.471	-104.022	-0.296	-0.069
-556.456	-148.826	0.207	0.017
-555.442	800.000	-0.076	-0.240
-554.427	-122.159	-0.222	0.036
-553.412	279.702	-0.193	0.346
-552.398	-23.320	0.103	0.062
-551.383	76.477	-0.140	0.148
-550.369	-62.514	0.158	0.066
-549.354	-200.000	0.011	-0.129
-548.339	-200.000	0.057	0.318
-547.325	4.366	0.180	0.132
-546.310	163.955	-0.140	0.197
-545.296	314.812	0.089	0.169
-544.281	61.165	-0.153	0.152
-543.266	-70.087	0.142	-0.054
-542.252	161.158	0.083	0.117
-541.237	799.573	-0.093	-0.256
-540.223	-27.363	0.191	-0.112
-539.208	79.963	-0.145	-0.156
-538.193	-52.820	0.243	0.112
-537.179	-38.567	0.320	0.169
-536.164	-14.542	0.232	-0.149
-535.150	800.000	0.065	-0.189
-534.135	-79.298	0.115	0.039
-533.121	-129.035	-0.074	0.010
-532.106	800.000	-0.059	-0.170
-531.091	-200.000	0.014	0.095
-530.077	800.000	-0.031	-0.124
-529.062	253.433	-0.043	0.074
-528.048	-125.491	0.163	0.025
-527.033	-169.314	0.505	-0.019
-526.018	-66.947	-0.228	-0.090
-525.004	326.940	-0.129	-0.247
-523.989	262.232	0.205	-0.355
-522.975	-200.000	0.094	0.000
-521.960	697.597	0.092	0.242
-520.945	-200.000	-0.061	-0.381
-519.931	194.574	-0.096	-0.146
-518.916	-200.000	0.021	0.259
-517.902	-29.483	0.128	0.073
-516.887	54.107	0.044	0.042
-515.872	-90.616	-0.297	-0.086
-514.858	90.789	0.146	0.164
-513.843	-132.507	0.332	0.043
-512.829	160.606	-0.051	-0.071
-511.814	-172.136	-0.387	-0.012
-510.799	47.868	-0.175	0.164
-509.785	-15.796	-0.133	0.085
-508.770	532.151	-0.141	0.333
-507.756	48.798	-0.234	0.219
-506.741	800.000	0.109	-0.329
-505.726	466.199	-0.172	-0.386
-504.712	228.284	0.077	0.126
-503.697	-134.043	-0.138	-0.017
-502.683	-163.049	0.055	0.003
-501.668	-48.029	0.619	0.299
-500.653	-35.620	-0.260	-0.141
-499.639	161.645	0.076	-0.106
-498.624	93.942	-0.145	-0.165
-497.610	-131.411	-0.274	0.036
-496.595	-34.382	-0.102	0.056
-495.581	-200.000	0.034	-0.224
-494.566	-94.344	0.282	0.077
-493.551	119.464	-0.233	-0.288
-492.537	-41.269	0.405	-0.209
-491.522	-77.712	-0.265	-0.092
-490.508	-47.535	-0.347	-0.168
-489.493	19.932	0.182	-0.147
-488.478	-158.454	0.195	0.011
-487.464	-40.646	0.263	-0.136
-486.449	-105.886	-0.162	0.037
-485.435	-67.178	-0.187	0.073
-484.420	87.806	0.127	0.141
-483.405	-137.171	0.459	-0.052
-482.391	230.788	0.257	-0.421
-481.376	-105.283	-0.182	-0.041
-480.362	12.753	0.329	0.254
-479.347	90.476	0.132	-0.148
-478.332	-46.609	-0.087	0.043
-477.318	-128.753	0.122	-0.017
-476.303	-126.540	-0.300	-0.044
-475.289	800.000	0.035	0.116
-474.274	398.873	-0.088	0.185
-473.259	-123.924	-0.015	-0.002
-472.245	-126.554	-0.105	-0.016
-471.230	6.308	-0.181	-0.134
-470.216	-144.329	-0.161	0.015
-469.201	-29.323	0.124	0.071
-468.186	-121.270	-0.262	-0.044
-467.172	800.000	0.115	0.319
-466.157	207.211	0.131	-0.204
-465.143	8.834	0.175	0.132
-464.128	16.252	0.108	0.085
-463.113	-23.343	-0.057	0.034
-462.099	269.573	-0.183	0.320
-461.084	20.841	0.341	-0.276
-460.070	420.154	-0.087	-0.186
-459.055	-101.157	-0.162	0.040
-458.040	-68.157	0.326	-0.127
-457.026	-135.423	0.155	0.018
-456.011	116.753	0.149	-0.182
-454.997	8.012	-0.316	0.237
-453.982	521.720	-0.030	0.069
-452.968	-200.000	0.009	0.138
-451.953	-52.692	-0.119	-0.055
-450.938	27.446	0.070	0.059
-449.924	-156.162	-0.368	0.023
-448.909	-200.000	0.054	0.376
-447.895	157.254	-0.196	-0.271
-446.880	764.142	0.057	-0.154
-445.865	-10.876	-0.175	0.115
-444.851	-200.000	0.006	0.301
-443.836	800.000	-0.081	0.283
-442.822	-66.893	-0.242	0.096
-441.807	-200.000	0.037	0.416
-440.792	-146.779	-0.127	-0.011
-439.778	-200.000	0.049	-0.219
-438.763	789.068	0.026	-0.072
-437.749	-178.454	0.178	0.004
-436.734	3.575	-0.101	-0.073
-435.719	-85.076	-0.393	0.123
-434.705	212.836	-0.143	0.225
-433.690	800.000	0.046	0.162
-432.676	404.842	-0.064	0.134
-431.661	94.659	-0.285	-0.322
-430.646	-50.022	-0.330	-0.156
-429.632	-200.000	-0.032	0.165
-428.617	125.473	0.122	0.153
-427.603	-52.120	-0.003	-0.001
-426.588	59.067	-0.084	-0.083
-425.573	-200.000	-0.001	-0.182
-424.559	370.208	-0.117	-0.236
-423.544	-200.000	0.007	-0.239
-422.530	-200.000	-0.053	-0.369
-421.515	125.343	0.162	0.204
-420.500	570.266	-0.045	-0.109
-419.486	27.655	0.152	-0.127
-418.471	423.636	0.214	-0.458
-417.457	-148.867	0.468	0.038
-416.442	-70.473	0.281	-0.106
-415.428	548.174	0.084	-0.200
-414.413	-78.728	0.380	0.129
-413.398	800.000	0.047	0.172
-412.384	408.572	0.111	-0.235
-411.369	-93.260	0.067	0.019
-410.355	23.744	-0.039	-0.032
-409.340	-141.388	-0.287	-0.029
-408.325	215.913	-0.154	0.244
-407.311	-200.000	-0.041	0.238
-406.296	800.000	0.051	0.168
-405.282	310.339	-0.134	-0.250
-404.267	765.877	0.114	-0.308
-403.252	128.313	0.101	-0.127
-402.238	-51.917	-0.309	0.143
-401.223	800.000	-0.065	-0.209
-400.209	301.461	-0.140	-0.258
-399.194	-200.000	0.060	0.265
-398.179	22.345	0.227	0.185
-397.165	-157.731	-0.140	0.008
-396.150	12.663	0.292	-0.224
-395.136	-200.000	0.033	-0.218
-394.121	-200.000	-0.035	-0.386
-393.106	800.000	-0.052	0.165
-392.092	-200.000	0.002	-0.051
-391.077	169.291	0.155	0.220
-390.063	298.138	0.072	-0.133
-389.048	-200.000	0.023	-0.256
-388.033	-26.940	-0.351	0.204
-387.019	-25.948	0.149	0.087
-386.004	-21.383	-0.143	0.087
-384.990	142.238	0.200	0.264
-383.975	4.413	-0.087	-0.064
-382.960	-200.000	-0.021	-0.235
-381.946	-111.333	-0.143	0.029
-380.931	-200.000	0.004	0.122
-379.917	-81.648	-0.260	-0.085
-378.902	-45.877	-0.178	-0.088
-377.888	107.727	-0.032	0.038
-376.873	255.782	-0.043	0.073
-375.858	189.174	-0.066	-0.099
-374.844	-118.412	-0.284	0.050
-373.829	-142.310	0.082	0.008
-372.815	12.564	0.167	-0.128
-371.800	3.571	0.208	0.150
-370.785	-33.948	-0.249	0.136
-369.771	-8.603	0.121	-0.081
-368.756	1.494	0.166	-0.119
-367.742	-76.452	0.209	-0.073
-366.727	-129.392	-0.227	-0.031
-365.712	-61.285	0.402	0.168
-364.698	379.236	0.077	0.157
-363.683	-57.158	-0.190	0.083
-362.669	-200.000	0.018	0.120
-361.654	-137.214	-0.442	-0.050
-360.639	65.852	-0.171	0.172
-359.625	-23.512	0.140	0.083
-358.610	88.531	0.166	0.183
-357.596	253.077	0.141	0.240
-356.581	-200.000	-0.001	0.216
-355.566	-200.000	-0.012	0.302
-354.552	800.000	0.100	0.422
-353.537	-200.000	0.019	0.135
-352.523	-137.909	-0.360	-0.040
-351.508	800.000	-0.052	-0.190
-350.493	-200.000	0.002	-0.135
-349.479	-96.307	-0.160	-0.042
-348.464	800.000	0.049	0.153
-347.450	-200.000	-0.023	0.476
-346.435	301.359	-0.087	0.161
-345.420	170.456	0.167	0.238
-344.406	41.165	0.228	-0.204
-343.391	698.913	-0.097	-0.252
-342.377	-200.000	0.037	0.191
-341.362	250.430	0.210	0.354
-340.348	87.425	-0.099	0.109
-339.333	12.494	-0.116	-0.089
-338.318	-200.000	-0.011	0.218
-337.304	-64.588	0.308	0.124
-336.289	449.037	-0.112	-0.245
-335.275	-181.026	-0.217	0.004
-334.260	-200.000	0.030	0.165
-333.245	660.366	0.005	0.013
-332.231	-125.801	0.389	0.058
-331.216	800.000	0.021	-0.082
-330.202	132.661	-0.085	-0.109
-329.187	-200.000	0.014	-0.440
-328.172	800.000	0.057	-0.240
-327.158	216.681	-0.137	-0.217
-326.143	142.916	-0.110	0.146
-325.129	-48.005	0.133	0.064
-324.114	134.599	0.210	-0.271
-323.099	47.349	-0.394	-0.365
-322.085	464.665	0.056	-0.125
-321.070	184.810	-0.139	-0.204
-320.056	800.000	0.081	0.253
-319.041	-83.053	-0.258	-0.082
-318.026	-168.266	0.113	-0.004
-317.012	-200.000	0.011	-0.052
-315.997	2.293	-0.057	0.041
-314.983	-9.326	-0.145	-0.096
-313.968	-116.646	-0.216	0.039
-312.953	-136.438	-0.232	-0.027
-311.939	-32.831	-0.062	0.034
-310.924	206.593	-0.153	-0.236
-309.910	258.009	0.202	0.345
-308.895	102.035	0.036	-0.041
-307.880	800.000	0.046	0.158
-306.866	-200.000	-0.002	-0.267
-305.851	84.989	0.267	-0.291
-304.837	-85.556	0.427	0.132
-303.822	-200.000	-0.016	-0.174
-302.807	87.785	-0.267	0.294
-301.793	-200.000	-0.015	-0.214
-300.778	9.521	-0.104	-0.078
-299.764	179.681	0.106	0.153
-298.749	12.372	0.035	-0.027
-297.735	-74.746	-0.128	0.046
-296.720	65.641	0.037	0.037
-295.705	-43.866	0.513	0.256
-294.691	-153.891	0.301	0.020
-293.676	-31.907	0.119	0.066
-292.662	-200.000	0.007	-0.291
-291.647	-200.000	0.008	-0.051
-290.632	-184.484	0.137	-0.002
-289.618	496.371	-0.085	0.194
-288.603	-128.804	0.196	0.027
-287.589	55.856	-0.115	0.111
-286.574	-46.790	0.162	0.079
-285.559	-200.000	0.021	0.100
-284.545	-155.372	-0.520	0.033
-283.530	-30.933	0.062	0.034
-282.516	143.437	0.049	-0.064
-281.501	-160.888	0.080	-0.004
-280.486	280.935	-0.101	0.180
-279.472	-183.025	0.280	-0.005
-278.457	16.802	-0.120	-0.094
-277.443	163.135	-0.137	0.191
-276.428	116.065	0.292	0.354
-275.413	75.136	-0.258	0.269
-274.399	39.218	-0.111	0.098
-273.384	-87.479	0.521	-0.156
-272.370	-7.550	0.137	-0.091
-271.355	-200.000	-0.015	0.113
-270.340	-64.529	0.323	0.130
-269.326	72.194	0.053	-0.054
-268.311	84.973	0.119	-0.130
-267.297	-60.123	0.177	-0.075
-266.282	311.480	0.162	0.301
-265.267	-56.462	0.247	-0.109
-264.253	354.554	-0.134	0.264
-263.238	-200.000	0.081	0.386
-262.224	23.799	-0.200	0.163
-261.209	-45.895	0.168	0.082
-260.195	-155.972	0.246	0.015
-259.180	-200.000	-0.058	0.503
-258.165	270.551	-0.109	-0.190
-257.151	-106.753	0.315	0.069
-256.136	-5.753	-0.210	-0.143
-255.122	-94.212	-0.147	-0.040
-254.107	-57.909	-0.088	-0.038
-253.092	-91.157	-0.027	0.008
-252.078	-42.472	0.148	0.074
-251.063	800.000	-0.007	0.028
-250.049	-93.507	0.149	-0.041
-249.034	-200.000	0.004	0.076
-248.019	-200.000	0.017	0.226
-247.005	10.581	0.119	0.090
-245.990	-166.588	-0.191	-0.008
-244.976	622.007	0.150	0.374
-243.961	167.495	-0.119	-0.167
-242.946	76.660	0.152	0.160
-241.932	-167.752	-0.288	-0.011
-240.917	-82.541	0.306	0.098
-239.903	69.755	0.180	0.184
-238.888	5.141	-0.240	0.175
-237.873	-23.148	0.086	-0.051
-236.859	26.602	0.101	-0.084
-235.844	20.255	-0.289	0.231
-234.830	800.000	-0.094	-0.301
-233.815	-200.000	0.014	0.069
-232.800	-64.321	-0.196	-0.079
-231.786	-200.000	-0.043	-0.494
-230.771	62.533	-0.215	0.213
-229.757	176.511	0.127	0.182
-228.742	297.938	-0.092	0.167
-227.727	88.432	0.193	0.212
-226.713	175.330	0.091	-0.130
-225.698	800.000	0.090	-0.272
-224.684	93.130	0.174	0.194
-223.669	320.260	0.135	-0.253
-222.655	-155.618	0.260	-0.017
-221.640	139.025	0.112	0.145
-220.625	-200.000	0.031	0.135
-219.611	800.000	0.060	-0.253
-218.596	800.000	-0.028	0.082
-217.582	481.279	-0.092	-0.207
-216.567	0.017	-0.369	0.260
-215.552	-134.789	0.273	0.033
-214.538	50.871	-0.111	-0.104
-213.523	518.513	-0.170	0.392
-212.509	284.656	-0.073	0.129
-211.494	-38.159	0.255	-0.134
-210.479	-59.450	-0.543	-0.230
-209.465	-138.332	-0.183	0.020
-208.450	38.675	0.246	-0.217
-207.436	-185.350	-0.175	-0.003
-206.421	70.694	-0.283	0.289
-205.406	-200.000	0.032	0.378
-204.392	-95.732	0.171	-0.045
-203.377	180.667	0.172	0.250
-202.363	94.296	-0.248	0.278
-201.348	-68.424	0.286	-0.110
-200.333	73.391	-0.225	-0.233
-199.319	-105.628	-0.084	-0.019
-198.304	99.831	0.064	0.073
-197.290	-132.533	-0.369	0.047
-196.275	-171.011	-0.105	0.004
-195.260	-3.771	0.243	0.167
-194.246	-155.308	-0.278	-0.018
-193.231	225.757	0.144	0.231
-192.217	-114.727	0.174	-0.033
-191.202	-76.211	0.025	-0.009
-190.187	-122.119	0.310	-0.050
-189.173	144.780	-0.087	-0.115
-188.158	-152.654	-0.435	-0.031
-187.144	-96.774	-0.033	0.009
-186.129	251.136	0.208	-0.349
-185.114	-200.000	-0.076	0.527
-184.100	107.100	0.144	-0.169
-183.085	-57.029	0.099	0.043
-182.071	-95.390	0.032	0.008
-181.056	-200.000	0.050	0.438
-180.042	-200.000	-0.009	0.323
-179.027	-108.149	0.208	-0.045
-178.012	800.000	0.009	0.038
-176.998	-200.000	-0.054	-0.437
-175.983	800.000	-0.092	-0.251
-174.969	126.718	0.060	0.075
-173.954	124.366	-0.108	0.134
-172.939	115.106	-0.114	0.138
-171.925	215.441	-0.151	0.236
-170.910	-161.880	0.460	-0.023
-169.896	44.059	-0.056	-0.050
-168.881	64.465	0.158	-0.157
-167.866	728.016	-0.094	0.246
-166.852	764.077	-0.053	-0.142
-165.837	-200.000	0.052	0.300
-164.823	289.757	-0.095	0.169
-163.808	-126.066	0.180	0.027
-162.793	-77.088	0.166	-0.057
-161.779	-200.000	-0.028	0.164
-160.764	-127.501	0.062	-0.009
-159.750	60.669	-0.201	-0.197
-158.735	-96.692	-0.203	0.053
-157.720	-0.357	0.162	-0.113
-156.706	800.000	-0.055	-0.193
-155.691	-25.913	0.356	-0.207
-154.677	47.420	0.136	-0.125
-153.662	-151.977	0.059	0.004
-152.647	-120.100	-0.618	0.104
-151.633	-165.778	0.298	-0.013
-150.618	-117.031	-0.153	0.027
-149.604	8.817	0.306	-0.227
-148.589	-111.869	0.338	0.067
-147.574	-68.382	-0.169	-0.065
-146.560	-200.000	0.032	0.159
-145.545	-200.000	-0.025	-0.186
-144.531	132.427	-0.175	0.222
-143.516	1.275	-0.295	0.209
-142.502	-200.000	-0.001	0.111
-141.487	-125.637	-0.342	0.051
-140.472	-150.423	-0.071	0.005
-139.458	332.470	-0.077	0.146
-138.443	335.980	0.068	-0.130
-137.429	-159.086	-0.175	0.010
-136.414	-200.000	0.011	0.152
-135.399	800.000	0.015	0.046
-134.385	53.964	-0.129	-0.122
-133.370	415.363	0.171	0.358
-132.356	800.000	-0.023	-0.068
-131.341	-73.822	0.143	-0.051
-130.326	-102.267	-0.320	0.076
-129.312	-20.466	0.214	-0.130
-128.297	-119.614	0.147	-0.025
-127.283	59.694	0.179	-0.174
-126.268	800.000	-0.053	0.194
-125.253	-41.469	-0.236	0.120
-124.239	70.076	0.099	0.101
-123.224	-187.726	0.135	0.002
-122.210	8.881	-0.187	-0.139
-121.195	11.866	-0.165	-0.125
