DTS Sentinel unit serial number:	SN413079Multiplexer serial number:	ORYXHardware model number:	OX4-SRSoftware version number:	ORYX F/W v4.00 Oryx Data Collector v3.7.2.0data status	okinstallation	princeton_trtdifferential loss correction	single-endedforward channel	channel 1reverse channel	N/Adate	2019/09/17time	18:58:35forward acquisition time	60.00reverse acquisition time	0.00gamma	496.2192k internal	0.2295k external	0.2295temperature offset calibration	0.9973default loss term (dB/km)	0.3790temperature slope calibration	1.0000multiplexer offset coefficient	1.0000multiplexer slope coefficient	1.0000fibre end	0.00T internal ref (°C)	40.87T ext. ref 1 (°C)	0.30T ext. ref 2 (°C)	29.37length (m)	temperature (°C)	Stokes	anti-Stokes-747.200	-200.000	0.035	-0.364
-746.185	-57.227	-0.205	0.092
-745.171	-8.190	0.061	0.042
-744.156	376.649	-0.136	0.284
-743.142	57.078	-0.139	0.138
-742.127	-69.866	-0.135	0.052
-741.112	-200.000	-0.031	-0.186
-740.098	77.146	-0.128	0.139
-739.083	-157.712	0.193	0.012
-738.069	-200.000	0.046	0.210
-737.054	-74.534	-0.217	-0.080
-736.039	128.277	-0.044	-0.057
-735.025	-200.000	-0.016	-0.194
-734.010	-92.157	-0.279	-0.080
-732.996	800.000	-0.040	-0.165
-731.981	-5.044	-0.093	-0.066
-730.966	-85.573	-0.114	0.036
-729.952	-132.715	-0.037	-0.005
-728.937	-67.264	-0.346	-0.139
-727.923	-106.657	-0.437	0.099
-726.908	800.000	-0.035	0.139
-725.894	169.999	-0.045	0.066
-724.879	-56.067	0.050	-0.023
-723.864	224.362	-0.058	0.096
-722.850	-90.384	-0.167	0.049
-721.835	131.249	-0.145	0.191
-720.821	800.000	-0.043	0.180
-719.806	147.773	0.097	0.133
-718.791	1.579	-0.242	0.178
-717.777	-97.892	0.162	0.043
-716.762	519.966	0.105	-0.251
-715.748	504.745	-0.007	-0.018
-714.733	-62.334	-0.376	-0.160
-713.718	80.247	-0.184	-0.202
-712.704	-18.245	-0.108	-0.069
-711.689	-200.000	0.026	-0.126
-710.675	-105.427	-0.027	-0.006
-709.660	-24.310	-0.345	0.210
-708.645	609.118	-0.138	-0.351
-707.631	35.197	-0.213	-0.190
-706.616	112.358	0.109	0.135
-705.602	-200.000	-0.034	0.297
-704.587	-50.043	0.283	0.137
-703.572	-200.000	0.013	-0.201
-702.558	-55.870	0.280	0.128
-701.543	439.510	0.082	-0.183
-700.529	38.211	0.125	-0.114
-699.514	152.409	-0.068	-0.095
-698.499	-78.807	-0.145	-0.050
-697.485	-200.000	0.038	-0.216
-696.470	321.954	-0.126	-0.245
-695.456	239.510	-0.160	-0.272
-694.441	800.000	0.023	-0.086
-693.426	24.513	0.233	-0.196
-692.412	244.707	0.089	0.152
-691.397	-64.761	-0.060	0.025
-690.383	-115.618	-0.026	-0.005
-689.368	164.153	0.393	0.565
-688.354	-200.000	-0.004	0.253
-687.339	69.841	0.074	-0.077
-686.324	-142.546	0.148	-0.015
-685.310	-51.573	0.216	-0.103
-684.295	104.849	0.042	-0.051
-683.281	-85.963	-0.295	-0.093
-682.266	237.520	0.010	-0.016
-681.251	198.002	-0.140	-0.218
-680.237	54.194	0.191	-0.188
-679.222	-67.638	0.094	0.037
-678.208	76.707	-0.132	-0.143
-677.193	-200.000	0.001	-0.062
-676.178	800.000	0.048	-0.193
-675.164	800.000	-0.088	-0.374
-674.149	-4.093	0.222	0.157
-673.135	70.524	0.138	0.146
-672.120	108.161	-0.149	0.182
-671.105	-115.091	0.325	0.063
-670.091	-200.000	0.011	-0.233
-669.076	-200.000	0.005	0.078
-668.062	-96.504	-0.077	-0.021
-667.047	114.466	-0.077	-0.095
-666.032	10.456	-0.164	0.127
-665.018	-94.376	0.093	0.026
-664.003	-200.000	0.010	-0.089
-662.989	800.000	-0.112	0.344
-661.974	-90.309	0.302	0.089
-660.959	800.000	-0.065	-0.234
-659.945	-19.965	-0.087	-0.055
-658.930	93.692	0.222	-0.256
-657.916	407.969	-0.064	-0.139
-656.901	-57.965	-0.162	-0.072
-655.886	246.831	-0.144	0.247
-654.872	-200.000	-0.005	-0.196
-653.857	800.000	0.030	-0.101
-652.843	-8.290	-0.199	0.137
-651.828	-110.411	0.180	0.038
-650.814	-146.402	-0.159	0.014
-649.799	-151.013	0.277	-0.021
-648.784	-0.934	0.163	0.117
-647.770	104.114	0.238	0.285
-646.755	5.102	-0.161	0.121
-645.741	6.910	0.188	0.143
-644.726	119.531	0.112	0.141
-643.711	677.991	-0.062	-0.164
-642.697	-27.289	-0.212	-0.126
-641.682	335.506	-0.156	0.308
-640.668	800.000	0.044	0.172
-639.653	5.963	0.244	0.184
-638.638	800.000	-0.123	0.480
-637.624	-71.828	-0.213	0.081
-636.609	122.513	0.147	-0.187
-635.595	134.735	0.013	-0.018
-634.580	-97.358	0.169	0.045
-633.565	-12.559	0.208	0.138
-632.551	33.723	-0.165	-0.146
-631.536	-200.000	-0.029	0.173
-630.522	-19.515	-0.026	0.016
-629.507	-107.468	0.224	0.050
-628.492	-200.000	-0.007	-0.261
-627.478	800.000	-0.088	-0.287
-626.463	136.407	0.190	0.252
-625.449	-200.000	0.030	0.173
-624.434	110.734	-0.160	-0.196
-623.419	-8.453	-0.254	-0.174
-622.405	-112.244	-0.152	0.031
-621.390	53.449	0.196	-0.191
-620.376	800.000	-0.107	-0.373
-619.361	-200.000	-0.046	-0.260
-618.346	329.478	0.106	-0.208
-617.332	64.093	-0.158	-0.162
-616.317	111.855	0.076	0.094
-615.303	-200.000	-0.034	0.175
-614.288	107.959	-0.195	0.237
-613.273	-88.086	-0.292	-0.089
-612.259	-171.407	0.151	0.005
-611.244	78.913	-0.101	0.110
-610.230	154.912	0.139	-0.194
-609.215	-6.271	-0.148	0.103
-608.201	-51.523	0.325	0.154
-607.186	-200.000	-0.007	0.064
-606.171	-136.749	0.117	-0.014
-605.157	800.000	-0.068	0.242
-604.142	-200.000	-0.017	0.335
-603.128	-185.511	0.173	0.003
-602.113	-45.825	0.218	-0.110
-601.098	226.006	-0.165	0.272
-600.084	-139.806	0.093	-0.010
-599.069	68.226	-0.148	0.154
-598.055	-113.085	-0.092	0.018
-597.040	625.343	-0.059	-0.152
-596.025	-52.620	-0.107	0.050
-595.011	-65.310	-0.164	0.067
-593.996	188.205	0.096	-0.145
-592.982	438.257	-0.075	-0.167
-591.967	-152.580	-0.465	0.034
-590.952	68.360	0.022	0.023
-589.938	-25.628	-0.162	0.097
-588.923	36.787	0.178	-0.160
-587.909	-61.524	-0.361	0.154
-586.894	750.780	0.090	0.248
-585.879	414.499	0.091	0.196
-584.865	36.519	0.127	-0.113
-583.850	-137.757	0.209	-0.024
-582.836	-177.821	-0.188	-0.005
-581.821	-200.000	-0.012	0.094
-580.806	-82.378	-0.157	0.052
-579.792	-32.530	0.119	0.067
-578.777	-98.351	-0.134	0.035
-577.763	21.250	0.152	-0.125
-576.748	770.390	-0.049	0.135
-575.733	-118.282	-0.034	-0.006
-574.719	-200.000	0.031	-0.254
-573.704	22.810	-0.190	0.158
-572.690	-51.284	-0.213	0.101
-571.675	800.000	-0.021	0.091
-570.661	11.808	0.223	-0.174
-569.646	-200.000	0.073	-0.328
-568.631	19.635	0.084	0.069
-567.617	-82.386	-0.321	-0.106
-566.602	-168.613	0.177	-0.007
-565.588	-9.176	0.160	0.108
-564.573	-38.030	-0.405	-0.218
-563.558	135.591	-0.165	-0.218
-562.544	99.960	0.082	0.096
-561.529	800.000	-0.052	-0.168
-560.515	48.801	0.075	-0.071
-559.500	-89.586	-0.391	-0.116
-558.485	-65.797	-0.361	-0.147
-557.471	-8.057	0.166	0.114
-556.456	19.119	-0.085	0.069
-555.442	-102.681	0.407	-0.099
-554.427	105.324	-0.183	0.220
-553.412	182.573	0.097	-0.145
-552.398	-200.000	-0.017	0.099
-551.383	370.996	-0.080	0.164
-550.369	800.000	0.076	0.256
-549.354	-200.000	-0.070	0.000
-548.339	-98.659	-0.343	-0.089
-547.325	800.000	0.006	-0.023
-546.310	44.065	-0.155	0.144
-545.296	-47.840	-0.234	0.115
-544.281	61.532	-0.195	-0.197
-543.266	204.887	0.119	-0.187
-542.252	-107.761	0.122	0.027
-541.237	19.259	0.113	-0.092
-540.223	800.000	-0.041	0.177
-539.208	709.065	0.050	-0.135
-538.193	80.800	0.065	-0.071
-537.179	-105.025	0.274	0.064
-536.164	-62.539	0.173	-0.073
-535.150	5.379	0.056	0.042
-534.135	-23.189	0.354	0.216
-533.121	-73.197	0.145	-0.054
-532.106	-200.000	-0.027	0.399
-531.091	-29.235	-0.062	-0.036
-530.077	116.763	0.373	0.465
-529.062	-26.329	-0.156	-0.093
-528.048	-200.000	0.446	-0.001
-527.033	-100.473	0.343	-0.086
-526.018	-101.727	0.209	-0.051
-525.004	-200.000	0.057	0.286
-523.989	-122.506	-0.233	0.038
-522.975	147.532	-0.179	0.245
-521.960	-100.370	0.051	-0.013
-520.945	96.935	-0.177	-0.205
-519.931	261.397	0.153	-0.269
-518.916	144.678	0.098	0.132
-517.902	-168.638	0.251	0.010
-516.887	800.000	0.092	0.265
-515.872	-100.091	0.049	0.012
-514.858	565.060	-0.066	0.162
-513.843	-17.091	-0.044	-0.028
-512.829	140.465	-0.133	-0.178
-511.814	-45.278	0.270	-0.136
-510.799	-200.000	0.005	0.185
-509.785	-191.984	0.135	-0.001
-508.770	547.084	0.119	0.289
-507.756	-200.000	0.002	-0.027
-506.741	656.559	0.046	0.120
-505.726	800.000	0.093	-0.274
-504.712	-93.870	0.165	-0.046
-503.697	-44.617	0.184	-0.093
-502.683	-200.000	0.013	-0.473
-501.668	-200.000	-0.050	0.292
-500.653	-200.000	-0.112	0.000
-499.639	365.962	-0.068	-0.139
-498.624	28.456	0.024	0.021
-497.610	67.073	0.065	-0.067
-496.595	-200.000	0.067	-0.376
-495.581	14.402	0.217	0.171
-494.566	-38.396	0.221	-0.118
-493.551	138.272	0.149	-0.198
-492.537	800.000	-0.059	0.186
-491.522	-11.092	0.289	0.193
-490.508	84.345	0.166	-0.184
-489.493	-44.723	0.112	-0.057
-488.478	139.043	-0.156	0.207
-487.464	69.689	-0.055	-0.057
-486.449	-68.759	0.254	0.099
-485.435	800.000	0.034	-0.105
-484.420	-60.521	-0.144	-0.062
-483.405	-76.529	-0.322	-0.114
-482.391	373.673	0.060	-0.124
-481.376	-95.029	-0.103	0.028
-480.362	-56.546	-0.218	-0.098
-479.347	-94.429	-0.265	-0.073
-478.332	800.000	-0.041	-0.149
-477.318	389.325	-0.088	-0.185
-476.303	230.348	0.028	0.047
-475.289	-200.000	0.007	0.234
-474.274	245.097	0.095	-0.161
-473.259	509.156	-0.049	-0.114
-472.245	800.000	-0.076	-0.240
-471.230	561.421	-0.242	-0.591
-470.216	271.617	0.150	-0.267
-469.201	69.093	0.078	-0.082
-468.186	-104.063	-0.329	0.078
-467.172	-88.269	-0.105	-0.032
-466.157	-147.602	-0.193	-0.016
-465.143	199.511	0.131	-0.204
-464.128	-105.297	-0.072	-0.017
-463.113	634.041	0.040	0.101
-462.099	83.375	0.073	-0.080
-461.084	-19.039	-0.101	0.064
-460.070	-200.000	-0.012	-0.326
-459.055	-52.305	0.220	0.103
-458.040	30.473	0.226	0.195
-457.026	800.000	0.043	0.182
-456.011	-165.214	-0.378	-0.017
-454.997	-101.369	-0.135	0.033
-453.982	206.196	-0.126	-0.198
-452.968	88.374	-0.011	0.012
-451.953	-103.888	-0.531	-0.125
-450.938	-145.297	-0.167	-0.015
-449.924	431.599	-0.080	-0.175
-448.909	-1.117	-0.144	-0.103
-447.895	-200.000	0.000	0.073
-446.880	-20.212	-0.179	0.112
-445.865	-67.023	0.253	-0.101
-444.851	305.245	0.070	0.132
-443.836	235.287	-0.134	0.224
-442.822	-149.469	-0.178	0.014
-441.807	126.287	-0.068	0.088
-440.792	289.124	-0.227	0.416
-439.778	56.274	0.114	-0.112
-438.763	12.411	0.130	0.101
-437.749	800.000	-0.068	-0.292
-436.734	-130.587	-0.403	-0.055
-435.719	223.233	-0.131	0.214
-434.705	-200.000	-0.028	0.373
-433.690	-162.909	0.201	-0.010
-432.676	92.551	0.101	0.115
-431.661	-101.444	0.409	-0.100
-430.646	12.218	0.117	-0.091
-429.632	-72.472	0.042	-0.016
-428.617	73.436	0.177	0.187
-427.603	800.000	0.098	0.283
-426.588	-90.021	0.123	-0.036
-425.573	260.782	0.148	0.258
-424.559	154.130	0.094	-0.130
-423.544	343.405	0.070	0.138
-422.530	552.324	0.029	0.070
-421.515	-87.709	0.249	-0.076
-420.500	-141.497	0.127	0.013
-419.486	153.891	-0.060	0.084
-418.471	-25.712	-0.164	0.097
-417.457	-145.118	0.163	0.015
-416.442	-79.331	0.269	0.092
-415.428	-104.604	-0.122	0.028
-414.413	-52.175	-0.513	-0.240
-413.398	-79.579	0.175	-0.060
-412.384	-164.483	-0.236	-0.011
-411.369	698.913	-0.105	0.278
-410.355	385.640	-0.209	0.435
-409.340	-200.000	0.023	0.166
-408.325	-200.000	-0.075	0.568
-407.311	-200.000	-0.057	-0.321
-406.296	-138.179	-0.073	0.008
-405.282	800.000	-0.041	0.139
-404.267	542.742	0.075	-0.179
-403.252	152.408	0.152	-0.210
-402.238	-110.770	-0.096	0.020
-401.223	-64.715	-0.246	0.101
-400.209	2.746	0.243	-0.178
-399.194	-166.912	-0.250	-0.010
-398.179	-87.768	0.247	-0.075
-397.165	800.000	-0.010	0.039
-396.150	86.136	0.151	0.167
-395.136	-200.000	-0.029	0.134
-394.121	36.756	0.094	0.084
-393.106	-107.365	-0.354	0.078
-392.092	-185.332	-0.498	0.008
-391.077	-200.000	-0.006	-0.095
-390.063	-42.554	0.168	-0.086
-389.048	-94.065	-0.078	0.021
-388.033	146.820	-0.162	-0.219
-387.019	-152.440	-0.385	-0.028
-386.004	122.914	-0.121	-0.152
-384.990	800.000	-0.057	-0.186
-383.975	-200.000	0.002	0.076
-382.960	216.298	-0.034	0.055
-381.946	68.384	-0.148	-0.153
-380.931	379.770	-0.182	-0.376
-379.917	-200.000	-0.028	0.244
-378.902	194.706	0.252	-0.386
-377.888	528.389	0.064	-0.153
-376.873	-200.000	-0.010	0.091
-375.858	-49.410	0.230	-0.111
-374.844	2.579	0.018	0.013
-373.829	-134.088	-0.132	-0.016
-372.815	-195.819	-0.115	-0.001
-371.800	800.000	0.086	0.283
-370.785	-67.517	0.275	-0.109
-369.771	-53.588	-0.079	0.036
-368.756	-52.472	-0.022	0.010
-367.742	48.230	0.124	-0.117
-366.727	433.169	-0.121	-0.265
-365.712	-200.000	0.009	-0.124
-364.698	71.967	0.101	0.106
-363.683	15.696	-0.093	-0.074
-362.669	800.000	0.097	0.295
-361.654	-108.572	-0.081	-0.018
-360.639	179.945	-0.036	0.053
-359.625	-44.057	-0.100	-0.051
-358.610	-200.000	0.017	-0.317
-357.596	-200.000	-0.004	-0.290
-356.581	-93.760	0.129	0.036
-355.566	-53.787	0.211	-0.097
-354.552	130.064	-0.069	-0.088
-353.537	-4.466	0.254	-0.177
-352.523	-108.749	-0.153	-0.033
-351.508	-37.561	-0.246	-0.132
-350.493	-200.000	0.042	-0.382
-349.479	-13.167	0.164	0.108
-348.464	-69.258	-0.161	0.062
-347.450	-200.000	-0.014	-0.183
-346.435	-14.170	-0.156	0.101
-345.420	800.000	0.087	-0.365
-344.406	800.000	0.030	-0.095
-343.391	-12.381	-0.353	-0.232
-342.377	-200.000	-0.008	-0.052
-341.362	-82.366	0.131	-0.043
-340.348	-200.000	-0.040	-0.329
-339.333	181.216	-0.230	-0.341
-338.318	-70.288	-0.139	-0.053
-337.304	-55.770	-0.245	0.110
-336.289	-55.262	0.242	0.109
-335.275	-125.034	-0.091	-0.014
-334.260	-38.708	0.293	0.155
-333.245	78.876	0.062	0.067
-332.231	800.000	-0.084	0.236
-331.216	-200.000	-0.005	0.196
-330.202	-29.984	-0.200	-0.115
-329.187	-200.000	0.069	0.338
-328.172	571.164	0.063	0.154
-327.158	-92.321	-0.195	-0.055
-326.143	-74.778	0.121	0.044
-325.129	249.935	0.117	-0.200
-324.114	-200.000	-0.009	0.229
-323.099	137.513	0.155	0.205
-322.085	-117.511	0.052	-0.009
-321.070	-77.512	0.248	0.086
-320.056	5.640	-0.133	0.099
-319.041	31.763	0.312	0.270
-318.026	800.000	-0.094	-0.298
-317.012	800.000	-0.060	-0.215
-315.997	291.065	0.147	0.269
-314.983	86.186	-0.258	0.285
-313.968	-61.196	0.083	-0.035
-312.953	693.678	0.044	0.116
-311.939	-28.693	-0.031	0.018
-310.924	44.191	0.065	0.060
-309.910	140.623	0.230	0.306
-308.895	3.534	0.109	0.080
-307.880	-29.867	0.133	-0.076
-306.866	-4.822	-0.112	0.077
-305.851	427.942	0.108	0.235
-304.837	-106.829	-0.241	0.054
-303.822	60.487	-0.047	-0.047
-302.807	-200.000	0.002	-0.046
-301.793	219.458	-0.203	-0.326
-300.778	800.000	0.064	0.186
-299.764	-113.581	-0.225	-0.044
-298.749	800.000	-0.042	0.133
-297.735	46.615	0.115	-0.107
-296.720	140.829	0.123	-0.163
-295.705	800.000	-0.063	0.231
-294.691	126.217	0.065	0.083
-293.676	38.835	0.242	0.217
-292.662	800.000	-0.079	-0.301
-291.647	149.631	0.152	0.208
-290.632	36.602	-0.334	-0.297
-289.618	-156.984	0.122	0.007
-288.603	184.337	0.094	0.140
-287.589	-167.792	0.343	0.014
-286.574	-121.442	0.572	-0.096
-285.559	-166.757	-0.521	-0.022
-284.545	6.631	-0.157	0.117
-283.530	-147.548	-0.234	0.020
-282.516	-200.000	-0.054	0.240
-281.501	-46.791	-0.375	-0.184
-280.486	360.066	-0.096	-0.193
-279.472	37.649	0.119	-0.106
-278.457	-45.867	-0.205	-0.102
-277.443	-3.968	-0.325	0.227
-276.428	-58.342	-0.259	0.113
-275.413	-115.049	0.215	-0.041
-274.399	54.739	-0.333	-0.322
-273.384	53.666	-0.128	-0.124
-272.370	-7.013	-0.081	0.055
-271.355	800.000	-0.017	0.051
-270.340	30.758	0.362	-0.311
-269.326	-200.000	0.003	0.451
-268.311	-114.268	-0.146	0.028
-267.297	-28.788	-0.107	0.062
-266.282	125.287	-0.130	0.165
-265.267	-45.068	0.152	-0.076
-264.253	800.000	-0.017	-0.050
-263.238	800.000	-0.081	0.256
-262.224	-28.798	-0.191	0.110
-261.209	-140.347	-0.430	-0.045
-260.195	-65.984	0.261	-0.105
-259.180	-200.000	-0.068	-0.314
-258.165	-200.000	0.002	-0.031
-257.151	75.990	-0.108	-0.115
-256.136	-67.774	0.287	-0.113
-255.122	-200.000	0.085	0.383
-254.107	10.635	-0.239	-0.183
-253.092	-169.426	-0.204	0.007
-252.078	90.684	0.177	-0.199
-251.063	47.396	0.207	0.194
-250.049	51.037	0.193	0.184
-249.034	282.042	-0.124	-0.222
-248.019	81.101	0.077	0.084
-247.005	135.916	0.227	0.297
-245.990	800.000	-0.060	-0.211
-244.976	-152.751	-0.128	-0.009
-243.961	800.000	-0.051	-0.166
-242.946	193.292	0.188	-0.285
-241.932	626.069	-0.020	0.052
-240.917	800.000	0.053	-0.153
-239.903	800.000	0.103	0.312
-238.888	-164.497	0.213	0.010
-237.873	9.951	-0.145	0.111
-236.859	329.985	-0.148	0.286
-235.844	44.809	0.151	0.139
-234.830	74.580	0.172	0.181
-233.815	800.000	0.005	0.021
-232.800	330.689	0.124	-0.240
-231.786	95.309	0.083	-0.094
-230.771	-94.639	0.298	-0.081
-229.757	108.595	-0.229	0.274
-228.742	143.743	0.023	0.031
-227.727	-96.032	-0.358	0.095
-226.713	800.000	-0.082	0.252
-225.698	428.259	-0.149	-0.322
-224.684	8.353	-0.062	0.047
-223.669	-109.186	0.361	0.077
-222.655	-4.980	0.151	0.104
-221.640	98.747	0.136	0.158
-220.625	-68.497	0.264	-0.103
-219.611	1.840	0.020	-0.015
-218.596	800.000	0.083	0.311
-217.582	-200.000	0.041	0.571
-216.567	127.271	0.206	0.262
-215.552	265.722	-0.062	0.109
-214.538	-70.582	0.261	-0.099
-213.523	-28.623	0.116	-0.067
-212.509	-13.128	0.025	-0.016
-211.494	-200.000	0.018	-0.274
-210.479	86.295	-0.096	-0.106
-209.465	100.310	-0.164	0.190
-208.450	-200.000	0.031	0.270
-207.436	-9.974	0.257	-0.171
-206.421	-58.274	-0.130	0.056
-205.406	130.277	-0.101	0.130
-204.392	-10.845	-0.109	-0.072
-203.377	-146.255	0.352	-0.031
-202.363	-13.581	-0.091	-0.059
-201.348	-200.000	0.003	0.146
-200.333	-103.309	-0.171	-0.040
-199.319	19.980	0.075	0.060
-198.304	-161.348	0.302	0.016
-197.290	800.000	-0.085	-0.246
-196.275	-126.430	0.240	0.036
-195.260	-61.531	-0.081	0.034
-194.246	56.628	0.104	0.101
-193.231	-38.284	0.341	0.181
-192.217	-86.493	0.018	0.006
-191.202	-107.316	0.163	-0.036
-190.187	-200.000	0.019	0.236
-189.173	-83.077	-0.190	-0.061
-188.158	71.768	0.166	-0.173
-187.144	-200.000	-0.048	-0.265
-186.129	-88.247	-0.339	-0.102
-185.114	-7.331	0.064	0.043
-184.100	-81.506	0.219	-0.072
-183.085	-200.000	0.026	0.209
-182.071	-200.000	0.017	0.151
-181.056	4.901	0.098	-0.072
-180.042	-145.718	-0.245	0.022
-179.027	800.000	-0.051	-0.163
-178.012	-200.000	-0.023	-0.488
-176.998	303.282	-0.226	-0.420
-175.983	-67.190	0.217	0.086
-174.969	-42.871	0.171	0.087
-173.954	-169.603	-0.100	0.004
-172.939	113.851	0.097	-0.117
-171.925	-200.000	-0.027	0.196
-170.910	-126.431	-0.296	0.044
-169.896	-15.203	0.156	-0.100
-168.881	-110.782	0.358	0.074
-167.866	63.433	0.259	-0.260
-166.852	-0.660	-0.236	-0.167
-165.837	48.545	-0.182	0.170
-164.823	-200.000	0.021	-0.224
-163.808	-167.500	-0.210	0.008
-162.793	230.561	0.029	-0.047
-161.779	21.513	0.129	-0.105
-160.764	3.255	0.136	-0.099
-159.750	-29.169	-0.158	-0.091
-158.735	-111.726	-0.254	-0.051
-157.720	314.878	-0.032	0.059
-156.706	-200.000	0.064	-0.304
-155.691	-112.016	-0.132	-0.027
-154.677	-50.193	0.308	-0.146
-153.662	800.000	-0.012	-0.046
-152.647	412.299	0.145	-0.307
-151.633	800.000	-0.022	-0.062
-150.618	-44.188	-0.263	-0.132
-149.604	-200.000	-0.017	0.270
-148.589	-200.000	-0.004	0.021
-147.574	294.527	-0.197	0.360
-146.560	-143.681	0.386	0.037
-145.545	-74.792	0.172	-0.062
-144.531	30.654	0.236	0.201
-143.516	211.752	-0.289	0.454
-142.502	406.058	0.025	-0.052
-141.487	-8.237	0.349	-0.234
-140.472	-59.998	-0.159	-0.068
-139.458	66.803	0.232	0.236
-138.443	128.134	0.037	0.047
-137.429	800.000	0.035	-0.118
-136.414	218.445	0.359	-0.572
-135.399	143.974	0.063	-0.083
-134.385	31.716	-0.168	-0.144
-133.370	88.874	0.174	0.193
-132.356	-200.000	-0.041	-0.229
-131.341	18.294	0.326	0.260
-130.326	-49.147	0.160	0.076
-129.312	54.181	0.091	0.088
-128.297	-75.907	-0.109	0.039
-127.283	-156.455	0.125	-0.008
-126.268	-109.172	-0.080	-0.017
-125.253	800.000	-0.049	-0.155
-124.239	-20.892	0.268	-0.164
-123.224	-200.000	0.011	-0.088
-122.210	13.292	-0.206	-0.159
-121.195	-200.000	0.003	0.046
-120.180	-160.945	0.260	-0.014
