DTS Sentinel unit serial number:	SN413079Multiplexer serial number:	ORYXHardware model number:	OX4-SRSoftware version number:	ORYX F/W v4.00 Oryx Data Collector v3.7.2.0data status	okinstallation	princeton_trtdifferential loss correction	single-endedforward channel	channel 1reverse channel	N/Adate	2019/09/17time	20:06:35forward acquisition time	60.00reverse acquisition time	0.00gamma	496.2192k internal	0.2326k external	0.2326temperature offset calibration	0.9980default loss term (dB/km)	0.3790temperature slope calibration	1.0000multiplexer offset coefficient	1.0000multiplexer slope coefficient	1.0000fibre end	0.00T internal ref (°C)	32.66T ext. ref 1 (°C)	0.23T ext. ref 2 (°C)	22.67length (m)	temperature (°C)	Stokes	anti-Stokes-747.200	800.000	-0.030	-0.104
-746.185	-140.414	-0.335	-0.035
-745.171	-191.137	0.284	-0.003
-744.156	800.000	-0.041	0.158
-743.142	100.250	0.122	-0.143
-742.127	800.000	-0.031	0.113
-741.112	-88.053	-0.019	0.006
-740.098	-138.713	-0.255	0.028
-739.083	288.496	-0.159	-0.291
-738.069	800.000	-0.046	0.187
-737.054	24.244	0.320	-0.266
-736.039	27.687	-0.301	-0.255
-735.025	-42.286	0.093	0.048
-734.010	398.987	-0.085	0.179
-732.996	-165.584	-0.193	0.008
-731.981	-26.927	0.069	-0.041
-730.966	-179.281	0.352	-0.008
-729.952	101.585	-0.190	-0.223
-728.937	-20.286	-0.105	-0.065
-727.923	18.147	-0.248	0.199
-726.908	202.996	0.095	0.149
-725.894	-46.225	0.107	-0.053
-724.879	-88.264	-0.163	0.049
-723.864	-184.914	-0.432	0.007
-722.850	-186.889	-0.244	0.003
-721.835	-69.125	-0.025	-0.010
-720.821	-22.882	-0.104	-0.063
-719.806	359.330	0.065	-0.132
-718.791	-99.014	-0.058	0.015
-717.777	800.000	-0.070	0.219
-716.762	-127.507	0.396	0.058
-715.748	119.502	-0.082	-0.102
-714.733	429.413	-0.130	-0.284
-713.718	-50.358	0.124	0.059
-712.704	800.000	-0.051	-0.148
-711.689	800.000	-0.014	0.042
-710.675	800.000	0.074	0.325
-709.660	-74.962	0.114	0.041
-708.645	483.409	0.083	0.190
-707.631	203.124	-0.022	0.035
-706.616	-14.314	0.090	0.058
-705.602	-108.556	0.221	-0.048
-704.587	317.784	0.126	0.241
-703.572	236.625	-0.165	-0.275
-702.558	58.248	-0.133	0.132
-701.543	-60.154	0.226	-0.097
-700.529	312.056	0.053	-0.101
-699.514	-102.166	0.306	0.074
-698.499	-85.006	0.330	-0.104
-697.485	116.600	-0.063	-0.078
-696.470	-49.933	-0.045	0.022
-695.456	800.000	-0.111	-0.387
-694.441	-125.200	-0.323	-0.050
-693.426	-171.902	-0.038	0.001
-692.412	800.000	0.030	-0.110
-691.397	-200.000	0.019	-0.168
-690.383	-53.344	-0.179	0.083
-689.368	-200.000	-0.028	0.301
-688.354	-176.131	0.509	-0.013
-687.339	-57.104	-0.069	-0.031
-686.324	-85.340	-0.025	-0.008
-685.310	21.674	0.211	0.172
-684.295	121.588	-0.135	-0.169
-683.281	800.000	0.076	0.248
-682.266	-200.000	-0.064	-0.311
-681.251	74.227	-0.114	0.121
-680.237	267.530	0.127	-0.223
-679.222	800.000	-0.025	-0.096
-678.208	243.906	0.072	0.122
-677.193	-31.205	0.121	0.068
-676.178	-129.276	0.225	-0.031
-675.164	27.048	0.104	0.088
-674.149	-165.365	0.175	-0.008
-673.135	-200.000	-0.041	-0.299
-672.120	54.367	0.398	-0.386
-671.105	-82.373	0.104	-0.034
-670.091	-26.560	-0.168	-0.099
-669.076	-172.551	-0.254	0.008
-668.062	32.741	0.171	-0.148
-667.047	-200.000	-0.023	-0.222
-666.032	-18.196	-0.094	0.059
-665.018	390.288	0.034	-0.071
-664.003	-68.090	0.522	0.204
-662.989	34.521	-0.082	-0.072
-661.974	-61.927	-0.337	0.142
-660.959	189.591	-0.022	-0.033
-659.945	-127.290	0.074	-0.011
-658.930	800.000	0.101	0.331
-657.916	38.028	0.093	0.083
-656.901	-6.072	-0.193	0.133
-655.886	-170.638	0.222	0.008
-654.872	-37.684	-0.147	-0.079
-653.857	-32.151	-0.132	-0.074
-652.843	66.709	0.338	0.346
-651.828	-200.000	0.024	-0.162
-650.814	800.000	0.077	-0.230
-649.799	-19.975	-0.135	0.084
-648.784	139.839	-0.263	-0.348
-647.770	-18.409	-0.152	0.096
-646.755	3.601	0.162	0.119
-645.741	306.707	-0.016	0.031
-644.726	-200.000	0.020	0.202
-643.711	231.915	0.250	0.412
-642.697	386.326	0.087	0.180
-641.682	73.923	0.068	-0.072
-640.668	-161.843	-0.141	-0.007
-639.653	281.806	-0.058	-0.105
-638.638	-120.771	0.062	-0.010
-637.624	-200.000	-0.015	-0.096
-636.609	264.924	-0.170	-0.298
-635.595	276.542	0.084	0.150
-634.580	800.000	-0.013	-0.039
-633.565	84.620	-0.125	0.137
-632.551	61.963	0.261	-0.262
-631.536	-159.570	0.484	-0.027
-630.522	371.113	-0.047	-0.096
-629.507	423.803	-0.082	0.177
-628.492	-120.728	-0.252	-0.043
-627.478	-116.420	-0.253	0.047
-626.463	70.663	-0.163	-0.169
-625.449	525.861	-0.072	0.170
-624.434	-200.000	-0.001	0.043
-623.419	-32.906	0.100	-0.056
-622.405	800.000	-0.058	-0.220
-621.390	504.830	0.050	-0.117
-620.376	90.150	0.223	-0.250
-619.361	-53.894	-0.169	-0.077
-618.346	-53.602	0.234	0.107
-617.332	-200.000	-0.058	-0.326
-616.317	40.444	0.072	0.065
-615.303	-200.000	0.044	0.407
-614.288	-188.788	0.078	0.001
-613.273	-82.545	-0.137	-0.045
-612.259	243.879	-0.086	-0.145
-611.244	-39.913	0.433	-0.227
-610.230	502.561	-0.139	-0.323
-609.215	66.119	0.160	-0.163
-608.201	-147.518	-0.183	0.015
-607.186	122.213	-0.106	-0.133
-606.171	-64.830	-0.240	0.097
-605.157	-146.735	0.109	-0.009
-604.142	95.905	0.154	0.177
-603.128	-3.268	-0.168	-0.117
-602.113	25.049	0.201	-0.167
-601.098	-30.675	-0.132	-0.075
-600.084	-200.000	0.076	0.428
-599.069	-84.307	-0.043	-0.014
-598.055	163.084	-0.118	-0.166
-597.040	800.000	0.026	-0.086
-596.025	-128.632	-0.192	0.027
-595.011	-71.294	0.161	-0.060
-593.996	-135.412	0.298	-0.036
-592.982	785.536	-0.063	0.172
-591.967	-161.940	0.142	0.007
-590.952	-35.276	-0.221	0.120
-589.938	-69.533	0.172	0.066
-588.923	78.955	-0.335	0.360
-587.909	-20.129	-0.138	-0.086
-586.894	-200.000	0.001	-0.077
-585.879	800.000	0.017	-0.070
-584.865	-200.000	0.024	-0.144
-583.850	-148.160	0.343	-0.028
-582.836	-37.582	-0.104	-0.056
-581.821	-7.570	0.382	-0.259
-580.806	-57.644	0.098	-0.043
-579.792	182.775	-0.086	-0.128
-578.777	800.000	0.034	-0.143
-577.763	-49.430	0.207	-0.099
-576.748	140.316	0.055	-0.073
-575.733	-92.278	-0.143	0.040
-574.719	556.914	0.072	0.173
-573.704	-34.775	-0.180	0.098
-572.690	394.396	-0.088	0.183
-571.675	800.000	-0.078	0.281
-570.661	-45.027	0.380	-0.189
-569.646	-200.000	-0.005	0.033
-568.631	-180.402	-0.548	-0.011
-567.617	93.121	0.202	-0.229
-566.602	800.000	0.057	0.174
-565.588	-137.091	0.024	-0.003
-564.573	-116.326	-0.219	-0.041
-563.558	800.000	-0.120	-0.373
-562.544	341.212	-0.059	-0.116
-561.529	-200.000	0.017	-0.125
-560.515	37.983	0.129	0.115
-559.500	-200.000	-0.009	-0.139
-558.485	-135.193	-0.193	0.023
-557.471	-166.169	0.215	-0.009
-556.456	-111.481	0.172	0.035
-555.442	78.827	0.141	-0.151
-554.427	-200.000	0.009	-0.371
-553.412	90.940	-0.120	0.135
-552.398	-8.554	0.114	-0.077
-551.383	548.419	-0.058	-0.138
-550.369	325.378	-0.111	-0.213
-549.354	-105.826	-0.097	0.022
-548.339	800.000	-0.046	-0.195
-547.325	-64.981	-0.050	0.020
-546.310	-72.368	0.226	-0.084
-545.296	800.000	0.084	-0.306
-544.281	61.109	-0.108	0.107
-543.266	-6.541	0.143	-0.097
-542.252	-91.876	-0.238	0.068
-541.237	164.692	0.262	0.370
-540.223	81.668	-0.144	0.156
-539.208	50.689	0.186	-0.177
-538.193	16.653	0.118	-0.093
-537.179	57.904	-0.032	0.031
-536.164	21.376	-0.114	-0.093
-535.150	-51.464	0.050	0.024
-534.135	-182.532	-0.235	0.004
-533.121	232.525	0.092	-0.152
-532.106	77.568	-0.129	0.137
-531.091	-200.000	0.022	-0.252
-530.077	408.710	-0.160	-0.338
-529.062	-22.150	0.380	0.231
-528.048	38.607	0.148	0.132
-527.033	279.665	-0.101	0.180
-526.018	-162.680	0.257	-0.013
-525.004	-200.000	-0.015	-0.077
-523.989	-135.336	-0.278	0.033
-522.975	-33.980	-0.230	0.127
-521.960	-200.000	-0.084	-0.485
-520.945	585.690	-0.124	0.305
-519.931	800.000	-0.068	-0.255
-518.916	-49.807	-0.325	0.155
-517.902	189.884	0.152	-0.228
-516.887	800.000	-0.024	0.093
-515.872	143.246	0.181	-0.241
-514.858	-43.634	0.162	0.082
-513.843	62.875	-0.247	0.247
-512.829	-200.000	-0.035	0.343
-511.814	800.000	0.066	-0.273
-510.799	34.796	-0.071	-0.062
-509.785	-53.415	0.130	0.060
-508.770	-32.449	0.265	-0.147
-507.756	-18.184	0.358	-0.224
-506.741	-108.034	-0.239	-0.052
-505.726	-200.000	0.041	-0.197
-504.712	-200.000	0.000	-0.007
-503.697	-102.718	-0.487	-0.116
-502.683	-119.121	0.389	-0.068
-501.668	800.000	0.108	-0.309
-500.653	423.671	-0.099	0.213
-499.639	447.926	0.110	-0.241
-498.624	800.000	-0.015	0.063
-497.610	-149.840	-0.093	-0.007
-496.595	2.886	-0.195	-0.141
-495.581	-125.345	-0.201	0.031
-494.566	-0.452	-0.175	-0.124
-493.551	5.875	-0.140	0.103
-492.537	-200.000	-0.022	0.177
-491.522	800.000	-0.039	-0.109
-490.508	-57.951	-0.311	-0.136
-489.493	-200.000	-0.020	0.131
-488.478	348.293	-0.083	0.164
-487.464	1.161	-0.167	-0.120
-486.449	17.319	-0.154	0.122
-485.435	598.978	0.059	-0.147
-484.420	-21.173	-0.095	0.058
-483.405	-200.000	0.011	-0.103
-482.391	-185.987	-0.307	0.005
-481.376	162.345	-0.139	0.195
-480.362	-65.560	-0.210	0.084
-479.347	61.714	0.102	0.101
-478.332	800.000	-0.025	-0.102
-477.318	-64.873	0.057	-0.023
-476.303	-124.190	0.087	0.014
-475.289	-65.345	0.107	0.043
-474.274	435.553	-0.161	-0.349
-473.259	-94.876	-0.110	0.030
-472.245	-47.827	-0.245	-0.118
-471.230	167.279	-0.230	0.326
-470.216	-78.335	-0.276	0.095
-469.201	-110.305	0.050	0.010
-468.186	-74.514	0.197	0.071
-467.172	-39.499	-0.190	-0.099
-466.157	-200.000	-0.044	0.211
-465.143	617.798	-0.059	-0.147
-464.128	-200.000	0.001	-0.126
-463.113	107.802	-0.023	-0.027
-462.099	388.244	-0.071	0.146
-461.084	145.870	0.110	0.147
-460.070	21.162	-0.067	-0.055
-459.055	64.392	0.145	-0.146
-458.040	473.943	-0.081	0.183
-457.026	-124.848	-0.161	-0.025
-456.011	-137.055	-0.228	0.026
-454.997	-200.000	0.012	-0.258
-453.982	-200.000	0.048	0.281
-452.968	-64.206	0.196	0.080
-451.953	371.634	0.084	-0.170
-450.938	-40.884	0.269	-0.139
-449.924	612.767	-0.132	-0.330
-448.909	8.939	0.211	-0.159
-447.895	-72.130	0.316	0.117
-446.880	800.000	-0.059	-0.177
-445.865	-200.000	-0.007	-0.190
-444.851	800.000	0.114	-0.443
-443.836	-114.536	-0.190	-0.036
-442.822	-4.108	0.202	0.139
-441.807	365.240	-0.031	0.062
-440.792	800.000	-0.100	0.365
-439.778	27.552	0.077	-0.064
-438.763	377.714	0.045	0.092
-437.749	-200.000	0.043	-0.560
-436.734	-35.682	-0.295	-0.159
-435.719	-129.714	0.287	-0.039
-434.705	800.000	-0.012	0.034
-433.690	196.265	-0.109	0.166
-432.676	-57.570	-0.197	-0.086
-431.661	-113.337	0.140	-0.027
-430.646	-200.000	-0.023	0.187
-429.632	-34.183	0.163	-0.089
-428.617	139.228	0.153	0.201
-427.603	487.815	-0.072	0.163
-426.588	569.821	-0.094	0.228
-425.573	413.457	-0.174	0.370
-424.559	-108.997	0.080	-0.017
-423.544	191.506	-0.090	0.136
-422.530	-45.199	-0.112	-0.055
-421.515	84.008	0.023	-0.025
-420.500	298.867	-0.109	-0.199
-419.486	52.481	-0.206	0.196
-418.471	800.000	-0.053	0.213
-417.457	15.920	-0.060	0.047
-416.442	45.754	-0.033	0.030
-415.428	447.821	-0.124	0.272
-414.413	140.796	-0.117	-0.154
-413.398	491.700	-0.067	-0.153
-412.384	50.761	-0.178	-0.168
-411.369	-61.341	0.085	-0.036
-410.355	-95.020	-0.124	0.033
-409.340	800.000	0.019	-0.080
-408.325	31.379	-0.316	0.270
-407.311	17.450	-0.181	0.143
-406.296	-200.000	0.003	0.083
-405.282	-200.000	0.047	-0.000
-404.267	24.298	0.095	0.078
-403.252	-108.654	-0.089	-0.019
-402.238	-119.672	-0.209	0.036
-401.223	-109.704	0.084	-0.018
-400.209	47.973	0.322	-0.300
-399.194	93.688	0.086	0.097
-398.179	-84.735	0.108	0.034
-397.165	-84.118	-0.174	0.055
-396.150	302.773	-0.106	-0.196
-395.136	-5.973	-0.413	0.281
-394.121	-200.000	-0.016	0.175
-393.106	115.957	0.137	-0.166
-392.092	-65.871	0.269	-0.107
-391.077	-68.316	0.149	-0.058
-390.063	180.428	0.145	0.211
-389.048	-118.630	0.076	0.013
-388.033	-57.019	-0.257	0.113
-387.019	-44.951	0.286	-0.142
-386.004	-109.969	0.140	0.029
-384.990	-27.906	0.102	-0.059
-383.975	55.447	0.175	0.169
-382.960	-131.894	-0.204	0.026
-381.946	322.180	-0.020	-0.038
-380.931	-118.963	0.100	-0.017
-379.917	-53.101	0.340	-0.155
-378.902	539.945	-0.110	-0.261
-377.888	-200.000	-0.010	0.043
-376.873	-200.000	0.017	0.076
-375.858	-200.000	0.008	-0.087
-374.844	523.408	0.022	-0.052
-373.829	86.789	0.105	-0.115
-372.815	158.786	-0.048	-0.066
-371.800	-200.000	0.051	-0.307
-370.785	-145.725	0.198	0.018
-369.771	183.322	-0.096	0.142
-368.756	193.366	0.022	-0.033
-367.742	800.000	0.066	0.272
-366.727	400.000	0.218	-0.453
-365.712	29.152	-0.244	-0.206
-364.698	-8.448	-0.208	0.139
-363.683	275.293	-0.122	0.214
-362.669	800.000	-0.026	-0.098
-361.654	-200.000	-0.036	-0.372
-360.639	133.186	0.149	0.192
-359.625	422.228	-0.049	0.104
-358.610	174.339	0.053	0.075
-357.596	800.000	-0.038	0.121
-356.581	-200.000	-0.019	0.231
-355.566	65.147	0.177	0.178
-354.552	-19.696	0.143	-0.088
-353.537	-81.928	0.324	-0.105
-352.523	-200.000	0.009	-0.194
-351.508	42.203	0.261	0.236
-350.493	-148.945	-0.032	-0.003
-349.479	-94.370	0.228	0.062
-348.464	800.000	-0.080	-0.265
-347.450	313.527	0.080	-0.150
-346.435	9.708	0.275	-0.207
-345.420	283.732	-0.082	0.146
-344.406	86.039	0.100	0.109
-343.391	339.065	0.069	-0.134
-342.377	-59.956	-0.095	-0.040
-341.362	-135.237	-0.274	0.033
-340.348	800.000	0.039	-0.125
-339.333	800.000	-0.017	-0.064
-338.318	407.833	0.175	0.367
-337.304	293.388	-0.055	0.099
-336.289	423.498	-0.052	0.110
-335.275	-194.398	-0.298	0.002
-334.260	60.973	-0.192	0.189
-333.245	800.000	-0.095	0.261
-332.231	6.494	-0.383	0.282
-331.216	158.582	0.181	0.250
-330.202	800.000	0.035	0.114
-329.187	-23.609	-0.055	0.033
-328.172	1.201	0.215	-0.153
-327.158	-46.830	-0.338	-0.164
-326.143	-88.224	-0.103	0.031
-325.129	-85.773	-0.320	-0.098
-324.114	74.545	-0.105	0.109
-323.099	401.572	0.098	0.205
-322.085	191.110	0.135	0.201
-321.070	185.352	0.158	0.232
-320.056	-167.772	-0.191	0.007
-319.041	449.316	-0.189	-0.414
-318.026	158.056	0.181	-0.248
-317.012	191.969	0.194	-0.290
-315.997	-114.748	-0.236	0.045
-314.983	300.307	0.103	0.188
-313.968	-83.574	-0.075	0.024
-312.953	-99.057	-0.218	0.055
-311.939	39.155	0.131	-0.116
-310.924	-34.581	0.372	0.202
-309.910	-200.000	0.003	-0.154
-308.895	-7.386	0.287	-0.193
-307.880	63.611	0.145	-0.144
-306.866	-80.554	0.218	0.072
-305.851	800.000	0.041	-0.113
-304.837	-88.358	0.086	0.025
-303.822	239.619	-0.098	-0.161
-302.807	-38.573	0.168	0.088
-301.793	3.933	-0.067	0.049
-300.778	800.000	-0.046	-0.169
-299.764	11.768	0.049	0.038
-298.749	37.678	0.110	-0.097
-297.735	-149.963	-0.057	-0.004
-296.720	-45.157	0.115	-0.057
-295.705	-200.000	-0.289	0.001
-294.691	48.002	-0.174	0.161
-293.676	-119.233	0.319	-0.055
-292.662	-169.954	-0.201	-0.007
-291.647	-68.025	-0.293	-0.113
-290.632	-8.484	0.095	0.063
-289.618	-104.468	0.186	-0.043
-288.603	-200.000	0.025	0.191
-287.589	118.077	-0.120	0.147
-286.574	191.767	0.240	0.358
-285.559	54.770	-0.193	-0.184
-284.545	800.000	0.061	0.216
-283.530	129.544	0.020	0.026
-282.516	-81.071	-0.279	0.092
-281.501	-55.739	-0.298	-0.132
-280.486	-136.004	0.329	-0.038
-279.472	24.768	0.085	-0.070
-278.457	210.491	0.207	-0.323
-277.443	386.857	0.114	0.234
-276.428	655.670	0.028	0.072
-275.413	-200.000	-0.009	0.041
-274.399	-15.344	0.126	0.080
-273.384	-200.000	0.029	-0.160
-272.370	370.890	-0.088	-0.177
-271.355	-63.795	0.050	0.020
-270.340	-75.361	0.211	-0.074
-269.326	-91.989	0.242	-0.068
-268.311	-200.000	-0.012	-0.217
-267.297	612.336	0.099	0.246
-266.282	-27.996	0.112	-0.064
-265.267	18.375	0.170	0.135
-264.253	-99.434	-0.090	-0.023
-263.238	-173.345	-0.609	0.018
-262.224	-15.663	-0.243	0.154
-261.209	282.765	0.015	0.027
-260.195	-200.000	0.022	-0.133
-259.180	-99.964	0.173	-0.043
-258.165	-15.068	-0.040	-0.025
-257.151	19.749	0.230	-0.183
-256.136	-15.374	0.193	0.122
-255.122	-200.000	0.010	0.109
-254.107	125.361	-0.023	0.029
-253.092	-200.000	-0.036	0.245
-252.078	43.550	0.200	0.181
-251.063	380.088	0.204	0.413
-250.049	-200.000	0.080	0.357
-249.034	-54.000	0.203	0.092
-248.019	35.355	-0.074	-0.064
-247.005	-38.311	-0.202	-0.106
-245.990	-29.658	-0.197	0.111
-244.976	90.778	-0.106	0.118
-243.961	-117.757	0.075	0.013
-242.946	-97.248	-0.055	0.014
-241.932	469.759	0.104	-0.232
-240.917	356.300	0.072	0.141
-239.903	-200.000	0.003	0.033
-238.888	364.737	0.069	-0.138
-237.873	570.386	-0.047	0.112
-236.859	-22.035	0.032	-0.019
-235.844	110.385	0.138	0.164
-234.830	131.939	-0.176	-0.224
-233.815	-200.000	-0.034	0.256
-232.800	-88.155	0.271	0.080
-231.786	24.871	0.166	0.136
-230.771	237.429	-0.036	-0.059
-229.757	-27.481	-0.137	0.078
-228.742	-200.000	0.011	0.230
-227.727	800.000	0.069	-0.206
-226.713	181.409	-0.124	-0.181
-225.698	-71.164	0.106	0.039
-224.684	146.191	-0.140	-0.186
-223.669	-1.681	-0.284	0.198
-222.655	127.104	0.153	0.191
-221.640	138.248	-0.186	-0.240
-220.625	800.000	-0.131	-0.398
-219.611	800.000	0.069	0.239
-218.596	-200.000	0.049	-0.578
-217.582	-141.460	-0.074	-0.007
-216.567	120.447	-0.056	-0.069
-215.552	-91.946	-0.165	0.046
-214.538	-105.074	0.222	0.050
-213.523	-200.000	-0.038	0.199
-212.509	-200.000	-0.021	0.292
-211.494	-96.847	0.073	-0.019
-210.479	-155.058	-0.088	-0.006
-209.465	3.776	-0.148	-0.107
-208.450	25.880	0.105	0.086
-207.436	3.934	0.143	-0.103
-206.421	-12.106	0.290	-0.187
-205.406	59.449	-0.176	0.171
-204.392	40.537	-0.216	0.192
-203.377	74.663	0.044	-0.046
-202.363	-117.193	0.091	0.016
-201.348	189.237	0.133	-0.196
-200.333	229.423	0.220	0.354
-199.319	363.230	-0.030	0.059
-198.304	-140.024	0.357	0.037
-197.290	-11.771	-0.194	0.126
-196.275	181.215	0.116	0.168
-195.260	-73.273	0.164	-0.059
-194.246	-137.349	0.022	0.002
-193.231	442.709	-0.078	0.169
-192.217	-200.000	0.047	0.221
-191.202	19.185	0.258	0.205
-190.187	-200.000	-0.003	-0.197
-189.173	2.075	-0.080	0.057
-188.158	800.000	0.126	0.446
-187.144	64.321	0.174	0.173
-186.129	153.536	-0.059	0.080
-185.114	-28.643	-0.164	0.093
-184.100	-78.407	-0.267	0.090
-183.085	4.896	0.128	0.093
-182.071	144.096	0.180	0.237
-181.056	154.036	0.099	-0.135
-180.042	115.877	-0.084	0.102
-179.027	-86.094	0.123	-0.037
-178.012	537.763	0.048	-0.112
-176.998	225.310	-0.038	-0.061
-175.983	97.974	-0.080	0.090
-174.969	-114.686	0.145	-0.027
-173.954	800.000	-0.062	0.228
-172.939	-53.105	-0.175	-0.080
-171.925	-158.284	0.213	-0.012
-170.910	30.800	0.178	-0.150
-169.896	108.345	0.188	-0.222
-168.881	-49.675	0.005	0.003
-167.866	-200.000	0.023	-0.272
-166.852	-132.849	-0.361	0.045
-165.837	162.907	-0.033	0.046
-164.823	-74.985	0.049	-0.017
-163.808	-3.605	-0.270	0.185
-162.793	800.000	-0.017	0.068
-161.779	-54.535	0.035	0.015
-160.764	-51.313	0.252	-0.116
-159.750	292.711	-0.115	0.207
-158.735	367.402	0.056	0.112
-157.720	-200.000	0.014	0.097
-156.706	-28.952	-0.179	0.101
-155.691	-132.287	0.054	-0.007
-154.677	44.916	0.108	0.098
-153.662	800.000	0.083	-0.268
-152.647	-93.672	-0.176	0.048
-151.633	82.205	-0.170	0.181
-150.618	-140.793	0.393	-0.040
-149.604	12.109	0.073	-0.055
-148.589	-57.040	-0.122	0.053
-147.574	800.000	-0.072	-0.229
-146.560	-162.150	-0.084	0.004
-145.545	18.541	-0.235	0.185
-144.531	-200.000	0.003	0.211
-143.516	-96.097	-0.034	0.009
-142.502	-200.000	-0.016	-0.149
-141.487	-23.784	-0.160	0.094
-140.472	-36.422	-0.146	-0.078
-139.458	59.346	-0.193	0.187
-138.443	-167.472	0.086	-0.003
-137.429	137.093	-0.100	-0.129
-136.414	-142.591	-0.160	-0.015
-135.399	-3.186	-0.066	0.045
-134.385	-200.000	0.021	0.232
-133.370	99.931	0.098	0.112
-132.356	51.283	0.312	-0.292
-131.341	188.339	-0.066	0.098
-130.326	-59.529	-0.221	0.094
-129.312	-200.000	-0.034	-0.275
-128.297	-44.075	-0.141	0.070
-127.283	-200.000	-0.195	-0.000
-126.268	800.000	0.041	-0.164
-125.253	-200.000	0.072	0.386
-124.239	-200.000	0.004	-0.054
-123.224	-200.000	-0.006	-0.124
-122.210	1.516	0.137	0.097
-121.195	-200.000	-0.030	0.280
-120.180	-84.801	0.021	0.007
