DTS Sentinel unit serial number:	SN413079Multiplexer serial number:	ORYXHardware model number:	OX4-SRSoftware version number:	ORYX F/W v4.00 Oryx Data Collector v3.7.2.0data status	okinstallation	princeton_trtdifferential loss correction	single-endedforward channel	channel 1reverse channel	N/Adate	2019/09/13time	09:50:35forward acquisition time	60.00reverse acquisition time	0.00gamma	496.2192k internal	0.2325k external	0.2325temperature offset calibration	1.0160default loss term (dB/km)	0.3790temperature slope calibration	1.0000multiplexer offset coefficient	1.0000multiplexer slope coefficient	1.0000fibre end	0.00T internal ref (°C)	29.94T ext. ref 1 (°C)	4.45T ext. ref 2 (°C)	27.07length (m)	temperature (°C)	Stokes	anti-Stokes-747.200	89.720	0.184	-0.208
-746.185	-77.375	0.238	-0.084
-745.171	327.099	0.059	-0.114
-744.156	265.779	-0.215	0.378
-743.142	-200.000	-0.014	0.156
-742.127	-35.152	-0.289	-0.159
-741.112	-200.000	-0.029	-0.152
-740.098	800.000	0.036	0.109
-739.083	-82.948	-0.144	-0.047
-738.069	-200.000	0.002	0.054
-737.054	800.000	-0.084	0.353
-736.039	-200.000	0.007	-0.175
-735.025	27.252	0.159	0.135
-734.010	646.343	0.119	0.307
-732.996	-23.588	0.156	-0.095
-731.981	35.285	0.111	-0.098
-730.966	800.000	0.024	-0.074
-729.952	105.287	0.183	-0.217
-728.937	-55.532	-0.144	-0.065
-727.923	68.811	-0.131	0.135
-726.908	173.384	-0.109	0.159
-725.894	162.339	-0.121	-0.172
-724.879	241.738	0.038	0.065
-723.864	607.399	-0.185	-0.466
-722.850	81.265	0.113	-0.123
-721.835	-28.911	0.017	-0.010
-720.821	774.797	0.018	0.049
-719.806	44.171	-0.240	0.222
-718.791	800.000	-0.099	0.354
-717.777	800.000	-0.052	-0.179
-716.762	101.563	-0.227	-0.267
-715.748	97.960	0.031	0.036
-714.733	-70.710	0.219	-0.083
-713.718	307.252	-0.091	-0.171
-712.704	-200.000	-0.039	-0.211
-711.689	62.990	-0.069	0.069
-710.675	800.000	0.092	0.302
-709.660	-48.329	-0.212	-0.103
-708.645	-97.308	-0.308	-0.081
-707.631	-54.435	0.220	-0.101
-706.616	-26.670	-0.043	0.026
-705.602	40.971	0.126	0.114
-704.587	498.148	0.081	0.188
-703.572	-47.160	0.087	0.043
-702.558	-150.619	0.223	0.017
-701.543	800.000	0.063	-0.212
-700.529	3.485	-0.469	-0.344
-699.514	-69.732	0.281	0.108
-698.499	456.080	-0.032	-0.071
-697.485	-155.276	-0.162	-0.011
-696.470	401.010	-0.258	-0.546
-695.456	11.772	-0.020	-0.015
-694.441	800.000	0.087	-0.244
-693.426	124.327	0.067	-0.085
-692.412	557.499	0.037	-0.090
-691.397	371.702	0.103	0.210
-690.383	28.279	0.164	0.140
-689.368	-61.875	-0.238	-0.100
-688.354	-200.000	-0.005	0.136
-687.339	-72.882	0.303	-0.112
-686.324	317.847	-0.132	-0.252
-685.310	-92.985	0.216	0.061
-684.295	12.909	0.121	0.094
-683.281	-25.759	-0.127	-0.076
-682.266	-168.982	-0.436	0.016
-681.251	-27.282	-0.100	-0.059
-680.237	-0.817	0.046	-0.033
-679.222	77.740	-0.250	-0.268
-678.208	-200.000	-0.003	-0.136
-677.193	-42.610	0.098	-0.050
-676.178	102.432	-0.070	0.082
-675.164	-20.201	-0.178	0.110
-674.149	-132.555	0.100	-0.013
-673.135	-200.000	-0.014	-0.090
-672.120	-101.160	-0.464	0.114
-671.105	-200.000	0.048	0.228
-670.091	625.896	0.061	0.155
-669.076	162.020	0.035	0.049
-668.062	-15.915	0.054	-0.034
-667.047	-114.353	0.186	0.036
-666.032	-112.808	-0.186	0.037
-665.018	4.548	0.072	-0.053
-664.003	-100.330	0.087	-0.022
-662.989	-200.000	0.011	-0.518
-661.974	-85.324	0.281	-0.088
-660.959	306.505	-0.234	0.437
-659.945	-200.000	-0.043	0.253
-658.930	-39.397	0.091	0.048
-657.916	152.901	-0.168	0.231
-656.901	-200.000	0.076	0.341
-655.886	52.607	-0.255	-0.244
-654.872	-100.218	0.057	-0.014
-653.857	-69.041	0.091	0.035
-652.843	745.615	-0.091	0.246
-651.828	-43.449	0.154	-0.078
-650.814	-200.000	-0.040	-0.253
-649.799	-200.000	-0.025	0.161
-648.784	83.283	-0.093	0.101
-647.770	-155.062	-0.056	0.004
-646.755	-97.603	-0.371	0.097
-645.741	-109.310	-0.024	0.005
-644.726	800.000	0.165	-0.471
-643.711	800.000	0.135	-0.440
-642.697	312.076	-0.085	0.160
-641.682	152.700	-0.046	0.064
-640.668	-130.732	0.213	-0.029
-639.653	-144.652	0.103	-0.010
-638.638	-134.213	0.218	-0.027
-637.624	102.477	-0.244	-0.286
-636.609	578.931	-0.033	-0.081
-635.595	710.670	0.145	-0.386
-634.580	-42.574	-0.205	0.105
-633.565	-200.000	-0.007	0.062
-632.551	-200.000	0.010	0.051
-631.536	800.000	-0.047	-0.147
-630.522	800.000	0.012	-0.035
-629.507	394.421	0.126	-0.263
-628.492	224.637	-0.081	-0.132
-627.478	-200.000	-0.022	0.161
-626.463	-200.000	-0.012	0.209
-625.449	123.961	0.067	-0.084
-624.434	-182.174	-0.092	-0.002
-623.419	30.376	0.008	-0.007
-622.405	20.661	-0.219	0.178
-621.390	-154.302	-0.025	-0.002
-620.376	144.482	0.282	0.378
-619.361	-200.000	-0.007	0.165
-618.346	-34.145	-0.236	0.130
-617.332	128.157	0.193	-0.246
-616.317	-70.490	-0.103	0.039
-615.303	236.995	0.126	-0.209
-614.288	5.874	0.240	-0.178
-613.273	103.758	-0.097	0.114
-612.259	507.065	0.103	0.239
-611.244	-42.322	-0.151	0.078
-610.230	-93.385	-0.157	0.044
-609.215	72.322	0.122	0.127
-608.201	-200.000	0.001	-0.074
-607.186	-122.169	-0.209	-0.034
-606.171	474.341	0.081	0.182
-605.157	124.099	0.082	0.103
-604.142	-200.000	-0.014	0.169
-603.128	8.727	-0.239	0.181
-602.113	39.201	-0.163	0.146
-601.098	83.348	-0.132	0.144
-600.084	-118.188	-0.380	0.068
-599.069	800.000	0.052	-0.209
-598.055	463.462	0.132	-0.296
-597.040	156.312	-0.252	-0.349
-596.025	-182.516	0.239	-0.004
-595.011	519.991	-0.075	-0.177
-593.996	800.000	0.067	0.186
-592.982	155.289	-0.200	-0.276
-591.967	-54.033	0.194	0.088
-590.952	-110.727	0.173	-0.036
-589.938	157.301	0.038	0.053
-588.923	-117.096	-0.156	-0.029
-587.909	-72.553	-0.214	-0.079
-586.894	42.660	0.319	-0.291
-585.879	400.906	-0.149	0.314
-584.865	-200.000	-0.011	-0.093
-583.850	-200.000	-0.007	-0.099
-582.836	-169.511	0.330	-0.012
-581.821	243.824	-0.107	0.180
-580.806	-200.000	0.019	0.162
-579.792	-36.519	0.160	-0.086
-578.777	-63.246	0.154	-0.064
-577.763	86.455	-0.138	-0.152
-576.748	559.247	0.022	-0.054
-575.733	-79.478	0.224	0.076
-574.719	-200.000	0.001	-0.150
-573.704	40.485	0.112	0.101
-572.690	-48.817	-0.230	-0.111
-571.675	29.359	-0.223	-0.189
-570.661	76.018	0.152	0.161
-569.646	-200.000	-0.047	-0.292
-568.631	58.010	0.166	-0.163
-567.617	-63.515	0.027	-0.011
-566.602	-200.000	-0.014	0.319
-565.588	55.634	-0.126	0.122
-564.573	323.005	0.093	0.178
-563.558	11.092	-0.197	0.151
-562.544	-200.000	0.001	0.187
-561.529	151.835	-0.255	-0.349
-560.515	-200.000	-0.007	-0.211
-559.500	51.553	-0.262	-0.250
-558.485	-9.534	0.060	0.040
-557.471	82.062	-0.043	-0.046
-556.456	78.440	-0.196	0.210
-555.442	800.000	0.073	0.274
-554.427	-77.601	-0.141	-0.049
-553.412	800.000	-0.050	-0.175
-552.398	800.000	0.061	-0.251
-551.383	-200.000	-0.045	-0.248
-550.369	53.281	0.079	0.076
-549.354	81.634	-0.070	-0.076
-548.339	-54.619	-0.064	-0.029
-547.325	-139.820	0.095	-0.010
-546.310	-90.992	0.068	-0.019
-545.296	800.000	-0.146	0.561
-544.281	-200.000	-0.007	0.085
-543.266	27.404	0.106	-0.089
-542.252	-128.289	-0.141	0.020
-541.237	435.780	0.082	0.178
-540.223	-200.000	-0.004	-0.089
-539.208	-28.934	0.175	-0.100
-538.193	340.881	0.161	-0.315
-537.179	10.959	-0.330	-0.253
-536.164	-132.207	0.425	-0.055
-535.150	-37.644	0.180	0.096
-534.135	264.052	0.093	0.161
-533.121	-74.406	0.214	-0.077
-532.106	-200.000	-0.037	-0.315
-531.091	177.397	0.107	-0.156
-530.077	-5.735	-0.351	0.241
-529.062	322.192	0.094	-0.179
-528.048	-76.562	-0.157	-0.055
-527.033	-190.989	0.260	0.003
-526.018	-89.844	-0.205	-0.060
-525.004	440.717	-0.054	-0.119
-523.989	168.663	-0.231	-0.330
-522.975	95.927	0.139	-0.159
-521.960	-94.424	0.110	0.030
-520.945	800.000	-0.034	0.138
-519.931	-200.000	0.004	0.362
-518.916	-169.228	0.075	-0.003
-517.902	-135.747	-0.271	-0.032
-516.887	9.729	0.365	0.277
-515.872	-154.943	0.164	0.011
-514.858	-200.000	-0.018	0.111
-513.843	-85.597	0.420	-0.131
-512.829	-143.918	0.251	0.024
-511.814	-26.144	0.268	0.157
-510.799	-168.472	-0.138	-0.005
-509.785	-63.133	-0.246	0.101
-508.770	0.733	0.172	-0.123
-507.756	-8.500	0.076	0.051
-506.741	-120.224	0.193	0.033
-505.726	367.899	-0.074	0.149
-504.712	398.885	0.169	0.354
-503.697	-90.966	-0.232	-0.067
-502.683	158.742	-0.036	0.051
-501.668	-98.821	-0.116	-0.029
-500.653	39.826	0.084	-0.075
-499.639	318.518	0.144	-0.273
-498.624	205.888	-0.067	-0.104
-497.610	3.210	-0.234	-0.170
-496.595	160.630	0.211	-0.295
-495.581	-163.266	-0.302	-0.014
-494.566	-185.935	0.394	0.006
-493.551	237.528	-0.224	-0.370
-492.537	-200.000	-0.011	-0.206
-491.522	202.937	0.090	0.138
-490.508	21.308	-0.150	0.121
-489.493	81.640	0.193	0.209
-488.478	800.000	-0.097	-0.292
-487.464	148.976	-0.090	-0.121
-486.449	1.840	0.069	-0.049
-485.435	82.805	0.114	-0.124
-484.420	-200.000	0.010	-0.298
-483.405	333.168	0.079	-0.153
-482.391	-200.000	0.004	0.158
-481.376	-200.000	0.017	-0.131
-480.362	58.962	0.185	-0.182
-479.347	320.012	-0.004	-0.007
-478.332	800.000	0.066	0.233
-477.318	172.968	-0.119	0.171
-476.303	46.866	0.235	0.218
-475.289	24.326	0.353	-0.291
-474.274	5.505	0.055	-0.040
-473.259	-79.783	-0.106	-0.036
-472.245	-200.000	-0.042	-0.246
-471.230	-200.000	-0.035	-0.314
-470.216	-99.886	0.164	-0.041
-469.201	107.851	0.039	-0.047
-468.186	1.564	0.280	0.201
-467.172	64.715	0.288	0.290
-466.157	59.588	-0.160	0.158
-465.143	-200.000	-0.004	-0.109
-464.128	268.371	-0.203	-0.355
-463.113	16.431	0.238	0.187
-462.099	-76.016	0.459	-0.162
-461.084	-120.060	-0.407	-0.070
-460.070	502.577	0.122	0.282
-459.055	138.221	-0.106	0.138
-458.040	-150.299	0.188	-0.015
-457.026	236.582	-0.173	0.285
-456.011	103.757	-0.101	-0.118
-454.997	82.682	-0.054	0.059
-453.982	-183.240	-0.429	-0.008
-452.968	6.007	0.349	0.258
-451.953	629.637	-0.084	0.213
-450.938	800.000	0.031	-0.099
-449.924	221.741	-0.254	0.407
-448.909	-200.000	-0.072	0.343
-447.895	41.419	-0.188	-0.170
-446.880	-200.000	-0.045	0.226
-445.865	77.576	0.066	0.070
-444.851	500.184	0.129	0.297
-443.836	-61.264	-0.071	-0.030
-442.822	-31.561	0.062	0.035
-441.807	-90.849	-0.308	-0.089
-440.792	473.641	0.193	-0.433
-439.778	800.000	0.114	-0.325
-438.763	-200.000	-0.006	-0.082
-437.749	-39.146	-0.482	0.252
-436.734	647.236	-0.020	0.051
-435.719	417.006	-0.099	-0.210
-434.705	-200.000	0.092	-0.461
-433.690	-50.721	0.141	-0.066
-432.676	530.852	-0.150	0.353
-431.661	-200.000	-0.022	0.217
-430.646	-104.814	0.276	0.063
-429.632	464.458	-0.169	0.377
-428.617	-38.786	-0.109	-0.057
-427.603	-146.950	-0.137	0.012
-426.588	-27.995	-0.055	0.032
-425.573	54.445	-0.130	0.124
-424.559	-141.942	-0.335	-0.033
-423.544	405.550	-0.085	0.178
-422.530	249.703	0.144	0.243
-421.515	-15.564	-0.215	0.137
-420.500	-91.202	-0.201	-0.057
-419.486	-126.490	-0.060	-0.009
-418.471	25.231	0.203	0.168
-417.457	-135.475	0.406	-0.048
-416.442	6.356	-0.440	-0.326
-415.428	357.009	0.070	0.139
-414.413	313.971	-0.060	-0.112
-413.398	129.121	0.228	0.290
-412.384	-200.000	-0.030	-0.150
-411.369	-200.000	-0.012	-0.095
-410.355	314.737	-0.069	0.129
-409.340	-48.075	0.371	-0.179
-408.325	-124.367	-0.163	-0.025
-407.311	86.729	0.094	-0.103
-406.296	-66.835	-0.227	-0.090
-405.282	436.003	0.160	-0.348
-404.267	-32.935	-0.095	0.052
-403.252	-200.000	-0.046	-0.255
-402.238	54.561	0.249	0.239
-401.223	-9.794	0.039	0.026
-400.209	-76.539	0.055	0.019
-399.194	-200.000	-0.137	0.000
-398.179	-200.000	-0.010	-0.134
-397.165	-59.061	-0.158	0.068
-396.150	-31.383	0.406	0.228
-395.136	-67.546	-0.030	0.012
-394.121	-105.660	-0.180	0.040
-393.106	-29.729	-0.136	0.077
-392.092	23.361	0.159	0.130
-391.077	-79.096	-0.063	-0.021
-390.063	-16.776	0.233	0.147
-389.048	243.820	0.067	0.112
-388.033	-162.215	-0.192	-0.010
-387.019	-18.009	-0.244	0.152
-386.004	396.817	0.187	0.389
-384.990	-154.629	0.417	0.028
-383.975	-50.219	0.197	0.093
-382.960	-138.536	0.112	-0.012
-381.946	54.313	-0.066	-0.063
-380.931	73.330	-0.262	0.272
-379.917	-8.191	-0.096	0.064
-378.902	-18.063	0.099	0.061
-377.888	-96.052	-0.057	-0.015
-376.873	38.944	0.313	-0.278
-375.858	4.880	0.225	-0.164
-374.844	-200.000	0.011	0.087
-373.829	-200.000	-0.016	-0.248
-372.815	-124.711	-0.131	0.020
-371.800	53.326	0.182	0.173
-370.785	-99.252	-0.087	-0.022
-369.771	521.083	-0.109	0.254
-368.756	-45.141	0.215	0.106
-367.742	800.000	0.080	0.296
-366.727	-39.118	0.467	-0.244
-365.712	-91.033	0.057	-0.016
-364.698	-200.000	-0.012	0.073
-363.683	44.778	0.161	0.147
-362.669	71.857	0.118	-0.122
-361.654	-55.339	-0.233	0.104
-360.639	-200.000	0.001	0.014
-359.625	461.511	-0.102	-0.227
-358.610	10.891	0.098	-0.074
-357.596	-165.076	-0.043	0.002
-356.581	-44.272	-0.189	0.094
-355.566	-200.000	-0.005	0.164
-354.552	-83.045	0.104	-0.033
-353.537	-187.421	-0.153	0.002
-352.523	-200.000	0.034	-0.188
-351.508	59.245	0.072	0.070
-350.493	-122.599	0.369	0.060
-349.479	-45.521	0.214	-0.105
-348.464	303.222	-0.193	0.355
-347.450	-200.000	-0.015	0.104
-346.435	186.723	0.045	-0.067
-345.420	-200.000	-0.022	-0.318
-344.406	-70.940	-0.187	-0.070
-343.391	800.000	-0.050	0.158
-342.377	800.000	-0.089	-0.248
-341.362	-174.132	-0.311	0.009
-340.348	-153.451	0.122	-0.008
-339.333	-112.091	0.282	-0.056
-338.318	-105.164	-0.312	-0.071
-337.304	35.226	0.166	0.144
-336.289	-145.273	0.337	-0.030
-335.275	259.296	0.229	-0.393
-334.260	46.180	-0.233	0.215
-333.245	-25.409	-0.161	0.095
-332.231	15.592	0.056	0.044
-331.216	101.494	-0.090	0.104
-330.202	729.308	-0.100	-0.265
-329.187	397.269	-0.080	-0.166
-328.172	-85.018	-0.119	0.037
-327.158	288.748	-0.060	-0.108
-326.143	174.320	-0.075	0.108
-325.129	72.827	-0.081	0.084
-324.114	83.436	0.178	-0.192
-323.099	71.310	0.204	-0.211
-322.085	-200.000	0.003	-0.014
-321.070	83.855	-0.338	-0.366
-320.056	800.000	-0.058	0.234
-319.041	-47.704	0.086	0.042
-318.026	244.798	0.081	-0.136
-317.012	800.000	-0.057	-0.224
-315.997	-87.447	0.220	0.066
-314.983	58.184	0.128	-0.125
-313.968	13.888	-0.157	0.121
-312.953	-92.220	-0.140	-0.039
-311.939	-44.594	-0.279	-0.139
-310.924	263.813	-0.184	0.318
-309.910	523.171	-0.043	0.099
-308.895	12.212	0.034	-0.026
-307.880	113.221	0.142	-0.171
-306.866	203.507	0.090	-0.139
-305.851	-81.269	0.331	0.108
-304.837	-129.465	-0.130	-0.018
-303.822	-116.143	-0.194	-0.036
-302.807	-200.000	0.041	0.343
-301.793	226.734	-0.237	-0.382
-300.778	800.000	0.050	-0.172
-299.764	15.098	0.074	0.057
-298.749	359.160	-0.102	0.202
-297.735	800.000	0.040	0.113
-296.720	-49.099	0.187	0.089
-295.705	-200.000	0.014	-0.070
-294.691	323.501	-0.071	0.134
-293.676	-200.000	-0.035	0.276
-292.662	-38.041	0.198	0.104
-291.647	80.526	-0.035	0.038
-290.632	161.423	-0.015	-0.021
-289.618	89.759	0.350	-0.388
-288.603	-116.271	-0.088	-0.016
-287.589	620.646	-0.062	0.155
-286.574	-64.949	-0.372	-0.149
-285.559	-91.644	0.035	-0.010
-284.545	-200.000	-0.035	0.213
-283.530	230.744	-0.215	-0.348
-282.516	800.000	-0.051	-0.148
-281.501	7.044	0.313	0.231
-280.486	800.000	0.066	0.181
-279.472	-27.971	-0.253	0.145
-278.457	-59.958	0.255	0.108
-277.443	-21.299	0.302	-0.183
-276.428	-34.112	-0.056	0.030
-275.413	117.047	-0.236	-0.288
-274.399	-93.882	-0.121	-0.033
-273.384	-127.807	-0.137	-0.020
-272.370	758.553	-0.018	0.048
-271.355	-200.000	-0.007	0.094
-270.340	-200.000	0.025	0.109
-269.326	-95.452	0.198	-0.053
-268.311	-91.860	-0.312	0.088
-267.297	119.853	-0.164	0.202
-266.282	85.342	0.210	0.229
-265.267	-200.000	-0.003	0.048
-264.253	172.349	-0.127	-0.181
-263.238	-156.546	0.208	0.013
-262.224	-200.000	-0.023	-0.184
-261.209	-200.000	0.002	-0.211
-260.195	800.000	0.038	-0.105
-259.180	-57.758	0.198	-0.086
-258.165	-135.385	-0.054	-0.006
-257.151	233.580	0.093	-0.152
-256.136	-46.770	-0.155	-0.075
-255.122	28.270	-0.218	0.182
-254.107	-143.811	0.072	-0.007
-253.092	-88.079	-0.242	0.072
-252.078	89.806	0.109	-0.120
-251.063	-84.990	-0.166	-0.051
-250.049	170.720	-0.182	0.258
-249.034	42.145	0.037	-0.033
-248.019	89.716	0.157	0.173
-247.005	-200.000	0.032	0.202
-245.990	800.000	-0.071	-0.293
-244.976	-133.741	-0.452	-0.056
-243.961	-147.823	0.270	-0.022
-242.946	71.237	-0.088	-0.090
-241.932	543.084	0.065	-0.155
-240.917	-66.460	0.205	0.080
-239.903	33.786	0.048	0.042
-238.888	-200.000	-0.052	0.301
-237.873	204.356	-0.084	-0.129
-236.859	68.660	-0.016	-0.016
-235.844	166.615	0.189	0.265
-234.830	-200.000	0.089	0.410
-233.815	-127.076	-0.202	-0.029
-232.800	45.444	0.160	0.146
-231.786	800.000	0.061	0.187
-230.771	-200.000	-0.006	-0.161
-229.757	-200.000	0.061	0.284
-228.742	-84.212	-0.285	0.089
-227.727	125.776	0.314	0.392
-226.713	-165.089	0.042	0.002
-225.698	-200.000	-0.025	-0.237
-224.684	-200.000	0.030	-0.140
-223.669	132.518	-0.142	-0.181
-222.655	-132.322	-0.211	-0.027
-221.640	-79.874	-0.491	-0.163
-220.625	-23.613	0.128	-0.076
-219.611	261.017	0.172	0.294
-218.596	78.176	0.105	-0.111
-217.582	-43.349	0.275	-0.138
-216.567	570.903	-0.056	-0.135
-215.552	-84.841	0.353	-0.110
-214.538	-33.671	0.191	0.104
-213.523	145.324	0.234	-0.310
-212.509	-200.000	-0.004	-0.174
-211.494	81.820	-0.218	0.233
-210.479	-137.587	-0.336	0.037
-209.465	56.063	-0.201	0.192
-208.450	-103.366	0.163	-0.038
-207.436	-7.011	0.110	-0.074
-206.421	42.606	-0.183	-0.165
-205.406	742.513	0.083	0.221
-204.392	-10.153	-0.127	-0.083
-203.377	-81.344	-0.052	-0.017
-202.363	-94.749	0.180	-0.048
-201.348	671.403	0.129	-0.331
-200.333	-158.427	-0.134	-0.008
-199.319	299.949	-0.282	0.513
-198.304	800.000	-0.058	-0.165
-197.290	-19.716	0.115	0.070
-196.275	136.110	0.257	-0.330
-195.260	-79.335	-0.263	-0.088
-194.246	-70.881	-0.320	0.119
-193.231	-147.630	-0.144	0.012
-192.217	127.014	0.114	0.143
-191.202	-93.391	-0.194	-0.053
-190.187	-59.022	0.186	-0.079
-189.173	-146.161	0.098	-0.009
-188.158	-200.000	-0.067	-0.318
-187.144	211.899	-0.218	0.340
-186.129	385.145	-0.010	-0.021
-185.114	44.433	0.157	-0.143
-184.100	79.700	-0.015	0.016
-183.085	63.918	-0.199	0.198
-182.071	-69.008	-0.108	0.041
-181.056	-132.193	-0.071	-0.009
-180.042	2.716	-0.146	0.104
-179.027	800.000	0.025	0.086
-178.012	197.090	-0.191	-0.288
-176.998	33.556	0.058	0.050
-175.983	450.021	0.099	-0.215
-174.969	-200.000	-0.019	-0.130
-173.954	-65.305	0.057	0.023
-172.939	-148.274	0.107	0.009
-171.925	-1.390	-0.181	0.126
-170.910	94.798	0.066	0.074
-169.896	-143.851	-0.219	0.020
-168.881	-200.000	-0.043	0.215
-167.866	27.866	-0.071	-0.059
-166.852	-80.248	-0.208	0.069
-165.837	172.961	0.145	0.207
-164.823	159.351	0.013	-0.018
-163.808	155.376	-0.210	0.285
-162.793	-36.463	0.468	-0.249
-161.779	382.767	-0.155	-0.314
-160.764	-75.032	0.117	-0.041
-159.750	-200.000	0.012	0.200
-158.735	-87.248	0.243	0.073
-157.720	800.000	-0.050	0.147
-156.706	669.035	0.060	0.153
-155.691	-46.925	0.109	-0.052
-154.677	-150.207	0.112	0.009
-153.662	85.361	0.186	0.201
-152.647	-55.271	-0.150	-0.067
-151.633	-200.000	0.028	0.215
-150.618	296.086	-0.155	0.280
-149.604	-55.345	0.138	-0.061
-148.589	-128.576	0.338	0.047
-147.574	628.187	0.064	0.160
-146.560	-46.061	0.217	-0.105
-145.545	149.385	0.093	-0.124
-144.531	-200.000	0.005	0.021
-143.516	800.000	-0.062	0.266
-142.502	-61.273	0.167	-0.069
-141.487	-200.000	-0.022	-0.240
-140.472	-200.000	-0.032	-0.149
-139.458	735.615	-0.156	-0.412
-138.443	54.553	-0.157	0.150
-137.429	284.208	0.026	-0.045
-136.414	281.127	0.100	-0.177
-135.399	95.863	-0.069	-0.078
-134.385	245.353	0.124	-0.206
-133.370	382.912	-0.082	-0.165
-132.356	-96.245	-0.176	-0.046
-131.341	-34.252	-0.233	0.126
-130.326	-200.000	-0.005	0.054
-129.312	-200.000	-0.022	0.470
-128.297	800.000	0.045	0.140
-127.283	800.000	0.045	-0.156
-126.268	-200.000	-0.015	-0.213
-125.253	203.063	-0.180	0.274
-124.239	800.000	0.101	0.367
-123.224	-7.873	0.230	0.153
-122.210	-200.000	-0.024	-0.208
-121.195	60.186	0.097	-0.095
