DTS Sentinel unit serial number:	SN413079Multiplexer serial number:	ORYXHardware model number:	OX4-SRSoftware version number:	ORYX F/W v4.00 Oryx Data Collector v3.7.2.0data status	okinstallation	princeton_trtdifferential loss correction	single-endedforward channel	channel 1reverse channel	N/Adate	2019/09/17time	21:22:35forward acquisition time	60.00reverse acquisition time	0.00gamma	496.2192k internal	0.2338k external	0.2338temperature offset calibration	0.9975default loss term (dB/km)	0.3790temperature slope calibration	1.0000multiplexer offset coefficient	1.0000multiplexer slope coefficient	1.0000fibre end	0.00T internal ref (°C)	27.50T ext. ref 1 (°C)	0.19T ext. ref 2 (°C)	19.42length (m)	temperature (°C)	Stokes	anti-Stokes-747.200	-200.000	-0.001	-0.133
-746.185	-200.000	-0.040	0.217
-745.171	174.495	-0.072	-0.105
-744.156	-200.000	-0.005	0.087
-743.142	-200.000	-0.024	0.119
-742.127	800.000	-0.061	0.239
-741.112	-200.000	0.006	0.230
-740.098	-200.000	-0.061	0.475
-739.083	-46.613	0.132	-0.065
-738.069	116.315	-0.119	0.146
-737.054	-140.469	-0.368	-0.038
-736.039	-200.000	0.027	-0.147
-735.025	408.413	0.196	-0.415
-734.010	-200.000	0.007	-0.150
-732.996	90.212	-0.079	-0.089
-731.981	800.000	0.042	-0.175
-730.966	351.519	-0.106	-0.210
-729.952	57.645	0.244	0.239
-728.937	418.645	-0.099	0.213
-727.923	800.000	0.050	-0.174
-726.908	-200.000	-0.008	0.253
-725.894	-149.812	-0.069	0.005
-724.879	-30.738	-0.325	-0.184
-723.864	800.000	-0.100	-0.309
-722.850	-110.321	0.094	0.020
-721.835	-200.000	-0.010	0.129
-720.821	-27.545	-0.155	-0.090
-719.806	-13.387	-0.177	-0.115
-718.791	-200.000	0.017	-0.375
-717.777	-124.893	-0.265	-0.041
-716.762	299.200	0.109	0.201
-715.748	800.000	-0.079	-0.222
-714.733	26.206	0.209	0.175
-713.718	-100.657	0.141	0.035
-712.704	428.313	-0.042	-0.091
-711.689	800.000	-0.100	-0.342
-710.675	-118.670	0.385	-0.068
-709.660	185.572	-0.096	-0.142
-708.645	-67.081	0.212	0.084
-707.631	173.058	-0.087	-0.126
-706.616	-86.002	0.138	0.043
-705.602	-107.767	0.191	-0.042
-704.587	141.206	0.086	0.113
-703.572	191.185	-0.078	-0.118
-702.558	-131.778	-0.529	0.069
-701.543	-200.000	-0.029	-0.168
-700.529	-37.533	-0.291	0.155
-699.514	-200.000	-0.036	0.195
-698.499	191.317	0.059	-0.089
-697.485	-90.514	0.104	0.030
-696.470	103.384	-0.162	0.190
-695.456	-91.695	0.390	-0.111
-694.441	-53.470	-0.297	0.136
-693.426	206.597	-0.152	0.237
-692.412	-118.453	0.231	-0.041
-691.397	-132.678	-0.226	-0.029
-690.383	800.000	0.028	0.080
-689.368	428.690	0.080	0.172
-688.354	-200.000	-0.008	0.247
-687.339	157.044	0.085	0.117
-686.324	178.751	-0.090	0.132
-685.310	88.432	0.169	0.188
-684.295	490.897	0.037	-0.084
-683.281	-200.000	-0.005	0.075
-682.266	415.665	0.041	0.088
-681.251	-153.393	-0.413	0.029
-680.237	207.569	0.097	-0.152
-679.222	158.671	-0.028	0.039
-678.208	-200.000	0.035	-0.175
-677.193	-3.327	-0.260	0.181
-676.178	-108.560	-0.102	0.022
-675.164	-200.000	-0.004	-0.108
-674.149	-200.000	0.005	0.079
-673.135	204.586	0.262	0.407
-672.120	-200.000	-0.000	0.012
-671.105	280.995	0.033	-0.058
-670.091	800.000	-0.077	0.285
-669.076	-95.065	-0.042	0.011
-668.062	290.689	0.136	-0.247
-667.047	-7.661	0.113	-0.077
-666.032	-15.950	0.067	0.043
-665.018	23.763	0.108	-0.089
-664.003	674.723	-0.159	0.412
-662.989	33.462	0.202	0.175
-661.974	214.095	-0.203	-0.322
-660.959	-154.211	-0.247	-0.017
-659.945	221.067	-0.176	0.282
-658.930	658.753	0.068	0.176
-657.916	-96.650	0.209	-0.055
-656.901	307.947	-0.078	-0.145
-655.886	800.000	-0.023	-0.071
-654.872	85.450	-0.160	-0.175
-653.857	-7.562	-0.097	-0.066
-652.843	217.357	0.135	-0.214
-651.828	297.898	-0.146	-0.268
-650.814	753.319	0.120	0.323
-649.799	-100.708	0.121	-0.030
-648.784	80.715	0.043	0.047
-647.770	800.000	-0.075	0.238
-646.755	311.283	0.072	-0.134
-645.741	-124.395	0.367	0.057
-644.726	25.407	-0.140	-0.116
-643.711	-200.000	-0.018	-0.247
-642.697	631.606	0.032	-0.081
-641.682	-49.252	0.252	-0.120
-640.668	-153.637	-0.213	0.015
-639.653	-15.087	0.316	0.202
-638.638	-34.830	0.362	-0.198
-637.624	-97.172	0.231	-0.060
-636.609	380.345	0.038	0.078
-635.595	348.951	0.102	-0.200
-634.580	21.460	0.155	0.126
-633.565	800.000	0.102	0.297
-632.551	-18.721	-0.188	-0.117
-631.536	-55.300	-0.327	-0.146
-630.522	74.065	0.093	-0.097
-629.507	262.400	-0.104	0.180
-628.492	74.785	0.174	-0.183
-627.478	-200.000	0.003	-0.243
-626.463	43.950	-0.135	0.123
-625.449	75.276	0.154	0.162
-624.434	800.000	0.021	-0.090
-623.419	339.224	0.221	0.430
-622.405	-97.795	-0.202	0.052
-621.390	-122.650	0.142	0.023
-620.376	-67.961	-0.185	0.072
-619.361	-200.000	-0.009	0.115
-618.346	-118.205	-0.353	-0.063
-617.332	-96.221	-0.436	0.115
-616.317	26.346	-0.034	-0.028
-615.303	-195.851	-0.091	0.001
-614.288	-200.000	0.032	0.179
-613.273	54.925	0.108	-0.104
-612.259	-200.000	-0.052	-0.230
-611.244	149.699	0.072	0.098
-610.230	28.867	-0.131	0.111
-609.215	-125.512	0.060	-0.009
-608.201	-33.135	-0.341	-0.189
-607.186	676.237	0.087	-0.224
-606.171	201.471	0.237	-0.365
-605.157	-115.625	0.138	-0.026
-604.142	-200.000	0.016	-0.421
-603.128	80.403	-0.201	-0.216
-602.113	-53.660	0.158	0.072
-601.098	308.245	0.092	-0.171
-600.084	445.486	-0.113	-0.247
-599.069	-33.783	0.300	0.165
-598.055	91.475	-0.033	0.037
-597.040	-100.240	-0.271	-0.067
-596.025	-68.946	-0.239	-0.092
-595.011	90.723	-0.030	-0.033
-593.996	-177.221	0.148	0.004
-592.982	99.828	0.150	-0.173
-591.967	40.060	-0.151	0.135
-590.952	-120.495	-0.244	0.041
-589.938	4.152	0.099	0.072
-588.923	66.346	0.233	-0.236
-587.909	-137.681	-0.080	-0.009
-586.894	-200.000	0.008	0.273
-585.879	-38.307	0.257	0.136
-584.865	-115.682	0.069	0.013
-583.850	-25.261	-0.224	0.132
-582.836	-4.424	0.113	-0.078
-581.821	67.486	-0.154	-0.156
-580.806	-18.187	-0.141	-0.088
-579.792	800.000	0.089	-0.264
-578.777	-200.000	0.049	0.349
-577.763	251.441	-0.166	-0.281
-576.748	-146.697	-0.156	-0.013
-575.733	56.217	0.181	-0.175
-574.719	-34.969	-0.270	-0.147
-573.704	118.714	0.097	0.119
-572.690	110.206	0.194	0.232
-571.675	-109.609	-0.199	0.042
-570.661	800.000	-0.049	-0.158
-569.646	-8.474	0.222	-0.149
-568.631	800.000	-0.099	0.282
-567.617	-178.050	-0.033	-0.001
-566.602	-122.979	0.243	-0.039
-565.588	114.456	-0.082	-0.099
-564.573	56.364	0.222	-0.215
-563.558	202.272	-0.076	-0.117
-562.544	109.967	0.089	-0.107
-561.529	136.135	0.111	0.144
-560.515	-22.080	0.111	-0.067
-559.500	-35.467	-0.095	-0.052
-558.485	82.000	0.042	-0.046
-557.471	-23.673	0.372	0.222
-556.456	800.000	-0.105	0.357
-555.442	386.890	-0.035	-0.072
-554.427	206.822	0.093	-0.145
-553.412	107.912	-0.165	0.196
-552.398	-105.599	0.148	0.033
-551.383	800.000	0.087	-0.262
-550.369	179.858	-0.129	0.188
-549.354	334.407	0.071	0.137
-548.339	-62.721	-0.232	-0.096
-547.325	-132.735	0.193	-0.025
-546.310	799.717	-0.039	-0.108
-545.296	-1.187	0.211	0.148
-544.281	-137.899	0.289	-0.032
-543.266	68.251	0.115	-0.117
-542.252	-200.000	0.001	-0.198
-541.237	800.000	0.035	-0.111
-540.223	90.647	-0.117	0.130
-539.208	115.964	-0.124	0.151
-538.193	-18.033	0.227	-0.142
-537.179	800.000	0.025	0.076
-536.164	800.000	0.054	-0.154
-535.150	365.122	-0.149	0.298
-534.135	16.519	-0.191	-0.150
-533.121	209.124	0.129	-0.201
-532.106	38.140	0.076	-0.067
-531.091	177.514	0.149	0.216
-530.077	-73.700	-0.188	-0.068
-529.062	23.549	-0.201	-0.165
-528.048	85.983	0.012	-0.013
-527.033	-108.675	-0.075	-0.016
-526.018	-146.350	0.523	-0.046
-525.004	92.190	0.075	0.084
-523.989	800.000	-0.041	0.149
-522.975	-200.000	-0.000	0.009
-521.960	-200.000	0.023	-0.141
-520.945	430.244	-0.107	0.231
-519.931	60.006	0.106	-0.104
-518.916	-200.000	-0.008	0.071
-517.902	-200.000	-0.008	-0.042
-516.887	-200.000	-0.022	-0.467
-515.872	-200.000	0.015	-0.427
-514.858	249.029	-0.030	0.050
-513.843	-200.000	-0.073	0.378
-512.829	774.531	0.054	0.145
-511.814	16.301	0.182	0.143
-510.799	-102.799	-0.294	0.070
-509.785	-12.127	-0.081	0.052
-508.770	-19.443	-0.544	-0.335
-507.756	-200.000	-0.016	-0.190
-506.741	-166.554	-0.205	-0.009
-505.726	23.694	0.277	0.227
-504.712	-154.152	0.334	-0.022
-503.697	-17.881	0.322	0.201
-502.683	-96.691	-0.148	-0.039
-501.668	328.600	0.161	0.308
-500.653	-83.806	-0.473	-0.150
-499.639	224.708	0.116	-0.186
-498.624	96.081	0.127	0.144
-497.610	1.541	-0.282	-0.202
-496.595	353.979	0.028	-0.055
-495.581	143.637	0.087	0.115
-494.566	800.000	-0.066	-0.185
-493.551	-98.367	-0.207	0.053
-492.537	-71.208	-0.099	0.037
-491.522	-105.897	-0.253	0.057
-490.508	800.000	0.112	0.344
-489.493	511.455	0.091	-0.210
-488.478	-200.000	0.023	-0.242
-487.464	-200.000	-0.048	0.263
-486.449	-200.000	-0.002	0.112
-485.435	-184.613	-0.254	0.004
-484.420	-99.782	-0.213	-0.053
-483.405	-12.430	-0.198	0.128
-482.391	-43.312	0.207	-0.104
-481.376	-53.209	0.200	-0.091
-480.362	603.964	-0.131	0.324
-479.347	86.201	0.231	-0.253
-478.332	-108.908	-0.241	0.051
-477.318	-161.135	-0.084	0.004
-476.303	-200.000	-0.012	0.235
-475.289	6.813	-0.248	0.183
-474.274	88.729	0.199	0.220
-473.259	56.985	0.301	0.291
-472.245	-200.000	0.016	0.129
-471.230	37.109	0.415	-0.365
-470.216	-51.643	0.157	-0.073
-469.201	-12.129	-0.127	-0.082
-468.186	-178.117	0.156	0.004
-467.172	-140.787	-0.044	-0.005
-466.157	-200.000	0.020	0.148
-465.143	-58.291	-0.203	-0.088
-464.128	21.094	0.268	0.216
-463.113	800.000	0.125	0.525
-462.099	51.218	0.201	-0.189
-461.084	686.076	-0.039	0.100
-460.070	296.684	-0.101	0.183
-459.055	236.381	0.044	-0.072
-458.040	-4.892	-0.163	-0.112
-457.026	201.284	0.027	-0.042
-456.011	-200.000	-0.014	-0.195
-454.997	-200.000	0.005	0.053
-453.982	-200.000	0.009	0.337
-452.968	98.800	0.288	0.330
-451.953	187.192	-0.142	0.210
-450.938	-181.363	0.178	0.003
-449.924	-200.000	-0.000	0.226
-448.909	35.034	0.052	-0.046
-447.895	-56.866	0.297	0.130
-446.880	249.341	-0.053	0.089
-445.865	-6.088	-0.166	-0.113
-444.851	71.690	-0.047	-0.048
-443.836	-200.000	0.004	-0.085
-442.822	276.291	-0.081	0.143
-441.807	-57.290	0.162	0.071
-440.792	800.000	-0.034	-0.094
-439.778	339.005	0.133	0.257
-438.763	516.497	-0.074	-0.171
-437.749	228.525	0.105	0.169
-436.734	-200.000	0.009	0.336
-435.719	-200.000	-0.068	0.315
-434.705	800.000	-0.049	-0.211
-433.690	139.052	-0.150	-0.196
-432.676	85.223	0.108	0.117
-431.661	-42.023	-0.258	-0.131
-430.646	-50.218	-0.288	-0.135
-429.632	357.137	-0.133	-0.264
-428.617	-27.484	0.288	-0.166
-427.603	-5.485	0.040	0.027
-426.588	269.366	-0.087	-0.151
-425.573	229.051	-0.062	-0.101
-424.559	-25.201	0.405	0.238
-423.544	-200.000	0.064	0.315
-422.530	-32.461	0.232	0.128
-421.515	-84.857	0.452	0.141
-420.500	800.000	-0.098	0.275
-419.486	-200.000	0.015	-0.064
-418.471	-84.565	-0.137	0.043
-417.457	-123.776	-0.199	-0.031
-416.442	-200.000	0.064	0.477
-415.428	-39.730	0.084	0.044
-414.413	-200.000	-0.052	0.232
-413.398	8.329	0.191	0.142
-412.384	-200.000	-0.065	-0.379
-411.369	-168.208	-0.088	0.003
-410.355	26.807	0.024	-0.020
-409.340	-200.000	0.035	0.280
-408.325	-105.122	-0.420	-0.095
-407.311	-103.831	0.285	-0.066
-406.296	160.871	-0.181	-0.250
-405.282	-109.914	-0.325	0.068
-404.267	-187.968	0.297	-0.004
-403.252	213.973	-0.032	0.050
-402.238	-90.652	-0.262	0.075
-401.223	-170.971	0.107	-0.004
-400.209	-65.808	-0.100	0.040
-399.194	-40.571	0.236	0.121
-398.179	86.418	-0.089	-0.097
-397.165	-65.974	-0.288	0.114
-396.150	79.209	-0.038	-0.041
-395.136	-200.000	-0.002	-0.143
-394.121	464.991	0.134	-0.296
-393.106	-200.000	-0.004	-0.030
-392.092	-200.000	-0.021	0.102
-391.077	-79.846	-0.097	-0.032
-390.063	19.795	-0.267	-0.213
-389.048	-196.501	0.184	-0.001
-388.033	800.000	-0.040	0.142
-387.019	-54.692	-0.173	-0.078
-386.004	800.000	0.075	-0.291
-384.990	69.503	0.176	-0.180
-383.975	-200.000	0.060	0.371
-382.960	-44.863	-0.338	0.167
-381.946	73.190	-0.153	0.158
-380.931	-24.981	-0.199	-0.117
-379.917	-69.953	-0.263	-0.099
-378.902	-46.751	0.209	-0.101
-377.888	-130.464	-0.162	0.022
-376.873	-56.814	-0.028	0.012
-375.858	-107.494	0.241	0.052
-374.844	-200.000	0.104	0.532
-373.829	-200.000	0.005	0.067
-372.815	506.124	0.102	-0.233
-371.800	-46.278	-0.144	-0.070
-370.785	265.364	0.156	0.269
-369.771	800.000	-0.071	0.217
-368.756	-87.051	0.091	-0.027
-367.742	-200.000	-0.015	0.494
-366.727	442.193	0.135	-0.293
-365.712	-200.000	-0.016	0.087
-364.698	9.873	0.146	-0.109
-363.683	-1.783	-0.375	0.261
-362.669	-200.000	-0.007	-0.155
-361.654	98.378	-0.190	-0.216
-360.639	-200.000	0.017	0.087
-359.625	-65.824	-0.058	-0.023
-358.610	727.236	-0.064	-0.168
-357.596	-200.000	-0.073	-0.425
-356.581	-82.152	0.326	0.105
-355.566	278.024	0.013	0.022
-354.552	800.000	-0.077	0.288
-353.537	-57.836	-0.230	0.099
-352.523	157.639	0.060	-0.082
-351.508	-113.766	0.181	0.035
-350.493	50.273	0.199	0.186
-349.479	31.055	-0.238	-0.202
-348.464	415.182	0.172	0.361
-347.450	-200.000	0.016	-0.084
-346.435	53.320	-0.152	-0.144
-345.420	-50.815	0.255	-0.118
-344.406	781.710	-0.213	0.576
-343.391	-41.364	-0.126	0.064
-342.377	-200.000	0.010	-0.358
-341.362	48.666	0.200	0.185
-340.348	-200.000	0.089	0.452
-339.333	207.583	-0.158	-0.244
-338.318	237.342	0.128	-0.209
-337.304	-99.908	0.199	-0.049
-336.289	158.745	0.189	0.260
-335.275	13.486	0.088	-0.068
-334.260	-128.050	0.245	0.035
-333.245	800.000	0.080	-0.223
-332.231	-173.158	-0.212	-0.006
-331.216	-200.000	-0.068	-0.319
-330.202	-200.000	-0.002	-0.361
-329.187	185.464	0.186	0.273
-328.172	-22.580	-0.167	0.100
-327.158	151.268	-0.205	-0.276
-326.143	594.015	-0.081	0.197
-325.129	95.871	-0.242	0.273
-324.114	139.448	0.086	-0.112
-323.099	-170.857	-0.160	0.005
-322.085	-109.861	0.254	0.053
-321.070	-131.010	-0.331	0.044
-320.056	-67.355	-0.272	-0.106
-319.041	-82.449	0.122	0.039
-318.026	3.701	-0.151	-0.109
-317.012	198.992	0.135	0.204
-315.997	-200.000	-0.049	-0.250
-314.983	-200.000	0.005	0.171
-313.968	100.231	0.108	0.123
-312.953	-109.359	0.023	0.005
-311.939	66.844	0.280	-0.282
-310.924	522.639	0.081	0.188
-309.910	70.929	-0.057	-0.059
-308.895	91.182	-0.241	-0.267
-307.880	-200.000	-0.010	-0.263
-306.866	-29.928	0.164	0.092
-305.851	-124.643	0.088	0.013
-304.837	-143.626	-0.050	0.005
-303.822	710.786	-0.022	-0.057
-302.807	140.279	0.214	-0.278
-301.793	-61.551	-0.134	0.056
-300.778	-200.000	-0.007	-0.039
-299.764	-5.325	0.168	-0.114
-298.749	-27.592	-0.267	-0.153
-297.735	235.501	0.208	0.340
-296.720	-82.897	0.203	0.064
-295.705	362.199	-0.028	0.055
-294.691	-40.206	-0.254	-0.130
-293.676	800.000	-0.021	-0.090
-292.662	-120.610	0.275	0.046
-291.647	800.000	0.049	-0.141
-290.632	-200.000	-0.028	0.167
-289.618	-26.077	-0.082	0.047
-288.603	-140.068	-0.250	-0.026
-287.589	-76.947	-0.361	-0.124
-286.574	208.211	-0.224	-0.344
-285.559	14.574	0.223	-0.172
-284.545	-74.506	0.298	0.106
-283.530	79.835	-0.139	0.147
-282.516	-39.448	-0.149	-0.077
-281.501	-180.743	-0.061	-0.001
-280.486	-107.984	0.246	0.053
-279.472	300.081	-0.152	-0.277
-278.457	-24.484	0.068	-0.040
-277.443	33.671	0.133	-0.114
-276.428	250.719	-0.083	0.139
-275.413	681.033	0.168	-0.430
-274.399	688.547	-0.120	-0.309
-273.384	-19.214	-0.113	-0.069
-272.370	26.414	-0.277	-0.228
-271.355	-107.870	-0.198	-0.042
-270.340	-141.746	0.310	-0.031
-269.326	-200.000	0.059	0.498
-268.311	-25.518	-0.382	-0.222
-267.297	800.000	-0.046	-0.127
-266.282	-63.316	0.273	-0.111
-265.267	-46.845	-0.223	0.108
-264.253	175.040	0.106	0.152
-263.238	35.437	-0.159	0.137
-262.224	667.204	-0.065	-0.165
-261.209	-32.756	-0.370	0.202
-260.195	-59.427	0.056	0.024
-259.180	-7.074	-0.110	0.073
-258.165	-178.252	-0.202	0.005
-257.151	17.219	-0.206	-0.161
-256.136	-27.472	0.157	-0.090
-255.122	135.598	-0.146	-0.187
-254.107	-81.254	-0.291	0.095
-253.092	-45.098	-0.115	-0.056
-252.078	-15.537	-0.351	0.220
-251.063	62.208	0.220	-0.216
-250.049	-200.000	-0.038	0.306
-249.034	37.535	-0.220	-0.192
-248.019	49.037	-0.435	-0.402
-247.005	-200.000	-0.047	0.268
-245.990	-41.131	0.162	-0.082
-244.976	163.346	-0.116	0.160
-243.961	145.553	-0.042	-0.055
-242.946	-84.998	0.451	0.139
-241.932	-200.000	0.044	0.352
-240.917	-4.732	-0.059	0.040
-239.903	421.346	-0.120	-0.253
-238.888	-200.000	-0.030	-0.150
-237.873	282.483	0.049	-0.087
-236.859	-46.808	-0.009	-0.004
-235.844	-71.397	-0.277	-0.102
-234.830	5.989	0.151	0.110
-233.815	-54.923	0.197	0.088
-232.800	-200.000	0.009	0.316
-231.786	800.000	0.061	-0.246
-230.771	158.916	0.219	-0.300
-229.757	740.194	0.019	0.050
-228.742	155.620	0.055	-0.075
-227.727	282.936	-0.162	0.286
-226.713	-200.000	0.003	0.077
-225.698	179.452	-0.129	-0.186
-224.684	186.271	0.028	0.041
-223.669	800.000	0.079	0.247
-222.655	-115.802	0.084	-0.015
-221.640	142.663	-0.192	-0.250
-220.625	95.788	-0.225	-0.253
-219.611	-126.516	-0.228	-0.033
-218.596	156.052	0.023	-0.032
-217.582	450.618	-0.137	-0.298
-216.567	-200.000	0.023	-0.165
-215.552	137.857	-0.276	-0.355
-214.538	-200.000	-0.012	-0.191
-213.523	-200.000	-0.011	0.316
-212.509	52.372	0.233	-0.218
-211.494	-200.000	-0.002	0.410
-210.479	800.000	0.022	0.073
-209.465	-64.037	0.187	0.075
-208.450	-200.000	-0.000	-0.044
-207.436	-135.737	0.233	0.027
-206.421	190.226	-0.085	0.125
-205.406	183.149	-0.159	0.230
-204.392	-38.046	-0.216	-0.113
-203.377	-53.030	-0.083	0.038
-202.363	800.000	0.130	0.492
-201.348	40.259	-0.078	-0.069
-200.333	-6.973	0.208	0.138
-199.319	-200.000	0.024	-0.105
-198.304	403.989	-0.087	0.181
-197.290	-53.203	0.206	-0.093
-196.275	128.961	0.219	-0.275
-195.260	371.265	0.145	0.289
-194.246	-200.000	0.011	-0.074
-193.231	800.000	-0.049	-0.179
-192.217	264.752	0.076	0.129
-191.202	-200.000	-0.036	0.353
-190.187	-131.146	-0.038	-0.005
-189.173	-147.345	0.448	0.037
-188.158	800.000	0.060	0.164
-187.144	268.062	0.064	-0.111
-186.129	-200.000	0.016	0.436
-185.114	-109.256	0.240	0.050
-184.100	-47.234	-0.551	0.263
-183.085	-200.000	-0.070	-0.314
-182.071	-170.664	0.469	-0.016
-181.056	137.160	-0.277	-0.356
-180.042	-121.625	0.110	0.018
-179.027	-59.557	-0.119	0.050
-178.012	64.066	0.287	-0.283
-176.998	-48.937	0.323	-0.152
-175.983	764.513	-0.074	-0.198
-174.969	8.948	0.095	-0.070
-173.954	-0.673	0.217	0.151
-172.939	3.083	0.221	0.158
-171.925	-69.192	-0.133	-0.050
-170.910	-58.248	0.077	0.033
-169.896	800.000	0.025	-0.084
-168.881	800.000	0.109	0.338
-167.866	-43.596	-0.137	0.068
-166.852	-25.938	0.177	-0.102
-165.837	-74.729	0.129	-0.045
-164.823	119.811	-0.184	0.224
-163.808	-62.319	0.143	0.058
-162.793	-25.605	-0.116	0.067
-161.779	-103.454	-0.222	0.051
-160.764	609.969	-0.074	0.181
-159.750	800.000	-0.090	-0.261
-158.735	-200.000	0.028	0.178
-157.720	-200.000	-0.007	0.204
-156.706	285.824	-0.078	-0.139
-155.691	40.576	-0.049	-0.043
-154.677	800.000	-0.091	-0.385
-153.662	-200.000	0.074	-0.542
-152.647	800.000	0.047	0.167
-151.633	-31.421	0.129	0.071
-150.618	-41.697	-0.150	0.075
-149.604	156.394	0.105	-0.142
-148.589	-98.568	0.152	-0.038
-147.574	-34.087	-0.458	0.247
-146.560	-200.000	0.004	-0.243
-145.545	88.175	0.113	0.123
-144.531	-98.519	-0.189	0.047
-143.516	267.485	0.118	-0.203
-142.502	60.294	-0.294	-0.285
-141.487	705.986	-0.102	0.264
-140.472	-133.469	-0.139	0.017
-139.458	-200.000	0.029	-0.270
-138.443	11.707	-0.082	-0.062
-137.429	-68.812	0.085	0.032
-136.414	-0.089	0.183	0.128
-135.399	-4.098	0.077	0.052
-134.385	-83.801	0.087	0.027
-133.370	251.691	0.084	0.140
-132.356	53.596	-0.177	0.167
-131.341	91.169	-0.215	0.236
-130.326	169.566	0.145	0.203
-129.312	185.384	0.071	-0.103
-128.297	236.614	-0.176	0.286
-127.283	236.530	-0.127	0.206
-126.268	800.000	0.056	0.202
-125.253	-113.374	-0.093	-0.018
-124.239	-84.696	-0.205	0.063
-123.224	-17.802	0.055	-0.034
-122.210	-200.000	0.029	0.132
-121.195	536.945	0.096	0.222
