DTS Sentinel unit serial number:	SN413079Multiplexer serial number:	ORYXHardware model number:	OX4-SRSoftware version number:	ORYX F/W v4.00 Oryx Data Collector v3.7.2.0data status	okinstallation	princeton_trtdifferential loss correction	single-endedforward channel	channel 1reverse channel	N/Adate	2019/09/16time	19:50:35forward acquisition time	60.00reverse acquisition time	0.00gamma	496.2192k internal	0.2319k external	0.2319temperature offset calibration	0.9954default loss term (dB/km)	0.3790temperature slope calibration	1.0000multiplexer offset coefficient	1.0000multiplexer slope coefficient	1.0000fibre end	0.00T internal ref (°C)	33.75T ext. ref 1 (°C)	0.09T ext. ref 2 (°C)	26.83length (m)	temperature (°C)	Stokes	anti-Stokes-747.200	-126.017	-0.118	-0.018
-746.185	403.730	-0.072	0.152
-745.171	676.295	0.076	0.199
-744.156	-80.328	-0.312	0.105
-743.142	-137.450	-0.143	-0.016
-742.127	-44.409	-0.165	0.084
-741.112	29.346	0.132	-0.113
-740.098	800.000	-0.089	0.286
-739.083	-131.171	-0.325	0.044
-738.069	-200.000	0.004	-0.112
-737.054	20.201	0.105	-0.086
-736.039	4.071	0.236	0.175
-735.025	-128.205	0.239	-0.034
-734.010	-44.340	0.252	-0.128
-732.996	-61.077	-0.265	0.113
-731.981	-58.343	0.157	0.069
-730.966	117.635	0.122	-0.152
-729.952	396.318	-0.145	-0.306
-728.937	34.152	-0.118	-0.104
-727.923	33.289	0.046	0.041
-726.908	800.000	0.053	-0.222
-725.894	-69.481	-0.192	0.074
-724.879	209.621	-0.021	0.033
-723.864	-34.109	-0.271	-0.151
-722.850	-200.000	0.000	0.106
-721.835	-19.789	0.046	-0.029
-720.821	269.343	-0.036	0.064
-719.806	-134.644	-0.191	-0.024
-718.791	94.739	-0.111	-0.128
-717.777	-200.000	0.031	-0.257
-716.762	-41.417	0.122	0.063
-715.748	800.000	0.073	0.308
-714.733	112.094	-0.089	0.109
-713.718	390.495	-0.104	-0.218
-712.704	70.778	0.027	0.029
-711.689	39.530	0.198	-0.180
-710.675	800.000	-0.068	0.291
-709.660	-200.000	0.059	0.298
-708.645	-200.000	0.017	-0.082
-707.631	-95.178	0.256	-0.070
-706.616	427.125	-0.064	-0.139
-705.602	45.831	0.288	0.269
-704.587	-163.654	-0.136	0.006
-703.572	162.194	0.138	0.196
-702.558	-200.000	0.057	0.354
-701.543	-22.427	0.205	-0.125
-700.529	455.870	-0.075	-0.167
-699.514	-32.427	0.403	-0.227
-698.499	6.889	0.129	-0.097
-697.485	-200.000	-0.014	-0.179
-696.470	4.010	-0.298	-0.220
-695.456	150.719	0.117	0.160
-694.441	329.998	0.070	-0.136
-693.426	-200.000	0.007	-0.126
-692.412	-200.000	-0.041	0.222
-691.397	38.899	-0.279	-0.252
-690.383	142.922	0.083	0.111
-689.368	-200.000	0.031	0.159
-688.354	-83.955	0.157	-0.050
-687.339	194.494	-0.129	0.198
-686.324	17.343	-0.259	-0.207
-685.310	-128.146	-0.329	-0.047
-684.295	800.000	0.112	-0.402
-683.281	-96.909	-0.221	-0.059
-682.266	120.048	-0.053	-0.066
-681.251	780.717	-0.092	-0.253
-680.237	-200.000	0.015	0.181
-679.222	-63.618	-0.197	0.081
-678.208	63.781	0.123	-0.125
-677.193	203.012	-0.045	0.070
-676.178	-74.668	0.382	0.139
-675.164	-112.024	-0.242	-0.049
-674.149	-41.295	0.267	-0.139
-673.135	-137.139	-0.221	0.025
-672.120	-126.196	0.152	0.023
-671.105	-102.697	-0.344	-0.083
-670.091	560.315	0.030	0.072
-669.076	-94.747	0.216	-0.059
-668.062	-6.721	-0.109	0.075
-667.047	-13.069	0.234	0.153
-666.032	-15.155	0.040	-0.026
-665.018	-200.000	-0.030	-0.138
-664.003	800.000	0.104	0.338
-662.989	-109.013	0.180	-0.039
-661.974	103.075	-0.104	0.123
-660.959	-28.317	-0.043	-0.025
-659.945	21.984	0.080	0.066
-658.930	-44.613	0.105	0.053
-657.916	800.000	-0.074	-0.221
-656.901	-200.000	0.020	-0.160
-655.886	12.639	-0.199	0.155
-654.872	-70.193	-0.291	0.112
-653.857	41.975	0.203	-0.185
-652.843	-51.881	-0.384	0.180
-651.828	-131.233	-0.217	0.029
-650.814	-200.000	-0.012	-0.167
-649.799	4.224	-0.225	-0.166
-648.784	150.815	-0.198	0.272
-647.770	-200.000	-0.057	-0.320
-646.755	31.726	-0.092	0.080
-645.741	191.847	0.181	-0.274
-644.726	-62.220	0.368	-0.155
-643.711	10.456	-0.151	0.116
-642.697	-200.000	0.015	-0.093
-641.682	-108.295	0.013	0.003
-640.668	800.000	-0.083	-0.280
-639.653	800.000	0.072	0.220
-638.638	43.319	-0.118	0.109
-637.624	-48.109	-0.186	0.090
-636.609	16.868	-0.198	-0.158
-635.595	71.002	-0.091	0.095
-634.580	-65.409	0.269	-0.109
-633.565	-46.518	0.167	-0.083
-632.551	175.829	0.066	-0.097
-631.536	143.840	-0.026	-0.035
-630.522	116.290	-0.181	0.223
-629.507	-145.693	0.331	0.030
-628.492	34.121	-0.291	-0.255
-627.478	800.000	-0.038	-0.107
-626.463	-200.000	0.033	0.197
-625.449	410.802	0.082	0.174
-624.434	-88.858	-0.063	0.019
-623.419	257.022	0.045	0.079
-622.405	434.978	-0.189	-0.414
-621.390	-104.447	-0.096	-0.022
-620.376	-73.131	-0.214	-0.079
-619.361	-200.000	0.019	-0.110
-618.346	370.299	-0.102	-0.209
-617.332	234.493	0.063	-0.105
-616.317	109.928	0.068	-0.082
-615.303	496.661	-0.081	-0.188
-614.288	-118.943	-0.131	0.023
-613.273	-79.071	-0.103	0.035
-612.259	-149.340	-0.244	0.020
-611.244	109.507	-0.185	0.223
-610.230	-200.000	-0.011	0.220
-609.215	-42.314	-0.202	0.104
-608.201	-73.802	-0.137	0.050
-607.186	-31.737	0.136	0.077
-606.171	-94.153	0.222	-0.061
-605.157	116.372	-0.113	-0.139
-604.142	-45.548	0.150	0.075
-603.128	231.034	-0.118	-0.194
-602.113	47.260	0.135	-0.126
-601.098	-53.506	0.264	-0.121
-600.084	155.633	0.108	0.149
-599.069	-82.149	-0.062	-0.020
-598.055	800.000	0.092	0.403
-597.040	-200.000	-0.042	-0.205
-596.025	9.572	-0.139	0.106
-595.011	5.370	0.168	0.124
-593.996	800.000	0.063	-0.221
-592.982	-149.916	0.366	0.029
-591.967	-179.748	-0.277	0.006
-590.952	31.275	-0.092	0.080
-589.938	96.377	0.144	0.166
-588.923	721.160	0.105	-0.280
-587.909	-102.385	0.204	0.049
-586.894	-200.000	-0.033	0.181
-585.879	401.040	-0.102	0.215
-584.865	-84.546	-0.274	-0.087
-583.850	64.903	-0.074	-0.075
-582.836	-200.000	-0.001	-0.052
-581.821	15.292	0.047	-0.037
-580.806	57.326	-0.121	-0.119
-579.792	-89.639	0.071	0.021
-578.777	489.923	-0.129	-0.296
-577.763	-200.000	-0.095	0.000
-576.748	1.004	0.112	-0.081
-575.733	-102.948	-0.229	0.055
-574.719	-130.404	-0.427	-0.058
-573.704	-200.000	0.053	-0.255
-572.690	800.000	-0.191	-0.564
-571.675	69.928	0.084	0.088
-570.661	800.000	-0.026	-0.105
-569.646	104.801	-0.220	0.260
-568.631	74.340	0.090	0.095
-567.617	-133.200	-0.286	0.036
-566.602	-28.991	0.280	-0.162
-565.588	217.493	0.125	-0.200
-564.573	18.303	0.181	0.145
-563.558	-84.534	0.228	-0.072
-562.544	-10.238	0.029	-0.020
-561.529	-200.000	-0.040	-0.194
-560.515	-82.728	0.078	0.025
-559.500	-200.000	0.004	-0.214
-558.485	-74.261	-0.209	-0.076
-557.471	-76.230	-0.193	0.068
-556.456	-81.010	-0.219	-0.073
-555.442	-105.126	0.121	0.028
-554.427	133.030	-0.208	0.270
-553.412	48.866	-0.127	-0.120
-552.398	800.000	0.064	0.200
-551.383	-154.044	-0.027	0.002
-550.369	-49.332	0.380	0.182
-549.354	-200.000	0.045	0.271
-548.339	-200.000	-0.028	0.145
-547.325	39.050	0.205	-0.184
-546.310	1.792	0.193	-0.139
-545.296	-78.684	-0.158	-0.054
-544.281	134.972	0.146	0.190
-543.266	456.884	0.060	-0.134
-542.252	-111.719	0.205	0.042
-541.237	-143.382	-0.141	-0.014
-540.223	-97.015	-0.226	-0.059
-539.208	800.000	-0.096	-0.270
-538.193	-126.741	0.182	-0.027
-537.179	-27.311	-0.300	-0.175
-536.164	307.767	0.213	-0.398
-535.150	323.590	0.128	0.245
-534.135	-63.800	0.280	0.115
-533.121	43.001	0.037	-0.034
-532.106	-200.000	0.016	0.197
-531.091	428.344	0.120	-0.260
-530.077	11.775	0.324	0.249
-529.062	21.910	-0.219	-0.179
-528.048	-63.655	0.114	-0.047
-527.033	519.271	0.110	0.258
-526.018	-200.000	-0.026	0.222
-525.004	-91.201	0.606	0.174
-523.989	11.758	-0.412	-0.317
-522.975	-79.545	0.135	-0.046
-521.960	-134.927	0.170	0.021
-520.945	392.052	0.085	-0.176
-519.931	-116.752	-0.252	0.046
-518.916	-200.000	-0.047	0.210
-517.902	-200.000	-0.020	-0.272
-516.887	502.888	-0.030	-0.068
-515.872	-40.049	0.069	0.036
-514.858	70.706	0.355	-0.369
-513.843	-58.139	0.131	-0.057
-512.829	319.889	-0.076	-0.144
-511.814	484.119	-0.073	0.168
-510.799	-122.602	-0.126	0.021
-509.785	-81.815	-0.361	-0.119
-508.770	-29.159	-0.227	0.130
-507.756	412.300	0.041	0.087
-506.741	537.586	-0.134	0.320
-505.726	258.705	-0.112	0.193
-504.712	800.000	-0.014	-0.059
-503.697	800.000	0.069	-0.238
-502.683	78.227	0.153	0.164
-501.668	35.664	0.321	0.282
-500.653	-46.628	0.214	-0.105
-499.639	-59.001	-0.290	-0.125
-498.624	800.000	-0.093	-0.328
-497.610	-57.177	-0.194	0.085
-496.595	281.400	0.039	0.070
-495.581	800.000	0.021	-0.071
-494.566	29.344	-0.222	-0.189
-493.551	28.924	0.215	0.182
-492.537	-200.000	0.006	-0.298
-491.522	-113.938	-0.122	-0.024
-490.508	633.807	0.029	-0.075
-489.493	-38.043	0.153	0.081
-488.478	20.904	0.178	-0.144
-487.464	800.000	0.055	-0.179
-486.449	22.317	0.071	-0.058
-485.435	219.638	0.150	-0.240
-484.420	-200.000	-0.019	-0.237
-483.405	-200.000	-0.055	0.329
-482.391	239.374	-0.058	0.097
-481.376	-200.000	-0.049	0.296
-480.362	-25.186	0.146	0.087
-479.347	115.459	0.110	-0.134
-478.332	-200.000	0.045	-0.231
-477.318	-29.337	0.064	0.037
-476.303	-63.794	-0.057	-0.023
-475.289	13.931	0.318	0.247
-474.274	-64.747	0.344	0.140
-473.259	274.795	-0.143	0.254
-472.245	9.431	0.076	-0.057
-471.230	619.768	-0.048	0.120
-470.216	-4.778	0.129	0.089
-469.201	-181.679	0.220	0.004
-468.186	-29.342	-0.182	0.104
-467.172	-200.000	-0.041	0.203
-466.157	53.705	0.288	-0.276
-465.143	-100.414	0.170	0.042
-464.128	103.233	-0.126	0.147
-463.113	-92.364	0.110	0.031
-462.099	-200.000	-0.032	-0.298
-461.084	-200.000	0.069	0.326
-460.070	-57.238	0.134	0.059
-459.055	-13.903	0.095	-0.062
-458.040	-76.652	-0.104	0.036
-457.026	-200.000	-0.008	0.209
-456.011	-22.349	0.043	-0.026
-454.997	-25.235	-0.296	-0.175
-453.982	-200.000	0.009	0.161
-452.968	-200.000	-0.035	0.193
-451.953	12.078	-0.206	0.159
-450.938	-112.243	-0.265	0.053
-449.924	-102.076	0.452	0.109
-448.909	106.080	-0.100	-0.118
-447.895	71.599	-0.125	0.130
-446.880	252.307	0.106	-0.181
-445.865	800.000	0.085	-0.289
-444.851	-53.674	0.301	0.138
-443.836	-159.156	0.196	0.011
-442.822	76.934	0.126	-0.134
-441.807	-200.000	-0.034	0.160
-440.792	138.434	0.017	-0.022
-439.778	148.592	0.141	0.190
-438.763	-30.265	0.172	0.098
-437.749	800.000	0.046	-0.155
-436.734	87.289	0.106	0.118
-435.719	-44.347	0.293	0.147
-434.705	-200.000	0.002	-0.150
-433.690	286.802	0.152	0.274
-432.676	-151.241	-0.537	0.040
-431.661	55.008	0.210	-0.203
-430.646	-87.517	-0.216	0.065
-429.632	-101.156	-0.043	-0.010
-428.617	185.908	-0.109	-0.162
-427.603	-200.000	0.027	-0.270
-426.588	22.317	-0.122	-0.099
-425.573	23.404	0.176	-0.144
-424.559	800.000	-0.123	-0.370
-423.544	-74.636	0.179	-0.064
-422.530	118.843	0.068	0.084
-421.515	374.202	0.044	0.089
-420.500	450.338	-0.032	-0.072
-419.486	-20.045	-0.031	-0.019
-418.471	144.838	0.040	0.053
-417.457	-77.973	-0.247	0.085
-416.442	-168.653	0.198	0.008
-415.428	-127.060	-0.168	0.025
-414.413	178.991	-0.136	0.199
-413.398	453.602	-0.069	0.152
-412.384	187.992	-0.025	-0.037
-411.369	32.136	-0.122	-0.105
-410.355	-200.000	-0.058	0.384
-409.340	-42.584	-0.095	-0.048
-408.325	163.193	-0.149	-0.209
-407.311	-200.000	-0.023	0.258
-406.296	772.593	0.117	-0.319
-405.282	-7.591	0.183	0.124
-404.267	339.347	0.151	-0.294
-403.252	311.652	0.130	-0.244
-402.238	-44.640	0.118	-0.059
-401.223	-119.175	-0.172	-0.030
-400.209	-200.000	0.031	0.214
-399.194	-61.773	0.118	-0.049
-398.179	800.000	0.028	0.110
-397.165	-200.000	-0.241	0.001
-396.150	-200.000	0.032	0.315
-395.136	-200.000	-0.003	0.331
-394.121	-140.241	0.404	0.042
-393.106	204.723	0.158	-0.244
-392.092	-99.079	-0.176	-0.044
-391.077	-120.029	-0.198	0.034
-390.063	220.104	0.107	-0.171
-389.048	48.779	-0.320	0.299
-388.033	68.734	0.095	-0.098
-387.019	-7.106	-0.127	-0.086
-386.004	-87.041	0.188	0.057
-384.990	-31.398	-0.367	0.206
-383.975	-123.617	0.195	0.031
-382.960	-96.262	-0.295	-0.078
-381.946	69.231	-0.207	0.212
-380.931	15.496	-0.197	-0.154
-379.917	-93.248	0.446	0.123
-378.902	800.000	-0.053	0.171
-377.888	232.311	-0.059	0.096
-376.873	677.491	-0.100	0.258
-375.858	-200.000	-0.005	-0.102
-374.844	-9.057	-0.210	0.140
-373.829	-106.892	-0.254	0.056
-372.815	-43.412	-0.351	-0.177
-371.800	717.691	0.109	0.288
-370.785	-102.606	0.228	0.054
-369.771	19.189	0.197	-0.158
-368.756	-83.457	0.325	-0.104
-367.742	-200.000	0.022	-0.153
-366.727	765.067	-0.080	-0.217
-365.712	43.062	0.115	0.105
-364.698	225.294	-0.197	0.318
-363.683	-117.895	-0.094	0.017
-362.669	-99.757	0.103	-0.026
-361.654	-200.000	0.009	-0.403
-360.639	204.863	-0.138	0.214
-359.625	-172.716	-0.287	-0.009
-358.610	543.725	-0.064	0.153
-357.596	-91.508	0.234	0.066
-356.581	-112.569	-0.112	0.022
-355.566	-68.963	0.342	0.131
-354.552	105.512	0.335	0.394
-353.537	611.558	-0.111	-0.275
-352.523	-146.881	-0.178	0.015
-351.508	13.817	0.122	0.095
-350.493	-109.379	0.095	0.020
-349.479	-125.437	0.149	0.023
-348.464	-200.000	-0.170	-0.001
-347.450	-200.000	-0.008	-0.225
-346.435	38.809	-0.156	0.139
-345.420	-133.650	-0.299	0.037
-344.406	-104.064	0.182	0.042
-343.391	-200.000	0.010	-0.126
-342.377	213.257	0.135	-0.212
-341.362	740.963	-0.069	0.185
-340.348	-143.798	-0.297	-0.028
-339.333	-200.000	0.021	0.194
-338.318	122.926	0.085	-0.106
-337.304	-57.590	0.049	-0.022
-336.289	2.665	-0.073	0.053
-335.275	800.000	0.100	-0.361
-334.260	45.440	0.099	-0.091
-333.245	-13.468	-0.168	0.109
-332.231	-200.000	0.051	-0.000
-331.216	99.018	0.147	0.169
-330.202	-200.000	-0.054	0.351
-329.187	-171.270	0.122	-0.004
-328.172	-46.832	-0.136	-0.066
-327.158	-200.000	0.177	0.000
-326.143	150.069	-0.187	0.252
-325.129	-122.529	0.206	0.033
-324.114	-200.000	0.016	-0.234
-323.099	-200.000	0.004	0.231
-322.085	-117.690	-0.092	-0.017
-321.070	-88.389	0.174	0.052
-320.056	3.936	0.098	0.071
-319.041	66.895	0.166	0.168
-318.026	800.000	0.035	0.109
-317.012	14.524	-0.300	-0.233
-315.997	-64.319	0.239	-0.097
-314.983	349.008	-0.109	0.213
-313.968	544.094	0.053	-0.126
-312.953	-53.226	0.048	-0.022
-311.939	-43.270	0.327	0.164
-310.924	42.067	-0.364	0.328
-309.910	-200.000	0.011	0.061
-308.895	800.000	0.064	-0.241
-307.880	-171.065	0.187	-0.006
-306.866	22.180	0.019	-0.015
-305.851	180.153	-0.184	0.268
-304.837	726.286	0.150	-0.396
-303.822	-69.274	-0.239	-0.091
-302.807	44.856	-0.254	-0.232
-301.793	800.000	-0.033	0.111
-300.778	-200.000	0.038	-0.243
-299.764	-163.964	0.255	-0.012
-298.749	-95.939	0.161	0.043
-297.735	310.424	0.162	0.302
-296.720	5.037	-0.231	0.169
-295.705	409.881	0.035	0.073
-294.691	-200.000	-0.004	0.129
-293.676	89.931	-0.139	-0.155
-292.662	-5.480	0.189	0.129
-291.647	-106.032	-0.098	0.022
-290.632	70.605	-0.052	0.053
-289.618	800.000	0.042	-0.151
-288.603	-157.238	-0.130	0.008
-287.589	800.000	-0.041	0.156
-286.574	800.000	0.083	0.298
-285.559	-200.000	0.083	0.526
-284.545	296.768	-0.133	0.242
-283.530	64.317	-0.135	-0.135
-282.516	2.958	0.064	0.046
-281.501	-178.593	0.282	-0.006
-280.486	-46.079	-0.340	0.166
-279.472	542.668	-0.100	0.238
-278.457	-104.741	-0.200	-0.046
-277.443	-200.000	-0.007	-0.163
-276.428	-113.467	-0.245	0.048
-275.413	30.693	-0.171	-0.145
-274.399	-31.946	-0.252	0.140
-273.384	49.721	0.077	-0.072
-272.370	-200.000	0.052	-0.616
-271.355	690.262	-0.027	0.069
-270.340	-131.582	-0.209	-0.027
-269.326	-21.581	-0.068	-0.041
-268.311	-63.023	0.340	0.139
-267.297	-200.000	0.019	-0.149
-266.282	31.455	-0.196	0.167
-265.267	-109.096	0.391	-0.083
-264.253	-48.173	0.187	-0.090
-263.238	800.000	0.095	0.369
-262.224	-200.000	-0.019	-0.135
-261.209	125.496	-0.114	0.142
-260.195	-144.941	0.217	-0.020
-259.180	-128.902	-0.181	0.025
-258.165	800.000	-0.039	0.142
-257.151	800.000	0.072	-0.278
-256.136	-80.727	-0.443	0.146
-255.122	312.301	-0.040	-0.074
-254.107	302.955	0.056	-0.102
-253.092	654.567	-0.094	0.238
-252.078	-200.000	-0.016	0.142
-251.063	243.570	-0.034	0.056
-250.049	-200.000	0.037	-0.226
-249.034	-18.495	0.101	-0.062
-248.019	-77.054	-0.074	0.025
-247.005	471.946	0.064	-0.143
-245.990	-47.200	-0.166	-0.080
-244.976	800.000	0.096	0.385
-243.961	-200.000	-0.041	0.198
-242.946	-9.819	-0.219	0.144
-241.932	54.024	-0.161	0.153
-240.917	-2.809	-0.217	0.150
-239.903	256.574	-0.166	0.283
-238.888	-200.000	-0.018	0.098
-237.873	-90.385	-0.149	0.043
-236.859	531.342	0.197	-0.461
-235.844	27.589	-0.024	-0.020
-234.830	-45.109	0.265	0.131
-233.815	-200.000	0.106	-0.635
-232.800	42.197	-0.184	0.166
-231.786	523.567	0.079	0.184
-230.771	-200.000	0.042	-0.233
-229.757	32.571	0.092	-0.079
-228.742	62.063	-0.058	0.058
-227.727	371.275	-0.050	-0.100
-226.713	46.307	0.152	-0.140
-225.698	123.258	0.089	0.111
-224.684	-147.754	-0.344	-0.029
-223.669	156.602	0.096	-0.132
-222.655	-200.000	-0.044	-0.413
-221.640	800.000	0.053	-0.212
-220.625	-200.000	0.076	0.423
-219.611	-200.000	0.002	-0.300
-218.596	-200.000	0.064	-0.487
-217.582	451.619	0.136	0.298
-216.567	66.077	0.180	-0.181
-215.552	-70.262	-0.269	0.101
-214.538	172.386	0.132	-0.188
-213.523	796.838	-0.104	0.284
-212.509	-110.142	0.166	0.034
-211.494	-200.000	0.040	0.208
-210.479	-76.852	0.062	-0.021
-209.465	97.560	-0.107	-0.122
-208.450	-95.427	-0.162	-0.043
-207.436	37.193	-0.051	0.045
-206.421	-1.548	-0.051	0.036
-205.406	800.000	0.009	0.037
-204.392	201.268	-0.122	-0.187
-203.377	-105.084	-0.244	0.055
-202.363	-155.934	0.327	0.021
-201.348	-200.000	0.036	0.326
-200.333	-99.086	0.115	0.029
-199.319	-200.000	-0.013	0.129
-198.304	-26.278	0.145	0.085
-197.290	-68.115	-0.062	-0.024
-196.275	-200.000	0.054	-0.272
-195.260	-73.755	-0.089	-0.032
-194.246	-200.000	0.028	-0.133
-193.231	-200.000	0.007	-0.211
-192.217	42.530	0.114	0.103
-191.202	557.432	-0.061	0.147
-190.187	-45.422	0.286	0.141
-189.173	-200.000	-0.029	-0.170
-188.158	72.374	0.144	-0.149
-187.144	310.361	0.056	-0.104
-186.129	-200.000	-0.007	0.184
-185.114	-200.000	-0.011	0.172
-184.100	210.005	0.110	0.170
-183.085	32.017	0.054	-0.046
-182.071	-57.495	-0.156	0.068
-181.056	-62.293	0.282	-0.116
-180.042	-200.000	-0.043	0.291
-179.027	-200.000	0.001	-0.165
-178.012	800.000	-0.057	-0.187
-176.998	800.000	-0.058	-0.219
-175.983	124.782	0.098	-0.122
-174.969	-52.204	-0.214	-0.098
-173.954	-75.991	-0.283	-0.099
-172.939	483.777	-0.099	-0.223
-171.925	208.700	-0.143	-0.222
-170.910	800.000	-0.107	-0.393
-169.896	72.381	0.186	-0.192
-168.881	-200.000	-0.027	-0.225
-167.866	406.681	-0.115	0.240
-166.852	800.000	0.039	0.144
-165.837	0.823	-0.068	0.048
-164.823	800.000	0.056	0.185
-163.808	8.973	-0.108	0.081
-162.793	-123.605	0.077	0.012
-161.779	800.000	-0.041	-0.114
-160.764	-60.128	0.090	0.038
-159.750	-155.532	0.150	0.010
-158.735	247.258	-0.149	-0.249
-157.720	-82.083	0.063	-0.020
-156.706	-22.783	0.135	-0.080
-155.691	-36.495	-0.088	0.047
-154.677	-105.047	-0.380	0.086
-153.662	-119.455	0.119	0.020
-152.647	-36.665	0.331	0.176
-151.633	-41.490	-0.220	0.112
-150.618	201.016	0.068	0.103
-149.604	-190.989	-0.323	-0.003
-148.589	-58.447	0.379	-0.163
-147.574	-24.430	-0.230	0.135
-146.560	-157.919	0.380	-0.022
-145.545	-200.000	-0.011	-0.374
-144.531	464.961	-0.065	-0.145
-143.516	-62.225	0.238	-0.098
-142.502	-149.247	0.393	0.031
-141.487	-29.009	0.197	0.112
-140.472	-143.955	0.209	0.019
-139.458	-3.777	0.158	-0.108
-138.443	373.544	0.114	-0.229
-137.429	-42.341	0.236	0.119
-136.414	-94.995	0.016	0.004
-135.399	277.162	-0.023	-0.040
-134.385	-200.000	-0.027	-0.122
-133.370	144.334	0.073	-0.096
-132.356	104.587	-0.150	-0.174
-131.341	-200.000	-0.063	0.351
-130.326	-104.405	-0.171	0.039
-129.312	273.515	-0.160	0.280
-128.297	-200.000	0.009	-0.293
-127.283	800.000	0.026	0.099
-126.268	19.979	-0.275	0.219
-125.253	4.129	-0.236	-0.170
-124.239	111.850	-0.083	-0.099
-123.224	-51.473	0.256	0.118
-122.210	41.681	0.171	-0.153
-121.195	800.000	-0.016	0.063
-120.180	-74.051	0.296	-0.106
