DTS Sentinel unit serial number:	SN413079Multiplexer serial number:	ORYXHardware model number:	OX4-SRSoftware version number:	ORYX F/W v4.00 Oryx Data Collector v3.7.2.0data status	okinstallation	princeton_trtdifferential loss correction	single-endedforward channel	channel 1reverse channel	N/Adate	2019/09/11time	08:32:11forward acquisition time	60.00reverse acquisition time	0.00gamma	496.2192k internal	0.2315k external	0.2315temperature offset calibration	0.9949default loss term (dB/km)	0.3790temperature slope calibration	1.0000multiplexer offset coefficient	1.0000multiplexer slope coefficient	1.0000fibre end	0.00T internal ref (°C)	33.19T ext. ref 1 (°C)	0.09T ext. ref 2 (°C)	30.85length (m)	temperature (°C)	Stokes	anti-Stokes-747.200	800.000	-0.148	0.474
-746.185	-135.609	-0.493	0.059
-745.171	-200.000	0.020	-0.185
-744.156	167.009	-0.084	-0.120
-743.142	13.252	0.259	0.203
-742.127	-76.212	0.315	0.113
-741.112	24.196	0.310	-0.259
-740.098	-200.000	0.052	0.328
-739.083	-33.905	0.077	-0.043
-738.069	-200.000	0.014	0.396
-737.054	173.309	-0.312	0.455
-736.039	800.000	0.030	0.131
-735.025	199.007	0.047	0.073
-734.010	96.771	-0.146	-0.169
-732.996	-200.000	0.000	-0.008
-731.981	-29.912	0.323	-0.187
-730.966	-70.620	-0.371	0.142
-729.952	171.784	-0.053	0.077
-728.937	-200.000	0.054	-0.288
-727.923	-132.294	-0.296	-0.039
-726.908	84.522	-0.093	0.103
-725.894	-200.000	-0.016	0.096
-724.879	-36.288	-0.286	0.156
-723.864	-75.749	0.147	0.053
-722.850	-114.615	-0.314	-0.061
-721.835	48.267	0.183	-0.173
-720.821	-65.518	-0.139	-0.056
-719.806	53.021	0.137	-0.133
-718.791	-79.950	-0.167	-0.057
-717.777	9.209	0.158	-0.121
-716.762	496.069	0.048	-0.111
-715.748	800.000	0.057	-0.190
-714.733	-200.000	-0.013	-0.095
-713.718	-200.000	-0.044	-0.372
-712.704	599.261	0.011	0.029
-711.689	-91.198	-0.103	0.030
-710.675	-122.696	0.152	0.025
-709.660	-200.000	0.015	0.143
-708.645	-68.218	-0.116	-0.046
-707.631	-17.038	0.312	-0.199
-706.616	-156.767	-0.330	-0.021
-705.602	-200.000	0.001	-0.012
-704.587	-157.598	0.040	0.002
-703.572	-200.000	0.070	-0.351
-702.558	-2.063	0.116	0.082
-701.543	208.573	-0.061	0.097
-700.529	800.000	0.118	-0.331
-699.514	112.023	-0.125	-0.152
-698.499	-191.107	-0.335	-0.004
-697.485	-88.591	-0.155	0.047
-696.470	-130.245	0.265	0.036
-695.456	672.459	0.071	-0.186
-694.441	-127.707	-0.335	-0.049
-693.426	280.474	0.014	0.025
-692.412	-200.000	0.025	0.192
-691.397	112.463	0.161	-0.198
-690.383	-110.149	0.211	0.044
-689.368	391.253	0.015	-0.032
-688.354	-200.000	0.002	-0.099
-687.339	-200.000	0.037	0.270
-686.324	-198.363	0.144	-0.001
-685.310	-200.000	0.027	0.239
-684.295	513.936	-0.117	0.276
-683.281	0.533	-0.312	-0.225
-682.266	-32.391	-0.115	0.065
-681.251	560.467	0.042	0.102
-680.237	359.529	0.211	-0.426
-679.222	800.000	0.044	-0.133
-678.208	-13.009	-0.153	0.101
-677.193	-100.392	-0.207	0.052
-676.178	800.000	0.137	-0.409
-675.164	-51.041	0.077	0.037
-674.149	-200.000	0.012	-0.149
-673.135	-69.212	-0.341	0.132
-672.120	415.285	0.051	0.111
-671.105	-62.606	-0.158	-0.066
-670.091	-200.000	-0.005	-0.245
-669.076	26.731	-0.078	0.066
-668.062	7.185	0.186	-0.140
-667.047	-103.397	0.246	-0.059
-666.032	114.250	-0.170	-0.208
-665.018	-118.648	-0.191	0.034
-664.003	-174.868	-0.275	-0.008
-662.989	-15.979	-0.167	0.107
-661.974	486.574	-0.029	0.066
-660.959	-200.000	0.012	-0.194
-659.945	800.000	0.121	-0.443
-658.930	-151.880	-0.453	0.033
-657.916	515.663	-0.148	0.350
-656.901	-102.233	0.261	0.063
-655.886	-92.633	0.139	0.039
-654.872	-109.399	-0.206	-0.044
-653.857	-100.014	-0.225	-0.057
-652.843	2.021	-0.181	-0.132
-651.828	176.455	0.141	-0.207
-650.814	395.089	0.090	-0.190
-649.799	-116.186	0.084	-0.016
-648.784	-84.468	0.191	-0.061
-647.770	-8.698	-0.033	-0.022
-646.755	-71.887	-0.408	-0.153
-645.741	-48.655	-0.302	-0.147
-644.726	-88.511	0.231	0.070
-643.711	192.349	-0.184	-0.281
-642.697	-200.000	0.018	0.106
-641.682	74.945	0.242	0.257
-640.668	-21.552	-0.130	0.080
-639.653	-200.000	-0.096	-0.000
-638.638	-79.817	-0.208	0.071
-637.624	800.000	-0.081	-0.332
-636.609	529.124	-0.149	0.354
-635.595	-82.705	-0.498	-0.163
-634.580	154.403	-0.155	-0.214
-633.565	443.350	-0.107	-0.237
-632.551	-101.766	-0.324	0.079
-631.536	-200.000	0.023	-0.294
-630.522	-50.254	-0.151	0.072
-629.507	323.524	-0.114	-0.219
-628.492	-200.000	0.026	-0.329
-627.478	-200.000	-0.044	0.352
-626.463	800.000	-0.138	0.386
-625.449	-62.361	-0.083	0.035
-624.434	-101.203	0.182	0.045
-623.419	635.344	-0.200	-0.511
-622.405	81.989	0.149	-0.163
-621.390	-200.000	-0.018	0.290
-620.376	210.718	0.180	-0.286
-619.361	-63.284	-0.222	-0.092
-618.346	-41.118	0.098	0.051
-617.332	753.421	0.133	-0.361
-616.317	20.425	0.279	0.228
-615.303	-115.107	-0.218	-0.042
-614.288	-200.000	0.035	-0.345
-613.273	-200.000	0.005	0.186
-612.259	-101.495	-0.238	0.058
-611.244	28.913	0.025	-0.022
-610.230	-71.258	-0.285	-0.108
-609.215	-104.064	-0.184	0.043
-608.201	103.998	-0.181	0.215
-607.186	-200.000	-0.019	0.175
-606.171	-46.312	0.088	-0.044
-605.157	39.559	-0.133	-0.120
-604.142	-87.317	0.190	-0.058
-603.128	758.961	-0.042	0.115
-602.113	-66.838	0.319	-0.127
-601.098	-200.000	-0.017	0.488
-600.084	408.135	0.115	0.244
-599.069	178.516	0.116	-0.171
-598.055	-49.939	-0.199	-0.095
-597.040	-113.302	-0.212	-0.042
-596.025	104.864	0.142	-0.168
-595.011	-69.479	-0.197	0.076
-593.996	18.542	-0.198	0.159
-592.982	-122.915	0.209	-0.034
-591.967	800.000	0.102	0.291
-590.952	37.327	0.158	0.141
-589.938	-13.128	-0.154	-0.101
-588.923	343.227	-0.101	0.198
-587.909	-23.964	0.059	0.035
-586.894	-34.023	-0.325	0.180
-585.879	800.000	-0.106	-0.363
-584.865	185.879	0.073	0.109
-583.850	224.109	-0.114	0.185
-582.836	-200.000	0.067	0.393
-581.821	800.000	-0.051	-0.183
-580.806	800.000	0.099	-0.346
-579.792	227.069	-0.358	-0.586
-578.777	140.973	0.074	-0.099
-577.763	23.774	0.031	0.026
-576.748	-145.771	-0.180	-0.016
-575.733	-84.566	-0.128	0.041
-574.719	-48.653	0.215	-0.104
-573.704	277.732	-0.184	0.329
-572.690	117.162	-0.021	-0.026
-571.675	516.895	0.089	0.210
-570.661	595.320	-0.125	0.312
-569.646	-41.401	-0.226	0.117
-568.631	95.876	-0.069	0.079
-567.617	-75.696	0.142	0.051
-566.602	800.000	-0.030	-0.116
-565.588	-62.002	0.192	-0.081
-564.573	-200.000	-0.023	-0.177
-563.558	399.333	-0.041	0.087
-562.544	-151.519	-0.300	-0.022
-561.529	-110.532	-0.161	-0.034
-560.515	-98.399	-0.306	-0.079
-559.500	-101.010	0.296	-0.073
-558.485	2.251	0.022	-0.016
-557.471	800.000	-0.099	-0.372
-556.456	800.000	-0.035	0.140
-555.442	463.014	0.158	0.354
-554.427	-76.453	-0.189	-0.067
-553.412	112.214	0.120	0.146
-552.398	800.000	0.108	0.403
-551.383	153.470	0.223	0.308
-550.369	729.530	0.025	-0.068
-549.354	-133.662	0.200	-0.025
-548.339	316.118	-0.117	-0.221
-547.325	530.067	-0.059	-0.141
-546.310	162.429	-0.054	-0.077
-545.296	42.163	0.038	0.035
-544.281	82.632	-0.181	-0.198
-543.266	-49.858	0.204	-0.098
-542.252	-200.000	0.066	-0.303
-541.237	800.000	0.016	0.048
-540.223	38.053	0.269	-0.241
-539.208	83.016	0.137	-0.150
-538.193	246.751	0.048	0.081
-537.179	-33.400	-0.082	0.045
-536.164	221.975	0.188	-0.303
-535.150	-178.568	-0.439	0.010
-534.135	294.969	-0.118	-0.216
-533.121	27.178	-0.083	-0.070
-532.106	-48.463	0.073	0.035
-531.091	30.221	-0.283	0.243
-530.077	262.480	0.183	-0.319
-529.062	515.990	-0.105	-0.246
-528.048	-60.490	0.232	-0.099
-527.033	257.613	0.060	-0.103
-526.018	-39.356	0.251	-0.132
-525.004	-58.230	0.134	0.059
-523.989	-170.974	-0.075	0.003
-522.975	75.573	0.123	-0.130
-521.960	542.175	0.110	-0.263
-520.945	221.931	-0.087	-0.140
-519.931	-200.000	0.004	-0.084
-518.916	78.020	-0.189	0.203
-517.902	-42.104	-0.015	-0.008
-516.887	217.225	-0.083	-0.132
-515.872	800.000	0.127	-0.441
-514.858	123.098	-0.140	-0.176
-513.843	800.000	-0.017	0.063
-512.829	-96.360	-0.084	-0.022
-511.814	90.422	-0.095	-0.107
-510.799	-200.000	-0.006	-0.051
-509.785	-12.768	-0.106	0.069
-508.770	288.231	0.044	0.079
-507.756	-123.446	-0.270	0.043
-506.741	162.546	0.114	0.161
-505.726	-178.135	0.254	-0.006
-504.712	-106.404	0.325	0.073
-503.697	-126.085	-0.252	0.038
-502.683	-71.272	0.229	-0.086
-501.668	352.672	-0.077	-0.154
-500.653	-149.676	0.213	-0.017
-499.639	-92.005	-0.231	0.065
-498.624	-16.934	0.114	0.072
-497.610	-200.000	-0.027	0.274
-496.595	-200.000	0.015	0.099
-495.581	-200.000	0.006	0.127
-494.566	-29.633	0.364	-0.209
-493.551	800.000	-0.062	-0.217
-492.537	-101.394	0.344	0.084
-491.522	36.658	-0.214	0.189
-490.508	327.289	0.186	0.358
-489.493	-200.000	0.013	-0.470
-488.478	-106.361	-0.132	0.030
-487.464	800.000	-0.032	0.137
-486.449	-2.714	0.188	-0.132
-485.435	-3.264	0.038	0.027
-484.420	606.392	0.080	-0.200
-483.405	224.345	0.045	0.074
-482.391	-121.968	-0.157	-0.026
-481.376	-200.000	0.029	0.266
-480.362	41.533	0.272	0.247
-479.347	-52.945	-0.261	-0.120
-478.332	-33.863	0.039	-0.022
-477.318	-200.000	0.020	0.221
-476.303	-65.094	0.327	-0.132
-475.289	-191.871	-0.161	-0.002
-474.274	-200.000	-0.008	-0.319
-473.259	59.527	-0.103	0.102
-472.245	-200.000	0.080	-0.000
-471.230	-200.000	0.057	0.348
-470.216	106.159	0.034	0.041
-469.201	-153.440	-0.436	0.030
-468.186	-94.933	-0.118	0.032
-467.172	-26.436	-0.025	0.015
-466.157	800.000	-0.033	0.118
-465.143	800.000	-0.026	-0.107
-464.128	-16.399	0.264	0.168
-463.113	-58.109	0.392	0.171
-462.099	-68.111	0.218	-0.085
-461.084	85.885	0.104	-0.115
-460.070	800.000	-0.040	0.123
-459.055	-200.000	-0.018	0.146
-458.040	49.944	0.104	0.098
-457.026	-121.116	-0.058	0.010
-456.011	-77.168	0.249	-0.087
-454.997	286.940	0.070	-0.127
-453.982	800.000	0.080	0.297
-452.968	-32.615	-0.202	0.113
-451.953	-20.655	0.242	-0.149
-450.938	236.264	0.123	0.204
-449.924	428.391	0.146	0.317
-448.909	3.262	0.316	0.230
-447.895	-6.933	0.138	0.094
-446.880	800.000	-0.010	0.037
-445.865	-148.071	-0.226	0.019
-444.851	0.512	0.288	0.206
-443.836	135.798	-0.117	-0.152
-442.822	119.556	-0.017	0.021
-441.807	393.150	-0.113	-0.236
-440.792	-97.346	-0.199	-0.052
-439.778	471.885	-0.094	-0.212
-438.763	-11.259	-0.257	0.170
-437.749	-59.891	0.214	0.092
-436.734	191.666	-0.099	-0.149
-435.719	80.157	-0.075	0.081
-434.705	158.390	0.201	-0.279
-433.690	-124.942	-0.194	0.030
-432.676	-0.491	-0.216	-0.153
-431.661	-74.148	-0.171	0.062
-430.646	800.000	0.102	0.437
-429.632	-177.642	0.094	-0.002
-428.617	113.046	-0.126	0.153
-427.603	-88.506	0.265	0.079
-426.588	-55.398	-0.184	-0.082
-425.573	115.289	0.086	0.105
-424.559	146.530	0.034	-0.046
-423.544	320.722	-0.032	-0.061
-422.530	449.905	0.033	0.073
-421.515	-115.056	-0.113	-0.021
-420.500	15.127	0.115	-0.090
-419.486	800.000	-0.084	0.266
-418.471	-65.669	0.174	-0.070
-417.457	40.223	0.157	-0.141
-416.442	-87.938	0.066	-0.020
-415.428	29.344	0.237	-0.201
-414.413	70.136	0.240	-0.248
-413.398	-4.969	-0.118	0.082
-412.384	306.981	-0.107	-0.200
-411.369	-7.319	-0.208	0.141
-410.355	-200.000	0.043	-0.217
-409.340	800.000	-0.113	0.334
-408.325	-72.900	-0.188	-0.069
-407.311	-125.448	0.465	-0.071
-406.296	-139.311	0.152	0.016
-405.282	-161.067	0.225	-0.012
-404.267	-200.000	0.075	0.394
-403.252	-140.607	-0.302	0.031
-402.238	-31.258	0.146	-0.082
-401.223	-29.673	0.124	0.071
-400.209	-200.000	0.024	0.317
-399.194	-21.856	-0.354	0.215
-398.179	13.951	0.030	0.024
-397.165	77.218	0.176	0.188
-396.150	-33.716	-0.161	0.089
-395.136	-33.156	-0.267	-0.148
-394.121	-183.478	0.398	0.007
-393.106	96.272	-0.141	-0.161
-392.092	243.204	0.165	-0.276
-391.077	135.687	0.124	-0.162
-390.063	62.681	0.222	0.222
-389.048	-0.933	-0.322	0.228
-388.033	800.000	0.026	-0.110
-387.019	88.347	-0.081	0.090
-386.004	492.721	-0.090	0.207
-384.990	367.456	0.045	0.090
-383.975	75.051	-0.198	-0.208
-382.960	-200.000	-0.029	0.271
-381.946	-31.912	0.280	-0.156
-380.931	-45.468	0.353	-0.175
-379.917	374.905	0.064	0.129
-378.902	2.394	-0.060	0.043
-377.888	121.905	-0.055	0.068
-376.873	-8.014	0.129	-0.087
-375.858	-71.447	0.078	0.029
-374.844	800.000	0.020	-0.068
-373.829	-158.055	0.282	-0.017
-372.815	-200.000	-0.020	-0.097
-371.800	-67.090	-0.088	-0.035
-370.785	-200.000	-0.038	-0.339
-369.771	-2.251	0.201	0.141
-368.756	-200.000	-0.023	0.251
-367.742	-200.000	-0.028	-0.354
-366.727	17.637	0.236	0.187
-365.712	-36.394	-0.255	0.137
-364.698	-200.000	0.008	-0.066
-363.683	13.519	0.127	-0.098
-362.669	171.374	0.060	0.085
-361.654	-175.455	0.144	0.004
-360.639	-200.000	0.025	-0.145
-359.625	61.379	0.038	-0.038
-358.610	33.746	0.247	-0.215
-357.596	75.886	-0.161	0.170
-356.581	232.714	-0.028	-0.045
-355.566	800.000	0.129	0.432
-354.552	-200.000	0.014	0.316
-353.537	-36.332	0.215	-0.115
-352.523	-23.287	0.245	0.147
-351.508	328.557	-0.047	-0.089
-350.493	-182.239	-0.268	0.005
-349.479	-66.942	-0.409	0.161
-348.464	-30.938	-0.315	-0.178
-347.450	-84.656	-0.204	-0.064
-346.435	-162.113	-0.316	0.016
-345.420	-107.008	0.210	-0.046
-344.406	282.768	0.150	0.268
-343.391	-86.954	-0.484	0.147
-342.377	800.000	0.025	0.079
-341.362	-101.856	0.246	0.059
-340.348	118.244	-0.129	0.159
-339.333	88.466	0.083	0.093
-338.318	44.225	-0.271	0.248
-337.304	-66.900	-0.163	-0.064
-336.289	-100.341	-0.133	-0.033
-335.275	88.716	-0.113	0.125
-334.260	-13.927	0.157	0.101
-333.245	127.333	0.027	0.034
-332.231	-46.042	0.068	0.033
-331.216	-74.074	0.121	0.044
-330.202	79.183	-0.112	-0.120
-329.187	-52.941	0.276	0.126
-328.172	800.000	-0.138	-0.476
-327.158	800.000	-0.026	0.079
-326.143	-200.000	-0.010	-0.174
-325.129	-200.000	0.006	-0.147
-324.114	91.227	-0.239	-0.267
-323.099	-20.346	-0.278	0.171
-322.085	-15.074	-0.122	0.078
-321.070	353.003	-0.054	0.107
-320.056	-41.625	0.120	-0.061
-319.041	-200.000	0.039	0.180
-318.026	40.027	-0.287	-0.257
-317.012	-48.094	0.121	-0.058
-315.997	65.990	-0.062	-0.063
-314.983	710.425	-0.055	0.145
-313.968	800.000	-0.145	0.431
-312.953	1.277	-0.188	0.134
-311.939	59.037	-0.056	-0.055
-310.924	170.788	0.068	0.097
-309.910	42.933	0.161	-0.147
-308.895	-167.554	0.360	0.014
-307.880	-200.000	-0.003	-0.095
-306.866	-14.787	0.073	0.047
-305.851	277.891	0.097	-0.172
-304.837	-200.000	0.003	0.037
-303.822	-4.630	-0.235	-0.162
-302.807	171.104	0.084	-0.120
-301.793	-1.819	-0.177	0.124
-300.778	-118.992	0.458	0.080
-299.764	-44.054	-0.170	0.085
-298.749	-200.000	0.004	-0.188
-297.735	192.627	-0.166	0.249
-296.720	12.859	0.111	0.085
-295.705	-34.273	0.092	-0.050
-294.691	800.000	0.024	-0.102
-293.676	15.199	-0.155	0.121
-292.662	-96.160	0.207	0.055
-291.647	590.905	-0.101	0.249
-290.632	-34.457	-0.214	0.117
-289.618	800.000	0.069	-0.263
-288.603	-11.197	0.109	-0.071
-287.589	-43.852	-0.118	0.059
-286.574	-66.191	0.201	0.080
-285.559	53.582	0.105	-0.100
-284.545	94.346	-0.146	0.165
-283.530	200.388	0.094	0.143
-282.516	-167.227	0.223	-0.009
-281.501	81.203	0.205	0.221
-280.486	12.331	-0.217	0.166
-279.472	-200.000	0.010	-0.056
-278.457	800.000	-0.040	-0.164
-277.443	-33.035	0.201	-0.111
-276.428	124.052	0.132	-0.166
-275.413	432.935	0.078	0.168
-274.399	112.050	0.138	-0.166
-273.384	-73.003	0.274	-0.100
-272.370	-77.760	0.090	-0.031
-271.355	-200.000	0.013	-0.099
-270.340	-8.415	-0.121	-0.081
-269.326	-36.075	0.204	-0.109
-268.311	177.339	-0.130	0.188
-267.297	-40.299	0.161	-0.083
-266.282	-57.277	0.111	0.049
-265.267	-44.339	0.180	-0.090
-264.253	-200.000	0.005	0.098
-263.238	-200.000	0.045	-0.199
-262.224	108.061	-0.232	-0.274
-261.209	252.800	-0.157	0.266
-260.195	92.368	0.212	-0.238
-259.180	-45.923	-0.296	0.145
-258.165	-200.000	0.009	0.046
-257.151	-200.000	0.001	-0.214
-256.136	-60.887	0.251	-0.106
-255.122	537.796	-0.026	-0.062
-254.107	69.985	0.191	-0.196
-253.092	-111.680	-0.249	-0.050
-252.078	351.112	-0.159	0.312
-251.063	-13.974	0.175	0.112
-250.049	-29.114	-0.150	-0.086
-249.034	-123.370	0.165	0.026
-248.019	-200.000	-0.048	0.291
-247.005	256.371	0.216	0.369
-245.990	-200.000	-0.009	0.121
-244.976	258.588	0.060	0.102
-243.961	-200.000	0.037	0.222
-242.946	800.000	-0.090	-0.290
-241.932	120.347	-0.127	-0.157
-240.917	18.583	-0.088	0.070
-239.903	31.063	-0.024	-0.020
-238.888	-51.247	0.308	-0.143
-237.873	276.542	0.043	0.076
-236.859	47.326	-0.198	-0.183
-235.844	-8.904	0.093	0.062
-234.830	-85.081	-0.395	0.123
-233.815	-47.518	0.155	-0.075
-232.800	-179.992	0.255	-0.005
-231.786	-22.403	-0.082	-0.049
-230.771	-200.000	0.005	0.097
-229.757	529.605	0.078	-0.183
-228.742	489.604	0.118	0.267
-227.727	-110.717	0.390	0.080
-226.713	-10.016	0.324	0.214
-225.698	-200.000	0.047	0.239
-224.684	184.399	0.190	-0.279
-223.669	-73.811	0.191	0.069
-222.655	800.000	0.023	-0.097
-221.640	-49.114	0.063	-0.030
-220.625	-29.349	-0.258	-0.146
-219.611	800.000	0.011	0.038
-218.596	-80.346	-0.199	-0.066
-217.582	37.655	-0.180	0.158
-216.567	-200.000	-0.011	0.060
-215.552	459.474	0.034	-0.074
-214.538	174.791	0.060	0.086
-213.523	-0.991	0.176	-0.124
-212.509	-200.000	-0.043	-0.220
-211.494	-188.874	-0.229	-0.003
-210.479	-59.533	-0.218	0.093
-209.465	-200.000	0.027	-0.310
-208.450	-200.000	-0.004	-0.125
-207.436	-0.797	-0.381	-0.268
-206.421	57.900	-0.208	-0.202
-205.406	-49.473	0.063	0.030
-204.392	-63.338	-0.334	-0.136
-203.377	-200.000	0.016	0.157
-202.363	397.233	0.081	0.169
-201.348	686.172	-0.037	0.097
-200.333	51.792	-0.125	0.118
-199.319	-153.048	0.282	-0.020
-198.304	-113.413	-0.395	-0.077
-197.290	-7.514	0.222	0.149
-196.275	214.370	-0.035	-0.055
-195.260	800.000	-0.095	0.270
-194.246	-120.581	0.351	-0.059
-193.231	-196.717	0.240	-0.002
-192.217	193.385	0.116	0.173
-191.202	-90.816	-0.193	-0.055
-190.187	-28.511	-0.261	-0.149
-189.173	141.825	-0.181	-0.238
-188.158	47.230	-0.163	-0.151
-187.144	-76.399	-0.056	-0.020
-186.129	40.359	0.155	0.138
-185.114	-126.443	0.013	0.002
-184.100	-200.000	-0.020	0.345
-183.085	-200.000	-0.055	0.298
-182.071	74.375	-0.285	0.297
-181.056	-200.000	-0.001	0.109
-180.042	19.672	0.238	-0.190
-179.027	230.022	0.039	-0.064
-178.012	-91.432	0.108	-0.031
-176.998	87.322	-0.124	-0.136
-175.983	-138.438	-0.067	0.007
-174.969	-166.913	-0.247	-0.010
-173.954	418.865	0.065	-0.137
-172.939	-200.000	0.038	-0.266
-171.925	-200.000	-0.020	-0.205
-170.910	488.873	0.084	0.190
-169.896	800.000	-0.102	-0.389
-168.881	-200.000	0.010	0.140
-167.866	800.000	0.051	-0.218
-166.852	-36.937	-0.062	-0.033
-165.837	196.580	0.042	-0.064
-164.823	-124.228	0.198	0.031
-163.808	266.724	0.060	0.104
-162.793	-40.829	0.214	-0.110
-161.779	-147.858	-0.195	0.016
-160.764	-83.531	0.135	-0.043
-159.750	-102.368	-0.225	0.054
-158.735	-99.990	0.066	0.016
-157.720	-158.941	0.228	-0.013
-156.706	232.690	0.152	-0.247
-155.691	-152.223	0.135	-0.010
-154.677	-85.960	-0.193	-0.059
-153.662	219.727	-0.299	-0.474
-152.647	-200.000	0.032	0.174
-151.633	-200.000	-0.039	0.342
-150.618	56.214	-0.274	0.263
-149.604	800.000	-0.041	-0.136
-148.589	177.327	0.165	-0.237
-147.574	12.403	0.288	0.220
-146.560	-59.482	-0.268	0.114
-145.545	163.529	0.175	-0.243
-144.531	-153.446	-0.118	-0.008
-143.516	-200.000	-0.012	-0.171
-142.502	611.738	-0.163	-0.403
-141.487	-200.000	-0.006	-0.140
-140.472	-120.626	-0.287	-0.048
-139.458	34.696	-0.138	-0.119
-138.443	34.987	-0.280	0.242
-137.429	-76.782	0.400	0.139
-136.414	-80.743	-0.399	0.131
-135.399	-117.542	0.247	-0.044
-134.385	-97.277	-0.176	0.045
-133.370	160.317	-0.104	0.143
-132.356	20.415	-0.027	-0.022
-131.341	-195.248	-0.093	0.001
-130.326	-146.012	0.128	0.011
-129.312	-46.481	0.104	-0.051
-128.297	-64.704	0.253	0.101
-127.283	67.501	0.083	0.083
-126.268	-158.232	-0.225	-0.013
-125.253	92.776	0.183	0.204
-124.239	-71.231	-0.342	0.127
-123.224	-191.383	0.109	-0.001
-122.210	-76.986	0.234	0.081
-121.195	635.864	-0.059	0.148
