DTS Sentinel unit serial number:	SN413079Multiplexer serial number:	ORYXHardware model number:	OX4-SRSoftware version number:	ORYX F/W v4.00 Oryx Data Collector v3.7.2.0data status	okinstallation	princeton_trtdifferential loss correction	single-endedforward channel	channel 1reverse channel	N/Adate	2019/09/13time	09:30:35forward acquisition time	60.00reverse acquisition time	0.00gamma	496.2192k internal	0.2325k external	0.2325temperature offset calibration	1.0159default loss term (dB/km)	0.3790temperature slope calibration	1.0000multiplexer offset coefficient	1.0000multiplexer slope coefficient	1.0000fibre end	0.00T internal ref (°C)	29.48T ext. ref 1 (°C)	4.41T ext. ref 2 (°C)	26.02length (m)	temperature (°C)	Stokes	anti-Stokes-747.200	-200.000	0.000	0.101
-746.185	-99.572	0.099	-0.025
-745.171	146.790	0.086	-0.117
-744.156	-163.622	0.128	0.006
-743.142	-200.000	-0.046	0.288
-742.127	74.298	-0.206	0.219
-741.112	294.758	0.131	-0.241
-740.098	-60.301	0.294	0.126
-739.083	388.423	0.059	-0.123
-738.069	-200.000	0.046	0.366
-737.054	135.131	0.106	0.139
-736.039	-200.000	-0.003	0.135
-735.025	-117.459	0.202	0.037
-734.010	281.393	-0.116	-0.210
-732.996	-200.000	0.039	-0.373
-731.981	-165.200	-0.390	0.017
-730.966	373.367	-0.174	-0.356
-729.952	-200.000	-0.029	-0.213
-728.937	-95.423	0.175	0.047
-727.923	403.972	0.228	-0.485
-726.908	104.630	-0.185	-0.220
-725.894	738.386	-0.068	0.185
-724.879	94.585	-0.098	0.112
-723.864	11.804	-0.026	-0.020
-722.850	680.260	0.173	-0.454
-721.835	579.312	0.062	-0.154
-720.821	-131.768	-0.300	0.040
-719.806	-88.672	-0.193	0.058
-718.791	17.368	0.229	0.183
-717.777	284.090	-0.072	-0.131
-716.762	-142.178	-0.090	-0.009
-715.748	83.256	0.066	0.072
-714.733	-166.447	-0.311	-0.013
-713.718	643.154	-0.070	0.180
-712.704	-46.452	-0.261	0.129
-711.689	151.062	-0.210	-0.288
-710.675	-156.296	0.295	0.019
-709.660	249.603	-0.153	-0.261
-708.645	-148.095	-0.323	0.027
-707.631	-191.847	0.243	0.002
-706.616	17.261	0.087	-0.069
-705.602	-51.583	-0.110	-0.052
-704.587	-200.000	-0.010	-0.255
-703.572	252.060	-0.074	-0.127
-702.558	6.868	-0.364	-0.273
-701.543	-3.425	-0.104	-0.073
-700.529	-200.000	0.021	-0.118
-699.514	800.000	0.118	-0.373
-698.499	-200.000	0.002	0.060
-697.485	218.544	0.102	0.164
-696.470	800.000	0.032	0.093
-695.456	416.969	0.102	-0.218
-694.441	346.512	0.080	-0.159
-693.426	235.707	-0.134	-0.222
-692.412	-110.044	-0.323	-0.068
-691.397	-200.000	0.039	0.225
-690.383	-147.189	0.146	0.013
-689.368	-79.014	-0.035	0.012
-688.354	237.153	-0.120	0.199
-687.339	699.176	-0.050	-0.132
-686.324	800.000	-0.030	0.102
-685.310	-171.901	0.254	0.008
-684.295	-89.380	0.209	0.062
-683.281	-134.231	-0.421	0.052
-682.266	-123.727	0.149	0.024
-681.251	-60.569	-0.259	-0.110
-680.237	800.000	-0.089	0.332
-679.222	-200.000	0.134	0.000
-678.208	-0.809	-0.089	0.064
-677.193	-168.782	-0.379	-0.014
-676.178	-89.817	-0.156	-0.046
-675.164	-51.194	-0.158	0.074
-674.149	-19.667	-0.200	-0.125
-673.135	-147.811	-0.302	0.025
-672.120	-18.494	0.154	0.096
-671.105	-150.588	-0.369	-0.028
-670.091	-59.300	0.154	-0.067
-669.076	6.571	0.156	-0.117
-668.062	71.306	-0.267	0.279
-667.047	800.000	-0.066	-0.236
-666.032	79.505	0.254	0.274
-665.018	-153.898	-0.397	-0.027
-664.003	-200.000	0.071	0.492
-662.989	610.892	-0.072	0.180
-661.974	2.518	-0.314	-0.228
-660.959	494.240	-0.103	-0.237
-659.945	-12.000	0.217	-0.143
-658.930	-114.303	0.080	-0.016
-657.916	-65.535	0.485	0.196
-656.901	800.000	-0.120	-0.383
-655.886	-200.000	-0.037	0.492
-654.872	22.626	0.081	0.067
-653.857	-108.223	-0.202	-0.044
-652.843	-21.272	-0.117	-0.072
-651.828	-66.928	-0.177	-0.070
-650.814	166.873	0.064	-0.091
-649.799	800.000	-0.052	0.154
-648.784	800.000	0.024	-0.090
-647.770	-200.000	0.006	-0.146
-646.755	-117.651	0.235	0.043
-645.741	51.431	-0.171	0.164
-644.726	-36.719	0.074	-0.040
-643.711	-200.000	-0.032	-0.143
-642.697	154.557	-0.060	0.083
-641.682	36.258	-0.111	0.098
-640.668	98.270	-0.213	0.247
-639.653	51.673	-0.218	0.209
-638.638	14.698	-0.270	0.212
-637.624	-5.223	0.295	-0.204
-636.609	-90.975	-0.206	0.059
-635.595	800.000	-0.019	0.069
-634.580	115.250	-0.163	-0.200
-633.565	-200.000	-0.056	-0.271
-632.551	-42.434	0.100	-0.051
-631.536	-200.000	-0.001	0.090
-630.522	722.997	-0.113	-0.302
-629.507	-56.092	-0.098	-0.044
-628.492	800.000	0.072	0.237
-627.478	-200.000	-0.024	-0.424
-626.463	109.431	0.276	-0.332
-625.449	92.020	0.125	0.142
-624.434	-31.912	-0.184	0.104
-623.419	-200.000	-0.009	-0.095
-622.405	-200.000	0.015	-0.308
-621.390	50.970	0.080	-0.076
-620.376	48.961	0.132	0.125
-619.361	-81.735	0.187	-0.062
-618.346	-156.492	0.301	-0.019
-617.332	-108.674	-0.289	0.062
-616.317	-200.000	-0.028	0.164
-615.303	800.000	0.048	0.153
-614.288	3.599	-0.140	-0.103
-613.273	361.549	-0.130	0.261
-612.259	-200.000	-0.047	0.308
-611.244	-200.000	0.004	-0.187
-610.230	-200.000	-0.049	-0.590
-609.215	276.047	0.099	-0.176
-608.201	-116.328	-0.129	-0.024
-607.186	-5.488	-0.482	0.332
-606.171	256.140	0.116	0.200
-605.157	-3.802	0.177	-0.123
-604.142	99.850	-0.151	-0.175
-603.128	62.520	0.118	-0.118
-602.113	-75.207	0.271	0.097
-601.098	-19.654	-0.144	-0.090
-600.084	-33.023	-0.232	-0.129
-599.069	75.511	-0.162	-0.171
-598.055	-200.000	0.023	0.331
-597.040	7.063	-0.179	-0.134
-596.025	-192.930	0.133	0.001
-595.011	12.874	0.077	-0.059
-593.996	224.571	-0.052	0.085
-592.982	-50.920	0.206	0.097
-591.967	-142.435	0.170	0.017
-590.952	113.465	-0.260	-0.317
-589.938	90.150	-0.282	0.316
-588.923	-108.759	0.252	0.054
-587.909	382.961	-0.209	0.431
-586.894	239.515	0.226	-0.378
-585.879	291.943	-0.092	0.168
-584.865	220.862	0.095	0.153
-583.850	3.982	0.116	-0.085
-582.836	800.000	-0.115	-0.452
-581.821	-22.366	0.202	0.123
-580.806	-128.487	0.160	0.023
-579.792	800.000	0.048	0.173
-578.777	-200.000	0.020	-0.347
-577.763	46.115	-0.183	-0.169
-576.748	184.732	0.230	-0.342
-575.733	-200.000	0.006	0.115
-574.719	800.000	0.121	0.393
-573.704	-90.621	0.158	-0.046
-572.690	-200.000	0.030	-0.274
-571.675	189.878	-0.030	0.045
-570.661	45.625	-0.237	0.219
-569.646	136.089	-0.197	0.257
-568.631	800.000	-0.088	-0.374
-567.617	-200.000	0.059	-0.274
-566.602	114.798	0.191	-0.234
-565.588	800.000	-0.046	0.187
-564.573	800.000	0.103	0.332
-563.558	-90.214	-0.088	-0.026
-562.544	-56.609	-0.400	0.178
-561.529	-7.940	0.180	-0.121
-560.515	282.764	0.195	-0.350
-559.500	12.300	0.094	-0.073
-558.485	21.409	0.203	-0.165
-557.471	12.809	-0.151	0.117
-556.456	-96.325	-0.070	-0.018
-555.442	112.806	-0.111	-0.135
-554.427	419.709	0.097	-0.207
-553.412	-200.000	0.041	-0.217
-552.398	-178.763	-0.119	-0.003
-551.383	71.589	0.129	0.134
-550.369	238.908	0.120	0.201
-549.354	80.934	-0.083	-0.090
-548.339	-65.071	0.200	0.081
-547.325	90.631	0.181	-0.203
-546.310	-72.805	-0.458	-0.169
-545.296	22.966	-0.252	-0.207
-544.281	-200.000	-0.017	-0.201
-543.266	-53.028	0.277	0.128
-542.252	-85.617	0.047	-0.015
-541.237	-200.000	-0.014	0.098
-540.223	274.201	-0.027	-0.049
-539.208	-128.417	-0.253	0.036
-538.193	-200.000	0.029	0.407
-537.179	-61.158	-0.203	-0.086
-536.164	495.311	0.081	-0.186
-535.150	-126.967	0.324	0.048
-534.135	-78.885	-0.348	0.118
-533.121	800.000	-0.081	-0.234
-532.106	800.000	0.058	0.194
-531.091	-53.736	-0.060	-0.028
-530.077	163.665	-0.141	-0.198
-529.062	-155.995	0.206	-0.013
-528.048	-200.000	0.022	0.198
-527.033	587.771	0.037	0.092
-526.018	800.000	0.079	-0.222
-525.004	237.754	-0.048	-0.080
-523.989	-54.794	0.243	0.110
-522.975	-200.000	0.010	0.136
-521.960	-106.239	0.113	0.025
-520.945	-71.124	0.080	-0.030
-519.931	-94.398	-0.177	-0.048
-518.916	-113.585	0.182	0.036
-517.902	-34.550	0.044	-0.024
-516.887	-200.000	-0.187	0.000
-515.872	241.510	0.175	0.292
-514.858	-100.984	0.151	0.037
-513.843	-77.415	-0.175	0.061
-512.829	-200.000	0.028	-0.326
-511.814	42.070	0.240	-0.218
-510.799	714.521	-0.087	0.232
-509.785	-109.941	0.226	0.047
-508.770	13.510	-0.258	0.200
-507.756	-130.467	0.420	0.057
-506.741	-82.416	-0.135	-0.044
-505.726	49.390	-0.148	-0.140
-504.712	60.214	0.196	0.193
-503.697	-200.000	0.005	-0.084
-502.683	-136.991	-0.231	-0.026
-501.668	-38.506	0.194	-0.103
-500.653	-117.231	-0.128	0.023
-499.639	-116.216	0.285	-0.053
-498.624	-200.000	0.078	-0.589
-497.610	51.571	0.011	0.010
-496.595	-200.000	0.017	0.370
-495.581	253.873	0.060	-0.103
-494.566	237.833	0.194	0.321
-493.551	-99.583	-0.109	0.027
-492.537	-25.051	-0.178	-0.106
-491.522	-9.038	-0.104	0.069
-490.508	-148.487	-0.122	0.010
-489.493	-51.202	-0.145	0.068
-488.478	-17.958	0.098	0.061
-487.464	-64.352	0.151	-0.062
-486.449	-77.002	-0.314	-0.110
-485.435	800.000	0.015	-0.061
-484.420	25.299	-0.170	-0.141
-483.405	-123.680	0.247	0.039
-482.391	196.263	0.052	-0.079
-481.376	273.796	0.082	0.145
-480.362	732.253	0.250	0.669
-479.347	800.000	-0.069	0.243
-478.332	-24.643	-0.211	0.125
-477.318	44.227	-0.153	-0.140
-476.303	800.000	-0.071	-0.301
-475.289	117.248	0.181	0.222
-474.274	-121.953	-0.306	0.050
-473.259	-10.139	0.090	-0.060
-472.245	-84.829	-0.190	-0.060
-471.230	203.345	0.145	0.223
-470.216	-200.000	0.055	-0.509
-469.201	80.361	0.069	0.074
-468.186	436.586	-0.090	0.196
-467.172	324.712	0.081	0.155
-466.157	46.458	0.295	-0.273
-465.143	-141.894	-0.248	0.025
-464.128	-200.000	0.229	0.000
-463.113	-200.000	-0.092	0.488
-462.099	-118.119	0.105	0.019
-461.084	23.310	-0.107	0.088
-460.070	-15.907	-0.152	0.097
-459.055	-24.828	-0.143	0.085
-458.040	-105.289	-0.241	-0.055
-457.026	692.187	-0.097	0.255
-456.011	681.078	-0.104	-0.269
-454.997	-200.000	-0.002	0.457
-453.982	-94.432	0.128	-0.035
-452.968	-126.138	-0.260	-0.039
-451.953	-200.000	0.001	0.024
-450.938	-138.060	0.323	-0.036
-449.924	-200.000	-0.036	-0.232
-448.909	800.000	-0.064	-0.276
-447.895	-120.479	0.065	-0.011
-446.880	-125.426	0.103	-0.016
-445.865	743.346	0.009	-0.024
-444.851	-81.655	-0.224	0.073
-443.836	65.572	-0.231	0.234
-442.822	5.083	-0.116	-0.085
-441.807	109.552	-0.034	-0.041
-440.792	-200.000	-0.026	-0.150
-439.778	-200.000	0.064	-0.302
-438.763	800.000	0.028	0.085
-437.749	418.276	0.062	-0.132
-436.734	0.597	-0.101	0.072
-435.719	31.202	-0.121	-0.104
-434.705	-36.362	-0.195	0.105
-433.690	-87.182	0.351	0.106
-432.676	-97.475	-0.105	0.027
-431.661	-182.530	-0.300	-0.005
-430.646	113.515	-0.197	-0.238
-429.632	-200.000	-0.010	0.080
-428.617	86.814	-0.117	0.129
-427.603	-129.166	-0.204	-0.028
-426.588	-97.076	-0.202	-0.053
-425.573	289.989	0.083	-0.151
-424.559	-200.000	0.012	0.307
-423.544	-166.401	0.131	-0.005
-422.530	67.595	0.154	0.157
-421.515	9.705	-0.129	-0.098
-420.500	-165.710	0.187	-0.008
-419.486	99.807	-0.207	-0.239
-418.471	-114.717	-0.297	0.057
-417.457	38.588	0.096	0.085
-416.442	474.262	-0.138	0.309
-415.428	800.000	0.091	-0.307
-414.413	800.000	-0.062	-0.231
-413.398	-109.460	-0.434	-0.091
-412.384	-52.553	0.117	-0.054
-411.369	-32.093	0.138	0.077
-410.355	533.178	0.084	-0.197
-409.340	-200.000	-0.014	0.155
-408.325	-42.330	-0.129	0.066
-407.311	22.605	0.212	0.173
-406.296	-87.466	-0.133	-0.040
-405.282	-110.679	0.178	0.037
-404.267	246.713	-0.061	-0.103
-403.252	-50.110	0.527	0.249
-402.238	-200.000	0.035	0.212
-401.223	186.376	-0.225	0.333
-400.209	-117.723	-0.608	-0.109
-399.194	87.677	-0.170	0.187
-398.179	-5.174	-0.312	-0.214
-397.165	469.540	-0.151	0.338
-396.150	120.651	-0.174	-0.215
-395.136	800.000	0.061	0.182
-394.121	-200.000	-0.020	-0.347
-393.106	-200.000	0.007	0.131
-392.092	-4.498	-0.107	0.074
-391.077	-92.245	-0.079	-0.022
-390.063	160.991	0.044	0.062
-389.048	-66.995	0.332	0.131
-388.033	20.793	-0.215	-0.173
-387.019	-59.609	0.213	-0.091
-386.004	11.724	-0.168	0.128
-384.990	800.000	0.034	0.128
-383.975	-83.458	0.443	-0.141
-382.960	-200.000	0.024	0.135
-381.946	-59.819	0.161	0.069
-380.931	83.697	-0.082	0.089
-379.917	-54.146	0.196	0.088
-378.902	-48.260	0.507	0.243
-377.888	-142.537	0.246	-0.024
-376.873	1.037	-0.104	-0.074
-375.858	6.767	0.097	-0.072
-374.844	774.884	0.085	0.230
-373.829	-81.435	-0.344	0.113
-372.815	104.769	-0.170	-0.199
-371.800	179.645	-0.095	0.139
-370.785	-105.040	0.124	0.028
-369.771	-200.000	-0.008	-0.299
-368.756	98.385	-0.155	-0.177
-367.742	-72.021	0.355	-0.131
-366.727	-64.716	-0.140	0.057
-365.712	196.648	0.117	0.178
-364.698	-200.000	0.026	-0.180
-363.683	504.058	0.135	-0.310
-362.669	800.000	-0.092	-0.331
-361.654	300.136	0.093	0.171
-360.639	90.629	0.104	0.115
-359.625	-200.000	0.032	0.368
-358.610	-200.000	-0.041	-0.232
-357.596	-200.000	0.031	-0.272
-356.581	339.851	0.046	0.089
-355.566	87.472	0.051	-0.056
-354.552	800.000	0.013	-0.056
-353.537	800.000	-0.143	-0.473
-352.523	-86.535	0.213	-0.065
-351.508	-56.368	0.398	-0.176
-350.493	65.948	0.015	-0.015
-349.479	-200.000	0.060	-0.275
-348.464	45.320	-0.025	-0.023
-347.450	440.410	0.103	0.224
-346.435	2.987	0.315	0.227
-345.420	-16.948	0.119	0.075
-344.406	447.712	0.137	-0.299
-343.391	790.784	-0.064	-0.174
-342.377	800.000	-0.045	-0.124
-341.362	-97.988	-0.183	0.047
-340.348	18.697	-0.109	0.087
-339.333	37.214	-0.140	0.123
-338.318	-200.000	-0.285	0.000
-337.304	80.677	-0.064	-0.069
-336.289	49.018	-0.115	-0.107
-335.275	-200.000	-0.036	-0.177
-334.260	126.594	-0.130	0.163
-333.245	-200.000	0.033	-0.151
-332.231	70.377	-0.160	0.164
-331.216	-200.000	0.026	0.366
-330.202	-66.772	-0.077	-0.030
-329.187	-39.777	-0.219	0.113
-328.172	-66.990	0.149	-0.059
-327.158	401.270	-0.090	-0.187
-326.143	70.087	-0.289	-0.296
-325.129	-37.618	-0.179	-0.095
-324.114	-66.278	-0.321	0.127
-323.099	-91.516	0.324	-0.092
-322.085	-108.597	-0.080	-0.017
-321.070	-103.903	0.236	-0.055
-320.056	-38.284	-0.232	0.122
-319.041	335.292	0.098	-0.188
-318.026	-200.000	0.011	0.220
-317.012	800.000	-0.045	-0.161
-315.997	-66.388	-0.178	0.070
-314.983	199.238	-0.112	-0.171
-313.968	800.000	0.068	-0.290
-312.953	102.646	-0.124	-0.144
-311.939	116.434	0.036	0.044
-310.924	-86.536	-0.193	0.059
-309.910	673.708	0.170	0.437
-308.895	214.921	0.167	0.263
-307.880	-200.000	-0.015	0.245
-306.866	800.000	0.123	0.444
-305.851	-88.388	-0.220	-0.065
-304.837	296.438	-0.076	-0.139
-303.822	129.828	0.191	-0.242
-302.807	-124.020	0.224	0.035
-301.793	-72.228	0.446	-0.164
-300.778	26.075	0.147	0.122
-299.764	-104.101	0.376	0.087
-298.749	282.316	0.156	0.277
-297.735	-200.000	-0.017	0.093
-296.720	-157.769	-0.291	-0.017
-295.705	-23.385	0.035	-0.021
-294.691	159.987	0.116	-0.160
-293.676	-200.000	-0.011	-0.113
-292.662	-144.658	-0.057	-0.005
-291.647	121.039	0.081	-0.100
-290.632	-73.749	0.364	0.131
-289.618	135.559	-0.218	0.281
-288.603	-200.000	-0.024	0.192
-287.589	-61.627	0.096	0.040
-286.574	97.330	0.022	0.025
-285.559	-62.907	0.153	-0.063
-284.545	-95.131	0.282	-0.075
-283.530	253.765	0.095	-0.161
-282.516	-200.000	0.007	0.241
-281.501	-200.000	0.075	-0.420
-280.486	-200.000	0.028	0.326
-279.472	800.000	-0.055	-0.186
-278.457	214.644	-0.158	-0.248
-277.443	-200.000	-0.076	-0.419
-276.428	-49.193	-0.129	-0.061
-275.413	-103.753	0.040	-0.009
-274.399	-89.890	-0.061	-0.018
-273.384	151.813	-0.116	0.156
-272.370	-129.978	-0.249	0.034
-271.355	-108.152	0.224	0.048
-270.340	-54.337	0.287	0.129
-269.326	800.000	-0.100	0.330
-268.311	-56.461	-0.216	-0.095
-267.297	-26.521	-0.133	-0.077
-266.282	31.044	0.109	-0.093
-265.267	-10.513	0.234	-0.153
-264.253	-78.618	0.093	0.032
-263.238	305.996	0.059	0.109
-262.224	711.992	0.073	-0.191
-261.209	-81.417	0.325	-0.106
-260.195	-13.243	0.205	-0.132
-259.180	294.261	-0.049	-0.089
-258.165	-88.516	-0.219	-0.065
-257.151	-200.000	0.010	-0.284
-256.136	44.699	-0.408	0.372
-255.122	273.210	-0.070	-0.122
-254.107	-144.242	-0.398	0.037
-253.092	34.813	-0.112	-0.097
-252.078	-200.000	-0.011	-0.149
-251.063	100.996	-0.098	-0.113
-250.049	800.000	-0.050	0.171
-249.034	1.355	0.319	-0.227
-248.019	-81.685	0.406	0.132
-247.005	181.777	0.253	0.368
-245.990	-200.000	-0.049	0.258
-244.976	-200.000	-0.017	-0.116
-243.961	-7.332	-0.113	0.076
-242.946	-200.000	0.021	0.201
-241.932	-18.385	0.034	-0.021
-240.917	173.472	0.074	-0.106
-239.903	227.366	-0.215	-0.346
-238.888	-152.987	0.225	-0.016
-237.873	24.481	-0.169	-0.138
-236.859	-33.437	0.223	-0.122
-235.844	694.460	-0.055	0.143
-234.830	-40.585	0.060	-0.031
-233.815	71.200	0.227	0.233
-232.800	-46.270	-0.077	-0.038
-231.786	-60.146	-0.174	0.073
-230.771	187.275	-0.098	-0.144
-229.757	800.000	0.069	0.228
-228.742	-12.477	0.101	0.066
-227.727	-200.000	-0.007	0.282
-226.713	314.748	-0.207	0.385
-225.698	-200.000	0.020	0.118
-224.684	-52.521	0.059	0.027
-223.669	800.000	0.066	-0.188
-222.655	-112.201	0.209	-0.042
-221.640	-84.129	0.140	0.044
-220.625	-38.057	-0.143	-0.075
-219.611	-200.000	0.044	-0.379
-218.596	-151.604	-0.305	-0.022
-217.582	290.549	-0.098	-0.175
-216.567	-146.272	0.258	-0.022
-215.552	161.055	0.096	-0.133
-214.538	-44.218	0.333	-0.165
-213.523	240.730	-0.085	0.141
-212.509	-163.999	-0.035	-0.002
-211.494	-13.200	-0.205	-0.132
-210.479	-69.579	-0.292	0.111
-209.465	-200.000	0.052	0.371
-208.450	800.000	0.088	0.275
-207.436	-68.883	0.077	0.029
-206.421	-37.204	-0.396	-0.209
-205.406	575.031	0.007	-0.017
-204.392	213.038	0.069	-0.107
-203.377	800.000	-0.049	0.193
-202.363	91.435	-0.063	0.069
-201.348	-69.030	0.278	-0.106
-200.333	-135.426	0.027	0.003
-199.319	-200.000	-0.052	0.308
-198.304	96.463	0.100	0.113
-197.290	-45.487	0.270	-0.132
-196.275	-147.045	0.279	0.024
-195.260	160.976	-0.147	0.203
-194.246	-37.371	0.049	0.026
-193.231	606.469	-0.027	-0.067
-192.217	-68.740	-0.128	-0.049
-191.202	332.403	-0.164	-0.313
-190.187	-146.039	-0.236	-0.021
-189.173	-49.183	0.233	0.110
-188.158	-103.278	0.350	-0.082
-187.144	-200.000	0.010	-0.145
-186.129	-50.607	0.264	-0.123
-185.114	-29.121	0.323	0.183
-184.100	800.000	0.042	-0.158
-183.085	25.809	0.177	-0.146
-182.071	800.000	-0.077	0.259
-181.056	-139.449	0.074	0.008
-180.042	-11.189	-0.151	-0.098
-179.027	59.579	-0.131	-0.127
-178.012	800.000	-0.071	0.278
-176.998	56.381	-0.102	0.098
-175.983	-135.419	0.192	0.023
-174.969	24.618	0.151	0.123
-173.954	-156.298	-0.300	-0.019
-172.939	-87.547	0.099	0.030
-171.925	-113.621	0.362	0.070
-170.910	17.886	-0.161	0.127
-169.896	-12.544	-0.315	0.203
-168.881	18.725	-0.084	-0.067
-167.866	-76.033	-0.102	-0.036
-166.852	-155.222	-0.008	-0.000
-165.837	447.934	0.104	0.225
-164.823	800.000	-0.068	-0.229
-163.808	-13.576	-0.216	-0.138
-162.793	-91.005	-0.188	0.053
-161.779	558.120	-0.009	-0.022
-160.764	800.000	0.089	0.294
-159.750	96.544	-0.269	0.303
-158.735	-161.230	-0.091	-0.005
-157.720	261.819	-0.047	-0.080
-156.706	97.760	0.156	0.177
-155.691	-70.588	-0.207	0.077
-154.677	800.000	0.012	0.044
-153.662	-95.630	0.323	-0.085
-152.647	-200.000	0.067	0.363
-151.633	36.593	0.153	-0.133
-150.618	-165.468	0.215	-0.009
-149.604	385.701	0.130	-0.263
-148.589	184.227	-0.121	0.177
-147.574	-168.703	0.315	0.012
-146.560	-43.845	-0.142	0.070
-145.545	173.159	-0.000	0.001
-144.531	-157.158	0.400	-0.024
-143.516	800.000	0.091	0.311
-142.502	-121.225	-0.643	0.106
-141.487	-200.000	0.003	-0.236
-140.472	281.826	-0.060	-0.107
-139.458	432.049	-0.065	0.138
-138.443	-26.862	-0.301	0.174
-137.429	-91.741	0.226	-0.063
-136.414	353.659	0.043	0.085
-135.399	319.343	0.143	0.268
-134.385	-123.469	0.146	0.023
-133.370	89.396	0.232	-0.255
-132.356	-200.000	0.004	0.125
-131.341	-80.548	0.301	0.099
-130.326	-200.000	-0.007	-0.108
-129.312	118.913	0.203	-0.247
-128.297	-200.000	0.021	-0.379
-127.283	-200.000	0.066	-0.286
-126.268	-85.386	-0.075	-0.023
-125.253	-145.853	0.246	0.022
-124.239	800.000	0.043	0.184
-123.224	-126.887	0.173	-0.025
-122.210	-5.342	-0.017	0.012
-121.195	800.000	0.131	-0.413
