DTS Sentinel unit serial number:	SN413079Multiplexer serial number:	ORYXHardware model number:	OX4-SRSoftware version number:	ORYX F/W v4.00 Oryx Data Collector v3.7.2.0data status	okinstallation	princeton_trtdifferential loss correction	single-endedforward channel	channel 1reverse channel	N/Adate	2019/09/19time	08:14:35forward acquisition time	60.00reverse acquisition time	0.00gamma	496.2192k internal	0.2342k external	0.2342temperature offset calibration	1.0003default loss term (dB/km)	0.3790temperature slope calibration	1.0000multiplexer offset coefficient	1.0000multiplexer slope coefficient	1.0000fibre end	0.00T internal ref (°C)	20.20T ext. ref 1 (°C)	0.56T ext. ref 2 (°C)	15.83length (m)	temperature (°C)	Stokes	anti-Stokes-747.200	800.000	-0.025	-0.088
-746.185	-200.000	0.001	0.072
-745.171	-126.677	0.092	-0.014
-744.156	325.739	-0.224	0.429
-743.142	58.316	-0.060	0.059
-742.127	-105.545	0.144	-0.033
-741.112	-56.146	0.293	0.131
-740.098	-86.474	-0.097	-0.030
-739.083	-13.844	0.399	-0.258
-738.069	-200.000	-0.050	0.432
-737.054	211.072	0.135	-0.212
-736.039	241.476	-0.157	-0.262
-735.025	-136.059	0.082	0.010
-734.010	-196.667	-0.115	0.001
-732.996	-107.077	-0.109	0.024
-731.981	-26.945	0.178	0.104
-730.966	-200.000	0.006	0.299
-729.952	-55.707	0.193	-0.087
-728.937	-100.090	-0.157	-0.039
-727.923	54.782	0.008	-0.008
-726.908	656.758	0.056	-0.145
-725.894	0.317	-0.129	0.092
-724.879	-123.854	0.057	0.009
-723.864	-200.000	0.001	-0.205
-722.850	-200.000	-0.001	-0.169
-721.835	90.005	0.339	0.380
-720.821	51.962	-0.181	-0.173
-719.806	152.426	0.009	0.012
-718.791	73.552	0.227	0.238
-717.777	-100.589	-0.106	-0.026
-716.762	104.494	-0.208	-0.245
-715.748	346.710	0.021	-0.042
-714.733	-200.000	-0.012	-0.198
-713.718	-89.076	-0.301	-0.089
-712.704	132.560	-0.166	-0.214
-711.689	-200.000	-0.040	-0.229
-710.675	-47.058	0.113	-0.055
-709.660	-200.000	0.090	0.448
-708.645	398.496	0.099	0.208
-707.631	127.972	-0.069	-0.087
-706.616	-75.606	-0.234	-0.083
-705.602	-80.566	0.442	0.147
-704.587	356.141	-0.065	-0.129
-703.572	146.095	-0.090	-0.120
-702.558	577.912	0.108	0.264
-701.543	800.000	0.095	0.308
-700.529	26.298	0.187	-0.156
-699.514	-32.254	-0.291	0.162
-698.499	-200.000	0.045	-0.400
-697.485	-134.725	0.387	-0.047
-696.470	-95.902	-0.367	0.098
-695.456	120.943	-0.131	-0.163
-694.441	-200.000	-0.037	-0.245
-693.426	-6.240	-0.121	-0.083
-692.412	-137.527	-0.073	0.008
-691.397	262.622	0.096	-0.167
-690.383	5.090	0.069	-0.050
-689.368	-101.201	-0.299	-0.073
-688.354	-105.111	0.331	-0.076
-687.339	-84.790	-0.077	-0.024
-686.324	208.565	-0.033	0.052
-685.310	-112.053	-0.119	-0.024
-684.295	23.913	0.213	-0.175
-683.281	-31.159	-0.164	-0.093
-682.266	416.973	-0.071	0.151
-681.251	85.663	-0.171	0.187
-680.237	310.808	-0.225	-0.422
-679.222	-124.003	-0.277	0.044
-678.208	-89.561	0.169	-0.049
-677.193	-9.074	0.183	0.122
-676.178	-120.791	-0.172	-0.029
-675.164	70.419	-0.436	0.450
-674.149	-167.462	-0.227	0.009
-673.135	13.528	-0.227	0.176
-672.120	-46.550	-0.081	0.040
-671.105	-58.631	-0.323	0.140
-670.091	-50.505	-0.085	0.040
-669.076	-118.873	-0.505	0.089
-668.062	-15.922	-0.277	0.176
-667.047	75.608	-0.146	0.154
-666.032	-136.448	-0.077	-0.009
-665.018	-200.000	0.023	0.174
-664.003	201.616	0.130	-0.200
-662.989	383.647	0.023	-0.047
-661.974	-45.638	0.261	-0.129
-660.959	28.877	0.177	-0.150
-659.945	297.995	0.091	-0.168
-658.930	-200.000	0.009	-0.114
-657.916	529.511	0.071	-0.167
-656.901	-54.262	-0.100	-0.045
-655.886	-11.401	0.306	-0.201
-654.872	143.205	-0.230	0.305
-653.857	-150.380	0.284	0.022
-652.843	-200.000	-0.037	-0.177
-651.828	-104.492	0.164	0.038
-650.814	800.000	0.054	0.185
-649.799	-200.000	-0.035	-0.230
-648.784	800.000	-0.040	0.155
-647.770	-136.857	-0.159	0.018
-646.755	-145.164	-0.287	0.026
-645.741	-200.000	0.027	0.160
-644.726	65.759	0.122	-0.124
-643.711	-200.000	-0.065	0.303
-642.697	-107.642	0.174	-0.038
-641.682	-116.286	-0.270	-0.050
-640.668	-41.709	0.188	-0.096
-639.653	-135.250	-0.600	0.072
-638.638	98.534	0.154	-0.178
-637.624	800.000	-0.073	0.227
-636.609	-200.000	-0.051	-0.603
-635.595	-57.015	-0.175	0.077
-634.580	-85.866	0.152	-0.047
-633.565	-71.144	-0.149	-0.056
-632.551	-200.000	0.036	0.286
-631.536	-200.000	0.067	-0.336
-630.522	115.079	-0.017	0.021
-629.507	244.326	0.082	0.137
-628.492	223.289	-0.086	-0.139
-627.478	-200.000	-0.045	0.286
-626.463	-200.000	0.007	0.259
-625.449	-31.903	-0.077	-0.043
-624.434	-12.182	0.153	0.100
-623.419	-90.113	-0.232	-0.067
-622.405	141.672	-0.027	0.035
-621.390	-72.723	0.146	-0.053
-620.376	-125.725	0.365	-0.055
-619.361	-117.943	-0.209	-0.037
-618.346	-200.000	-0.015	-0.297
-617.332	206.076	-0.165	0.255
-616.317	14.617	-0.042	0.033
-615.303	-22.711	-0.222	-0.134
-614.288	-118.548	0.160	0.028
-613.273	-200.000	-0.031	-0.380
-612.259	162.166	0.048	-0.068
-611.244	127.700	-0.021	0.027
-610.230	10.886	0.086	-0.065
-609.215	-200.000	-0.019	-0.214
-608.201	-97.140	-0.104	0.027
-607.186	-73.803	0.174	0.063
-606.171	-59.983	-0.067	-0.028
-605.157	-82.605	-0.146	0.047
-604.142	230.643	-0.068	0.111
-603.128	44.145	0.096	0.087
-602.113	226.331	0.119	-0.192
-601.098	54.334	-0.208	-0.200
-600.084	-63.065	-0.187	0.077
-599.069	-200.000	-0.074	-0.439
-598.055	110.326	0.078	0.094
-597.040	149.938	0.070	0.094
-596.025	149.450	0.174	0.234
-595.011	-184.224	-0.100	0.002
-593.996	26.464	-0.223	-0.186
-592.982	28.134	0.224	-0.188
-591.967	67.295	0.146	0.149
-590.952	-55.961	-0.325	-0.144
-589.938	-200.000	0.006	0.185
-588.923	-135.611	-0.087	0.010
-587.909	-77.730	-0.177	-0.061
-586.894	-45.473	-0.224	0.111
-585.879	-34.322	0.162	0.088
-584.865	800.000	0.112	-0.344
-583.850	-132.338	0.192	-0.025
-582.836	296.501	-0.166	-0.303
-581.821	-22.555	-0.204	-0.123
-580.806	-13.568	0.293	-0.189
-579.792	-16.724	-0.227	-0.143
-578.777	-11.904	-0.261	0.171
-577.763	-63.608	-0.242	-0.099
-576.748	-13.116	0.314	-0.203
-575.733	121.500	-0.200	-0.247
-574.719	-200.000	0.025	0.208
-573.704	-2.115	-0.100	-0.070
-572.690	-100.189	0.323	-0.080
-571.675	222.106	-0.108	-0.173
-570.661	-128.428	0.115	0.016
-569.646	-69.334	0.259	-0.099
-568.631	-200.000	-0.085	-0.399
-567.617	800.000	0.053	-0.185
-566.602	-33.002	-0.245	-0.135
-565.588	-200.000	-0.010	0.105
-564.573	265.469	0.167	-0.289
-563.558	531.377	-0.059	-0.138
-562.544	173.138	0.222	0.319
-561.529	800.000	0.014	0.052
-560.515	-200.000	-0.023	-0.173
-559.500	-138.575	-0.163	-0.018
-558.485	92.837	0.255	0.287
-557.471	516.309	-0.094	-0.219
-556.456	-31.066	-0.124	-0.069
-555.442	-74.771	0.470	0.168
-554.427	147.815	0.188	-0.252
-553.412	40.894	-0.104	0.094
-552.398	-73.786	-0.392	0.142
-551.383	548.451	-0.092	0.219
-550.369	800.000	0.002	-0.007
-549.354	-98.463	0.197	0.050
-548.339	454.394	0.099	-0.219
-547.325	-53.511	0.181	-0.082
-546.310	-87.260	0.039	-0.012
-545.296	77.435	-0.053	-0.056
-544.281	-134.086	-0.231	-0.028
-543.266	-200.000	-0.006	0.171
-542.252	115.304	-0.161	-0.195
-541.237	144.917	0.165	0.219
-540.223	-177.673	-0.062	0.001
-539.208	407.150	0.130	0.272
-538.193	316.080	-0.071	0.133
-537.179	0.447	0.242	0.172
-536.164	-200.000	-0.004	-0.203
-535.150	-156.294	0.221	-0.014
-534.135	213.562	0.113	-0.178
-533.121	627.505	-0.038	0.096
-532.106	-127.016	0.220	-0.032
-531.091	800.000	-0.082	-0.247
-530.077	-149.222	-0.294	-0.023
-529.062	-95.392	0.276	-0.074
-528.048	270.700	0.109	0.190
-527.033	-200.000	-0.060	-0.313
-526.018	800.000	-0.107	0.337
-525.004	21.893	0.100	0.081
-523.989	-3.337	0.115	-0.080
-522.975	-101.235	-0.381	-0.093
-521.960	-118.429	0.338	0.060
-520.945	314.043	0.067	-0.126
-519.931	-10.681	0.349	-0.229
-518.916	-95.957	0.339	0.090
-517.902	17.418	0.033	0.026
-516.887	453.497	0.031	0.067
-515.872	-76.856	0.477	-0.166
-514.858	101.177	0.070	0.081
-513.843	-60.318	-0.355	-0.150
-512.829	-133.957	0.071	0.009
-511.814	-55.497	-0.266	0.118
-510.799	-163.250	-0.200	0.010
-509.785	25.911	0.250	-0.207
-508.770	-40.802	-0.018	-0.009
-507.756	-105.608	-0.317	0.071
-506.741	-99.047	0.024	0.006
-505.726	-19.588	-0.244	-0.150
-504.712	800.000	-0.040	-0.117
-503.697	-53.539	0.303	-0.138
-502.683	-58.278	-0.349	-0.151
-501.668	800.000	-0.073	0.303
-500.653	-73.486	0.297	-0.108
-499.639	175.589	-0.130	-0.186
-498.624	-62.385	0.087	0.036
-497.610	800.000	0.115	-0.477
-496.595	-200.000	-0.006	0.051
-495.581	-38.263	-0.248	-0.130
-494.566	94.952	-0.057	0.065
-493.551	-65.725	-0.212	0.084
-492.537	21.206	0.136	-0.110
-491.522	154.032	0.159	0.216
-490.508	-84.533	-0.150	-0.047
-489.493	-200.000	0.076	0.354
-488.478	516.463	0.013	0.031
-487.464	49.833	-0.156	0.145
-486.449	-3.830	-0.075	0.052
-485.435	-167.135	-0.229	0.009
-484.420	81.690	0.027	0.029
-483.405	-200.000	-0.023	-0.214
-482.391	-200.000	0.005	-0.176
-481.376	-200.000	-0.030	0.167
-480.362	800.000	0.059	0.244
-479.347	-51.965	-0.482	0.222
-478.332	208.562	-0.086	-0.134
-477.318	87.508	-0.079	0.087
-476.303	-19.551	0.060	0.037
-475.289	-200.000	-0.056	0.370
-474.274	35.017	-0.278	0.241
-473.259	800.000	0.086	-0.258
-472.245	663.228	-0.018	0.046
-471.230	-113.473	0.199	-0.039
-470.216	-32.351	-0.265	0.146
-469.201	-69.446	-0.095	-0.036
-468.186	800.000	-0.058	-0.192
-467.172	-200.000	-0.053	0.237
-466.157	606.744	0.072	0.179
-465.143	-29.174	0.337	-0.191
-464.128	37.632	-0.282	0.248
-463.113	-200.000	-0.015	-0.200
-462.099	800.000	0.044	-0.187
-461.084	110.819	0.087	-0.103
-460.070	338.761	0.023	0.045
-459.055	-200.000	0.008	0.125
-458.040	-128.530	-0.088	0.012
-457.026	24.616	-0.134	0.110
-456.011	-32.174	-0.435	0.241
-454.997	-60.382	-0.152	0.064
-453.982	25.253	-0.053	0.044
-452.968	-200.000	0.031	0.217
-451.953	-180.400	-0.230	-0.005
-450.938	733.360	0.083	-0.219
-449.924	-200.000	-0.026	0.131
-448.909	-4.369	-0.256	0.175
-447.895	-78.705	-0.148	-0.050
-446.880	-200.000	-0.006	-0.123
-445.865	-200.000	0.025	-0.382
-444.851	-28.417	0.158	0.090
-443.836	-87.224	-0.129	-0.039
-442.822	29.849	-0.100	0.084
-441.807	-200.000	0.012	0.077
-440.792	64.662	0.077	-0.077
-439.778	-5.916	0.192	-0.130
-438.763	-200.000	0.040	0.205
-437.749	131.900	0.041	0.052
-436.734	353.831	-0.114	-0.224
-435.719	-123.345	-0.311	-0.049
-434.705	65.269	0.231	-0.231
-433.690	200.881	0.039	-0.059
-432.676	-4.220	-0.295	0.202
-431.661	9.238	-0.119	0.089
-430.646	108.438	-0.251	-0.297
-429.632	-76.197	-0.143	0.050
-428.617	-138.105	-0.091	0.010
-427.603	1.063	-0.152	0.108
-426.588	-134.277	-0.345	-0.042
-425.573	34.935	0.308	-0.266
-424.559	-79.075	0.140	-0.047
-423.544	-61.680	-0.264	-0.109
-422.530	-200.000	-0.038	0.202
-421.515	-135.234	0.111	-0.013
-420.500	-200.000	0.012	0.163
-419.486	17.650	0.197	-0.155
-418.471	-200.000	-0.034	-0.244
-417.457	491.695	0.036	-0.081
-416.442	41.831	0.119	-0.107
-415.428	-143.168	0.144	0.014
-414.413	-200.000	0.068	0.429
-413.398	-200.000	0.044	-0.211
-412.384	-76.639	0.270	0.094
-411.369	73.454	-0.279	0.289
-410.355	-10.238	0.237	0.156
-409.340	800.000	-0.073	0.216
-408.325	-27.686	0.076	-0.043
-407.311	-189.040	-0.261	-0.003
-406.296	-200.000	-0.000	0.217
-405.282	297.549	0.077	-0.140
-404.267	-51.829	0.177	-0.081
-403.252	800.000	-0.063	0.272
-402.238	-75.831	-0.146	0.051
-401.223	-200.000	0.051	-0.261
-400.209	61.949	-0.132	-0.130
-399.194	29.657	-0.158	0.133
-398.179	800.000	0.038	0.118
-397.165	261.496	-0.093	0.160
-396.150	-200.000	0.013	0.235
-395.136	800.000	-0.092	-0.291
-394.121	20.001	-0.148	-0.118
-393.106	137.442	0.185	0.239
-392.092	-200.000	-0.031	0.210
-391.077	-200.000	0.037	0.173
-390.063	-9.919	-0.077	-0.050
-389.048	446.483	-0.067	0.145
-388.033	-77.756	-0.306	-0.104
-387.019	98.322	0.098	0.112
-386.004	-200.000	0.017	-0.183
-384.990	122.401	-0.224	0.276
-383.975	140.094	-0.218	-0.284
-382.960	370.548	-0.168	-0.336
-381.946	-110.507	0.287	0.059
-380.931	-102.096	-0.285	-0.068
-379.917	34.747	0.067	0.058
-378.902	-89.374	-0.314	0.091
-377.888	-31.368	0.254	0.141
-376.873	-149.656	-0.135	-0.011
-375.858	186.843	0.090	0.132
-374.844	-146.642	-0.063	0.005
-373.829	800.000	0.097	0.312
-372.815	-94.884	0.213	-0.057
-371.800	244.348	0.177	0.293
-370.785	2.881	-0.175	0.126
-369.771	-9.843	0.275	-0.181
-368.756	258.044	-0.051	0.087
-367.742	234.457	0.162	0.264
-366.727	132.458	0.243	0.310
-365.712	124.906	0.150	0.187
-364.698	220.759	-0.179	0.284
-363.683	-200.000	0.014	-0.079
-362.669	-200.000	0.102	-0.456
-361.654	644.704	0.118	-0.298
-360.639	-67.131	-0.242	-0.094
-359.625	103.556	0.124	0.144
-358.610	144.030	-0.148	-0.195
-357.596	-200.000	0.020	0.094
-356.581	314.220	0.128	-0.237
-355.566	-61.882	-0.060	0.025
-354.552	13.400	0.285	0.218
-353.537	-115.270	0.448	-0.084
-352.523	205.724	-0.036	0.055
-351.508	-185.784	-0.261	-0.004
-350.493	800.000	0.050	-0.203
-349.479	800.000	-0.051	0.192
-348.464	-200.000	-0.072	-0.326
-347.450	-200.000	-0.011	-0.129
-346.435	-200.000	-0.016	-0.176
-345.420	755.833	0.106	-0.283
-344.406	-200.000	-0.007	0.210
-343.391	332.695	-0.054	-0.103
-342.377	339.799	0.187	0.360
-341.362	800.000	-0.049	0.137
-340.348	-98.067	-0.261	0.066
-339.333	253.922	0.121	-0.203
-338.318	678.329	-0.078	0.200
-337.304	-124.176	-0.294	-0.045
-336.289	-200.000	0.001	-0.284
-335.275	260.971	0.124	-0.211
-334.260	-200.000	0.030	-0.477
-333.245	-200.000	-0.030	-0.380
-332.231	217.009	-0.109	-0.171
-331.216	117.048	0.298	0.360
-330.202	-49.980	-0.152	-0.071
-329.187	-13.518	0.179	0.114
-328.172	-6.640	0.187	-0.126
-327.158	184.599	-0.171	-0.250
-326.143	215.666	-0.080	-0.125
-325.129	-200.000	-0.017	0.210
-324.114	308.642	-0.183	-0.336
-323.099	423.744	0.080	-0.169
-322.085	-105.674	-0.114	0.025
-321.070	273.387	-0.159	0.277
-320.056	177.357	-0.155	0.222
-319.041	308.907	0.151	-0.278
-318.026	-200.000	-0.014	0.068
-317.012	-10.669	-0.190	0.124
-315.997	800.000	0.045	0.149
-314.983	800.000	-0.076	0.216
-313.968	119.728	0.171	0.208
-312.953	-66.386	-0.214	-0.084
-311.939	482.128	0.121	-0.270
-310.924	-117.443	-0.137	-0.024
-309.910	-36.867	0.269	0.142
-308.895	-58.098	0.102	-0.044
-307.880	800.000	0.050	-0.136
-306.866	208.955	0.095	0.146
-305.851	-85.183	-0.081	-0.025
-304.837	261.403	0.147	0.251
-303.822	152.206	-0.200	-0.269
-302.807	388.068	-0.196	0.399
-301.793	-200.000	0.047	0.360
-300.778	666.657	-0.135	0.343
-299.764	9.247	-0.049	-0.037
-298.749	-168.053	0.197	-0.008
-297.735	-47.447	-0.106	-0.051
-296.720	362.567	0.095	0.188
-295.705	319.489	-0.093	0.174
-294.691	305.584	0.066	0.120
-293.676	-200.000	0.011	0.395
-292.662	-131.523	0.427	0.055
-291.647	45.182	-0.137	-0.124
-290.632	-77.466	0.179	0.061
-289.618	-16.212	-0.277	0.173
-288.603	-200.000	-0.050	0.244
-287.589	800.000	-0.086	-0.265
-286.574	147.025	0.252	-0.334
-285.559	800.000	-0.083	0.329
-284.545	-153.822	0.106	0.007
-283.530	-101.798	-0.198	-0.047
-282.516	306.071	-0.108	-0.198
-281.501	-47.064	-0.144	-0.069
-280.486	-64.211	-0.192	-0.077
-279.472	59.422	0.119	0.115
-278.457	-175.822	-0.141	-0.004
-277.443	26.202	0.179	-0.147
-276.428	-44.790	0.236	-0.116
-275.413	2.329	-0.041	0.029
-274.399	39.211	-0.404	0.355
-273.384	-93.479	0.439	0.120
-272.370	-122.347	-0.169	0.027
-271.355	-12.969	-0.452	0.289
-270.340	800.000	-0.024	0.087
-269.326	641.198	0.076	0.191
-268.311	-200.000	-0.042	0.295
-267.297	162.776	0.182	0.251
-266.282	-200.000	0.067	0.297
-265.267	31.287	0.103	0.087
-264.253	-102.903	0.084	-0.020
-263.238	-126.540	-0.106	-0.015
-262.224	-200.000	-0.011	0.277
-261.209	27.628	-0.201	0.166
-260.195	800.000	0.032	0.113
-259.180	-130.094	-0.230	0.031
-258.165	-58.756	0.468	-0.199
-257.151	67.298	-0.147	-0.148
-256.136	800.000	0.049	0.198
-255.122	112.180	0.059	-0.070
-254.107	-200.000	0.086	-0.380
-253.092	202.873	0.068	-0.104
-252.078	800.000	-0.067	-0.191
-251.063	745.853	-0.064	0.168
-250.049	14.766	-0.230	-0.177
-249.034	178.438	0.036	-0.051
-248.019	-200.000	-0.013	0.077
-247.005	153.454	0.167	0.225
-245.990	-200.000	-0.119	-0.530
-244.976	-200.000	-0.048	0.363
-243.961	-133.522	0.046	-0.006
-242.946	800.000	0.123	-0.352
-241.932	30.188	-0.301	-0.252
-240.917	-200.000	-0.007	0.134
-239.903	-200.000	0.018	0.168
-238.888	-135.058	0.011	-0.001
-237.873	36.332	0.088	0.076
-236.859	-77.575	0.333	-0.113
-235.844	-200.000	0.018	0.193
-234.830	307.723	0.206	0.377
-233.815	-108.454	-0.237	0.050
-232.800	-24.751	-0.371	-0.216
-231.786	132.140	0.122	-0.154
-230.771	63.099	0.193	0.190
-229.757	-200.000	-0.043	-0.329
-228.742	-14.361	0.146	0.093
-227.727	14.306	-0.125	-0.096
-226.713	-74.123	0.206	-0.073
-225.698	76.781	0.086	-0.090
-224.684	222.420	0.129	0.204
-223.669	50.447	0.202	-0.187
-222.655	55.485	0.174	0.165
-221.640	31.256	-0.208	0.175
-220.625	539.590	0.103	-0.241
-219.611	227.196	0.192	0.307
-218.596	675.127	0.149	0.379
-217.582	-20.291	0.230	0.139
-216.567	498.075	0.085	-0.192
-215.552	21.865	-0.039	0.032
-214.538	-200.000	-0.027	-0.117
-213.523	-33.072	0.139	0.075
-212.509	-99.936	0.545	-0.134
-211.494	-200.000	-0.043	-0.253
-210.479	471.604	-0.028	0.061
-209.465	-88.293	0.170	-0.050
-208.450	81.428	0.295	-0.313
-207.436	29.136	0.118	-0.098
-206.421	-111.102	0.153	-0.031
-205.406	81.436	0.084	0.090
-204.392	-40.383	-0.117	-0.060
-203.377	-200.000	0.042	0.236
-202.363	37.823	0.160	-0.140
-201.348	-200.000	0.020	-0.088
-200.333	-200.000	-0.018	-0.141
-199.319	10.608	0.178	-0.133
-198.304	628.116	0.072	0.179
-197.290	-176.577	-0.229	-0.006
-196.275	-99.205	-0.080	0.020
-195.260	-1.803	-0.078	0.054
-194.246	-128.966	0.206	-0.028
-193.231	800.000	-0.036	0.125
-192.217	51.148	-0.333	0.310
-191.202	-200.000	0.309	-0.001
-190.187	800.000	-0.109	-0.334
-189.173	-33.177	0.154	0.084
-188.158	-20.137	-0.304	0.183
-187.144	-99.152	-0.391	-0.097
-186.129	27.503	0.358	-0.295
-185.114	96.036	-0.130	0.146
-184.100	-98.652	0.013	0.003
-183.085	-131.541	-0.054	-0.007
-182.071	-200.000	0.018	0.266
-181.056	-110.178	0.188	0.038
-180.042	288.779	0.170	-0.301
-179.027	-10.360	0.190	0.124
-178.012	143.911	-0.141	0.184
-176.998	-4.286	-0.027	-0.019
-175.983	-84.652	0.233	-0.072
-174.969	-200.000	-0.043	0.203
-173.954	-44.185	0.229	0.112
-172.939	701.647	-0.005	-0.014
-171.925	-29.695	0.166	-0.093
-170.910	-200.000	0.048	-0.355
-169.896	-96.931	0.096	-0.025
-168.881	800.000	-0.032	0.118
-167.866	152.416	-0.131	0.175
-166.852	-200.000	-0.021	-0.181
-165.837	12.619	-0.040	-0.031
-164.823	316.651	-0.112	0.208
-163.808	1.394	0.182	-0.128
-162.793	-6.243	-0.133	0.089
-161.779	-53.802	0.065	-0.029
-160.764	-30.301	-0.076	-0.042
-159.750	51.952	-0.128	0.119
-158.735	-132.786	0.508	-0.064
-157.720	391.657	-0.156	-0.317
-156.706	326.915	0.013	-0.024
-155.691	-29.707	0.150	0.084
-154.677	79.351	0.192	-0.202
-153.662	-123.395	0.426	-0.067
-152.647	30.731	0.330	0.277
-151.633	-40.862	-0.142	-0.072
-150.618	-200.000	-0.032	-0.182
-149.604	-76.769	-0.208	-0.071
-148.589	400.224	-0.059	0.120
-147.574	-66.262	-0.068	0.026
-146.560	-23.049	0.225	-0.132
-145.545	-36.080	0.111	-0.059
-144.531	-200.000	-0.053	0.282
-143.516	-200.000	-0.007	-0.172
-142.502	-77.501	0.287	-0.097
-141.487	-135.204	0.192	-0.023
-140.472	-120.542	-0.441	-0.073
-139.458	-200.000	0.019	-0.229
-138.443	87.996	-0.135	0.146
-137.429	800.000	-0.096	0.338
-136.414	-138.800	-0.397	-0.042
-135.399	-29.812	0.193	-0.108
-134.385	4.314	-0.019	-0.014
-133.370	176.004	-0.190	-0.270
-132.356	-156.690	0.312	-0.019
-131.341	339.556	0.069	0.131
-130.326	68.603	0.054	-0.054
-129.312	-111.242	-0.248	0.050
-128.297	-95.059	-0.205	0.054
-127.283	57.850	0.167	0.160
-126.268	33.002	-0.237	0.201
-125.253	77.020	0.174	-0.181
-124.239	-167.167	-0.209	-0.008
-123.224	-135.877	-0.212	-0.024
-122.210	223.876	0.144	0.227
