DTS Sentinel unit serial number:	SN413079Multiplexer serial number:	ORYXHardware model number:	OX4-SRSoftware version number:	ORYX F/W v4.00 Oryx Data Collector v3.7.2.0data status	okinstallation	princeton_trtdifferential loss correction	single-endedforward channel	channel 1reverse channel	N/Adate	2019/09/12time	19:41:34forward acquisition time	15.00reverse acquisition time	0.00gamma	496.2192k internal	0.2323k external	0.2323temperature offset calibration	1.0130default loss term (dB/km)	0.3790temperature slope calibration	1.0000multiplexer offset coefficient	1.0000multiplexer slope coefficient	1.0000fibre end	0.00T internal ref (°C)	32.06T ext. ref 1 (°C)	3.42T ext. ref 2 (°C)	26.67length (m)	temperature (°C)	Stokes	anti-Stokes-747.200	-55.477	0.562	0.255
-746.185	-129.149	0.223	-0.031
-745.171	123.312	-0.290	-0.367
-744.156	170.641	0.561	-0.812
-743.142	-200.000	-0.064	1.387
-742.127	-200.000	0.075	0.998
-741.112	246.588	-0.598	-1.018
-740.098	-0.483	0.089	-0.064
-739.083	800.000	0.081	-0.347
-738.069	-200.000	0.019	0.748
-737.054	-200.000	0.044	-0.240
-736.039	-37.538	-0.684	0.368
-735.025	-9.285	-0.174	-0.117
-734.010	-200.000	-0.047	-0.624
-732.996	-14.554	-1.080	-0.701
-731.981	800.000	0.146	0.608
-730.966	-200.000	0.016	-0.184
-729.952	-71.477	-0.374	0.141
-728.937	203.907	0.278	-0.435
-727.923	55.861	-0.252	0.246
-726.908	-49.028	-0.115	-0.055
-725.894	-200.000	0.047	-0.636
-724.879	-200.000	0.754	-0.002
-723.864	-200.000	-0.918	-0.002
-722.850	-87.516	0.148	-0.045
-721.835	89.569	-0.145	-0.163
-720.821	299.712	0.543	1.010
-719.806	-92.111	0.794	0.226
-718.791	-200.000	-0.002	0.126
-717.777	-200.000	-0.064	-0.321
-716.762	55.594	-0.086	-0.084
-715.748	54.697	0.240	-0.234
-714.733	18.618	-0.625	-0.505
-713.718	800.000	0.200	-0.862
-712.704	-200.000	-0.008	-0.621
-711.689	-147.570	-0.414	0.035
-710.675	-186.796	0.270	0.004
-709.660	800.000	-0.221	0.738
-708.645	-92.440	0.927	-0.263
-707.631	-8.477	-0.127	0.086
-706.616	-119.804	0.525	-0.091
-705.602	-200.000	-0.024	-0.399
-704.587	-131.162	-0.395	-0.053
-703.572	-79.262	0.473	-0.162
-702.558	-200.000	0.142	0.645
-701.543	16.213	-0.683	0.543
-700.529	77.305	-0.571	-0.613
-699.514	127.016	-0.202	0.258
-698.499	6.705	-0.391	0.293
-697.485	-83.270	0.650	-0.210
-696.470	29.784	-0.218	-0.187
-695.456	-200.000	0.066	0.377
-694.441	370.322	0.125	0.255
-693.426	-72.535	0.296	-0.110
-692.412	-102.376	0.425	-0.103
-691.397	57.061	-0.090	0.089
-690.383	-140.069	0.597	-0.063
-689.368	-200.000	-0.046	0.367
-688.354	-3.803	-0.372	-0.260
-687.339	-172.284	0.767	0.025
-686.324	-62.390	0.339	-0.142
-685.310	49.759	-0.356	-0.338
-684.295	-80.783	0.612	-0.205
-683.281	-15.545	0.295	-0.190
-682.266	70.477	-0.287	-0.299
-681.251	-63.412	0.440	-0.182
-680.237	105.852	-0.371	-0.442
-679.222	-154.249	0.613	0.042
-678.208	-200.000	-0.065	0.528
-677.193	-89.529	0.490	0.145
-676.178	-126.120	-0.796	-0.120
-675.164	204.791	0.213	0.333
-674.149	82.118	0.422	-0.461
-673.135	-200.000	-0.058	0.519
-672.120	-168.598	-1.217	-0.047
-671.105	800.000	0.045	0.189
-670.091	-64.116	0.403	0.166
-669.076	-200.000	0.044	0.580
-668.062	285.309	0.295	0.535
-667.047	-136.857	0.167	0.019
-666.032	-17.459	-0.650	0.412
-665.018	-200.000	0.021	0.554
-664.003	420.175	-0.208	0.448
-662.989	-158.857	-0.528	-0.030
-661.974	-86.888	-0.233	0.072
-660.959	-8.736	0.429	0.290
-659.945	-56.758	-0.465	-0.207
-658.930	47.182	0.456	0.427
-657.916	-47.229	-0.109	0.053
-656.901	26.667	-0.509	0.429
-655.886	597.056	0.081	-0.201
-654.872	-200.000	0.134	0.686
-653.857	20.427	0.454	0.370
-652.843	43.557	0.310	0.285
-651.828	19.921	0.128	0.104
-650.814	48.712	0.829	0.782
-649.799	800.000	-0.261	0.765
-648.784	56.350	-0.752	0.735
-647.770	132.441	-0.337	0.436
-646.755	-200.000	-0.002	0.745
-645.741	268.565	0.071	0.124
-644.726	-14.090	-0.272	-0.176
-643.711	-71.001	0.900	-0.341
-642.697	-14.133	-0.484	-0.314
-641.682	-200.000	0.025	-0.291
-640.668	-71.579	0.438	0.165
-639.653	-119.263	0.772	0.135
-638.638	-96.506	-0.322	-0.086
-637.624	-65.410	-0.134	-0.054
-636.609	174.355	-0.267	-0.389
-635.595	-27.973	-0.916	0.533
-634.580	-200.000	0.070	-0.422
-633.565	-113.749	0.446	0.087
-632.551	277.103	0.086	-0.153
-631.536	-200.000	-0.089	0.534
-630.522	134.584	0.245	0.319
-629.507	-93.178	-0.434	-0.121
-628.492	-200.000	0.055	-0.300
-627.478	47.035	-0.372	-0.348
-626.463	8.679	0.626	0.474
-625.449	276.605	-0.229	0.408
-624.434	120.541	-0.204	-0.255
-623.419	800.000	0.183	-0.801
-622.405	-43.040	0.220	0.112
-621.390	-60.412	0.538	0.230
-620.376	29.622	0.150	0.128
-619.361	-54.014	-0.529	-0.242
-618.346	-200.000	0.025	-0.323
-617.332	800.000	-0.033	0.100
-616.317	3.808	-0.150	0.110
-615.303	7.230	0.501	-0.376
-614.288	-200.000	-0.065	-0.457
-613.273	-86.095	-1.223	0.379
-612.259	401.663	-0.361	0.761
-611.244	-51.066	0.658	-0.310
-610.230	-84.478	-0.645	0.205
-609.215	-101.400	0.624	-0.153
-608.201	-113.606	0.352	-0.069
-607.186	800.000	0.043	-0.173
-606.171	125.185	0.374	-0.474
-605.157	165.802	-0.439	0.624
-604.142	-153.620	-0.905	-0.063
-603.128	-165.585	-1.050	-0.046
-602.113	-200.000	-0.087	-0.892
-601.098	431.921	-0.201	-0.437
-600.084	-65.601	0.285	-0.115
-599.069	-200.000	0.033	-0.254
-598.055	80.192	0.569	0.615
-597.040	800.000	-0.208	-0.659
-596.025	68.697	-0.232	-0.239
-595.011	-61.093	-0.746	-0.316
-593.996	-138.434	0.658	-0.073
-592.982	-94.128	0.652	0.179
-591.967	378.564	0.188	-0.386
-590.952	36.964	-0.166	-0.147
-589.938	727.133	0.500	1.339
-588.923	-172.543	0.898	0.028
-587.909	214.082	-0.175	-0.278
-586.894	-70.316	0.510	-0.194
-585.879	580.252	-0.112	-0.276
-584.865	455.409	-0.193	0.429
-583.850	304.423	0.414	0.772
-582.836	-55.943	0.307	0.137
-581.821	-200.000	0.036	0.800
-580.806	-16.052	-0.438	0.279
-579.792	117.916	0.283	0.350
-578.777	800.000	0.193	-0.624
-577.763	800.000	0.139	0.392
-576.748	-200.000	-0.039	-0.190
-575.733	54.459	0.528	0.511
-574.719	-200.000	0.046	-0.272
-573.704	-156.549	1.157	-0.072
-572.690	24.002	-0.433	-0.358
-571.675	-89.777	0.526	-0.154
-570.661	800.000	-0.099	-0.289
-569.646	-59.806	0.526	-0.226
-568.631	-122.167	-0.753	-0.124
-567.617	56.043	-0.287	-0.280
-566.602	800.000	0.130	-0.385
-565.588	-77.775	-1.305	0.452
-564.573	-88.639	0.202	-0.060
-563.558	17.259	-0.749	-0.596
-562.544	-107.621	0.323	-0.071
-561.529	-79.064	0.351	-0.120
-560.515	521.847	0.110	-0.260
-559.500	-29.095	-0.887	-0.510
-558.485	-111.479	0.203	-0.041
-557.471	80.942	0.428	-0.463
-556.456	13.893	-0.476	-0.371
-555.442	218.661	0.224	-0.358
-554.427	19.749	-0.328	0.265
-553.412	-170.100	0.575	0.020
-552.398	-31.552	0.702	0.395
-551.383	-40.462	0.466	0.243
-550.369	-33.259	-0.131	0.073
-549.354	-76.545	-0.742	0.261
-548.339	11.962	0.320	0.247
-547.325	-200.000	-0.464	0.001
-546.310	151.885	0.145	0.198
-545.296	-157.536	-0.574	-0.034
-544.281	-158.933	-1.405	-0.080
-543.266	645.376	0.106	-0.271
-542.252	-148.142	-0.253	0.021
-541.237	-60.435	0.265	-0.113
-540.223	91.877	-0.506	0.570
-539.208	32.620	0.034	-0.030
-538.193	267.378	0.139	0.243
-537.179	-200.000	-0.021	0.166
-536.164	100.669	-0.260	-0.303
-535.150	-12.713	0.298	-0.195
-534.135	800.000	-0.087	0.315
-533.121	-200.000	0.022	1.101
-532.106	162.121	0.198	0.278
-531.091	800.000	0.170	0.579
-530.077	346.536	-0.275	0.542
-529.062	-7.154	-0.135	-0.092
-528.048	-47.914	0.527	0.256
-527.033	-43.626	0.326	0.165
-526.018	86.711	0.661	0.730
-525.004	10.599	0.827	0.631
-523.989	235.161	0.093	-0.154
-522.975	-0.995	-0.483	0.342
-521.960	41.889	-0.235	-0.213
-520.945	800.000	-0.163	-0.519
-519.931	-106.302	-0.769	0.172
-518.916	52.840	-0.949	-0.908
-517.902	-112.297	0.829	0.166
-516.887	-169.834	0.331	-0.012
-515.872	-92.711	0.544	-0.152
-514.858	-22.832	0.545	0.329
-513.843	285.214	-0.252	0.455
-512.829	64.861	-0.396	0.400
-511.814	10.382	0.321	0.244
-510.799	-105.671	-0.729	0.165
-509.785	800.000	0.201	-0.666
-508.770	403.284	-0.295	0.622
-507.756	168.368	-0.245	0.350
-506.741	75.891	-0.123	-0.130
-505.726	-21.521	-0.444	-0.271
-504.712	-76.056	0.188	-0.067
-503.697	-21.406	0.378	0.231
-502.683	-200.000	0.040	0.297
-501.668	559.611	0.406	-0.981
-500.653	-84.880	-1.116	0.351
-499.639	-89.558	0.533	0.157
-498.624	547.372	0.205	-0.491
-497.610	195.939	0.376	0.572
-496.595	-5.759	0.923	0.632
-495.581	-172.385	-0.070	-0.002
-494.566	-70.815	1.064	0.401
-493.551	-60.400	-0.806	-0.343
-492.537	55.436	-0.151	-0.146
-491.522	152.678	0.877	-1.198
-490.508	63.147	0.190	-0.191
-489.493	92.316	0.317	-0.357
-488.478	-200.000	0.058	0.372
-487.464	60.107	0.328	-0.324
-486.449	395.954	0.110	-0.229
-485.435	-200.000	0.120	0.649
-484.420	-200.000	-0.014	0.217
-483.405	68.868	-0.302	-0.310
-482.391	352.694	0.511	1.012
-481.376	-84.383	-0.599	-0.189
-480.362	-108.660	0.387	0.083
-479.347	-92.169	0.402	0.113
-478.332	-140.672	-0.220	-0.023
-477.318	800.000	-0.148	0.483
-476.303	-90.279	0.436	-0.126
-475.289	35.054	-0.552	0.483
-474.274	-48.211	0.355	-0.171
-473.259	-200.000	-0.001	0.047
-472.245	-17.793	0.844	-0.529
-471.230	54.805	0.367	-0.354
-470.216	-2.803	-0.308	0.215
-469.201	32.666	-0.543	0.469
-468.186	-137.245	-0.697	-0.079
-467.172	235.113	-0.097	-0.160
-466.157	271.014	0.215	-0.377
-465.143	800.000	-0.080	-0.318
-464.128	404.443	-0.162	-0.342
-463.113	-200.000	0.016	-0.439
-462.099	326.483	0.310	-0.592
-461.084	800.000	-0.116	-0.333
-460.070	-10.138	-0.534	0.354
-459.055	55.639	0.379	-0.367
-458.040	117.144	-0.359	0.441
-457.026	-43.081	0.268	0.135
-456.011	168.565	0.385	-0.548
-454.997	-200.000	0.668	-0.002
-453.982	-8.612	-0.317	-0.213
-452.968	749.540	-0.289	-0.778
-451.953	800.000	-0.109	0.449
-450.938	-200.000	0.057	0.413
-449.924	29.454	-0.494	-0.420
-448.909	-97.744	0.206	-0.053
-447.895	-200.000	-0.006	-0.386
-446.880	800.000	-0.118	-0.480
-445.865	236.076	0.212	0.350
-444.851	271.479	-0.235	-0.414
-443.836	-147.181	-0.767	0.065
-442.822	-102.788	0.524	-0.124
-441.807	-104.933	-0.246	0.056
-440.792	14.928	0.481	-0.376
-439.778	-15.049	-0.417	0.267
-438.763	160.126	0.099	0.137
-437.749	-200.000	0.166	-1.069
-436.734	-150.201	0.467	0.036
-435.719	-116.024	0.711	-0.132
-434.705	-25.217	-0.632	-0.374
-433.690	472.106	-0.153	0.344
-432.676	48.080	-0.074	-0.069
-431.661	-42.292	0.584	-0.297
-430.646	-15.564	-0.654	-0.416
-429.632	74.086	-0.215	0.225
-428.617	50.511	-0.306	0.289
-427.603	-102.611	-0.420	-0.100
-426.588	-1.412	-0.389	0.274
-425.573	688.478	-0.113	-0.294
-424.559	-98.127	-0.049	-0.013
-423.544	518.568	0.176	0.412
-422.530	-31.781	0.354	-0.198
-421.515	-166.991	0.281	-0.011
-420.500	29.997	-0.165	0.140
-419.486	-75.021	-0.360	-0.129
-418.471	-53.734	-0.218	0.099
-417.457	-94.065	-0.395	0.108
-416.442	-41.375	0.293	0.151
-415.428	-200.000	0.195	-0.933
-414.413	273.126	0.242	0.426
-413.398	-19.740	-0.617	0.380
-412.384	800.000	0.091	0.293
-411.369	65.039	0.500	-0.504
-410.355	372.622	-0.149	-0.302
-409.340	800.000	-0.079	-0.299
-408.325	115.966	-0.426	0.520
-407.311	-200.000	0.101	-0.506
-406.296	163.550	0.402	-0.563
-405.282	35.760	0.617	-0.540
-404.267	-117.820	0.489	0.088
-403.252	133.085	-0.161	-0.207
-402.238	800.000	-0.099	-0.307
-401.223	132.231	0.122	-0.157
-400.209	374.707	-0.041	-0.083
-399.194	1.160	-0.747	0.534
-398.179	24.823	-0.322	-0.266
-397.165	-125.393	-0.497	0.076
-396.150	800.000	-0.202	0.626
-395.136	-2.136	1.039	0.726
-394.121	800.000	-0.181	-0.614
-393.106	-200.000	-0.063	-0.568
-392.092	-28.121	-0.223	0.128
-391.077	-141.183	-0.671	-0.068
-390.063	-39.352	0.571	0.298
-389.048	-52.500	0.274	-0.126
-388.033	300.190	0.375	0.688
-387.019	-129.684	0.583	-0.080
-386.004	321.205	0.294	-0.557
-384.990	-200.000	-0.000	0.703
-383.975	-183.063	-0.666	0.012
-382.960	-78.739	-0.220	-0.075
-381.946	675.512	-0.011	-0.029
-380.931	17.456	-0.145	0.115
-379.917	-200.000	-0.063	-0.277
-378.902	-59.802	0.864	-0.368
-377.888	161.936	-0.522	0.728
-376.873	-158.118	0.116	-0.007
-375.858	84.168	-0.422	0.459
-374.844	110.573	0.466	0.557
-373.829	82.540	-0.485	-0.524
-372.815	-135.546	-0.691	-0.082
-371.800	-107.514	-0.330	0.072
-370.785	-143.473	0.834	0.079
-369.771	68.522	0.776	-0.792
-368.756	-200.000	-0.027	-0.222
-367.742	37.830	-0.502	-0.444
-366.727	430.715	0.141	-0.303
-365.712	-46.370	-0.244	-0.120
-364.698	40.844	-0.050	0.045
-363.683	96.865	-0.181	0.206
-362.669	-200.000	-0.022	0.165
-361.654	-20.843	-0.315	0.192
-360.639	-198.922	-0.158	0.001
-359.625	161.558	-0.262	0.365
-358.610	-200.000	-0.054	0.539
-357.596	800.000	-0.173	0.743
-356.581	277.183	0.296	-0.523
-355.566	182.405	0.330	0.484
-354.552	-108.077	-0.703	-0.152
-353.537	478.140	0.247	0.556
-352.523	-200.000	0.030	0.740
-351.508	382.711	0.128	-0.263
-350.493	-76.675	-0.348	-0.121
-349.479	206.097	0.071	0.110
-348.464	800.000	0.043	-0.152
-347.450	105.542	-0.278	-0.327
-346.435	-23.733	0.420	0.250
-345.420	-86.474	1.003	-0.306
-344.406	-110.255	0.242	-0.050
-343.391	-143.852	0.437	0.041
-342.377	800.000	-0.287	0.852
-341.362	395.141	-0.149	0.308
-340.348	800.000	-0.075	-0.243
-339.333	280.778	0.160	0.284
-338.318	242.855	-0.069	0.115
-337.304	285.232	-0.169	-0.302
-336.289	-74.680	0.599	0.214
-335.275	306.208	-0.243	-0.450
-334.260	66.125	0.199	0.201
-333.245	-36.261	0.799	0.428
-332.231	-200.000	-0.010	0.068
-331.216	-89.983	0.617	-0.179
-330.202	-56.918	-0.480	-0.210
-329.187	-65.874	1.047	0.416
-328.172	-200.000	0.009	-0.540
-327.158	-200.000	0.159	-0.768
-326.143	-6.752	0.573	-0.387
-325.129	-139.530	-0.860	0.091
-324.114	-44.548	0.618	0.307
-323.099	383.502	0.178	-0.363
-322.085	-200.000	-0.141	0.668
-321.070	510.880	0.428	-0.990
-320.056	-11.422	-0.267	-0.174
-319.041	-140.933	0.400	0.041
-318.026	7.357	-0.626	0.465
-317.012	800.000	-0.097	0.412
-315.997	47.027	0.420	0.388
-314.983	483.299	-0.107	-0.242
-313.968	104.823	-0.647	-0.757
-312.953	41.488	0.605	-0.544
-311.939	-66.699	-0.537	0.211
-310.924	-89.064	-0.815	0.239
-309.910	77.346	0.398	-0.421
-308.895	-200.000	0.040	0.563
-307.880	70.828	0.349	-0.359
-306.866	-153.750	-0.844	0.058
-305.851	95.332	-0.792	-0.897
-304.837	-157.622	-0.856	-0.051
-303.822	-12.387	-0.462	-0.300
-302.807	76.850	0.821	-0.865
-301.793	145.383	0.202	-0.268
-300.778	273.060	0.440	0.771
-299.764	-6.386	0.247	-0.167
-298.749	-200.000	0.044	0.706
-297.735	272.631	-0.280	0.490
-296.720	73.405	-0.149	-0.155
-295.705	121.682	-0.313	-0.387
-294.691	124.997	0.389	-0.486
-293.676	177.962	-0.390	-0.564
-292.662	-200.000	0.087	-0.701
-291.647	-200.000	0.016	-0.437
-290.632	-55.339	0.852	0.379
-289.618	142.289	0.414	-0.546
-288.603	504.909	-0.492	1.131
-287.589	111.702	-0.270	-0.324
-286.574	-200.000	-0.037	-0.636
-285.559	800.000	-0.398	1.273
-284.545	-200.000	0.096	0.431
-283.530	280.090	0.355	-0.629
-282.516	800.000	0.203	0.742
-281.501	363.353	0.066	-0.132
-280.486	472.703	-0.157	0.351
-279.472	304.409	-0.372	-0.684
-278.457	621.898	-0.028	-0.070
-277.443	552.368	-0.320	0.762
-276.428	-81.917	0.277	0.090
-275.413	-41.115	-0.165	-0.084
-274.399	-148.411	0.544	0.044
-273.384	-200.000	0.008	-0.579
-272.370	143.328	-0.267	-0.353
-271.355	-200.000	0.046	0.764
-270.340	-200.000	-0.045	0.286
-269.326	78.182	0.562	-0.594
-268.311	31.603	0.161	0.138
-267.297	190.320	0.230	-0.342
-266.282	35.942	0.488	-0.425
-265.267	-71.895	-0.138	-0.051
-264.253	3.816	0.426	-0.308
-263.238	294.430	0.135	-0.244
-262.224	38.642	0.076	-0.067
-261.209	800.000	-0.165	-0.451
-260.195	-200.000	-0.007	0.082
-259.180	54.646	-0.570	-0.545
-258.165	121.974	-0.686	0.849
-257.151	448.712	-0.437	0.953
-256.136	-23.781	-0.653	0.387
-255.122	-56.802	-0.414	0.181
-254.107	-200.000	0.150	-0.868
-253.092	800.000	0.155	0.445
-252.078	-98.369	-0.603	0.153
-251.063	-193.420	-0.460	-0.004
-250.049	-160.852	-0.051	0.003
-249.034	800.000	0.071	-0.218
-248.019	429.327	0.048	-0.102
-247.005	31.371	-0.020	-0.017
-245.990	48.887	-0.479	-0.446
-244.976	62.012	0.264	-0.260
-243.961	228.887	-0.555	0.896
-242.946	-200.000	-0.005	0.200
-241.932	62.889	-0.540	-0.536
-240.917	312.032	-0.293	-0.545
-239.903	-200.000	-0.127	0.863
-238.888	-94.952	0.536	-0.144
-237.873	800.000	-0.162	0.689
-236.859	115.796	-0.666	-0.806
-235.844	-8.116	0.445	0.297
-234.830	-177.383	0.578	0.014
-233.815	-101.127	-0.494	0.120
-232.800	-113.621	1.221	-0.236
-231.786	-23.106	1.019	-0.608
-230.771	141.434	0.256	0.336
-229.757	33.777	-0.339	0.291
-228.742	-200.000	0.007	-0.210
-227.727	491.032	0.165	-0.374
-226.713	8.367	-0.520	-0.387
-225.698	-3.802	0.107	-0.073
-224.684	-63.429	-0.068	0.028
-223.669	-142.836	0.617	0.059
-222.655	-64.785	0.200	0.080
-221.640	-37.622	0.334	0.176
-220.625	134.932	0.204	0.263
-219.611	-4.271	-0.898	0.615
-218.596	-94.454	0.733	0.198
-217.582	647.459	0.095	0.239
-216.567	-90.859	0.662	0.189
-215.552	13.439	-0.304	-0.233
-214.538	330.685	-0.240	0.458
-213.523	286.087	0.411	0.733
-212.509	-173.582	0.964	-0.029
-211.494	-200.000	0.055	-0.439
-210.479	72.438	-0.489	0.504
-209.465	-142.686	-1.170	0.113
-208.450	102.562	0.463	-0.536
-207.436	800.000	0.341	-0.952
-206.421	260.118	-0.448	-0.765
-205.406	199.233	-0.251	0.380
-204.392	800.000	-0.479	1.526
-203.377	97.235	0.323	0.366
-202.363	138.749	0.224	0.291
-201.348	-200.000	-0.048	-0.507
-200.333	800.000	0.126	-0.466
-199.319	-59.163	0.494	0.210
-198.304	198.591	0.185	0.281
-197.290	103.602	0.578	0.671
-196.275	-82.387	0.457	0.147
-195.260	295.767	0.317	-0.573
-194.246	-200.000	0.053	0.340
-193.231	142.172	0.402	0.527
-192.217	-200.000	-0.024	-0.595
-191.202	56.446	-0.457	0.439
-190.187	-91.460	-0.283	-0.080
-189.173	11.260	-0.009	0.007
-188.158	11.712	-0.347	0.263
-187.144	111.987	0.545	0.651
-186.129	135.508	-0.735	0.944
-185.114	-140.264	-0.129	-0.013
-184.100	-96.463	-0.557	0.145
-183.085	770.904	-0.046	-0.123
-182.071	-200.000	0.040	0.310
-181.056	-200.000	0.081	-0.696
-180.042	61.488	-0.486	0.477
-179.027	-200.000	-0.031	0.238
-178.012	-138.612	0.412	-0.045
-176.998	66.408	0.415	0.416
-175.983	-61.761	0.109	-0.045
-174.969	-59.378	-0.839	0.356
-173.954	170.176	0.256	-0.361
-172.939	-200.000	0.005	-1.022
-171.925	44.019	-0.605	-0.548
-170.910	30.925	-0.453	-0.383
-169.896	732.293	-0.123	0.324
-168.881	324.517	0.223	0.421
-167.866	-114.147	0.498	-0.095
-166.852	706.338	0.090	-0.233
-165.837	461.481	0.170	-0.373
-164.823	-46.174	-1.199	0.583
-163.808	800.000	-0.100	0.429
-162.793	-123.497	0.249	0.039
-161.779	-50.073	-0.054	0.025
-160.764	-97.906	-0.484	0.123
-159.750	45.770	-0.767	0.700
-158.735	512.919	0.276	-0.635
-157.720	282.441	-0.507	-0.898
-156.706	-1.156	-0.651	-0.454
-155.691	800.000	0.180	0.564
-154.677	800.000	0.183	-0.537
-153.662	-200.000	-0.035	-0.501
-152.647	-135.572	0.792	-0.093
-151.633	-200.000	-0.025	0.341
-150.618	800.000	-0.136	0.509
-149.604	53.826	0.452	0.429
-148.589	-54.220	-0.651	-0.292
-147.574	-185.829	0.200	-0.003
-146.560	191.758	-0.217	-0.323
-145.545	-58.248	0.422	-0.181
-144.531	-200.000	0.023	-0.154
-143.516	523.427	-0.269	-0.624
-142.502	-200.000	-0.041	0.284
-141.487	127.078	0.311	0.389
-140.472	-200.000	-0.036	0.202
-139.458	371.518	0.219	-0.438
-138.443	-12.169	-0.405	-0.262
-137.429	-29.741	-0.309	-0.174
-136.414	57.806	-0.727	-0.701
-135.399	-3.583	-0.663	0.454
-134.385	800.000	0.113	0.418
-133.370	800.000	0.044	0.152
-132.356	170.114	-0.292	0.412
-131.341	-101.932	-0.635	0.151
-130.326	-75.171	0.470	-0.165
-129.312	26.533	0.335	0.276
-128.297	647.180	-0.142	0.358
-127.283	183.080	-0.170	0.248
-126.268	466.051	0.065	-0.142
-125.253	149.669	-0.262	0.349
-124.239	-200.000	-0.030	0.585
-123.224	-200.000	-0.014	0.786
-122.210	13.914	-0.459	0.352
-121.195	-31.477	-0.337	0.187
-120.180	-112.996	-1.032	-0.201
