DTS Sentinel unit serial number:	SN413079Multiplexer serial number:	ORYXHardware model number:	OX4-SRSoftware version number:	ORYX F/W v4.00 Oryx Data Collector v3.7.2.0data status	okinstallation	princeton_trtdifferential loss correction	single-endedforward channel	channel 1reverse channel	N/Adate	2019/09/14time	07:58:35forward acquisition time	60.00reverse acquisition time	0.00gamma	496.2192k internal	0.2334k external	0.2334temperature offset calibration	1.0071default loss term (dB/km)	0.3790temperature slope calibration	1.0000multiplexer offset coefficient	1.0000multiplexer slope coefficient	1.0000fibre end	0.00T internal ref (°C)	26.77T ext. ref 1 (°C)	3.52T ext. ref 2 (°C)	24.14length (m)	temperature (°C)	Stokes	anti-Stokes-747.200	-127.071	-0.096	0.014
-746.185	800.000	0.067	0.270
-745.171	36.047	-0.189	-0.168
-744.156	-52.947	-0.303	0.140
-743.142	-100.407	0.044	0.011
-742.127	127.982	0.219	0.280
-741.112	-148.024	-0.230	0.019
-740.098	-107.337	-0.108	0.024
-739.083	800.000	0.067	0.273
-738.069	294.794	0.147	0.270
-737.054	-200.000	0.010	0.330
-736.039	-124.645	-0.309	-0.048
-735.025	-89.438	0.227	-0.067
-734.010	40.569	0.084	0.076
-732.996	-105.008	-0.220	-0.051
-731.981	-200.000	0.047	0.253
-730.966	800.000	0.023	0.086
-729.952	241.030	-0.199	-0.334
-728.937	-85.495	-0.033	-0.010
-727.923	-200.000	0.023	-0.404
-726.908	-100.396	-0.362	0.090
-725.894	800.000	-0.039	-0.159
-724.879	156.612	-0.166	-0.231
-723.864	-200.000	0.031	-0.372
-722.850	118.330	0.052	-0.065
-721.835	-91.121	-0.078	-0.023
-720.821	180.670	-0.069	0.102
-719.806	118.180	0.251	-0.311
-718.791	41.135	-0.197	-0.178
-717.777	-200.000	0.019	-0.218
-716.762	-65.750	0.048	-0.019
-715.748	-144.857	0.084	-0.008
-714.733	-140.423	0.042	-0.004
-713.718	7.514	0.260	-0.195
-712.704	615.286	-0.098	-0.246
-711.689	544.581	-0.042	-0.102
-710.675	-137.786	0.180	-0.020
-709.660	30.994	0.034	-0.029
-708.645	800.000	0.050	-0.194
-707.631	172.159	0.046	-0.066
-706.616	-108.034	-0.265	0.058
-705.602	724.670	-0.125	0.335
-704.587	42.729	0.157	-0.143
-703.572	-200.000	0.007	0.496
-702.558	121.358	0.151	0.188
-701.543	-200.000	-0.036	0.174
-700.529	-118.240	0.325	-0.058
-699.514	446.524	-0.164	0.362
-698.499	154.113	0.162	0.223
-697.485	-200.000	-0.014	0.096
-696.470	28.532	0.195	-0.165
-695.456	273.502	-0.018	0.031
-694.441	45.564	0.082	-0.076
-693.426	164.350	-0.088	0.124
-692.412	-200.000	-0.045	0.256
-691.397	72.919	0.164	-0.172
-690.383	7.132	-0.219	-0.164
-689.368	-32.315	-0.319	-0.179
-688.354	-47.320	-0.178	-0.087
-687.339	800.000	0.054	-0.154
-686.324	38.867	-0.302	-0.270
-685.310	800.000	-0.048	-0.140
-684.295	1.459	-0.248	0.179
-683.281	-200.000	-0.027	-0.184
-682.266	-200.000	-0.002	-0.174
-681.251	209.801	-0.069	-0.109
-680.237	-200.000	0.002	-0.068
-679.222	800.000	0.052	0.162
-678.208	7.367	0.187	-0.140
-677.193	-69.108	-0.402	-0.155
-676.178	-69.155	-0.120	-0.046
-675.164	-62.493	-0.083	0.035
-674.149	-53.263	-0.065	-0.030
-673.135	105.592	-0.052	0.062
-672.120	463.988	-0.134	-0.301
-671.105	-92.035	-0.245	-0.070
-670.091	-26.599	-0.078	-0.045
-669.076	623.558	0.115	-0.291
-668.062	21.866	0.411	-0.336
-667.047	21.448	-0.127	0.104
-666.032	-57.284	0.049	-0.022
-665.018	-200.000	0.008	-0.113
-664.003	156.893	-0.094	0.130
-662.989	56.428	-0.063	0.061
-661.974	82.963	-0.025	-0.027
-660.959	-69.645	-0.204	-0.078
-659.945	-200.000	0.012	0.064
-658.930	-200.000	-0.000	0.124
-657.916	191.198	-0.203	0.306
-656.901	-84.281	0.047	-0.015
-655.886	-105.488	-0.261	0.059
-654.872	800.000	0.144	0.441
-653.857	-200.000	0.019	0.122
-652.843	561.211	-0.154	0.372
-651.828	-43.477	-0.239	-0.121
-650.814	800.000	0.113	-0.314
-649.799	-25.421	0.146	-0.086
-648.784	0.702	-0.238	-0.170
-647.770	619.038	0.014	-0.035
-646.755	-56.442	-0.181	-0.080
-645.741	113.265	-0.260	0.315
-644.726	524.223	-0.130	0.306
-643.711	566.738	-0.056	-0.137
-642.697	-200.000	-0.023	0.246
-641.682	-200.000	0.004	-0.308
-640.668	-200.000	0.007	-0.082
-639.653	61.664	0.117	-0.116
-638.638	1.557	-0.103	-0.074
-637.624	-146.959	-0.044	-0.004
-636.609	427.622	0.181	-0.392
-635.595	-200.000	0.003	-0.533
-634.580	64.226	-0.278	0.280
-633.565	-159.347	-0.256	-0.014
-632.551	800.000	-0.117	0.342
-631.536	-76.953	0.099	0.035
-630.522	14.580	0.336	-0.262
-629.507	-200.000	0.022	0.180
-628.492	139.216	-0.195	0.257
-627.478	566.969	0.060	0.146
-626.463	249.052	0.095	-0.162
-625.449	800.000	-0.033	0.096
-624.434	-154.976	-0.251	0.016
-623.419	800.000	0.105	0.312
-622.405	-90.821	0.230	-0.066
-621.390	-145.074	0.146	0.013
-620.376	192.263	-0.174	-0.263
-619.361	-19.457	-0.254	-0.157
-618.346	-24.971	0.092	0.054
-617.332	108.081	0.198	-0.236
-616.317	12.492	-0.332	-0.256
-615.303	363.943	0.072	0.146
-614.288	-200.000	-0.003	-0.058
-613.273	-157.535	0.101	-0.006
-612.259	159.417	-0.131	-0.182
-611.244	314.118	0.078	-0.148
-610.230	646.898	0.076	-0.193
-609.215	-200.000	-0.023	0.550
-608.201	182.282	-0.090	0.132
-607.186	-200.000	-0.048	0.402
-606.171	41.839	-0.125	0.114
-605.157	-199.025	0.091	0.000
-604.142	24.065	-0.296	0.244
-603.128	800.000	-0.020	0.068
-602.113	28.937	0.143	0.121
-601.098	-200.000	-0.020	-0.156
-600.084	126.444	0.113	0.142
-599.069	86.269	0.116	-0.128
-598.055	-200.000	-0.003	0.370
-597.040	-200.000	-0.016	-0.233
-596.025	-200.000	-0.014	0.224
-595.011	-200.000	0.052	0.369
-593.996	-32.749	-0.159	0.088
-592.982	338.735	-0.059	-0.114
-591.967	-15.023	-0.268	0.172
-590.952	800.000	0.124	0.374
-589.938	35.729	-0.104	-0.091
-588.923	-200.000	0.033	-0.216
-587.909	194.746	0.290	-0.440
-586.894	-132.866	-0.440	-0.056
-585.879	-25.424	-0.278	0.164
-584.865	-26.466	0.305	0.179
-583.850	-50.976	0.078	0.037
-582.836	9.505	-0.245	0.185
-581.821	660.982	0.014	-0.037
-580.806	-200.000	-0.033	-0.223
-579.792	38.298	-0.240	0.214
-578.777	-91.624	0.162	-0.046
-577.763	100.052	0.203	-0.235
-576.748	348.813	0.141	-0.279
-575.733	-49.768	0.152	-0.072
-574.719	6.498	-0.056	0.042
-573.704	710.632	0.084	0.223
-572.690	-31.292	0.283	0.159
-571.675	-200.000	-0.053	-0.231
-570.661	113.772	0.201	0.244
-569.646	-200.000	-0.016	-0.162
-568.631	-200.000	-0.030	0.246
-567.617	268.637	0.099	-0.173
-566.602	-79.155	-0.175	-0.059
-565.588	-168.075	0.297	-0.012
-564.573	166.650	0.118	0.167
-563.558	-200.000	0.003	0.117
-562.544	83.804	0.110	0.119
-561.529	190.262	0.156	0.234
-560.515	486.858	0.020	0.046
-559.500	541.678	-0.033	-0.079
-558.485	-81.693	0.138	-0.045
-557.471	-105.963	-0.089	-0.020
-556.456	443.793	-0.141	-0.308
-555.442	446.121	0.061	-0.133
-554.427	85.446	-0.149	-0.163
-553.412	754.119	-0.079	-0.213
-552.398	-57.470	-0.178	-0.078
-551.383	-76.335	0.059	0.021
-550.369	-42.717	0.122	0.062
-549.354	800.000	0.015	-0.058
-548.339	-97.507	0.231	-0.060
-547.325	-20.204	-0.254	0.156
-546.310	-19.247	0.169	-0.105
-545.296	-114.768	-0.251	-0.048
-544.281	47.663	-0.045	-0.041
-543.266	80.648	0.250	0.269
-542.252	-136.314	-0.281	-0.033
-541.237	-56.151	0.082	0.036
-540.223	193.446	0.046	0.069
-539.208	-77.487	-0.253	0.087
-538.193	198.249	-0.026	-0.040
-537.179	-69.635	0.116	0.044
-536.164	45.144	0.245	0.226
-535.150	-152.860	-0.103	0.007
-534.135	720.553	-0.036	-0.096
-533.121	800.000	0.025	-0.104
-532.106	-24.666	-0.176	0.104
-531.091	1.973	0.185	-0.133
-530.077	-40.375	-0.103	0.053
-529.062	800.000	0.058	-0.172
-528.048	-90.855	0.026	-0.008
-527.033	-114.301	-0.435	-0.083
-526.018	-102.541	-0.161	0.038
-525.004	-32.455	0.231	0.128
-523.989	-5.903	-0.181	0.123
-522.975	217.642	-0.127	0.202
-521.960	800.000	-0.055	0.182
-520.945	-117.692	-0.171	-0.031
-519.931	655.651	-0.113	0.290
-518.916	44.970	0.113	-0.104
-517.902	-200.000	0.016	-0.122
-516.887	-22.455	-0.072	0.043
-515.872	75.272	-0.208	-0.219
-514.858	-64.648	0.321	-0.130
-513.843	-200.000	0.261	-0.001
-512.829	-2.162	0.164	0.115
-511.814	-36.107	-0.130	-0.070
-510.799	456.289	0.108	-0.238
-509.785	287.157	0.177	-0.319
-508.770	439.424	-0.082	-0.178
-507.756	536.861	0.061	0.144
-506.741	92.995	-0.102	0.115
-505.726	155.035	-0.045	-0.062
-504.712	90.326	0.233	0.260
-503.697	800.000	-0.030	-0.108
-502.683	-62.054	-0.085	-0.035
-501.668	-134.629	-0.283	0.034
-500.653	-22.495	-0.108	-0.065
-499.639	-41.202	-0.339	0.174
-498.624	48.086	-0.108	-0.100
-497.610	87.321	-0.241	-0.265
-496.595	-126.651	0.346	0.051
-495.581	70.338	0.048	-0.049
-494.566	-105.555	-0.104	-0.023
-493.551	-79.253	0.091	0.031
-492.537	-129.204	-0.289	-0.040
-491.522	-147.050	-0.199	0.017
-490.508	-86.000	0.463	-0.142
-489.493	-60.590	-0.185	-0.078
-488.478	-200.000	-0.015	0.069
-487.464	-200.000	0.046	-0.211
-486.449	-200.000	-0.018	0.218
-485.435	800.000	0.065	0.269
-484.420	-80.416	0.304	-0.101
-483.405	0.410	0.151	-0.107
-482.391	-91.302	-0.207	0.059
-481.376	252.486	-0.098	-0.167
-480.362	-200.000	0.003	0.177
-479.347	72.551	0.209	0.217
-478.332	-200.000	0.113	-0.000
-477.318	-9.682	0.140	0.093
-476.303	-200.000	-0.037	0.194
-475.289	-156.580	0.123	0.008
-474.274	296.881	-0.075	0.138
-473.259	1.965	-0.130	-0.093
-472.245	-70.512	0.063	-0.024
-471.230	204.138	-0.135	0.208
-470.216	64.697	0.282	-0.283
-469.201	221.269	-0.109	0.173
-468.186	45.147	0.211	0.193
-467.172	204.598	-0.237	0.365
-466.157	-96.811	-0.101	0.026
-465.143	37.344	0.162	-0.143
-464.128	-127.383	0.199	0.029
-463.113	25.330	0.046	0.038
-462.099	143.042	0.116	-0.153
-461.084	86.247	-0.011	0.012
-460.070	-89.454	0.212	-0.062
-459.055	94.299	-0.197	-0.223
-458.040	19.672	0.242	-0.193
-457.026	135.957	0.063	0.081
-456.011	27.000	0.302	0.252
-454.997	-107.885	-0.334	0.072
-453.982	103.712	0.314	-0.367
-452.968	-200.000	0.037	-0.199
-451.953	57.124	-0.216	0.210
-450.938	-95.646	-0.379	-0.101
-449.924	800.000	-0.042	-0.117
-448.909	-117.325	-0.157	0.028
-447.895	-200.000	0.021	-0.113
-446.880	313.398	-0.066	0.123
-445.865	267.788	0.145	-0.253
-444.851	-45.962	0.202	-0.099
-443.836	-139.474	-0.357	0.038
-442.822	-200.000	-0.015	0.185
-441.807	800.000	-0.061	-0.191
-440.792	800.000	-0.023	-0.091
-439.778	382.419	0.019	0.038
-438.763	-25.156	0.222	0.131
-437.749	-46.945	-0.213	-0.103
-436.734	79.676	0.059	-0.063
-435.719	-39.199	-0.203	-0.106
-434.705	-87.081	0.235	-0.071
-433.690	2.917	-0.180	-0.130
-432.676	-64.351	0.253	0.102
-431.661	-39.861	-0.125	0.065
-430.646	256.966	-0.104	-0.178
-429.632	-91.589	-0.172	0.049
-428.617	-85.459	-0.350	0.108
-427.603	-104.266	-0.381	-0.088
-426.588	401.602	-0.080	-0.166
-425.573	42.325	-0.141	0.127
-424.559	-75.582	0.128	-0.045
-423.544	309.404	-0.212	0.393
-422.530	-135.683	0.071	-0.008
-421.515	20.190	0.196	0.157
-420.500	-33.769	-0.284	-0.156
-419.486	-52.372	0.334	0.154
-418.471	-30.475	-0.109	-0.061
-417.457	800.000	0.033	-0.101
-416.442	339.145	-0.080	0.154
-415.428	-200.000	-0.011	-0.203
-414.413	75.386	-0.193	-0.202
-413.398	800.000	0.058	-0.189
-412.384	-88.975	-0.230	0.068
-411.369	-99.757	0.260	0.065
-410.355	-200.000	-0.041	-0.212
-409.340	59.304	-0.155	0.152
-408.325	34.129	0.152	-0.132
-407.311	800.000	-0.092	0.293
-406.296	362.967	-0.104	-0.208
-405.282	130.202	-0.150	-0.190
-404.267	116.959	-0.112	-0.136
-403.252	-200.000	0.044	-0.238
-402.238	800.000	-0.029	-0.080
-401.223	479.026	-0.056	-0.127
-400.209	-30.518	0.140	-0.078
-399.194	800.000	0.031	0.116
-398.179	-36.993	0.436	-0.232
-397.165	40.915	0.159	0.143
-396.150	479.710	-0.111	-0.249
-395.136	-93.484	-0.042	-0.011
-394.121	-200.000	-0.004	-0.190
-393.106	-200.000	-0.047	0.295
-392.092	255.727	-0.100	0.170
-391.077	-12.421	0.079	-0.051
-390.063	800.000	0.075	-0.242
-389.048	145.359	-0.061	-0.081
-388.033	-178.058	0.128	0.003
-387.019	28.417	-0.095	0.080
-386.004	-107.608	-0.239	-0.052
-384.990	8.025	0.065	0.049
-383.975	-120.424	-0.125	0.021
-382.960	-88.836	0.147	-0.043
-381.946	260.323	0.119	0.204
-380.931	122.970	-0.203	-0.251
-379.917	-93.766	-0.147	0.040
-378.902	538.921	0.050	0.119
-377.888	-134.876	-0.376	0.045
-376.873	-134.771	-0.122	0.015
-375.858	-126.564	0.298	0.044
-374.844	372.013	0.016	0.032
-373.829	-51.040	-0.272	0.126
-372.815	-97.217	0.213	-0.055
-371.800	-150.927	-0.300	-0.022
-370.785	-37.723	0.148	-0.078
-369.771	-127.166	-0.229	0.033
-368.756	-144.187	-0.166	-0.015
-367.742	-152.769	-0.235	0.017
-366.727	153.270	-0.094	0.128
-365.712	-93.215	-0.226	-0.062
-364.698	-200.000	-0.020	-0.132
-363.683	201.122	0.093	0.142
-362.669	-106.368	-0.229	0.051
-361.654	-200.000	0.020	-0.251
-360.639	800.000	0.098	-0.374
-359.625	-70.330	-0.019	-0.007
-358.610	-64.559	-0.175	0.070
-357.596	-110.715	0.292	-0.060
-356.581	-141.392	-0.405	-0.041
-355.566	-111.339	0.143	-0.029
-354.552	265.779	0.076	-0.131
-353.537	4.232	-0.208	0.151
-352.523	800.000	-0.093	0.289
-351.508	-184.442	0.132	0.002
-350.493	50.162	-0.195	0.182
-349.479	143.103	-0.089	0.117
-348.464	-91.587	0.153	0.043
-347.450	359.085	0.161	0.318
-346.435	-103.280	0.227	-0.053
-345.420	27.355	-0.296	-0.246
-344.406	437.561	-0.033	0.071
-343.391	800.000	0.108	0.394
-342.377	-200.000	-0.008	0.259
-341.362	-39.655	-0.130	0.068
-340.348	55.283	0.078	0.075
-339.333	64.307	0.125	0.125
-338.318	-13.566	0.148	-0.095
-337.304	89.144	-0.315	-0.347
-336.289	275.894	-0.020	-0.035
-335.275	-200.000	0.008	-0.109
-334.260	157.312	-0.130	-0.177
-333.245	310.305	0.241	0.447
-332.231	-134.984	-0.206	0.025
-331.216	800.000	0.055	-0.170
-330.202	-35.867	0.071	-0.038
-329.187	800.000	-0.033	-0.112
-328.172	-162.424	0.124	0.006
-327.158	-117.059	0.151	0.027
-326.143	116.667	-0.129	0.156
-325.129	-76.699	0.159	-0.055
-324.114	-62.326	0.334	-0.138
-323.099	160.025	-0.060	-0.082
-322.085	-185.855	-0.173	0.003
-321.070	559.258	-0.049	-0.118
-320.056	800.000	0.074	-0.231
-319.041	203.099	-0.021	0.033
-318.026	-200.000	0.035	0.161
-317.012	800.000	-0.062	-0.249
-315.997	-62.052	-0.379	-0.156
-314.983	-29.169	-0.170	-0.096
-313.968	-101.539	0.051	0.012
-312.953	-200.000	-0.010	-0.176
-311.939	800.000	0.107	0.427
-310.924	114.234	-0.047	0.056
-309.910	255.487	0.212	0.358
-308.895	-121.852	0.043	-0.007
-307.880	117.055	0.058	0.070
-306.866	31.235	0.184	0.156
-305.851	440.297	-0.076	0.165
-304.837	46.726	-0.242	0.222
-303.822	-10.966	0.279	-0.182
-302.807	361.401	0.123	-0.244
-301.793	-200.000	0.000	0.087
-300.778	-46.082	-0.180	-0.087
-299.764	128.175	0.194	-0.244
-298.749	800.000	-0.032	-0.116
-297.735	-105.498	0.337	-0.076
-296.720	800.000	0.038	-0.116
-295.705	-96.954	0.385	0.100
-294.691	-200.000	0.030	-0.162
-293.676	800.000	0.028	0.113
-292.662	-200.000	0.025	-0.330
-291.647	-20.434	-0.219	-0.133
-290.632	-13.503	0.246	0.158
-289.618	-87.817	0.203	0.060
-288.603	-30.862	0.070	-0.039
-287.589	-11.994	-0.067	0.043
-286.574	-200.000	-0.047	0.271
-285.559	28.089	0.158	-0.132
-284.545	-134.479	0.146	-0.018
-283.530	487.241	0.079	0.178
-282.516	-81.760	-0.222	-0.072
-281.501	55.001	0.334	0.318
-280.486	-200.000	-0.036	0.444
-279.472	417.508	-0.175	0.369
-278.457	800.000	0.074	0.315
-277.443	-93.587	0.257	-0.070
-276.428	-91.579	0.124	-0.035
-275.413	-78.576	0.052	0.018
-274.399	263.114	0.204	-0.350
-273.384	-58.032	0.158	-0.068
-272.370	-26.432	-0.229	-0.133
-271.355	345.023	-0.066	0.128
-270.340	-200.000	-0.019	0.256
-269.326	166.289	-0.064	-0.090
-268.311	12.420	0.376	-0.286
-267.297	-200.000	0.038	-0.354
-266.282	-13.461	0.186	0.119
-265.267	-139.931	-0.396	0.041
-264.253	263.560	0.039	0.067
-263.238	-42.184	-0.274	-0.138
-262.224	270.963	-0.030	-0.052
-261.209	-166.153	-0.170	-0.007
-260.195	-200.000	0.019	0.288
-259.180	-134.418	-0.219	0.026
-258.165	-173.374	0.435	-0.013
-257.151	-19.720	-0.203	0.124
-256.136	171.159	-0.012	-0.016
-255.122	-41.100	-0.377	-0.192
-254.107	5.536	-0.143	-0.104
-253.092	-89.098	0.374	-0.109
-252.078	-170.290	-0.016	-0.001
-251.063	-200.000	0.036	-0.370
-250.049	800.000	-0.066	0.205
-249.034	125.131	0.113	0.141
-248.019	153.343	0.188	-0.253
-247.005	-78.136	-0.020	0.007
-245.990	350.233	0.247	0.481
-244.976	96.602	0.211	0.238
-243.961	800.000	-0.041	0.111
-242.946	800.000	-0.023	-0.085
-241.932	-200.000	-0.025	0.113
-240.917	-74.686	-0.142	-0.050
-239.903	-200.000	-0.037	-0.229
-238.888	344.807	0.140	0.270
-237.873	-200.000	-0.029	-0.158
-236.859	-200.000	-0.040	-0.223
-235.844	292.493	-0.095	-0.170
-234.830	223.035	-0.123	-0.196
-233.815	800.000	0.034	-0.095
-232.800	-117.813	0.178	-0.032
-231.786	-152.098	-0.384	0.027
-230.771	-200.000	0.006	-0.031
-229.757	-77.873	-0.276	-0.094
-228.742	45.255	-0.144	-0.131
-227.727	-4.240	-0.185	0.126
-226.713	-36.372	0.150	0.080
-225.698	22.225	0.154	0.124
-224.684	785.948	-0.103	0.278
-223.669	-135.646	0.341	-0.040
-222.655	97.763	-0.202	0.228
-221.640	-182.111	-0.069	-0.001
-220.625	192.895	0.083	0.124
-219.611	31.906	0.227	-0.192
-218.596	-158.504	0.222	0.013
-217.582	-200.000	0.014	0.157
-216.567	332.148	0.116	0.220
-215.552	118.645	0.039	-0.047
-214.538	1.084	-0.196	-0.139
-213.523	-200.000	0.001	0.191
-212.509	-56.843	-0.356	-0.155
-211.494	-122.757	-0.388	0.062
-210.479	32.540	-0.202	0.172
-209.465	95.536	0.215	0.241
-208.450	-79.213	-0.428	-0.143
-207.436	-200.000	0.006	-0.227
-206.421	277.354	0.071	-0.125
-205.406	800.000	0.022	-0.086
-204.392	-200.000	0.006	-0.071
-203.377	606.923	0.066	-0.161
-202.363	387.903	0.092	-0.187
-201.348	-60.158	0.137	-0.057
-200.333	-73.980	0.386	-0.138
-199.319	-200.000	0.034	0.430
-198.304	-42.435	0.179	0.090
-197.290	57.325	0.071	-0.068
-196.275	800.000	-0.049	0.139
-195.260	-200.000	0.034	0.293
-194.246	800.000	0.082	-0.258
-193.231	467.739	-0.146	-0.322
-192.217	800.000	-0.059	0.174
-191.202	-200.000	-0.007	-0.122
-190.187	-66.009	0.221	0.087
-189.173	-200.000	0.118	-0.000
-188.158	58.033	0.061	-0.059
-187.144	-40.658	0.231	-0.118
-186.129	-153.932	0.294	-0.020
-185.114	-44.625	0.360	-0.177
-184.100	-127.301	0.069	0.010
-183.085	37.051	0.322	0.281
-182.071	-166.255	0.139	-0.006
-181.056	800.000	-0.092	-0.275
-180.042	800.000	-0.082	-0.229
-179.027	-8.739	-0.208	0.137
-178.012	-125.632	-0.027	0.004
-176.998	331.277	-0.086	0.163
-175.983	800.000	-0.059	-0.165
-174.969	800.000	-0.057	0.198
-173.954	94.099	0.043	0.048
-172.939	800.000	-0.030	0.123
-171.925	-25.847	-0.066	0.038
-170.910	800.000	0.132	-0.412
-169.896	800.000	-0.013	-0.050
-168.881	411.180	0.062	-0.129
-167.866	-200.000	0.017	-0.393
-166.852	79.649	0.102	0.108
-165.837	20.003	-0.056	0.045
-164.823	800.000	0.048	0.203
-163.808	-105.080	0.054	0.012
-162.793	-22.936	0.237	0.141
-161.779	-71.377	0.285	0.105
-160.764	-200.000	0.010	-0.067
-159.750	487.924	0.092	0.207
-158.735	-100.186	0.282	0.069
-157.720	-71.139	-0.120	-0.044
-156.706	70.850	0.102	0.104
-155.691	-128.371	0.211	-0.030
-154.677	-104.860	0.079	-0.018
-153.662	-38.344	-0.474	0.247
-152.647	198.668	0.203	0.305
-151.633	800.000	-0.061	-0.245
-150.618	-164.405	0.282	0.013
-149.604	-171.754	-0.208	0.007
-148.589	800.000	-0.041	0.139
-147.574	-200.000	0.012	-0.342
-146.560	105.554	0.304	-0.353
-145.545	187.859	-0.134	0.197
-144.531	800.000	0.114	0.320
-143.516	-200.000	-0.068	0.297
-142.502	530.138	-0.106	0.245
-141.487	-43.238	-0.140	0.069
-140.472	-61.728	-0.094	-0.039
-139.458	217.743	-0.023	0.036
-138.443	532.591	-0.193	-0.448
-137.429	-200.000	0.019	-0.085
-136.414	148.361	0.181	0.241
-135.399	800.000	0.062	0.201
-134.385	-81.314	0.064	-0.021
-133.370	48.429	0.143	-0.132
-132.356	-200.000	0.001	-0.076
-131.341	149.299	-0.159	0.211
-130.326	-152.284	-0.166	0.012
-129.312	31.269	0.298	0.251
-128.297	629.346	-0.068	-0.168
-127.283	47.186	0.104	0.095
-126.268	-98.864	0.067	0.017
-125.253	-200.000	0.048	-0.378
-124.239	-200.000	0.113	-0.492
-123.224	-200.000	-0.016	0.133
-122.210	800.000	0.075	-0.295
-121.195	-17.616	0.215	0.133
