DTS Sentinel unit serial number:	SN413079Multiplexer serial number:	ORYXHardware model number:	OX4-SRSoftware version number:	ORYX F/W v4.00 Oryx Data Collector v3.7.2.0data status	okinstallation	princeton_trtdifferential loss correction	single-endedforward channel	channel 1reverse channel	N/Adate	2019/09/16time	03:18:35forward acquisition time	60.00reverse acquisition time	0.00gamma	496.2192k internal	0.2330k external	0.2330temperature offset calibration	0.9980default loss term (dB/km)	0.3790temperature slope calibration	1.0000multiplexer offset coefficient	1.0000multiplexer slope coefficient	1.0000fibre end	0.00T internal ref (°C)	27.75T ext. ref 1 (°C)	10.51T ext. ref 2 (°C)	21.90length (m)	temperature (°C)	Stokes	anti-Stokes-747.200	-200.000	0.056	0.265
-746.185	107.006	-0.192	-0.230
-745.171	-117.381	-0.348	0.063
-744.156	247.200	0.134	0.228
-743.142	-200.000	0.017	0.083
-742.127	35.735	-0.142	0.126
-741.112	800.000	0.098	0.405
-740.098	-60.608	0.102	-0.043
-739.083	165.828	0.146	0.208
-738.069	80.613	0.113	0.123
-737.054	-70.708	0.131	0.050
-736.039	-142.320	-0.262	0.026
-735.025	800.000	-0.024	-0.074
-734.010	-200.000	-0.009	-0.434
-732.996	-79.865	0.372	0.126
-731.981	800.000	0.063	-0.253
-730.966	-7.365	-0.142	0.097
-729.952	800.000	0.038	-0.110
-728.937	-60.808	-0.090	0.038
-727.923	-200.000	0.043	0.294
-726.908	-93.898	-0.324	0.090
-725.894	800.000	-0.104	-0.317
-724.879	-91.675	-0.043	0.012
-723.864	20.513	0.264	-0.215
-722.850	-94.230	-0.330	-0.091
-721.835	-78.704	-0.172	0.059
-720.821	163.659	-0.188	-0.266
-719.806	617.933	0.085	-0.215
-718.791	800.000	0.159	-0.474
-717.777	-200.000	0.012	-0.065
-716.762	-126.770	-0.392	0.058
-715.748	44.965	-0.251	0.233
-714.733	142.567	0.024	0.032
-713.718	-163.719	-0.266	-0.013
-712.704	98.495	-0.178	-0.206
-711.689	-25.473	-0.260	-0.154
-710.675	121.447	0.112	-0.140
-709.660	57.743	0.157	-0.155
-708.645	-145.018	-0.084	0.008
-707.631	-126.052	-0.159	0.024
-706.616	-200.000	0.057	0.253
-705.602	440.570	0.109	0.240
-704.587	87.111	-0.102	0.114
-703.572	800.000	0.032	0.134
-702.558	-200.000	0.037	-0.228
-701.543	5.764	0.124	-0.092
-700.529	-200.000	-0.095	-0.439
-699.514	-200.000	-0.018	0.238
-698.499	5.891	0.163	-0.121
-697.485	340.343	0.142	-0.278
-696.470	800.000	0.024	0.095
-695.456	361.071	-0.199	-0.401
-694.441	800.000	0.062	-0.188
-693.426	-1.464	-0.124	0.088
-692.412	68.881	-0.114	-0.117
-691.397	-200.000	0.003	-0.279
-690.383	-188.964	-0.301	0.004
-689.368	-20.738	-0.332	-0.204
-688.354	-160.197	0.239	0.013
-687.339	-200.000	0.024	-0.291
-686.324	-55.943	0.359	-0.161
-685.310	-46.526	-0.447	-0.220
-684.295	159.022	0.069	-0.097
-683.281	-0.102	0.236	-0.169
-682.266	-89.664	-0.072	-0.021
-681.251	800.000	0.030	-0.097
-680.237	150.423	0.228	-0.311
-679.222	-2.932	0.115	-0.080
-678.208	-93.186	-0.094	0.026
-677.193	800.000	0.095	0.301
-676.178	528.047	-0.162	-0.383
-675.164	58.787	-0.317	-0.312
-674.149	-70.652	0.225	-0.085
-673.135	-13.225	-0.012	-0.008
-672.120	243.334	0.110	0.185
-671.105	-52.659	0.116	0.054
-670.091	-60.628	-0.078	0.033
-669.076	184.155	-0.242	-0.360
-668.062	38.177	-0.062	0.055
-667.047	-22.062	-0.046	0.028
-666.032	-140.092	-0.327	0.035
-665.018	38.054	0.181	-0.161
-664.003	106.187	0.101	-0.120
-662.989	-86.840	0.299	-0.092
-661.974	800.000	0.044	-0.144
-660.959	121.758	-0.204	-0.255
-659.945	-17.386	0.136	0.086
-658.930	154.152	-0.154	0.212
-657.916	-125.056	-0.169	-0.026
-656.901	-172.832	0.196	0.006
-655.886	-200.000	-0.022	-0.181
-654.872	-114.548	-0.025	-0.005
-653.857	-124.557	0.248	-0.039
-652.843	-200.000	0.027	0.335
-651.828	43.296	-0.059	0.054
-650.814	64.054	-0.196	0.197
-649.799	-200.000	0.025	0.318
-648.784	-106.849	0.136	-0.030
-647.770	-24.938	0.240	-0.143
-646.755	-200.000	-0.083	-0.370
-645.741	-76.815	-0.037	-0.013
-644.726	330.900	-0.108	-0.208
-643.711	-139.588	0.245	-0.026
-642.697	279.692	-0.095	0.170
-641.682	800.000	-0.080	0.254
-640.668	-84.334	0.290	-0.092
-639.653	-109.562	-0.069	0.015
-638.638	-46.381	-0.258	0.127
-637.624	-5.524	0.236	0.162
-636.609	26.288	0.091	0.076
-635.595	90.200	0.049	0.055
-634.580	-200.000	-0.031	-0.194
-633.565	-200.000	0.012	-0.095
-632.551	800.000	0.048	-0.143
-631.536	510.884	-0.112	0.262
-630.522	109.621	-0.113	0.136
-629.507	70.141	-0.100	-0.103
-628.492	14.348	-0.206	0.161
-627.478	-35.576	-0.171	0.093
-626.463	800.000	0.082	0.229
-625.449	74.828	0.088	0.093
-624.434	-65.906	-0.393	-0.157
-623.419	334.173	0.045	-0.087
-622.405	194.234	-0.033	0.049
-621.390	-14.835	0.147	-0.095
-620.376	-180.735	-0.238	-0.005
-619.361	-53.789	0.244	-0.112
-618.346	70.611	0.107	-0.111
-617.332	-200.000	-0.049	-0.317
-616.317	24.156	-0.248	-0.205
-615.303	2.873	-0.166	-0.121
-614.288	264.630	-0.115	-0.200
-613.273	53.878	-0.105	-0.101
-612.259	328.771	-0.069	-0.132
-611.244	-200.000	0.008	0.042
-610.230	-111.317	-0.316	-0.065
-609.215	139.979	0.224	0.295
-608.201	71.116	0.345	0.358
-607.186	-100.721	-0.370	0.091
-606.171	81.598	-0.201	0.218
-605.157	800.000	-0.094	-0.272
-604.142	748.533	-0.036	-0.098
-603.128	-200.000	0.010	0.047
-602.113	-116.824	0.161	-0.030
-601.098	408.461	0.035	0.074
-600.084	-200.000	-0.005	-0.091
-599.069	-200.000	-0.077	-0.361
-598.055	-57.582	0.090	0.040
-597.040	-200.000	-0.002	-0.012
-596.025	800.000	-0.040	-0.134
-595.011	-115.879	-0.046	0.009
-593.996	54.971	0.112	0.109
-592.982	61.246	-0.121	-0.120
-591.967	471.853	-0.074	-0.167
-590.952	397.033	-0.149	-0.311
-589.938	314.000	0.110	0.208
-588.923	-12.511	0.150	-0.098
-587.909	-66.792	-0.150	-0.059
-586.894	-8.112	0.082	-0.055
-585.879	-94.327	0.394	-0.108
-584.865	-120.619	-0.130	0.022
-583.850	117.336	-0.171	-0.211
-582.836	29.164	-0.112	-0.095
-581.821	-13.520	0.122	0.079
-580.806	96.656	-0.105	-0.121
-579.792	800.000	0.047	-0.136
-578.777	48.461	0.257	0.241
-577.763	-166.323	-0.230	0.010
-576.748	800.000	0.049	-0.158
-575.733	88.894	-0.304	-0.339
-574.719	-117.102	0.053	0.010
-573.704	8.834	0.084	0.063
-572.690	59.029	-0.277	0.273
-571.675	30.405	-0.157	0.134
-570.661	-75.956	0.098	-0.034
-569.646	96.883	0.083	-0.095
-568.631	247.580	-0.170	-0.288
-567.617	367.725	-0.123	0.249
-566.602	-117.109	-0.256	0.047
-565.588	58.709	-0.286	-0.281
-564.573	324.727	0.177	-0.338
-563.558	-61.989	0.196	-0.082
-562.544	151.012	-0.119	-0.162
-561.529	-78.606	0.146	-0.050
-560.515	-110.337	0.144	-0.030
-559.500	63.076	0.180	-0.181
-558.485	-107.238	-0.079	-0.017
-557.471	156.603	-0.090	-0.124
-556.456	-74.432	0.107	0.039
-555.442	-36.911	-0.132	0.071
-554.427	-200.000	-0.032	0.165
-553.412	-11.568	0.280	-0.184
-552.398	36.930	-0.230	0.203
-551.383	136.645	0.100	0.130
-550.369	-200.000	-0.014	-0.270
-549.354	-200.000	-0.015	0.148
-548.339	598.246	-0.097	0.239
-547.325	337.333	0.119	0.232
-546.310	-200.000	0.035	-0.209
-545.296	101.335	0.078	0.091
-544.281	-200.000	-0.017	0.380
-543.266	800.000	-0.041	-0.152
-542.252	540.300	0.070	-0.166
-541.237	-14.165	-0.085	-0.054
-540.223	188.410	0.096	0.144
-539.208	126.301	-0.218	-0.276
-538.193	154.778	-0.162	0.222
-537.179	-86.041	-0.136	-0.042
-536.164	128.358	-0.063	-0.080
-535.150	800.000	-0.032	0.133
-534.135	-162.748	-0.190	0.009
-533.121	111.751	-0.071	0.085
-532.106	-46.296	-0.178	0.087
-531.091	-21.673	0.104	0.063
-530.077	66.907	-0.121	0.123
-529.062	201.973	0.064	-0.099
-528.048	-17.823	-0.278	0.174
-527.033	800.000	0.162	0.475
-526.018	-102.031	0.142	0.034
-525.004	-28.287	0.219	0.126
-523.989	-200.000	-0.023	0.170
-522.975	-86.948	-0.162	0.049
-521.960	366.304	0.068	0.136
-520.945	115.753	-0.120	0.146
-519.931	534.256	-0.177	-0.418
-518.916	-200.000	0.034	0.253
-517.902	-200.000	-0.074	0.329
-516.887	-25.903	-0.065	0.038
-515.872	-12.772	0.444	-0.289
-514.858	75.752	0.135	-0.142
-513.843	800.000	-0.064	0.249
-512.829	-56.749	0.126	-0.056
-511.814	-200.000	0.038	0.480
-510.799	800.000	0.034	0.123
-509.785	-93.453	0.160	0.044
-508.770	-168.960	-0.258	-0.010
-507.756	537.737	0.041	0.097
-506.741	-137.490	-0.329	-0.037
-505.726	112.134	-0.074	0.089
-504.712	-111.697	-0.090	-0.018
-503.697	-141.991	-0.444	0.044
-502.683	244.200	-0.040	0.068
-501.668	-42.517	0.335	-0.170
-500.653	574.464	-0.062	-0.150
-499.639	35.345	0.292	-0.255
-498.624	-106.327	-0.091	0.020
-497.610	800.000	0.092	-0.288
-496.595	-200.000	0.001	0.152
-495.581	-100.524	0.445	-0.110
-494.566	102.603	-0.197	0.230
-493.551	9.160	-0.291	0.219
-492.537	47.217	0.195	0.181
-491.522	-32.192	0.176	0.098
-490.508	-46.866	-0.312	0.152
-489.493	-56.715	0.226	0.100
-488.478	332.756	0.032	-0.062
-487.464	-76.881	0.079	-0.028
-486.449	0.079	0.191	-0.136
-485.435	-200.000	0.081	0.412
-484.420	-72.298	-0.079	-0.029
-483.405	-144.159	0.375	0.035
-482.391	800.000	0.062	0.205
-481.376	-1.312	0.248	0.174
-480.362	-87.250	-0.091	0.028
-479.347	-14.939	-0.176	-0.113
-478.332	45.775	-0.131	-0.121
-477.318	-84.342	0.099	0.031
-476.303	117.614	-0.035	0.042
-475.289	-94.946	-0.335	0.090
-474.274	-71.605	-0.211	0.078
-473.259	-124.543	0.190	0.029
-472.245	211.931	0.059	-0.093
-471.230	-68.099	-0.466	-0.181
-470.216	20.818	0.190	0.153
-469.201	800.000	0.045	0.173
-468.186	520.368	0.017	-0.039
-467.172	800.000	0.022	-0.074
-466.157	252.720	-0.124	0.211
-465.143	76.274	-0.312	0.329
-464.128	-33.277	-0.048	0.026
-463.113	184.296	0.108	-0.159
-462.099	23.146	0.323	0.264
-461.084	-73.977	-0.207	0.075
-460.070	183.882	-0.235	-0.346
-459.055	800.000	-0.052	0.146
-458.040	50.405	0.100	-0.094
-457.026	-86.979	0.057	0.017
-456.011	191.400	0.186	-0.279
-454.997	-141.870	-0.269	0.027
-453.982	14.632	0.064	-0.050
-452.968	-57.307	0.052	0.023
-451.953	-200.000	-0.023	-0.132
-450.938	33.821	0.132	-0.115
-449.924	42.363	-0.537	-0.486
-448.909	-162.710	0.089	-0.004
-447.895	158.263	-0.149	-0.206
-446.880	800.000	0.026	0.079
-445.865	-200.000	0.036	-0.234
-444.851	800.000	-0.077	-0.244
-443.836	-200.000	0.047	-0.274
-442.822	800.000	-0.022	0.076
-441.807	-200.000	-0.028	-0.150
-440.792	-159.005	-0.319	-0.018
-439.778	23.583	-0.134	-0.110
-438.763	134.130	0.092	0.119
-437.749	47.694	0.059	-0.055
-436.734	-84.967	0.056	0.017
-435.719	-68.523	-0.156	0.060
-434.705	-42.567	-0.155	-0.078
-433.690	164.793	0.072	0.101
-432.676	274.070	0.112	-0.197
-431.661	-200.000	-0.005	0.038
-430.646	-23.923	0.106	0.063
-429.632	158.882	-0.084	0.116
-428.617	-200.000	0.041	-0.298
-427.603	232.261	-0.100	-0.163
-426.588	80.421	-0.279	0.298
-425.573	-90.275	-0.199	0.057
-424.559	-200.000	0.041	0.386
-423.544	-28.203	-0.067	0.038
-422.530	29.533	0.128	-0.108
-421.515	800.000	-0.048	-0.132
-420.500	-60.810	0.161	0.068
-419.486	134.943	0.158	-0.204
-418.471	52.185	-0.205	0.194
-417.457	-23.574	-0.084	-0.050
-416.442	-200.000	-0.005	0.121
-415.428	-84.139	0.234	0.074
-414.413	-112.250	0.522	-0.104
-413.398	178.422	0.127	-0.185
-412.384	21.569	0.036	-0.029
-411.369	-135.179	0.265	-0.032
-410.355	-200.000	0.042	-0.186
-409.340	-91.756	0.149	0.042
-408.325	27.774	0.130	-0.109
-407.311	513.621	-0.098	-0.228
-406.296	-200.000	0.012	0.071
-405.282	741.406	0.081	-0.217
-404.267	308.472	0.065	0.120
-403.252	678.006	-0.081	0.210
-402.238	526.323	-0.106	-0.249
-401.223	-200.000	0.092	-0.427
-400.209	800.000	0.104	0.311
-399.194	730.874	0.088	-0.233
-398.179	-110.447	-0.116	-0.024
-397.165	-114.565	-0.190	0.036
-396.150	-83.176	-0.257	-0.082
-395.136	22.667	0.401	0.326
-394.121	-200.000	0.004	-0.018
-393.106	-125.937	0.175	0.026
-392.092	-43.197	-0.163	0.082
-391.077	-122.862	0.344	0.055
-390.063	-168.075	0.424	-0.016
-389.048	-114.893	-0.312	0.059
-388.033	20.591	-0.071	0.057
-387.019	314.240	-0.083	-0.155
-386.004	800.000	0.019	0.071
-384.990	-49.319	0.320	-0.152
-383.975	-177.339	-0.446	0.011
-382.960	800.000	0.009	0.028
-381.946	-74.284	-0.089	0.032
-380.931	-67.806	0.090	0.035
-379.917	-200.000	-0.038	0.263
-378.902	27.258	-0.287	0.240
-377.888	-137.514	0.203	-0.023
-376.873	-103.594	0.269	-0.063
-375.858	138.140	-0.153	0.199
-374.844	-180.635	0.308	0.006
-373.829	-82.538	0.102	-0.033
-372.815	149.182	-0.170	0.228
-371.800	-137.104	0.155	0.018
-370.785	-156.292	-0.389	0.024
-369.771	31.009	-0.252	-0.214
-368.756	-107.917	-0.246	0.053
-367.742	474.763	-0.167	-0.375
-366.727	-61.261	0.242	-0.101
-365.712	-11.208	0.218	0.142
-364.698	74.108	-0.201	0.210
-363.683	258.118	-0.097	-0.166
-362.669	-18.876	0.066	0.041
-361.654	-109.202	0.254	-0.053
-360.639	-200.000	0.022	-0.276
-359.625	-108.419	0.167	0.036
-358.610	82.501	0.158	0.170
-357.596	-200.000	-0.023	0.261
-356.581	-200.000	0.002	0.061
-355.566	655.151	0.069	0.176
-354.552	-138.447	0.276	0.030
-353.537	83.451	-0.372	0.402
-352.523	-96.783	0.282	-0.074
-351.508	800.000	0.013	0.037
-350.493	150.403	-0.117	0.157
-349.479	196.431	-0.127	-0.191
-348.464	673.896	0.110	0.283
-347.450	-34.066	0.222	-0.121
-346.435	-44.523	-0.355	-0.176
-345.420	-200.000	0.008	0.039
-344.406	402.356	-0.099	0.206
-343.391	217.591	-0.203	0.321
-342.377	186.852	0.098	-0.145
-341.362	-200.000	-0.007	0.147
-340.348	-178.426	-0.175	0.004
-339.333	-200.000	0.018	-0.260
-338.318	-200.000	0.013	-0.110
-337.304	-116.685	-0.265	-0.048
-336.289	-137.036	-0.318	-0.036
-335.275	79.339	0.070	-0.075
-334.260	-200.000	0.008	0.274
-333.245	-200.000	0.032	0.141
-332.231	-87.302	0.190	0.057
-331.216	-90.094	-0.126	0.036
-330.202	277.426	0.215	-0.379
-329.187	-200.000	-0.019	-0.365
-328.172	-23.373	-0.114	-0.068
-327.158	-55.089	0.115	0.051
-326.143	-164.405	0.037	0.002
-325.129	162.749	-0.150	-0.209
-324.114	800.000	0.086	0.239
-323.099	800.000	0.003	-0.014
-322.085	179.567	-0.071	-0.103
-321.070	182.265	0.027	-0.040
-320.056	9.508	0.064	-0.048
-319.041	18.961	0.127	-0.101
-318.026	470.160	0.138	0.307
-317.012	-200.000	0.007	0.162
-315.997	800.000	-0.012	0.048
-314.983	800.000	0.035	0.123
-313.968	-200.000	-0.030	-0.319
-312.953	-48.371	-0.310	-0.148
-311.939	-105.326	0.072	-0.016
-310.924	-11.038	-0.122	0.079
-309.910	20.267	0.169	-0.135
-308.895	34.600	0.076	-0.066
-307.880	-14.279	-0.100	0.064
-306.866	-95.496	-0.053	0.014
-305.851	40.281	0.149	0.133
-304.837	577.504	0.079	0.191
-303.822	-69.266	-0.260	0.099
-302.807	-178.621	0.291	0.007
-301.793	-31.232	0.141	0.078
-300.778	-17.681	-0.167	0.104
-299.764	105.928	0.161	-0.188
-298.749	-80.151	-0.033	0.011
-297.735	-200.000	-0.068	0.653
-296.720	224.611	-0.205	-0.328
-295.705	-12.012	-0.340	-0.221
-294.691	-134.643	0.147	-0.018
-293.676	-35.119	-0.264	-0.142
-292.662	-124.328	-0.125	0.019
-291.647	-200.000	-0.014	0.126
-290.632	-122.904	0.294	0.047
-289.618	800.000	0.032	0.139
-288.603	-108.004	0.022	-0.005
-287.589	44.992	0.076	-0.069
-286.574	-200.000	-0.050	-0.394
-285.559	134.860	0.104	0.133
-284.545	753.514	0.089	0.237
-283.530	-33.906	0.222	0.121
-282.516	558.646	0.054	0.129
-281.501	549.886	0.081	0.192
-280.486	800.000	-0.128	0.403
-279.472	800.000	-0.074	0.214
-278.457	346.817	0.069	0.134
-277.443	25.234	0.162	0.133
-276.428	-123.762	0.243	-0.038
-275.413	-200.000	0.001	-0.222
-274.399	-131.978	-0.091	0.012
-273.384	-110.738	0.092	-0.019
-272.370	214.765	-0.132	-0.207
-271.355	-123.676	0.164	-0.026
-270.340	497.150	0.050	0.114
-269.326	-19.115	0.254	0.156
-268.311	-84.865	-0.038	-0.012
-267.297	-114.703	-0.567	0.107
-266.282	-88.193	0.445	-0.132
-265.267	178.761	-0.100	-0.145
-264.253	414.926	-0.133	0.279
-263.238	7.796	-0.193	0.143
-262.224	-200.000	0.039	-0.213
-261.209	261.047	0.110	-0.188
-260.195	57.777	-0.227	-0.220
-259.180	69.815	-0.051	-0.052
-258.165	244.261	0.111	0.184
-257.151	-114.958	-0.099	-0.019
-256.136	-136.818	-0.185	0.021
-255.122	7.492	-0.174	-0.129
-254.107	-12.079	-0.256	-0.165
-253.092	-20.465	-0.073	-0.044
-252.078	-121.550	0.192	0.032
-251.063	-16.668	0.199	-0.125
-250.049	800.000	-0.045	-0.149
-249.034	-53.241	-0.243	0.110
-248.019	176.342	0.178	-0.255
-247.005	800.000	0.067	-0.290
-245.990	89.247	-0.204	-0.224
-244.976	58.888	-0.235	-0.228
-243.961	165.387	-0.186	-0.259
-242.946	-114.875	-0.396	-0.074
-241.932	800.000	0.138	0.395
-240.917	-104.800	0.235	-0.053
-239.903	-200.000	0.015	0.246
-238.888	427.834	0.073	0.155
-237.873	-89.046	-0.206	0.060
-236.859	32.803	0.476	0.406
-235.844	-1.235	-0.103	0.072
-234.830	-52.683	0.191	-0.087
-233.815	193.190	0.348	-0.519
-232.800	79.739	-0.166	0.176
-231.786	-80.350	0.096	0.032
-230.771	-200.000	0.014	-0.072
-229.757	800.000	0.074	0.254
-228.742	-4.065	-0.132	0.091
-227.727	-37.050	0.270	0.142
-226.713	-200.000	-0.070	-0.327
-225.698	-200.000	0.023	-0.309
-224.684	194.838	-0.096	0.144
-223.669	-200.000	0.009	0.272
-222.655	-200.000	-0.076	0.452
-221.640	-155.022	-0.223	-0.014
-220.625	43.270	0.225	0.202
-219.611	8.216	-0.076	0.056
-218.596	-74.495	0.405	-0.144
-217.582	147.019	0.168	-0.223
-216.567	32.130	-0.108	-0.092
-215.552	-200.000	0.020	-0.591
-214.538	308.206	0.032	-0.059
-213.523	-200.000	-0.010	-0.167
-212.509	-200.000	-0.040	0.207
-211.494	-200.000	0.005	-0.081
-210.479	-11.396	-0.240	0.156
-209.465	12.200	-0.080	-0.061
-208.450	-134.032	-0.252	0.031
-207.436	800.000	-0.059	0.192
-206.421	-145.294	0.058	-0.005
-205.406	-200.000	0.014	-0.266
-204.392	-72.654	0.094	0.034
-203.377	-146.899	0.211	-0.018
-202.363	-52.196	-0.064	0.029
-201.348	-96.049	0.462	-0.121
-200.333	23.595	0.332	0.269
-199.319	67.413	0.198	0.199
-198.304	20.279	0.158	0.126
-197.290	-65.339	-0.397	0.157
-196.275	800.000	0.007	0.020
-195.260	-200.000	-0.032	-0.216
-194.246	-46.623	0.095	-0.046
-193.231	235.665	-0.146	0.238
-192.217	-6.010	0.074	0.050
-191.202	-54.181	-0.031	0.014
-190.187	-38.184	0.216	-0.113
-189.173	114.645	-0.083	0.099
-188.158	256.327	-0.146	-0.248
-187.144	116.546	0.240	0.289
-186.129	103.717	-0.220	0.255
-185.114	66.093	-0.194	-0.194
-184.100	67.397	0.183	-0.184
-183.085	-200.000	0.098	-0.449
-182.071	-179.460	-0.345	0.007
-181.056	-11.012	0.088	-0.057
-180.042	-133.807	0.466	-0.057
-179.027	-98.346	-0.036	0.009
-178.012	800.000	0.038	0.150
-176.998	800.000	-0.065	0.194
-175.983	12.054	-0.091	-0.069
-174.969	-144.272	0.479	-0.044
-173.954	8.857	0.235	0.174
-172.939	-132.770	-0.086	0.011
-171.925	449.108	-0.046	-0.100
-170.910	42.490	0.144	-0.129
-169.896	57.442	0.080	-0.077
-168.881	17.072	0.081	0.063
-167.866	10.955	-0.178	0.134
-166.852	44.440	-0.251	-0.227
-165.837	7.584	0.183	-0.135
-164.823	-200.000	0.012	-0.162
-163.808	18.445	0.135	-0.106
-162.793	231.559	-0.205	0.330
-161.779	-90.171	0.283	0.081
-160.764	29.054	-0.133	-0.111
-159.750	-200.000	-0.023	0.159
-158.735	-102.611	0.111	-0.026
-157.720	-200.000	0.015	0.118
-156.706	-200.000	0.059	-0.497
-155.691	332.340	0.109	0.207
-154.677	110.362	-0.080	0.094
-153.662	130.617	0.128	-0.161
-152.647	-112.713	0.166	-0.032
-151.633	-148.055	0.265	-0.022
-150.618	-70.678	-0.297	0.110
-149.604	-200.000	0.189	0.000
-148.589	-60.297	0.239	-0.100
-147.574	-200.000	0.038	0.229
-146.560	138.882	0.073	-0.094
-145.545	-105.313	0.262	-0.059
-144.531	-200.000	0.011	0.322
-143.516	-93.786	0.256	0.069
-142.502	374.536	0.043	0.086
-141.487	-121.317	0.026	-0.004
-140.472	800.000	-0.111	-0.316
-139.458	-200.000	0.036	-0.294
-138.443	-46.660	-0.187	-0.090
-137.429	-123.211	-0.063	-0.010
-136.414	-200.000	0.016	-0.071
-135.399	51.423	-0.091	-0.085
-134.385	362.619	0.119	-0.236
-133.370	46.632	0.446	-0.407
-132.356	-200.000	-0.025	-0.273
-131.341	-200.000	0.069	-0.347
-130.326	800.000	-0.112	0.310
-129.312	195.476	-0.160	0.239
-128.297	-11.530	-0.200	-0.129
-127.283	-128.539	0.142	0.020
-126.268	-104.256	0.080	0.018
-125.253	49.809	0.358	-0.331
-124.239	124.869	0.428	-0.530
-123.224	-200.000	-0.001	0.213
-122.210	-200.000	0.011	-0.304
-121.195	-105.275	0.319	-0.071
-120.180	-132.955	0.269	-0.034
