DTS Sentinel unit serial number:	SN413079Multiplexer serial number:	ORYXHardware model number:	OX4-SRSoftware version number:	ORYX F/W v4.00 Oryx Data Collector v3.7.2.0data status	okinstallation	princeton_trtdifferential loss correction	single-endedforward channel	channel 1reverse channel	N/Adate	2019/09/15time	16:46:35forward acquisition time	60.00reverse acquisition time	0.00gamma	496.2192k internal	0.2292k external	0.2292temperature offset calibration	0.9930default loss term (dB/km)	0.3790temperature slope calibration	1.0000multiplexer offset coefficient	1.0000multiplexer slope coefficient	1.0000fibre end	0.00T internal ref (°C)	44.25T ext. ref 1 (°C)	5.73T ext. ref 2 (°C)	40.19length (m)	temperature (°C)	Stokes	anti-Stokes-747.200	322.030	-0.086	-0.168
-746.185	-200.000	0.013	0.199
-745.171	62.906	-0.150	-0.153
-744.156	149.114	-0.086	0.119
-743.142	800.000	-0.130	-0.411
-742.127	96.841	0.109	0.128
-741.112	-10.998	0.094	0.064
-740.098	-40.826	-0.276	-0.146
-739.083	-36.697	0.234	0.129
-738.069	-48.094	-0.244	-0.120
-737.054	287.570	0.026	0.048
-736.039	-10.143	0.230	0.156
-735.025	-113.436	-0.061	0.012
-734.010	-200.000	-0.004	-0.458
-732.996	101.596	0.222	-0.264
-731.981	-29.735	-0.366	0.214
-730.966	-200.000	0.010	0.391
-729.952	-141.960	0.118	-0.012
-728.937	-20.609	-0.144	-0.090
-727.923	-200.000	-0.036	-0.294
-726.908	234.192	-0.029	-0.048
-725.894	-92.956	0.152	-0.043
-724.879	800.000	-0.028	-0.085
-723.864	-95.391	-0.313	0.086
-722.850	-200.000	-0.021	0.163
-721.835	266.475	-0.111	-0.198
-720.821	-136.567	-0.090	-0.011
-719.806	800.000	-0.049	-0.199
-718.791	-74.309	-0.096	-0.035
-717.777	26.332	-0.250	0.214
-716.762	800.000	-0.092	0.397
-715.748	-194.693	0.072	-0.001
-714.733	-200.000	-0.024	0.188
-713.718	175.918	0.145	0.216
-712.704	800.000	0.055	-0.204
-711.689	93.206	0.240	-0.277
-710.675	-105.013	0.192	-0.045
-709.660	-81.736	-0.269	0.090
-708.645	116.307	-0.294	-0.369
-707.631	32.348	-0.069	-0.061
-706.616	-42.273	0.224	0.117
-705.602	-127.651	-0.224	-0.033
-704.587	162.957	-0.227	0.326
-703.572	-193.769	-0.053	0.000
-702.558	-200.000	0.012	0.346
-701.543	41.965	-0.153	0.142
-700.529	-85.951	-0.207	-0.065
-699.514	91.240	-0.163	0.187
-698.499	-39.345	-0.365	0.196
-697.485	-200.000	-0.028	0.222
-696.470	474.168	0.059	0.137
-695.456	152.249	0.141	-0.197
-694.441	800.000	0.046	-0.202
-693.426	81.465	-0.294	-0.324
-692.412	34.891	0.155	0.138
-691.397	-200.000	0.023	-0.128
-690.383	-139.807	-0.153	0.017
-689.368	-129.681	-0.219	-0.031
-688.354	-22.240	0.390	0.241
-687.339	-60.658	0.145	-0.063
-686.324	-16.712	-0.256	-0.165
-685.310	55.898	0.090	-0.089
-684.295	-160.621	-0.284	0.015
-683.281	8.529	0.034	0.026
-682.266	-200.000	-0.015	0.290
-681.251	800.000	-0.054	-0.155
-680.237	-23.377	-0.166	-0.102
-679.222	800.000	0.066	-0.255
-678.208	252.626	-0.288	-0.502
-677.193	-200.000	0.017	-0.171
-676.178	-200.000	0.007	-0.368
-675.164	-53.440	0.189	-0.088
-674.149	-134.147	0.176	0.022
-673.135	383.266	0.082	0.173
-672.120	157.102	0.141	-0.199
-671.105	-44.163	-0.132	-0.068
-670.091	143.888	0.165	0.224
-669.076	-40.836	0.121	-0.064
-668.062	52.977	-0.141	-0.138
-667.047	14.510	-0.312	-0.248
-666.032	-63.141	-0.270	-0.114
-665.018	800.000	-0.037	0.109
-664.003	334.946	0.064	-0.126
-662.989	-109.120	0.228	0.049
-661.974	-200.000	0.021	0.244
-660.959	-116.874	0.072	0.014
-659.945	-82.254	-0.030	0.010
-658.930	216.952	0.291	-0.472
-657.916	130.719	0.051	-0.067
-656.901	800.000	-0.068	0.266
-655.886	122.053	-0.095	-0.121
-654.872	37.151	0.059	0.053
-653.857	90.331	-0.110	-0.126
-652.843	800.000	0.008	-0.026
-651.828	579.750	-0.044	0.111
-650.814	-112.199	-0.271	-0.055
-649.799	-38.001	0.174	0.094
-648.784	180.852	-0.114	0.171
-647.770	228.956	-0.084	-0.139
-646.755	706.085	0.134	-0.362
-645.741	-86.093	-0.171	-0.054
-644.726	800.000	-0.053	-0.152
-643.711	-16.787	-0.221	-0.142
-642.697	256.812	-0.225	-0.394
-641.682	109.287	-0.026	0.032
-640.668	423.030	0.082	0.179
-639.653	14.316	0.411	0.327
-638.638	-106.105	-0.106	0.024
-637.624	65.801	0.119	-0.123
-636.609	37.283	0.321	0.290
-635.595	376.433	-0.070	-0.146
-634.580	800.000	0.055	0.171
-633.565	800.000	0.076	-0.244
-632.551	8.328	0.319	-0.244
-631.536	273.328	0.075	0.136
-630.522	-41.776	-0.078	0.041
-629.507	800.000	0.074	-0.267
-628.492	-33.785	-0.122	0.068
-627.478	-183.646	-0.256	-0.004
-626.463	-180.749	0.044	0.001
-625.449	-14.582	-0.209	0.137
-624.434	-189.918	-0.515	-0.006
-623.419	344.634	-0.155	-0.310
-622.405	-163.302	0.350	-0.017
-621.390	-169.305	0.118	0.004
-620.376	-25.945	0.132	0.079
-619.361	-154.076	-0.369	-0.026
-618.346	-85.099	-0.095	0.030
-617.332	-168.365	0.406	-0.016
-616.317	550.631	-0.066	-0.161
-615.303	-200.000	-0.067	-0.331
-614.288	265.382	0.064	0.113
-613.273	-93.462	0.172	0.049
-612.259	-110.442	0.161	-0.034
-611.244	41.270	-0.087	-0.080
-610.230	-147.288	-0.235	0.020
-609.215	-9.905	-0.101	0.069
-608.201	42.302	0.132	0.122
-607.186	-14.834	0.044	-0.029
-606.171	-68.174	0.233	-0.092
-605.157	-66.431	0.178	0.072
-604.142	-200.000	-0.026	-0.308
-603.128	-104.908	-0.226	-0.053
-602.113	2.287	-0.277	-0.204
-601.098	232.657	-0.156	-0.260
-600.084	-200.000	-0.041	-0.550
-599.069	-173.867	-0.360	0.011
-598.055	162.811	-0.099	0.142
-597.040	800.000	0.113	-0.378
-596.025	800.000	-0.031	0.130
-595.011	-101.557	-0.239	-0.059
-593.996	39.365	0.153	0.140
-592.982	-33.343	0.062	0.035
-591.967	267.872	-0.182	-0.324
-590.952	24.479	0.245	-0.206
-589.938	46.548	0.076	0.072
-588.923	178.614	-0.132	0.196
-587.909	800.000	0.082	-0.278
-586.894	-200.000	-0.068	0.513
-585.879	93.000	0.141	0.163
-584.865	-93.087	-0.082	0.023
-583.850	-200.000	0.023	0.327
-582.836	480.392	0.065	0.149
-581.821	-200.000	-0.224	-0.001
-580.806	44.594	-0.177	0.165
-579.792	92.494	-0.180	0.206
-578.777	141.598	0.252	0.339
-577.763	468.500	-0.020	-0.046
-576.748	-95.506	0.153	-0.042
-575.733	23.150	-0.234	-0.195
-574.719	83.921	0.183	-0.203
-573.704	-92.345	-0.271	0.077
-572.690	2.571	0.053	-0.039
-571.675	112.079	-0.253	-0.311
-570.661	-200.000	-0.018	-0.277
-569.646	-64.063	-0.030	0.012
-568.631	38.749	0.096	0.087
-567.617	800.000	-0.106	0.305
-566.602	-200.000	-0.042	-0.192
-565.588	-62.009	-0.146	0.062
-564.573	44.980	-0.222	0.207
-563.558	-87.127	0.270	-0.084
-562.544	121.090	-0.193	-0.244
-561.529	-163.959	0.314	0.015
-560.515	-94.698	0.139	-0.038
-559.500	192.291	0.150	0.230
-558.485	-25.365	0.219	0.131
-557.471	800.000	-0.100	-0.372
-556.456	34.888	-0.141	0.126
-555.442	-39.144	-0.283	0.151
-554.427	348.700	-0.108	-0.217
-553.412	673.741	-0.019	-0.051
-552.398	-91.615	-0.305	-0.088
-551.383	489.610	0.039	-0.090
-550.369	-52.870	-0.005	-0.003
-549.354	-47.611	0.102	0.050
-548.339	62.012	-0.054	-0.055
-547.325	-16.976	-0.460	-0.295
-546.310	800.000	0.049	0.170
-545.296	-69.850	-0.229	-0.089
-544.281	-200.000	-0.024	0.116
-543.266	132.625	0.216	-0.282
-542.252	-200.000	-0.008	-0.155
-541.237	800.000	0.123	0.395
-540.223	-200.000	0.026	0.189
-539.208	75.985	-0.058	0.062
-538.193	52.593	0.120	-0.116
-537.179	-200.000	-0.006	0.245
-536.164	-74.038	-0.223	0.082
-535.150	-200.000	-0.004	-0.126
-534.135	-200.000	0.039	0.223
-533.121	-112.473	0.313	-0.063
-532.106	-62.347	0.073	0.031
-531.091	-200.000	0.005	-0.093
-530.077	800.000	-0.076	0.301
-529.062	-200.000	-0.061	0.376
-528.048	-200.000	0.087	-0.458
-527.033	32.783	-0.274	0.241
-526.018	-183.613	-0.120	-0.002
-525.004	240.854	0.164	0.278
-523.989	271.253	0.025	0.045
-522.975	-200.000	0.059	0.306
-521.960	-200.000	0.034	-0.181
-520.945	800.000	0.048	0.188
-519.931	800.000	-0.018	-0.072
-518.916	-117.191	0.116	-0.021
-517.902	-116.576	-0.167	0.031
-516.887	311.821	-0.160	0.304
-515.872	800.000	-0.114	0.387
-514.858	-155.335	0.126	0.008
-513.843	297.156	0.103	0.192
-512.829	193.227	-0.073	-0.112
-511.814	54.682	0.052	0.050
-510.799	619.661	0.057	-0.146
-509.785	130.339	-0.125	-0.163
-508.770	201.204	-0.104	0.162
-507.756	-108.658	-0.299	0.065
-506.741	241.686	0.082	0.139
-505.726	641.582	0.083	0.214
-504.712	-135.674	0.076	-0.009
-503.697	-200.000	-0.042	0.342
-502.683	278.816	0.088	-0.159
-501.668	-200.000	-0.026	-0.123
-500.653	800.000	0.062	0.269
-499.639	-34.280	0.313	-0.174
-498.624	-151.859	-0.222	-0.016
-497.610	-112.867	-0.093	-0.019
-496.595	163.095	-0.195	0.278
-495.581	134.177	0.056	0.073
-494.566	31.820	-0.075	-0.065
-493.551	468.179	-0.060	0.135
-492.537	-68.465	0.139	0.055
-491.522	76.521	-0.169	0.181
-490.508	-125.357	0.263	0.041
-489.493	-2.633	0.200	0.142
-488.478	-15.896	-0.126	-0.081
-487.464	800.000	0.050	-0.192
-486.449	85.272	-0.267	-0.297
-485.435	226.429	0.165	0.271
-484.420	61.117	0.107	0.108
-483.405	-37.824	-0.211	-0.114
-482.391	186.532	-0.082	-0.124
-481.376	136.856	0.284	-0.376
-480.362	-68.654	0.237	-0.093
-479.347	-175.873	0.044	-0.001
-478.332	-157.810	-0.318	-0.019
-477.318	-200.000	-0.005	0.366
-476.303	243.240	0.019	-0.032
-475.289	-31.641	-0.193	0.110
-474.274	-188.303	0.175	0.002
-473.259	-78.555	0.127	-0.044
-472.245	38.972	0.267	0.241
-471.230	215.437	0.040	0.065
-470.216	86.477	-0.080	-0.089
-469.201	-34.232	-0.236	0.131
-468.186	142.160	-0.144	-0.194
-467.172	272.221	0.051	0.091
-466.157	129.397	-0.158	0.205
-465.143	-119.026	-0.098	0.017
-464.128	-87.333	0.189	0.058
-463.113	19.405	0.133	-0.108
-462.099	10.893	-0.051	-0.040
-461.084	30.212	-0.125	0.108
-460.070	-123.378	0.224	-0.036
-459.055	100.274	-0.143	-0.168
-458.040	-193.743	0.123	0.001
-457.026	800.000	0.022	0.088
-456.011	-66.939	0.112	-0.045
-454.997	-40.212	0.176	-0.093
-453.982	-91.702	-0.377	0.109
-452.968	-134.683	0.250	-0.031
-451.953	800.000	0.026	0.088
-450.938	800.000	-0.062	0.177
-449.924	227.577	-0.094	0.155
-448.909	-3.384	0.287	-0.202
-447.895	-178.052	-0.160	-0.004
-446.880	5.274	0.083	-0.062
-445.865	-122.366	0.295	0.049
-444.851	43.851	0.088	0.081
-443.836	-176.266	-0.051	0.001
-442.822	93.681	-0.089	-0.102
-441.807	6.032	0.150	-0.113
-440.792	317.061	-0.175	0.335
-439.778	-81.362	-0.313	0.105
-438.763	37.294	0.141	-0.126
-437.749	-135.305	0.331	-0.040
-436.734	-99.693	0.216	-0.055
-435.719	314.379	0.092	-0.176
-434.705	33.235	0.254	-0.223
-433.690	242.629	0.154	-0.261
-432.676	53.231	-0.074	0.071
-431.661	61.288	0.225	-0.226
-430.646	-81.112	0.180	-0.060
-429.632	-87.412	0.068	-0.021
-428.617	-108.412	0.078	0.017
-427.603	-91.061	0.166	-0.048
-426.588	439.812	-0.046	-0.102
-425.573	-200.000	0.313	-0.001
-424.559	347.277	-0.138	-0.275
-423.544	-48.916	0.328	-0.159
-422.530	-136.589	-0.266	-0.031
-421.515	-78.325	-0.246	0.085
-420.500	122.255	-0.056	-0.071
-419.486	-200.000	0.020	0.204
-418.471	-55.656	-0.067	-0.030
-417.457	-200.000	0.006	0.037
-416.442	-200.000	0.010	0.085
-415.428	166.212	0.122	0.174
-414.413	-7.240	0.121	0.083
-413.398	-86.647	-0.313	0.097
-412.384	1.075	-0.099	-0.072
-411.369	1.081	-0.130	0.094
-410.355	-51.809	0.221	-0.104
-409.340	-104.070	0.086	-0.020
-408.325	-167.937	-0.161	-0.006
-407.311	25.164	-0.132	0.110
-406.296	216.669	-0.228	0.366
-405.282	-200.000	-0.027	0.237
-404.267	-89.552	0.219	0.065
-403.252	-139.046	0.103	0.011
-402.238	-53.755	0.081	-0.037
-401.223	-200.000	0.012	0.206
-400.209	103.302	-0.062	0.074
-399.194	-96.589	-0.130	0.035
-398.179	-200.000	-0.033	-0.215
-397.165	71.672	-0.018	0.019
-396.150	148.485	-0.073	0.100
-395.136	800.000	-0.054	0.212
-394.121	-151.164	0.090	-0.007
-393.106	-200.000	0.018	0.084
-392.092	563.268	0.126	-0.309
-391.077	-8.330	-0.112	-0.076
-390.063	-200.000	-0.015	0.123
-389.048	-12.341	-0.214	-0.141
-388.033	17.519	0.237	-0.190
-387.019	800.000	0.118	-0.383
-386.004	800.000	0.163	-0.528
-384.990	177.964	0.150	-0.220
-383.975	16.432	-0.051	0.041
-382.960	800.000	0.066	0.229
-381.946	-131.951	0.168	0.022
-380.931	38.115	0.158	0.142
-379.917	721.237	-0.022	0.060
-378.902	-72.465	-0.191	0.071
-377.888	697.117	0.081	-0.216
-376.873	143.372	-0.073	0.098
-375.858	194.326	-0.116	-0.177
-374.844	42.263	0.177	0.163
-373.829	-86.915	0.218	0.067
-372.815	-200.000	0.015	-0.205
-371.800	-69.454	0.142	0.055
-370.785	-200.000	0.011	0.048
-369.771	163.863	0.052	0.074
-368.756	-116.749	0.170	0.031
-367.742	58.691	-0.120	0.118
-366.727	57.866	-0.230	-0.227
-365.712	-200.000	0.015	0.125
-364.698	293.121	0.100	0.184
-363.683	-193.584	-0.394	0.003
-362.669	-135.591	0.106	-0.013
-361.654	-64.191	-0.052	-0.021
-360.639	20.785	0.282	-0.231
-359.625	-42.327	-0.129	-0.067
-358.610	-103.519	-0.227	-0.054
-357.596	4.272	0.052	-0.039
-356.581	-28.294	-0.279	0.163
-355.566	-90.089	0.193	-0.057
-354.552	-200.000	-0.055	0.572
-353.537	-5.174	-0.117	0.081
-352.523	581.670	-0.044	0.109
-351.508	-163.642	-0.187	0.009
-350.493	-117.191	0.219	0.040
-349.479	-142.336	0.086	0.009
-348.464	-88.610	0.174	-0.052
-347.450	-155.412	-0.150	-0.010
-346.435	194.962	0.179	-0.274
-345.420	255.415	0.204	0.353
-344.406	-21.502	-0.085	-0.052
-343.391	23.803	0.127	0.106
-342.377	800.000	-0.037	-0.110
-341.362	24.095	0.260	0.216
-340.348	-41.980	-0.244	-0.126
-339.333	156.719	0.082	-0.115
-338.318	63.194	0.115	0.116
-337.304	-22.562	-0.284	-0.173
-336.289	75.836	0.149	-0.159
-335.275	70.900	0.060	-0.063
-334.260	800.000	-0.103	-0.400
-333.245	78.561	0.116	-0.124
-332.231	-76.109	0.116	0.041
-331.216	2.006	-0.414	-0.301
-330.202	800.000	0.064	-0.215
-329.187	384.978	0.037	-0.077
-328.172	-27.174	0.210	0.123
-327.158	350.599	0.102	-0.203
-326.143	-58.127	-0.116	-0.051
-325.129	262.896	0.067	-0.117
-324.114	-32.010	0.303	0.171
-323.099	140.333	-0.177	0.236
-322.085	-49.952	-0.163	-0.078
-321.070	-200.000	0.000	0.208
-320.056	-200.000	-0.013	0.265
-319.041	57.326	-0.106	-0.104
-318.026	-72.764	0.115	0.042
-317.012	99.302	0.069	-0.081
-315.997	50.599	-0.197	-0.188
-314.983	-21.348	0.046	-0.029
-313.968	176.073	-0.246	-0.360
-312.953	800.000	-0.017	-0.072
-311.939	-78.258	-0.151	-0.052
-310.924	-67.714	-0.297	0.117
-309.910	-200.000	-0.042	0.240
-308.895	-27.585	0.162	0.095
-307.880	800.000	0.059	0.178
-306.866	-112.456	-0.233	-0.047
-305.851	-200.000	-0.031	-0.318
-304.837	295.934	0.117	0.217
-303.822	-94.376	0.153	0.042
-302.807	96.121	-0.160	-0.184
-301.793	173.885	0.171	0.248
-300.778	-3.437	0.201	0.141
-299.764	-200.000	-0.014	0.132
-298.749	-130.422	-0.144	0.020
-297.735	-200.000	-0.068	-0.432
-296.720	611.033	-0.067	-0.168
-295.705	-187.040	0.160	-0.002
-294.691	288.960	0.111	0.203
-293.676	-200.000	0.004	0.162
-292.662	195.912	-0.193	0.295
-291.647	-33.552	-0.107	-0.059
-290.632	-112.697	0.100	-0.020
-289.618	-121.440	0.103	-0.017
-288.603	22.791	-0.133	0.110
-287.589	800.000	-0.006	0.019
-286.574	-14.263	0.346	0.224
-285.559	-92.312	0.226	0.064
-284.545	800.000	0.044	-0.131
-283.530	-50.212	0.021	-0.010
-282.516	59.196	0.049	-0.049
-281.501	0.542	-0.239	-0.171
-280.486	165.914	-0.114	0.163
-279.472	-49.337	0.215	-0.103
-278.457	342.143	0.083	0.164
-277.443	-99.010	-0.010	-0.003
-276.428	210.006	-0.259	-0.408
-275.413	463.498	-0.035	0.078
-274.399	-200.000	0.010	-0.181
-273.384	800.000	0.060	-0.204
-272.370	372.388	0.195	-0.398
-271.355	-144.207	0.079	-0.007
-270.340	-200.000	0.004	-0.403
-269.326	16.030	0.186	0.147
-268.311	156.673	-0.059	0.082
-267.297	152.599	-0.119	-0.163
-266.282	800.000	0.085	-0.239
-265.267	-78.473	0.120	-0.041
-264.253	-42.860	0.234	0.120
-263.238	-200.000	-0.042	-0.455
-262.224	-200.000	-0.067	-0.297
-261.209	539.556	-0.036	0.085
-260.195	800.000	0.047	0.160
-259.180	800.000	0.052	-0.221
-258.165	-21.798	0.244	-0.149
-257.151	-200.000	0.004	-0.160
-256.136	-37.767	-0.201	0.108
-255.122	-140.908	-0.132	0.014
-254.107	-91.611	-0.134	-0.038
-253.092	23.666	-0.081	-0.067
-252.078	800.000	-0.113	-0.438
-251.063	102.026	-0.212	0.249
-250.049	59.367	-0.184	0.182
-249.034	-23.800	-0.211	-0.127
-248.019	-136.171	-0.354	0.042
-247.005	-61.172	-0.265	0.112
-245.990	-200.000	0.018	0.133
-244.976	141.639	0.108	-0.144
-243.961	-92.969	0.288	0.081
-242.946	-142.894	0.480	-0.047
-241.932	-73.644	-0.140	0.051
-240.917	-200.000	-0.015	0.148
-239.903	50.650	0.123	0.117
-238.888	800.000	0.084	-0.325
-237.873	289.363	-0.104	-0.189
-236.859	-7.348	-0.140	0.095
-235.844	-57.585	0.163	0.072
-234.830	-6.351	0.036	0.024
-233.815	-80.035	0.026	-0.009
-232.800	-166.425	-0.212	0.009
-231.786	800.000	0.062	0.259
-230.771	-200.000	0.185	0.000
-229.757	77.556	-0.218	-0.233
-228.742	266.297	-0.104	-0.182
-227.727	147.115	0.080	-0.108
-226.713	201.483	-0.065	0.101
-225.698	185.724	-0.066	0.098
-224.684	-200.000	0.027	0.257
-223.669	-162.322	0.345	-0.017
-222.655	-162.703	0.238	-0.012
-221.640	192.147	-0.170	-0.258
-220.625	422.377	-0.131	-0.281
-219.611	39.607	-0.090	0.081
-218.596	655.013	0.037	-0.095
-217.582	-20.912	0.265	-0.163
-216.567	-116.241	0.093	-0.017
-215.552	-200.000	0.012	-0.152
-214.538	164.292	0.232	0.328
-213.523	75.471	0.264	0.279
-212.509	93.623	-0.122	0.138
-211.494	106.074	-0.104	0.124
-210.479	-200.000	-0.002	-0.089
-209.465	-54.566	0.081	0.037
-208.450	-140.736	-0.183	-0.019
-207.436	7.463	0.113	-0.084
-206.421	-98.217	-0.036	0.009
-205.406	-200.000	0.268	-0.000
-204.392	-200.000	-0.004	-0.094
-203.377	23.027	-0.211	0.173
-202.363	-107.852	0.088	0.019
-201.348	-94.536	0.336	0.092
-200.333	-83.110	0.230	0.074
-199.319	-200.000	-0.010	-0.087
-198.304	-163.815	-0.326	0.015
-197.290	122.555	-0.040	-0.050
-196.275	800.000	-0.024	0.087
-195.260	-200.000	0.003	0.076
-194.246	89.879	0.074	-0.083
-193.231	-98.912	0.229	0.058
-192.217	-67.822	0.172	0.067
-191.202	54.653	0.132	-0.128
-190.187	800.000	-0.029	0.089
-189.173	-23.157	-0.203	-0.122
-188.158	-140.066	-0.306	0.032
-187.144	115.112	-0.102	0.124
-186.129	11.467	0.117	-0.090
-185.114	438.319	-0.130	0.285
-184.100	-200.000	0.043	0.248
-183.085	-200.000	0.005	0.126
-182.071	-200.000	0.010	-0.180
-181.056	-200.000	-0.022	0.155
-180.042	-13.635	-0.360	0.233
-179.027	-200.000	-0.006	-0.118
-178.012	-77.335	0.306	0.106
-176.998	-200.000	0.007	0.063
-175.983	316.572	0.168	-0.318
-174.969	-200.000	-0.004	0.324
-173.954	28.663	-0.054	-0.046
-172.939	-82.085	0.069	-0.023
-171.925	-200.000	-0.056	-0.344
-170.910	716.113	0.072	0.192
-169.896	-200.000	-0.010	0.103
-168.881	800.000	0.045	0.150
-167.866	-4.164	-0.221	0.153
-166.852	31.406	-0.218	0.188
-165.837	-29.497	0.217	-0.124
-164.823	68.036	0.264	0.270
-163.808	544.179	0.063	0.151
-162.793	177.410	-0.054	-0.079
-161.779	-150.811	-0.287	-0.022
-160.764	800.000	0.028	-0.096
-159.750	-138.816	-0.343	0.037
-158.735	-200.000	-0.028	0.271
-157.720	-20.894	-0.196	-0.120
-156.706	-82.722	-0.165	-0.053
-155.691	-200.000	0.010	0.074
-154.677	-71.769	-0.184	0.069
-153.662	-200.000	0.051	0.272
-152.647	-125.310	-0.251	-0.038
-151.633	35.517	0.015	0.014
-150.618	361.235	-0.039	-0.079
-149.604	-200.000	0.015	-0.305
-148.589	-200.000	-0.001	-0.084
-147.574	-38.175	-0.258	0.137
-146.560	-149.145	0.067	0.005
-145.545	-200.000	-0.042	-0.220
-144.531	-140.922	0.178	0.018
-143.516	-166.542	-0.341	-0.014
-142.502	-70.660	0.215	-0.081
-141.487	-200.000	-0.031	0.268
-140.472	284.279	0.052	0.094
-139.458	78.285	0.257	0.274
-138.443	64.608	-0.236	0.238
-137.429	-200.000	-0.026	0.237
-136.414	-20.898	0.328	-0.201
-135.399	158.157	-0.139	-0.193
-134.385	-102.026	0.343	-0.083
-133.370	-200.000	-0.022	0.170
-132.356	-130.372	-0.023	-0.003
-131.341	-144.200	0.057	0.005
-130.326	396.793	0.087	-0.181
-129.312	115.805	-0.204	0.250
-128.297	-19.531	0.248	0.154
-127.283	363.139	0.092	-0.185
-126.268	-92.147	-0.131	-0.037
-125.253	210.731	-0.206	0.323
-124.239	-154.723	0.094	0.006
-123.224	-9.571	-0.166	-0.110
-122.210	-137.033	-0.292	0.033
-121.195	-97.690	0.236	-0.061
