DTS Sentinel unit serial number:	SN413079Multiplexer serial number:	ORYXHardware model number:	OX4-SRSoftware version number:	ORYX F/W v4.00 Oryx Data Collector v3.7.2.0data status	okinstallation	princeton_trtdifferential loss correction	single-endedforward channel	channel 1reverse channel	N/Adate	2019/09/18time	22:42:35forward acquisition time	60.00reverse acquisition time	0.00gamma	496.2192k internal	0.2340k external	0.2340temperature offset calibration	1.0018default loss term (dB/km)	0.3790temperature slope calibration	1.0000multiplexer offset coefficient	1.0000multiplexer slope coefficient	1.0000fibre end	0.00T internal ref (°C)	24.12T ext. ref 1 (°C)	0.79T ext. ref 2 (°C)	17.99length (m)	temperature (°C)	Stokes	anti-Stokes-747.200	565.791	0.026	0.062
-746.185	-11.567	0.233	-0.154
-745.171	36.957	0.104	0.092
-744.156	800.000	-0.094	0.360
-743.142	-200.000	0.003	-0.238
-742.127	-12.668	0.034	0.022
-741.112	450.927	0.086	-0.189
-740.098	-200.000	0.014	-0.124
-739.083	-59.067	-0.174	0.075
-738.069	23.902	-0.037	-0.030
-737.054	-128.890	0.225	-0.032
-736.039	-31.667	-0.168	-0.095
-735.025	-200.000	0.023	0.183
-734.010	142.667	0.079	0.105
-732.996	251.192	-0.194	-0.331
-731.981	800.000	0.063	-0.205
-730.966	20.691	-0.167	-0.135
-729.952	-155.859	-0.285	0.018
-728.937	363.736	-0.077	0.155
-727.923	-73.512	-0.296	0.108
-726.908	800.000	0.071	0.237
-725.894	-58.798	-0.238	-0.103
-724.879	-6.721	-0.165	0.113
-723.864	-36.536	0.231	-0.124
-722.850	619.416	-0.020	-0.051
-721.835	-38.916	-0.401	0.212
-720.821	-146.338	0.259	0.023
-719.806	-116.487	-0.355	-0.066
-718.791	800.000	-0.019	-0.072
-717.777	800.000	-0.064	-0.202
-716.762	503.632	-0.220	0.510
-715.748	-28.917	0.173	-0.099
-714.733	-91.598	-0.327	-0.093
-713.718	591.453	-0.008	-0.020
-712.704	435.533	-0.036	0.078
-711.689	-185.725	-0.300	-0.005
-710.675	70.106	0.116	-0.119
-709.660	-94.829	0.147	-0.040
-708.645	-123.454	0.040	0.006
-707.631	-114.041	0.331	0.064
-706.616	241.037	-0.154	-0.258
-705.602	3.120	-0.177	-0.128
-704.587	-118.817	0.206	0.036
-703.572	133.924	0.259	0.335
-702.558	-0.829	-0.008	-0.006
-701.543	-200.000	0.006	0.074
-700.529	100.457	0.237	0.276
-699.514	-64.147	-0.075	-0.031
-698.499	493.862	0.187	-0.430
-697.485	800.000	-0.121	-0.353
-696.470	310.950	0.123	-0.231
-695.456	244.085	-0.074	-0.124
-694.441	663.789	0.071	-0.182
-693.426	174.454	0.227	0.328
-692.412	589.015	-0.103	-0.254
-691.397	800.000	0.073	-0.313
-690.383	348.972	-0.068	0.133
-689.368	-200.000	-0.015	-0.322
-688.354	-74.893	-0.086	-0.031
-687.339	2.286	-0.165	-0.119
-686.324	503.352	0.203	-0.470
-685.310	800.000	-0.047	0.169
-684.295	-200.000	0.007	-0.360
-683.281	142.476	0.138	0.184
-682.266	-159.674	-0.238	0.013
-681.251	-31.517	-0.236	0.133
-680.237	-65.434	0.107	-0.043
-679.222	471.469	-0.156	0.350
-678.208	800.000	-0.024	-0.099
-677.193	327.546	-0.099	-0.190
-676.178	-89.581	0.411	-0.121
-675.164	-200.000	-0.000	-0.224
-674.149	-200.000	0.009	-0.057
-673.135	-93.053	0.238	-0.066
-672.120	94.138	-0.229	0.260
-671.105	-24.271	-0.377	0.225
-670.091	298.028	-0.140	-0.257
-669.076	394.521	-0.063	0.131
-668.062	-110.292	-0.220	-0.046
-667.047	-116.946	0.104	0.019
-666.032	-200.000	0.014	-0.311
-665.018	-67.895	-0.194	-0.076
-664.003	193.102	0.212	0.320
-662.989	-136.286	0.405	-0.047
-661.974	-200.000	0.058	0.256
-660.959	-44.661	-0.100	-0.050
-659.945	-200.000	-0.015	0.103
-658.930	-86.486	0.158	0.048
-657.916	-68.721	0.110	-0.042
-656.901	-178.692	0.236	-0.005
-655.886	-200.000	-0.018	-0.304
-654.872	324.607	-0.014	0.027
-653.857	-81.737	0.441	-0.144
-652.843	-173.224	-0.450	0.014
-651.828	-106.308	0.312	-0.070
-650.814	143.649	-0.263	-0.350
-649.799	800.000	-0.057	0.163
-648.784	-67.596	-0.085	0.033
-647.770	-1.219	-0.014	0.010
-646.755	760.299	0.085	0.230
-645.741	-200.000	-0.023	-0.303
-644.726	-104.598	0.109	0.025
-643.711	-57.634	-0.345	0.151
-642.697	255.389	0.071	0.122
-641.682	80.790	-0.229	0.246
-640.668	-68.466	-0.177	0.068
-639.653	-200.000	-0.005	0.167
-638.638	-69.097	-0.119	0.046
-637.624	706.648	0.113	0.299
-636.609	-200.000	-0.017	-0.293
-635.595	100.288	-0.246	-0.284
-634.580	-16.807	0.046	-0.029
-633.565	254.581	-0.090	-0.154
-632.551	-61.216	0.108	-0.046
-631.536	-98.872	-0.197	0.050
-630.522	-200.000	-0.034	-0.187
-629.507	-76.056	-0.151	-0.053
-628.492	363.933	0.064	-0.129
-627.478	800.000	0.072	0.212
-626.463	109.753	-0.115	-0.138
-625.449	-200.000	0.015	-0.192
-624.434	29.978	-0.252	0.214
-623.419	-46.760	-0.040	-0.019
-622.405	-200.000	0.043	-0.238
-621.390	60.435	-0.281	-0.277
-620.376	13.828	0.179	-0.139
-619.361	190.700	0.030	-0.045
-618.346	22.784	0.129	-0.106
-617.332	155.584	0.074	0.102
-616.317	-200.000	0.012	0.138
-615.303	43.047	-0.098	-0.089
-614.288	794.387	-0.085	-0.232
-613.273	-95.114	-0.138	-0.037
-612.259	-124.375	-0.367	0.057
-611.244	-151.774	0.198	0.015
-610.230	165.508	-0.229	-0.323
-609.215	376.981	0.066	0.135
-608.201	-137.485	-0.242	0.027
-607.186	47.271	0.075	-0.069
-606.171	-63.748	-0.506	-0.207
-605.157	253.567	-0.155	-0.263
-604.142	69.284	0.179	0.183
-603.128	-60.562	-0.125	-0.053
-602.113	800.000	-0.086	0.340
-601.098	103.930	0.102	-0.120
-600.084	-72.699	0.149	-0.055
-599.069	323.474	0.016	0.031
-598.055	-47.305	0.216	-0.105
-597.040	800.000	0.041	-0.166
-596.025	-76.768	-0.106	0.037
-595.011	17.657	-0.189	-0.150
-593.996	83.970	0.149	-0.162
-592.982	667.024	-0.047	0.120
-591.967	-200.000	0.001	-0.330
-590.952	-200.000	0.007	0.186
-589.938	800.000	0.074	0.272
-588.923	-8.939	-0.148	-0.099
-587.909	-94.433	-0.420	0.114
-586.894	-93.231	0.250	-0.069
-585.879	56.882	0.102	0.099
-584.865	565.759	-0.090	0.218
-583.850	-200.000	-0.006	0.174
-582.836	800.000	-0.062	-0.202
-581.821	-59.807	-0.286	-0.122
-580.806	-8.088	-0.165	-0.111
-579.792	-200.000	0.037	-0.415
-578.777	568.806	0.116	-0.282
-577.763	-200.000	0.024	0.115
-576.748	-96.611	-0.072	-0.019
-575.733	-19.853	-0.128	0.078
-574.719	33.681	-0.161	-0.139
-573.704	-88.728	0.094	0.028
-572.690	576.365	-0.060	-0.146
-571.675	-200.000	-0.004	0.133
-570.661	-200.000	0.020	0.192
-569.646	633.929	0.129	0.326
-568.631	26.887	-0.202	0.168
-567.617	-26.777	0.073	-0.043
-566.602	-200.000	0.006	0.075
-565.588	-17.092	-0.184	0.116
-564.573	-168.935	-0.425	0.016
-563.558	-81.571	-0.255	-0.083
-562.544	39.081	-0.144	0.129
-561.529	-200.000	0.034	-0.171
-560.515	287.655	0.198	-0.356
-559.500	-200.000	-0.089	0.518
-558.485	25.486	-0.112	0.093
-557.471	800.000	-0.106	-0.365
-556.456	-37.595	-0.192	0.102
-555.442	261.538	0.017	0.030
-554.427	-9.214	-0.162	-0.108
-553.412	10.391	0.183	0.138
-552.398	-127.305	-0.065	-0.009
-551.383	-200.000	0.061	0.355
-550.369	800.000	0.074	0.301
-549.354	72.312	-0.221	-0.229
-548.339	800.000	-0.034	-0.113
-547.325	10.636	0.162	0.123
-546.310	-64.101	-0.139	-0.056
-545.296	-54.339	-0.113	0.051
-544.281	606.734	0.187	-0.463
-543.266	225.893	-0.166	0.267
-542.252	-2.194	0.308	-0.215
-541.237	-42.020	0.114	-0.058
-540.223	45.727	0.162	-0.148
-539.208	-155.182	-0.113	-0.007
-538.193	800.000	0.021	-0.083
-537.179	-59.675	0.349	-0.149
-536.164	-5.712	-0.065	-0.044
-535.150	-29.296	0.278	-0.158
-534.135	-200.000	-0.004	0.157
-533.121	37.445	0.142	0.125
-532.106	-200.000	-0.001	-0.007
-531.091	90.694	0.237	-0.264
-530.077	800.000	-0.053	-0.182
-529.062	410.454	0.159	-0.334
-528.048	-15.947	-0.096	-0.060
-527.033	53.723	-0.123	-0.117
-526.018	-147.868	-0.154	-0.013
-525.004	-0.944	0.198	-0.140
-523.989	-99.243	-0.187	0.047
-522.975	541.784	-0.073	-0.173
-521.960	800.000	-0.051	0.171
-520.945	172.131	0.083	0.119
-519.931	377.306	-0.129	0.261
-518.916	723.600	0.056	-0.149
-517.902	-72.222	0.133	-0.049
-516.887	-110.641	-0.174	-0.036
-515.872	-49.251	-0.164	0.078
-514.858	185.220	0.091	0.134
-513.843	41.260	0.274	-0.246
-512.829	65.968	0.035	0.035
-511.814	-137.514	0.398	0.045
-510.799	800.000	0.060	0.170
-509.785	56.960	0.097	-0.094
-508.770	-125.105	-0.213	0.032
-507.756	136.445	0.106	0.138
-506.741	-200.000	0.072	0.327
-505.726	800.000	-0.046	-0.181
-504.712	-200.000	0.001	-0.092
-503.697	-200.000	0.039	0.292
-502.683	69.936	0.255	0.261
-501.668	-137.290	-0.170	-0.019
-500.653	-62.187	-0.233	-0.096
-499.639	-5.295	-0.145	0.099
-498.624	-96.709	-0.287	0.075
-497.610	24.603	-0.197	0.161
-496.595	-3.339	-0.070	-0.048
-495.581	129.157	0.257	0.326
-494.566	800.000	0.039	0.112
-493.551	-200.000	0.081	-0.407
-492.537	-93.554	0.174	-0.048
-491.522	-156.486	0.209	-0.013
-490.508	-200.000	0.002	0.029
-489.493	352.876	-0.095	-0.188
-488.478	501.146	-0.126	0.288
-487.464	-31.745	-0.108	-0.060
-486.449	-77.458	0.127	-0.044
-485.435	800.000	-0.064	-0.216
-484.420	-154.118	-0.191	0.013
-483.405	-200.000	0.013	0.076
-482.391	-200.000	-0.063	-0.294
-481.376	-84.592	-0.235	0.074
-480.362	-184.626	0.182	0.003
-479.347	310.185	-0.037	0.069
-478.332	141.207	0.129	0.169
-477.318	583.684	0.031	0.075
-476.303	119.503	0.190	0.234
-475.289	-155.034	-0.108	-0.007
-474.274	-200.000	0.015	0.289
-473.259	12.340	-0.420	-0.321
-472.245	-33.020	-0.174	-0.096
-471.230	-106.259	-0.253	-0.056
-470.216	-35.728	0.203	0.109
-469.201	-200.000	-0.013	-0.092
-468.186	-46.923	-0.145	0.070
-467.172	218.433	-0.119	-0.189
-466.157	101.571	-0.119	-0.138
-465.143	-119.186	-0.026	-0.004
-464.128	-51.938	-0.214	-0.099
-463.113	800.000	0.028	0.108
-462.099	382.049	-0.153	-0.312
-461.084	107.949	0.156	-0.185
-460.070	-55.625	-0.322	0.143
-459.055	437.635	-0.106	-0.229
-458.040	800.000	0.021	0.065
-457.026	258.005	-0.034	-0.057
-456.011	649.076	0.079	-0.199
-454.997	-90.573	0.279	0.080
-453.982	179.454	0.034	0.049
-452.968	-64.017	0.036	-0.014
-451.953	90.017	0.333	0.369
-450.938	-140.117	-0.102	0.011
-449.924	-37.584	0.182	0.096
-448.909	592.400	0.057	0.140
-447.895	1.359	0.292	-0.208
-446.880	-120.304	0.355	0.060
-445.865	21.313	-0.334	-0.269
-444.851	-200.000	0.008	0.379
-443.836	303.969	0.100	0.184
-442.822	800.000	0.086	0.333
-441.807	-63.563	-0.193	-0.078
-440.792	-181.246	-0.202	0.004
-439.778	-119.711	0.221	-0.038
-438.763	800.000	-0.036	-0.150
-437.749	168.608	-0.101	-0.143
-436.734	-86.062	0.042	-0.013
-435.719	152.942	-0.045	0.061
-434.705	-118.110	-0.457	-0.081
-433.690	138.221	0.134	-0.175
-432.676	-35.562	0.266	0.143
-431.661	56.821	0.193	0.186
-430.646	-200.000	0.075	0.490
-429.632	12.760	0.213	-0.163
-428.617	649.736	0.040	0.102
-427.603	35.110	0.056	-0.049
-426.588	-71.435	-0.500	0.185
-425.573	800.000	0.031	0.118
-424.559	-21.713	0.119	0.072
-423.544	284.009	0.140	0.250
-422.530	-153.324	-0.096	0.007
-421.515	-200.000	0.006	0.303
-420.500	800.000	0.068	0.265
-419.486	-200.000	-0.003	0.380
-418.471	-74.909	0.416	0.148
-417.457	800.000	0.192	-0.614
-416.442	-200.000	0.026	0.150
-415.428	0.316	0.233	0.165
-414.413	-200.000	-0.026	-0.291
-413.398	-200.000	0.020	0.096
-412.384	54.673	0.117	-0.111
-411.369	209.095	0.258	-0.400
-410.355	105.715	0.103	-0.121
-409.340	-145.948	0.341	-0.030
-408.325	464.692	0.016	-0.035
-407.311	-200.000	0.031	-0.221
-406.296	-166.765	-0.135	-0.006
-405.282	-200.000	0.037	0.209
-404.267	800.000	-0.043	0.144
-403.252	-200.000	-0.022	-0.154
-402.238	795.379	0.032	-0.087
-401.223	-111.799	-0.242	0.048
-400.209	-89.522	0.233	-0.068
-399.194	-109.414	-0.095	0.020
-398.179	29.740	0.373	-0.314
-397.165	90.928	-0.023	-0.026
-396.150	-119.245	0.075	0.013
-395.136	-170.561	0.210	0.007
-394.121	-200.000	-0.023	-0.154
-393.106	-82.498	0.235	0.075
-392.092	190.783	0.095	0.141
-391.077	55.627	-0.230	0.220
-390.063	-125.414	0.259	0.039
-389.048	343.958	-0.118	-0.229
-388.033	-58.067	-0.056	0.024
-387.019	115.301	-0.024	-0.029
-386.004	170.236	0.057	-0.081
-384.990	383.701	0.064	0.131
-383.975	-70.089	0.230	-0.086
-382.960	800.000	-0.067	0.195
-381.946	-200.000	-0.032	0.163
-380.931	295.678	0.102	0.184
-379.917	28.632	-0.195	0.163
-378.902	346.079	0.140	0.273
-377.888	167.989	-0.131	-0.185
-376.873	26.871	0.123	0.102
-375.858	257.024	-0.198	0.336
-374.844	-147.338	-0.212	0.018
-373.829	-195.434	0.351	-0.003
-372.815	110.799	-0.185	0.220
-371.800	-122.758	-0.161	0.026
-370.785	-32.439	0.196	0.108
-369.771	-200.000	-0.001	-0.027
-368.756	276.975	-0.187	0.328
-367.742	158.795	0.147	-0.201
-366.727	45.575	-0.169	-0.154
-365.712	-200.000	-0.017	0.256
-364.698	513.622	-0.124	0.286
-363.683	-124.634	-0.222	-0.034
-362.669	150.651	-0.213	-0.286
-361.654	800.000	-0.097	-0.343
-360.639	693.405	0.121	-0.314
-359.625	37.459	0.098	-0.086
-358.610	76.208	0.290	-0.303
-357.596	-124.535	-0.295	0.045
-356.581	-100.627	0.199	0.048
-355.566	800.000	-0.038	0.120
-354.552	800.000	0.011	-0.048
-353.537	-58.531	0.272	0.116
-352.523	2.850	-0.174	0.125
-351.508	-43.759	-0.246	-0.123
-350.493	-97.315	-0.135	-0.035
-349.479	-38.968	0.250	0.130
-348.464	-93.442	-0.188	-0.051
-347.450	-92.495	0.069	0.019
-346.435	14.714	0.035	0.027
-345.420	-44.952	-0.168	-0.083
-344.406	13.777	0.131	-0.101
-343.391	176.220	-0.192	0.275
-342.377	-16.908	-0.262	0.163
-341.362	-94.058	0.338	0.092
-340.348	488.870	-0.143	0.323
-339.333	290.968	-0.164	0.294
-338.318	234.308	-0.211	-0.343
-337.304	736.680	0.044	0.116
-336.289	399.118	0.127	-0.263
-335.275	-21.235	-0.192	-0.116
-334.260	800.000	-0.042	0.156
-333.245	-200.000	0.035	0.303
-332.231	-115.808	0.270	0.050
-331.216	-36.672	-0.088	0.047
-330.202	-112.451	0.130	0.026
-329.187	168.355	-0.082	0.115
-328.172	-94.773	0.356	-0.095
-327.158	-21.102	-0.340	0.205
-326.143	201.686	0.094	0.143
-325.129	273.048	-0.197	-0.343
-324.114	577.505	0.214	-0.517
-323.099	241.325	-0.272	-0.447
-322.085	-200.000	-0.025	-0.169
-321.070	800.000	0.067	0.195
-320.056	-200.000	-0.081	0.369
-319.041	164.014	-0.055	0.076
-318.026	-97.615	0.205	0.052
-317.012	-65.061	0.349	0.139
-315.997	244.806	-0.099	0.164
-314.983	-116.727	0.111	-0.020
-313.968	800.000	-0.096	0.293
-312.953	691.891	-0.101	-0.262
-311.939	547.459	-0.036	-0.086
-310.924	324.510	0.058	-0.110
-309.910	53.421	-0.104	0.098
-308.895	-10.759	-0.075	-0.049
-307.880	36.568	-0.028	0.024
-306.866	336.159	0.029	-0.056
-305.851	-88.448	0.178	-0.052
-304.837	-83.802	0.231	0.073
-303.822	-200.000	0.022	0.181
-302.807	-26.572	0.233	0.134
-301.793	-200.000	0.005	-0.126
-300.778	19.331	0.397	-0.314
-299.764	0.190	0.132	0.093
-298.749	49.994	-0.032	0.029
-297.735	-14.420	-0.173	0.109
-296.720	-166.705	0.128	-0.005
-295.705	346.189	-0.129	0.250
-294.691	-200.000	-0.050	-0.237
-293.676	-66.474	-0.249	0.097
-292.662	-146.584	0.182	0.016
-291.647	-37.687	0.246	-0.129
-290.632	-103.391	-0.319	0.074
-289.618	800.000	-0.080	0.280
-288.603	-44.828	-0.134	-0.066
-287.589	265.299	-0.050	0.086
-286.574	-181.475	0.368	0.007
-285.559	115.897	-0.344	-0.415
-284.545	-6.980	-0.227	-0.152
-283.530	-200.000	0.016	0.101
-282.516	256.544	0.196	0.332
-281.501	-23.515	-0.221	-0.131
-280.486	-200.000	0.035	-0.405
-279.472	-200.000	0.022	0.298
-278.457	-61.078	-0.211	0.088
-277.443	-64.864	0.401	-0.160
-276.428	-122.612	0.609	0.097
-275.413	-136.347	-0.179	-0.021
-274.399	671.525	-0.118	-0.301
-273.384	120.610	0.116	0.142
-272.370	521.756	-0.038	0.088
-271.355	15.976	0.215	-0.166
-270.340	378.269	-0.060	0.122
-269.326	-4.043	-0.272	0.186
-268.311	302.817	0.117	0.213
-267.297	76.850	-0.078	0.082
-266.282	-22.506	-0.181	0.108
-265.267	267.141	0.130	0.224
-264.253	-200.000	-0.030	0.229
-263.238	-200.000	0.044	0.252
-262.224	-19.566	-0.248	0.151
-261.209	800.000	0.042	-0.119
-260.195	412.913	-0.091	-0.190
-259.180	-136.313	-0.152	0.017
-258.165	-200.000	0.055	-0.292
-257.151	96.632	-0.091	0.103
-256.136	395.561	0.165	0.338
-255.122	148.311	0.021	0.028
-254.107	-51.859	0.252	0.115
-253.092	8.037	0.252	0.186
-252.078	230.473	-0.108	0.173
-251.063	12.002	-0.324	0.245
-250.049	-86.440	-0.104	0.031
-249.034	-200.000	-0.072	-0.397
-248.019	110.007	0.117	0.138
-247.005	673.815	0.078	0.199
-245.990	800.000	-0.036	0.120
-244.976	-163.559	-0.286	0.013
-243.961	68.087	0.269	-0.270
-242.946	54.222	-0.142	-0.135
-241.932	-119.451	-0.049	0.008
-240.917	-126.158	-0.067	0.010
-239.903	-43.893	0.196	-0.097
-238.888	-63.030	0.161	0.066
-237.873	-144.564	0.195	-0.018
-236.859	-109.842	-0.213	-0.044
-235.844	-44.417	-0.103	0.051
-234.830	-200.000	-0.030	0.255
-233.815	501.199	-0.037	0.083
-232.800	800.000	0.103	-0.362
-231.786	77.228	0.362	0.378
-230.771	697.781	0.064	0.166
-229.757	-63.328	0.263	0.106
-228.742	-133.592	0.302	-0.037
-227.727	35.147	0.178	-0.153
-226.713	-53.949	-0.071	-0.032
-225.698	-186.919	-0.193	0.003
-224.684	-74.276	-0.510	-0.181
-223.669	352.698	-0.070	0.137
-222.655	150.998	0.083	-0.111
-221.640	345.280	-0.149	-0.287
-220.625	-200.000	-0.022	-0.262
-219.611	37.689	0.117	-0.102
-218.596	391.053	-0.077	-0.158
-217.582	-200.000	0.018	0.086
-216.567	-200.000	0.043	0.237
-215.552	157.204	-0.253	-0.344
-214.538	800.000	0.065	0.182
-213.523	78.208	0.216	0.226
-212.509	800.000	0.062	-0.221
-211.494	-126.819	-0.251	0.036
-210.479	89.020	0.282	-0.309
-209.465	232.686	-0.068	-0.110
-208.450	-27.155	-0.327	0.187
-207.436	800.000	0.028	-0.079
-206.421	301.116	-0.041	-0.075
-205.406	90.497	-0.095	0.104
-204.392	-200.000	-0.045	-0.224
-203.377	-31.986	-0.117	-0.064
-202.363	213.817	-0.288	-0.447
-201.348	176.796	0.261	-0.373
-200.333	45.135	0.111	0.100
-199.319	-84.253	-0.140	0.043
-198.304	246.368	-0.160	0.264
-197.290	110.955	0.027	-0.032
-196.275	-94.777	-0.064	0.017
-195.260	-10.886	0.124	-0.081
-194.246	-200.000	-0.025	0.180
-193.231	-200.000	-0.044	0.229
-192.217	288.983	-0.043	-0.076
-191.202	205.795	0.226	-0.345
-190.187	18.181	-0.136	0.107
-189.173	65.949	-0.313	0.311
-188.158	-61.439	0.301	-0.124
-187.144	209.688	0.137	0.211
-186.129	182.600	0.081	-0.118
-185.114	-200.000	-0.035	-0.249
-184.100	47.406	0.152	-0.139
-183.085	3.743	0.101	-0.072
-182.071	372.035	-0.031	0.061
-181.056	-21.487	0.148	-0.089
-180.042	53.261	-0.360	-0.338
-179.027	-34.864	0.223	0.119
-178.012	133.517	0.148	-0.187
-176.998	-86.906	-0.212	0.064
-175.983	-153.983	0.181	0.012
-174.969	-200.000	-0.013	0.228
-173.954	474.515	0.167	-0.369
-172.939	111.836	0.072	0.085
-171.925	130.213	0.220	0.277
-170.910	-200.000	-0.042	-0.250
-169.896	-20.103	0.236	0.143
-168.881	-100.720	0.275	-0.066
-167.866	114.839	0.080	0.095
-166.852	76.465	0.046	-0.048
-165.837	-104.302	0.087	0.020
-164.823	-134.023	0.277	-0.034
-163.808	-33.124	-0.053	0.029
-162.793	-107.929	-0.184	0.039
-161.779	-200.000	0.041	-0.395
-160.764	41.501	0.234	-0.207
-159.750	270.054	-0.190	-0.327
-158.735	-152.513	0.222	0.016
-157.720	800.000	-0.056	-0.180
-156.706	724.118	0.146	0.380
-155.691	-30.897	-0.117	0.065
-154.677	1.654	0.260	0.184
-153.662	35.083	-0.094	-0.081
-152.647	800.000	-0.022	-0.072
-151.633	41.539	0.240	-0.213
-150.618	507.408	0.051	-0.116
-149.604	58.309	0.154	0.148
-148.589	32.953	0.050	0.043
-147.574	-102.980	-0.080	0.018
-146.560	-200.000	-0.049	0.250
-145.545	-114.735	0.211	-0.040
-144.531	-200.000	0.062	-0.296
-143.516	-126.250	0.049	-0.007
-142.502	-102.048	0.205	0.048
-141.487	-167.089	-0.155	0.006
-140.472	474.326	0.055	-0.121
-139.458	-91.651	0.361	-0.101
-138.443	800.000	0.057	0.220
-137.429	-134.199	0.289	0.035
-136.414	-144.962	0.311	-0.028
-135.399	800.000	0.102	0.365
-134.385	-200.000	-0.037	-0.224
-133.370	143.595	0.370	0.482
-132.356	-128.445	0.148	0.021
-131.341	169.834	0.096	0.135
-130.326	800.000	-0.141	0.401
-129.312	-25.352	-0.138	0.080
-128.297	-30.440	-0.350	-0.195
-127.283	342.667	0.077	0.148
-126.268	800.000	0.085	0.256
-125.253	-200.000	-0.019	-0.123
-124.239	-11.391	-0.074	-0.047
-123.224	393.973	0.170	0.347
-122.210	-8.962	0.066	0.043
-121.195	-200.000	-0.000	0.221
