DTS Sentinel unit serial number:	SN413079Multiplexer serial number:	ORYXHardware model number:	OX4-SRSoftware version number:	ORYX F/W v4.00 Oryx Data Collector v3.7.2.0data status	okinstallation	princeton_trtdifferential loss correction	single-endedforward channel	channel 1reverse channel	N/Adate	2019/09/18time	00:18:35forward acquisition time	60.00reverse acquisition time	0.00gamma	496.2192k internal	0.2340k external	0.2340temperature offset calibration	0.9980default loss term (dB/km)	0.3790temperature slope calibration	1.0000multiplexer offset coefficient	1.0000multiplexer slope coefficient	1.0000fibre end	0.00T internal ref (°C)	23.67T ext. ref 1 (°C)	0.17T ext. ref 2 (°C)	17.21length (m)	temperature (°C)	Stokes	anti-Stokes-747.200	121.218	0.062	-0.077
-746.185	180.513	-0.158	0.233
-745.171	-106.878	0.357	-0.079
-744.156	31.069	0.093	0.080
-743.142	-200.000	-0.011	-0.191
-742.127	142.316	-0.053	-0.070
-741.112	-71.333	0.087	-0.032
-740.098	800.000	-0.067	0.284
-739.083	800.000	0.036	0.148
-738.069	-94.740	-0.139	-0.038
-737.054	-110.729	-0.252	-0.052
-736.039	-85.104	-0.416	-0.130
-735.025	7.092	0.138	0.103
-734.010	-96.667	-0.443	-0.117
-732.996	-132.688	0.245	-0.031
-731.981	49.097	0.222	0.209
-730.966	-117.248	0.301	-0.055
-729.952	144.637	-0.288	-0.386
-728.937	67.846	-0.244	0.250
-727.923	-69.965	-0.136	-0.052
-726.908	-28.569	0.241	-0.139
-725.894	84.571	-0.047	0.052
-724.879	267.400	-0.148	-0.259
-723.864	-32.890	0.262	0.146
-722.850	-61.226	-0.358	-0.151
-721.835	-47.552	0.110	-0.054
-720.821	-200.000	0.001	0.373
-719.806	-44.645	-0.144	-0.072
-718.791	348.123	-0.122	0.242
-717.777	-57.100	-0.121	0.054
-716.762	-200.000	0.004	0.084
-715.748	-120.035	-0.236	0.041
-714.733	-14.675	0.083	0.053
-713.718	86.476	-0.133	0.146
-712.704	-18.939	0.177	-0.110
-711.689	146.891	-0.252	-0.339
-710.675	216.481	0.099	-0.157
-709.660	416.852	-0.074	-0.158
-708.645	-89.391	0.209	0.062
-707.631	-200.000	0.006	-0.072
-706.616	800.000	-0.057	-0.168
-705.602	-99.474	-0.159	0.040
-704.587	-200.000	-0.023	-0.195
-703.572	-125.837	0.191	-0.029
-702.558	592.145	0.071	0.176
-701.543	395.335	-0.084	-0.174
-700.529	603.777	0.070	0.175
-699.514	137.600	-0.049	-0.065
-698.499	800.000	0.002	0.010
-697.485	54.558	0.166	0.160
-696.470	-127.786	-0.133	-0.019
-695.456	-200.000	0.004	-0.044
-694.441	104.247	0.194	-0.228
-693.426	-149.498	-0.254	-0.020
-692.412	22.799	0.098	-0.080
-691.397	-136.635	-0.259	0.030
-690.383	800.000	-0.055	-0.224
-689.368	463.247	-0.108	-0.241
-688.354	-17.498	-0.145	0.091
-687.339	-200.000	-0.060	-0.467
-686.324	-200.000	0.023	-0.138
-685.310	-24.628	-0.155	0.092
-684.295	-52.396	-0.119	-0.055
-683.281	-200.000	0.019	-0.121
-682.266	-12.568	-0.286	-0.187
-681.251	-200.000	0.035	-0.269
-680.237	177.984	-0.116	-0.169
-679.222	21.049	0.116	0.094
-678.208	90.713	0.260	0.291
-677.193	-130.361	-0.201	0.027
-676.178	-16.467	-0.123	-0.078
-675.164	-48.930	0.206	-0.099
-674.149	-200.000	-0.008	-0.170
-673.135	-49.479	-0.191	-0.091
-672.120	800.000	-0.064	0.181
-671.105	-200.000	0.064	-0.308
-670.091	-200.000	-0.034	0.269
-669.076	139.967	0.216	-0.284
-668.062	-104.972	0.336	0.077
-667.047	6.069	-0.159	0.117
-666.032	7.645	-0.090	-0.068
-665.018	-158.146	0.293	-0.017
-664.003	800.000	-0.066	0.192
-662.989	-51.094	-0.363	-0.170
-661.974	-200.000	-0.046	0.483
-660.959	-200.000	-0.013	-0.253
-659.945	-94.026	0.203	0.056
-658.930	114.791	-0.033	-0.040
-657.916	27.518	0.251	0.211
-656.901	3.756	-0.051	0.037
-655.886	-200.000	0.176	0.000
-654.872	800.000	0.051	0.208
-653.857	-83.313	-0.188	-0.060
-652.843	642.712	0.070	-0.177
-651.828	-127.414	-0.329	0.048
-650.814	-169.035	-0.138	-0.005
-649.799	25.778	0.137	-0.114
-648.784	-135.376	-0.290	0.035
-647.770	-178.821	-0.229	0.005
-646.755	169.532	-0.177	-0.253
-645.741	231.666	-0.077	0.126
-644.726	3.325	0.192	-0.140
-643.711	-104.661	0.189	0.044
-642.697	-142.377	-0.236	0.023
-641.682	141.344	0.245	0.324
-640.668	-89.992	0.067	0.020
-639.653	-200.000	0.005	0.120
-638.638	-200.000	0.008	-0.280
-637.624	591.120	0.107	-0.263
-636.609	54.492	0.010	-0.010
-635.595	-200.000	0.009	-0.095
-634.580	-141.233	-0.169	-0.017
-633.565	180.570	-0.228	-0.334
-632.551	343.755	-0.106	0.206
-631.536	-200.000	0.017	-0.419
-630.522	800.000	0.111	0.341
-629.507	213.656	-0.043	-0.068
-628.492	438.493	0.153	0.334
-627.478	-93.949	-0.194	-0.053
-626.463	143.135	-0.241	-0.320
-625.449	-197.601	-0.167	-0.001
-624.434	85.684	-0.192	-0.210
-623.419	-200.000	-0.036	0.246
-622.405	-24.291	0.165	-0.098
-621.390	-200.000	0.063	0.279
-620.376	40.060	0.173	0.155
-619.361	325.231	0.092	0.175
-618.346	283.272	0.159	-0.284
-617.332	531.996	0.063	-0.148
-616.317	-143.881	0.416	-0.039
-615.303	800.000	-0.097	-0.425
-614.288	572.680	-0.133	-0.323
-613.273	-127.189	-0.101	0.015
-612.259	-200.000	0.020	-0.141
-611.244	-4.060	-0.358	0.247
-610.230	47.997	-0.079	0.074
-609.215	21.454	-0.271	-0.220
-608.201	0.660	0.228	-0.163
-607.186	446.149	-0.139	-0.305
-606.171	-26.553	-0.086	-0.050
-605.157	-19.899	0.156	-0.096
-604.142	800.000	0.006	-0.024
-603.128	-87.817	-0.070	0.021
-602.113	-47.371	0.129	-0.063
-601.098	-138.628	-0.228	0.025
-600.084	-66.825	-0.219	-0.086
-599.069	-156.653	0.199	-0.012
-598.055	141.538	-0.024	0.032
-597.040	-111.649	0.320	0.065
-596.025	-200.000	0.058	-0.492
-595.011	511.371	-0.083	-0.193
-593.996	64.543	-0.056	0.056
-592.982	363.830	-0.113	0.227
-591.967	800.000	0.076	0.236
-590.952	-14.047	-0.241	0.155
-589.938	360.080	-0.072	-0.144
-588.923	-200.000	-0.025	-0.180
-587.909	-200.000	-0.049	-0.311
-586.894	-11.037	-0.259	-0.170
-585.879	-45.418	-0.276	-0.137
-584.865	-160.296	-0.127	-0.007
-583.850	-12.823	-0.131	0.085
-582.836	-78.532	0.266	0.091
-581.821	-81.078	-0.214	0.071
-580.806	242.808	-0.146	0.243
-579.792	800.000	-0.011	0.034
-578.777	206.909	0.145	0.225
-577.763	-11.767	0.336	0.219
-576.748	-75.301	0.108	-0.038
-575.733	59.566	-0.191	-0.187
-574.719	316.306	-0.095	0.178
-573.704	6.779	0.050	0.037
-572.690	-88.981	-0.111	-0.033
-571.675	-39.962	0.082	0.043
-570.661	96.011	0.219	-0.250
-569.646	-104.522	0.473	-0.109
-568.631	-85.975	0.162	0.050
-567.617	57.562	-0.067	0.065
-566.602	-200.000	-0.022	0.227
-565.588	-200.000	0.022	0.135
-564.573	-42.797	0.340	-0.172
-563.558	28.913	0.316	0.267
-562.544	800.000	-0.067	-0.195
-561.529	152.440	0.242	0.329
-560.515	15.537	0.019	0.015
-559.500	-175.932	-0.294	0.008
-558.485	33.212	0.148	-0.128
-557.471	64.463	0.128	-0.128
-556.456	-200.000	-0.029	-0.352
-555.442	-200.000	0.053	-0.356
-554.427	-0.179	0.133	0.094
-553.412	-147.628	-0.278	0.023
-552.398	-94.683	-0.161	0.044
-551.383	615.069	0.100	-0.248
-550.369	27.804	0.191	-0.160
-549.354	198.714	-0.145	0.221
-548.339	22.292	-0.208	0.169
-547.325	-168.683	0.325	0.012
-546.310	-3.091	-0.126	-0.087
-545.296	239.231	-0.144	-0.237
-544.281	-200.000	-0.074	-0.462
-543.266	800.000	0.057	0.163
-542.252	800.000	-0.091	-0.312
-541.237	-73.966	0.228	-0.082
-540.223	-41.801	-0.205	0.104
-539.208	-101.210	-0.455	-0.111
-538.193	689.783	0.048	-0.125
-537.179	-100.229	0.109	0.027
-536.164	800.000	0.030	0.119
-535.150	-138.882	-0.312	0.034
-534.135	-200.000	-0.025	0.154
-533.121	94.207	0.146	0.165
-532.106	-96.400	-0.294	0.077
-531.091	24.410	-0.104	-0.086
-530.077	175.074	-0.209	-0.300
-529.062	6.375	-0.426	-0.314
-528.048	108.247	-0.223	-0.264
-527.033	800.000	-0.052	-0.180
-526.018	800.000	0.046	0.135
-525.004	-42.694	-0.187	0.094
-523.989	230.768	0.096	0.155
-522.975	178.881	-0.149	0.217
-521.960	539.728	0.043	0.101
-520.945	-200.000	-0.040	-0.222
-519.931	800.000	-0.055	0.179
-518.916	-164.044	0.308	-0.014
-517.902	58.368	-0.169	0.165
-516.887	-152.762	-0.247	0.017
-515.872	99.174	0.161	0.185
-514.858	800.000	-0.083	0.277
-513.843	-197.154	-0.282	0.002
-512.829	-135.522	0.380	-0.045
-511.814	-31.079	-0.472	-0.264
-510.799	258.534	-0.188	0.322
-509.785	-200.000	0.010	-0.049
-508.770	76.567	-0.128	0.135
-507.756	-23.864	-0.234	0.139
-506.741	-200.000	0.023	-0.265
-505.726	800.000	-0.035	-0.110
-504.712	-200.000	0.015	0.080
-503.697	14.556	0.129	0.100
-502.683	-60.991	0.204	-0.086
-501.668	771.068	-0.055	0.148
-500.653	-174.693	0.250	0.007
-499.639	-28.288	0.018	0.010
-498.624	320.830	0.123	0.232
-497.610	-33.306	0.200	-0.110
-496.595	290.903	0.096	0.173
-495.581	-193.092	-0.166	-0.001
-494.566	-23.659	-0.130	0.077
-493.551	40.872	-0.266	0.238
-492.537	-74.051	0.232	0.084
-491.522	2.199	0.153	0.110
-490.508	-200.000	0.000	-0.076
-489.493	-200.000	-0.009	-0.056
-488.478	-200.000	0.001	-0.105
-487.464	84.196	0.055	-0.059
-486.449	-200.000	-0.055	0.253
-485.435	-0.259	-0.133	0.094
-484.420	-58.044	-0.077	0.033
-483.405	154.334	0.328	-0.447
-482.391	800.000	-0.039	-0.128
-481.376	4.017	-0.132	-0.096
-480.362	191.746	0.071	0.107
-479.347	-200.000	0.024	0.299
-478.332	-21.745	0.126	0.076
-477.318	-83.241	0.135	-0.043
-476.303	198.765	0.032	0.049
-475.289	-50.675	0.165	-0.077
-474.274	-200.000	0.040	0.275
-473.259	769.003	-0.094	0.254
-472.245	-200.000	-0.003	0.065
-471.230	-100.380	-0.411	0.101
-470.216	-25.643	-0.236	-0.138
-469.201	11.710	0.108	-0.082
-468.186	-134.403	-0.367	0.045
-467.172	-151.565	0.061	-0.004
-466.157	106.608	-0.089	-0.105
-465.143	99.664	0.277	0.317
-464.128	-39.873	-0.287	-0.148
-463.113	187.314	-0.287	0.425
-462.099	-3.126	0.157	0.109
-461.084	114.511	0.233	-0.282
-460.070	-200.000	-0.008	0.150
-459.055	-51.855	0.125	-0.057
-458.040	-49.342	0.290	0.137
-457.026	98.288	0.113	-0.129
-456.011	180.280	-0.148	-0.215
-454.997	-200.000	0.022	-0.148
-453.982	800.000	-0.095	-0.304
-452.968	-47.768	0.252	-0.121
-451.953	-200.000	0.001	0.032
-450.938	246.241	0.056	-0.094
-449.924	-200.000	0.013	0.144
-448.909	-68.143	-0.189	-0.073
-447.895	-166.382	0.287	-0.012
-446.880	-95.802	-0.353	0.093
-445.865	-41.235	0.122	-0.062
-444.851	-64.783	0.331	0.133
-443.836	-71.702	-0.148	0.055
-442.822	-161.264	0.240	0.012
-441.807	5.469	-0.158	-0.116
-440.792	54.216	0.104	0.099
-439.778	50.419	0.116	0.109
-438.763	-200.000	0.007	-0.069
-437.749	215.260	-0.091	0.144
-436.734	-115.331	-0.498	-0.093
-435.719	180.147	0.127	-0.184
-434.705	-78.895	-0.250	0.084
-433.690	-42.708	0.176	-0.089
-432.676	-200.000	0.006	-0.075
-431.661	-115.674	0.134	-0.025
-430.646	42.095	-0.221	-0.198
-429.632	-128.977	0.097	-0.013
-428.617	-200.000	0.497	0.001
-427.603	-27.717	0.114	-0.065
-426.588	-91.587	-0.265	0.075
-425.573	338.227	-0.135	0.261
-424.559	-68.198	-0.066	-0.026
-423.544	58.351	-0.296	-0.287
-422.530	-200.000	0.006	-0.065
-421.515	-40.682	0.072	0.037
-420.500	-131.114	0.089	-0.012
-419.486	800.000	0.096	-0.395
-418.471	-200.000	0.008	-0.124
-417.457	-200.000	-0.035	0.182
-416.442	71.154	0.200	-0.205
-415.428	-50.127	0.071	-0.033
-414.413	-66.871	-0.402	0.157
-413.398	-127.785	0.224	-0.032
-412.384	800.000	-0.085	-0.327
-411.369	-200.000	-0.025	0.175
-410.355	17.197	0.116	0.091
-409.340	262.126	-0.056	-0.096
-408.325	128.001	-0.293	-0.369
-407.311	-74.321	0.504	-0.180
-406.296	-200.000	-0.011	-0.202
-405.282	150.465	0.111	0.149
-404.267	800.000	-0.061	0.200
-403.252	614.343	-0.042	-0.104
-402.238	615.294	0.023	0.058
-401.223	112.509	-0.157	-0.188
-400.209	-103.234	0.295	-0.069
-399.194	-104.296	0.195	0.045
-398.179	289.206	0.140	0.251
-397.165	-94.430	-0.298	-0.080
-396.150	800.000	0.065	-0.190
-395.136	698.527	0.008	0.021
-394.121	38.658	0.101	-0.089
-393.106	41.225	-0.147	0.131
-392.092	3.617	0.156	-0.113
-391.077	-145.608	0.081	0.007
-390.063	93.153	0.021	0.023
-389.048	15.194	-0.121	-0.094
-388.033	-200.000	-0.066	0.358
-387.019	-129.417	-0.338	-0.046
-386.004	-32.977	0.248	0.136
-384.990	-60.295	0.043	-0.018
-383.975	800.000	-0.032	-0.134
-382.960	540.421	-0.228	0.537
-381.946	-74.287	0.510	-0.182
-380.931	234.316	-0.034	0.056
-379.917	-148.496	0.406	0.033
-378.902	69.462	-0.135	0.137
-377.888	-200.000	0.012	-0.072
-376.873	496.720	-0.176	-0.400
-375.858	98.059	0.315	0.358
-374.844	-148.638	0.211	0.017
-373.829	-19.955	0.359	0.219
-372.815	800.000	-0.057	-0.218
-371.800	134.101	-0.071	0.091
-370.785	-158.956	-0.240	-0.013
-369.771	-200.000	0.007	-0.248
-368.756	343.098	0.052	0.101
-367.742	255.105	0.094	0.159
-366.727	288.150	0.010	0.018
-365.712	-200.000	-0.006	-0.128
-364.698	-76.987	-0.084	0.029
-363.683	120.777	-0.107	0.131
-362.669	-200.000	-0.064	0.290
-361.654	-126.627	0.060	0.009
-360.639	-99.334	0.235	-0.059
-359.625	-60.405	0.051	0.021
-358.610	217.652	0.099	-0.155
-357.596	-7.569	-0.143	-0.095
-356.581	-106.307	-0.074	-0.016
-355.566	-20.213	0.138	0.084
-354.552	80.223	-0.100	-0.106
-353.537	15.460	0.127	-0.098
-352.523	-200.000	0.012	-0.054
-351.508	103.687	0.107	0.124
-350.493	800.000	-0.034	-0.123
-349.479	-200.000	0.038	0.213
-348.464	311.026	0.192	0.356
-347.450	-200.000	0.009	-0.135
-346.435	97.598	-0.065	-0.074
-345.420	-161.017	-0.089	-0.005
-344.406	-200.000	-0.009	-0.116
-343.391	-29.870	0.169	0.095
-342.377	558.831	-0.012	0.030
-341.362	-116.595	0.039	-0.007
-340.348	-101.773	-0.059	-0.014
-339.333	-107.999	-0.374	-0.080
-338.318	683.317	-0.033	0.084
-337.304	-141.578	-0.240	-0.024
-336.289	-71.131	-0.400	-0.148
-335.275	-16.629	0.378	0.236
-334.260	87.281	0.302	0.330
-333.245	800.000	-0.130	-0.410
-332.231	35.460	0.076	0.066
-331.216	241.221	-0.019	-0.031
-330.202	117.747	0.097	0.118
-329.187	55.950	-0.203	0.194
-328.172	-171.075	-0.188	0.006
-327.158	-61.895	-0.249	-0.103
-326.143	46.168	-0.110	0.101
-325.129	-200.000	0.007	0.256
-324.114	64.412	-0.164	0.162
-323.099	-200.000	0.053	0.355
-322.085	-200.000	0.032	-0.317
-321.070	592.433	-0.070	-0.171
-320.056	407.788	-0.151	0.315
-319.041	163.497	-0.158	0.219
-318.026	7.663	0.217	0.160
-317.012	78.747	0.200	0.211
-315.997	52.066	0.126	-0.118
-314.983	800.000	-0.046	-0.168
-313.968	148.399	0.113	0.151
-312.953	92.429	0.204	-0.227
-311.939	395.141	0.081	-0.166
-310.924	-29.477	-0.159	0.090
-309.910	-200.000	0.054	-0.237
-308.895	277.521	0.172	-0.302
-307.880	800.000	0.048	-0.137
-306.866	-157.155	-0.199	0.012
-305.851	3.876	0.258	-0.186
-304.837	450.954	-0.065	-0.141
-303.822	-21.676	-0.208	-0.125
-302.807	-11.799	0.351	-0.227
-301.793	800.000	0.103	0.328
-300.778	89.643	-0.073	-0.080
-299.764	-94.429	-0.186	0.050
-298.749	-200.000	-0.009	0.099
-297.735	506.464	0.096	0.220
-296.720	-26.627	0.375	0.216
-295.705	-135.721	0.177	0.021
-294.691	-200.000	-0.067	-0.339
-293.676	75.308	0.291	0.302
-292.662	403.870	0.183	0.380
-291.647	-200.000	-0.021	0.188
-290.632	-142.629	0.187	0.018
-289.618	-121.297	-0.164	-0.027
-288.603	-112.487	0.324	-0.064
-287.589	-74.702	-0.242	-0.086
-286.574	800.000	-0.006	0.027
-285.559	-76.004	-0.063	-0.022
-284.545	-77.007	0.251	0.086
-283.530	232.738	0.165	-0.266
-282.516	800.000	-0.036	0.125
-281.501	-200.000	0.004	0.035
-280.486	-200.000	0.045	0.224
-279.472	96.460	0.068	0.077
-278.457	217.404	-0.152	-0.239
-277.443	126.650	-0.021	0.027
-276.428	-200.000	0.020	0.175
-275.413	286.112	0.138	-0.245
-274.399	800.000	0.034	0.128
-273.384	-34.824	-0.198	-0.107
-272.370	225.075	0.038	0.061
-271.355	229.311	0.220	-0.353
-270.340	83.977	-0.155	0.167
-269.326	118.863	0.234	-0.285
-268.311	341.440	0.064	0.124
-267.297	-57.966	-0.181	0.078
-266.282	-200.000	0.024	0.129
-265.267	-14.288	-0.150	0.095
-264.253	81.021	-0.006	-0.007
-263.238	489.907	0.119	-0.268
-262.224	278.626	-0.124	0.217
-261.209	689.044	0.089	0.229
-260.195	395.212	-0.053	-0.110
-259.180	-124.687	0.116	-0.018
-258.165	51.707	0.031	0.029
-257.151	-157.641	0.358	0.021
-256.136	199.653	-0.038	0.058
-255.122	-21.194	-0.196	0.118
-254.107	800.000	0.019	0.058
-253.092	-105.518	-0.238	0.053
-252.078	800.000	-0.035	-0.147
-251.063	-33.502	-0.221	0.120
-250.049	241.288	-0.184	0.302
-249.034	313.446	0.146	-0.270
-248.019	187.400	0.172	-0.252
-247.005	47.223	0.175	-0.160
-245.990	120.433	0.298	0.364
-244.976	-146.924	0.259	-0.022
-243.961	-139.776	-0.181	0.019
-242.946	101.977	-0.092	-0.105
-241.932	-143.344	0.203	0.019
-240.917	293.542	0.084	0.151
-239.903	800.000	0.077	0.286
-238.888	-47.202	-0.119	0.057
-237.873	45.241	0.030	-0.027
-236.859	332.010	0.153	0.291
-235.844	-141.440	0.145	0.014
-234.830	206.304	0.187	0.286
-233.815	422.989	-0.136	0.288
-232.800	3.299	-0.218	0.156
-231.786	-38.357	-0.203	0.105
-230.771	145.195	-0.067	-0.088
-229.757	15.266	-0.007	0.005
-228.742	800.000	0.025	-0.073
-227.727	20.029	0.143	0.113
-226.713	204.125	-0.084	0.128
-225.698	-100.793	0.059	-0.014
-224.684	-132.218	0.174	0.022
-223.669	-200.000	-0.002	-0.280
-222.655	800.000	-0.065	0.177
-221.640	512.993	0.048	0.110
-220.625	-92.656	-0.324	0.089
-219.611	287.667	-0.187	-0.333
-218.596	19.859	-0.064	-0.051
-217.582	646.860	0.059	-0.149
-216.567	-127.922	0.232	-0.033
-215.552	31.789	0.041	-0.035
-214.538	-200.000	-0.025	0.267
-213.523	232.339	-0.220	0.355
-212.509	-88.734	-0.191	0.056
-211.494	384.186	-0.220	-0.444
-210.479	171.816	0.298	-0.420
-209.465	-136.292	-0.053	-0.006
-208.450	227.691	0.036	0.058
-207.436	-200.000	-0.009	-0.069
-206.421	32.491	-0.132	-0.112
-205.406	-35.253	-0.112	-0.060
-204.392	74.633	-0.109	0.112
-203.377	88.297	0.060	0.066
-202.363	-64.277	0.118	0.047
-201.348	741.490	0.009	-0.023
-200.333	-27.762	0.091	0.052
-199.319	-93.532	-0.037	-0.010
-198.304	132.111	-0.210	0.265
-197.290	-200.000	-0.037	0.179
-196.275	85.984	-0.139	0.150
-195.260	-80.417	-0.355	0.116
-194.246	320.634	0.035	0.065
-193.231	-127.167	0.257	-0.037
-192.217	491.715	-0.125	-0.281
-191.202	-200.000	0.029	-0.142
-190.187	368.171	0.051	0.102
-189.173	79.851	0.145	0.152
-188.158	11.833	0.066	0.050
-187.144	-200.000	0.035	0.166
-186.129	-177.246	0.119	-0.003
-185.114	15.184	-0.320	-0.246
-184.100	7.711	0.193	0.142
-183.085	-23.737	0.150	0.088
-182.071	-200.000	0.039	-0.266
-181.056	-163.093	0.251	0.012
-180.042	-113.916	0.221	-0.042
-179.027	-172.684	-0.304	-0.009
-178.012	800.000	0.115	0.331
-176.998	-51.446	-0.252	-0.116
-175.983	25.680	-0.302	-0.247
-174.969	-200.000	-0.060	-0.374
-173.954	-79.830	0.049	-0.016
-172.939	-107.381	0.206	-0.044
-171.925	-129.246	-0.232	0.032
-170.910	-200.000	0.006	-0.174
-169.896	21.634	-0.114	0.091
-168.881	297.727	-0.142	0.256
-167.866	134.642	0.044	-0.056
-166.852	1.797	0.180	0.127
-165.837	-200.000	-0.005	-0.110
-164.823	-165.485	-0.121	-0.005
-163.808	-116.859	0.144	-0.026
-162.793	7.634	-0.070	0.051
-161.779	53.657	0.139	0.131
-160.764	-81.879	-0.080	-0.026
-159.750	-127.633	-0.200	0.028
-158.735	-97.507	0.236	-0.060
-157.720	-74.088	0.175	0.062
-156.706	-20.647	0.065	0.039
-155.691	-86.752	-0.308	0.092
-154.677	-115.127	0.146	0.027
-153.662	-46.414	0.176	-0.085
-152.647	-73.532	-0.189	-0.068
-151.633	19.122	-0.056	0.044
-150.618	89.972	0.160	0.175
-149.604	800.000	0.049	0.148
-148.589	383.330	-0.123	-0.249
-147.574	-200.000	0.016	-0.116
-146.560	-123.352	-0.275	-0.043
-145.545	-71.865	0.497	-0.181
-144.531	1.641	0.361	0.254
-143.516	-159.870	-0.330	0.018
-142.502	-163.946	0.095	0.004
-141.487	-200.000	0.017	0.320
-140.472	-0.962	-0.306	0.212
-139.458	40.385	-0.200	0.176
-138.443	800.000	-0.043	-0.129
-137.429	-200.000	0.009	-0.079
-136.414	72.565	0.250	-0.255
-135.399	-123.054	-0.328	0.052
-134.385	800.000	0.039	0.138
-133.370	191.883	-0.180	-0.266
-132.356	103.367	-0.108	0.124
-131.341	116.733	-0.291	0.349
-130.326	72.298	-0.157	-0.160
-129.312	800.000	-0.092	-0.296
-128.297	-96.287	-0.133	0.034
-127.283	-200.000	0.001	-0.037
-126.268	800.000	-0.057	0.186
-125.253	140.581	0.151	-0.195
-124.239	-200.000	-0.016	-0.190
-123.224	-49.459	0.247	-0.115
-122.210	-200.000	0.033	0.184
-121.195	-200.000	0.047	0.320
