DTS Sentinel unit serial number:	SN413079Multiplexer serial number:	ORYXHardware model number:	OX4-SRSoftware version number:	ORYX F/W v4.00 Oryx Data Collector v3.7.2.0data status	okinstallation	princeton_trtdifferential loss correction	single-endedforward channel	channel 1reverse channel	N/Adate	2019/09/18time	18:34:35forward acquisition time	60.00reverse acquisition time	0.00gamma	496.2192k internal	0.2295k external	0.2295temperature offset calibration	1.0019default loss term (dB/km)	0.3790temperature slope calibration	1.0000multiplexer offset coefficient	1.0000multiplexer slope coefficient	1.0000fibre end	0.00T internal ref (°C)	38.12T ext. ref 1 (°C)	0.93T ext. ref 2 (°C)	30.28length (m)	temperature (°C)	Stokes	anti-Stokes-747.200	800.000	0.064	-0.248
-746.185	800.000	-0.018	0.055
-745.171	11.157	-0.144	0.113
-744.156	800.000	-0.113	0.331
-743.142	-60.701	-0.148	0.064
-742.127	225.138	-0.073	-0.120
-741.112	181.690	-0.039	0.059
-740.098	66.657	-0.143	0.148
-739.083	-82.491	0.184	0.061
-738.069	153.692	-0.292	0.409
-737.054	293.724	-0.141	0.263
-736.039	-200.000	-0.055	0.276
-735.025	-82.385	0.080	-0.027
-734.010	-8.617	0.340	0.233
-732.996	-150.562	0.133	-0.010
-731.981	-9.310	-0.162	0.110
-730.966	-69.662	-0.199	0.078
-729.952	800.000	0.036	0.134
-728.937	113.450	0.131	-0.162
-727.923	347.457	0.153	-0.308
-726.908	-200.000	0.040	-0.312
-725.894	-48.559	-0.241	-0.119
-724.879	-19.882	-0.215	0.136
-723.864	-16.365	-0.142	-0.092
-722.850	-200.000	-0.012	0.400
-721.835	-168.678	-0.311	-0.012
-720.821	-142.348	-0.053	-0.005
-719.806	-200.000	-0.009	-0.150
-718.791	-200.000	0.009	0.056
-717.777	-200.000	0.021	-0.314
-716.762	-0.007	-0.018	0.013
-715.748	-48.297	0.484	-0.239
-714.733	206.171	-0.075	-0.119
-713.718	311.809	-0.137	-0.262
-712.704	-97.018	-0.134	-0.036
-711.689	800.000	0.165	0.467
-710.675	-10.548	0.229	0.155
-709.660	-67.297	-0.318	-0.128
-708.645	276.718	-0.237	0.429
-707.631	9.697	-0.274	0.212
-706.616	-146.059	0.087	0.008
-705.602	230.896	0.122	-0.203
-704.587	229.442	-0.102	0.170
-703.572	163.266	-0.128	-0.184
-702.558	-38.444	-0.365	-0.197
-701.543	9.367	-0.180	0.139
-700.529	800.000	-0.060	-0.178
-699.514	-121.314	-0.217	-0.037
-698.499	-115.333	0.076	-0.015
-697.485	41.611	-0.052	0.048
-696.470	-108.521	0.090	0.020
-695.456	399.545	-0.063	0.135
-694.441	71.490	-0.232	0.246
-693.426	159.685	0.148	0.211
-692.412	-200.000	0.004	-0.068
-691.397	462.731	-0.118	0.269
-690.383	258.181	-0.209	-0.367
-689.368	245.587	0.092	-0.158
-688.354	-130.393	0.145	0.020
-687.339	-59.028	-0.158	-0.070
-686.324	-166.376	-0.323	-0.014
-685.310	-118.645	0.132	-0.024
-684.295	-72.741	-0.212	-0.080
-683.281	-200.000	0.004	-0.147
-682.266	-145.330	-0.269	0.025
-681.251	-2.077	-0.111	-0.080
-680.237	-77.172	-0.286	-0.102
-679.222	162.809	-0.241	-0.345
-678.208	117.628	-0.173	-0.217
-677.193	-85.974	-0.270	0.085
-676.178	59.363	-0.131	0.131
-675.164	-46.073	-0.282	0.142
-674.149	-95.574	-0.291	-0.079
-673.135	-171.093	-0.205	0.007
-672.120	-27.688	0.036	-0.021
-671.105	15.224	-0.202	0.162
-670.091	-115.909	-0.186	0.035
-669.076	36.297	-0.201	-0.181
-668.062	46.751	0.028	-0.027
-667.047	280.443	0.059	-0.107
-666.032	46.097	0.268	0.253
-665.018	-200.000	-0.018	0.151
-664.003	-200.000	0.031	-0.252
-662.989	800.000	-0.040	0.166
-661.974	-32.684	-0.198	0.112
-660.959	29.062	0.069	0.060
-659.945	-200.000	-0.006	0.150
-658.930	113.258	0.184	0.227
-657.916	-80.642	0.302	0.102
-656.901	-71.510	-0.154	-0.059
-655.886	497.084	0.040	-0.094
-654.872	123.656	-0.226	-0.289
-653.857	-73.185	0.430	0.161
-652.843	126.304	-0.020	0.026
-651.828	800.000	0.028	0.124
-650.814	702.465	0.160	0.430
-649.799	-74.387	-0.076	-0.028
-648.784	-79.974	-0.183	-0.063
-647.770	21.800	-0.160	0.133
-646.755	93.833	-0.205	0.237
-645.741	222.064	0.119	-0.195
-644.726	661.566	-0.081	-0.214
-643.711	4.915	-0.079	0.059
-642.697	-200.000	0.002	-0.106
-641.682	800.000	-0.069	-0.278
-640.668	-87.471	-0.101	0.031
-639.653	660.850	0.153	-0.401
-638.638	77.351	-0.182	-0.197
-637.624	-65.123	-0.267	-0.110
-636.609	-83.216	-0.170	0.056
-635.595	153.450	0.119	-0.165
-634.580	-155.381	-0.270	-0.018
-633.565	165.499	-0.063	0.091
-632.551	171.479	0.117	-0.172
-631.536	800.000	0.175	0.530
-630.522	800.000	-0.057	0.171
-629.507	-117.854	0.289	0.053
-628.492	-65.631	0.087	0.035
-627.478	-157.307	-0.077	0.005
-626.463	360.231	-0.036	0.073
-625.449	-17.401	0.150	0.096
-624.434	-42.181	-0.334	-0.174
-623.419	-126.728	0.295	-0.044
-622.405	-72.610	-0.125	0.047
-621.390	105.715	-0.159	0.192
-620.376	-94.383	0.159	-0.044
-619.361	-102.360	-0.113	0.028
-618.346	-61.392	0.046	0.020
-617.332	-200.000	-0.030	-0.150
-616.317	140.515	0.192	-0.257
-615.303	-123.768	-0.178	-0.029
-614.288	-200.000	0.013	0.147
-613.273	-25.828	-0.406	-0.243
-612.259	-13.680	-0.092	0.061
-611.244	38.193	-0.142	-0.129
-610.230	-133.182	0.634	0.081
-609.215	-135.103	0.015	-0.002
-608.201	-9.663	0.099	0.067
-607.186	-60.589	0.106	0.046
-606.171	800.000	-0.064	-0.185
-605.157	-185.888	0.284	0.004
-604.142	13.647	0.123	0.097
-603.128	-62.658	-0.453	0.191
-602.113	-96.594	0.151	0.041
-601.098	24.193	0.165	0.139
-600.084	-58.657	-0.239	-0.105
-599.069	800.000	-0.072	-0.280
-598.055	-180.580	-0.172	-0.004
-597.040	460.883	-0.099	-0.225
-596.025	57.986	0.247	0.246
-595.011	-200.000	0.005	-0.153
-593.996	70.355	0.264	-0.277
-592.982	19.088	0.103	-0.084
-591.967	-200.000	-0.062	-0.337
-590.952	-21.029	0.125	-0.078
-589.938	-92.223	0.267	0.077
-588.923	-137.466	0.236	0.027
-587.909	-113.762	-0.237	0.047
-586.894	-104.061	-0.242	-0.057
-585.879	-105.544	0.085	0.020
-584.865	59.204	0.259	0.259
-583.850	40.610	0.188	0.172
-582.836	-200.000	0.044	0.216
-581.821	-63.577	-0.110	0.046
-580.806	134.204	-0.233	0.306
-579.792	256.814	0.070	0.122
-578.777	800.000	0.047	-0.180
-577.763	-200.000	0.036	-0.240
-576.748	800.000	-0.122	-0.397
-575.733	375.076	-0.141	-0.292
-574.719	109.902	0.104	0.127
-573.704	-200.000	-0.017	0.297
-572.690	416.787	-0.207	-0.448
-571.675	-44.286	0.403	-0.205
-570.661	800.000	0.042	-0.166
-569.646	-165.418	0.258	-0.011
-568.631	499.491	-0.087	-0.203
-567.617	-200.000	-0.019	0.169
-566.602	-200.000	0.003	-0.134
-565.588	800.000	0.114	0.477
-564.573	-90.250	0.092	0.027
-563.558	800.000	0.077	0.227
-562.544	46.633	0.195	0.184
-561.529	-200.000	0.091	0.000
-560.515	-119.246	0.119	-0.021
-559.500	-200.000	-0.050	0.311
-558.485	800.000	-0.044	0.144
-557.471	526.371	0.063	-0.151
-556.456	160.594	0.132	0.187
-555.442	-27.090	-0.180	0.107
-554.427	-41.665	0.269	-0.140
-553.412	-58.498	-0.133	-0.058
-552.398	233.441	-0.179	-0.299
-551.383	-79.659	-0.084	0.029
-550.369	96.631	0.141	-0.164
-549.354	-121.636	0.283	-0.048
-548.339	-34.698	0.037	0.021
-547.325	-200.000	-0.020	0.092
-546.310	-147.156	0.087	0.008
-545.296	-200.000	0.031	-0.451
-544.281	-149.886	-0.264	-0.021
-543.266	160.602	-0.126	0.178
-542.252	316.491	-0.079	0.151
-541.237	-160.145	-0.292	-0.016
-540.223	481.466	0.117	-0.269
-539.208	209.817	0.146	0.233
-538.193	-15.443	-0.072	-0.046
-537.179	-24.019	-0.387	-0.235
-536.164	-10.113	-0.205	-0.138
-535.150	354.458	-0.097	0.195
-534.135	-89.430	-0.167	0.050
-533.121	-200.000	0.015	0.069
-532.106	218.543	0.086	0.139
-531.091	-200.000	-0.011	0.081
-530.077	60.824	0.071	0.071
-529.062	45.288	0.091	0.085
-528.048	-49.963	0.081	-0.039
-527.033	-200.000	0.045	0.215
-526.018	-86.924	-0.159	0.049
-525.004	-200.000	-0.009	0.103
-523.989	800.000	-0.056	0.190
-522.975	-123.528	-0.379	0.061
-521.960	-81.408	0.028	0.009
-520.945	-200.000	-0.009	-0.059
-519.931	214.212	-0.015	0.024
-518.916	-193.805	-0.188	0.002
-517.902	-23.114	-0.247	-0.151
-516.887	452.154	-0.028	0.062
-515.872	23.550	0.199	-0.166
-514.858	431.226	-0.019	-0.043
-513.843	-85.703	0.142	-0.045
-512.829	-82.311	-0.298	0.098
-511.814	-48.170	-0.215	-0.105
-510.799	184.383	0.165	-0.248
-509.785	-17.244	0.144	-0.092
-508.770	337.789	0.030	-0.059
-507.756	-96.438	0.373	0.100
-506.741	800.000	-0.052	-0.211
-505.726	57.108	0.148	-0.146
-504.712	560.285	0.138	-0.338
-503.697	-186.803	-0.135	0.002
-502.683	540.460	-0.024	-0.058
-501.668	-64.108	-0.163	0.067
-500.653	82.449	-0.046	-0.051
-499.639	-36.978	-0.187	-0.101
-498.624	800.000	-0.047	-0.152
-497.610	-200.000	0.014	0.537
-496.595	-62.394	0.290	0.122
-495.581	47.145	-0.187	-0.176
-494.566	-3.155	-0.128	0.090
-493.551	12.743	0.120	0.094
-492.537	-124.885	0.216	0.034
-491.522	-58.537	0.262	-0.115
-490.508	-7.267	0.356	-0.244
-489.493	-8.710	0.052	0.035
-488.478	52.219	0.304	-0.294
-487.464	-25.397	-0.171	-0.102
-486.449	75.606	0.210	-0.225
-485.435	149.742	0.247	0.338
-484.420	-105.679	-0.377	0.086
-483.405	800.000	0.047	0.147
-482.391	-108.051	-0.139	0.031
-481.376	800.000	0.072	-0.238
-480.362	-67.789	0.175	-0.069
-479.347	800.000	0.032	0.099
-478.332	-200.000	0.024	-0.349
-477.318	52.036	-0.340	-0.327
-476.303	-62.945	0.205	0.086
-475.289	-116.816	0.123	-0.023
-474.274	-128.961	-0.065	0.009
-473.259	-200.000	-0.003	0.191
-472.245	-154.520	-0.257	0.017
-471.230	224.693	-0.211	-0.346
-470.216	-114.703	0.405	-0.078
-469.201	-70.912	0.075	-0.029
-468.186	-83.516	0.222	0.072
-467.172	800.000	-0.084	0.265
-466.157	-200.000	0.045	0.396
-465.143	104.313	0.201	-0.240
-464.128	-88.417	0.298	-0.090
-463.113	-34.485	-0.306	0.170
-462.099	4.174	-0.099	0.073
-461.084	95.626	-0.233	0.269
-460.070	120.316	0.268	0.337
-459.055	190.961	-0.126	0.192
-458.040	-85.880	-0.298	-0.093
-457.026	-200.000	0.014	-0.224
-456.011	800.000	-0.027	0.097
-454.997	-117.231	0.111	0.020
-453.982	89.014	-0.253	-0.285
-452.968	-125.112	-0.326	0.051
-451.953	80.056	0.252	0.274
-450.938	676.179	0.138	-0.362
-449.924	800.000	0.081	-0.225
-448.909	-200.000	-0.003	0.218
-447.895	-2.760	-0.205	0.145
-446.880	-193.048	0.392	0.004
-445.865	-48.672	-0.071	0.034
-444.851	-200.000	0.014	0.107
-443.836	-58.602	-0.264	0.116
-442.822	-130.655	-0.046	-0.006
-441.807	10.678	0.221	-0.170
-440.792	-139.095	-0.118	0.013
-439.778	-2.399	0.099	0.070
-438.763	800.000	-0.027	0.115
-437.749	-147.708	0.042	-0.004
-436.734	-1.412	-0.115	0.082
-435.719	-149.455	-0.104	-0.008
-434.705	48.874	-0.196	-0.186
-433.690	800.000	0.010	-0.030
-432.676	-200.000	-0.063	0.443
-431.661	522.549	-0.166	0.393
-430.646	50.237	0.118	0.112
-429.632	-135.790	-0.719	-0.086
-428.617	-200.000	-0.022	-0.139
-427.603	-91.212	0.154	0.045
-426.588	-136.760	-0.272	-0.032
-425.573	800.000	-0.039	0.146
-424.559	-38.741	0.051	0.027
-423.544	303.966	0.106	-0.198
-422.530	377.463	-0.175	-0.361
-421.515	138.215	-0.231	0.306
-420.500	303.646	-0.036	-0.068
-419.486	234.676	0.160	0.266
-418.471	486.367	0.233	0.537
-417.457	375.440	0.009	0.019
-416.442	0.469	-0.062	-0.044
-415.428	582.245	-0.085	-0.211
-414.413	-93.637	-0.287	-0.080
-413.398	-124.409	-0.301	0.047
-412.384	63.924	0.291	0.295
-411.369	-12.837	-0.275	-0.181
-410.355	-200.000	-0.001	0.171
-409.340	0.815	-0.059	-0.043
-408.325	-200.000	-0.048	-0.248
-407.311	800.000	-0.074	-0.221
-406.296	-23.646	-0.276	0.167
-405.282	303.134	0.083	0.155
-404.267	650.889	0.076	0.195
-403.252	-7.338	-0.223	-0.152
-402.238	-83.926	-0.227	0.073
-401.223	-48.649	-0.423	0.205
-400.209	109.255	0.069	-0.083
-399.194	-176.387	0.228	-0.006
-398.179	270.078	-0.107	-0.191
-397.165	762.870	0.025	0.070
-396.150	-48.211	-0.400	-0.195
-395.136	173.942	0.177	-0.258
-394.121	-200.000	0.022	-0.278
-393.106	24.329	-0.064	-0.054
-392.092	-166.658	-0.206	-0.009
-391.077	387.931	0.123	-0.256
-390.063	-37.427	0.128	-0.069
-389.048	-142.220	0.052	-0.005
-388.033	-200.000	0.038	0.205
-387.019	-89.874	-0.210	0.062
-386.004	0.486	-0.158	-0.114
-384.990	-93.885	0.184	0.051
-383.975	-149.731	-0.329	0.026
-382.960	6.826	-0.223	-0.167
-381.946	218.867	0.237	0.381
-380.931	7.432	0.329	0.248
-379.917	322.088	0.094	0.181
-378.902	-200.000	-0.026	-0.119
-377.888	-88.105	-0.233	-0.071
-376.873	-153.877	-0.051	0.004
-375.858	-200.000	0.002	0.245
-374.844	-112.080	-0.124	0.025
-373.829	15.582	-0.254	-0.201
-372.815	345.355	0.108	-0.214
-371.800	800.000	-0.076	-0.330
-370.785	800.000	-0.039	-0.126
-369.771	-100.517	-0.158	0.039
-368.756	-71.244	0.121	-0.046
-367.742	800.000	-0.114	-0.378
-366.727	2.122	0.095	-0.069
-365.712	-133.859	0.293	0.037
-364.698	-141.887	-0.014	-0.001
-363.683	81.874	0.319	0.349
-362.669	619.672	-0.018	0.045
-361.654	54.722	0.163	-0.158
-360.639	-200.000	0.027	-0.240
-359.625	38.669	-0.130	0.117
-358.610	-24.631	-0.226	-0.135
-357.596	331.267	0.158	-0.308
-356.581	-94.534	0.281	0.077
-355.566	-141.704	0.115	-0.012
-354.552	-126.252	-0.222	0.033
-353.537	-146.682	-0.173	0.015
-352.523	69.367	-0.381	-0.395
-351.508	-200.000	0.018	0.173
-350.493	-111.648	-0.338	0.069
-349.479	-21.913	-0.017	0.011
-348.464	-200.000	-0.022	-0.161
-347.450	-178.838	0.285	0.007
-346.435	800.000	-0.044	0.193
-345.420	224.234	-0.053	0.086
-344.406	72.467	0.098	-0.103
-343.391	-200.000	0.010	0.053
-342.377	-200.000	-0.005	-0.047
-341.362	442.390	0.092	-0.203
-340.348	800.000	-0.087	-0.347
-339.333	14.860	0.088	0.069
-338.318	342.205	-0.137	0.270
-337.304	75.736	0.083	0.089
-336.289	57.733	-0.170	-0.167
-335.275	-200.000	0.218	0.000
-334.260	-200.000	-0.018	0.135
-333.245	331.757	-0.024	-0.046
-332.231	-200.000	-0.021	0.143
-331.216	209.806	-0.056	0.088
-330.202	-122.163	0.203	-0.033
-329.187	270.465	0.090	-0.160
-328.172	-200.000	-0.002	-0.142
-327.158	48.969	0.163	-0.154
-326.143	240.689	-0.033	0.055
-325.129	33.006	-0.195	-0.170
-324.114	378.553	0.078	0.161
-323.099	-200.000	0.033	-0.147
-322.085	-172.211	0.235	-0.008
-321.070	195.127	0.084	-0.128
-320.056	-142.656	0.163	-0.016
-319.041	132.119	0.029	-0.038
-318.026	322.881	0.052	0.100
-317.012	674.591	0.177	0.461
-315.997	-17.693	-0.127	-0.080
-314.983	314.546	-0.044	-0.083
-313.968	800.000	-0.108	0.350
-312.953	-19.895	-0.081	0.050
-311.939	-200.000	-0.008	-0.156
-310.924	116.485	0.157	-0.194
-309.910	-85.952	-0.245	0.076
-308.895	-52.502	-0.361	-0.168
-307.880	625.223	0.064	-0.163
-306.866	49.536	0.222	0.210
-305.851	-91.404	-0.549	-0.158
-304.837	-200.000	0.073	-0.343
-303.822	52.110	-0.246	-0.236
-302.807	237.389	-0.086	0.143
-301.793	-132.907	-0.258	-0.033
-300.778	-33.942	-0.303	-0.167
-299.764	800.000	0.096	0.319
-298.749	-199.947	-0.173	0.001
-297.735	-47.774	0.212	-0.103
-296.720	-200.000	0.184	-0.001
-295.705	-80.960	0.268	0.089
-294.691	61.010	0.222	0.221
-293.676	310.660	-0.066	-0.124
-292.662	22.022	-0.159	0.131
-291.647	800.000	0.113	-0.343
-290.632	100.185	0.054	0.062
-289.618	-200.000	0.039	-0.215
-288.603	-163.795	0.176	0.008
-287.589	-72.119	0.190	-0.071
-286.574	23.545	0.051	-0.042
-285.559	-14.942	0.054	0.035
-284.545	-72.945	-0.392	0.145
-283.530	800.000	0.039	-0.160
-282.516	4.697	0.135	0.100
-281.501	713.489	-0.031	0.082
-280.486	800.000	0.062	-0.218
-279.472	-138.120	0.205	-0.023
-278.457	194.524	0.092	0.140
-277.443	727.738	-0.067	0.180
-276.428	800.000	-0.031	-0.133
-275.413	800.000	0.077	0.239
-274.399	-200.000	-0.021	0.153
-273.384	714.446	0.031	0.083
-272.370	799.661	0.022	0.062
-271.355	702.348	-0.066	-0.173
-270.340	-130.853	-0.385	-0.052
-269.326	-200.000	0.019	-0.348
-268.311	-200.000	-0.016	-0.123
-267.297	800.000	-0.108	0.307
-266.282	-200.000	0.025	-0.386
-265.267	426.101	-0.119	0.257
-264.253	22.641	0.241	0.198
-263.238	31.843	0.278	0.240
-262.224	-128.321	0.272	-0.039
-261.209	102.508	0.067	-0.079
-260.195	195.190	0.052	-0.079
-259.180	-71.723	-0.140	0.053
-258.165	100.543	-0.170	-0.198
-257.151	-75.433	0.192	-0.069
-256.136	-6.530	-0.148	0.101
-255.122	-65.363	0.229	-0.092
-254.107	-200.000	0.033	0.396
-253.092	167.825	0.178	0.253
-252.078	-75.907	-0.179	0.064
-251.063	800.000	-0.036	-0.140
-250.049	-102.655	0.410	-0.098
-249.034	800.000	-0.085	0.367
-248.019	-105.840	0.224	0.051
-247.005	800.000	-0.108	0.308
-245.990	800.000	-0.062	0.180
-244.976	-58.757	0.140	-0.061
-243.961	39.651	-0.210	-0.189
-242.946	24.602	-0.121	0.100
-241.932	-78.208	0.372	0.128
-240.917	85.009	-0.179	0.197
-239.903	-74.221	0.121	0.044
-238.888	-200.000	-0.043	-0.453
-237.873	-108.837	-0.313	-0.067
-236.859	265.947	-0.037	0.065
-235.844	114.322	0.237	0.289
-234.830	230.558	-0.106	0.174
-233.815	-200.000	0.064	-0.374
-232.800	7.176	0.046	0.034
-231.786	-22.919	0.151	0.091
-230.771	-107.288	-0.155	-0.034
-229.757	-25.167	-0.172	0.102
-228.742	-200.000	-0.037	0.206
-227.727	74.103	0.077	-0.081
-226.713	-124.717	-0.272	-0.042
-225.698	-57.446	0.258	-0.114
-224.684	800.000	-0.054	-0.167
-223.669	-200.000	-0.029	-0.389
-222.655	205.378	-0.061	-0.095
-221.640	-200.000	-0.012	-0.077
-220.625	717.078	-0.130	0.347
-219.611	-179.428	-0.271	-0.006
-218.596	-186.388	0.208	-0.003
-217.582	34.645	0.430	-0.376
-216.567	-98.779	0.484	-0.123
-215.552	800.000	0.139	0.478
-214.538	8.390	0.146	-0.110
-213.523	800.000	0.024	0.079
-212.509	302.478	0.174	-0.322
-211.494	109.914	-0.098	-0.118
-210.479	-200.000	-0.027	-0.172
-209.465	108.995	-0.125	-0.150
-208.450	-87.877	-0.215	0.065
-207.436	-53.737	-0.159	0.073
-206.421	800.000	-0.029	0.123
-205.406	-41.356	0.246	-0.127
-204.392	226.929	0.168	0.274
-203.377	-200.000	0.004	0.178
-202.363	-117.078	-0.306	-0.056
-201.348	-200.000	0.126	-0.001
-200.333	-119.667	0.046	-0.008
-199.319	15.061	-0.116	0.091
-198.304	-107.313	0.167	0.037
-197.290	-200.000	0.003	-0.048
-196.275	800.000	0.016	-0.056
-195.260	-12.019	-0.067	0.044
-194.246	-200.000	0.056	0.319
-193.231	-55.339	-0.169	-0.076
-192.217	243.292	-0.148	-0.247
-191.202	88.725	0.250	0.278
-190.187	-200.000	0.035	-0.189
-189.173	13.629	0.271	0.211
-188.158	-200.000	-0.027	0.176
-187.144	800.000	0.002	-0.006
-186.129	26.511	0.233	0.195
-185.114	800.000	-0.057	0.176
-184.100	534.335	0.043	-0.102
-183.085	-159.175	-0.464	-0.026
-182.071	36.877	0.090	-0.080
-181.056	69.771	0.287	-0.296
-180.042	-200.000	-0.007	0.041
-179.027	-44.729	-0.381	-0.190
-178.012	-200.000	0.009	-0.199
-176.998	49.708	0.106	0.100
-175.983	-162.358	0.326	-0.016
-174.969	-200.000	0.000	0.284
-173.954	-200.000	0.053	0.231
-172.939	299.443	0.121	0.222
-171.925	800.000	0.017	-0.050
-170.910	800.000	0.097	0.327
-169.896	-126.855	0.135	-0.020
-168.881	190.597	-0.105	0.157
-167.866	352.194	-0.047	0.092
-166.852	158.152	0.133	-0.184
-165.837	-200.000	-0.013	-0.148
-164.823	-3.408	0.363	0.253
-163.808	67.558	0.224	0.229
-162.793	-68.518	0.115	0.044
-161.779	88.088	0.074	0.082
-160.764	-159.287	-0.381	0.021
-159.750	-86.875	0.039	-0.012
-158.735	63.682	0.152	0.152
-157.720	-180.145	-0.034	0.001
-156.706	212.084	0.183	0.288
-155.691	100.227	0.122	0.141
-154.677	800.000	0.036	0.112
-153.662	-200.000	0.016	0.283
-152.647	-100.329	-0.160	-0.040
-151.633	-77.767	0.186	-0.064
-150.618	-67.813	0.108	0.042
-149.604	170.951	-0.016	-0.023
-148.589	-144.175	-0.218	-0.020
-147.574	800.000	0.078	-0.293
-146.560	800.000	0.110	0.339
-145.545	44.971	-0.145	0.134
-144.531	-200.000	0.016	0.240
-143.516	-84.677	-0.034	-0.011
-142.502	8.973	-0.094	-0.071
-141.487	710.000	-0.039	0.102
-140.472	-200.000	-0.018	0.139
-139.458	-58.732	0.310	-0.134
-138.443	800.000	0.044	0.129
-137.429	207.100	-0.130	0.202
-136.414	18.544	0.285	0.228
-135.399	82.102	-0.029	-0.031
-134.385	-83.890	0.051	-0.016
-133.370	-51.782	0.070	0.032
-132.356	-66.901	0.033	0.013
-131.341	66.041	-0.179	0.181
-130.326	-200.000	0.023	0.168
-129.312	76.039	-0.132	-0.139
-128.297	441.031	-0.025	0.054
-127.283	68.319	-0.084	-0.086
-126.268	-200.000	-0.018	-0.095
-125.253	529.508	-0.012	0.028
-124.239	116.043	-0.131	-0.160
-123.224	352.280	-0.140	0.276
-122.210	-20.766	0.261	0.160
-121.195	254.737	-0.179	-0.305
