DTS Sentinel unit serial number:	SN413079Multiplexer serial number:	ORYXHardware model number:	OX4-SRSoftware version number:	ORYX F/W v4.00 Oryx Data Collector v3.7.2.0data status	okinstallation	princeton_trtdifferential loss correction	single-endedforward channel	channel 1reverse channel	N/Adate	2019/09/14time	17:30:35forward acquisition time	60.00reverse acquisition time	0.00gamma	496.2192k internal	0.2297k external	0.2297temperature offset calibration	1.0049default loss term (dB/km)	0.3790temperature slope calibration	1.0000multiplexer offset coefficient	1.0000multiplexer slope coefficient	1.0000fibre end	0.00T internal ref (°C)	37.69T ext. ref 1 (°C)	5.04T ext. ref 2 (°C)	32.08length (m)	temperature (°C)	Stokes	anti-Stokes-747.200	24.230	-0.201	0.170
-746.185	56.183	0.178	0.176
-745.171	-62.471	0.312	0.133
-744.156	286.408	0.073	0.135
-743.142	47.939	0.176	0.168
-742.127	265.796	-0.311	0.554
-741.112	-60.972	0.153	0.066
-740.098	-200.000	0.012	0.192
-739.083	14.734	0.351	0.281
-738.069	-200.000	0.060	0.410
-737.054	231.705	-0.057	0.095
-736.039	15.630	-0.236	-0.189
-735.025	-162.654	0.136	0.007
-734.010	60.604	-0.085	-0.086
-732.996	103.679	0.204	-0.244
-731.981	598.338	-0.011	0.029
-730.966	201.552	-0.324	0.509
-729.952	-200.000	-0.008	0.097
-728.937	800.000	0.048	-0.193
-727.923	592.165	-0.045	-0.114
-726.908	213.138	-0.094	0.152
-725.894	-52.156	-0.253	-0.120
-724.879	-123.467	0.239	0.039
-723.864	266.940	-0.013	0.024
-722.850	-200.000	0.045	0.233
-721.835	800.000	0.027	-0.088
-720.821	-124.829	-0.184	-0.029
-719.806	-83.352	-0.441	-0.144
-718.791	147.371	0.105	0.145
-717.777	-200.000	-0.006	-0.039
-716.762	-185.317	0.302	0.005
-715.748	272.792	-0.146	0.263
-714.733	-101.337	-0.067	0.017
-713.718	-96.925	-0.180	-0.048
-712.704	269.169	0.103	-0.184
-711.689	-200.000	0.007	-0.273
-710.675	-200.000	0.020	-0.153
-709.660	-200.000	-0.008	0.305
-708.645	-200.000	-0.007	0.158
-707.631	-14.006	0.053	0.035
-706.616	800.000	-0.023	-0.101
-705.602	800.000	-0.091	-0.343
-704.587	-200.000	0.020	-0.474
-703.572	800.000	-0.087	-0.271
-702.558	-200.000	0.040	0.221
-701.543	-152.226	0.118	-0.009
-700.529	-70.914	-0.250	-0.096
-699.514	800.000	-0.120	-0.374
-698.499	261.428	-0.125	0.221
-697.485	-4.749	-0.120	0.085
-696.470	-200.000	0.012	-0.526
-695.456	-1.668	0.117	0.084
-694.441	-35.157	-0.299	-0.166
-693.426	115.942	0.073	0.091
-692.412	72.313	0.354	0.376
-691.397	-130.698	-0.289	0.040
-690.383	-13.843	-0.229	0.151
-689.368	-200.000	0.022	-0.300
-688.354	-200.000	0.019	-0.140
-687.339	-64.102	-0.031	-0.013
-686.324	-166.625	-0.238	0.010
-685.310	-18.587	0.318	0.202
-684.295	-40.429	-0.058	0.031
-683.281	-77.286	-0.190	0.067
-682.266	128.403	0.149	0.194
-681.251	-161.615	-0.468	0.024
-680.237	-200.000	-0.031	-0.548
-679.222	-129.797	0.138	-0.019
-678.208	-110.696	0.432	-0.091
-677.193	442.869	0.170	-0.379
-676.178	14.985	-0.338	-0.270
-675.164	-108.348	-0.113	-0.025
-674.149	-200.000	-0.029	-0.168
-673.135	800.000	-0.077	0.229
-672.120	-42.420	0.129	-0.067
-671.105	-97.142	-0.098	-0.026
-670.091	800.000	0.038	-0.109
-669.076	-63.330	-0.144	-0.061
-668.062	51.746	-0.190	0.184
-667.047	-89.554	-0.263	0.079
-666.032	14.247	-0.118	-0.094
-665.018	8.345	-0.260	-0.199
-664.003	-46.490	-0.208	0.104
-662.989	105.364	0.131	-0.157
-661.974	171.103	-0.123	0.180
-660.959	-51.715	-0.078	0.037
-659.945	-89.603	0.332	-0.099
-658.930	51.941	0.037	-0.036
-657.916	753.434	0.049	-0.135
-656.901	-95.667	0.299	0.081
-655.886	-88.856	-0.136	0.041
-654.872	-200.000	-0.006	-0.128
-653.857	-44.577	-0.267	-0.136
-652.843	-200.000	0.040	-0.295
-651.828	-160.591	-0.279	-0.015
-650.814	-63.346	0.217	-0.091
-649.799	295.604	-0.140	-0.261
-648.784	-10.860	0.131	-0.088
-647.770	-200.000	0.013	-0.346
-646.755	664.140	-0.056	0.147
-645.741	560.126	-0.083	0.204
-644.726	-139.000	0.406	0.045
-643.711	431.517	-0.042	-0.094
-642.697	223.916	0.112	0.184
-641.682	-39.521	-0.118	-0.063
-640.668	-105.319	0.148	0.034
-639.653	-23.209	-0.288	0.176
-638.638	-56.581	-0.069	-0.031
-637.624	800.000	0.023	0.080
-636.609	-200.000	-0.001	-0.045
-635.595	800.000	0.071	-0.214
-634.580	800.000	-0.011	0.043
-633.565	251.818	-0.026	0.045
-632.551	-31.700	-0.238	-0.136
-631.536	800.000	0.066	-0.193
-630.522	-193.634	-0.352	0.003
-629.507	-74.034	-0.060	0.022
-628.492	-59.265	-0.118	-0.052
-627.478	800.000	-0.048	-0.145
-626.463	146.255	-0.200	0.273
-625.449	433.310	-0.065	0.143
-624.434	160.894	-0.129	0.183
-623.419	-200.000	0.058	0.334
-622.405	174.681	0.088	-0.129
-621.390	-63.488	0.358	-0.150
-620.376	-200.000	-0.013	-0.182
-619.361	-162.550	-0.317	-0.016
-618.346	-200.000	0.012	0.166
-617.332	493.091	-0.098	0.228
-616.317	800.000	0.089	-0.250
-615.303	-100.085	-0.082	0.021
-614.288	-200.000	0.013	-0.064
-613.273	213.448	0.138	-0.221
-612.259	515.878	-0.015	0.037
-611.244	800.000	-0.053	0.236
-610.230	-29.795	0.351	-0.204
-609.215	-126.586	0.262	-0.040
-608.201	103.650	0.315	-0.376
-607.186	-125.509	-0.215	0.033
-606.171	800.000	-0.034	-0.111
-605.157	87.534	0.237	-0.267
-604.142	18.095	0.069	0.055
-603.128	-177.506	0.191	0.005
-602.113	506.081	0.069	-0.163
-601.098	-200.000	-0.041	-0.341
-600.084	800.000	-0.088	-0.296
-599.069	-85.219	0.346	-0.110
-598.055	-200.000	-0.008	-0.161
-597.040	-80.697	-0.184	-0.062
-596.025	-200.000	0.010	-0.187
-595.011	-126.950	0.209	-0.031
-593.996	173.264	0.079	-0.116
-592.982	-200.000	0.031	0.179
-591.967	-78.192	0.320	0.112
-590.952	800.000	0.075	0.277
-589.938	67.101	-0.195	-0.201
-588.923	-200.000	0.023	0.187
-587.909	265.989	-0.142	0.252
-586.894	-28.032	-0.279	0.164
-585.879	246.631	0.028	0.048
-584.865	548.135	0.099	-0.239
-583.850	-67.803	-0.464	0.184
-582.836	612.594	0.079	-0.200
-581.821	19.462	0.225	-0.183
-580.806	-200.000	0.045	0.409
-579.792	77.815	-0.202	0.218
-578.777	176.756	-0.108	-0.160
-577.763	-142.576	-0.062	0.006
-576.748	-200.000	-0.003	0.086
-575.733	574.758	0.046	0.114
-574.719	6.108	-0.098	0.073
-573.704	-131.788	-0.291	0.039
-572.690	607.649	0.036	0.091
-571.675	65.070	-0.158	0.162
-570.661	34.414	-0.104	-0.092
-569.646	-49.553	-0.097	-0.047
-568.631	57.332	-0.210	-0.208
-567.617	-91.549	-0.069	0.020
-566.602	-118.344	-0.357	0.064
-565.588	541.903	0.088	-0.213
-564.573	800.000	-0.067	-0.195
-563.558	-86.529	0.234	-0.073
-562.544	-108.707	0.095	0.021
-561.529	2.890	0.278	-0.204
-560.515	-200.000	-0.017	0.196
-559.500	341.469	0.105	-0.208
-558.485	791.993	0.018	0.050
-557.471	393.953	0.132	0.279
-556.456	49.336	0.174	0.166
-555.442	-200.000	-0.048	-0.366
-554.427	-32.402	-0.168	0.095
-553.412	-200.000	0.016	0.116
-552.398	-52.139	0.045	-0.021
-551.383	-169.757	0.291	0.011
-550.369	337.340	-0.258	-0.509
-549.354	-41.590	-0.223	0.116
-548.339	219.031	-0.253	-0.410
-547.325	116.398	-0.415	-0.516
-546.310	800.000	0.032	-0.104
-545.296	-163.282	0.394	0.019
-544.281	-200.000	0.054	0.251
-543.266	-4.257	0.479	0.336
-542.252	-178.995	-0.228	-0.005
-541.237	-148.888	-0.357	0.029
-540.223	-138.913	-0.448	0.049
-539.208	-142.453	0.195	0.019
-538.193	-49.430	-0.176	0.085
-537.179	800.000	0.056	-0.176
-536.164	-1.234	0.111	0.080
-535.150	-200.000	0.022	-0.456
-534.135	234.882	0.212	-0.354
-533.121	-200.000	-0.024	-0.245
-532.106	139.571	-0.076	0.102
-531.091	-102.292	0.201	0.049
-530.077	800.000	-0.108	0.399
-529.062	-200.000	0.002	0.070
-528.048	260.222	-0.061	-0.107
-527.033	-200.000	0.000	-0.079
-526.018	-200.000	0.016	-0.190
-525.004	333.322	0.041	0.081
-523.989	-55.867	0.059	-0.027
-522.975	-200.000	0.028	-0.229
-521.960	-29.362	0.302	-0.175
-520.945	16.404	0.226	-0.180
-519.931	-53.461	0.111	0.051
-518.916	56.596	0.215	0.211
-517.902	-111.617	-0.185	-0.038
-516.887	-51.066	0.137	-0.065
-515.872	128.781	-0.192	-0.248
-514.858	-151.607	-0.331	0.025
-513.843	102.846	-0.147	-0.174
-512.829	-200.000	-0.002	0.184
-511.814	-12.519	-0.087	-0.058
-510.799	800.000	-0.081	0.340
-509.785	800.000	0.057	0.240
-508.770	228.864	-0.069	-0.114
-507.756	-121.644	-0.150	0.025
-506.741	-179.411	-0.396	-0.009
-505.726	106.655	-0.133	-0.159
-504.712	442.315	0.110	0.244
-503.697	-52.010	-0.358	0.168
-502.683	800.000	-0.015	0.046
-501.668	-146.992	0.097	0.008
-500.653	-3.739	-0.171	-0.120
-499.639	800.000	-0.079	-0.300
-498.624	-148.689	0.442	0.036
-497.610	-172.344	0.065	-0.002
-496.595	357.092	0.115	-0.233
-495.581	121.291	-0.034	0.043
-494.566	800.000	0.056	-0.187
-493.551	57.427	0.271	0.268
-492.537	248.052	0.096	0.165
-491.522	-200.000	0.025	-0.271
-490.508	-200.000	0.026	0.364
-489.493	800.000	0.016	0.062
-488.478	191.191	0.280	0.427
-487.464	-200.000	-0.005	-0.041
-486.449	-94.186	0.071	0.020
-485.435	-200.000	-0.005	0.055
-484.420	-26.072	0.379	-0.225
-483.405	139.919	-0.200	-0.266
-482.391	106.573	0.154	-0.185
-481.376	-54.038	0.194	0.089
-480.362	800.000	-0.032	-0.122
-479.347	-180.220	-0.308	-0.007
-478.332	251.449	-0.267	0.459
-477.318	-35.420	-0.161	0.089
-476.303	-200.000	-0.087	-0.426
-475.289	800.000	-0.019	0.085
-474.274	161.569	0.156	0.221
-473.259	103.447	0.106	-0.126
-472.245	239.407	-0.083	0.140
-471.230	245.505	-0.121	-0.207
-470.216	206.511	-0.016	-0.026
-469.201	-39.396	-0.365	-0.194
-468.186	-49.703	-0.113	0.054
-467.172	26.134	-0.272	-0.230
-466.157	-18.600	-0.214	-0.135
-465.143	-69.791	-0.052	0.020
-464.128	172.812	-0.145	-0.210
-463.113	-95.600	0.214	0.058
-462.099	-200.000	0.000	-0.123
-461.084	-10.087	0.097	-0.065
-460.070	398.407	0.076	-0.160
-459.055	-59.895	0.151	0.065
-458.040	-200.000	-0.024	-0.208
-457.026	429.199	-0.081	-0.178
-456.011	339.073	-0.042	0.083
-454.997	-98.598	0.214	-0.055
-453.982	-86.848	0.118	0.036
-452.968	-200.000	0.066	0.360
-451.953	-200.000	0.005	0.422
-450.938	800.000	0.049	-0.179
-449.924	-72.549	0.234	0.087
-448.909	-49.595	0.189	-0.091
-447.895	-94.029	-0.308	-0.085
-446.880	-200.000	0.019	-0.179
-445.865	-73.252	0.119	-0.044
-444.851	124.314	0.103	-0.130
-443.836	384.014	-0.098	-0.203
-442.822	-100.143	0.060	-0.015
-441.807	-60.475	-0.366	0.157
-440.792	-139.231	0.250	0.027
-439.778	-113.267	0.137	-0.027
-438.763	150.286	0.087	0.119
-437.749	78.308	0.223	0.240
-436.734	-164.447	0.068	0.003
-435.719	800.000	0.062	0.219
-434.705	220.561	0.081	0.131
-433.690	-107.053	-0.180	-0.040
-432.676	800.000	-0.048	0.199
-431.661	-200.000	0.001	0.007
-430.646	-200.000	0.008	0.246
-429.632	-200.000	0.052	-0.248
-428.617	-38.219	-0.278	-0.149
-427.603	800.000	-0.061	0.173
-426.588	6.379	-0.157	-0.118
-425.573	-200.000	-0.006	-0.214
-424.559	262.009	0.177	-0.309
-423.544	757.494	0.060	-0.163
-422.530	257.247	0.111	0.192
-421.515	-4.256	0.128	-0.089
-420.500	-145.508	-0.251	0.023
-419.486	25.999	-0.085	0.071
-418.471	-200.000	-0.004	-0.086
-417.457	-126.934	-0.330	0.049
-416.442	-200.000	-0.004	0.122
-415.428	18.852	-0.094	0.076
-414.413	-200.000	-0.000	0.452
-413.398	800.000	-0.056	-0.211
-412.384	-110.026	0.192	0.041
-411.369	-47.003	-0.249	0.122
-410.355	-33.476	0.186	-0.103
-409.340	374.668	-0.180	-0.369
-408.325	-139.379	0.224	-0.024
-407.311	41.564	-0.212	-0.193
-406.296	140.951	0.291	-0.388
-405.282	509.380	0.133	0.311
-404.267	-95.130	-0.068	-0.019
-403.252	-39.439	-0.102	-0.054
-402.238	-20.583	-0.166	-0.103
-401.223	800.000	0.122	-0.345
-400.209	-200.000	0.019	-0.288
-399.194	21.296	-0.038	-0.031
-398.179	-34.631	0.167	0.092
-397.165	-20.210	0.075	-0.047
-396.150	-200.000	-0.040	-0.269
-395.136	105.034	-0.279	0.332
-394.121	-200.000	-0.005	-0.057
-393.106	800.000	-0.082	-0.314
-392.092	175.348	-0.123	-0.180
-391.077	361.567	0.091	-0.184
-390.063	566.940	0.077	-0.188
-389.048	389.800	0.066	0.138
-388.033	800.000	0.067	0.223
-387.019	-200.000	-0.076	-0.337
-386.004	12.389	-0.124	-0.096
-384.990	127.386	0.044	-0.057
-383.975	-39.598	-0.123	0.065
-382.960	-28.271	0.215	0.125
-381.946	93.680	0.081	0.092
-380.931	-200.000	0.002	0.217
-379.917	386.196	0.088	0.183
-378.902	50.306	0.247	-0.235
-377.888	-200.000	0.028	-0.227
-376.873	27.434	0.140	0.118
-375.858	-36.505	0.151	-0.082
-374.844	175.733	0.205	0.299
-373.829	361.981	0.005	-0.010
-372.815	182.292	0.134	0.198
-371.800	-200.000	-0.006	-0.144
-370.785	800.000	-0.020	-0.087
-369.771	-102.506	0.335	0.081
-368.756	50.509	0.054	0.052
-367.742	166.529	-0.222	-0.317
-366.727	-102.975	-0.201	0.048
-365.712	-20.787	0.030	0.018
-364.698	29.808	-0.213	-0.182
-363.683	800.000	-0.032	0.093
-362.669	-127.264	-0.480	-0.070
-361.654	800.000	0.073	-0.275
-360.639	18.176	-0.203	-0.163
-359.625	86.790	-0.131	-0.145
-358.610	-114.799	-0.215	-0.041
-357.596	-187.212	-0.369	-0.005
-356.581	-33.232	0.275	-0.153
-355.566	21.894	-0.157	-0.129
-354.552	-17.584	0.057	0.036
-353.537	-80.348	0.102	0.034
-352.523	-132.359	0.013	-0.002
-351.508	-200.000	0.048	0.233
-350.493	-33.616	-0.062	-0.034
-349.479	-58.604	0.162	0.071
-348.464	47.540	0.219	-0.205
-347.450	800.000	0.031	-0.093
-346.435	-160.146	-0.227	0.012
-345.420	-92.889	0.357	-0.100
-344.406	800.000	-0.113	0.448
-343.391	305.336	-0.064	0.120
-342.377	28.179	-0.164	0.140
-341.362	-200.000	0.002	0.709
-340.348	-200.000	0.036	0.167
-339.333	-200.000	-0.079	-0.360
-338.318	34.629	-0.140	0.123
-337.304	383.704	-0.123	0.254
-336.289	-130.388	0.299	-0.041
-335.275	-77.566	0.197	0.068
-334.260	-156.924	0.160	0.010
-333.245	-132.781	0.101	0.013
-332.231	287.775	0.148	0.269
-331.216	94.333	0.145	0.165
-330.202	800.000	-0.116	0.388
-329.187	30.907	-0.136	0.117
-328.172	800.000	0.062	-0.177
-327.158	-17.947	0.198	0.124
-326.143	800.000	-0.060	-0.262
-325.129	-200.000	-0.043	-0.190
-324.114	-9.552	-0.224	-0.150
-323.099	42.791	0.192	0.175
-322.085	-200.000	-0.007	0.177
-321.070	68.066	0.136	-0.140
-320.056	800.000	-0.070	0.283
-319.041	44.163	-0.194	0.179
-318.026	27.497	-0.118	0.100
-317.012	386.896	-0.086	0.178
-315.997	-200.000	0.009	-0.268
-314.983	800.000	0.048	0.160
-313.968	-170.164	0.399	-0.014
-312.953	41.761	0.325	-0.296
-311.939	144.269	0.135	0.181
-310.924	-88.261	-0.202	0.061
-309.910	42.772	0.104	0.095
-308.895	-200.000	0.026	-0.415
-307.880	-200.000	0.008	-0.119
-306.866	800.000	-0.085	0.246
-305.851	66.366	-0.131	0.133
-304.837	-93.169	-0.083	-0.023
-303.822	-122.951	-0.298	0.048
-302.807	-63.255	0.084	0.035
-301.793	49.853	-0.045	0.043
-300.778	147.790	0.298	0.403
-299.764	-116.814	0.166	0.031
-298.749	-200.000	0.065	-0.420
-297.735	-121.681	-0.387	-0.064
-296.720	-113.620	-0.064	-0.013
-295.705	318.653	-0.089	0.169
-294.691	-200.000	0.060	0.310
-293.676	58.836	-0.288	-0.284
-292.662	0.479	0.201	0.144
-291.647	-49.437	-0.009	0.005
-290.632	50.229	-0.216	0.205
-289.618	86.160	-0.036	0.040
-288.603	-114.446	-0.467	-0.090
-287.589	800.000	0.082	-0.303
-286.574	-84.126	0.050	-0.016
-285.559	-38.389	0.182	-0.096
-284.545	-107.396	-0.134	-0.030
-283.530	49.997	0.063	0.059
-282.516	800.000	0.081	0.283
-281.501	-137.996	0.163	0.018
-280.486	-10.266	-0.155	-0.103
-279.472	-158.111	0.224	0.013
-278.457	-46.339	-0.146	0.072
-277.443	-114.014	-0.266	0.052
-276.428	303.013	0.054	0.099
-275.413	-108.294	-0.286	0.062
-274.399	-134.620	0.219	0.027
-273.384	3.535	0.228	0.167
-272.370	-37.306	0.246	-0.132
-271.355	10.610	-0.120	0.092
-270.340	-200.000	-0.069	0.335
-269.326	-62.173	-0.156	0.065
-268.311	164.949	0.266	-0.377
-267.297	-114.449	0.271	-0.052
-266.282	-200.000	0.004	0.277
-265.267	-62.220	0.157	0.066
-264.253	-173.381	-0.093	-0.003
-263.238	-90.961	0.171	0.049
-262.224	-159.163	0.131	0.007
-261.209	-32.920	-0.151	0.084
-260.195	378.752	0.028	0.057
-259.180	335.572	0.210	-0.407
-258.165	-160.572	-0.100	-0.005
-257.151	-99.533	0.223	-0.056
-256.136	311.754	0.076	-0.142
-255.122	86.889	-0.309	-0.342
-254.107	-200.000	0.039	0.183
-253.092	-13.011	0.138	0.090
-252.078	-48.062	0.063	0.030
-251.063	800.000	-0.102	0.292
-250.049	70.827	0.122	0.127
-249.034	504.127	0.101	-0.234
-248.019	-22.125	0.101	0.061
-247.005	256.531	0.035	-0.060
-245.990	-45.282	0.284	0.141
-244.976	-72.448	-0.251	-0.093
-243.961	-56.598	-0.120	-0.053
-242.946	458.705	0.130	0.290
-241.932	251.047	-0.066	-0.112
-240.917	-2.928	0.213	0.149
-239.903	-105.208	-0.246	0.056
-238.888	-78.105	0.112	0.039
-237.873	-108.539	-0.096	-0.021
-236.859	-60.795	0.114	0.049
-235.844	-51.491	-0.126	-0.059
-234.830	23.171	0.100	0.082
-233.815	378.679	-0.228	0.468
-232.800	430.372	0.127	-0.274
-231.786	-68.928	-0.086	0.033
-230.771	-98.255	-0.276	-0.071
-229.757	-105.003	-0.158	0.036
-228.742	-144.752	0.088	0.008
-227.727	91.589	-0.248	-0.279
-226.713	-151.141	0.205	-0.015
-225.698	-88.792	-0.127	0.038
-224.684	-200.000	0.031	0.181
-223.669	94.171	0.129	0.146
-222.655	-101.358	0.194	0.047
-221.640	533.926	0.066	0.157
-220.625	598.020	-0.124	0.307
-219.611	13.920	0.077	-0.060
-218.596	53.539	-0.072	0.069
-217.582	15.025	0.135	-0.105
-216.567	72.905	0.110	0.115
-215.552	164.548	0.206	0.290
-214.538	665.677	-0.171	0.443
-213.523	155.209	0.086	-0.118
-212.509	800.000	-0.035	-0.125
-211.494	-40.099	-0.235	-0.122
-210.479	800.000	-0.031	-0.113
-209.465	164.509	0.127	0.179
-208.450	213.469	0.112	0.177
-207.436	-109.267	0.350	0.074
-206.421	-169.676	0.326	0.012
-205.406	-85.665	0.327	-0.102
-204.392	-63.015	-0.122	0.050
-203.377	276.664	-0.072	-0.128
-202.363	75.488	-0.160	0.168
-201.348	-149.529	0.173	-0.014
-200.333	62.013	-0.107	0.107
-199.319	-148.244	-0.288	0.024
-198.304	-196.790	0.103	0.001
-197.290	-156.613	-0.237	-0.015
-196.275	-200.000	-0.066	0.447
-195.260	8.111	-0.038	0.029
-194.246	-200.000	0.042	0.213
-193.231	-200.000	-0.053	0.300
-192.217	-140.780	0.220	0.023
-191.202	800.000	-0.023	0.066
-190.187	-70.322	-0.196	0.074
-189.173	-39.081	0.246	-0.129
-188.158	646.456	-0.081	-0.206
-187.144	330.944	-0.059	-0.114
-186.129	-9.967	-0.286	-0.190
-185.114	800.000	-0.023	-0.091
-184.100	177.444	-0.065	-0.094
-183.085	-200.000	0.092	0.541
-182.071	-51.670	-0.319	0.149
-181.056	112.620	0.241	0.291
-180.042	723.424	-0.010	0.027
-179.027	-200.000	0.004	-0.086
-178.012	-69.945	-0.237	-0.090
-176.998	-38.770	-0.136	0.071
-175.983	85.258	-0.149	-0.163
-174.969	-160.913	-0.237	0.012
-173.954	-77.806	-0.179	-0.062
-172.939	-167.216	0.077	0.003
-171.925	25.038	0.214	-0.177
-170.910	800.000	0.031	-0.097
-169.896	360.490	-0.090	0.181
-168.881	-5.147	-0.091	-0.063
-167.866	800.000	0.081	-0.294
-166.852	204.956	-0.108	0.168
-165.837	-200.000	-0.002	0.182
-164.823	-82.327	0.153	0.050
-163.808	-156.177	-0.218	-0.014
-162.793	26.262	-0.059	0.049
-161.779	304.121	-0.090	-0.166
-160.764	10.577	-0.297	-0.226
-159.750	108.949	0.052	0.063
-158.735	35.529	0.117	0.102
-157.720	-53.981	0.265	-0.121
-156.706	-82.783	0.294	-0.095
-155.691	800.000	0.062	0.230
-154.677	-200.000	-0.006	0.104
-153.662	-168.928	-0.117	0.004
-152.647	-63.012	0.301	-0.124
-151.633	148.257	0.214	0.288
-150.618	-200.000	0.028	0.186
-149.604	-71.407	-0.429	0.160
-148.589	375.834	0.028	0.056
-147.574	800.000	0.007	-0.019
-146.560	800.000	0.035	0.132
-145.545	-200.000	-0.013	0.202
-144.531	-200.000	0.022	-0.193
-143.516	-200.000	0.013	0.121
-142.502	-72.947	0.095	0.035
-141.487	-165.929	-0.116	-0.005
-140.472	800.000	0.042	0.178
-139.458	-123.271	0.243	-0.039
-138.443	-26.395	0.051	0.030
-137.429	150.398	0.116	0.157
-136.414	-86.023	0.166	0.051
-135.399	84.113	0.261	0.284
-134.385	-71.559	0.351	0.131
-133.370	-81.379	-0.068	-0.022
-132.356	-142.848	0.164	0.016
-131.341	800.000	0.022	-0.085
-130.326	110.021	0.228	0.273
-129.312	-200.000	-0.050	-0.279
-128.297	800.000	0.042	-0.116
-127.283	-6.852	-0.107	0.072
-126.268	109.376	-0.153	-0.183
-125.253	-183.164	-0.081	0.001
-124.239	-26.562	-0.146	-0.085
-123.224	4.597	-0.097	0.071
-122.210	-79.074	-0.122	-0.041
-121.195	50.640	-0.271	-0.256
