DTS Sentinel unit serial number:	SN413079Multiplexer serial number:	ORYXHardware model number:	OX4-SRSoftware version number:	ORYX F/W v4.00 Oryx Data Collector v3.7.2.0data status	okinstallation	princeton_trtdifferential loss correction	single-endedforward channel	channel 1reverse channel	N/Adate	2019/09/13time	23:02:35forward acquisition time	60.00reverse acquisition time	0.00gamma	496.2192k internal	0.2334k external	0.2334temperature offset calibration	1.0084default loss term (dB/km)	0.3790temperature slope calibration	1.0000multiplexer offset coefficient	1.0000multiplexer slope coefficient	1.0000fibre end	0.00T internal ref (°C)	27.31T ext. ref 1 (°C)	3.20T ext. ref 2 (°C)	21.27length (m)	temperature (°C)	Stokes	anti-Stokes-747.200	45.645	0.009	-0.009
-746.185	111.193	0.081	0.099
-745.171	28.378	-0.187	-0.159
-744.156	18.270	0.198	0.159
-743.142	-200.000	-0.018	-0.268
-742.127	-160.004	-0.137	-0.008
-741.112	-200.000	-0.024	0.242
-740.098	330.282	-0.175	0.338
-739.083	-200.000	0.014	-0.214
-738.069	-200.000	-0.066	0.594
-737.054	-41.749	-0.243	0.125
-736.039	362.444	0.053	0.107
-735.025	33.028	0.245	0.213
-734.010	-125.506	-0.242	0.037
-732.996	-74.773	0.130	-0.047
-731.981	-83.326	-0.130	0.042
-730.966	-3.913	-0.204	0.142
-729.952	-200.000	0.005	0.033
-728.937	800.000	0.042	-0.125
-727.923	-200.000	-0.047	-0.233
-726.908	208.542	-0.205	0.322
-725.894	374.796	0.130	-0.266
-724.879	150.619	0.043	-0.059
-723.864	-168.752	-0.132	-0.005
-722.850	-80.278	0.179	0.060
-721.835	-200.000	-0.017	0.187
-720.821	-200.000	-0.043	0.193
-719.806	800.000	-0.083	-0.256
-718.791	-153.403	0.189	-0.013
-717.777	-146.445	0.305	-0.027
-716.762	-161.282	0.100	0.005
-715.748	-139.376	0.264	-0.028
-714.733	-52.703	-0.086	0.040
-713.718	679.979	-0.028	-0.073
-712.704	16.644	0.159	0.126
-711.689	-114.342	-0.148	0.029
-710.675	18.582	0.081	0.065
-709.660	-82.851	0.157	0.051
-708.645	-59.510	0.411	0.177
-707.631	32.846	0.178	-0.154
-706.616	-105.605	0.108	0.025
-705.602	73.777	0.302	0.317
-704.587	312.691	0.076	-0.143
-703.572	-200.000	0.001	0.227
-702.558	382.647	0.102	-0.210
-701.543	-52.998	0.103	0.047
-700.529	-200.000	-0.057	-0.287
-699.514	-200.000	-0.049	0.226
-698.499	-200.000	0.050	-0.374
-697.485	-55.300	0.315	-0.142
-696.470	777.147	0.019	0.051
-695.456	-103.361	-0.152	0.036
-694.441	-200.000	-0.034	-0.232
-693.426	214.183	0.192	0.304
-692.412	-128.742	-0.377	-0.053
-691.397	-34.753	0.132	-0.072
-690.383	-200.000	-0.005	0.410
-689.368	800.000	0.080	-0.270
-688.354	-17.815	-0.129	-0.081
-687.339	62.755	-0.186	0.186
-686.324	724.624	0.061	0.163
-685.310	-44.043	0.312	0.157
-684.295	-198.670	-0.136	0.001
-683.281	-200.000	0.013	0.223
-682.266	-45.250	0.058	-0.029
-681.251	57.056	-0.362	-0.354
-680.237	-46.664	0.191	-0.094
-679.222	-63.867	0.081	0.033
-678.208	-200.000	0.051	-0.000
-677.193	350.710	-0.087	-0.172
-676.178	197.636	0.027	0.042
-675.164	-109.860	0.133	-0.028
-674.149	-151.060	0.116	-0.009
-673.135	-61.581	-0.099	0.042
-672.120	-200.000	-0.002	0.286
-671.105	44.954	-0.100	0.093
-670.091	-200.000	-0.009	-0.140
-669.076	266.692	0.146	0.255
-668.062	66.615	0.122	0.124
-667.047	300.717	0.046	-0.085
-666.032	-92.310	0.080	-0.023
-665.018	637.955	0.010	-0.026
-664.003	-22.748	-0.188	0.114
-662.989	-13.835	0.266	0.173
-661.974	-99.939	0.230	0.058
-660.959	-200.000	0.022	0.118
-659.945	-200.000	-0.019	-0.109
-658.930	73.336	0.245	0.257
-657.916	-200.000	-0.031	0.233
-656.901	-113.049	-0.085	0.017
-655.886	588.614	0.094	-0.231
-654.872	-72.643	-0.295	-0.109
-653.857	197.376	-0.048	-0.074
-652.843	347.714	-0.087	0.171
-651.828	216.895	-0.081	0.130
-650.814	800.000	-0.068	0.201
-649.799	800.000	-0.067	-0.204
-648.784	800.000	-0.014	-0.046
-647.770	-68.348	-0.157	-0.061
-646.755	-200.000	-0.022	-0.199
-645.741	-154.947	-0.144	-0.009
-644.726	44.170	0.128	0.118
-643.711	-114.511	0.466	0.089
-642.697	-200.000	0.011	-0.143
-641.682	244.479	0.091	-0.154
-640.668	24.350	-0.131	-0.109
-639.653	-200.000	0.030	0.280
-638.638	140.365	-0.175	-0.231
-637.624	-200.000	-0.045	-0.215
-636.609	-85.950	0.175	0.054
-635.595	-102.257	-0.102	-0.024
-634.580	-200.000	0.020	-0.285
-633.565	161.324	0.143	0.200
-632.551	-52.984	0.167	0.077
-631.536	91.388	-0.219	0.246
-630.522	595.645	-0.059	-0.146
-629.507	-18.797	-0.278	0.173
-628.492	-200.000	0.041	-0.273
-627.478	-200.000	-0.057	-0.370
-626.463	-200.000	0.050	0.223
-625.449	800.000	-0.060	-0.225
-624.434	-129.251	-0.318	-0.044
-623.419	555.837	-0.107	-0.258
-622.405	631.898	-0.066	-0.167
-621.390	-112.683	-0.186	-0.037
-620.376	-200.000	-0.028	-0.255
-619.361	164.543	0.046	-0.065
-618.346	-168.465	-0.298	-0.011
-617.332	301.879	-0.084	-0.156
-616.317	800.000	-0.058	0.231
-615.303	800.000	0.032	0.097
-614.288	181.067	-0.043	-0.063
-613.273	-104.743	-0.216	-0.050
-612.259	199.085	0.083	0.126
-611.244	-200.000	-0.012	-0.336
-610.230	-111.454	0.281	-0.057
-609.215	19.721	0.255	-0.206
-608.201	-120.005	0.070	0.012
-607.186	800.000	-0.084	0.237
-606.171	-4.632	0.036	-0.025
-605.157	-23.333	0.056	0.034
-604.142	129.603	0.232	-0.297
-603.128	800.000	-0.105	-0.294
-602.113	-200.000	0.022	0.156
-601.098	9.788	-0.179	0.136
-600.084	-129.126	0.095	-0.013
-599.069	286.642	-0.082	0.149
-598.055	152.528	-0.080	0.109
-597.040	-45.347	-0.133	0.066
-596.025	379.706	-0.117	0.239
-595.011	82.978	-0.112	0.122
-593.996	800.000	0.032	-0.116
-592.982	800.000	-0.044	-0.168
-591.967	-96.607	0.251	-0.066
-590.952	394.285	-0.061	0.128
-589.938	656.349	-0.118	-0.304
-588.923	-178.104	-0.039	0.001
-587.909	-146.969	-0.283	0.024
-586.894	31.897	-0.088	0.076
-585.879	800.000	-0.059	-0.165
-584.865	-87.139	-0.279	-0.085
-583.850	-195.633	-0.138	-0.001
-582.836	-176.484	-0.225	0.006
-581.821	-102.501	0.109	-0.026
-580.806	-103.648	0.259	0.061
-579.792	800.000	-0.079	-0.319
-578.777	194.908	0.112	-0.170
-577.763	-177.431	0.280	0.007
-576.748	-37.164	-0.311	0.166
-575.733	-153.371	0.240	0.017
-574.719	-21.047	-0.252	0.154
-573.704	800.000	0.011	0.032
-572.690	-68.626	-0.193	-0.075
-571.675	411.443	0.089	-0.189
-570.661	141.834	-0.162	-0.214
-569.646	-200.000	0.018	-0.439
-568.631	-68.801	-0.169	-0.065
-567.617	-29.198	-0.024	-0.014
-566.602	-153.715	-0.249	-0.017
-565.588	36.396	-0.291	-0.256
-564.573	25.710	0.241	-0.200
-563.558	84.293	-0.191	-0.209
-562.544	-200.000	-0.020	0.098
-561.529	108.007	0.231	0.275
-560.515	-178.483	-0.314	-0.007
-559.500	61.414	-0.145	-0.144
-558.485	240.300	-0.123	0.204
-557.471	251.433	0.067	-0.114
-556.456	285.073	0.055	0.098
-555.442	-200.000	-0.015	-0.101
-554.427	-40.529	0.264	-0.137
-553.412	672.904	-0.172	0.444
-552.398	-104.515	0.213	0.049
-551.383	-200.000	-0.004	-0.212
-550.369	800.000	-0.038	-0.162
-549.354	-100.443	0.346	0.085
-548.339	-15.801	0.186	0.118
-547.325	55.258	-0.329	-0.318
-546.310	283.525	0.123	-0.220
-545.296	-200.000	-0.005	-0.106
-544.281	-172.846	-0.183	0.006
-543.266	92.413	-0.047	-0.053
-542.252	-7.578	-0.160	-0.108
-541.237	-11.029	-0.161	0.106
-540.223	-200.000	-0.011	0.308
-539.208	-64.987	-0.147	-0.059
-538.193	800.000	-0.055	0.206
-537.179	-113.187	-0.224	0.044
-536.164	376.964	0.124	-0.252
-535.150	-200.000	0.003	-0.125
-534.135	-200.000	-0.026	-0.216
-533.121	-101.603	-0.285	0.069
-532.106	-105.794	0.295	-0.066
-531.091	-74.474	-0.117	0.042
-530.077	47.313	-0.093	-0.086
-529.062	-98.311	0.161	0.041
-528.048	-200.000	0.029	0.179
-527.033	154.331	-0.124	0.169
-526.018	-30.786	0.180	0.101
-525.004	-52.598	-0.293	0.135
-523.989	-99.093	-0.283	0.071
-522.975	111.362	0.232	-0.279
-521.960	53.760	0.150	-0.143
-520.945	67.984	0.177	-0.181
-519.931	-118.478	0.145	0.026
-518.916	-200.000	0.002	-0.069
-517.902	-200.000	-0.104	-0.471
-516.887	800.000	0.095	0.262
-515.872	-200.000	0.030	0.197
-514.858	800.000	-0.047	-0.170
-513.843	-200.000	0.023	-0.168
-512.829	267.426	0.207	-0.360
-511.814	-140.519	-0.125	0.013
-510.799	147.627	-0.127	0.171
-509.785	269.030	0.112	-0.195
-508.770	197.793	-0.150	-0.228
-507.756	-151.954	-0.223	0.016
-506.741	-4.944	0.154	-0.105
-505.726	-97.818	0.101	0.026
-504.712	-39.934	0.211	-0.110
-503.697	411.808	0.121	-0.256
-502.683	-61.969	-0.178	-0.074
-501.668	83.852	-0.268	-0.291
-500.653	-24.761	-0.143	0.085
-499.639	45.751	-0.227	0.209
-498.624	203.519	0.086	-0.133
-497.610	-105.620	0.163	-0.037
-496.595	680.283	0.151	0.392
-495.581	800.000	0.046	0.196
-494.566	-4.142	-0.158	0.109
-493.551	11.278	0.406	0.309
-492.537	800.000	-0.013	-0.053
-491.522	-200.000	-0.019	-0.391
-490.508	800.000	0.064	-0.202
-489.493	-17.876	0.173	0.108
-488.478	-200.000	-0.000	0.061
-487.464	-200.000	0.014	-0.080
-486.449	446.638	-0.124	0.270
-485.435	497.940	-0.078	0.178
-484.420	-200.000	0.026	-0.342
-483.405	-159.815	0.286	0.016
-482.391	-200.000	-0.060	-0.294
-481.376	53.019	0.101	-0.096
-480.362	37.047	0.113	0.100
-479.347	-85.690	-0.656	0.203
-478.332	-117.481	-0.265	0.048
-477.318	7.640	0.136	0.101
-476.303	510.041	-0.117	-0.271
-475.289	715.158	-0.074	0.196
-474.274	800.000	0.004	0.016
-473.259	651.187	-0.075	-0.192
-472.245	-200.000	-0.001	-0.062
-471.230	-200.000	0.002	-0.052
-470.216	800.000	-0.079	0.316
-469.201	-200.000	0.005	0.047
-468.186	23.488	0.171	0.140
-467.172	-71.241	-0.081	-0.030
-466.157	-6.798	0.222	0.150
-465.143	-200.000	-0.003	-0.073
-464.128	107.774	0.083	0.098
-463.113	-15.106	0.136	0.086
-462.099	428.481	-0.186	-0.400
-461.084	-149.698	-0.178	-0.014
-460.070	96.300	0.245	-0.279
-459.055	43.321	0.194	0.176
-458.040	-13.962	0.077	0.050
-457.026	-200.000	-0.018	-0.093
-456.011	180.993	0.156	-0.228
-454.997	-32.898	-0.111	-0.061
-453.982	-160.068	0.069	0.004
-452.968	-41.528	-0.225	0.115
-451.953	3.581	0.343	-0.249
-450.938	-9.556	0.052	0.034
-449.924	-200.000	-0.034	0.235
-448.909	-88.250	-0.288	-0.086
-447.895	-200.000	-0.012	0.054
-446.880	-35.958	-0.233	-0.125
-445.865	30.647	-0.151	0.128
-444.851	7.738	-0.349	-0.260
-443.836	183.910	0.244	-0.359
-442.822	-76.401	0.268	-0.094
-441.807	-31.583	0.114	-0.064
-440.792	-200.000	0.012	0.102
-439.778	196.640	0.119	0.181
-438.763	-8.886	-0.217	-0.145
-437.749	-34.470	0.069	-0.037
-436.734	800.000	-0.059	0.170
-435.719	61.472	-0.188	-0.186
-434.705	-169.329	0.125	-0.005
-433.690	-49.040	-0.228	-0.109
-432.676	-89.813	0.336	-0.098
-431.661	800.000	0.048	-0.183
-430.646	-92.936	-0.132	-0.037
-429.632	-143.075	0.040	-0.004
-428.617	-122.560	0.360	-0.058
-427.603	-5.897	0.286	0.194
-426.588	425.253	-0.093	-0.200
-425.573	-79.426	0.075	-0.025
-424.559	-11.378	0.463	-0.303
-423.544	800.000	-0.079	0.295
-422.530	129.434	0.160	0.202
-421.515	-180.569	-0.129	-0.003
-420.500	6.741	-0.113	-0.083
-419.486	800.000	0.052	-0.151
-418.471	56.231	-0.068	0.066
-417.457	282.501	-0.068	0.121
-416.442	111.354	-0.243	0.290
-415.428	-200.000	0.014	0.109
-414.413	-95.380	0.510	0.136
-413.398	73.708	0.251	-0.261
-412.384	-200.000	-0.032	-0.292
-411.369	64.719	0.194	-0.194
-410.355	-200.000	-0.060	-0.328
-409.340	800.000	0.077	-0.242
-408.325	179.408	0.150	-0.218
-407.311	579.572	0.154	-0.375
-406.296	-200.000	-0.021	0.238
-405.282	-200.000	-0.017	0.116
-404.267	73.772	-0.073	0.076
-403.252	87.600	0.356	0.391
-402.238	800.000	0.146	0.553
-401.223	-200.000	-0.005	0.203
-400.209	-32.282	0.112	0.062
-399.194	741.933	-0.132	0.352
-398.179	214.600	0.051	-0.080
-397.165	87.499	-0.077	-0.084
-396.150	-200.000	-0.007	-0.182
-395.136	800.000	-0.074	0.220
-394.121	106.803	-0.180	-0.212
-393.106	38.125	0.197	0.174
-392.092	685.099	-0.089	0.231
-391.077	134.146	0.108	0.139
-390.063	-70.165	0.391	-0.147
-389.048	-138.479	0.075	0.008
-388.033	-200.000	0.042	0.240
-387.019	-126.839	-0.313	-0.046
-386.004	-200.000	0.003	0.526
-384.990	257.601	0.118	0.202
-383.975	-70.210	-0.318	-0.120
-382.960	27.999	0.113	0.094
-381.946	4.073	-0.294	-0.213
-380.931	579.767	-0.033	0.080
-379.917	-200.000	0.009	0.121
-378.902	328.023	-0.127	-0.242
-377.888	-200.000	0.020	0.097
-376.873	-200.000	-0.032	0.237
-375.858	-22.401	-0.259	-0.156
-374.844	-200.000	0.013	0.148
-373.829	539.962	-0.060	-0.140
-372.815	36.212	-0.215	0.188
-371.800	800.000	-0.064	0.187
-370.785	383.366	0.124	0.253
-369.771	800.000	-0.028	0.110
-368.756	-54.211	-0.304	0.137
-367.742	-84.705	-0.123	0.038
-366.727	-200.000	0.019	0.095
-365.712	278.391	0.106	0.188
-364.698	32.602	0.046	0.039
-363.683	87.172	-0.204	-0.223
-362.669	-200.000	0.022	-0.185
-361.654	-139.925	-0.105	-0.011
-360.639	165.831	0.423	0.593
-359.625	214.365	0.263	0.413
-358.610	-200.000	0.002	-0.020
-357.596	-184.449	-0.057	0.001
-356.581	-200.000	-0.027	-0.248
-355.566	-49.081	-0.268	-0.127
-354.552	161.513	0.051	-0.070
-353.537	3.876	0.240	0.173
-352.523	-24.407	0.085	0.050
-351.508	-14.296	0.158	-0.101
-350.493	800.000	0.055	-0.171
-349.479	-124.781	0.219	-0.034
-348.464	0.575	-0.176	-0.124
-347.450	72.416	0.229	-0.236
-346.435	116.019	0.290	-0.351
-345.420	243.633	-0.045	0.074
-344.406	129.548	0.051	0.064
-343.391	-98.826	0.184	0.046
-342.377	183.426	-0.127	-0.186
-341.362	18.343	0.188	0.149
-340.348	-102.510	0.141	0.033
-339.333	27.262	0.090	-0.075
-338.318	-200.000	-0.018	-0.330
-337.304	-49.015	0.203	0.096
-336.289	517.790	-0.022	-0.051
-335.275	-200.000	0.045	0.308
-334.260	-99.653	-0.254	0.063
-333.245	4.125	-0.422	-0.305
-332.231	-200.000	0.031	-0.199
-331.216	800.000	-0.097	-0.273
-330.202	289.346	0.140	0.250
-329.187	-63.586	0.186	0.075
-328.172	-73.840	-0.136	0.049
-327.158	-159.848	0.129	0.007
-326.143	130.607	0.178	-0.226
-325.129	-200.000	0.034	0.270
-324.114	72.528	0.180	0.185
-323.099	-104.779	-0.319	0.073
-322.085	-200.000	0.009	-0.134
-321.070	-87.558	0.486	0.145
-320.056	174.894	-0.016	0.023
-319.041	-22.392	0.061	-0.036
-318.026	-147.104	0.237	-0.020
-317.012	-4.717	0.168	-0.115
-315.997	17.492	-0.179	-0.141
-314.983	426.175	-0.083	0.177
-313.968	18.251	-0.216	-0.170
-312.953	-200.000	-0.035	0.215
-311.939	18.195	-0.080	-0.063
-310.924	-129.062	-0.409	0.057
-309.910	-173.560	-0.164	-0.005
-308.895	-150.239	-0.263	0.020
-307.880	131.475	0.122	-0.154
-306.866	-200.000	0.010	-0.232
-305.851	-132.198	-0.076	-0.010
-304.837	-35.874	-0.120	-0.064
-303.822	-159.136	-0.302	0.017
-302.807	181.485	0.110	-0.160
-301.793	800.000	0.043	-0.121
-300.778	800.000	0.062	0.232
-299.764	-152.027	0.215	0.015
-298.749	-47.366	0.221	-0.106
-297.735	350.951	0.109	-0.212
-296.720	-200.000	0.082	0.370
-295.705	-31.824	-0.294	0.163
-294.691	-129.020	0.190	0.026
-293.676	-200.000	0.015	0.087
-292.662	-47.156	0.063	-0.030
-291.647	-200.000	-0.001	0.222
-290.632	-2.407	-0.220	0.152
-289.618	581.254	0.060	0.146
-288.603	-200.000	-0.017	0.080
-287.589	79.851	0.039	-0.042
-286.574	38.699	0.228	0.201
-285.559	20.882	-0.075	-0.060
-284.545	-94.656	-0.147	-0.039
-283.530	291.359	-0.215	-0.387
-282.516	279.907	-0.068	0.120
-281.501	111.557	-0.056	-0.067
-280.486	233.143	0.035	0.057
-279.472	99.267	0.214	0.245
-278.457	-85.770	-0.069	-0.021
-277.443	800.000	0.087	-0.262
-276.428	800.000	0.121	0.469
-275.413	195.978	-0.165	-0.248
-274.399	-61.277	0.335	-0.139
-273.384	-39.040	0.263	-0.136
-272.370	-136.637	-0.265	0.030
-271.355	47.811	-0.332	-0.305
-270.340	-200.000	-0.028	-0.160
-269.326	-200.000	-0.004	0.290
-268.311	375.200	0.031	-0.062
-267.297	-200.000	-0.005	0.345
-266.282	17.845	0.134	0.106
-265.267	-127.921	-0.394	0.056
-264.253	34.790	-0.249	-0.215
-263.238	11.164	-0.168	0.127
-262.224	-11.160	-0.254	-0.165
-261.209	250.453	0.079	0.132
-260.195	52.941	-0.070	0.066
-259.180	-200.000	0.003	0.045
-258.165	-86.654	-0.390	-0.118
-257.151	42.254	0.041	-0.037
-256.136	-92.205	-0.059	0.016
-255.122	-200.000	0.012	0.134
-254.107	88.295	-0.102	-0.112
-253.092	357.798	0.083	0.163
-252.078	-200.000	0.008	-0.107
-251.063	183.939	0.084	0.122
-250.049	-58.948	0.097	0.041
-249.034	-139.543	-0.409	-0.043
-248.019	-85.551	0.433	0.133
-247.005	-200.000	0.061	0.265
-245.990	-67.851	0.319	0.123
-244.976	-200.000	-0.019	0.414
-243.961	86.677	0.206	-0.224
-242.946	-115.409	-0.271	0.050
-241.932	800.000	0.071	-0.245
-240.917	-64.117	0.182	0.073
-239.903	-106.721	-0.264	-0.058
-238.888	800.000	0.064	0.199
-237.873	-38.267	0.460	0.240
-236.859	-200.000	0.019	0.145
-235.844	-166.044	0.120	-0.005
-234.830	-149.994	-0.113	0.009
-233.815	-4.835	-0.198	-0.134
-232.800	800.000	0.042	0.130
-231.786	-200.000	-0.049	0.237
-230.771	96.606	0.033	0.037
-229.757	-200.000	-0.003	-0.110
-228.742	-200.000	0.013	0.215
-227.727	-129.159	0.109	-0.015
-226.713	-158.766	0.130	0.007
-225.698	63.982	0.053	-0.053
-224.684	-61.794	-0.148	-0.061
-223.669	-53.733	-0.143	-0.064
-222.655	-151.646	0.195	0.014
-221.640	746.095	0.046	-0.122
-220.625	-86.667	0.112	0.034
-219.611	-200.000	0.049	-0.393
-218.596	60.182	-0.119	0.116
-217.582	236.521	0.090	0.146
-216.567	254.653	0.029	0.048
-215.552	-200.000	-0.002	-0.041
-214.538	-13.094	0.056	-0.036
-213.523	-150.523	-0.299	-0.023
-212.509	-200.000	-0.106	0.594
-211.494	-19.417	0.310	-0.189
-210.479	800.000	-0.070	0.243
-209.465	86.797	0.100	-0.109
-208.450	-82.964	-0.346	-0.110
-207.436	-118.768	-0.049	0.008
-206.421	153.350	0.085	-0.114
-205.406	-172.565	-0.321	0.010
-204.392	-128.215	-0.253	0.036
-203.377	24.529	0.285	-0.232
-202.363	-58.922	0.108	-0.046
-201.348	-50.300	-0.309	-0.144
-200.333	-71.424	0.244	0.090
-199.319	-38.482	0.479	0.249
-198.304	-200.000	0.017	0.168
-197.290	167.945	0.254	0.355
-196.275	420.648	-0.072	0.152
-195.260	800.000	0.133	0.383
-194.246	337.506	0.143	0.273
-193.231	300.198	0.101	-0.184
-192.217	-200.000	0.029	0.145
-191.202	471.312	0.009	-0.020
-190.187	174.219	0.187	0.265
-189.173	-68.341	-0.236	-0.090
-188.158	-200.000	-0.001	-0.122
-187.144	-76.117	0.314	-0.109
-186.129	-151.710	-0.229	-0.017
-185.114	-129.202	0.326	-0.045
-184.100	11.455	-0.122	0.092
-183.085	-200.000	-0.003	-0.071
-182.071	241.564	0.122	0.200
-181.056	615.777	0.191	0.470
-180.042	240.739	0.114	-0.187
-179.027	-200.000	0.026	0.245
-178.012	-137.049	-0.132	-0.015
-176.998	-200.000	-0.000	0.103
-175.983	800.000	-0.023	0.088
-174.969	334.256	-0.111	-0.211
-173.954	223.838	-0.275	0.436
-172.939	21.400	0.098	0.078
-171.925	-11.163	-0.188	0.122
-170.910	34.859	-0.052	-0.045
-169.896	-40.764	0.246	-0.125
-168.881	391.388	0.170	0.346
-167.866	341.759	0.110	-0.212
-166.852	800.000	-0.046	0.190
-165.837	53.200	-0.223	0.210
-164.823	-200.000	0.012	0.350
-163.808	800.000	0.094	0.350
-162.793	-200.000	0.001	-0.107
-161.779	-200.000	-0.011	0.141
-160.764	-46.759	-0.379	0.182
-159.750	259.043	0.092	-0.155
-158.735	30.182	0.213	-0.178
-157.720	147.816	0.015	0.020
-156.706	-200.000	-0.005	-0.075
-155.691	-149.340	0.183	0.014
-154.677	105.228	-0.115	-0.133
-153.662	-200.000	-0.011	-0.083
-152.647	-131.665	0.178	-0.023
-151.633	579.844	0.042	-0.101
-150.618	-200.000	0.018	-0.265
-149.604	-76.218	0.243	-0.084
-148.589	-138.836	0.118	-0.013
-147.574	-133.090	0.265	-0.033
-146.560	-20.689	-0.073	0.044
-145.545	-88.494	-0.124	-0.036
-144.531	-110.249	0.088	0.018
-143.516	-6.696	0.437	-0.292
-142.502	800.000	0.058	0.194
-141.487	800.000	-0.028	0.104
-140.472	136.044	-0.086	0.111
-139.458	-92.323	0.287	0.079
-138.443	-117.967	-0.353	0.062
-137.429	73.569	-0.217	0.223
-136.414	-155.157	0.295	0.019
-135.399	-82.830	0.135	-0.043
-134.385	-129.550	0.246	-0.033
-133.370	134.599	0.235	-0.299
-132.356	-31.787	0.186	0.102
-131.341	-200.000	-0.021	-0.220
-130.326	68.784	0.173	-0.174
-129.312	-82.237	-0.062	-0.020
-128.297	-200.000	0.003	-0.012
-127.283	-158.160	-0.192	0.011
-126.268	-200.000	0.019	0.219
-125.253	73.494	-0.163	0.167
-124.239	-38.098	0.455	0.237
-123.224	500.931	0.158	0.358
-122.210	-123.371	0.140	0.022
