DTS Sentinel unit serial number:	SN413079Multiplexer serial number:	ORYXHardware model number:	OX4-SRSoftware version number:	ORYX F/W v4.00 Oryx Data Collector v3.7.2.0data status	okinstallation	princeton_trtdifferential loss correction	single-endedforward channel	channel 1reverse channel	N/Adate	2019/09/19time	14:10:35forward acquisition time	60.00reverse acquisition time	0.00gamma	496.2192k internal	0.2323k external	0.2323temperature offset calibration	1.0018default loss term (dB/km)	0.3790temperature slope calibration	1.0000multiplexer offset coefficient	1.0000multiplexer slope coefficient	1.0000fibre end	0.00T internal ref (°C)	31.48T ext. ref 1 (°C)	1.03T ext. ref 2 (°C)	28.78length (m)	temperature (°C)	Stokes	anti-Stokes-747.200	89.195	-0.463	0.521
-746.185	-200.000	-0.047	0.398
-745.171	-76.108	-0.274	-0.098
-744.156	800.000	-0.065	0.259
-743.142	-83.507	0.101	-0.033
-742.127	369.607	-0.103	0.210
-741.112	-42.251	-0.323	0.166
-740.098	151.434	-0.241	0.332
-739.083	-16.529	-0.171	0.109
-738.069	-39.187	-0.218	0.116
-737.054	-200.000	0.031	-0.167
-736.039	110.956	-0.098	0.119
-735.025	613.965	-0.051	-0.129
-734.010	107.127	-0.350	-0.419
-732.996	-200.000	0.025	-0.321
-731.981	51.740	0.183	0.176
-730.966	-200.000	-0.005	0.166
-729.952	-35.221	-0.362	-0.199
-728.937	-73.428	0.109	-0.040
-727.923	112.953	0.044	-0.053
-726.908	-111.399	-0.304	-0.063
-725.894	329.941	-0.169	-0.327
-724.879	-20.666	-0.177	-0.110
-723.864	-200.000	0.017	-0.160
-722.850	-71.858	-0.289	-0.109
-721.835	-200.000	-0.020	-0.261
-720.821	-200.000	-0.016	-0.303
-719.806	-92.156	0.216	-0.062
-718.791	-63.984	-0.456	0.188
-717.777	800.000	0.099	0.343
-716.762	1.970	-0.239	-0.174
-715.748	105.460	0.022	-0.026
-714.733	800.000	0.053	0.158
-713.718	-62.930	-0.041	0.017
-712.704	-30.277	-0.213	-0.122
-711.689	111.972	-0.135	-0.164
-710.675	-141.435	0.092	0.009
-709.660	-182.540	-0.440	-0.008
-708.645	30.101	0.099	0.085
-707.631	800.000	0.068	0.203
-706.616	-122.588	-0.254	-0.042
-705.602	800.000	0.082	0.261
-704.587	87.552	-0.155	-0.173
-703.572	-200.000	-0.038	-0.191
-702.558	130.138	-0.102	-0.132
-701.543	-37.859	0.350	0.187
-700.529	-33.501	-0.097	0.054
-699.514	800.000	0.128	-0.409
-698.499	-200.000	-0.017	0.212
-697.485	800.000	0.090	0.266
-696.470	800.000	-0.058	-0.254
-695.456	-102.511	0.113	0.027
-694.441	-8.941	0.179	-0.121
-693.426	-99.648	0.060	-0.015
-692.412	-200.000	0.003	-0.168
-691.397	-44.419	-0.129	-0.065
-690.383	-21.269	0.184	-0.113
-689.368	-28.770	0.127	-0.074
-688.354	-200.000	-0.003	0.106
-687.339	146.158	-0.128	-0.173
-686.324	-47.510	-0.104	-0.051
-685.310	22.971	0.219	-0.181
-684.295	-108.705	0.253	-0.055
-683.281	-40.375	-0.272	0.142
-682.266	239.991	-0.095	0.159
-681.251	-115.732	-0.066	-0.012
-680.237	112.555	0.109	-0.133
-679.222	-97.406	0.262	-0.069
-678.208	-7.652	0.057	0.039
-677.193	-159.932	0.150	-0.008
-676.178	800.000	0.083	0.307
-675.164	239.881	-0.116	-0.195
-674.149	-130.936	0.251	0.034
-673.135	-101.923	-0.192	0.047
-672.120	161.245	0.070	-0.099
-671.105	460.456	0.049	-0.110
-670.091	276.658	0.074	-0.133
-669.076	-200.000	0.051	0.253
-668.062	800.000	-0.131	-0.398
-667.047	800.000	-0.007	0.024
-666.032	16.247	-0.062	-0.049
-665.018	-172.479	0.332	0.011
-664.003	209.543	0.103	-0.163
-662.989	-178.969	0.309	0.007
-661.974	-40.524	-0.214	0.112
-660.959	-12.324	-0.165	0.108
-659.945	-98.843	0.142	0.036
-658.930	-165.534	-0.165	-0.007
-657.916	-21.075	-0.077	0.047
-656.901	358.933	0.087	0.175
-655.886	-60.026	0.194	0.083
-654.872	-200.000	-0.018	0.246
-653.857	-64.979	-0.038	0.016
-652.843	126.514	0.185	0.236
-651.828	-162.642	0.104	0.005
-650.814	29.793	-0.124	-0.106
-649.799	99.538	-0.259	-0.301
-648.784	800.000	0.051	-0.164
-647.770	300.058	-0.079	0.146
-646.755	-10.405	-0.391	-0.260
-645.741	-93.893	-0.181	-0.050
-644.726	-53.780	0.203	0.093
-643.711	124.355	-0.109	0.138
-642.697	-82.334	0.109	0.036
-641.682	-94.924	-0.214	0.058
-640.668	-200.000	-0.010	0.263
-639.653	59.424	-0.197	0.195
-638.638	118.786	0.337	-0.418
-637.624	800.000	-0.070	-0.284
-636.609	-27.832	0.060	0.035
-635.595	800.000	-0.137	0.438
-634.580	6.343	0.218	0.163
-633.565	263.562	0.236	-0.413
-632.551	-122.475	-0.316	-0.052
-631.536	556.020	0.090	-0.217
-630.522	29.978	-0.218	-0.187
-629.507	-38.252	-0.208	0.111
-628.492	-104.238	-0.440	-0.103
-627.478	-57.855	0.252	-0.111
-626.463	-51.243	-0.122	-0.058
-625.449	339.529	-0.133	-0.260
-624.434	-12.276	-0.301	0.198
-623.419	-26.045	0.028	-0.016
-622.405	-200.000	0.004	-0.039
-621.390	-200.000	-0.015	0.182
-620.376	148.363	0.048	-0.066
-619.361	134.882	0.168	-0.219
-618.346	-89.491	0.255	0.075
-617.332	-90.324	-0.106	-0.031
-616.317	-143.855	0.141	-0.013
-615.303	90.675	0.039	0.044
-614.288	234.904	0.160	0.266
-613.273	-200.000	0.022	-0.168
-612.259	-53.168	-0.216	-0.099
-611.244	-70.533	0.208	0.079
-610.230	-71.575	-0.119	-0.045
-609.215	800.000	0.040	-0.115
-608.201	3.594	-0.182	-0.133
-607.186	24.778	0.051	-0.042
-606.171	-5.739	-0.162	0.112
-605.157	-62.564	0.130	-0.054
-604.142	113.164	0.018	-0.022
-603.128	159.053	0.106	0.148
-602.113	-195.871	0.233	0.002
-601.098	492.760	0.074	-0.171
-600.084	4.153	-0.057	0.042
-599.069	166.157	-0.092	0.131
-598.055	40.174	0.128	-0.115
-597.040	73.118	0.143	-0.150
-596.025	-161.648	-0.312	-0.016
-595.011	62.721	-0.041	-0.041
-593.996	-87.952	0.228	-0.069
-592.982	-102.411	-0.415	0.100
-591.967	114.938	0.140	0.172
-590.952	753.086	0.081	-0.219
-589.938	-200.000	-0.019	-0.108
-588.923	304.937	0.145	-0.271
-587.909	-200.000	0.011	-0.195
-586.894	25.753	0.188	0.157
-585.879	-200.000	0.004	0.179
-584.865	-97.166	-0.286	0.075
-583.850	11.146	-0.206	-0.158
-582.836	-0.187	-0.139	0.100
-581.821	12.139	0.067	-0.052
-580.806	800.000	-0.060	0.203
-579.792	-200.000	-0.050	0.236
-578.777	-185.542	0.169	-0.003
-577.763	97.545	-0.140	0.161
-576.748	-8.055	-0.222	0.150
-575.733	800.000	-0.124	0.405
-574.719	-6.954	-0.116	-0.079
-573.704	586.081	-0.032	-0.079
-572.690	77.613	0.257	-0.274
-571.675	-200.000	-0.016	-0.159
-570.661	-144.497	-0.207	-0.019
-569.646	467.604	0.073	0.163
-568.631	-60.508	0.198	-0.084
-567.617	800.000	0.005	0.014
-566.602	-37.555	0.124	-0.066
-565.588	206.499	-0.174	0.271
-564.573	-39.856	-0.286	-0.150
-563.558	138.368	0.140	-0.185
-562.544	-200.000	-0.010	-0.056
-561.529	-121.606	0.222	0.037
-560.515	-200.000	-0.036	0.164
-559.500	18.276	0.044	-0.035
-558.485	133.165	0.115	-0.150
-557.471	-126.966	-0.359	0.053
-556.456	109.410	0.369	0.443
-555.442	800.000	0.077	0.256
-554.427	14.648	-0.177	0.139
-553.412	-200.000	0.046	-0.215
-552.398	1.405	-0.126	0.091
-551.383	161.932	0.079	0.111
-550.369	-200.000	0.014	-0.065
-549.354	-90.232	0.025	-0.007
-548.339	233.044	0.111	0.183
-547.325	87.322	-0.129	-0.143
-546.310	-24.106	0.191	-0.114
-545.296	-21.118	0.114	-0.070
-544.281	-91.618	0.040	-0.011
-543.266	-67.002	-0.368	0.146
-542.252	256.017	0.143	0.245
-541.237	-200.000	-0.031	-0.257
-540.223	13.686	-0.282	0.219
-539.208	800.000	0.099	0.304
-538.193	607.381	-0.077	-0.193
-537.179	-200.000	0.212	-0.001
-536.164	-6.962	0.149	0.101
-535.150	199.355	-0.107	0.165
-534.135	-16.789	-0.076	0.048
-533.121	-200.000	-0.005	-0.318
-532.106	632.251	0.083	-0.210
-531.091	454.452	0.067	-0.149
-530.077	800.000	-0.133	0.426
-529.062	-200.000	0.017	-0.159
-528.048	495.525	-0.010	-0.024
-527.033	-200.000	0.026	0.397
-526.018	-68.951	-0.034	-0.013
-525.004	-200.000	-0.014	-0.176
-523.989	296.506	0.193	0.354
-522.975	-23.698	0.196	-0.118
-521.960	-37.508	-0.104	-0.055
-520.945	527.678	-0.083	0.196
-519.931	79.339	0.099	0.106
-518.916	656.001	0.069	0.177
-517.902	800.000	0.059	0.231
-516.887	-73.571	-0.054	-0.020
-515.872	-200.000	0.046	0.221
-514.858	-115.661	0.271	-0.051
-513.843	800.000	0.096	-0.315
-512.829	-77.552	-0.235	-0.082
-511.814	-200.000	0.005	-0.097
-510.799	-200.000	-0.006	-0.062
-509.785	-109.191	-0.296	-0.063
-508.770	728.584	-0.064	-0.172
-507.756	-57.000	-0.290	-0.128
-506.741	-32.992	-0.194	-0.108
-505.726	257.466	-0.078	0.134
-504.712	-19.250	0.228	-0.141
-503.697	458.400	-0.127	-0.282
-502.683	180.729	0.175	0.258
-501.668	-90.311	-0.134	-0.039
-500.653	-200.000	0.037	-0.259
-499.639	463.637	-0.111	0.249
-498.624	-200.000	0.019	-0.135
-497.610	3.137	0.160	-0.116
-496.595	256.481	0.090	0.155
-495.581	566.574	-0.025	-0.061
-494.566	-63.222	0.013	-0.005
-493.551	-162.118	-0.067	0.003
-492.537	-200.000	0.055	0.248
-491.522	66.576	-0.179	0.182
-490.508	592.391	-0.125	-0.308
-489.493	-38.450	0.055	0.029
-488.478	-10.935	-0.075	0.049
-487.464	325.518	-0.105	0.201
-486.449	405.006	0.031	-0.065
-485.435	-76.006	0.163	-0.058
-484.420	800.000	-0.061	0.170
-483.405	800.000	-0.054	0.218
-482.391	337.377	-0.093	-0.181
-481.376	800.000	-0.113	0.342
-480.362	-173.931	-0.072	0.002
-479.347	551.409	0.061	-0.146
-478.332	-200.000	-0.027	-0.204
-477.318	-9.268	0.055	0.037
-476.303	-50.566	-0.273	-0.129
-475.289	-200.000	0.036	0.209
-474.274	-16.262	0.074	0.047
-473.259	13.528	-0.228	0.177
-472.245	164.637	0.184	0.259
-471.230	97.771	0.119	-0.137
-470.216	-200.000	0.007	-0.151
-469.201	76.845	0.054	0.057
-468.186	-200.000	-0.021	0.109
-467.172	-99.622	-0.109	-0.027
-466.157	-200.000	-0.063	-0.291
-465.143	-132.594	0.268	-0.034
-464.128	380.623	0.178	0.365
-463.113	-17.197	0.147	-0.092
-462.099	-200.000	-0.018	-0.083
-461.084	-20.296	0.071	0.044
-460.070	800.000	-0.049	0.150
-459.055	-104.450	-0.111	-0.026
-458.040	-200.000	-0.014	0.242
-457.026	71.954	0.106	0.111
-456.011	10.621	0.262	0.199
-454.997	26.926	-0.148	0.124
-453.982	-25.018	0.082	0.049
-452.968	-200.000	0.054	-0.276
-451.953	-106.785	0.183	-0.041
-450.938	-163.040	-0.075	-0.004
-449.924	-200.000	-0.001	-0.079
-448.909	-200.000	-0.038	0.306
-447.895	-23.636	-0.041	0.025
-446.880	-80.016	0.073	-0.025
-445.865	591.107	0.119	0.293
-444.851	107.299	-0.040	-0.047
-443.836	-94.622	-0.158	-0.043
-442.822	609.168	0.097	0.241
-441.807	107.027	0.156	-0.185
-440.792	181.294	-0.162	-0.237
-439.778	-200.000	-0.025	0.456
-438.763	-29.207	-0.173	-0.099
-437.749	-200.000	-0.040	0.236
-436.734	60.063	-0.224	-0.221
-435.719	-144.218	0.258	-0.024
-434.705	-77.715	-0.191	0.066
-433.690	166.918	0.045	-0.064
-432.676	800.000	0.011	-0.037
-431.661	1.552	-0.021	-0.015
-430.646	-200.000	-0.016	-0.073
-429.632	174.875	0.073	-0.106
-428.617	-74.519	0.079	-0.028
-427.603	230.496	-0.159	-0.260
-426.588	18.122	-0.060	0.048
-425.573	-81.018	-0.120	-0.040
-424.559	401.961	-0.042	-0.088
-423.544	106.375	0.078	-0.092
-422.530	-127.526	0.046	-0.007
-421.515	-200.000	0.007	-0.107
-420.500	60.586	0.126	-0.125
-419.486	800.000	0.088	-0.264
-418.471	-138.608	0.194	0.021
-417.457	-33.504	0.299	-0.165
-416.442	4.377	-0.068	-0.050
-415.428	-144.829	-0.394	0.036
-414.413	-200.000	0.335	0.000
-413.398	-146.932	0.247	0.021
-412.384	800.000	0.061	0.232
-411.369	175.213	-0.168	0.243
-410.355	-200.000	0.003	0.286
-409.340	163.362	0.075	0.105
-408.325	21.759	-0.045	-0.036
-407.311	800.000	0.072	0.251
-406.296	279.049	0.123	-0.219
-405.282	-175.003	-0.135	0.004
-404.267	39.667	-0.163	0.146
-403.252	800.000	0.071	0.210
-402.238	331.356	0.115	0.221
-401.223	303.452	0.065	-0.119
-400.209	-57.319	0.110	-0.048
-399.194	81.508	-0.248	0.267
-398.179	-200.000	0.063	0.296
-397.165	-28.946	-0.082	0.047
-396.150	-200.000	0.056	-0.372
-395.136	800.000	0.025	0.092
-394.121	16.165	-0.185	-0.146
-393.106	-73.029	-0.227	0.083
-392.092	-119.870	-0.338	0.058
-391.077	-179.414	-0.429	0.009
-390.063	-200.000	0.007	0.202
-389.048	533.776	-0.127	-0.301
-388.033	33.014	-0.211	0.182
-387.019	-200.000	0.012	-0.222
-386.004	275.298	0.106	-0.187
-384.990	200.798	0.013	-0.020
-383.975	-200.000	0.073	0.569
-382.960	-200.000	-0.017	-0.308
-381.946	-122.322	-0.215	-0.035
-380.931	-89.064	0.241	-0.071
-379.917	-200.000	-0.005	0.072
-378.902	35.635	0.221	-0.193
-377.888	236.253	-0.100	-0.165
-376.873	-83.259	0.193	-0.062
-375.858	-81.437	0.076	-0.025
-374.844	-91.600	-0.231	0.065
-373.829	-177.036	-0.259	0.006
-372.815	42.702	0.065	0.059
-371.800	27.485	-0.068	0.057
-370.785	-200.000	-0.007	0.064
-369.771	-109.512	0.100	-0.021
-368.756	278.328	-0.162	-0.286
-367.742	-50.844	-0.299	-0.140
-366.727	151.902	0.075	0.102
-365.712	-148.539	-0.277	-0.022
-364.698	-117.135	0.169	0.031
-363.683	-153.661	0.059	-0.004
-362.669	-200.000	-0.017	0.077
-361.654	-14.130	0.175	0.112
-360.639	-200.000	0.008	0.105
-359.625	-158.551	-0.224	-0.013
-358.610	-200.000	0.057	-0.329
-357.596	78.963	0.059	0.063
-356.581	361.995	-0.022	-0.044
-355.566	-200.000	0.024	-0.210
-354.552	81.825	-0.144	0.155
-353.537	-66.898	0.223	0.088
-352.523	-200.000	-0.025	-0.165
-351.508	-2.987	0.196	-0.136
-350.493	-17.319	-0.415	-0.260
-349.479	52.512	0.248	-0.235
-348.464	-72.794	0.127	-0.046
-347.450	40.337	0.125	-0.112
-346.435	46.528	-0.175	-0.161
-345.420	-30.783	-0.328	0.184
-344.406	73.679	0.112	-0.117
-343.391	800.000	0.026	0.078
-342.377	-138.913	0.144	-0.016
-341.362	-74.735	-0.148	0.053
-340.348	-200.000	0.013	-0.515
-339.333	109.966	-0.198	-0.236
-338.318	-31.794	-0.136	0.076
-337.304	189.085	-0.078	-0.117
-336.289	432.127	-0.037	0.080
-335.275	386.742	0.106	-0.218
-334.260	-41.333	-0.245	0.126
-333.245	60.833	-0.194	-0.191
-332.231	-150.600	-0.360	0.027
-331.216	-16.787	-0.235	-0.148
-330.202	-200.000	0.028	-0.442
-329.187	21.524	0.318	0.257
-328.172	-200.000	-0.007	-0.266
-327.158	-56.406	0.096	-0.042
-326.143	64.854	0.233	-0.234
-325.129	-200.000	0.036	-0.233
-324.114	-77.470	-0.072	-0.025
-323.099	420.527	-0.054	-0.115
-322.085	-58.792	0.343	0.147
-321.070	-135.236	-0.134	-0.016
-320.056	75.395	-0.028	-0.029
-319.041	13.707	0.253	-0.195
-318.026	71.195	-0.305	0.314
-317.012	251.213	0.073	0.123
-315.997	-68.671	-0.260	0.100
-314.983	-200.000	0.058	-0.335
-313.968	109.701	0.168	-0.200
-312.953	192.818	0.089	0.134
-311.939	-129.947	0.111	0.015
-310.924	10.031	-0.067	-0.051
-309.910	83.450	-0.350	-0.378
-308.895	77.554	-0.165	0.175
-307.880	146.469	-0.137	0.183
-306.866	-44.782	-0.203	0.101
-305.851	214.725	-0.083	-0.130
-304.837	-99.173	0.137	-0.034
-303.822	-77.272	0.250	0.086
-302.807	800.000	0.083	0.276
-301.793	-159.950	0.213	-0.012
-300.778	-180.256	-0.081	-0.002
-299.764	-69.584	-0.371	-0.141
-298.749	159.601	0.188	-0.260
-297.735	-200.000	0.054	0.261
-296.720	-111.543	0.089	-0.018
-295.705	800.000	-0.073	-0.256
-294.691	113.312	0.203	-0.244
-293.676	122.715	0.053	0.066
-292.662	333.564	0.071	0.136
-291.647	91.215	-0.318	0.354
-290.632	-129.289	0.292	0.040
-289.618	-74.035	0.118	-0.043
-288.603	94.867	0.375	0.423
-287.589	-72.540	0.094	-0.035
-286.574	221.183	0.062	-0.099
-285.559	80.850	0.148	-0.158
-284.545	800.000	0.070	0.231
-283.530	800.000	0.049	-0.182
-282.516	55.675	-0.148	-0.142
-281.501	160.865	0.098	0.136
-280.486	37.653	0.055	0.048
-279.472	-200.000	-0.048	-0.379
-278.457	-36.100	0.294	-0.157
-277.443	-136.066	-0.228	-0.027
-276.428	-22.830	-0.193	-0.115
-275.413	249.263	-0.044	0.074
-274.399	-58.994	0.107	0.046
-273.384	38.599	-0.162	0.144
-272.370	-17.709	0.195	0.122
-271.355	134.658	0.177	0.228
-270.340	-84.792	-0.148	0.046
-269.326	153.261	0.078	0.106
-268.311	-200.000	-0.008	0.213
-267.297	-77.318	0.142	0.049
-266.282	-110.884	-0.123	0.025
-265.267	-131.000	0.146	-0.019
-264.253	-200.000	0.040	0.210
-263.238	-132.239	-0.151	-0.019
-262.224	-200.000	0.014	0.113
-261.209	-200.000	0.040	0.195
-260.195	129.724	-0.142	-0.180
-259.180	40.905	-0.034	-0.030
-258.165	182.196	0.029	-0.042
-257.151	105.342	-0.046	0.054
-256.136	271.173	0.109	0.190
-255.122	-187.715	-0.197	0.003
-254.107	81.257	0.110	0.117
-253.092	66.187	-0.207	-0.208
-252.078	-200.000	0.000	-0.208
-251.063	-48.806	0.318	0.151
-250.049	-200.000	0.011	-0.219
-249.034	800.000	-0.029	0.117
-248.019	453.531	0.168	0.369
-247.005	-200.000	-0.005	-0.024
-245.990	471.590	-0.084	0.188
-244.976	-200.000	0.015	0.314
-243.961	313.365	0.152	0.282
-242.946	-5.539	-0.223	0.152
-241.932	6.998	-0.298	-0.220
-240.917	-200.000	0.023	0.312
-239.903	-12.030	0.291	0.189
-238.888	-138.049	0.265	-0.029
-237.873	110.535	0.272	0.324
-236.859	48.159	0.171	0.158
-235.844	800.000	-0.077	-0.257
-234.830	160.645	0.213	0.294
-233.815	-200.000	-0.009	0.087
-232.800	-161.781	0.537	0.027
-231.786	800.000	0.085	-0.298
-230.771	-200.000	-0.017	-0.141
-229.757	781.999	0.113	-0.306
-228.742	-200.000	0.020	-0.175
-227.727	-28.987	-0.253	-0.144
-226.713	-116.740	0.357	0.065
-225.698	-200.000	0.001	0.164
-224.684	-200.000	0.021	-0.141
-223.669	800.000	-0.134	0.449
-222.655	800.000	0.075	0.219
-221.640	-3.362	-0.082	0.057
-220.625	-200.000	0.000	-0.148
-219.611	-200.000	-0.012	0.304
-218.596	-48.075	-0.136	-0.065
-217.582	-69.206	0.102	-0.039
-216.567	240.002	-0.097	-0.160
-215.552	-200.000	-0.059	-0.267
-214.538	123.413	-0.078	0.096
-213.523	53.870	0.136	-0.129
-212.509	-200.000	-0.020	0.093
-211.494	364.687	0.033	-0.065
-210.479	485.553	-0.088	0.198
-209.465	189.606	0.132	-0.196
-208.450	350.208	0.211	0.413
-207.436	-3.962	-0.144	-0.099
-206.421	-24.858	-0.114	0.067
-205.406	408.226	0.109	-0.227
-204.392	-94.165	-0.387	0.105
-203.377	-50.544	-0.429	0.200
-202.363	-13.911	0.074	0.048
-201.348	-25.850	-0.304	0.177
-200.333	-200.000	0.003	-0.120
-199.319	502.950	-0.164	-0.375
-198.304	-34.385	-0.192	-0.104
-197.290	41.957	0.265	-0.238
-196.275	-163.390	-0.442	0.021
-195.260	-200.000	-0.003	-0.177
-194.246	-26.558	0.192	-0.111
-193.231	101.654	0.395	-0.455
-192.217	-25.410	0.099	-0.058
-191.202	260.492	-0.233	-0.397
-190.187	284.191	0.187	-0.332
-189.173	307.099	0.047	0.086
-188.158	-200.000	-0.009	0.074
-187.144	-98.039	0.095	0.024
-186.129	49.458	0.121	0.112
-185.114	-31.668	0.300	0.166
-184.100	76.225	-0.098	0.103
-183.085	470.068	-0.044	-0.097
-182.071	240.892	-0.134	0.221
-181.056	800.000	0.096	-0.273
-180.042	140.390	0.101	0.132
-179.027	-8.150	0.300	0.199
-178.012	800.000	-0.058	0.180
-176.998	481.592	0.115	0.258
-175.983	800.000	0.115	0.439
-174.969	26.049	-0.117	0.096
-173.954	55.762	0.123	-0.118
-172.939	413.757	0.092	-0.194
-171.925	800.000	0.085	-0.262
-170.910	-157.665	-0.051	-0.003
-169.896	800.000	0.011	0.033
-168.881	322.480	-0.248	0.466
-167.866	-42.450	0.111	-0.056
-166.852	95.847	0.307	-0.347
-165.837	228.746	0.047	0.075
-164.823	116.681	0.038	-0.047
-163.808	800.000	-0.044	-0.166
-162.793	-57.457	-0.302	-0.131
-161.779	35.077	0.167	0.144
-160.764	184.827	0.152	-0.223
-159.750	-30.861	0.037	-0.021
-158.735	-68.907	-0.094	0.036
-157.720	-61.637	0.312	0.129
-156.706	800.000	-0.006	0.023
-155.691	654.104	0.164	0.415
-154.677	-127.785	-0.150	-0.021
-153.662	800.000	0.068	-0.230
-152.647	800.000	0.078	0.302
-151.633	-200.000	0.080	-0.511
-150.618	-62.399	-0.316	-0.130
-149.604	-200.000	-0.004	-0.061
-148.589	137.166	-0.131	-0.169
-147.574	-200.000	0.066	-0.357
-146.560	-135.335	0.338	-0.040
-145.545	312.930	0.059	-0.109
-144.531	-120.478	0.129	-0.022
-143.516	-162.595	0.282	0.014
-142.502	-118.536	0.463	0.081
-141.487	123.843	0.157	0.194
-140.472	-17.880	0.223	-0.138
-139.458	246.833	-0.213	0.354
-138.443	253.872	0.181	-0.305
-137.429	-73.186	-0.181	0.065
-136.414	47.373	0.179	0.165
-135.399	-64.143	-0.251	0.101
-134.385	800.000	-0.067	0.205
-133.370	50.327	-0.156	0.145
-132.356	268.849	-0.133	0.230
-131.341	-83.291	0.231	0.073
-130.326	-99.759	0.210	0.052
-129.312	217.464	-0.115	-0.181
-128.297	162.675	-0.191	-0.264
-127.283	131.882	-0.142	0.180
-126.268	68.726	0.085	-0.086
-125.253	319.238	-0.076	0.142
-124.239	-62.056	0.303	-0.125
-123.224	-68.820	-0.135	0.051
-122.210	-54.286	-0.181	-0.081
-121.195	-53.698	-0.191	0.086
