DTS Sentinel unit serial number:	SN413079Multiplexer serial number:	ORYXHardware model number:	OX4-SRSoftware version number:	ORYX F/W v4.00 Oryx Data Collector v3.7.2.0data status	okinstallation	princeton_trtdifferential loss correction	single-endedforward channel	channel 1reverse channel	N/Adate	2019/09/11time	08:04:11forward acquisition time	60.00reverse acquisition time	0.00gamma	496.2192k internal	0.2320k external	0.2320temperature offset calibration	1.1252default loss term (dB/km)	0.3790temperature slope calibration	1.0000multiplexer offset coefficient	1.0000multiplexer slope coefficient	1.0000fibre end	0.00T internal ref (°C)	32.19T ext. ref 1 (°C)	19.76T ext. ref 2 (°C)	28.31length (m)	temperature (°C)	Stokes	anti-Stokes-747.200	50.993	-0.123	-0.118
-746.185	800.000	0.246	0.704
-745.171	16.473	-0.158	0.126
-744.156	-200.000	-0.026	0.197
-743.142	20.756	-0.114	0.093
-742.127	-42.114	-0.437	0.226
-741.112	-71.052	0.292	0.111
-740.098	150.263	-0.188	0.258
-739.083	110.650	0.072	0.088
-738.069	7.286	-0.076	0.058
-737.054	-18.918	-0.174	-0.109
-736.039	-85.838	-0.156	0.049
-735.025	204.472	0.223	0.350
-734.010	-23.968	-0.312	-0.188
-732.996	-56.237	0.181	0.081
-731.981	-134.885	-0.297	-0.036
-730.966	-101.010	-0.114	0.028
-729.952	-200.000	-0.041	0.276
-728.937	-200.000	-0.049	0.245
-727.923	-28.735	-0.236	-0.137
-726.908	-200.000	0.017	-0.091
-725.894	-168.902	-0.388	0.015
-724.879	96.930	-0.164	-0.190
-723.864	346.785	-0.100	-0.199
-722.850	-35.727	-0.220	-0.120
-721.835	526.845	-0.181	-0.431
-720.821	-123.607	-0.152	-0.024
-719.806	-57.351	0.233	-0.104
-718.791	8.509	-0.328	0.249
-717.777	60.882	-0.185	-0.186
-716.762	800.000	0.021	-0.059
-715.748	-42.462	-0.328	-0.169
-714.733	-169.167	0.082	0.003
-713.718	68.181	0.055	0.057
-712.704	17.354	-0.162	0.130
-711.689	-200.000	-0.001	-0.137
-710.675	-200.000	-0.016	0.199
-709.660	426.731	0.073	0.158
-708.645	-46.336	0.159	0.079
-707.631	-200.000	-0.099	-0.518
-706.616	-200.000	0.022	-0.185
-705.602	-109.725	-0.159	-0.034
-704.587	55.770	-0.108	0.106
-703.572	19.791	-0.101	-0.082
-702.558	152.940	0.045	-0.062
-701.543	-200.000	0.119	-0.649
-700.529	-125.895	0.207	0.032
-699.514	19.597	-0.037	0.030
-698.499	64.294	0.269	-0.274
-697.485	-68.942	0.227	-0.089
-696.470	-200.000	-0.022	0.212
-695.456	-200.000	0.024	0.144
-694.441	-83.388	-0.368	-0.119
-693.426	30.887	-0.116	-0.100
-692.412	367.858	-0.055	-0.112
-691.397	195.137	0.118	0.181
-690.383	-65.897	-0.096	0.039
-689.368	-42.409	-0.541	-0.278
-688.354	-128.564	0.528	0.075
-687.339	-200.000	-0.053	0.278
-686.324	684.417	0.070	-0.183
-685.310	-200.000	-0.188	0.000
-684.295	185.323	-0.057	-0.086
-683.281	-140.275	-0.240	-0.025
-682.266	-112.004	0.187	-0.038
-681.251	-174.108	0.175	-0.005
-680.237	-39.497	0.151	0.080
-679.222	59.848	-0.234	-0.233
-678.208	-179.803	-0.128	0.003
-677.193	-32.722	-0.187	-0.105
-676.178	323.532	0.043	0.083
-675.164	-200.000	0.049	-0.226
-674.149	-113.020	0.302	-0.060
-673.135	233.528	-0.083	-0.137
-672.120	-106.125	0.308	-0.070
-671.105	268.859	0.189	-0.334
-670.091	319.017	-0.043	-0.082
-669.076	-200.000	0.035	-0.482
-668.062	-60.830	-0.204	-0.087
-667.047	423.912	-0.115	0.249
-666.032	-143.997	0.187	-0.018
-665.018	63.567	0.032	0.033
-664.003	-166.224	-0.137	-0.006
-662.989	211.529	0.110	0.175
-661.974	800.000	-0.030	-0.105
-660.959	-38.520	-0.211	0.112
-659.945	-34.361	0.204	-0.113
-658.930	11.213	-0.044	-0.034
-657.916	264.504	0.033	-0.058
-656.901	39.661	-0.086	-0.077
-655.886	-152.584	-0.332	-0.024
-654.872	-70.151	-0.352	0.135
-653.857	-132.775	0.245	-0.031
-652.843	53.767	0.185	0.179
-651.828	-133.748	0.261	-0.033
-650.814	800.000	-0.079	0.322
-649.799	-200.000	-0.025	0.170
-648.784	-3.862	-0.251	-0.175
-647.770	-68.041	0.086	-0.034
-646.755	-76.298	-0.361	-0.128
-645.741	20.379	0.091	0.074
-644.726	18.794	0.200	0.161
-643.711	-200.000	-0.027	-0.248
-642.697	-106.100	0.417	0.094
-641.682	-8.980	0.093	-0.063
-640.668	-200.000	0.030	-0.193
-639.653	-3.402	-0.284	0.199
-638.638	302.044	0.062	-0.115
-637.624	-200.000	0.042	-0.308
-636.609	80.294	-0.102	-0.110
-635.595	-39.571	0.174	0.092
-634.580	243.112	0.012	-0.020
-633.565	-134.597	0.115	-0.014
-632.551	800.000	0.005	-0.018
-631.536	-133.375	-0.246	-0.031
-630.522	-37.284	-0.265	0.143
-629.507	800.000	0.072	-0.251
-628.492	-23.248	0.109	0.066
-627.478	490.934	0.199	-0.458
-626.463	367.600	0.139	0.283
-625.449	800.000	-0.140	0.394
-624.434	-200.000	0.023	-0.300
-623.419	309.448	-0.081	0.153
-622.405	800.000	-0.074	-0.289
-621.390	65.731	0.073	-0.075
-620.376	-27.113	0.193	-0.113
-619.361	210.133	0.144	0.228
-618.346	-200.000	0.006	0.174
-617.332	-200.000	0.017	-0.171
-616.317	88.728	-0.084	0.093
-615.303	135.462	0.234	-0.307
-614.288	-142.903	-0.181	0.018
-613.273	521.987	-0.125	0.294
-612.259	-200.000	-0.030	-0.168
-611.244	12.351	-0.131	0.102
-610.230	-200.000	0.016	0.150
-609.215	800.000	-0.051	-0.205
-608.201	67.701	-0.013	-0.013
-607.186	-83.255	0.244	-0.079
-606.171	-73.264	0.186	-0.068
-605.157	800.000	0.014	-0.040
-604.142	-118.678	-0.221	-0.039
-603.128	345.395	0.065	-0.129
-602.113	800.000	0.095	0.287
-601.098	-89.995	-0.141	-0.041
-600.084	-183.420	-0.278	-0.005
-599.069	-60.192	-0.177	0.076
-598.055	54.699	-0.098	0.095
-597.040	71.575	-0.207	-0.216
-596.025	273.918	-0.048	-0.086
-595.011	-92.483	0.092	0.026
-593.996	-191.104	-0.267	-0.003
-592.982	-136.092	-0.385	0.045
-591.967	800.000	0.010	-0.042
-590.952	18.955	0.268	-0.216
-589.938	-199.322	0.244	-0.001
-588.923	57.549	-0.432	-0.425
-587.909	-96.551	-0.107	0.028
-586.894	-200.000	0.020	-0.113
-585.879	-51.871	0.392	0.183
-584.865	550.710	-0.040	0.096
-583.850	57.638	-0.294	0.288
-582.836	-34.880	-0.429	-0.235
-581.821	-152.264	0.196	-0.014
-580.806	117.726	0.110	-0.136
-579.792	96.035	-0.267	0.306
-578.777	-64.319	0.161	0.066
-577.763	157.807	-0.223	0.310
-576.748	-160.973	0.314	0.017
-575.733	-200.000	0.001	-0.211
-574.719	80.785	0.134	0.145
-573.704	-67.834	-0.313	0.123
-572.690	62.553	-0.072	-0.073
-571.675	-114.822	-0.064	0.012
-570.661	162.561	-0.090	-0.126
-569.646	-155.376	-0.147	-0.010
-568.631	-200.000	-0.011	0.142
-567.617	13.118	-0.213	0.165
-566.602	-44.027	-0.214	-0.108
-565.588	55.035	0.079	-0.076
-564.573	800.000	0.098	0.302
-563.558	-151.732	0.198	-0.015
-562.544	-200.000	0.021	0.303
-561.529	-44.852	0.282	-0.141
-560.515	-200.000	0.006	0.097
-559.500	-106.548	0.240	-0.054
-558.485	800.000	-0.158	-0.453
-557.471	800.000	0.052	-0.145
-556.456	-143.209	-0.069	-0.007
-555.442	16.801	-0.076	-0.060
-554.427	-6.370	0.214	-0.147
-553.412	-155.303	0.103	0.007
-552.398	611.467	-0.034	0.085
-551.383	-55.508	0.235	-0.106
-550.369	800.000	-0.081	0.254
-549.354	31.119	-0.155	-0.133
-548.339	-25.812	-0.197	0.116
-547.325	511.325	0.110	0.258
-546.310	34.739	-0.022	-0.019
-545.296	-66.187	0.133	0.053
-544.281	-160.744	0.263	-0.014
-543.266	-200.000	-0.012	0.056
-542.252	-144.396	0.191	-0.018
-541.237	264.015	-0.062	0.108
-540.223	652.621	-0.075	-0.192
-539.208	-175.137	-0.599	0.017
-538.193	1.333	-0.255	-0.184
-537.179	800.000	-0.074	-0.246
-536.164	-200.000	-0.002	-0.135
-535.150	800.000	-0.091	-0.370
-534.135	45.953	0.141	-0.131
-533.121	800.000	0.048	-0.185
-532.106	800.000	0.033	-0.142
-531.091	-200.000	-0.040	-0.201
-530.077	-131.496	0.313	0.041
-529.062	72.519	-0.192	0.201
-528.048	800.000	-0.018	-0.073
-527.033	-82.541	-0.246	0.080
-526.018	-200.000	-0.008	0.174
-525.004	84.669	0.169	-0.185
-523.989	-46.022	0.243	-0.120
-522.975	40.771	-0.126	-0.114
-521.960	-135.994	0.220	-0.026
-520.945	-200.000	0.205	-0.001
-519.931	-2.021	-0.255	-0.180
-518.916	-95.841	0.341	0.091
-517.902	241.990	0.159	-0.267
-516.887	-200.000	0.003	-0.180
-515.872	41.509	-0.315	-0.286
-514.858	68.343	-0.282	0.289
-513.843	-148.056	-0.326	0.027
-512.829	-200.000	0.022	0.131
-511.814	-172.544	0.069	0.002
-510.799	-94.289	-0.139	-0.038
-509.785	-200.000	-0.077	-0.356
-508.770	29.560	0.206	0.176
-507.756	-20.638	-0.131	-0.080
-506.741	-10.514	0.160	-0.106
-505.726	-200.000	-0.033	-0.151
-504.712	-91.369	-0.281	0.081
-503.697	800.000	-0.017	-0.054
-502.683	-200.000	0.056	-0.290
-501.668	-105.465	0.071	-0.016
-500.653	-65.997	0.317	-0.127
-499.639	-200.000	0.005	0.139
-498.624	-167.239	0.164	-0.007
-497.610	-8.890	0.250	0.168
-496.595	81.444	0.143	0.155
-495.581	-200.000	0.007	-0.082
-494.566	64.365	0.183	0.185
-493.551	19.449	-0.077	-0.062
-492.537	-115.038	-0.238	-0.045
-491.522	800.000	0.184	-0.526
-490.508	800.000	0.071	-0.214
-489.493	-200.000	0.056	-0.311
-488.478	597.247	0.124	0.308
-487.464	-200.000	-0.034	-0.272
-486.449	-200.000	0.040	-0.362
-485.435	-116.729	0.241	0.044
-484.420	48.049	0.085	-0.080
-483.405	-27.832	-0.087	-0.050
-482.391	-13.992	0.188	0.122
-481.376	55.993	0.065	0.064
-480.362	116.185	0.076	0.093
-479.347	-200.000	0.046	0.287
-478.332	800.000	0.047	-0.157
-477.318	-200.000	-0.053	0.295
-476.303	-200.000	0.013	0.329
-475.289	-200.000	0.056	0.277
-474.274	42.283	-0.438	0.398
-473.259	-200.000	0.019	-0.137
-472.245	739.631	-0.058	0.155
-471.230	118.541	-0.130	0.161
-470.216	11.631	0.110	-0.085
-469.201	800.000	-0.034	-0.102
-468.186	-184.379	-0.193	0.003
-467.172	297.658	0.045	-0.082
-466.157	-200.000	-0.028	-0.387
-465.143	-44.799	0.134	-0.067
-464.128	-123.047	-0.321	0.052
-463.113	-77.171	0.348	0.121
-462.099	-127.729	-0.238	-0.034
-461.084	-200.000	-0.049	0.222
-460.070	-200.000	-0.008	0.267
-459.055	-21.821	0.271	0.165
-458.040	800.000	0.079	0.285
-457.026	-126.725	0.259	0.038
-456.011	800.000	0.057	-0.198
-454.997	14.405	-0.126	-0.098
-453.982	18.821	-0.298	0.238
-452.968	-200.000	0.190	0.000
-451.953	800.000	-0.062	-0.189
-450.938	-84.362	0.196	-0.062
-449.924	9.529	-0.117	0.089
-448.909	392.416	0.022	0.046
-447.895	357.588	0.166	-0.331
-446.880	-37.620	-0.155	-0.082
-445.865	-94.220	-0.343	0.094
-444.851	755.103	0.065	-0.176
-443.836	-120.018	0.223	-0.038
-442.822	406.892	-0.236	0.497
-441.807	232.919	0.154	0.253
-440.792	-182.625	-0.327	-0.006
-439.778	53.762	-0.053	-0.051
-438.763	330.682	-0.048	0.091
-437.749	17.993	0.173	-0.138
-436.734	-200.000	-0.015	0.138
-435.719	4.665	-0.190	0.140
-434.705	235.949	0.226	-0.372
-433.690	-41.956	0.372	-0.190
-432.676	151.148	0.222	-0.301
-431.661	-135.292	-0.160	0.019
-430.646	-190.181	0.171	0.002
-429.632	725.911	-0.189	-0.502
-428.617	-126.122	-0.258	0.039
-427.603	-7.313	-0.141	-0.095
-426.588	110.106	-0.172	0.206
-425.573	-46.563	0.254	-0.124
-424.559	-150.580	0.011	0.001
-423.544	-200.000	-0.003	-0.051
-422.530	-200.000	0.007	-0.228
-421.515	-200.000	0.018	0.162
-420.500	55.549	-0.262	0.253
-419.486	795.566	-0.069	-0.189
-418.471	-146.134	-0.096	0.008
-417.457	-158.465	0.103	0.006
-416.442	4.538	-0.041	-0.030
-415.428	253.751	0.051	-0.086
-414.413	-200.000	0.047	-0.289
-413.398	-153.123	-0.076	-0.005
-412.384	-174.140	0.157	0.005
-411.369	78.377	0.141	0.150
-410.355	61.685	0.098	-0.098
-409.340	800.000	0.034	-0.133
-408.325	-131.005	0.183	-0.024
-407.311	-84.770	0.134	0.042
-406.296	800.000	0.026	-0.094
-405.282	-22.843	-0.195	0.117
-404.267	800.000	-0.136	0.588
-403.252	-103.111	0.270	-0.064
-402.238	-37.181	-0.132	0.070
-401.223	-41.069	0.174	-0.090
-400.209	559.878	0.061	0.146
-399.194	372.728	-0.044	-0.089
-398.179	406.395	0.138	0.291
-397.165	-200.000	-0.033	0.195
-396.150	800.000	0.032	-0.092
-395.136	-200.000	0.001	-0.229
-394.121	175.672	-0.062	0.090
-393.106	-200.000	0.004	0.105
-392.092	800.000	0.081	0.226
-391.077	-59.207	-0.252	-0.108
-390.063	-152.389	-0.282	-0.020
-389.048	-98.084	0.240	-0.062
-388.033	-200.000	-0.027	0.448
-387.019	-14.717	0.201	0.129
-386.004	-23.379	-0.197	0.118
-384.990	528.049	-0.095	-0.222
-383.975	107.239	0.217	-0.257
-382.960	-200.000	-0.056	-0.536
-381.946	-200.000	0.058	-0.292
-380.931	522.579	-0.006	-0.014
-379.917	-65.670	0.289	0.115
-378.902	-200.000	0.035	-0.249
-377.888	-39.923	-0.176	0.092
-376.873	-54.304	-0.476	-0.215
-375.858	-200.000	0.006	0.116
-374.844	419.447	-0.074	0.158
-373.829	471.967	0.074	0.166
-372.815	-200.000	-0.002	0.204
-371.800	-173.020	-0.119	0.004
-370.785	739.418	0.168	0.450
-369.771	-40.147	0.230	0.119
-368.756	-85.708	-0.247	-0.076
-367.742	441.744	-0.091	0.198
-366.727	-157.409	0.239	-0.014
-365.712	-70.538	-0.280	0.106
-364.698	-165.728	0.494	0.021
-363.683	-170.921	0.158	-0.005
-362.669	-177.558	0.356	0.009
-361.654	800.000	0.005	0.020
-360.639	102.772	0.330	0.385
-359.625	-148.029	-0.151	-0.012
-358.610	-200.000	0.017	0.252
-357.596	585.568	0.083	-0.202
-356.581	776.657	-0.048	-0.130
-355.566	314.754	0.166	0.311
-354.552	-117.812	-0.321	-0.057
-353.537	-200.000	0.069	-0.464
-352.523	151.374	-0.106	-0.144
-351.508	-13.544	0.277	0.179
-350.493	420.034	-0.086	-0.184
-349.479	546.630	-0.067	0.159
-348.464	-101.355	0.102	0.025
-347.450	-24.220	0.170	0.101
-346.435	-44.026	-0.068	-0.034
-345.420	235.713	-0.169	0.278
-344.406	67.507	-0.176	-0.179
-343.391	-47.315	-0.303	0.147
-342.377	134.347	0.150	-0.193
-341.362	-138.769	-0.083	0.009
-340.348	-117.183	0.130	-0.024
-339.333	387.596	0.112	0.230
-338.318	200.415	0.080	0.122
-337.304	163.895	-0.089	-0.125
-336.289	19.149	-0.144	-0.115
-335.275	10.074	-0.053	0.040
-334.260	-24.528	0.045	-0.027
-333.245	-151.439	-0.200	0.015
-332.231	-69.379	0.269	-0.103
-331.216	-17.093	-0.180	0.113
-330.202	800.000	-0.028	0.076
-329.187	-97.120	-0.076	0.020
-328.172	5.167	0.289	0.212
-327.158	-73.742	-0.138	0.050
-326.143	602.575	0.077	-0.191
-325.129	232.985	0.059	0.096
-324.114	-200.000	-0.007	-0.269
-323.099	-200.000	0.342	-0.002
-322.085	800.000	-0.081	-0.261
-321.070	-200.000	0.009	-0.136
-320.056	-31.002	0.051	0.028
-319.041	762.617	0.003	0.008
-318.026	-38.354	0.372	0.196
-317.012	199.802	-0.086	0.132
-315.997	-125.861	-0.269	0.040
-314.983	800.000	-0.041	-0.121
-313.968	-53.856	0.151	0.069
-312.953	-200.000	-0.008	-0.197
-311.939	-200.000	0.028	-0.345
-310.924	38.965	0.089	0.079
-309.910	16.769	0.063	0.049
-308.895	-47.715	0.162	-0.078
-307.880	-200.000	0.020	-0.095
-306.866	-200.000	-0.020	-0.425
-305.851	40.992	-0.031	-0.028
-304.837	-138.272	0.166	0.018
-303.822	-79.679	-0.289	-0.097
-302.807	-28.407	-0.117	0.067
-301.793	-200.000	-0.017	-0.135
-300.778	-68.807	0.049	0.019
-299.764	-152.895	0.195	0.014
-298.749	-200.000	0.004	0.396
-297.735	133.609	-0.212	-0.272
-296.720	-29.363	-0.147	-0.084
-295.705	-45.431	-0.018	-0.009
-294.691	-50.386	-0.328	0.154
-293.676	161.484	0.179	0.249
-292.662	14.015	0.175	0.135
-291.647	-150.701	-0.242	0.018
-290.632	33.788	-0.188	-0.163
-289.618	439.596	-0.055	0.119
-288.603	-200.000	-0.019	-0.149
-287.589	-111.725	-0.228	-0.046
-286.574	12.826	0.105	0.080
-285.559	354.690	0.107	-0.212
-284.545	14.401	0.138	0.107
-283.530	193.810	-0.053	-0.079
-282.516	297.774	0.082	0.150
-281.501	-126.848	0.236	-0.035
-280.486	401.647	0.080	-0.167
-279.472	636.169	-0.113	-0.285
-278.457	-200.000	0.010	-0.090
-277.443	-85.681	-0.273	-0.084
-276.428	18.258	-0.262	-0.207
-275.413	-200.000	0.061	-0.417
-274.399	769.014	-0.117	0.317
-273.384	-35.323	-0.240	0.130
-272.370	31.433	-0.226	0.192
-271.355	-200.000	-0.028	-0.249
-270.340	747.850	0.031	-0.084
-269.326	-2.714	0.239	0.166
-268.311	-74.554	-0.356	0.127
-267.297	-200.000	-0.031	0.200
-266.282	-152.778	0.203	-0.014
-265.267	533.942	-0.166	-0.389
-264.253	-200.000	-0.057	0.269
-263.238	-200.000	-0.064	-0.308
-262.224	141.707	-0.265	0.349
-261.209	-73.578	-0.179	-0.065
-260.195	190.142	0.201	-0.299
-259.180	230.097	0.135	0.219
-258.165	-73.893	-0.046	0.016
-257.151	-147.441	0.470	-0.039
-256.136	335.856	-0.068	-0.131
-255.122	99.869	0.132	-0.152
-254.107	188.904	-0.108	-0.160
-253.092	96.297	-0.189	0.214
-252.078	800.000	-0.101	0.297
-251.063	-200.000	-0.009	0.174
-250.049	-67.405	-0.183	0.071
-249.034	-200.000	0.047	0.237
-248.019	800.000	0.108	0.345
-247.005	172.307	0.094	0.134
-245.990	61.578	0.386	0.381
-244.976	-41.854	0.359	0.182
-243.961	195.530	0.124	-0.186
-242.946	800.000	-0.129	-0.500
-241.932	-62.325	-0.119	-0.049
-240.917	-31.631	-0.215	0.120
-239.903	112.420	-0.087	0.105
-238.888	-47.139	-0.349	0.169
-237.873	-200.000	0.011	-0.073
-236.859	-103.013	0.332	-0.078
-235.844	73.220	-0.060	-0.062
-234.830	-75.280	0.084	-0.030
-233.815	-137.342	0.314	0.035
-232.800	-143.210	-0.356	-0.034
-231.786	-48.416	0.121	-0.058
-230.771	800.000	0.091	-0.261
-229.757	-21.566	0.213	-0.129
-228.742	249.089	0.090	0.151
-227.727	0.567	-0.068	-0.048
-226.713	3.906	-0.096	-0.070
-225.698	-7.702	0.209	0.140
-224.684	-5.873	0.183	0.124
-223.669	800.000	-0.073	0.224
-222.655	-200.000	-0.003	-0.236
-221.640	-200.000	0.003	-0.228
-220.625	6.750	-0.273	0.201
-219.611	-200.000	-0.000	-0.002
-218.596	43.530	-0.211	0.191
-217.582	181.354	0.108	0.157
-216.567	-200.000	0.014	0.362
-215.552	528.250	-0.104	-0.243
-214.538	399.254	0.173	0.358
-213.523	-29.037	0.253	-0.144
-212.509	-200.000	-0.018	0.150
-211.494	245.682	-0.075	0.125
-210.479	-144.493	-0.094	0.009
-209.465	-164.604	0.227	0.010
-208.450	632.439	0.127	0.318
-207.436	-200.000	0.034	-0.189
-206.421	125.791	0.098	-0.122
-205.406	715.969	0.130	-0.341
-204.392	105.794	0.066	-0.077
-203.377	81.675	-0.211	0.226
-202.363	-74.254	-0.127	-0.045
-201.348	800.000	-0.069	0.253
-200.333	138.212	0.131	0.170
-199.319	-51.170	-0.305	-0.142
-198.304	-200.000	-0.053	0.416
-197.290	-1.843	-0.138	-0.096
-196.275	-92.261	0.082	0.023
-195.260	-200.000	0.046	0.238
-194.246	-200.000	-0.052	0.296
-193.231	-53.914	0.485	0.219
-192.217	404.049	0.289	0.601
-191.202	-84.373	-0.302	-0.095
-190.187	-107.072	-0.332	0.073
-189.173	-77.656	0.441	0.151
-188.158	158.870	0.194	0.267
-187.144	7.598	-0.145	0.108
-186.129	353.254	-0.118	0.232
-185.114	77.539	-0.076	0.081
-184.100	436.598	0.019	-0.040
-183.085	109.462	0.228	-0.270
-182.071	10.672	0.312	0.235
-181.056	71.913	0.137	-0.141
-180.042	117.480	0.172	-0.209
-179.027	107.511	-0.052	0.062
-178.012	-132.223	0.156	-0.020
-176.998	-161.252	0.132	0.007
-175.983	144.145	-0.202	-0.266
-174.969	-85.452	-0.322	-0.099
-173.954	-200.000	-0.022	-0.124
-172.939	-82.517	0.092	0.029
-171.925	-44.660	0.289	0.143
-170.910	-46.260	-0.129	0.063
-169.896	60.112	-0.337	-0.330
-168.881	715.027	-0.106	-0.277
-167.866	118.489	-0.141	0.172
-166.852	41.171	-0.113	-0.101
-165.837	-20.256	-0.308	0.188
-164.823	-162.531	0.068	-0.003
-163.808	204.310	-0.217	0.333
-162.793	27.440	-0.128	-0.107
-161.779	-175.428	-0.097	-0.003
-160.764	-104.036	0.172	0.040
-159.750	32.367	0.117	-0.100
-158.735	-200.000	-0.041	-0.206
-157.720	67.545	0.286	0.289
-156.706	-20.686	-0.220	0.133
-155.691	-200.000	-0.001	-0.283
-154.677	68.581	0.124	0.125
-153.662	-174.786	0.179	-0.005
-152.647	-118.468	-0.428	0.075
-151.633	35.307	-0.091	0.079
-150.618	800.000	-0.061	-0.182
-149.604	800.000	0.117	-0.381
-148.589	-44.830	-0.208	0.103
-147.574	98.870	-0.295	-0.337
-146.560	20.805	-0.074	-0.059
-145.545	12.424	-0.084	-0.064
-144.531	-144.764	0.147	0.013
-143.516	156.036	0.188	0.255
-142.502	13.061	-0.170	-0.130
-141.487	-110.678	0.215	0.044
-140.472	-139.466	-0.129	-0.014
-139.458	85.173	-0.076	-0.082
-138.443	800.000	-0.077	0.218
-137.429	-47.295	-0.131	0.063
-136.414	42.736	-0.173	0.156
-135.399	-197.171	-0.229	-0.001
-134.385	-98.841	0.262	-0.066
-133.370	-145.615	-0.486	0.043
-132.356	-15.308	-0.181	-0.114
-131.341	764.377	-0.132	-0.353
-130.326	-93.342	0.120	-0.033
-129.312	123.067	-0.214	0.265
-128.297	800.000	0.062	0.230
-127.283	-97.483	-0.405	0.104
-126.268	622.086	-0.056	0.138
-125.253	-200.000	0.069	0.365
-124.239	537.973	-0.141	-0.331
-123.224	-110.415	0.292	0.060
-122.210	30.499	0.110	0.093
