DTS Sentinel unit serial number:	SN413079Multiplexer serial number:	ORYXHardware model number:	OX4-SRSoftware version number:	ORYX F/W v4.00 Oryx Data Collector v3.7.2.0data status	okinstallation	princeton_trtdifferential loss correction	single-endedforward channel	channel 1reverse channel	N/Adate	2019/09/13time	08:58:35forward acquisition time	60.00reverse acquisition time	0.00gamma	496.2192k internal	0.2327k external	0.2327temperature offset calibration	1.0161default loss term (dB/km)	0.3790temperature slope calibration	1.0000multiplexer offset coefficient	1.0000multiplexer slope coefficient	1.0000fibre end	0.00T internal ref (°C)	28.36T ext. ref 1 (°C)	4.36T ext. ref 2 (°C)	25.52length (m)	temperature (°C)	Stokes	anti-Stokes-747.200	-200.000	0.039	-0.393
-746.185	17.578	0.009	0.007
-745.171	-77.173	-0.135	0.047
-744.156	143.613	0.048	0.064
-743.142	800.000	0.049	-0.152
-742.127	-110.297	-0.267	-0.056
-741.112	224.859	0.057	0.093
-740.098	-58.678	0.053	-0.023
-739.083	60.341	0.028	0.028
-738.069	566.747	-0.060	0.147
-737.054	-90.141	0.350	0.103
-736.039	-77.612	-0.174	-0.061
-735.025	101.067	0.151	0.177
-734.010	105.308	-0.271	-0.322
-732.996	800.000	-0.068	-0.282
-731.981	-200.000	-0.064	0.364
-730.966	61.298	-0.188	-0.188
-729.952	-97.562	0.099	-0.026
-728.937	-2.498	0.171	-0.120
-727.923	-200.000	-0.078	0.403
-726.908	-200.000	-0.033	0.189
-725.894	47.082	-0.124	0.116
-724.879	87.988	-0.129	-0.144
-723.864	-93.435	0.180	0.050
-722.850	-144.760	-0.296	0.027
-721.835	800.000	0.053	-0.175
-720.821	-131.486	0.311	-0.041
-719.806	33.881	-0.385	-0.338
-718.791	-29.718	0.229	-0.131
-717.777	264.877	-0.098	-0.172
-716.762	-177.604	-0.257	0.006
-715.748	-134.898	0.105	-0.013
-714.733	800.000	-0.038	-0.149
-713.718	132.945	-0.161	-0.210
-712.704	800.000	-0.058	-0.185
-711.689	97.264	0.038	0.044
-710.675	-67.147	0.420	-0.167
-709.660	-66.523	0.152	0.061
-708.645	-85.972	-0.178	0.056
-707.631	680.764	-0.050	-0.132
-706.616	168.942	0.146	-0.210
-705.602	-17.576	-0.181	-0.115
-704.587	211.662	-0.115	0.182
-703.572	71.352	-0.316	-0.330
-702.558	604.804	-0.091	-0.228
-701.543	13.795	-0.201	-0.158
-700.529	200.021	0.046	0.071
-699.514	154.695	-0.036	0.050
-698.499	800.000	-0.172	-0.481
-697.485	96.405	0.247	-0.284
-696.470	537.563	-0.101	0.241
-695.456	-200.000	0.096	-0.458
-694.441	-200.000	-0.011	-0.058
-693.426	-3.825	-0.121	-0.085
-692.412	-200.000	-0.020	-0.369
-691.397	-49.768	-0.361	-0.172
-690.383	321.233	-0.099	-0.190
-689.368	-60.765	0.167	0.071
-688.354	100.537	0.273	-0.319
-687.339	55.290	0.194	-0.189
-686.324	-84.999	-0.067	-0.021
-685.310	126.655	0.197	0.250
-684.295	468.439	0.060	0.135
-683.281	-190.317	0.186	-0.002
-682.266	-57.861	-0.276	-0.121
-681.251	-119.831	-0.326	0.056
-680.237	189.811	0.071	-0.107
-679.222	210.712	-0.033	0.053
-678.208	-15.623	0.025	0.016
-677.193	-200.000	0.016	-0.304
-676.178	-29.517	0.044	-0.025
-675.164	-200.000	0.019	-0.139
-674.149	238.540	-0.122	-0.204
-673.135	9.676	0.133	-0.101
-672.120	-108.919	0.231	-0.049
-671.105	241.352	-0.103	-0.174
-670.091	654.002	-0.042	-0.109
-669.076	-133.315	-0.108	0.014
-668.062	-55.833	0.206	-0.093
-667.047	-200.000	-0.003	0.077
-666.032	465.441	0.081	0.182
-665.018	-0.719	0.099	-0.070
-664.003	-26.071	0.227	-0.134
-662.989	253.920	-0.124	-0.214
-661.974	-40.868	-0.212	0.110
-660.959	-48.218	0.207	0.100
-659.945	-56.210	0.139	0.062
-658.930	-105.555	-0.094	0.021
-657.916	168.445	-0.024	-0.034
-656.901	800.000	-0.134	-0.407
-655.886	259.343	-0.158	-0.274
-654.872	81.569	0.057	-0.062
-653.857	800.000	-0.035	-0.100
-652.843	493.948	0.039	0.090
-651.828	-124.812	0.253	-0.039
-650.814	800.000	-0.014	0.047
-649.799	137.352	-0.085	0.112
-648.784	349.914	0.075	0.150
-647.770	179.212	-0.019	-0.028
-646.755	-25.791	0.221	-0.131
-645.741	800.000	-0.027	-0.114
-644.726	685.507	0.078	-0.206
-643.711	11.005	-0.165	-0.126
-642.697	119.070	0.158	-0.196
-641.682	-109.392	0.296	-0.063
-640.668	-48.634	-0.255	0.123
-639.653	113.900	-0.147	-0.179
-638.638	18.970	0.077	-0.062
-637.624	-200.000	0.048	0.227
-636.609	-200.000	0.006	0.128
-635.595	417.205	-0.101	0.216
-634.580	-144.116	0.114	0.011
-633.565	-200.000	-0.037	-0.289
-632.551	-200.000	-0.029	0.360
-631.536	-18.917	-0.317	-0.198
-630.522	-200.000	0.018	-0.093
-629.507	472.781	0.135	0.304
-628.492	62.760	0.267	0.268
-627.478	58.461	-0.245	0.242
-626.463	-115.961	-0.353	-0.066
-625.449	42.591	-0.160	0.146
-624.434	-200.000	-0.049	0.359
-623.419	-121.512	-0.377	-0.063
-622.405	206.188	0.213	0.333
-621.390	-69.374	-0.232	-0.089
-620.376	-200.000	-0.011	-0.106
-619.361	-25.494	0.168	0.100
-618.346	-200.000	0.031	0.179
-617.332	-110.187	-0.250	0.052
-616.317	-129.357	-0.338	-0.047
-615.303	336.068	-0.120	0.233
-614.288	253.309	-0.202	0.347
-613.273	-29.578	0.201	0.115
-612.259	-60.355	-0.162	0.069
-611.244	66.308	-0.052	-0.053
-610.230	-4.534	-0.087	0.060
-609.215	-114.087	-0.308	0.060
-608.201	-21.352	0.170	0.104
-607.186	102.070	0.093	-0.109
-606.171	31.018	0.104	0.089
-605.157	800.000	0.028	0.115
-604.142	-122.913	-0.383	-0.062
-603.128	206.868	-0.052	0.082
-602.113	243.324	0.049	0.082
-601.098	-61.136	0.237	0.100
-600.084	75.805	-0.134	0.142
-599.069	-200.000	0.002	-0.189
-598.055	-99.005	-0.276	-0.070
-597.040	-4.992	-0.151	-0.104
-596.025	-155.857	0.218	-0.014
-595.011	-133.630	-0.196	-0.025
-593.996	-137.478	-0.220	0.025
-592.982	766.991	-0.035	-0.096
-591.967	-200.000	0.010	-0.219
-590.952	-190.797	0.049	0.001
-589.938	-200.000	-0.006	-0.157
-588.923	-151.727	-0.271	0.020
-587.909	672.296	-0.020	0.052
-586.894	-152.636	-0.439	-0.031
-585.879	328.731	0.105	-0.202
-584.865	-23.613	-0.117	0.070
-583.850	-98.617	0.178	0.045
-582.836	-29.263	-0.269	-0.154
-581.821	-200.000	-0.015	0.094
-580.806	12.171	0.232	-0.179
-579.792	-37.963	-0.187	0.099
-578.777	292.644	-0.039	0.071
-577.763	420.559	-0.148	0.317
-576.748	800.000	-0.049	0.209
-575.733	281.704	0.195	-0.349
-574.719	-22.374	-0.202	-0.122
-573.704	-200.000	0.004	-0.064
-572.690	108.353	0.164	0.196
-571.675	-63.433	0.418	0.172
-570.661	-58.307	-0.258	0.112
-569.646	2.085	-0.165	0.119
-568.631	-200.000	0.027	0.166
-567.617	78.685	-0.108	-0.116
-566.602	-138.007	-0.319	0.036
-565.588	-77.617	0.029	0.010
-564.573	481.385	-0.089	0.201
-563.558	-200.000	-0.006	0.130
-562.544	163.230	-0.115	-0.162
-561.529	-89.836	-0.247	-0.072
-560.515	-200.000	0.023	-0.221
-559.500	-27.176	-0.259	0.151
-558.485	208.869	0.169	-0.265
-557.471	14.104	-0.213	-0.166
-556.456	35.592	-0.208	0.182
-555.442	-200.000	-0.091	0.457
-554.427	-139.099	0.053	-0.006
-553.412	149.005	0.100	0.135
-552.398	612.798	-0.138	-0.345
-551.383	177.719	0.130	-0.189
-550.369	800.000	-0.092	-0.372
-549.354	-200.000	0.039	-0.196
-548.339	209.158	-0.165	0.258
-547.325	-121.540	-0.392	-0.065
-546.310	-91.167	0.273	-0.078
-545.296	127.812	0.214	0.272
-544.281	-196.859	-0.214	0.001
-543.266	-117.879	-0.058	-0.010
-542.252	-5.810	0.184	-0.126
-541.237	-122.763	0.182	0.029
-540.223	-111.602	-0.052	0.011
-539.208	-75.529	-0.181	0.064
-538.193	140.797	0.084	-0.111
-537.179	-135.081	0.152	0.018
-536.164	-64.801	0.207	0.084
-535.150	25.551	-0.074	0.062
-534.135	-45.766	0.399	-0.197
-533.121	-134.017	-0.229	0.028
-532.106	-34.774	0.271	0.148
-531.091	-96.189	-0.158	0.042
-530.077	25.803	-0.357	0.298
-529.062	800.000	0.054	-0.162
-528.048	800.000	0.083	-0.245
-527.033	-200.000	0.010	0.256
-526.018	-162.335	0.264	0.013
-525.004	-52.774	-0.274	-0.126
-523.989	227.310	0.227	-0.370
-522.975	-159.330	0.294	-0.016
-521.960	379.166	0.149	0.305
-520.945	-103.035	-0.166	0.039
-519.931	-139.408	-0.362	-0.039
-518.916	-24.971	0.273	0.162
-517.902	-0.045	-0.048	-0.034
-516.887	-200.000	0.010	0.178
-515.872	-26.693	-0.162	0.095
-514.858	307.095	-0.059	-0.109
-513.843	-200.000	0.271	-0.001
-512.829	-200.000	0.008	-0.106
-511.814	-37.101	-0.015	0.008
-510.799	800.000	0.033	-0.124
-509.785	-200.000	0.038	0.213
-508.770	-91.880	0.325	0.092
-507.756	-47.649	-0.024	0.012
-506.741	-107.790	-0.367	-0.080
-505.726	-68.243	-0.068	-0.026
-504.712	-200.000	0.037	0.229
-503.697	-64.633	-0.098	-0.040
-502.683	230.517	-0.082	0.133
-501.668	800.000	-0.040	-0.133
-500.653	-23.150	0.205	-0.123
-499.639	23.446	0.253	0.208
-498.624	-11.077	-0.198	-0.130
-497.610	800.000	-0.008	-0.032
-496.595	800.000	0.055	-0.238
-495.581	44.399	0.086	-0.079
-494.566	-200.000	0.020	0.095
-493.551	-120.740	0.168	-0.028
-492.537	-92.270	0.051	-0.014
-491.522	-125.439	0.277	0.042
-490.508	152.763	-0.232	-0.317
-489.493	441.584	0.047	-0.103
-488.478	-99.249	0.323	0.081
-487.464	-8.914	0.220	-0.147
-486.449	-200.000	0.013	-0.366
-485.435	523.521	-0.097	-0.228
-484.420	44.591	0.359	0.329
-483.405	-200.000	0.011	0.063
-482.391	-200.000	0.015	0.133
-481.376	-131.911	-0.073	0.010
-480.362	162.895	-0.078	-0.110
-479.347	-200.000	0.048	-0.255
-478.332	800.000	0.085	-0.270
-477.318	684.638	0.030	-0.078
-476.303	-94.029	0.087	0.024
-475.289	-162.533	-0.152	-0.007
-474.274	-96.275	0.254	-0.067
-473.259	-123.042	-0.112	0.018
-472.245	-20.803	-0.129	0.079
-471.230	-66.559	0.414	0.164
-470.216	367.778	-0.013	0.026
-469.201	-94.567	-0.081	0.022
-468.186	694.781	-0.012	-0.031
-467.172	-75.617	0.055	-0.020
-466.157	526.840	-0.078	-0.182
-465.143	163.315	0.126	-0.176
-464.128	740.601	-0.113	-0.301
-463.113	188.783	-0.300	-0.448
-462.099	-21.389	0.189	-0.115
-461.084	431.324	-0.102	-0.220
-460.070	164.977	-0.031	0.044
-459.055	33.211	-0.052	0.045
-458.040	37.209	-0.116	-0.102
-457.026	-180.389	0.147	-0.003
-456.011	-200.000	0.005	-0.158
-454.997	-200.000	-0.028	-0.225
-453.982	-168.508	0.066	-0.003
-452.968	-1.019	-0.272	-0.192
-451.953	-50.431	0.076	0.036
-450.938	139.743	-0.215	0.282
-449.924	-151.121	0.144	-0.011
-448.909	-79.100	0.294	-0.100
-447.895	800.000	-0.017	-0.059
-446.880	800.000	-0.108	-0.380
-445.865	800.000	0.068	0.274
-444.851	800.000	-0.127	-0.440
-443.836	-104.152	0.071	-0.016
-442.822	625.927	-0.104	0.261
-441.807	-51.056	0.210	0.098
-440.792	-112.327	0.023	-0.005
-439.778	-7.627	-0.355	-0.239
-438.763	57.977	-0.081	0.079
-437.749	-200.000	0.064	0.315
-436.734	87.303	-0.208	0.229
-435.719	34.739	-0.114	0.099
-434.705	-71.175	-0.076	0.028
-433.690	21.708	0.097	0.079
-432.676	123.548	0.077	0.096
-431.661	800.000	-0.122	-0.441
-430.646	321.775	-0.123	0.234
-429.632	43.718	-0.225	0.205
-428.617	17.598	-0.165	-0.130
-427.603	-200.000	-0.046	-0.242
-426.588	-21.660	0.247	-0.150
-425.573	-200.000	-0.042	-0.277
-424.559	-200.000	-0.009	-0.296
-423.544	-61.233	0.216	-0.091
-422.530	127.259	-0.071	0.089
-421.515	515.378	0.081	0.188
-420.500	-200.000	-0.020	-0.147
-419.486	22.942	0.154	0.125
-418.471	800.000	0.050	-0.147
-417.457	-48.378	0.164	0.079
-416.442	-164.823	-0.075	-0.003
-415.428	-97.043	0.191	0.050
-414.413	43.009	-0.193	-0.175
-413.398	-82.106	0.263	-0.085
-412.384	800.000	-0.096	-0.355
-411.369	23.997	0.251	-0.206
-410.355	-41.696	-0.211	0.108
-409.340	-200.000	-0.029	0.287
-408.325	42.242	-0.172	0.156
-407.311	110.144	-0.217	-0.259
-406.296	15.745	0.194	-0.152
-405.282	55.157	-0.249	-0.239
-404.267	-12.200	-0.320	-0.208
-403.252	-68.696	0.392	0.151
-402.238	-200.000	-0.002	0.110
-401.223	86.268	0.030	-0.033
-400.209	-200.000	-0.020	0.368
-399.194	800.000	-0.097	0.394
-398.179	800.000	0.036	0.141
-397.165	51.357	0.178	-0.168
-396.150	-30.489	0.071	0.040
-395.136	-187.649	0.089	-0.001
-394.121	213.097	-0.131	0.206
-393.106	95.830	0.079	-0.090
-392.092	525.396	0.068	0.160
-391.077	-122.125	-0.136	-0.022
-390.063	-68.245	0.139	0.054
-389.048	287.246	0.121	-0.217
-388.033	574.456	0.112	-0.273
-387.019	-51.640	0.141	0.065
-386.004	-71.277	0.196	0.073
-384.990	-105.116	0.015	-0.003
-383.975	200.515	0.239	0.365
-382.960	-77.976	0.016	-0.005
-381.946	-200.000	0.018	0.180
-380.931	-177.548	-0.115	-0.003
-379.917	67.243	0.127	-0.129
-378.902	-82.134	0.119	0.038
-377.888	183.581	0.182	-0.267
-376.873	19.612	0.143	-0.115
-375.858	381.844	-0.045	0.092
-374.844	800.000	0.065	0.183
-373.829	-78.494	0.525	-0.178
-372.815	233.860	-0.190	-0.311
-371.800	-101.972	-0.138	0.033
-370.785	104.984	-0.184	0.215
-369.771	173.099	0.179	0.256
-368.756	-40.207	0.164	0.085
-367.742	-0.872	-0.096	-0.068
-366.727	-200.000	0.015	-0.149
-365.712	5.585	-0.239	-0.175
-364.698	-200.000	-0.003	-0.172
-363.683	-57.113	-0.205	0.090
-362.669	-32.370	0.222	0.123
-361.654	-200.000	-0.036	-0.195
-360.639	-149.261	-0.174	-0.014
-359.625	800.000	-0.021	0.084
-358.610	68.954	0.182	0.186
-357.596	271.360	0.193	-0.337
-356.581	-119.033	-0.043	0.007
-355.566	36.100	-0.070	-0.061
-354.552	107.975	-0.069	-0.082
-353.537	290.061	-0.057	0.102
-352.523	800.000	0.025	0.089
-351.508	582.473	-0.126	0.308
-350.493	36.291	0.264	0.231
-349.479	-151.166	0.157	-0.012
-348.464	233.212	0.339	-0.554
-347.450	-9.643	0.425	-0.281
-346.435	-68.088	0.206	-0.080
-345.420	96.722	0.170	0.193
-344.406	-200.000	0.006	-0.312
-343.391	-0.583	0.147	0.104
-342.377	269.054	-0.064	0.111
-341.362	-200.000	0.057	0.369
-340.348	-74.223	-0.149	0.054
-339.333	138.296	-0.100	-0.130
-338.318	40.806	-0.159	-0.142
-337.304	98.022	-0.052	0.059
-336.289	-69.647	-0.339	0.129
-335.275	1.083	-0.112	0.080
-334.260	-200.000	-0.031	-0.214
-333.245	-200.000	0.003	-0.085
-332.231	139.727	-0.182	0.238
-331.216	-200.000	-0.022	-0.178
-330.202	-200.000	0.005	0.089
-329.187	288.231	-0.088	0.158
-328.172	-1.246	-0.297	-0.208
-327.158	-98.511	0.054	-0.014
-326.143	-138.060	0.389	0.043
-325.129	-90.606	-0.209	-0.060
-324.114	82.853	0.052	0.057
-323.099	-118.849	-0.350	-0.061
-322.085	-157.636	-0.281	0.017
-321.070	800.000	-0.074	0.225
-320.056	-40.156	0.352	0.182
-319.041	-200.000	0.083	0.407
-318.026	-133.493	0.232	-0.029
-317.012	116.004	-0.025	-0.031
-315.997	-199.224	0.164	-0.001
-314.983	800.000	0.050	0.157
-313.968	320.829	0.046	-0.087
-312.953	-82.879	-0.250	-0.080
-311.939	44.261	-0.003	-0.002
-310.924	311.997	-0.085	0.158
-309.910	-84.481	0.214	0.067
-308.895	-156.018	-0.141	-0.009
-307.880	-12.583	-0.097	0.063
-306.866	6.795	0.286	0.211
-305.851	109.015	-0.095	0.113
-304.837	-82.315	0.205	-0.066
-303.822	-96.414	-0.180	0.047
-302.807	-57.337	0.205	0.089
-301.793	204.078	0.270	-0.414
-300.778	47.379	0.105	-0.097
-299.764	327.018	0.040	-0.076
-298.749	252.381	0.106	0.179
-297.735	-62.580	-0.363	-0.149
-296.720	-96.920	0.265	0.069
-295.705	800.000	0.037	0.125
-294.691	-136.374	-0.402	0.046
-293.676	-67.281	-0.185	-0.072
-292.662	-200.000	0.001	-0.054
-291.647	-56.151	-0.156	-0.069
-290.632	800.000	0.076	0.287
-289.618	37.046	0.231	-0.203
-288.603	-102.347	0.303	0.072
-287.589	-55.066	-0.162	0.072
-286.574	145.220	0.063	0.083
-285.559	0.737	0.193	0.137
-284.545	-88.654	0.090	-0.026
-283.530	-34.106	-0.140	-0.076
-282.516	800.000	0.079	-0.247
-281.501	800.000	0.062	-0.185
-280.486	-53.478	-0.236	-0.107
-279.472	-200.000	-0.004	-0.218
-278.457	-114.431	0.185	0.035
-277.443	1.113	-0.127	0.090
-276.428	23.030	-0.075	0.061
-275.413	-200.000	-0.016	-0.085
-274.399	-77.038	0.299	-0.103
-273.384	-36.620	0.206	-0.110
-272.370	-200.000	-0.055	0.314
-271.355	-25.696	-0.272	0.159
-270.340	-57.650	0.161	-0.070
-269.326	-44.835	0.070	0.034
-268.311	-126.996	0.232	-0.034
-267.297	-177.752	0.082	0.002
-266.282	-63.092	-0.097	0.040
-265.267	-200.000	-0.061	-0.404
-264.253	-107.293	0.286	0.062
-263.238	800.000	-0.045	0.166
-262.224	-79.608	-0.182	-0.061
-261.209	-200.000	-0.016	-0.629
-260.195	-200.000	0.011	-0.082
-259.180	-29.345	-0.260	0.147
-258.165	-200.000	0.020	-0.104
-257.151	-66.680	-0.449	0.176
-256.136	-40.939	0.319	0.163
-255.122	800.000	-0.180	0.500
-254.107	-34.786	0.213	0.115
-253.092	-67.652	0.217	-0.084
-252.078	161.296	-0.086	-0.119
-251.063	248.686	0.112	0.188
-250.049	139.140	-0.101	-0.131
-249.034	800.000	-0.038	0.152
-248.019	5.793	-0.179	0.131
-247.005	-200.000	0.012	-0.147
-245.990	-200.000	-0.000	-0.650
-244.976	-200.000	0.003	0.285
-243.961	-200.000	0.058	-0.299
-242.946	800.000	0.065	0.270
-241.932	-33.968	0.213	0.116
-240.917	17.517	0.054	0.043
-239.903	37.502	-0.093	-0.082
-238.888	0.398	0.220	-0.155
-237.873	-161.292	-0.363	-0.019
-236.859	-5.742	-0.430	0.291
-235.844	277.344	-0.109	-0.191
-234.830	15.729	-0.074	-0.058
-233.815	-130.966	-0.056	-0.007
-232.800	210.733	-0.188	-0.292
-231.786	-72.778	0.022	0.008
-230.771	800.000	-0.080	-0.276
-229.757	90.629	-0.171	0.189
-228.742	-36.304	-0.340	0.181
-227.727	-48.211	0.214	0.102
-226.713	283.940	-0.120	-0.213
-225.698	64.479	0.211	0.210
-224.684	-4.278	-0.222	-0.152
-223.669	-200.000	0.018	0.231
-222.655	-11.952	-0.096	-0.062
-221.640	140.488	0.138	0.180
-220.625	800.000	0.094	0.305
-219.611	-146.994	-0.325	-0.028
-218.596	-30.282	0.181	-0.101
-217.582	-152.857	0.355	0.025
-216.567	36.954	-0.070	-0.061
-215.552	-59.629	0.352	0.149
-214.538	-51.387	0.350	-0.162
-213.523	-77.838	0.296	-0.101
-212.509	-173.891	-0.421	-0.012
-211.494	-200.000	-0.028	0.195
-210.479	-96.824	-0.180	0.047
-209.465	800.000	0.064	-0.210
-208.450	-36.113	0.432	-0.231
-207.436	-63.828	-0.054	0.022
-206.421	800.000	0.055	0.233
-205.406	-103.936	-0.302	-0.070
-204.392	-200.000	-0.046	0.348
-203.377	18.155	0.159	-0.125
-202.363	104.314	0.293	-0.340
-201.348	-86.643	-0.230	-0.070
-200.333	-121.567	0.175	0.029
-199.319	-200.000	-0.030	0.164
-198.304	178.744	0.050	-0.072
-197.290	-55.313	-0.078	-0.035
-196.275	295.723	0.047	-0.085
-195.260	287.758	-0.108	0.193
-194.246	-9.865	0.052	0.034
-193.231	-200.000	0.005	-0.032
-192.217	-200.000	0.009	0.212
-191.202	-200.000	-0.002	-0.109
-190.187	-200.000	0.047	0.293
-189.173	-92.732	0.239	0.066
-188.158	800.000	0.049	0.199
-187.144	-200.000	0.015	-0.104
-186.129	-37.717	0.268	0.141
-185.114	118.576	0.082	0.100
-184.100	-107.019	-0.149	0.033
-183.085	-117.623	0.304	0.054
-182.071	-200.000	0.001	0.273
-181.056	47.201	-0.075	0.069
-180.042	-55.556	0.141	-0.062
-179.027	39.772	0.276	0.244
-178.012	114.846	-0.150	0.180
-176.998	252.079	0.010	-0.017
-175.983	-33.967	-0.167	0.091
-174.969	-71.230	-0.066	-0.024
-173.954	122.175	-0.048	-0.060
-172.939	344.856	0.070	-0.135
-171.925	28.127	0.288	-0.240
-170.910	78.205	0.073	-0.077
-169.896	112.582	-0.244	-0.291
-168.881	-200.000	-0.041	0.469
-167.866	285.851	-0.026	0.047
-166.852	-124.725	0.119	0.018
-165.837	-109.555	-0.173	0.036
-164.823	-136.286	0.254	-0.029
-163.808	106.553	-0.077	-0.090
-162.793	54.277	-0.117	0.111
-161.779	-194.220	0.317	0.003
-160.764	-200.000	-0.003	0.050
-159.750	-200.000	0.006	0.293
-158.735	289.428	0.148	0.264
-157.720	800.000	-0.022	0.080
-156.706	-136.606	-0.291	-0.033
-155.691	60.140	0.049	-0.048
-154.677	-200.000	-0.014	-0.213
-153.662	0.174	-0.338	-0.238
-152.647	-200.000	0.023	-0.209
-151.633	-200.000	0.026	-0.222
-150.618	96.817	-0.163	-0.184
-149.604	-86.887	0.262	0.079
-148.589	156.460	0.020	-0.027
-147.574	-200.000	0.004	-0.042
-146.560	-200.000	0.009	-0.127
-145.545	-146.952	0.186	-0.016
-144.531	-40.248	0.060	-0.031
-143.516	-200.000	-0.009	-0.216
-142.502	-48.244	0.145	0.069
-141.487	-53.384	-0.112	-0.050
-140.472	-200.000	0.044	0.352
-139.458	-200.000	0.027	-0.313
-138.443	421.224	0.072	-0.151
-137.429	68.329	-0.186	0.188
-136.414	429.267	0.074	0.157
-135.399	-200.000	-0.006	0.179
-134.385	-38.335	0.179	0.093
-133.370	109.506	0.249	0.294
-132.356	-120.787	-0.325	-0.054
-131.341	800.000	-0.037	-0.135
-130.326	-200.000	-0.020	0.316
-129.312	-200.000	-0.034	-0.304
-128.297	565.676	0.135	-0.322
-127.283	-44.043	0.284	-0.140
-126.268	-55.883	-0.221	0.097
-125.253	-84.312	-0.364	0.113
-124.239	-17.616	-0.088	-0.055
-123.224	20.014	0.193	0.153
-122.210	-89.966	0.248	-0.071
