DTS Sentinel unit serial number:	SN413079Multiplexer serial number:	ORYXHardware model number:	OX4-SRSoftware version number:	ORYX F/W v4.00 Oryx Data Collector v3.7.2.0data status	okinstallation	princeton_trtdifferential loss correction	single-endedforward channel	channel 1reverse channel	N/Adate	2019/09/16time	12:26:35forward acquisition time	60.00reverse acquisition time	0.00gamma	496.2192k internal	0.2295k external	0.2295temperature offset calibration	0.9961default loss term (dB/km)	0.3790temperature slope calibration	1.0000multiplexer offset coefficient	1.0000multiplexer slope coefficient	1.0000fibre end	0.00T internal ref (°C)	39.47T ext. ref 1 (°C)	13.33T ext. ref 2 (°C)	36.73length (m)	temperature (°C)	Stokes	anti-Stokes-747.200	-11.391	-0.104	0.070
-746.185	-200.000	0.065	0.320
-745.171	-50.943	0.131	0.063
-744.156	175.959	-0.269	0.399
-743.142	70.302	0.032	-0.034
-742.127	-22.667	-0.368	0.227
-741.112	-143.934	-0.131	0.013
-740.098	429.381	-0.057	0.125
-739.083	46.377	-0.260	-0.246
-738.069	630.329	0.131	0.338
-737.054	-200.000	0.032	0.227
-736.039	359.316	-0.176	0.359
-735.025	800.000	-0.084	0.245
-734.010	495.227	-0.098	-0.231
-732.996	800.000	-0.064	0.190
-731.981	-38.750	-0.182	0.098
-730.966	-200.000	0.002	0.076
-729.952	-200.000	-0.020	-0.112
-728.937	-55.319	-0.249	-0.114
-727.923	129.058	-0.339	-0.442
-726.908	-54.209	-0.181	0.084
-725.894	56.769	-0.196	0.195
-724.879	325.121	-0.121	-0.235
-723.864	800.000	-0.065	-0.265
-722.850	162.684	0.058	-0.083
-721.835	45.886	-0.136	-0.129
-720.821	-105.631	-0.111	0.026
-719.806	-89.050	0.419	-0.126
-718.791	16.135	-0.040	-0.032
-717.777	-200.000	-0.003	-0.167
-716.762	-200.000	0.016	0.111
-715.748	800.000	-0.060	-0.254
-714.733	-110.269	0.124	0.026
-713.718	-200.000	0.043	-0.428
-712.704	322.071	-0.077	0.149
-711.689	-121.319	-0.116	-0.020
-710.675	800.000	0.043	0.143
-709.660	247.295	0.238	-0.411
-708.645	39.623	-0.076	-0.070
-707.631	800.000	0.098	0.325
-706.616	-200.000	-0.001	0.210
-705.602	800.000	-0.031	0.124
-704.587	800.000	0.083	-0.361
-703.572	92.705	0.144	0.166
-702.558	800.000	0.014	0.055
-701.543	-76.756	0.176	-0.063
-700.529	800.000	0.009	-0.036
-699.514	49.530	0.129	-0.124
-698.499	-7.874	0.297	0.205
-697.485	51.395	-0.347	0.336
-696.470	300.003	0.123	0.232
-695.456	-160.984	-0.180	0.010
-694.441	-200.000	-0.025	-0.156
-693.426	-157.133	-0.285	0.018
-692.412	-58.729	0.317	-0.140
-691.397	-87.537	-0.152	-0.047
-690.383	-59.533	0.454	-0.199
-689.368	522.483	-0.080	0.192
-688.354	-190.890	0.380	-0.004
-687.339	78.205	0.144	-0.157
-686.324	621.823	0.020	-0.051
-685.310	372.279	-0.079	0.164
-684.295	-80.634	-0.404	0.137
-683.281	-94.033	-0.065	0.018
-682.266	742.471	-0.012	0.033
-681.251	1.567	0.340	-0.250
-680.237	-200.000	-0.039	0.204
-679.222	800.000	-0.036	0.103
-678.208	800.000	0.096	-0.417
-677.193	65.185	0.076	0.078
-676.178	-22.340	-0.322	-0.199
-675.164	-85.497	0.282	-0.089
-674.149	417.345	0.106	-0.230
-673.135	757.275	0.061	-0.168
-672.120	-37.117	-0.467	0.255
-671.105	37.168	-0.136	0.123
-670.091	-68.648	-0.091	-0.036
-669.076	-200.000	-0.012	0.415
-668.062	6.330	-0.216	0.163
-667.047	-13.894	0.190	0.125
-666.032	308.586	0.106	-0.201
-665.018	45.593	-0.075	-0.071
-664.003	-13.536	-0.202	0.133
-662.989	329.566	0.154	0.303
-661.974	73.017	-0.242	-0.258
-660.959	-119.431	0.433	0.077
-659.945	236.645	0.089	0.149
-658.930	173.626	-0.261	-0.383
-657.916	358.110	0.067	0.135
-656.901	213.080	-0.105	-0.169
-655.886	-130.967	0.200	-0.027
-654.872	-200.000	-0.018	-0.186
-653.857	-200.000	-0.010	-0.069
-652.843	-178.838	-0.102	0.002
-651.828	-200.000	0.006	-0.041
-650.814	529.921	0.111	-0.267
-649.799	-200.000	-0.023	-0.322
-648.784	-200.000	-0.032	-0.293
-647.770	-200.000	-0.010	-0.174
-646.755	97.451	-0.218	-0.255
-645.741	-200.000	-0.029	-0.221
-644.726	93.682	-0.255	-0.294
-643.711	-82.793	-0.084	0.028
-642.697	-200.000	-0.006	-0.280
-641.682	151.635	-0.216	0.299
-640.668	37.360	0.238	0.215
-639.653	-190.299	-0.088	0.001
-638.638	-81.438	-0.177	0.059
-637.624	-200.000	-0.061	-0.274
-636.609	54.278	0.203	0.199
-635.595	59.779	0.102	-0.102
-634.580	78.269	-0.093	-0.101
-633.565	-200.000	-0.043	-0.464
-632.551	-8.954	-0.131	-0.089
-631.536	800.000	0.037	-0.148
-630.522	-200.000	0.014	0.137
-629.507	198.321	-0.076	0.118
-628.492	749.675	0.135	-0.372
-627.478	355.312	0.152	-0.308
-626.463	-58.723	0.237	-0.104
-625.449	-142.557	-0.192	0.019
-624.434	530.388	-0.048	-0.115
-623.419	800.000	0.031	0.110
-622.405	-186.112	-0.221	-0.003
-621.390	351.652	-0.058	-0.118
-620.376	-200.000	-0.023	-0.261
-619.361	235.974	-0.130	-0.219
-618.346	-102.677	0.148	-0.036
-617.332	-140.552	-0.454	0.048
-616.317	424.659	0.076	0.166
-615.303	395.225	-0.140	0.296
-614.288	-38.480	0.132	-0.071
-613.273	5.997	0.114	-0.086
-612.259	108.718	0.108	-0.131
-611.244	-3.616	0.081	-0.057
-610.230	177.244	0.112	-0.166
-609.215	-53.406	0.143	0.067
-608.201	99.035	0.229	-0.269
-607.186	197.010	-0.134	-0.208
-606.171	646.417	0.021	0.055
-605.157	800.000	0.094	0.318
-604.142	-96.099	-0.334	0.090
-603.128	-55.063	0.220	0.101
-602.113	-200.000	0.011	-0.224
-601.098	550.322	0.026	-0.065
-600.084	-200.000	-0.006	-0.160
-599.069	44.020	-0.105	-0.098
-598.055	-123.825	0.097	-0.016
-597.040	11.074	-0.100	-0.078
-596.025	-173.424	-0.357	0.011
-595.011	112.838	-0.146	0.180
-593.996	62.866	0.111	0.113
-592.982	407.147	0.057	-0.122
-591.967	8.638	-0.177	0.135
-590.952	-1.664	0.056	-0.040
-589.938	271.252	0.086	0.153
-588.923	512.110	0.090	0.213
-587.909	-200.000	0.011	0.072
-586.894	82.920	-0.137	0.152
-585.879	800.000	-0.047	0.146
-584.865	-122.072	0.103	0.017
-583.850	-42.944	-0.273	-0.141
-582.836	-200.000	-0.019	0.263
-581.821	149.557	0.064	-0.088
-580.806	-200.000	0.004	0.064
-579.792	234.518	-0.108	0.181
-578.777	-117.158	0.368	-0.068
-577.763	-97.744	-0.346	-0.091
-576.748	-84.074	-0.143	0.046
-575.733	-95.802	0.091	-0.025
-574.719	-25.116	-0.302	-0.182
-573.704	-66.914	0.136	-0.055
-572.690	134.619	-0.150	0.198
-571.675	209.506	-0.175	-0.279
-570.661	-200.000	0.008	-0.170
-569.646	85.063	0.110	0.122
-568.631	-189.664	0.224	0.003
-567.617	21.576	0.173	-0.143
-566.602	800.000	-0.044	-0.142
-565.588	800.000	-0.071	-0.227
-564.573	-43.264	0.134	-0.069
-563.558	262.564	0.067	-0.118
-562.544	348.532	-0.067	0.135
-561.529	-97.343	-0.110	0.029
-560.515	59.988	-0.032	-0.032
-559.500	-6.957	0.120	-0.083
-558.485	-200.000	-0.011	0.065
-557.471	800.000	-0.043	-0.181
-556.456	-104.706	-0.122	0.028
-555.442	-91.579	-0.169	0.049
-554.427	-31.666	0.272	0.155
-553.412	800.000	-0.054	0.199
-552.398	-111.393	0.377	-0.078
-551.383	-200.000	0.014	-0.277
-550.369	-103.002	-0.444	-0.107
-549.354	800.000	-0.046	-0.167
-548.339	306.691	0.137	0.260
-547.325	42.346	0.107	-0.099
-546.310	551.890	-0.079	-0.193
-545.296	139.959	0.169	-0.226
-544.281	800.000	-0.069	0.298
-543.266	-21.365	0.384	-0.238
-542.252	-200.000	0.048	-0.217
-541.237	127.927	-0.317	0.408
-540.223	-91.004	0.198	0.058
-539.208	-33.875	-0.327	-0.183
-538.193	63.065	-0.063	-0.064
-537.179	-39.090	-0.258	-0.137
-536.164	121.262	0.061	-0.077
-535.150	-13.002	0.229	-0.151
-534.135	-0.259	-0.155	0.112
-533.121	170.426	-0.099	0.144
-532.106	800.000	-0.011	0.038
-531.091	-106.799	0.237	-0.053
-530.077	-74.200	-0.311	-0.114
-529.062	800.000	-0.024	-0.081
-528.048	131.067	-0.016	-0.020
-527.033	-34.746	-0.019	-0.010
-526.018	800.000	-0.027	-0.116
-525.004	-81.357	-0.111	-0.037
-523.989	-200.000	0.077	-0.416
-522.975	-86.312	-0.008	-0.002
-521.960	120.040	-0.155	0.195
-520.945	-116.591	-0.306	-0.057
-519.931	104.804	0.103	-0.123
-518.916	-68.821	-0.071	0.028
-517.902	-200.000	0.040	0.241
-516.887	-179.631	-0.242	0.005
-515.872	7.429	-0.088	-0.066
-514.858	34.573	0.091	-0.080
-513.843	-174.149	0.133	-0.004
-512.829	144.207	0.163	-0.220
-511.814	147.000	-0.304	-0.414
-510.799	175.316	0.268	0.394
-509.785	-112.269	0.209	0.042
-508.770	-200.000	0.007	-0.288
-507.756	659.301	0.030	0.079
-506.741	-61.683	0.201	0.085
-505.726	-78.408	0.088	0.031
-504.712	-200.000	-0.027	-0.343
-503.697	800.000	-0.067	0.290
-502.683	-2.186	0.035	-0.025
-501.668	-136.840	-0.128	0.015
-500.653	-200.000	-0.060	-0.342
-499.639	-68.682	-0.299	-0.117
-498.624	90.470	-0.140	-0.158
-497.610	800.000	0.027	0.076
-496.595	300.579	0.051	-0.095
-495.581	31.275	0.053	-0.046
-494.566	-200.000	-0.057	0.441
-493.551	46.915	-0.210	-0.198
-492.537	145.409	0.081	0.109
-491.522	34.009	-0.058	0.051
-490.508	-200.000	0.011	0.090
-489.493	4.216	-0.184	-0.136
-488.478	549.465	-0.122	-0.297
-487.464	-159.178	0.285	-0.016
-486.449	-41.202	-0.241	-0.126
-485.435	-200.000	-0.040	0.235
-484.420	-200.000	-0.039	-0.320
-483.405	-173.915	-0.262	0.008
-482.391	39.560	0.312	0.283
-481.376	-200.000	-0.015	0.124
-480.362	185.784	-0.119	-0.179
-479.347	-4.951	-0.407	-0.284
-478.332	-37.065	0.302	-0.164
-477.318	-117.627	-0.094	-0.017
-476.303	-132.878	-0.092	-0.012
-475.289	53.693	0.080	0.078
-474.274	63.583	-0.222	0.226
-473.259	-82.200	-0.121	0.040
-472.245	-44.441	-0.126	-0.064
-471.230	-167.900	0.121	-0.005
-470.216	-176.033	-0.101	-0.003
-469.201	800.000	-0.080	0.247
-468.186	-106.398	-0.369	-0.083
-467.172	-200.000	-0.011	-0.143
-466.157	365.936	0.061	-0.125
-465.143	800.000	0.071	-0.277
-464.128	-121.067	-0.204	0.035
-463.113	-200.000	0.000	0.089
-462.099	779.507	0.072	-0.198
-461.084	361.211	-0.125	0.252
-460.070	-200.000	0.021	0.256
-459.055	92.726	0.179	0.205
-458.040	-126.106	0.028	0.004
-457.026	284.477	-0.041	0.075
-456.011	800.000	-0.064	-0.279
-454.997	18.630	0.210	-0.170
-453.982	0.885	-0.209	0.151
-452.968	14.224	0.202	0.159
-451.953	615.344	-0.074	-0.187
-450.938	610.107	-0.137	-0.345
-449.924	-13.312	0.073	0.048
-448.909	-165.277	-0.118	-0.005
-447.895	-108.425	-0.158	0.034
-446.880	800.000	-0.063	-0.202
-445.865	800.000	0.063	-0.204
-444.851	209.825	0.136	0.215
-443.836	-200.000	0.110	0.493
-442.822	-65.694	0.114	0.046
-441.807	800.000	-0.010	0.040
-440.792	162.660	-0.117	0.165
-439.778	128.387	0.140	-0.180
-438.763	91.359	0.168	-0.191
-437.749	-200.000	0.028	0.196
-436.734	-96.806	0.317	-0.084
-435.719	-200.000	-0.004	0.138
-434.705	-12.892	0.295	0.194
-433.690	289.435	0.154	0.282
-432.676	-3.621	0.118	-0.083
-431.661	-65.202	0.335	-0.136
-430.646	-155.893	-0.110	-0.007
-429.632	-78.901	0.231	-0.080
-428.617	-134.061	-0.299	0.037
-427.603	88.933	-0.054	0.061
-426.588	145.191	0.165	0.223
-425.573	25.749	0.236	-0.199
-424.559	84.170	-0.139	-0.153
-423.544	-88.814	-0.102	0.031
-422.530	-200.000	-0.004	-0.193
-421.515	98.731	0.193	-0.225
-420.500	-200.000	-0.002	0.071
-419.486	408.750	0.143	0.306
-418.471	-152.917	0.220	0.016
-417.457	88.649	0.068	0.076
-416.442	89.850	0.229	-0.259
-415.428	-200.000	-0.033	-0.250
-414.413	-200.000	0.030	-0.378
-413.398	-51.538	-0.310	-0.146
-412.384	45.222	-0.244	-0.227
-411.369	-138.835	-0.088	0.010
-410.355	159.212	-0.049	0.068
-409.340	-28.816	-0.379	-0.220
-408.325	84.613	0.114	0.126
-407.311	25.893	0.109	-0.092
-406.296	379.696	0.100	0.207
-405.282	128.907	-0.162	-0.208
-404.267	-200.000	-0.276	0.000
-403.252	800.000	-0.115	0.346
-402.238	313.732	-0.084	0.160
-401.223	800.000	0.062	0.223
-400.209	229.410	-0.145	0.240
-399.194	-139.622	-0.239	-0.026
-398.179	-46.032	-0.154	-0.077
-397.165	-119.663	0.178	-0.031
-396.150	71.562	0.252	0.264
-395.136	152.478	-0.092	-0.127
-394.121	81.589	-0.206	-0.224
-393.106	573.988	-0.031	-0.076
-392.092	187.812	-0.248	0.373
-391.077	-26.174	0.005	0.003
-390.063	-200.000	-0.013	0.123
-389.048	800.000	0.049	-0.200
-388.033	8.464	-0.105	0.080
-387.019	37.867	-0.078	-0.070
-386.004	-129.215	-0.090	0.013
-384.990	-182.031	0.225	0.004
-383.975	41.037	-0.219	0.199
-382.960	-200.000	-0.019	-0.156
-381.946	-129.587	0.072	0.010
-380.931	45.918	0.031	-0.029
-379.917	-113.907	0.205	0.040
-378.902	-26.307	-0.240	-0.142
-377.888	-115.768	0.170	-0.032
-376.873	54.988	0.046	0.045
-375.858	-200.000	0.037	0.241
-374.844	-200.000	-0.005	0.040
-373.829	-0.317	-0.088	0.063
-372.815	409.902	-0.072	0.153
-371.800	-200.000	0.015	0.115
-370.785	-47.199	0.123	-0.060
-369.771	-40.684	0.009	-0.005
-368.756	-13.892	-0.190	0.124
-367.742	-138.459	0.339	0.038
-366.727	-200.000	-0.028	0.374
-365.712	431.172	-0.067	0.146
-364.698	229.361	-0.198	-0.326
-363.683	36.789	0.146	-0.130
-362.669	-127.924	-0.033	0.005
-361.654	-58.821	0.538	-0.234
-360.639	-132.163	0.125	-0.016
-359.625	800.000	-0.045	-0.151
-358.610	39.292	0.106	0.096
-357.596	-200.000	-0.011	-0.207
-356.581	38.887	0.113	0.101
-355.566	144.421	0.174	-0.233
-354.552	45.249	-0.287	0.266
-353.537	686.839	-0.071	-0.186
-352.523	115.162	0.077	-0.094
-351.508	-39.899	-0.175	0.092
-350.493	166.006	-0.096	0.137
-349.479	-86.562	0.112	-0.035
-348.464	-136.732	0.164	-0.019
-347.450	69.844	0.107	0.112
-346.435	7.936	-0.097	-0.073
-345.420	58.754	-0.045	-0.045
-344.406	-154.193	0.053	-0.004
-343.391	-120.007	-0.698	-0.120
-342.377	50.867	-0.286	-0.273
-341.362	284.315	0.081	-0.147
-340.348	-144.358	-0.114	0.011
-339.333	174.732	-0.104	0.151
-338.318	-92.898	0.291	0.082
-337.304	800.000	0.072	-0.212
-336.289	800.000	0.065	0.283
-335.275	-19.975	-0.068	-0.042
-334.260	-116.036	0.148	-0.028
-333.245	623.485	0.102	-0.257
-332.231	172.641	0.107	0.155
-331.216	-200.000	0.004	-0.025
-330.202	-19.883	0.117	-0.072
-329.187	-91.498	0.184	-0.053
-328.172	-85.557	0.118	0.037
-327.158	-13.533	0.144	0.094
-326.143	-118.112	0.061	-0.011
-325.129	-200.000	0.028	0.136
-324.114	-200.000	0.004	-0.044
-323.099	-72.267	-0.217	0.081
-322.085	-200.000	-0.013	-0.062
-321.070	-53.473	0.424	0.195
-320.056	274.704	0.111	0.197
-319.041	109.605	0.147	-0.177
-318.026	112.623	0.182	-0.222
-317.012	574.183	0.021	0.053
-315.997	-68.158	0.185	-0.073
-314.983	393.287	-0.089	-0.185
-313.968	209.189	0.087	0.137
-312.953	-200.000	-0.021	-0.126
-311.939	83.985	-0.132	-0.144
-310.924	-108.765	-0.168	0.036
-309.910	-200.000	0.048	0.243
-308.895	-81.215	-0.210	0.070
-307.880	29.830	-0.258	0.221
-306.866	548.308	0.088	-0.213
-305.851	0.436	-0.252	0.181
-304.837	-200.000	0.048	-0.309
-303.822	-44.177	-0.195	0.098
-302.807	-74.952	0.179	0.064
-301.793	-134.087	0.343	0.043
-300.778	-77.014	-0.140	0.049
-299.764	-4.326	-0.103	0.071
-298.749	-200.000	-0.018	-0.163
-297.735	-120.478	0.480	-0.082
-296.720	29.873	-0.201	0.172
-295.705	-200.000	0.042	-0.293
-294.691	-140.809	0.280	-0.029
-293.676	23.991	-0.262	0.217
-292.662	-149.340	0.155	0.012
-291.647	-65.327	-0.323	-0.131
-290.632	427.495	0.171	0.370
-289.618	501.415	-0.106	0.247
-288.603	127.815	0.205	0.261
-287.589	428.727	0.096	0.208
-286.574	15.115	-0.234	-0.184
-285.559	-119.928	-0.287	-0.050
-284.545	-200.000	0.005	0.208
-283.530	165.407	0.139	0.198
-282.516	426.269	0.096	-0.208
-281.501	800.000	0.042	0.125
-280.486	95.901	0.329	0.377
-279.472	156.498	0.072	0.099
-278.457	16.956	0.121	0.096
-277.443	-136.285	-0.254	-0.030
-276.428	-200.000	-0.070	-0.355
-275.413	684.692	-0.119	-0.313
-274.399	-200.000	0.062	0.278
-273.384	-98.941	0.196	0.050
-272.370	19.883	-0.292	-0.236
-271.355	197.669	0.093	-0.142
-270.340	-200.000	-0.020	0.236
-269.326	-86.798	0.165	-0.051
-268.311	32.067	-0.225	-0.195
-267.297	-6.769	-0.131	0.089
-266.282	-81.529	0.196	0.065
-265.267	-118.000	0.160	-0.029
-264.253	267.643	-0.070	0.123
-263.238	-200.000	-0.002	-0.089
-262.224	6.268	0.132	0.098
-261.209	-44.411	0.143	-0.072
-260.195	315.960	-0.008	0.016
-259.180	-171.373	-0.052	0.002
-258.165	800.000	-0.046	-0.156
-257.151	-109.228	-0.331	-0.070
-256.136	562.664	0.066	0.160
-255.122	97.715	0.159	0.183
-254.107	-200.000	-0.030	-0.172
-253.092	478.763	-0.084	0.191
-252.078	-62.788	-0.103	0.043
-251.063	-200.000	0.024	0.228
-250.049	28.358	0.035	-0.029
-249.034	27.142	0.173	0.146
-248.019	-14.243	0.230	0.148
-247.005	-197.178	0.445	-0.003
-245.990	-200.000	-0.073	-0.368
-244.976	-200.000	0.013	-0.150
-243.961	27.886	-0.231	0.195
-242.946	-200.000	0.080	0.421
-241.932	84.492	0.173	0.189
-240.917	57.284	0.178	-0.174
-239.903	-200.000	0.008	-0.087
-238.888	-5.635	0.136	0.093
-237.873	134.385	0.070	-0.090
-236.859	82.072	0.177	0.192
-235.844	-123.770	0.427	0.068
-234.830	200.838	0.200	0.308
-233.815	-119.949	-0.393	-0.068
-232.800	-144.860	-0.347	-0.032
-231.786	-57.696	0.450	-0.197
-230.771	-4.756	0.081	0.056
-229.757	-111.856	-0.376	-0.076
-228.742	78.299	-0.224	0.240
-227.727	161.868	0.150	0.210
-226.713	-138.683	-0.209	-0.023
-225.698	84.311	-0.054	0.059
-224.684	-40.600	-0.040	-0.021
-223.669	-200.000	0.002	0.420
-222.655	167.589	0.203	0.289
-221.640	-62.637	-0.209	-0.087
-220.625	-16.261	-0.142	0.090
-219.611	-105.122	-0.590	-0.135
-218.596	-23.629	-0.273	0.164
-217.582	477.645	0.035	0.079
-216.567	-103.935	-0.238	0.056
-215.552	168.476	0.172	0.245
-214.538	-78.556	-0.304	0.104
-213.523	-200.000	0.001	0.294
-212.509	52.924	0.141	-0.135
-211.494	50.129	-0.199	-0.188
-210.479	313.554	0.111	-0.208
-209.465	-46.584	0.173	-0.085
-208.450	-40.831	-0.129	-0.067
-207.436	-200.000	-0.059	0.316
-206.421	103.309	-0.066	-0.078
-205.406	-200.000	-0.034	0.162
-204.392	139.172	0.123	0.162
-203.377	-109.493	-0.185	0.039
-202.363	-4.721	0.036	0.025
-201.348	-184.639	0.188	-0.003
-200.333	-200.000	0.033	0.184
-199.319	-48.978	-0.114	0.054
-198.304	-200.000	-0.010	0.386
-197.290	-200.000	0.024	-0.342
-196.275	282.850	0.113	0.202
-195.260	-122.376	-0.192	0.031
-194.246	385.975	-0.155	-0.319
-193.231	-12.498	-0.171	-0.112
-192.217	-109.261	0.106	-0.022
-191.202	-200.000	-0.008	0.088
-190.187	258.838	0.078	-0.135
-189.173	46.238	0.083	0.076
-188.158	-65.446	0.163	0.066
-187.144	800.000	0.051	-0.143
-186.129	-87.580	0.371	0.112
-185.114	800.000	-0.035	-0.141
-184.100	-200.000	0.012	-0.120
-183.085	-165.768	0.436	-0.019
-182.071	142.562	0.203	0.269
-181.056	53.495	0.231	0.222
-180.042	-200.000	-0.044	0.211
-179.027	-71.927	-0.185	-0.069
-178.012	-136.426	0.278	-0.032
-176.998	800.000	-0.092	0.309
-175.983	800.000	0.094	0.287
-174.969	-200.000	0.021	-0.146
-173.954	409.567	0.162	0.344
-172.939	36.306	-0.154	0.136
-171.925	-69.226	0.190	0.073
-170.910	-129.921	0.183	0.025
-169.896	-99.569	0.331	0.083
-168.881	34.094	-0.135	0.118
-167.866	44.301	-0.067	0.061
-166.852	800.000	-0.054	-0.224
-165.837	1.554	-0.080	0.057
-164.823	166.985	0.142	0.201
-163.808	347.635	-0.123	0.242
-162.793	800.000	0.044	0.188
-161.779	-76.464	0.172	-0.061
-160.764	-81.566	0.155	0.051
-159.750	-168.300	0.012	-0.000
-158.735	29.618	0.193	0.164
-157.720	2.678	-0.209	0.151
-156.706	-72.640	0.175	-0.064
-155.691	800.000	-0.033	-0.113
-154.677	104.317	0.286	-0.337
-153.662	-43.900	-0.174	0.088
-152.647	-147.886	0.169	0.014
-151.633	800.000	-0.048	0.157
-150.618	175.354	-0.132	0.191
-149.604	-2.692	-0.059	-0.041
-148.589	-200.000	-0.057	0.268
-147.574	549.555	0.053	0.128
-146.560	-14.664	-0.085	0.055
-145.545	24.861	0.154	0.127
-144.531	-200.000	-0.052	0.319
-143.516	-200.000	-0.036	0.257
-142.502	100.443	0.210	0.243
-141.487	-16.410	-0.206	0.131
-140.472	-123.035	0.090	0.015
-139.458	-200.000	0.056	-0.272
-138.443	800.000	0.073	-0.210
-137.429	-79.884	0.117	-0.039
-136.414	248.440	0.050	0.085
-135.399	121.681	-0.241	0.300
-134.385	80.686	0.439	0.473
-133.370	11.774	-0.258	0.197
-132.356	33.834	0.178	-0.155
-131.341	-200.000	0.030	-0.171
-130.326	-76.076	-0.167	0.059
-129.312	-104.318	0.089	-0.021
-128.297	-116.893	0.188	-0.034
-127.283	77.838	-0.126	0.134
-126.268	16.624	0.328	0.259
-125.253	69.505	-0.197	-0.202
-124.239	92.781	0.098	0.110
-123.224	-69.975	-0.188	0.071
-122.210	800.000	-0.039	0.120
-121.195	197.284	0.073	-0.110
-120.180	102.296	0.126	0.147
