DTS Sentinel unit serial number:	SN413079Multiplexer serial number:	ORYXHardware model number:	OX4-SRSoftware version number:	ORYX F/W v4.00 Oryx Data Collector v3.7.2.0data status	okinstallation	princeton_trtdifferential loss correction	single-endedforward channel	channel 1reverse channel	N/Adate	2019/09/15time	01:30:35forward acquisition time	60.00reverse acquisition time	0.00gamma	496.2192k internal	0.2321k external	0.2321temperature offset calibration	0.9987default loss term (dB/km)	0.3790temperature slope calibration	1.0000multiplexer offset coefficient	1.0000multiplexer slope coefficient	1.0000fibre end	0.00T internal ref (°C)	31.87T ext. ref 1 (°C)	4.51T ext. ref 2 (°C)	26.72length (m)	temperature (°C)	Stokes	anti-Stokes-747.200	119.995	0.074	-0.093
-746.185	-101.633	0.406	0.100
-745.171	800.000	0.063	0.228
-744.156	229.562	-0.162	0.267
-743.142	-127.049	-0.325	0.048
-742.127	709.057	0.034	-0.091
-741.112	-36.383	0.195	0.106
-740.098	50.433	0.053	-0.051
-739.083	100.745	0.066	-0.078
-738.069	7.163	0.160	0.121
-737.054	-200.000	0.017	0.197
-736.039	800.000	-0.017	0.054
-735.025	-123.869	0.498	-0.079
-734.010	-98.443	-0.234	-0.061
-732.996	-39.527	-0.159	-0.084
-731.981	-200.000	-0.037	-0.194
-730.966	-200.000	0.014	-0.432
-729.952	-160.118	-0.259	0.014
-728.937	-200.000	-0.038	0.213
-727.923	-88.660	-0.228	0.069
-726.908	68.906	-0.073	0.076
-725.894	252.714	0.008	0.013
-724.879	20.632	-0.159	0.130
-723.864	-31.288	0.221	0.126
-722.850	-200.000	0.028	-0.191
-721.835	-68.357	-0.281	0.110
-720.821	60.171	0.266	0.266
-719.806	-130.038	0.218	-0.030
-718.791	-43.448	-0.296	0.151
-717.777	-121.562	-0.113	0.019
-716.762	-200.000	0.007	-0.223
-715.748	-3.291	-0.170	-0.119
-714.733	420.297	-0.050	-0.108
-713.718	-200.000	0.050	-0.241
-712.704	-164.651	0.191	0.009
-711.689	800.000	-0.051	-0.208
-710.675	-40.302	0.160	-0.084
-709.660	-166.333	-0.027	0.001
-708.645	-145.239	-0.066	0.006
-707.631	800.000	-0.109	-0.305
-706.616	-200.000	0.324	0.001
-705.602	44.384	-0.373	-0.346
-704.587	-200.000	-0.042	-0.225
-703.572	-100.737	-0.168	-0.042
-702.558	102.081	-0.123	0.145
-701.543	156.521	-0.080	0.111
-700.529	3.047	0.114	-0.084
-699.514	-30.060	-0.287	0.165
-698.499	-54.614	-0.170	0.078
-697.485	-91.430	-0.176	-0.051
-696.470	-107.380	-0.296	-0.065
-695.456	64.971	0.268	0.273
-694.441	2.832	0.375	0.275
-693.426	-200.000	0.054	-0.326
-692.412	-200.000	-0.035	-0.200
-691.397	46.658	-0.075	0.070
-690.383	-200.000	0.040	-0.258
-689.368	-28.827	-0.187	0.108
-688.354	-127.133	0.049	0.007
-687.339	230.915	0.095	0.157
-686.324	83.122	-0.026	-0.028
-685.310	-96.181	0.298	0.080
-684.295	-20.954	0.359	0.222
-683.281	-7.750	-0.088	0.060
-682.266	192.479	0.234	-0.356
-681.251	277.148	-0.102	0.182
-680.237	-76.739	-0.011	-0.004
-679.222	800.000	-0.065	0.204
-678.208	800.000	-0.037	-0.128
-677.193	-0.614	-0.030	-0.021
-676.178	-200.000	-0.032	0.231
-675.164	-100.944	-0.345	-0.085
-674.149	26.988	0.216	-0.183
-673.135	800.000	0.111	-0.471
-672.120	-42.723	-0.071	0.036
-671.105	-112.709	0.333	-0.067
-670.091	-11.213	0.120	0.079
-669.076	-160.405	0.132	-0.007
-668.062	-200.000	0.002	-0.142
-667.047	-170.234	-0.275	0.010
-666.032	-200.000	0.017	0.353
-665.018	-200.000	0.070	-0.335
-664.003	115.052	-0.162	-0.199
-662.989	189.752	0.120	-0.182
-661.974	-200.000	0.003	-0.042
-660.959	98.892	0.061	0.071
-659.945	-92.297	0.194	0.055
-658.930	-200.000	-0.010	0.138
-657.916	-131.003	0.103	0.014
-656.901	100.134	-0.181	-0.212
-655.886	130.624	-0.232	0.299
-654.872	34.950	0.047	0.041
-653.857	-3.694	-0.295	-0.207
-652.843	-200.000	0.049	-0.288
-651.828	13.507	0.156	-0.122
-650.814	110.275	-0.186	0.224
-649.799	-139.556	0.477	-0.051
-648.784	-19.549	-0.203	-0.126
-647.770	-51.964	0.190	-0.089
-646.755	141.859	0.133	0.177
-645.741	-66.570	-0.189	0.075
-644.726	-57.630	-0.074	-0.033
-643.711	800.000	-0.060	0.239
-642.697	557.155	0.064	0.154
-641.682	261.583	-0.056	0.098
-640.668	439.748	-0.191	-0.420
-639.653	800.000	0.052	0.164
-638.638	-169.457	0.154	-0.006
-637.624	186.549	0.072	0.108
-636.609	-200.000	-0.002	0.080
-635.595	-200.000	0.009	0.217
-634.580	800.000	-0.091	-0.253
-633.565	315.513	-0.169	-0.321
-632.551	479.858	-0.083	-0.188
-631.536	12.828	-0.083	0.065
-630.522	-200.000	0.037	-0.286
-629.507	800.000	0.112	-0.349
-628.492	-200.000	-0.029	-0.147
-627.478	-105.359	0.195	-0.045
-626.463	800.000	0.037	-0.156
-625.449	-112.535	0.172	0.035
-624.434	-200.000	0.001	-0.189
-623.419	-93.166	-0.148	-0.041
-622.405	800.000	-0.016	0.049
-621.390	-182.806	0.194	0.004
-620.376	42.771	0.211	0.193
-619.361	130.661	-0.167	0.216
-618.346	-146.702	0.140	-0.012
-617.332	800.000	0.067	-0.187
-616.317	23.326	-0.057	-0.047
-615.303	145.704	0.152	0.205
-614.288	297.333	0.158	-0.292
-613.273	37.442	-0.153	0.136
-612.259	-15.387	-0.157	0.101
-611.244	-138.477	-0.068	0.008
-610.230	38.460	0.081	-0.073
-609.215	-145.945	0.376	0.033
-608.201	114.058	0.171	0.209
-607.186	515.848	-0.065	0.153
-606.171	-56.965	0.419	-0.186
-605.157	-200.000	-0.044	-0.357
-604.142	-15.901	0.031	-0.020
-603.128	-85.148	-0.409	-0.129
-602.113	-90.229	-0.254	-0.074
-601.098	-49.627	0.305	0.146
-600.084	208.575	-0.049	-0.078
-599.069	-200.000	0.019	0.254
-598.055	-200.000	0.012	-0.142
-597.040	41.137	0.266	-0.242
-596.025	800.000	-0.064	-0.283
-595.011	279.362	0.064	0.114
-593.996	-167.451	0.095	0.004
-592.982	267.366	0.232	0.408
-591.967	-200.000	-0.049	0.367
-590.952	800.000	-0.072	0.214
-589.938	-145.944	0.107	-0.010
-588.923	800.000	-0.051	0.184
-587.909	-83.727	-0.403	-0.129
-586.894	-39.704	-0.176	0.093
-585.879	-200.000	-0.016	0.143
-584.865	63.978	-0.125	0.127
-583.850	-36.828	-0.142	0.077
-582.836	59.140	0.089	0.088
-581.821	-52.184	-0.152	0.071
-580.806	118.910	0.167	0.207
-579.792	-200.000	-0.058	-0.299
-578.777	32.250	-0.159	0.137
-577.763	245.488	-0.088	0.148
-576.748	-88.997	0.070	-0.021
-575.733	45.197	0.206	0.191
-574.719	-200.000	-0.010	0.296
-573.704	633.848	-0.048	0.123
-572.690	194.017	-0.139	-0.212
-571.675	174.145	-0.093	-0.135
-570.661	17.284	0.124	-0.099
-569.646	309.353	-0.191	-0.359
-568.631	-18.265	-0.270	0.169
-567.617	-75.907	0.484	-0.172
-566.602	-81.085	-0.272	0.090
-565.588	-200.000	0.015	-0.074
-564.573	199.471	-0.041	-0.064
-563.558	226.957	0.160	0.261
-562.544	-10.280	-0.040	-0.027
-561.529	-119.824	0.099	0.017
-560.515	141.569	-0.090	0.120
-559.500	249.265	0.082	-0.139
-558.485	-200.000	-0.017	-0.079
-557.471	397.505	0.091	-0.191
-556.456	25.814	0.118	-0.099
-555.442	-108.575	-0.216	0.047
-554.427	108.721	-0.335	-0.401
-553.412	800.000	0.062	-0.192
-552.398	-73.858	0.150	-0.055
-551.383	70.667	-0.200	0.207
-550.369	316.131	-0.182	0.345
-549.354	442.563	0.109	0.239
-548.339	345.745	-0.068	-0.135
-547.325	66.667	-0.249	0.254
-546.310	-103.644	0.115	0.027
-545.296	-18.675	0.108	-0.068
-544.281	516.739	-0.031	0.072
-543.266	800.000	-0.020	0.059
-542.252	-62.075	0.233	-0.098
-541.237	271.789	-0.070	-0.125
-540.223	9.425	-0.132	-0.100
-539.208	401.568	0.091	0.191
-538.193	-48.005	-0.141	0.068
-537.179	-200.000	-0.057	0.275
-536.164	-54.199	-0.243	0.111
-535.150	61.770	-0.167	0.167
-534.135	488.425	0.071	-0.163
-533.121	-81.954	-0.118	0.039
-532.106	79.719	-0.199	-0.214
-531.091	-200.000	0.028	0.250
-530.077	800.000	0.011	-0.032
-529.062	-200.000	0.017	-0.104
-528.048	-200.000	0.015	0.149
-527.033	-200.000	0.007	-0.188
-526.018	160.701	0.082	-0.115
-525.004	-200.000	-0.015	0.198
-523.989	-163.331	0.051	-0.002
-522.975	-200.000	-0.021	0.382
-521.960	33.582	0.236	0.206
-520.945	800.000	0.027	0.090
-519.931	11.304	-0.022	-0.017
-518.916	72.128	-0.086	0.090
-517.902	-86.900	0.130	0.040
-516.887	800.000	-0.045	0.189
-515.872	-163.710	0.156	0.007
-514.858	-126.049	-0.164	-0.025
-513.843	-200.000	-0.039	-0.389
-512.829	211.900	0.131	0.207
-511.814	-21.912	-0.106	0.064
-510.799	800.000	-0.064	-0.211
-509.785	800.000	-0.023	-0.097
-508.770	-200.000	-0.060	0.554
-507.756	81.015	0.186	0.201
-506.741	2.832	-0.120	-0.087
-505.726	2.195	0.120	-0.087
-504.712	102.851	-0.103	0.120
-503.697	800.000	-0.096	0.270
-502.683	50.129	0.377	0.356
-501.668	31.756	-0.286	-0.247
-500.653	56.993	-0.157	-0.153
-499.639	-71.479	0.244	0.092
-498.624	-31.877	0.198	0.111
-497.610	-200.000	-0.017	0.252
-496.595	800.000	-0.035	0.105
-495.581	22.926	0.099	0.081
-494.566	105.251	-0.218	-0.257
-493.551	71.906	0.256	-0.267
-492.537	53.254	-0.058	0.055
-491.522	-15.122	-0.091	-0.059
-490.508	-200.000	-0.018	-0.220
-489.493	31.350	0.109	-0.094
-488.478	637.017	0.062	-0.157
-487.464	800.000	0.092	-0.265
-486.449	412.563	0.115	-0.245
-485.435	-200.000	-0.031	0.249
-484.420	800.000	0.038	-0.111
-483.405	25.684	0.169	-0.141
-482.391	205.474	0.126	-0.196
-481.376	-200.000	-0.012	-0.357
-480.362	800.000	0.053	0.215
-479.347	359.515	-0.010	0.019
-478.332	-82.732	-0.017	0.006
-477.318	46.650	0.144	-0.134
-476.303	-8.874	-0.166	-0.111
-475.289	290.024	-0.076	-0.138
-474.274	-153.766	-0.320	0.022
-473.259	22.689	0.103	-0.084
-472.245	56.567	0.198	0.192
-471.230	800.000	-0.021	0.063
-470.216	234.906	-0.144	-0.238
-469.201	123.642	-0.035	0.043
-468.186	233.320	-0.126	-0.208
-467.172	121.282	0.223	0.278
-466.157	-141.120	-0.166	-0.017
-465.143	-200.000	0.005	0.162
-464.128	407.227	0.066	-0.140
-463.113	-116.315	0.302	-0.056
-462.099	-66.770	0.129	-0.051
-461.084	-153.501	0.250	0.017
-460.070	-29.716	0.157	-0.090
-459.055	294.045	-0.032	-0.058
-458.040	34.727	0.140	-0.122
-457.026	98.610	0.085	-0.098
-456.011	-200.000	0.016	-0.146
-454.997	-140.143	0.479	0.050
-453.982	-200.000	0.026	0.159
-452.968	141.739	-0.127	0.168
-451.953	330.500	0.163	0.314
-450.938	67.158	0.120	0.123
-449.924	-74.698	-0.116	0.042
-448.909	171.469	0.089	0.128
-447.895	-200.000	-0.029	-0.257
-446.880	-200.000	-0.023	-0.442
-445.865	-200.000	-0.059	-0.311
-444.851	353.289	0.033	-0.066
-443.836	37.160	-0.191	0.169
-442.822	153.524	0.112	-0.154
-441.807	-200.000	-0.082	0.384
-440.792	800.000	-0.093	0.314
-439.778	257.038	0.087	0.149
-438.763	-185.900	-0.247	0.004
-437.749	131.826	-0.035	-0.044
-436.734	-100.616	0.080	-0.020
-435.719	-200.000	0.032	-0.195
-434.705	-200.000	0.062	-0.293
-433.690	800.000	-0.032	-0.107
-432.676	27.469	-0.145	0.122
-431.661	223.672	-0.128	-0.206
-430.646	-61.482	-0.475	-0.199
-429.632	-24.139	-0.044	-0.026
-428.617	-200.000	0.004	0.165
-427.603	180.025	0.139	-0.203
-426.588	-80.475	-0.147	0.049
-425.573	-122.467	0.116	-0.019
-424.559	43.828	-0.101	0.092
-423.544	800.000	-0.085	0.343
-422.530	-171.869	-0.092	-0.003
-421.515	40.485	0.116	0.104
-420.500	800.000	0.083	0.235
-419.486	-200.000	-0.110	-0.511
-418.471	-200.000	-0.017	-0.109
-417.457	-112.244	0.188	0.038
-416.442	-17.359	-0.050	-0.031
-415.428	-98.809	-0.087	-0.022
-414.413	49.908	-0.294	-0.276
-413.398	-118.013	-0.099	0.018
-412.384	540.912	-0.184	-0.437
-411.369	15.766	0.238	-0.187
-410.355	800.000	-0.090	-0.283
-409.340	-146.054	0.297	-0.026
-408.325	-29.865	-0.215	-0.122
-407.311	-200.000	0.034	0.173
-406.296	-200.000	-0.035	0.173
-405.282	-9.453	-0.151	0.101
-404.267	-47.080	-0.331	-0.161
-403.252	643.845	0.071	-0.181
-402.238	-200.000	0.006	0.094
-401.223	-20.116	-0.242	-0.149
-400.209	-93.869	0.219	-0.060
-399.194	348.913	0.042	-0.082
-398.179	-149.645	-0.093	-0.007
-397.165	-200.000	-0.042	0.303
-396.150	3.438	-0.104	0.075
-395.136	308.047	0.091	0.168
-394.121	800.000	-0.029	-0.115
-393.106	75.665	-0.138	-0.145
-392.092	127.512	0.126	0.159
-391.077	-200.000	-0.001	0.016
-390.063	135.788	-0.198	-0.257
-389.048	800.000	0.061	0.192
-388.033	-111.725	-0.236	0.048
-387.019	-49.683	0.285	-0.135
-386.004	-108.349	-0.243	0.052
-384.990	-11.820	0.153	-0.100
-383.975	-200.000	0.003	0.096
-382.960	-200.000	0.017	0.243
-381.946	189.573	-0.102	-0.153
-380.931	-79.934	-0.560	-0.187
-379.917	128.256	-0.175	-0.222
-378.902	-112.316	-0.267	-0.053
-377.888	-6.581	0.069	-0.047
-376.873	446.568	0.077	-0.169
-375.858	-107.141	0.283	-0.062
-374.844	-16.790	0.115	-0.073
-373.829	-105.921	0.230	0.052
-372.815	155.916	0.107	0.147
-371.800	-149.649	0.190	-0.015
-370.785	800.000	0.115	-0.327
-369.771	31.812	0.460	0.394
-368.756	393.339	0.081	0.168
-367.742	149.877	-0.232	0.313
-366.727	-200.000	-0.021	0.128
-365.712	99.766	-0.118	-0.136
-364.698	115.747	-0.114	-0.139
-363.683	88.423	0.070	-0.077
-362.669	229.035	0.066	0.108
-361.654	800.000	-0.113	0.314
-360.639	104.133	0.076	0.089
-359.625	-156.545	0.248	-0.015
-358.610	800.000	-0.140	-0.451
-357.596	-148.179	0.328	0.027
-356.581	148.475	0.071	0.096
-355.566	-12.086	-0.302	-0.197
-354.552	50.264	0.087	-0.082
-353.537	-125.706	0.322	-0.049
-352.523	-159.606	-0.252	0.014
-351.508	-184.810	0.222	0.004
-350.493	10.815	0.126	0.096
-349.479	-200.000	-0.015	-0.200
-348.464	711.366	-0.156	-0.410
-347.450	246.390	-0.111	0.186
-346.435	800.000	-0.058	0.163
-345.420	-200.000	0.013	-0.212
-344.406	-200.000	-0.023	0.377
-343.391	-59.415	-0.116	-0.049
-342.377	-35.623	0.384	-0.207
-341.362	-200.000	0.004	-0.028
-340.348	6.593	0.204	0.151
-339.333	-70.577	-0.183	-0.069
-338.318	-27.313	0.100	-0.058
-337.304	126.568	0.006	0.007
-336.289	32.456	0.150	0.129
-335.275	-66.438	-0.105	0.041
-334.260	140.577	0.210	-0.276
-333.245	396.511	-0.275	-0.571
-332.231	53.930	-0.160	-0.153
-331.216	800.000	0.053	-0.188
-330.202	-165.045	0.227	0.010
-329.187	-200.000	-0.061	-0.280
-328.172	3.332	0.178	0.129
-327.158	-200.000	-0.004	0.110
-326.143	-13.972	0.138	-0.089
-325.129	505.892	0.033	0.076
-324.114	-32.844	0.217	-0.120
-323.099	395.368	-0.159	-0.329
-322.085	366.218	-0.037	0.075
-321.070	-200.000	-0.002	-0.349
-320.056	-200.000	0.015	-0.330
-319.041	49.343	-0.252	0.236
-318.026	690.428	0.072	-0.187
-317.012	-63.281	0.134	0.055
-315.997	562.974	-0.092	0.220
-314.983	-163.225	0.083	0.004
-313.968	-131.428	-0.214	-0.028
-312.953	-33.134	-0.104	-0.057
-311.939	-118.629	0.137	0.024
-310.924	800.000	-0.046	-0.150
-309.910	645.463	-0.098	-0.248
-308.895	105.279	0.205	0.240
-307.880	259.037	0.026	0.045
-306.866	117.816	-0.154	-0.188
-305.851	-197.462	0.187	0.001
-304.837	67.697	-0.177	-0.180
-303.822	25.621	0.244	0.201
-302.807	512.112	0.102	-0.235
-301.793	-120.033	-0.136	0.023
-300.778	181.099	-0.077	0.112
-299.764	-43.685	0.273	-0.137
-298.749	-31.282	0.359	-0.201
-297.735	120.330	0.069	-0.086
-296.720	73.610	0.194	-0.202
-295.705	-45.205	-0.372	0.183
-294.691	366.333	-0.119	0.238
-293.676	-200.000	-0.011	0.583
-292.662	-200.000	-0.002	-0.313
-291.647	-104.818	-0.203	0.046
-290.632	-155.239	0.205	-0.013
-289.618	-190.404	-0.373	-0.004
-288.603	146.677	0.106	0.142
-287.589	-62.316	0.215	0.089
-286.574	142.081	-0.199	-0.262
-285.559	-62.394	-0.232	-0.096
-284.545	20.319	-0.217	-0.174
-283.530	800.000	0.014	0.048
-282.516	31.741	0.058	0.050
-281.501	-73.275	-0.173	0.063
-280.486	-200.000	-0.043	-0.296
-279.472	475.123	0.139	0.311
-278.457	65.577	0.020	-0.020
-277.443	53.764	-0.208	0.199
-276.428	71.900	-0.178	0.183
-275.413	-200.000	-0.030	0.248
-274.399	800.000	-0.085	0.314
-273.384	-200.000	0.036	0.478
-272.370	2.002	0.053	0.038
-271.355	-200.000	-0.007	0.253
-270.340	-170.006	-0.219	-0.008
-269.326	-148.495	-0.177	0.014
-268.311	-16.969	0.052	-0.033
-267.297	103.536	0.077	-0.090
-266.282	-164.971	-0.485	0.021
-265.267	284.991	0.068	-0.122
-264.253	-130.234	-0.250	0.034
-263.238	800.000	-0.068	0.212
-262.224	800.000	-0.094	0.395
-261.209	24.217	0.154	0.126
-260.195	-94.105	-0.259	-0.071
-259.180	-65.184	0.222	-0.089
-258.165	174.267	-0.391	0.561
-257.151	-59.910	-0.226	-0.096
-256.136	-70.392	-0.156	-0.059
-255.122	-122.436	-0.317	0.051
-254.107	620.551	-0.036	0.089
-253.092	78.510	0.203	-0.215
-252.078	172.121	0.146	-0.208
-251.063	-23.522	0.265	-0.158
-250.049	-200.000	-0.028	-0.205
-249.034	158.583	-0.141	0.194
-248.019	-112.519	0.176	0.035
-247.005	-68.411	0.228	-0.088
-245.990	291.260	-0.136	0.245
-244.976	352.406	-0.033	0.065
-243.961	87.636	-0.151	0.166
-242.946	-103.497	-0.105	-0.025
-241.932	-138.388	-0.320	-0.035
-240.917	-170.629	-0.207	0.007
-239.903	185.337	0.037	-0.054
-238.888	251.812	-0.091	-0.153
-237.873	-200.000	-0.011	-0.119
-236.859	435.200	0.038	-0.083
-235.844	-77.149	0.269	0.093
-234.830	66.439	-0.260	0.262
-233.815	70.907	0.199	0.205
-232.800	-200.000	0.027	-0.247
-231.786	400.922	0.145	-0.302
-230.771	800.000	-0.095	-0.270
-229.757	421.763	-0.185	0.394
-228.742	-168.499	0.087	-0.003
-227.727	9.944	0.358	0.269
-226.713	307.950	-0.100	-0.184
-225.698	-93.801	0.173	0.047
-224.684	-200.000	-0.013	0.061
-223.669	-171.793	0.273	0.009
-222.655	-123.509	-0.128	-0.020
-221.640	-200.000	-0.047	0.275
-220.625	800.000	-0.024	-0.071
-219.611	24.443	-0.183	-0.149
-218.596	557.180	-0.123	0.292
-217.582	125.406	0.163	0.204
-216.567	-34.995	-0.219	0.118
-215.552	-51.875	-0.167	0.077
-214.538	-200.000	0.088	-0.381
-213.523	800.000	-0.051	-0.163
-212.509	-76.363	0.084	-0.029
-211.494	800.000	-0.094	0.290
-210.479	3.541	0.093	0.067
-209.465	64.241	0.254	-0.253
-208.450	-200.000	0.001	0.056
-207.436	-200.000	0.053	-0.268
-206.421	-130.898	-0.098	0.013
-205.406	314.444	0.138	-0.257
-204.392	29.393	-0.183	-0.154
-203.377	-112.519	0.313	-0.062
-202.363	-200.000	-0.024	-0.267
-201.348	234.344	-0.137	0.223
-200.333	458.856	0.054	-0.119
-199.319	-200.000	0.020	0.100
-198.304	-200.000	-0.002	0.204
-197.290	-73.494	-0.221	0.080
-196.275	107.958	-0.214	0.252
-195.260	-200.000	-0.020	-0.131
-194.246	33.266	0.222	-0.190
-193.231	-200.000	-0.029	-0.432
-192.217	54.347	0.225	0.215
-191.202	102.215	0.290	0.336
-190.187	-90.126	0.341	-0.098
-189.173	-9.106	0.120	0.079
-188.158	-4.386	-0.374	0.256
-187.144	104.058	0.173	0.202
-186.129	-200.000	-0.002	0.150
-185.114	-102.117	0.384	-0.091
-184.100	-139.199	0.185	-0.020
-183.085	-125.099	-0.257	0.039
-182.071	-53.097	0.136	-0.062
-181.056	42.346	0.214	-0.192
-180.042	168.493	0.177	-0.249
-179.027	686.885	-0.052	0.135
-178.012	-69.959	-0.043	0.016
-176.998	378.919	0.123	0.248
-175.983	8.187	-0.167	-0.124
-174.969	53.355	-0.233	0.221
-173.954	-113.585	-0.117	-0.023
-172.939	800.000	-0.013	-0.055
-171.925	125.875	-0.065	-0.081
-170.910	204.822	0.063	0.097
-169.896	120.729	-0.099	0.122
-168.881	125.052	0.190	0.237
-167.866	196.804	0.209	0.315
-166.852	230.933	0.136	0.221
-165.837	800.000	-0.075	0.234
-164.823	311.644	0.032	-0.060
-163.808	342.337	0.218	0.421
-162.793	317.705	-0.038	0.072
-161.779	14.168	0.034	0.026
-160.764	-200.000	0.000	-0.059
-159.750	-200.000	-0.035	0.186
-158.735	-68.824	-0.282	-0.107
-157.720	800.000	0.048	-0.173
-156.706	800.000	-0.031	0.112
-155.691	255.849	-0.023	-0.038
-154.677	-7.309	0.327	-0.219
-153.662	95.942	-0.068	-0.076
-152.647	-11.696	-0.274	0.178
-151.633	-83.366	0.189	0.060
-150.618	-62.786	-0.013	-0.005
-149.604	-30.009	-0.137	0.077
-148.589	8.957	0.320	-0.238
-147.574	135.085	0.109	0.140
-146.560	-90.447	-0.191	-0.055
-145.545	-24.311	-0.068	-0.040
-144.531	186.214	-0.126	0.186
-143.516	655.751	-0.058	0.146
-142.502	-67.987	-0.311	-0.120
-141.487	-79.960	-0.172	0.057
-140.472	-200.000	0.052	0.370
-139.458	511.646	0.061	-0.140
-138.443	0.407	-0.235	0.165
-137.429	-93.307	0.324	0.089
-136.414	-122.786	0.099	-0.016
-135.399	160.166	-0.210	-0.289
-134.385	-82.161	0.101	-0.033
-133.370	38.754	0.112	0.099
-132.356	-102.423	0.305	-0.072
-131.341	-163.001	0.457	-0.022
-130.326	-101.279	0.239	-0.058
-129.312	-50.458	0.046	0.022
-128.297	27.673	-0.185	-0.153
-127.283	-145.190	0.194	-0.017
-126.268	-159.579	0.467	-0.026
-125.253	61.864	-0.126	-0.124
-124.239	582.373	-0.067	-0.161
-123.224	42.101	0.084	-0.075
-122.210	-200.000	0.034	0.407
-121.195	82.157	0.173	0.185
