DTS Sentinel unit serial number:	SN413079Multiplexer serial number:	ORYXHardware model number:	OX4-SRSoftware version number:	ORYX F/W v4.00 Oryx Data Collector v3.7.2.0data status	okinstallation	princeton_trtdifferential loss correction	single-endedforward channel	channel 1reverse channel	N/Adate	2019/09/17time	17:46:35forward acquisition time	60.00reverse acquisition time	0.00gamma	496.2192k internal	0.2292k external	0.2292temperature offset calibration	0.9953default loss term (dB/km)	0.3790temperature slope calibration	1.0000multiplexer offset coefficient	1.0000multiplexer slope coefficient	1.0000fibre end	0.00T internal ref (°C)	43.44T ext. ref 1 (°C)	0.33T ext. ref 2 (°C)	38.75length (m)	temperature (°C)	Stokes	anti-Stokes-747.200	-15.742	0.104	0.068
-746.185	-55.521	0.040	0.018
-745.171	-200.000	0.005	-0.122
-744.156	460.705	-0.115	0.262
-743.142	-200.000	0.017	0.142
-742.127	-111.727	-0.206	0.043
-741.112	-60.692	0.187	0.081
-740.098	217.354	0.167	0.272
-739.083	800.000	-0.092	0.398
-738.069	-140.268	0.249	0.027
-737.054	311.379	-0.064	-0.122
-736.039	-36.928	-0.073	-0.040
-735.025	11.259	0.086	0.068
-734.010	50.800	-0.194	-0.188
-732.996	-16.918	0.244	-0.157
-731.981	626.721	0.105	0.271
-730.966	-200.000	0.068	-0.413
-729.952	-36.275	-0.197	0.109
-728.937	800.000	-0.099	-0.392
-727.923	53.101	-0.234	-0.229
-726.908	-64.512	-0.147	0.061
-725.894	800.000	-0.043	0.175
-724.879	-200.000	-0.001	-0.051
-723.864	-17.086	0.130	0.084
-722.850	476.408	-0.131	-0.302
-721.835	481.095	0.130	-0.301
-720.821	-200.000	-0.045	-0.202
-719.806	-87.875	0.126	-0.039
-718.791	-200.000	0.016	-0.206
-717.777	-71.471	0.199	-0.076
-716.762	39.643	-0.170	-0.156
-715.748	39.142	-0.074	0.067
-714.733	65.849	0.094	0.097
-713.718	40.103	-0.094	0.086
-712.704	800.000	-0.023	0.086
-711.689	800.000	0.051	-0.198
-710.675	59.979	-0.178	-0.180
-709.660	107.170	0.136	0.166
-708.645	223.457	-0.061	-0.100
-707.631	260.559	-0.074	-0.130
-706.616	-123.164	-0.192	0.031
-705.602	-8.382	-0.188	-0.129
-704.587	-134.071	-0.251	0.032
-703.572	-151.706	-0.133	0.010
-702.558	8.606	-0.070	0.054
-701.543	131.990	0.088	-0.116
-700.529	-76.773	-0.197	-0.071
-699.514	-200.000	0.007	-0.292
-698.499	-179.652	-0.079	-0.002
-697.485	120.414	0.159	-0.201
-696.470	800.000	-0.042	-0.140
-695.456	8.790	-0.403	-0.310
-694.441	-77.145	0.436	0.155
-693.426	237.136	-0.117	0.197
-692.412	-200.000	-0.000	-0.076
-691.397	-41.870	0.084	0.044
-690.383	800.000	-0.026	0.110
-689.368	-49.904	0.294	-0.143
-688.354	436.828	-0.179	0.398
-687.339	-200.000	0.025	0.217
-686.324	-89.668	-0.128	-0.038
-685.310	102.852	-0.406	-0.486
-684.295	-37.580	0.152	-0.083
-683.281	135.271	0.133	0.176
-682.266	208.264	-0.232	-0.371
-681.251	-22.332	-0.308	-0.191
-680.237	800.000	0.063	0.210
-679.222	-103.784	-0.092	0.022
-678.208	-200.000	-0.059	-0.347
-677.193	-13.570	0.231	0.153
-676.178	32.395	-0.259	0.229
-675.164	-65.471	-0.244	0.100
-674.149	328.040	-0.073	-0.142
-673.135	-200.000	0.007	-0.250
-672.120	800.000	-0.113	-0.334
-671.105	201.693	0.127	-0.199
-670.091	23.674	-0.236	-0.198
-669.076	800.000	0.055	-0.193
-668.062	102.660	0.168	0.201
-667.047	-163.187	0.068	-0.003
-666.032	253.585	-0.154	-0.269
-665.018	800.000	-0.119	-0.341
-664.003	285.186	0.087	0.159
-662.989	514.464	-0.125	-0.297
-661.974	608.216	0.082	-0.210
-660.959	-200.000	0.064	-0.374
-659.945	-142.335	-0.194	0.020
-658.930	-60.487	0.286	-0.124
-657.916	126.314	-0.256	0.331
-656.901	-200.000	0.038	-0.302
-655.886	438.215	-0.104	-0.232
-654.872	-200.000	0.010	0.275
-653.857	-200.000	0.092	-0.487
-652.843	-40.355	0.026	-0.014
-651.828	-55.247	-0.120	0.055
-650.814	800.000	-0.063	-0.188
-649.799	-5.366	0.115	0.080
-648.784	-94.495	0.230	-0.064
-647.770	604.561	-0.076	-0.193
-646.755	-137.972	-0.314	-0.036
-645.741	-41.708	0.310	0.162
-644.726	41.049	-0.251	-0.231
-643.711	51.482	0.303	-0.293
-642.697	587.704	-0.077	-0.193
-641.682	-35.369	-0.149	0.082
-640.668	339.515	-0.131	0.260
-639.653	-33.704	0.149	-0.084
-638.638	800.000	-0.011	0.037
-637.624	235.509	-0.162	-0.273
-636.609	52.257	-0.129	0.125
-635.595	-10.800	-0.100	0.067
-634.580	118.468	-0.130	-0.163
-633.565	800.000	-0.024	0.092
-632.551	226.491	0.181	-0.299
-631.536	75.516	0.213	0.229
-630.522	-124.034	-0.254	-0.041
-629.507	756.062	-0.040	0.110
-628.492	-200.000	-0.018	-0.168
-627.478	94.986	-0.110	-0.127
-626.463	24.063	-0.209	-0.176
-625.449	252.000	0.084	-0.145
-624.434	37.273	0.103	-0.093
-623.419	292.796	-0.008	-0.015
-622.405	-164.010	0.077	0.004
-621.390	-45.222	0.114	0.058
-620.376	-200.000	-0.030	-0.157
-619.361	-71.650	0.095	0.036
-618.346	-47.064	0.137	-0.068
-617.332	94.615	0.065	-0.076
-616.317	333.044	-0.119	-0.234
-615.303	-7.066	-0.171	0.118
-614.288	-88.364	-0.282	0.086
-613.273	-132.050	-0.186	0.025
-612.259	-200.000	0.004	-0.107
-611.244	253.882	-0.129	-0.224
-610.230	114.217	-0.180	0.224
-609.215	-14.697	-0.187	-0.123
-608.201	475.339	-0.011	-0.025
-607.186	35.771	-0.246	-0.221
-606.171	-48.134	-0.230	0.113
-605.157	-81.065	-0.167	0.056
-604.142	-18.790	-0.133	-0.084
-603.128	-62.284	-0.464	-0.197
-602.113	13.529	-0.198	0.157
-601.098	128.755	-0.061	-0.079
-600.084	193.702	0.064	-0.099
-599.069	200.814	-0.058	-0.091
-598.055	-200.000	-0.009	-0.136
-597.040	-14.570	0.262	0.172
-596.025	800.000	-0.105	-0.340
-595.011	358.510	-0.096	-0.195
-593.996	-200.000	0.008	-0.198
-592.982	244.456	-0.042	0.071
-591.967	-200.000	0.050	-0.256
-590.952	-76.867	0.421	0.150
-589.938	185.504	0.204	0.308
-588.923	-200.000	0.075	-0.497
-587.909	49.872	-0.118	0.113
-586.894	-118.066	-0.137	-0.025
-585.879	-32.022	0.160	0.091
-584.865	100.224	-0.107	-0.127
-583.850	-150.433	-0.265	0.021
-582.836	208.186	-0.313	0.498
-581.821	93.208	-0.204	-0.235
-580.806	-40.888	-0.286	0.150
-579.792	643.461	0.080	0.209
-578.777	56.162	-0.204	-0.201
-577.763	-170.631	0.306	0.011
-576.748	195.593	-0.314	-0.485
-575.733	-11.002	-0.214	-0.144
-574.719	32.670	0.240	-0.211
-573.704	13.368	-0.252	0.199
-572.690	-48.932	0.191	-0.093
-571.675	192.739	0.226	0.347
-570.661	105.855	0.175	-0.210
-569.646	583.029	0.032	-0.081
-568.631	211.971	0.169	-0.271
-567.617	293.559	0.067	-0.124
-566.602	265.067	-0.204	0.361
-565.588	-68.456	-0.215	-0.085
-564.573	-200.000	0.042	-0.346
-563.558	-47.825	-0.292	-0.144
-562.544	-200.000	0.028	-0.308
-561.529	-60.483	0.196	0.085
-560.515	-59.013	-0.248	-0.109
-559.500	-21.928	-0.282	-0.174
-558.485	-200.000	0.068	0.370
-557.471	800.000	0.088	-0.279
-556.456	-1.729	-0.333	-0.238
-555.442	800.000	-0.005	0.016
-554.427	-140.841	0.176	-0.018
-553.412	-142.930	-0.378	0.037
-552.398	-200.000	0.030	0.283
-551.383	119.922	-0.290	-0.365
-550.369	-200.000	0.007	0.099
-549.354	-67.881	0.221	0.088
-548.339	-200.000	0.040	0.423
-547.325	-200.000	0.030	0.203
-546.310	-76.304	0.009	0.003
-545.296	-200.000	0.009	0.114
-544.281	-25.147	-0.251	0.151
-543.266	288.542	-0.121	-0.224
-542.252	581.912	0.038	-0.094
-541.237	-42.603	0.304	0.157
-540.223	308.207	-0.051	0.097
-539.208	52.182	-0.132	-0.128
-538.193	-200.000	-0.028	-0.173
-537.179	388.121	0.065	-0.136
-536.164	-47.309	0.181	-0.089
-535.150	-200.000	0.004	0.131
-534.135	-200.000	0.037	0.384
-533.121	800.000	-0.091	-0.295
-532.106	457.418	0.075	-0.170
-531.091	-149.844	0.160	0.013
-530.077	80.655	0.043	-0.048
-529.062	-40.372	0.183	0.096
-528.048	-126.906	-0.454	0.068
-527.033	-56.818	0.107	0.048
-526.018	362.966	0.103	0.211
-525.004	-41.757	0.273	-0.142
-523.989	179.281	0.239	-0.355
-522.975	-135.759	-0.085	-0.010
-521.960	32.581	0.124	-0.109
-520.945	800.000	0.061	-0.218
-519.931	-200.000	-0.037	-0.192
-518.916	1.787	0.169	-0.124
-517.902	105.750	-0.125	-0.150
-516.887	800.000	0.073	-0.315
-515.872	69.642	0.158	0.165
-514.858	-73.228	0.047	0.018
-513.843	-14.844	-0.235	-0.153
-512.829	-200.000	0.037	0.260
-511.814	38.943	-0.292	-0.265
-510.799	800.000	-0.052	-0.148
-509.785	7.691	-0.439	0.333
-508.770	800.000	0.037	-0.129
-507.756	-64.658	0.221	0.091
-506.741	-15.239	0.060	0.039
-505.726	80.268	-0.143	-0.156
-504.712	-36.432	0.030	-0.016
-503.697	201.613	-0.241	0.376
-502.683	8.077	-0.198	0.151
-501.668	-25.581	-0.089	0.053
-500.653	149.663	-0.147	0.202
-499.639	81.530	0.065	0.071
-498.624	-71.614	-0.081	0.031
-497.610	114.051	0.027	0.033
-496.595	100.434	-0.157	0.185
-495.581	-152.912	0.353	0.025
-494.566	-157.676	0.271	-0.016
-493.551	-141.578	-0.216	-0.022
-492.537	-72.625	-0.211	0.079
-491.522	-55.516	0.139	-0.063
-490.508	-95.638	0.160	-0.043
-489.493	-70.962	-0.047	-0.018
-488.478	-200.000	0.011	-0.320
-487.464	-115.176	-0.049	-0.009
-486.449	-72.192	0.152	0.057
-485.435	53.671	-0.155	0.151
-484.420	800.000	-0.094	0.330
-483.405	219.365	0.158	-0.255
-482.391	153.332	-0.271	-0.376
-481.376	-200.000	-0.004	0.040
-480.362	-150.345	-0.056	0.004
-479.347	23.057	0.320	0.266
-478.332	-61.793	0.309	-0.131
-477.318	327.180	-0.100	-0.194
-476.303	-85.709	0.271	0.085
-475.289	17.016	0.205	0.165
-474.274	-44.312	0.226	0.115
-473.259	248.518	0.099	0.170
-472.245	-200.000	0.002	-0.050
-471.230	13.922	-0.213	0.167
-470.216	-119.336	0.221	-0.039
-469.201	-158.728	-0.113	0.007
-468.186	-94.140	-0.180	-0.050
-467.172	37.139	0.228	0.205
-466.157	-200.000	0.026	0.350
-465.143	-57.827	0.195	-0.086
-464.128	282.010	-0.141	0.255
-463.113	-23.167	-0.123	0.075
-462.099	-54.849	0.233	0.106
-461.084	-79.378	0.117	-0.040
-460.070	117.420	0.148	0.184
-459.055	144.056	0.032	0.043
-458.040	-91.310	-0.242	0.070
-457.026	13.694	0.069	0.054
-456.011	-200.000	-0.001	-0.207
-454.997	-82.990	0.158	0.051
-453.982	120.944	0.080	0.101
-452.968	-32.907	-0.132	0.074
-451.953	-162.983	0.029	-0.001
-450.938	180.339	0.232	0.344
-449.924	118.266	0.161	0.201
-448.909	-79.387	-0.185	0.063
-447.895	-54.247	0.171	-0.079
-446.880	-58.661	-0.035	0.015
-445.865	-106.888	-0.147	-0.033
-444.851	79.649	-0.149	0.162
-443.836	800.000	0.044	0.159
-442.822	-110.893	-0.267	-0.056
-441.807	-200.000	0.015	0.219
-440.792	493.130	-0.063	0.146
-439.778	190.725	0.015	-0.024
-438.763	549.214	-0.066	-0.160
-437.749	77.131	-0.428	0.460
-436.734	-200.000	0.018	0.239
-435.719	-42.057	0.214	-0.111
-434.705	24.120	0.124	0.104
-433.690	-102.442	0.159	-0.038
-432.676	68.686	0.152	-0.157
-431.661	41.682	0.153	0.141
-430.646	21.832	0.276	-0.228
-429.632	193.299	0.086	0.131
-428.617	-144.416	0.192	0.018
-427.603	-38.739	-0.093	-0.050
-426.588	-51.369	0.338	-0.160
-425.573	-93.903	-0.082	-0.023
-424.559	346.687	0.072	0.143
-423.544	-18.698	0.344	-0.217
-422.530	-200.000	0.012	0.138
-421.515	-102.238	-0.248	0.060
-420.500	-200.000	0.030	0.172
-419.486	800.000	0.138	0.451
-418.471	-29.867	-0.213	-0.123
-417.457	349.288	0.157	-0.314
-416.442	-200.000	0.017	-0.176
-415.428	-124.609	-0.361	0.057
-414.413	56.309	0.328	0.322
-413.398	-200.000	0.051	-0.238
-412.384	-94.613	0.122	0.034
-411.369	-175.410	0.260	-0.007
-410.355	-135.628	0.181	0.022
-409.340	-200.000	0.021	0.196
-408.325	243.059	0.137	0.233
-407.311	-144.492	0.161	-0.015
-406.296	-48.264	0.127	-0.062
-405.282	718.223	-0.062	-0.166
-404.267	-133.055	-0.336	-0.043
-403.252	266.058	0.131	0.231
-402.238	-200.000	0.044	-0.268
-401.223	-142.326	-0.173	-0.017
-400.209	1.503	-0.250	-0.182
-399.194	-200.000	0.009	0.208
-398.179	54.396	0.245	0.238
-397.165	-200.000	-0.005	0.406
-396.150	18.539	-0.393	0.317
-395.136	-200.000	0.000	0.247
-394.121	-125.097	-0.223	0.035
-393.106	138.850	-0.082	-0.108
-392.092	222.890	0.017	-0.028
-391.077	800.000	0.103	-0.353
-390.063	178.704	0.153	-0.226
-389.048	52.174	-0.088	0.084
-388.033	-172.873	-0.382	-0.012
-387.019	378.187	0.076	0.157
-386.004	139.786	0.118	0.157
-384.990	-133.551	0.411	-0.052
-383.975	800.000	-0.131	0.399
-382.960	-167.850	-0.249	0.010
-381.946	-8.129	0.338	-0.230
-380.931	454.852	-0.013	-0.029
-379.917	-5.836	0.136	0.094
-378.902	694.751	-0.048	0.126
-377.888	41.782	-0.140	0.128
-376.873	488.150	-0.078	0.179
-375.858	-200.000	0.017	0.091
-374.844	113.507	-0.126	-0.154
-373.829	-83.857	0.217	0.070
-372.815	-200.000	-0.065	0.433
-371.800	-55.788	0.193	-0.087
-370.785	800.000	0.019	-0.081
-369.771	633.446	0.025	-0.064
-368.756	126.790	-0.091	-0.116
-367.742	396.721	0.079	0.166
-366.727	-33.125	-0.411	-0.230
-365.712	40.242	0.190	-0.172
-364.698	-149.082	-0.140	-0.011
-363.683	800.000	0.091	-0.384
-362.669	64.434	0.068	0.069
-361.654	-74.279	0.197	0.072
-360.639	382.411	0.023	0.047
-359.625	6.675	0.081	-0.061
-358.610	-83.350	0.085	-0.027
-357.596	-23.680	0.226	-0.136
-356.581	114.286	-0.100	0.123
-355.566	-165.967	0.246	0.011
-354.552	113.675	-0.168	0.205
-353.537	800.000	0.032	-0.104
-352.523	-200.000	-0.010	-0.230
-351.508	-200.000	-0.023	-0.267
-350.493	129.357	0.108	-0.139
-349.479	-57.217	-0.399	-0.177
-348.464	23.482	0.111	-0.092
-347.450	72.809	0.178	-0.187
-346.435	580.613	-0.117	0.289
-345.420	177.447	0.096	0.141
-344.406	-73.484	-0.283	-0.104
-343.391	-82.401	0.221	-0.072
-342.377	339.983	-0.066	-0.129
-341.362	47.795	-0.569	-0.536
-340.348	11.594	0.030	0.024
-339.333	331.322	0.168	-0.326
-338.318	-19.604	0.346	0.216
-337.304	-142.968	-0.164	-0.016
-336.289	142.364	-0.126	-0.168
-335.275	609.525	-0.055	0.137
-334.260	-83.225	0.038	0.012
-333.245	105.611	-0.098	0.116
-332.231	-200.000	0.002	-0.341
-331.216	-113.130	-0.154	-0.031
-330.202	800.000	-0.066	-0.198
-329.187	44.016	-0.049	0.046
-328.172	161.708	0.057	-0.081
-327.158	206.516	-0.158	-0.248
-326.143	20.330	0.111	-0.090
-325.129	163.420	0.190	-0.269
-324.114	356.016	-0.115	0.230
-323.099	746.337	-0.175	0.475
-322.085	-119.396	0.087	0.015
-321.070	549.759	0.048	0.116
-320.056	25.051	0.042	0.035
-319.041	-5.717	-0.306	0.211
-318.026	2.405	0.195	0.142
-317.012	-123.151	0.266	-0.043
-315.997	-14.919	0.336	0.217
-314.983	800.000	0.088	0.245
-313.968	250.395	-0.162	-0.277
-312.953	384.302	-0.168	-0.349
-311.939	520.919	0.128	-0.302
-310.924	-96.340	0.207	-0.055
-309.910	800.000	-0.082	-0.296
-308.895	-33.536	-0.160	0.089
-307.880	-200.000	0.026	-0.184
-306.866	-178.434	0.459	0.011
-305.851	800.000	0.073	-0.271
-304.837	-31.805	-0.201	-0.113
-303.822	417.995	-0.118	-0.255
-302.807	230.806	-0.114	-0.188
-301.793	-51.027	0.134	-0.063
-300.778	-86.479	0.207	-0.064
-299.764	10.426	0.184	0.141
-298.749	-2.668	-0.244	0.172
-297.735	-35.379	0.189	0.103
-296.720	-88.252	-0.285	0.086
-295.705	-53.665	0.048	-0.022
-294.691	-153.257	0.077	0.005
-293.676	108.934	-0.060	-0.072
-292.662	-27.487	0.177	0.103
-291.647	-200.000	0.018	0.191
-290.632	-200.000	0.068	-0.648
-289.618	-75.156	0.287	-0.103
-288.603	108.568	0.114	-0.136
-287.589	-132.824	0.326	-0.042
-286.574	-136.019	-0.119	0.014
-285.559	-48.193	0.177	0.086
-284.545	800.000	-0.090	0.267
-283.530	-200.000	-0.009	-0.243
-282.516	-200.000	-0.099	0.469
-281.501	-116.542	0.296	0.055
-280.486	-108.081	0.217	0.047
-279.472	124.655	-0.131	-0.166
-278.457	137.794	0.140	0.184
-277.443	-117.318	0.297	0.054
-276.428	800.000	0.090	0.267
-275.413	-15.431	0.215	0.138
-274.399	132.835	0.185	0.240
-273.384	390.762	0.138	0.287
-272.370	-200.000	-0.033	0.230
-271.355	-111.463	-0.086	-0.018
-270.340	800.000	-0.071	0.215
-269.326	7.468	0.221	-0.166
-268.311	-200.000	-0.018	0.182
-267.297	-200.000	0.049	-0.285
-266.282	-200.000	0.002	-0.179
-265.267	-35.611	-0.416	-0.227
-264.253	205.674	-0.076	-0.119
-263.238	-200.000	0.002	0.070
-262.224	800.000	0.121	-0.351
-261.209	-47.555	-0.378	0.184
-260.195	209.213	-0.179	0.281
-259.180	-12.155	-0.211	-0.139
-258.165	-200.000	0.009	-0.174
-257.151	99.834	-0.169	-0.196
-256.136	-71.726	-0.155	0.058
-255.122	-157.734	0.091	0.005
-254.107	201.923	-0.231	0.358
-253.092	-33.590	-0.074	0.041
-252.078	800.000	-0.075	-0.250
-251.063	220.578	-0.070	-0.113
-250.049	-89.917	-0.066	-0.019
-249.034	-200.000	-0.037	-0.298
-248.019	163.095	-0.026	-0.037
-247.005	437.302	0.112	0.246
-245.990	-200.000	0.043	0.225
-244.976	39.940	0.025	-0.023
-243.961	16.449	-0.113	-0.089
-242.946	-54.010	-0.260	0.119
-241.932	-200.000	0.002	0.052
-240.917	-27.354	-0.100	0.058
-239.903	-182.662	0.433	0.008
-238.888	31.022	0.239	0.206
-237.873	-200.000	0.006	0.089
-236.859	800.000	-0.090	0.296
-235.844	279.641	0.188	-0.337
-234.830	-200.000	0.055	0.263
-233.815	-166.847	-0.168	-0.007
-232.800	106.499	-0.145	0.173
-231.786	75.645	0.283	0.300
-230.771	-168.207	-0.632	-0.025
-229.757	-200.000	-0.035	0.272
-228.742	-200.000	0.017	0.096
-227.727	158.643	-0.146	-0.203
-226.713	-109.857	0.268	0.056
-225.698	170.535	0.026	0.037
-224.684	-200.000	-0.007	0.319
-223.669	-23.557	0.229	0.138
-222.655	-115.802	0.174	0.033
-221.640	58.277	-0.071	-0.070
-220.625	-57.021	-0.224	0.099
-219.611	800.000	-0.105	-0.353
-218.596	-91.275	0.280	-0.080
-217.582	343.102	-0.069	-0.136
-216.567	-5.990	0.350	-0.240
-215.552	277.690	-0.100	-0.178
-214.538	-46.347	-0.130	0.064
-213.523	-24.097	0.098	-0.058
-212.509	-200.000	0.047	-0.368
-211.494	38.212	-0.184	0.165
-210.479	144.968	0.041	0.055
-209.465	-14.054	-0.029	-0.019
-208.450	-96.750	0.315	-0.083
-207.436	-88.932	0.328	0.097
-206.421	-46.694	-0.276	0.135
-205.406	180.229	0.146	0.215
-204.392	3.190	-0.166	-0.121
-203.377	-81.178	-0.293	0.097
-202.363	-200.000	-0.024	-0.202
-201.348	633.835	0.033	-0.085
-200.333	-71.568	0.353	0.132
-199.319	-31.896	0.057	0.032
-198.304	257.542	-0.023	0.040
-197.290	-56.683	-0.175	-0.078
-196.275	37.359	0.226	0.201
-195.260	434.915	0.101	-0.220
-194.246	-200.000	-0.010	0.135
-193.231	151.655	0.085	-0.116
-192.217	-135.552	-0.154	0.018
-191.202	-50.018	-0.158	-0.075
-190.187	-119.027	0.083	0.014
-189.173	299.564	-0.153	0.282
-188.158	11.227	0.150	0.115
-187.144	-200.000	0.030	0.250
-186.129	-40.634	0.202	-0.105
-185.114	-200.000	-0.067	-0.461
-184.100	-49.271	-0.382	0.183
-183.085	-22.550	-0.083	0.050
-182.071	-94.345	0.286	0.078
-181.056	-60.197	0.031	-0.013
-180.042	800.000	-0.041	0.117
-179.027	-200.000	-0.005	0.047
-178.012	-84.477	-0.253	-0.080
-176.998	-127.100	-0.300	0.044
-175.983	-200.000	-0.113	0.561
-174.969	-127.785	0.176	-0.025
-173.954	-87.762	-0.350	0.106
-172.939	-84.726	-0.080	-0.025
-171.925	-168.571	-0.048	-0.002
-170.910	120.745	0.171	0.213
-169.896	229.501	0.059	-0.096
-168.881	604.639	-0.067	-0.166
-167.866	-111.015	-0.038	0.008
-166.852	459.675	0.157	0.350
-165.837	-162.233	0.370	0.019
-164.823	106.305	0.111	0.132
-163.808	236.061	0.143	-0.237
-162.793	-126.568	0.124	-0.018
-161.779	-26.039	-0.336	-0.198
-160.764	180.517	-0.108	-0.158
-159.750	1.233	-0.309	0.222
-158.735	-107.836	-0.134	0.029
-157.720	-102.695	0.216	0.052
-156.706	-0.088	-0.179	-0.128
-155.691	24.542	0.147	0.122
-154.677	-197.474	0.364	0.002
-153.662	-37.394	-0.197	0.105
-152.647	56.868	0.058	0.056
-151.633	-9.935	0.127	0.085
-150.618	-120.737	-0.072	-0.012
-149.604	276.102	0.133	-0.236
-148.589	743.335	0.067	0.181
-147.574	-200.000	-0.006	-0.112
-146.560	765.036	0.039	-0.105
-145.545	-200.000	-0.030	-0.274
-144.531	800.000	0.040	0.159
-143.516	-200.000	-0.017	0.117
-142.502	75.541	0.163	0.172
-141.487	-39.494	-0.097	0.051
-140.472	520.888	-0.055	-0.128
-139.458	208.738	-0.181	-0.283
-138.443	-29.562	-0.110	0.063
-137.429	-171.647	0.349	-0.012
-136.414	-50.597	-0.253	0.119
-135.399	-137.393	-0.372	-0.042
-134.385	638.692	0.074	-0.188
-133.370	-110.632	-0.067	0.014
-132.356	-200.000	-0.030	-0.265
-131.341	800.000	-0.037	-0.159
-130.326	-117.952	0.297	0.053
-129.312	-47.555	-0.110	0.053
-128.297	257.685	-0.266	-0.457
-127.283	-153.706	-0.250	0.017
-126.268	-25.079	-0.270	-0.160
-125.253	800.000	0.094	-0.363
-124.239	137.781	0.052	0.069
-123.224	-144.995	0.219	-0.020
-122.210	-38.980	0.152	-0.080
-121.195	-45.815	-0.076	0.037
