DTS Sentinel unit serial number:	SN413079Multiplexer serial number:	ORYXHardware model number:	OX4-SRSoftware version number:	ORYX F/W v4.00 Oryx Data Collector v3.7.2.0data status	okinstallation	princeton_trtdifferential loss correction	single-endedforward channel	channel 1reverse channel	N/Adate	2019/09/17time	06:18:35forward acquisition time	60.00reverse acquisition time	0.00gamma	496.2192k internal	0.2327k external	0.2327temperature offset calibration	0.9970default loss term (dB/km)	0.3790temperature slope calibration	1.0000multiplexer offset coefficient	1.0000multiplexer slope coefficient	1.0000fibre end	0.00T internal ref (°C)	28.42T ext. ref 1 (°C)	0.14T ext. ref 2 (°C)	21.83length (m)	temperature (°C)	Stokes	anti-Stokes-747.200	383.262	-0.021	-0.043
-746.185	13.494	-0.046	0.036
-745.171	594.937	-0.045	0.113
-744.156	-61.666	-0.064	0.027
-743.142	-171.992	-0.134	-0.004
-742.127	-200.000	-0.010	0.152
-741.112	-31.976	-0.152	0.086
-740.098	-5.203	-0.282	0.195
-739.083	27.758	-0.212	-0.180
-738.069	167.970	0.252	0.361
-737.054	800.000	-0.092	0.280
-736.039	681.627	-0.143	-0.377
-735.025	65.564	0.034	0.034
-734.010	64.557	-0.207	-0.211
-732.996	-63.936	-0.279	-0.115
-731.981	-193.515	-0.287	-0.002
-730.966	217.097	-0.077	-0.124
-729.952	97.876	0.112	0.130
-728.937	9.696	-0.398	-0.304
-727.923	-80.915	0.136	-0.045
-726.908	-169.553	-0.407	-0.015
-725.894	800.000	-0.035	0.108
-724.879	-55.978	0.066	-0.029
-723.864	21.548	-0.220	-0.181
-722.850	-70.608	0.064	0.024
-721.835	288.450	0.104	-0.189
-720.821	800.000	0.041	0.173
-719.806	-102.971	-0.242	0.058
-718.791	67.601	0.081	-0.083
-717.777	-68.454	-0.287	-0.112
-716.762	-88.737	-0.046	-0.014
-715.748	176.110	-0.187	0.273
-714.733	-41.782	0.304	0.157
-713.718	-166.009	-0.222	0.010
-712.704	687.992	-0.094	0.247
-711.689	133.670	0.094	-0.122
-710.675	75.068	0.016	-0.017
-709.660	-200.000	0.132	0.000
-708.645	-200.000	-0.003	-0.171
-707.631	-200.000	-0.006	0.136
-706.616	63.617	-0.076	-0.076
-705.602	340.266	-0.182	0.358
-704.587	-200.000	0.021	-0.155
-703.572	17.353	-0.195	-0.156
-702.558	112.090	-0.171	0.208
-701.543	800.000	-0.054	-0.231
-700.529	220.419	-0.199	-0.322
-699.514	-137.966	-0.334	-0.038
-698.499	83.316	0.150	-0.164
-697.485	-38.326	-0.287	-0.153
-696.470	46.154	-0.204	-0.191
-695.456	-200.000	-0.005	0.098
-694.441	573.608	-0.098	-0.241
-693.426	53.315	0.179	0.172
-692.412	103.298	0.083	-0.098
-691.397	-200.000	0.009	0.419
-690.383	345.973	0.041	-0.082
-689.368	-104.220	-0.273	-0.064
-688.354	274.899	0.083	0.147
-687.339	790.717	-0.030	0.083
-686.324	6.237	0.073	0.055
-685.310	-200.000	0.009	0.293
-684.295	27.573	0.130	-0.110
-683.281	-200.000	-0.029	-0.212
-682.266	800.000	0.007	0.023
-681.251	-152.411	-0.224	0.016
-680.237	-29.539	-0.275	-0.158
-679.222	-200.000	-0.025	-0.210
-678.208	-6.865	0.309	-0.211
-677.193	-120.105	-0.180	0.031
-676.178	-111.170	0.389	0.080
-675.164	-14.147	-0.346	-0.224
-674.149	235.730	0.287	-0.476
-673.135	-107.267	-0.149	0.033
-672.120	175.745	-0.118	0.172
-671.105	13.829	-0.208	0.163
-670.091	800.000	0.070	0.305
-669.076	-37.980	0.331	0.177
-668.062	695.982	-0.051	0.136
-667.047	-120.045	-0.065	0.011
-666.032	-200.000	0.036	-0.169
-665.018	-125.233	-0.190	-0.029
-664.003	-194.046	0.062	0.001
-662.989	-45.171	-0.155	0.077
-661.974	-57.640	-0.168	0.074
-660.959	103.616	0.140	-0.165
-659.945	198.285	-0.107	-0.164
-658.930	76.093	0.161	-0.171
-657.916	62.787	-0.159	0.160
-656.901	800.000	0.066	0.222
-655.886	-53.917	0.123	-0.056
-654.872	17.055	0.228	0.182
-653.857	-200.000	-0.069	-0.474
-652.843	567.716	-0.022	-0.053
-651.828	243.014	0.049	-0.083
-650.814	-59.984	-0.064	0.028
-649.799	-101.130	-0.127	-0.031
-648.784	10.114	-0.139	0.106
-647.770	11.680	-0.241	0.186
-646.755	-101.429	0.349	0.085
-645.741	6.079	-0.366	0.273
-644.726	-106.843	0.242	-0.054
-643.711	-85.977	-0.192	-0.060
-642.697	86.461	0.194	-0.214
-641.682	-200.000	-0.012	-0.306
-640.668	800.000	-0.068	-0.208
-639.653	651.565	0.100	-0.258
-638.638	-42.311	0.567	0.291
-637.624	105.606	0.064	-0.076
-636.609	-90.558	-0.490	-0.142
-635.595	800.000	0.096	0.388
-634.580	230.404	-0.185	-0.303
-633.565	-123.610	0.231	0.037
-632.551	58.258	0.269	0.265
-631.536	92.595	-0.241	0.272
-630.522	147.363	-0.212	-0.287
-629.507	203.795	0.150	-0.233
-628.492	-158.864	-0.107	0.006
-627.478	-22.897	-0.317	0.192
-626.463	-10.713	-0.260	0.172
-625.449	-2.526	-0.241	-0.169
-624.434	-66.741	0.201	-0.080
-623.419	-172.971	0.093	0.003
-622.405	-36.189	-0.368	0.199
-621.390	72.410	-0.148	-0.154
-620.376	354.843	0.096	0.191
-619.361	-200.000	-0.058	-0.277
-618.346	-200.000	-0.012	0.244
-617.332	-200.000	-0.004	0.169
-616.317	-46.501	-0.211	0.104
-615.303	-28.308	-0.348	-0.202
-614.288	-200.000	0.030	-0.248
-613.273	-200.000	-0.008	-0.269
-612.259	143.875	0.140	0.187
-611.244	-59.939	-0.051	-0.022
-610.230	-162.287	0.184	-0.009
-609.215	113.641	-0.072	0.087
-608.201	-82.942	0.306	-0.099
-607.186	-27.920	-0.161	0.093
-606.171	106.238	-0.132	-0.157
-605.157	-159.316	-0.284	0.016
-604.142	800.000	0.024	-0.081
-603.128	-200.000	0.034	-0.160
-602.113	-200.000	-0.005	0.153
-601.098	-200.000	-0.031	-0.349
-600.084	-200.000	0.082	-0.397
-599.069	-200.000	0.004	0.047
-598.055	-86.064	0.169	-0.052
-597.040	159.675	-0.081	-0.113
-596.025	-86.560	-0.438	0.135
-595.011	-59.982	0.171	-0.073
-593.996	-200.000	0.061	-0.367
-592.982	-98.901	-0.153	0.039
-591.967	-125.218	-0.081	0.012
-590.952	-200.000	0.000	-0.424
-589.938	-6.253	-0.163	-0.111
-588.923	381.531	-0.099	0.204
-587.909	-107.777	-0.045	-0.010
-586.894	800.000	-0.113	0.314
-585.879	141.909	0.067	-0.089
-584.865	800.000	-0.015	-0.056
-583.850	-127.772	0.066	0.010
-582.836	-63.823	-0.392	-0.161
-581.821	701.747	0.088	-0.232
-580.806	11.415	-0.157	-0.120
-579.792	269.460	-0.027	0.048
-578.777	-200.000	0.039	0.215
-577.763	110.524	-0.166	0.200
-576.748	775.230	0.097	0.264
-575.733	-83.036	-0.217	0.070
-574.719	62.176	0.211	-0.211
-573.704	-200.000	0.021	0.187
-572.690	634.456	-0.072	-0.183
-571.675	470.694	-0.118	0.266
-570.661	800.000	-0.034	0.135
-569.646	800.000	-0.089	0.278
-568.631	124.655	0.204	0.257
-567.617	369.336	0.192	-0.390
-566.602	-200.000	-0.038	-0.333
-565.588	800.000	-0.086	-0.280
-564.573	800.000	-0.053	-0.198
-563.558	85.309	0.050	0.054
-562.544	-200.000	0.016	0.113
-561.529	512.317	-0.039	-0.090
-560.515	61.467	0.204	-0.203
-559.500	470.723	0.066	-0.150
-558.485	-200.000	0.026	0.224
-557.471	-142.440	0.183	0.018
-556.456	-2.517	0.302	-0.212
-555.442	-54.803	-0.093	-0.042
-554.427	292.634	0.194	-0.354
-553.412	203.878	0.010	0.015
-552.398	800.000	-0.014	-0.058
-551.383	-180.150	0.283	0.006
-550.369	299.060	-0.262	0.482
-549.354	34.593	0.011	0.009
-548.339	-118.665	0.317	-0.056
-547.325	-200.000	0.034	-0.309
-546.310	-113.027	-0.222	-0.044
-545.296	-200.000	0.023	0.128
-544.281	800.000	0.018	-0.050
-543.266	7.735	-0.146	-0.109
-542.252	-200.000	0.014	0.088
-541.237	-200.000	0.004	0.189
-540.223	73.995	-0.185	0.194
-539.208	145.061	-0.172	0.230
-538.193	-200.000	-0.002	-0.111
-537.179	129.682	0.059	-0.076
-536.164	38.478	0.243	0.216
-535.150	284.579	0.158	0.285
-534.135	-200.000	-0.040	0.309
-533.121	-110.386	0.044	-0.009
-532.106	153.035	0.086	-0.118
-531.091	-200.000	-0.033	0.280
-530.077	362.596	-0.092	-0.185
-529.062	-4.586	0.230	-0.158
-528.048	223.586	0.111	-0.180
-527.033	-18.928	-0.267	-0.166
-526.018	343.590	-0.071	0.140
-525.004	-124.935	0.134	0.021
-523.989	183.457	0.278	-0.411
-522.975	-20.531	0.300	0.184
-521.960	-26.106	-0.116	-0.068
-520.945	-137.291	-0.187	0.021
-519.931	-6.289	-0.146	-0.100
-518.916	-120.176	0.127	-0.022
-517.902	-75.015	-0.175	-0.063
-516.887	1.165	-0.130	-0.093
-515.872	130.338	0.178	-0.227
-514.858	-88.032	0.417	0.125
-513.843	20.753	-0.056	0.045
-512.829	-200.000	-0.021	0.388
-511.814	-60.846	-0.106	0.045
-510.799	-72.925	-0.138	0.051
-509.785	-200.000	0.052	0.343
-508.770	-2.773	-0.162	-0.113
-507.756	-16.545	0.101	-0.064
-506.741	-43.315	-0.341	0.172
-505.726	379.586	0.060	-0.124
-504.712	248.398	0.121	0.205
-503.697	-19.761	-0.219	0.135
-502.683	263.426	-0.159	0.277
-501.668	-105.318	-0.098	0.022
-500.653	-42.621	-0.159	-0.081
-499.639	512.165	-0.061	0.142
-498.624	117.510	0.106	-0.130
-497.610	-200.000	0.001	0.011
-496.595	-20.440	-0.173	0.106
-495.581	800.000	0.033	0.105
-494.566	239.240	-0.189	0.314
-493.551	76.332	0.149	0.158
-492.537	432.372	-0.076	-0.165
-491.522	-94.863	0.136	-0.037
-490.508	14.368	0.227	0.177
-489.493	-100.209	-0.342	0.085
-488.478	33.146	-0.223	-0.193
-487.464	-200.000	-0.013	0.078
-486.449	-58.497	-0.223	0.097
-485.435	-200.000	-0.015	-0.122
-484.420	362.090	0.113	0.227
-483.405	-71.535	-0.237	0.088
-482.391	-117.936	-0.065	0.012
-481.376	-11.570	0.153	0.100
-480.362	-104.071	0.089	-0.021
-479.347	800.000	-0.080	-0.284
-478.332	170.159	0.141	-0.202
-477.318	-56.824	-0.142	0.063
-476.303	32.655	-0.018	0.015
-475.289	6.171	-0.246	0.182
-474.274	-96.239	0.081	0.021
-473.259	-3.543	0.109	-0.076
-472.245	-68.765	-0.211	-0.081
-471.230	212.161	0.071	0.111
-470.216	-13.847	-0.114	0.074
-469.201	21.345	0.049	-0.040
-468.186	-23.534	-0.064	-0.038
-467.172	-200.000	0.002	-0.185
-466.157	800.000	-0.146	-0.463
-465.143	-59.664	0.103	0.044
-464.128	-200.000	-0.008	0.193
-463.113	53.366	-0.099	-0.095
-462.099	-200.000	0.053	0.345
-461.084	-76.243	-0.283	-0.099
-460.070	7.302	0.089	0.066
-459.055	166.207	0.126	0.178
-458.040	800.000	-0.032	0.090
-457.026	26.946	-0.083	-0.069
-456.011	-199.152	0.188	-0.001
-454.997	-200.000	-0.003	0.098
-453.982	-109.589	-0.194	0.041
-452.968	-7.515	-0.213	0.144
-451.953	2.400	0.341	-0.246
-450.938	1.400	-0.085	0.061
-449.924	127.274	0.307	0.388
-448.909	659.047	0.059	-0.150
-447.895	-52.392	-0.410	-0.189
-446.880	102.060	0.151	-0.176
-445.865	-45.905	0.250	-0.123
-444.851	-36.828	0.360	-0.192
-443.836	-61.159	-0.098	-0.041
-442.822	800.000	0.144	0.406
-441.807	207.661	0.077	0.120
-440.792	14.098	0.277	-0.215
-439.778	-200.000	-0.020	-0.127
-438.763	185.705	0.166	-0.246
-437.749	-200.000	0.007	0.039
-436.734	800.000	0.059	0.248
-435.719	41.354	-0.063	-0.057
-434.705	33.994	-0.456	-0.395
-433.690	79.573	0.085	-0.091
-432.676	-45.078	-0.018	0.009
-431.661	546.018	0.054	0.130
-430.646	6.726	-0.133	0.099
-429.632	-21.094	0.087	0.053
-428.617	194.041	0.137	0.207
-427.603	386.768	-0.065	0.134
-426.588	800.000	0.038	0.130
-425.573	-129.453	-0.314	-0.043
-424.559	44.398	0.065	0.059
-423.544	-109.309	-0.200	-0.042
-422.530	-141.624	-0.110	-0.011
-421.515	154.208	0.072	-0.098
-420.500	5.888	-0.290	0.214
-419.486	26.175	0.111	-0.093
-418.471	-16.244	-0.146	0.092
-417.457	183.262	0.019	0.028
-416.442	86.797	-0.114	0.125
-415.428	157.388	0.068	0.094
-414.413	91.326	0.097	0.108
-413.398	-200.000	0.077	0.533
-412.384	-200.000	-0.009	0.071
-411.369	800.000	0.087	-0.251
-410.355	-52.027	-0.260	-0.120
-409.340	-72.546	0.061	-0.022
-408.325	-99.087	0.058	0.015
-407.311	10.251	-0.077	-0.058
-406.296	589.274	0.031	-0.077
-405.282	-200.000	0.003	-0.031
-404.267	800.000	0.081	-0.244
-403.252	-78.680	-0.231	0.079
-402.238	-200.000	-0.011	-0.133
-401.223	118.351	0.029	0.035
-400.209	-16.259	0.281	-0.177
-399.194	-200.000	-0.036	0.213
-398.179	35.015	0.103	-0.090
-397.165	-57.659	0.159	-0.069
-396.150	-1.036	-0.205	0.144
-395.136	-77.494	0.266	0.092
-394.121	414.944	-0.101	0.213
-393.106	79.890	0.096	-0.103
-392.092	-22.547	0.305	-0.183
-391.077	-122.293	-0.424	-0.069
-390.063	-81.295	0.115	0.038
-389.048	119.080	0.145	0.178
-388.033	800.000	-0.058	0.167
-387.019	-75.930	-0.414	-0.146
-386.004	21.497	-0.152	-0.123
-384.990	-59.073	0.406	-0.174
-383.975	-11.519	0.247	-0.162
-382.960	-133.951	-0.200	0.025
-381.946	-35.092	0.361	-0.195
-380.931	-74.554	0.166	0.059
-379.917	256.590	-0.058	0.099
-378.902	31.046	0.195	0.166
-377.888	250.548	-0.053	0.089
-376.873	-188.146	0.354	0.004
-375.858	800.000	0.164	-0.470
-374.844	129.461	0.190	-0.242
-373.829	495.113	-0.021	0.047
-372.815	12.530	-0.161	-0.123
-371.800	365.632	0.137	0.274
-370.785	-7.013	-0.184	0.124
-369.771	-100.938	0.166	-0.040
-368.756	297.477	-0.158	0.289
-367.742	566.969	0.059	-0.142
-366.727	800.000	0.138	0.445
-365.712	88.429	0.132	0.145
-364.698	-200.000	0.011	0.092
-363.683	8.556	-0.269	0.201
-362.669	331.510	0.024	-0.047
-361.654	60.061	0.164	0.161
-360.639	-119.916	-0.257	-0.044
-359.625	-200.000	-0.002	-0.487
-358.610	-63.799	-0.049	0.020
-357.596	800.000	-0.141	0.439
-356.581	-71.280	0.258	0.096
-355.566	-200.000	-0.014	-0.085
-354.552	-53.032	-0.164	-0.075
-353.537	-59.166	0.137	-0.059
-352.523	11.574	0.330	0.251
-351.508	-57.861	-0.040	0.017
-350.493	-165.462	0.167	-0.007
-349.479	139.621	-0.104	0.136
-348.464	498.356	-0.076	0.174
-347.450	466.246	0.136	-0.302
-346.435	73.943	-0.374	0.390
-345.420	-200.000	-0.114	0.572
-344.406	26.314	0.179	0.149
-343.391	-144.389	-0.239	-0.022
-342.377	-69.030	-0.344	-0.131
-341.362	800.000	0.104	-0.349
-340.348	-200.000	-0.018	-0.285
-339.333	478.892	0.087	0.197
-338.318	-71.441	-0.252	-0.094
-337.304	-48.667	0.111	0.053
-336.289	342.091	-0.263	0.510
-335.275	180.179	-0.241	0.350
-334.260	83.080	0.248	0.268
-333.245	-32.928	-0.289	0.159
-332.231	800.000	-0.026	-0.087
-331.216	-68.128	-0.178	-0.069
-330.202	-200.000	-0.151	0.001
-329.187	800.000	-0.037	-0.123
-328.172	-114.084	0.272	-0.052
-327.158	-114.279	0.174	0.033
-326.143	-83.646	-0.267	0.085
-325.129	296.932	0.148	-0.269
-324.114	18.397	0.085	-0.068
-323.099	200.111	-0.251	-0.382
-322.085	304.096	-0.111	-0.205
-321.070	-138.442	0.252	0.028
-320.056	131.237	0.113	-0.143
-319.041	-41.215	0.118	-0.061
-318.026	-11.616	0.179	0.117
-317.012	800.000	0.117	0.363
-315.997	-167.108	-0.537	-0.022
-314.983	377.097	-0.055	0.111
-313.968	278.413	-0.021	-0.038
-312.953	800.000	0.100	0.312
-311.939	283.705	-0.073	0.131
-310.924	-121.731	-0.418	-0.069
-309.910	21.979	0.172	0.139
-308.895	800.000	0.049	-0.162
-307.880	-138.990	0.384	0.041
-306.866	-200.000	0.011	-0.068
-305.851	309.919	-0.092	-0.171
-304.837	28.913	-0.296	0.248
-303.822	-141.356	0.129	0.013
-302.807	59.819	-0.066	0.064
-301.793	498.264	0.074	-0.169
-300.778	-200.000	-0.016	-0.289
-299.764	-48.765	0.200	-0.095
-298.749	800.000	-0.067	-0.262
-297.735	-200.000	-0.042	-0.217
-296.720	-9.131	0.225	0.149
-295.705	-169.602	-0.145	0.005
-294.691	128.851	0.050	0.063
-293.676	111.709	0.071	0.084
-292.662	313.834	-0.208	0.387
-291.647	127.314	-0.149	-0.188
-290.632	-95.070	0.151	-0.040
-289.618	70.313	-0.250	-0.256
-288.603	414.432	0.139	0.294
-287.589	403.123	0.068	-0.142
-286.574	800.000	0.095	-0.282
-285.559	444.701	-0.077	0.167
-284.545	566.158	0.107	0.257
-283.530	-75.865	0.459	-0.161
-282.516	800.000	0.104	-0.320
-281.501	251.114	0.143	-0.241
-280.486	206.683	0.149	-0.229
-279.472	-123.724	0.344	-0.054
-278.457	-200.000	-0.010	0.150
-277.443	161.176	-0.138	-0.190
-276.428	115.702	0.105	0.127
-275.413	-83.149	0.053	-0.017
-274.399	800.000	0.066	-0.227
-273.384	-89.243	-0.106	0.031
-272.370	800.000	-0.008	0.026
-271.355	170.521	-0.231	-0.328
-270.340	-91.521	0.274	0.077
-269.326	-200.000	0.000	0.262
-268.311	-192.008	0.256	0.002
-267.297	10.892	0.446	0.337
-266.282	-200.000	-0.008	-0.090
-265.267	-200.000	0.009	-0.266
-264.253	274.138	0.097	0.170
-263.238	10.465	-0.146	0.110
-262.224	107.569	0.186	-0.219
-261.209	-109.655	0.227	0.047
-260.195	360.077	-0.151	0.299
-259.180	-200.000	-0.020	0.108
-258.165	-200.000	0.037	0.288
-257.151	-164.571	-0.242	0.011
-256.136	643.450	-0.134	0.337
-255.122	800.000	0.148	-0.449
-254.107	-86.308	-0.134	0.041
-253.092	-200.000	-0.008	-0.259
-252.078	-200.000	0.106	-0.518
-251.063	-37.906	0.064	-0.034
-250.049	-86.058	-0.420	0.128
-249.034	53.822	0.305	0.290
-248.019	-17.400	-0.032	-0.020
-247.005	21.863	0.310	0.250
-245.990	276.772	0.136	0.239
-244.976	396.506	-0.119	0.246
-243.961	800.000	0.048	-0.138
-242.946	220.721	-0.130	0.207
-241.932	-52.139	-0.345	0.158
-240.917	71.854	0.141	-0.145
-239.903	-171.957	0.367	0.012
-238.888	524.322	-0.090	-0.210
-237.873	800.000	0.101	-0.276
-236.859	101.694	0.156	0.180
-235.844	-96.901	-0.111	0.029
-234.830	250.562	-0.148	-0.248
-233.815	800.000	-0.043	-0.134
-232.800	-52.377	-0.213	-0.097
-231.786	-136.245	0.143	0.017
-230.771	-70.627	0.274	-0.102
-229.757	-146.346	0.047	0.004
-228.742	-200.000	0.004	-0.313
-227.727	-115.850	-0.150	-0.028
-226.713	396.714	0.071	0.147
-225.698	800.000	-0.034	0.099
-224.684	-143.392	-0.235	-0.022
-223.669	30.218	-0.290	0.245
-222.655	1.929	-0.146	0.104
-221.640	-45.394	-0.191	0.094
-220.625	311.802	-0.035	-0.065
-219.611	345.908	-0.015	0.028
-218.596	62.827	0.119	-0.117
-217.582	169.545	-0.157	-0.222
-216.567	152.570	-0.253	0.341
-215.552	67.603	-0.127	0.129
-214.538	283.053	0.089	0.157
-213.523	-41.442	0.173	-0.088
-212.509	-140.573	-0.307	-0.031
-211.494	-8.915	0.316	-0.209
-210.479	209.805	-0.204	-0.316
-209.465	-200.000	-0.052	-0.312
-208.450	-130.519	0.166	-0.022
-207.436	-200.000	0.083	-0.402
-206.421	-200.000	0.002	0.066
-205.406	14.007	-0.311	0.239
-204.392	-200.000	0.013	0.136
-203.377	239.418	0.067	0.111
-202.363	172.706	0.108	-0.154
-201.348	800.000	0.119	0.370
-200.333	205.801	-0.198	0.303
-199.319	225.958	0.142	-0.226
-198.304	-200.000	-0.003	0.026
-197.290	-167.098	0.313	0.013
-196.275	-141.010	0.186	-0.019
-195.260	-200.000	0.013	0.128
-194.246	380.553	0.057	-0.116
-193.231	59.927	0.206	0.200
-192.217	-200.000	0.010	0.124
-191.202	-121.090	0.306	-0.051
-190.187	-20.032	0.173	-0.105
-189.173	6.775	0.397	-0.292
-188.158	-192.842	-0.103	0.001
-187.144	-138.287	0.269	-0.029
-186.129	800.000	0.080	-0.258
-185.114	84.238	0.169	-0.182
-184.100	-200.000	0.045	-0.224
-183.085	-110.370	0.266	0.055
-182.071	159.103	-0.134	0.184
-181.056	800.000	0.038	0.139
-180.042	-127.515	-0.272	-0.039
-179.027	-200.000	0.017	-0.384
-178.012	9.213	-0.148	0.111
-176.998	206.117	-0.257	0.394
-175.983	142.469	-0.115	-0.150
-174.969	-200.000	-0.015	-0.265
-173.954	-131.912	-0.081	0.010
-172.939	-105.647	-0.314	0.070
-171.925	-200.000	0.000	0.061
-170.910	139.680	0.185	-0.240
-169.896	-60.943	0.470	-0.196
-168.881	-87.502	0.098	0.029
-167.866	171.574	-0.238	-0.337
-166.852	-200.000	-0.019	0.169
-165.837	-123.198	0.229	-0.036
-164.823	800.000	0.068	0.241
-163.808	742.021	0.069	-0.183
-162.793	-47.910	-0.042	-0.020
-161.779	104.993	0.160	0.186
-160.764	-200.000	-0.054	0.313
-159.750	-64.960	-0.137	-0.055
-158.735	182.010	0.173	-0.251
-157.720	97.684	-0.147	-0.166
-156.706	-31.516	0.134	0.074
-155.691	-200.000	0.023	-0.247
-154.677	-200.000	-0.046	0.284
-153.662	106.001	-0.155	-0.181
-152.647	-80.379	-0.143	0.047
-151.633	-154.888	0.046	0.003
-150.618	51.026	-0.111	0.104
-149.604	12.149	0.140	-0.106
-148.589	72.835	-0.138	-0.142
-147.574	115.265	0.085	-0.103
-146.560	800.000	0.075	-0.243
-145.545	-200.000	-0.080	0.554
-144.531	497.181	0.024	0.054
-143.516	20.627	-0.107	0.085
-142.502	123.352	0.196	0.242
-141.487	67.664	0.123	0.123
-140.472	97.937	0.106	-0.120
-139.458	179.807	-0.092	0.133
-138.443	800.000	0.050	-0.173
-137.429	800.000	0.048	-0.162
-136.414	158.327	0.063	-0.086
-135.399	32.785	0.143	0.121
-134.385	11.393	0.205	0.155
-133.370	35.873	0.031	-0.026
-132.356	689.694	-0.059	0.152
-131.341	800.000	0.075	0.258
-130.326	85.314	-0.208	-0.225
-129.312	-109.078	0.330	-0.069
-128.297	800.000	-0.079	0.296
-127.283	684.306	-0.102	0.262
-126.268	-41.613	0.289	0.146
-125.253	293.755	0.074	-0.132
-124.239	-200.000	-0.023	-0.375
-123.224	-200.000	-0.058	-0.345
-122.210	-115.583	-0.386	0.071
-121.195	-154.935	0.190	-0.012
-120.180	-111.280	-0.129	0.026
