DTS Sentinel unit serial number:	SN413079Multiplexer serial number:	ORYXHardware model number:	OX4-SRSoftware version number:	ORYX F/W v4.00 Oryx Data Collector v3.7.2.0data status	okinstallation	princeton_trtdifferential loss correction	single-endedforward channel	channel 1reverse channel	N/Adate	2019/09/13time	11:34:35forward acquisition time	60.00reverse acquisition time	0.00gamma	496.2192k internal	0.2314k external	0.2314temperature offset calibration	1.0149default loss term (dB/km)	0.3790temperature slope calibration	1.0000multiplexer offset coefficient	1.0000multiplexer slope coefficient	1.0000fibre end	0.00T internal ref (°C)	32.87T ext. ref 1 (°C)	4.40T ext. ref 2 (°C)	30.11length (m)	temperature (°C)	Stokes	anti-Stokes-747.200	596.136	-0.018	-0.046
-746.185	-200.000	-0.026	0.214
-745.171	-200.000	0.000	0.110
-744.156	-200.000	-0.053	0.360
-743.142	-200.000	-0.014	0.363
-742.127	800.000	0.006	-0.025
-741.112	-78.549	0.110	-0.038
-740.098	-26.793	-0.102	0.060
-739.083	-200.000	0.019	0.153
-738.069	-200.000	0.023	0.162
-737.054	-20.889	-0.190	0.118
-736.039	-132.492	-0.251	-0.033
-735.025	209.042	-0.025	-0.039
-734.010	-82.135	-0.103	-0.034
-732.996	-109.313	-0.201	-0.043
-731.981	-200.000	-0.037	0.169
-730.966	-200.000	0.028	0.134
-729.952	-99.502	0.244	0.062
-728.937	-124.266	-0.356	0.056
-727.923	-200.000	0.020	-0.237
-726.908	-137.553	0.257	-0.029
-725.894	-102.285	0.263	0.064
-724.879	3.669	-0.262	0.194
-723.864	30.932	0.264	-0.229
-722.850	74.272	-0.080	0.085
-721.835	-189.398	-0.092	0.001
-720.821	-71.304	0.166	-0.063
-719.806	38.810	0.218	0.197
-718.791	-200.000	-0.025	-0.167
-717.777	-200.000	0.075	0.468
-716.762	-49.201	0.125	-0.060
-715.748	-200.000	0.003	-0.035
-714.733	-107.155	-0.183	0.041
-713.718	59.469	0.078	0.077
-712.704	-200.000	0.015	0.277
-711.689	-11.802	0.107	-0.071
-710.675	-65.497	-0.101	-0.041
-709.660	14.736	0.196	-0.155
-708.645	19.275	-0.307	0.249
-707.631	-138.026	0.321	0.036
-706.616	34.980	-0.249	-0.221
-705.602	18.407	-0.065	0.052
-704.587	-73.330	0.285	0.105
-703.572	-28.563	-0.286	0.167
-702.558	795.526	0.067	0.187
-701.543	463.711	0.100	-0.227
-700.529	-24.820	-0.031	0.019
-699.514	-200.000	0.009	0.203
-698.499	-47.717	0.330	0.162
-697.485	68.664	0.071	-0.074
-696.470	-92.752	-0.320	-0.091
-695.456	308.393	0.078	-0.147
-694.441	-200.000	-0.320	0.000
-693.426	-152.382	-0.109	0.008
-692.412	-99.226	-0.187	-0.048
-691.397	-96.219	-0.269	-0.072
-690.383	-102.693	0.083	0.020
-689.368	-95.541	0.089	0.024
-688.354	-128.801	-0.450	-0.064
-687.339	-176.042	0.296	0.008
-686.324	-99.373	-0.196	0.050
-685.310	-65.948	0.165	0.067
-684.295	467.436	-0.167	0.380
-683.281	-6.287	0.300	-0.207
-682.266	-133.706	-0.330	-0.042
-681.251	-86.595	0.234	0.073
-680.237	-115.750	-0.106	-0.020
-679.222	15.595	-0.149	0.119
-678.208	65.410	-0.187	-0.191
-677.193	305.080	0.138	-0.259
-676.178	328.592	0.121	-0.236
-675.164	41.802	-0.168	0.154
-674.149	-200.000	-0.032	0.300
-673.135	239.687	-0.040	0.068
-672.120	161.132	-0.165	-0.233
-671.105	800.000	-0.117	-0.382
-670.091	-200.000	-0.008	-0.368
-669.076	15.072	-0.111	-0.088
-668.062	800.000	0.094	-0.272
-667.047	68.244	0.157	-0.163
-666.032	800.000	-0.044	-0.165
-665.018	-122.588	0.344	-0.056
-664.003	-200.000	-0.016	0.215
-662.989	7.215	0.233	0.176
-661.974	156.001	0.179	-0.249
-660.959	-93.230	0.078	0.022
-659.945	10.962	0.235	-0.181
-658.930	58.896	0.243	-0.241
-657.916	9.728	-0.246	-0.189
-656.901	-200.000	0.069	-0.345
-655.886	-122.703	0.269	-0.044
-654.872	-200.000	0.016	-0.208
-653.857	137.132	-0.251	0.332
-652.843	117.419	0.194	0.241
-651.828	-200.000	0.026	-0.140
-650.814	-20.930	0.156	-0.097
-649.799	622.262	0.092	-0.235
-648.784	28.517	0.350	0.299
-647.770	124.919	0.080	-0.102
-646.755	598.896	0.130	0.326
-645.741	-200.000	0.002	0.254
-644.726	-22.941	0.162	-0.099
-643.711	26.905	-0.242	0.205
-642.697	-169.615	0.217	-0.008
-641.682	800.000	-0.097	-0.309
-640.668	800.000	0.135	0.452
-639.653	-1.440	0.073	-0.052
-638.638	-136.119	-0.384	0.046
-637.624	-104.479	-0.165	-0.038
-636.609	800.000	0.072	-0.216
-635.595	-200.000	-0.076	-0.366
-634.580	13.110	-0.206	0.161
-633.565	-200.000	0.008	0.148
-632.551	-168.030	0.276	0.011
-631.536	800.000	0.055	-0.157
-630.522	717.652	0.085	0.229
-629.507	-9.307	0.119	-0.080
-628.492	-110.112	-0.131	-0.028
-627.478	-132.687	-0.036	0.005
-626.463	-79.871	0.287	0.097
-625.449	106.182	0.150	-0.179
-624.434	-200.000	-0.003	0.044
-623.419	70.825	-0.214	0.224
-622.405	-200.000	-0.028	-0.150
-621.390	-200.000	0.025	-0.115
-620.376	-165.327	-0.119	-0.005
-619.361	74.858	-0.123	0.131
-618.346	38.177	0.246	0.221
-617.332	335.643	0.132	0.258
-616.317	-99.946	0.259	-0.065
-615.303	78.139	0.203	-0.218
-614.288	22.098	0.337	-0.277
-613.273	-145.814	-0.464	0.042
-612.259	-200.000	-0.014	-0.275
-611.244	-64.963	0.178	0.072
-610.230	-118.881	-0.146	-0.026
-609.215	232.734	-0.027	0.045
-608.201	439.912	-0.076	-0.168
-607.186	-200.000	0.031	-0.174
-606.171	11.395	0.177	-0.137
-605.157	126.837	-0.037	0.048
-604.142	19.544	0.181	0.147
-603.128	-28.923	0.054	0.032
-602.113	136.061	-0.160	-0.211
-601.098	-67.524	0.348	0.138
-600.084	143.267	-0.097	0.130
-599.069	-85.880	-0.237	-0.074
-598.055	-18.596	-0.052	-0.032
-597.040	668.406	-0.094	-0.246
-596.025	-187.094	0.404	-0.006
-595.011	-200.000	-0.018	0.134
-593.996	340.002	0.022	-0.043
-592.982	15.545	-0.303	0.240
-591.967	-200.000	0.002	-0.067
-590.952	-195.905	-0.295	0.002
-589.938	372.348	0.120	-0.245
-588.923	31.983	0.179	-0.155
-587.909	619.892	-0.107	-0.272
-586.894	46.292	-0.210	0.196
-585.879	-109.440	0.158	0.034
-584.865	-150.718	0.112	-0.009
-583.850	-200.000	0.063	0.366
-582.836	16.071	0.242	-0.192
-581.821	510.854	-0.148	0.346
-580.806	90.645	0.088	0.099
-579.792	800.000	-0.062	-0.190
-578.777	160.201	-0.146	0.205
-577.763	98.953	-0.177	-0.205
-576.748	655.284	0.042	-0.108
-575.733	-156.876	-0.263	-0.016
-574.719	-86.545	-0.025	-0.008
-573.704	39.457	0.122	0.110
-572.690	23.934	0.123	-0.102
-571.675	-132.669	0.280	0.036
-570.661	-28.890	-0.227	0.132
-569.646	-130.277	-0.323	-0.044
-568.631	53.018	0.185	0.178
-567.617	210.117	0.168	0.266
-566.602	-200.000	-0.057	-0.337
-565.588	202.464	-0.203	-0.316
-564.573	147.619	0.101	0.137
-563.558	26.070	-0.039	0.033
-562.544	87.532	0.080	-0.089
-561.529	49.491	0.197	-0.187
-560.515	242.715	-0.070	0.118
-559.500	90.558	0.249	-0.281
-558.485	6.308	0.223	-0.167
-557.471	-20.409	-0.147	0.091
-556.456	750.241	0.048	0.130
-555.442	-104.514	0.248	-0.058
-554.427	121.332	0.301	0.377
-553.412	169.136	-0.097	-0.139
-552.398	-46.609	0.462	-0.228
-551.383	-81.875	0.267	-0.088
-550.369	209.236	-0.154	-0.243
-549.354	39.310	-0.121	-0.109
-548.339	-200.000	0.002	-0.162
-547.325	85.531	0.136	-0.150
-546.310	-113.899	-0.226	-0.044
-545.296	800.000	0.111	-0.331
-544.281	187.616	0.168	-0.252
-543.266	169.645	-0.174	-0.249
-542.252	39.539	-0.128	-0.115
-541.237	-132.748	0.214	0.028
-540.223	258.856	0.077	-0.133
-539.208	-146.090	-0.264	-0.023
-538.193	46.998	0.198	0.185
-537.179	112.176	-0.198	0.241
-536.164	-57.907	0.202	-0.089
-535.150	562.429	-0.083	-0.203
-534.135	800.000	0.062	0.219
-533.121	800.000	0.015	-0.052
-532.106	171.582	-0.073	0.105
-531.091	-63.861	0.161	0.066
-530.077	-166.455	-0.100	0.004
-529.062	18.047	-0.128	-0.103
-528.048	606.126	-0.120	-0.302
-527.033	-200.000	0.034	-0.261
-526.018	-78.773	0.015	-0.005
-525.004	88.218	0.137	0.153
-523.989	-30.942	0.235	0.133
-522.975	-76.482	-0.085	0.030
-521.960	-120.949	0.010	0.002
-520.945	31.606	-0.057	-0.049
-519.931	716.369	0.058	0.155
-518.916	-118.970	0.141	-0.025
-517.902	-123.256	-0.091	-0.015
-516.887	135.778	0.138	0.180
-515.872	681.354	-0.083	-0.217
-514.858	-19.209	-0.220	0.137
-513.843	-200.000	0.031	0.201
-512.829	-53.558	-0.192	-0.088
-511.814	-19.449	0.312	-0.194
-510.799	-200.000	-0.007	-0.379
-509.785	-78.023	-0.251	-0.087
-508.770	-6.364	0.289	-0.198
-507.756	-162.067	0.433	0.022
-506.741	-44.492	-0.198	-0.100
-505.726	-76.781	0.111	-0.039
-504.712	152.571	0.143	-0.196
-503.697	200.569	-0.126	0.195
-502.683	-200.000	-0.043	0.213
-501.668	4.460	0.233	-0.171
-500.653	353.173	-0.040	0.080
-499.639	59.594	0.266	0.263
-498.624	-157.908	0.307	-0.018
-497.610	198.352	-0.312	-0.478
-496.595	-200.000	0.019	0.161
-495.581	-64.709	-0.415	-0.169
-494.566	434.870	-0.109	-0.238
-493.551	-166.877	0.350	0.014
-492.537	-10.711	-0.193	0.128
-491.522	92.668	0.210	-0.238
-490.508	305.361	-0.159	-0.296
-489.493	-200.000	-0.026	0.223
-488.478	-6.885	-0.168	0.115
-487.464	174.683	-0.017	-0.025
-486.449	-200.000	-0.023	-0.257
-485.435	-29.708	0.249	-0.143
-484.420	332.922	-0.056	0.109
-483.405	-57.500	0.056	-0.025
-482.391	-137.826	0.084	-0.009
-481.376	800.000	0.092	-0.361
-480.362	-136.778	-0.377	-0.044
-479.347	262.810	-0.046	-0.081
-478.332	800.000	0.124	0.459
-477.318	-62.586	0.261	0.109
-476.303	800.000	-0.091	-0.297
-475.289	153.833	0.118	-0.162
-474.274	23.743	-0.125	0.103
-473.259	-43.143	0.325	0.165
-472.245	246.550	-0.054	-0.092
-471.230	75.494	-0.193	0.205
-470.216	-77.231	0.250	0.087
-469.201	-41.937	0.273	-0.140
-468.186	19.441	-0.143	-0.115
-467.172	-106.749	0.193	-0.043
-466.157	-200.000	0.011	-0.138
-465.143	-200.000	0.009	0.094
-464.128	75.746	-0.045	-0.047
-463.113	137.657	0.152	-0.199
-462.099	-50.287	-0.255	0.121
-461.084	-200.000	0.030	0.260
-460.070	-184.756	-0.189	0.003
-459.055	-200.000	0.047	0.219
-458.040	149.885	-0.067	0.091
-457.026	370.738	-0.078	0.158
-456.011	-200.000	0.083	0.402
-454.997	-170.325	0.235	-0.008
-453.982	98.984	-0.355	-0.411
-452.968	-200.000	0.035	-0.214
-451.953	213.920	0.239	-0.379
-450.938	-40.806	0.201	-0.104
-449.924	229.290	0.098	0.161
-448.909	-160.810	-0.025	-0.001
-447.895	-200.000	-0.035	0.188
-446.880	217.508	-0.070	0.112
-445.865	274.147	0.128	-0.227
-444.851	800.000	0.044	-0.124
-443.836	800.000	0.073	0.270
-442.822	800.000	-0.043	0.183
-441.807	485.363	0.109	0.248
-440.792	-101.109	-0.214	0.053
-439.778	-93.133	-0.160	-0.045
-438.763	-39.416	-0.135	-0.071
-437.749	800.000	-0.045	0.156
-436.734	91.885	0.224	-0.253
-435.719	39.407	0.033	0.030
-434.705	-200.000	-0.031	0.351
-433.690	264.930	0.182	-0.318
-432.676	800.000	-0.014	0.041
-431.661	179.033	0.171	-0.251
-430.646	-112.905	-0.392	-0.078
-429.632	-61.820	-0.230	0.096
-428.617	-190.222	-0.199	-0.002
-427.603	172.129	-0.272	0.392
-426.588	-80.914	-0.378	0.125
-425.573	32.991	-0.054	0.047
-424.559	-143.223	-0.055	-0.005
-423.544	2.618	-0.126	0.091
-422.530	82.296	-0.094	0.102
-421.515	-200.000	0.166	0.000
-420.500	274.746	0.047	-0.083
-419.486	-129.008	0.172	-0.024
-418.471	-200.000	0.003	0.219
-417.457	672.118	0.106	-0.276
-416.442	-39.019	0.225	-0.119
-415.428	47.276	-0.084	0.078
-414.413	-105.503	0.154	-0.035
-413.398	-126.560	-0.346	-0.051
-412.384	-200.000	0.041	0.258
-411.369	-25.182	0.333	0.198
-410.355	-8.752	-0.244	0.164
-409.340	-200.000	-0.026	-0.299
-408.325	163.747	-0.104	-0.147
-407.311	-140.493	-0.101	-0.010
-406.296	257.964	-0.098	-0.169
-405.282	111.479	-0.196	0.236
-404.267	30.717	-0.104	0.089
-403.252	-131.329	0.244	-0.032
-402.238	337.831	0.147	0.286
-401.223	95.008	-0.208	-0.236
-400.209	-114.886	-0.305	-0.058
-399.194	-200.000	0.009	-0.274
-398.179	-19.925	-0.323	-0.199
-397.165	94.721	-0.275	0.313
-396.150	-75.626	0.114	-0.041
-395.136	-120.279	0.110	-0.019
-394.121	-200.000	-0.054	0.338
-393.106	-5.767	0.314	-0.215
-392.092	-3.341	-0.177	0.123
-391.077	800.000	0.041	-0.119
-390.063	-107.632	0.637	-0.139
-389.048	-104.163	0.112	-0.026
-388.033	800.000	0.020	0.059
-387.019	-200.000	0.017	-0.129
-386.004	-200.000	0.044	-0.237
-384.990	-105.377	0.092	0.021
-383.975	-139.212	0.239	-0.026
-382.960	234.384	0.195	-0.321
-381.946	157.277	0.162	-0.223
-380.931	-34.379	-0.055	-0.030
-379.917	211.543	-0.080	0.125
-378.902	-137.277	-0.313	-0.036
-377.888	-7.935	-0.218	0.147
-376.873	-200.000	-0.012	0.266
-375.858	542.074	0.137	-0.326
-374.844	118.107	-0.129	0.158
-373.829	112.613	0.078	0.095
-372.815	800.000	0.035	-0.103
-371.800	800.000	-0.034	-0.102
-370.785	69.775	-0.341	-0.351
-369.771	-142.633	0.162	-0.016
-368.756	-33.784	-0.221	-0.121
-367.742	-99.247	0.229	0.058
-366.727	-90.075	-0.118	-0.034
-365.712	-62.736	-0.212	-0.088
-364.698	238.328	-0.079	0.131
-363.683	307.949	-0.115	0.215
-362.669	-99.101	0.208	-0.053
-361.654	4.900	0.155	-0.114
-360.639	-149.265	-0.113	-0.009
-359.625	110.308	0.147	0.176
-358.610	-102.439	-0.175	0.042
-357.596	-41.993	-0.215	-0.110
-356.581	-93.497	-0.227	-0.063
-355.566	364.377	-0.043	-0.086
-354.552	-71.790	-0.250	-0.093
-353.537	-200.000	-0.007	-0.087
-352.523	144.707	0.156	0.208
-351.508	-44.508	-0.119	-0.060
-350.493	22.555	-0.227	0.186
-349.479	45.546	0.101	0.093
-348.464	-31.265	-0.344	-0.193
-347.450	-200.000	-0.002	-0.014
-346.435	-200.000	0.007	0.080
-345.420	-164.684	0.208	0.009
-344.406	448.105	0.157	-0.346
-343.391	134.100	-0.052	-0.067
-342.377	-200.000	-0.008	-0.060
-341.362	-200.000	-0.001	0.332
-340.348	91.236	0.281	-0.314
-339.333	-200.000	0.029	-0.176
-338.318	-134.817	-0.321	0.039
-337.304	268.373	-0.072	0.126
-336.289	-200.000	0.001	0.127
-335.275	800.000	-0.059	-0.203
-334.260	-25.692	0.355	-0.209
-333.245	-158.803	-0.636	0.036
-332.231	-200.000	0.025	-0.301
-331.216	-103.173	0.528	-0.125
-330.202	129.923	0.225	0.287
-329.187	-142.735	-0.156	0.015
-328.172	800.000	0.013	0.048
-327.158	-106.095	0.484	-0.109
-326.143	800.000	-0.019	0.069
-325.129	800.000	0.038	-0.124
-324.114	20.434	-0.197	0.159
-323.099	592.624	0.133	0.329
-322.085	-200.000	0.001	0.186
-321.070	800.000	0.082	-0.343
-320.056	128.841	-0.062	0.079
-319.041	-83.905	-0.535	0.170
-318.026	57.061	0.020	-0.019
-317.012	-200.000	-0.031	-0.294
-315.997	432.726	-0.111	0.241
-314.983	61.299	-0.199	0.197
-313.968	-200.000	0.003	0.210
-312.953	-151.261	0.363	0.027
-311.939	653.516	0.095	0.244
-310.924	-127.075	-0.089	0.013
-309.910	800.000	0.009	0.031
-308.895	-3.734	-0.132	0.091
-307.880	-42.530	-0.091	-0.046
-306.866	800.000	-0.055	0.204
-305.851	21.713	0.183	-0.148
-304.837	-32.596	0.119	-0.066
-303.822	393.916	-0.077	-0.161
-302.807	-121.672	0.192	0.032
-301.793	-104.711	0.135	-0.031
-300.778	-200.000	-0.020	-0.172
-299.764	61.030	-0.149	-0.147
-298.749	30.457	0.054	-0.046
-297.735	-200.000	0.003	0.110
-296.720	687.761	0.081	-0.210
-295.705	-200.000	-0.019	-0.310
-294.691	52.839	-0.050	-0.047
-293.676	-110.502	-0.121	-0.025
-292.662	-65.820	0.061	-0.024
-291.647	-54.592	-0.100	-0.045
-290.632	-154.900	-0.204	0.013
-289.618	800.000	-0.140	0.477
-288.603	-40.126	0.067	0.035
-287.589	-155.879	0.106	0.007
-286.574	35.587	-0.220	0.192
-285.559	800.000	-0.062	-0.176
-284.545	-70.012	0.094	0.036
-283.530	-72.939	0.227	0.083
-282.516	11.114	-0.256	-0.195
-281.501	9.400	-0.177	0.134
-280.486	93.232	-0.117	0.132
-279.472	69.731	-0.034	-0.035
-278.457	128.579	-0.081	-0.103
-277.443	-187.045	0.430	-0.006
-276.428	-83.952	-0.149	-0.047
-275.413	800.000	-0.052	0.189
-274.399	-200.000	-0.029	0.254
-273.384	-60.611	-0.251	0.106
-272.370	-61.945	-0.197	0.082
-271.355	16.248	0.264	0.207
-270.340	-59.429	0.233	0.100
-269.326	-96.162	0.087	-0.023
-268.311	-200.000	0.057	-0.325
-267.297	-200.000	-0.020	0.176
-266.282	-174.404	-0.406	0.012
-265.267	-200.000	-0.061	0.309
-264.253	237.782	0.200	0.330
-263.238	207.371	0.170	-0.263
-262.224	406.745	-0.047	0.099
-261.209	-50.321	0.099	0.046
-260.195	49.753	0.072	0.067
-259.180	-21.726	-0.090	-0.054
-258.165	121.391	0.131	-0.162
-257.151	89.244	0.173	0.191
-256.136	-200.000	-0.033	0.156
-255.122	-162.207	0.123	0.006
-254.107	-104.734	-0.229	0.052
-253.092	47.958	-0.211	0.196
-252.078	-170.421	-0.231	0.008
-251.063	3.542	-0.138	0.100
-250.049	800.000	-0.087	0.271
-249.034	-179.255	0.352	0.008
-248.019	-200.000	0.050	0.243
-247.005	-158.667	0.154	0.009
-245.990	-114.757	-0.317	0.060
-244.976	115.299	-0.154	0.187
-243.961	-43.389	-0.467	-0.235
-242.946	624.187	-0.024	-0.060
-241.932	-200.000	-0.031	0.198
-240.917	-200.000	0.003	-0.019
-239.903	0.759	0.232	-0.165
-238.888	-85.418	0.224	0.069
-237.873	-159.316	0.314	-0.017
-236.859	229.771	-0.166	0.270
-235.844	-200.000	0.028	0.557
-234.830	145.073	0.079	0.106
-233.815	800.000	-0.019	-0.073
-232.800	264.999	0.109	0.189
-231.786	513.645	-0.136	0.314
-230.771	102.516	-0.257	0.299
-229.757	-29.027	-0.129	0.073
-228.742	501.954	0.052	0.120
-227.727	-51.475	-0.210	0.097
-226.713	-55.857	0.351	-0.156
-225.698	31.206	0.131	-0.111
-224.684	800.000	-0.011	0.031
-223.669	461.472	-0.104	-0.230
-222.655	-181.362	-0.385	-0.008
-221.640	2.346	-0.134	-0.097
-220.625	55.187	0.193	-0.185
-219.611	-11.943	-0.436	-0.284
-218.596	-91.977	0.112	-0.031
-217.582	-52.888	-0.208	0.095
-216.567	-200.000	0.030	0.153
-215.552	138.026	0.111	0.145
-214.538	198.386	-0.088	0.134
-213.523	800.000	0.039	0.165
-212.509	574.516	0.133	0.322
-211.494	-200.000	0.003	0.018
-210.479	607.883	0.059	-0.147
-209.465	-131.698	-0.207	0.027
-208.450	199.601	-0.072	-0.110
-207.436	78.898	0.215	-0.228
-206.421	387.765	-0.040	-0.082
-205.406	-84.278	-0.057	0.018
-204.392	175.425	-0.040	0.058
-203.377	10.731	-0.344	0.261
-202.363	-182.319	-0.293	0.005
-201.348	425.473	-0.099	-0.211
-200.333	418.368	-0.195	0.413
-199.319	700.259	-0.047	-0.124
-198.304	104.593	-0.200	0.234
-197.290	-200.000	-0.019	0.094
-196.275	-39.520	-0.129	-0.067
-195.260	-200.000	-0.014	0.284
-194.246	-93.279	0.279	0.077
-193.231	-150.089	0.237	-0.018
-192.217	-157.438	0.046	-0.003
-191.202	147.724	0.091	0.122
-190.187	353.797	0.100	0.198
-189.173	0.278	0.208	-0.147
-188.158	-24.843	0.184	-0.108
-187.144	277.024	0.167	-0.295
-186.129	800.000	-0.100	-0.376
-185.114	1.717	-0.208	-0.148
-184.100	32.030	0.072	-0.062
-183.085	118.427	0.085	-0.104
-182.071	800.000	-0.030	0.117
-181.056	659.723	-0.086	0.220
-180.042	79.433	0.092	-0.098
-179.027	-109.088	-0.221	0.047
-178.012	800.000	-0.019	0.069
-176.998	163.297	0.153	0.213
-175.983	-154.899	-0.414	0.027
-174.969	800.000	0.036	0.130
-173.954	-200.000	0.028	-0.203
-172.939	60.608	0.052	0.051
-171.925	-39.342	0.306	0.159
-170.910	283.898	-0.147	0.263
-169.896	104.274	0.133	0.155
-168.881	-161.098	-0.052	0.003
-167.866	-75.879	-0.235	-0.083
-166.852	357.536	0.024	0.047
-165.837	-200.000	-0.058	-0.334
-164.823	774.219	-0.097	-0.263
-163.808	414.170	0.107	-0.226
-162.793	-200.000	0.009	-0.475
-161.779	92.480	-0.046	0.052
-160.764	235.717	-0.042	-0.069
-159.750	-200.000	-0.027	0.158
-158.735	-107.878	0.328	0.071
-157.720	800.000	0.054	0.167
-156.706	800.000	-0.070	0.228
-155.691	800.000	0.018	-0.073
-154.677	126.448	0.103	-0.129
-153.662	-200.000	0.041	0.288
-152.647	723.689	0.045	0.119
-151.633	-200.000	-0.003	-0.255
-150.618	39.861	0.031	0.028
-149.604	390.788	-0.123	0.253
-148.589	-35.372	0.035	0.019
-147.574	-139.452	0.169	-0.018
-146.560	-2.069	0.106	-0.074
-145.545	-200.000	-0.008	-0.071
-144.531	-200.000	0.010	-0.091
-143.516	84.673	0.071	-0.077
-142.502	-18.249	0.314	0.195
-141.487	-41.524	-0.428	-0.218
-140.472	-200.000	-0.009	0.112
-139.458	-200.000	-0.015	0.121
-138.443	-77.021	-0.177	-0.061
-137.429	118.672	0.124	-0.151
-136.414	-108.106	0.189	0.041
-135.399	800.000	0.115	-0.315
-134.385	191.133	-0.289	-0.431
-133.370	21.300	-0.050	0.040
-132.356	39.693	0.172	-0.152
-131.341	68.792	-0.073	-0.074
-130.326	-13.918	0.270	0.173
-129.312	-200.000	0.021	-0.343
-128.297	-200.000	0.092	-0.402
-127.283	99.146	0.163	-0.186
-126.268	797.884	-0.091	0.247
-125.253	622.913	0.047	0.117
-124.239	-117.970	-0.326	-0.058
-123.224	46.298	0.045	0.041
-122.210	-200.000	-0.029	0.278
-121.195	-15.713	0.081	-0.051
