DTS Sentinel unit serial number:	SN413079Multiplexer serial number:	ORYXHardware model number:	OX4-SRSoftware version number:	ORYX F/W v4.00 Oryx Data Collector v3.7.2.0data status	okinstallation	princeton_trtdifferential loss correction	single-endedforward channel	channel 1reverse channel	N/Adate	2019/09/12time	19:01:34forward acquisition time	15.00reverse acquisition time	0.00gamma	496.2192k internal	0.2320k external	0.2320temperature offset calibration	1.0107default loss term (dB/km)	0.3790temperature slope calibration	1.0000multiplexer offset coefficient	1.0000multiplexer slope coefficient	1.0000fibre end	0.00T internal ref (°C)	32.75T ext. ref 1 (°C)	2.99T ext. ref 2 (°C)	27.28length (m)	temperature (°C)	Stokes	anti-Stokes-747.200	-200.000	0.103	0.576
-746.185	19.817	-1.192	0.970
-745.171	6.756	-0.776	-0.584
-744.156	800.000	-0.036	0.106
-743.142	800.000	-0.098	-0.431
-742.127	800.000	0.132	-0.419
-741.112	800.000	-0.179	-0.665
-740.098	73.324	-0.230	-0.243
-739.083	-32.671	0.474	0.267
-738.069	-200.000	0.015	0.422
-737.054	461.665	0.133	0.300
-736.039	22.256	-0.166	0.137
-735.025	-100.682	0.755	0.188
-734.010	575.246	-0.186	-0.460
-732.996	-24.957	-0.656	-0.393
-731.981	625.791	0.188	0.481
-730.966	-200.000	0.035	0.359
-729.952	113.331	0.439	0.538
-728.937	344.456	0.268	-0.531
-727.923	116.113	0.168	0.208
-726.908	501.913	-0.251	0.585
-725.894	-119.875	0.319	-0.055
-724.879	-142.408	0.648	-0.064
-723.864	-64.832	0.674	-0.276
-722.850	-126.264	1.125	0.170
-721.835	-98.034	0.767	0.200
-720.821	-32.548	-0.158	-0.089
-719.806	25.949	0.507	0.427
-718.791	-87.629	-1.043	0.318
-717.777	-200.000	0.062	-0.446
-716.762	-128.370	-0.651	-0.094
-715.748	800.000	-0.303	0.902
-714.733	-89.157	-0.395	0.118
-713.718	-15.992	0.343	0.220
-712.704	-200.000	0.063	-0.565
-711.689	151.691	-0.547	-0.752
-710.675	10.293	-0.328	-0.252
-709.660	-5.347	-0.559	-0.388
-708.645	-98.816	0.329	0.085
-707.631	-200.000	-0.091	0.853
-706.616	-51.410	-0.476	0.225
-705.602	102.020	-0.463	0.546
-704.587	331.592	0.410	0.797
-703.572	96.034	0.317	0.365
-702.558	-159.304	0.350	0.020
-701.543	600.420	0.209	-0.524
-700.529	94.875	-0.543	-0.624
-699.514	800.000	-0.117	-0.461
-698.499	800.000	-0.114	0.479
-697.485	108.992	-0.528	0.637
-696.470	-96.680	-0.876	-0.233
-695.456	-143.918	0.463	-0.044
-694.441	142.177	0.346	0.463
-693.426	-121.999	0.985	0.163
-692.412	-109.462	1.293	0.276
-691.397	50.479	-0.305	-0.291
-690.383	106.585	0.291	-0.348
-689.368	54.468	-0.310	0.301
-688.354	800.000	-0.055	-0.225
-687.339	539.383	0.037	0.088
-686.324	-51.555	0.410	0.193
-685.310	169.543	0.447	-0.644
-684.295	-200.000	0.078	0.492
-683.281	-13.118	-0.699	-0.458
-682.266	277.005	0.099	0.177
-681.251	-24.101	0.254	0.153
-680.237	800.000	-0.030	-0.090
-679.222	-176.083	-0.024	0.001
-678.208	-200.000	-0.042	-0.416
-677.193	-77.596	-0.362	0.127
-676.178	-84.427	-0.667	-0.213
-675.164	30.371	0.341	0.294
-674.149	-200.000	0.007	0.296
-673.135	477.652	-0.197	-0.449
-672.120	127.204	-0.166	0.213
-671.105	348.762	0.179	0.356
-670.091	-77.863	-0.734	-0.255
-669.076	-200.000	0.002	-0.122
-668.062	-39.219	-0.144	0.076
-667.047	-156.557	-0.651	0.041
-666.032	543.563	-0.046	-0.110
-665.018	-65.878	0.930	-0.375
-664.003	-200.000	0.030	0.175
-662.989	800.000	0.123	0.509
-661.974	-36.524	0.553	-0.300
-660.959	-200.000	-0.004	0.039
-659.945	208.248	-0.173	0.272
-658.930	-126.463	-0.113	0.017
-657.916	-71.229	0.918	-0.347
-656.901	-110.834	0.218	-0.045
-655.886	-83.836	-0.567	0.182
-654.872	532.504	-0.329	0.784
-653.857	-200.000	0.140	0.779
-652.843	245.302	-0.329	0.557
-651.828	-145.707	0.509	-0.046
-650.814	220.019	0.158	0.254
-649.799	240.931	0.369	0.621
-648.784	1.929	0.717	-0.521
-647.770	-86.021	-0.863	-0.269
-646.755	-90.824	0.856	0.248
-645.741	114.338	0.277	-0.339
-644.726	134.034	0.349	-0.456
-643.711	92.802	-0.366	-0.417
-642.697	-60.485	-0.253	-0.108
-641.682	-200.000	0.011	-0.372
-640.668	267.109	0.449	0.791
-639.653	171.160	-0.048	0.070
-638.638	-36.179	-0.770	-0.419
-637.624	355.413	0.160	0.320
-636.609	-70.855	-1.054	-0.400
-635.595	161.557	-0.241	-0.340
-634.580	-42.473	-0.585	-0.300
-633.565	-50.986	0.395	0.187
-632.551	-10.062	0.334	-0.223
-631.536	-153.752	-0.514	-0.036
-630.522	-46.866	0.120	-0.059
-629.507	-151.111	0.265	0.020
-628.492	203.830	-0.081	0.127
-627.478	-150.672	0.388	0.030
-626.463	800.000	0.214	0.721
-625.449	271.256	-0.168	-0.297
-624.434	-44.989	0.733	0.367
-623.419	297.249	0.156	0.288
-622.405	256.678	0.385	0.665
-621.390	222.925	0.700	-1.136
-620.376	-77.268	0.456	-0.160
-619.361	-0.709	0.188	-0.134
-618.346	-200.000	-0.070	-0.336
-617.332	-123.159	-0.654	-0.105
-616.317	-137.039	0.466	0.054
-615.303	-94.338	0.257	0.071
-614.288	800.000	-0.268	0.854
-613.273	-52.847	0.290	0.134
-612.259	174.457	-0.151	-0.220
-611.244	-33.161	-0.628	-0.350
-610.230	-119.288	-0.136	-0.024
-609.215	49.652	0.166	-0.158
-608.201	536.746	0.104	-0.248
-607.186	-200.000	-0.009	-0.069
-606.171	-154.225	0.622	0.042
-605.157	189.017	0.193	0.291
-604.142	9.632	0.850	-0.648
-603.128	598.018	0.157	-0.391
-602.113	259.082	-0.013	0.023
-601.098	-90.767	-0.302	-0.088
-600.084	-142.551	0.558	-0.055
-599.069	-200.000	-0.047	-0.366
-598.055	-200.000	0.103	0.477
-597.040	-200.000	-0.040	0.503
-596.025	37.636	-0.677	0.604
-595.011	-133.296	0.422	-0.053
-593.996	50.690	-0.030	0.029
-592.982	-24.162	-0.420	0.252
-591.967	135.933	0.166	0.218
-590.952	99.854	0.197	0.230
-589.938	800.000	0.099	0.420
-588.923	-200.000	0.004	-0.017
-587.909	403.916	0.212	-0.448
-586.894	7.957	-0.807	0.608
-585.879	-37.479	-0.718	0.385
-584.865	-167.478	0.178	0.007
-583.850	-170.895	-0.799	-0.027
-582.836	-4.357	0.056	-0.039
-581.821	-200.000	0.060	-0.464
-580.806	68.539	0.599	-0.617
-579.792	-74.544	0.628	-0.227
-578.777	10.580	-0.075	0.057
-577.763	-76.983	1.127	0.395
-576.748	-64.175	-0.055	-0.022
-575.733	-77.345	0.455	0.159
-574.719	800.000	-0.019	-0.053
-573.704	759.367	0.097	-0.265
-572.690	-200.000	-0.014	0.682
-571.675	37.780	-0.241	0.215
-570.661	137.701	-0.113	-0.149
-569.646	37.755	0.625	0.558
-568.631	-114.775	-0.537	0.103
-567.617	-115.295	-0.653	-0.124
-566.602	-136.922	0.186	-0.021
-565.588	374.943	-0.408	0.834
-564.573	482.468	-0.123	-0.280
-563.558	-54.714	-0.425	0.193
-562.544	800.000	0.269	-1.086
-561.529	-200.000	-0.055	-0.433
-560.515	-36.283	-0.662	-0.358
-559.500	84.913	0.389	-0.427
-558.485	-97.242	0.587	-0.154
-557.471	88.225	0.314	0.350
-556.456	-116.671	0.738	-0.136
-555.442	-134.534	-0.332	0.041
-554.427	107.249	-1.117	-1.332
-553.412	-200.000	0.057	0.540
-552.398	-200.000	0.024	-0.467
-551.383	-200.000	-0.094	0.930
-550.369	354.995	-0.186	0.371
-549.354	64.865	-0.246	-0.249
-548.339	-26.384	-1.169	-0.688
-547.325	-143.456	0.504	0.048
-546.310	30.061	0.364	-0.311
-545.296	-103.345	-0.377	-0.089
-544.281	207.857	-0.032	-0.050
-543.266	581.664	-0.187	-0.461
-542.252	366.539	0.373	-0.756
-541.237	800.000	-0.031	0.114
-540.223	252.915	-0.136	0.233
-539.208	-200.000	0.046	-0.213
-538.193	-83.846	-0.583	0.186
-537.179	-200.000	0.179	-1.128
-536.164	527.231	0.234	-0.553
-535.150	-34.529	0.469	-0.258
-534.135	800.000	0.213	0.613
-533.121	-65.887	0.640	0.257
-532.106	-76.961	-0.670	0.235
-531.091	-133.425	-0.389	0.049
-530.077	-200.000	0.025	0.114
-529.062	-165.546	-0.377	0.016
-528.048	220.746	-0.551	0.886
-527.033	-200.000	-0.167	0.831
-526.018	-126.801	-0.496	0.073
-525.004	70.162	-0.031	0.033
-523.989	-200.000	0.108	-0.946
-522.975	-195.702	-0.560	-0.004
-521.960	158.636	-0.210	0.292
-520.945	-60.973	-0.602	0.255
-519.931	304.558	-0.225	0.418
-518.916	-9.560	0.505	0.338
-517.902	-119.052	-0.433	-0.076
-516.887	-137.021	-0.396	0.045
-515.872	604.422	-0.310	0.772
-514.858	800.000	-0.134	-0.569
-513.843	-155.867	0.517	-0.033
-512.829	-67.072	-0.235	-0.093
-511.814	-45.549	0.892	0.443
-510.799	43.367	0.184	-0.168
-509.785	800.000	-0.080	0.329
-508.770	-85.400	0.721	0.225
-507.756	-128.501	-0.891	0.127
-506.741	-200.000	0.014	-0.174
-505.726	122.003	0.463	0.579
-504.712	406.644	-0.442	0.934
-503.697	-200.000	0.158	1.369
-502.683	9.458	-0.909	0.689
-501.668	758.529	0.157	0.425
-500.653	61.509	0.565	0.563
-499.639	-139.647	0.787	0.084
-498.624	-60.002	0.449	-0.192
-497.610	516.618	-0.349	0.818
-496.595	266.443	0.128	-0.223
-495.581	522.770	0.214	0.503
-494.566	-18.997	0.142	-0.089
-493.551	-23.712	0.602	-0.361
-492.537	-200.000	0.095	0.554
-491.522	-200.000	-0.211	1.082
-490.508	-73.774	-0.506	0.184
-489.493	-91.222	-1.204	0.345
-488.478	49.013	0.085	0.080
-487.464	165.474	0.837	-1.185
-486.449	-200.000	-0.087	-0.495
-485.435	309.383	-0.175	-0.328
-484.420	-35.145	-0.451	-0.246
-483.405	18.248	-0.334	0.267
-482.391	-200.000	0.019	-0.119
-481.376	-45.843	0.133	-0.066
-480.362	17.637	0.218	0.174
-479.347	-200.000	0.006	0.134
-478.332	-127.854	0.708	0.102
-477.318	-21.029	0.605	0.370
-476.303	66.343	0.168	0.171
-475.289	-200.000	0.072	0.375
-474.274	747.754	0.120	0.324
-473.259	29.179	0.541	0.460
-472.245	-150.093	-0.126	-0.010
-471.230	381.582	0.303	-0.622
-470.216	800.000	-0.093	0.344
-469.201	82.616	0.551	0.599
-468.186	-29.469	-0.320	-0.183
-467.172	800.000	-0.290	0.806
-466.157	7.533	0.156	0.117
-465.143	38.793	-0.700	-0.625
-464.128	-37.025	0.326	0.175
-463.113	-49.826	-0.726	0.345
-462.099	-82.190	-0.481	0.157
-461.084	49.085	0.303	0.284
-460.070	-31.339	-0.277	-0.156
-459.055	-45.522	-0.415	-0.205
-458.040	-119.585	-0.727	-0.126
-457.026	-92.000	0.921	-0.261
-456.011	800.000	0.133	0.533
-454.997	800.000	0.286	-0.789
-453.982	-200.000	0.127	-1.008
-452.968	-139.590	-0.125	-0.013
-451.953	760.832	0.224	0.608
-450.938	800.000	0.240	-0.824
-449.924	10.801	-0.419	0.320
-448.909	-116.441	0.691	-0.128
-447.895	800.000	0.232	0.727
-446.880	-145.442	0.387	-0.035
-445.865	55.773	0.450	-0.436
-444.851	-49.948	-0.642	0.304
-443.836	-200.000	-0.063	0.475
-442.822	-141.769	0.755	0.076
-441.807	32.189	0.429	-0.370
-440.792	-200.000	-0.167	-0.839
-439.778	-200.000	0.085	-0.607
-438.763	-200.000	0.117	-0.659
-437.749	584.335	0.326	-0.800
-436.734	-99.524	-0.956	-0.240
-435.719	-200.000	-0.002	-0.184
-434.705	167.434	-0.270	-0.384
-433.690	269.841	0.132	-0.231
-432.676	-200.000	-0.011	0.130
-431.661	50.777	-0.496	-0.469
-430.646	-63.250	0.308	-0.127
-429.632	7.097	-0.614	0.457
-428.617	367.352	-0.211	-0.426
-427.603	-200.000	-0.045	-0.653
-426.588	40.312	0.168	-0.151
-425.573	16.224	-0.338	-0.267
-424.559	800.000	-0.158	0.468
-423.544	-157.394	0.418	-0.025
-422.530	-189.260	-0.386	0.005
-421.515	-83.709	-0.360	-0.115
-420.500	-84.690	-0.308	-0.097
-419.486	800.000	-0.083	-0.245
-418.471	-24.847	-0.149	0.088
-417.457	141.702	-0.426	-0.563
-416.442	97.479	0.149	0.170
-415.428	129.923	-0.024	-0.031
-414.413	190.599	0.530	0.795
-413.398	800.000	0.185	-0.529
-412.384	-100.784	-0.402	0.099
-411.369	39.608	0.279	0.250
-410.355	-45.873	0.129	-0.063
-409.340	-200.000	-0.086	-0.623
-408.325	-80.203	-1.113	-0.372
-407.311	800.000	0.273	0.914
-406.296	297.034	-0.396	-0.725
-405.282	-65.328	0.368	0.148
-404.267	-200.000	-0.049	-0.464
-403.252	-143.558	-0.814	-0.077
-402.238	69.891	-0.376	0.387
-401.223	-186.819	-0.387	-0.005
-400.209	46.160	0.532	-0.492
-399.194	0.498	-0.729	0.520
-398.179	227.966	0.233	0.378
-397.165	-200.000	-0.074	0.392
-396.150	800.000	0.347	1.160
-395.136	-200.000	0.024	-0.317
-394.121	36.055	0.366	0.322
-393.106	-95.271	-0.454	-0.122
-392.092	207.996	0.091	0.142
-391.077	136.445	0.468	-0.609
-390.063	-98.345	-0.467	-0.119
-389.048	-159.919	-0.528	-0.029
-388.033	-21.732	0.265	0.161
-387.019	-138.333	-0.260	0.029
-386.004	-200.000	-0.060	0.363
-384.990	-200.000	0.040	-0.178
-383.975	-111.058	0.133	-0.027
-382.960	400.895	-0.108	0.226
-381.946	-28.669	0.385	0.221
-380.931	-200.000	0.075	0.744
-379.917	-200.000	-0.005	1.376
-378.902	-87.570	-0.475	0.143
-377.888	42.497	0.233	0.211
-376.873	-98.263	-0.697	-0.178
-375.858	-108.865	0.503	0.107
-374.844	-200.000	0.048	0.278
-373.829	81.868	0.652	0.704
-372.815	-106.464	0.655	0.146
-371.800	800.000	-0.208	-0.657
-370.785	-200.000	0.093	0.437
-369.771	-200.000	-0.050	-0.661
-368.756	-200.000	-0.007	-0.499
-367.742	-66.858	0.771	-0.304
-366.727	205.982	0.386	-0.598
-365.712	17.317	0.771	-0.610
-364.698	-23.493	0.511	0.306
-363.683	623.751	-0.398	0.998
-362.669	44.173	-0.345	-0.315
-361.654	367.518	0.427	-0.859
-360.639	-131.722	-0.630	-0.082
-359.625	800.000	0.103	-0.396
-358.610	115.808	0.200	-0.243
-357.596	-163.375	-0.479	-0.023
-356.581	-166.799	-0.278	0.011
-355.566	221.113	0.435	0.696
-354.552	143.997	-0.428	0.569
-353.537	148.560	-0.231	0.310
-352.523	-200.000	-0.039	-0.937
-351.508	-74.459	0.444	-0.159
-350.493	-27.273	0.184	-0.107
-349.479	121.691	-0.176	0.219
-348.464	-200.000	-0.040	-0.407
-347.450	-124.350	-0.130	0.020
-346.435	699.800	-0.098	-0.256
-345.420	-11.617	-0.714	-0.467
-344.406	-200.000	-0.045	-0.330
-343.391	-33.466	-0.193	0.106
-342.377	240.185	-0.441	-0.731
-341.362	464.086	-0.131	0.291
-340.348	-153.322	-0.521	0.036
-339.333	120.176	0.510	-0.629
-338.318	-200.000	0.004	-0.712
-337.304	660.546	0.347	-0.889
-336.289	-63.027	-0.735	0.302
-335.275	398.214	0.417	-0.869
-334.260	-200.000	0.059	-0.430
-333.245	-86.036	0.561	0.172
-332.231	800.000	0.210	0.638
-331.216	101.333	0.335	-0.388
-330.202	4.427	-0.416	0.303
-329.187	-9.542	0.318	0.211
-328.172	800.000	-0.069	-0.206
-327.158	696.834	-0.228	0.596
-326.143	-106.755	-0.870	0.192
-325.129	-89.741	0.774	-0.225
-324.114	-48.116	-0.460	-0.221
-323.099	-31.799	-0.520	0.290
-322.085	23.679	-0.376	-0.308
-321.070	658.869	0.281	-0.719
-320.056	-101.670	0.692	0.167
-319.041	-200.000	0.123	0.831
-318.026	-24.642	0.396	0.234
-317.012	-200.000	0.179	1.016
-315.997	-44.506	-0.219	-0.109
-314.983	76.660	-0.372	0.392
-313.968	-65.522	-0.660	0.264
-312.953	556.033	-0.383	0.918
-311.939	-36.305	0.506	-0.271
-310.924	-138.393	-0.315	-0.035
-309.910	-197.699	0.724	-0.004
-308.895	-36.857	0.150	0.080
-307.880	-90.360	-0.251	-0.072
-306.866	447.513	-0.245	0.535
-305.851	800.000	-0.149	0.556
-304.837	-200.000	0.279	-1.243
-303.822	161.152	-0.394	-0.548
-302.807	-170.265	-0.389	0.014
-301.793	-40.465	-0.600	0.310
-300.778	73.462	-0.587	0.611
-299.764	435.163	0.118	-0.254
-298.749	-200.000	0.086	-0.989
-297.735	713.451	-0.133	-0.351
-296.720	-110.502	-0.127	0.026
-295.705	-34.700	0.382	-0.208
-294.691	316.826	-0.276	-0.519
-293.676	-24.483	-0.241	0.143
-292.662	-82.305	-0.555	-0.179
-291.647	97.702	0.559	-0.638
-290.632	112.834	-0.160	-0.193
-289.618	-151.911	-0.754	0.055
-288.603	-200.000	-0.006	0.522
-287.589	423.906	-0.183	-0.391
-286.574	-200.000	-0.024	-0.750
-285.559	800.000	0.147	0.488
-284.545	6.701	-0.368	0.272
-283.530	-39.969	-0.258	-0.134
-282.516	18.284	-0.289	0.229
-281.501	-5.349	-1.066	0.727
-280.486	-200.000	-0.079	0.462
-279.472	-67.929	0.277	0.108
-278.457	-68.887	-0.464	0.178
-277.443	7.088	0.064	0.048
-276.428	340.006	-0.503	0.975
-275.413	139.122	0.566	0.739
-274.399	-101.745	0.388	-0.093
-273.384	-76.895	-0.561	0.195
-272.370	-77.998	0.057	-0.020
-271.355	-200.000	-0.055	0.431
-270.340	800.000	0.046	-0.188
-269.326	-24.528	0.318	-0.188
-268.311	800.000	0.123	0.376
-267.297	-200.000	0.158	0.971
-266.282	-108.587	-1.137	0.242
-265.267	-136.783	-0.292	0.033
-264.253	800.000	-0.149	-0.606
-263.238	-200.000	0.143	-0.669
-262.224	-61.725	-0.532	0.221
-261.209	-200.000	0.042	-0.401
-260.195	-115.656	-0.889	-0.165
-259.180	-200.000	0.002	-1.196
-258.165	-103.917	-0.960	-0.222
-257.151	-73.493	1.047	0.379
-256.136	-130.903	0.641	-0.085
-255.122	-33.198	0.401	-0.220
-254.107	-200.000	0.063	0.276
-253.092	-34.202	-0.580	-0.316
-252.078	12.828	0.715	0.548
-251.063	274.658	0.351	0.616
-250.049	-16.323	0.600	0.378
-249.034	-30.082	0.308	-0.174
-248.019	-143.443	0.956	0.091
-247.005	-200.000	0.004	0.709
-245.990	-141.615	-0.279	0.028
-244.976	24.106	0.388	0.318
-243.961	-200.000	0.020	0.141
-242.946	-93.387	0.172	0.047
-241.932	-107.451	0.878	-0.191
-240.917	99.467	0.305	-0.350
-239.903	800.000	-0.057	-0.241
-238.888	53.915	-0.511	-0.486
-237.873	62.217	0.289	-0.286
-236.859	-4.749	-0.148	0.101
-235.844	800.000	-0.102	0.307
-234.830	-114.234	0.612	0.117
-233.815	-200.000	-0.007	0.044
-232.800	125.318	0.221	0.277
-231.786	-55.882	0.906	-0.401
-230.771	800.000	-0.141	-0.554
-229.757	-86.953	0.616	-0.186
-228.742	-74.093	0.926	0.332
-227.727	-132.857	1.067	0.135
-226.713	-200.000	-0.020	-0.237
-225.698	-114.111	-0.345	-0.066
-224.684	-200.000	0.036	0.513
-223.669	-200.000	-0.007	-0.797
-222.655	503.675	0.080	0.183
-221.640	-200.000	-0.032	-0.345
-220.625	195.134	-0.112	-0.169
-219.611	39.926	0.894	-0.795
-218.596	-139.662	0.640	0.068
-217.582	800.000	0.140	-0.503
-216.567	-24.747	0.600	0.353
-215.552	-136.415	-0.934	0.108
-214.538	-28.552	0.199	0.113
-213.523	143.100	-0.362	-0.477
-212.509	800.000	0.073	-0.221
-211.494	800.000	-0.171	0.668
-210.479	652.944	-0.281	-0.714
-209.465	713.810	0.080	-0.209
-208.450	-0.439	0.444	0.312
-207.436	800.000	0.346	-1.320
-206.421	-200.000	0.116	-0.574
-205.406	-200.000	0.013	-0.689
-204.392	-173.386	0.576	-0.017
-203.377	47.711	0.315	-0.291
-202.363	33.044	0.724	0.621
-201.348	-104.837	-0.495	0.112
-200.333	800.000	-0.183	-0.576
-199.319	-137.685	-0.348	-0.039
-198.304	-35.501	-0.975	-0.524
-197.290	-23.660	-0.215	0.127
-196.275	38.576	0.315	-0.278
-195.260	381.976	-0.182	0.369
-194.246	-200.000	-0.007	-0.420
-193.231	-127.604	0.343	0.049
-192.217	-200.000	-0.018	0.315
-191.202	-47.198	-0.505	0.244
-190.187	-200.000	-0.083	-0.536
-189.173	625.611	0.170	-0.424
-188.158	534.703	0.219	0.515
-187.144	240.663	-0.451	0.744
-186.129	91.532	-0.418	-0.465
-185.114	-130.222	0.269	0.036
-184.100	-200.000	-0.045	-0.488
-183.085	800.000	-0.253	0.996
-182.071	263.653	0.200	0.344
-181.056	-61.834	0.506	0.209
-180.042	75.019	-0.097	-0.101
-179.027	65.538	-0.104	0.105
-178.012	-141.085	-0.534	0.054
-176.998	151.353	0.568	0.764
-175.983	-34.811	0.503	-0.272
-174.969	-200.000	0.035	-0.616
-173.954	-78.727	1.028	0.347
-172.939	449.631	0.083	0.181
-171.925	-40.241	0.228	-0.118
-170.910	180.159	0.234	-0.339
-169.896	-133.129	-0.980	0.123
-168.881	6.699	0.142	0.104
-167.866	-107.639	0.504	-0.109
-166.852	300.329	-0.149	0.272
-165.837	16.670	-0.759	0.593
-164.823	577.924	0.264	-0.638
-163.808	-200.000	0.119	0.688
-162.793	43.966	-0.644	0.583
-161.779	-200.000	0.019	-0.099
-160.764	244.682	-0.238	0.396
-159.750	321.929	-0.243	-0.457
-158.735	-12.891	0.351	-0.226
-157.720	-200.000	0.036	0.373
-156.706	-9.341	-0.215	-0.142
-155.691	209.912	0.055	-0.086
-154.677	800.000	0.167	0.715
-153.662	185.733	0.268	0.394
-152.647	-15.090	-0.893	-0.565
-151.633	-47.633	-0.220	-0.105
-150.618	-102.750	0.886	0.208
-149.604	-149.998	-0.638	-0.049
-148.589	-200.000	-0.179	-1.354
-147.574	-200.000	-0.004	-0.616
-146.560	-123.295	0.686	-0.108
-145.545	25.317	0.281	0.231
-144.531	-74.136	0.216	-0.077
-143.516	-7.247	0.503	0.336
-142.502	44.986	0.290	-0.264
-141.487	-87.061	0.438	0.132
-140.472	-121.110	-0.675	-0.112
-139.458	800.000	0.110	0.360
-138.443	75.888	-0.340	-0.355
-137.429	800.000	-0.149	0.574
-136.414	-161.113	0.522	-0.027
-135.399	584.770	0.271	-0.657
-134.385	-148.457	-0.406	0.033
-133.370	31.947	-0.224	-0.190
-132.356	-200.000	0.159	-0.865
-131.341	173.477	0.160	-0.228
-130.326	64.195	-0.481	0.478
-129.312	36.665	-0.263	0.229
-128.297	29.064	0.543	0.455
-127.283	43.412	0.187	-0.169
-126.268	663.636	0.175	0.446
-125.253	-200.000	0.405	-0.001
-124.239	-200.000	-0.055	-0.461
-123.224	614.697	0.235	-0.580
-122.210	170.114	0.213	-0.301
-121.195	36.662	-1.110	0.967
