DTS Sentinel unit serial number:	SN413079Multiplexer serial number:	ORYXHardware model number:	OX4-SRSoftware version number:	ORYX F/W v4.00 Oryx Data Collector v3.7.2.0data status	okinstallation	princeton_trtdifferential loss correction	single-endedforward channel	channel 1reverse channel	N/Adate	2019/09/14time	20:26:35forward acquisition time	60.00reverse acquisition time	0.00gamma	496.2192k internal	0.2316k external	0.2316temperature offset calibration	1.0026default loss term (dB/km)	0.3790temperature slope calibration	1.0000multiplexer offset coefficient	1.0000multiplexer slope coefficient	1.0000fibre end	0.00T internal ref (°C)	33.58T ext. ref 1 (°C)	4.85T ext. ref 2 (°C)	28.17length (m)	temperature (°C)	Stokes	anti-Stokes-747.200	-37.682	0.176	0.095
-746.185	682.316	-0.023	-0.062
-745.171	646.279	0.017	0.043
-744.156	229.744	-0.166	0.274
-743.142	-173.629	0.300	0.009
-742.127	-76.476	-0.443	0.158
-741.112	23.563	0.098	0.081
-740.098	-180.843	-0.368	0.008
-739.083	134.671	-0.029	0.039
-738.069	800.000	-0.105	-0.319
-737.054	241.574	-0.248	0.420
-736.039	-97.785	0.095	0.025
-735.025	148.670	0.083	0.113
-734.010	-150.001	-0.094	0.007
-732.996	-28.444	0.240	-0.140
-731.981	408.914	-0.086	-0.185
-730.966	47.961	-0.018	-0.017
-729.952	129.188	0.060	-0.078
-728.937	-200.000	-0.017	0.121
-727.923	800.000	0.060	-0.194
-726.908	-9.558	0.292	-0.197
-725.894	-18.332	-0.200	0.127
-724.879	-45.713	-0.218	-0.109
-723.864	-115.316	0.211	-0.040
-722.850	-42.688	-0.150	0.077
-721.835	-114.036	-0.172	0.034
-720.821	447.638	0.110	0.245
-719.806	62.519	-0.159	0.161
-718.791	426.903	-0.081	-0.176
-717.777	-24.258	0.228	-0.138
-716.762	-102.036	-0.340	-0.083
-715.748	175.538	0.128	-0.188
-714.733	-14.127	-0.360	-0.235
-713.718	-13.394	-0.060	-0.039
-712.704	143.986	-0.159	0.214
-711.689	101.956	0.128	0.151
-710.675	642.434	-0.008	-0.021
-709.660	-200.000	0.025	-0.143
-708.645	-24.011	0.164	-0.099
-707.631	32.697	0.150	-0.131
-706.616	-87.601	-0.049	0.015
-705.602	-9.139	-0.123	-0.083
-704.587	-90.735	0.311	-0.091
-703.572	142.518	0.150	0.202
-702.558	-53.708	-0.241	-0.111
-701.543	435.650	0.120	0.264
-700.529	-111.213	0.195	-0.040
-699.514	-87.385	-0.178	-0.055
-698.499	589.936	0.114	-0.284
-697.485	122.569	-0.223	-0.282
-696.470	334.380	-0.100	-0.196
-695.456	39.136	-0.226	-0.205
-694.441	-32.452	0.142	0.080
-693.426	7.862	0.074	0.056
-692.412	-200.000	-0.002	-0.041
-691.397	-70.255	0.268	-0.103
-690.383	-115.797	-0.107	-0.020
-689.368	-18.863	0.324	-0.204
-688.354	147.735	-0.280	-0.381
-687.339	38.616	0.067	0.060
-686.324	-110.379	0.208	-0.044
-685.310	-200.000	0.053	0.260
-684.295	-200.000	0.026	0.326
-683.281	-200.000	-0.072	0.655
-682.266	-162.226	-0.064	-0.003
-681.251	661.124	-0.045	0.118
-680.237	-114.671	-0.125	0.024
-679.222	-45.609	0.260	-0.130
-678.208	24.664	-0.295	0.246
-677.193	57.779	0.218	0.215
-676.178	-118.052	0.290	0.052
-675.164	800.000	-0.033	0.098
-674.149	-200.000	0.008	0.147
-673.135	-200.000	-0.011	0.138
-672.120	-147.655	-0.076	0.006
-671.105	800.000	-0.050	-0.140
-670.091	-94.967	-0.216	-0.059
-669.076	710.037	0.122	-0.326
-668.062	-200.000	0.048	0.257
-667.047	435.388	-0.101	0.222
-666.032	-200.000	-0.008	-0.167
-665.018	-98.179	-0.298	-0.077
-664.003	-171.100	-0.127	0.004
-662.989	37.256	0.110	0.098
-661.974	-200.000	-0.028	0.143
-660.959	-23.036	-0.369	0.225
-659.945	360.061	-0.121	0.245
-658.930	187.350	-0.048	0.072
-657.916	-24.668	0.362	-0.217
-656.901	800.000	-0.036	-0.138
-655.886	-148.029	-0.238	0.020
-654.872	255.783	-0.037	-0.065
-653.857	-200.000	0.010	-0.312
-652.843	10.100	-0.158	0.121
-651.828	163.179	-0.206	-0.291
-650.814	89.870	-0.282	-0.318
-649.799	502.991	0.128	-0.298
-648.784	78.794	0.252	-0.272
-647.770	800.000	-0.009	-0.026
-646.755	71.338	0.057	-0.060
-645.741	681.644	0.182	-0.478
-644.726	-200.000	-0.040	-0.214
-643.711	397.171	0.084	-0.176
-642.697	-44.889	-0.194	-0.098
-641.682	-13.390	-0.134	-0.088
-640.668	-96.386	0.041	0.011
-639.653	242.648	0.014	-0.024
-638.638	-138.145	-0.204	0.023
-637.624	738.448	-0.029	0.077
-636.609	-127.403	-0.187	-0.028
-635.595	-108.975	0.155	-0.033
-634.580	151.400	-0.116	0.160
-633.565	-49.547	0.380	0.182
-632.551	-55.617	-0.188	-0.085
-631.536	-9.520	-0.113	-0.076
-630.522	615.447	-0.061	0.154
-629.507	-37.982	-0.169	-0.091
-628.492	-128.752	-0.091	0.013
-627.478	127.824	-0.221	-0.284
-626.463	18.980	0.106	0.085
-625.449	151.073	-0.188	0.257
-624.434	-200.000	0.031	-0.142
-623.419	-121.177	-0.414	0.070
-622.405	-200.000	0.037	0.198
-621.390	418.873	-0.049	-0.105
-620.376	-100.017	0.195	0.049
-619.361	800.000	0.013	0.052
-618.346	-20.369	-0.117	0.072
-617.332	-200.000	-0.032	-0.193
-616.317	-12.600	0.073	0.048
-615.303	-83.028	0.239	-0.078
-614.288	-76.706	-0.313	-0.111
-613.273	129.261	0.011	0.014
-612.259	-200.000	-0.208	0.000
-611.244	128.336	0.242	-0.310
-610.230	-145.901	0.392	0.035
-609.215	-47.822	-0.198	-0.097
-608.201	705.366	-0.033	-0.089
-607.186	800.000	-0.082	0.323
-606.171	-90.036	-0.151	0.044
-605.157	-56.676	0.251	0.112
-604.142	246.979	0.052	0.089
-603.128	800.000	-0.091	-0.300
-602.113	-135.616	-0.406	0.049
-601.098	27.979	-0.060	0.051
-600.084	359.028	0.065	0.131
-599.069	207.454	-0.262	-0.412
-598.055	-146.074	0.473	0.042
-597.040	-160.632	0.253	0.014
-596.025	-59.933	0.206	-0.089
-595.011	-23.785	-0.168	-0.101
-593.996	-160.364	-0.323	0.018
-592.982	-103.804	-0.297	0.070
-591.967	126.220	-0.124	0.158
-590.952	-200.000	-0.003	-0.166
-589.938	-5.011	-0.202	-0.140
-588.923	-15.761	0.325	0.208
-587.909	-143.823	-0.150	0.014
-586.894	-200.000	-0.029	0.218
-585.879	-136.432	-0.163	-0.019
-584.865	-33.661	-0.028	0.016
-583.850	-200.000	0.002	-0.267
-582.836	189.889	0.073	-0.111
-581.821	116.066	-0.281	-0.346
-580.806	-164.054	-0.042	0.002
-579.792	182.249	0.077	0.114
-578.777	315.690	-0.011	0.020
-577.763	-149.849	-0.322	0.025
-576.748	-200.000	-0.020	-0.172
-575.733	-57.452	-0.086	-0.038
-574.719	778.788	-0.130	0.357
-573.704	94.013	-0.129	0.148
-572.690	-72.361	-0.395	0.147
-571.675	-111.520	0.297	0.061
-570.661	160.907	0.081	0.114
-569.646	133.790	-0.074	0.096
-568.631	44.296	-0.122	0.113
-567.617	56.266	-0.051	-0.050
-566.602	-122.822	0.160	0.026
-565.588	559.574	-0.049	0.119
-564.573	-76.960	-0.350	-0.123
-563.558	0.624	0.336	-0.242
-562.544	-86.639	-0.176	-0.054
-561.529	-40.992	-0.171	0.089
-560.515	1.547	0.176	0.128
-559.500	-32.563	0.110	-0.062
-558.485	-25.000	0.199	0.119
-557.471	139.195	0.095	0.125
-556.456	33.862	0.228	0.200
-555.442	110.693	-0.091	-0.110
-554.427	453.235	-0.087	-0.194
-553.412	-100.656	0.206	-0.051
-552.398	-46.012	0.107	-0.053
-551.383	29.615	-0.106	0.091
-550.369	-200.000	0.010	-0.176
-549.354	800.000	0.020	0.074
-548.339	123.510	0.335	-0.422
-547.325	20.519	0.161	0.131
-546.310	-92.990	0.281	-0.079
-545.296	-200.000	-0.033	-0.376
-544.281	195.945	-0.143	-0.218
-543.266	110.118	0.239	-0.288
-542.252	-47.551	0.102	-0.050
-541.237	133.445	0.248	-0.322
-540.223	-200.000	-0.043	-0.319
-539.208	-91.035	-0.294	-0.085
-538.193	333.209	-0.124	0.241
-537.179	-94.385	-0.084	-0.023
-536.164	10.517	0.237	0.182
-535.150	154.023	-0.121	0.167
-534.135	416.159	0.113	0.242
-533.121	28.851	0.066	-0.056
-532.106	437.227	0.042	0.092
-531.091	800.000	-0.071	0.232
-530.077	282.583	-0.055	0.099
-529.062	-196.672	-0.114	-0.001
-528.048	79.368	0.231	-0.249
-527.033	-106.559	0.073	-0.016
-526.018	-25.674	0.137	-0.081
-525.004	-102.045	0.083	0.020
-523.989	517.658	0.125	-0.294
-522.975	800.000	-0.166	-0.460
-521.960	-135.777	-0.155	-0.018
-520.945	106.868	-0.176	-0.209
-519.931	-70.978	0.205	-0.077
-518.916	-200.000	-0.035	0.251
-517.902	-149.362	-0.150	-0.012
-516.887	-77.947	-0.282	-0.098
-515.872	-129.862	-0.185	0.025
-514.858	745.092	-0.099	0.268
-513.843	-84.130	-0.117	-0.037
-512.829	-200.000	-0.028	0.218
-511.814	-76.604	-0.240	0.084
-510.799	98.602	0.381	0.441
-509.785	-26.680	-0.347	-0.204
-508.770	230.332	0.189	0.310
-507.756	-87.708	0.067	-0.020
-506.741	518.770	-0.065	0.153
-505.726	226.900	-0.167	0.273
-504.712	800.000	-0.065	-0.189
-503.697	32.543	0.271	-0.235
-502.683	800.000	0.066	-0.246
-501.668	-200.000	-0.012	-0.216
-500.653	800.000	-0.101	-0.375
-499.639	800.000	0.062	-0.172
-498.624	111.815	0.156	-0.189
-497.610	288.494	-0.074	-0.134
-496.595	-128.244	-0.148	0.021
-495.581	103.550	-0.126	0.149
-494.566	-200.000	0.071	-0.319
-493.551	20.371	-0.035	0.028
-492.537	339.338	-0.039	-0.076
-491.522	800.000	0.024	0.100
-490.508	800.000	0.031	0.127
-489.493	226.476	-0.141	-0.229
-488.478	66.305	0.349	0.355
-487.464	727.830	-0.078	-0.209
-486.449	-85.847	-0.493	-0.153
-485.435	-15.106	-0.099	0.063
-484.420	-167.056	0.334	0.014
-483.405	800.000	-0.109	0.307
-482.391	-56.888	-0.169	0.075
-481.376	-84.540	0.021	0.007
-480.362	-105.424	-0.060	0.014
-479.347	91.369	0.090	0.102
-478.332	20.262	0.120	-0.097
-477.318	-31.407	-0.268	-0.151
-476.303	215.040	-0.082	-0.130
-475.289	10.608	0.240	0.183
-474.274	-200.000	0.098	0.478
-473.259	96.816	-0.255	0.293
-472.245	20.987	-0.278	-0.226
-471.230	800.000	-0.087	0.366
-470.216	138.963	-0.163	0.215
-469.201	22.239	0.068	0.055
-468.186	-200.000	-0.007	0.091
-467.172	67.176	0.079	0.080
-466.157	734.607	0.060	-0.161
-465.143	-10.044	0.252	0.168
-464.128	-28.910	-0.229	-0.132
-463.113	-67.679	0.122	-0.048
-462.099	-200.000	0.046	-0.327
-461.084	272.294	0.175	-0.309
-460.070	800.000	0.084	-0.364
-459.055	-200.000	0.015	0.113
-458.040	432.875	-0.051	0.110
-457.026	-172.927	-0.099	-0.003
-456.011	169.605	0.256	0.367
-454.997	261.897	-0.134	0.233
-453.982	-103.153	-0.174	-0.041
-452.968	-54.117	0.090	-0.041
-451.953	800.000	-0.049	0.194
-450.938	-64.682	-0.211	-0.086
-449.924	-32.355	0.264	-0.148
-448.909	800.000	0.112	0.369
-447.895	39.656	-0.160	0.144
-446.880	-87.965	-0.089	0.027
-445.865	128.515	-0.087	0.111
-444.851	-11.760	0.241	-0.159
-443.836	-93.431	-0.063	-0.018
-442.822	41.266	0.116	-0.105
-441.807	800.000	0.108	-0.349
-440.792	264.025	-0.049	-0.086
-439.778	-44.428	0.125	0.063
-438.763	-172.937	-0.301	-0.009
-437.749	30.971	0.419	0.360
-436.734	-35.379	-0.213	0.116
-435.719	50.877	-0.075	0.071
-434.705	85.987	-0.292	0.321
-433.690	43.905	0.157	0.144
-432.676	50.322	-0.263	-0.249
-431.661	101.446	0.087	0.101
-430.646	10.101	0.137	0.104
-429.632	232.164	0.025	0.042
-428.617	-200.000	-0.033	-0.282
-427.603	28.542	0.134	0.113
-426.588	800.000	-0.012	-0.036
-425.573	-115.493	-0.082	-0.015
-424.559	-79.487	0.197	0.067
-423.544	-200.000	-0.018	-0.099
-422.530	-108.639	0.043	-0.009
-421.515	-200.000	0.025	-0.229
-420.500	-36.444	-0.085	0.046
-419.486	87.323	-0.153	-0.169
-418.471	-25.822	-0.107	0.063
-417.457	14.622	0.212	-0.166
-416.442	30.970	0.193	0.165
-415.428	-200.000	0.022	0.269
-414.413	-120.795	-0.297	-0.050
-413.398	-69.465	0.089	0.034
-412.384	-34.620	-0.081	-0.044
-411.369	145.557	0.128	0.171
-410.355	-200.000	-0.025	-0.253
-409.340	105.997	0.191	-0.226
-408.325	94.317	0.129	0.147
-407.311	66.566	0.196	0.199
-406.296	-117.618	-0.292	-0.053
-405.282	-154.753	0.321	-0.021
-404.267	800.000	-0.087	0.260
-403.252	9.657	0.105	0.079
-402.238	175.111	-0.032	0.046
-401.223	-200.000	-0.006	-0.043
-400.209	-200.000	-0.059	0.350
-399.194	57.846	0.013	-0.013
-398.179	40.892	-0.113	-0.102
-397.165	-96.181	-0.175	-0.046
-396.150	-58.588	-0.174	-0.075
-395.136	-176.462	-0.235	0.006
-394.121	119.436	0.199	0.246
-393.106	-200.000	0.049	0.336
-392.092	-130.922	0.255	0.034
-391.077	-200.000	0.021	0.151
-390.063	66.855	-0.247	-0.252
-389.048	227.903	-0.343	-0.558
-388.033	-3.074	-0.421	-0.293
-387.019	204.907	0.066	0.103
-386.004	-130.220	-0.177	0.024
-384.990	101.153	0.330	0.384
-383.975	-200.000	0.013	0.181
-382.960	27.675	0.261	0.219
-381.946	-200.000	-0.027	-0.167
-380.931	603.179	0.201	0.499
-379.917	-151.562	0.358	0.026
-378.902	-200.000	0.046	0.214
-377.888	-84.655	-0.150	-0.047
-376.873	725.373	-0.062	0.164
-375.858	96.977	0.189	-0.216
-374.844	800.000	-0.091	-0.308
-373.829	18.050	0.183	0.146
-372.815	-155.618	0.238	0.015
-371.800	33.058	0.289	0.250
-370.785	-200.000	0.050	-0.282
-369.771	-60.069	-0.189	0.080
-368.756	-200.000	0.023	0.137
-367.742	74.393	-0.099	-0.104
-366.727	-144.826	0.260	-0.024
-365.712	234.461	0.056	0.093
-364.698	57.203	-0.044	-0.043
-363.683	-173.224	-0.111	-0.003
-362.669	381.059	-0.127	-0.261
-361.654	-83.070	0.200	-0.064
-360.639	670.073	0.091	-0.234
-359.625	35.243	0.102	-0.089
-358.610	-92.613	-0.222	0.062
-357.596	-50.071	-0.149	-0.070
-356.581	-200.000	0.010	0.061
-355.566	-13.243	-0.060	0.039
-354.552	-123.149	-0.441	-0.071
-353.537	308.118	0.051	-0.095
-352.523	667.111	-0.163	0.419
-351.508	-92.667	0.357	0.100
-350.493	43.008	0.067	-0.061
-349.479	-76.046	-0.334	0.118
-348.464	-4.176	0.283	-0.195
-347.450	-200.000	-0.057	0.271
-346.435	312.173	0.227	-0.426
-345.420	-116.069	0.269	0.050
-344.406	-200.000	0.010	0.250
-343.391	-24.367	-0.058	0.034
-342.377	314.307	-0.227	0.426
-341.362	-80.494	-0.170	-0.057
-340.348	107.350	-0.219	-0.260
-339.333	-110.552	0.110	-0.023
-338.318	10.466	0.254	-0.193
-337.304	-113.801	-0.120	0.023
-336.289	-200.000	0.008	-0.229
-335.275	292.422	0.149	0.271
-334.260	-30.821	-0.073	-0.041
-333.245	-174.938	0.145	0.004
-332.231	448.913	0.073	0.161
-331.216	38.594	-0.130	-0.116
-330.202	329.902	-0.031	0.059
-329.187	402.205	0.115	-0.241
-328.172	-40.371	0.162	-0.084
-327.158	4.308	0.113	-0.082
-326.143	460.200	0.123	0.273
-325.129	-119.058	-0.027	-0.005
-324.114	-159.787	0.030	-0.002
-323.099	456.693	-0.134	-0.297
-322.085	314.663	0.163	-0.306
-321.070	406.752	-0.124	0.261
-320.056	-70.141	-0.232	-0.088
-319.041	-91.739	0.319	0.090
-318.026	-114.232	-0.205	-0.039
-317.012	256.817	0.056	0.096
-315.997	266.153	-0.025	0.044
-314.983	-96.343	0.044	-0.012
-313.968	-200.000	-0.085	0.455
-312.953	35.405	0.090	-0.078
-311.939	-149.463	-0.237	-0.019
-310.924	-200.000	-0.093	0.540
-309.910	800.000	0.042	0.157
-308.895	-64.226	-0.259	0.105
-307.880	-200.000	-0.064	-0.311
-306.866	-4.610	-0.029	0.020
-305.851	-111.458	0.169	-0.034
-304.837	800.000	-0.077	-0.304
-303.822	7.123	0.300	-0.223
-302.807	35.324	0.209	-0.182
-301.793	71.201	-0.210	0.217
-300.778	-76.953	0.127	0.044
-299.764	107.268	0.040	0.047
-298.749	154.333	0.081	0.110
-297.735	162.203	0.216	0.301
-296.720	-63.027	0.286	0.118
-295.705	-86.620	-0.348	0.106
-294.691	72.244	-0.053	0.055
-293.676	-60.928	-0.386	-0.163
-292.662	800.000	0.075	0.274
-291.647	-0.582	0.175	0.124
-290.632	-144.738	0.307	-0.028
-289.618	6.349	0.130	0.096
-288.603	160.088	0.190	0.263
-287.589	-110.741	-0.070	-0.014
-286.574	800.000	0.017	-0.052
-285.559	658.620	-0.130	-0.334
-284.545	-71.426	-0.099	-0.037
-283.530	94.495	0.133	0.150
-282.516	786.126	0.093	-0.253
-281.501	-159.845	0.296	0.016
-280.486	-200.000	0.009	-0.068
-279.472	-200.000	0.002	0.011
-278.457	-200.000	0.008	0.093
-277.443	-18.930	-0.247	-0.153
-276.428	64.588	0.077	0.078
-275.413	-18.165	-0.318	0.198
-274.399	499.546	0.103	0.237
-273.384	-200.000	0.009	-0.427
-272.370	800.000	-0.030	0.088
-271.355	-91.443	0.390	0.111
-270.340	-131.254	0.258	-0.034
-269.326	800.000	0.050	-0.205
-268.311	35.887	0.233	-0.204
-267.297	-47.448	-0.292	0.141
-266.282	156.200	0.088	0.120
-265.267	152.889	0.099	0.134
-264.253	377.554	0.113	-0.230
-263.238	-17.246	0.194	0.122
-262.224	-200.000	0.030	0.197
-261.209	-200.000	0.027	0.346
-260.195	344.880	-0.090	-0.176
-259.180	-200.000	0.030	-0.209
-258.165	20.407	-0.155	-0.125
-257.151	-116.779	-0.100	-0.018
-256.136	244.671	0.162	-0.270
-255.122	439.178	0.065	0.140
-254.107	-130.963	-0.234	0.031
-253.092	101.518	-0.037	-0.043
-252.078	-200.000	-0.002	-0.013
-251.063	-137.572	-0.329	-0.037
-250.049	3.810	0.265	0.192
-249.034	-41.287	0.237	0.122
-248.019	-51.742	-0.288	0.133
-247.005	-127.270	0.243	0.035
-245.990	-1.415	-0.195	0.137
-244.976	800.000	0.057	-0.182
-243.961	-82.808	0.118	-0.038
-242.946	800.000	0.026	0.112
-241.932	-78.302	0.277	-0.094
-240.917	127.215	-0.253	-0.318
-239.903	417.432	0.038	0.080
-238.888	358.053	0.093	-0.185
-237.873	17.126	0.151	0.119
-236.859	92.738	0.048	-0.054
-235.844	-110.574	-0.095	0.019
-234.830	8.033	-0.211	0.157
-233.815	-100.032	0.148	-0.037
-232.800	89.726	-0.111	0.123
-231.786	-114.274	0.361	0.069
-230.771	-66.928	-0.097	0.038
-229.757	-37.691	0.196	0.103
-228.742	-200.000	-0.096	0.000
-227.727	-55.584	-0.309	0.137
-226.713	61.101	-0.032	0.031
-225.698	-67.795	0.393	-0.152
-224.684	132.943	-0.135	-0.173
-223.669	-200.000	0.025	0.130
-222.655	57.735	0.075	-0.073
-221.640	113.209	0.150	0.181
-220.625	-16.424	-0.176	-0.111
-219.611	-55.870	0.256	0.114
-218.596	-200.000	-0.008	0.231
-217.582	-36.110	-0.062	0.033
-216.567	-200.000	-0.053	-0.346
-215.552	-200.000	0.008	0.046
-214.538	-121.030	0.185	0.031
-213.523	800.000	-0.038	0.129
-212.509	-169.286	-0.263	0.010
-211.494	71.922	0.049	0.050
-210.479	32.225	0.057	0.049
-209.465	-81.904	-0.178	0.058
-208.450	-6.168	-0.140	0.095
-207.436	-115.403	0.080	0.015
-206.421	12.212	0.159	-0.121
-205.406	-17.413	0.243	0.152
-204.392	-180.758	-0.161	0.003
-203.377	185.147	-0.050	0.074
-202.363	-157.668	0.309	-0.018
-201.348	97.487	-0.176	0.201
-200.333	800.000	0.056	0.164
-199.319	-200.000	-0.070	-0.321
-198.304	-157.122	0.177	0.011
-197.290	203.206	-0.184	0.282
-196.275	7.317	-0.280	0.207
-195.260	-200.000	0.005	-0.178
-194.246	-200.000	-0.002	0.089
-193.231	-3.818	-0.066	-0.046
-192.217	61.472	0.073	-0.072
-191.202	13.867	-0.198	0.152
-190.187	-167.326	-0.242	-0.010
-189.173	292.090	0.051	0.093
-188.158	-89.652	-0.277	0.080
-187.144	800.000	0.093	-0.366
-186.129	-200.000	0.011	0.216
-185.114	-73.133	-0.362	-0.131
-184.100	-200.000	-0.019	-0.168
-183.085	248.054	-0.052	0.087
-182.071	138.084	0.195	-0.253
-181.056	-125.214	-0.302	-0.046
-180.042	-20.213	0.084	-0.051
-179.027	-200.000	-0.021	0.316
-178.012	-200.000	-0.010	0.098
-176.998	-21.977	0.130	0.078
-175.983	746.194	-0.080	0.212
-174.969	3.132	-0.219	-0.157
-173.954	48.578	-0.062	0.058
-172.939	-64.262	-0.252	0.102
-171.925	800.000	0.158	0.456
-170.910	-200.000	-0.012	-0.187
-169.896	-76.169	0.326	-0.114
-168.881	81.892	-0.108	0.116
-167.866	-200.000	-0.013	0.079
-166.852	800.000	0.137	-0.576
-165.837	-85.305	0.265	-0.082
-164.823	-200.000	0.027	-0.211
-163.808	800.000	0.105	-0.287
-162.793	-200.000	-0.000	-0.094
-161.779	493.964	-0.047	-0.107
-160.764	220.111	0.108	0.171
-159.750	800.000	-0.086	-0.284
-158.735	-81.235	-0.328	-0.107
-157.720	-102.717	-0.181	-0.043
-156.706	-111.556	0.206	0.041
-155.691	-101.308	0.286	-0.069
-154.677	-118.950	-0.231	0.040
-153.662	-98.644	0.320	-0.081
-152.647	197.351	0.163	-0.246
-151.633	55.556	-0.061	0.059
-150.618	-200.000	-0.016	0.089
-149.604	-24.477	0.135	-0.079
-148.589	-17.014	0.196	0.123
-147.574	-103.033	0.078	0.018
-146.560	800.000	0.118	-0.426
-145.545	-117.143	-0.126	-0.023
-144.531	40.822	0.070	0.062
-143.516	-53.891	0.233	-0.105
-142.502	-200.000	-0.011	0.425
-141.487	166.981	-0.105	-0.147
-140.472	-81.210	0.286	0.093
-139.458	-99.578	0.316	0.079
-138.443	-76.851	0.257	0.089
-137.429	-200.000	-0.048	0.371
-136.414	-4.489	-0.227	0.155
-135.399	74.545	0.103	0.107
-134.385	800.000	-0.115	0.487
-133.370	-21.290	0.142	0.086
-132.356	-112.538	-0.230	0.045
-131.341	-37.403	0.374	-0.197
-130.326	175.730	0.160	0.229
-129.312	800.000	-0.068	0.268
-128.297	-200.000	-0.004	-0.143
-127.283	-65.598	-0.100	-0.040
-126.268	-13.963	-0.172	-0.110
-125.253	-70.926	0.059	0.022
-124.239	136.575	-0.102	-0.132
-123.224	-169.243	0.102	-0.004
-122.210	-9.876	-0.236	-0.155
-121.195	-200.000	0.009	-0.179
