DTS Sentinel unit serial number:	SN413079Multiplexer serial number:	ORYXHardware model number:	OX4-SRSoftware version number:	ORYX F/W v4.00 Oryx Data Collector v3.7.2.0data status	okinstallation	princeton_trtdifferential loss correction	single-endedforward channel	channel 1reverse channel	N/Adate	2019/09/14time	06:58:36forward acquisition time	60.00reverse acquisition time	0.00gamma	496.2192k internal	0.2336k external	0.2336temperature offset calibration	1.0078default loss term (dB/km)	0.3790temperature slope calibration	1.0000multiplexer offset coefficient	1.0000multiplexer slope coefficient	1.0000fibre end	0.00T internal ref (°C)	26.19T ext. ref 1 (°C)	3.43T ext. ref 2 (°C)	21.00length (m)	temperature (°C)	Stokes	anti-Stokes-747.200	-151.862	-0.371	-0.027
-746.185	302.353	0.107	-0.199
-745.171	594.149	0.084	0.208
-744.156	-200.000	0.074	0.341
-743.142	494.827	0.095	0.220
-742.127	-34.328	-0.256	-0.141
-741.112	450.623	-0.151	0.334
-740.098	63.710	-0.245	0.247
-739.083	447.733	0.050	0.111
-738.069	800.000	-0.080	0.264
-737.054	-200.000	-0.089	-0.411
-736.039	155.165	-0.251	0.346
-735.025	-6.874	0.298	0.203
-734.010	84.381	-0.292	-0.321
-732.996	-20.057	0.063	0.039
-731.981	253.296	-0.231	-0.397
-730.966	-200.000	0.040	-0.305
-729.952	-188.106	-0.244	0.003
-728.937	-52.653	-0.199	-0.092
-727.923	-47.700	0.259	0.126
-726.908	106.832	-0.190	-0.226
-725.894	-200.000	0.015	-0.123
-724.879	-200.000	0.011	-0.106
-723.864	-6.809	-0.044	0.030
-722.850	4.940	-0.132	0.097
-721.835	-94.583	-0.252	0.069
-720.821	-200.000	-0.034	-0.181
-719.806	407.484	-0.119	-0.252
-718.791	-84.273	-0.096	-0.030
-717.777	-74.829	-0.254	-0.092
-716.762	-200.000	0.008	-0.156
-715.748	-70.009	-0.087	0.033
-714.733	-200.000	0.015	-0.212
-713.718	-11.563	0.120	0.079
-712.704	-149.059	0.194	-0.016
-711.689	77.328	-0.079	-0.084
-710.675	-179.737	-0.170	0.004
-709.660	-162.760	-0.191	0.009
-708.645	800.000	-0.051	-0.209
-707.631	-63.118	-0.053	-0.022
-706.616	800.000	-0.030	0.126
-705.602	56.581	-0.110	0.107
-704.587	-35.436	0.220	0.120
-703.572	73.023	-0.177	0.185
-702.558	365.693	0.059	0.120
-701.543	-196.511	0.025	0.000
-700.529	-200.000	-0.008	0.230
-699.514	789.693	-0.038	0.104
-698.499	36.970	-0.124	-0.110
-697.485	763.005	0.053	-0.143
-696.470	140.757	-0.055	-0.072
-695.456	207.523	-0.147	0.230
-694.441	-14.426	0.178	-0.115
-693.426	-71.143	-0.085	-0.032
-692.412	188.738	0.084	0.126
-691.397	-71.278	0.180	0.068
-690.383	2.685	0.219	0.159
-689.368	-173.261	-0.232	-0.007
-688.354	800.000	-0.023	0.083
-687.339	-100.933	0.134	0.033
-686.324	297.469	-0.052	0.096
-685.310	58.430	0.111	-0.109
-684.295	800.000	-0.069	0.202
-683.281	555.135	-0.106	0.255
-682.266	-196.745	0.244	0.002
-681.251	-155.456	0.081	0.005
-680.237	35.178	0.015	0.013
-679.222	8.411	0.120	-0.090
-678.208	-127.650	-0.155	-0.022
-677.193	194.721	-0.051	0.077
-676.178	344.491	0.072	0.141
-675.164	-135.579	-0.085	0.010
-674.149	107.002	0.231	-0.275
-673.135	113.088	0.156	-0.190
-672.120	-115.264	0.251	0.047
-671.105	346.790	-0.013	0.025
-670.091	-153.211	0.168	-0.012
-669.076	156.442	-0.181	0.250
-668.062	-51.403	-0.116	0.054
-667.047	72.130	0.205	0.214
-666.032	-122.029	-0.429	0.071
-665.018	-200.000	0.023	-0.240
-664.003	-109.857	0.343	0.072
-662.989	-145.060	-0.078	0.007
-661.974	-68.440	-0.374	0.145
-660.959	139.244	-0.162	-0.213
-659.945	-200.000	0.046	-0.436
-658.930	-200.000	0.002	-0.220
-657.916	102.606	0.097	-0.114
-656.901	-4.781	-0.031	-0.022
-655.886	33.320	-0.202	0.175
-654.872	800.000	-0.022	-0.066
-653.857	-44.325	0.134	0.067
-652.843	-61.364	-0.251	-0.106
-651.828	64.280	0.070	0.070
-650.814	215.279	-0.073	-0.116
-649.799	1.453	0.193	-0.139
-648.784	-123.092	-0.282	0.045
-647.770	-70.674	-0.157	-0.059
-646.755	-94.931	-0.120	-0.032
-645.741	178.188	0.188	-0.275
-644.726	614.991	0.089	0.223
-643.711	79.843	-0.091	-0.097
-642.697	223.147	0.138	-0.223
-641.682	-89.008	-0.086	0.026
-640.668	-200.000	0.013	-0.282
-639.653	800.000	0.016	-0.049
-638.638	-81.525	0.178	-0.059
-637.624	-70.290	0.250	-0.095
-636.609	114.900	0.078	0.095
-635.595	-159.236	0.224	0.013
-634.580	-61.376	0.371	0.156
-633.565	660.826	-0.123	-0.316
-632.551	263.479	-0.200	0.347
-631.536	-37.476	-0.200	0.107
-630.522	-61.069	0.292	-0.123
-629.507	76.249	0.126	-0.133
-628.492	-108.935	0.104	-0.022
-627.478	1.289	-0.126	-0.091
-626.463	190.438	0.257	-0.386
-625.449	-98.700	-0.611	-0.156
-624.434	157.548	-0.124	-0.172
-623.419	2.265	-0.026	0.019
-622.405	-90.968	-0.373	-0.107
-621.390	-25.246	-0.054	-0.032
-620.376	-89.914	-0.409	0.120
-619.361	33.834	0.293	0.255
-618.346	-200.000	0.038	-0.176
-617.332	157.370	-0.054	-0.075
-616.317	-98.165	-0.168	-0.043
-615.303	-73.492	-0.158	-0.057
-614.288	-43.670	-0.080	0.040
-613.273	-156.695	-0.377	0.023
-612.259	304.538	0.025	-0.046
-611.244	30.571	0.088	-0.075
-610.230	67.407	-0.128	0.131
-609.215	-50.237	-0.279	-0.132
-608.201	-154.885	0.153	-0.010
-607.186	-200.000	0.001	-0.200
-606.171	-42.669	0.204	0.104
-605.157	-101.071	0.239	0.058
-604.142	190.177	0.167	-0.251
-603.128	-74.569	-0.275	-0.099
-602.113	232.361	0.158	-0.259
-601.098	301.248	0.146	-0.268
-600.084	-200.000	0.013	-0.103
-599.069	-200.000	-0.070	0.339
-598.055	163.235	-0.130	-0.182
-597.040	-2.978	-0.072	0.050
-596.025	-43.121	0.474	0.240
-595.011	-167.771	-0.150	0.006
-593.996	784.946	-0.106	0.290
-592.982	-200.000	-0.022	0.317
-591.967	209.959	0.089	0.140
-590.952	201.500	0.096	0.148
-589.938	-116.373	-0.154	-0.028
-588.923	364.065	0.047	-0.095
-587.909	-52.974	0.320	-0.147
-586.894	-200.000	-0.020	0.162
-585.879	30.135	-0.041	-0.035
-584.865	-58.928	-0.268	-0.116
-583.850	142.466	0.118	-0.156
-582.836	642.009	-0.091	0.232
-581.821	-7.328	-0.116	-0.078
-580.806	800.000	-0.076	-0.253
-579.792	-183.655	0.253	0.004
-578.777	-75.173	0.145	-0.052
-577.763	-6.660	0.128	-0.087
-576.748	800.000	-0.066	-0.238
-575.733	117.527	-0.104	-0.127
-574.719	-131.003	-0.180	-0.024
-573.704	163.801	-0.109	0.153
-572.690	15.779	0.046	-0.036
-571.675	-61.970	-0.163	0.068
-570.661	-200.000	0.028	0.408
-569.646	7.493	-0.194	0.145
-568.631	-200.000	0.017	0.211
-567.617	107.687	-0.111	0.132
-566.602	88.884	-0.053	0.059
-565.588	140.274	-0.016	-0.021
-564.573	-40.026	-0.345	-0.179
-563.558	-30.315	0.058	-0.033
-562.544	-2.262	0.114	-0.080
-561.529	-200.000	-0.043	-0.223
-560.515	-187.581	0.201	0.003
-559.500	800.000	0.036	-0.130
-558.485	-88.829	0.309	-0.091
-557.471	800.000	0.085	-0.319
-556.456	-200.000	0.026	-0.237
-555.442	800.000	-0.017	-0.065
-554.427	22.860	0.068	-0.056
-553.412	170.126	0.034	0.048
-552.398	241.788	-0.120	-0.199
-551.383	18.012	0.190	-0.151
-550.369	800.000	-0.021	0.058
-549.354	224.568	0.080	-0.129
-548.339	74.716	-0.222	-0.232
-547.325	-200.000	-0.117	0.000
-546.310	220.073	-0.102	0.162
-545.296	-105.778	0.344	0.077
-544.281	68.767	-0.219	-0.224
-543.266	-76.760	-0.191	0.067
-542.252	-70.034	-0.109	0.041
-541.237	-118.953	0.184	0.032
-540.223	81.089	0.264	0.284
-539.208	800.000	-0.072	0.201
-538.193	782.809	-0.015	0.042
-537.179	276.742	0.156	0.277
-536.164	800.000	0.107	-0.413
-535.150	-200.000	-0.055	-0.278
-534.135	-23.586	-0.252	-0.151
-533.121	47.214	-0.117	-0.109
-532.106	-97.602	-0.262	0.068
-531.091	-21.660	-0.096	-0.058
-530.077	-5.320	0.216	-0.148
-529.062	361.862	-0.043	-0.086
-528.048	-33.685	0.232	0.128
-527.033	171.177	0.058	-0.083
-526.018	-175.486	-0.065	0.002
-525.004	718.159	-0.016	-0.042
-523.989	-29.890	-0.235	0.133
-522.975	-200.000	0.052	-0.444
-521.960	460.275	-0.147	-0.327
-520.945	58.274	-0.026	0.025
-519.931	170.182	0.233	0.332
-518.916	58.391	-0.147	-0.144
-517.902	-200.000	0.050	-0.251
-516.887	617.615	0.043	0.106
-515.872	-92.070	-0.125	0.035
-514.858	31.565	-0.259	0.222
-513.843	-115.137	0.028	-0.005
-512.829	-28.669	0.248	0.142
-511.814	52.072	0.182	0.172
-510.799	-200.000	0.010	0.156
-509.785	800.000	-0.044	0.129
-508.770	-36.361	-0.288	-0.154
-507.756	-2.344	0.274	-0.191
-506.741	102.183	0.117	0.136
-505.726	-62.984	-0.156	-0.064
-504.712	599.351	0.085	-0.210
-503.697	-95.204	0.402	0.108
-502.683	149.917	-0.064	0.087
-501.668	-33.679	0.221	0.121
-500.653	-162.822	-0.169	0.008
-499.639	800.000	-0.048	0.189
-498.624	-200.000	0.019	0.150
-497.610	703.839	-0.049	0.129
-496.595	488.438	0.115	0.261
-495.581	120.433	0.182	0.224
-494.566	-200.000	-0.192	-0.000
-493.551	299.978	-0.139	-0.254
-492.537	-39.067	-0.269	-0.141
-491.522	-116.253	0.231	0.043
-490.508	-32.441	0.173	0.096
-489.493	349.874	-0.089	0.174
-488.478	-200.000	0.060	0.331
-487.464	245.734	-0.056	-0.095
-486.449	-105.850	0.368	-0.083
-485.435	76.487	-0.106	0.112
-484.420	451.878	0.050	0.111
-483.405	-102.279	-0.170	0.041
-482.391	-98.358	-0.606	-0.154
-481.376	-3.478	0.077	0.053
-480.362	97.666	0.127	-0.146
-479.347	-39.434	0.119	-0.062
-478.332	-91.426	0.148	-0.042
-477.318	800.000	-0.042	-0.130
-476.303	-100.702	-0.148	-0.036
-475.289	-122.143	0.321	-0.052
-474.274	257.053	0.012	0.021
-473.259	17.843	-0.214	-0.169
-472.245	110.449	0.073	-0.087
-471.230	166.022	-0.086	0.120
-470.216	-165.563	0.326	-0.014
-469.201	110.819	0.109	0.130
-468.186	-125.613	-0.281	0.042
-467.172	355.777	0.096	-0.190
-466.157	-37.471	-0.243	-0.129
-465.143	-200.000	0.035	-0.384
-464.128	-136.294	-0.178	-0.021
-463.113	-43.702	0.195	0.098
-462.099	800.000	-0.108	-0.326
-461.084	-200.000	0.028	0.225
-460.070	663.468	0.169	0.432
-459.055	-102.847	0.241	-0.057
-458.040	-127.700	-0.053	-0.008
-457.026	-74.710	0.301	0.107
-456.011	103.663	0.106	0.124
-454.997	-124.427	-0.124	-0.019
-453.982	-200.000	0.054	-0.281
-452.968	800.000	-0.054	0.196
-451.953	677.869	0.013	-0.034
-450.938	174.217	-0.192	-0.276
-449.924	390.566	-0.081	0.167
-448.909	132.168	0.112	-0.144
-447.895	182.313	-0.075	-0.110
-446.880	32.568	0.138	-0.119
-445.865	71.811	0.091	0.094
-444.851	349.512	0.059	0.116
-443.836	-14.449	0.097	-0.062
-442.822	800.000	0.162	-0.489
-441.807	336.119	-0.042	-0.080
-440.792	126.163	0.173	0.217
-439.778	-35.535	-0.218	-0.117
-438.763	-72.905	0.337	-0.123
-437.749	267.827	0.088	-0.153
-436.734	-76.829	0.349	0.121
-435.719	701.376	0.040	-0.104
-434.705	275.076	-0.078	0.137
-433.690	155.099	0.139	-0.189
-432.676	-200.000	-0.046	0.411
-431.661	800.000	0.119	-0.329
-430.646	-200.000	0.006	-0.095
-429.632	-200.000	0.061	0.308
-428.617	-200.000	0.066	0.308
-427.603	71.648	0.144	0.148
-426.588	18.278	-0.275	-0.217
-425.573	-60.885	-0.286	0.120
-424.559	106.480	0.064	0.075
-423.544	-25.885	-0.077	0.045
-422.530	800.000	-0.063	-0.220
-421.515	-48.344	-0.277	-0.133
-420.500	800.000	-0.074	-0.225
-419.486	-200.000	-0.023	0.162
-418.471	59.149	0.157	0.153
-417.457	-32.001	0.051	0.028
-416.442	453.576	-0.081	0.177
-415.428	-62.167	-0.307	0.127
-414.413	283.786	-0.182	0.324
-413.398	405.046	0.046	-0.095
-412.384	-135.075	-0.283	0.034
-411.369	-32.241	-0.228	0.126
-410.355	800.000	0.069	-0.213
-409.340	-149.188	0.328	0.026
-408.325	-138.208	-0.226	-0.025
-407.311	-146.046	-0.288	-0.025
-406.296	117.720	0.229	0.279
-405.282	-4.055	0.254	-0.174
-404.267	-10.792	-0.211	-0.138
-403.252	224.133	-0.049	0.078
-402.238	-113.657	-0.216	-0.042
-401.223	-15.454	-0.093	0.059
-400.209	-38.754	-0.414	0.216
-399.194	-169.344	-0.130	-0.005
-398.179	65.283	0.287	0.288
-397.165	-107.921	0.180	-0.039
-396.150	-169.694	0.140	0.005
-395.136	317.177	0.190	0.356
-394.121	19.636	0.256	0.204
-393.106	18.008	0.255	0.201
-392.092	85.026	0.134	0.145
-391.077	-200.000	-0.021	-0.142
-390.063	-69.664	-0.071	0.027
-389.048	202.644	0.175	-0.267
-388.033	424.132	0.195	0.415
-387.019	-4.909	-0.218	0.149
-386.004	800.000	0.034	0.098
-384.990	22.721	-0.142	-0.115
-383.975	-5.427	0.241	0.164
-382.960	-102.335	0.099	-0.023
-381.946	121.763	0.167	-0.206
-380.931	-162.154	-0.302	-0.015
-379.917	-194.691	-0.189	0.001
-378.902	350.943	-0.103	-0.202
-377.888	-52.270	0.230	-0.106
-376.873	-200.000	0.027	-0.149
-375.858	125.876	0.038	0.047
-374.844	-98.326	0.284	0.072
-373.829	800.000	-0.037	-0.134
-372.815	-200.000	0.003	-0.207
-371.800	69.917	0.212	-0.217
-370.785	126.817	-0.044	-0.055
-369.771	-200.000	-0.063	-0.316
-368.756	351.468	-0.104	-0.205
-367.742	-118.826	-0.071	-0.012
-366.727	127.402	0.056	-0.071
-365.712	800.000	0.058	-0.238
-364.698	681.608	0.135	-0.347
-363.683	-70.756	0.273	-0.102
-362.669	24.401	0.148	0.121
-361.654	43.316	0.268	-0.242
-360.639	724.603	0.040	0.105
-359.625	800.000	-0.175	-0.580
-358.610	194.961	-0.035	-0.052
-357.596	57.204	0.023	0.023
-356.581	134.678	-0.201	-0.258
-355.566	-200.000	-0.060	0.406
-354.552	-200.000	-0.077	-0.342
-353.537	800.000	0.058	0.222
-352.523	58.839	-0.292	0.284
-351.508	-91.903	0.054	0.015
-350.493	800.000	-0.098	-0.316
-349.479	100.838	0.292	0.336
-348.464	756.959	-0.088	-0.236
-347.450	-143.194	-0.148	-0.014
-346.435	-200.000	-0.007	-0.168
-345.420	-63.634	-0.119	-0.048
-344.406	379.041	0.047	-0.095
-343.391	-100.771	-0.353	-0.086
-342.377	-200.000	-0.015	0.406
-341.362	-200.000	0.004	0.110
-340.348	68.354	-0.114	0.115
-339.333	267.892	0.132	0.228
-338.318	463.024	0.107	-0.235
-337.304	-8.541	-0.335	-0.223
-336.289	-200.000	0.081	0.354
-335.275	-85.843	-0.155	0.047
-334.260	-95.828	-0.195	0.052
-333.245	-200.000	0.021	0.226
-332.231	156.108	-0.219	0.299
-331.216	394.260	0.036	0.074
-330.202	75.805	0.212	-0.221
-329.187	800.000	-0.049	0.156
-328.172	-58.035	-0.076	-0.033
-327.158	-60.553	-0.332	-0.139
-326.143	800.000	0.063	0.183
-325.129	-39.946	0.095	-0.049
-324.114	307.652	0.073	-0.134
-323.099	-52.867	-0.007	-0.003
-322.085	234.289	-0.127	-0.207
-321.070	-200.000	-0.010	0.107
-320.056	800.000	-0.037	-0.130
-319.041	80.829	0.166	-0.176
-318.026	-132.958	0.046	0.006
-317.012	-200.000	-0.065	0.298
-315.997	200.265	0.025	-0.038
-314.983	-179.121	-0.396	0.009
-313.968	305.341	-0.117	0.215
-312.953	74.781	0.256	-0.266
-311.939	-61.716	0.105	-0.043
-310.924	800.000	-0.022	0.083
-309.910	-200.000	0.013	-0.168
-308.895	-79.670	-0.312	-0.104
-307.880	-200.000	0.009	0.062
-306.866	800.000	0.100	0.321
-305.851	397.952	-0.029	0.059
-304.837	-200.000	-0.034	-0.200
-303.822	-121.998	0.289	-0.047
-302.807	-200.000	0.023	-0.400
-301.793	-5.573	-0.217	-0.147
-300.778	-31.670	-0.245	0.136
-299.764	56.601	-0.117	-0.113
-298.749	7.424	-0.305	-0.225
-297.735	200.807	-0.102	0.155
-296.720	155.428	0.081	0.111
-295.705	-44.659	-0.144	0.071
-294.691	800.000	0.040	0.121
-293.676	406.802	0.143	0.299
-292.662	279.800	-0.109	0.192
-291.647	-200.000	0.015	-0.270
-290.632	-149.083	0.171	-0.014
-289.618	309.689	-0.166	-0.307
-288.603	-200.000	-0.000	-0.286
-287.589	-200.000	-0.067	-0.365
-286.574	158.236	-0.286	0.391
-285.559	-88.463	-0.147	-0.043
-284.545	-84.393	-0.196	-0.061
-283.530	-45.241	-0.136	-0.066
-282.516	-81.474	0.263	0.085
-281.501	91.174	-0.037	-0.041
-280.486	404.145	0.060	0.125
-279.472	-39.015	-0.194	-0.100
-278.457	157.211	-0.182	0.248
-277.443	-200.000	0.020	0.209
-276.428	-200.000	0.024	0.279
-275.413	-200.000	-0.036	0.313
-274.399	18.001	0.088	0.069
-273.384	-200.000	-0.005	0.132
-272.370	800.000	0.050	-0.205
-271.355	62.089	0.086	-0.084
-270.340	42.155	-0.222	-0.198
-269.326	-97.235	0.159	0.041
-268.311	111.875	-0.092	0.109
-267.297	-26.849	-0.324	-0.187
-266.282	800.000	-0.083	0.241
-265.267	250.291	0.171	0.287
-264.253	271.667	0.062	-0.108
-263.238	-146.460	-0.220	0.019
-262.224	-184.270	-0.209	0.003
-261.209	74.892	0.056	-0.058
-260.195	455.712	0.051	-0.111
-259.180	162.935	-0.083	0.114
-258.165	-67.093	0.162	-0.063
-257.151	-200.000	-0.036	0.173
-256.136	470.719	0.126	-0.280
-255.122	-200.000	0.017	0.088
-254.107	-96.582	0.251	0.065
-253.092	800.000	0.080	0.240
-252.078	-200.000	-0.037	-0.246
-251.063	-182.181	0.345	-0.006
-250.049	-170.164	-0.161	0.006
-249.034	218.532	-0.183	-0.287
-248.019	176.549	-0.024	0.034
-247.005	350.202	-0.052	-0.102
-245.990	-200.000	0.071	-0.361
-244.976	-131.449	-0.156	-0.020
-243.961	25.409	0.043	-0.035
-242.946	-200.000	0.037	-0.228
-241.932	33.976	0.120	0.103
-240.917	800.000	-0.048	0.180
-239.903	151.875	0.160	-0.215
-238.888	800.000	0.109	0.457
-237.873	-105.480	0.166	-0.037
-236.859	340.535	-0.116	0.224
-235.844	-8.283	0.123	-0.082
-234.830	800.000	0.033	0.129
-233.815	477.595	-0.228	0.508
-232.800	-78.525	0.165	0.056
-231.786	-98.831	0.254	-0.064
-230.771	562.486	-0.034	0.081
-229.757	89.585	-0.157	0.172
-228.742	800.000	0.101	0.380
-227.727	62.633	-0.114	-0.112
-226.713	126.131	-0.215	-0.267
-225.698	-149.592	0.350	-0.027
-224.684	-200.000	0.006	0.312
-223.669	-26.724	0.241	0.139
-222.655	133.142	0.131	0.167
-221.640	-123.304	0.369	-0.058
-220.625	-200.000	-0.006	0.182
-219.611	800.000	-0.043	-0.126
-218.596	45.856	0.057	0.052
-217.582	164.423	-0.185	0.256
-216.567	280.341	-0.156	0.274
-215.552	63.836	0.083	0.083
-214.538	213.677	0.069	0.107
-213.523	-9.292	-0.379	-0.249
-212.509	-23.191	0.251	-0.149
-211.494	215.190	0.128	0.200
-210.479	-200.000	-0.007	-0.209
-209.465	800.000	0.014	-0.053
-208.450	-26.773	0.387	-0.223
-207.436	-200.000	-0.003	0.176
-206.421	37.947	0.051	0.045
-205.406	21.235	0.078	0.062
-204.392	280.296	0.170	0.299
-203.377	-200.000	-0.008	0.042
-202.363	-200.000	0.014	0.091
-201.348	-90.962	-0.105	0.030
-200.333	560.881	0.115	0.274
-199.319	800.000	0.112	0.312
-198.304	-112.149	-0.295	0.058
-197.290	-37.891	0.285	0.149
-196.275	6.328	0.372	0.271
-195.260	-96.660	-0.310	-0.080
-194.246	23.437	-0.014	-0.012
-193.231	-200.000	-0.004	-0.063
-192.217	446.532	0.039	-0.085
-191.202	-200.000	-0.010	0.316
-190.187	-71.011	0.285	0.105
-189.173	686.032	-0.072	-0.184
-188.158	176.557	-0.123	0.175
-187.144	-200.000	-0.028	-0.171
-186.129	53.886	0.190	0.179
-185.114	800.000	-0.013	0.047
-184.100	-9.574	0.132	0.086
-183.085	-73.030	-0.094	-0.034
-182.071	-24.204	0.207	-0.121
-181.056	-69.884	0.289	0.108
-180.042	800.000	0.021	0.065
-179.027	-75.516	-0.346	-0.121
-178.012	391.963	0.060	-0.123
-176.998	637.596	-0.046	-0.116
-175.983	4.351	0.324	0.233
-174.969	156.323	-0.046	0.062
-173.954	31.020	0.069	-0.058
-172.939	800.000	0.087	-0.287
-171.925	-200.000	-0.009	0.284
-170.910	-18.393	-0.364	0.223
-169.896	28.551	-0.202	-0.168
-168.881	-5.930	-0.452	-0.304
-167.866	83.410	-0.197	-0.211
-166.852	98.250	-0.018	0.021
-165.837	-200.000	-0.023	0.118
-164.823	-64.561	0.166	0.066
-163.808	367.678	-0.031	0.061
-162.793	-68.640	-0.112	0.043
-161.779	800.000	0.023	0.072
-160.764	-200.000	-0.018	-0.175
-159.750	53.322	-0.075	0.071
-158.735	-200.000	-0.026	0.319
-157.720	-123.902	-0.160	0.025
-156.706	178.442	0.124	-0.178
-155.691	-200.000	0.053	0.357
-154.677	-51.910	0.386	0.176
-153.662	-200.000	-0.020	-0.265
-152.647	-171.834	0.167	-0.005
-151.633	800.000	-0.015	0.044
-150.618	704.334	0.056	-0.145
-149.604	63.154	-0.117	-0.115
-148.589	66.147	0.123	0.123
-147.574	-29.519	-0.214	-0.120
-146.560	-61.844	-0.239	-0.098
-145.545	59.551	0.044	-0.043
-144.531	419.646	0.040	0.085
-143.516	56.482	-0.181	-0.173
-142.502	800.000	-0.071	0.219
-141.487	-147.291	-0.251	0.021
-140.472	800.000	0.039	-0.163
-139.458	-200.000	-0.054	0.286
-138.443	211.310	0.030	0.047
-137.429	405.853	0.079	0.164
-136.414	-47.942	0.034	0.016
-135.399	554.135	-0.044	0.103
-134.385	-200.000	0.008	0.235
-133.370	94.508	0.225	0.250
-132.356	800.000	0.066	0.227
-131.341	-200.000	0.033	-0.444
-130.326	625.936	0.069	-0.172
-129.312	184.762	0.228	0.332
-128.297	218.830	0.156	0.244
-127.283	-122.207	0.172	-0.028
-126.268	182.639	-0.110	-0.160
-125.253	-200.000	0.004	-0.060
-124.239	-1.699	-0.055	-0.038
-123.224	-58.116	0.225	-0.096
-122.210	-109.980	0.373	0.077
-121.195	88.446	-0.236	0.257
-120.180	-7.512	0.199	-0.132
