DTS Sentinel unit serial number:	SN413079Multiplexer serial number:	ORYXHardware model number:	OX4-SRSoftware version number:	ORYX F/W v4.00 Oryx Data Collector v3.7.2.0data status	okinstallation	princeton_trtdifferential loss correction	single-endedforward channel	channel 1reverse channel	N/Adate	2019/09/17time	05:18:35forward acquisition time	60.00reverse acquisition time	0.00gamma	496.2192k internal	0.2324k external	0.2324temperature offset calibration	0.9967default loss term (dB/km)	0.3790temperature slope calibration	1.0000multiplexer offset coefficient	1.0000multiplexer slope coefficient	1.0000fibre end	0.00T internal ref (°C)	29.37T ext. ref 1 (°C)	0.14T ext. ref 2 (°C)	23.70length (m)	temperature (°C)	Stokes	anti-Stokes-747.200	-24.651	-0.281	0.169
-746.185	66.087	-0.377	0.387
-745.171	-200.000	0.008	0.197
-744.156	-146.588	0.131	-0.011
-743.142	47.206	0.132	0.124
-742.127	-200.000	0.019	0.298
-741.112	-200.000	0.022	0.176
-740.098	-35.641	-0.188	0.103
-739.083	156.303	-0.204	0.283
-738.069	634.987	-0.198	0.508
-737.054	667.136	-0.034	-0.087
-736.039	18.652	-0.111	0.090
-735.025	-103.192	0.063	0.015
-734.010	432.545	-0.043	-0.094
-732.996	71.253	-0.195	-0.204
-731.981	449.595	0.060	-0.134
-730.966	800.000	-0.019	-0.061
-729.952	800.000	0.069	0.290
-728.937	-83.613	-0.191	-0.062
-727.923	412.269	0.170	-0.365
-726.908	-200.000	0.007	-0.516
-725.894	800.000	-0.026	0.111
-724.879	260.636	0.071	0.123
-723.864	-200.000	-0.003	-0.197
-722.850	-200.000	0.015	-0.081
-721.835	414.304	0.069	-0.148
-720.821	179.832	0.167	0.248
-719.806	8.183	-0.146	-0.111
-718.791	-200.000	-0.011	0.062
-717.777	-0.640	-0.353	-0.252
-716.762	800.000	-0.073	-0.266
-715.748	149.327	0.179	-0.245
-714.733	148.764	-0.194	-0.264
-713.718	800.000	-0.019	-0.053
-712.704	-154.485	-0.083	0.006
-711.689	-74.585	0.234	0.085
-710.675	800.000	0.049	-0.198
-709.660	-47.551	0.139	0.068
-708.645	-23.889	-0.148	0.089
-707.631	92.315	0.108	-0.123
-706.616	-200.000	-0.016	-0.092
-705.602	668.744	0.062	-0.162
-704.587	-17.826	-0.102	0.065
-703.572	-181.105	0.223	-0.004
-702.558	42.309	0.040	-0.037
-701.543	251.520	0.042	0.072
-700.529	-200.000	0.009	0.268
-699.514	-26.715	0.245	-0.144
-698.499	-136.153	-0.193	-0.023
-697.485	11.113	0.177	-0.136
-696.470	81.795	-0.126	-0.138
-695.456	286.421	-0.136	0.247
-694.441	-48.217	-0.218	0.106
-693.426	-21.976	0.173	0.106
-692.412	-200.000	-0.010	-0.419
-691.397	-109.060	0.158	-0.034
-690.383	-200.000	-0.012	-0.194
-689.368	-25.259	-0.218	0.130
-688.354	78.873	-0.086	-0.093
-687.339	-79.426	-0.205	-0.070
-686.324	-184.251	-0.297	-0.005
-685.310	-11.354	-0.177	-0.118
-684.295	-112.374	0.066	0.013
-683.281	-39.011	-0.065	0.034
-682.266	10.932	-0.140	0.108
-681.251	24.284	0.167	-0.139
-680.237	137.931	-0.139	-0.184
-679.222	800.000	-0.042	0.155
-678.208	259.491	-0.134	0.233
-677.193	-200.000	-0.029	0.199
-676.178	222.221	0.107	-0.174
-675.164	-200.000	0.005	-0.138
-674.149	93.767	-0.097	-0.111
-673.135	-0.455	-0.158	0.113
-672.120	-89.362	-0.280	-0.083
-671.105	-143.297	-0.138	0.013
-670.091	-78.354	-0.144	-0.050
-669.076	-200.000	-0.019	0.197
-668.062	-146.349	-0.357	-0.031
-667.047	-91.797	-0.123	0.035
-666.032	-80.272	0.207	-0.070
-665.018	-72.347	-0.319	0.119
-664.003	-126.379	-0.178	-0.027
-662.989	299.968	0.106	0.197
-661.974	-111.405	-0.305	-0.062
-660.959	-7.294	-0.108	-0.073
-659.945	-24.285	-0.247	-0.148
-658.930	-171.969	-0.237	-0.008
-657.916	35.275	0.157	-0.139
-656.901	-190.163	-0.389	-0.004
-655.886	195.126	0.155	0.236
-654.872	-106.128	-0.335	0.076
-653.857	-20.136	-0.153	-0.095
-652.843	-150.333	-0.184	-0.014
-651.828	42.896	-0.189	-0.173
-650.814	-89.863	-0.220	-0.065
-649.799	-56.055	0.144	-0.065
-648.784	-79.641	0.092	-0.031
-647.770	-74.134	-0.173	-0.063
-646.755	-200.000	0.246	-0.001
-645.741	800.000	0.037	-0.129
-644.726	-200.000	-0.006	-0.069
-643.711	800.000	0.106	-0.447
-642.697	117.114	0.246	-0.304
-641.682	7.284	-0.234	-0.176
-640.668	-200.000	0.056	0.343
-639.653	-79.540	-0.224	0.076
-638.638	-200.000	-0.033	-0.206
-637.624	-200.000	0.035	-0.191
-636.609	361.277	-0.107	-0.216
-635.595	-150.785	0.174	0.013
-634.580	415.628	0.087	-0.186
-633.565	220.484	0.101	-0.163
-632.551	-200.000	0.027	-0.251
-631.536	-52.974	0.159	-0.074
-630.522	-32.356	-0.200	0.112
-629.507	-42.428	0.132	-0.068
-628.492	-200.000	0.019	-0.098
-627.478	-200.000	0.029	-0.247
-626.463	-5.011	-0.149	-0.103
-625.449	476.927	-0.097	-0.221
-624.434	-114.268	0.105	0.020
-623.419	-103.696	-0.201	-0.047
-622.405	-200.000	-0.057	0.402
-621.390	-125.094	0.446	-0.069
-620.376	-87.211	0.105	0.032
-619.361	-132.971	-0.270	0.035
-618.346	509.140	0.185	0.431
-617.332	1.897	0.345	0.250
-616.317	179.722	0.127	-0.187
-615.303	-200.000	-0.015	-0.189
-614.288	294.545	-0.010	0.018
-613.273	-191.656	0.242	-0.002
-612.259	-86.446	-0.151	0.047
-611.244	-200.000	-0.028	0.224
-610.230	151.105	0.157	-0.214
-609.215	-36.284	0.292	-0.158
-608.201	-83.298	-0.187	-0.060
-607.186	-120.910	-0.142	0.024
-606.171	250.321	-0.195	0.332
-605.157	262.968	-0.098	-0.171
-604.142	167.765	0.028	-0.039
-603.128	-200.000	0.046	-0.205
-602.113	-104.159	0.250	-0.058
-601.098	800.000	-0.024	0.082
-600.084	-13.618	0.150	0.098
-599.069	203.216	0.145	0.225
-598.055	-200.000	0.065	0.379
-597.040	-200.000	-0.012	-0.085
-596.025	-200.000	0.011	0.220
-595.011	-200.000	-0.003	0.062
-593.996	74.247	-0.185	0.195
-592.982	-200.000	0.018	-0.142
-591.967	-60.957	-0.177	0.075
-590.952	73.763	0.147	0.155
-589.938	-200.000	0.050	-0.227
-588.923	-200.000	0.029	-0.189
-587.909	31.802	0.235	0.203
-586.894	149.993	0.241	-0.328
-585.879	-74.317	-0.307	-0.111
-584.865	-7.959	-0.095	0.064
-583.850	-20.186	-0.047	-0.029
-582.836	316.156	-0.043	-0.081
-581.821	-183.351	-0.023	0.000
-580.806	403.481	0.058	0.122
-579.792	-200.000	0.015	-0.214
-578.777	-200.000	0.035	-0.229
-577.763	-200.000	-0.012	-0.107
-576.748	93.778	-0.125	-0.142
-575.733	-82.066	0.344	-0.112
-574.719	-95.668	-0.136	-0.037
-573.704	-75.004	0.251	-0.090
-572.690	74.177	-0.133	-0.140
-571.675	800.000	0.104	-0.308
-570.661	61.159	0.338	0.337
-569.646	202.261	-0.288	0.446
-568.631	105.885	-0.144	-0.170
-567.617	-150.236	0.215	-0.017
-566.602	6.263	0.220	0.164
-565.588	-127.113	-0.107	-0.016
-564.573	-21.918	0.176	0.108
-563.558	10.949	0.240	-0.184
-562.544	-58.916	0.111	0.048
-561.529	-102.858	0.130	-0.031
-560.515	-20.058	-0.047	-0.029
-559.500	800.000	0.086	-0.276
-558.485	-57.891	0.159	-0.069
-557.471	5.417	-0.337	0.249
-556.456	0.339	-0.135	-0.096
-555.442	50.098	-0.213	0.201
-554.427	-186.924	0.291	-0.004
-553.412	343.050	-0.167	-0.327
-552.398	142.240	0.141	-0.187
-551.383	527.571	0.049	0.115
-550.369	-87.298	-0.185	0.056
-549.354	621.605	0.138	0.348
-548.339	1.501	0.151	-0.109
-547.325	-97.944	0.189	-0.049
-546.310	-30.927	-0.200	-0.113
-545.296	42.216	-0.147	0.134
-544.281	800.000	0.016	-0.065
-543.266	800.000	0.027	0.110
-542.252	250.050	-0.176	-0.299
-541.237	662.779	0.146	-0.377
-540.223	283.993	0.098	-0.177
-539.208	84.750	-0.142	0.155
-538.193	462.426	-0.067	-0.149
-537.179	85.990	-0.095	0.105
-536.164	-200.000	0.058	0.304
-535.150	-53.771	-0.146	0.067
-534.135	-15.822	0.145	-0.092
-533.121	-19.613	0.256	0.159
-532.106	-99.072	-0.197	-0.050
-531.091	-100.928	-0.203	0.050
-530.077	-159.855	-0.110	0.006
-529.062	-22.741	0.063	-0.038
-528.048	202.927	0.095	0.147
-527.033	-84.518	-0.142	0.045
-526.018	800.000	-0.009	-0.027
-525.004	-22.274	-0.103	-0.062
-523.989	-170.653	-0.357	-0.012
-522.975	56.562	0.099	-0.096
-521.960	-9.938	0.167	-0.111
-520.945	-97.032	-0.212	0.056
-519.931	-86.251	0.208	-0.064
-518.916	-200.000	-0.075	-0.347
-517.902	-3.167	-0.242	-0.169
-516.887	-41.443	-0.139	-0.072
-515.872	-75.473	0.190	-0.068
-514.858	100.197	0.170	-0.197
-513.843	-86.955	-0.429	0.131
-512.829	121.474	0.210	-0.262
-511.814	350.004	-0.142	0.281
-510.799	-13.249	0.147	-0.096
-509.785	-103.917	-0.307	0.072
-508.770	-28.575	0.155	-0.089
-507.756	171.475	0.138	-0.199
-506.741	-37.320	-0.130	-0.069
-505.726	-71.846	0.187	0.070
-504.712	68.861	0.082	0.084
-503.697	676.011	-0.117	0.305
-502.683	-2.465	0.107	0.075
-501.668	6.149	0.223	0.165
-500.653	-200.000	-0.043	0.191
-499.639	667.655	0.145	-0.374
-498.624	-71.921	0.015	-0.006
-497.610	768.621	-0.052	0.142
-496.595	-200.000	-0.008	-0.046
-495.581	-177.599	0.120	0.003
-494.566	-28.722	-0.284	0.163
-493.551	74.324	-0.037	-0.038
-492.537	-167.191	0.462	-0.019
-491.522	-162.349	-0.148	0.007
-490.508	-78.535	0.398	0.136
-489.493	280.036	-0.157	0.281
-488.478	-20.299	-0.297	-0.182
-487.464	57.814	-0.202	0.198
-486.449	-110.685	-0.274	-0.057
-485.435	800.000	0.062	-0.203
-484.420	800.000	-0.054	0.223
-483.405	-181.324	-0.329	0.006
-482.391	12.323	-0.176	-0.135
-481.376	-197.816	-0.190	0.001
-480.362	-200.000	-0.028	0.239
-479.347	-200.000	-0.052	-0.416
-478.332	-17.532	0.262	0.165
-477.318	-40.286	0.174	-0.091
-476.303	-93.306	-0.095	-0.026
-475.289	-70.793	-0.283	0.107
-474.274	-6.882	0.069	-0.047
-473.259	32.478	-0.149	-0.129
-472.245	-200.000	0.014	0.224
-471.230	23.349	0.118	-0.096
-470.216	-70.637	-0.134	-0.050
-469.201	-58.764	-0.079	0.034
-468.186	-200.000	0.038	0.217
-467.172	-104.178	0.396	-0.092
-466.157	62.239	0.174	0.173
-465.143	451.034	-0.124	-0.273
-464.128	-200.000	0.015	-0.267
-463.113	-60.209	-0.349	0.149
-462.099	-200.000	-0.007	-0.113
-461.084	160.941	0.105	0.147
-460.070	231.276	0.194	-0.317
-459.055	49.701	-0.116	-0.110
-458.040	36.092	0.043	0.038
-457.026	-33.205	-0.065	0.036
-456.011	42.307	0.134	-0.121
-454.997	458.005	-0.082	0.182
-453.982	-76.232	-0.225	-0.079
-452.968	-16.484	0.194	-0.123
-451.953	-33.930	0.081	-0.044
-450.938	-200.000	0.005	0.030
-449.924	-200.000	0.003	-0.038
-448.909	800.000	-0.076	-0.249
-447.895	20.647	0.161	0.130
-446.880	-115.339	0.143	-0.027
-445.865	-84.747	-0.339	0.106
-444.851	-83.544	-0.476	0.152
-443.836	259.582	0.145	0.249
-442.822	800.000	0.044	0.134
-441.807	-68.592	-0.311	0.120
-440.792	27.547	0.081	0.068
-439.778	46.582	0.112	0.104
-438.763	32.633	-0.127	0.109
-437.749	-87.265	-0.098	-0.030
-436.734	-200.000	-0.052	-0.270
-435.719	1.520	-0.184	-0.132
-434.705	590.646	-0.124	0.305
-433.690	-84.908	0.236	0.074
-432.676	-34.535	0.150	0.082
-431.661	-49.630	0.185	-0.088
-430.646	-46.511	-0.086	0.042
-429.632	-83.747	0.189	-0.060
-428.617	800.000	-0.027	-0.087
-427.603	-134.426	0.227	0.028
-426.588	800.000	-0.049	-0.150
-425.573	31.908	0.098	-0.084
-424.559	-92.169	0.088	-0.025
-423.544	160.925	0.140	-0.194
-422.530	182.930	-0.102	-0.150
-421.515	800.000	-0.016	-0.057
-420.500	800.000	0.045	-0.187
-419.486	80.253	-0.157	-0.169
-418.471	-200.000	-0.023	0.154
-417.457	-47.470	-0.104	0.050
-416.442	114.451	-0.134	0.163
-415.428	-61.093	-0.207	0.087
-414.413	-200.000	-0.040	-0.257
-413.398	110.113	-0.221	-0.265
-412.384	-200.000	0.305	-0.000
-411.369	800.000	-0.050	0.160
-410.355	42.979	0.241	0.219
-409.340	510.660	-0.116	-0.270
-408.325	173.970	0.084	0.121
-407.311	-84.462	0.296	0.093
-406.296	237.872	0.175	-0.290
-405.282	800.000	0.034	-0.127
-404.267	-200.000	0.002	0.298
-403.252	-44.713	0.062	-0.031
-402.238	-117.004	0.103	0.019
-401.223	40.526	0.095	0.086
-400.209	-200.000	-0.005	-0.235
-399.194	-157.284	-0.104	-0.006
-398.179	-200.000	-0.015	-0.101
-397.165	-200.000	-0.017	0.208
-396.150	-124.580	-0.264	0.041
-395.136	-20.364	-0.282	-0.173
-394.121	135.555	-0.076	-0.098
-393.106	-154.904	-0.058	0.004
-392.092	-133.945	-0.263	0.032
-391.077	55.714	-0.152	-0.147
-390.063	-54.604	0.413	-0.186
-389.048	-58.106	-0.081	-0.035
-388.033	-112.764	0.192	-0.038
-387.019	-41.744	0.194	0.099
-386.004	392.822	0.049	0.102
-384.990	-103.512	-0.133	0.031
-383.975	-5.657	0.081	-0.055
-382.960	137.520	-0.131	-0.171
-381.946	69.541	0.128	0.131
-380.931	-200.000	-0.007	0.366
-379.917	-67.998	-0.253	0.098
-378.902	800.000	-0.051	0.193
-377.888	-200.000	-0.000	0.301
-376.873	-53.832	-0.371	0.168
-375.858	120.125	0.120	-0.148
-374.844	-16.814	0.194	0.122
-373.829	800.000	-0.032	0.108
-372.815	43.525	0.131	-0.119
-371.800	-161.061	-0.093	0.005
-370.785	468.273	0.143	-0.320
-369.771	6.156	-0.169	-0.125
-368.756	99.364	-0.093	0.107
-367.742	681.255	-0.007	-0.017
-366.727	-81.385	-0.008	0.003
-365.712	54.946	-0.211	0.203
-364.698	800.000	0.126	0.352
-363.683	175.697	-0.267	0.385
-362.669	99.150	0.147	0.169
-361.654	-37.978	0.163	-0.086
-360.639	-17.803	-0.089	-0.056
-359.625	-52.395	0.196	0.090
-358.610	-35.941	-0.284	-0.153
-357.596	-29.627	0.356	0.202
-356.581	-144.911	0.363	0.033
-355.566	-200.000	0.009	0.116
-354.552	-34.745	0.139	-0.076
-353.537	-29.020	-0.213	0.121
-352.523	-200.000	0.022	-0.175
-351.508	41.342	0.154	-0.139
-350.493	-200.000	0.069	0.555
-349.479	800.000	-0.057	0.168
-348.464	-103.209	0.223	0.052
-347.450	181.134	0.091	0.133
-346.435	-28.317	0.170	-0.098
-345.420	-94.949	0.247	-0.066
-344.406	-200.000	-0.036	0.259
-343.391	-62.801	-0.573	0.236
-342.377	800.000	-0.055	-0.231
-341.362	92.780	0.128	0.144
-340.348	-91.924	-0.319	-0.090
-339.333	720.122	-0.128	0.338
-338.318	0.641	0.155	-0.110
-337.304	-145.846	0.100	0.009
-336.289	-65.623	-0.266	0.106
-335.275	594.005	-0.117	-0.288
-334.260	332.039	-0.166	0.319
-333.245	-43.200	-0.285	-0.143
-332.231	800.000	-0.073	-0.236
-331.216	0.922	-0.040	0.028
-330.202	-61.942	-0.306	0.127
-329.187	260.691	0.283	-0.486
-328.172	264.051	0.159	-0.276
-327.158	85.696	-0.148	-0.161
-326.143	-60.719	-0.302	-0.127
-325.129	-200.000	0.044	-0.225
-324.114	-200.000	0.007	0.093
-323.099	795.867	-0.158	0.431
-322.085	-200.000	0.053	-0.258
-321.070	170.672	-0.098	-0.140
-320.056	-117.996	0.332	0.059
-319.041	661.606	0.057	-0.145
-318.026	-200.000	0.019	-0.106
-317.012	542.355	-0.019	0.045
-315.997	20.553	-0.072	-0.057
-314.983	-200.000	0.076	0.433
-313.968	800.000	-0.076	0.249
-312.953	202.017	-0.079	0.121
-311.939	123.763	0.017	0.022
-310.924	800.000	-0.113	0.431
-309.910	800.000	-0.026	-0.106
-308.895	154.385	-0.055	-0.075
-307.880	-200.000	0.029	0.250
-306.866	-200.000	0.014	-0.118
-305.851	-36.213	0.083	-0.044
-304.837	32.044	-0.462	0.395
-303.822	-93.751	-0.248	-0.068
-302.807	-29.431	-0.263	0.149
-301.793	34.207	0.252	0.218
-300.778	51.871	-0.090	-0.085
-299.764	151.086	-0.043	0.059
-298.749	-200.000	0.007	0.357
-297.735	-54.079	0.221	-0.100
-296.720	-51.916	0.432	0.199
-295.705	-200.000	-0.032	-0.248
-294.691	129.976	-0.107	0.136
-293.676	515.878	0.047	0.110
-292.662	783.882	0.098	0.265
-291.647	-200.000	0.012	0.304
-290.632	-200.000	0.018	0.207
-289.618	-139.572	-0.135	-0.014
-288.603	32.259	-0.337	-0.289
-287.589	30.091	-0.261	0.221
-286.574	-90.851	-0.294	0.084
-285.559	-78.972	-0.249	-0.084
-284.545	800.000	0.023	-0.076
-283.530	227.557	-0.070	0.113
-282.516	96.075	0.076	-0.086
-281.501	764.202	-0.073	-0.195
-280.486	-155.690	0.092	-0.006
-279.472	78.099	0.096	-0.102
-278.457	-30.119	-0.354	0.200
-277.443	208.307	0.011	-0.017
-276.428	-137.568	0.136	-0.015
-275.413	515.890	-0.092	-0.213
-274.399	-14.752	0.099	0.063
-273.384	-58.253	-0.327	0.141
-272.370	-40.338	-0.384	0.198
-271.355	-109.669	0.271	-0.057
-270.340	-141.958	0.331	-0.033
-269.326	-29.230	0.160	-0.091
-268.311	281.342	0.090	0.159
-267.297	-135.653	0.299	-0.035
-266.282	-200.000	0.011	0.378
-265.267	67.511	0.216	0.218
-264.253	-102.156	-0.310	0.074
-263.238	61.401	0.055	-0.054
-262.224	-43.984	-0.126	0.063
-261.209	-121.573	0.229	0.038
-260.195	-50.102	0.209	0.098
-259.180	-112.262	-0.108	-0.022
-258.165	-7.792	-0.242	-0.162
-257.151	62.833	0.133	0.132
-256.136	-200.000	0.051	-0.472
-255.122	406.024	-0.091	0.190
-254.107	800.000	-0.084	-0.285
-253.092	-6.730	-0.096	0.064
-252.078	-200.000	-0.022	-0.240
-251.063	-56.057	-0.235	0.104
-250.049	-141.947	0.078	-0.008
-249.034	-14.456	0.230	-0.147
-248.019	-62.154	-0.047	-0.019
-247.005	-54.071	0.415	-0.187
-245.990	228.769	-0.028	0.046
-244.976	-130.183	-0.186	0.025
-243.961	-61.344	-0.065	-0.027
-242.946	-46.996	0.073	0.035
-241.932	-181.197	0.285	0.006
-240.917	335.727	-0.035	0.066
-239.903	663.939	-0.106	-0.270
-238.888	-27.317	-0.098	-0.056
-237.873	-96.779	0.155	0.040
-236.859	-130.673	0.120	0.016
-235.844	41.199	-0.043	-0.038
-234.830	-117.377	-0.248	-0.045
-233.815	-2.411	0.167	0.116
-232.800	73.006	-0.162	-0.167
-231.786	-200.000	-0.033	-0.218
-230.771	-120.844	0.180	0.030
-229.757	120.059	0.100	0.122
-228.742	-7.108	0.044	-0.029
-227.727	-125.922	0.381	0.057
-226.713	800.000	0.081	-0.289
-225.698	71.904	-0.076	0.078
-224.684	-200.000	0.007	0.135
-223.669	291.957	0.099	-0.179
-222.655	-192.409	-0.156	0.001
-221.640	90.207	0.089	0.098
-220.625	30.475	0.351	-0.297
-219.611	542.216	-0.138	0.325
-218.596	800.000	-0.092	0.263
-217.582	-200.000	-0.014	-0.345
-216.567	15.290	-0.142	-0.110
-215.552	-200.000	0.030	-0.184
-214.538	800.000	-0.054	-0.200
-213.523	186.342	0.018	0.027
-212.509	1.909	-0.142	0.101
-211.494	421.155	-0.169	-0.358
-210.479	151.096	0.104	-0.140
-209.465	-42.260	0.242	-0.122
-208.450	-63.087	-0.153	-0.062
-207.436	364.722	-0.079	-0.158
-206.421	-4.369	0.293	0.200
-205.406	410.506	0.171	0.358
-204.392	-122.241	-0.181	0.029
-203.377	800.000	0.055	0.179
-202.363	800.000	0.023	-0.076
-201.348	-141.235	0.200	0.020
-200.333	183.357	0.178	0.259
-199.319	-64.979	-0.341	0.136
-198.304	173.627	0.112	-0.160
-197.290	-107.014	-0.271	0.059
-196.275	121.068	0.289	0.355
-195.260	194.474	-0.052	0.078
-194.246	-132.789	-0.043	0.005
-193.231	-144.591	0.174	-0.016
-192.217	800.000	-0.112	-0.416
-191.202	-169.354	-0.116	-0.004
-190.187	-200.000	0.037	0.219
-189.173	75.294	-0.206	-0.215
-188.158	-197.189	-0.324	0.002
-187.144	-200.000	-0.110	0.487
-186.129	-53.671	-0.217	-0.098
-185.114	-90.602	0.205	-0.059
-184.100	-72.072	-0.175	-0.064
-183.085	2.391	0.070	-0.050
-182.071	144.048	0.106	-0.139
-181.056	-52.672	-0.031	-0.014
-180.042	-83.049	0.156	-0.050
-179.027	665.972	-0.091	-0.231
-178.012	-200.000	0.007	0.226
-176.998	167.549	-0.068	0.096
-175.983	58.159	-0.288	-0.278
-174.969	-139.993	0.203	-0.021
-173.954	-81.692	-0.390	0.126
-172.939	501.287	-0.118	-0.269
-171.925	-200.000	-0.001	-0.104
-170.910	-200.000	-0.003	-0.100
-169.896	-26.215	0.213	-0.124
-168.881	71.959	0.061	-0.063
-167.866	-200.000	-0.040	-0.257
-166.852	-200.000	-0.005	-0.074
-165.837	-101.578	-0.048	0.012
-164.823	-65.947	0.339	-0.134
-163.808	-14.946	-0.268	0.169
-162.793	64.832	0.278	0.276
-161.779	-178.634	-0.181	0.004
-160.764	29.022	0.080	0.067
-159.750	-200.000	0.021	0.109
-158.735	-154.079	0.239	0.016
-157.720	692.123	0.081	0.210
-156.706	108.884	0.492	0.581
-155.691	593.677	0.107	-0.261
-154.677	217.666	0.173	0.272
-153.662	-200.000	-0.049	0.229
-152.647	237.876	-0.136	0.223
-151.633	294.658	-0.031	0.055
-150.618	7.397	-0.158	0.116
-149.604	100.317	0.150	0.171
-148.589	-117.231	0.293	0.052
-147.574	-13.673	-0.242	0.154
-146.560	-53.957	0.004	-0.002
-145.545	800.000	-0.063	0.244
-144.531	-200.000	-0.010	0.111
-143.516	-151.450	0.331	-0.024
-142.502	800.000	-0.019	0.064
-141.487	-139.199	-0.274	0.029
-140.472	3.956	0.160	-0.116
-139.458	-53.492	-0.073	0.033
-138.443	-200.000	-0.007	0.367
-137.429	-141.229	0.128	0.013
-136.414	-200.000	-0.008	-0.285
-135.399	-200.000	0.047	0.321
-134.385	-174.435	-0.478	-0.014
-133.370	-105.851	0.253	-0.056
-132.356	-200.000	-0.005	-0.054
-131.341	52.098	0.326	-0.306
-130.326	-110.237	-0.230	-0.047
-129.312	5.165	0.246	0.179
-128.297	-114.738	-0.418	-0.079
-127.283	45.450	0.220	0.200
-126.268	-61.733	0.306	-0.127
-125.253	-166.350	0.323	-0.013
-124.239	-95.002	-0.258	0.069
-123.224	800.000	0.031	-0.103
-122.210	-54.738	0.439	-0.195
