DTS Sentinel unit serial number:	SN413079Multiplexer serial number:	ORYXHardware model number:	OX4-SRSoftware version number:	ORYX F/W v4.00 Oryx Data Collector v3.7.2.0data status	okinstallation	princeton_trtdifferential loss correction	single-endedforward channel	channel 1reverse channel	N/Adate	2019/09/15time	01:10:35forward acquisition time	60.00reverse acquisition time	0.00gamma	496.2192k internal	0.2321k external	0.2321temperature offset calibration	0.9986default loss term (dB/km)	0.3790temperature slope calibration	1.0000multiplexer offset coefficient	1.0000multiplexer slope coefficient	1.0000fibre end	0.00T internal ref (°C)	31.98T ext. ref 1 (°C)	4.52T ext. ref 2 (°C)	26.86length (m)	temperature (°C)	Stokes	anti-Stokes-747.200	-81.352	-0.090	0.030
-746.185	-81.229	0.227	0.076
-745.171	-200.000	-0.034	-0.163
-744.156	-152.055	-0.241	0.018
-743.142	46.274	0.149	-0.140
-742.127	451.192	0.129	-0.287
-741.112	1.168	-0.215	-0.156
-740.098	171.249	-0.111	-0.160
-739.083	-135.783	-0.186	0.022
-738.069	-118.698	-0.277	0.049
-737.054	94.811	0.148	0.170
-736.039	47.289	0.137	-0.129
-735.025	14.956	-0.141	0.111
-734.010	-139.658	-0.202	0.022
-732.996	1.766	0.102	0.074
-731.981	210.343	-0.226	-0.358
-730.966	-107.483	-0.263	-0.058
-729.952	74.587	-0.131	-0.139
-728.937	-160.580	-0.269	0.014
-727.923	-150.320	-0.334	-0.026
-726.908	-118.891	-0.276	0.049
-725.894	18.670	-0.361	-0.292
-724.879	483.831	-0.033	0.075
-723.864	369.063	0.082	0.168
-722.850	731.562	0.152	0.410
-721.835	-200.000	0.057	0.258
-720.821	-88.695	-0.379	-0.114
-719.806	-39.227	0.106	0.056
-718.791	76.642	-0.133	0.142
-717.777	17.100	0.239	0.191
-716.762	-200.000	-0.009	0.333
-715.748	563.792	-0.084	0.206
-714.733	-200.000	0.025	-0.185
-713.718	773.456	-0.107	-0.296
-712.704	103.073	-0.157	-0.186
-711.689	334.295	-0.078	-0.153
-710.675	-58.452	-0.240	0.105
-709.660	-200.000	0.014	-0.139
-708.645	-121.896	-0.189	-0.031
-707.631	11.361	0.171	0.132
-706.616	438.432	0.026	-0.058
-705.602	-110.710	-0.275	-0.057
-704.587	800.000	-0.086	0.265
-703.572	139.479	0.265	-0.352
-702.558	-108.907	0.281	-0.061
-701.543	-46.481	-0.236	0.117
-700.529	701.853	-0.041	-0.109
-699.514	-114.255	-0.039	-0.008
-698.499	355.844	-0.129	0.260
-697.485	-158.081	0.162	-0.010
-696.470	-47.057	-0.130	-0.064
-695.456	800.000	-0.038	0.126
-694.441	-87.123	-0.275	-0.084
-693.426	183.989	0.095	-0.142
-692.412	201.574	-0.109	0.169
-691.397	355.914	-0.072	0.145
-690.383	638.953	-0.099	-0.253
-689.368	-134.341	-0.059	-0.007
-688.354	159.542	0.115	-0.161
-687.339	-200.000	-0.006	0.035
-686.324	-28.449	-0.092	0.054
-685.310	-200.000	-0.012	-0.226
-684.295	31.856	-0.150	-0.130
-683.281	-34.877	-0.223	-0.123
-682.266	800.000	0.072	-0.284
-681.251	800.000	-0.082	0.249
-680.237	-103.199	0.364	-0.087
-679.222	64.709	-0.194	0.198
-678.208	-101.095	0.237	0.059
-677.193	-84.035	-0.101	0.032
-676.178	-200.000	-0.043	-0.372
-675.164	-200.000	0.045	0.367
-674.149	-55.551	0.029	-0.013
-673.135	248.870	-0.113	0.193
-672.120	426.598	-0.113	-0.245
-671.105	-200.000	0.021	0.133
-670.091	439.922	-0.048	-0.106
-669.076	464.649	-0.022	-0.049
-668.062	-87.027	0.127	-0.039
-667.047	160.126	-0.090	-0.126
-666.032	-200.000	0.012	0.213
-665.018	800.000	-0.077	0.274
-664.003	-200.000	0.004	0.034
-662.989	-129.503	0.144	-0.020
-661.974	28.189	-0.052	0.044
-660.959	-33.525	-0.380	-0.212
-659.945	237.481	-0.127	0.212
-658.930	-143.537	-0.231	0.022
-657.916	-10.630	0.223	0.149
-656.901	415.101	0.034	-0.072
-655.886	-63.628	0.320	-0.132
-654.872	-108.176	-0.088	0.019
-653.857	69.442	-0.159	0.165
-652.843	-126.843	-0.269	0.040
-651.828	32.555	0.398	0.347
-650.814	-111.212	-0.313	0.065
-649.799	723.204	0.016	-0.042
-648.784	259.138	-0.062	0.108
-647.770	21.609	-0.410	-0.336
-646.755	-70.333	0.067	0.026
-645.741	-78.487	0.252	-0.087
-644.726	-61.660	-0.387	-0.164
-643.711	-29.354	0.249	0.143
-642.697	-124.834	-0.350	0.054
-641.682	399.829	0.075	-0.158
-640.668	43.535	0.174	0.160
-639.653	-200.000	0.007	0.062
-638.638	-200.000	0.009	0.177
-637.624	733.612	0.021	-0.057
-636.609	800.000	0.039	-0.120
-635.595	-84.221	0.186	0.059
-634.580	-94.976	0.189	-0.051
-633.565	118.241	-0.024	-0.030
-632.551	22.719	-0.119	0.098
-631.536	59.024	-0.257	0.254
-630.522	-139.079	-0.365	-0.040
-629.507	447.914	0.220	-0.488
-628.492	-6.764	-0.218	0.149
-627.478	800.000	-0.012	-0.047
-626.463	-27.405	0.335	0.196
-625.449	41.594	-0.292	-0.266
-624.434	111.406	-0.234	0.284
-623.419	148.872	0.165	-0.225
-622.405	-200.000	-0.001	0.209
-621.390	-88.018	-0.235	0.071
-620.376	392.182	-0.077	-0.161
-619.361	-200.000	0.054	0.309
-618.346	289.222	-0.135	0.246
-617.332	-150.995	0.211	0.016
-616.317	-70.410	0.190	-0.072
-615.303	-200.000	0.034	0.406
-614.288	8.234	-0.109	-0.082
-613.273	-103.857	0.160	0.038
-612.259	53.290	-0.211	-0.204
-611.244	800.000	0.121	-0.357
-610.230	259.800	0.088	-0.153
-609.215	-165.842	-0.095	0.004
-608.201	5.683	0.252	-0.187
-607.186	800.000	0.088	-0.317
-606.171	454.454	-0.048	0.106
-605.157	-114.594	-0.048	0.009
-604.142	125.865	0.390	-0.495
-603.128	665.991	0.171	-0.445
-602.113	144.569	-0.097	-0.130
-601.098	-200.000	0.008	-0.270
-600.084	285.682	-0.033	-0.060
-599.069	91.602	0.240	-0.271
-598.055	-200.000	0.029	0.136
-597.040	-75.409	-0.354	0.127
-596.025	-144.375	0.050	-0.005
-595.011	-101.958	-0.349	-0.085
-593.996	-153.426	0.305	-0.021
-592.982	112.414	0.136	-0.165
-591.967	277.757	0.089	-0.160
-590.952	-127.016	-0.179	-0.026
-589.938	800.000	-0.028	0.119
-588.923	-39.879	0.110	0.058
-587.909	-17.791	-0.330	0.208
-586.894	183.831	-0.111	0.166
-585.879	-27.873	0.144	-0.084
-584.865	129.193	-0.150	-0.193
-583.850	-137.332	-0.274	-0.031
-582.836	-3.195	0.146	-0.103
-581.821	2.657	-0.271	-0.197
-580.806	-7.307	0.115	-0.078
-579.792	-58.933	-0.240	-0.104
-578.777	-76.093	-0.100	-0.035
-577.763	312.365	-0.088	0.166
-576.748	362.026	-0.105	-0.212
-575.733	-37.560	-0.260	0.139
-574.719	-200.000	0.012	-0.059
-573.704	-79.924	0.488	-0.165
-572.690	800.000	0.006	-0.026
-571.675	-200.000	-0.010	0.190
-570.661	-91.206	-0.126	-0.036
-569.646	160.336	-0.250	-0.350
-568.631	76.269	0.091	-0.096
-567.617	-87.378	-0.187	-0.057
-566.602	-119.176	0.386	0.068
-565.588	-141.495	-0.214	0.022
-564.573	-124.165	0.278	0.044
-563.558	-104.918	0.120	-0.028
-562.544	800.000	0.067	0.202
-561.529	35.787	0.172	0.152
-560.515	-200.000	-0.039	0.189
-559.500	-200.000	0.020	-0.091
-558.485	63.178	-0.015	0.015
-557.471	-19.691	0.129	0.080
-556.456	422.591	-0.070	-0.152
-555.442	800.000	0.080	-0.318
-554.427	353.933	-0.050	0.099
-553.412	-54.457	-0.214	0.097
-552.398	-39.727	0.341	-0.179
-551.383	-172.064	-0.455	-0.015
-550.369	-110.805	0.176	0.036
-549.354	-86.901	0.117	-0.036
-548.339	142.494	-0.256	0.341
-547.325	22.404	0.220	0.181
-546.310	-200.000	-0.018	-0.119
-545.296	-200.000	0.049	0.307
-544.281	244.770	-0.131	0.221
-543.266	566.471	-0.036	0.088
-542.252	144.138	0.188	0.251
-541.237	-53.780	-0.221	-0.101
-540.223	-55.830	-0.222	0.099
-539.208	11.519	-0.277	0.213
-538.193	-41.356	0.128	0.066
-537.179	-77.139	-0.010	0.004
-536.164	-200.000	0.027	0.242
-535.150	-147.048	0.103	0.009
-534.135	-80.961	-0.532	0.177
-533.121	491.477	0.073	0.169
-532.106	67.553	0.197	-0.202
-531.091	-200.000	-0.058	-0.287
-530.077	43.594	-0.080	-0.073
-529.062	-167.549	-0.076	-0.003
-528.048	800.000	-0.039	-0.148
-527.033	-185.866	-0.364	0.005
-526.018	409.679	-0.109	-0.231
-525.004	266.934	-0.115	0.201
-523.989	-48.774	-0.198	0.095
-522.975	337.898	0.102	0.198
-521.960	552.317	0.099	-0.239
-520.945	264.714	-0.108	-0.188
-519.931	-93.302	-0.122	0.034
-518.916	-114.347	0.294	0.057
-517.902	-12.401	-0.164	-0.107
-516.887	-115.797	0.587	-0.110
-515.872	-13.833	-0.298	0.193
-514.858	91.886	0.083	0.093
-513.843	17.326	0.061	-0.048
-512.829	139.123	-0.265	-0.349
-511.814	437.851	-0.014	0.031
-510.799	800.000	0.034	0.104
-509.785	-121.009	0.329	-0.055
-508.770	-9.588	0.177	-0.118
-507.756	-47.024	-0.059	0.029
-506.741	-42.441	0.272	-0.139
-505.726	236.885	0.071	0.118
-504.712	773.048	0.050	0.138
-503.697	-26.134	-0.053	-0.031
-502.683	166.306	0.096	-0.136
-501.668	704.416	0.037	0.098
-500.653	-200.000	-0.012	0.286
-499.639	-200.000	-0.045	-0.237
-498.624	-4.316	0.270	0.187
-497.610	-112.458	0.064	-0.013
-496.595	460.852	0.059	0.131
-495.581	-43.318	0.181	0.092
-494.566	-200.000	-0.007	-0.228
-493.551	-126.681	-0.235	-0.035
-492.537	153.009	0.178	-0.244
-491.522	-200.000	-0.001	0.059
-490.508	204.567	-0.045	0.069
-489.493	-200.000	-0.013	0.108
-488.478	37.192	0.084	-0.074
-487.464	19.535	-0.082	0.066
-486.449	157.551	-0.085	0.118
-485.435	106.144	0.054	0.064
-484.420	203.048	0.040	-0.061
-483.405	148.773	-0.060	-0.081
-482.391	224.764	0.178	0.289
-481.376	-20.329	-0.280	-0.172
-480.362	122.866	-0.189	-0.236
-479.347	93.063	0.237	-0.268
-478.332	114.951	0.078	0.095
-477.318	-106.797	-0.097	0.022
-476.303	6.627	-0.162	-0.121
-475.289	-24.267	-0.123	-0.074
-474.274	439.818	0.121	-0.265
-473.259	11.230	-0.334	-0.256
-472.245	113.543	0.265	0.322
-471.230	-195.671	-0.151	-0.001
-470.216	800.000	-0.103	-0.324
-469.201	800.000	0.053	-0.184
-468.186	-123.252	0.301	-0.048
-467.172	-126.837	0.188	-0.028
-466.157	66.598	-0.063	-0.064
-465.143	-65.005	0.204	0.083
-464.128	-46.446	0.142	0.070
-463.113	-17.049	-0.101	-0.064
-462.099	800.000	-0.016	-0.066
-461.084	-111.084	-0.106	-0.022
-460.070	-165.392	0.432	0.019
-459.055	-54.952	0.217	-0.098
-458.040	2.658	0.216	-0.157
-457.026	79.630	0.087	-0.093
-456.011	99.062	-0.162	-0.187
-454.997	-46.519	-0.144	0.071
-453.982	-53.579	-0.311	-0.142
-452.968	15.867	0.098	-0.077
-451.953	19.517	-0.391	0.314
-450.938	-5.522	-0.110	-0.075
-449.924	-128.653	0.253	-0.036
-448.909	-118.764	0.186	0.033
-447.895	114.114	-0.042	0.051
-446.880	-26.184	-0.085	-0.050
-445.865	-109.602	0.331	-0.070
-444.851	800.000	-0.102	0.366
-443.836	-16.871	-0.102	0.065
-442.822	-49.882	0.186	0.088
-441.807	-96.699	-0.381	-0.100
-440.792	800.000	-0.017	-0.061
-439.778	746.726	0.077	-0.206
-438.763	-200.000	0.016	-0.105
-437.749	513.153	0.120	-0.279
-436.734	-200.000	-0.001	-0.054
-435.719	-39.546	-0.264	0.138
-434.705	445.672	0.064	0.141
-433.690	-127.361	0.196	0.028
-432.676	-113.297	-0.320	-0.063
-431.661	-50.062	-0.191	0.090
-430.646	-21.120	0.097	0.059
-429.632	-200.000	0.035	0.241
-428.617	-68.713	0.391	-0.151
-427.603	-97.307	-0.125	-0.033
-426.588	420.661	0.094	0.200
-425.573	-162.286	0.225	-0.011
-424.559	-200.000	-0.024	0.149
-423.544	-98.900	-0.208	0.053
-422.530	193.121	0.215	0.324
-421.515	124.077	-0.192	-0.241
-420.500	-141.394	-0.196	-0.020
-419.486	-200.000	0.004	-0.069
-418.471	-183.318	-0.097	-0.002
-417.457	-120.621	0.394	-0.067
-416.442	116.027	-0.325	0.397
-415.428	-60.587	-0.384	-0.163
-414.413	107.846	0.028	-0.033
-413.398	286.352	0.045	0.080
-412.384	-23.958	-0.187	0.111
-411.369	65.845	0.179	-0.181
-410.355	174.247	0.112	0.161
-409.340	85.096	-0.278	0.304
-408.325	-68.463	0.212	0.082
-407.311	53.094	0.228	-0.218
-406.296	800.000	-0.033	0.132
-405.282	-106.304	0.346	-0.077
-404.267	-96.379	0.079	0.021
-403.252	800.000	-0.021	-0.074
-402.238	15.034	0.025	-0.019
-401.223	-200.000	0.032	0.311
-400.209	222.168	0.101	-0.162
-399.194	800.000	0.068	0.251
-398.179	-200.000	-0.017	0.224
-397.165	-140.682	0.078	-0.008
-396.150	-200.000	-0.026	0.209
-395.136	198.359	-0.075	0.114
-394.121	800.000	0.119	0.362
-393.106	76.770	0.212	-0.224
-392.092	-200.000	0.029	-0.261
-391.077	800.000	0.094	-0.379
-390.063	406.632	-0.067	-0.141
-389.048	-8.089	-0.290	-0.195
-388.033	193.120	0.099	-0.149
-387.019	401.232	-0.075	0.158
-386.004	5.189	-0.118	-0.087
-384.990	24.186	0.088	-0.073
-383.975	39.314	0.054	-0.049
-382.960	34.752	-0.226	0.197
-381.946	800.000	-0.046	0.140
-380.931	200.336	-0.034	0.052
-379.917	800.000	-0.138	0.395
-378.902	-200.000	0.010	0.048
-377.888	-200.000	-0.002	0.080
-376.873	-19.227	-0.262	-0.162
-375.858	800.000	-0.089	-0.360
-374.844	86.117	0.197	-0.216
-373.829	-61.336	-0.144	0.061
-372.815	129.490	-0.114	0.145
-371.800	-142.604	0.170	-0.017
-370.785	-200.000	-0.006	-0.186
-369.771	129.642	0.024	0.030
-368.756	-76.938	0.118	0.041
-367.742	-200.000	0.003	0.450
-366.727	-200.000	-0.065	0.286
-365.712	87.886	0.245	0.271
-364.698	-106.417	0.401	0.089
-363.683	-34.033	0.192	0.105
-362.669	-182.938	-0.080	0.001
-361.654	-75.248	-0.113	0.040
-360.639	-200.000	0.054	-0.359
-359.625	373.788	-0.186	0.376
-358.610	-99.586	0.225	0.056
-357.596	-3.119	-0.258	-0.179
-356.581	194.902	-0.135	-0.204
-355.566	-85.369	-0.466	0.145
-354.552	234.533	0.199	-0.327
-353.537	304.982	0.168	-0.311
-352.523	-44.247	0.048	0.024
-351.508	775.463	-0.057	-0.154
-350.493	105.094	0.204	0.240
-349.479	-108.044	0.177	-0.038
-348.464	-130.797	-0.295	0.039
-347.450	35.639	0.236	-0.206
-346.435	57.378	-0.240	-0.233
-345.420	13.256	0.171	-0.132
-344.406	291.994	-0.216	0.391
-343.391	-200.000	0.023	0.341
-342.377	800.000	0.170	0.559
-341.362	-96.580	-0.142	-0.037
-340.348	-200.000	-0.018	-0.172
-339.333	1.254	0.149	-0.107
-338.318	-15.850	0.127	0.080
-337.304	-58.547	-0.376	0.162
-336.289	458.370	0.075	0.166
-335.275	343.182	0.087	0.170
-334.260	-200.000	-0.012	-0.376
-333.245	-132.736	-0.151	-0.019
-332.231	-200.000	0.001	-0.288
-331.216	-14.556	-0.150	-0.096
-330.202	-8.365	0.197	-0.132
-329.187	50.696	-0.214	0.201
-328.172	800.000	-0.030	0.115
-327.158	155.857	-0.276	-0.378
-326.143	202.109	-0.212	-0.325
-325.129	-200.000	0.009	-0.181
-324.114	-200.000	-0.014	0.182
-323.099	-200.000	-0.038	-0.171
-322.085	-200.000	0.013	0.062
-321.070	-45.290	0.283	0.140
-320.056	-30.983	-0.539	-0.302
-319.041	18.458	-0.213	0.169
-318.026	27.134	0.041	0.035
-317.012	-200.000	-0.010	0.166
-315.997	-56.781	-0.169	-0.074
-314.983	-105.614	-0.170	-0.038
-313.968	189.996	-0.133	-0.198
-312.953	474.710	0.113	-0.253
-311.939	-72.424	-0.334	-0.123
-310.924	-185.279	0.431	0.007
-309.910	454.231	-0.105	0.231
-308.895	627.492	0.051	0.128
-307.880	-99.529	-0.313	-0.078
-306.866	-95.723	0.135	0.036
-305.851	-200.000	0.033	0.237
-304.837	104.740	0.254	-0.297
-303.822	-200.000	-0.018	-0.080
-302.807	-200.000	0.025	0.131
-301.793	-29.432	-0.100	-0.057
-300.778	-200.000	0.034	-0.217
-299.764	44.473	-0.249	-0.227
-298.749	-87.085	-0.280	0.085
-297.735	-16.652	-0.172	-0.108
-296.720	-200.000	-0.006	-0.118
-295.705	-92.786	0.139	-0.039
-294.691	178.256	0.107	-0.156
-293.676	12.481	-0.083	0.063
-292.662	103.881	-0.093	-0.108
-291.647	125.380	0.175	0.219
-290.632	48.121	-0.267	-0.248
-289.618	93.227	0.098	-0.110
-288.603	-68.581	0.108	0.042
-287.589	-53.861	0.398	0.180
-286.574	800.000	-0.004	-0.017
-285.559	104.258	0.058	0.068
-284.545	-90.121	0.212	-0.061
-283.530	176.019	-0.181	-0.261
-282.516	800.000	-0.024	0.098
-281.501	0.114	-0.138	0.098
-280.486	-20.786	0.139	-0.085
-279.472	58.138	0.098	0.095
-278.457	538.195	0.085	0.201
-277.443	8.622	-0.198	-0.148
-276.428	136.529	0.207	-0.267
-275.413	408.238	0.045	-0.094
-274.399	298.402	0.203	-0.371
-273.384	-26.963	-0.182	0.106
-272.370	93.458	0.162	-0.182
-271.355	-200.000	-0.033	-0.184
-270.340	-200.000	0.044	-0.322
-269.326	-56.716	0.247	0.108
-268.311	-21.344	0.326	-0.198
-267.297	33.687	0.180	0.155
-266.282	-1.584	0.197	-0.138
-265.267	-91.436	-0.248	0.070
-264.253	800.000	-0.127	0.348
-263.238	-200.000	-0.307	0.000
-262.224	-200.000	0.009	0.263
-261.209	704.818	0.058	-0.151
-260.195	103.618	0.219	0.255
-259.180	800.000	0.023	0.076
-258.165	111.505	-0.078	0.094
-257.151	-200.000	0.009	-0.231
-256.136	-200.000	-0.027	0.117
-255.122	-91.258	-0.111	-0.032
-254.107	317.834	-0.115	0.215
-253.092	-175.673	-0.231	0.006
-252.078	-43.424	-0.279	-0.140
-251.063	-200.000	0.002	-0.270
-250.049	17.339	0.082	0.064
-249.034	-96.148	0.417	0.110
-248.019	126.534	0.102	0.128
-247.005	266.604	0.228	-0.396
-245.990	65.147	0.201	-0.201
-244.976	87.150	0.056	0.061
-243.961	20.085	0.042	0.034
-242.946	-65.183	0.217	0.087
-241.932	19.236	-0.149	0.119
-240.917	-49.337	-0.125	-0.059
-239.903	-158.240	-0.407	0.024
-238.888	-200.000	0.041	0.381
-237.873	-29.643	-0.161	-0.091
-236.859	174.784	-0.118	-0.169
-235.844	16.335	0.224	0.175
-234.830	-31.864	0.130	0.072
-233.815	107.610	-0.177	0.209
-232.800	-151.783	0.373	0.027
-231.786	407.939	0.018	0.039
-230.771	-50.884	0.193	0.090
-229.757	191.437	-0.223	0.332
-228.742	-12.172	-0.232	-0.150
-227.727	152.536	-0.119	-0.161
-226.713	800.000	0.126	0.396
-225.698	-200.000	0.046	0.208
-224.684	95.126	-0.304	-0.343
-223.669	-138.274	-0.177	-0.019
-222.655	-200.000	0.008	-0.180
-221.640	305.730	-0.089	-0.163
-220.625	535.796	-0.100	0.235
-219.611	-200.000	-0.051	-0.246
-218.596	-40.169	0.138	-0.071
-217.582	11.848	0.237	0.180
-216.567	-28.841	-0.065	-0.037
-215.552	108.239	0.037	0.043
-214.538	7.785	0.274	0.203
-213.523	251.767	-0.189	0.318
-212.509	-200.000	-0.016	0.103
-211.494	800.000	-0.056	0.209
-210.479	32.335	-0.531	0.454
-209.465	217.828	0.099	-0.157
-208.450	-200.000	0.007	0.277
-207.436	-59.250	-0.060	-0.025
-206.421	63.920	0.034	0.034
-205.406	440.521	-0.213	0.461
-204.392	-200.000	-0.339	-0.000
-203.377	360.825	-0.207	-0.411
-202.363	-169.425	0.330	0.012
-201.348	-200.000	-0.020	-0.203
-200.333	246.850	0.155	0.258
-199.319	48.441	-0.104	0.096
-198.304	-128.703	-0.121	-0.017
-197.290	-200.000	-0.010	0.146
-196.275	483.954	0.017	-0.037
-195.260	-85.489	0.320	-0.099
-194.246	-90.156	0.226	0.065
-193.231	-7.461	0.102	0.068
-192.217	105.995	0.043	0.051
-191.202	-98.898	0.222	-0.056
-190.187	800.000	0.039	0.131
-189.173	137.506	-0.122	-0.158
-188.158	-162.144	0.274	-0.014
-187.144	773.461	0.060	-0.161
-186.129	35.337	-0.230	0.200
-185.114	-92.076	0.053	-0.015
-184.100	-200.000	-0.074	-0.344
-183.085	306.664	-0.024	-0.044
-182.071	-100.182	-0.073	0.018
-181.056	-114.405	-0.149	-0.028
-180.042	99.833	0.039	-0.044
-179.027	-28.047	-0.081	-0.046
-178.012	-200.000	0.028	-0.171
-176.998	119.733	0.063	0.077
-175.983	159.739	-0.135	0.185
-174.969	-200.000	-0.054	0.342
-173.954	-93.961	0.325	-0.088
-172.939	-124.557	0.077	-0.012
-171.925	181.324	0.083	0.120
-170.910	-136.391	0.269	0.031
-169.896	-200.000	-0.040	-0.348
-168.881	293.599	0.047	-0.085
-167.866	-83.188	0.103	-0.033
-166.852	-200.000	-0.002	0.158
-165.837	778.746	0.124	0.335
-164.823	-136.347	0.084	-0.010
-163.808	-29.155	0.223	0.126
-162.793	-51.124	0.106	0.049
-161.779	268.401	-0.159	0.275
-160.764	93.035	0.136	0.152
-159.750	70.944	-0.052	0.054
-158.735	-200.000	-0.017	0.314
-157.720	-200.000	0.034	0.373
-156.706	-133.787	-0.233	-0.029
-155.691	778.390	-0.118	-0.318
-154.677	-68.440	-0.107	-0.041
-153.662	22.870	0.308	0.249
-152.647	-30.775	0.162	-0.090
-151.633	27.975	0.388	0.323
-150.618	132.624	0.137	0.175
-149.604	800.000	-0.086	0.267
-148.589	550.984	0.030	-0.070
-147.574	47.989	-0.190	-0.175
-146.560	-139.431	-0.039	0.004
-145.545	-191.875	-0.147	0.001
-144.531	-99.512	0.162	0.040
-143.516	144.048	-0.073	0.096
-142.502	261.064	0.056	0.095
-141.487	800.000	-0.068	0.210
-140.472	397.707	-0.049	-0.101
-139.458	153.326	-0.062	-0.084
-138.443	-42.899	-0.132	0.066
-137.429	-200.000	-0.008	-0.061
-136.414	-200.000	-0.258	-0.001
-135.399	75.964	-0.167	0.174
-134.385	-45.068	0.376	0.185
-133.370	560.233	0.162	-0.387
-132.356	243.938	-0.077	-0.127
-131.341	-108.930	-0.499	-0.105
-130.326	-96.563	0.244	-0.063
-129.312	-200.000	-0.002	-0.222
-128.297	-60.036	-0.102	0.043
-127.283	-2.705	0.390	-0.269
-126.268	-26.548	-0.108	0.062
-125.253	224.835	-0.066	-0.105
-124.239	127.536	0.127	0.159
-123.224	-200.000	0.008	0.109
-122.210	-102.597	-0.035	-0.008
-121.195	361.901	0.006	0.012
