DTS Sentinel unit serial number:	SN413079Multiplexer serial number:	ORYXHardware model number:	OX4-SRSoftware version number:	ORYX F/W v4.00 Oryx Data Collector v3.7.2.0data status	okinstallation	princeton_trtdifferential loss correction	single-endedforward channel	channel 1reverse channel	N/Adate	2019/09/15time	00:46:35forward acquisition time	60.00reverse acquisition time	0.00gamma	496.2192k internal	0.2320k external	0.2320temperature offset calibration	0.9989default loss term (dB/km)	0.3790temperature slope calibration	1.0000multiplexer offset coefficient	1.0000multiplexer slope coefficient	1.0000fibre end	0.00T internal ref (°C)	32.06T ext. ref 1 (°C)	4.57T ext. ref 2 (°C)	27.04length (m)	temperature (°C)	Stokes	anti-Stokes-747.200	-18.443	-0.085	0.053
-746.185	71.298	-0.109	0.114
-745.171	800.000	0.028	-0.113
-744.156	-103.787	0.119	0.028
-743.142	-103.329	0.213	-0.051
-742.127	-200.000	-0.005	0.157
-741.112	-200.000	0.021	0.122
-740.098	-29.429	-0.213	-0.123
-739.083	707.859	0.129	0.346
-738.069	-200.000	-0.006	0.518
-737.054	58.952	-0.374	0.371
-736.039	-200.000	-0.009	-0.271
-735.025	800.000	-0.054	-0.227
-734.010	0.624	-0.266	-0.192
-732.996	-200.000	-0.019	-0.124
-731.981	-137.150	-0.423	0.049
-730.966	-85.549	0.157	0.049
-729.952	800.000	-0.151	-0.432
-728.937	24.813	-0.109	-0.091
-727.923	-168.532	-0.304	-0.012
-726.908	671.968	-0.073	-0.191
-725.894	-133.075	0.121	0.015
-724.879	-1.511	-0.381	0.272
-723.864	-84.846	0.172	-0.054
-722.850	-200.000	-0.006	-0.049
-721.835	800.000	0.061	-0.181
-720.821	20.408	0.221	0.181
-719.806	-51.785	-0.385	0.181
-718.791	177.667	-0.073	-0.107
-717.777	-95.786	-0.368	0.099
-716.762	-200.000	0.020	0.153
-715.748	-200.000	0.035	-0.355
-714.733	-115.091	0.162	-0.031
-713.718	127.231	0.111	0.143
-712.704	172.018	0.028	0.040
-711.689	-50.262	-0.073	-0.035
-710.675	220.063	0.039	-0.063
-709.660	-109.422	-0.592	-0.127
-708.645	273.212	0.102	0.183
-707.631	-147.351	0.253	0.022
-706.616	112.559	-0.278	-0.340
-705.602	-3.678	-0.184	0.129
-704.587	-30.970	-0.084	0.048
-703.572	264.492	0.070	0.123
-702.558	-200.000	0.014	-0.099
-701.543	-164.237	0.041	-0.002
-700.529	403.420	0.093	-0.198
-699.514	255.172	-0.143	0.247
-698.499	-21.898	-0.269	-0.165
-697.485	-151.306	0.197	0.015
-696.470	604.753	0.093	-0.234
-695.456	-146.691	-0.087	-0.008
-694.441	220.488	0.122	0.197
-693.426	611.759	-0.036	-0.091
-692.412	121.370	-0.062	0.078
-691.397	455.641	-0.065	-0.145
-690.383	-103.671	0.026	0.006
-689.368	-102.847	0.085	-0.020
-688.354	-127.654	0.353	0.051
-687.339	247.935	-0.150	0.256
-686.324	-200.000	0.034	0.230
-685.310	36.680	-0.285	-0.254
-684.295	-200.000	-0.019	-0.092
-683.281	-59.986	0.157	-0.068
-682.266	-34.275	-0.039	0.021
-681.251	274.784	0.053	0.094
-680.237	-200.000	0.037	0.295
-679.222	-200.000	-0.005	-0.027
-678.208	800.000	0.088	-0.275
-677.193	-21.795	-0.226	-0.139
-676.178	-200.000	-0.000	-0.071
-675.164	-32.792	0.148	-0.083
-674.149	-145.654	0.035	-0.003
-673.135	-59.107	-0.160	0.070
-672.120	246.422	-0.388	0.659
-671.105	-200.000	0.040	0.181
-670.091	-128.105	0.202	-0.029
-669.076	161.990	0.053	-0.075
-668.062	46.900	-0.151	-0.142
-667.047	-200.000	0.050	0.270
-666.032	304.189	0.081	-0.152
-665.018	3.468	0.176	-0.129
-664.003	-59.417	-0.196	0.085
-662.989	95.818	-0.075	-0.086
-661.974	-200.000	-0.004	-0.177
-660.959	91.864	-0.117	0.133
-659.945	-78.852	-0.078	-0.027
-658.930	-89.537	0.181	-0.053
-657.916	134.513	0.048	0.062
-656.901	-67.889	0.218	0.086
-655.886	-93.427	-0.369	0.103
-654.872	-118.886	0.343	0.061
-653.857	-70.253	0.238	-0.091
-652.843	-9.124	-0.267	0.180
-651.828	-121.832	-0.224	0.037
-650.814	-154.000	0.054	-0.004
-649.799	-200.000	0.002	-0.087
-648.784	260.976	0.060	-0.105
-647.770	-164.919	-0.545	-0.025
-646.755	31.422	-0.146	-0.126
-645.741	-118.196	-0.095	0.017
-644.726	-145.315	-0.085	-0.008
-643.711	298.026	0.084	-0.155
-642.697	147.410	0.329	0.447
-641.682	-132.530	-0.080	0.010
-640.668	757.017	-0.133	-0.362
-639.653	-10.446	-0.188	-0.125
-638.638	386.962	0.110	-0.230
-637.624	46.494	-0.248	-0.232
-636.609	-200.000	0.052	0.470
-635.595	246.515	0.161	-0.273
-634.580	-92.650	0.053	0.015
-633.565	-146.271	-0.214	0.019
-632.551	166.367	-0.201	-0.287
-631.536	-200.000	-0.011	-0.234
-630.522	107.170	-0.171	0.204
-629.507	288.321	-0.071	-0.130
-628.492	-60.963	-0.072	-0.031
-627.478	-200.000	0.004	-0.111
-626.463	268.665	0.051	0.090
-625.449	-109.245	-0.189	-0.040
-624.434	-75.068	-0.212	0.076
-623.419	137.418	-0.087	-0.114
-622.405	-63.759	0.241	-0.099
-621.390	-36.825	-0.107	-0.058
-620.376	-13.963	0.172	-0.112
-619.361	-152.483	-0.421	-0.030
-618.346	-71.737	-0.218	-0.082
-617.332	800.000	-0.041	0.152
-616.317	687.407	0.065	0.172
-615.303	-5.240	-0.037	-0.026
-614.288	108.982	-0.074	0.089
-613.273	107.888	-0.079	-0.094
-612.259	323.322	-0.086	-0.165
-611.244	65.535	0.062	-0.063
-610.230	91.403	0.112	0.127
-609.215	-158.964	-0.225	0.013
-608.201	-87.753	-0.309	0.094
-607.186	-200.000	-0.006	0.223
-606.171	161.551	0.072	0.101
-605.157	155.531	-0.061	-0.084
-604.142	51.818	0.097	0.092
-603.128	-46.060	0.198	-0.098
-602.113	532.900	-0.069	0.163
-601.098	-142.514	0.174	0.017
-600.084	-15.396	0.086	-0.056
-599.069	-91.509	-0.417	-0.120
-598.055	21.507	0.186	-0.152
-597.040	139.462	-0.179	-0.236
-596.025	-200.000	-0.001	0.449
-595.011	800.000	-0.021	0.088
-593.996	-21.903	-0.222	-0.135
-592.982	200.538	0.250	-0.386
-591.967	99.447	-0.364	-0.423
-590.952	63.258	0.135	0.136
-589.938	39.047	0.224	-0.201
-588.923	-46.947	-0.093	0.046
-587.909	-196.851	-0.113	0.001
-586.894	-200.000	-0.034	-0.290
-585.879	216.107	-0.073	0.117
-584.865	120.929	0.319	-0.399
-583.850	-46.559	0.083	-0.041
-582.836	38.584	0.335	0.300
-581.821	-28.331	0.260	0.151
-580.806	-128.632	-0.117	0.017
-579.792	800.000	-0.047	0.138
-578.777	-200.000	0.006	0.130
-577.763	246.231	-0.061	0.103
-576.748	-83.239	-0.323	-0.104
-575.733	253.723	-0.101	0.173
-574.719	-200.000	-0.027	0.146
-573.704	-109.246	-0.258	-0.055
-572.690	433.552	-0.205	0.448
-571.675	800.000	-0.109	0.341
-570.661	209.933	-0.055	0.087
-569.646	510.008	-0.118	0.276
-568.631	255.894	-0.069	0.118
-567.617	18.112	-0.248	-0.199
-566.602	-63.510	0.282	0.117
-565.588	800.000	-0.028	0.093
-564.573	512.958	0.062	0.144
-563.558	-147.525	0.319	-0.027
-562.544	147.518	0.200	0.270
-561.529	-66.477	0.267	0.106
-560.515	519.553	0.109	0.256
-559.500	-200.000	0.002	0.168
-558.485	800.000	0.033	0.096
-557.471	-200.000	-0.011	0.299
-556.456	-200.000	0.033	-0.165
-555.442	-200.000	-0.006	0.042
-554.427	-173.963	-0.329	-0.010
-553.412	800.000	0.123	-0.509
-552.398	-118.149	0.200	-0.036
-551.383	800.000	0.035	0.142
-550.369	-59.711	-0.117	0.050
-549.354	-100.276	0.052	-0.013
-548.339	-140.060	-0.189	-0.020
-547.325	11.672	-0.128	0.098
-546.310	1.407	-0.070	0.050
-545.296	-74.307	0.336	0.122
-544.281	200.010	0.169	0.261
-543.266	41.667	-0.246	-0.224
-542.252	-153.777	0.251	-0.017
-541.237	91.878	0.057	0.064
-540.223	-200.000	0.003	0.047
-539.208	-25.819	-0.288	0.170
-538.193	12.399	-0.158	0.122
-537.179	-176.587	0.075	0.002
-536.164	77.629	-0.324	0.346
-535.150	800.000	-0.021	-0.083
-534.135	-76.858	0.197	-0.069
-533.121	-64.336	-0.130	-0.053
-532.106	-200.000	0.015	0.123
-531.091	671.105	0.117	0.304
-530.077	168.458	-0.104	-0.148
-529.062	142.265	0.199	-0.265
-528.048	800.000	-0.090	0.254
-527.033	12.417	-0.170	0.131
-526.018	-120.024	-0.133	-0.023
-525.004	561.835	0.106	-0.258
-523.989	-117.034	0.393	0.072
-522.975	-138.513	0.116	0.013
-521.960	-3.664	0.211	-0.147
-520.945	800.000	-0.024	0.096
-519.931	2.434	0.264	0.192
-518.916	-145.998	0.275	0.024
-517.902	-12.816	0.161	0.105
-516.887	800.000	0.084	0.309
-515.872	84.774	-0.119	-0.130
-514.858	-164.733	0.355	0.016
-513.843	800.000	-0.109	-0.317
-512.829	-112.141	0.187	-0.038
-511.814	62.437	0.131	-0.131
-510.799	-200.000	-0.084	0.375
-509.785	67.754	-0.039	0.040
-508.770	-200.000	0.026	-0.296
-507.756	-126.864	-0.514	0.076
-506.741	358.158	0.095	0.191
-505.726	-58.104	-0.219	-0.096
-504.712	-172.933	-0.100	-0.003
-503.697	78.220	-0.026	-0.028
-502.683	-200.000	-0.012	-0.076
-501.668	-162.701	-0.340	-0.017
-500.653	-139.039	0.223	-0.024
-499.639	-200.000	0.015	-0.171
-498.624	800.000	-0.078	-0.229
-497.610	-200.000	0.043	0.345
-496.595	-60.988	-0.076	-0.032
-495.581	-200.000	-0.033	-0.152
-494.566	384.483	0.136	-0.282
-493.551	-38.475	-0.366	0.194
-492.537	9.095	-0.136	0.103
-491.522	84.893	0.311	-0.341
-490.508	-200.000	-0.018	0.159
-489.493	43.525	0.167	-0.153
-488.478	211.817	-0.122	0.192
-487.464	108.342	0.205	0.245
-486.449	184.849	-0.106	-0.158
-485.435	-200.000	0.046	-0.256
-484.420	800.000	-0.107	-0.369
-483.405	59.390	0.056	0.055
-482.391	233.410	0.189	0.312
-481.376	36.457	-0.127	0.112
-480.362	338.355	0.045	-0.089
-479.347	59.852	0.014	0.014
-478.332	44.447	0.049	0.045
-477.318	344.893	-0.080	0.156
-476.303	-78.147	-0.123	0.042
-475.289	61.872	0.109	-0.109
-474.274	-139.060	0.051	0.006
-473.259	103.988	-0.145	-0.171
-472.245	-134.244	-0.207	0.026
-471.230	280.737	-0.034	0.061
-470.216	-100.111	0.075	0.019
-469.201	524.537	-0.066	-0.154
-468.186	15.256	0.165	0.130
-467.172	-116.156	-0.115	-0.021
-466.157	-157.444	0.262	0.016
-465.143	800.000	-0.065	-0.275
-464.128	-63.696	-0.301	-0.123
-463.113	16.497	0.231	0.182
-462.099	-200.000	0.007	-0.119
-461.084	501.786	0.132	-0.305
-460.070	22.927	0.146	-0.120
-459.055	-154.482	0.183	0.012
-458.040	-154.455	0.137	-0.009
-457.026	-20.937	0.166	-0.101
-456.011	122.228	0.095	-0.119
-454.997	-110.403	0.093	0.019
-453.982	-87.230	0.209	-0.063
-452.968	-84.288	-0.182	0.058
-451.953	-13.943	-0.229	-0.148
-450.938	800.000	0.084	-0.242
-449.924	-200.000	-0.022	0.294
-448.909	697.079	0.024	-0.062
-447.895	156.503	-0.105	-0.144
-446.880	-200.000	-0.009	-0.136
-445.865	-114.356	-0.035	0.007
-444.851	670.956	0.066	0.170
-443.836	-141.349	-0.075	0.008
-442.822	-174.376	0.219	-0.006
-441.807	591.330	-0.020	0.050
-440.792	-181.247	0.102	0.002
-439.778	27.541	-0.100	-0.084
-438.763	-116.570	0.068	-0.013
-437.749	-200.000	-0.050	0.273
-436.734	-90.666	0.041	0.012
-435.719	-5.426	-0.221	0.151
-434.705	-200.000	0.008	-0.062
-433.690	-92.440	0.298	0.084
-432.676	-119.163	0.263	-0.046
-431.661	-195.489	-0.142	0.001
-430.646	-200.000	0.053	-0.415
-429.632	-17.442	-0.094	0.059
-428.617	168.443	-0.223	0.317
-427.603	-4.968	-0.179	-0.123
-426.588	-200.000	0.027	0.163
-425.573	800.000	0.043	-0.144
-424.559	-200.000	-0.001	-0.104
-423.544	-200.000	-0.034	-0.337
-422.530	-85.947	0.334	0.103
-421.515	-13.649	-0.304	0.196
-420.500	-10.471	0.282	-0.187
-419.486	512.306	0.065	-0.151
-418.471	-38.022	0.181	0.096
-417.457	-200.000	0.010	0.153
-416.442	-200.000	-0.071	0.372
-415.428	141.106	0.177	0.234
-414.413	57.078	-0.111	-0.108
-413.398	104.614	-0.311	-0.365
-412.384	-83.396	0.223	0.071
-411.369	596.418	0.080	0.199
-410.355	800.000	-0.039	-0.138
-409.340	-175.105	-0.322	0.009
-408.325	-200.000	0.016	0.120
-407.311	-74.190	-0.152	0.055
-406.296	-55.085	-0.030	-0.013
-405.282	-6.228	0.135	-0.092
-404.267	-28.565	0.202	-0.116
-403.252	-43.307	-0.204	0.103
-402.238	-190.651	0.356	0.004
-401.223	800.000	0.090	-0.248
-400.209	-200.000	-0.006	-0.237
-399.194	-18.863	0.185	0.115
-398.179	2.186	-0.065	-0.047
-397.165	-200.000	-0.023	0.347
-396.150	-97.867	-0.268	-0.069
-395.136	71.255	-0.136	-0.141
-394.121	-200.000	0.032	0.220
-393.106	141.229	0.046	-0.061
-392.092	-120.147	-0.252	0.043
-391.077	211.225	0.170	0.266
-390.063	-139.301	0.186	0.020
-389.048	-10.410	-0.029	-0.019
-388.033	80.908	-0.157	-0.169
-387.019	405.614	0.140	0.294
-386.004	-200.000	0.027	0.172
-384.990	-200.000	0.002	-0.097
-383.975	-131.398	0.119	0.016
-382.960	-200.000	0.016	-0.212
-381.946	-19.381	0.122	0.076
-380.931	-142.679	-0.066	-0.006
-379.917	65.079	0.117	-0.118
-378.902	552.816	0.041	-0.098
-377.888	-200.000	-0.030	0.202
-376.873	317.638	-0.049	0.093
-375.858	421.218	0.040	-0.086
-374.844	693.108	0.049	0.129
-373.829	57.525	0.171	0.166
-372.815	-3.626	-0.362	-0.251
-371.800	52.524	-0.257	0.244
-370.785	-15.291	-0.081	0.052
-369.771	136.393	0.221	0.287
-368.756	-62.219	0.294	-0.122
-367.742	-200.000	0.007	-0.065
-366.727	800.000	0.044	-0.170
-365.712	-151.653	0.094	-0.007
-364.698	-200.000	0.001	0.080
-363.683	184.755	0.123	0.181
-362.669	-48.002	0.114	-0.055
-361.654	446.729	-0.040	0.089
-360.639	328.515	0.044	-0.085
-359.625	306.247	-0.222	-0.412
-358.610	75.150	0.226	-0.237
-357.596	171.894	-0.092	-0.131
-356.581	-200.000	0.006	-0.069
-355.566	-115.280	-0.299	-0.056
-354.552	-200.000	0.060	0.327
-353.537	-150.001	-0.169	0.013
-352.523	170.096	-0.108	0.154
-351.508	98.697	-0.066	0.076
-350.493	-90.073	-0.459	-0.133
-349.479	267.232	-0.089	0.154
-348.464	-200.000	0.004	-0.031
-347.450	14.803	-0.131	-0.102
-346.435	310.132	0.095	0.178
-345.420	6.558	-0.101	-0.075
-344.406	215.427	0.089	0.140
-343.391	-200.000	-0.107	-0.477
-342.377	29.070	0.114	-0.096
-341.362	582.541	0.034	-0.084
-340.348	-200.000	0.016	-0.101
-339.333	525.244	-0.201	-0.471
-338.318	-200.000	-0.011	0.177
-337.304	-200.000	0.000	0.169
-336.289	-113.756	-0.087	0.017
-335.275	107.804	-0.121	0.144
-334.260	-77.584	-0.208	0.072
-333.245	40.624	0.146	0.130
-332.231	169.355	0.172	-0.244
-331.216	-61.649	0.040	0.017
-330.202	512.248	0.123	-0.284
-329.187	436.663	-0.125	-0.272
-328.172	-122.980	-0.208	-0.033
-327.158	-200.000	-0.001	-0.052
-326.143	800.000	0.026	-0.073
-325.129	-70.141	-0.236	-0.089
-324.114	-136.931	0.213	-0.024
-323.099	660.409	-0.020	-0.051
-322.085	26.941	-0.179	0.149
-321.070	140.102	-0.054	0.070
-320.056	36.018	-0.137	-0.120
-319.041	494.553	0.044	-0.101
-318.026	-154.257	0.128	-0.009
-317.012	-200.000	0.020	0.272
-315.997	-200.000	0.023	0.286
-314.983	-41.560	-0.103	-0.052
-313.968	240.050	-0.011	0.018
-312.953	212.212	0.172	0.270
-311.939	39.077	0.130	-0.115
-310.924	-68.414	0.111	0.043
-309.910	-200.000	-0.002	-0.135
-308.895	-42.630	0.054	0.027
-307.880	427.327	0.115	0.247
-306.866	278.236	0.076	-0.134
-305.851	240.659	-0.036	0.059
-304.837	800.000	-0.087	-0.359
-303.822	-69.600	0.115	0.044
-302.807	-92.336	-0.316	-0.089
-301.793	-200.000	-0.004	-0.064
-300.778	75.337	-0.108	-0.113
-299.764	200.124	-0.102	0.156
-298.749	-142.092	0.124	-0.012
-297.735	135.554	0.063	0.082
-296.720	189.921	0.110	-0.164
-295.705	-2.476	0.183	-0.128
-294.691	166.328	0.087	-0.122
-293.676	-3.360	-0.221	-0.153
-292.662	-200.000	0.003	-0.234
-291.647	23.783	0.255	-0.209
-290.632	800.000	0.115	0.374
-289.618	738.175	0.116	0.310
-288.603	466.882	0.048	0.107
-287.589	-29.768	0.180	-0.102
-286.574	27.142	0.159	0.133
-285.559	113.707	-0.085	-0.103
-284.545	-140.121	0.164	-0.017
-283.530	800.000	-0.112	-0.383
-282.516	-200.000	0.020	0.118
-281.501	-104.705	-0.114	-0.026
-280.486	-151.200	0.422	-0.031
-279.472	163.534	-0.164	-0.229
-278.457	289.171	0.071	0.128
-277.443	800.000	-0.017	0.067
-276.428	800.000	-0.026	0.079
-275.413	-127.328	0.221	-0.032
-274.399	-137.723	0.187	-0.021
-273.384	-200.000	-0.029	-0.442
-272.370	-200.000	0.043	0.208
-271.355	-128.956	-0.465	-0.065
-270.340	-36.205	0.130	0.070
-269.326	-17.009	0.054	-0.034
-268.311	-69.554	0.180	-0.068
-267.297	-182.494	-0.171	0.003
-266.282	-55.026	0.310	-0.138
-265.267	230.748	-0.030	-0.048
-264.253	111.718	-0.174	0.208
-263.238	-80.937	0.314	0.103
-262.224	-48.013	0.150	-0.072
-261.209	-6.754	0.132	0.089
-260.195	133.704	0.141	-0.181
-259.180	-200.000	-0.003	-0.082
-258.165	-44.509	-0.185	-0.092
-257.151	197.262	-0.165	-0.249
-256.136	-13.263	0.048	0.031
-255.122	-52.987	0.064	0.029
-254.107	-200.000	-0.019	0.326
-253.092	210.238	0.167	-0.259
-252.078	-98.067	-0.401	-0.102
-251.063	90.780	-0.072	-0.080
-250.049	476.774	0.069	0.154
-249.034	26.609	-0.216	0.179
-248.019	698.926	0.171	0.447
-247.005	-21.531	-0.079	-0.048
-245.990	63.989	0.122	-0.122
-244.976	-44.990	0.224	-0.111
-243.961	58.300	-0.230	-0.223
-242.946	-12.866	-0.087	0.056
-241.932	220.773	-0.131	-0.208
-240.917	-85.755	-0.228	0.070
-239.903	613.690	-0.097	-0.240
-238.888	31.898	0.371	-0.317
-237.873	-135.198	-0.211	-0.025
-236.859	-200.000	0.021	0.288
-235.844	243.872	0.184	0.307
-234.830	-93.987	0.208	-0.057
-233.815	17.934	-0.050	0.039
-232.800	-200.000	-0.026	0.153
-231.786	-200.000	0.044	0.335
-230.771	-127.019	0.282	-0.041
-229.757	-172.491	0.315	0.010
-228.742	-81.458	-0.321	-0.105
-227.727	-112.000	0.194	0.039
-226.713	-108.567	-0.459	0.098
-225.698	-62.733	0.219	-0.090
-224.684	1.049	-0.185	0.132
-223.669	-200.000	-0.044	-0.315
-222.655	-143.263	0.348	0.033
-221.640	-21.344	-0.085	-0.051
-220.625	-200.000	0.020	-0.113
-219.611	-200.000	0.056	-0.258
-218.596	800.000	0.093	0.299
-217.582	-200.000	-0.037	0.341
-216.567	-64.907	0.274	-0.110
-215.552	55.839	0.083	0.080
-214.538	110.609	0.124	0.147
-213.523	-200.000	-0.047	0.373
-212.509	497.244	0.155	-0.353
-211.494	-80.256	-0.121	-0.040
-210.479	251.126	-0.167	0.282
-209.465	-62.364	0.097	0.040
-208.450	14.983	0.019	-0.015
-207.436	-125.854	0.161	-0.024
-206.421	-200.000	-0.010	0.281
-205.406	-200.000	0.005	-0.316
-204.392	411.124	-0.106	0.223
-203.377	-0.392	0.464	0.327
-202.363	-82.642	-0.208	-0.067
-201.348	224.611	-0.336	-0.537
-200.333	800.000	-0.094	-0.273
-199.319	-189.060	-0.055	-0.001
-198.304	-89.237	-0.111	0.033
-197.290	143.509	-0.244	-0.322
-196.275	800.000	-0.072	0.236
-195.260	-82.232	-0.158	-0.051
-194.246	18.982	0.251	0.199
-193.231	413.771	-0.074	0.157
-192.217	-40.876	-0.340	0.174
-191.202	-42.871	0.041	0.020
-190.187	-112.427	-0.281	0.056
-189.173	44.655	-0.283	-0.257
-188.158	-42.900	-0.026	-0.013
-187.144	800.000	0.119	0.343
-186.129	-74.247	0.260	0.093
-185.114	71.966	0.212	-0.218
-184.100	-200.000	-0.023	-0.290
-183.085	-200.000	-0.013	0.178
-182.071	-78.006	-0.184	0.063
-181.056	58.872	-0.149	0.145
-180.042	332.544	0.031	0.060
-179.027	280.530	0.119	-0.210
-178.012	800.000	0.074	-0.204
-176.998	-74.493	0.344	0.123
-175.983	-124.470	-0.046	0.007
-174.969	-200.000	-0.009	0.341
-173.954	185.726	-0.144	0.211
-172.939	-11.432	-0.188	0.122
-171.925	800.000	0.020	-0.057
-170.910	-200.000	-0.011	0.260
-169.896	-191.994	0.295	0.003
-168.881	800.000	-0.045	0.186
-167.866	-200.000	0.023	-0.322
-166.852	-64.096	-0.227	-0.092
-165.837	395.031	0.054	0.111
-164.823	-128.711	-0.231	0.032
-163.808	-144.820	0.472	0.043
-162.793	-91.178	-0.122	-0.035
-161.779	683.542	-0.195	-0.503
-160.764	159.922	-0.048	0.066
-159.750	-90.638	-0.293	-0.084
-158.735	-200.000	0.028	0.335
-157.720	-84.822	0.364	-0.113
-156.706	744.471	0.071	0.188
-155.691	0.779	-0.024	-0.017
-154.677	-97.012	-0.139	0.036
-153.662	-200.000	0.015	0.110
-152.647	-60.493	0.377	0.158
-151.633	-30.480	0.163	-0.091
-150.618	131.199	0.245	0.311
-149.604	-182.844	0.201	0.004
-148.589	-200.000	0.015	-0.528
-147.574	-158.382	0.168	0.010
-146.560	800.000	0.039	0.127
-145.545	-200.000	-0.039	0.440
-144.531	-74.956	0.018	-0.006
-143.516	-48.528	0.580	0.276
-142.502	-36.970	0.051	-0.027
-141.487	189.352	0.100	-0.148
-140.472	800.000	0.103	0.344
-139.458	643.731	0.014	0.034
-138.443	79.848	-0.047	0.050
-137.429	-46.690	0.168	-0.081
-136.414	-200.000	-0.028	-0.384
-135.399	-200.000	-0.029	0.306
-134.385	136.991	0.125	-0.161
-133.370	-140.593	0.183	-0.019
-132.356	-60.698	-0.420	-0.176
-131.341	613.074	0.228	-0.564
-130.326	153.430	0.158	-0.214
-129.312	19.437	-0.314	0.249
-128.297	61.753	0.124	-0.122
-127.283	800.000	-0.029	-0.123
-126.268	168.715	0.044	-0.062
-125.253	-200.000	0.022	0.104
-124.239	-200.000	0.002	0.266
-123.224	800.000	0.057	-0.237
-122.210	-103.056	0.106	-0.025
