DTS Sentinel unit serial number:	SN413079Multiplexer serial number:	ORYXHardware model number:	OX4-SRSoftware version number:	ORYX F/W v4.00 Oryx Data Collector v3.7.2.0data status	okinstallation	princeton_trtdifferential loss correction	single-endedforward channel	channel 1reverse channel	N/Adate	2019/09/18time	08:54:35forward acquisition time	60.00reverse acquisition time	0.00gamma	496.2192k internal	0.2336k external	0.2336temperature offset calibration	0.9973default loss term (dB/km)	0.3790temperature slope calibration	1.0000multiplexer offset coefficient	1.0000multiplexer slope coefficient	1.0000fibre end	0.00T internal ref (°C)	24.89T ext. ref 1 (°C)	0.24T ext. ref 2 (°C)	21.10length (m)	temperature (°C)	Stokes	anti-Stokes-747.200	256.519	0.184	0.318
-746.185	800.000	-0.062	0.265
-745.171	-170.307	-0.192	-0.007
-744.156	-113.974	-0.203	0.040
-743.142	-200.000	0.029	0.205
-742.127	247.802	-0.105	-0.178
-741.112	-126.162	0.147	-0.022
-740.098	381.054	-0.167	0.343
-739.083	-127.868	-0.325	-0.047
-738.069	50.416	-0.122	0.116
-737.054	-84.763	0.024	0.007
-736.039	5.168	-0.137	-0.101
-735.025	-84.616	-0.157	0.050
-734.010	77.168	-0.084	0.090
-732.996	2.325	-0.084	-0.061
-731.981	122.167	-0.050	0.062
-730.966	-70.001	0.091	-0.035
-729.952	-124.160	-0.471	0.074
-728.937	131.210	0.105	0.135
-727.923	-150.581	-0.132	-0.010
-726.908	-28.647	-0.406	0.235
-725.894	-200.000	-0.034	0.197
-724.879	-118.632	-0.198	-0.035
-723.864	800.000	0.036	0.143
-722.850	109.414	-0.243	0.292
-721.835	-36.999	-0.207	-0.111
-720.821	462.672	0.234	-0.524
-719.806	-97.823	-0.275	-0.071
-718.791	31.640	0.130	0.112
-717.777	-16.630	-0.177	-0.112
-716.762	271.431	-0.086	0.152
-715.748	-156.567	0.653	-0.041
-714.733	-35.369	0.185	-0.101
-713.718	-44.793	-0.101	-0.051
-712.704	-43.959	0.197	-0.099
-711.689	-170.551	-0.324	-0.011
-710.675	-140.079	0.315	0.033
-709.660	355.205	-0.135	-0.269
-708.645	233.419	-0.177	-0.291
-707.631	-41.933	0.165	-0.085
-706.616	3.851	-0.182	-0.133
-705.602	26.470	0.133	-0.111
-704.587	800.000	0.100	-0.324
-703.572	295.700	0.077	-0.141
-702.558	-200.000	0.040	-0.511
-701.543	36.474	-0.061	-0.054
-700.529	46.415	-0.076	0.071
-699.514	-200.000	0.033	-0.294
-698.499	-144.003	-0.169	0.016
-697.485	201.272	-0.086	0.133
-696.470	-200.000	-0.020	-0.104
-695.456	97.593	0.164	0.188
-694.441	109.716	0.114	-0.137
-693.426	-194.306	-0.107	0.001
-692.412	12.110	0.233	0.180
-691.397	12.675	0.040	0.031
-690.383	-200.000	-0.115	0.000
-689.368	-64.478	0.167	-0.068
-688.354	-57.740	0.221	-0.097
-687.339	-70.352	0.062	0.023
-686.324	-74.277	-0.061	-0.022
-685.310	253.703	0.101	0.174
-684.295	607.387	-0.050	-0.126
-683.281	-171.910	-0.101	-0.003
-682.266	290.096	-0.052	-0.094
-681.251	60.887	-0.208	-0.207
-680.237	-98.794	-0.343	0.087
-679.222	-200.000	-0.015	-0.185
-678.208	-200.000	0.044	0.303
-677.193	-136.804	-0.344	-0.040
-676.178	-200.000	0.040	-0.209
-675.164	-2.063	0.164	0.115
-674.149	68.927	-0.201	0.207
-673.135	-39.755	0.097	-0.051
-672.120	-39.599	0.078	0.041
-671.105	480.323	0.036	-0.081
-670.091	94.305	-0.040	-0.045
-669.076	45.063	0.233	-0.215
-668.062	59.111	-0.187	-0.184
-667.047	-200.000	-0.017	0.134
-666.032	-63.732	-0.080	-0.033
-665.018	169.295	-0.215	-0.307
-664.003	-102.744	0.123	0.029
-662.989	-8.551	0.252	0.170
-661.974	340.249	-0.228	-0.445
-660.959	-51.686	-0.010	-0.005
-659.945	-67.981	0.158	-0.062
-658.930	800.000	0.026	-0.111
-657.916	268.432	0.097	0.169
-656.901	-71.389	-0.318	-0.119
-655.886	223.412	0.130	0.211
-654.872	-200.000	0.004	0.087
-653.857	800.000	0.073	-0.254
-652.843	-18.675	0.080	-0.050
-651.828	154.523	0.085	0.117
-650.814	-200.000	0.016	-0.566
-649.799	-89.342	-0.085	0.025
-648.784	105.395	-0.086	0.101
-647.770	-84.989	-0.208	0.065
-646.755	90.460	-0.150	0.168
-645.741	-200.000	0.020	-0.354
-644.726	-45.653	-0.139	-0.069
-643.711	-34.591	-0.100	0.055
-642.697	344.257	-0.120	0.236
-641.682	-200.000	-0.014	-0.122
-640.668	-200.000	0.015	0.119
-639.653	53.852	0.132	0.127
-638.638	-125.370	-0.232	-0.035
-637.624	165.795	0.128	0.181
-636.609	800.000	-0.062	0.261
-635.595	200.897	0.155	0.238
-634.580	-19.319	0.181	0.112
-633.565	-200.000	-0.048	0.240
-632.551	41.201	0.237	0.214
-631.536	800.000	-0.118	-0.400
-630.522	37.450	-0.120	0.107
-629.507	800.000	0.101	0.320
-628.492	214.325	0.079	0.125
-627.478	203.899	-0.219	0.339
-626.463	-200.000	-0.043	0.201
-625.449	55.712	-0.166	0.160
-624.434	29.704	-0.063	0.053
-623.419	-3.905	-0.089	-0.062
-622.405	47.381	0.038	0.035
-621.390	282.217	0.101	0.180
-620.376	-95.105	0.109	-0.029
-619.361	81.620	-0.051	-0.055
-618.346	110.599	0.206	-0.247
-617.332	9.023	-0.121	0.092
-616.317	800.000	-0.046	0.132
-615.303	627.793	-0.025	0.064
-614.288	0.623	-0.342	-0.245
-613.273	-128.149	0.170	0.024
-612.259	253.786	-0.085	-0.145
-611.244	800.000	0.146	-0.432
-610.230	185.048	-0.092	-0.136
-609.215	195.968	-0.072	-0.109
-608.201	800.000	0.054	0.225
-607.186	1.976	0.106	-0.076
-606.171	566.009	0.046	-0.111
-605.157	209.322	0.224	-0.351
-604.142	-113.410	0.349	0.068
-603.128	-59.814	-0.411	0.176
-602.113	90.068	-0.158	0.177
-601.098	-200.000	0.010	0.107
-600.084	0.630	-0.222	0.158
-599.069	800.000	0.070	-0.267
-598.055	-200.000	0.012	-0.128
-597.040	128.491	-0.210	-0.268
-596.025	17.404	0.136	-0.108
-595.011	-10.377	-0.306	0.203
-593.996	-29.566	-0.164	-0.093
-592.982	-12.446	0.377	0.246
-591.967	-98.221	-0.326	0.084
-590.952	-124.952	-0.091	-0.014
-589.938	-200.000	0.014	-0.069
-588.923	533.333	-0.132	0.311
-587.909	-200.000	0.068	0.395
-586.894	127.428	-0.222	0.281
-585.879	19.597	-0.215	-0.173
-584.865	800.000	0.035	0.141
-583.850	-96.186	-0.236	0.063
-582.836	800.000	0.062	0.186
-581.821	-3.291	0.229	0.159
-580.806	-93.744	0.310	-0.085
-579.792	-81.707	-0.309	0.101
-578.777	85.422	-0.132	0.145
-577.763	-47.207	-0.046	-0.022
-576.748	-47.554	-0.182	0.088
-575.733	-40.775	-0.073	-0.038
-574.719	-200.000	0.005	-0.202
-573.704	780.273	0.085	0.232
-572.690	800.000	0.062	-0.232
-571.675	-200.000	-0.006	-0.048
-570.661	-156.823	-0.204	0.012
-569.646	-200.000	0.017	0.311
-568.631	-73.622	0.225	-0.082
-567.617	-132.478	0.026	-0.003
-566.602	-178.558	-0.173	-0.004
-565.588	800.000	-0.072	0.212
-564.573	-71.713	0.415	-0.154
-563.558	-200.000	-0.038	-0.296
-562.544	-86.020	0.197	0.061
-561.529	800.000	-0.088	0.351
-560.515	113.172	-0.171	-0.207
-559.500	37.434	-0.037	-0.032
-558.485	427.675	-0.047	-0.102
-557.471	241.955	-0.145	-0.242
-556.456	645.871	-0.062	-0.158
-555.442	420.257	-0.071	-0.151
-554.427	61.992	0.125	-0.124
-553.412	581.348	-0.102	-0.250
-552.398	-200.000	-0.034	-0.267
-551.383	-30.178	-0.044	-0.025
-550.369	-200.000	0.026	0.118
-549.354	800.000	0.141	-0.397
-548.339	-65.500	0.198	0.079
-547.325	-54.342	-0.079	0.036
-546.310	627.077	0.119	0.299
-545.296	-98.604	0.212	0.054
-544.281	-200.000	0.002	-0.305
-543.266	-109.159	0.196	-0.042
-542.252	278.120	0.107	0.189
-541.237	779.809	-0.156	-0.426
-540.223	268.785	0.092	0.161
-539.208	-9.091	-0.173	0.115
-538.193	-92.832	0.265	-0.074
-537.179	66.271	0.107	0.108
-536.164	-71.305	-0.068	0.026
-535.150	460.118	0.015	-0.032
-534.135	-200.000	-0.015	0.172
-533.121	65.322	0.305	0.307
-532.106	-67.586	-0.181	-0.071
-531.091	800.000	0.032	0.091
-530.077	-131.598	0.278	0.036
-529.062	-200.000	-0.016	0.075
-528.048	-156.438	-0.199	0.012
-527.033	88.643	0.171	-0.190
-526.018	-122.193	0.209	0.034
-525.004	-122.162	-0.199	0.032
-523.989	-200.000	0.011	-0.094
-522.975	97.034	0.102	0.116
-521.960	797.904	0.085	0.233
-520.945	132.769	0.124	-0.160
-519.931	-200.000	0.021	-0.133
-518.916	216.926	0.157	-0.248
-517.902	376.701	0.096	0.195
-516.887	-82.710	0.233	0.075
-515.872	-200.000	0.043	-0.266
-514.858	770.583	-0.016	-0.045
-513.843	-200.000	-0.034	-0.236
-512.829	-3.496	0.231	0.160
-511.814	-200.000	-0.022	-0.191
-510.799	-26.139	-0.185	-0.108
-509.785	-87.906	0.043	0.013
-508.770	577.940	-0.072	-0.176
-507.756	-144.836	-0.332	0.030
-506.741	-145.875	0.477	0.042
-505.726	-130.556	-0.382	-0.051
-504.712	-200.000	0.074	0.000
-503.697	-110.739	-0.259	0.053
-502.683	-42.147	0.164	0.083
-501.668	-69.794	-0.025	0.010
-500.653	796.441	-0.110	-0.302
-499.639	26.668	0.337	-0.281
-498.624	4.135	0.116	0.084
-497.610	-90.317	-0.226	0.065
-496.595	45.473	-0.232	-0.213
-495.581	229.691	-0.329	-0.535
-494.566	271.889	0.065	0.115
-493.551	-77.147	0.263	-0.091
-492.537	-112.547	-0.127	-0.025
-491.522	59.917	0.094	-0.092
-490.508	-200.000	0.021	-0.230
-489.493	16.080	-0.131	-0.103
-488.478	-124.931	-0.124	0.019
-487.464	46.740	0.194	0.179
-486.449	117.533	-0.240	0.293
-485.435	315.405	0.025	0.046
-484.420	335.615	-0.129	-0.248
-483.405	-72.328	0.133	0.049
-482.391	-114.309	-0.233	-0.045
-481.376	-5.347	-0.075	0.051
-480.362	-33.850	-0.302	0.165
-479.347	-93.171	0.228	-0.063
-478.332	155.765	-0.216	-0.296
-477.318	-56.495	-0.312	0.138
-476.303	22.103	0.083	-0.068
-475.289	533.098	0.166	-0.391
-474.274	-143.471	-0.380	-0.036
-473.259	-200.000	-0.023	0.105
-472.245	-1.665	0.549	0.385
-471.230	275.331	-0.104	0.183
-470.216	-64.200	-0.170	0.069
-469.201	800.000	0.076	0.330
-468.186	32.916	-0.207	0.178
-467.172	-92.677	-0.305	0.085
-466.157	-15.364	0.212	0.134
-465.143	-121.630	-0.406	-0.067
-464.128	-46.408	-0.166	0.081
-463.113	10.298	0.106	0.080
-462.099	800.000	0.109	-0.347
-461.084	-95.963	0.215	-0.057
-460.070	-5.462	0.117	-0.080
-459.055	-200.000	-0.017	0.152
-458.040	25.682	-0.092	0.076
-457.026	-59.547	0.100	-0.043
-456.011	205.707	0.067	0.104
-454.997	-92.286	0.352	0.099
-453.982	-95.015	0.143	-0.038
-452.968	-200.000	-0.008	0.052
-451.953	-200.000	0.017	0.194
-450.938	19.205	-0.266	-0.212
-449.924	432.846	0.158	0.340
-448.909	-200.000	0.039	0.426
-447.895	321.545	-0.172	-0.325
-446.880	29.552	0.071	-0.060
-445.865	111.607	-0.146	0.174
-444.851	-29.111	0.107	0.061
-443.836	625.102	-0.017	-0.043
-442.822	190.310	0.125	-0.187
-441.807	187.775	0.081	-0.121
-440.792	-200.000	-0.005	-0.113
-439.778	-100.384	0.242	0.059
-438.763	-159.074	0.141	0.008
-437.749	800.000	0.017	0.071
-436.734	534.439	0.086	0.201
-435.719	311.404	0.092	0.172
-434.705	-159.948	-0.128	-0.007
-433.690	86.262	0.262	-0.287
-432.676	-83.255	-0.285	0.091
-431.661	1.091	-0.182	0.129
-430.646	-74.201	0.030	0.011
-429.632	183.771	0.126	0.185
-428.617	-140.326	-0.242	0.025
-427.603	3.058	0.061	-0.044
-426.588	33.516	0.120	0.103
-425.573	-82.141	-0.203	-0.066
-424.559	-74.190	0.115	0.041
-423.544	800.000	-0.064	0.272
-422.530	-37.068	-0.201	-0.107
-421.515	18.333	-0.205	-0.162
-420.500	-116.306	-0.236	-0.043
-419.486	107.781	-0.216	0.255
-418.471	-200.000	0.022	-0.168
-417.457	-64.010	0.081	-0.033
-416.442	70.066	0.264	-0.270
-415.428	-17.951	-0.139	0.086
-414.413	483.492	0.099	-0.224
-413.398	-49.994	-0.086	-0.040
-412.384	10.325	-0.041	-0.031
-411.369	-59.923	0.428	-0.181
-410.355	0.835	0.343	-0.244
-409.340	-87.379	-0.315	-0.095
-408.325	-200.000	0.018	-0.095
-407.311	800.000	0.040	-0.120
-406.296	-27.508	0.016	-0.009
-405.282	86.840	0.085	-0.093
-404.267	-95.464	0.152	0.041
-403.252	-114.285	-0.263	-0.050
-402.238	-200.000	-0.005	0.392
-401.223	-200.000	-0.004	0.063
-400.209	-175.129	0.096	-0.003
-399.194	-200.000	0.014	-0.153
-398.179	-141.129	-0.351	0.035
-397.165	601.206	-0.107	0.264
-396.150	-200.000	-0.025	0.271
-395.136	800.000	0.087	-0.268
-394.121	-125.541	-0.175	-0.026
-393.106	-200.000	-0.019	-0.162
-392.092	6.963	0.190	0.141
-391.077	-128.540	-0.144	-0.020
-390.063	586.088	-0.184	-0.447
-389.048	234.949	0.154	-0.252
-388.033	350.306	0.066	0.130
-387.019	-164.591	0.274	0.012
-386.004	-200.000	0.020	-0.228
-384.990	41.919	0.060	-0.054
-383.975	-61.521	0.629	0.262
-382.960	764.108	-0.035	0.094
-381.946	-9.013	0.289	0.191
-380.931	800.000	-0.091	-0.257
-379.917	-74.503	-0.119	0.042
-378.902	-140.729	0.551	-0.056
-377.888	47.323	-0.165	-0.152
-376.873	-131.504	0.228	0.030
-375.858	153.285	-0.086	0.116
-374.844	-11.992	0.039	-0.026
-373.829	22.563	-0.334	-0.270
-372.815	147.295	0.183	-0.244
-371.800	68.819	-0.207	-0.210
-370.785	-122.208	-0.087	0.014
-369.771	163.675	-0.025	0.034
-368.756	89.747	-0.021	0.024
-367.742	-63.615	0.117	0.047
-366.727	-200.000	0.010	-0.088
-365.712	-200.000	0.005	-0.074
-364.698	-104.956	-0.199	0.045
-363.683	36.753	0.094	0.082
-362.669	162.955	0.164	0.227
-361.654	-105.719	0.173	0.039
-360.639	-42.809	-0.390	0.196
-359.625	800.000	-0.080	0.223
-358.610	800.000	0.047	-0.150
-357.596	11.742	0.206	0.156
-356.581	11.559	-0.070	-0.053
-355.566	262.893	0.119	-0.204
-354.552	28.469	0.294	-0.246
-353.537	-91.539	0.060	0.017
-352.523	-176.293	0.361	0.009
-351.508	-120.005	-0.255	0.043
-350.493	-159.607	-0.254	0.014
-349.479	204.198	0.038	0.058
-348.464	800.000	0.009	0.036
-347.450	73.514	0.316	-0.328
-346.435	336.504	-0.064	0.123
-345.420	354.446	-0.123	0.241
-344.406	19.926	0.048	0.038
-343.391	51.975	-0.122	0.115
-342.377	619.341	-0.047	0.117
-341.362	-200.000	-0.001	0.006
-340.348	800.000	-0.024	-0.082
-339.333	800.000	-0.036	-0.140
-338.318	-109.856	-0.377	0.078
-337.304	285.238	-0.188	-0.335
-336.289	-176.055	0.209	0.005
-335.275	184.566	-0.119	0.175
-334.260	93.985	0.068	-0.077
-333.245	355.245	0.082	0.162
-332.231	44.271	0.189	0.171
-331.216	-157.045	0.121	0.007
-330.202	-110.416	0.165	0.034
-329.187	571.456	-0.031	-0.075
-328.172	642.424	0.116	-0.292
-327.158	-65.565	-0.252	-0.100
-326.143	800.000	-0.062	0.189
-325.129	-111.973	-0.075	0.015
-324.114	-1.038	0.106	0.074
-323.099	-196.908	-0.189	0.001
-322.085	635.193	-0.046	0.116
-321.070	-182.780	-0.475	0.008
-320.056	56.697	0.295	-0.283
-319.041	-122.150	-0.202	-0.033
-318.026	-159.803	0.273	0.015
-317.012	316.740	-0.117	-0.218
-315.997	-154.519	-0.043	-0.003
-314.983	-200.000	0.022	-0.186
-313.968	-200.000	-0.005	-0.116
-312.953	800.000	0.060	0.168
-311.939	-144.608	-0.161	-0.015
-310.924	6.117	-0.134	0.098
-309.910	100.518	-0.195	-0.223
-308.895	-74.396	-0.082	-0.029
-307.880	-22.510	-0.126	0.075
-306.866	-2.658	-0.213	0.147
-305.851	800.000	-0.043	0.139
-304.837	-42.822	0.020	0.010
-303.822	-7.582	0.130	-0.087
-302.807	106.736	0.148	0.173
-301.793	106.085	0.133	0.156
-300.778	173.985	0.147	0.210
-299.764	-200.000	-0.065	0.333
-298.749	-200.000	-0.006	0.287
-297.735	-57.956	-0.169	-0.073
-296.720	149.678	-0.183	-0.244
-295.705	451.808	0.113	-0.246
-294.691	-200.000	0.028	-0.279
-293.676	800.000	-0.034	0.135
-292.662	34.667	0.191	0.165
-291.647	274.977	0.101	0.177
-290.632	323.285	0.104	0.195
-289.618	800.000	0.038	0.146
-288.603	-200.000	-0.014	0.110
-287.589	51.991	0.114	0.107
-286.574	193.797	-0.125	0.187
-285.559	42.966	0.265	-0.238
-284.545	-8.039	0.164	0.109
-283.530	42.630	0.101	-0.090
-282.516	-10.396	-0.065	-0.042
-281.501	-28.714	0.091	-0.052
-280.486	158.776	-0.210	-0.288
-279.472	-200.000	0.050	0.221
-278.457	-200.000	-0.027	-0.302
-277.443	267.552	0.026	0.045
-276.428	-75.423	-0.144	-0.051
-275.413	800.000	-0.035	0.122
-274.399	175.940	-0.146	-0.209
-273.384	510.697	-0.115	0.264
-272.370	105.427	0.157	-0.183
-271.355	800.000	0.070	-0.217
-270.340	-115.611	0.022	0.004
-269.326	-68.333	-0.098	0.038
-268.311	114.717	-0.063	0.075
-267.297	245.644	0.115	0.191
-266.282	-89.929	-0.189	-0.054
-265.267	-108.124	-0.131	0.028
-264.253	-200.000	-0.001	0.029
-263.238	-200.000	0.039	-0.320
-262.224	-200.000	-0.029	-0.164
-261.209	-154.279	-0.250	-0.017
-260.195	800.000	0.063	-0.183
-259.180	-11.022	0.119	0.077
-258.165	-88.779	0.356	-0.104
-257.151	-200.000	0.017	0.170
-256.136	-76.640	0.067	0.023
-255.122	46.556	0.283	-0.259
-254.107	-5.908	-0.095	0.064
-253.092	69.646	-0.229	-0.232
-252.078	-132.927	-0.305	0.038
-251.063	-200.000	-0.029	0.212
-250.049	113.188	0.046	0.055
-249.034	-200.000	0.006	-0.381
-248.019	-3.901	0.073	0.050
-247.005	-2.004	0.206	0.143
-245.990	-46.501	0.185	0.089
-244.976	525.295	-0.281	-0.652
-243.961	264.127	0.136	0.233
-242.946	-13.737	0.096	-0.061
-241.932	800.000	0.060	-0.248
-240.917	-162.461	0.310	0.015
-239.903	45.428	0.360	-0.328
-238.888	-7.934	0.048	-0.032
-237.873	237.570	0.057	-0.093
-236.859	76.453	0.254	0.265
-235.844	800.000	0.091	0.264
-234.830	-200.000	0.058	0.317
-233.815	-20.524	-0.250	0.151
-232.800	24.521	0.207	0.168
-231.786	-200.000	-0.293	0.001
-230.771	65.780	-0.101	-0.100
-229.757	210.065	0.053	-0.081
-228.742	499.559	0.097	0.220
-227.727	215.220	0.142	0.222
-226.713	800.000	0.045	-0.177
-225.698	-200.000	-0.068	-0.296
-224.684	800.000	0.052	-0.157
-223.669	-151.661	-0.137	0.010
-222.655	-9.402	-0.428	-0.281
-221.640	99.773	0.077	0.087
-220.625	-56.809	-0.233	0.101
-219.611	-45.325	-0.315	-0.154
-218.596	73.614	0.076	-0.079
-217.582	-57.145	0.407	0.177
-216.567	-65.337	0.159	-0.063
-215.552	38.693	0.186	-0.164
-214.538	-182.816	0.208	0.004
-213.523	-46.875	0.303	0.146
-212.509	-34.624	0.142	0.077
-211.494	678.434	-0.069	-0.176
-210.479	-200.000	0.031	-0.190
-209.465	-61.832	-0.214	-0.088
-208.450	-200.000	-0.006	0.165
-207.436	800.000	-0.068	0.258
-206.421	-65.710	-0.169	0.067
-205.406	-1.814	0.330	0.228
-204.392	-200.000	0.002	0.197
-203.377	-200.000	0.009	-0.274
-202.363	-117.143	0.366	-0.066
-201.348	-102.930	0.162	0.038
-200.333	-27.603	-0.199	0.114
-199.319	-183.212	0.062	0.001
-198.304	49.282	-0.178	-0.165
-197.290	79.723	0.158	0.166
-196.275	-57.604	0.088	-0.038
-195.260	-127.419	0.296	-0.042
-194.246	-56.989	-0.240	-0.104
-193.231	118.612	-0.041	0.050
-192.217	-199.199	0.286	-0.002
-191.202	65.672	-0.234	0.233
-190.187	28.598	-0.175	-0.146
-189.173	114.509	0.089	-0.106
-188.158	274.870	-0.082	0.143
-187.144	-200.000	-0.016	-0.098
-186.129	800.000	0.068	-0.185
-185.114	563.996	-0.082	0.194
-184.100	-200.000	0.055	0.259
-183.085	-200.000	-0.046	0.276
-182.071	30.866	0.193	-0.163
-181.056	120.011	-0.105	-0.128
-180.042	-200.000	-0.011	-0.119
-179.027	10.109	-0.092	0.069
-178.012	227.900	-0.060	0.097
-176.998	-200.000	-0.020	-0.194
-175.983	-120.436	-0.150	-0.025
-174.969	45.492	-0.263	-0.239
-173.954	-82.732	-0.261	0.083
-172.939	679.734	0.019	0.049
-171.925	228.024	-0.288	0.460
-170.910	-172.488	0.306	0.010
-169.896	-63.399	-0.143	-0.058
-168.881	-25.253	0.153	0.089
-167.866	-40.492	0.067	-0.034
-166.852	-45.073	0.275	0.134
-165.837	127.752	0.125	0.156
-164.823	-102.230	-0.072	0.017
-163.808	264.168	-0.178	-0.305
-162.793	108.483	-0.194	0.227
-161.779	-146.921	0.151	0.013
-160.764	68.508	-0.128	-0.129
-159.750	155.807	-0.372	-0.504
-158.735	-200.000	-0.055	0.278
-157.720	-121.211	-0.465	0.076
-156.706	-92.034	-0.031	-0.009
-155.691	-62.875	0.095	0.039
-154.677	-6.776	0.144	0.096
-153.662	47.612	0.053	0.049
-152.647	342.119	0.159	-0.306
-151.633	-113.563	0.248	-0.048
-150.618	-200.000	0.013	-0.160
-149.604	-185.407	0.117	0.002
-148.589	-182.510	-0.224	0.004
-147.574	-72.761	0.108	-0.039
-146.560	-122.135	-0.367	0.059
-145.545	-78.597	0.184	-0.062
-144.531	-142.078	0.164	-0.016
-143.516	800.000	0.056	-0.171
-142.502	797.343	0.046	0.124
-141.487	800.000	-0.016	-0.047
-140.472	11.078	0.159	-0.119
-139.458	-21.577	-0.168	0.101
-138.443	243.599	-0.087	-0.143
-137.429	800.000	0.041	-0.159
-136.414	532.200	-0.176	0.408
-135.399	-200.000	0.024	0.110
-134.385	-200.000	-0.007	0.165
-133.370	-120.667	0.133	0.022
-132.356	800.000	-0.043	-0.123
-131.341	-165.159	-0.164	-0.007
-130.326	-50.819	-0.265	0.122
-129.312	-22.464	0.240	-0.143
-128.297	-0.032	-0.194	-0.136
-127.283	-40.730	0.180	0.092
-126.268	-200.000	-0.008	-0.180
-125.253	-84.513	0.420	0.130
-124.239	-42.267	-0.346	-0.173
-123.224	17.154	0.159	0.124
-122.210	-2.272	0.241	0.166
-121.195	-50.162	-0.089	0.041
-120.180	-78.209	-0.088	-0.030
