DTS Sentinel unit serial number:	SN413079Multiplexer serial number:	ORYXHardware model number:	OX4-SRSoftware version number:	ORYX F/W v4.00 Oryx Data Collector v3.7.2.0data status	okinstallation	princeton_trtdifferential loss correction	single-endedforward channel	channel 1reverse channel	N/Adate	2019/09/18time	08:46:35forward acquisition time	60.00reverse acquisition time	0.00gamma	496.2192k internal	0.2336k external	0.2336temperature offset calibration	0.9977default loss term (dB/km)	0.3790temperature slope calibration	1.0000multiplexer offset coefficient	1.0000multiplexer slope coefficient	1.0000fibre end	0.00T internal ref (°C)	24.69T ext. ref 1 (°C)	0.23T ext. ref 2 (°C)	20.41length (m)	temperature (°C)	Stokes	anti-Stokes-747.200	-200.000	0.031	-0.147
-746.185	800.000	-0.037	0.111
-745.171	-28.732	-0.204	0.118
-744.156	533.137	-0.045	-0.108
-743.142	-113.006	0.125	-0.025
-742.127	-149.362	-0.090	-0.007
-741.112	12.807	-0.183	0.142
-740.098	-47.308	-0.051	0.025
-739.083	800.000	-0.047	0.173
-738.069	-44.747	-0.366	0.183
-737.054	-200.000	0.047	0.268
-736.039	-102.677	-0.426	0.102
-735.025	-135.535	-0.151	0.018
-734.010	-200.000	-0.015	-0.257
-732.996	22.871	-0.235	0.193
-731.981	259.951	0.025	0.044
-730.966	373.294	-0.056	0.115
-729.952	55.029	0.206	-0.200
-728.937	175.218	-0.056	-0.081
-727.923	-81.252	-0.028	0.009
-726.908	-70.195	-0.327	0.125
-725.894	-200.000	0.050	-0.342
-724.879	-54.622	-0.393	-0.179
-723.864	-142.307	0.303	0.030
-722.850	800.000	0.034	0.099
-721.835	800.000	-0.061	0.254
-720.821	800.000	-0.049	-0.149
-719.806	-92.453	0.065	0.018
-718.791	-200.000	0.004	0.060
-717.777	747.627	-0.108	0.293
-716.762	-109.918	0.046	-0.010
-715.748	-0.613	0.353	-0.251
-714.733	-1.025	0.050	-0.035
-713.718	800.000	0.068	0.262
-712.704	-199.852	-0.076	-0.000
-711.689	-124.572	-0.071	-0.011
-710.675	259.238	-0.062	0.107
-709.660	800.000	0.017	0.057
-708.645	-58.108	0.183	-0.080
-707.631	567.139	-0.053	-0.128
-706.616	-120.316	-0.211	0.036
-705.602	-23.713	0.113	-0.068
-704.587	-4.666	-0.197	0.136
-703.572	-200.000	-0.017	0.307
-702.558	16.187	0.108	0.085
-701.543	800.000	0.002	-0.008
-700.529	41.136	0.170	0.154
-699.514	-28.365	-0.333	0.192
-698.499	121.174	0.148	-0.185
-697.485	-150.440	0.329	-0.025
-696.470	303.492	-0.142	-0.264
-695.456	-200.000	-0.026	-0.284
-694.441	-200.000	0.045	0.341
-693.426	260.687	0.144	0.250
-692.412	800.000	0.050	-0.212
-691.397	800.000	0.219	-0.628
-690.383	-52.925	0.013	-0.006
-689.368	2.259	0.177	0.128
-688.354	540.302	0.023	-0.055
-687.339	800.000	-0.050	-0.177
-686.324	-200.000	-0.008	-0.037
-685.310	800.000	-0.039	0.111
-684.295	15.379	0.110	0.087
-683.281	16.795	-0.202	0.160
-682.266	26.011	-0.062	-0.052
-681.251	-135.401	-0.038	0.005
-680.237	-114.148	0.250	0.048
-679.222	4.427	-0.117	0.086
-678.208	-200.000	0.006	0.113
-677.193	800.000	0.024	-0.097
-676.178	-51.023	0.140	0.066
-675.164	-200.000	0.048	0.380
-674.149	773.908	0.026	0.070
-673.135	111.564	0.122	0.147
-672.120	-200.000	0.010	0.061
-671.105	38.015	-0.315	-0.281
-670.091	94.881	0.123	-0.140
-669.076	125.825	-0.170	0.215
-668.062	-74.113	-0.125	-0.045
-667.047	800.000	0.024	-0.084
-666.032	219.588	0.040	-0.065
-665.018	-90.535	-0.134	-0.039
-664.003	34.523	-0.139	0.121
-662.989	-85.721	0.560	-0.174
-661.974	249.539	-0.158	0.268
-660.959	-119.036	0.062	-0.011
-659.945	-132.133	0.040	-0.005
-658.930	366.846	-0.107	0.216
-657.916	40.830	-0.214	0.193
-656.901	194.009	-0.025	0.038
-655.886	-126.088	-0.058	0.009
-654.872	274.628	-0.073	0.129
-653.857	45.616	-0.141	0.130
-652.843	52.326	-0.033	0.031
-651.828	-200.000	0.004	0.251
-650.814	-68.889	0.213	-0.082
-649.799	377.402	-0.175	-0.357
-648.784	48.066	-0.205	-0.191
-647.770	-200.000	-0.006	0.084
-646.755	-43.397	-0.189	-0.096
-645.741	-200.000	-0.001	0.042
-644.726	-121.286	0.252	-0.042
-643.711	-43.106	0.207	0.105
-642.697	230.906	-0.081	0.133
-641.682	-200.000	-0.057	-0.310
-640.668	-115.435	-0.336	-0.063
-639.653	53.056	0.097	0.093
-638.638	-200.000	-0.013	0.138
-637.624	185.947	0.076	-0.113
-636.609	-59.765	0.071	-0.030
-635.595	53.414	-0.172	0.165
-634.580	-16.181	-0.175	0.111
-633.565	145.730	-0.205	0.275
-632.551	-200.000	-0.007	-0.133
-631.536	88.709	-0.094	-0.104
-630.522	-68.769	0.151	-0.058
-629.507	4.837	-0.150	-0.111
-628.492	-139.663	0.356	-0.038
-627.478	75.083	-0.046	-0.049
-626.463	-200.000	-0.002	-0.230
-625.449	-200.000	0.007	-0.051
-624.434	462.046	-0.114	-0.255
-623.419	-200.000	0.066	-0.351
-622.405	548.402	0.075	-0.181
-621.390	163.269	-0.114	0.160
-620.376	132.696	0.150	0.194
-619.361	-150.585	-0.135	-0.010
-618.346	-55.496	-0.259	0.116
-617.332	-24.173	0.219	0.131
-616.317	-200.000	-0.022	-0.245
-615.303	733.432	-0.117	-0.314
-614.288	-200.000	0.013	-0.296
-613.273	-74.907	-0.038	-0.013
-612.259	71.692	-0.186	-0.193
-611.244	27.434	-0.147	-0.123
-610.230	-200.000	-0.046	0.462
-609.215	373.938	-0.079	0.160
-608.201	81.024	0.106	0.114
-607.186	-94.323	-0.326	-0.089
-606.171	-200.000	-0.001	-0.216
-605.157	800.000	0.037	-0.153
-604.142	-200.000	-0.009	0.096
-603.128	800.000	0.113	-0.368
-602.113	-200.000	0.030	-0.146
-601.098	116.428	0.211	0.258
-600.084	-45.387	0.055	-0.027
-599.069	288.765	0.089	0.161
-598.055	330.210	-0.057	0.109
-597.040	800.000	0.070	0.294
-596.025	-200.000	0.004	-0.032
-595.011	200.112	-0.158	0.243
-593.996	-200.000	-0.013	0.093
-592.982	800.000	0.028	-0.097
-591.967	366.990	0.103	-0.207
-590.952	-66.957	0.255	-0.101
-589.938	-59.476	-0.047	0.020
-588.923	800.000	-0.029	0.089
-587.909	800.000	-0.012	0.041
-586.894	288.478	-0.080	-0.145
-585.879	-81.670	0.173	-0.057
-584.865	-79.154	-0.252	-0.085
-583.850	-43.840	0.298	-0.150
-582.836	-97.384	-0.224	-0.058
-581.821	-47.866	0.154	0.074
-580.806	-18.253	-0.186	0.116
-579.792	-121.128	-0.255	0.043
-578.777	-200.000	0.008	-0.156
-577.763	-200.000	0.014	0.197
-576.748	78.183	-0.157	0.167
-575.733	-93.361	0.292	0.081
-574.719	17.275	0.079	-0.062
-573.704	-105.058	0.097	-0.022
-572.690	-94.327	0.089	-0.024
-571.675	93.518	-0.181	-0.205
-570.661	-64.076	-0.235	-0.096
-569.646	800.000	-0.055	-0.162
-568.631	-52.942	-0.042	0.019
-567.617	-110.633	0.173	0.036
-566.602	-200.000	0.041	0.307
-565.588	-11.777	0.129	-0.085
-564.573	313.346	-0.178	0.333
-563.558	82.370	-0.188	-0.203
-562.544	-200.000	0.024	0.309
-561.529	48.716	-0.202	0.189
-560.515	-124.878	-0.159	0.024
-559.500	800.000	0.034	0.146
-558.485	-85.215	-0.187	-0.058
-557.471	385.551	-0.033	0.067
-556.456	-24.709	0.251	0.149
-555.442	57.475	0.274	-0.266
-554.427	-200.000	0.024	0.140
-553.412	-200.000	0.017	0.105
-552.398	375.805	-0.043	0.088
-551.383	90.115	-0.127	0.142
-550.369	-9.929	-0.212	0.140
-549.354	-93.723	0.239	0.066
-548.339	231.570	0.173	-0.282
-547.325	269.408	0.168	-0.294
-546.310	-26.048	0.184	-0.108
-545.296	-146.181	-0.319	-0.028
-544.281	635.927	0.098	-0.248
-543.266	800.000	0.035	-0.124
-542.252	182.102	0.109	0.159
-541.237	-73.995	-0.164	-0.059
-540.223	212.196	0.154	0.242
-539.208	3.967	-0.047	-0.034
-538.193	-52.686	-0.158	-0.073
-537.179	800.000	-0.124	-0.365
-536.164	-69.692	0.109	0.042
-535.150	-90.789	0.121	-0.035
-534.135	333.228	0.077	-0.149
-533.121	-0.342	-0.194	-0.137
-532.106	485.804	-0.031	-0.071
-531.091	-200.000	0.021	-0.129
-530.077	13.011	-0.173	0.133
-529.062	80.543	-0.215	0.231
-528.048	-200.000	-0.005	-0.066
-527.033	-129.221	0.150	0.021
-526.018	-150.240	0.161	0.012
-525.004	-54.537	-0.218	-0.098
-523.989	224.898	0.072	0.116
-522.975	117.293	-0.107	0.131
-521.960	-200.000	0.033	-0.253
-520.945	-45.569	-0.364	-0.179
-519.931	-25.566	-0.210	0.124
-518.916	-200.000	-0.016	0.139
-517.902	539.456	-0.150	0.355
-516.887	-96.204	0.228	-0.060
-515.872	800.000	-0.048	-0.132
-514.858	-171.109	0.143	-0.005
-513.843	-113.856	-0.293	0.057
-512.829	-176.038	-0.291	-0.008
-511.814	-70.773	-0.081	0.030
-510.799	477.767	0.076	-0.172
-509.785	800.000	0.013	0.041
-508.770	-13.680	0.331	-0.213
-507.756	-200.000	0.036	0.239
-506.741	341.298	0.076	0.149
-505.726	-76.989	0.472	-0.164
-504.712	10.557	-0.269	-0.204
-503.697	-88.786	0.160	-0.047
-502.683	-120.628	0.120	-0.020
-501.668	-168.147	0.075	-0.003
-500.653	-106.405	-0.143	-0.032
-499.639	52.532	-0.150	0.142
-498.624	-75.466	-0.416	-0.147
-497.610	-2.513	0.069	0.048
-496.595	653.359	0.199	0.507
-495.581	-42.196	-0.197	-0.100
-494.566	800.000	0.066	0.209
-493.551	158.759	-0.096	-0.133
-492.537	51.773	-0.246	-0.233
-491.522	368.435	-0.012	-0.025
-490.508	-200.000	-0.018	0.182
-489.493	173.305	0.185	-0.265
-488.478	-152.947	0.432	-0.030
-487.464	-103.332	0.076	0.018
-486.449	-55.640	-0.333	-0.148
-485.435	-200.000	-0.002	-0.057
-484.420	242.437	0.150	-0.250
-483.405	169.983	0.063	-0.089
-482.391	456.577	-0.081	0.180
-481.376	800.000	0.051	0.210
-480.362	800.000	0.095	0.303
-479.347	800.000	0.036	-0.147
-478.332	-113.594	-0.089	0.017
-477.318	-20.242	-0.154	0.094
-476.303	-33.583	-0.052	0.029
-475.289	354.474	-0.134	0.264
-474.274	-195.493	-0.234	-0.002
-473.259	-200.000	0.026	0.233
-472.245	800.000	-0.070	-0.247
-471.230	117.030	-0.188	0.230
-470.216	202.395	0.036	-0.056
-469.201	-66.176	0.224	0.089
-468.186	299.908	0.027	0.049
-467.172	-200.000	0.026	-0.118
-466.157	-98.459	-0.121	-0.031
-465.143	800.000	-0.058	0.184
-464.128	-95.913	-0.366	-0.097
-463.113	272.192	-0.121	-0.211
-462.099	95.502	0.136	0.154
-461.084	334.348	-0.164	-0.316
-460.070	-76.819	0.128	0.044
-459.055	800.000	-0.046	0.181
-458.040	241.697	-0.043	-0.071
-457.026	477.213	-0.084	-0.188
-456.011	-3.669	0.255	0.176
-454.997	382.066	0.071	-0.144
-453.982	800.000	-0.050	-0.175
-452.968	-200.000	-0.050	-0.260
-451.953	10.615	0.200	0.152
-450.938	-200.000	0.031	-0.264
-449.924	388.382	0.039	0.080
-448.909	17.041	-0.100	-0.079
-447.895	231.533	0.087	-0.142
-446.880	-67.851	0.048	-0.018
-445.865	800.000	0.049	0.182
-444.851	769.892	0.067	0.180
-443.836	237.395	-0.106	0.175
-442.822	-165.846	0.214	0.009
-441.807	-65.013	-0.160	-0.064
-440.792	568.139	0.106	-0.255
-439.778	-72.613	-0.313	-0.115
-438.763	44.497	0.166	-0.151
-437.749	184.452	-0.053	-0.078
-436.734	14.880	0.085	-0.066
-435.719	44.887	0.180	-0.165
-434.705	88.853	-0.054	-0.059
-433.690	151.470	0.230	-0.311
-432.676	69.921	-0.169	-0.173
-431.661	-65.988	-0.108	0.043
-430.646	122.025	-0.063	0.078
-429.632	72.867	-0.033	-0.034
-428.617	-200.000	0.051	0.330
-427.603	104.804	0.120	-0.140
-426.588	800.000	0.102	-0.354
-425.573	102.156	-0.209	-0.242
-424.559	-200.000	0.055	-0.289
-423.544	220.690	-0.052	0.083
-422.530	-200.000	-0.019	0.222
-421.515	-200.000	-0.049	-0.254
-420.500	-148.064	-0.100	-0.008
-419.486	-200.000	-0.027	-0.127
-418.471	-200.000	-0.011	-0.229
-417.457	-139.471	0.307	0.033
-416.442	-200.000	-0.020	0.378
-415.428	-144.101	-0.153	0.014
-414.413	-175.468	0.091	-0.002
-413.398	-112.449	0.060	-0.012
-412.384	-188.873	0.461	0.006
-411.369	-86.743	-0.329	0.100
-410.355	800.000	0.042	-0.169
-409.340	24.766	0.045	0.037
-408.325	332.605	0.100	-0.192
-407.311	-133.932	0.334	-0.041
-406.296	-200.000	0.008	0.039
-405.282	-115.696	0.266	-0.049
-404.267	133.512	0.174	0.224
-403.252	-48.490	0.266	-0.127
-402.238	-49.938	0.463	-0.218
-401.223	49.767	-0.385	0.359
-400.209	-200.000	0.007	0.402
-399.194	-200.000	-0.023	0.228
-398.179	128.949	-0.219	-0.276
-397.165	12.357	-0.080	0.061
-396.150	126.690	0.100	-0.125
-395.136	260.479	-0.034	-0.059
-394.121	-8.744	0.241	0.160
-393.106	141.431	0.006	0.008
-392.092	800.000	-0.021	-0.078
-391.077	319.954	-0.058	-0.108
-390.063	-158.788	0.544	-0.031
-389.048	282.617	-0.062	-0.111
-388.033	-113.625	-0.140	0.027
-387.019	164.482	0.261	0.364
-386.004	-200.000	0.005	0.070
-384.990	-88.579	-0.313	0.092
-383.975	-200.000	0.019	0.135
-382.960	453.532	-0.124	0.272
-381.946	192.089	0.252	-0.377
-380.931	-200.000	0.009	0.089
-379.917	59.497	-0.289	0.282
-378.902	-24.839	-0.272	-0.160
-377.888	257.963	0.055	-0.094
-376.873	585.600	0.056	-0.136
-375.858	-110.110	0.140	0.029
-374.844	327.566	-0.211	0.401
-373.829	-90.626	-0.377	-0.108
-372.815	-200.000	-0.042	0.372
-371.800	375.363	0.101	-0.204
-370.785	-200.000	-0.020	0.281
-369.771	-200.000	0.008	-0.124
-368.756	-64.049	0.105	-0.042
-367.742	-72.654	-0.374	0.136
-366.727	-146.345	0.282	-0.024
-365.712	251.770	-0.260	0.438
-364.698	-88.328	0.101	0.030
-363.683	632.067	0.136	-0.340
-362.669	-10.712	0.213	-0.139
-361.654	-200.000	0.059	0.590
-360.639	423.048	0.042	-0.089
-359.625	800.000	-0.010	-0.042
-358.610	-4.631	-0.419	0.286
-357.596	84.023	-0.143	-0.155
-356.581	359.507	0.087	0.172
-355.566	800.000	0.033	-0.128
-354.552	14.288	0.163	0.126
-353.537	-30.910	-0.076	-0.043
-352.523	-200.000	0.026	0.140
-351.508	-140.819	0.136	-0.014
-350.493	-128.561	0.071	0.010
-349.479	-200.000	0.042	0.218
-348.464	100.562	-0.112	0.128
-347.450	-29.580	-0.275	0.155
-346.435	180.709	-0.233	0.338
-345.420	-10.590	-0.212	0.139
-344.406	375.056	0.093	-0.188
-343.391	800.000	-0.071	-0.246
-342.377	80.096	0.131	0.139
-341.362	122.642	0.217	-0.268
-340.348	-200.000	0.022	-0.120
-339.333	26.791	0.100	0.083
-338.318	274.706	0.019	-0.033
-337.304	-200.000	0.000	-0.023
-336.289	0.466	0.068	0.048
-335.275	1.840	0.199	-0.142
-334.260	23.208	-0.241	0.196
-333.245	-105.876	-0.154	0.034
-332.231	-200.000	0.035	0.150
-331.216	-59.094	0.146	-0.062
-330.202	-8.749	0.190	-0.126
-329.187	-104.468	-0.308	-0.070
-328.172	-71.073	-0.087	-0.032
-327.158	-157.455	0.238	0.014
-326.143	-64.579	-0.246	-0.098
-325.129	-12.771	0.111	0.071
-324.114	114.534	0.202	-0.243
-323.099	800.000	0.023	-0.097
-322.085	152.256	-0.071	0.095
-321.070	81.494	-0.158	-0.169
-320.056	-200.000	0.045	0.219
-319.041	318.714	0.133	0.249
-318.026	303.305	0.145	0.265
-317.012	-121.655	-0.050	-0.008
-315.997	-33.147	0.288	0.158
-314.983	-44.860	0.261	-0.129
-313.968	800.000	-0.140	0.506
-312.953	464.544	-0.069	0.152
-311.939	-200.000	-0.018	-0.235
-310.924	-178.780	-0.279	0.006
-309.910	-114.872	0.095	-0.018
-308.895	-44.762	-0.031	0.015
-307.880	134.503	0.056	-0.072
-306.866	335.214	-0.023	-0.043
-305.851	64.568	-0.255	-0.254
-304.837	-108.380	-0.062	-0.013
-303.822	-41.509	-0.288	0.146
-302.807	-47.352	0.148	-0.071
-301.793	-200.000	0.030	-0.313
-300.778	800.000	0.069	0.270
-299.764	66.775	-0.158	0.159
-298.749	24.404	0.263	0.215
-297.735	-79.757	0.215	0.071
-296.720	-46.914	0.118	-0.057
-295.705	-200.000	0.001	-0.086
-294.691	700.371	0.047	0.123
-293.676	-86.072	0.490	0.149
-292.662	333.524	0.071	0.136
-291.647	331.621	0.042	0.081
-290.632	770.621	-0.052	-0.139
-289.618	-186.968	-0.212	-0.003
-288.603	104.003	0.075	0.087
-287.589	45.423	0.168	0.153
-286.574	-33.964	-0.462	-0.251
-285.559	66.195	-0.098	-0.098
-284.545	-159.460	0.320	-0.018
-283.530	60.136	-0.132	0.129
-282.516	-165.172	-0.393	-0.017
-281.501	-27.528	-0.242	0.139
-280.486	495.512	0.057	0.130
-279.472	800.000	-0.075	-0.219
-278.457	-200.000	0.036	-0.163
-277.443	800.000	0.061	0.181
-276.428	-54.131	0.292	-0.131
-275.413	371.626	-0.057	-0.115
-274.399	-24.475	0.259	0.152
-273.384	279.538	0.044	-0.078
-272.370	-9.391	-0.087	0.057
-271.355	-86.541	0.145	0.044
-270.340	94.386	-0.136	-0.152
-269.326	110.151	0.058	0.069
-268.311	-169.275	-0.039	-0.001
-267.297	309.757	0.260	-0.480
-266.282	142.250	-0.049	0.065
-265.267	800.000	0.040	0.119
-264.253	26.826	-0.246	-0.203
-263.238	-81.807	-0.151	-0.049
-262.224	-104.571	-0.355	0.081
-261.209	-17.637	-0.153	0.095
-260.195	-61.014	0.150	0.063
-259.180	-118.681	-0.151	-0.026
-258.165	-93.355	0.314	0.086
-257.151	-48.367	-0.022	0.011
-256.136	412.452	0.075	-0.157
-255.122	-126.161	0.452	-0.067
-254.107	-44.196	-0.273	0.135
-253.092	-200.000	0.006	0.052
-252.078	98.878	-0.057	-0.065
-251.063	800.000	0.131	-0.439
-250.049	-200.000	-0.031	-0.226
-249.034	-119.297	-0.196	-0.034
-248.019	800.000	0.066	-0.258
-247.005	-62.020	-0.322	-0.132
-245.990	13.639	0.154	0.118
-244.976	61.728	0.139	0.136
-243.961	-116.415	-0.133	-0.024
-242.946	-64.018	0.144	0.058
-241.932	-200.000	-0.002	-0.088
-240.917	103.377	0.060	0.070
-239.903	-44.777	-0.108	-0.053
-238.888	-76.210	-0.139	-0.048
-237.873	790.083	-0.067	0.180
-236.859	40.275	-0.069	0.061
-235.844	221.154	-0.195	0.309
-234.830	546.782	-0.164	0.385
-233.815	56.536	0.058	-0.056
-232.800	-131.737	0.218	0.028
-231.786	-71.503	0.061	0.022
-230.771	217.559	-0.014	-0.021
-229.757	516.536	0.141	0.324
-228.742	-89.149	0.239	0.069
-227.727	35.047	0.230	-0.198
-226.713	-138.791	0.244	-0.026
-225.698	-190.374	0.160	-0.002
-224.684	-47.030	0.340	-0.163
-223.669	-30.435	0.213	-0.119
-222.655	-200.000	-0.003	0.319
-221.640	-200.000	0.009	0.174
-220.625	800.000	-0.090	-0.288
-219.611	-66.428	-0.187	0.073
-218.596	800.000	0.131	0.455
-217.582	67.774	-0.273	0.274
-216.567	64.611	0.112	-0.111
-215.552	800.000	0.075	0.228
-214.538	32.322	-0.222	0.188
-213.523	800.000	0.078	0.286
-212.509	202.838	-0.066	0.100
-211.494	227.919	0.103	-0.164
-210.479	710.866	0.058	-0.151
-209.465	122.432	0.152	0.186
-208.450	800.000	0.071	-0.235
-207.436	223.299	0.067	-0.106
-206.421	43.336	0.107	-0.096
-205.406	461.397	0.007	-0.016
-204.392	-188.313	-0.162	-0.002
-203.377	-83.709	0.138	-0.043
-202.363	624.787	0.027	-0.067
-201.348	-110.912	0.152	-0.031
-200.333	87.265	0.253	-0.275
-199.319	421.569	-0.095	-0.201
-198.304	-4.916	-0.177	0.120
-197.290	114.531	0.080	-0.096
-196.275	111.087	-0.058	-0.069
-195.260	110.999	0.084	-0.099
-194.246	-200.000	-0.019	-0.191
-193.231	-88.958	-0.338	-0.099
-192.217	800.000	-0.077	-0.309
-191.202	95.267	0.158	-0.177
-190.187	548.243	-0.049	-0.115
-189.173	-95.228	-0.396	0.105
-188.158	800.000	-0.061	0.245
-187.144	800.000	-0.024	0.089
-186.129	-128.248	0.067	0.009
-185.114	535.773	0.052	0.122
-184.100	800.000	0.056	0.237
-183.085	-45.644	-0.220	0.107
-182.071	-68.164	0.373	-0.143
-181.056	-200.000	0.042	-0.241
-180.042	-13.732	-0.429	0.273
-179.027	395.069	-0.024	-0.050
-178.012	341.332	-0.097	-0.186
-176.998	-105.131	-0.183	-0.041
-175.983	-38.520	-0.032	0.017
-174.969	800.000	0.044	0.144
-173.954	687.001	0.096	0.246
-172.939	471.910	0.054	-0.120
-171.925	422.427	-0.129	0.272
-170.910	-65.737	0.207	-0.082
-169.896	-175.667	0.115	-0.003
-168.881	-21.445	0.057	0.034
-167.866	102.885	-0.012	-0.014
-166.852	249.066	-0.124	-0.206
-165.837	27.544	-0.120	-0.099
-164.823	63.086	0.313	0.308
-163.808	800.000	0.063	-0.254
-162.793	25.611	0.214	0.175
-161.779	-139.762	0.150	-0.016
-160.764	-48.303	0.090	0.043
-159.750	-44.567	-0.131	-0.064
-158.735	166.836	-0.139	-0.194
-157.720	513.640	-0.031	-0.071
-156.706	458.445	0.039	0.085
-155.691	74.828	0.124	0.128
-154.677	-72.933	-0.288	0.104
-153.662	-195.024	0.308	-0.002
-152.647	20.883	-0.182	0.145
-151.633	17.347	0.158	0.123
-150.618	-27.150	0.395	-0.226
-149.604	-86.126	-0.138	0.042
-148.589	26.540	-0.182	-0.149
-147.574	351.048	0.116	-0.225
-146.560	109.899	0.061	-0.071
-145.545	100.526	-0.266	0.303
-144.531	82.507	-0.172	-0.184
-143.516	-200.000	0.011	0.105
-142.502	330.295	-0.008	-0.015
-141.487	84.045	0.268	0.287
-140.472	2.016	0.062	0.044
-139.458	-62.117	-0.123	-0.050
-138.443	-200.000	0.032	-0.173
-137.429	-180.784	-0.153	-0.003
-136.414	-127.786	0.340	-0.048
-135.399	247.617	0.184	-0.305
-134.385	-200.000	0.022	0.108
-133.370	88.854	-0.225	-0.245
-132.356	9.035	-0.043	-0.032
-131.341	-79.552	-0.449	0.149
-130.326	-56.447	-0.427	-0.186
-129.312	800.000	-0.065	0.242
-128.297	8.830	-0.112	-0.083
-127.283	48.566	0.104	-0.096
-126.268	800.000	-0.044	0.124
-125.253	131.413	-0.115	-0.145
-124.239	294.434	0.020	0.036
-123.224	600.464	0.056	0.136
-122.210	-124.661	0.144	0.022
-121.195	319.774	-0.071	-0.133
