DTS Sentinel unit serial number:	SN413079Multiplexer serial number:	ORYXHardware model number:	OX4-SRSoftware version number:	ORYX F/W v4.00 Oryx Data Collector v3.7.2.0data status	okinstallation	princeton_trtdifferential loss correction	single-endedforward channel	channel 1reverse channel	N/Adate	2019/09/19time	05:14:35forward acquisition time	60.00reverse acquisition time	0.00gamma	496.2192k internal	0.2342k external	0.2342temperature offset calibration	1.0019default loss term (dB/km)	0.3790temperature slope calibration	1.0000multiplexer offset coefficient	1.0000multiplexer slope coefficient	1.0000fibre end	0.00T internal ref (°C)	19.52T ext. ref 1 (°C)	0.59T ext. ref 2 (°C)	12.80length (m)	temperature (°C)	Stokes	anti-Stokes-747.200	252.360	-0.043	0.073
-746.185	437.115	-0.098	-0.213
-745.171	15.924	-0.161	0.127
-744.156	148.011	-0.271	0.366
-743.142	121.299	0.133	-0.166
-742.127	499.473	-0.112	0.259
-741.112	800.000	-0.111	0.318
-740.098	58.895	-0.195	0.192
-739.083	17.088	0.226	-0.179
-738.069	800.000	-0.011	0.045
-737.054	-82.269	-0.198	-0.064
-736.039	-8.124	-0.284	-0.191
-735.025	337.570	-0.158	0.308
-734.010	126.126	-0.114	-0.144
-732.996	-29.814	-0.024	-0.014
-731.981	76.714	-0.236	-0.251
-730.966	198.378	-0.109	-0.166
-729.952	386.383	-0.173	0.357
-728.937	-200.000	0.022	-0.148
-727.923	800.000	0.072	-0.206
-726.908	-131.276	0.156	0.021
-725.894	-19.565	-0.173	0.107
-724.879	800.000	-0.064	-0.274
-723.864	142.043	0.216	0.287
-722.850	488.031	0.019	-0.044
-721.835	218.438	-0.154	0.247
-720.821	141.018	0.120	-0.159
-719.806	12.247	-0.309	-0.238
-718.791	-13.004	-0.174	0.113
-717.777	-107.899	-0.108	0.024
-716.762	-200.000	0.024	-0.372
-715.748	-200.000	0.063	-0.755
-714.733	-3.029	-0.146	0.102
-713.718	227.977	-0.086	0.140
-712.704	-200.000	0.020	-0.155
-711.689	-144.166	-0.188	0.018
-710.675	110.342	-0.116	0.140
-709.660	8.388	-0.146	-0.110
-708.645	-40.901	0.186	-0.096
-707.631	-27.394	-0.211	-0.123
-706.616	-88.751	-0.175	0.052
-705.602	-200.000	-0.048	0.338
-704.587	-200.000	0.040	0.265
-703.572	258.835	0.081	-0.139
-702.558	360.854	0.045	0.090
-701.543	-30.737	-0.086	0.049
-700.529	-42.333	-0.230	-0.117
-699.514	-110.767	0.141	0.029
-698.499	-161.244	-0.230	-0.012
-697.485	-132.308	-0.325	0.042
-696.470	488.631	-0.049	-0.112
-695.456	237.624	-0.207	0.343
-694.441	-16.469	0.343	-0.217
-693.426	800.000	0.052	0.184
-692.412	98.108	-0.263	0.302
-691.397	252.714	0.030	0.051
-690.383	512.461	0.082	-0.190
-689.368	19.239	0.062	0.050
-688.354	-139.841	-0.166	-0.018
-687.339	-159.710	0.152	-0.008
-686.324	-182.431	0.359	0.007
-685.310	-200.000	0.033	-0.161
-684.295	244.508	0.068	-0.115
-683.281	155.389	-0.129	0.177
-682.266	-200.000	-0.006	0.053
-681.251	238.630	0.232	0.384
-680.237	800.000	0.055	-0.160
-679.222	132.131	-0.212	-0.273
-678.208	8.765	-0.222	-0.167
-677.193	512.873	0.020	-0.047
-676.178	-76.348	0.337	-0.119
-675.164	58.637	0.083	-0.081
-674.149	-20.822	-0.306	-0.187
-673.135	363.317	-0.090	-0.181
-672.120	-11.633	0.138	-0.091
-671.105	-117.517	0.221	0.040
-670.091	145.818	0.032	0.042
-669.076	7.340	0.215	0.160
-668.062	691.587	0.083	0.217
-667.047	310.293	-0.091	0.170
-666.032	-60.694	0.165	0.070
-665.018	254.053	-0.189	0.322
-664.003	-68.039	0.156	-0.061
-662.989	-200.000	-0.015	0.279
-661.974	-138.338	-0.128	-0.014
-660.959	-3.986	-0.289	-0.200
-659.945	-41.623	-0.105	0.054
-658.930	180.259	0.163	0.239
-657.916	719.010	-0.041	0.109
-656.901	25.612	0.175	-0.146
-655.886	-86.266	0.019	-0.006
-654.872	352.460	-0.068	-0.134
-653.857	7.067	-0.557	-0.415
-652.843	400.495	-0.025	0.053
-651.828	13.653	0.233	-0.181
-650.814	-106.171	-0.184	0.041
-649.799	800.000	-0.138	0.388
-648.784	-88.835	0.184	0.054
-647.770	-200.000	0.009	0.300
-646.755	18.872	-0.235	-0.188
-645.741	187.345	-0.108	-0.161
-644.726	188.648	-0.115	0.172
-643.711	-200.000	0.162	-0.000
-642.697	-66.413	-0.096	0.038
-641.682	-172.434	0.189	-0.006
-640.668	141.103	0.131	-0.173
-639.653	-89.342	0.398	0.117
-638.638	186.561	0.090	0.133
-637.624	-57.048	0.239	0.105
-636.609	800.000	0.097	-0.363
-635.595	12.739	-0.146	-0.112
-634.580	255.427	-0.187	-0.320
-633.565	8.737	-0.103	0.077
-632.551	-107.479	-0.213	-0.047
-631.536	73.976	0.033	0.035
-630.522	800.000	0.077	0.212
-629.507	-140.169	-0.257	0.027
-628.492	333.850	-0.196	0.379
-627.478	-9.606	-0.077	-0.051
-626.463	231.878	0.171	-0.280
-625.449	434.749	0.098	-0.213
-624.434	-200.000	0.005	0.152
-623.419	800.000	-0.113	0.385
-622.405	-16.482	0.221	0.140
-621.390	-130.307	-0.194	-0.026
-620.376	267.740	0.092	-0.161
-619.361	587.067	-0.217	-0.531
-618.346	800.000	0.091	-0.301
-617.332	195.510	0.187	0.284
-616.317	-89.411	-0.350	-0.103
-615.303	423.608	0.096	-0.205
-614.288	427.083	0.067	-0.143
-613.273	-51.739	0.200	-0.093
-612.259	332.395	-0.039	-0.074
-611.244	-200.000	0.009	-0.172
-610.230	268.123	-0.255	0.445
-609.215	307.987	-0.341	0.634
-608.201	139.796	0.188	0.247
-607.186	800.000	-0.089	0.363
-606.171	82.220	-0.185	-0.199
-605.157	-31.414	0.259	-0.145
-604.142	800.000	-0.061	0.233
-603.128	454.507	0.024	0.052
-602.113	32.477	-0.189	0.162
-601.098	-124.255	0.175	0.027
-600.084	-132.736	0.092	0.012
-599.069	385.109	0.066	-0.136
-598.055	-54.877	0.369	0.166
-597.040	95.917	0.145	0.165
-596.025	42.983	-0.058	-0.053
-595.011	235.559	0.125	0.206
-593.996	303.003	-0.135	0.249
-592.982	-186.337	0.221	-0.003
-591.967	-200.000	0.031	-0.203
-590.952	-61.525	-0.200	-0.084
-589.938	435.318	-0.215	0.465
-588.923	207.746	-0.283	0.439
-587.909	17.373	-0.171	0.135
-586.894	388.101	0.084	-0.174
-585.879	21.116	0.106	0.086
-584.865	-13.700	-0.144	0.093
-583.850	-200.000	0.013	-0.274
-582.836	-200.000	0.029	-0.293
-581.821	-200.000	0.011	0.117
-580.806	-142.116	0.276	0.027
-579.792	327.040	-0.139	-0.266
-578.777	-200.000	0.000	0.104
-577.763	15.626	-0.177	0.138
-576.748	-101.622	-0.483	0.117
-575.733	-149.554	0.201	0.016
-574.719	60.636	0.135	-0.133
-573.704	192.806	0.076	0.114
-572.690	-200.000	0.000	0.062
-571.675	-200.000	0.003	-0.155
-570.661	-200.000	-0.034	-0.150
-569.646	-36.964	-0.452	-0.241
-568.631	-200.000	-0.007	-0.089
-567.617	-87.603	-0.224	0.067
-566.602	-115.417	0.060	-0.011
-565.588	91.792	0.228	-0.255
-564.573	-58.889	0.077	-0.033
-563.558	-46.938	-0.208	-0.101
-562.544	259.097	0.220	-0.377
-561.529	586.461	0.064	-0.156
-560.515	39.047	0.192	0.171
-559.500	-200.000	-0.015	0.090
-558.485	-105.261	0.180	-0.041
-557.471	-11.884	0.147	0.096
-556.456	-188.990	0.230	0.003
-555.442	-200.000	-0.031	0.159
-554.427	-137.080	-0.195	-0.022
-553.412	800.000	0.059	-0.168
-552.398	347.057	0.042	0.081
-551.383	-200.000	0.097	0.473
-550.369	226.403	-0.106	0.171
-549.354	195.033	0.188	0.283
-548.339	48.788	0.175	0.163
-547.325	46.455	0.091	0.084
-546.310	-92.161	0.218	-0.061
-545.296	459.409	-0.060	-0.133
-544.281	198.783	0.114	-0.173
-543.266	-72.944	0.275	0.100
-542.252	-83.715	-0.186	0.059
-541.237	800.000	0.079	-0.217
-540.223	176.326	-0.033	-0.048
-539.208	-21.240	-0.172	-0.104
-538.193	-200.000	0.001	0.340
-537.179	-102.665	-0.363	-0.086
-536.164	-53.533	0.312	-0.142
-535.150	384.836	0.106	-0.217
-534.135	-200.000	-0.002	-0.048
-533.121	-200.000	-0.019	-0.477
-532.106	-127.837	-0.116	-0.017
-531.091	-33.025	-0.259	-0.143
-530.077	44.438	0.174	-0.159
-529.062	31.653	-0.258	-0.220
-528.048	152.177	0.246	-0.333
-527.033	39.626	0.107	-0.095
-526.018	-200.000	0.062	-0.346
-525.004	-200.000	-0.008	0.074
-523.989	-27.621	-0.281	-0.162
-522.975	-36.645	-0.139	0.074
-521.960	23.197	-0.206	-0.168
-520.945	388.936	-0.090	-0.186
-519.931	-71.220	-0.044	-0.016
-518.916	190.866	0.165	-0.247
-517.902	-28.214	-0.396	0.227
-516.887	-200.000	-0.003	-0.255
-515.872	133.820	0.115	0.148
-514.858	194.851	0.057	0.086
-513.843	-168.101	-0.159	-0.006
-512.829	36.988	-0.102	-0.090
-511.814	137.680	0.127	0.165
-510.799	-128.042	0.327	0.047
-509.785	-31.314	0.229	-0.128
-508.770	355.563	0.107	0.212
-507.756	-197.813	0.135	-0.001
-506.741	-38.870	-0.196	-0.102
-505.726	53.431	0.222	0.212
-504.712	-1.239	0.126	-0.088
-503.697	-7.077	-0.190	-0.128
-502.683	-40.758	0.125	0.064
-501.668	5.559	0.050	-0.037
-500.653	287.209	0.139	-0.249
-499.639	640.191	0.113	0.285
-498.624	400.282	-0.082	-0.170
-497.610	800.000	-0.039	-0.165
-496.595	-29.436	-0.186	-0.105
-495.581	340.151	-0.068	0.132
-494.566	-171.258	-0.234	-0.008
-493.551	-200.000	0.028	-0.129
-492.537	-179.367	-0.052	-0.001
-491.522	223.277	0.183	0.292
-490.508	-33.993	-0.102	-0.055
-489.493	-132.263	0.095	0.012
-488.478	-88.633	0.170	-0.050
-487.464	-200.000	0.010	0.047
-486.449	-66.520	-0.241	0.095
-485.435	800.000	-0.108	0.332
-484.420	65.333	0.216	0.216
-483.405	-200.000	-0.022	-0.175
-482.391	-72.868	-0.213	-0.078
-481.376	-128.120	0.243	-0.034
-480.362	-32.509	-0.207	-0.114
-479.347	-13.235	0.080	-0.052
-478.332	245.819	0.045	-0.075
-477.318	393.476	-0.141	-0.292
-476.303	-93.634	0.171	0.047
-475.289	137.118	0.063	-0.081
-474.274	733.112	0.099	-0.263
-473.259	-177.893	0.365	-0.009
-472.245	-74.458	0.007	-0.003
-471.230	-92.501	-0.269	0.075
-470.216	-173.441	0.131	0.004
-469.201	-19.560	0.060	-0.037
-468.186	-200.000	-0.280	0.001
-467.172	71.826	0.192	-0.198
-466.157	350.484	0.059	0.115
-465.143	-157.077	0.247	0.015
-464.128	-200.000	-0.002	0.111
-463.113	-51.012	-0.099	-0.046
-462.099	-200.000	-0.019	-0.169
-461.084	777.280	0.182	0.492
-460.070	-88.127	-0.331	0.098
-459.055	-200.000	-0.001	0.086
-458.040	-120.882	-0.626	-0.104
-457.026	-73.178	-0.028	0.010
-456.011	-122.095	0.292	-0.047
-454.997	-200.000	0.040	-0.192
-453.982	-170.439	-0.479	-0.017
-452.968	800.000	-0.079	-0.234
-451.953	-200.000	0.009	-0.172
-450.938	112.520	-0.205	-0.245
-449.924	-92.482	-0.363	-0.101
-448.909	-82.053	-0.356	-0.115
-447.895	-66.850	-0.074	-0.029
-446.880	-200.000	-0.016	0.252
-445.865	-169.184	-0.233	-0.009
-444.851	207.808	0.170	-0.263
-443.836	-18.409	-0.093	0.058
-442.822	730.276	0.066	0.174
-441.807	102.609	-0.094	-0.109
-440.792	-48.877	-0.206	-0.098
-439.778	156.179	0.180	-0.245
-438.763	129.855	-0.313	0.396
-437.749	-29.490	-0.339	0.192
-436.734	-46.213	-0.128	0.062
-435.719	-56.789	0.212	0.093
-434.705	-200.000	0.011	-0.221
-433.690	-123.842	0.269	0.042
-432.676	-147.426	-0.171	-0.014
-431.661	-200.000	0.016	0.149
-430.646	108.084	-0.205	0.242
-429.632	800.000	0.040	-0.116
-428.617	-104.711	0.093	-0.021
-427.603	-10.278	0.083	0.055
-426.588	-200.000	0.005	-0.169
-425.573	183.211	0.189	0.276
-424.559	389.964	-0.053	0.109
-423.544	66.750	0.030	-0.030
-422.530	133.974	0.118	0.152
-421.515	-82.226	0.374	-0.121
-420.500	29.667	0.216	-0.182
-419.486	-122.802	0.239	0.038
-418.471	800.000	-0.042	0.128
-417.457	-68.475	-0.050	0.019
-416.442	800.000	0.016	-0.049
-415.428	-115.236	0.157	-0.029
-414.413	800.000	0.020	-0.061
-413.398	-200.000	-0.017	0.312
-412.384	-17.010	-0.231	0.144
-411.369	-71.557	0.159	-0.059
-410.355	800.000	-0.102	-0.308
-409.340	361.767	0.103	0.204
-408.325	498.072	0.070	-0.159
-407.311	407.003	-0.037	-0.078
-406.296	-88.040	0.206	0.061
-405.282	81.054	-0.244	-0.260
-404.267	-35.617	-0.067	0.036
-403.252	120.466	0.110	-0.136
-402.238	-23.235	-0.217	-0.129
-401.223	-92.942	-0.230	-0.063
-400.209	-59.535	-0.373	-0.158
-399.194	164.711	-0.110	0.154
-398.179	86.602	-0.034	-0.037
-397.165	-41.146	0.052	-0.026
-396.150	-5.100	0.202	0.138
-395.136	480.949	-0.041	-0.092
-394.121	-22.442	0.153	-0.092
-393.106	69.615	-0.342	-0.348
-392.092	-200.000	-0.046	0.342
-391.077	92.627	0.211	-0.236
-390.063	-88.775	0.158	0.046
-389.048	-73.611	-0.277	-0.100
-388.033	800.000	-0.076	0.249
-387.019	-200.000	-0.061	0.437
-386.004	164.971	-0.117	-0.164
-384.990	169.949	-0.039	0.055
-383.975	183.949	0.098	-0.143
-382.960	-34.342	0.307	0.166
-381.946	-12.290	-0.168	-0.108
-380.931	437.660	0.100	-0.216
-379.917	-200.000	-0.000	-0.064
-378.902	-200.000	-0.120	-0.000
-377.888	800.000	-0.112	0.375
-376.873	-9.893	0.214	0.140
-375.858	-200.000	0.082	-0.367
-374.844	-76.776	0.151	-0.052
-373.829	121.269	-0.167	-0.206
-372.815	5.563	-0.316	-0.230
-371.800	135.299	0.192	-0.247
-370.785	-152.248	0.306	0.022
-369.771	800.000	0.024	-0.066
-368.756	138.239	0.179	-0.231
-367.742	-200.000	0.012	0.145
-366.727	-190.415	-0.074	0.001
-365.712	-133.193	0.143	0.018
-364.698	-84.306	-0.266	0.083
-363.683	102.520	0.095	-0.109
-362.669	-156.003	-0.101	0.006
-361.654	190.514	0.076	0.113
-360.639	398.228	-0.178	-0.367
-359.625	-90.710	-0.403	-0.115
-358.610	114.030	-0.174	-0.209
-357.596	62.026	0.043	0.042
-356.581	-15.265	-0.480	0.303
-355.566	99.770	0.175	0.200
-354.552	-118.135	0.423	-0.074
-353.537	176.167	-0.130	-0.186
-352.523	486.280	-0.072	0.161
-351.508	-111.000	-0.247	-0.050
-350.493	296.780	0.123	0.223
-349.479	-71.977	0.334	0.122
-348.464	594.144	0.159	0.387
-347.450	179.521	-0.176	-0.254
-346.435	220.603	-0.150	0.237
-345.420	-107.725	0.334	-0.072
-344.406	-200.000	0.040	-0.251
-343.391	-37.963	-0.054	0.028
-342.377	800.000	0.032	0.122
-341.362	526.785	0.120	-0.279
-340.348	265.218	-0.120	0.206
-339.333	520.442	0.091	0.211
-338.318	-156.629	-0.173	0.011
-337.304	-46.198	-0.197	0.096
-336.289	-134.479	0.145	-0.017
-335.275	-200.000	-0.047	-0.293
-334.260	-200.000	-0.038	-0.280
-333.245	-200.000	-0.018	-0.203
-332.231	272.430	0.025	0.044
-331.216	2.242	0.355	0.253
-330.202	-54.704	-0.028	-0.012
-329.187	-181.693	-0.223	0.004
-328.172	-100.206	-0.106	-0.026
-327.158	800.000	0.060	-0.172
-326.143	-116.071	-0.197	-0.036
-325.129	-0.928	0.189	-0.132
-324.114	386.817	0.118	-0.240
-323.099	-200.000	0.031	-0.226
-322.085	29.533	-0.147	0.123
-321.070	-32.465	0.230	0.127
-320.056	-18.053	0.404	-0.250
-319.041	223.777	-0.137	0.217
-318.026	-111.953	0.392	0.078
-317.012	800.000	-0.069	-0.205
-315.997	800.000	0.016	0.046
-314.983	800.000	0.035	0.137
-313.968	101.599	-0.103	0.118
-312.953	114.812	0.044	-0.052
-311.939	-200.000	0.042	0.186
-310.924	244.840	0.083	0.138
-309.910	11.558	0.296	0.224
-308.895	-200.000	-0.032	0.294
-307.880	-200.000	0.001	0.053
-306.866	795.963	0.057	-0.156
-305.851	800.000	-0.081	-0.225
-304.837	800.000	0.039	0.127
-303.822	-200.000	-0.011	-0.293
-302.807	-160.539	-0.481	0.025
-301.793	-180.963	0.228	0.005
-300.778	-200.000	-0.019	-0.320
-299.764	-55.312	0.142	-0.063
-298.749	221.827	-0.096	-0.152
-297.735	64.243	-0.115	-0.114
-296.720	-200.000	0.027	-0.122
-295.705	-200.000	-0.014	0.250
-294.691	379.141	0.157	0.316
-293.676	17.258	0.221	0.172
-292.662	-57.516	0.147	-0.064
-291.647	-60.634	0.154	0.064
-290.632	-200.000	0.031	0.256
-289.618	-79.958	-0.357	-0.118
-288.603	-137.972	0.339	0.037
-287.589	800.000	0.046	0.167
-286.574	-200.000	-0.005	0.078
-285.559	390.276	-0.034	-0.069
-284.545	-142.297	-0.112	-0.011
-283.530	465.396	0.127	0.279
-282.516	-3.443	-0.232	0.159
-281.501	172.091	0.098	-0.139
-280.486	671.485	-0.088	-0.223
-279.472	1.772	-0.079	-0.056
-278.457	213.664	0.035	0.055
-277.443	82.254	-0.327	0.348
-276.428	104.984	-0.023	-0.027
-275.413	41.051	0.079	0.071
-274.399	206.500	0.176	-0.269
-273.384	58.848	0.025	-0.024
-272.370	-68.061	-0.274	0.105
-271.355	-200.000	0.058	0.287
-270.340	800.000	-0.087	0.241
-269.326	-38.269	-0.140	-0.073
-268.311	196.116	-0.043	-0.064
-267.297	760.514	0.069	0.185
-266.282	-88.036	-0.249	-0.074
-265.267	-200.000	-0.032	-0.283
-264.253	-81.803	0.086	0.028
-263.238	-128.400	0.354	-0.050
-262.224	76.158	-0.205	0.214
-261.209	120.451	-0.109	-0.133
-260.195	-101.037	-0.218	-0.052
-259.180	157.313	0.121	-0.165
-258.165	-200.000	0.267	0.001
-257.151	-200.000	-0.060	0.000
-256.136	-69.694	-0.123	-0.046
-255.122	-144.614	0.296	-0.027
-254.107	233.087	-0.042	-0.067
-253.092	150.303	0.248	-0.331
-252.078	375.696	0.115	-0.231
-251.063	-200.000	0.045	-0.439
-250.049	800.000	0.089	-0.269
-249.034	-200.000	0.043	0.204
-248.019	-200.000	0.011	-0.253
-247.005	-140.646	0.153	-0.016
-245.990	-38.572	0.100	-0.052
-244.976	786.519	0.038	-0.104
-243.961	231.008	-0.073	0.117
-242.946	800.000	0.061	-0.198
-241.932	47.621	0.226	-0.207
-240.917	-104.392	0.259	0.059
-239.903	-60.968	-0.370	0.154
-238.888	523.512	-0.074	0.170
-237.873	217.548	0.044	-0.070
-236.859	-33.556	-0.357	-0.194
-235.844	-200.000	0.013	-0.146
-234.830	-42.519	0.219	-0.110
-233.815	-125.105	0.078	-0.012
-232.800	-23.998	0.259	0.152
-231.786	-89.733	-0.100	0.029
-230.771	-200.000	0.014	-0.287
-229.757	-200.000	0.053	0.345
-228.742	9.982	-0.176	0.131
-227.727	242.745	-0.079	0.130
-226.713	-172.727	-0.234	0.007
-225.698	235.274	0.174	-0.281
-224.684	800.000	0.017	-0.047
-223.669	-46.318	-0.155	-0.075
-222.655	164.554	0.173	0.240
-221.640	385.528	-0.099	0.201
-220.625	49.555	0.109	-0.100
-219.611	-200.000	-0.010	-0.054
-218.596	-108.102	0.328	0.070
-217.582	-200.000	0.057	0.417
-216.567	-119.893	-0.188	0.032
-215.552	-127.056	0.189	-0.027
-214.538	182.548	-0.043	-0.062
-213.523	250.113	0.072	-0.120
-212.509	154.679	-0.219	0.295
-211.494	-200.000	0.016	-0.103
-210.479	-79.903	0.284	0.094
-209.465	289.394	-0.076	0.136
-208.450	-200.000	-0.002	0.099
-207.436	215.292	-0.103	-0.161
-206.421	-200.000	0.095	-0.442
-205.406	-189.118	0.184	0.002
-204.392	-200.000	-0.011	0.218
-203.377	-130.517	0.191	-0.025
-202.363	592.676	0.126	0.306
-201.348	14.907	-0.151	0.116
-200.333	800.000	-0.007	-0.026
-199.319	16.035	0.019	0.014
-198.304	-127.169	0.357	0.051
-197.290	213.390	0.171	-0.264
-196.275	-25.105	-0.296	0.172
-195.260	10.754	-0.380	-0.284
-194.246	-97.251	0.304	-0.078
-193.231	396.812	0.037	-0.075
-192.217	-131.979	0.214	0.027
-191.202	-5.184	-0.200	-0.135
-190.187	-36.779	-0.157	-0.083
-189.173	-200.000	-0.008	-0.348
-188.158	-200.000	-0.015	0.244
-187.144	48.120	0.220	0.201
-186.129	6.149	-0.203	0.148
-185.114	39.102	-0.138	-0.121
-184.100	-79.961	0.140	0.046
-183.085	19.243	-0.178	-0.140
-182.071	-200.000	0.003	0.073
-181.056	-200.000	0.004	-0.096
-180.042	-25.788	0.291	0.168
-179.027	-200.000	-0.005	0.034
-178.012	-114.753	-0.087	-0.016
-176.998	476.660	-0.091	0.201
-175.983	-7.907	-0.106	0.070
-174.969	800.000	0.095	0.351
-173.954	-200.000	-0.013	0.319
-172.939	-114.451	-0.128	0.024
-171.925	36.066	-0.101	0.087
-170.910	-118.604	-0.365	-0.063
-169.896	-74.977	0.141	0.049
-168.881	800.000	-0.109	0.324
-167.866	-51.474	0.133	0.061
-166.852	800.000	-0.093	0.309
-165.837	91.960	-0.034	0.038
-164.823	42.755	0.204	0.182
-163.808	145.157	-0.266	0.349
-162.793	428.970	-0.129	0.274
-161.779	-69.301	0.214	-0.080
-160.764	670.748	0.101	0.256
-159.750	-200.000	-0.018	0.143
-158.735	116.881	0.114	0.137
-157.720	27.161	0.120	0.098
-156.706	51.154	-0.291	-0.271
-155.691	143.803	-0.175	0.228
-154.677	800.000	-0.042	0.120
-153.662	-200.000	-0.003	-0.232
-152.647	-200.000	-0.015	0.151
-151.633	-200.000	-0.010	0.158
-150.618	37.348	0.100	0.087
-149.604	107.713	-0.028	0.032
-148.589	2.909	0.047	-0.033
-147.574	-96.709	-0.167	0.043
-146.560	166.872	0.016	0.022
-145.545	17.904	0.123	-0.096
-144.531	-1.928	0.178	-0.123
-143.516	-82.259	-0.179	0.057
-142.502	250.782	0.106	0.176
-141.487	157.064	-0.069	-0.094
-140.472	80.498	0.203	0.214
-139.458	-37.219	0.146	0.076
-138.443	-200.000	0.014	-0.099
-137.429	800.000	-0.110	-0.412
-136.414	-200.000	0.060	-0.311
-135.399	-64.661	-0.263	-0.104
-134.385	8.961	-0.271	0.200
-133.370	-200.000	0.003	0.143
-132.356	-110.211	0.150	0.031
-131.341	337.808	-0.124	0.236
-130.326	41.212	-0.157	-0.139
-129.312	514.239	0.179	0.409
-128.297	-200.000	0.002	-0.032
-127.283	-71.840	0.237	-0.086
-126.268	24.537	0.033	-0.027
-125.253	6.374	0.255	-0.185
-124.239	-2.690	-0.423	-0.289
-123.224	-131.472	0.150	-0.019
-122.210	281.587	0.024	-0.042
-121.195	800.000	-0.010	-0.030
