DTS Sentinel unit serial number:	SN413079Multiplexer serial number:	ORYXHardware model number:	OX4-SRSoftware version number:	ORYX F/W v4.00 Oryx Data Collector v3.7.2.0data status	okinstallation	princeton_trtdifferential loss correction	single-endedforward channel	channel 1reverse channel	N/Adate	2019/09/11time	07:32:11forward acquisition time	60.00reverse acquisition time	0.00gamma	496.2192k internal	0.2325k external	0.2325temperature offset calibration	0.9911default loss term (dB/km)	0.3790temperature slope calibration	1.0000multiplexer offset coefficient	1.0000multiplexer slope coefficient	1.0000fibre end	0.00T internal ref (°C)	31.14T ext. ref 1 (°C)	-0.08T ext. ref 2 (°C)	27.60length (m)	temperature (°C)	Stokes	anti-Stokes-747.200	128.681	-0.238	-0.306
-746.185	450.283	0.148	0.329
-745.171	-200.000	0.002	-0.084
-744.156	-89.599	-0.360	0.107
-743.142	-200.000	0.026	-0.298
-742.127	-32.042	0.139	-0.079
-741.112	619.011	-0.104	0.263
-740.098	93.729	0.182	0.208
-739.083	80.008	0.036	-0.039
-738.069	-92.353	-0.107	-0.030
-737.054	-28.445	-0.529	-0.308
-736.039	135.736	-0.112	0.147
-735.025	40.075	0.098	0.089
-734.010	3.285	-0.204	0.150
-732.996	-15.107	-0.247	-0.160
-731.981	89.077	-0.058	-0.065
-730.966	-15.374	0.328	-0.211
-729.952	606.859	-0.029	-0.072
-728.937	-5.133	0.226	0.157
-727.923	146.839	-0.033	-0.045
-726.908	67.466	-0.121	-0.124
-725.894	-6.909	-0.147	-0.100
-724.879	-16.496	0.133	0.085
-723.864	676.041	0.076	0.199
-722.850	745.353	0.083	-0.225
-721.835	800.000	-0.053	-0.176
-720.821	-124.392	0.245	0.039
-719.806	208.512	-0.063	-0.100
-718.791	5.128	-0.235	-0.175
-717.777	-153.398	0.146	0.010
-716.762	-10.234	-0.338	-0.226
-715.748	290.636	0.058	0.106
-714.733	143.180	-0.088	-0.118
-713.718	133.640	0.114	-0.148
-712.704	283.524	-0.218	-0.395
-711.689	-200.000	0.024	-0.136
-710.675	-115.949	-0.163	0.031
-709.660	-68.431	-0.267	-0.105
-708.645	-200.000	-0.005	-0.046
-707.631	17.185	0.140	0.112
-706.616	772.487	0.046	0.125
-705.602	-136.093	0.044	-0.005
-704.587	290.397	-0.029	-0.053
-703.572	-112.526	-0.227	0.046
-702.558	-200.000	-0.055	0.263
-701.543	100.232	0.053	-0.061
-700.529	534.781	0.061	0.146
-699.514	-200.000	0.042	-0.329
-698.499	9.200	-0.330	0.251
-697.485	-200.000	-0.013	-0.166
-696.470	-200.000	0.002	-0.150
-695.456	-86.152	0.265	0.082
-694.441	727.481	0.099	0.265
-693.426	-176.694	0.083	-0.002
-692.412	-119.591	-0.121	0.021
-691.397	-67.803	-0.177	0.070
-690.383	-98.515	-0.425	0.109
-689.368	0.840	0.010	-0.007
-688.354	-200.000	-0.040	-0.184
-687.339	-22.387	-0.042	-0.026
-686.324	800.000	-0.030	-0.094
-685.310	-200.000	0.013	0.123
-684.295	800.000	0.014	-0.060
-683.281	-51.147	-0.283	0.134
-682.266	-15.103	0.121	-0.078
-681.251	-41.364	-0.293	-0.152
-680.237	800.000	-0.064	-0.185
-679.222	800.000	-0.030	0.094
-678.208	800.000	0.116	0.450
-677.193	171.536	0.128	-0.185
-676.178	45.155	-0.305	-0.283
-675.164	-178.681	0.159	0.004
-674.149	-10.034	-0.095	0.063
-673.135	-200.000	0.020	-0.206
-672.120	38.599	0.254	-0.228
-671.105	-40.709	-0.126	0.066
-670.091	800.000	0.068	0.200
-669.076	-145.242	-0.132	0.012
-668.062	-200.000	0.022	0.127
-667.047	56.992	-0.090	-0.089
-666.032	12.379	-0.070	0.054
-665.018	419.314	-0.066	-0.142
-664.003	63.148	-0.189	-0.191
-662.989	-53.829	-0.459	0.211
-661.974	-85.115	-0.169	0.053
-660.959	85.311	-0.238	0.263
-659.945	340.793	-0.143	0.280
-658.930	-93.612	0.060	0.017
-657.916	-141.420	-0.058	0.006
-656.901	-55.100	0.101	0.046
-655.886	184.590	-0.092	-0.137
-654.872	-64.859	-0.022	-0.009
-653.857	112.681	-0.175	-0.213
-652.843	63.144	-0.230	-0.232
-651.828	79.204	-0.046	0.049
-650.814	-117.575	0.171	-0.031
-649.799	34.992	0.300	0.264
-648.784	505.623	0.044	0.103
-647.770	-23.867	-0.072	-0.044
-646.755	-141.203	-0.119	-0.012
-645.741	588.896	0.031	0.076
-644.726	-200.000	-0.105	-0.486
-643.711	-177.950	0.127	-0.003
-642.697	407.534	-0.031	-0.066
-641.682	592.650	0.123	-0.306
-640.668	227.863	0.081	-0.133
-639.653	-30.407	-0.162	0.093
-638.638	-13.237	-0.067	0.044
-637.624	428.167	0.026	0.055
-636.609	-67.231	0.195	-0.077
-635.595	-46.175	0.190	0.094
-634.580	-90.539	-0.172	-0.050
-633.565	-92.174	0.122	-0.035
-632.551	-90.575	-0.174	0.050
-631.536	800.000	0.063	-0.183
-630.522	247.447	-0.122	-0.207
-629.507	-27.429	0.065	0.038
-628.492	-44.828	-0.425	-0.213
-627.478	800.000	-0.085	-0.245
-626.463	101.779	0.179	-0.210
-625.449	800.000	0.060	-0.191
-624.434	-83.472	-0.207	-0.067
-623.419	-200.000	-0.020	-0.323
-622.405	22.148	-0.105	-0.086
-621.390	57.691	0.046	-0.045
-620.376	-200.000	-0.022	0.394
-619.361	15.587	-0.137	0.108
-618.346	-81.086	-0.175	-0.058
-617.332	776.268	0.041	0.113
-616.317	-200.000	0.004	0.209
-615.303	52.808	0.083	-0.080
-614.288	-200.000	0.015	0.149
-613.273	26.627	0.194	0.163
-612.259	6.972	-0.176	-0.131
-611.244	299.781	0.013	0.023
-610.230	-6.407	-0.152	-0.104
-609.215	-200.000	-0.048	-0.220
-608.201	-38.557	0.382	-0.203
-607.186	-5.200	-0.050	-0.035
-606.171	-111.375	-0.252	0.051
-605.157	-16.249	-0.255	-0.162
-604.142	17.388	0.336	-0.267
-603.128	52.370	0.298	-0.285
-602.113	328.506	0.045	-0.087
-601.098	-105.708	0.344	-0.078
-600.084	800.000	0.034	0.111
-599.069	24.433	0.159	0.132
-598.055	117.887	0.174	-0.215
-597.040	-200.000	-0.007	-0.045
-596.025	-200.000	0.032	0.380
-595.011	-189.888	-0.190	-0.002
-593.996	255.314	0.079	-0.135
-592.982	5.392	-0.282	0.209
-591.967	800.000	-0.055	-0.235
-590.952	93.296	0.025	-0.028
-589.938	-200.000	-0.001	-0.149
-588.923	-200.000	0.063	-0.372
-587.909	383.232	-0.185	0.381
-586.894	-112.591	0.098	-0.020
-585.879	-3.829	0.078	-0.055
-584.865	-76.818	0.383	-0.134
-583.850	-95.521	-0.302	0.081
-582.836	26.320	0.091	-0.076
-581.821	-54.275	-0.100	-0.046
-580.806	-80.061	-0.220	0.074
-579.792	49.825	0.185	-0.174
-578.777	25.792	-0.260	0.217
-577.763	-19.755	-0.040	0.025
-576.748	444.409	0.218	0.480
-575.733	565.026	0.061	0.149
-574.719	-108.749	-0.362	-0.078
-573.704	253.750	-0.265	0.454
-572.690	375.878	-0.084	-0.171
-571.675	-28.583	0.062	-0.036
-570.661	145.014	0.188	0.252
-569.646	-12.147	0.373	0.244
-568.631	43.026	-0.264	0.241
-567.617	-200.000	0.049	0.457
-566.602	-123.835	-0.087	0.014
-565.588	187.392	-0.176	-0.263
-564.573	-200.000	0.010	-0.478
-563.558	112.377	-0.144	-0.175
-562.544	108.342	0.110	0.131
-561.529	81.833	-0.139	0.151
-560.515	-76.160	0.296	0.105
-559.500	-1.174	-0.110	0.078
-558.485	-152.468	-0.197	0.014
-557.471	800.000	-0.036	-0.121
-556.456	800.000	0.011	-0.032
-555.442	-156.195	-0.223	0.014
-554.427	-200.000	-0.038	0.354
-553.412	121.721	-0.171	-0.214
-552.398	430.043	-0.077	-0.168
-551.383	-174.805	0.130	0.004
-550.369	116.016	0.036	0.045
-549.354	-200.000	0.026	-0.120
-548.339	83.695	0.186	0.203
-547.325	-200.000	0.053	-0.307
-546.310	800.000	0.049	0.159
-545.296	-87.823	-0.124	0.038
-544.281	-137.765	0.177	0.020
-543.266	-6.383	0.203	0.139
-542.252	88.547	-0.174	0.194
-541.237	179.238	-0.173	-0.253
-540.223	-200.000	-0.241	0.000
-539.208	-45.542	0.277	0.137
-538.193	-40.061	-0.247	-0.129
-537.179	-94.785	0.085	-0.023
-536.164	-182.537	0.125	0.002
-535.150	339.503	-0.106	-0.206
-534.135	-111.271	-0.131	0.027
-533.121	68.979	-0.093	0.095
-532.106	50.453	0.258	-0.244
-531.091	-36.157	-0.180	0.097
-530.077	-200.000	-0.062	-0.498
-529.062	-184.262	0.123	0.002
-528.048	341.799	0.050	-0.098
-527.033	-162.249	0.126	-0.006
-526.018	148.536	-0.134	-0.181
-525.004	-157.832	0.042	0.002
-523.989	46.824	0.111	-0.103
-522.975	-103.647	-0.235	0.055
-521.960	102.545	-0.158	0.185
-520.945	-200.000	-0.052	0.235
-519.931	-54.497	0.324	-0.147
-518.916	-67.797	0.277	0.108
-517.902	169.768	-0.087	-0.125
-516.887	-36.568	0.197	0.106
-515.872	-86.882	0.093	0.028
-514.858	-200.000	-0.012	-0.321
-513.843	282.447	-0.111	0.200
-512.829	109.402	0.260	0.312
-511.814	-37.314	0.206	0.110
-510.799	-36.916	-0.163	-0.087
-509.785	83.579	0.120	-0.130
-508.770	373.567	0.179	0.363
-507.756	-27.767	0.228	0.132
-506.741	-19.154	0.316	0.196
-505.726	451.508	-0.166	-0.367
-504.712	-200.000	-0.008	-0.199
-503.697	800.000	0.111	0.323
-502.683	-8.370	-0.049	-0.033
-501.668	-93.056	0.450	0.125
-500.653	226.032	-0.046	0.075
-499.639	114.949	0.023	-0.028
-498.624	-42.620	0.306	-0.156
-497.610	-200.000	-0.046	-0.278
-496.595	-200.000	0.041	-0.193
-495.581	679.554	0.038	0.099
-494.566	-103.141	-0.105	0.025
-493.551	-200.000	0.042	0.255
-492.537	-30.097	0.238	-0.135
-491.522	-181.349	-0.215	0.004
-490.508	103.158	0.240	-0.280
-489.493	-11.634	0.275	0.180
-488.478	258.085	-0.040	-0.068
-487.464	800.000	-0.079	-0.270
-486.449	-145.655	0.153	-0.014
-485.435	-38.273	-0.284	-0.150
-484.420	-87.325	0.182	-0.055
-483.405	-56.174	0.083	0.037
-482.391	-32.540	0.283	0.157
-481.376	485.728	0.080	0.183
-480.362	-123.047	-0.079	0.013
-479.347	-83.580	-0.314	0.100
-478.332	-150.250	0.157	0.012
-477.318	-27.746	-0.304	-0.176
-476.303	-14.423	0.213	-0.137
-475.289	-172.143	-0.150	0.005
-474.274	259.221	-0.100	0.172
-473.259	308.759	-0.103	0.192
-472.245	800.000	-0.131	-0.388
-471.230	386.280	0.191	0.394
-470.216	-32.585	-0.323	0.180
-469.201	-109.553	0.174	0.037
-468.186	-200.000	0.001	0.015
-467.172	800.000	-0.119	0.391
-466.157	-57.397	-0.251	0.110
-465.143	800.000	0.063	0.255
-464.128	380.345	-0.025	-0.051
-463.113	135.629	0.133	-0.173
-462.099	79.546	0.148	-0.159
-461.084	-60.494	-0.493	0.209
-460.070	30.944	-0.122	0.105
-459.055	-200.000	0.013	0.348
-458.040	-200.000	-0.011	0.187
-457.026	-56.112	-0.070	0.031
-456.011	-200.000	-0.034	0.156
-454.997	-101.992	-0.163	0.039
-453.982	65.570	0.313	0.316
-452.968	-14.496	0.206	-0.132
-451.953	26.520	0.219	-0.183
-450.938	24.061	0.398	0.328
-449.924	-53.737	0.205	0.093
-448.909	-200.000	0.040	0.303
-447.895	-200.000	-0.008	-0.134
-446.880	-146.965	0.140	-0.012
-445.865	-79.933	-0.138	-0.046
-444.851	-200.000	0.035	-0.251
-443.836	-131.313	-0.310	-0.041
-442.822	-119.681	-0.138	-0.024
-441.807	2.427	-0.251	0.181
-440.792	728.532	0.057	0.153
-439.778	325.464	-0.047	0.090
-438.763	-183.477	0.185	0.003
-437.749	458.618	-0.089	0.198
-436.734	51.760	-0.142	-0.134
-435.719	8.793	-0.147	-0.110
-434.705	-21.091	0.045	-0.028
-433.690	-172.807	0.613	-0.019
-432.676	-7.094	-0.245	-0.165
-431.661	-137.172	-0.241	0.027
-430.646	434.158	-0.142	-0.308
-429.632	27.930	-0.064	-0.054
-428.617	548.438	0.164	-0.391
-427.603	-198.658	-0.141	-0.001
-426.588	-12.513	0.082	0.053
-425.573	-12.481	-0.199	-0.129
-424.559	-35.859	-0.280	0.151
-423.544	-200.000	0.018	0.089
-422.530	502.573	-0.066	-0.152
-421.515	-167.996	-0.215	-0.008
-420.500	134.773	-0.315	-0.408
-419.486	79.360	-0.260	-0.277
-418.471	133.522	0.152	0.195
-417.457	434.188	-0.089	0.193
-416.442	264.512	0.059	0.101
-415.428	59.682	0.081	-0.079
-414.413	598.490	-0.113	-0.278
-413.398	-200.000	0.035	-0.195
-412.384	-8.224	0.067	-0.045
-411.369	50.680	-0.114	-0.107
-410.355	-200.000	0.017	0.134
-409.340	-70.020	0.232	0.088
-408.325	-32.504	-0.045	-0.025
-407.311	-53.210	-0.250	-0.114
-406.296	-93.480	-0.302	0.083
-405.282	-200.000	-0.012	-0.389
-404.267	-109.786	-0.144	-0.030
-403.252	-20.511	-0.107	-0.066
-402.238	-200.000	0.006	-0.208
-401.223	571.134	-0.071	0.173
-400.209	-25.632	0.205	-0.121
-399.194	3.582	0.234	-0.170
-398.179	-121.559	-0.246	0.041
-397.165	800.000	0.045	0.126
-396.150	-60.954	0.180	0.076
-395.136	-119.495	-0.282	-0.049
-394.121	-38.885	-0.284	-0.149
-393.106	-156.237	0.101	0.006
-392.092	-50.159	-0.199	0.094
-391.077	800.000	0.035	0.121
-390.063	-200.000	-0.020	0.215
-389.048	96.175	0.136	-0.154
-388.033	70.309	0.167	-0.171
-387.019	-200.000	-0.038	0.407
-386.004	-200.000	-0.011	0.230
-384.990	-200.000	-0.024	0.205
-383.975	-91.460	-0.325	-0.092
-382.960	-137.789	-0.134	0.015
-381.946	800.000	-0.036	-0.127
-380.931	-0.069	0.127	0.090
-379.917	-164.913	0.362	0.016
-378.902	-38.069	0.207	-0.109
-377.888	107.673	-0.110	-0.131
-376.873	374.311	0.067	0.136
-375.858	-47.565	0.257	0.124
-374.844	-200.000	0.012	-0.123
-373.829	-42.115	-0.442	0.225
-372.815	31.213	0.145	-0.124
-371.800	-126.339	0.188	0.028
-370.785	117.469	-0.036	0.044
-369.771	-181.867	-0.231	0.004
-368.756	800.000	-0.082	0.325
-367.742	166.258	0.053	-0.074
-366.727	49.365	0.177	-0.166
-365.712	2.286	0.256	-0.184
-364.698	-200.000	0.040	0.316
-363.683	800.000	0.032	0.103
-362.669	556.035	-0.078	-0.187
-361.654	9.069	0.188	-0.141
-360.639	-45.379	-0.143	-0.071
-359.625	-108.414	0.133	-0.028
-358.610	-200.000	0.015	0.267
-357.596	-105.659	0.167	0.037
-356.581	-200.000	0.003	-0.083
-355.566	800.000	0.056	-0.176
-354.552	83.855	0.091	-0.098
-353.537	15.536	-0.218	-0.170
-352.523	32.118	-0.133	0.114
-351.508	22.080	-0.204	-0.165
-350.493	-49.903	-0.361	0.170
-349.479	671.889	0.051	0.131
-348.464	-126.568	-0.470	-0.069
-347.450	800.000	-0.089	-0.290
-346.435	800.000	0.046	0.172
-345.420	-77.261	-0.116	-0.040
-344.406	362.007	0.101	-0.202
-343.391	-103.053	0.205	0.048
-342.377	-110.212	-0.132	-0.027
-341.362	-27.240	0.235	-0.136
-340.348	-57.468	0.478	0.208
-339.333	-72.593	-0.367	-0.134
-338.318	-152.738	-0.503	-0.036
-337.304	222.192	0.123	0.196
-336.289	23.032	0.295	-0.240
-335.275	3.784	0.170	-0.123
-334.260	-98.192	0.141	-0.036
-333.245	-200.000	-0.037	0.177
-332.231	800.000	0.080	0.266
-331.216	-101.771	0.268	0.064
-330.202	-107.259	0.088	0.019
-329.187	-70.221	0.103	0.039
-328.172	-30.045	0.209	0.118
-327.158	800.000	0.028	-0.093
-326.143	-85.039	0.094	0.029
-325.129	-200.000	0.013	0.240
-324.114	703.078	0.083	-0.218
-323.099	-57.247	0.467	-0.204
-322.085	122.355	0.147	0.183
-321.070	59.246	-0.028	0.027
-320.056	-100.168	-0.236	-0.058
-319.041	-15.719	-0.295	0.186
-318.026	248.212	-0.217	0.364
-317.012	-200.000	-0.021	-0.186
-315.997	380.620	-0.069	0.140
-314.983	256.771	0.078	0.132
-313.968	-29.543	-0.388	-0.220
-312.953	-200.000	-0.020	-0.093
-311.939	-200.000	-0.031	-0.163
-310.924	-136.536	-0.207	-0.024
-309.910	16.217	0.390	0.305
-308.895	-126.717	0.240	-0.035
-307.880	800.000	-0.053	-0.159
-306.866	-200.000	0.023	0.238
-305.851	46.041	-0.072	-0.066
-304.837	-200.000	-0.008	0.099
-303.822	97.236	0.183	0.208
-302.807	-192.712	-0.351	0.003
-301.793	800.000	0.028	0.088
-300.778	-200.000	0.027	0.158
-299.764	800.000	-0.086	0.355
-298.749	174.368	0.157	0.226
-297.735	112.724	0.159	0.191
-296.720	800.000	-0.140	0.500
-295.705	800.000	-0.018	0.053
-294.691	504.300	-0.161	-0.369
-293.676	374.745	0.169	-0.340
-292.662	736.533	-0.086	-0.228
-291.647	-12.536	-0.107	-0.069
-290.632	-79.618	0.066	0.022
-289.618	587.989	-0.028	-0.069
-288.603	-27.854	0.167	-0.096
-287.589	-49.426	-0.108	0.051
-286.574	-200.000	0.000	-0.129
-285.559	389.187	-0.026	0.053
-284.545	-200.000	0.019	0.210
-283.530	-200.000	-0.048	0.272
-282.516	9.803	0.058	-0.043
-281.501	-65.874	-0.148	-0.059
-280.486	57.515	0.100	0.097
-279.472	-26.917	0.235	-0.136
-278.457	-197.974	-0.088	-0.001
-277.443	-11.619	0.184	-0.120
-276.428	-41.072	-0.174	-0.089
-275.413	642.572	0.185	-0.468
-274.399	-183.326	-0.776	-0.013
-273.384	69.933	-0.168	0.171
-272.370	445.377	0.106	-0.231
-271.355	-129.022	-0.213	0.030
-270.340	-41.465	0.323	-0.165
-269.326	-200.000	0.004	-0.331
-268.311	-53.506	-0.261	0.118
-267.297	-200.000	0.033	-0.202
-266.282	375.329	0.058	-0.117
-265.267	-9.929	-0.230	-0.151
-264.253	800.000	-0.058	0.173
-263.238	240.659	0.301	0.496
-262.224	95.799	-0.148	0.167
-261.209	-154.610	0.115	-0.008
-260.195	295.049	-0.037	-0.067
-259.180	121.322	-0.118	0.145
-258.165	-83.131	-0.194	0.062
-257.151	-150.680	-0.169	0.013
-256.136	-200.000	0.020	-0.205
-255.122	7.907	0.226	-0.168
-254.107	-119.103	0.314	0.054
-253.092	83.015	-0.115	-0.123
-252.078	-200.000	-0.016	0.213
-251.063	502.747	0.065	0.148
-250.049	-25.129	-0.139	-0.082
-249.034	591.929	0.183	-0.446
-248.019	314.469	0.174	-0.323
-247.005	146.685	-0.193	0.257
-245.990	0.487	0.182	0.128
-244.976	30.941	-0.255	0.216
-243.961	-200.000	0.168	0.001
-242.946	-7.851	0.297	0.198
-241.932	-168.818	-0.082	-0.003
-240.917	-177.614	0.156	-0.004
-239.903	-124.775	0.205	0.031
-238.888	-200.000	0.008	-0.061
-237.873	-8.301	-0.052	-0.034
-236.859	197.923	0.081	-0.122
-235.844	198.138	-0.214	0.323
-234.830	-97.427	0.179	0.046
-233.815	309.963	-0.044	-0.081
-232.800	-129.467	-0.183	-0.025
-231.786	-69.262	-0.140	0.053
-230.771	179.076	-0.144	0.208
-229.757	-75.946	0.195	-0.068
-228.742	57.998	-0.149	-0.144
-227.727	127.968	-0.060	-0.076
-226.713	-104.101	0.282	-0.065
-225.698	572.042	0.031	-0.075
-224.684	98.417	-0.226	-0.257
-223.669	-200.000	0.044	-0.209
-222.655	190.129	0.156	-0.231
-221.640	-6.566	0.272	-0.183
-220.625	-172.471	0.368	0.012
-219.611	800.000	-0.056	-0.188
-218.596	-53.734	-0.062	0.028
-217.582	-200.000	0.051	0.268
-216.567	-102.737	-0.297	0.070
-215.552	800.000	-0.046	-0.152
-214.538	-200.000	0.032	0.164
-213.523	-8.272	0.026	-0.017
-212.509	377.720	-0.017	0.033
-211.494	-148.870	-0.178	0.014
-210.479	139.898	0.228	-0.297
-209.465	-200.000	0.037	0.298
-208.450	-68.630	-0.197	-0.075
-207.436	800.000	-0.108	0.301
-206.421	2.767	0.269	0.193
-205.406	-45.032	0.116	0.057
-204.392	-60.957	0.348	-0.145
-203.377	-77.360	0.262	-0.090
-202.363	-27.858	-0.472	-0.270
-201.348	226.825	-0.133	0.214
-200.333	-200.000	0.043	-0.216
-199.319	-85.392	0.106	0.033
-198.304	-200.000	0.004	0.031
-197.290	44.716	0.310	-0.282
-196.275	-200.000	-0.014	-0.283
-195.260	0.048	-0.243	0.171
-194.246	-33.122	-0.058	0.032
-193.231	250.587	-0.090	0.151
-192.217	-200.000	-0.025	-0.155
-191.202	-176.458	-0.079	0.002
-190.187	169.608	-0.213	0.300
-189.173	2.421	0.295	0.211
-188.158	17.044	-0.189	-0.148
-187.144	-190.516	-0.216	0.002
-186.129	-125.769	-0.090	-0.013
-185.114	282.700	0.047	0.084
-184.100	287.242	-0.160	-0.286
-183.085	800.000	-0.079	-0.229
-182.071	-67.626	0.169	0.065
-181.056	67.102	-0.093	-0.094
-180.042	-200.000	0.025	0.216
-179.027	-200.000	-0.002	0.310
-178.012	38.185	-0.135	0.118
-176.998	709.326	0.038	-0.098
-175.983	800.000	0.046	0.196
-174.969	-2.819	-0.080	0.055
-173.954	-109.620	0.418	0.087
-172.939	-10.295	0.259	-0.169
-171.925	-107.641	-0.307	0.066
-170.910	-200.000	-0.072	-0.421
-169.896	129.238	0.176	0.221
-168.881	-200.000	0.021	-0.413
-167.866	62.166	0.204	0.201
-166.852	253.571	-0.095	0.160
-165.837	26.035	0.110	0.090
-164.823	-200.000	-0.066	0.527
-163.808	121.973	0.131	0.161
-162.793	-4.260	-0.093	0.064
-161.779	84.187	0.298	0.321
-160.764	-200.000	0.002	-0.040
-159.750	-200.000	-0.006	-0.038
-158.735	132.611	-0.273	-0.347
-157.720	122.001	-0.201	-0.247
-156.706	-88.334	-0.423	0.125
-155.691	-24.166	-0.061	0.036
-154.677	-44.116	0.191	0.095
-153.662	-4.983	-0.254	0.172
-152.647	800.000	0.075	0.321
-151.633	-28.220	0.369	-0.210
-150.618	98.424	-0.224	-0.255
-149.604	-11.943	0.133	0.086
-148.589	-59.344	0.494	0.209
-147.574	-30.287	0.186	-0.104
-146.560	-134.653	-0.182	-0.022
-145.545	139.255	0.060	-0.078
-144.531	181.572	0.113	0.164
-143.516	-134.678	0.235	0.028
-142.502	-110.300	0.248	-0.051
-141.487	800.000	-0.024	0.076
-140.472	-200.000	-0.024	0.111
-139.458	-121.356	0.209	0.034
-138.443	279.262	0.109	-0.192
-137.429	-42.748	0.220	-0.110
-136.414	-200.000	0.011	0.150
-135.399	-105.729	-0.207	-0.046
-134.385	-55.116	-0.056	-0.025
-133.370	-55.949	-0.176	0.077
-132.356	-62.466	-0.053	0.022
-131.341	-182.141	0.094	0.002
-130.326	-123.664	-0.334	-0.052
-129.312	-105.238	0.477	-0.107
-128.297	-200.000	0.034	0.227
-127.283	55.822	-0.151	-0.144
-126.268	53.872	0.145	-0.137
-125.253	800.000	0.070	0.207
-124.239	620.613	-0.151	-0.373
-123.224	-75.211	0.205	-0.072
-122.210	-12.186	0.123	0.080
-121.195	-27.365	-0.174	0.100
