DTS Sentinel unit serial number:	SN413079Multiplexer serial number:	ORYXHardware model number:	OX4-SRSoftware version number:	ORYX F/W v4.00 Oryx Data Collector v3.7.2.0data status	okinstallation	princeton_trtdifferential loss correction	single-endedforward channel	channel 1reverse channel	N/Adate	2019/09/15time	09:58:35forward acquisition time	60.00reverse acquisition time	0.00gamma	496.2192k internal	0.2309k external	0.2309temperature offset calibration	0.9987default loss term (dB/km)	0.3790temperature slope calibration	1.0000multiplexer offset coefficient	1.0000multiplexer slope coefficient	1.0000fibre end	0.00T internal ref (°C)	34.12T ext. ref 1 (°C)	5.01T ext. ref 2 (°C)	29.94length (m)	temperature (°C)	Stokes	anti-Stokes-747.200	800.000	-0.103	-0.301
-746.185	-147.322	-0.454	-0.039
-745.171	602.163	0.109	-0.275
-744.156	800.000	-0.037	0.114
-743.142	5.619	-0.056	0.042
-742.127	49.392	-0.167	0.160
-741.112	-200.000	0.002	0.148
-740.098	750.096	-0.153	0.420
-739.083	-41.244	0.277	0.145
-738.069	-75.208	-0.117	-0.043
-737.054	-126.675	-0.209	-0.031
-736.039	-163.893	-0.390	0.019
-735.025	-36.017	0.093	0.051
-734.010	-100.822	-0.232	0.058
-732.996	-124.608	0.265	0.042
-731.981	86.791	-0.182	0.204
-730.966	371.250	-0.019	-0.038
-729.952	-95.326	-0.148	-0.040
-728.937	-200.000	0.017	-0.102
-727.923	144.967	-0.069	-0.094
-726.908	45.241	-0.160	0.150
-725.894	263.481	-0.071	0.125
-724.879	-25.256	0.313	0.188
-723.864	-105.165	-0.265	0.062
-722.850	-81.080	0.193	0.065
-721.835	-200.000	0.006	-0.292
-720.821	8.828	-0.200	-0.153
-719.806	-200.000	-0.018	-0.224
-718.791	800.000	-0.062	0.227
-717.777	11.067	0.124	-0.096
-716.762	117.966	0.117	-0.146
-715.748	-31.447	-0.092	0.053
-714.733	-200.000	0.021	-0.287
-713.718	-7.692	-0.024	0.016
-712.704	90.314	-0.093	0.105
-711.689	-164.802	0.175	0.008
-710.675	-177.832	-0.079	-0.002
-709.660	-200.000	0.005	-0.044
-708.645	422.822	-0.097	-0.210
-707.631	-71.213	0.243	0.092
-706.616	-59.120	0.182	-0.080
-705.602	-200.000	-0.028	0.414
-704.587	-119.814	-0.286	0.050
-703.572	-200.000	-0.001	0.012
-702.558	-57.339	0.443	0.198
-701.543	-94.236	-0.191	0.053
-700.529	-36.873	0.124	-0.067
-699.514	800.000	-0.056	-0.177
-698.499	418.000	0.109	0.237
-697.485	-6.626	-0.154	0.106
-696.470	-200.000	-0.042	0.194
-695.456	800.000	0.023	0.085
-694.441	58.418	-0.360	0.358
-693.426	86.575	0.062	0.069
-692.412	111.943	-0.090	0.110
-691.397	800.000	0.070	0.236
-690.383	800.000	-0.027	0.100
-689.368	800.000	0.137	-0.491
-688.354	338.360	0.064	-0.127
-687.339	-200.000	-0.029	-0.148
-686.324	304.512	0.128	-0.241
-685.310	-12.607	0.068	0.045
-684.295	120.707	0.148	0.187
-683.281	-200.000	0.008	-0.074
-682.266	-200.000	0.077	-0.430
-681.251	-48.975	-0.200	-0.097
-680.237	12.297	0.241	0.188
-679.222	-178.507	-0.264	0.006
-678.208	-90.835	-0.140	-0.041
-677.193	248.012	-0.187	0.321
-676.178	-37.696	0.219	0.118
-675.164	-126.774	0.331	0.050
-674.149	-66.604	0.095	0.038
-673.135	-146.726	-0.375	0.033
-672.120	73.422	0.065	-0.069
-671.105	-133.168	-0.229	-0.029
-670.091	-174.595	-0.082	-0.002
-669.076	-200.000	0.014	-0.083
-668.062	150.732	-0.111	-0.152
-667.047	260.948	0.154	0.269
-666.032	-200.000	0.041	-0.291
-665.018	-170.362	0.417	0.015
-664.003	-149.527	-0.250	0.020
-662.989	-2.945	-0.083	-0.059
-661.974	-200.000	0.047	-0.328
-660.959	-200.000	0.009	0.137
-659.945	132.604	0.104	0.135
-658.930	-114.854	0.206	-0.040
-657.916	-129.106	0.271	-0.038
-656.901	-169.837	-0.125	0.005
-655.886	74.706	0.140	-0.149
-654.872	-128.180	-0.182	0.026
-653.857	-20.814	-0.101	-0.063
-652.843	206.738	0.081	0.128
-651.828	-200.000	0.037	0.216
-650.814	-156.813	-0.102	0.006
-649.799	0.394	-0.140	-0.101
-648.784	-200.000	-0.017	-0.343
-647.770	187.450	0.162	-0.244
-646.755	800.000	-0.043	-0.154
-645.741	-80.510	-0.233	-0.078
-644.726	-200.000	-0.004	-0.072
-643.711	-200.000	0.039	0.176
-642.697	353.364	0.080	-0.160
-641.682	150.935	-0.083	0.114
-640.668	125.060	0.083	0.105
-639.653	-17.947	-0.149	0.094
-638.638	-200.000	-0.003	0.135
-637.624	800.000	-0.022	0.067
-636.609	-33.220	-0.129	-0.072
-635.595	-67.246	0.345	0.137
-634.580	-200.000	0.005	0.263
-633.565	64.241	-0.196	-0.199
-632.551	-112.663	-0.191	0.039
-631.536	-127.836	0.242	0.035
-630.522	-96.532	-0.064	-0.017
-629.507	800.000	0.078	0.220
-628.492	800.000	0.039	0.118
-627.478	19.158	0.170	0.138
-626.463	-200.000	0.024	-0.147
-625.449	-51.636	0.035	0.016
-624.434	-75.664	-0.260	0.093
-623.419	17.607	0.139	0.112
-622.405	51.967	-0.055	0.053
-621.390	-123.494	0.137	0.022
-620.376	164.243	-0.200	-0.285
-619.361	-84.019	-0.247	-0.079
-618.346	-200.000	0.028	0.215
-617.332	15.216	0.085	-0.068
-616.317	173.273	0.120	0.175
-615.303	164.485	0.241	-0.344
-614.288	800.000	0.052	0.160
-613.273	-157.013	-0.276	0.017
-612.259	-119.724	-0.307	-0.054
-611.244	-142.443	0.154	0.015
-610.230	-23.918	0.167	0.101
-609.215	-9.405	0.179	-0.121
-608.201	56.819	-0.046	0.045
-607.186	247.771	-0.025	0.042
-606.171	-200.000	0.012	-0.153
-605.157	-200.000	-0.005	-0.310
-604.142	-66.688	-0.207	-0.083
-603.128	-200.000	-0.002	0.224
-602.113	-200.000	0.015	-0.481
-601.098	-84.172	-0.018	0.006
-600.084	70.743	-0.164	-0.172
-599.069	28.947	0.227	0.194
-598.055	-130.550	-0.243	-0.033
-597.040	-67.691	0.239	0.095
-596.025	418.263	-0.047	-0.100
-595.011	78.272	-0.190	-0.205
-593.996	272.038	-0.213	-0.379
-592.982	37.459	-0.209	0.187
-591.967	-33.697	-0.219	0.122
-590.952	-110.034	-0.428	-0.090
-589.938	59.276	-0.322	0.321
-588.923	800.000	-0.103	-0.329
-587.909	167.704	-0.230	-0.330
-586.894	219.115	0.071	0.114
-585.879	-58.492	0.240	-0.105
-584.865	378.911	-0.143	0.296
-583.850	-32.833	0.113	-0.063
-582.836	-6.694	-0.070	0.048
-581.821	-150.568	0.184	0.014
-580.806	24.046	0.083	0.069
-579.792	-62.724	-0.082	-0.034
-578.777	-151.231	-0.255	-0.019
-577.763	-46.156	0.215	0.107
-576.748	7.396	-0.314	0.237
-575.733	-40.428	-0.167	0.088
-574.719	384.361	-0.048	-0.100
-573.704	800.000	0.062	0.183
-572.690	-119.116	0.208	0.037
-571.675	800.000	-0.126	0.458
-570.661	-32.111	0.267	0.151
-569.646	-200.000	0.004	-0.394
-568.631	-34.048	-0.049	-0.027
-567.617	-95.130	0.071	0.019
-566.602	152.139	0.115	-0.159
-565.588	154.758	0.221	0.306
-564.573	502.499	0.031	-0.073
-563.558	-109.295	0.172	-0.037
-562.544	-116.747	-0.145	0.027
-561.529	-152.571	0.249	-0.018
-560.515	-200.000	0.013	0.084
-559.500	-117.330	-0.215	-0.039
-558.485	-200.000	0.012	-0.376
-557.471	-29.293	0.117	0.067
-556.456	48.349	0.091	-0.086
-555.442	800.000	0.046	-0.162
-554.427	36.376	-0.252	0.224
-553.412	-73.913	0.282	0.103
-552.398	21.530	-0.223	-0.183
-551.383	-66.783	0.173	0.069
-550.369	-131.459	0.154	-0.020
-549.354	800.000	-0.114	-0.393
-548.339	501.953	-0.032	0.075
-547.325	179.802	-0.066	-0.098
-546.310	23.245	-0.152	0.126
-545.296	-200.000	-0.058	0.380
-544.281	691.209	0.077	0.205
-543.266	-31.496	-0.142	0.081
-542.252	410.273	0.083	-0.177
-541.237	-58.554	0.278	-0.122
-540.223	136.584	-0.189	-0.248
-539.208	245.147	-0.099	-0.168
-538.193	-129.444	0.100	-0.014
-537.179	109.365	-0.015	-0.018
-536.164	-95.913	-0.210	-0.056
-535.150	763.570	0.092	0.253
-534.135	501.316	0.072	0.166
-533.121	-9.381	-0.195	-0.131
-532.106	49.020	0.175	-0.165
-531.091	86.393	0.156	0.174
-530.077	-122.343	0.288	-0.047
-529.062	14.011	-0.128	-0.100
-528.048	-111.794	-0.135	0.028
-527.033	-25.425	0.193	-0.115
-526.018	-200.000	-0.003	0.166
-525.004	215.051	-0.131	0.209
-523.989	23.075	-0.151	0.125
-522.975	-200.000	-0.008	0.306
-521.960	527.945	-0.084	0.199
-520.945	437.786	0.131	0.288
-519.931	106.545	0.058	-0.069
-518.916	-83.100	-0.233	0.076
-517.902	-200.000	-0.013	0.194
-516.887	-54.940	-0.287	0.130
-515.872	-200.000	-0.004	-0.155
-514.858	94.087	-0.061	-0.070
-513.843	228.986	-0.082	-0.135
-512.829	-200.000	0.016	0.146
-511.814	-160.752	-0.231	-0.012
-510.799	-17.774	0.383	-0.242
-509.785	22.659	-0.214	0.176
-508.770	-107.029	-0.123	0.027
-507.756	-147.882	0.292	0.024
-506.741	27.133	0.291	-0.246
-505.726	-162.234	-0.215	-0.011
-504.712	-166.341	0.172	-0.007
-503.697	261.782	0.239	0.417
-502.683	149.504	-0.154	0.210
-501.668	-138.277	0.109	-0.012
-500.653	-200.000	0.006	-0.113
-499.639	800.000	0.034	-0.107
-498.624	800.000	-0.052	0.191
-497.610	605.968	0.098	0.246
-496.595	-106.129	-0.087	0.020
-495.581	-200.000	-0.012	0.093
-494.566	7.543	0.011	-0.008
-493.551	-114.118	-0.043	-0.008
-492.537	-25.051	0.060	-0.036
-491.522	800.000	-0.050	0.172
-490.508	-68.087	0.133	0.052
-489.493	-150.630	-0.101	0.008
-488.478	-200.000	-0.033	-0.398
-487.464	526.290	-0.047	-0.111
-486.449	155.085	0.065	0.090
-485.435	-123.406	-0.439	-0.070
-484.420	-45.913	0.177	0.088
-483.405	6.715	-0.351	-0.263
-482.391	-83.977	0.046	-0.015
-481.376	-125.741	0.150	-0.023
-480.362	-23.240	0.186	-0.112
-479.347	800.000	-0.047	0.153
-478.332	800.000	0.031	0.130
-477.318	98.701	0.103	0.119
-476.303	303.339	-0.183	0.341
-475.289	-130.311	0.158	0.022
-474.274	-142.280	-0.136	0.013
-473.259	58.558	0.251	0.247
-472.245	-200.000	-0.043	0.201
-471.230	420.379	0.062	-0.134
-470.216	444.162	-0.013	-0.029
-469.201	800.000	0.040	-0.162
-468.186	-200.000	0.059	-0.388
-467.172	212.639	-0.103	-0.163
-466.157	800.000	-0.043	0.133
-465.143	-127.847	-0.223	-0.032
-464.128	-200.000	-0.034	-0.157
-463.113	-146.856	0.158	-0.014
-462.099	4.828	-0.071	0.053
-461.084	121.606	0.068	0.085
-460.070	-200.000	0.048	-0.227
-459.055	-5.239	0.093	-0.064
-458.040	-91.891	0.169	0.048
-457.026	-37.585	-0.284	0.152
-456.011	-71.832	0.219	0.082
-454.997	-48.691	0.103	0.050
-453.982	55.584	-0.207	0.201
-452.968	264.467	-0.053	0.093
-451.953	-51.093	-0.410	-0.193
-450.938	17.258	-0.219	-0.175
-449.924	225.687	-0.260	-0.424
-448.909	-8.486	-0.207	-0.139
-447.895	800.000	0.035	-0.114
-446.880	-132.392	0.108	-0.014
-445.865	13.645	-0.192	-0.150
-444.851	83.609	0.212	0.232
-443.836	-200.000	-0.028	-0.128
-442.822	-110.032	0.256	-0.054
-441.807	-24.337	0.102	0.061
-440.792	-110.818	0.212	-0.044
-439.778	-12.698	-0.051	-0.034
-438.763	-115.706	0.310	-0.058
-437.749	-116.163	-0.313	0.058
-436.734	-80.839	0.064	0.021
-435.719	74.680	0.128	0.135
-434.705	234.405	0.095	0.157
-433.690	-52.280	0.163	0.076
-432.676	800.000	0.112	-0.348
-431.661	74.169	0.037	0.039
-430.646	-200.000	0.014	-0.249
-429.632	-33.695	-0.162	-0.089
-428.617	4.240	0.118	0.086
-427.603	-50.869	-0.262	0.124
-426.588	-177.449	-0.139	0.003
-425.573	120.572	0.079	-0.098
-424.559	-13.073	0.144	-0.094
-423.544	-76.957	-0.176	-0.062
-422.530	-88.642	-0.350	-0.104
-421.515	-78.218	-0.256	-0.088
-420.500	0.203	0.129	0.092
-419.486	-116.188	-0.184	-0.034
-418.471	58.680	-0.208	0.205
-417.457	718.173	0.119	0.317
-416.442	-146.257	-0.136	-0.012
-415.428	584.279	0.087	0.214
-414.413	-200.000	0.004	-0.073
-413.398	-80.216	0.133	-0.045
-412.384	-200.000	-0.023	-0.210
-411.369	-89.835	-0.194	0.057
-410.355	-138.422	0.078	0.009
-409.340	507.080	-0.073	-0.170
-408.325	-80.020	-0.097	-0.033
-407.311	104.871	0.076	-0.089
-406.296	152.798	0.066	-0.091
-405.282	314.474	-0.119	-0.225
-404.267	800.000	-0.064	-0.208
-403.252	25.483	-0.197	-0.164
-402.238	-137.185	0.107	0.012
-401.223	-20.184	0.040	0.025
-400.209	23.112	-0.059	0.049
-399.194	-200.000	0.032	0.456
-398.179	122.225	0.371	-0.465
-397.165	149.239	0.239	-0.324
-396.150	-47.706	-0.110	0.053
-395.136	-200.000	0.046	-0.254
-394.121	483.741	-0.102	-0.233
-393.106	-200.000	-0.034	-0.202
-392.092	-1.538	-0.294	-0.207
-391.077	591.237	0.130	-0.321
-390.063	-18.528	-0.138	0.086
-389.048	800.000	-0.027	-0.091
-388.033	-165.224	0.272	0.012
-387.019	16.242	0.374	0.295
-386.004	-67.692	-0.192	0.075
-384.990	89.657	-0.216	-0.241
-383.975	-116.566	-0.326	0.060
-382.960	124.552	-0.184	-0.232
-381.946	183.148	-0.022	0.032
-380.931	-63.673	0.189	-0.077
-379.917	-153.964	-0.011	-0.001
-378.902	-200.000	-0.019	-0.134
-377.888	265.509	0.059	-0.103
-376.873	65.067	0.149	-0.150
-375.858	-59.090	0.174	0.075
-374.844	85.831	-0.114	-0.125
-373.829	800.000	-0.035	0.108
-372.815	138.233	-0.111	-0.145
-371.800	-146.853	-0.268	0.023
-370.785	-200.000	-0.020	0.271
-369.771	-137.435	0.271	0.031
-368.756	287.975	0.123	0.223
-367.742	800.000	-0.035	0.137
-366.727	-121.911	0.343	0.056
-365.712	70.751	0.081	0.084
-364.698	172.264	0.187	0.270
-363.683	-53.589	-0.225	0.103
-362.669	-47.653	-0.250	-0.121
-361.654	-83.901	0.102	0.032
-360.639	-96.243	0.021	0.006
-359.625	202.913	0.114	-0.176
-358.610	-145.354	0.240	-0.022
-357.596	30.337	0.144	-0.123
-356.581	-97.292	0.277	-0.072
-355.566	-200.000	0.001	-0.136
-354.552	-74.689	-0.181	0.065
-353.537	217.463	0.055	0.088
-352.523	800.000	-0.075	-0.307
-351.508	363.726	-0.086	-0.173
-350.493	800.000	0.012	0.044
-349.479	98.340	-0.198	0.228
-348.464	335.069	-0.106	-0.206
-347.450	-172.468	0.262	-0.008
-346.435	-200.000	-0.018	-0.298
-345.420	-42.308	0.115	-0.059
-344.406	-130.120	0.314	-0.043
-343.391	-200.000	-0.033	-0.324
-342.377	-200.000	0.036	-0.204
-341.362	70.396	0.329	0.340
-340.348	280.763	0.079	0.142
-339.333	300.642	-0.100	0.185
-338.318	606.572	0.044	0.109
-337.304	665.757	-0.098	0.254
-336.289	-133.729	-0.150	0.019
-335.275	-200.000	-0.013	0.222
-334.260	-80.844	-0.032	-0.011
-333.245	296.942	0.218	-0.399
-332.231	800.000	0.036	0.123
-331.216	-89.816	0.218	-0.064
-330.202	800.000	-0.095	-0.352
-329.187	-1.409	0.241	0.170
-328.172	-72.109	0.112	-0.041
-327.158	128.907	0.140	0.179
-326.143	-35.167	0.047	-0.026
-325.129	-153.050	0.169	-0.012
-324.114	-94.319	-0.130	-0.036
-323.099	84.200	-0.186	0.203
-322.085	-200.000	-0.008	0.046
-321.070	-174.073	0.127	-0.004
-320.056	580.845	0.202	-0.496
-319.041	-166.361	-0.360	-0.015
-318.026	54.714	-0.171	0.165
-317.012	-103.227	-0.098	-0.023
-315.997	-155.558	-0.134	-0.009
-314.983	-145.922	0.116	0.010
-313.968	800.000	0.056	-0.214
-312.953	63.774	-0.095	0.096
-311.939	-200.000	0.067	0.381
-310.924	-162.693	0.288	-0.014
-309.910	800.000	-0.060	0.217
-308.895	-147.775	-0.220	-0.018
-307.880	40.309	-0.189	0.170
-306.866	-32.258	-0.067	-0.037
-305.851	294.679	0.104	-0.189
-304.837	182.437	-0.165	-0.242
-303.822	-144.788	0.348	0.032
-302.807	800.000	0.017	0.072
-301.793	534.458	-0.103	0.245
-300.778	-200.000	-0.007	-0.162
-299.764	800.000	-0.058	-0.208
-298.749	-176.015	-0.331	-0.009
-297.735	630.786	0.060	-0.152
-296.720	-40.054	0.042	-0.022
-295.705	532.812	-0.101	0.238
-294.691	-141.260	0.327	-0.033
-293.676	-25.632	-0.079	0.047
-292.662	-167.216	-0.249	-0.010
-291.647	24.921	0.183	0.151
-290.632	186.766	0.106	-0.158
-289.618	-82.221	-0.249	0.081
-288.603	800.000	0.068	-0.200
-287.589	54.369	0.056	0.054
-286.574	122.990	0.195	-0.244
-285.559	243.191	-0.047	-0.079
-284.545	-131.910	0.166	-0.022
-283.530	-56.351	-0.147	0.065
-282.516	-78.010	-0.408	0.140
-281.501	-200.000	-0.014	-0.278
-280.486	-38.562	-0.246	0.130
-279.472	-63.287	-0.306	0.126
-278.457	54.454	-0.216	0.208
-277.443	-21.440	-0.215	-0.131
-276.428	-140.247	0.153	-0.016
-275.413	-200.000	0.068	0.304
-274.399	162.953	0.041	0.057
-273.384	-74.986	0.151	0.054
-272.370	82.343	0.066	-0.072
-271.355	-95.366	-0.200	0.054
-270.340	90.412	0.104	-0.116
-269.326	17.492	0.320	-0.254
-268.311	-200.000	0.005	-0.224
-267.297	-150.424	0.219	-0.017
-266.282	-51.455	-0.263	0.122
-265.267	-108.520	0.335	0.072
-264.253	-44.466	0.015	0.007
-263.238	541.082	0.111	-0.264
-262.224	326.796	-0.178	0.340
-261.209	-200.000	-0.070	-0.434
-260.195	800.000	0.026	-0.111
-259.180	175.730	-0.131	0.190
-258.165	800.000	-0.027	0.095
-257.151	-200.000	0.001	0.119
-256.136	-60.314	-0.052	-0.022
-255.122	304.233	0.134	0.247
-254.107	-200.000	0.014	-0.408
-253.092	-55.126	-0.068	0.030
-252.078	800.000	0.085	0.255
-251.063	-104.310	-0.221	-0.051
-250.049	-101.549	-0.228	0.055
-249.034	764.166	0.065	-0.175
-248.019	116.436	0.148	-0.181
-247.005	88.517	-0.222	-0.246
-245.990	-20.983	0.170	0.104
-244.976	98.058	0.094	-0.108
-243.961	292.009	-0.155	0.282
-242.946	800.000	-0.028	-0.100
-241.932	-200.000	0.002	-0.150
-240.917	-200.000	0.041	0.197
-239.903	318.103	0.073	-0.139
-238.888	101.871	-0.243	0.283
-237.873	137.713	-0.122	0.160
-236.859	258.659	0.063	0.108
-235.844	-158.733	0.127	0.007
-234.830	-43.546	-0.023	-0.011
-233.815	-154.777	0.054	-0.004
-232.800	-37.590	-0.274	-0.145
-231.786	-139.135	0.073	-0.008
-230.771	-200.000	0.048	0.507
-229.757	123.328	-0.065	0.081
-228.742	91.998	0.265	0.298
-227.727	-200.000	0.028	-0.283
-226.713	800.000	0.062	-0.236
-225.698	-14.386	0.235	-0.151
-224.684	-102.316	0.278	0.066
-223.669	217.527	-0.052	0.083
-222.655	-111.292	-0.120	-0.024
-221.640	239.928	-0.079	-0.131
-220.625	5.051	0.196	0.144
-219.611	-200.000	-0.005	0.188
-218.596	-200.000	0.097	-0.505
-217.582	175.751	0.138	0.200
-216.567	359.227	0.051	-0.101
-215.552	138.034	0.211	0.275
-214.538	90.698	-0.038	-0.043
-213.523	-101.190	0.271	-0.066
-212.509	-70.791	0.243	-0.091
-211.494	160.965	0.196	-0.272
-210.479	46.907	-0.071	0.066
-209.465	39.351	-0.236	0.210
-208.450	800.000	0.067	0.191
-207.436	800.000	0.055	-0.220
-206.421	40.517	-0.267	0.239
-205.406	-200.000	0.006	-0.134
-204.392	-50.546	0.345	0.162
-203.377	-1.124	0.276	-0.194
-202.363	-146.162	0.240	0.021
-201.348	46.581	0.246	0.227
-200.333	-0.649	-0.106	-0.075
-199.319	-91.809	-0.071	0.020
-198.304	-150.501	0.158	-0.012
-197.290	-18.297	0.184	0.115
-196.275	-143.193	0.237	0.023
-195.260	-62.499	0.167	-0.069
-194.246	-200.000	0.010	0.064
-193.231	-200.000	0.003	0.289
-192.217	29.499	0.032	0.027
-191.202	-200.000	-0.010	-0.118
-190.187	206.545	0.199	-0.307
-189.173	-200.000	0.024	0.282
-188.158	-200.000	-0.041	0.272
-187.144	216.999	-0.037	0.058
-186.129	0.868	-0.066	-0.047
-185.114	-83.288	-0.323	-0.103
-184.100	48.186	-0.248	-0.230
-183.085	50.835	-0.136	-0.128
-182.071	162.781	0.119	-0.166
-181.056	-200.000	-0.027	-0.161
-180.042	-157.295	-0.201	-0.012
-179.027	-47.591	0.180	-0.087
-178.012	91.806	0.068	0.077
-176.998	-200.000	0.062	0.376
-175.983	551.136	0.117	0.280
-174.969	64.447	-0.161	-0.161
-173.954	448.774	-0.137	0.299
-172.939	-200.000	0.012	0.186
-171.925	297.230	0.154	0.281
-170.910	50.425	-0.112	-0.105
-169.896	-200.000	-0.048	0.507
-168.881	175.754	-0.155	0.223
-167.866	800.000	-0.076	0.251
-166.852	800.000	-0.066	0.193
-165.837	-200.000	-0.002	0.219
-164.823	-140.747	0.104	0.011
-163.808	243.322	0.102	0.170
-162.793	-15.816	0.083	-0.052
-161.779	58.102	-0.196	0.191
-160.764	88.069	-0.094	-0.103
-159.750	800.000	-0.052	0.181
-158.735	-98.181	0.246	-0.063
-157.720	269.782	-0.062	-0.108
-156.706	-75.179	-0.185	-0.066
-155.691	175.188	0.137	0.196
-154.677	-42.170	-0.276	-0.140
-153.662	-32.462	0.223	0.124
-152.647	-153.061	-0.185	-0.013
-151.633	227.028	0.155	-0.249
-150.618	-44.871	0.048	-0.024
-149.604	-153.000	0.232	-0.016
-148.589	-10.349	0.063	-0.041
-147.574	-141.747	-0.449	-0.045
-146.560	-38.025	0.065	0.034
-145.545	79.287	-0.205	0.218
-144.531	152.366	-0.159	-0.215
-143.516	244.329	-0.170	0.284
-142.502	800.000	-0.117	0.353
-141.487	800.000	0.054	0.204
-140.472	-200.000	0.021	-0.272
-139.458	-200.000	0.014	0.142
-138.443	-160.627	-0.384	-0.020
-137.429	-80.560	0.367	-0.121
-136.414	-2.301	-0.282	-0.196
-135.399	-142.753	0.242	0.023
-134.385	182.162	-0.089	0.130
-133.370	-68.474	-0.126	0.048
-132.356	-100.595	0.165	0.041
-131.341	-166.885	-0.451	0.018
-130.326	164.142	0.172	0.240
-129.312	600.765	0.101	-0.250
-128.297	-200.000	-0.003	0.025
-127.283	265.512	-0.160	-0.276
-126.268	-91.738	0.166	-0.047
-125.253	-8.157	0.148	-0.099
-124.239	394.213	-0.139	0.287
-123.224	-83.107	0.129	0.041
-122.210	-40.967	-0.049	0.025
-121.195	226.206	0.171	-0.276
