DTS Sentinel unit serial number:	SN413079Multiplexer serial number:	ORYXHardware model number:	OX4-SRSoftware version number:	ORYX F/W v4.00 Oryx Data Collector v3.7.2.0data status	okinstallation	princeton_trtdifferential loss correction	single-endedforward channel	channel 1reverse channel	N/Adate	2019/09/14time	05:46:35forward acquisition time	60.00reverse acquisition time	0.00gamma	496.2192k internal	0.2334k external	0.2334temperature offset calibration	1.0081default loss term (dB/km)	0.3790temperature slope calibration	1.0000multiplexer offset coefficient	1.0000multiplexer slope coefficient	1.0000fibre end	0.00T internal ref (°C)	26.92T ext. ref 1 (°C)	3.40T ext. ref 2 (°C)	21.59length (m)	temperature (°C)	Stokes	anti-Stokes-747.200	-87.272	-0.478	-0.146
-746.185	178.384	-0.092	0.136
-745.171	800.000	0.038	0.116
-744.156	-200.000	-0.003	0.166
-743.142	-147.933	-0.382	-0.032
-742.127	-200.000	-0.036	0.197
-741.112	-200.000	-0.084	0.531
-740.098	800.000	-0.065	0.258
-739.083	-200.000	0.021	0.101
-738.069	-11.728	-0.316	0.208
-737.054	580.291	-0.034	-0.084
-736.039	-68.574	-0.470	-0.183
-735.025	-200.000	0.035	0.211
-734.010	-105.558	-0.303	-0.069
-732.996	-200.000	-0.007	-0.267
-731.981	-44.002	-0.110	-0.055
-730.966	72.277	-0.223	-0.233
-729.952	-31.378	-0.141	-0.080
-728.937	-89.216	-0.042	0.012
-727.923	60.633	0.224	-0.223
-726.908	-200.000	-0.020	-0.151
-725.894	57.565	-0.230	-0.226
-724.879	-21.584	-0.131	-0.080
-723.864	-200.000	0.050	-0.548
-722.850	-9.570	-0.149	0.100
-721.835	-98.860	-0.216	-0.055
-720.821	800.000	-0.073	-0.204
-719.806	-21.196	0.190	-0.117
-718.791	277.090	0.080	-0.143
-717.777	363.282	0.077	-0.156
-716.762	311.740	0.216	-0.407
-715.748	-200.000	-0.021	-0.187
-714.733	800.000	0.056	-0.180
-713.718	-200.000	-0.018	-0.414
-712.704	10.332	-0.128	-0.098
-711.689	-200.000	-0.068	0.315
-710.675	55.683	-0.223	-0.217
-709.660	258.347	0.250	-0.433
-708.645	533.087	0.050	0.119
-707.631	-63.274	-0.194	0.080
-706.616	102.661	-0.066	-0.077
-705.602	800.000	0.059	-0.204
-704.587	-200.000	0.026	-0.142
-703.572	102.235	-0.195	-0.229
-702.558	-200.000	-0.032	-0.184
-701.543	-12.435	-0.098	-0.065
-700.529	-195.195	-0.187	-0.001
-699.514	-120.084	-0.300	-0.052
-698.499	131.660	-0.262	-0.338
-697.485	-146.954	-0.087	0.007
-696.470	800.000	0.094	0.309
-695.456	-77.345	-0.436	0.152
-694.441	11.303	0.143	-0.110
-693.426	-200.000	0.049	-0.227
-692.412	102.045	0.065	-0.076
-691.397	-85.499	0.225	-0.070
-690.383	-200.000	0.001	-0.382
-689.368	530.474	-0.082	0.195
-688.354	-200.000	0.053	0.253
-687.339	-33.173	-0.189	-0.105
-686.324	-171.764	0.368	-0.012
-685.310	-200.000	-0.005	0.083
-684.295	146.702	0.099	-0.134
-683.281	-128.935	0.128	-0.018
-682.266	-82.054	-0.294	0.096
-681.251	93.596	0.158	0.180
-680.237	-100.657	-0.125	0.031
-679.222	-38.493	0.147	-0.078
-678.208	-87.218	-0.133	0.040
-677.193	-43.384	0.150	0.076
-676.178	402.164	0.094	0.198
-675.164	800.000	-0.056	0.155
-674.149	-200.000	0.003	-0.081
-673.135	800.000	0.030	-0.113
-672.120	-52.047	-0.124	-0.058
-671.105	-0.529	-0.409	0.291
-670.091	209.618	0.043	-0.068
-669.076	800.000	0.069	-0.257
-668.062	-108.059	-0.297	-0.065
-667.047	-109.210	0.351	-0.075
-666.032	-45.837	-0.138	-0.068
-665.018	617.673	-0.079	0.198
-664.003	-200.000	-0.099	0.498
-662.989	-2.211	0.256	0.180
-661.974	-200.000	-0.017	0.176
-660.959	753.611	0.086	0.234
-659.945	57.884	-0.084	-0.082
-658.930	-200.000	0.015	-0.377
-657.916	394.349	-0.108	-0.225
-656.901	-17.307	-0.557	0.351
-655.886	800.000	0.067	0.188
-654.872	-22.735	0.212	0.128
-653.857	-133.991	0.086	-0.011
-652.843	800.000	0.066	0.207
-651.828	-57.346	-0.228	0.100
-650.814	-200.000	-0.054	-0.381
-649.799	-107.457	0.241	-0.053
-648.784	-122.029	-0.446	0.073
-647.770	-72.239	-0.293	0.109
-646.755	-128.926	0.047	0.007
-645.741	42.705	0.210	-0.192
-644.726	-0.922	-0.111	0.078
-643.711	800.000	-0.073	-0.309
-642.697	18.343	-0.282	-0.225
-641.682	-21.453	0.123	0.075
-640.668	-200.000	0.001	-0.238
-639.653	-200.000	-0.021	-0.146
-638.638	-169.109	-0.115	-0.004
-637.624	134.035	-0.118	-0.153
-636.609	158.988	0.080	-0.111
-635.595	-159.610	0.178	0.010
-634.580	151.180	-0.059	0.080
-633.565	85.121	-0.251	0.275
-632.551	-200.000	-0.013	-0.203
-631.536	292.262	-0.063	-0.114
-630.522	-39.289	0.251	0.132
-629.507	-200.000	-0.026	0.221
-628.492	-200.000	-0.010	0.162
-627.478	39.280	-0.240	-0.215
-626.463	-200.000	0.008	-0.147
-625.449	-12.155	0.136	-0.089
-624.434	-57.545	0.203	0.089
-623.419	800.000	0.041	-0.114
-622.405	-200.000	-0.014	0.189
-621.390	-49.766	0.282	0.134
-620.376	-23.513	0.020	-0.012
-619.361	214.442	0.042	0.066
-618.346	-178.047	-0.333	0.008
-617.332	32.645	0.111	-0.096
-616.317	97.490	0.153	0.176
-615.303	-78.129	-0.377	0.130
-614.288	21.446	0.489	0.398
-613.273	-49.867	-0.184	0.088
-612.259	-163.993	0.315	-0.015
-611.244	-112.450	0.167	0.033
-610.230	-45.974	-0.051	-0.025
-609.215	179.011	-0.076	0.111
-608.201	-89.355	0.134	0.039
-607.186	-161.316	0.062	-0.003
-606.171	-193.730	0.433	-0.004
-605.157	67.739	-0.163	0.167
-604.142	54.365	-0.167	0.161
-603.128	-64.550	-0.123	0.050
-602.113	-90.746	-0.200	0.058
-601.098	800.000	-0.042	-0.134
-600.084	800.000	-0.055	-0.232
-599.069	-58.423	-0.213	0.093
-598.055	-200.000	0.011	-0.117
-597.040	612.329	0.103	0.258
-596.025	158.772	0.145	-0.201
-595.011	-143.679	-0.146	-0.014
-593.996	95.288	0.315	-0.358
-592.982	-171.635	0.124	-0.004
-591.967	800.000	-0.067	-0.210
-590.952	6.019	0.224	-0.166
-589.938	-200.000	0.009	-0.169
-588.923	60.304	-0.168	-0.166
-587.909	800.000	0.087	-0.277
-586.894	187.227	0.263	-0.392
-585.879	346.903	-0.111	0.218
-584.865	411.636	-0.068	-0.145
-583.850	145.219	-0.114	0.152
-582.836	-60.491	0.181	-0.077
-581.821	-174.111	-0.220	0.006
-580.806	52.094	0.157	-0.149
-579.792	345.866	0.092	-0.181
-578.777	394.803	-0.130	0.270
-577.763	-95.715	0.118	-0.032
-576.748	-186.956	-0.145	-0.002
-575.733	141.092	0.115	0.151
-574.719	-37.298	0.036	0.019
-573.704	-78.207	0.113	-0.039
-572.690	-147.552	-0.250	-0.021
-571.675	-143.048	-0.219	0.021
-570.661	-200.000	-0.054	-0.382
-569.646	-200.000	-0.023	-0.273
-568.631	-128.634	-0.085	-0.012
-567.617	95.256	0.178	0.202
-566.602	-96.954	0.250	-0.065
-565.588	-119.567	0.299	-0.052
-564.573	-91.419	0.317	-0.090
-563.558	800.000	-0.071	0.201
-562.544	-200.000	-0.012	-0.095
-561.529	40.691	-0.375	-0.338
-560.515	-9.348	0.191	-0.127
-559.500	-200.000	-0.004	0.042
-558.485	-1.684	0.289	-0.203
-557.471	-60.356	-0.157	-0.067
-556.456	-64.378	-0.377	0.153
-555.442	-200.000	-0.082	-0.537
-554.427	20.794	-0.113	0.091
-553.412	-43.361	-0.373	0.188
-552.398	12.727	0.196	0.151
-551.383	-200.000	0.014	0.139
-550.369	236.989	-0.189	-0.313
-549.354	-74.488	-0.176	0.063
-548.339	800.000	0.046	-0.172
-547.325	800.000	-0.111	-0.452
-546.310	-145.944	-0.335	-0.030
-545.296	-124.790	-0.199	-0.031
-544.281	-200.000	-0.010	0.144
-543.266	-200.000	0.064	0.323
-542.252	-200.000	0.017	-0.151
-541.237	800.000	-0.070	-0.207
-540.223	56.987	-0.297	-0.288
-539.208	-20.547	0.309	-0.189
-538.193	-24.060	-0.117	-0.070
-537.179	-200.000	-0.031	0.146
-536.164	-59.138	0.290	-0.124
-535.150	57.097	-0.096	0.093
-534.135	106.568	0.059	-0.070
-533.121	-200.000	-0.015	0.091
-532.106	-14.337	-0.149	0.095
-531.091	-15.472	0.266	-0.170
-530.077	-200.000	0.061	-0.302
-529.062	-70.013	-0.251	0.095
-528.048	97.452	0.210	-0.241
-527.033	-72.941	-0.140	-0.051
-526.018	-62.888	0.228	-0.094
-525.004	504.693	0.128	-0.296
-523.989	44.633	0.179	0.164
-522.975	-46.697	0.176	-0.086
-521.960	-63.779	-0.147	0.060
-520.945	88.656	0.137	0.152
-519.931	-37.776	0.151	0.080
-518.916	52.414	0.033	-0.032
-517.902	325.886	0.173	-0.329
-516.887	-200.000	0.043	-0.209
-515.872	588.844	0.183	0.448
-514.858	183.123	0.082	-0.121
-513.843	558.883	0.242	-0.582
-512.829	-121.461	-0.119	-0.020
-511.814	-200.000	-0.141	0.001
-510.799	-112.965	0.383	-0.076
-509.785	225.467	-0.012	-0.020
-508.770	-200.000	-0.017	0.197
-507.756	-112.694	0.109	0.022
-506.741	-164.105	-0.155	0.007
-505.726	47.344	0.096	-0.089
-504.712	63.047	0.166	-0.165
-503.697	102.268	0.203	-0.237
-502.683	360.266	0.073	0.145
-501.668	105.825	-0.086	0.101
-500.653	128.643	-0.124	0.158
-499.639	-112.456	-0.032	0.006
-498.624	34.478	0.123	-0.107
-497.610	-103.447	0.285	0.067
-496.595	83.391	0.050	0.054
-495.581	-61.604	-0.132	0.055
-494.566	-186.987	-0.132	0.002
-493.551	-51.457	0.090	-0.042
-492.537	-96.099	-0.273	0.072
-491.522	15.828	0.168	0.132
-490.508	726.818	0.102	-0.271
-489.493	-176.949	-0.122	-0.003
-488.478	-156.639	-0.156	-0.010
-487.464	23.697	0.040	0.033
-486.449	-200.000	-0.022	-0.099
-485.435	96.386	0.118	0.134
-484.420	148.161	0.128	-0.172
-483.405	522.981	0.120	-0.280
-482.391	-5.077	0.096	0.066
-481.376	-21.363	0.065	-0.039
-480.362	800.000	-0.093	-0.332
-479.347	444.167	0.031	-0.069
-478.332	800.000	-0.043	0.144
-477.318	45.092	-0.052	0.047
-476.303	-200.000	0.001	0.069
-475.289	558.141	-0.043	0.104
-474.274	-20.593	0.051	0.031
-473.259	330.251	-0.081	-0.155
-472.245	800.000	0.044	0.153
-471.230	-142.816	0.156	0.015
-470.216	37.665	-0.060	-0.053
-469.201	-200.000	0.003	-0.024
-468.186	-116.231	0.080	-0.015
-467.172	485.780	-0.106	0.240
-466.157	46.591	0.060	-0.055
-465.143	-72.878	0.199	-0.073
-464.128	-17.276	0.293	0.183
-463.113	36.912	-0.173	0.152
-462.099	457.435	-0.029	-0.063
-461.084	-133.363	-0.155	0.019
-460.070	800.000	0.050	0.195
-459.055	-130.819	-0.174	0.023
-458.040	-71.971	0.353	-0.131
-457.026	-163.431	0.294	-0.014
-456.011	-112.403	0.315	-0.063
-454.997	136.493	-0.105	0.137
-453.982	-200.000	0.083	0.404
-452.968	542.269	-0.065	0.155
-451.953	-5.909	-0.329	-0.224
-450.938	40.378	-0.163	0.146
-449.924	133.380	-0.055	-0.070
-448.909	-136.860	-0.023	-0.003
-447.895	-200.000	0.025	0.125
-446.880	43.919	-0.251	-0.229
-445.865	-200.000	0.007	0.460
-444.851	-200.000	-0.030	0.267
-443.836	105.257	0.291	-0.341
-442.822	192.450	0.163	-0.244
-441.807	-200.000	0.001	0.041
-440.792	69.591	-0.205	-0.209
-439.778	-200.000	0.011	0.105
-438.763	45.312	0.209	-0.191
-437.749	229.952	0.182	0.295
-436.734	132.237	0.036	-0.046
-435.719	34.105	0.120	0.104
-434.705	20.415	0.228	0.183
-433.690	-61.990	0.214	-0.089
-432.676	-69.688	-0.094	-0.036
-431.661	-24.812	-0.136	0.080
-430.646	-58.828	-0.213	-0.092
-429.632	58.669	-0.089	0.087
-428.617	-0.010	-0.358	-0.253
-427.603	-101.939	-0.124	-0.030
-426.588	-78.001	-0.062	-0.021
-425.573	-99.555	0.205	-0.051
-424.559	111.357	0.112	0.135
-423.544	24.100	-0.051	-0.041
-422.530	184.218	-0.178	0.262
-421.515	800.000	0.055	-0.204
-420.500	119.980	0.049	-0.060
-419.486	7.223	-0.173	-0.128
-418.471	147.583	0.277	-0.370
-417.457	800.000	0.026	0.076
-416.442	-185.816	0.185	0.003
-415.428	-92.285	0.145	0.041
-414.413	300.063	-0.242	-0.442
-413.398	-110.008	-0.230	0.048
-412.384	-87.205	0.211	0.064
-411.369	-200.000	0.013	-0.514
-410.355	715.220	0.082	0.215
-409.340	-145.694	-0.105	-0.009
-408.325	666.464	0.175	-0.449
-407.311	800.000	-0.035	0.136
-406.296	800.000	0.093	-0.342
-405.282	-200.000	-0.036	0.201
-404.267	216.277	-0.154	0.243
-403.252	-61.479	0.211	0.088
-402.238	800.000	-0.190	-0.601
-401.223	250.717	0.165	-0.278
-400.209	-200.000	0.011	-0.181
-399.194	800.000	-0.028	0.108
-398.179	8.029	-0.158	-0.117
-397.165	697.816	-0.150	0.392
-396.150	24.364	-0.158	-0.130
-395.136	97.945	0.150	-0.171
-394.121	-75.346	-0.255	-0.090
-393.106	195.237	-0.085	0.128
-392.092	35.112	0.093	-0.080
-391.077	162.198	0.140	0.194
-390.063	92.171	-0.252	-0.281
-389.048	-200.000	0.000	-0.355
-388.033	-57.797	-0.145	0.063
-387.019	-200.000	0.043	0.309
-386.004	-93.100	0.161	0.044
-384.990	-11.277	-0.245	-0.160
-383.975	-11.688	0.155	-0.101
-382.960	-200.000	-0.060	0.327
-381.946	800.000	0.118	0.365
-380.931	-73.479	0.137	-0.049
-379.917	-200.000	0.018	-0.276
-378.902	-2.121	-0.326	-0.227
-377.888	675.297	0.090	0.232
-376.873	649.008	-0.169	-0.429
-375.858	-157.727	-0.092	0.005
-374.844	-87.029	0.123	-0.037
-373.829	200.350	0.139	0.212
-372.815	-141.110	-0.275	0.028
-371.800	-92.828	0.204	-0.057
-370.785	483.858	-0.116	-0.260
-369.771	-200.000	-0.058	-0.253
-368.756	-29.919	0.196	-0.111
-367.742	-92.391	0.141	-0.039
-366.727	-151.207	0.085	0.006
-365.712	452.105	0.036	0.078
-364.698	44.712	-0.091	-0.083
-363.683	800.000	0.044	0.145
-362.669	5.566	0.221	-0.162
-361.654	-200.000	0.014	0.095
-360.639	375.176	0.091	-0.184
-359.625	-200.000	0.005	0.351
-358.610	156.239	0.269	0.368
-357.596	184.005	0.080	-0.117
-356.581	149.984	-0.217	-0.292
-355.566	-80.250	-0.096	0.032
-354.552	334.436	-0.015	0.028
-353.537	-200.000	-0.001	0.124
-352.523	800.000	-0.047	-0.146
-351.508	-11.189	-0.107	0.070
-350.493	-200.000	-0.064	-0.300
-349.479	141.690	0.131	0.172
-348.464	-18.720	-0.061	0.038
-347.450	201.221	0.081	0.123
-346.435	125.603	0.107	0.134
-345.420	800.000	-0.211	0.599
-344.406	-133.788	0.112	0.014
-343.391	-130.419	-0.212	0.028
-342.377	-100.291	0.135	0.033
-341.362	109.196	-0.077	0.091
-340.348	-145.948	0.304	0.027
-339.333	-38.453	-0.151	0.079
-338.318	55.524	0.203	0.194
-337.304	-200.000	-0.051	0.301
-336.289	-124.522	0.339	-0.052
-335.275	152.338	-0.120	0.162
-334.260	437.492	-0.038	-0.083
-333.245	-117.116	0.093	-0.017
-332.231	-102.208	0.103	-0.024
-331.216	69.287	-0.347	-0.353
-330.202	283.934	0.085	0.150
-329.187	56.767	-0.076	-0.073
-328.172	57.565	0.073	0.071
-327.158	-37.084	0.185	0.098
-326.143	-115.607	-0.213	-0.040
-325.129	-87.195	0.183	0.055
-324.114	445.672	-0.144	-0.313
-323.099	-7.908	0.252	-0.168
-322.085	-200.000	-0.056	0.284
-321.070	-86.208	-0.035	0.011
-320.056	672.095	0.052	0.132
-319.041	-200.000	0.010	0.080
-318.026	-73.778	-0.105	0.038
-317.012	800.000	0.027	0.117
-315.997	-102.218	0.179	0.042
-314.983	106.097	-0.210	0.246
-313.968	-200.000	0.039	0.196
-312.953	800.000	-0.083	0.319
-311.939	58.393	-0.214	0.207
-310.924	-55.882	-0.443	0.195
-309.910	-71.002	0.051	-0.019
-308.895	-97.025	-0.234	0.061
-307.880	-67.075	-0.395	0.154
-306.866	-18.318	0.429	0.265
-305.851	-50.708	0.284	0.132
-304.837	-126.887	-0.167	-0.024
-303.822	-84.711	0.150	-0.047
-302.807	-91.639	-0.104	0.029
-301.793	-43.358	-0.111	-0.056
-300.778	-53.052	0.224	0.102
-299.764	-133.987	-0.029	0.004
-298.749	-144.442	0.283	0.026
-297.735	-200.000	-0.012	-0.117
-296.720	-190.343	0.227	-0.002
-295.705	-48.931	-0.080	0.038
-294.691	-199.826	-0.074	0.000
-293.676	51.955	0.217	-0.204
-292.662	-24.889	-0.090	0.053
-291.647	-200.000	0.015	-0.111
-290.632	336.962	-0.048	-0.093
-289.618	-117.699	-0.324	-0.058
-288.603	158.684	0.114	0.157
-287.589	-76.806	-0.105	-0.036
-286.574	-15.701	0.242	0.152
-285.559	-200.000	-0.056	0.444
-284.545	-200.000	0.033	0.168
-283.530	68.712	0.078	-0.080
-282.516	477.990	-0.089	-0.199
-281.501	135.438	0.295	-0.379
-280.486	498.482	0.089	-0.203
-279.472	-200.000	-0.069	0.368
-278.457	-35.949	-0.159	-0.085
-277.443	-200.000	-0.003	0.207
-276.428	652.247	0.064	0.162
-275.413	-119.060	0.305	0.053
-274.399	525.531	-0.050	0.117
-273.384	-54.817	-0.400	0.178
-272.370	-200.000	-0.031	-0.317
-271.355	-82.437	-0.214	0.069
-270.340	273.432	0.082	-0.143
-269.326	134.900	0.124	0.159
-268.311	-67.572	-0.120	-0.047
-267.297	-102.429	-0.447	0.106
-266.282	214.855	-0.211	0.330
-265.267	800.000	-0.080	0.256
-264.253	800.000	-0.057	-0.237
-263.238	-95.390	0.114	0.030
-262.224	-200.000	-0.028	-0.134
-261.209	-76.058	0.078	0.027
-260.195	-200.000	0.010	0.131
-259.180	800.000	-0.026	0.092
-258.165	-104.507	0.245	0.056
-257.151	800.000	-0.042	-0.153
-256.136	-148.152	-0.343	0.028
-255.122	-91.217	-0.500	-0.141
-254.107	-12.206	0.273	0.176
-253.092	-146.457	-0.336	-0.029
-252.078	-16.027	-0.137	0.086
-251.063	-66.721	0.258	0.101
-250.049	-38.437	-0.156	0.081
-249.034	-17.564	-0.206	-0.128
-248.019	132.234	0.080	0.102
-247.005	-51.081	-0.072	-0.034
-245.990	-189.101	-0.258	0.003
-244.976	90.051	0.141	0.155
-243.961	-200.000	0.021	0.224
-242.946	-65.957	-0.209	-0.082
-241.932	800.000	0.020	0.069
-240.917	-50.737	-0.299	0.139
-239.903	11.283	0.204	-0.154
-238.888	-200.000	-0.002	0.146
-237.873	-39.279	-0.194	0.100
-236.859	467.309	-0.240	0.530
-235.844	-114.684	0.178	-0.033
-234.830	37.688	0.169	0.148
-233.815	750.390	-0.134	-0.357
-232.800	-45.142	-0.144	-0.070
-231.786	800.000	0.055	-0.220
-230.771	23.866	-0.168	0.137
-229.757	251.590	0.168	0.281
-228.742	113.737	-0.110	0.132
-227.727	-115.267	-0.272	-0.051
-226.713	-200.000	0.062	0.330
-225.698	-97.514	0.526	-0.135
-224.684	533.068	-0.054	-0.126
-223.669	251.806	-0.128	0.215
-222.655	-200.000	-0.017	0.093
-221.640	800.000	0.063	-0.203
-220.625	14.934	0.419	-0.323
-219.611	-200.000	-0.005	0.130
-218.596	-106.019	-0.325	-0.072
-217.582	397.737	0.049	0.101
-216.567	232.879	-0.107	0.173
-215.552	-11.864	0.314	-0.203
-214.538	800.000	0.038	-0.134
-213.523	-68.322	-0.021	-0.008
-212.509	-133.480	0.138	0.017
-211.494	238.036	0.123	0.200
-210.479	-191.868	-0.335	-0.003
-209.465	25.273	-0.109	-0.089
-208.450	220.804	-0.171	0.270
-207.436	-9.803	-0.059	0.039
-206.421	800.000	0.044	-0.188
-205.406	21.588	-0.122	-0.097
-204.392	-17.932	0.112	-0.069
-203.377	119.290	-0.096	-0.117
-202.363	800.000	0.103	-0.284
-201.348	-67.887	0.219	-0.084
-200.333	543.176	0.231	0.542
-199.319	114.930	-0.011	0.013
-198.304	-197.908	-0.472	-0.003
-197.290	-97.104	0.140	-0.036
-196.275	209.306	0.059	-0.092
-195.260	-200.000	0.042	0.264
-194.246	476.661	-0.028	0.063
-193.231	15.889	-0.147	0.114
-192.217	800.000	-0.028	0.098
-191.202	-157.022	-0.261	-0.016
-190.187	-6.378	-0.080	-0.053
-189.173	-32.932	0.094	-0.051
-188.158	800.000	-0.048	0.141
-187.144	-149.876	-0.182	0.014
-186.129	-147.488	-0.099	0.008
-185.114	-132.404	-0.347	0.044
-184.100	199.630	0.158	-0.239
-183.085	46.023	-0.162	0.148
-182.071	24.748	-0.287	0.233
-181.056	-21.545	0.106	-0.064
-180.042	87.395	-0.367	-0.400
-179.027	218.813	0.084	0.132
-178.012	-57.080	0.250	-0.108
-176.998	-200.000	-0.009	0.089
-175.983	-189.172	0.118	0.001
-174.969	177.489	0.124	-0.178
-173.954	156.238	0.164	0.222
-172.939	-35.644	-0.187	0.100
-171.925	303.858	-0.073	0.133
-170.910	-133.963	-0.066	-0.008
-169.896	74.335	0.218	-0.225
-168.881	91.675	-0.116	0.128
-167.866	484.110	0.094	-0.211
-166.852	173.260	-0.228	0.323
-165.837	-200.000	0.036	0.170
-164.823	14.688	0.150	0.115
-163.808	277.068	0.115	-0.201
-162.793	-155.601	0.281	-0.018
-161.779	-1.447	-0.158	-0.110
-160.764	-3.593	-0.157	0.108
-159.750	52.951	0.164	0.155
-158.735	-87.925	-0.240	0.071
-157.720	-130.353	0.256	-0.034
-156.706	-98.117	0.154	0.039
-155.691	-10.871	-0.152	-0.098
-154.677	264.784	0.217	0.370
-153.662	439.220	0.063	0.136
-152.647	-200.000	0.086	0.409
-151.633	-141.193	0.249	-0.025
-150.618	800.000	-0.059	0.194
-149.604	307.252	0.109	0.199
-148.589	410.462	-0.030	0.062
-147.574	-200.000	-0.008	0.095
-146.560	7.202	0.137	-0.101
-145.545	-56.116	0.323	-0.141
-144.531	-21.299	-0.302	-0.181
-143.516	-31.346	-0.191	0.105
-142.502	800.000	0.055	-0.175
-141.487	-19.936	-0.199	-0.120
-140.472	4.944	0.292	0.211
-139.458	46.292	0.125	-0.114
-138.443	73.776	0.097	0.100
-137.429	180.861	0.175	0.252
-136.414	-55.452	-0.158	0.070
-135.399	642.914	0.093	-0.234
-134.385	67.739	-0.189	0.189
-133.370	800.000	-0.070	0.282
-132.356	800.000	-0.098	0.333
-131.341	510.378	0.196	0.447
-130.326	235.903	-0.075	0.121
-129.312	288.770	-0.076	0.136
-128.297	-16.811	-0.164	0.101
-127.283	720.160	0.121	0.316
-126.268	-31.844	0.206	0.113
-125.253	-84.991	-0.284	0.087
-124.239	800.000	-0.037	0.105
-123.224	800.000	-0.070	0.229
-122.210	-200.000	-0.031	0.161
-121.195	58.075	-0.049	0.047
