DTS Sentinel unit serial number:	SN413079Multiplexer serial number:	ORYXHardware model number:	OX4-SRSoftware version number:	ORYX F/W v4.00 Oryx Data Collector v3.7.2.0data status	okinstallation	princeton_trtdifferential loss correction	single-endedforward channel	channel 1reverse channel	N/Adate	2019/09/16time	04:38:35forward acquisition time	60.00reverse acquisition time	0.00gamma	496.2192k internal	0.2332k external	0.2332temperature offset calibration	0.9987default loss term (dB/km)	0.3790temperature slope calibration	1.0000multiplexer offset coefficient	1.0000multiplexer slope coefficient	1.0000fibre end	0.00T internal ref (°C)	27.19T ext. ref 1 (°C)	10.90T ext. ref 2 (°C)	21.44length (m)	temperature (°C)	Stokes	anti-Stokes-747.200	-200.000	-0.066	0.295
-746.185	737.901	-0.184	0.496
-745.171	-200.000	0.040	0.184
-744.156	800.000	-0.072	0.223
-743.142	231.316	-0.179	-0.296
-742.127	33.892	0.384	0.336
-741.112	76.497	0.016	0.017
-740.098	106.156	-0.284	0.339
-739.083	-200.000	-0.017	0.169
-738.069	4.257	0.045	0.033
-737.054	630.366	0.051	-0.129
-736.039	800.000	0.019	-0.065
-735.025	-10.008	0.048	0.032
-734.010	-12.177	-0.182	0.120
-732.996	646.172	0.078	-0.200
-731.981	203.327	0.072	0.111
-730.966	800.000	-0.057	0.248
-729.952	-200.000	-0.047	-0.267
-728.937	-93.759	0.225	0.062
-727.923	57.751	-0.070	0.069
-726.908	-105.375	-0.286	-0.065
-725.894	-82.456	-0.370	-0.121
-724.879	81.753	-0.140	-0.152
-723.864	35.433	-0.204	0.180
-722.850	11.157	-0.110	0.084
-721.835	-90.286	0.219	-0.064
-720.821	94.778	0.197	0.225
-719.806	-0.420	-0.359	-0.257
-718.791	759.299	-0.126	0.344
-717.777	651.969	-0.034	0.087
-716.762	165.488	-0.077	-0.109
-715.748	256.722	0.090	0.156
-714.733	800.000	-0.178	0.499
-713.718	38.404	-0.098	-0.087
-712.704	-200.000	-0.003	-0.233
-711.689	80.670	0.126	-0.136
-710.675	128.785	-0.176	0.226
-709.660	-200.000	0.001	-0.117
-708.645	-126.358	-0.193	0.029
-707.631	-59.551	-0.076	-0.033
-706.616	-33.308	-0.108	0.060
-705.602	319.484	-0.106	0.202
-704.587	101.443	0.147	-0.172
-703.572	20.264	-0.141	0.115
-702.558	586.071	-0.103	0.254
-701.543	41.547	0.341	-0.310
-700.529	-200.000	-0.018	0.095
-699.514	58.116	-0.109	0.107
-698.499	-200.000	0.047	-0.256
-697.485	-124.816	-0.162	-0.025
-696.470	-183.336	-0.095	0.002
-695.456	514.529	0.172	-0.404
-694.441	351.920	-0.225	-0.447
-693.426	-200.000	0.035	0.203
-692.412	-116.467	-0.065	0.012
-691.397	800.000	-0.086	-0.275
-690.383	105.619	-0.239	-0.283
-689.368	302.373	0.034	0.064
-688.354	127.047	-0.146	-0.186
-687.339	-65.028	-0.385	0.156
-686.324	56.604	0.208	-0.203
-685.310	74.859	0.079	-0.083
-684.295	303.373	0.019	-0.035
-683.281	166.413	0.080	0.114
-682.266	-200.000	0.057	-0.298
-681.251	-91.447	-0.407	-0.117
-680.237	18.751	-0.024	0.019
-679.222	-200.000	-0.005	-0.186
-678.208	7.864	-0.219	-0.165
-677.193	-200.000	0.051	-0.369
-676.178	-74.842	-0.131	0.047
-675.164	370.419	0.099	0.201
-674.149	247.391	-0.149	0.253
-673.135	64.320	0.236	-0.238
-672.120	-17.618	-0.370	-0.233
-671.105	800.000	-0.087	0.349
-670.091	-15.976	-0.050	-0.032
-669.076	471.222	-0.074	0.167
-668.062	-46.892	-0.172	0.084
-667.047	-127.174	0.197	-0.029
-666.032	-72.260	0.153	-0.057
-665.018	134.808	0.324	-0.421
-664.003	800.000	0.064	-0.240
-662.989	109.644	0.118	0.142
-661.974	-200.000	0.044	-0.360
-660.959	-137.536	0.188	-0.021
-659.945	-19.120	-0.392	-0.244
-658.930	-145.509	-0.138	0.012
-657.916	-171.628	0.376	-0.012
-656.901	-107.274	0.256	0.056
-655.886	-91.221	-0.298	0.086
-654.872	800.000	-0.039	-0.155
-653.857	-192.595	-0.205	-0.002
-652.843	10.877	0.349	-0.267
-651.828	596.102	-0.153	-0.379
-650.814	800.000	-0.127	0.371
-649.799	408.608	0.096	0.205
-648.784	-200.000	-0.035	-0.277
-647.770	-200.000	-0.004	0.082
-646.755	-79.495	0.197	0.067
-645.741	-183.676	-0.388	-0.007
-644.726	349.477	-0.075	-0.149
-643.711	-107.373	-0.200	0.044
-642.697	-37.057	-0.185	-0.099
-641.682	-137.552	-0.160	0.018
-640.668	-200.000	0.006	0.102
-639.653	-63.344	0.208	-0.086
-638.638	-133.603	0.276	0.035
-637.624	169.674	0.080	-0.114
-636.609	-200.000	0.011	0.120
-635.595	-21.330	-0.224	-0.137
-634.580	-59.612	-0.122	0.053
-633.565	-107.466	-0.017	-0.004
-632.551	-200.000	-0.027	-0.193
-631.536	-200.000	0.005	-0.201
-630.522	-71.877	0.316	-0.118
-629.507	-84.923	-0.250	0.079
-628.492	-54.114	-0.247	0.113
-627.478	-123.779	-0.236	-0.037
-626.463	-37.174	0.112	0.060
-625.449	-38.210	-0.306	-0.162
-624.434	-200.000	0.019	-0.363
-623.419	-43.614	-0.260	0.131
-622.405	376.760	0.094	0.192
-621.390	-30.431	-0.073	-0.041
-620.376	36.172	0.176	-0.155
-619.361	800.000	-0.132	-0.453
-618.346	-97.007	-0.422	-0.111
-617.332	-110.815	-0.029	-0.006
-616.317	-58.358	-0.364	-0.158
-615.303	800.000	0.021	0.081
-614.288	10.190	-0.146	0.111
-613.273	-131.298	-0.285	-0.038
-612.259	121.486	-0.177	0.220
-611.244	-200.000	-0.056	0.301
-610.230	-61.131	-0.368	0.155
-609.215	304.909	0.070	-0.130
-608.201	165.696	0.025	-0.036
-607.186	-200.000	0.003	0.064
-606.171	-20.619	0.413	-0.254
-605.157	353.713	-0.271	-0.538
-604.142	47.853	0.225	-0.211
-603.128	4.388	-0.210	0.154
-602.113	-165.462	0.323	-0.014
-601.098	-200.000	0.023	-0.159
-600.084	-93.565	0.067	0.019
-599.069	26.770	-0.092	-0.077
-598.055	200.662	0.075	0.115
-597.040	-200.000	-0.002	0.246
-596.025	378.521	0.048	-0.098
-595.011	103.974	0.144	-0.169
-593.996	800.000	0.088	-0.300
-592.982	149.109	0.102	0.137
-591.967	85.862	-0.085	-0.093
-590.952	253.474	-0.105	-0.179
-589.938	-200.000	-0.027	-0.236
-588.923	-108.861	-0.169	-0.036
-587.909	-200.000	-0.013	-0.077
-586.894	-128.094	-0.052	-0.007
-585.879	5.729	0.266	-0.196
-584.865	120.046	-0.121	-0.149
-583.850	272.241	0.146	0.258
-582.836	-74.301	-0.190	0.068
-581.821	-46.447	-0.167	0.082
-580.806	-88.856	0.174	0.052
-579.792	-200.000	-0.019	0.348
-578.777	29.387	0.188	0.159
-577.763	-51.946	0.216	-0.100
-576.748	-55.177	-0.284	-0.127
-575.733	-85.651	-0.080	0.025
-574.719	-161.338	0.130	0.007
-573.704	-170.822	-0.121	0.004
-572.690	800.000	0.049	0.139
-571.675	459.881	-0.094	-0.209
-570.661	-144.577	-0.275	0.025
-569.646	488.526	0.154	0.352
-568.631	73.588	-0.201	-0.211
-567.617	346.129	-0.136	-0.267
-566.602	-66.908	-0.178	-0.070
-565.588	175.096	0.174	0.251
-564.573	-200.000	0.009	-0.329
-563.558	26.523	0.157	0.131
-562.544	-101.469	0.206	0.050
-561.529	32.558	0.217	-0.187
-560.515	-84.890	0.134	0.042
-559.500	-164.825	0.113	0.005
-558.485	8.127	-0.234	0.175
-557.471	86.888	0.146	0.161
-556.456	-200.000	0.032	-0.168
-555.442	-200.000	-0.000	-0.407
-554.427	-76.647	-0.178	-0.062
-553.412	-22.489	-0.242	0.146
-552.398	133.911	0.166	0.214
-551.383	-23.779	0.324	0.194
-550.369	-14.834	0.130	-0.083
-549.354	153.350	-0.299	0.408
-548.339	71.057	-0.177	0.183
-547.325	191.633	-0.147	-0.220
-546.310	112.650	0.088	-0.106
-545.296	115.525	-0.045	-0.055
-544.281	-47.431	-0.224	-0.109
-543.266	-164.737	0.274	-0.012
-542.252	339.429	-0.182	-0.353
-541.237	293.235	-0.104	0.190
-540.223	-200.000	-0.001	0.157
-539.208	-138.056	-0.227	0.025
-538.193	164.290	0.062	-0.088
-537.179	101.337	-0.149	0.174
-536.164	-199.144	-0.134	-0.001
-535.150	-200.000	-0.010	0.139
-534.135	-1.940	-0.065	0.045
-533.121	800.000	-0.080	0.339
-532.106	14.177	0.104	0.081
-531.091	-191.514	-0.060	-0.001
-530.077	-52.874	-0.387	0.178
-529.062	-78.558	-0.176	0.060
-528.048	574.216	-0.160	0.389
-527.033	-73.734	-0.049	-0.018
-526.018	219.361	0.079	-0.126
-525.004	307.713	-0.098	0.183
-523.989	250.078	-0.171	-0.289
-522.975	-200.000	0.007	0.109
-521.960	800.000	-0.040	-0.116
-520.945	800.000	-0.069	-0.240
-519.931	-2.142	0.063	0.044
-518.916	-101.285	-0.255	0.062
-517.902	-135.867	0.335	-0.039
-516.887	35.042	-0.112	0.098
-515.872	-51.914	-0.075	0.035
-514.858	-200.000	0.082	-0.378
-513.843	-19.602	0.334	0.206
-512.829	-96.973	0.238	0.062
-511.814	-200.000	0.029	-0.158
-510.799	-153.682	0.091	0.006
-509.785	388.260	0.127	0.262
-508.770	-93.234	0.128	0.035
-507.756	-200.000	0.027	-0.260
-506.741	118.731	-0.098	0.121
-505.726	460.327	-0.097	0.215
-504.712	-143.137	0.150	-0.014
-503.697	800.000	-0.075	0.206
-502.683	51.796	0.163	-0.155
-501.668	-200.000	-0.051	-0.402
-500.653	427.866	0.029	-0.061
-499.639	72.462	-0.184	-0.191
-498.624	-77.167	-0.267	0.093
-497.610	800.000	0.076	-0.296
-496.595	-200.000	0.007	0.374
-495.581	7.616	0.107	-0.080
-494.566	-110.742	-0.187	-0.038
-493.551	-200.000	0.059	0.433
-492.537	385.532	-0.101	-0.208
-491.522	8.798	-0.356	0.267
-490.508	50.501	-0.153	-0.144
-489.493	-26.212	-0.111	-0.065
-488.478	-45.100	-0.140	0.069
-487.464	103.839	-0.096	0.113
-486.449	738.485	0.080	0.214
-485.435	373.532	-0.053	0.107
-484.420	-200.000	0.022	0.125
-483.405	-28.115	-0.056	-0.032
-482.391	-120.194	-0.380	-0.065
-481.376	800.000	-0.023	-0.100
-480.362	258.646	0.121	-0.208
-479.347	280.334	0.175	0.312
-478.332	-99.305	-0.191	-0.048
-477.318	78.393	-0.122	0.130
-476.303	109.091	-0.140	0.167
-475.289	-89.906	-0.424	-0.123
-474.274	-171.481	0.336	0.011
-473.259	395.216	0.008	-0.016
-472.245	145.606	0.068	0.090
-471.230	-174.333	0.120	0.003
-470.216	-86.214	-0.564	-0.173
-469.201	1.475	0.267	-0.191
-468.186	-134.169	-0.241	-0.030
-467.172	219.630	-0.148	0.236
-466.157	52.830	-0.290	0.276
-465.143	-89.929	-0.101	0.029
-464.128	104.392	-0.036	-0.042
-463.113	-200.000	0.003	0.039
-462.099	-200.000	-0.018	-0.084
-461.084	159.152	0.142	-0.197
-460.070	-169.046	-0.176	0.007
-459.055	529.479	0.072	0.168
-458.040	-90.573	-0.163	-0.047
-457.026	388.722	0.137	0.281
-456.011	162.872	0.035	0.049
-454.997	73.194	0.197	-0.205
-453.982	107.937	0.160	-0.190
-452.968	-200.000	-0.025	0.198
-451.953	384.984	0.208	0.426
-450.938	193.730	0.229	-0.345
-449.924	83.455	0.112	0.121
-448.909	-200.000	0.015	0.128
-447.895	96.311	-0.036	-0.041
-446.880	281.087	-0.231	0.412
-445.865	-200.000	-0.018	-0.099
-444.851	-112.973	0.139	-0.027
-443.836	413.316	-0.050	-0.105
-442.822	-77.867	-0.179	-0.061
-441.807	22.606	-0.227	0.185
-440.792	800.000	-0.045	0.154
-439.778	229.807	-0.108	0.175
-438.763	206.319	-0.233	-0.360
-437.749	-83.753	-0.276	-0.087
-436.734	46.743	0.169	0.156
-435.719	11.250	0.140	0.106
-434.705	-41.854	0.144	0.073
-433.690	134.699	-0.126	-0.162
-432.676	313.186	-0.106	-0.198
-431.661	102.309	-0.074	-0.086
-430.646	-90.805	0.310	-0.089
-429.632	-27.256	-0.210	0.121
-428.617	-200.000	-0.014	0.069
-427.603	-83.442	0.348	-0.111
-426.588	395.151	0.115	0.238
-425.573	-200.000	0.004	0.039
-424.559	432.019	-0.154	0.331
-423.544	347.657	-0.144	-0.282
-422.530	-27.756	-0.100	0.057
-421.515	280.200	0.105	-0.186
-420.500	53.630	0.120	0.114
-419.486	-84.259	-0.229	-0.072
-418.471	-144.092	0.252	-0.023
-417.457	-124.643	0.152	0.023
-416.442	-198.076	0.122	-0.001
-415.428	-28.788	0.105	-0.060
-414.413	-165.043	0.441	0.019
-413.398	-127.774	0.267	-0.038
-412.384	26.266	-0.247	0.205
-411.369	-43.912	0.226	-0.113
-410.355	436.885	-0.078	-0.169
-409.340	202.065	-0.202	-0.309
-408.325	546.058	-0.049	0.117
-407.311	-200.000	-0.021	0.162
-406.296	86.105	0.222	-0.243
-405.282	-146.382	0.130	-0.011
-404.267	437.692	0.008	-0.018
-403.252	-145.330	-0.050	-0.004
-402.238	-200.000	-0.045	-0.244
-401.223	-200.000	0.004	-0.230
-400.209	800.000	0.064	-0.258
-399.194	116.972	0.181	-0.221
-398.179	-200.000	0.009	0.057
-397.165	-150.972	0.153	0.011
-396.150	800.000	0.101	-0.389
-395.136	124.642	0.292	-0.364
-394.121	-94.497	-0.301	-0.081
-393.106	-73.149	-0.171	0.062
-392.092	-49.623	-0.265	-0.125
-391.077	-200.000	0.022	0.200
-390.063	26.711	0.025	-0.020
-389.048	230.453	0.242	0.393
-388.033	-14.538	0.288	-0.184
-387.019	800.000	0.126	0.397
-386.004	800.000	-0.146	-0.399
-384.990	277.443	-0.174	-0.307
-383.975	18.134	0.137	-0.108
-382.960	14.527	-0.159	0.123
-381.946	76.270	-0.101	0.106
-380.931	800.000	0.056	-0.203
-379.917	-45.664	-0.268	-0.132
-378.902	5.538	-0.171	0.125
-377.888	-97.386	0.121	-0.031
-376.873	-106.114	-0.314	-0.070
-375.858	422.558	-0.138	0.295
-374.844	97.284	-0.106	-0.120
-373.829	-200.000	-0.026	-0.195
-372.815	502.236	0.134	0.307
-371.800	205.309	0.110	0.169
-370.785	-75.096	0.049	-0.017
-369.771	542.350	0.078	-0.183
-368.756	146.567	-0.047	-0.063
-367.742	629.816	-0.055	0.139
-366.727	365.242	-0.072	0.144
-365.712	-57.593	0.311	0.135
-364.698	-32.170	0.216	-0.120
-363.683	800.000	0.071	-0.227
-362.669	561.384	0.064	-0.154
-361.654	-30.891	-0.123	0.069
-360.639	-46.538	0.202	0.098
-359.625	174.258	-0.211	-0.303
-358.610	-7.036	-0.125	0.084
-357.596	-50.910	0.484	-0.225
-356.581	25.112	0.104	0.085
-355.566	-98.031	0.169	0.043
-354.552	-200.000	0.009	0.193
-353.537	-152.112	0.192	0.014
-352.523	-107.174	-0.173	0.038
-351.508	-40.201	0.340	-0.175
-350.493	-66.191	0.418	-0.165
-349.479	-49.568	0.181	-0.085
-348.464	-32.110	0.135	0.075
-347.450	-5.550	-0.068	-0.046
-346.435	4.738	0.263	-0.191
-345.420	-108.167	-0.167	0.036
-344.406	-95.028	-0.126	0.034
-343.391	-137.972	-0.086	0.010
-342.377	800.000	0.061	-0.181
-341.362	3.488	0.063	0.045
-340.348	24.486	0.187	-0.153
-339.333	417.096	0.063	0.133
-338.318	-65.236	0.098	-0.039
-337.304	-108.350	-0.413	-0.088
-336.289	115.793	-0.163	0.197
-335.275	20.195	0.114	0.091
-334.260	-131.121	0.126	-0.017
-333.245	122.037	-0.053	0.065
-332.231	12.311	-0.063	-0.048
-331.216	-88.989	0.425	-0.125
-330.202	-200.000	0.000	0.288
-329.187	32.207	0.255	0.217
-328.172	-20.744	0.025	-0.015
-327.158	-200.000	0.018	0.338
-326.143	-119.864	0.164	0.028
-325.129	235.736	-0.102	0.166
-324.114	-110.809	0.330	0.067
-323.099	-102.028	-0.103	-0.025
-322.085	-54.201	-0.286	-0.129
-321.070	122.634	-0.354	0.438
-320.056	308.142	-0.062	0.114
-319.041	800.000	0.107	0.365
-318.026	600.357	-0.018	0.045
-317.012	-40.920	0.274	-0.140
-315.997	59.059	-0.177	0.172
-314.983	-13.522	-0.013	0.008
-313.968	-200.000	0.002	0.286
-312.953	-147.178	0.111	0.009
-311.939	235.836	0.048	-0.078
-310.924	-133.778	0.199	0.025
-309.910	-184.770	-0.028	0.000
-308.895	14.632	0.209	0.162
-307.880	-153.048	0.064	0.004
-306.866	-200.000	0.072	-0.383
-305.851	800.000	-0.050	-0.156
-304.837	-200.000	-0.005	-0.044
-303.822	106.681	0.120	0.141
-302.807	-108.125	-0.057	-0.012
-301.793	10.863	0.177	-0.133
-300.778	-77.161	0.173	-0.060
-299.764	-154.054	-0.086	-0.006
-298.749	-100.459	-0.153	-0.037
-297.735	-20.205	0.451	0.275
-296.720	281.080	0.104	0.185
-295.705	-53.660	-0.112	0.050
-294.691	-16.099	0.149	-0.093
-293.676	72.868	-0.316	0.326
-292.662	87.342	-0.244	0.267
-291.647	160.502	-0.124	-0.171
-290.632	-53.271	-0.130	0.059
-289.618	-1.820	0.290	-0.202
-288.603	-200.000	-0.004	-0.168
-287.589	341.956	0.144	-0.279
-286.574	-8.229	0.203	0.135
-285.559	-9.702	-0.191	-0.126
-284.545	-98.363	0.217	-0.055
-283.530	3.228	0.103	0.074
-282.516	114.364	-0.111	0.134
-281.501	73.549	-0.177	0.183
-280.486	-128.448	0.276	0.039
-279.472	-153.346	-0.173	0.012
-278.457	62.013	-0.211	0.208
-277.443	57.349	-0.079	-0.076
-276.428	-200.000	-0.028	-0.264
-275.413	800.000	0.091	0.325
-274.399	-23.466	0.190	0.113
-273.384	432.026	-0.137	-0.294
-272.370	-83.846	-0.268	-0.084
-271.355	-200.000	-0.005	0.337
-270.340	-132.713	0.061	0.008
-269.326	800.000	0.068	0.244
-268.311	474.580	0.189	0.420
-267.297	-200.000	-0.037	-0.395
-266.282	800.000	-0.092	0.257
-265.267	-64.758	0.170	-0.068
-264.253	-48.723	0.027	0.013
-263.238	800.000	-0.047	0.166
-262.224	184.654	0.052	-0.076
-261.209	71.330	0.148	-0.151
-260.195	115.623	-0.024	0.029
-259.180	138.772	0.142	0.184
-258.165	528.631	0.105	0.244
-257.151	-200.000	-0.009	-0.099
-256.136	-69.822	-0.281	-0.106
-255.122	-100.691	-0.217	-0.053
-254.107	800.000	-0.021	-0.059
-253.092	-102.438	0.135	-0.032
-252.078	-200.000	-0.027	0.159
-251.063	800.000	0.099	-0.285
-250.049	-52.797	-0.185	0.084
-249.034	108.970	0.123	0.145
-248.019	73.104	0.090	-0.093
-247.005	-58.944	0.218	0.093
-245.990	-200.000	0.009	-0.044
-244.976	-28.180	0.079	-0.045
-243.961	-200.000	0.033	0.297
-242.946	-36.743	-0.045	-0.024
-241.932	97.319	0.076	0.086
-240.917	-8.292	0.263	0.175
-239.903	722.830	-0.039	-0.101
-238.888	251.807	-0.081	-0.137
-237.873	-136.394	0.153	0.018
-236.859	286.063	0.038	-0.068
-235.844	-200.000	0.018	0.123
-234.830	-200.000	0.207	0.000
-233.815	114.337	-0.135	-0.163
-232.800	-86.236	-0.191	0.058
-231.786	-200.000	-0.016	-0.169
-230.771	-200.000	-0.001	0.232
-229.757	-200.000	-0.014	0.400
-228.742	-200.000	-0.060	0.284
-227.727	-200.000	-0.000	-0.216
-226.713	41.067	0.011	-0.010
-225.698	-79.172	0.026	0.009
-224.684	268.662	0.090	-0.156
-223.669	-113.637	0.180	-0.035
-222.655	-74.008	-0.282	0.101
-221.640	199.258	-0.044	0.066
-220.625	800.000	0.040	0.155
-219.611	-101.084	0.300	0.072
-218.596	-200.000	-0.005	0.050
-217.582	800.000	0.054	-0.214
-216.567	124.692	0.187	0.231
-215.552	-22.207	-0.245	-0.146
-214.538	12.828	0.137	-0.105
-213.523	-133.993	0.190	-0.023
-212.509	-45.925	0.133	0.065
-211.494	-43.644	0.126	0.062
-210.479	-200.000	0.065	-0.287
-209.465	6.184	-0.173	0.127
-208.450	365.424	-0.093	0.184
-207.436	-81.560	0.358	0.116
-206.421	27.483	-0.092	0.077
-205.406	275.763	0.143	-0.251
-204.392	-108.102	-0.325	0.069
-203.377	-200.000	-0.010	-0.243
-202.363	237.483	-0.215	0.352
-201.348	-6.042	-0.300	0.202
-200.333	800.000	0.022	0.084
-199.319	39.499	0.169	-0.149
-198.304	800.000	-0.046	-0.144
-197.290	108.121	0.166	-0.195
-196.275	-200.000	0.019	-0.237
-195.260	-101.234	-0.069	0.017
-194.246	-116.449	-0.367	0.067
-193.231	175.184	-0.170	-0.242
-192.217	-47.746	0.329	-0.157
-191.202	800.000	-0.085	0.313
-190.187	330.397	-0.058	0.110
-189.173	800.000	0.055	0.164
-188.158	50.158	0.306	-0.285
-187.144	-200.000	-0.005	0.168
-186.129	80.239	-0.073	0.077
-185.114	75.410	0.034	-0.036
-184.100	756.153	-0.087	-0.233
-183.085	-200.000	0.061	0.402
-182.071	-119.118	0.464	0.080
-181.056	208.802	0.055	0.085
-180.042	-200.000	-0.008	0.077
-179.027	-45.068	0.149	-0.073
-178.012	-138.090	0.115	0.013
-176.998	-128.556	0.167	0.023
-175.983	800.000	0.068	-0.197
-174.969	-71.325	-0.138	-0.051
-173.954	800.000	-0.114	-0.322
-172.939	-82.404	-0.085	0.027
-171.925	-53.811	-0.166	-0.075
-170.910	-200.000	-0.019	-0.551
-169.896	-150.304	0.184	-0.014
-168.881	-79.700	0.088	-0.029
-167.866	-85.428	-0.116	-0.035
-166.852	-200.000	-0.045	-0.222
-165.837	67.057	-0.153	-0.153
-164.823	-155.211	0.088	-0.006
-163.808	-7.246	0.042	0.028
-162.793	69.645	0.182	-0.184
-161.779	-200.000	-0.001	-0.239
-160.764	800.000	-0.014	-0.050
-159.750	-11.525	-0.254	-0.164
-158.735	-86.577	0.369	-0.111
-157.720	-33.394	-0.027	-0.015
-156.706	-200.000	0.035	0.159
-155.691	757.774	0.078	0.207
-154.677	635.582	-0.055	0.136
-153.662	-1.941	-0.167	-0.115
-152.647	477.091	0.118	0.263
-151.633	-52.134	-0.144	0.065
-150.618	294.437	0.049	-0.088
-149.604	76.078	-0.108	0.113
-148.589	140.048	0.164	-0.213
-147.574	7.623	-0.174	-0.128
-146.560	-50.461	0.127	-0.059
-145.545	-200.000	-0.015	0.212
-144.531	352.902	-0.073	-0.143
-143.516	800.000	-0.013	0.047
-142.502	200.134	0.102	-0.155
-141.487	143.524	-0.092	-0.121
-140.472	729.172	-0.113	-0.295
-139.458	-66.075	-0.121	0.047
-138.443	94.629	0.258	0.288
-137.429	800.000	0.035	-0.118
-136.414	177.798	0.155	-0.222
-135.399	340.724	0.058	0.111
-134.385	-200.000	-0.020	0.183
-133.370	800.000	0.078	0.223
-132.356	-41.666	-0.060	-0.030
-131.341	-29.980	-0.107	0.060
-130.326	216.378	0.105	-0.164
-129.312	575.681	0.058	-0.140
-128.297	51.335	-0.272	-0.254
-127.283	124.505	-0.167	0.207
-126.268	-36.454	0.201	0.106
-125.253	520.173	-0.021	-0.049
-124.239	265.233	0.108	-0.186
-123.224	-80.390	-0.134	0.044
-122.210	-162.276	-0.134	0.007
-121.195	-51.503	-0.318	-0.146
