DTS Sentinel unit serial number:	SN413079Multiplexer serial number:	ORYXHardware model number:	OX4-SRSoftware version number:	ORYX F/W v4.00 Oryx Data Collector v3.7.2.0data status	okinstallation	princeton_trtdifferential loss correction	single-endedforward channel	channel 1reverse channel	N/Adate	2019/09/17time	06:02:35forward acquisition time	60.00reverse acquisition time	0.00gamma	496.2192k internal	0.2327k external	0.2327temperature offset calibration	0.9968default loss term (dB/km)	0.3790temperature slope calibration	1.0000multiplexer offset coefficient	1.0000multiplexer slope coefficient	1.0000fibre end	0.00T internal ref (°C)	28.75T ext. ref 1 (°C)	0.12T ext. ref 2 (°C)	22.37length (m)	temperature (°C)	Stokes	anti-Stokes-747.200	-46.802	-0.197	0.097
-746.185	800.000	0.075	0.299
-745.171	-38.341	0.180	-0.096
-744.156	-137.538	0.089	-0.010
-743.142	-76.723	0.184	-0.065
-742.127	-200.000	-0.006	0.185
-741.112	-70.285	0.427	0.163
-740.098	800.000	0.148	0.467
-739.083	-60.943	0.216	-0.092
-738.069	-9.561	-0.175	0.118
-737.054	-26.175	-0.204	0.121
-736.039	19.408	-0.099	-0.080
-735.025	-131.953	0.186	0.024
-734.010	183.002	0.106	-0.158
-732.996	-11.419	-0.192	-0.127
-731.981	0.465	-0.166	-0.120
-730.966	622.334	0.141	-0.357
-729.952	268.937	-0.117	0.207
-728.937	-82.457	-0.294	-0.096
-727.923	-134.232	-0.293	-0.036
-726.908	525.022	-0.042	-0.100
-725.894	538.506	-0.072	-0.173
-724.879	-140.114	-0.322	-0.034
-723.864	271.108	0.041	-0.072
-722.850	-146.041	0.081	0.007
-721.835	-119.088	0.123	0.022
-720.821	800.000	-0.117	-0.349
-719.806	-200.000	-0.023	0.218
-718.791	-90.105	-0.113	0.033
-717.777	-59.408	0.098	-0.042
-716.762	-81.234	-0.138	0.046
-715.748	613.580	0.090	0.226
-714.733	800.000	-0.030	0.101
-713.718	-110.252	-0.149	0.031
-712.704	-93.244	-0.197	0.055
-711.689	-200.000	-0.018	0.280
-710.675	-88.928	0.163	-0.049
-709.660	-200.000	0.004	-0.186
-708.645	-200.000	0.015	-0.149
-707.631	-80.539	0.339	0.114
-706.616	-126.912	-0.261	0.039
-705.602	14.469	0.162	-0.127
-704.587	-121.617	-0.446	-0.074
-703.572	-53.622	0.127	-0.058
-702.558	-43.323	0.157	-0.080
-701.543	-12.436	-0.394	-0.259
-700.529	-93.586	0.130	-0.036
-699.514	259.166	-0.181	0.315
-698.499	800.000	0.070	-0.196
-697.485	26.286	-0.348	0.293
-696.470	-15.114	0.385	0.248
-695.456	622.591	0.181	0.459
-694.441	-200.000	0.078	0.395
-693.426	-200.000	0.019	0.635
-692.412	212.105	-0.139	0.221
-691.397	-59.761	0.245	-0.106
-690.383	-126.161	0.099	-0.015
-689.368	653.728	0.178	0.459
-688.354	-181.036	0.461	-0.009
-687.339	-104.726	-0.294	0.068
-686.324	11.459	0.197	0.152
-685.310	800.000	-0.084	-0.300
-684.295	800.000	0.179	-0.557
-683.281	-136.426	0.266	-0.031
-682.266	-200.000	0.019	-0.097
-681.251	131.570	-0.322	0.416
-680.237	-200.000	-0.046	0.221
-679.222	-200.000	0.061	-0.289
-678.208	-200.000	0.010	-0.302
-677.193	-154.652	-0.326	0.022
-676.178	46.639	-0.145	0.135
-675.164	60.338	-0.335	0.333
-674.149	-189.449	0.135	-0.002
-673.135	-83.106	0.088	-0.028
-672.120	292.567	0.072	-0.132
-671.105	800.000	0.087	-0.275
-670.091	83.198	0.036	-0.039
-669.076	11.357	-0.227	-0.175
-668.062	-77.558	0.216	0.075
-667.047	36.556	0.150	0.133
-666.032	-200.000	0.000	-0.226
-665.018	800.000	0.062	-0.245
-664.003	-200.000	0.029	-0.183
-662.989	337.226	0.012	-0.024
-661.974	800.000	0.099	-0.328
-660.959	-74.602	0.159	0.057
-659.945	-134.225	-0.068	0.008
-658.930	14.217	-0.161	0.126
-657.916	-165.959	0.150	0.006
-656.901	131.516	-0.150	-0.194
-655.886	-200.000	0.007	-0.113
-654.872	181.853	0.114	0.169
-653.857	-160.156	-0.287	0.016
-652.843	-60.222	0.166	0.071
-651.828	311.556	0.110	0.206
-650.814	-200.000	-0.006	0.042
-649.799	326.900	0.032	-0.062
-648.784	732.700	0.143	0.384
-647.770	-68.526	0.172	0.067
-646.755	-105.034	0.382	0.088
-645.741	-172.549	0.144	-0.005
-644.726	-200.000	-0.050	-0.243
-643.711	566.679	-0.037	0.089
-642.697	307.113	-0.174	0.326
-641.682	-124.817	-0.094	-0.015
-640.668	-100.648	0.195	-0.048
-639.653	159.518	0.084	0.118
-638.638	-52.759	0.034	-0.016
-637.624	-103.531	-0.160	-0.038
-636.609	-48.906	0.309	0.148
-635.595	-42.890	0.200	0.102
-634.580	-13.946	0.206	-0.133
-633.565	-92.229	0.236	-0.067
-632.551	39.847	0.048	-0.043
-631.536	125.885	-0.165	-0.209
-630.522	-78.400	-0.305	-0.105
-629.507	-118.897	0.247	-0.044
-628.492	-128.716	0.360	-0.051
-627.478	-200.000	0.050	0.295
-626.463	-144.423	-0.144	0.013
-625.449	127.825	0.200	-0.255
-624.434	-67.746	-0.096	-0.038
-623.419	548.171	0.114	0.273
-622.405	-45.997	-0.114	0.057
-621.390	-162.802	-0.265	0.013
-620.376	-119.290	-0.318	-0.056
-619.361	136.191	-0.101	0.132
-618.346	-56.161	0.150	0.067
-617.332	27.614	0.075	-0.063
-616.317	-24.743	-0.203	-0.121
-615.303	-155.937	-0.146	-0.009
-614.288	184.649	-0.191	-0.284
-613.273	-15.144	0.177	-0.113
-612.259	70.639	-0.152	-0.158
-611.244	-21.326	-0.120	0.074
-610.230	-150.332	-0.113	-0.009
-609.215	-130.621	-0.372	-0.050
-608.201	-200.000	0.043	0.191
-607.186	2.723	0.056	0.041
-606.171	511.477	-0.039	-0.091
-605.157	75.985	-0.133	-0.141
-604.142	-23.013	-0.290	0.175
-603.128	-151.009	-0.230	0.017
-602.113	-52.288	-0.187	0.087
-601.098	302.277	-0.161	0.298
-600.084	73.602	-0.115	-0.120
-599.069	-136.419	-0.412	0.048
-598.055	-57.720	-0.213	0.093
-597.040	800.000	-0.048	0.205
-596.025	121.524	0.211	0.264
-595.011	-64.396	0.301	-0.123
-593.996	305.084	0.100	-0.186
-592.982	-8.511	-0.078	0.052
-591.967	155.515	-0.231	0.319
-590.952	17.182	-0.048	-0.038
-589.938	25.459	0.206	-0.172
-588.923	-27.887	-0.168	-0.097
-587.909	-147.380	-0.191	0.016
-586.894	-200.000	-0.025	0.282
-585.879	-139.974	0.181	-0.019
-584.865	-181.343	0.063	0.001
-583.850	783.410	-0.082	0.224
-582.836	-59.877	0.030	-0.013
-581.821	-200.000	-0.044	-0.244
-580.806	800.000	-0.083	0.272
-579.792	271.979	0.204	-0.361
-578.777	-200.000	0.018	-0.282
-577.763	8.008	-0.060	-0.045
-576.748	-78.594	-0.316	0.108
-575.733	91.699	-0.122	0.137
-574.719	-200.000	0.004	-0.226
-573.704	-200.000	0.016	-0.194
-572.690	560.283	0.036	0.087
-571.675	-70.625	0.116	0.044
-570.661	130.307	0.064	0.082
-569.646	-52.639	0.305	0.141
-568.631	800.000	-0.012	-0.039
-567.617	52.892	0.077	0.074
-566.602	133.983	-0.112	0.145
-565.588	-105.676	0.184	0.042
-564.573	-200.000	-0.026	-0.183
-563.558	124.592	-0.172	-0.216
-562.544	291.658	0.087	-0.159
-561.529	-200.000	0.018	0.267
-560.515	175.299	0.161	0.234
-559.500	462.320	-0.026	-0.058
-558.485	75.257	0.133	-0.140
-557.471	-94.149	-0.164	0.045
-556.456	603.095	-0.151	-0.376
-555.442	39.572	-0.169	0.152
-554.427	232.923	0.065	0.108
-553.412	800.000	0.040	0.116
-552.398	-28.787	0.219	0.126
-551.383	-0.412	-0.253	0.180
-550.369	94.880	0.048	-0.055
-549.354	800.000	0.100	0.346
-548.339	37.536	-0.011	-0.010
-547.325	-113.773	0.119	0.023
-546.310	-95.020	-0.046	0.012
-545.296	-200.000	0.007	0.366
-544.281	-82.900	0.271	-0.087
-543.266	-11.333	-0.153	-0.101
-542.252	356.256	0.124	-0.247
-541.237	-137.354	-0.107	-0.012
-540.223	-111.242	0.095	-0.019
-539.208	35.594	0.198	-0.174
-538.193	-41.226	0.083	0.043
-537.179	-119.394	-0.171	-0.030
-536.164	-117.727	-0.251	-0.045
-535.150	-38.452	-0.220	0.116
-534.135	780.199	-0.072	-0.198
-533.121	376.270	-0.235	0.480
-532.106	214.124	-0.073	-0.115
-531.091	159.525	-0.223	-0.311
-530.077	-110.072	0.091	-0.019
-529.062	495.050	0.215	0.495
-528.048	171.251	-0.074	0.107
-527.033	-118.919	0.203	0.036
-526.018	97.605	-0.332	-0.381
-525.004	189.017	-0.130	0.194
-523.989	-200.000	-0.054	0.332
-522.975	112.041	-0.072	-0.087
-521.960	144.028	0.300	0.399
-520.945	-86.688	0.119	0.036
-519.931	44.918	-0.041	0.037
-518.916	231.778	0.061	-0.100
-517.902	-143.426	-0.214	-0.020
-516.887	-200.000	-0.024	-0.336
-515.872	-65.381	-0.141	-0.057
-514.858	-77.599	-0.147	0.051
-513.843	631.086	-0.075	-0.190
-512.829	-43.718	-0.226	-0.114
-511.814	-200.000	0.005	0.038
-510.799	424.371	-0.017	-0.036
-509.785	673.084	-0.027	-0.071
-508.770	-168.465	0.213	-0.008
-507.756	-166.329	-0.129	-0.005
-506.741	-155.320	0.240	0.016
-505.726	-156.130	-0.098	-0.006
-504.712	125.129	0.015	0.019
-503.697	-144.604	0.185	-0.017
-502.683	-43.571	-0.259	0.131
-501.668	-200.000	0.003	-0.205
-500.653	-27.974	-0.124	0.072
-499.639	-15.004	-0.131	0.084
-498.624	-16.580	-0.183	0.116
-497.610	208.335	0.202	0.316
-496.595	-200.000	0.045	0.232
-495.581	-200.000	-0.011	-0.153
-494.566	-115.301	-0.412	0.078
-493.551	210.389	0.160	0.250
-492.537	800.000	0.022	0.070
-491.522	274.536	-0.165	-0.291
-490.508	-118.809	-0.150	0.026
-489.493	-61.995	-0.080	0.033
-488.478	800.000	-0.118	0.372
-487.464	78.373	-0.059	0.063
-486.449	-37.872	0.200	-0.106
-485.435	251.811	0.129	-0.218
-484.420	3.538	-0.366	-0.266
-483.405	800.000	0.015	-0.064
-482.391	653.346	0.057	0.145
-481.376	8.186	-0.207	-0.155
-480.362	90.449	-0.162	-0.181
-479.347	-128.443	0.126	0.018
-478.332	-52.103	0.204	0.094
-477.318	800.000	-0.037	-0.106
-476.303	-200.000	-0.030	-0.199
-475.289	-58.147	-0.116	-0.050
-474.274	800.000	-0.136	-0.396
-473.259	150.848	-0.106	0.144
-472.245	-98.088	0.111	0.029
-471.230	-7.254	-0.256	-0.173
-470.216	-200.000	-0.012	-0.061
-469.201	-83.543	-0.196	-0.062
-468.186	48.588	-0.057	0.053
-467.172	133.609	-0.062	-0.080
-466.157	-69.861	-0.134	0.051
-465.143	141.702	0.098	0.130
-464.128	-172.749	0.453	0.014
-463.113	-124.776	0.252	0.039
-462.099	9.391	-0.180	-0.136
-461.084	102.264	-0.081	0.094
-460.070	63.788	0.155	-0.156
-459.055	61.171	0.071	0.070
-458.040	-111.387	0.239	-0.049
-457.026	-43.033	0.071	-0.036
-456.011	-120.369	0.101	-0.017
-454.997	-200.000	0.032	-0.389
-453.982	-18.265	-0.160	-0.100
-452.968	249.001	0.088	-0.149
-451.953	-127.891	-0.014	-0.002
-450.938	213.992	-0.140	0.220
-449.924	-133.568	0.276	-0.034
-448.909	89.690	0.096	-0.107
-447.895	80.843	0.204	0.219
-446.880	-52.115	0.353	-0.163
-445.865	321.416	-0.161	-0.305
-444.851	800.000	-0.039	-0.124
-443.836	-13.265	-0.054	-0.035
-442.822	-200.000	0.063	-0.516
-441.807	-87.737	-0.092	-0.028
-440.792	433.260	0.175	0.378
-439.778	425.445	-0.142	0.306
-438.763	-200.000	0.126	-0.571
-437.749	518.240	-0.132	0.307
-436.734	-14.303	-0.376	0.242
-435.719	-74.804	0.047	0.017
-434.705	-20.134	-0.227	-0.140
-433.690	-136.105	0.463	0.054
-432.676	-59.524	-0.166	-0.071
-431.661	-72.754	-0.330	-0.121
-430.646	-61.876	-0.153	0.064
-429.632	457.458	0.119	-0.264
-428.617	51.174	0.076	-0.072
-427.603	18.398	-0.352	0.280
-426.588	55.533	0.121	-0.117
-425.573	22.671	0.059	0.048
-424.559	601.805	-0.070	0.173
-423.544	296.031	-0.027	0.050
-422.530	-200.000	0.049	0.305
-421.515	238.323	-0.069	0.114
-420.500	108.437	0.072	-0.086
-419.486	118.152	0.102	-0.125
-418.471	-83.979	-0.139	0.044
-417.457	800.000	0.055	0.163
-416.442	800.000	-0.095	-0.282
-415.428	80.610	0.108	-0.116
-414.413	-112.049	-0.245	0.049
-413.398	479.296	-0.136	-0.306
-412.384	-64.308	0.111	-0.045
-411.369	-91.924	-0.241	-0.068
-410.355	-200.000	0.017	-0.087
-409.340	107.986	0.135	-0.160
-408.325	-200.000	-0.004	0.174
-407.311	653.044	-0.104	0.266
-406.296	249.333	0.265	0.446
-405.282	-200.000	-0.088	-0.438
-404.267	171.880	0.131	-0.188
-403.252	126.867	0.152	-0.192
-402.238	209.257	-0.025	0.038
-401.223	-200.000	-0.011	-0.053
-400.209	-57.669	0.041	-0.018
-399.194	-11.629	-0.165	-0.108
-398.179	-96.447	0.140	-0.037
-397.165	-73.954	0.172	0.062
-396.150	-200.000	0.005	-0.282
-395.136	372.579	-0.048	-0.096
-394.121	-102.132	0.034	0.008
-393.106	-49.599	0.199	-0.094
-392.092	-160.911	-0.350	0.018
-391.077	-70.668	0.323	-0.121
-390.063	-40.400	-0.192	0.099
-389.048	-21.427	-0.069	0.042
-388.033	89.196	-0.105	0.116
-387.019	563.531	-0.078	0.187
-386.004	189.439	0.088	-0.131
-384.990	-200.000	0.022	0.251
-383.975	-200.000	0.022	-0.128
-382.960	800.000	0.025	-0.103
-381.946	-200.000	0.015	0.143
-380.931	0.586	0.113	0.081
-379.917	276.722	-0.127	-0.224
-378.902	-200.000	-0.026	0.226
-377.888	1.820	0.125	0.090
-376.873	-200.000	-0.012	0.098
-375.858	37.880	0.107	-0.095
-374.844	-200.000	0.000	0.068
-373.829	386.957	-0.015	-0.031
-372.815	296.633	0.118	-0.215
-371.800	-200.000	-0.047	-0.208
-370.785	800.000	0.009	-0.027
-369.771	-11.559	0.110	-0.072
-368.756	388.652	0.063	0.130
-367.742	107.185	-0.128	-0.152
-366.727	800.000	-0.033	-0.124
-365.712	26.260	-0.195	0.162
-364.698	-146.849	0.175	-0.015
-363.683	800.000	0.059	0.225
-362.669	-200.000	-0.028	-0.355
-361.654	-39.736	-0.215	-0.112
-360.639	-43.158	-0.204	-0.103
-359.625	800.000	0.113	0.401
-358.610	-200.000	0.032	-0.248
-357.596	11.095	-0.318	-0.242
-356.581	-200.000	0.003	0.019
-355.566	-21.476	-0.139	0.084
-354.552	1.370	-0.146	0.104
-353.537	-200.000	-0.069	0.441
-352.523	-18.850	0.171	-0.106
-351.508	-142.421	0.159	-0.016
-350.493	-83.392	-0.301	-0.096
-349.479	22.991	0.348	0.284
-348.464	220.369	-0.148	0.236
-347.450	-116.314	0.291	-0.054
-346.435	265.466	0.120	0.207
-345.420	-35.971	-0.186	-0.100
-344.406	-200.000	-0.063	-0.302
-343.391	27.864	0.284	0.238
-342.377	-18.516	0.114	-0.070
-341.362	261.324	-0.031	-0.053
-340.348	-133.662	0.117	0.015
-339.333	200.742	-0.136	-0.207
-338.318	-97.167	0.299	-0.077
-337.304	246.878	0.059	0.098
-336.289	283.290	0.089	-0.159
-335.275	-200.000	0.009	-0.092
-334.260	-124.810	-0.046	0.007
-333.245	618.338	-0.066	-0.165
-332.231	70.128	-0.079	0.081
-331.216	5.251	0.308	0.225
-330.202	56.411	-0.318	0.307
-329.187	23.958	0.266	0.218
-328.172	-200.000	0.004	0.427
-327.158	-31.484	-0.080	-0.045
-326.143	-56.846	0.326	0.143
-325.129	-0.571	0.366	-0.257
-324.114	101.341	-0.039	0.045
-323.099	569.632	-0.030	0.073
-322.085	446.448	0.022	-0.049
-321.070	-200.000	0.004	0.058
-320.056	-158.682	-0.261	-0.015
-319.041	-38.368	0.261	0.137
-318.026	-51.693	-0.087	-0.040
-317.012	800.000	0.022	-0.091
-315.997	-93.591	0.260	0.071
-314.983	-200.000	-0.025	0.163
-313.968	93.705	-0.058	0.065
-312.953	35.988	-0.133	0.116
-311.939	38.146	-0.174	-0.154
-310.924	208.370	0.125	0.193
-309.910	137.037	-0.044	-0.057
-308.895	-47.178	0.152	0.073
-307.880	31.526	0.145	-0.123
-306.866	-138.447	-0.268	-0.029
-305.851	-126.909	0.176	-0.026
-304.837	800.000	-0.087	0.267
-303.822	28.272	0.193	-0.162
-302.807	-29.006	-0.337	-0.192
-301.793	301.738	-0.072	0.133
-300.778	-98.379	0.303	-0.077
-299.764	412.566	0.079	-0.166
-298.749	-200.000	-0.008	0.117
-297.735	48.449	-0.083	-0.077
-296.720	800.000	0.054	-0.219
-295.705	-184.341	0.256	0.004
-294.691	-77.753	0.135	-0.046
-293.676	-78.186	-0.055	0.019
-292.662	469.966	0.069	-0.155
-291.647	-82.307	-0.263	-0.085
-290.632	-200.000	-0.008	-0.282
-289.618	275.327	0.066	-0.115
-288.603	-79.274	0.273	0.092
-287.589	-66.054	0.077	-0.030
-286.574	163.450	-0.240	-0.335
-285.559	-131.090	-0.241	-0.032
-284.545	238.260	0.079	-0.131
-283.530	800.000	-0.096	-0.310
-282.516	-55.682	-0.182	0.081
-281.501	-8.549	0.254	0.169
-280.486	304.759	-0.061	-0.112
-279.472	0.241	-0.144	-0.102
-278.457	800.000	0.070	-0.302
-277.443	75.289	-0.171	0.178
-276.428	40.175	0.228	0.203
-275.413	121.049	-0.186	0.229
-274.399	38.086	0.087	-0.077
-273.384	800.000	-0.008	-0.028
-272.370	-200.000	0.021	-0.105
-271.355	-140.374	0.405	-0.042
-270.340	234.179	0.107	0.175
-269.326	-110.904	0.168	-0.034
-268.311	-60.906	-0.264	0.111
-267.297	-73.659	-0.409	0.147
-266.282	686.397	-0.123	0.317
-265.267	10.336	-0.173	0.131
-264.253	247.654	-0.022	-0.037
-263.238	376.986	0.142	0.287
-262.224	162.276	0.120	0.166
-261.209	-92.034	-0.509	0.142
-260.195	38.202	0.235	0.207
-259.180	-200.000	-0.017	-0.320
-258.165	15.880	0.116	0.090
-257.151	12.761	0.374	0.286
-256.136	-11.121	0.312	0.203
-255.122	-48.224	-0.065	0.031
-254.107	717.061	-0.114	-0.300
-253.092	-49.537	-0.168	-0.079
-252.078	-151.667	-0.186	0.014
-251.063	-55.681	0.042	0.019
-250.049	250.850	-0.194	0.325
-249.034	-19.351	0.110	0.068
-248.019	247.742	-0.097	-0.163
-247.005	800.000	0.109	0.444
-245.990	-173.814	-0.393	-0.012
-244.976	54.391	0.046	0.044
-243.961	392.183	-0.183	0.377
-242.946	-25.745	0.437	-0.255
-241.932	766.572	-0.010	0.026
-240.917	655.609	-0.199	-0.504
-239.903	-22.151	0.132	-0.079
-238.888	800.000	-0.038	-0.107
-237.873	-131.450	-0.064	-0.008
-236.859	-11.180	0.084	0.055
-235.844	-104.150	-0.069	-0.016
-234.830	-96.675	0.209	-0.054
-233.815	-46.891	0.310	0.150
-232.800	491.983	-0.159	-0.361
-231.786	14.956	-0.147	-0.113
-230.771	-200.000	0.017	0.273
-229.757	150.612	0.098	0.131
-228.742	278.409	-0.083	0.146
-227.727	-200.000	-0.054	0.265
-226.713	113.576	0.054	-0.065
-225.698	800.000	0.039	-0.160
-224.684	-53.654	0.195	0.088
-223.669	374.867	0.086	0.173
-222.655	-200.000	0.024	-0.171
-221.640	437.314	-0.128	-0.275
-220.625	-38.243	0.149	0.078
-219.611	-9.315	-0.024	0.016
-218.596	9.115	0.305	0.228
-217.582	575.252	0.131	0.315
-216.567	800.000	-0.003	-0.012
-215.552	-148.510	-0.223	0.018
-214.538	37.330	0.313	-0.274
-213.523	93.806	0.198	0.222
-212.509	-149.032	0.202	-0.016
-211.494	-3.767	0.166	-0.114
-210.479	-50.546	-0.513	-0.239
-209.465	44.850	0.071	0.064
-208.450	-58.026	0.052	0.023
-207.436	-43.647	-0.262	0.130
-206.421	-130.626	-0.268	-0.036
-205.406	-200.000	-0.061	-0.441
-204.392	-33.264	0.137	0.075
-203.377	-25.336	-0.230	0.134
-202.363	38.425	0.371	-0.326
-201.348	-98.554	0.143	0.036
-200.333	370.699	0.029	0.058
-199.319	-86.573	-0.131	-0.040
-198.304	-200.000	0.032	-0.172
-197.290	-95.116	0.058	0.015
-196.275	41.677	0.144	0.129
-195.260	800.000	0.032	-0.099
-194.246	-99.797	-0.205	-0.051
-193.231	-200.000	-0.024	-0.115
-192.217	315.635	-0.031	0.058
-191.202	-37.264	0.392	-0.207
-190.187	-200.000	0.006	0.043
-189.173	-75.175	-0.105	0.037
-188.158	-54.333	-0.093	-0.041
-187.144	-77.093	0.093	0.032
-186.129	-109.349	0.158	-0.033
-185.114	-6.529	0.164	0.110
-184.100	71.975	-0.095	-0.097
-183.085	-96.809	0.177	-0.046
-182.071	441.149	0.068	0.147
-181.056	11.901	-0.104	-0.079
-180.042	-52.668	-0.143	0.065
-179.027	-149.322	-0.063	0.005
-178.012	-41.212	-0.077	0.039
-176.998	-121.164	0.249	0.041
-175.983	-41.678	0.342	-0.173
-174.969	-63.745	0.106	-0.043
-173.954	-186.974	0.295	0.004
-172.939	237.257	0.062	0.101
-171.925	-107.767	-0.098	-0.021
-170.910	-97.527	0.118	0.030
-169.896	652.351	0.014	-0.036
-168.881	301.661	-0.047	0.085
-167.866	-159.449	-0.095	0.005
-166.852	-76.430	-0.048	-0.017
-165.837	-200.000	0.004	0.195
-164.823	-200.000	-0.011	-0.074
-163.808	-73.174	0.218	-0.079
-162.793	-50.669	0.241	0.112
-161.779	42.406	-0.168	-0.150
-160.764	113.613	0.083	-0.099
-159.750	-200.000	-0.011	0.359
-158.735	7.841	-0.120	0.088
-157.720	-183.181	0.110	-0.002
-156.706	-90.889	-0.196	-0.055
-155.691	194.178	0.108	-0.161
-154.677	-114.751	-0.198	0.037
-153.662	20.520	-0.168	-0.134
-152.647	800.000	0.020	0.059
-151.633	223.739	0.085	-0.135
-150.618	122.025	0.129	0.158
-149.604	625.363	0.058	-0.143
-148.589	-43.209	-0.212	0.106
-147.574	7.120	0.377	-0.277
-146.560	-66.937	0.327	0.127
-145.545	761.638	0.093	0.249
-144.531	-73.167	-0.131	-0.047
-143.516	491.849	-0.046	0.105
-142.502	800.000	0.076	0.287
-141.487	41.165	0.166	-0.148
-140.472	-48.096	0.222	0.105
-139.458	-45.818	0.256	0.124
-138.443	-22.655	-0.307	-0.183
-137.429	268.621	-0.148	-0.256
-136.414	22.694	0.155	-0.125
-135.399	-7.261	0.257	-0.171
-134.385	-200.000	-0.042	-0.310
-133.370	-68.276	0.377	-0.144
-132.356	-72.733	0.254	-0.092
-131.341	344.404	-0.044	0.084
-130.326	70.959	0.242	0.247
-129.312	-200.000	0.096	-0.432
-128.297	800.000	0.048	-0.190
-127.283	205.115	0.171	-0.262
-126.268	-113.783	-0.138	-0.026
-125.253	367.539	-0.015	-0.030
-124.239	-169.547	0.400	-0.014
-123.224	23.891	-0.098	-0.079
-122.210	800.000	-0.044	-0.131
-121.195	-59.946	-0.303	0.127
