DTS Sentinel unit serial number:	SN413079Multiplexer serial number:	ORYXHardware model number:	OX4-SRSoftware version number:	ORYX F/W v4.00 Oryx Data Collector v3.7.2.0data status	okinstallation	princeton_trtdifferential loss correction	single-endedforward channel	channel 1reverse channel	N/Adate	2019/09/18time	12:14:35forward acquisition time	60.00reverse acquisition time	0.00gamma	496.2192k internal	0.2323k external	0.2323temperature offset calibration	0.9976default loss term (dB/km)	0.3790temperature slope calibration	1.0000multiplexer offset coefficient	1.0000multiplexer slope coefficient	1.0000fibre end	0.00T internal ref (°C)	31.75T ext. ref 1 (°C)	0.51T ext. ref 2 (°C)	27.52length (m)	temperature (°C)	Stokes	anti-Stokes-747.200	-200.000	0.018	0.087
-746.185	114.464	0.138	0.170
-745.171	-200.000	0.003	0.236
-744.156	35.395	-0.337	0.299
-743.142	-77.501	-0.066	0.023
-742.127	800.000	0.097	0.290
-741.112	105.853	0.057	0.068
-740.098	179.678	-0.373	0.551
-739.083	-63.523	-0.252	0.104
-738.069	-200.000	-0.036	0.277
-737.054	783.311	-0.136	-0.376
-736.039	18.889	-0.282	0.228
-735.025	-174.879	0.173	-0.005
-734.010	-126.205	-0.120	-0.018
-732.996	-117.912	0.302	-0.055
-731.981	4.716	-0.302	0.224
-730.966	31.536	-0.389	0.337
-729.952	125.928	-0.212	-0.270
-728.937	-96.285	-0.154	-0.041
-727.923	-92.037	-0.337	-0.096
-726.908	-200.000	-0.002	0.089
-725.894	-145.390	0.118	-0.011
-724.879	360.060	-0.101	-0.203
-723.864	800.000	-0.070	-0.224
-722.850	-72.323	-0.240	-0.090
-721.835	202.575	0.098	-0.152
-720.821	44.317	-0.101	0.093
-719.806	-132.652	-0.215	-0.028
-718.791	-200.000	0.056	-0.299
-717.777	31.054	-0.019	0.017
-716.762	-1.264	-0.136	-0.097
-715.748	-80.808	-0.250	0.084
-714.733	195.361	-0.005	0.008
-713.718	6.716	0.198	-0.149
-712.704	45.619	-0.218	-0.203
-711.689	-200.000	-0.008	0.180
-710.675	524.784	-0.046	0.109
-709.660	-93.516	0.296	-0.083
-708.645	-200.000	0.008	0.216
-707.631	373.422	-0.262	-0.537
-706.616	100.200	-0.205	0.240
-705.602	327.348	0.150	0.291
-704.587	-147.311	-0.345	0.030
-703.572	29.892	0.209	-0.179
-702.558	402.088	0.063	0.133
-701.543	3.011	-0.213	0.156
-700.529	258.455	-0.114	-0.199
-699.514	800.000	0.040	0.169
-698.499	89.107	0.136	0.153
-697.485	245.138	-0.066	-0.113
-696.470	-92.897	0.294	0.083
-695.456	-36.905	-0.266	0.144
-694.441	-20.986	-0.412	0.255
-693.426	-1.282	-0.152	-0.108
-692.412	230.506	0.041	-0.068
-691.397	-200.000	0.030	0.167
-690.383	800.000	0.118	0.350
-689.368	7.815	0.118	0.089
-688.354	96.567	-0.160	-0.185
-687.339	800.000	-0.091	0.338
-686.324	102.604	-0.038	-0.045
-685.310	142.164	0.260	0.348
-684.295	181.214	-0.031	0.045
-683.281	-87.133	-0.242	0.074
-682.266	114.905	-0.115	0.141
-681.251	-46.737	-0.165	0.081
-680.237	155.399	0.181	-0.251
-679.222	-71.943	0.278	0.104
-678.208	-34.110	-0.250	-0.139
-677.193	89.636	-0.236	-0.266
-676.178	-162.706	0.186	0.009
-675.164	-200.000	0.033	0.323
-674.149	-120.714	-0.193	-0.033
-673.135	-200.000	0.010	-0.153
-672.120	157.792	-0.066	0.092
-671.105	29.694	0.160	0.137
-670.091	-16.412	-0.217	-0.138
-669.076	-200.000	0.003	-0.100
-668.062	109.292	-0.178	0.214
-667.047	-55.179	-0.119	-0.054
-666.032	800.000	-0.140	-0.480
-665.018	40.296	0.205	0.185
-664.003	256.364	-0.140	-0.241
-662.989	-80.447	0.271	-0.091
-661.974	-118.494	-0.141	0.025
-660.959	800.000	-0.063	0.186
-659.945	800.000	0.044	0.156
-658.930	8.811	0.117	0.089
-657.916	123.973	-0.154	0.195
-656.901	48.653	0.170	-0.161
-655.886	83.755	-0.188	-0.206
-654.872	-52.940	-0.093	0.043
-653.857	82.308	-0.128	-0.140
-652.843	-91.862	0.240	-0.068
-651.828	-80.404	-0.108	0.036
-650.814	-9.868	-0.291	-0.195
-649.799	334.969	-0.061	0.120
-648.784	-128.432	-0.101	0.014
-647.770	-157.777	0.221	0.013
-646.755	-200.000	0.006	-0.052
-645.741	-60.724	0.234	-0.100
-644.726	-124.166	0.141	-0.022
-643.711	-200.000	0.101	0.605
-642.697	-200.000	-0.029	-0.135
-641.682	32.218	-0.053	-0.046
-640.668	14.514	0.094	0.074
-639.653	800.000	-0.014	-0.061
-638.638	-165.687	0.237	0.010
-637.624	-2.772	0.295	0.207
-636.609	324.783	0.112	0.215
-635.595	11.658	0.097	-0.075
-634.580	77.778	0.115	-0.123
-633.565	91.763	0.043	0.048
-632.551	66.202	0.059	-0.060
-631.536	-122.425	0.206	0.034
-630.522	-56.812	0.333	-0.148
-629.507	63.859	0.163	0.165
-628.492	-200.000	0.031	-0.208
-627.478	-121.998	0.432	0.071
-626.463	800.000	-0.072	0.201
-625.449	-163.614	0.250	-0.012
-624.434	-144.816	-0.114	-0.010
-623.419	211.025	-0.172	0.272
-622.405	-15.702	-0.328	0.210
-621.390	-117.545	0.151	-0.027
-620.376	-200.000	0.017	-0.080
-619.361	-141.174	0.103	0.011
-618.346	-200.000	-0.067	0.308
-617.332	99.642	0.200	-0.232
-616.317	-101.903	0.189	0.046
-615.303	548.008	-0.041	0.098
-614.288	-92.356	0.140	0.040
-613.273	-20.458	0.354	-0.219
-612.259	-200.000	-0.014	0.189
-611.244	338.447	-0.127	-0.248
-610.230	-0.047	0.083	-0.060
-609.215	-200.000	0.049	0.332
-608.201	-73.424	0.068	-0.025
-607.186	800.000	-0.062	-0.193
-606.171	51.463	0.093	-0.089
-605.157	-29.109	0.202	0.116
-604.142	800.000	-0.033	-0.106
-603.128	-200.000	-0.035	0.232
-602.113	-200.000	0.041	-0.453
-601.098	259.300	-0.141	-0.244
-600.084	136.112	0.129	-0.169
-599.069	592.260	0.103	0.255
-598.055	115.563	-0.260	-0.320
-597.040	-154.257	0.285	0.019
-596.025	-0.135	-0.069	-0.049
-595.011	-99.770	0.109	0.027
-593.996	-67.963	0.274	0.107
-592.982	-200.000	-0.035	-0.219
-591.967	-135.450	-0.146	0.017
-590.952	496.954	-0.149	-0.345
-589.938	-73.086	-0.380	-0.140
-588.923	23.006	0.127	-0.105
-587.909	130.263	-0.369	0.474
-586.894	211.757	-0.099	0.157
-585.879	519.276	0.083	-0.195
-584.865	-37.296	-0.059	0.032
-583.850	201.974	0.172	-0.266
-582.836	16.153	0.380	-0.301
-581.821	147.633	-0.099	-0.134
-580.806	185.270	0.191	-0.285
-579.792	20.555	0.269	-0.218
-578.777	-200.000	0.044	-0.274
-577.763	-93.483	-0.086	-0.024
-576.748	800.000	-0.035	0.149
-575.733	-29.746	-0.207	-0.119
-574.719	10.132	-0.099	0.076
-573.704	16.922	0.410	0.326
-572.690	10.930	-0.370	-0.284
-571.675	1.725	-0.124	0.090
-570.661	79.852	-0.015	0.017
-569.646	-38.873	-0.140	0.074
-568.631	131.140	0.191	-0.246
-567.617	-51.203	0.227	-0.107
-566.602	-38.963	0.364	-0.192
-565.588	-200.000	-0.032	0.319
-564.573	-200.000	0.032	0.396
-563.558	753.534	-0.026	0.070
-562.544	-26.566	-0.118	0.069
-561.529	-105.025	-0.255	-0.059
-560.515	-200.000	-0.001	-0.069
-559.500	162.927	-0.168	0.236
-558.485	141.179	-0.222	0.294
-557.471	-115.925	0.308	-0.058
-556.456	22.473	0.059	0.048
-555.442	800.000	0.071	-0.281
-554.427	-200.000	0.029	-0.355
-553.412	800.000	-0.031	0.094
-552.398	-26.775	-0.111	-0.065
-551.383	54.702	0.205	0.198
-550.369	515.251	-0.133	0.311
-549.354	-200.000	-0.038	-0.244
-548.339	-147.045	0.140	0.012
-547.325	27.727	-0.151	0.127
-546.310	-200.000	-0.020	0.174
-545.296	800.000	-0.115	0.330
-544.281	-59.038	-0.435	0.188
-543.266	-85.430	-0.368	-0.115
-542.252	31.992	0.075	0.065
-541.237	-43.865	0.172	-0.087
-540.223	-200.000	-0.033	0.236
-539.208	-65.699	-0.113	0.045
-538.193	-196.909	-0.088	0.001
-537.179	-200.000	0.061	0.333
-536.164	-200.000	0.042	-0.258
-535.150	-129.130	-0.031	-0.004
-534.135	132.593	-0.063	0.081
-533.121	-200.000	0.004	0.230
-532.106	-200.000	0.042	0.194
-531.091	-98.008	-0.260	-0.067
-530.077	268.890	-0.263	-0.462
-529.062	22.129	-0.112	0.091
-528.048	13.020	0.025	-0.019
-527.033	-200.000	0.063	0.456
-526.018	-113.748	-0.277	0.054
-525.004	-62.706	0.049	0.020
-523.989	-200.000	-0.065	0.314
-522.975	-12.821	-0.100	0.066
-521.960	-55.836	-0.170	-0.076
-520.945	-200.000	0.004	0.184
-519.931	-100.799	-0.300	-0.074
-518.916	-200.000	0.082	-0.423
-517.902	-35.687	-0.278	0.151
-516.887	447.518	-0.052	0.115
-515.872	-200.000	0.072	-0.347
-514.858	-96.557	0.260	-0.069
-513.843	-26.533	0.068	0.040
-512.829	800.000	0.094	-0.309
-511.814	-158.505	-0.267	-0.015
-510.799	-74.090	0.283	-0.103
-509.785	85.798	-0.247	-0.272
-508.770	94.215	0.098	-0.111
-507.756	143.074	-0.311	-0.414
-506.741	-200.000	-0.001	-0.120
-505.726	-60.795	0.261	0.111
-504.712	-65.197	0.128	0.051
-503.697	-69.957	-0.166	0.063
-502.683	800.000	0.017	0.073
-501.668	-200.000	-0.033	-0.416
-500.653	-200.000	0.016	-0.181
-499.639	347.490	-0.125	0.247
-498.624	800.000	0.024	0.078
-497.610	568.837	-0.078	0.190
-496.595	-64.603	-0.089	0.036
-495.581	362.787	0.047	-0.094
-494.566	234.971	-0.236	-0.389
-493.551	-200.000	-0.004	-0.057
-492.537	236.008	0.143	0.236
-491.522	-37.744	-0.040	-0.021
-490.508	8.128	-0.163	-0.123
-489.493	179.935	-0.322	-0.472
-488.478	-4.301	0.083	-0.057
-487.464	-200.000	0.004	-0.428
-486.449	372.515	0.174	0.354
-485.435	-200.000	-0.035	0.220
-484.420	-200.000	-0.021	0.345
-483.405	154.709	0.031	-0.043
-482.391	-102.380	0.294	-0.071
-481.376	-25.461	-0.093	-0.055
-480.362	151.823	0.069	-0.094
-479.347	-200.000	0.025	0.198
-478.332	234.191	-0.024	-0.040
-477.318	-159.512	-0.048	-0.003
-476.303	-112.796	-0.486	0.096
-475.289	-33.600	-0.168	-0.093
-474.274	83.087	-0.120	-0.130
-473.259	800.000	-0.041	-0.171
-472.245	-159.233	0.125	0.007
-471.230	-184.052	0.168	0.003
-470.216	96.228	0.168	-0.192
-469.201	-200.000	0.012	0.414
-468.186	-130.332	-0.183	0.025
-467.172	81.577	0.275	-0.297
-466.157	-45.633	0.345	-0.171
-465.143	-162.698	-0.188	-0.009
-464.128	800.000	-0.071	0.287
-463.113	-200.000	0.034	0.226
-462.099	800.000	-0.027	-0.103
-461.084	225.498	-0.015	-0.024
-460.070	166.251	-0.053	0.075
-459.055	-200.000	-0.022	0.153
-458.040	710.076	-0.039	0.103
-457.026	350.178	-0.095	-0.187
-456.011	-113.289	0.209	0.041
-454.997	51.644	-0.124	0.117
-453.982	-52.804	0.213	-0.098
-452.968	800.000	-0.160	0.453
-451.953	262.744	-0.172	-0.297
-450.938	636.198	0.083	-0.209
-449.924	800.000	0.037	0.131
-448.909	42.522	-0.068	0.062
-447.895	443.247	-0.126	-0.275
-446.880	-120.912	-0.210	0.035
-445.865	-184.062	-0.147	0.002
-444.851	-106.662	-0.181	0.040
-443.836	39.200	0.169	0.151
-442.822	204.030	-0.173	0.267
-441.807	-200.000	-0.023	0.197
-440.792	1.153	0.231	-0.166
-439.778	6.191	-0.161	0.119
-438.763	50.176	-0.271	0.255
-437.749	381.356	0.052	0.107
-436.734	99.404	-0.161	0.186
-435.719	123.672	-0.196	0.245
-434.705	-60.342	0.138	0.059
-433.690	-200.000	0.043	0.404
-432.676	13.898	-0.148	0.115
-431.661	-138.842	0.222	0.024
-430.646	800.000	-0.061	-0.172
-429.632	19.825	0.162	-0.130
-428.617	-108.959	0.300	0.064
-427.603	-143.617	-0.350	0.033
-426.588	-32.562	-0.295	-0.164
-425.573	94.295	0.145	0.164
-424.559	-160.197	-0.151	0.008
-423.544	-200.000	0.009	-0.062
-422.530	-200.000	0.007	0.065
-421.515	800.000	0.096	0.330
-420.500	211.913	0.070	0.110
-419.486	800.000	0.026	0.077
-418.471	-200.000	0.031	0.280
-417.457	-200.000	0.072	-0.506
-416.442	-23.873	-0.182	0.109
-415.428	210.497	-0.143	-0.224
-414.413	215.472	-0.146	0.231
-413.398	-141.314	-0.361	-0.037
-412.384	315.932	-0.126	-0.237
-411.369	-60.548	-0.178	-0.075
-410.355	-76.581	-0.107	0.037
-409.340	147.747	0.248	0.333
-408.325	-57.717	0.471	0.206
-407.311	-200.000	-0.024	-0.173
-406.296	363.441	-0.116	-0.232
-405.282	-144.527	-0.279	-0.026
-404.267	80.248	-0.119	-0.128
-403.252	151.740	-0.176	0.239
-402.238	21.818	-0.240	-0.195
-401.223	130.372	-0.072	0.091
-400.209	-94.524	0.025	-0.007
-399.194	63.924	-0.132	0.133
-398.179	8.667	-0.303	-0.227
-397.165	231.198	0.142	0.231
-396.150	-200.000	0.032	-0.355
-395.136	800.000	0.052	-0.207
-394.121	-95.595	-0.145	0.039
-393.106	97.340	0.142	-0.162
-392.092	55.082	0.219	-0.210
-391.077	76.000	0.155	-0.164
-390.063	-200.000	0.020	0.125
-389.048	104.085	0.280	-0.328
-388.033	89.385	-0.206	-0.229
-387.019	-55.345	0.215	0.096
-386.004	710.548	-0.047	0.124
-384.990	-5.356	-0.158	-0.108
-383.975	155.286	-0.258	0.353
-382.960	49.832	-0.227	-0.213
-381.946	-14.543	-0.231	-0.148
-380.931	-200.000	-0.004	-0.235
-379.917	-178.042	-0.183	-0.004
-378.902	15.236	-0.126	-0.098
-377.888	63.326	-0.155	-0.155
-376.873	-78.889	0.096	0.033
-375.858	-99.495	0.181	-0.045
-374.844	212.023	0.064	0.101
-373.829	54.470	-0.258	0.248
-372.815	151.013	0.227	-0.308
-371.800	747.275	-0.044	-0.119
-370.785	800.000	-0.048	-0.154
-369.771	87.080	0.073	-0.080
-368.756	75.013	0.184	-0.193
-367.742	-97.416	-0.284	0.073
-366.727	60.570	0.175	0.173
-365.712	251.134	0.159	0.268
-364.698	-39.853	0.048	0.025
-363.683	-200.000	0.019	0.167
-362.669	274.159	-0.115	-0.203
-361.654	632.475	-0.054	-0.137
-360.639	800.000	-0.035	-0.147
-359.625	175.384	0.251	0.362
-358.610	-8.749	0.223	-0.149
-357.596	15.547	-0.177	0.138
-356.581	800.000	-0.026	0.098
-355.566	-200.000	0.090	0.505
-354.552	-200.000	0.000	-0.154
-353.537	463.257	0.130	-0.288
-352.523	177.260	0.095	-0.138
-351.508	-200.000	-0.028	-0.140
-350.493	-65.128	-0.119	0.048
-349.479	240.399	0.155	0.257
-348.464	-195.727	-0.280	-0.002
-347.450	87.903	0.161	-0.177
-346.435	6.452	0.090	-0.067
-345.420	-69.713	-0.173	0.066
-344.406	-200.000	0.027	0.157
-343.391	-109.627	-0.105	-0.022
-342.377	-107.353	-0.363	-0.079
-341.362	717.459	-0.039	0.102
-340.348	-43.043	-0.198	-0.100
-339.333	157.368	0.163	-0.224
-338.318	1.751	-0.151	0.108
-337.304	413.107	0.083	0.175
-336.289	-159.990	0.193	-0.010
-335.275	-43.495	0.402	0.202
-334.260	231.434	0.065	-0.105
-333.245	171.655	0.206	-0.293
-332.231	800.000	-0.107	0.310
-331.216	539.422	0.175	-0.415
-330.202	-0.381	-0.181	-0.128
-329.187	106.812	-0.100	0.118
-328.172	24.730	-0.100	0.082
-327.158	54.999	-0.096	0.092
-326.143	-200.000	0.004	-0.360
-325.129	-35.115	-0.236	-0.128
-324.114	-193.176	0.042	-0.000
-323.099	79.959	0.248	0.265
-322.085	23.397	0.258	-0.211
-321.070	-72.139	0.347	0.128
-320.056	-89.874	0.198	-0.057
-319.041	-27.077	0.082	-0.048
-318.026	-135.914	0.241	0.028
-317.012	620.725	-0.079	-0.198
-315.997	11.330	0.222	-0.169
-314.983	800.000	0.037	0.134
-313.968	800.000	0.044	-0.182
-312.953	64.378	-0.105	-0.105
-311.939	-101.275	-0.218	-0.053
-310.924	244.832	0.099	0.165
-309.910	422.271	-0.057	-0.122
-308.895	-133.200	0.314	0.039
-307.880	-200.000	-0.020	0.120
-306.866	71.109	0.150	0.154
-305.851	46.894	-0.161	-0.148
-304.837	-91.887	0.106	-0.030
-303.822	800.000	-0.113	0.439
-302.807	800.000	-0.171	-0.660
-301.793	140.976	-0.071	0.093
-300.778	-200.000	-0.043	0.242
-299.764	-50.115	0.092	0.043
-298.749	794.098	0.097	0.264
-297.735	797.960	0.171	-0.467
-296.720	56.497	-0.148	-0.143
-295.705	-42.281	0.235	-0.119
-294.691	84.216	0.308	-0.334
-293.676	171.051	0.143	-0.203
-292.662	-200.000	0.017	-0.132
-291.647	800.000	-0.109	0.307
-290.632	195.443	0.169	0.255
-289.618	-102.584	0.278	-0.066
-288.603	-101.734	0.458	-0.110
-287.589	168.313	0.159	0.224
-286.574	800.000	-0.037	-0.121
-285.559	284.883	-0.075	-0.134
-284.545	-58.197	-0.401	-0.173
-283.530	-60.230	-0.116	0.049
-282.516	-200.000	-0.032	-0.144
-281.501	0.974	0.021	-0.015
-280.486	658.289	0.074	-0.189
-279.472	-144.451	-0.314	0.029
-278.457	77.397	0.218	-0.230
-277.443	24.541	0.171	0.140
-276.428	-200.000	-0.008	0.405
-275.413	285.828	-0.122	0.219
-274.399	-198.361	0.153	0.001
-273.384	20.554	0.206	0.165
-272.370	-200.000	0.053	-0.256
-271.355	800.000	0.100	0.379
-270.340	43.239	0.121	-0.109
-269.326	-200.000	-0.026	0.147
-268.311	-76.988	0.298	0.103
-267.297	-116.782	0.187	-0.034
-266.282	-147.960	-0.092	0.008
-265.267	142.063	-0.287	0.377
-264.253	-19.078	-0.150	0.092
-263.238	595.246	0.080	-0.196
-262.224	-34.857	-0.197	-0.106
-261.209	-200.000	0.050	-0.281
-260.195	800.000	-0.054	-0.175
-259.180	-7.917	-0.069	-0.046
-258.165	-35.617	0.134	-0.072
-257.151	-88.443	0.480	-0.142
-256.136	-200.000	0.056	-0.485
-255.122	-129.099	-0.312	-0.043
-254.107	800.000	0.095	-0.299
-253.092	1.385	-0.190	-0.135
-252.078	800.000	-0.086	-0.309
-251.063	263.877	-0.206	0.355
-250.049	-116.141	-0.297	0.055
-249.034	50.570	-0.209	0.196
-248.019	541.126	0.086	0.203
-247.005	-62.458	0.300	-0.123
-245.990	116.979	0.103	0.125
-244.976	58.091	-0.057	-0.055
-243.961	218.226	0.073	0.116
-242.946	-200.000	-0.062	0.278
-241.932	-18.232	-0.099	-0.061
-240.917	13.639	0.265	0.204
-239.903	70.860	0.021	0.022
-238.888	247.866	-0.154	0.258
-237.873	-62.297	-0.450	-0.185
-236.859	-200.000	0.018	-0.210
-235.844	292.848	0.181	0.326
-234.830	130.405	-0.141	-0.179
-233.815	199.277	-0.187	0.284
-232.800	292.356	0.098	0.177
-231.786	-10.233	-0.105	-0.069
-230.771	-200.000	-0.030	-0.326
-229.757	220.160	-0.128	0.204
-228.742	332.118	0.106	-0.203
-227.727	-200.000	0.057	0.516
-226.713	116.508	-0.195	-0.237
-225.698	150.141	-0.114	-0.152
-224.684	130.360	0.216	0.273
-223.669	800.000	-0.017	-0.072
-222.655	-27.191	-0.446	0.257
-221.640	-90.271	0.159	0.046
-220.625	22.798	-0.163	-0.132
-219.611	71.443	-0.142	0.146
-218.596	82.150	0.184	-0.198
-217.582	353.400	0.059	-0.115
-216.567	92.725	0.060	-0.067
-215.552	-91.672	0.134	-0.038
-214.538	173.768	-0.171	-0.244
-213.523	31.786	0.196	0.167
-212.509	-200.000	0.012	-0.106
-211.494	123.514	-0.228	0.283
-210.479	562.793	-0.044	0.104
-209.465	800.000	0.042	0.137
-208.450	-200.000	0.004	-0.204
-207.436	-135.949	-0.254	-0.030
-206.421	-57.439	-0.412	0.179
-205.406	305.434	0.029	-0.053
-204.392	129.415	0.015	-0.019
-203.377	-31.332	-0.116	-0.064
-202.363	-86.416	-0.170	-0.052
-201.348	125.944	-0.060	-0.075
-200.333	737.128	0.181	-0.481
-199.319	480.737	0.150	0.336
-198.304	-200.000	-0.016	0.106
-197.290	26.034	0.195	0.161
-196.275	-200.000	-0.006	0.272
-195.260	-136.299	0.062	-0.007
-194.246	-71.191	0.134	0.050
-193.231	271.618	-0.107	-0.187
-192.217	-200.000	-0.019	0.227
-191.202	128.855	-0.137	0.172
-190.187	-119.470	-0.424	0.073
-189.173	800.000	0.094	-0.297
-188.158	-155.506	0.355	-0.023
-187.144	-200.000	0.003	0.112
-186.129	237.906	-0.170	0.279
-185.114	210.912	-0.049	0.076
-184.100	413.948	0.088	0.185
-183.085	-200.000	-0.011	-0.324
-182.071	-200.000	-0.026	-0.191
-181.056	-15.080	0.365	0.231
-180.042	-200.000	-0.028	0.139
-179.027	-13.844	-0.110	0.070
-178.012	-19.760	-0.217	0.133
-176.998	800.000	-0.068	-0.200
-175.983	223.793	0.038	0.061
-174.969	-200.000	-0.063	0.335
-173.954	-70.115	0.167	-0.063
-172.939	138.987	0.292	-0.379
-171.925	800.000	0.016	-0.045
-170.910	-19.496	0.152	0.093
-169.896	83.026	-0.197	0.211
-168.881	800.000	0.107	-0.425
-167.866	-200.000	-0.007	-0.057
-166.852	800.000	-0.036	-0.147
-165.837	13.093	-0.241	0.185
-164.823	-200.000	0.020	-0.253
-163.808	-125.168	-0.004	-0.001
-162.793	-200.000	0.066	0.412
-161.779	265.049	0.173	0.298
-160.764	205.674	0.118	0.181
-159.750	800.000	0.022	0.080
-158.735	800.000	0.039	0.137
-157.720	301.288	-0.058	0.106
-156.706	800.000	-0.085	0.282
-155.691	288.522	0.157	-0.281
-154.677	12.398	0.127	-0.096
-153.662	223.267	-0.037	0.059
-152.647	-127.432	0.291	-0.042
-151.633	-5.659	0.116	0.079
-150.618	-200.000	0.018	-0.105
-149.604	22.244	0.073	0.059
-148.589	12.726	-0.052	0.040
-147.574	304.207	0.005	-0.009
-146.560	-200.000	0.033	0.274
-145.545	-147.296	-0.298	-0.025
-144.531	-13.503	-0.162	0.103
-143.516	-71.612	0.179	-0.066
-142.502	-200.000	0.046	0.319
-141.487	-200.000	-0.040	-0.261
-140.472	504.573	0.189	0.432
-139.458	159.081	0.168	-0.230
-138.443	800.000	-0.101	-0.389
-137.429	-200.000	-0.017	0.118
-136.414	800.000	-0.026	0.103
-135.399	-200.000	-0.033	-0.239
-134.385	-39.823	0.139	0.072
-133.370	322.654	0.051	-0.096
-132.356	304.407	-0.050	0.091
-131.341	-200.000	-0.060	0.310
-130.326	800.000	0.046	0.139
-129.312	109.183	0.320	0.378
-128.297	-97.308	-0.326	0.084
-127.283	-49.735	0.143	-0.067
-126.268	-200.000	-0.008	0.085
-125.253	-153.150	-0.242	-0.017
-124.239	-200.000	0.003	-0.093
-123.224	-92.283	0.109	0.030
-122.210	-77.401	-0.032	0.011
-121.195	800.000	0.058	0.190
-120.180	800.000	-0.019	0.056
