DTS Sentinel unit serial number:	SN413079Multiplexer serial number:	ORYXHardware model number:	OX4-SRSoftware version number:	ORYX F/W v4.00 Oryx Data Collector v3.7.2.0data status	okinstallation	princeton_trtdifferential loss correction	single-endedforward channel	channel 1reverse channel	N/Adate	2019/09/13time	14:10:35forward acquisition time	60.00reverse acquisition time	0.00gamma	496.2192k internal	0.2302k external	0.2302temperature offset calibration	1.0165default loss term (dB/km)	0.3790temperature slope calibration	1.0000multiplexer offset coefficient	1.0000multiplexer slope coefficient	1.0000fibre end	0.00T internal ref (°C)	35.25T ext. ref 1 (°C)	4.61T ext. ref 2 (°C)	30.32length (m)	temperature (°C)	Stokes	anti-Stokes-747.200	529.476	0.071	-0.172
-746.185	53.572	-0.033	-0.032
-745.171	-72.833	0.168	-0.063
-744.156	228.191	0.044	-0.073
-743.142	-30.041	0.061	-0.035
-742.127	-72.598	0.266	0.100
-741.112	321.597	0.115	0.222
-740.098	-93.038	0.186	0.053
-739.083	-200.000	0.000	0.036
-738.069	-200.000	0.017	0.244
-737.054	-54.648	-0.412	0.190
-736.039	-42.774	-0.412	0.213
-735.025	-52.428	-0.262	-0.124
-734.010	184.658	0.197	-0.297
-732.996	-200.000	-0.051	-0.327
-731.981	-200.000	-0.007	-0.257
-730.966	-134.232	0.116	-0.015
-729.952	-80.993	0.141	0.047
-728.937	72.533	-0.166	-0.177
-727.923	-200.000	0.016	-0.234
-726.908	60.664	0.175	0.176
-725.894	179.018	-0.223	0.333
-724.879	-200.000	0.011	-0.125
-723.864	-15.065	-0.372	-0.243
-722.850	-84.785	-0.632	-0.202
-721.835	13.364	-0.141	0.111
-720.821	-200.000	0.005	0.070
-719.806	800.000	0.116	-0.457
-718.791	-189.266	0.136	0.002
-717.777	-134.827	0.129	-0.016
-716.762	-200.000	-0.010	0.119
-715.748	175.728	-0.174	0.257
-714.733	-38.065	-0.305	-0.165
-713.718	-200.000	0.013	0.059
-712.704	790.251	0.064	-0.180
-711.689	-109.560	-0.159	0.034
-710.675	-81.553	-0.313	0.105
-709.660	800.000	-0.080	-0.297
-708.645	106.393	-0.188	-0.227
-707.631	800.000	0.075	-0.242
-706.616	262.458	-0.066	-0.116
-705.602	217.707	-0.282	-0.458
-704.587	-152.079	0.201	-0.015
-703.572	131.253	0.195	0.255
-702.558	225.109	0.047	-0.077
-701.543	-99.251	-0.075	-0.019
-700.529	309.651	0.183	0.349
-699.514	292.684	-0.117	-0.217
-698.499	97.259	-0.105	-0.123
-697.485	-185.254	-0.380	-0.006
-696.470	800.000	0.035	-0.138
-695.456	-200.000	-0.010	0.127
-694.441	0.347	0.310	0.225
-693.426	-27.325	-0.330	-0.196
-692.412	-77.584	0.142	0.050
-691.397	-200.000	-0.002	0.048
-690.383	-200.000	-0.022	0.147
-689.368	-200.000	-0.003	0.196
-688.354	-17.481	-0.209	0.133
-687.339	-18.513	-0.161	-0.102
-686.324	-147.938	-0.263	-0.022
-685.310	800.000	-0.011	-0.050
-684.295	-30.954	0.213	0.122
-683.281	-11.387	-0.092	-0.061
-682.266	-62.687	0.152	0.064
-681.251	-71.967	-0.177	-0.067
-680.237	223.687	0.182	0.299
-679.222	55.249	0.124	-0.122
-678.208	-148.138	0.111	0.009
-677.193	150.102	-0.167	0.230
-676.178	318.785	0.145	-0.280
-675.164	129.922	-0.110	0.143
-674.149	-149.452	-0.245	-0.020
-673.135	-200.000	-0.050	0.385
-672.120	-200.000	-0.012	-0.108
-671.105	-200.000	-0.037	-0.184
-670.091	800.000	-0.133	-0.521
-669.076	-119.678	0.152	0.027
-668.062	-169.163	0.209	0.008
-667.047	800.000	-0.069	-0.224
-666.032	-132.855	0.573	0.074
-665.018	800.000	-0.059	-0.169
-664.003	41.367	0.390	-0.358
-662.989	-13.586	0.177	-0.116
-661.974	128.544	-0.137	-0.177
-660.959	35.993	-0.159	-0.142
-659.945	-68.861	0.433	0.170
-658.930	102.895	0.182	-0.217
-657.916	-47.905	0.206	-0.101
-656.901	-90.136	0.454	0.134
-655.886	-67.953	0.257	-0.102
-654.872	646.891	-0.049	0.126
-653.857	-13.748	0.362	-0.238
-652.843	-128.117	-0.319	-0.046
-651.828	5.953	0.184	-0.138
-650.814	-200.000	0.018	0.109
-649.799	-40.845	-0.477	-0.251
-648.784	-104.097	0.198	-0.047
-647.770	94.652	0.142	0.164
-646.755	165.080	-0.126	-0.181
-645.741	800.000	-0.035	-0.128
-644.726	-48.241	-0.169	-0.083
-643.711	334.534	0.136	0.268
-642.697	-175.313	0.365	0.010
-641.682	146.218	-0.204	-0.277
-640.668	97.927	0.117	-0.137
-639.653	-200.000	-0.012	-0.111
-638.638	301.410	0.144	0.270
-637.624	-112.107	-0.135	0.028
-636.609	83.501	0.148	-0.164
-635.595	-48.898	0.013	-0.007
-634.580	64.131	0.140	-0.142
-633.565	23.377	-0.331	-0.276
-632.551	468.101	-0.166	-0.378
-631.536	512.552	-0.124	-0.293
-630.522	53.151	-0.342	-0.332
-629.507	-124.539	-0.136	0.021
-628.492	-110.571	-0.060	-0.013
-627.478	-200.000	0.031	0.271
-626.463	-109.936	0.135	-0.029
-625.449	38.732	0.192	-0.174
-624.434	-19.539	-0.184	-0.115
-623.419	-10.140	0.312	-0.210
-622.405	-200.000	0.024	0.341
-621.390	-97.451	-0.277	-0.073
-620.376	399.882	-0.131	-0.278
-619.361	-200.000	-0.015	-0.142
-618.346	224.337	0.068	-0.111
-617.332	7.813	-0.190	0.145
-616.317	800.000	0.119	0.346
-615.303	-3.314	-0.126	-0.089
-614.288	428.802	-0.137	-0.300
-613.273	-200.000	-0.059	-0.420
-612.259	102.481	-0.069	0.082
-611.244	571.364	-0.016	0.039
-610.230	-16.253	0.155	0.100
-609.215	227.281	-0.147	-0.243
-608.201	-121.299	0.381	0.064
-607.186	-10.104	-0.165	0.111
-606.171	-71.821	-0.271	-0.102
-605.157	493.124	0.026	-0.060
-604.142	68.099	-0.205	0.212
-603.128	-153.735	0.322	0.022
-602.113	-28.575	-0.125	0.073
-601.098	-58.758	0.312	-0.137
-600.084	310.273	-0.066	0.125
-599.069	-147.233	0.255	-0.022
-598.055	199.808	0.093	-0.145
-597.040	800.000	-0.089	-0.270
-596.025	78.805	-0.332	0.360
-595.011	-144.214	0.253	0.024
-593.996	24.966	0.250	-0.210
-592.982	-6.656	0.189	0.130
-591.967	316.376	0.139	0.266
-590.952	-2.381	0.134	0.095
-589.938	36.827	-0.232	0.207
-588.923	-80.803	-0.041	0.014
-587.909	-108.180	-0.333	-0.073
-586.894	-77.543	-0.249	-0.088
-585.879	-24.271	0.044	0.027
-584.865	800.000	0.031	0.122
-583.850	-78.343	-0.126	0.044
-582.836	447.999	0.068	0.152
-581.821	-135.917	-0.189	0.023
-580.806	-34.851	0.173	0.096
-579.792	-200.000	-0.024	0.157
-578.777	280.273	-0.121	-0.219
-577.763	-177.204	-0.234	0.006
-576.748	-175.144	0.095	0.003
-575.733	-65.757	0.118	-0.048
-574.719	-152.347	-0.090	0.007
-573.704	191.329	0.060	0.091
-572.690	-81.439	-0.240	0.080
-571.675	310.389	0.182	-0.345
-570.661	82.450	0.106	-0.117
-569.646	354.259	-0.025	-0.050
-568.631	-47.778	0.320	0.157
-567.617	800.000	0.120	-0.383
-566.602	-123.136	-0.204	0.033
-565.588	-110.316	0.257	-0.054
-564.573	19.169	-0.074	-0.060
-563.558	346.092	0.079	0.158
-562.544	-98.891	-0.092	0.024
-561.529	157.273	0.237	0.332
-560.515	-123.849	0.221	-0.035
-559.500	-200.000	-0.023	-0.113
-558.485	-110.005	-0.327	0.069
-557.471	-200.000	0.000	0.256
-556.456	417.687	-0.054	-0.117
-555.442	53.794	0.075	-0.073
-554.427	26.592	-0.180	0.153
-553.412	-200.000	0.446	0.001
-552.398	-151.256	0.128	-0.010
-551.383	-187.083	0.253	0.004
-550.369	-143.199	0.136	-0.013
-549.354	-200.000	-0.013	0.486
-548.339	281.428	0.109	0.197
-547.325	560.180	0.103	0.252
-546.310	289.439	0.027	0.049
-545.296	-200.000	0.009	-0.192
-544.281	-16.277	-0.273	-0.175
-543.266	208.795	-0.187	-0.296
-542.252	474.575	-0.056	-0.127
-541.237	440.331	-0.068	-0.150
-540.223	622.934	-0.029	-0.075
-539.208	311.017	0.074	0.140
-538.193	180.500	-0.047	0.070
-537.179	-111.027	0.107	-0.022
-536.164	-103.385	0.342	-0.081
-535.150	-169.911	-0.366	-0.013
-534.135	11.994	0.282	-0.219
-533.121	2.042	-0.154	-0.112
-532.106	-200.000	0.001	0.199
-531.091	26.789	-0.233	-0.197
-530.077	-50.398	-0.063	0.030
-529.062	380.135	-0.112	-0.232
-528.048	116.634	-0.174	0.216
-527.033	-100.436	-0.067	0.017
-526.018	86.780	-0.160	-0.179
-525.004	-29.961	-0.146	0.084
-523.989	-98.817	0.130	-0.034
-522.975	208.243	-0.070	0.111
-521.960	-200.000	-0.017	0.124
-520.945	342.025	0.115	-0.228
-519.931	35.514	0.147	-0.131
-518.916	-111.133	-0.182	-0.038
-517.902	-175.595	-0.168	0.005
-516.887	800.000	0.071	0.257
-515.872	-112.537	-0.172	-0.035
-514.858	-200.000	0.035	0.161
-513.843	-36.724	0.162	0.088
-512.829	10.873	0.120	-0.093
-511.814	-65.651	0.272	-0.110
-510.799	17.445	-0.147	0.118
-509.785	118.866	0.033	-0.042
-508.770	130.684	-0.124	-0.160
-507.756	-132.111	0.147	0.019
-506.741	20.059	-0.011	0.009
-505.726	24.802	0.232	0.194
-504.712	299.098	0.120	0.223
-503.697	226.661	-0.205	-0.337
-502.683	77.609	0.360	0.386
-501.668	-82.139	0.315	-0.104
-500.653	-18.697	-0.265	-0.167
-499.639	106.709	-0.052	0.062
-498.624	482.979	-0.030	-0.069
-497.610	-38.955	-0.086	0.046
-496.595	385.846	0.023	-0.048
-495.581	-148.328	-0.156	0.013
-494.566	209.692	-0.049	0.078
-493.551	111.498	0.356	0.433
-492.537	-90.852	0.225	0.066
-491.522	-68.911	-0.029	-0.011
-490.508	-126.129	-0.322	0.049
-489.493	-200.000	-0.040	0.270
-488.478	341.229	0.045	0.088
-487.464	-33.921	-0.057	0.032
-486.449	-60.358	-0.238	0.102
-485.435	800.000	-0.034	-0.131
-484.420	-25.631	-0.022	0.013
-483.405	-153.652	-0.641	0.045
-482.391	-9.023	0.283	0.191
-481.376	-152.116	0.235	-0.017
-480.362	-74.675	0.221	-0.080
-479.347	-140.847	0.244	-0.025
-478.332	107.519	-0.078	0.094
-477.318	261.771	0.094	0.164
-476.303	-89.666	-0.184	-0.054
-475.289	-100.617	-0.239	-0.059
-474.274	800.000	-0.052	-0.217
-473.259	151.942	0.028	0.038
-472.245	800.000	0.091	-0.289
-471.230	15.960	0.128	0.101
-470.216	85.619	-0.346	0.384
-469.201	-4.982	-0.255	0.177
-468.186	-135.032	0.313	-0.038
-467.172	-28.015	-0.346	-0.202
-466.157	-97.024	-0.158	0.042
-465.143	-139.690	-0.340	0.037
-464.128	-200.000	-0.002	0.103
-463.113	-200.000	-0.001	0.110
-462.099	-25.763	0.175	0.104
-461.084	144.881	0.080	0.107
-460.070	-200.000	-0.013	-0.056
-459.055	800.000	0.063	0.218
-458.040	-53.870	0.310	-0.142
-457.026	-57.954	-0.377	-0.166
-456.011	-101.995	0.329	-0.080
-454.997	-17.252	0.347	0.220
-453.982	-20.844	-0.057	-0.035
-452.968	158.124	0.091	0.127
-451.953	414.130	0.044	-0.095
-450.938	800.000	-0.041	-0.160
-449.924	47.681	-0.165	-0.155
-448.909	57.430	0.167	0.165
-447.895	-146.626	0.208	0.018
-446.880	96.685	0.193	0.223
-445.865	61.600	0.043	-0.043
-444.851	579.254	0.114	-0.280
-443.836	-25.488	0.086	-0.051
-442.822	800.000	0.055	-0.192
-441.807	800.000	-0.098	0.296
-440.792	-198.056	0.274	-0.002
-439.778	-135.435	-0.324	-0.039
-438.763	-97.594	-0.322	0.084
-437.749	148.698	-0.063	-0.086
-436.734	-200.000	-0.035	0.199
-435.719	24.342	-0.156	0.130
-434.705	-200.000	0.196	-0.001
-433.690	10.173	0.085	-0.065
-432.676	388.515	0.162	-0.338
-431.661	-200.000	0.003	0.245
-430.646	-200.000	0.022	-0.333
-429.632	166.916	0.154	0.220
-428.617	110.079	-0.176	-0.212
-427.603	-176.981	0.201	-0.005
-426.588	-167.725	-0.350	0.014
-425.573	-94.444	0.083	-0.023
-424.559	800.000	-0.058	0.190
-423.544	800.000	0.093	-0.343
-422.530	-200.000	-0.026	0.153
-421.515	-200.000	-0.027	0.206
-420.500	-55.020	0.318	-0.144
-419.486	-200.000	0.032	0.169
-418.471	-114.935	-0.022	0.004
-417.457	97.727	0.175	0.203
-416.442	-89.020	0.224	-0.067
-415.428	15.837	-0.184	-0.145
-414.413	-168.650	0.210	-0.008
-413.398	-200.000	-0.012	0.103
-412.384	-200.000	0.033	-0.162
-411.369	-15.674	-0.195	-0.125
-410.355	130.150	0.112	0.144
-409.340	182.579	-0.129	-0.191
-408.325	-200.000	-0.049	-0.241
-407.311	348.489	0.010	-0.019
-406.296	-76.698	-0.066	0.023
-405.282	-185.574	0.208	-0.003
-404.267	183.494	0.109	-0.162
-403.252	800.000	-0.054	0.199
-402.238	486.902	-0.033	-0.076
-401.223	-146.876	0.223	-0.019
-400.209	-22.766	0.171	-0.104
-399.194	-99.823	0.146	0.037
-398.179	225.980	0.072	0.118
-397.165	73.729	-0.289	-0.304
-396.150	82.355	-0.222	-0.242
-395.136	800.000	0.117	-0.351
-394.121	-200.000	0.011	-0.089
-393.106	-200.000	-0.002	-0.177
-392.092	5.982	-0.018	-0.014
-391.077	-200.000	-0.017	-0.416
-390.063	-98.936	0.092	0.023
-389.048	-89.335	0.259	0.077
-388.033	276.728	0.084	0.151
-387.019	-59.524	-0.248	-0.107
-386.004	-65.811	0.044	-0.018
-384.990	-123.868	0.160	0.025
-383.975	-200.000	-0.021	0.323
-382.960	6.921	0.107	0.080
-381.946	97.151	-0.181	0.209
-380.931	126.944	-0.089	0.114
-379.917	-42.422	-0.147	-0.075
-378.902	381.476	-0.066	-0.136
-377.888	-48.388	-0.113	0.055
-376.873	19.485	0.263	-0.212
-375.858	-200.000	0.023	0.284
-374.844	-200.000	0.031	-0.176
-373.829	59.353	0.145	-0.144
-372.815	198.645	0.125	0.192
-371.800	16.762	-0.278	-0.221
-370.785	-91.476	-0.069	-0.020
-369.771	420.180	-0.080	0.171
-368.756	27.654	-0.041	0.035
-367.742	134.141	0.163	-0.212
-366.727	-70.922	0.038	-0.014
-365.712	-157.877	0.060	0.004
-364.698	-200.000	0.001	0.371
-363.683	-108.410	0.146	-0.032
-362.669	-200.000	0.012	0.062
-361.654	97.556	-0.107	0.123
-360.639	-200.000	0.048	0.242
-359.625	-200.000	0.029	-0.176
-358.610	679.175	0.129	0.338
-357.596	37.348	0.066	-0.059
-356.581	-82.053	0.217	-0.071
-355.566	-112.498	0.249	0.050
-354.552	-200.000	-0.021	-0.459
-353.537	-200.000	-0.020	-0.143
-352.523	-6.662	-0.022	-0.015
-351.508	269.024	0.143	0.252
-350.493	-200.000	0.031	0.174
-349.479	76.095	-0.282	-0.300
-348.464	-178.975	-0.133	-0.003
-347.450	-200.000	0.041	-0.437
-346.435	-200.000	-0.004	-0.043
-345.420	-71.381	-0.026	-0.010
-344.406	800.000	0.097	0.284
-343.391	-127.940	-0.117	-0.017
-342.377	-200.000	0.009	0.100
-341.362	23.098	0.076	-0.062
-340.348	-200.000	0.018	0.266
-339.333	-20.425	-0.242	0.149
-338.318	-109.905	0.159	-0.033
-337.304	-200.000	0.010	0.415
-336.289	159.108	-0.183	0.255
-335.275	-126.564	0.193	-0.029
-334.260	677.826	0.103	-0.269
-333.245	-36.136	0.053	-0.029
-332.231	800.000	-0.022	-0.064
-331.216	-99.533	0.230	0.058
-330.202	-133.879	-0.193	-0.024
-329.187	-200.000	0.026	-0.126
-328.172	223.377	0.128	0.206
-327.158	48.081	0.209	-0.196
-326.143	615.214	0.065	0.162
-325.129	-200.000	0.210	-0.000
-324.114	-78.112	-0.264	-0.091
-323.099	719.982	-0.036	0.095
-322.085	203.608	-0.056	0.087
-321.070	90.285	0.161	0.181
-320.056	116.610	-0.075	0.092
-319.041	57.638	-0.179	0.175
-318.026	-119.963	0.152	0.026
-317.012	39.577	0.128	-0.115
-315.997	-28.337	-0.169	0.098
-314.983	112.730	0.294	0.357
-313.968	800.000	-0.028	0.116
-312.953	-38.912	0.205	0.108
-311.939	5.407	-0.173	0.128
-310.924	29.255	0.219	-0.186
-309.910	-16.991	-0.079	-0.050
-308.895	-174.318	-0.471	-0.014
-307.880	-96.804	-0.129	-0.034
-306.866	-112.266	-0.225	-0.045
-305.851	460.529	-0.090	0.200
-304.837	70.565	0.184	0.191
-303.822	-61.408	0.229	0.097
-302.807	169.805	-0.086	0.123
-301.793	-167.084	-0.281	-0.011
-300.778	800.000	0.088	0.272
-299.764	-97.569	-0.299	-0.078
-298.749	239.253	-0.047	0.078
-297.735	302.444	-0.014	0.026
-296.720	-18.710	0.174	-0.108
-295.705	-200.000	0.012	-0.255
-294.691	-113.469	-0.128	-0.025
-293.676	-62.521	0.292	-0.121
-292.662	245.551	-0.132	-0.222
-291.647	-200.000	0.006	-0.202
-290.632	-130.587	0.256	-0.035
-289.618	-144.743	-0.017	-0.002
-288.603	-60.881	-0.305	-0.129
-287.589	-152.386	0.211	-0.015
-286.574	211.203	0.231	-0.363
-285.559	143.603	-0.277	-0.369
-284.545	-141.777	0.117	0.012
-283.530	591.229	-0.056	-0.137
-282.516	387.618	0.035	-0.072
-281.501	-1.373	-0.240	-0.170
-280.486	-200.000	0.017	-0.242
-279.472	-113.719	-0.150	0.029
-278.457	-116.035	0.075	-0.014
-277.443	192.326	-0.166	0.251
-276.428	287.455	0.017	-0.031
-275.413	683.404	-0.102	0.266
-274.399	-83.891	0.412	-0.131
-273.384	80.164	0.097	-0.104
-272.370	-200.000	-0.012	-0.283
-271.355	203.136	0.113	0.174
-270.340	-65.047	-0.259	0.104
-269.326	-200.000	0.080	0.356
-268.311	313.342	0.065	0.123
-267.297	-200.000	0.005	0.271
-266.282	-140.400	0.139	-0.015
-265.267	72.368	0.127	0.132
-264.253	-77.018	-0.147	0.051
-263.238	-200.000	0.042	-0.480
-262.224	-42.295	0.187	0.095
-261.209	800.000	0.059	-0.194
-260.195	-65.234	0.108	-0.043
-259.180	-73.623	-0.108	0.039
-258.165	173.967	-0.187	-0.270
-257.151	-200.000	-0.041	-0.199
-256.136	-200.000	-0.032	-0.204
-255.122	705.241	-0.072	0.189
-254.107	-122.418	-0.427	0.070
-253.092	13.182	0.298	0.231
-252.078	-109.232	-0.384	0.081
-251.063	579.066	-0.120	-0.293
-250.049	68.128	0.049	0.050
-249.034	-35.676	-0.228	-0.123
-248.019	-180.853	0.242	-0.005
-247.005	45.176	-0.201	-0.185
-245.990	-200.000	0.002	0.286
-244.976	-200.000	0.010	-0.061
-243.961	-14.031	0.066	0.042
-242.946	800.000	0.077	0.257
-241.932	-200.000	-0.015	-0.115
-240.917	240.961	-0.107	-0.178
-239.903	160.645	-0.263	0.366
-238.888	-161.484	0.304	-0.016
-237.873	-90.524	0.191	-0.055
-236.859	561.540	-0.019	0.047
-235.844	-100.484	0.163	0.040
-234.830	800.000	-0.029	-0.098
-233.815	-142.798	-0.330	0.032
-232.800	-10.016	-0.117	-0.077
-231.786	-129.093	0.064	-0.009
-230.771	800.000	0.034	0.129
-229.757	-62.094	0.175	0.073
-228.742	-200.000	0.070	0.375
-227.727	-66.675	-0.258	-0.102
-226.713	-61.693	-0.142	-0.059
-225.698	-2.458	0.163	0.114
-224.684	-87.687	-0.087	-0.026
-223.669	800.000	-0.038	-0.124
-222.655	117.444	0.067	0.082
-221.640	-142.777	0.055	0.005
-220.625	40.981	0.231	0.209
-219.611	-98.833	-0.379	-0.096
-218.596	-155.433	-0.249	-0.016
-217.582	-94.580	-0.203	0.055
-216.567	33.723	-0.124	-0.107
-215.552	716.038	-0.092	0.243
-214.538	-200.000	-0.090	-0.402
-213.523	-21.045	0.098	0.060
-212.509	-200.000	-0.024	-0.295
-211.494	-200.000	0.067	0.447
-210.479	209.942	-0.186	0.291
-209.465	79.623	0.304	0.326
-208.450	707.601	0.162	0.427
-207.436	379.563	0.058	0.118
-206.421	-27.863	0.091	0.052
-205.406	-200.000	0.039	-0.219
-204.392	124.697	0.082	-0.102
-203.377	183.356	-0.190	0.281
-202.363	225.516	0.056	-0.091
-201.348	-200.000	0.034	-0.260
-200.333	567.997	-0.060	0.145
-199.319	800.000	0.005	-0.020
-198.304	124.001	0.077	-0.097
-197.290	-147.554	0.268	0.023
-196.275	368.159	0.031	0.062
-195.260	800.000	-0.023	-0.065
-194.246	-111.884	0.103	-0.021
-193.231	800.000	0.108	0.323
-192.217	800.000	-0.123	0.391
-191.202	277.048	-0.035	-0.063
-190.187	-200.000	0.019	-0.296
-189.173	-14.335	-0.124	-0.080
-188.158	-151.715	0.522	-0.038
-187.144	-151.426	-0.248	0.018
-186.129	187.340	0.039	0.058
-185.114	187.595	-0.162	0.241
-184.100	37.586	-0.081	-0.072
-183.085	93.238	-0.032	0.036
-182.071	136.359	0.221	-0.288
-181.056	-15.389	-0.100	-0.064
-180.042	-200.000	0.013	-0.350
-179.027	-200.000	-0.014	-0.242
-178.012	800.000	0.080	0.321
-176.998	-63.373	-0.437	-0.179
-175.983	-56.394	-0.219	-0.097
-174.969	800.000	0.102	0.410
-173.954	-200.000	-0.045	-0.225
-172.939	552.276	0.113	0.271
-171.925	-58.327	0.390	0.169
-170.910	-36.446	-0.267	-0.143
-169.896	-82.225	-0.418	0.136
-168.881	208.933	-0.082	0.127
-167.866	-54.316	-0.145	-0.065
-166.852	-152.928	-0.253	0.018
-165.837	-200.000	0.000	-0.040
-164.823	-21.612	-0.115	-0.070
-163.808	177.475	-0.068	-0.099
-162.793	51.017	0.350	0.330
-161.779	691.273	0.070	-0.182
-160.764	102.119	0.177	-0.206
-159.750	-200.000	0.023	0.351
-158.735	-139.737	-0.091	0.010
-157.720	9.417	0.147	-0.110
-156.706	-200.000	0.029	0.178
-155.691	33.880	-0.077	-0.067
-154.677	800.000	-0.057	-0.195
-153.662	16.511	-0.165	-0.130
-152.647	526.631	-0.097	0.226
-151.633	800.000	0.054	-0.190
-150.618	140.587	0.314	-0.413
-149.604	229.959	-0.199	0.323
-148.589	-200.000	0.026	-0.177
-147.574	-89.016	0.136	0.040
-146.560	72.037	0.114	-0.118
-145.545	-27.301	0.220	-0.128
-144.531	-141.011	-0.596	-0.061
-143.516	190.744	-0.129	0.193
-142.502	143.192	-0.189	0.251
-141.487	-43.264	0.267	-0.134
-140.472	64.294	0.262	-0.263
-139.458	60.609	0.234	-0.231
-138.443	9.999	0.166	-0.125
-137.429	65.261	0.112	-0.113
-136.414	-151.668	0.372	0.027
-135.399	-200.000	0.093	0.512
-134.385	131.024	0.059	-0.075
-133.370	-108.654	0.187	0.040
-132.356	83.753	-0.074	0.080
-131.341	-156.269	0.286	-0.018
-130.326	800.000	-0.133	-0.371
-129.312	-200.000	0.066	-0.400
-128.297	-44.985	0.253	0.126
-127.283	7.735	-0.338	0.251
-126.268	101.524	-0.152	0.176
-125.253	-16.347	0.146	0.092
-124.239	-50.837	0.310	-0.145
-123.224	800.000	-0.026	0.105
-122.210	83.685	0.106	0.115
