DTS Sentinel unit serial number:	SN413079Multiplexer serial number:	ORYXHardware model number:	OX4-SRSoftware version number:	ORYX F/W v4.00 Oryx Data Collector v3.7.2.0data status	okinstallation	princeton_trtdifferential loss correction	single-endedforward channel	channel 1reverse channel	N/Adate	2019/09/15time	04:14:35forward acquisition time	60.00reverse acquisition time	0.00gamma	496.2192k internal	0.2323k external	0.2323temperature offset calibration	0.9986default loss term (dB/km)	0.3790temperature slope calibration	1.0000multiplexer offset coefficient	1.0000multiplexer slope coefficient	1.0000fibre end	0.00T internal ref (°C)	30.92T ext. ref 1 (°C)	4.63T ext. ref 2 (°C)	25.73length (m)	temperature (°C)	Stokes	anti-Stokes-747.200	-200.000	-0.025	-0.299
-746.185	800.000	0.135	0.391
-745.171	-104.874	0.265	-0.061
-744.156	-110.036	0.287	-0.061
-743.142	-122.903	0.256	0.042
-742.127	-200.000	-0.033	0.418
-741.112	-1.290	-0.068	0.048
-740.098	-84.079	-0.363	0.116
-739.083	800.000	0.106	-0.451
-738.069	-26.013	-0.338	0.201
-737.054	-200.000	-0.002	0.221
-736.039	138.818	-0.054	-0.072
-735.025	-90.595	0.194	0.057
-734.010	14.027	0.231	-0.182
-732.996	734.999	0.068	-0.183
-731.981	775.737	0.128	0.353
-730.966	-200.000	0.009	0.178
-729.952	147.034	-0.289	0.393
-728.937	-120.079	-0.046	-0.008
-727.923	800.000	-0.015	0.052
-726.908	-5.915	-0.176	-0.122
-725.894	-36.554	-0.187	-0.102
-724.879	-165.492	0.218	-0.010
-723.864	-41.913	-0.375	-0.194
-722.850	-99.872	0.197	0.050
-721.835	433.569	0.086	0.189
-720.821	247.036	0.136	0.231
-719.806	298.663	0.118	-0.219
-718.791	287.774	-0.061	-0.111
-717.777	-200.000	-0.007	0.042
-716.762	88.312	-0.092	-0.103
-715.748	200.865	-0.065	-0.101
-714.733	-90.229	-0.279	0.082
-713.718	-133.192	-0.154	0.020
-712.704	-122.185	0.137	0.023
-711.689	-64.246	0.100	-0.041
-710.675	-73.443	-0.316	0.116
-709.660	-5.334	0.142	0.098
-708.645	16.414	-0.288	-0.229
-707.631	77.079	-0.233	-0.250
-706.616	141.303	0.035	-0.046
-705.602	307.702	-0.232	-0.437
-704.587	-62.384	-0.267	0.112
-703.572	494.362	-0.106	0.245
-702.558	-58.830	-0.194	0.085
-701.543	198.976	0.086	-0.133
-700.529	-83.348	0.239	-0.077
-699.514	10.008	-0.074	-0.056
-698.499	-168.138	-0.427	-0.017
-697.485	311.815	-0.071	0.134
-696.470	-116.133	-0.194	0.036
-695.456	430.475	0.179	0.390
-694.441	800.000	-0.073	-0.271
-693.426	26.372	-0.065	-0.055
-692.412	210.535	-0.058	0.092
-691.397	-152.600	-0.116	-0.008
-690.383	112.114	-0.203	-0.247
-689.368	-200.000	0.034	0.389
-688.354	-200.000	0.088	0.436
-687.339	-200.000	-0.039	0.327
-686.324	-14.127	0.239	-0.155
-685.310	443.260	0.107	-0.236
-684.295	722.590	0.050	-0.134
-683.281	-25.349	-0.050	0.030
-682.266	621.293	0.077	-0.195
-681.251	-97.743	-0.453	-0.118
-680.237	-101.321	0.169	0.042
-679.222	-3.291	-0.134	0.094
-678.208	-68.751	0.143	0.056
-677.193	281.135	0.153	-0.275
-676.178	110.661	0.155	-0.188
-675.164	-200.000	0.060	0.285
-674.149	270.944	-0.124	-0.220
-673.135	6.393	0.102	-0.076
-672.120	-101.177	0.223	0.055
-671.105	-147.543	0.438	0.037
-670.091	-135.096	0.382	-0.046
-669.076	-8.436	0.058	-0.039
-668.062	-130.140	-0.098	-0.013
-667.047	259.461	0.135	-0.235
-666.032	147.953	0.197	-0.268
-665.018	110.240	0.053	0.065
-664.003	175.367	0.075	-0.110
-662.989	-1.002	-0.203	-0.145
-661.974	-200.000	-0.012	0.064
-660.959	64.001	-0.206	-0.209
-659.945	252.278	0.276	-0.473
-658.930	-200.000	-0.013	0.185
-657.916	784.450	0.047	0.128
-656.901	284.845	0.103	-0.187
-655.886	16.606	-0.195	0.155
-654.872	-200.000	0.010	0.112
-653.857	48.143	-0.172	0.162
-652.843	244.770	0.168	-0.284
-651.828	-49.080	-0.080	0.038
-650.814	217.115	-0.126	-0.202
-649.799	-200.000	0.033	0.235
-648.784	-136.272	-0.053	-0.006
-647.770	800.000	0.066	0.207
-646.755	216.637	0.026	-0.041
-645.741	-199.321	-0.204	0.001
-644.726	-1.191	0.215	-0.153
-643.711	253.392	0.045	-0.078
-642.697	-27.489	-0.400	0.234
-641.682	77.559	0.246	0.263
-640.668	425.963	0.095	0.205
-639.653	-122.383	-0.176	-0.029
-638.638	451.394	-0.100	-0.221
-637.624	245.913	0.122	0.207
-636.609	-176.037	0.205	0.005
-635.595	96.802	-0.101	-0.116
-634.580	659.732	-0.078	-0.201
-633.565	800.000	0.018	0.054
-632.551	-78.746	0.159	0.055
-631.536	29.132	-0.079	-0.067
-630.522	128.514	0.103	0.132
-629.507	-79.796	-0.181	0.061
-628.492	-147.999	-0.268	0.022
-627.478	-12.429	-0.109	-0.071
-626.463	292.802	-0.237	-0.435
-625.449	331.533	-0.094	0.182
-624.434	187.814	-0.030	-0.045
-623.419	-200.000	-0.006	-0.099
-622.405	558.862	-0.041	-0.100
-621.390	-111.919	-0.093	-0.019
-620.376	156.783	-0.080	-0.111
-619.361	800.000	-0.128	0.357
-618.346	762.536	0.071	0.192
-617.332	-200.000	0.025	-0.369
-616.317	800.000	0.022	-0.096
-615.303	88.559	-0.062	0.069
-614.288	97.027	0.179	-0.207
-613.273	73.104	0.087	-0.091
-612.259	88.072	0.136	0.152
-611.244	-40.667	0.223	0.116
-610.230	5.081	0.140	0.103
-609.215	-200.000	0.073	-0.458
-608.201	-200.000	-0.008	0.128
-607.186	-175.581	0.140	-0.004
-606.171	-60.232	0.287	0.123
-605.157	278.254	-0.116	0.208
-604.142	91.851	0.097	-0.109
-603.128	800.000	-0.100	-0.375
-602.113	42.970	-0.333	-0.305
-601.098	-200.000	-0.039	-0.355
-600.084	668.886	0.096	-0.250
-599.069	-79.863	0.283	0.095
-598.055	142.378	0.015	0.020
-597.040	-98.052	0.045	-0.012
-596.025	-200.000	0.012	0.239
-595.011	800.000	0.019	-0.072
-593.996	-168.400	0.195	0.008
-592.982	-59.498	-0.093	0.040
-591.967	-200.000	-0.022	0.143
-590.952	95.992	0.228	0.261
-589.938	89.359	-0.274	0.306
-588.923	-200.000	0.041	-0.270
-587.909	-200.000	0.030	0.196
-586.894	800.000	0.047	0.203
-585.879	466.496	0.042	0.095
-584.865	239.000	-0.149	-0.249
-583.850	120.161	0.099	0.123
-582.836	800.000	0.046	0.167
-581.821	-200.000	0.014	-0.156
-580.806	-162.560	-0.221	-0.011
-579.792	-164.196	0.307	0.014
-578.777	38.112	-0.268	-0.239
-577.763	59.944	-0.002	-0.002
-576.748	-138.946	0.213	-0.023
-575.733	800.000	0.015	-0.042
-574.719	82.775	-0.145	-0.158
-573.704	-176.498	0.187	0.005
-572.690	1.885	-0.127	-0.092
-571.675	-75.727	-0.152	0.054
-570.661	337.001	-0.154	-0.301
-569.646	24.623	0.076	-0.063
-568.631	-200.000	-0.042	0.238
-567.617	-200.000	-0.048	0.250
-566.602	131.524	0.204	0.263
-565.588	-200.000	0.051	-0.300
-564.573	-92.201	-0.192	-0.054
-563.558	-200.000	0.038	-0.234
-562.544	-200.000	0.001	0.075
-561.529	-200.000	-0.040	0.243
-560.515	-144.662	-0.242	-0.022
-559.500	136.633	0.066	0.087
-558.485	-98.569	-0.247	-0.063
-557.471	277.433	-0.150	-0.267
-556.456	-93.151	0.148	0.041
-555.442	-200.000	-0.021	-0.223
-554.427	360.882	-0.046	-0.092
-553.412	800.000	0.074	0.275
-552.398	-123.953	0.038	0.006
-551.383	125.517	0.085	0.108
-550.369	-200.000	-0.104	-0.481
-549.354	800.000	-0.075	-0.305
-548.339	-74.777	-0.314	0.113
-547.325	80.717	-0.146	-0.158
-546.310	34.873	-0.341	-0.299
-545.296	327.721	-0.173	-0.333
-544.281	-87.416	-0.157	0.048
-543.266	-110.939	0.356	-0.073
-542.252	-200.000	-0.017	-0.138
-541.237	-85.791	0.249	-0.077
-540.223	27.555	-0.085	0.072
-539.208	-167.050	0.064	0.003
-538.193	-83.419	0.158	0.051
-537.179	627.965	-0.067	-0.170
-536.164	800.000	0.091	0.370
-535.150	129.972	-0.294	-0.376
-534.135	55.586	0.442	-0.429
-533.121	-48.271	-0.257	-0.124
-532.106	194.341	0.089	0.135
-531.091	-200.000	-0.024	-0.157
-530.077	-171.421	0.043	-0.001
-529.062	-142.567	0.194	-0.019
-528.048	-38.042	-0.070	0.037
-527.033	-146.873	0.110	0.009
-526.018	42.864	-0.182	0.166
-525.004	-27.773	0.463	-0.269
-523.989	62.786	0.036	-0.036
-522.975	8.210	-0.157	-0.118
-521.960	800.000	-0.053	-0.162
-520.945	-104.425	-0.163	0.038
-519.931	303.594	0.146	0.271
-518.916	800.000	-0.087	-0.253
-517.902	-95.307	-0.233	-0.063
-516.887	462.058	-0.060	-0.134
-515.872	-54.052	0.171	0.078
-514.858	-42.756	-0.125	0.064
-513.843	32.901	0.095	0.082
-512.829	-119.747	-0.206	-0.036
-511.814	-106.135	0.355	0.080
-510.799	-200.000	0.019	0.166
-509.785	-132.971	-0.201	-0.026
-508.770	-120.794	-0.250	0.042
-507.756	-16.161	0.148	0.094
-506.741	-200.000	0.004	-0.064
-505.726	78.005	-0.138	-0.147
-504.712	-85.108	0.124	-0.039
-503.697	481.068	0.089	0.202
-502.683	-73.847	0.193	-0.070
-501.668	800.000	0.030	0.100
-500.653	-200.000	-0.033	0.360
-499.639	44.218	-0.058	-0.053
-498.624	356.990	-0.101	0.202
-497.610	-110.875	0.152	-0.031
-496.595	-200.000	-0.014	-0.150
-495.581	-143.639	0.084	-0.008
-494.566	-77.569	-0.220	0.076
-493.551	-11.025	-0.402	0.265
-492.537	-143.155	0.179	-0.017
-491.522	272.086	0.082	-0.145
-490.508	223.105	-0.231	-0.373
-489.493	-200.000	0.045	-0.208
-488.478	-200.000	-0.026	0.159
-487.464	231.494	-0.176	0.289
-486.449	-200.000	0.065	-0.435
-485.435	-200.000	0.015	-0.222
-484.420	45.895	0.185	0.171
-483.405	800.000	-0.031	0.125
-482.391	-46.760	0.329	-0.161
-481.376	800.000	-0.022	-0.079
-480.362	800.000	0.033	-0.103
-479.347	-200.000	-0.050	-0.233
-478.332	-93.984	0.277	-0.076
-477.318	-139.581	-0.200	-0.021
-476.303	95.791	-0.138	0.158
-475.289	-14.978	-0.364	0.233
-474.274	403.824	0.009	0.020
-473.259	800.000	0.048	-0.157
-472.245	245.248	0.116	0.196
-471.230	-152.388	0.409	0.029
-470.216	542.156	-0.016	0.039
-469.201	247.891	0.029	0.049
-468.186	140.405	-0.288	0.380
-467.172	-38.729	0.110	0.058
-466.157	125.312	-0.095	-0.120
-465.143	-200.000	0.051	0.272
-464.128	93.645	0.153	0.173
-463.113	790.378	-0.107	-0.294
-462.099	798.061	-0.126	0.346
-461.084	525.844	-0.174	0.409
-460.070	-200.000	0.021	0.096
-459.055	58.874	0.267	0.262
-458.040	-12.071	-0.194	0.127
-457.026	721.902	0.076	-0.202
-456.011	515.469	-0.069	-0.160
-454.997	-77.152	0.165	0.057
-453.982	800.000	0.069	-0.214
-452.968	-3.847	-0.122	-0.085
-451.953	-99.037	-0.052	0.013
-450.938	-75.238	-0.258	-0.092
-449.924	-155.464	-0.485	0.031
-448.909	37.707	-0.237	0.210
-447.895	302.365	-0.013	-0.024
-446.880	-139.320	-0.258	0.028
-445.865	-200.000	0.002	0.121
-444.851	-75.009	-0.161	-0.058
-443.836	30.777	-0.027	-0.023
-442.822	-59.374	0.201	-0.086
-441.807	51.169	-0.220	-0.209
-440.792	-83.527	0.259	0.083
-439.778	-151.351	-0.348	-0.026
-438.763	520.844	-0.048	-0.113
-437.749	-100.664	0.080	-0.020
-436.734	-200.000	-0.042	0.387
-435.719	-70.329	0.067	0.025
-434.705	-31.919	-0.113	-0.063
-433.690	800.000	0.057	-0.168
-432.676	-163.974	0.338	-0.016
-431.661	-200.000	-0.032	0.328
-430.646	800.000	-0.055	0.176
-429.632	-31.551	0.272	0.153
-428.617	-19.234	-0.135	0.083
-427.603	376.614	-0.096	-0.196
-426.588	235.811	0.091	-0.150
-425.573	800.000	0.090	0.251
-424.559	800.000	0.068	-0.241
-423.544	39.153	0.254	-0.227
-422.530	-11.361	0.270	0.177
-421.515	21.647	0.152	-0.124
-420.500	9.828	0.110	0.083
-419.486	-107.149	-0.222	-0.049
-418.471	2.786	-0.086	-0.062
-417.457	800.000	0.088	0.283
-416.442	-200.000	0.008	-0.097
-415.428	800.000	0.086	0.330
-414.413	-200.000	-0.061	-0.310
-413.398	-30.758	0.273	-0.154
-412.384	-164.724	-0.174	-0.008
-411.369	-105.365	0.262	-0.059
-410.355	-57.644	0.159	0.070
-409.340	-17.835	0.228	0.143
-408.325	28.837	0.106	-0.090
-407.311	800.000	-0.019	0.072
-406.296	-200.000	-0.028	0.290
-405.282	-8.993	0.437	-0.291
-404.267	-9.674	-0.080	0.053
-403.252	682.434	-0.082	-0.213
-402.238	-168.732	-0.393	-0.015
-401.223	-129.111	-0.235	0.033
-400.209	-147.315	-0.136	0.011
-399.194	-145.462	-0.215	0.019
-398.179	-44.146	-0.043	0.021
-397.165	-200.000	-0.026	0.238
-396.150	-200.000	-0.014	-0.359
-395.136	-200.000	0.033	-0.198
-394.121	177.449	-0.218	0.316
-393.106	-200.000	0.026	0.161
-392.092	-135.476	-0.556	-0.066
-391.077	421.363	-0.198	0.422
-390.063	-200.000	-0.212	0.000
-389.048	17.953	-0.110	0.088
-388.033	743.044	-0.090	0.242
-387.019	-200.000	-0.015	-0.076
-386.004	100.910	-0.033	0.038
-384.990	48.985	0.200	0.187
-383.975	800.000	-0.039	-0.130
-382.960	-54.113	-0.281	0.127
-381.946	800.000	-0.074	-0.234
-380.931	2.031	-0.065	0.047
-379.917	101.093	0.125	-0.145
-378.902	-96.561	0.197	-0.052
-377.888	-49.938	-0.153	-0.072
-376.873	-101.821	-0.293	-0.071
-375.858	-8.302	-0.204	0.137
-374.844	-86.057	-0.100	-0.031
-373.829	-144.913	-0.102	0.009
-372.815	400.792	-0.154	0.322
-371.800	89.139	0.053	0.059
-370.785	3.668	0.300	0.218
-369.771	-56.393	-0.166	-0.073
-368.756	-15.634	-0.240	-0.152
-367.742	800.000	0.027	0.090
-366.727	-0.015	-0.162	-0.114
-365.712	-116.304	0.171	-0.032
-364.698	-12.311	-0.061	0.039
-363.683	-28.568	-0.054	-0.031
-362.669	800.000	-0.097	-0.286
-361.654	-30.558	0.315	-0.177
-360.639	-200.000	0.005	-0.254
-359.625	-123.642	0.169	-0.027
-358.610	-77.786	-0.060	-0.021
-357.596	-141.827	0.272	0.027
-356.581	86.866	-0.183	-0.201
-355.566	322.150	0.107	-0.203
-354.552	208.116	-0.076	0.117
-353.537	-102.017	0.216	0.052
-352.523	737.372	-0.139	0.370
-351.508	-64.080	0.130	-0.053
-350.493	-200.000	0.007	-0.268
-349.479	-200.000	0.040	-0.317
-348.464	800.000	-0.088	-0.312
-347.450	59.732	0.084	-0.082
-346.435	-144.730	0.329	-0.030
-345.420	-14.657	-0.084	-0.054
-344.406	-15.695	0.100	0.063
-343.391	-140.210	0.143	0.015
-342.377	-200.000	-0.010	-0.058
-341.362	131.051	0.086	-0.109
-340.348	800.000	0.090	0.324
-339.333	-39.846	-0.166	-0.086
-338.318	-83.994	-0.209	0.066
-337.304	-87.661	0.214	-0.064
-336.289	-200.000	-0.062	0.329
-335.275	-18.065	0.259	0.161
-334.260	32.588	0.268	-0.230
-333.245	-200.000	0.044	-0.258
-332.231	-27.860	0.126	-0.073
-331.216	344.497	-0.056	0.109
-330.202	466.127	0.087	-0.193
-329.187	800.000	-0.116	0.366
-328.172	-29.501	0.175	-0.099
-327.158	77.995	0.283	-0.300
-326.143	-17.374	-0.098	-0.061
-325.129	-200.000	-0.011	-0.140
-324.114	281.403	0.148	0.264
-323.099	-38.352	-0.220	-0.116
-322.085	-94.363	0.080	-0.022
-321.070	-105.571	0.172	-0.039
-320.056	-200.000	0.041	-0.645
-319.041	-59.902	-0.097	0.041
-318.026	27.172	-0.294	0.245
-317.012	-200.000	-0.006	0.027
-315.997	117.363	-0.288	-0.352
-314.983	112.609	0.094	0.113
-313.968	-122.725	0.150	0.024
-312.953	-200.000	-0.037	0.176
-311.939	-200.000	-0.029	-0.136
-310.924	-200.000	0.001	0.053
-309.910	198.672	0.124	0.188
-308.895	252.701	0.099	-0.167
-307.880	256.190	-0.083	0.142
-306.866	-40.452	-0.443	0.228
-305.851	27.789	-0.076	-0.064
-304.837	75.145	0.101	-0.105
-303.822	-200.000	0.030	-0.154
-302.807	-98.899	0.278	0.070
-301.793	800.000	-0.095	0.344
-300.778	51.949	0.111	0.105
-299.764	-27.750	-0.298	-0.171
-298.749	-181.745	-0.189	0.004
-297.735	356.287	-0.073	-0.144
-296.720	-49.435	0.052	-0.025
-295.705	11.688	0.104	0.079
-294.691	-83.124	-0.170	-0.054
-293.676	-81.088	0.313	0.103
-292.662	9.493	0.103	0.077
-291.647	-200.000	0.017	0.082
-290.632	558.295	0.097	-0.233
-289.618	800.000	-0.047	0.150
-288.603	69.879	-0.175	-0.179
-287.589	-29.251	0.247	0.140
-286.574	-56.306	-0.187	-0.082
-285.559	16.401	0.113	0.089
-284.545	91.847	0.068	-0.076
-283.530	-60.704	0.256	0.107
-282.516	11.153	0.109	0.083
-281.501	508.539	-0.108	-0.249
-280.486	-51.812	0.182	-0.084
-279.472	146.527	-0.192	0.255
-278.457	-101.852	0.485	0.116
-277.443	97.285	0.065	0.074
-276.428	-200.000	-0.010	0.184
-275.413	117.099	-0.150	-0.182
-274.399	124.758	0.053	0.066
-273.384	316.848	-0.087	0.163
-272.370	-167.508	-0.235	-0.009
-271.355	239.837	-0.073	-0.120
-270.340	380.627	0.054	-0.109
-269.326	-151.173	0.143	0.011
-268.311	-6.139	0.020	0.013
-267.297	-41.647	0.152	0.078
-266.282	-76.537	0.059	0.021
-265.267	730.477	0.101	0.268
-264.253	-62.021	-0.370	-0.153
-263.238	-200.000	-0.045	0.216
-262.224	-55.850	0.423	0.187
-261.209	627.336	-0.115	-0.287
-260.195	396.376	0.097	-0.200
-259.180	800.000	-0.113	0.422
-258.165	-200.000	0.004	0.066
-257.151	-132.092	0.178	-0.023
-256.136	173.585	-0.064	-0.091
-255.122	-200.000	-0.005	0.054
-254.107	225.306	-0.018	-0.029
-253.092	42.008	-0.330	-0.297
-252.078	-79.898	-0.087	0.029
-251.063	178.856	0.124	0.180
-250.049	-126.985	-0.057	-0.008
-249.034	172.763	0.130	-0.185
-248.019	109.683	0.101	0.120
-247.005	-19.875	0.203	0.124
-245.990	-200.000	0.026	-0.324
-244.976	-78.694	-0.139	-0.047
-243.961	-200.000	-0.017	-0.206
-242.946	-41.670	-0.086	0.044
-241.932	-200.000	0.029	0.232
-240.917	-200.000	0.025	0.275
-239.903	-51.562	-0.474	0.219
-238.888	69.334	0.136	0.139
-237.873	405.517	-0.037	0.078
-236.859	469.243	0.061	-0.136
-235.844	-2.701	0.068	0.047
-234.830	-200.000	0.024	-0.149
-233.815	800.000	0.125	-0.413
-232.800	-200.000	0.042	0.243
-231.786	-200.000	0.033	0.360
-230.771	478.357	0.092	0.205
-229.757	94.779	-0.213	-0.239
-228.742	35.916	-0.180	0.157
-227.727	-200.000	-0.056	0.282
-226.713	-200.000	0.009	0.114
-225.698	-200.000	0.019	-0.119
-224.684	-173.177	-0.204	0.006
-223.669	-146.833	0.302	-0.026
-222.655	-21.841	-0.268	-0.161
-221.640	-9.779	0.391	-0.257
-220.625	-69.553	-0.116	0.044
-219.611	-70.452	0.267	-0.100
-218.596	-112.456	0.177	0.035
-217.582	-55.889	0.132	-0.058
-216.567	-90.967	-0.175	-0.050
-215.552	47.057	0.149	0.137
-214.538	23.177	0.138	0.112
-213.523	167.108	-0.176	0.246
-212.509	800.000	-0.079	0.283
-211.494	203.684	0.188	-0.287
-210.479	54.171	0.305	0.291
-209.465	-200.000	-0.047	0.261
-208.450	51.933	-0.192	0.181
-207.436	-200.000	-0.054	0.440
-206.421	-77.095	-0.202	0.070
-205.406	-200.000	0.030	-0.236
-204.392	-200.000	0.059	-0.353
-203.377	-113.479	0.200	-0.039
-202.363	-15.192	0.254	0.161
-201.348	-200.000	0.004	0.104
-200.333	-145.254	0.120	-0.011
-199.319	-200.000	0.005	0.099
-198.304	34.167	-0.116	-0.100
-197.290	162.709	-0.166	-0.230
-196.275	154.744	0.202	-0.275
-195.260	-81.727	-0.379	-0.123
-194.246	800.000	0.043	0.142
-193.231	-200.000	0.023	0.290
-192.217	-51.673	-0.236	0.109
-191.202	-25.306	0.100	0.059
-190.187	95.201	0.053	-0.060
-189.173	26.390	-0.168	-0.139
-188.158	0.448	-0.029	0.021
-187.144	800.000	0.094	0.297
-186.129	-67.852	0.063	0.024
-185.114	-200.000	0.042	0.248
-184.100	-103.387	-0.135	0.031
-183.085	-17.712	0.294	0.182
-182.071	800.000	-0.028	0.109
-181.056	0.839	0.331	0.234
-180.042	344.949	0.164	0.319
-179.027	-100.329	0.289	-0.071
-178.012	517.154	-0.069	-0.160
-176.998	-85.104	-0.290	0.090
-175.983	-68.968	0.018	0.007
-174.969	438.144	-0.154	0.333
-173.954	70.732	0.254	-0.260
-172.939	800.000	0.108	0.318
-171.925	61.951	-0.076	-0.074
-170.910	5.592	0.148	0.108
-169.896	114.356	-0.290	-0.349
-168.881	-200.000	-0.002	0.036
-167.866	-18.277	0.078	0.048
-166.852	-20.825	-0.295	0.179
-165.837	157.817	0.140	-0.191
-164.823	200.967	0.037	-0.056
-163.808	-140.165	0.254	0.026
-162.793	383.716	0.331	-0.672
-161.779	800.000	0.036	0.155
-160.764	-68.857	0.107	0.041
-159.750	-200.000	-0.008	-0.273
-158.735	800.000	-0.070	-0.302
-157.720	119.666	-0.150	-0.183
-156.706	660.521	-0.137	0.349
-155.691	31.072	0.212	0.180
-154.677	-200.000	0.008	-0.137
-153.662	-100.782	0.105	0.025
-152.647	800.000	-0.034	-0.120
-151.633	-140.510	-0.403	-0.041
-150.618	66.042	0.146	0.146
-149.604	-134.043	0.207	-0.025
-148.589	-51.668	0.087	-0.040
-147.574	169.278	-0.024	-0.034
-146.560	114.424	0.098	-0.117
-145.545	-200.000	0.011	-0.162
-144.531	161.883	0.060	0.083
-143.516	-200.000	-0.034	-0.194
-142.502	-200.000	-0.027	-0.153
-141.487	152.514	0.098	-0.132
-140.472	-49.547	-0.145	0.068
-139.458	8.341	0.132	0.098
-138.443	800.000	0.077	0.260
-137.429	-105.191	0.163	-0.037
-136.414	-53.868	-0.072	0.032
-135.399	800.000	0.042	0.178
-134.385	-166.906	-0.126	0.005
-133.370	-51.954	-0.360	-0.165
-132.356	109.115	0.124	0.146
-131.341	-200.000	0.029	0.228
-130.326	10.455	0.122	-0.092
-129.312	-131.344	-0.080	0.010
-128.297	800.000	0.101	-0.317
-127.283	-175.724	-0.388	-0.010
-126.268	-171.837	-0.204	0.007
-125.253	-23.731	-0.173	-0.102
-124.239	800.000	-0.073	0.249
-123.224	800.000	0.043	0.119
-122.210	-109.851	0.183	-0.038
-121.195	-200.000	0.021	0.280
