DTS Sentinel unit serial number:	SN413079Multiplexer serial number:	ORYXHardware model number:	OX4-SRSoftware version number:	ORYX F/W v4.00 Oryx Data Collector v3.7.2.0data status	okinstallation	princeton_trtdifferential loss correction	single-endedforward channel	channel 1reverse channel	N/Adate	2019/09/17time	23:02:35forward acquisition time	60.00reverse acquisition time	0.00gamma	496.2192k internal	0.2341k external	0.2341temperature offset calibration	0.9979default loss term (dB/km)	0.3790temperature slope calibration	1.0000multiplexer offset coefficient	1.0000multiplexer slope coefficient	1.0000fibre end	0.00T internal ref (°C)	24.75T ext. ref 1 (°C)	0.17T ext. ref 2 (°C)	17.88length (m)	temperature (°C)	Stokes	anti-Stokes-747.200	83.769	0.227	-0.249
-746.185	-91.035	-0.147	-0.042
-745.171	1.783	0.451	-0.326
-744.156	-200.000	-0.013	-0.251
-743.142	623.010	0.047	0.118
-742.127	800.000	-0.070	0.229
-741.112	777.651	0.150	0.410
-740.098	-136.630	0.172	0.020
-739.083	30.447	-0.112	0.096
-738.069	-105.525	-0.430	0.098
-737.054	233.669	0.027	0.044
-736.039	-75.022	-0.259	0.093
-735.025	-176.715	-0.155	-0.004
-734.010	430.635	0.025	0.053
-732.996	-109.769	-0.061	0.013
-731.981	239.968	-0.144	-0.241
-730.966	272.462	-0.064	0.113
-729.952	-200.000	0.028	-0.277
-728.937	-117.104	0.304	-0.055
-727.923	782.777	0.083	-0.228
-726.908	399.276	-0.192	0.404
-725.894	58.427	0.238	0.233
-724.879	4.948	-0.227	-0.167
-723.864	-50.867	-0.212	0.100
-722.850	-86.987	0.205	-0.062
-721.835	78.828	-0.058	-0.062
-720.821	-199.261	0.298	-0.002
-719.806	32.771	0.241	-0.209
-718.791	-183.493	-0.328	0.006
-717.777	359.044	-0.115	-0.230
-716.762	83.609	-0.083	0.091
-715.748	800.000	-0.113	0.313
-714.733	-200.000	0.056	0.301
-713.718	-53.872	-0.552	0.252
-712.704	-138.725	0.173	0.019
-711.689	-85.140	-0.259	-0.081
-710.675	-46.487	-0.087	0.043
-709.660	-50.568	0.061	0.029
-708.645	-113.334	-0.151	0.030
-707.631	-163.627	-0.105	0.005
-706.616	-170.791	0.106	-0.004
-705.602	-101.019	-0.323	0.079
-704.587	-26.012	0.058	-0.034
-703.572	-17.382	-0.285	-0.180
-702.558	-128.795	0.282	-0.040
-701.543	77.002	0.211	0.224
-700.529	69.661	0.245	0.253
-699.514	40.679	-0.284	-0.256
-698.499	-200.000	0.033	0.150
-697.485	-110.637	0.137	-0.028
-696.470	26.165	-0.128	0.107
-695.456	-110.365	-0.269	0.056
-694.441	43.603	0.075	0.068
-693.426	800.000	0.105	0.315
-692.412	800.000	0.028	-0.082
-691.397	94.462	0.094	-0.106
-690.383	351.731	-0.095	-0.188
-689.368	800.000	-0.048	-0.167
-688.354	-200.000	0.032	-0.252
-687.339	34.516	-0.161	-0.141
-686.324	261.016	-0.212	-0.367
-685.310	-83.546	-0.243	0.078
-684.295	-200.000	-0.040	-0.242
-683.281	-74.967	-0.268	0.096
-682.266	209.847	-0.189	0.296
-681.251	259.621	0.228	-0.394
-680.237	-117.071	0.041	0.007
-679.222	-134.112	-0.378	0.047
-678.208	-200.000	-0.031	-0.150
-677.193	427.127	0.023	-0.051
-676.178	800.000	0.100	-0.397
-675.164	15.801	0.110	-0.086
-674.149	-200.000	0.029	-0.464
-673.135	9.784	-0.269	0.204
-672.120	462.231	0.024	-0.054
-671.105	800.000	0.140	-0.407
-670.091	258.692	0.089	-0.153
-669.076	-200.000	0.038	0.195
-668.062	312.992	-0.034	0.063
-667.047	21.511	0.101	0.082
-666.032	-118.316	0.391	-0.069
-665.018	566.652	-0.126	-0.306
-664.003	335.051	0.025	0.049
-662.989	-193.451	-0.233	0.002
-661.974	176.146	-0.147	-0.213
-660.959	-184.371	-0.187	0.003
-659.945	-25.115	-0.095	-0.056
-658.930	-200.000	-0.013	-0.111
-657.916	-16.001	-0.036	-0.023
-656.901	110.086	0.127	0.152
-655.886	-200.000	0.000	0.052
-654.872	33.075	0.212	-0.184
-653.857	-200.000	-0.000	-0.112
-652.843	-200.000	-0.043	-0.201
-651.828	5.643	-0.281	0.208
-650.814	126.889	0.231	-0.292
-649.799	800.000	0.034	-0.101
-648.784	153.514	0.171	0.234
-647.770	147.923	-0.184	0.248
-646.755	-50.149	-0.223	-0.105
-645.741	103.529	-0.059	-0.070
-644.726	-154.433	-0.278	-0.019
-643.711	-200.000	0.030	0.209
-642.697	45.956	0.072	-0.066
-641.682	-200.000	0.038	-0.180
-640.668	-200.000	0.026	0.159
-639.653	54.799	-0.151	-0.145
-638.638	369.710	-0.126	-0.254
-637.624	136.805	0.049	-0.063
-636.609	21.091	-0.184	-0.149
-635.595	-200.000	0.021	0.223
-634.580	-68.781	-0.193	0.074
-633.565	800.000	0.029	-0.117
-632.551	-156.180	-0.183	-0.011
-631.536	299.079	0.121	-0.222
-630.522	139.924	0.162	-0.212
-629.507	151.989	0.050	-0.068
-628.492	-61.269	0.316	-0.133
-627.478	-65.172	0.229	-0.092
-626.463	-12.749	-0.345	0.224
-625.449	-200.000	0.053	-0.291
-624.434	-29.891	0.109	0.062
-623.419	48.168	-0.123	0.115
-622.405	-200.000	0.001	0.344
-621.390	-200.000	-0.081	0.513
-620.376	83.952	0.025	0.028
-619.361	-147.878	0.122	0.010
-618.346	-60.742	-0.430	0.182
-617.332	30.043	0.252	0.214
-616.317	611.658	-0.080	0.199
-615.303	245.943	0.159	0.266
-614.288	-48.518	0.276	0.133
-613.273	-58.595	0.094	-0.041
-612.259	800.000	0.050	0.147
-611.244	281.397	0.083	-0.148
-610.230	0.571	0.154	-0.109
-609.215	800.000	-0.026	0.102
-608.201	-140.248	-0.106	-0.011
-607.186	-47.998	0.184	0.089
-606.171	-38.543	-0.067	0.036
-605.157	-200.000	-0.019	-0.127
-604.142	752.909	0.039	-0.105
-603.128	800.000	-0.027	0.093
-602.113	-46.298	-0.041	0.020
-601.098	-63.466	0.109	0.045
-600.084	-4.160	-0.164	0.113
-599.069	140.224	0.150	0.197
-598.055	-170.143	0.339	0.012
-597.040	65.113	-0.071	0.071
-596.025	800.000	-0.030	-0.132
-595.011	98.005	-0.372	-0.426
-593.996	-173.232	0.202	-0.006
-592.982	-98.079	0.123	-0.032
-591.967	-74.750	-0.161	0.058
-590.952	2.501	0.032	0.023
-589.938	800.000	-0.023	0.084
-588.923	168.919	0.118	0.167
-587.909	800.000	0.098	0.321
-586.894	289.978	0.074	-0.134
-585.879	-104.946	0.500	-0.114
-584.865	45.455	0.156	-0.143
-583.850	-152.428	0.042	-0.003
-582.836	-86.889	-0.461	-0.140
-581.821	96.127	0.070	-0.079
-580.806	3.595	-0.200	-0.145
-579.792	270.577	-0.056	-0.097
-578.777	457.029	-0.062	0.137
-577.763	315.293	0.050	0.093
-576.748	-14.100	0.140	-0.090
-575.733	-199.977	-0.287	0.001
-574.719	341.384	-0.061	-0.118
-573.704	-92.087	-0.215	-0.061
-572.690	-129.930	-0.092	0.013
-571.675	-200.000	0.006	0.251
-570.661	26.975	-0.204	0.170
-569.646	-83.478	0.204	-0.065
-568.631	-200.000	0.014	-0.199
-567.617	265.554	0.229	0.398
-566.602	-129.465	-0.094	0.013
-565.588	480.046	0.124	-0.280
-564.573	-200.000	-0.024	0.324
-563.558	800.000	0.025	-0.104
-562.544	-61.151	-0.116	-0.049
-561.529	-11.745	-0.008	-0.005
-560.515	296.604	0.059	-0.108
-559.500	800.000	0.032	0.108
-558.485	800.000	0.073	-0.257
-557.471	-14.204	0.229	-0.147
-556.456	186.131	0.018	-0.026
-555.442	23.550	0.376	0.308
-554.427	147.581	-0.079	-0.106
-553.412	-200.000	-0.012	-0.200
-552.398	-1.464	-0.090	0.063
-551.383	40.665	-0.045	-0.040
-550.369	-185.789	-0.133	0.002
-549.354	18.266	0.100	-0.079
-548.339	589.317	-0.122	-0.299
-547.325	144.650	-0.028	-0.037
-546.310	83.128	-0.246	-0.266
-545.296	-17.257	0.229	-0.143
-544.281	-200.000	0.054	-0.552
-543.266	208.912	-0.173	0.269
-542.252	800.000	-0.016	-0.049
-541.237	0.840	-0.219	-0.156
-540.223	259.368	-0.172	-0.295
-539.208	298.165	0.101	0.185
-538.193	-84.825	-0.299	0.093
-537.179	-10.223	0.142	-0.094
-536.164	-157.607	-0.414	-0.025
-535.150	168.515	0.127	0.179
-534.135	-53.424	0.235	-0.107
-533.121	-74.406	-0.100	0.036
-532.106	800.000	0.038	0.136
-531.091	800.000	0.060	0.213
-530.077	-200.000	0.010	0.055
-529.062	-97.398	-0.153	-0.040
-528.048	25.616	0.247	0.205
-527.033	78.149	-0.090	0.096
-526.018	618.530	-0.160	-0.400
-525.004	9.833	-0.104	0.078
-523.989	800.000	0.116	0.329
-522.975	118.748	-0.094	0.115
-521.960	355.989	-0.147	-0.290
-520.945	800.000	-0.034	-0.104
-519.931	800.000	0.039	-0.167
-518.916	-200.000	-0.044	-0.226
-517.902	249.972	0.120	-0.202
-516.887	227.879	0.124	-0.201
-515.872	676.375	-0.162	0.418
-514.858	-79.032	-0.220	-0.074
-513.843	-136.224	-0.092	0.011
-512.829	-200.000	0.046	0.230
-511.814	-85.433	-0.037	-0.012
-510.799	164.846	0.290	-0.407
-509.785	-94.966	-0.145	-0.039
-508.770	-108.066	0.038	-0.008
-507.756	-164.415	-0.163	-0.007
-506.741	-6.719	0.296	0.200
-505.726	-53.151	-0.156	-0.071
-504.712	300.893	-0.084	-0.153
-503.697	154.837	0.049	0.066
-502.683	78.911	0.112	0.119
-501.668	-103.075	0.132	0.031
-500.653	-200.000	-0.033	0.167
-499.639	-92.868	-0.198	0.055
-498.624	9.201	0.224	-0.168
-497.610	-200.000	0.014	0.120
-496.595	-40.897	-0.270	-0.139
-495.581	-200.000	-0.031	-0.348
-494.566	800.000	-0.088	-0.335
-493.551	800.000	-0.022	0.066
-492.537	-72.435	-0.038	0.014
-491.522	-200.000	0.037	-0.384
-490.508	245.965	-0.217	-0.362
-489.493	-34.390	0.353	-0.192
-488.478	2.348	-0.074	0.053
-487.464	-200.000	-0.037	0.269
-486.449	-4.034	0.282	-0.194
-485.435	800.000	0.030	0.098
-484.420	428.906	-0.162	0.347
-483.405	-15.794	0.190	0.120
-482.391	77.251	-0.118	-0.125
-481.376	-52.893	-0.274	-0.125
-480.362	-114.077	0.367	-0.070
-479.347	429.950	-0.099	0.212
-478.332	126.618	-0.041	0.052
-477.318	-11.702	-0.230	0.150
-476.303	-60.009	0.125	0.053
-475.289	-12.590	-0.101	-0.065
-474.274	-140.532	0.119	0.012
-473.259	75.919	-0.074	0.078
-472.245	-64.984	-0.112	0.045
-471.230	-141.362	0.269	-0.027
-470.216	-149.931	0.284	-0.022
-469.201	210.922	-0.070	-0.109
-468.186	130.913	0.200	0.255
-467.172	377.691	-0.113	0.229
-466.157	142.475	0.188	-0.248
-465.143	-6.496	0.164	-0.111
-464.128	-15.296	0.337	-0.214
-463.113	-26.437	-0.171	0.100
-462.099	725.480	0.094	-0.248
-461.084	294.420	0.064	-0.116
-460.070	-171.186	-0.211	0.007
-459.055	51.889	0.199	0.188
-458.040	72.340	-0.162	-0.167
-457.026	-56.595	0.201	0.088
-456.011	-64.953	0.135	-0.054
-454.997	145.432	-0.180	-0.239
-453.982	-200.000	0.052	0.245
-452.968	34.788	-0.164	-0.142
-451.953	298.562	0.158	0.287
-450.938	10.671	-0.119	0.090
-449.924	-140.767	0.352	-0.036
-448.909	-200.000	-0.023	-0.191
-447.895	-58.593	-0.180	-0.078
-446.880	193.279	-0.227	-0.340
-445.865	2.940	-0.230	-0.166
-444.851	290.267	-0.139	0.249
-443.836	203.533	-0.117	-0.180
-442.822	582.971	-0.120	-0.292
-441.807	357.916	0.169	0.333
-440.792	-200.000	0.016	0.108
-439.778	-126.763	-0.203	-0.030
-438.763	786.908	0.075	0.202
-437.749	-200.000	0.295	-0.001
-436.734	374.561	-0.082	0.166
-435.719	-100.119	-0.303	-0.075
-434.705	197.042	0.131	-0.198
-433.690	-200.000	0.024	0.197
-432.676	463.328	-0.046	0.101
-431.661	69.590	-0.245	0.250
-430.646	427.747	0.028	0.061
-429.632	-200.000	0.038	-0.236
-428.617	8.792	-0.153	-0.115
-427.603	636.936	0.037	-0.093
-426.588	-4.688	0.144	0.098
-425.573	-200.000	0.003	0.116
-424.559	-78.883	-0.435	-0.147
-423.544	78.483	-0.203	0.215
-422.530	333.788	0.153	0.293
-421.515	-200.000	-0.022	0.241
-420.500	800.000	-0.133	-0.389
-419.486	-172.935	0.095	0.003
-418.471	161.282	-0.142	0.197
-417.457	800.000	0.020	0.070
-416.442	-129.340	-0.338	-0.047
-415.428	-187.672	0.166	0.002
-414.413	316.081	-0.099	-0.185
-413.398	-92.991	-0.312	-0.086
-412.384	800.000	0.037	0.106
-411.369	800.000	-0.006	0.016
-410.355	800.000	-0.048	-0.145
-409.340	-126.205	-0.124	-0.018
-408.325	270.523	-0.074	-0.129
-407.311	204.652	0.091	0.140
-406.296	65.617	0.136	-0.136
-405.282	634.585	0.038	0.096
-404.267	97.112	0.234	0.266
-403.252	27.382	0.188	0.156
-402.238	233.096	0.011	-0.018
-401.223	-29.164	0.367	-0.208
-400.209	551.619	0.125	0.298
-399.194	-200.000	-0.050	0.301
-398.179	-115.349	0.609	0.114
-397.165	-20.668	-0.219	0.133
-396.150	800.000	0.076	0.278
-395.136	52.209	0.144	0.136
-394.121	2.276	-0.097	-0.070
-393.106	-200.000	-0.062	-0.303
-392.092	800.000	-0.017	0.064
-391.077	-200.000	0.004	-0.376
-390.063	-35.822	-0.043	-0.023
-389.048	71.509	0.114	0.117
-388.033	-90.768	-0.226	0.064
-387.019	-200.000	-0.015	0.072
-386.004	-130.101	-0.082	0.011
-384.990	-3.970	-0.221	-0.152
-383.975	-67.007	-0.288	-0.112
-382.960	800.000	-0.061	-0.187
-381.946	265.820	0.061	-0.104
-380.931	-200.000	0.017	0.222
-379.917	-94.501	0.053	0.014
-378.902	47.136	-0.163	-0.150
-377.888	-61.512	-0.211	-0.088
-376.873	-200.000	0.022	-0.302
-375.858	-137.441	0.071	0.008
-374.844	685.648	0.090	-0.233
-373.829	-200.000	0.051	0.475
-372.815	-130.723	0.267	0.035
-371.800	70.599	0.031	-0.032
-370.785	-200.000	0.002	-0.027
-369.771	90.425	0.233	-0.258
-368.756	-200.000	-0.031	-0.224
-367.742	-200.000	0.009	0.333
-366.727	82.767	-0.337	-0.362
-365.712	216.197	-0.110	-0.173
-364.698	184.408	-0.238	0.348
-363.683	47.244	0.192	-0.177
-362.669	-92.566	-0.100	0.028
-361.654	-150.437	0.339	0.026
-360.639	81.433	-0.127	0.136
-359.625	800.000	0.042	-0.144
-358.610	-200.000	0.002	0.192
-357.596	-22.986	0.273	0.162
-356.581	54.119	-0.260	0.247
-355.566	-71.094	-0.139	0.052
-354.552	255.665	0.061	-0.103
-353.537	-71.263	-0.207	-0.077
-352.523	-200.000	-0.027	0.403
-351.508	-51.633	0.243	-0.112
-350.493	-200.000	0.019	-0.229
-349.479	-59.014	-0.231	0.099
-348.464	9.010	-0.117	0.087
-347.450	102.676	-0.186	0.215
-346.435	22.076	0.111	0.089
-345.420	-141.547	0.224	0.022
-344.406	509.563	0.059	-0.134
-343.391	-200.000	-0.056	-0.299
-342.377	800.000	-0.056	-0.182
-341.362	800.000	-0.052	-0.188
-340.348	-73.176	-0.460	0.166
-339.333	-115.170	0.197	-0.037
-338.318	403.907	-0.056	-0.116
-337.304	-200.000	-0.019	-0.159
-336.289	-10.151	-0.129	-0.084
-335.275	-126.831	-0.078	-0.011
-334.260	62.365	0.252	0.249
-333.245	65.180	0.218	-0.218
-332.231	59.383	-0.159	-0.155
-331.216	310.563	-0.118	0.218
-330.202	-2.828	0.289	0.199
-329.187	163.709	-0.143	-0.199
-328.172	225.163	-0.188	-0.300
-327.158	7.804	-0.050	-0.037
-326.143	-42.580	-0.150	0.075
-325.129	-89.293	0.101	-0.029
-324.114	-148.625	0.195	-0.016
-323.099	-77.366	0.315	0.108
-322.085	-89.879	-0.391	0.113
-321.070	-88.882	0.013	0.004
-320.056	407.192	-0.081	0.168
-319.041	-83.235	-0.196	0.062
-318.026	78.170	0.049	-0.051
-317.012	56.203	-0.297	-0.284
-315.997	-200.000	0.024	0.231
-314.983	800.000	-0.049	0.177
-313.968	534.338	0.116	-0.270
-312.953	-200.000	-0.013	-0.123
-311.939	-86.657	0.378	-0.114
-310.924	-20.470	0.187	-0.113
-309.910	-77.473	-0.046	0.016
-308.895	-200.000	0.000	0.135
-307.880	-76.634	-0.056	0.020
-306.866	800.000	-0.031	-0.121
-305.851	-200.000	0.025	-0.191
-304.837	-200.000	0.013	0.080
-303.822	114.090	0.327	0.392
-302.807	-122.662	0.064	0.010
-301.793	70.615	-0.278	0.283
-300.778	-1.586	0.179	-0.124
-299.764	54.301	-0.052	0.049
-298.749	-134.136	0.459	-0.056
-297.735	-64.544	-0.128	-0.051
-296.720	227.171	-0.166	0.266
-295.705	-139.825	-0.083	-0.009
-294.691	147.757	0.170	0.225
-293.676	253.102	0.113	0.191
-292.662	73.861	-0.238	0.246
-291.647	800.000	-0.032	-0.118
-290.632	553.331	0.017	0.040
-289.618	0.699	0.169	-0.119
-288.603	551.106	-0.183	0.431
-287.589	30.680	-0.121	0.102
-286.574	242.825	-0.206	0.340
-285.559	-75.193	0.236	-0.083
-284.545	-89.494	0.295	-0.085
-283.530	-200.000	0.000	0.210
-282.516	-200.000	-0.018	-0.302
-281.501	-200.000	-0.008	-0.164
-280.486	778.062	0.086	0.230
-279.472	-71.442	-0.174	-0.064
-278.457	204.945	0.196	0.299
-277.443	-133.318	-0.140	-0.017
-276.428	-200.000	-0.016	0.208
-275.413	-81.938	-0.181	0.058
-274.399	800.000	-0.037	0.152
-273.384	-200.000	0.035	0.168
-272.370	534.404	0.063	0.147
-271.355	271.821	0.128	-0.222
-270.340	-39.566	-0.159	0.082
-269.326	85.277	0.365	-0.394
-268.311	79.976	-0.117	0.124
-267.297	86.035	0.206	0.224
-266.282	662.177	0.172	-0.436
-265.267	-48.422	-0.308	-0.146
-264.253	800.000	0.097	-0.358
-263.238	-17.450	0.121	-0.075
-262.224	47.962	0.276	0.254
-261.209	60.814	0.210	-0.205
-260.195	800.000	0.071	-0.265
-259.180	-168.258	-0.260	0.010
-258.165	-200.000	-0.008	-0.297
-257.151	1.748	-0.224	-0.159
-256.136	-123.752	0.296	0.046
-255.122	518.739	0.148	-0.340
-254.107	-111.352	-0.081	0.016
-253.092	-36.051	-0.079	0.042
-252.078	800.000	0.078	0.228
-251.063	-200.000	0.053	-0.271
-250.049	-200.000	-0.001	-0.005
-249.034	-42.674	0.151	-0.075
-248.019	120.554	0.107	0.131
-247.005	800.000	0.070	0.222
-245.990	86.629	0.152	0.164
-244.976	413.410	0.078	-0.164
-243.961	117.972	0.113	-0.137
-242.946	-75.902	-0.198	-0.069
-241.932	800.000	0.071	0.302
-240.917	36.597	-0.112	-0.098
-239.903	-113.987	-0.210	-0.040
-238.888	-26.748	-0.278	-0.160
-237.873	-49.193	-0.351	0.165
-236.859	-55.179	-0.383	0.169
-235.844	33.386	-0.132	0.113
-234.830	227.460	-0.085	-0.136
-233.815	41.466	0.184	0.164
-232.800	-200.000	-0.029	0.185
-231.786	-122.792	0.150	0.024
-230.771	-92.114	0.376	-0.104
-229.757	-39.857	-0.321	-0.165
-228.742	85.209	-0.320	-0.345
-227.727	625.470	0.046	-0.115
-226.713	-200.000	-0.003	0.217
-225.698	-1.830	-0.221	-0.153
-224.684	-19.357	0.278	-0.169
-223.669	140.968	-0.127	-0.165
-222.655	31.216	0.117	0.098
-221.640	57.743	-0.196	-0.189
-220.625	800.000	-0.062	-0.238
-219.611	56.287	0.138	0.132
-218.596	-11.357	0.237	0.153
-217.582	-197.213	0.198	0.001
-216.567	251.452	0.101	0.169
-215.552	-200.000	0.000	0.011
-214.538	25.714	0.245	0.200
-213.523	-196.925	0.239	0.002
-212.509	25.529	0.184	0.150
-211.494	351.784	-0.153	0.298
-210.479	273.171	0.086	-0.149
-209.465	238.087	-0.195	0.318
-208.450	800.000	0.037	-0.109
-207.436	247.115	0.057	0.095
-206.421	-123.465	-0.387	0.060
-205.406	169.111	0.234	0.328
-204.392	800.000	0.037	0.129
-203.377	-200.000	0.010	0.153
-202.363	-104.371	-0.324	0.074
-201.348	434.343	-0.114	-0.244
-200.333	-27.743	-0.055	-0.031
-199.319	307.603	0.080	-0.146
-198.304	-54.505	0.215	0.096
-197.290	-94.490	-0.099	0.026
-196.275	-27.631	-0.220	0.125
-195.260	318.512	0.135	0.250
-194.246	-40.777	0.285	0.145
-193.231	-200.000	-0.007	0.371
-192.217	-200.000	-0.031	0.212
-191.202	301.997	0.143	-0.259
-190.187	34.978	-0.218	0.187
-189.173	61.434	0.122	-0.119
-188.158	7.900	0.151	-0.111
-187.144	-115.825	-0.229	0.042
-186.129	186.846	0.164	-0.240
-185.114	208.507	0.086	-0.132
-184.100	129.031	-0.264	0.330
-183.085	-200.000	-0.001	0.012
-182.071	44.962	0.058	-0.052
-181.056	-200.000	0.025	0.159
-180.042	-200.000	-0.045	-0.396
-179.027	-183.947	-0.285	-0.005
-178.012	-200.000	0.030	-0.147
-176.998	314.460	-0.034	-0.063
-175.983	800.000	0.030	-0.082
-174.969	-120.874	-0.188	-0.031
-173.954	-47.131	-0.091	-0.043
-172.939	800.000	-0.043	0.144
-171.925	-65.095	-0.193	0.077
-170.910	-16.969	-0.059	0.037
-169.896	-200.000	0.020	0.268
-168.881	-172.680	0.080	-0.002
-167.866	-76.942	-0.356	0.122
-166.852	70.876	0.112	0.114
-165.837	87.348	0.168	-0.182
-164.823	-90.471	0.464	-0.132
-163.808	405.357	0.051	-0.106
-162.793	-85.353	0.268	0.082
-161.779	398.243	-0.098	-0.201
-160.764	37.772	0.275	-0.239
-159.750	-143.806	0.315	-0.029
-158.735	5.987	0.071	-0.051
-157.720	518.979	0.073	0.167
-156.706	49.130	0.282	-0.260
-155.691	190.804	0.090	-0.133
-154.677	3.130	-0.076	0.054
-153.662	-184.318	-0.032	-0.001
-152.647	117.367	0.041	-0.050
-151.633	61.026	-0.314	0.305
-150.618	-20.415	0.401	-0.242
-149.604	322.455	-0.085	0.158
-148.589	-200.000	-0.039	0.178
-147.574	-91.074	0.258	-0.072
-146.560	-4.977	-0.097	-0.066
-145.545	800.000	0.074	0.223
-144.531	-200.000	0.087	0.495
-143.516	800.000	-0.178	0.594
-142.502	800.000	-0.055	-0.200
-141.487	-100.224	-0.208	0.051
-140.472	-67.112	0.291	0.112
-139.458	800.000	-0.060	-0.213
-138.443	800.000	-0.060	0.207
-137.429	12.867	-0.052	0.039
-136.414	475.658	-0.023	0.051
-135.399	-200.000	0.013	0.189
-134.385	-1.396	-0.219	0.151
-133.370	-101.318	0.279	0.067
-132.356	-35.454	0.294	-0.156
-131.341	786.312	-0.100	-0.270
-130.326	-200.000	-0.079	0.587
-129.312	-200.000	0.009	0.570
-128.297	309.886	-0.168	0.307
-127.283	-31.476	-0.190	-0.104
-126.268	-122.850	-0.264	0.042
-125.253	31.833	-0.155	0.131
-124.239	-48.978	-0.235	-0.110
-123.224	-99.482	-0.164	-0.040
-122.210	-10.491	-0.141	-0.091
-121.195	800.000	0.063	-0.261
-120.180	-79.946	0.073	0.024
