DTS Sentinel unit serial number:	SN413079Multiplexer serial number:	ORYXHardware model number:	OX4-SRSoftware version number:	ORYX F/W v4.00 Oryx Data Collector v3.7.2.0data status	okinstallation	princeton_trtdifferential loss correction	single-endedforward channel	channel 1reverse channel	N/Adate	2019/09/13time	21:54:35forward acquisition time	60.00reverse acquisition time	0.00gamma	496.2192k internal	0.2331k external	0.2331temperature offset calibration	1.0076default loss term (dB/km)	0.3790temperature slope calibration	1.0000multiplexer offset coefficient	1.0000multiplexer slope coefficient	1.0000fibre end	0.00T internal ref (°C)	28.05T ext. ref 1 (°C)	3.08T ext. ref 2 (°C)	22.75length (m)	temperature (°C)	Stokes	anti-Stokes-747.200	148.508	-0.071	-0.097
-746.185	19.047	0.179	0.145
-745.171	-56.535	-0.080	-0.036
-744.156	213.965	-0.198	0.315
-743.142	8.545	0.182	0.138
-742.127	229.381	-0.145	0.238
-741.112	-51.019	0.129	0.061
-740.098	-200.000	0.011	0.315
-739.083	470.837	-0.047	0.106
-738.069	121.832	0.183	0.230
-737.054	-67.476	0.288	-0.114
-736.039	-83.028	-0.373	-0.121
-735.025	-42.020	0.365	0.188
-734.010	800.000	0.025	0.079
-732.996	231.603	-0.140	-0.232
-731.981	-138.641	-0.160	-0.018
-730.966	-114.721	-0.113	-0.022
-729.952	-200.000	0.009	0.322
-728.937	-3.459	-0.042	-0.030
-727.923	800.000	0.109	-0.331
-726.908	515.011	-0.189	-0.443
-725.894	204.886	-0.188	-0.293
-724.879	800.000	-0.064	-0.215
-723.864	-100.511	0.198	-0.049
-722.850	115.218	-0.119	-0.146
-721.835	-68.763	0.243	0.094
-720.821	-168.176	-0.235	-0.009
-719.806	84.747	0.095	-0.105
-718.791	-182.698	-0.112	-0.002
-717.777	-42.517	-0.063	0.032
-716.762	10.321	-0.235	0.180
-715.748	112.294	0.189	0.229
-714.733	147.029	-0.157	-0.213
-713.718	-43.305	0.128	-0.065
-712.704	-200.000	0.069	0.435
-711.689	-73.752	0.106	-0.039
-710.675	-86.674	-0.295	0.091
-709.660	11.334	-0.347	0.267
-708.645	-107.214	-0.251	-0.056
-707.631	-200.000	-0.007	-0.078
-706.616	-200.000	0.030	-0.180
-705.602	-14.290	-0.067	-0.044
-704.587	140.876	0.114	0.152
-703.572	16.333	0.283	-0.224
-702.558	299.983	0.162	0.301
-701.543	126.809	-0.243	0.309
-700.529	187.408	0.156	-0.233
-699.514	-200.000	-0.031	0.158
-698.499	66.405	-0.133	0.136
-697.485	42.380	0.294	0.269
-696.470	365.319	-0.204	-0.413
-695.456	-81.891	0.092	-0.030
-694.441	-200.000	0.022	0.381
-693.426	334.673	-0.104	0.203
-692.412	-60.661	-0.306	-0.130
-691.397	46.038	-0.153	0.142
-690.383	101.029	0.124	0.145
-689.368	23.610	0.122	0.101
-688.354	-65.770	0.043	0.017
-687.339	258.742	-0.260	-0.449
-686.324	374.896	-0.058	-0.118
-685.310	349.612	0.021	-0.042
-684.295	-62.233	-0.423	-0.177
-683.281	37.451	0.077	0.069
-682.266	61.778	-0.185	0.185
-681.251	-149.264	-0.254	0.020
-680.237	-200.000	0.005	0.119
-679.222	70.887	-0.090	-0.093
-678.208	33.533	0.196	0.171
-677.193	-200.000	0.113	0.500
-676.178	96.712	-0.217	0.249
-675.164	144.258	-0.025	0.034
-674.149	-145.742	-0.110	0.010
-673.135	342.612	-0.073	0.143
-672.120	97.716	-0.073	0.084
-671.105	-55.833	-0.387	0.174
-670.091	101.697	-0.158	0.184
-669.076	-119.327	0.053	-0.009
-668.062	800.000	0.097	0.315
-667.047	336.389	0.112	-0.218
-666.032	44.583	0.213	-0.196
-665.018	-50.193	-0.212	-0.101
-664.003	29.905	0.174	0.149
-662.989	36.964	-0.035	0.031
-661.974	-200.000	0.003	-0.223
-660.959	42.682	-0.094	0.086
-659.945	-64.065	0.269	0.110
-658.930	-4.520	0.051	0.035
-657.916	-91.813	-0.116	-0.033
-656.901	493.126	0.105	-0.241
-655.886	204.048	-0.235	-0.366
-654.872	-14.410	0.206	0.133
-653.857	-80.726	0.241	0.080
-652.843	145.631	-0.201	-0.271
-651.828	-63.584	0.062	-0.026
-650.814	-122.553	0.201	-0.033
-649.799	-57.885	0.169	0.074
-648.784	749.763	0.120	-0.324
-647.770	-200.000	-0.071	0.327
-646.755	57.450	-0.211	0.207
-645.741	-146.921	0.284	-0.024
-644.726	198.942	-0.076	-0.117
-643.711	-180.517	0.288	0.006
-642.697	-62.718	0.274	-0.114
-641.682	161.646	-0.114	-0.159
-640.668	212.627	-0.029	-0.046
-639.653	-68.480	0.121	0.047
-638.638	19.198	-0.251	0.202
-637.624	76.828	-0.267	-0.284
-636.609	-135.646	-0.113	-0.013
-635.595	-27.468	0.186	-0.108
-634.580	800.000	0.042	-0.125
-633.565	-112.568	0.153	-0.031
-632.551	800.000	0.026	-0.074
-631.536	-50.940	-0.149	0.070
-630.522	154.143	-0.167	0.229
-629.507	800.000	0.067	-0.267
-628.492	-200.000	0.008	-0.138
-627.478	-123.853	0.325	-0.051
-626.463	591.663	0.153	0.380
-625.449	269.293	-0.062	-0.109
-624.434	-147.834	-0.362	-0.030
-623.419	-95.939	-0.159	0.042
-622.405	30.670	0.145	-0.124
-621.390	318.459	0.057	0.109
-620.376	-158.729	0.072	-0.004
-619.361	-1.379	0.208	-0.147
-618.346	-86.775	-0.106	0.033
-617.332	151.066	0.090	0.123
-616.317	270.459	0.056	0.099
-615.303	19.970	0.041	0.033
-614.288	-200.000	0.018	-0.255
-613.273	-32.936	-0.090	0.050
-612.259	-86.424	0.234	-0.072
-611.244	-61.393	0.323	-0.136
-610.230	-200.000	-0.067	-0.296
-609.215	-125.876	0.406	0.061
-608.201	-21.874	-0.215	0.131
-607.186	-11.064	-0.192	-0.127
-606.171	372.313	0.242	0.492
-605.157	221.511	0.225	-0.362
-604.142	-21.406	0.210	-0.128
-603.128	800.000	0.058	0.186
-602.113	-73.287	0.195	-0.071
-601.098	-200.000	-0.071	-0.443
-600.084	-200.000	-0.030	-0.219
-599.069	234.320	-0.076	0.125
-598.055	379.248	-0.207	0.424
-597.040	380.523	0.054	-0.110
-596.025	282.614	-0.042	0.075
-595.011	320.314	-0.206	0.391
-593.996	1.985	-0.276	-0.199
-592.982	-61.866	0.206	-0.086
-591.967	95.733	-0.114	-0.130
-590.952	-94.246	-0.023	-0.006
-589.938	113.904	0.022	0.027
-588.923	67.365	0.226	-0.231
-587.909	-91.362	0.298	0.085
-586.894	481.241	0.015	-0.034
-585.879	26.338	0.052	0.044
-584.865	800.000	0.053	0.169
-583.850	198.107	0.237	0.362
-582.836	147.828	0.079	0.107
-581.821	500.420	-0.051	-0.118
-580.806	-57.988	-0.215	0.094
-579.792	-127.466	0.224	0.033
-578.777	-49.716	0.151	0.072
-577.763	462.238	0.043	-0.095
-576.748	394.230	-0.085	0.176
-575.733	385.538	0.075	-0.155
-574.719	-107.468	-0.111	-0.024
-573.704	229.295	-0.103	-0.169
-572.690	72.808	-0.196	0.205
-571.675	-135.383	-0.199	0.024
-570.661	800.000	0.095	-0.352
-569.646	56.774	0.061	0.059
-568.631	-29.310	-0.353	-0.202
-567.617	88.693	-0.194	-0.215
-566.602	-200.000	-0.003	-0.035
-565.588	336.926	-0.118	0.228
-564.573	120.537	-0.092	-0.114
-563.558	-200.000	-0.051	-0.352
-562.544	322.340	-0.096	0.183
-561.529	-144.105	0.046	-0.004
-560.515	-116.621	0.173	-0.032
-559.500	81.758	-0.246	-0.266
-558.485	15.227	-0.144	0.113
-557.471	139.627	-0.111	0.146
-556.456	233.496	0.095	-0.156
-555.442	-136.198	-0.198	-0.023
-554.427	-200.000	0.033	0.197
-553.412	800.000	-0.157	-0.483
-552.398	746.873	-0.053	-0.142
-551.383	800.000	0.143	0.410
-550.369	-168.815	-0.137	-0.005
-549.354	58.363	0.400	-0.392
-548.339	-200.000	-0.011	0.229
-547.325	-200.000	-0.036	-0.168
-546.310	-155.227	0.463	0.030
-545.296	194.072	-0.145	0.220
-544.281	-23.754	0.206	-0.123
-543.266	329.489	0.027	-0.052
-542.252	260.552	-0.104	-0.180
-541.237	-6.353	-0.089	0.060
-540.223	386.587	0.111	0.229
-539.208	-200.000	-0.013	-0.076
-538.193	-68.219	-0.094	-0.037
-537.179	175.200	-0.075	0.108
-536.164	-73.741	0.257	-0.093
-535.150	558.990	-0.064	0.155
-534.135	32.276	-0.192	-0.166
-533.121	144.424	0.073	0.097
-532.106	800.000	-0.063	0.216
-531.091	-70.587	0.313	-0.118
-530.077	-200.000	-0.043	-0.394
-529.062	-151.257	-0.205	0.015
-528.048	91.803	-0.142	-0.160
-527.033	-17.964	-0.196	-0.122
-526.018	800.000	-0.065	-0.281
-525.004	-200.000	-0.041	0.187
-523.989	-12.564	-0.097	-0.063
-522.975	8.666	-0.401	-0.302
-521.960	-44.149	0.332	0.166
-520.945	-200.000	-0.036	0.255
-519.931	-39.098	0.302	0.158
-518.916	136.106	0.135	-0.176
-517.902	-51.424	-0.130	0.061
-516.887	-74.515	-0.155	0.056
-515.872	-30.183	0.033	-0.019
-514.858	-56.115	-0.100	-0.044
-513.843	-38.378	0.182	-0.096
-512.829	456.178	0.047	0.103
-511.814	107.738	0.140	0.166
-510.799	800.000	-0.014	-0.051
-509.785	-11.484	-0.249	-0.163
-508.770	-200.000	0.014	-0.125
-507.756	-200.000	0.062	0.279
-506.741	-164.166	0.316	-0.015
-505.726	-86.099	-0.151	-0.046
-504.712	-58.043	0.250	-0.109
-503.697	220.341	-0.136	-0.217
-502.683	-108.901	0.175	-0.037
-501.668	83.242	-0.095	0.103
-500.653	-200.000	0.041	-0.200
-499.639	-28.751	0.119	-0.068
-498.624	27.373	-0.083	0.069
-497.610	800.000	0.124	0.386
-496.595	258.063	0.070	-0.120
-495.581	258.381	-0.110	-0.188
-494.566	-200.000	0.053	0.293
-493.551	-126.301	0.203	0.030
-492.537	-139.734	0.289	-0.031
-491.522	654.406	-0.052	0.132
-490.508	-200.000	-0.029	-0.149
-489.493	135.109	0.207	0.268
-488.478	-61.452	-0.221	0.092
-487.464	-200.000	0.020	0.175
-486.449	229.492	0.074	-0.120
-485.435	-13.218	0.149	0.097
-484.420	229.686	-0.139	-0.226
-483.405	-154.397	0.246	-0.016
-482.391	-97.155	-0.317	0.083
-481.376	-45.324	0.297	-0.147
-480.362	67.575	-0.095	-0.097
-479.347	800.000	-0.062	-0.236
-478.332	441.416	0.078	-0.171
-477.318	-85.565	0.281	0.087
-476.303	-145.669	0.245	-0.022
-475.289	183.852	0.072	0.106
-474.274	113.753	0.179	-0.217
-473.259	-8.379	0.093	0.062
-472.245	-9.692	0.192	-0.127
-471.230	800.000	0.097	-0.299
-470.216	108.108	-0.156	-0.185
-469.201	-88.981	-0.284	-0.084
-468.186	-76.968	0.332	0.115
-467.172	175.493	0.073	0.106
-466.157	-87.057	0.106	0.032
-465.143	-33.556	0.147	0.081
-464.128	800.000	-0.043	0.161
-463.113	155.865	-0.104	0.142
-462.099	8.642	0.068	0.051
-461.084	609.101	0.078	0.195
-460.070	2.703	0.079	-0.057
-459.055	65.652	0.106	0.107
-458.040	105.036	-0.267	-0.313
-457.026	89.503	0.142	-0.158
-456.011	800.000	-0.027	0.093
-454.997	218.482	0.150	-0.238
-453.982	305.350	-0.057	0.105
-452.968	800.000	0.053	0.201
-451.953	-68.384	-0.052	0.020
-450.938	-32.665	-0.282	-0.156
-449.924	117.758	0.158	-0.194
-448.909	-161.055	0.282	0.015
-447.895	-16.531	0.236	0.149
-446.880	-76.065	-0.210	0.074
-445.865	-200.000	-0.005	0.142
-444.851	324.172	-0.125	-0.237
-443.836	-86.812	-0.140	-0.043
-442.822	76.183	-0.316	-0.332
-441.807	-83.366	0.157	-0.050
-440.792	-181.946	0.156	-0.003
-439.778	-46.358	-0.433	0.212
-438.763	-3.839	0.426	0.294
-437.749	675.902	-0.100	0.259
-436.734	23.380	-0.225	-0.184
-435.719	98.314	-0.197	-0.226
-434.705	-200.000	-0.006	-0.164
-433.690	-99.608	-0.319	0.080
-432.676	-35.234	-0.105	-0.057
-431.661	-99.520	-0.236	0.059
-430.646	114.514	0.108	0.131
-429.632	40.387	-0.208	0.186
-428.617	-200.000	-0.032	-0.237
-427.603	95.511	0.175	-0.199
-426.588	172.090	-0.137	0.195
-425.573	-39.108	0.480	0.251
-424.559	-69.553	-0.182	0.069
-423.544	273.406	-0.037	-0.065
-422.530	100.109	0.081	-0.094
-421.515	-12.049	0.068	0.045
-420.500	28.238	-0.288	0.242
-419.486	18.716	0.083	-0.066
-418.471	-200.000	0.012	-0.081
-417.457	-120.048	-0.232	0.040
-416.442	644.277	0.125	-0.317
-415.428	-2.581	0.239	-0.166
-414.413	-103.296	-0.221	0.052
-413.398	-3.804	-0.111	-0.077
-412.384	-91.649	-0.115	-0.033
-411.369	-200.000	-0.063	0.351
-410.355	-139.414	0.082	-0.009
-409.340	800.000	-0.072	-0.214
-408.325	-69.190	-0.132	0.050
-407.311	-99.613	0.101	-0.025
-406.296	4.863	-0.077	-0.057
-405.282	800.000	-0.074	-0.214
-404.267	169.336	0.168	0.238
-403.252	-4.976	-0.160	0.110
-402.238	375.398	-0.142	0.286
-401.223	-200.000	-0.084	0.408
-400.209	-200.000	0.070	-0.308
-399.194	-144.368	0.238	-0.022
-398.179	-127.858	-0.330	0.047
-397.165	83.896	-0.031	0.033
-396.150	221.469	-0.073	0.116
-395.136	-69.472	0.238	0.091
-394.121	-153.411	-0.336	0.023
-393.106	258.062	-0.123	-0.211
-392.092	-85.963	-0.163	-0.050
-391.077	15.135	0.184	0.143
-390.063	601.038	-0.078	-0.193
-389.048	210.291	0.201	0.313
-388.033	-6.810	0.113	-0.076
-387.019	-200.000	-0.070	-0.317
-386.004	263.763	-0.051	0.088
-384.990	800.000	0.094	-0.290
-383.975	-200.000	-0.063	0.404
-382.960	62.647	0.201	0.199
-381.946	800.000	-0.067	-0.250
-380.931	-161.606	0.166	-0.008
-379.917	276.379	-0.083	0.147
-378.902	-152.915	0.184	0.013
-377.888	334.613	-0.045	0.086
-376.873	56.488	-0.083	0.080
-375.858	457.799	-0.092	-0.203
-374.844	227.243	0.126	0.202
-373.829	-200.000	-0.035	0.254
-372.815	18.813	-0.218	0.173
-371.800	5.426	0.231	0.169
-370.785	221.025	-0.107	0.171
-369.771	302.179	-0.105	0.193
-368.756	159.318	0.118	0.163
-367.742	22.840	0.193	0.157
-366.727	15.450	0.234	0.182
-365.712	56.248	-0.373	-0.360
-364.698	-153.578	-0.281	-0.019
-363.683	-140.658	-0.208	0.021
-362.669	-153.531	-0.167	0.011
-361.654	180.322	-0.048	-0.070
-360.639	323.676	-0.143	-0.271
-359.625	-178.349	-0.206	0.005
-358.610	-12.692	0.145	-0.094
-357.596	123.770	0.193	0.240
-356.581	-200.000	-0.029	-0.184
-355.566	256.651	-0.124	0.211
-354.552	29.026	0.158	0.133
-353.537	800.000	0.087	-0.266
-352.523	800.000	-0.102	-0.332
-351.508	-46.216	0.097	0.047
-350.493	674.274	-0.049	-0.126
-349.479	422.353	0.095	0.202
-348.464	264.792	0.124	0.214
-347.450	-105.204	-0.315	-0.071
-346.435	595.057	-0.065	-0.159
-345.420	-97.134	0.257	0.067
-344.406	800.000	-0.140	-0.456
-343.391	-200.000	-0.050	-0.299
-342.377	257.921	0.076	-0.129
-341.362	-86.357	-0.090	0.027
-340.348	-37.923	-0.158	0.083
-339.333	758.360	0.070	-0.188
-338.318	142.359	0.074	-0.098
-337.304	-114.358	-0.543	0.104
-336.289	-200.000	0.001	-0.123
-335.275	64.615	-0.246	0.245
-334.260	137.602	-0.094	-0.121
-333.245	68.640	-0.071	0.072
-332.231	93.104	0.209	-0.233
-331.216	-200.000	-0.017	-0.102
-330.202	-103.663	0.168	0.039
-329.187	-136.622	-0.131	0.015
-328.172	195.202	-0.095	0.143
-327.158	48.879	0.259	-0.241
-326.143	48.207	0.069	-0.064
-325.129	-62.546	-0.211	-0.087
-324.114	-48.797	0.138	-0.065
-323.099	-200.000	-0.001	-0.041
-322.085	31.478	0.128	-0.108
-321.070	800.000	-0.104	-0.311
-320.056	800.000	0.068	0.216
-319.041	-155.296	0.166	0.011
-318.026	-131.762	0.018	-0.002
-317.012	-200.000	0.083	-0.385
-315.997	-200.000	-0.048	-0.210
-314.983	85.597	-0.215	0.234
-313.968	19.661	0.179	-0.142
-312.953	142.346	-0.073	-0.096
-311.939	-200.000	-0.009	-0.077
-310.924	14.891	-0.269	0.208
-309.910	96.441	-0.180	-0.203
-308.895	-200.000	0.000	0.202
-307.880	800.000	0.078	0.236
-306.866	177.538	0.163	0.235
-305.851	-75.015	-0.369	-0.131
-304.837	-136.396	0.211	-0.024
-303.822	-3.638	0.209	0.144
-302.807	-200.000	0.049	-0.349
-301.793	-200.000	0.059	0.426
-300.778	800.000	0.082	0.242
-299.764	-48.851	0.238	-0.113
-298.749	-31.019	0.007	-0.004
-297.735	7.452	0.220	-0.163
-296.720	172.308	0.059	0.084
-295.705	-23.129	-0.169	-0.101
-294.691	205.801	0.082	-0.126
-293.676	-64.179	-0.290	-0.117
-292.662	15.882	-0.361	0.281
-291.647	-136.068	0.276	-0.032
-290.632	85.247	-0.135	-0.147
-289.618	116.797	0.118	0.143
-288.603	-11.193	0.106	-0.069
-287.589	-200.000	0.006	0.269
-286.574	13.236	-0.103	-0.079
-285.559	-89.027	0.127	-0.037
-284.545	30.880	-0.319	-0.270
-283.530	144.288	-0.122	0.160
-282.516	47.462	0.283	0.261
-281.501	-4.426	-0.101	0.069
-280.486	101.339	-0.187	-0.215
-279.472	-3.847	-0.028	-0.019
-278.457	-200.000	-0.063	0.000
-277.443	3.939	0.259	0.187
-276.428	-200.000	-0.030	0.165
-275.413	-42.700	0.156	-0.078
-274.399	-117.634	0.283	0.050
-273.384	787.879	0.108	0.292
-272.370	-100.660	-0.136	0.033
-271.355	-82.235	-0.237	0.076
-270.340	-92.758	-0.322	-0.089
-269.326	299.670	-0.114	0.208
-268.311	800.000	-0.025	0.087
-267.297	-200.000	0.065	0.318
-266.282	800.000	-0.123	0.350
-265.267	-18.940	0.050	0.031
-264.253	350.869	0.057	0.111
-263.238	268.012	0.129	0.222
-262.224	146.616	0.033	-0.044
-261.209	35.453	0.152	0.132
-260.195	5.012	-0.160	-0.116
-259.180	64.278	0.050	0.050
-258.165	-110.046	-0.153	0.032
-257.151	-105.934	-0.107	0.024
-256.136	63.716	-0.348	-0.345
-255.122	1.209	0.180	-0.127
-254.107	-125.752	-0.174	0.026
-253.092	462.430	-0.041	0.091
-252.078	158.993	-0.002	0.003
-251.063	287.280	0.121	-0.215
-250.049	-200.000	0.025	0.137
-249.034	-118.195	-0.207	-0.036
-248.019	-30.584	-0.153	0.086
-247.005	-93.705	0.202	-0.055
-245.990	-166.044	0.165	-0.007
-244.976	-71.493	-0.117	-0.043
-243.961	800.000	0.056	-0.175
-242.946	-77.378	-0.244	-0.084
-241.932	-131.601	0.331	-0.043
-240.917	-6.978	-0.197	-0.132
-239.903	-129.062	0.397	0.055
-238.888	-200.000	0.001	0.038
-237.873	12.226	-0.207	-0.157
-236.859	184.487	0.037	0.054
-235.844	800.000	0.076	-0.250
-234.830	58.814	-0.227	0.220
-233.815	800.000	-0.045	0.185
-232.800	7.733	-0.117	0.087
-231.786	-200.000	0.042	-0.217
-230.771	-99.077	0.105	0.026
-229.757	-164.963	0.243	0.011
-228.742	15.327	-0.071	0.055
-227.727	800.000	0.062	0.262
-226.713	-91.714	0.174	-0.049
-225.698	105.462	-0.213	-0.249
-224.684	83.625	0.081	0.087
-223.669	-115.825	-0.206	-0.038
-222.655	100.373	-0.203	-0.232
-221.640	26.364	0.132	-0.109
-220.625	-200.000	0.025	-0.217
-219.611	-77.303	0.125	0.043
-218.596	-11.029	0.251	0.163
-217.582	-200.000	-0.027	0.411
-216.567	63.689	-0.192	-0.190
-215.552	-200.000	-0.110	0.000
-214.538	-138.388	-0.146	0.016
-213.523	-45.026	-0.095	0.047
-212.509	-0.410	-0.282	0.197
-211.494	-95.292	-0.143	-0.038
-210.479	-100.046	0.272	-0.067
-209.465	-36.765	0.134	0.071
-208.450	-200.000	-0.027	0.202
-207.436	43.502	0.266	-0.240
-206.421	67.853	-0.184	0.185
-205.406	-200.000	-0.005	-0.049
-204.392	800.000	-0.061	0.181
-203.377	395.607	-0.110	0.226
-202.363	-0.546	0.222	-0.155
-201.348	110.448	-0.145	0.172
-200.333	-108.590	-0.055	-0.012
-199.319	228.360	-0.215	-0.345
-198.304	-200.000	-0.004	-0.279
-197.290	514.012	0.068	0.156
-196.275	-119.165	0.300	0.052
-195.260	87.071	0.181	0.197
-194.246	-200.000	0.030	-0.144
-193.231	54.925	0.105	-0.100
-192.217	-150.943	0.195	-0.015
-191.202	566.649	-0.094	0.224
-190.187	-200.000	-0.001	0.078
-189.173	-124.541	0.235	0.036
-188.158	-38.741	0.235	-0.122
-187.144	-200.000	0.048	0.213
-186.129	800.000	-0.009	0.029
-185.114	10.561	0.089	-0.067
-184.100	161.271	-0.048	0.066
-183.085	-112.000	-0.099	-0.020
-182.071	-200.000	-0.026	0.188
-181.056	-103.318	0.277	0.064
-180.042	247.861	-0.162	0.270
-179.027	44.562	0.125	-0.114
-178.012	-200.000	-0.063	0.371
-176.998	800.000	0.027	0.110
-175.983	-200.000	0.034	0.269
-174.969	-200.000	0.014	-0.079
-173.954	-183.065	-0.185	-0.003
-172.939	-98.528	0.451	0.113
-171.925	-200.000	-0.024	0.295
-170.910	-138.022	-0.295	-0.032
-169.896	-200.000	-0.085	-0.475
-168.881	218.136	0.106	-0.166
-167.866	-188.112	-0.296	0.004
-166.852	-7.400	-0.061	-0.041
-165.837	105.913	0.189	0.220
-164.823	-200.000	0.016	0.359
-163.808	33.020	-0.223	-0.190
-162.793	442.791	0.050	0.108
-161.779	-7.957	-0.346	0.230
-160.764	-200.000	-0.036	-0.184
-159.750	87.150	0.109	0.118
-158.735	-90.075	-0.291	0.083
-157.720	-56.129	-0.441	-0.193
-156.706	-200.000	0.019	0.137
-155.691	-116.389	0.130	-0.024
-154.677	171.742	0.151	-0.213
-153.662	-94.025	0.107	-0.029
-152.647	800.000	0.043	0.131
-151.633	-53.793	0.151	-0.068
-150.618	-88.109	-0.324	0.096
-149.604	-200.000	0.007	0.080
-148.589	-200.000	0.024	-0.303
-147.574	33.070	0.132	0.113
-146.560	800.000	-0.061	-0.192
-145.545	-200.000	0.033	-0.206
-144.531	-68.791	0.308	0.117
-143.516	98.470	-0.040	0.046
-142.502	800.000	0.127	-0.464
-141.487	-200.000	-0.005	-0.070
-140.472	-57.520	0.263	0.114
-139.458	521.307	0.120	-0.276
-138.443	301.524	0.054	-0.098
-137.429	800.000	-0.044	-0.132
-136.414	-200.000	0.011	0.206
-135.399	-200.000	-0.018	0.159
-134.385	-128.154	-0.260	-0.036
-133.370	-91.264	0.323	-0.091
-132.356	800.000	0.019	-0.057
-131.341	-102.896	0.156	-0.036
-130.326	-56.862	0.249	-0.108
-129.312	-74.094	0.128	0.046
-128.297	800.000	0.018	0.053
-127.283	-123.077	0.152	-0.024
-126.268	73.250	-0.106	0.109
-125.253	800.000	0.152	0.480
-124.239	-112.847	-0.330	-0.064
-123.224	-152.268	0.341	0.024
-122.210	-18.254	-0.122	-0.075
-121.195	-30.029	0.140	-0.078
-120.180	31.492	-0.161	-0.135
