DTS Sentinel unit serial number:	SN413079Multiplexer serial number:	ORYXHardware model number:	OX4-SRSoftware version number:	ORYX F/W v4.00 Oryx Data Collector v3.7.2.0data status	okinstallation	princeton_trtdifferential loss correction	single-endedforward channel	channel 1reverse channel	N/Adate	2019/09/19time	05:34:35forward acquisition time	60.00reverse acquisition time	0.00gamma	496.2192k internal	0.2343k external	0.2343temperature offset calibration	1.0025default loss term (dB/km)	0.3790temperature slope calibration	1.0000multiplexer offset coefficient	1.0000multiplexer slope coefficient	1.0000fibre end	0.00T internal ref (°C)	19.33T ext. ref 1 (°C)	0.60T ext. ref 2 (°C)	12.95length (m)	temperature (°C)	Stokes	anti-Stokes-747.200	800.000	-0.057	0.163
-746.185	32.217	0.287	0.248
-745.171	93.433	0.105	0.119
-744.156	-200.000	-0.040	0.208
-743.142	707.781	0.147	0.388
-742.127	95.856	0.255	0.292
-741.112	-200.000	0.018	-0.145
-740.098	325.116	-0.195	0.374
-739.083	-114.747	0.255	0.049
-738.069	386.065	-0.219	0.453
-737.054	-200.000	0.034	0.337
-736.039	101.253	-0.352	-0.410
-735.025	66.555	-0.105	0.107
-734.010	-200.000	-0.000	-0.031
-732.996	-6.699	0.320	-0.218
-731.981	38.004	-0.079	0.070
-730.966	652.452	-0.042	0.107
-729.952	-111.571	0.107	-0.022
-728.937	207.532	-0.190	-0.297
-727.923	-137.006	-0.251	-0.029
-726.908	800.000	-0.084	0.273
-725.894	-95.911	0.205	0.055
-724.879	-130.960	0.167	0.022
-723.864	-200.000	-0.042	0.212
-722.850	27.039	-0.247	0.208
-721.835	-8.816	0.271	-0.182
-720.821	103.044	-0.257	0.301
-719.806	-176.490	-0.015	-0.000
-718.791	119.371	0.094	0.116
-717.777	800.000	0.021	-0.089
-716.762	-27.171	0.040	-0.024
-715.748	-9.595	-0.140	0.093
-714.733	-200.000	0.106	0.517
-713.718	605.546	0.124	-0.308
-712.704	492.833	0.045	-0.103
-711.689	19.421	-0.218	0.175
-710.675	-96.969	0.322	-0.085
-709.660	-200.000	0.025	0.154
-708.645	-200.000	-0.010	-0.143
-707.631	20.599	0.175	-0.141
-706.616	-200.000	-0.346	0.001
-705.602	-200.000	-0.008	-0.070
-704.587	294.756	-0.191	-0.350
-703.572	150.215	0.156	-0.211
-702.558	436.755	-0.083	-0.180
-701.543	54.293	0.352	0.338
-700.529	-200.000	-0.051	-0.262
-699.514	-191.851	0.283	-0.003
-698.499	-167.476	0.282	-0.011
-697.485	800.000	-0.038	0.154
-696.470	-200.000	0.030	0.406
-695.456	800.000	-0.048	0.184
-694.441	-200.000	-0.028	0.150
-693.426	81.500	-0.102	0.111
-692.412	49.089	-0.179	-0.168
-691.397	-200.000	-0.019	-0.284
-690.383	-64.122	0.219	0.089
-689.368	-49.290	-0.256	0.122
-688.354	-200.000	-0.000	0.186
-687.339	128.396	-0.079	-0.101
-686.324	-126.893	-0.151	-0.022
-685.310	-76.433	-0.138	0.049
-684.295	641.743	0.003	0.007
-683.281	-108.107	-0.528	0.114
-682.266	800.000	-0.028	0.087
-681.251	-118.539	0.019	-0.003
-680.237	-200.000	-0.006	-0.127
-679.222	84.514	-0.037	-0.040
-678.208	-64.889	0.246	0.099
-677.193	-200.000	-0.021	-0.129
-676.178	800.000	-0.075	0.208
-675.164	-94.036	0.096	0.026
-674.149	-88.076	-0.154	-0.046
-673.135	-200.000	-0.007	-0.061
-672.120	-156.289	-0.223	-0.014
-671.105	-200.000	0.068	0.310
-670.091	-161.884	-0.361	-0.018
-669.076	-13.916	0.201	-0.130
-668.062	86.664	-0.083	-0.091
-667.047	81.681	-0.015	-0.016
-666.032	800.000	-0.030	-0.117
-665.018	169.947	-0.140	0.200
-664.003	-68.001	-0.323	-0.126
-662.989	651.749	-0.150	-0.382
-661.974	-200.000	0.040	0.277
-660.959	18.426	-0.071	0.056
-659.945	25.445	0.197	0.163
-658.930	378.766	-0.097	0.199
-657.916	-106.528	0.389	0.087
-656.901	-195.846	-0.194	0.001
-655.886	-13.639	-0.157	-0.102
-654.872	-188.815	-0.313	-0.004
-653.857	72.023	0.389	-0.404
-652.843	-200.000	0.026	-0.121
-651.828	-49.342	-0.102	-0.049
-650.814	-47.329	-0.357	0.173
-649.799	-160.912	0.271	-0.014
-648.784	149.650	0.166	0.224
-647.770	-109.213	-0.229	0.048
-646.755	-200.000	0.035	0.250
-645.741	35.227	-0.165	0.144
-644.726	115.433	-0.239	0.292
-643.711	-31.757	0.245	0.137
-642.697	81.380	0.108	0.117
-641.682	-82.328	-0.161	-0.052
-640.668	226.823	-0.175	-0.284
-639.653	752.527	-0.040	-0.108
-638.638	453.676	-0.098	-0.215
-637.624	-114.257	0.186	0.036
-636.609	-112.244	0.122	-0.024
-635.595	-200.000	0.001	-0.060
-634.580	768.144	0.066	0.179
-633.565	371.803	0.061	-0.123
-632.551	-69.150	-0.229	-0.088
-631.536	5.598	-0.055	0.040
-630.522	226.671	-0.119	-0.192
-629.507	46.129	0.098	-0.090
-628.492	239.989	0.071	-0.118
-627.478	-101.921	-0.181	0.044
-626.463	-77.274	0.121	0.042
-625.449	-200.000	0.007	0.427
-624.434	-174.470	-0.277	0.008
-623.419	518.307	-0.070	-0.162
-622.405	800.000	0.039	-0.166
-621.390	209.645	-0.137	-0.215
-620.376	-86.410	0.326	0.100
-619.361	1.953	-0.002	0.002
-618.346	675.369	-0.036	0.093
-617.332	-62.529	0.290	-0.120
-616.317	-147.847	-0.153	-0.013
-615.303	-200.000	-0.004	-0.282
-614.288	-93.330	-0.064	0.018
-613.273	372.628	-0.141	0.286
-612.259	-200.000	0.016	0.306
-611.244	-84.872	0.215	-0.067
-610.230	77.285	0.128	0.136
-609.215	-66.599	-0.305	-0.121
-608.201	-95.167	0.211	-0.057
-607.186	-72.532	0.100	0.037
-606.171	800.000	-0.103	0.316
-605.157	71.828	-0.311	-0.322
-604.142	-61.108	0.261	-0.110
-603.128	-27.025	-0.196	0.114
-602.113	39.412	0.154	0.137
-601.098	271.089	-0.228	0.400
-600.084	-7.314	0.151	-0.102
-599.069	-200.000	-0.032	0.248
-598.055	215.810	0.065	-0.103
-597.040	-150.970	-0.399	-0.030
-596.025	-30.023	-0.184	0.104
-595.011	-19.730	-0.188	-0.116
-593.996	475.847	-0.201	0.453
-592.982	313.854	-0.154	0.289
-591.967	-200.000	-0.003	-0.169
-590.952	31.657	-0.140	0.120
-589.938	-118.231	-0.076	-0.013
-588.923	-99.740	-0.058	-0.015
-587.909	-45.763	-0.285	-0.140
-586.894	-148.709	0.025	-0.002
-585.879	-200.000	0.028	0.304
-584.865	-128.402	-0.206	-0.029
-583.850	-200.000	-0.020	-0.088
-582.836	-87.531	-0.173	0.052
-581.821	-89.531	0.125	0.036
-580.806	-90.278	0.045	-0.013
-579.792	-70.189	-0.218	0.082
-578.777	412.721	-0.094	0.198
-577.763	108.693	-0.263	-0.313
-576.748	146.425	0.106	0.142
-575.733	-105.218	-0.088	0.020
-574.719	-200.000	0.036	0.156
-573.704	109.543	0.262	-0.312
-572.690	51.864	-0.272	-0.258
-571.675	-41.269	-0.289	-0.148
-570.661	-200.000	0.031	-0.205
-569.646	800.000	0.063	-0.272
-568.631	-145.621	0.206	0.018
-567.617	-200.000	0.011	-0.107
-566.602	-87.617	-0.075	0.023
-565.588	-60.345	-0.073	0.031
-564.573	31.821	-0.280	-0.240
-563.558	-200.000	0.015	0.149
-562.544	66.368	0.093	-0.094
-561.529	-144.375	0.440	-0.041
-560.515	1.832	0.130	0.093
-559.500	4.834	-0.159	0.116
-558.485	-52.649	-0.202	-0.093
-557.471	-161.186	-0.210	0.011
-556.456	-125.892	-0.285	0.043
-555.442	-150.058	-0.240	-0.019
-554.427	711.715	0.018	0.047
-553.412	766.960	0.114	-0.307
-552.398	-200.000	0.008	-0.188
-551.383	591.042	0.122	-0.299
-550.369	-95.867	-0.054	-0.014
-549.354	-145.300	-0.223	-0.020
-548.339	-41.124	0.190	-0.098
-547.325	-87.854	-0.182	0.054
-546.310	-55.616	-0.100	0.044
-545.296	268.713	0.077	0.135
-544.281	281.484	0.071	0.126
-543.266	45.043	-0.022	0.020
-542.252	-182.034	-0.133	-0.003
-541.237	366.547	-0.150	0.301
-540.223	-57.663	0.110	0.048
-539.208	106.154	0.030	-0.035
-538.193	-138.804	-0.197	-0.021
-537.179	439.096	0.144	-0.312
-536.164	32.716	-0.043	-0.037
-535.150	153.400	0.059	0.081
-534.135	68.628	0.265	0.270
-533.121	716.053	0.117	-0.307
-532.106	-152.748	0.160	0.011
-531.091	248.302	-0.147	0.246
-530.077	-200.000	-0.026	0.138
-529.062	39.876	-0.094	-0.084
-528.048	800.000	-0.078	-0.295
-527.033	-200.000	0.017	0.091
-526.018	800.000	0.049	-0.195
-525.004	-156.630	-0.431	-0.027
-523.989	228.775	0.054	0.087
-522.975	800.000	-0.109	-0.345
-521.960	-200.000	-0.011	0.152
-520.945	86.269	-0.281	0.307
-519.931	-200.000	-0.024	0.181
-518.916	180.759	0.101	-0.147
-517.902	-200.000	-0.046	-0.251
-516.887	-200.000	-0.027	0.163
-515.872	-200.000	0.067	-0.553
-514.858	800.000	0.072	0.204
-513.843	-123.096	-0.332	-0.053
-512.829	-200.000	-0.055	-0.434
-511.814	-165.669	0.096	-0.004
-510.799	-1.145	0.301	-0.211
-509.785	800.000	-0.028	0.084
-508.770	-49.718	-0.101	-0.047
-507.756	465.814	-0.100	-0.222
-506.741	114.081	0.024	0.029
-505.726	-62.327	0.321	0.133
-504.712	-27.839	-0.401	-0.231
-503.697	800.000	-0.017	-0.075
-502.683	-19.873	0.289	-0.177
-501.668	61.139	-0.251	0.247
-500.653	189.998	0.082	-0.122
-499.639	84.704	-0.106	-0.115
-498.624	-19.308	-0.128	0.078
-497.610	-200.000	-0.005	-0.226
-496.595	-191.478	-0.174	-0.002
-495.581	-108.125	0.102	0.022
-494.566	800.000	0.010	0.035
-493.551	451.955	0.109	0.240
-492.537	177.772	0.227	0.328
-491.522	130.499	0.038	-0.048
-490.508	98.851	-0.146	0.167
-489.493	198.551	-0.084	-0.127
-488.478	136.065	-0.134	0.173
-487.464	29.973	-0.039	0.033
-486.449	57.060	-0.133	-0.129
-485.435	-61.990	-0.274	-0.114
-484.420	800.000	-0.025	-0.076
-483.405	-200.000	-0.114	0.588
-482.391	800.000	0.070	0.199
-481.376	188.998	-0.094	0.139
-480.362	-98.218	-0.269	-0.068
-479.347	-200.000	0.027	-0.248
-478.332	-15.404	-0.101	-0.064
-477.318	-126.395	0.366	-0.054
-476.303	800.000	0.032	-0.133
-475.289	345.859	-0.088	-0.172
-474.274	167.437	-0.217	0.305
-473.259	-36.690	0.034	0.018
-472.245	49.987	0.073	0.068
-471.230	6.407	-0.145	0.107
-470.216	-200.000	-0.034	-0.223
-469.201	-0.453	-0.161	0.113
-468.186	12.995	0.161	-0.124
-467.172	-200.000	-0.051	-0.308
-466.157	17.913	0.154	-0.121
-465.143	80.167	0.140	0.149
-464.128	-51.481	0.161	-0.075
-463.113	137.819	0.152	-0.197
-462.099	65.697	-0.120	0.120
-461.084	118.448	-0.040	-0.049
-460.070	-200.000	0.010	0.096
-459.055	800.000	0.050	-0.164
-458.040	165.668	0.156	-0.219
-457.026	-200.000	0.014	0.092
-456.011	136.480	-0.138	0.179
-454.997	178.045	-0.069	-0.100
-453.982	57.122	0.326	-0.315
-452.968	369.720	-0.029	-0.058
-451.953	-200.000	-0.039	0.341
-450.938	-200.000	-0.003	0.208
-449.924	241.423	-0.095	-0.158
-448.909	100.499	-0.158	0.181
-447.895	-84.327	-0.258	-0.081
-446.880	-200.000	-0.070	-0.351
-445.865	135.565	0.126	-0.162
-444.851	-9.434	0.128	0.085
-443.836	32.171	0.254	0.217
-442.822	-173.272	-0.024	-0.001
-441.807	-200.000	-0.002	0.386
-440.792	-108.215	0.191	0.041
-439.778	-46.793	0.317	0.154
-438.763	-140.704	0.091	-0.009
-437.749	38.316	-0.181	0.159
-436.734	-110.411	0.131	0.027
-435.719	-102.236	-0.204	0.048
-434.705	52.092	0.081	0.077
-433.690	71.396	-0.342	0.352
-432.676	228.771	0.175	-0.283
-431.661	24.141	-0.159	-0.130
-430.646	800.000	0.026	-0.097
-429.632	-141.608	-0.313	-0.031
-428.617	-154.857	0.107	-0.007
-427.603	-94.161	0.175	-0.047
-426.588	-131.779	0.120	-0.016
-425.573	248.157	-0.046	0.077
-424.559	800.000	-0.083	0.229
-423.544	-200.000	-0.016	-0.193
-422.530	-200.000	0.019	0.200
-421.515	-200.000	-0.008	0.052
-420.500	-0.922	0.212	0.148
-419.486	-200.000	-0.021	-0.123
-418.471	135.664	-0.157	0.202
-417.457	800.000	-0.071	0.224
-416.442	160.645	-0.161	0.222
-415.428	720.630	0.055	-0.143
-414.413	276.515	-0.129	0.227
-413.398	-126.036	-0.111	0.017
-412.384	466.171	-0.159	0.351
-411.369	379.612	0.099	0.201
-410.355	-200.000	-0.032	-0.198
-409.340	-14.640	-0.103	0.065
-408.325	-200.000	-0.028	-0.226
-407.311	41.889	0.156	-0.139
-406.296	-87.625	0.205	0.061
-405.282	74.429	0.069	0.072
-404.267	-98.198	0.153	0.039
-403.252	-32.800	-0.358	-0.197
-402.238	188.163	-0.180	-0.265
-401.223	-200.000	-0.041	-0.221
-400.209	499.367	0.056	-0.127
-399.194	444.530	-0.021	0.046
-398.179	-200.000	0.024	0.168
-397.165	-47.960	0.352	0.168
-396.150	-200.000	-0.001	-0.326
-395.136	-200.000	0.022	0.156
-394.121	6.344	0.119	0.088
-393.106	155.414	-0.052	-0.070
-392.092	-26.855	0.367	-0.212
-391.077	1.594	-0.207	-0.147
-390.063	191.170	0.163	0.242
-389.048	-82.738	-0.434	-0.139
-388.033	-144.119	0.294	0.027
-387.019	4.998	0.149	-0.108
-386.004	266.400	-0.129	-0.223
-384.990	2.626	0.148	-0.106
-383.975	-48.130	-0.171	0.081
-382.960	437.193	0.054	0.115
-381.946	-200.000	0.005	0.043
-380.931	72.948	0.280	0.289
-379.917	164.602	-0.235	-0.327
-378.902	-67.217	0.170	0.066
-377.888	-200.000	0.015	-0.289
-376.873	-200.000	0.042	0.226
-375.858	87.802	0.015	0.017
-374.844	258.472	0.102	-0.173
-373.829	-113.064	-0.150	0.029
-372.815	97.268	0.085	-0.097
-371.800	-107.792	0.109	0.023
-370.785	4.020	0.148	0.107
-369.771	-200.000	-0.017	-0.227
-368.756	-200.000	-0.028	-0.251
-367.742	5.204	-0.305	0.222
-366.727	-200.000	0.014	-0.274
-365.712	257.940	0.091	0.154
-364.698	-200.000	0.004	0.279
-363.683	24.288	0.303	-0.247
-362.669	-160.267	-0.112	0.006
-361.654	-129.360	0.270	-0.037
-360.639	-5.441	0.275	0.186
-359.625	82.559	-0.214	0.230
-358.610	41.791	-0.144	-0.129
-357.596	551.798	0.029	0.070
-356.581	310.797	0.179	-0.331
-355.566	-200.000	-0.047	-0.446
-354.552	-200.000	-0.092	-0.531
-353.537	-86.216	-0.210	-0.064
-352.523	154.432	-0.051	0.070
-351.508	-200.000	0.054	0.246
-350.493	-64.927	0.370	-0.147
-349.479	-123.723	-0.363	-0.057
-348.464	-118.206	-0.196	0.035
-347.450	800.000	-0.031	0.115
-346.435	800.000	-0.109	-0.313
-345.420	38.229	-0.087	-0.076
-344.406	-110.323	-0.123	0.025
-343.391	-141.696	0.225	-0.022
-342.377	-31.742	-0.123	0.068
-341.362	800.000	0.117	-0.377
-340.348	-46.336	-0.178	-0.086
-339.333	-78.770	-0.223	-0.075
-338.318	-114.134	-0.205	0.039
-337.304	37.495	0.140	-0.122
-336.289	-200.000	-0.022	0.141
-335.275	38.052	-0.163	-0.143
-334.260	800.000	0.056	0.190
-333.245	-200.000	0.029	0.277
-332.231	85.027	0.180	-0.195
-331.216	-59.050	-0.040	-0.017
-330.202	218.123	0.163	-0.256
-329.187	140.299	0.020	-0.026
-328.172	522.223	0.177	0.410
-327.158	291.061	0.114	-0.204
-326.143	-71.735	-0.053	-0.019
-325.129	-82.989	-0.131	-0.042
-324.114	-167.603	0.596	0.023
-323.099	314.871	0.156	-0.289
-322.085	800.000	0.113	-0.383
-321.070	791.774	-0.079	-0.213
-320.056	37.652	0.118	-0.103
-319.041	251.146	0.139	0.233
-318.026	-200.000	0.007	0.242
-317.012	-86.582	0.273	0.082
-315.997	-101.877	0.266	-0.063
-314.983	71.482	-0.195	-0.200
-313.968	-200.000	0.012	0.406
-312.953	229.011	0.081	-0.130
-311.939	-116.623	0.211	-0.038
-310.924	117.814	0.095	0.115
-309.910	-200.000	-0.006	-0.256
-308.895	-54.073	0.349	-0.156
-307.880	-200.000	-0.017	-0.408
-306.866	580.088	-0.147	0.355
-305.851	-200.000	-0.001	-0.025
-304.837	-2.437	-0.368	0.254
-303.822	-190.446	-0.065	-0.001
-302.807	-35.256	-0.348	0.186
-301.793	139.923	0.177	0.230
-300.778	-155.689	-0.135	0.008
-299.764	800.000	0.033	-0.138
-298.749	-76.804	-0.238	-0.082
-297.735	106.174	0.132	0.154
-296.720	800.000	-0.045	0.160
-295.705	-200.000	-0.015	0.238
-294.691	-83.332	0.124	0.039
-293.676	-200.000	0.007	0.175
-292.662	-101.839	0.232	-0.055
-291.647	-53.438	-0.146	0.066
-290.632	-41.201	0.276	0.140
-289.618	156.100	0.070	0.094
-288.603	-108.255	0.387	0.082
-287.589	302.538	-0.150	0.272
-286.574	800.000	-0.066	-0.185
-285.559	-200.000	0.046	0.227
-284.545	-3.926	-0.384	-0.262
-283.530	800.000	0.045	0.180
-282.516	800.000	-0.072	-0.267
-281.501	-200.000	-0.000	-0.029
-280.486	397.521	0.154	0.317
-279.472	74.012	-0.117	-0.121
-278.457	-147.316	-0.377	0.032
-277.443	183.395	-0.172	-0.249
-276.428	-41.897	0.174	-0.088
-275.413	-56.771	0.132	-0.057
-274.399	-200.000	-0.037	0.171
-273.384	115.496	-0.108	-0.130
-272.370	-52.662	0.135	0.061
-271.355	800.000	0.071	-0.232
-270.340	-92.554	0.233	-0.064
-269.326	18.555	0.216	0.170
-268.311	800.000	0.052	0.185
-267.297	723.372	-0.115	0.300
-266.282	97.368	0.138	0.156
-265.267	-200.000	-0.052	-0.239
-264.253	800.000	-0.048	0.182
-263.238	-118.384	0.248	-0.043
-262.224	-72.561	-0.199	-0.072
-261.209	-97.828	-0.173	0.044
-260.195	-101.433	-0.296	0.071
-259.180	800.000	-0.026	-0.092
-258.165	1.518	-0.116	0.082
-257.151	-32.610	0.184	0.100
-256.136	800.000	-0.087	0.245
-255.122	800.000	0.055	0.160
-254.107	150.482	0.302	-0.403
-253.092	-56.877	-0.213	-0.092
-252.078	-101.283	-0.106	0.025
-251.063	433.804	-0.231	0.493
-250.049	157.020	0.207	-0.281
-249.034	-29.514	-0.127	-0.071
-248.019	-74.250	-0.171	0.061
-247.005	316.934	0.069	0.129
-245.990	-200.000	0.013	-0.224
-244.976	-99.861	0.305	-0.075
-243.961	169.785	-0.125	0.176
-242.946	148.312	-0.143	0.190
-241.932	592.879	-0.061	0.148
-240.917	-77.596	-0.083	-0.028
-239.903	-64.135	0.336	0.135
-238.888	-200.000	-0.004	0.026
-237.873	192.123	-0.041	-0.061
-236.859	-128.652	0.325	0.045
-235.844	-46.407	0.227	-0.110
-234.830	-94.734	0.395	-0.105
-233.815	20.444	0.338	0.268
-232.800	800.000	-0.059	-0.191
-231.786	-200.000	-0.025	-0.158
-230.771	89.359	0.218	0.239
-229.757	-81.950	-0.263	0.084
-228.742	-53.437	-0.088	-0.040
-227.727	140.570	0.089	-0.115
-226.713	-67.082	-0.561	-0.217
-225.698	800.000	0.017	0.060
-224.684	-200.000	0.018	-0.198
-223.669	-169.798	-0.236	0.008
-222.655	682.289	0.164	0.420
-221.640	136.645	0.193	-0.248
-220.625	-121.491	-0.080	0.013
-219.611	6.236	0.105	0.076
-218.596	-181.575	-0.353	0.007
-217.582	139.217	0.346	-0.447
-216.567	449.231	0.214	0.462
-215.552	294.762	0.053	0.094
-214.538	-57.550	0.174	0.075
-213.523	-105.882	-0.079	0.017
-212.509	-200.000	-0.203	-0.000
-211.494	-111.205	-0.132	-0.026
-210.479	-120.029	0.294	-0.049
-209.465	-26.358	-0.109	0.063
-208.450	-200.000	-0.019	0.166
-207.436	27.494	0.141	-0.116
-206.421	-16.515	-0.051	-0.031
-205.406	-53.253	-0.117	-0.052
-204.392	496.316	0.175	0.395
-203.377	-175.995	0.189	0.005
-202.363	311.889	-0.140	-0.258
-201.348	800.000	0.114	-0.377
-200.333	154.124	-0.089	-0.120
-199.319	22.154	-0.296	0.237
-198.304	92.619	0.127	-0.140
-197.290	135.939	0.149	-0.191
-196.275	-186.225	0.368	0.005
-195.260	-113.214	0.328	0.063
-194.246	-100.205	0.106	0.026
-193.231	-200.000	0.042	0.281
-192.217	-200.000	-0.058	-0.286
-191.202	620.254	0.141	-0.348
-190.187	57.427	0.207	0.198
-189.173	-200.000	-0.021	-0.305
-188.158	1.759	0.116	-0.082
-187.144	800.000	-0.161	0.606
-186.129	66.150	0.205	-0.204
-185.114	-200.000	-0.008	0.251
-184.100	75.191	-0.093	0.096
-183.085	22.894	0.123	0.099
-182.071	800.000	-0.071	-0.282
-181.056	419.017	-0.059	0.124
-180.042	-162.634	-0.371	0.018
-179.027	158.216	0.232	-0.316
-178.012	-65.558	-0.236	-0.093
-176.998	-200.000	0.027	0.229
-175.983	205.296	0.213	-0.325
-174.969	-170.311	0.452	-0.016
-173.954	-200.000	-0.002	0.442
-172.939	-64.042	-0.289	0.116
-171.925	-6.792	0.105	-0.070
-170.910	285.106	0.008	-0.013
-169.896	95.588	0.198	0.221
-168.881	88.978	0.315	0.344
-167.866	800.000	0.068	-0.290
-166.852	41.003	0.080	0.071
-165.837	-62.213	0.106	-0.043
-164.823	709.237	0.087	-0.225
-163.808	-73.930	-0.341	-0.121
-162.793	214.371	-0.026	-0.040
-161.779	-200.000	-0.047	-0.275
-160.764	331.308	0.112	0.211
-159.750	254.312	0.051	-0.085
-158.735	83.323	0.134	-0.143
-157.720	6.669	0.120	-0.087
-156.706	59.626	0.326	0.315
-155.691	-200.000	-0.051	0.475
-154.677	785.525	0.064	0.172
-153.662	-107.086	-0.102	0.022
-152.647	29.812	-0.288	0.240
-151.633	58.354	-0.078	0.075
-150.618	-74.017	0.333	-0.118
-149.604	212.744	-0.218	0.337
-148.589	-200.000	-0.004	0.131
-147.574	-200.000	-0.014	-0.491
-146.560	-43.926	0.150	0.074
-145.545	29.826	0.107	-0.089
-144.531	35.956	0.252	-0.217
-143.516	-19.441	0.220	0.133
-142.502	85.024	-0.057	0.061
-141.487	180.096	0.100	0.144
-140.472	-84.356	0.343	-0.106
-139.458	-123.498	0.181	-0.028
-138.443	-200.000	-0.007	0.111
-137.429	92.915	0.112	0.124
-136.414	219.603	-0.161	-0.252
-135.399	-200.000	-0.019	-0.102
-134.385	439.249	0.149	0.318
-133.370	307.275	-0.110	0.201
-132.356	800.000	0.097	-0.269
-131.341	40.947	-0.131	-0.116
-130.326	192.466	-0.218	-0.321
-129.312	641.700	0.007	0.019
-128.297	461.097	-0.150	0.328
-127.283	800.000	-0.127	0.353
-126.268	800.000	-0.065	-0.276
-125.253	-142.805	0.278	0.026
-124.239	30.858	0.008	0.006
-123.224	-66.000	0.095	0.037
-122.210	-200.000	-0.014	0.082
-121.195	79.499	-0.132	-0.138
