DTS Sentinel unit serial number:	SN413079Multiplexer serial number:	ORYXHardware model number:	OX4-SRSoftware version number:	ORYX F/W v4.00 Oryx Data Collector v3.7.2.0data status	okinstallation	princeton_trtdifferential loss correction	single-endedforward channel	channel 1reverse channel	N/Adate	2019/09/10time	20:48:11forward acquisition time	60.00reverse acquisition time	0.00gamma	496.2192k internal	0.2328k external	0.2328temperature offset calibration	0.9939default loss term (dB/km)	0.3790temperature slope calibration	1.0000multiplexer offset coefficient	1.0000multiplexer slope coefficient	1.0000fibre end	0.00T internal ref (°C)	31.75T ext. ref 1 (°C)	-0.32T ext. ref 2 (°C)	25.26length (m)	temperature (°C)	Stokes	anti-Stokes-747.200	-200.000	-0.019	-0.157
-746.185	-157.835	0.237	0.014
-745.171	-200.000	0.004	0.087
-744.156	-200.000	-0.019	0.215
-743.142	174.971	-0.070	0.101
-742.127	-74.425	-0.190	0.069
-741.112	55.601	-0.229	0.224
-740.098	79.913	0.206	0.223
-739.083	339.161	-0.045	0.089
-738.069	-28.293	0.185	0.108
-737.054	-75.705	0.249	-0.089
-736.039	191.986	-0.056	-0.085
-735.025	-86.413	0.204	0.063
-734.010	241.038	-0.127	-0.214
-732.996	166.310	-0.161	-0.230
-731.981	-152.997	-0.154	-0.011
-730.966	111.562	0.111	-0.135
-729.952	-165.150	0.051	0.002
-728.937	-200.000	0.003	-0.409
-727.923	-181.319	-0.358	-0.007
-726.908	-136.466	-0.240	-0.028
-725.894	-109.726	-0.336	-0.071
-724.879	-3.284	-0.304	-0.214
-723.864	-15.157	0.061	0.039
-722.850	-145.034	0.345	0.032
-721.835	-121.724	-0.123	0.021
-720.821	200.543	0.087	0.135
-719.806	125.941	0.057	0.072
-718.791	382.185	-0.119	-0.246
-717.777	98.931	-0.121	0.141
-716.762	800.000	0.018	0.074
-715.748	169.137	-0.124	-0.177
-714.733	-119.634	0.324	0.056
-713.718	-37.789	-0.133	-0.071
-712.704	-37.004	0.259	-0.140
-711.689	-88.193	0.274	-0.083
-710.675	237.441	-0.172	0.288
-709.660	-159.601	-0.192	0.011
-708.645	-3.363	-0.151	0.106
-707.631	-200.000	-0.255	0.001
-706.616	88.304	-0.118	-0.132
-705.602	-131.625	-0.200	-0.026
-704.587	-114.393	0.104	0.020
-703.572	-200.000	0.005	0.081
-702.558	130.675	0.144	-0.185
-701.543	70.387	0.204	0.212
-700.529	-105.795	0.198	-0.045
-699.514	-200.000	0.002	-0.105
-698.499	145.217	-0.049	0.066
-697.485	82.297	0.107	-0.116
-696.470	-200.000	-0.011	-0.450
-695.456	-25.110	-0.190	0.113
-694.441	800.000	0.155	-0.493
-693.426	-74.131	-0.328	-0.120
-692.412	118.991	0.122	0.152
-691.397	422.378	-0.066	-0.142
-690.383	8.194	0.034	0.025
-689.368	-136.543	-0.133	0.015
-688.354	-19.312	-0.283	-0.177
-687.339	-16.452	0.065	-0.041
-686.324	-129.963	-0.410	-0.057
-685.310	-87.517	0.113	0.034
-684.295	72.706	-0.266	-0.279
-683.281	-200.000	0.004	0.224
-682.266	-200.000	0.021	-0.210
-681.251	124.279	-0.134	-0.170
-680.237	-200.000	-0.022	-0.181
-679.222	-113.540	-0.309	-0.061
-678.208	-79.366	0.422	-0.144
-677.193	-24.929	-0.091	0.054
-676.178	-200.000	-0.004	-0.055
-675.164	-108.594	-0.172	0.037
-674.149	245.357	0.131	-0.221
-673.135	800.000	-0.020	0.080
-672.120	-182.155	-0.294	0.006
-671.105	93.503	0.067	0.076
-670.091	800.000	-0.040	-0.114
-669.076	-135.844	0.239	-0.028
-668.062	800.000	-0.051	-0.144
-667.047	-69.360	0.221	-0.085
-666.032	591.747	0.024	-0.061
-665.018	-48.554	0.247	-0.119
-664.003	-184.200	0.244	0.004
-662.989	-126.778	-0.223	-0.033
-661.974	6.121	-0.083	-0.062
-660.959	800.000	0.125	0.351
-659.945	736.663	0.032	-0.087
-658.930	-200.000	0.018	-0.174
-657.916	32.971	0.089	0.077
-656.901	70.807	-0.167	-0.174
-655.886	327.925	0.189	0.365
-654.872	-13.247	-0.256	0.167
-653.857	-48.606	-0.193	0.093
-652.843	-155.533	-0.186	0.012
-651.828	-200.000	0.042	0.190
-650.814	494.142	0.060	-0.137
-649.799	-76.450	-0.247	0.087
-648.784	286.501	0.147	-0.266
-647.770	45.324	-0.074	0.069
-646.755	-30.056	0.091	-0.052
-645.741	-189.132	-0.264	0.003
-644.726	-116.955	-0.293	-0.054
-643.711	-90.101	-0.153	0.045
-642.697	370.745	0.032	0.065
-641.682	130.698	0.252	0.324
-640.668	10.441	0.074	0.056
-639.653	-1.878	0.251	-0.177
-638.638	100.358	-0.070	0.081
-637.624	800.000	-0.024	0.103
-636.609	800.000	0.093	0.261
-635.595	38.079	-0.265	0.236
-634.580	19.684	0.107	0.086
-633.565	-38.632	-0.152	0.081
-632.551	-85.165	-0.344	0.108
-631.536	414.332	-0.077	0.165
-630.522	-96.940	-0.288	-0.076
-629.507	54.549	0.244	-0.236
-628.492	41.388	-0.022	0.020
-627.478	-42.890	0.241	0.123
-626.463	-58.378	-0.355	0.155
-625.449	150.759	-0.107	-0.146
-624.434	-24.078	-0.318	0.190
-623.419	800.000	0.079	0.304
-622.405	-200.000	0.004	-0.084
-621.390	-200.000	-0.068	0.345
-620.376	-128.601	0.286	-0.041
-619.361	25.219	0.088	0.073
-618.346	181.997	0.173	-0.256
-617.332	-128.153	0.196	0.028
-616.317	159.290	-0.052	-0.072
-615.303	110.086	0.237	-0.285
-614.288	10.272	-0.139	0.106
-613.273	800.000	0.090	-0.328
-612.259	-200.000	0.019	-0.199
-611.244	57.158	0.111	0.109
-610.230	800.000	0.024	-0.069
-609.215	-68.857	0.236	-0.091
-608.201	800.000	-0.026	-0.106
-607.186	-27.109	-0.177	-0.104
-606.171	-200.000	-0.004	0.021
-605.157	-200.000	-0.011	0.514
-604.142	194.020	-0.271	0.412
-603.128	110.489	-0.358	-0.431
-602.113	681.218	-0.047	0.122
-601.098	-0.082	-0.326	0.232
-600.084	-66.867	-0.285	0.113
-599.069	-60.852	0.149	-0.063
-598.055	67.104	-0.118	-0.121
-597.040	116.402	0.017	0.020
-596.025	70.186	0.160	-0.166
-595.011	99.250	0.174	0.202
-593.996	-97.265	0.266	0.070
-592.982	102.413	-0.142	-0.166
-591.967	612.924	-0.105	0.263
-590.952	55.049	-0.123	-0.119
-589.938	-37.738	0.159	-0.085
-588.923	-200.000	-0.002	0.204
-587.909	-200.000	0.033	0.381
-586.894	800.000	-0.066	-0.259
-585.879	155.899	-0.301	-0.415
-584.865	48.076	-0.455	0.426
-583.850	193.367	-0.097	-0.147
-582.836	-115.580	0.184	-0.035
-581.821	-61.464	-0.355	0.149
-580.806	-177.924	0.135	-0.003
-579.792	274.853	0.220	-0.389
-578.777	-139.895	-0.130	-0.014
-577.763	-160.335	-0.344	-0.019
-576.748	-77.224	-0.354	-0.123
-575.733	-8.318	-0.114	0.077
-574.719	-94.478	-0.148	-0.040
-573.704	374.529	0.056	0.113
-572.690	342.379	-0.177	-0.346
-571.675	-200.000	0.013	0.077
-570.661	530.334	0.081	0.192
-569.646	439.685	-0.024	0.053
-568.631	800.000	0.097	-0.289
-567.617	-71.166	0.389	-0.146
-566.602	-200.000	0.029	-0.288
-565.588	-137.172	0.314	0.036
-564.573	-169.452	-0.435	0.016
-563.558	-49.730	0.107	0.051
-562.544	29.619	-0.300	-0.255
-561.529	16.892	0.063	-0.050
-560.515	-200.000	0.002	0.157
-559.500	-200.000	-0.056	-0.330
-558.485	-200.000	0.023	0.109
-557.471	-131.803	0.143	0.019
-556.456	55.538	0.249	0.242
-555.442	-15.559	-0.337	-0.215
-554.427	-180.454	-0.291	-0.006
-553.412	-35.829	0.503	-0.272
-552.398	-90.588	0.375	-0.109
-551.383	8.811	-0.090	-0.068
-550.369	585.802	0.128	-0.314
-549.354	73.148	-0.050	0.052
-548.339	134.320	-0.173	0.225
-547.325	-76.008	-0.194	0.069
-546.310	164.243	-0.083	-0.117
-545.296	248.784	0.146	0.247
-544.281	-200.000	-0.032	0.205
-543.266	279.486	0.238	0.425
-542.252	800.000	-0.029	0.090
-541.237	-55.218	0.076	0.034
-540.223	122.191	0.180	-0.224
-539.208	-50.297	-0.228	-0.108
-538.193	-21.815	-0.110	0.067
-537.179	51.183	-0.294	-0.279
-536.164	148.568	-0.155	0.209
-535.150	-94.121	-0.210	-0.057
-534.135	-118.974	-0.121	-0.021
-533.121	-24.229	-0.029	0.017
-532.106	-138.927	-0.387	0.042
-531.091	-135.458	-0.283	-0.034
-530.077	-200.000	-0.000	0.159
-529.062	277.670	0.059	0.104
-528.048	-122.362	0.037	-0.006
-527.033	718.404	-0.043	0.113
-526.018	-94.683	0.080	0.022
-525.004	-45.559	0.171	0.084
-523.989	503.056	-0.122	0.283
-522.975	-57.531	-0.171	0.075
-521.960	-53.210	0.144	0.066
-520.945	-115.060	-0.268	0.051
-519.931	-200.000	0.022	-0.129
-518.916	13.121	-0.325	0.252
-517.902	128.352	0.100	-0.127
-516.887	389.468	-0.156	-0.322
-515.872	-200.000	0.007	0.209
-514.858	800.000	0.112	-0.342
-513.843	-39.744	-0.118	-0.061
-512.829	-200.000	-0.018	-0.130
-511.814	-200.000	-0.023	-0.130
-510.799	-19.766	0.135	0.083
-509.785	126.617	0.071	-0.089
-508.770	167.466	0.099	-0.141
-507.756	-104.544	0.185	0.043
-506.741	-200.000	-0.014	-0.252
-505.726	-82.513	-0.213	-0.069
-504.712	121.831	-0.172	-0.214
-503.697	-200.000	0.004	0.021
-502.683	800.000	0.029	-0.103
-501.668	-66.664	-0.264	0.104
-500.653	210.232	-0.077	0.120
-499.639	-200.000	-0.022	-0.162
-498.624	238.323	0.072	0.120
-497.610	109.526	0.266	0.318
-496.595	800.000	0.089	-0.255
-495.581	-138.308	0.297	-0.033
-494.566	-29.126	-0.242	-0.139
-493.551	-94.563	0.158	0.043
-492.537	317.967	-0.133	-0.252
-491.522	-14.949	-0.149	-0.095
-490.508	-32.022	-0.190	-0.106
-489.493	223.534	0.078	0.125
-488.478	-46.516	-0.145	0.071
-487.464	-75.594	-0.052	0.019
-486.449	1.411	-0.123	-0.088
-485.435	800.000	-0.017	0.054
-484.420	180.305	0.221	0.323
-483.405	-71.217	-0.245	-0.092
-482.391	62.392	-0.021	0.021
-481.376	-200.000	-0.009	-0.362
-480.362	-200.000	0.012	0.068
-479.347	119.683	0.189	-0.233
-478.332	-189.966	0.262	-0.003
-477.318	-137.524	0.228	-0.026
-476.303	144.172	-0.065	0.086
-475.289	514.203	-0.091	0.212
-474.274	-85.104	0.081	0.025
-473.259	-200.000	-0.017	-0.129
-472.245	176.964	-0.051	0.074
-471.230	68.317	-0.158	0.161
-470.216	-75.673	-0.372	0.132
-469.201	238.978	-0.075	-0.124
-468.186	-12.233	-0.089	-0.058
-467.172	350.282	0.122	-0.240
-466.157	120.374	0.210	-0.260
-465.143	257.732	-0.202	0.346
-464.128	-21.567	-0.034	-0.021
-463.113	-77.983	0.127	-0.044
-462.099	233.965	0.113	0.185
-461.084	487.838	-0.127	0.289
-460.070	-159.738	0.484	0.027
-459.055	-28.999	-0.196	0.112
-458.040	-200.000	-0.029	0.207
-457.026	-200.000	-0.011	-0.185
-456.011	-148.840	-0.269	0.022
-454.997	-65.748	-0.357	-0.143
-453.982	800.000	-0.070	0.202
-452.968	-155.049	0.064	0.004
-451.953	327.138	-0.092	-0.176
-450.938	-200.000	-0.022	0.271
-449.924	800.000	-0.073	0.263
-448.909	21.933	-0.327	-0.266
-447.895	8.580	-0.099	-0.074
-446.880	110.031	-0.122	0.146
-445.865	800.000	-0.050	0.192
-444.851	-200.000	0.006	0.589
-443.836	-200.000	-0.004	-0.172
-442.822	179.675	0.027	-0.039
-441.807	-5.327	-0.146	-0.100
-440.792	-54.155	-0.179	0.081
-439.778	-101.506	-0.246	0.060
-438.763	-132.048	-0.283	0.037
-437.749	104.650	0.274	0.322
-436.734	94.334	0.125	0.142
-435.719	-200.000	-0.071	0.419
-434.705	-200.000	0.012	-0.163
-433.690	429.733	-0.102	-0.219
-432.676	62.439	0.174	0.173
-431.661	174.212	0.173	-0.249
-430.646	-30.109	0.247	-0.140
-429.632	-14.130	-0.178	0.115
-428.617	-23.174	0.380	0.228
-427.603	288.208	0.022	-0.040
-426.588	800.000	-0.049	0.191
-425.573	-97.391	-0.076	-0.020
-424.559	289.835	0.140	0.253
-423.544	-70.425	-0.205	0.077
-422.530	-200.000	-0.017	0.145
-421.515	-200.000	0.033	0.319
-420.500	-200.000	-0.042	-0.325
-419.486	235.585	-0.042	0.069
-418.471	-200.000	0.019	-0.239
-417.457	-200.000	0.042	-0.250
-416.442	800.000	-0.037	-0.102
-415.428	701.169	-0.079	-0.206
-414.413	800.000	0.109	-0.391
-413.398	-200.000	0.000	-0.079
-412.384	86.286	0.173	-0.190
-411.369	683.451	0.150	0.390
-410.355	-200.000	-0.017	0.113
-409.340	747.691	-0.062	-0.166
-408.325	-17.679	0.313	-0.196
-407.311	-106.362	0.074	0.016
-406.296	-161.062	-0.252	0.013
-405.282	129.650	0.264	0.336
-404.267	-143.622	0.329	-0.031
-403.252	-63.812	0.059	0.024
-402.238	594.992	0.151	0.370
-401.223	-5.936	-0.102	0.069
-400.209	-200.000	-0.035	-0.292
-399.194	-35.433	-0.134	-0.073
-398.179	-94.621	-0.341	-0.092
-397.165	426.450	-0.099	-0.212
-396.150	19.367	0.231	0.184
-395.136	-98.713	0.127	0.032
-394.121	-200.000	-0.000	0.186
-393.106	373.248	-0.085	-0.172
-392.092	-84.723	-0.383	0.120
-391.077	120.859	-0.091	0.113
-390.063	-46.102	0.088	-0.043
-389.048	-188.016	-0.183	-0.002
-388.033	-80.312	0.269	0.089
-387.019	-59.547	0.134	-0.057
-386.004	242.778	0.126	-0.210
-384.990	-65.893	0.239	-0.095
-383.975	-97.070	0.124	0.032
-382.960	-41.242	-0.117	0.060
-381.946	-63.552	0.225	0.092
-380.931	-200.000	0.021	-0.242
-379.917	-46.719	-0.235	0.115
-378.902	-51.439	0.031	0.014
-377.888	-105.370	-0.505	-0.114
-376.873	-99.300	0.376	0.094
-375.858	-92.887	-0.162	0.045
-374.844	123.834	0.022	0.028
-373.829	-99.182	0.190	-0.048
-372.815	787.485	-0.085	-0.233
-371.800	-200.000	-0.058	-0.310
-370.785	-200.000	0.032	0.147
-369.771	5.626	-0.083	-0.061
-368.756	-46.706	0.156	-0.076
-367.742	8.062	-0.196	-0.146
-366.727	-124.569	0.230	-0.035
-365.712	209.139	-0.085	0.131
-364.698	-67.390	-0.234	0.091
-363.683	-200.000	-0.020	-0.181
-362.669	-69.197	0.201	0.077
-361.654	-2.644	-0.161	0.112
-360.639	-71.768	0.282	0.105
-359.625	-159.504	-0.220	-0.012
-358.610	97.326	0.048	0.054
-357.596	-200.000	-0.024	0.113
-356.581	-200.000	-0.019	0.204
-355.566	-2.119	0.303	-0.211
-354.552	-129.559	-0.234	0.032
-353.537	800.000	0.077	0.297
-352.523	41.040	-0.110	0.098
-351.508	35.718	0.164	0.143
-350.493	-116.176	-0.495	0.091
-349.479	262.485	0.136	-0.233
-348.464	-91.455	0.179	0.051
-347.450	800.000	-0.025	-0.101
-346.435	-159.005	-0.270	0.015
-345.420	-111.531	-0.156	-0.031
-344.406	-98.143	-0.097	-0.025
-343.391	-112.597	0.132	0.026
-342.377	-59.036	0.338	0.145
-341.362	18.933	0.159	-0.126
-340.348	-15.832	-0.101	-0.064
-339.333	56.186	-0.083	-0.080
-338.318	-0.164	0.352	-0.249
-337.304	-170.390	0.202	0.007
-336.289	22.289	-0.046	0.037
-335.275	30.947	0.172	0.146
-334.260	10.468	0.174	0.131
-333.245	24.741	0.145	0.119
-332.231	-149.680	-0.113	0.009
-331.216	155.233	0.074	0.101
-330.202	800.000	0.046	0.174
-329.187	-200.000	-0.022	-0.356
-328.172	669.100	0.083	0.213
-327.158	-113.191	-0.309	0.060
-326.143	60.273	-0.152	0.149
-325.129	-200.000	-0.020	-0.322
-324.114	-78.626	-0.301	0.102
-323.099	366.451	0.117	0.234
-322.085	800.000	0.038	0.145
-321.070	-29.512	0.148	-0.084
-320.056	-2.293	0.097	0.067
-319.041	42.218	0.117	0.105
-318.026	161.486	-0.145	-0.201
-317.012	800.000	0.033	0.139
-315.997	-131.818	-0.153	-0.020
-314.983	-200.000	0.022	-0.173
-313.968	-200.000	0.011	0.056
-312.953	-83.825	-0.010	0.003
-311.939	29.625	-0.069	0.058
-310.924	445.162	-0.019	-0.041
-309.910	76.488	-0.235	0.246
-308.895	216.892	0.083	-0.131
-307.880	137.302	-0.178	-0.231
-306.866	-76.811	-0.265	-0.092
-305.851	-157.462	0.315	0.019
-304.837	-33.769	0.180	0.098
-303.822	-38.998	0.365	-0.190
-302.807	567.343	0.087	0.210
-301.793	-79.701	0.225	0.075
-300.778	-40.048	-0.331	0.171
-299.764	32.398	0.062	-0.053
-298.749	86.315	-0.144	-0.157
-297.735	-106.278	0.212	0.047
-296.720	-6.867	0.215	0.145
-295.705	-180.106	-0.356	0.007
-294.691	-31.244	0.499	0.278
-293.676	55.471	0.276	0.265
-292.662	-48.723	-0.205	-0.098
-291.647	-200.000	0.004	-0.154
-290.632	-200.000	-0.054	0.318
-289.618	-67.860	-0.137	-0.053
-288.603	-97.092	0.273	-0.071
-287.589	41.485	-0.029	0.026
-286.574	101.616	-0.119	-0.137
-285.559	800.000	-0.009	0.029
-284.545	-200.000	0.043	0.239
-283.530	-161.041	0.100	-0.005
-282.516	-200.000	0.048	-0.329
-281.501	130.294	0.046	-0.058
-280.486	-140.364	-0.230	0.024
-279.472	-157.692	0.459	0.027
-278.457	68.225	0.196	-0.199
-277.443	-200.000	0.036	-0.400
-276.428	10.956	-0.186	0.140
-275.413	-88.083	0.149	0.044
-274.399	-62.086	0.077	0.032
-273.384	-87.202	0.248	-0.075
-272.370	-165.162	0.341	-0.015
-271.355	48.669	0.216	-0.201
-270.340	800.000	0.053	0.202
-269.326	139.805	-0.069	0.090
-268.311	74.603	-0.328	-0.341
-267.297	112.927	0.277	0.332
-266.282	-200.000	0.024	0.185
-265.267	-3.775	-0.122	-0.084
-264.253	165.943	-0.053	-0.074
-263.238	-73.565	-0.237	-0.085
-262.224	52.703	0.139	0.132
-261.209	203.737	0.097	0.149
-260.195	146.375	0.155	0.205
-259.180	0.291	-0.084	0.059
-258.165	-16.826	0.118	0.074
-257.151	-55.535	0.202	-0.089
-256.136	800.000	-0.041	-0.119
-255.122	235.525	-0.140	-0.229
-254.107	-75.182	0.251	0.089
-253.092	-119.711	0.287	-0.049
-252.078	-200.000	0.036	0.471
-251.063	-200.000	0.035	0.307
-250.049	-46.985	0.295	-0.143
-249.034	-106.576	0.326	-0.072
-248.019	34.732	-0.102	-0.088
-247.005	-72.411	-0.318	-0.116
-245.990	800.000	-0.015	-0.062
-244.976	-200.000	0.075	-0.424
-243.961	-126.899	0.419	0.061
-242.946	228.495	-0.265	0.427
-241.932	-146.015	-0.028	-0.002
-240.917	146.961	0.249	-0.331
-239.903	-33.279	-0.257	-0.141
-238.888	-86.293	0.221	-0.067
-237.873	800.000	-0.048	-0.184
-236.859	800.000	-0.066	0.276
-235.844	-99.463	0.196	-0.049
-234.830	-200.000	-0.057	-0.248
-233.815	59.112	-0.206	-0.201
-232.800	-156.463	0.378	-0.023
-231.786	800.000	0.050	-0.194
-230.771	35.934	-0.163	-0.142
-229.757	-12.453	0.171	-0.110
-228.742	-200.000	0.001	-0.263
-227.727	209.101	0.164	0.254
-226.713	-200.000	0.010	-0.112
-225.698	90.635	-0.043	0.048
-224.684	-37.224	0.409	0.216
-223.669	-41.720	-0.099	0.050
-222.655	-88.872	-0.048	-0.014
-221.640	203.931	0.075	0.114
-220.625	-50.409	0.067	-0.031
-219.611	82.229	-0.238	-0.255
-218.596	-95.895	-0.108	-0.028
-217.582	-200.000	0.007	0.078
-216.567	156.725	-0.069	0.094
-215.552	-48.460	0.169	-0.080
-214.538	204.364	-0.156	-0.239
-213.523	142.302	-0.108	-0.142
-212.509	-200.000	0.024	0.347
-211.494	-128.504	-0.143	-0.020
-210.479	-200.000	0.004	0.218
-209.465	-73.846	-0.299	-0.107
-208.450	16.855	-0.246	-0.193
-207.436	67.800	-0.257	-0.259
-206.421	-24.577	0.212	0.125
-205.406	-117.416	-0.312	0.056
-204.392	58.878	-0.241	0.234
-203.377	800.000	-0.030	-0.090
-202.363	2.530	0.068	-0.049
-201.348	-114.073	0.252	-0.048
-200.333	800.000	-0.055	-0.208
-199.319	800.000	0.043	0.154
-198.304	53.947	0.047	-0.045
-197.290	-138.424	-0.433	0.047
-196.275	-200.000	0.011	-0.130
-195.260	-200.000	-0.006	0.060
-194.246	440.245	-0.079	0.170
-193.231	-97.773	0.293	-0.075
-192.217	-29.130	-0.180	-0.102
-191.202	-51.792	-0.200	-0.092
-190.187	179.442	0.168	-0.242
-189.173	-10.526	0.266	-0.174
-188.158	481.759	0.096	-0.214
-187.144	-165.073	0.269	0.012
-186.129	-92.640	0.190	0.052
-185.114	286.285	0.090	-0.159
-184.100	218.519	0.092	-0.145
-183.085	800.000	-0.080	-0.313
-182.071	800.000	0.014	-0.051
-181.056	-59.843	-0.148	0.062
-180.042	-114.311	0.199	-0.038
-179.027	-111.177	-0.054	-0.011
-178.012	6.091	0.201	0.147
-176.998	647.290	0.037	-0.093
-175.983	-166.491	0.313	-0.013
-174.969	800.000	-0.133	-0.500
-173.954	800.000	0.053	-0.225
-172.939	27.780	-0.093	0.077
-171.925	-136.688	-0.116	0.013
-170.910	248.943	-0.068	0.113
-169.896	-117.776	0.068	-0.012
-168.881	240.905	0.065	0.107
-167.866	800.000	-0.072	-0.201
-166.852	20.262	0.094	-0.075
-165.837	-78.319	-0.121	0.041
-164.823	800.000	-0.016	-0.047
-163.808	325.157	0.187	0.352
-162.793	35.010	0.339	0.292
-161.779	-124.869	0.417	-0.063
-160.764	800.000	-0.021	-0.071
-159.750	455.636	0.073	-0.158
-158.735	-112.901	0.197	0.038
-157.720	800.000	0.058	-0.179
-156.706	-112.225	0.357	-0.071
-155.691	22.994	-0.158	0.128
-154.677	-76.939	0.124	0.043
-153.662	800.000	0.067	0.240
-152.647	212.001	0.107	0.166
-151.633	-14.827	-0.409	0.258
-150.618	182.192	0.109	0.158
-149.604	-76.119	0.053	0.018
-148.589	105.960	-0.079	0.092
-147.574	-52.862	-0.171	-0.078
-146.560	-19.188	-0.117	-0.071
-145.545	-115.742	0.252	-0.046
-144.531	147.580	0.107	0.142
-143.516	-98.800	0.224	-0.056
-142.502	358.594	0.066	-0.129
-141.487	166.659	0.210	-0.294
-140.472	-90.352	-0.261	-0.075
-139.458	97.004	0.190	0.215
-138.443	195.083	0.175	-0.262
-137.429	-84.708	-0.093	0.029
-136.414	-200.000	-0.061	0.449
-135.399	-127.627	0.061	0.009
-134.385	-78.229	-0.130	0.044
-133.370	-200.000	-0.017	-0.149
-132.356	57.267	-0.330	0.316
-131.341	-200.000	0.005	-0.336
-130.326	-3.120	-0.315	0.216
-129.312	-74.408	0.215	0.076
-128.297	366.162	0.030	0.059
-127.283	-127.816	0.226	0.032
-126.268	561.278	-0.017	-0.040
-125.253	295.619	0.046	0.083
-124.239	-114.460	0.160	-0.030
-123.224	-96.941	-0.045	-0.012
-122.210	-122.959	-0.256	-0.040
-121.195	-69.835	0.426	0.160
