DTS Sentinel unit serial number:	SN413079Multiplexer serial number:	ORYXHardware model number:	OX4-SRSoftware version number:	ORYX F/W v4.00 Oryx Data Collector v3.7.2.0data status	okinstallation	princeton_trtdifferential loss correction	single-endedforward channel	channel 1reverse channel	N/Adate	2019/09/10time	21:20:11forward acquisition time	60.00reverse acquisition time	0.00gamma	496.2192k internal	0.2329k external	0.2329temperature offset calibration	0.9935default loss term (dB/km)	0.3790temperature slope calibration	1.0000multiplexer offset coefficient	1.0000multiplexer slope coefficient	1.0000fibre end	0.00T internal ref (°C)	31.30T ext. ref 1 (°C)	-0.31T ext. ref 2 (°C)	24.40length (m)	temperature (°C)	Stokes	anti-Stokes-747.200	-26.482	-0.202	0.119
-746.185	423.218	0.130	0.281
-745.171	800.000	0.022	0.080
-744.156	468.245	-0.051	0.116
-743.142	-19.461	0.032	0.020
-742.127	-72.562	-0.242	0.090
-741.112	384.909	0.070	-0.146
-740.098	-71.048	-0.047	0.018
-739.083	276.200	-0.194	0.346
-738.069	-101.138	-0.187	0.046
-737.054	-57.072	-0.198	-0.088
-736.039	-119.518	-0.311	0.054
-735.025	-119.366	0.223	-0.039
-734.010	339.720	-0.077	0.151
-732.996	399.665	0.103	-0.216
-731.981	-9.390	0.103	-0.069
-730.966	-175.343	-0.115	0.003
-729.952	-108.968	0.193	0.042
-728.937	800.000	-0.083	-0.285
-727.923	-136.957	0.059	0.007
-726.908	-175.575	0.161	-0.004
-725.894	-200.000	0.049	-0.360
-724.879	24.070	-0.463	-0.384
-723.864	-200.000	0.008	-0.251
-722.850	635.427	0.010	0.026
-721.835	-200.000	-0.016	-0.244
-720.821	155.856	-0.258	-0.357
-719.806	-6.147	0.116	-0.080
-718.791	-94.560	-0.100	-0.027
-717.777	43.442	-0.295	-0.271
-716.762	-76.444	-0.227	-0.080
-715.748	800.000	-0.051	-0.146
-714.733	-200.000	-0.005	0.239
-713.718	-80.121	0.070	0.024
-712.704	79.284	-0.090	-0.097
-711.689	-200.000	-0.028	-0.226
-710.675	-87.924	-0.138	0.042
-709.660	436.977	0.089	-0.196
-708.645	-185.429	-0.292	0.005
-707.631	694.349	-0.060	-0.159
-706.616	-9.588	-0.136	-0.091
-705.602	-122.619	-0.223	0.036
-704.587	188.198	-0.223	-0.335
-703.572	-113.973	-0.168	0.033
-702.558	-169.875	-0.344	-0.012
-701.543	-88.949	-0.269	-0.080
-700.529	-200.000	0.038	-0.186
-699.514	496.054	0.215	-0.497
-698.499	117.247	-0.042	-0.052
-697.485	-160.148	-0.119	0.006
-696.470	-39.597	-0.320	-0.168
-695.456	-200.000	0.033	-0.170
-694.441	-200.000	-0.035	-0.207
-693.426	366.501	0.047	0.095
-692.412	-200.000	-0.020	-0.167
-691.397	800.000	-0.021	-0.057
-690.383	716.440	0.260	-0.694
-689.368	-200.000	0.034	-0.221
-688.354	-200.000	0.035	0.259
-687.339	-200.000	0.024	0.258
-686.324	-200.000	0.004	-0.203
-685.310	-170.819	-0.184	0.006
-684.295	-200.000	-0.014	-0.237
-683.281	-200.000	0.026	0.200
-682.266	86.140	-0.232	-0.257
-681.251	-200.000	-0.012	-0.172
-680.237	205.615	0.085	-0.133
-679.222	8.121	0.229	-0.173
-678.208	-44.266	-0.210	-0.106
-677.193	-107.025	0.283	0.063
-676.178	-200.000	-0.005	-0.268
-675.164	-96.108	-0.323	-0.086
-674.149	-43.276	0.007	0.004
-673.135	54.951	0.041	0.039
-672.120	191.747	-0.052	0.078
-671.105	-79.195	0.091	-0.031
-670.091	-154.655	0.314	0.021
-669.076	-188.168	0.025	-0.000
-668.062	800.000	-0.042	0.175
-667.047	308.306	-0.021	0.040
-666.032	-51.613	-0.053	0.025
-665.018	800.000	-0.126	0.532
-664.003	-86.831	-0.316	-0.097
-662.989	-200.000	0.038	-0.423
-661.974	-104.936	-0.287	-0.066
-660.959	800.000	-0.069	-0.255
-659.945	35.438	0.158	0.139
-658.930	-74.054	-0.251	-0.091
-657.916	181.528	-0.176	-0.259
-656.901	47.288	0.095	-0.089
-655.886	354.676	0.013	0.025
-654.872	321.433	-0.088	0.168
-653.857	-200.000	0.006	0.142
-652.843	76.760	0.075	0.080
-651.828	51.559	0.217	0.207
-650.814	800.000	0.026	0.110
-649.799	-11.884	-0.163	-0.108
-648.784	45.542	0.077	0.072
-647.770	200.147	-0.149	0.230
-646.755	-159.882	0.342	0.019
-645.741	224.068	-0.045	0.072
-644.726	800.000	0.010	-0.031
-643.711	22.763	0.173	-0.142
-642.697	-106.349	-0.207	0.046
-641.682	360.587	-0.153	0.306
-640.668	-85.201	-0.204	0.064
-639.653	-42.156	-0.067	0.034
-638.638	267.126	0.058	-0.102
-637.624	-55.005	-0.121	0.055
-636.609	134.689	0.128	0.166
-635.595	-200.000	-0.001	0.136
-634.580	373.186	-0.141	-0.288
-633.565	-84.276	-0.393	-0.125
-632.551	-102.784	0.021	-0.005
-631.536	-58.681	-0.075	0.033
-630.522	-27.813	-0.248	-0.144
-629.507	-114.448	0.261	0.050
-628.492	154.107	0.078	-0.108
-627.478	-121.327	-0.351	0.059
-626.463	-88.369	0.204	-0.061
-625.449	-200.000	0.033	0.150
-624.434	338.413	-0.168	0.328
-623.419	-47.192	0.131	0.064
-622.405	-60.451	0.354	-0.151
-621.390	-134.026	0.279	0.035
-620.376	4.321	-0.226	0.166
-619.361	-68.645	0.199	-0.077
-618.346	-44.837	0.159	-0.080
-617.332	800.000	0.015	-0.057
-616.317	333.096	0.044	-0.086
-615.303	-154.430	0.158	0.011
-614.288	-101.016	0.276	-0.068
-613.273	-155.409	-0.370	-0.024
-612.259	-159.605	0.162	0.009
-611.244	-7.557	-0.244	0.166
-610.230	-200.000	0.032	-0.334
-609.215	-158.616	0.209	0.012
-608.201	248.370	-0.158	-0.267
-607.186	800.000	0.045	0.170
-606.171	-21.740	-0.079	-0.048
-605.157	77.863	-0.244	0.260
-604.142	-125.176	-0.043	-0.007
-603.128	-200.000	0.020	-0.252
-602.113	124.158	0.128	0.162
-601.098	-159.219	-0.372	0.021
-600.084	-90.307	0.126	0.037
-599.069	-139.141	-0.140	0.015
-598.055	-97.384	-0.273	-0.071
-597.040	-195.672	0.197	-0.001
-596.025	21.811	0.273	0.223
-595.011	-54.253	0.244	0.111
-593.996	-200.000	-0.017	0.198
-592.982	-184.652	0.132	0.002
-591.967	800.000	0.068	-0.251
-590.952	34.754	0.085	-0.074
-589.938	800.000	0.042	-0.181
-588.923	-200.000	-0.003	0.138
-587.909	-49.336	-0.078	0.037
-586.894	-147.857	0.152	-0.013
-585.879	214.884	-0.121	0.193
-584.865	-87.952	-0.239	-0.072
-583.850	-61.975	0.220	0.092
-582.836	-44.813	-0.069	-0.034
-581.821	518.205	-0.118	0.277
-580.806	-164.935	0.286	0.013
-579.792	-119.419	-0.339	-0.059
-578.777	-200.000	-0.000	0.058
-577.763	210.855	-0.091	-0.143
-576.748	-177.594	0.167	0.004
-575.733	-200.000	-0.017	0.206
-574.719	51.840	0.179	0.170
-573.704	-26.758	-0.254	-0.149
-572.690	-61.718	-0.121	-0.051
-571.675	-200.000	0.040	-0.265
-570.661	-200.000	0.031	-0.420
-569.646	649.018	-0.045	-0.114
-568.631	214.251	-0.044	-0.070
-567.617	-104.314	0.113	-0.026
-566.602	521.862	-0.072	-0.170
-565.588	800.000	0.048	0.201
-564.573	800.000	0.037	0.144
-563.558	-44.403	0.171	0.086
-562.544	130.166	-0.208	0.266
-561.529	-92.733	0.272	0.076
-560.515	31.978	-0.345	-0.297
-559.500	10.303	-0.197	-0.150
-558.485	401.327	-0.129	0.270
-557.471	64.849	-0.036	-0.036
-556.456	-161.008	0.103	0.005
-555.442	69.763	0.098	-0.101
-554.427	-101.663	0.261	-0.063
-553.412	128.795	-0.298	-0.380
-552.398	-200.000	-0.002	-0.302
-551.383	-117.900	0.552	-0.099
-550.369	54.265	0.236	-0.227
-549.354	-5.109	0.383	0.263
-548.339	12.768	-0.187	-0.144
-547.325	666.873	0.048	-0.125
-546.310	-120.833	0.219	-0.037
-545.296	-59.837	-0.074	0.032
-544.281	-57.444	-0.118	0.052
-543.266	-78.122	0.096	0.033
-542.252	-200.000	0.001	-0.067
-541.237	-121.813	-0.058	0.010
-540.223	134.311	0.343	0.444
-539.208	-200.000	0.051	-0.311
-538.193	43.841	0.100	-0.091
-537.179	369.597	0.129	0.260
-536.164	14.852	0.215	-0.168
-535.150	248.875	-0.045	-0.076
-534.135	79.837	-0.254	0.273
-533.121	800.000	0.013	0.054
-532.106	-81.949	-0.075	-0.024
-531.091	137.014	0.063	-0.082
-530.077	368.671	-0.107	-0.217
-529.062	136.113	0.186	0.242
-528.048	-42.212	-0.266	-0.136
-527.033	-49.547	-0.260	0.124
-526.018	43.351	0.170	-0.155
-525.004	-77.261	-0.374	-0.130
-523.989	-62.800	-0.100	0.041
-522.975	-134.660	0.062	-0.008
-521.960	-120.086	-0.243	-0.042
-520.945	120.902	0.156	-0.194
-519.931	-88.357	-0.143	-0.043
-518.916	-116.185	-0.300	-0.056
-517.902	70.869	-0.090	-0.093
-516.887	243.086	0.043	0.071
-515.872	58.899	-0.126	0.123
-514.858	-157.854	-0.128	-0.008
-513.843	800.000	-0.062	-0.173
-512.829	-35.320	0.375	0.204
-511.814	800.000	-0.091	0.345
-510.799	-64.207	0.091	-0.037
-509.785	800.000	-0.032	0.111
-508.770	-12.333	-0.153	-0.100
-507.756	800.000	0.070	0.217
-506.741	297.361	-0.145	0.266
-505.726	-200.000	-0.052	-0.449
-504.712	416.011	0.062	-0.131
-503.697	131.722	0.051	0.065
-502.683	-24.381	-0.329	-0.196
-501.668	372.738	0.041	0.083
-500.653	-41.883	0.121	0.062
-499.639	68.705	0.053	0.054
-498.624	-105.321	0.089	0.020
-497.610	483.718	0.185	0.420
-496.595	-62.578	-0.309	0.128
-495.581	-200.000	0.017	0.222
-494.566	800.000	0.057	0.222
-493.551	-141.471	0.341	-0.034
-492.537	-102.912	-0.241	-0.057
-491.522	8.793	-0.208	0.157
-490.508	-49.372	-0.385	-0.183
-489.493	193.550	-0.066	-0.100
-488.478	282.329	0.150	0.269
-487.464	309.841	0.006	-0.010
-486.449	-200.000	0.007	0.118
-485.435	-39.447	-0.236	-0.124
-484.420	31.183	-0.230	0.197
-483.405	-112.455	-0.211	-0.042
-482.391	-128.124	0.299	-0.043
-481.376	53.296	0.191	0.182
-480.362	-61.700	-0.426	0.178
-479.347	-54.553	-0.334	-0.151
-478.332	-167.627	0.314	0.012
-477.318	401.323	0.062	-0.130
-476.303	154.956	0.023	0.032
-475.289	-108.395	-0.385	0.083
-474.274	-200.000	-0.016	0.229
-473.259	-80.632	0.055	0.018
-472.245	-171.050	0.346	0.012
-471.230	-200.000	-0.024	0.141
-470.216	42.742	0.172	0.156
-469.201	-200.000	0.009	-0.228
-468.186	327.565	0.053	-0.102
-467.172	-136.347	-0.213	0.025
-466.157	-25.343	0.156	-0.092
-465.143	564.156	-0.044	-0.106
-464.128	568.017	-0.114	-0.276
-463.113	-200.000	-0.020	0.110
-462.099	-77.950	-0.425	0.146
-461.084	545.599	0.053	-0.126
-460.070	-20.522	0.183	0.112
-459.055	-200.000	-0.015	0.147
-458.040	-123.113	0.191	0.031
-457.026	-183.776	-0.170	0.003
-456.011	-50.672	0.058	0.027
-454.997	-200.000	-0.028	0.209
-453.982	-77.280	0.404	-0.140
-452.968	-124.913	0.577	-0.089
-451.953	-200.000	0.047	-0.265
-450.938	-129.567	0.206	0.028
-449.924	259.166	-0.183	-0.314
-448.909	36.993	0.045	-0.040
-447.895	-80.882	-0.199	-0.066
-446.880	-166.139	-0.111	-0.005
-445.865	142.165	-0.033	0.043
-444.851	69.889	-0.086	-0.089
-443.836	800.000	-0.059	-0.218
-442.822	-200.000	0.002	0.031
-441.807	800.000	0.061	-0.174
-440.792	236.566	-0.153	-0.252
-439.778	-82.431	-0.175	0.057
-438.763	79.577	-0.071	-0.076
-437.749	-34.514	-0.317	-0.173
-436.734	-142.382	0.195	-0.019
-435.719	-128.142	-0.315	-0.045
-434.705	139.368	-0.110	0.145
-433.690	281.293	-0.189	-0.336
-432.676	-28.246	0.115	-0.066
-431.661	-72.463	-0.263	0.097
-430.646	-68.122	-0.324	-0.125
-429.632	-17.340	-0.200	-0.125
-428.617	284.546	-0.074	-0.133
-427.603	-200.000	0.051	-0.294
-426.588	15.017	-0.186	-0.145
-425.573	-200.000	0.014	0.079
-424.559	527.584	-0.168	0.393
-423.544	632.761	0.071	-0.179
-422.530	-150.203	0.096	-0.007
-421.515	-200.000	0.006	0.144
-420.500	-5.649	-0.186	0.127
-419.486	234.449	-0.185	-0.303
-418.471	-120.630	0.178	0.030
-417.457	26.122	-0.110	-0.091
-416.442	-70.712	-0.067	-0.025
-415.428	800.000	0.110	0.315
-414.413	-76.197	0.083	-0.029
-413.398	-1.444	-0.394	-0.276
-412.384	151.626	0.320	0.433
-411.369	-99.896	-0.219	-0.054
-410.355	-84.879	0.147	-0.046
-409.340	-159.418	0.073	-0.004
-408.325	-200.000	0.004	0.072
-407.311	800.000	-0.088	0.279
-406.296	-100.379	0.065	-0.016
-405.282	-101.196	0.116	0.028
-404.267	47.927	0.059	0.055
-403.252	390.804	0.023	0.048
-402.238	72.283	-0.236	0.245
-401.223	-22.623	0.265	-0.159
-400.209	298.184	0.094	-0.172
-399.194	800.000	0.076	-0.285
-398.179	-200.000	-0.002	0.174
-397.165	800.000	-0.107	0.458
-396.150	-19.752	0.171	0.105
-395.136	-31.738	-0.115	0.064
-394.121	800.000	-0.038	0.148
-393.106	-10.650	0.317	0.208
-392.092	-25.479	-0.149	-0.087
-391.077	-25.100	0.251	0.148
-390.063	150.063	-0.187	-0.252
-389.048	-200.000	-0.023	-0.104
-388.033	-200.000	-0.014	-0.292
-387.019	257.186	0.061	-0.105
-386.004	6.318	0.207	-0.153
-384.990	45.334	-0.124	0.114
-383.975	-6.065	0.070	0.048
-382.960	-95.357	0.214	0.057
-381.946	-135.796	0.292	0.034
-380.931	12.674	0.308	0.236
-379.917	-53.670	0.248	0.113
-378.902	-167.550	0.124	-0.005
-377.888	182.492	0.045	0.066
-376.873	-125.313	0.163	-0.025
-375.858	204.121	0.119	-0.182
-374.844	800.000	-0.125	-0.379
-373.829	-200.000	0.000	0.016
-372.815	-200.000	0.007	0.075
-371.800	-152.415	-0.166	-0.012
-370.785	216.329	0.103	0.163
-369.771	-112.031	0.196	-0.039
-368.756	-134.953	0.273	0.033
-367.742	-71.149	-0.081	0.030
-366.727	134.615	0.084	-0.108
-365.712	28.965	0.318	-0.268
-364.698	-95.313	0.188	0.050
-363.683	111.554	-0.104	-0.124
-362.669	-200.000	-0.013	-0.070
-361.654	107.839	0.047	0.055
-360.639	77.581	0.089	0.094
-359.625	37.559	0.130	-0.115
-358.610	-100.690	-0.179	0.044
-357.596	-140.868	0.357	-0.036
-356.581	-200.000	-0.027	-0.158
-355.566	28.242	0.121	-0.101
-354.552	351.014	-0.039	-0.076
-353.537	-200.000	0.066	0.388
-352.523	-7.920	-0.126	0.084
-351.508	-161.834	0.393	0.020
-350.493	781.881	-0.060	0.163
-349.479	56.975	0.108	-0.104
-348.464	-48.736	0.347	-0.165
-347.450	-166.795	0.293	-0.012
-346.435	-200.000	0.004	0.055
-345.420	487.175	0.065	0.148
-344.406	-139.481	0.294	-0.031
-343.391	652.705	0.080	0.204
-342.377	-200.000	0.014	0.077
-341.362	538.985	0.124	0.293
-340.348	-118.798	0.299	-0.052
-339.333	-19.910	-0.186	0.114
-338.318	227.705	-0.073	0.117
-337.304	800.000	-0.074	-0.283
-336.289	202.840	-0.084	-0.129
-335.275	-125.557	-0.255	-0.038
-334.260	-70.217	0.076	0.029
-333.245	757.325	0.063	-0.170
-332.231	-7.287	-0.222	0.149
-331.216	-51.132	-0.221	0.103
-330.202	800.000	-0.050	0.153
-329.187	-110.400	0.263	0.054
-328.172	87.203	-0.018	0.020
-327.158	402.968	0.095	-0.198
-326.143	-200.000	0.006	-0.330
-325.129	-126.473	-0.242	-0.036
-324.114	800.000	0.095	0.350
-323.099	-183.244	-0.074	-0.001
-322.085	-134.432	-0.220	-0.027
-321.070	-17.468	-0.145	-0.090
-320.056	-63.798	0.073	0.030
-319.041	-52.314	-0.149	0.068
-318.026	41.080	0.068	0.061
-317.012	-165.282	0.246	0.011
-315.997	355.307	-0.119	-0.234
-314.983	800.000	-0.011	0.031
-313.968	46.878	0.089	-0.082
-312.953	55.040	0.189	-0.181
-311.939	-200.000	-0.065	0.475
-310.924	-109.511	-0.147	-0.031
-309.910	-94.882	-0.167	-0.045
-308.895	196.606	0.172	0.260
-307.880	216.569	0.066	-0.103
-306.866	24.465	0.228	-0.187
-305.851	53.513	0.127	0.121
-304.837	-17.650	-0.227	-0.141
-303.822	800.000	-0.027	0.096
-302.807	-200.000	0.078	0.393
-301.793	-200.000	0.007	0.059
-300.778	-125.580	0.237	-0.036
-299.764	286.287	0.188	-0.336
-298.749	266.258	-0.169	0.293
-297.735	-123.202	0.142	-0.022
-296.720	-200.000	-0.032	-0.245
-295.705	800.000	0.103	0.300
-294.691	800.000	0.047	0.197
-293.676	140.956	0.086	0.113
-292.662	-50.534	0.178	0.083
-291.647	305.541	-0.246	0.452
-290.632	-118.353	0.327	-0.058
-289.618	800.000	0.042	0.143
-288.603	800.000	0.034	-0.139
-287.589	-106.878	-0.031	0.007
-286.574	283.685	0.159	-0.283
-285.559	800.000	0.111	-0.416
-284.545	800.000	0.053	-0.202
-283.530	-71.719	0.268	-0.099
-282.516	-63.868	-0.135	0.055
-281.501	-142.346	-0.360	0.035
-280.486	359.169	-0.116	0.230
-279.472	-75.028	0.352	-0.125
-278.457	-119.512	-0.243	0.042
-277.443	145.144	-0.162	0.215
-276.428	-200.000	0.013	0.213
-275.413	-53.733	-0.182	0.082
-274.399	91.869	0.131	0.146
-273.384	55.684	0.153	0.146
-272.370	-43.127	-0.191	0.095
-271.355	79.502	-0.234	0.248
-270.340	717.236	-0.031	-0.081
-269.326	280.767	-0.111	0.196
-268.311	-142.061	0.163	0.016
-267.297	59.354	-0.181	-0.176
-266.282	800.000	-0.036	0.115
-265.267	-187.340	0.165	0.002
-264.253	87.116	-0.198	-0.217
-263.238	50.202	-0.178	-0.166
-262.224	-110.913	0.239	0.049
-261.209	-85.238	0.146	0.045
-260.195	55.823	-0.108	-0.104
-259.180	103.281	0.095	-0.110
-258.165	32.476	0.125	-0.107
-257.151	-86.246	0.297	0.090
-256.136	-200.000	-0.015	-0.268
-255.122	800.000	-0.162	-0.550
-254.107	-156.523	-0.138	0.009
-253.092	-200.000	-0.022	0.142
-252.078	734.676	-0.083	-0.219
-251.063	-85.417	-0.240	-0.074
-250.049	304.495	0.050	-0.092
-249.034	-200.000	0.000	-0.119
-248.019	-138.458	0.192	0.021
-247.005	433.392	0.137	0.293
-245.990	-121.470	-0.174	0.029
-244.976	800.000	0.103	-0.323
-243.961	-200.000	0.034	-0.372
-242.946	-83.607	0.189	-0.060
-241.932	800.000	0.042	-0.181
-240.917	-102.886	-0.264	-0.062
-239.903	563.416	-0.029	0.068
-238.888	474.822	0.067	-0.149
-237.873	-129.596	0.100	0.014
-236.859	211.482	-0.096	0.149
-235.844	-88.325	0.062	-0.018
-234.830	-117.601	-0.145	0.026
-233.815	-200.000	0.011	-0.119
-232.800	-129.374	0.050	0.007
-231.786	-200.000	-0.035	-0.167
-230.771	-200.000	0.022	0.516
-229.757	150.667	0.053	0.071
-228.742	162.044	0.054	-0.075
-227.727	104.613	-0.120	-0.139
-226.713	-162.647	0.080	-0.004
-225.698	196.063	-0.169	0.254
-224.684	-108.669	-0.427	0.090
-223.669	-200.000	0.006	-0.061
-222.655	-27.418	0.364	0.209
-221.640	-200.000	0.013	0.233
-220.625	-102.984	0.193	0.045
-219.611	-53.241	-0.340	-0.154
-218.596	1.916	0.151	-0.107
-217.582	-200.000	-0.030	-0.149
-216.567	-131.870	-0.529	0.068
-215.552	-53.375	-0.220	0.100
-214.538	-107.511	0.215	0.047
-213.523	800.000	-0.109	-0.324
-212.509	88.775	0.060	-0.066
-211.494	368.706	0.012	0.024
-210.479	-164.405	-0.350	-0.016
-209.465	-200.000	-0.004	-0.186
-208.450	11.749	0.171	0.129
-207.436	528.157	0.158	-0.367
-206.421	-62.475	-0.369	0.151
-205.406	210.103	-0.174	0.269
-204.392	-200.000	0.026	0.199
-203.377	268.843	-0.021	0.036
-202.363	24.178	0.079	0.065
-201.348	-28.195	0.146	0.083
-200.333	800.000	-0.051	-0.183
-199.319	117.787	-0.091	0.110
-198.304	-200.000	0.022	-0.393
-197.290	17.097	-0.399	0.311
-196.275	106.527	0.041	-0.047
-195.260	-200.000	0.033	0.356
-194.246	-200.000	0.032	0.147
-193.231	-181.252	-0.132	0.003
-192.217	85.475	-0.059	0.064
-191.202	-4.314	-0.038	-0.026
-190.187	-170.253	0.161	0.006
-189.173	-76.939	0.100	0.034
-188.158	-200.000	0.035	-0.189
-187.144	800.000	0.019	-0.059
-186.129	-14.984	-0.057	0.036
-185.114	-44.516	0.346	-0.170
-184.100	10.978	-0.119	0.090
-183.085	-126.985	-0.102	-0.015
-182.071	-200.000	-0.100	-0.449
-181.056	77.850	0.182	0.191
-180.042	315.368	0.046	0.086
-179.027	-176.923	0.189	-0.005
-178.012	-62.889	-0.201	0.082
-176.998	222.918	0.117	-0.186
-175.983	-200.000	-0.012	-0.074
-174.969	25.252	0.081	-0.066
-173.954	420.672	-0.106	0.223
-172.939	-162.779	-0.208	0.010
-171.925	-23.907	-0.106	-0.062
-170.910	-54.430	-0.268	-0.120
-169.896	92.686	0.213	0.236
-168.881	-106.847	0.197	0.043
-167.866	-27.393	0.424	0.243
-166.852	800.000	0.124	-0.351
-165.837	-60.654	-0.380	-0.158
-164.823	230.601	-0.018	0.029
-163.808	169.511	-0.136	-0.191
-162.793	-100.729	-0.109	-0.026
-161.779	-60.176	-0.178	0.075
-160.764	196.574	-0.264	0.396
-159.750	7.663	0.201	-0.148
-158.735	592.012	0.147	-0.358
-157.720	-128.745	-0.302	-0.042
-156.706	800.000	0.025	0.077
-155.691	-200.000	-0.002	0.088
-154.677	800.000	-0.071	0.225
-153.662	-200.000	-0.008	0.086
-152.647	95.258	-0.047	0.052
-151.633	-45.923	-0.033	0.016
-150.618	273.171	-0.224	-0.390
-149.604	-107.942	0.199	-0.042
-148.589	-200.000	0.007	0.408
-147.574	2.934	-0.129	-0.092
-146.560	200.071	-0.103	-0.156
-145.545	47.290	0.140	-0.128
-144.531	189.475	0.180	-0.266
-143.516	44.606	0.044	0.040
-142.502	-200.000	-0.042	0.274
-141.487	50.767	-0.111	0.103
-140.472	130.578	-0.129	-0.162
-139.458	-200.000	-0.011	0.143
-138.443	-113.011	-0.387	-0.075
-137.429	263.391	0.225	0.385
-136.414	42.469	-0.335	0.299
-135.399	46.737	-0.161	-0.147
-134.385	-200.000	-0.053	-0.283
-133.370	-164.333	-0.155	-0.007
-132.356	151.643	-0.058	0.078
-131.341	800.000	-0.042	0.133
-130.326	800.000	0.075	-0.301
-129.312	-1.837	0.158	-0.110
-128.297	51.228	-0.294	-0.274
-127.283	26.002	0.138	-0.114
-126.268	469.238	0.021	-0.047
-125.253	7.849	0.238	-0.176
-124.239	565.884	-0.080	-0.190
-123.224	-54.548	0.423	0.188
-122.210	-60.596	-0.119	0.049
