DTS Sentinel unit serial number:	SN413079Multiplexer serial number:	ORYXHardware model number:	OX4-SRSoftware version number:	ORYX F/W v4.00 Oryx Data Collector v3.7.2.0data status	okinstallation	princeton_trtdifferential loss correction	single-endedforward channel	channel 1reverse channel	N/Adate	2019/09/19time	02:34:35forward acquisition time	60.00reverse acquisition time	0.00gamma	496.2192k internal	0.2344k external	0.2344temperature offset calibration	1.0020default loss term (dB/km)	0.3790temperature slope calibration	1.0000multiplexer offset coefficient	1.0000multiplexer slope coefficient	1.0000fibre end	0.00T internal ref (°C)	21.00T ext. ref 1 (°C)	0.67T ext. ref 2 (°C)	14.77length (m)	temperature (°C)	Stokes	anti-Stokes-747.200	-174.092	0.143	-0.004
-746.185	-6.195	-0.274	-0.188
-745.171	-116.100	-0.155	0.029
-744.156	266.747	0.194	0.339
-743.142	130.053	0.142	-0.182
-742.127	-94.132	-0.333	0.091
-741.112	800.000	0.080	0.296
-740.098	118.127	-0.085	0.105
-739.083	23.999	-0.301	-0.248
-738.069	153.234	-0.119	0.163
-737.054	-109.854	-0.074	-0.016
-736.039	230.663	-0.059	-0.096
-735.025	800.000	-0.038	0.148
-734.010	46.872	-0.225	-0.209
-732.996	800.000	0.126	-0.390
-731.981	-164.432	-0.146	-0.007
-730.966	-88.948	0.135	0.040
-729.952	-164.381	0.079	0.004
-728.937	-141.572	-0.265	-0.027
-727.923	68.409	0.246	-0.252
-726.908	447.220	-0.132	-0.290
-725.894	-126.216	-0.309	0.046
-724.879	-30.871	-0.054	-0.030
-723.864	-94.065	-0.293	-0.080
-722.850	0.304	-0.122	-0.087
-721.835	-87.783	-0.226	-0.068
-720.821	800.000	0.131	0.422
-719.806	-165.939	-0.191	0.008
-718.791	800.000	-0.089	-0.254
-717.777	341.747	0.049	0.096
-716.762	-145.198	0.313	-0.028
-715.748	253.044	0.089	-0.152
-714.733	217.385	-0.133	0.212
-713.718	-128.795	0.151	0.021
-712.704	-138.908	-0.217	-0.024
-711.689	800.000	0.064	-0.273
-710.675	-129.919	0.206	0.028
-709.660	-200.000	0.001	-0.124
-708.645	-149.321	0.385	0.031
-707.631	-135.872	-0.190	-0.022
-706.616	293.480	0.164	-0.299
-705.602	-50.312	0.111	-0.053
-704.587	18.059	0.294	0.234
-703.572	149.510	0.118	0.160
-702.558	-200.000	0.037	-0.201
-701.543	800.000	-0.057	0.195
-700.529	308.038	0.085	0.159
-699.514	29.378	-0.394	-0.335
-698.499	800.000	0.039	-0.129
-697.485	109.981	-0.292	-0.350
-696.470	112.429	-0.132	0.160
-695.456	-86.376	0.373	0.115
-694.441	15.655	0.209	-0.164
-693.426	35.793	0.237	0.209
-692.412	87.209	-0.117	-0.129
-691.397	-77.677	0.175	0.060
-690.383	-17.015	-0.276	0.174
-689.368	-60.318	-0.142	-0.060
-688.354	-200.000	0.016	0.423
-687.339	800.000	0.008	0.029
-686.324	73.590	-0.146	-0.152
-685.310	-86.110	-0.109	-0.034
-684.295	-19.875	-0.375	-0.231
-683.281	229.485	-0.054	-0.088
-682.266	-200.000	-0.038	0.233
-681.251	-200.000	-0.080	-0.552
-680.237	800.000	-0.048	-0.136
-679.222	132.087	0.103	-0.132
-678.208	-199.038	0.198	-0.001
-677.193	-53.842	0.178	0.081
-676.178	-175.096	-0.306	-0.008
-675.164	-126.974	0.243	-0.036
-674.149	236.494	0.090	0.149
-673.135	-200.000	0.015	0.068
-672.120	147.491	-0.137	0.184
-671.105	800.000	0.052	-0.178
-670.091	-118.957	0.194	-0.034
-669.076	-200.000	-0.035	-0.224
-668.062	-13.229	-0.402	-0.261
-667.047	-138.348	-0.342	-0.038
-666.032	239.136	-0.169	0.281
-665.018	-107.131	0.080	0.018
-664.003	800.000	0.059	-0.234
-662.989	325.232	0.132	-0.253
-661.974	-158.743	0.177	-0.010
-660.959	269.100	-0.127	0.222
-659.945	-200.000	0.047	-0.315
-658.930	363.962	-0.113	0.226
-657.916	-122.623	-0.027	0.004
-656.901	522.192	-0.164	-0.383
-655.886	221.097	-0.163	-0.262
-654.872	20.082	-0.160	0.129
-653.857	124.995	0.216	-0.271
-652.843	570.673	0.061	0.148
-651.828	30.468	-0.094	-0.080
-650.814	-64.798	-0.345	0.139
-649.799	-73.145	-0.122	-0.045
-648.784	-105.595	-0.087	0.020
-647.770	-70.042	-0.368	-0.140
-646.755	508.549	0.137	0.318
-645.741	134.799	-0.216	0.280
-644.726	-24.292	0.126	0.075
-643.711	-191.737	0.229	-0.002
-642.697	570.309	-0.115	0.280
-641.682	179.667	0.108	0.157
-640.668	162.251	-0.024	-0.033
-639.653	-61.177	0.031	-0.013
-638.638	48.258	0.069	-0.064
-637.624	-200.000	0.007	-0.258
-636.609	11.787	-0.195	-0.149
-635.595	164.851	0.182	-0.256
-634.580	-200.000	-0.026	-0.212
-633.565	324.867	-0.071	-0.136
-632.551	800.000	-0.076	0.286
-631.536	119.694	0.114	0.141
-630.522	-163.052	0.163	-0.008
-629.507	155.565	0.302	0.415
-628.492	46.350	0.197	-0.182
-627.478	123.686	0.155	0.194
-626.463	-200.000	-0.024	-0.251
-625.449	33.179	-0.134	-0.116
-624.434	-65.537	-0.251	-0.100
-623.419	-72.809	0.164	-0.060
-622.405	-200.000	-0.019	-0.139
-621.390	269.040	-0.103	0.180
-620.376	-64.876	-0.188	0.076
-619.361	94.342	-0.015	-0.017
-618.346	100.109	0.244	-0.282
-617.332	-168.157	0.166	-0.006
-616.317	-147.446	-0.285	-0.024
-615.303	-29.362	-0.142	0.081
-614.288	98.711	-0.087	-0.100
-613.273	-90.150	0.436	-0.126
-612.259	-66.422	-0.155	0.061
-611.244	179.893	-0.090	0.131
-610.230	397.494	-0.148	0.309
-609.215	154.154	0.160	0.218
-608.201	418.302	0.098	-0.208
-607.186	1.487	0.128	-0.092
-606.171	-102.212	-0.194	0.046
-605.157	-167.985	-0.256	-0.010
-604.142	-55.721	-0.433	-0.193
-603.128	-123.473	0.241	0.038
-602.113	800.000	0.044	0.159
-601.098	467.691	0.019	-0.042
-600.084	388.178	0.058	0.119
-599.069	20.089	0.173	-0.139
-598.055	-200.000	-0.019	0.173
-597.040	53.056	-0.093	-0.089
-596.025	800.000	-0.138	0.402
-595.011	184.517	0.038	-0.056
-593.996	20.264	0.183	0.147
-592.982	5.183	0.193	-0.141
-591.967	800.000	-0.040	0.129
-590.952	479.902	0.054	-0.121
-589.938	127.825	-0.096	-0.122
-588.923	-200.000	-0.061	-0.375
-587.909	-142.539	-0.141	-0.014
-586.894	338.559	-0.166	-0.322
-585.879	8.944	-0.249	-0.187
-584.865	268.073	0.093	-0.162
-583.850	800.000	0.067	-0.227
-582.836	800.000	-0.068	0.192
-581.821	357.775	0.270	0.537
-580.806	-55.837	-0.086	-0.038
-579.792	152.232	-0.190	0.258
-578.777	-70.370	-0.209	-0.079
-577.763	-200.000	-0.312	0.001
-576.748	-91.864	-0.110	-0.031
-575.733	-200.000	0.027	0.228
-574.719	-92.888	-0.235	-0.065
-573.704	36.885	-0.281	-0.247
-572.690	-119.895	-0.113	0.019
-571.675	-93.084	-0.149	0.041
-570.661	109.513	0.099	-0.118
-569.646	213.091	-0.027	-0.042
-568.631	800.000	0.070	-0.288
-567.617	191.057	-0.181	0.271
-566.602	-200.000	-0.011	-0.075
-565.588	53.525	-0.077	-0.073
-564.573	-200.000	-0.006	-0.083
-563.558	94.729	-0.077	-0.088
-562.544	-87.947	-0.160	0.048
-561.529	83.634	-0.257	-0.279
-560.515	616.720	-0.115	0.286
-559.500	33.595	0.134	0.115
-558.485	18.138	0.189	-0.149
-557.471	-127.772	0.016	-0.002
-556.456	-85.412	0.210	0.065
-555.442	16.828	-0.221	0.174
-554.427	209.092	-0.178	-0.276
-553.412	-79.738	0.214	0.072
-552.398	-52.596	-0.174	0.080
-551.383	-81.596	-0.181	-0.059
-550.369	70.729	-0.257	0.265
-549.354	-114.579	-0.336	0.064
-548.339	241.969	0.192	-0.319
-547.325	-200.000	-0.058	-0.258
-546.310	19.196	-0.144	-0.115
-545.296	90.321	0.056	0.063
-544.281	-126.274	-0.282	-0.042
-543.266	-72.462	0.301	0.111
-542.252	-83.737	-0.049	-0.016
-541.237	32.633	-0.062	0.053
-540.223	-32.723	-0.161	0.089
-539.208	43.815	0.245	-0.223
-538.193	-58.960	-0.326	0.140
-537.179	154.399	0.225	0.307
-536.164	573.495	-0.076	0.183
-535.150	-38.818	0.198	-0.104
-534.135	800.000	-0.042	-0.127
-533.121	-160.582	0.232	-0.012
-532.106	346.230	0.094	-0.184
-531.091	-75.986	-0.072	0.025
-530.077	800.000	-0.062	0.208
-529.062	293.676	0.129	0.233
-528.048	178.779	0.035	0.050
-527.033	217.463	-0.093	0.147
-526.018	-84.103	0.155	-0.049
-525.004	800.000	0.075	-0.229
-523.989	-200.000	0.038	0.173
-522.975	39.845	-0.223	-0.198
-521.960	728.853	-0.029	-0.077
-520.945	-78.884	0.229	0.077
-519.931	100.085	0.290	0.334
-518.916	-69.323	0.364	-0.139
-517.902	-200.000	-0.003	0.075
-516.887	800.000	-0.026	0.108
-515.872	13.825	0.294	-0.227
-514.858	6.246	-0.196	0.144
-513.843	400.677	0.115	0.240
-512.829	38.741	-0.130	-0.115
-511.814	-23.250	0.182	0.108
-510.799	800.000	0.075	0.240
-509.785	109.381	-0.080	0.096
-508.770	-200.000	-0.032	0.174
-507.756	-114.173	0.124	0.024
-506.741	165.637	0.055	0.077
-505.726	-200.000	0.030	0.149
-504.712	-84.469	0.053	0.017
-503.697	-126.380	0.274	-0.041
-502.683	26.647	0.242	-0.201
-501.668	-88.343	-0.212	0.063
-500.653	216.474	-0.147	0.232
-499.639	-138.792	-0.221	0.024
-498.624	-42.180	0.135	0.069
-497.610	800.000	-0.070	-0.205
-496.595	-80.252	0.078	-0.026
-495.581	331.320	0.112	0.214
-494.566	-42.507	-0.109	0.055
-493.551	167.371	-0.199	0.280
-492.537	245.992	0.080	-0.134
-491.522	-134.705	0.187	-0.023
-490.508	195.325	0.082	0.123
-489.493	-64.558	-0.323	-0.130
-488.478	21.396	0.350	0.282
-487.464	102.233	-0.060	0.069
-486.449	-29.436	-0.166	-0.094
-485.435	800.000	0.044	-0.150
-484.420	-86.991	0.367	-0.111
-483.405	-71.816	-0.351	0.130
-482.391	-132.444	-0.236	-0.030
-481.376	-146.039	0.253	-0.022
-480.362	57.384	-0.073	-0.070
-479.347	-63.610	-0.296	0.120
-478.332	-195.219	0.295	-0.002
-477.318	139.016	0.120	0.157
-476.303	-200.000	-0.008	0.038
-475.289	-183.510	-0.215	0.004
-474.274	-19.746	0.153	0.094
-473.259	800.000	-0.078	-0.255
-472.245	456.026	0.023	0.051
-471.230	-200.000	-0.009	-0.188
-470.216	-117.073	0.285	0.052
-469.201	390.824	0.084	0.173
-468.186	361.326	-0.072	0.143
-467.172	64.815	-0.239	0.239
-466.157	-76.449	0.072	0.025
-465.143	269.103	-0.085	0.149
-464.128	503.944	0.158	0.363
-463.113	-145.883	0.065	-0.006
-462.099	-200.000	-0.036	0.219
-461.084	-200.000	0.032	0.288
-460.070	-39.432	-0.265	0.137
-459.055	-61.632	0.287	-0.119
-458.040	137.485	0.187	0.242
-457.026	157.127	0.185	-0.254
-456.011	692.683	0.058	-0.151
-454.997	-44.504	-0.140	0.069
-453.982	-102.372	0.222	0.053
-452.968	-69.711	-0.239	-0.090
-451.953	455.394	0.106	-0.233
-450.938	175.811	-0.169	-0.243
-449.924	-23.765	0.185	0.110
-448.909	471.430	-0.054	0.121
-447.895	800.000	0.051	-0.153
-446.880	-155.863	0.397	0.025
-445.865	20.466	0.072	-0.058
-444.851	477.656	0.072	0.160
-443.836	635.464	-0.103	-0.258
-442.822	-78.048	-0.042	0.014
-441.807	315.543	-0.064	-0.119
-440.792	-200.000	0.031	-0.178
-439.778	-34.923	-0.197	0.106
-438.763	765.170	0.121	-0.324
-437.749	-33.699	-0.115	-0.063
-436.734	-81.007	0.239	-0.078
-435.719	90.769	0.105	-0.117
-434.705	-49.664	-0.092	-0.043
-433.690	-173.950	-0.241	0.007
-432.676	76.296	0.078	0.082
-431.661	224.212	-0.112	-0.179
-430.646	345.624	-0.198	0.384
-429.632	-71.503	-0.230	0.085
-428.617	-137.250	-0.036	-0.004
-427.603	79.402	0.131	0.139
-426.588	311.981	0.093	-0.172
-425.573	14.458	-0.335	0.258
-424.559	-200.000	0.007	0.375
-423.544	15.001	-0.123	0.095
-422.530	119.677	-0.095	-0.117
-421.515	-200.000	-0.049	0.306
-420.500	-26.352	-0.139	0.081
-419.486	800.000	0.049	0.188
-418.471	-172.092	0.168	-0.005
-417.457	164.910	-0.148	-0.207
-416.442	40.083	0.196	0.174
-415.428	-200.000	0.005	0.087
-414.413	-163.148	-0.066	-0.003
-413.398	-65.427	-0.235	-0.093
-412.384	216.606	-0.049	-0.077
-411.369	-190.974	-0.270	-0.003
-410.355	800.000	-0.054	0.186
-409.340	645.464	0.111	0.281
-408.325	14.636	0.368	0.284
-407.311	800.000	0.034	-0.113
-406.296	-110.102	-0.108	-0.022
-405.282	-32.741	-0.176	-0.096
-404.267	800.000	0.094	-0.259
-403.252	-60.650	0.299	0.125
-402.238	-200.000	0.067	-0.351
-401.223	-141.502	-0.160	-0.016
-400.209	-95.416	-0.077	-0.021
-399.194	-98.630	-0.325	0.082
-398.179	-166.348	-0.258	-0.011
-397.165	-26.950	-0.097	0.056
-396.150	-81.793	-0.194	-0.063
-395.136	109.147	0.182	-0.215
-394.121	-81.181	0.250	-0.082
-393.106	188.967	0.149	0.220
-392.092	75.911	0.170	-0.178
-391.077	-200.000	-0.034	-0.332
-390.063	-25.646	0.238	-0.139
-389.048	-77.569	0.132	-0.045
-388.033	108.433	-0.283	0.333
-387.019	-200.000	0.023	0.168
-386.004	-37.152	0.205	0.108
-384.990	-51.177	-0.168	-0.078
-383.975	260.328	-0.101	-0.173
-382.960	229.103	0.069	-0.111
-381.946	-116.811	0.309	-0.056
-380.931	-136.219	-0.020	0.002
-379.917	-146.018	0.144	0.013
-378.902	-200.000	-0.018	-0.133
-377.888	634.944	-0.072	-0.179
-376.873	-144.298	0.449	-0.041
-375.858	-200.000	0.001	-0.272
-374.844	-200.000	0.003	-0.084
-373.829	-93.033	-0.057	0.016
-372.815	-34.224	-0.169	-0.091
-371.800	19.070	0.102	0.080
-370.785	800.000	-0.104	-0.283
-369.771	37.024	-0.151	-0.132
-368.756	465.955	0.128	-0.283
-367.742	218.656	-0.054	-0.085
-366.727	541.917	0.090	-0.211
-365.712	800.000	0.064	0.262
-364.698	-12.470	0.027	0.018
-363.683	10.934	-0.237	0.179
-362.669	-200.000	0.030	-0.216
-361.654	-112.567	0.412	-0.081
-360.639	176.920	0.067	0.096
-359.625	-56.857	0.093	-0.040
-358.610	-93.666	-0.117	0.032
-357.596	-200.000	0.005	-0.259
-356.581	-93.959	0.267	-0.072
-355.566	43.133	-0.161	-0.145
-354.552	-76.231	0.307	-0.107
-353.537	133.164	-0.134	-0.170
-352.523	-126.349	0.380	0.056
-351.508	172.492	0.009	0.013
-350.493	734.299	-0.084	0.222
-349.479	-20.128	-0.231	0.140
-348.464	282.974	-0.054	0.095
-347.450	-65.267	0.204	0.081
-346.435	-13.340	-0.269	-0.172
-345.420	12.958	0.179	-0.136
-344.406	-25.352	0.056	0.033
-343.391	104.608	0.103	-0.119
-342.377	-200.000	0.019	0.179
-341.362	544.899	-0.134	0.315
-340.348	254.534	-0.215	0.363
-339.333	-4.307	-0.257	-0.175
-338.318	153.780	-0.152	0.205
-337.304	608.430	-0.210	-0.517
-336.289	-157.611	-0.361	0.021
-335.275	800.000	0.091	-0.368
-334.260	-72.799	-0.163	-0.059
-333.245	-85.759	-0.365	-0.111
-332.231	-94.635	0.306	0.082
-331.216	188.546	0.182	-0.269
-330.202	59.477	-0.259	-0.251
-329.187	512.643	0.087	0.199
-328.172	700.982	0.069	0.179
-327.158	-200.000	-0.012	0.128
-326.143	-9.589	-0.064	0.042
-325.129	-31.223	-0.255	0.142
-324.114	-130.243	0.127	-0.017
-323.099	800.000	-0.059	0.164
-322.085	100.760	-0.109	-0.125
-321.070	-149.276	-0.153	-0.012
-320.056	-140.584	0.207	-0.021
-319.041	-193.615	-0.067	0.001
-318.026	442.617	-0.049	-0.105
-317.012	-200.000	-0.021	0.193
-315.997	-200.000	-0.003	0.329
-314.983	-167.415	0.181	-0.007
-313.968	-200.000	-0.010	-0.059
-312.953	431.938	-0.051	0.108
-311.939	314.690	0.176	-0.326
-310.924	58.729	-0.222	-0.215
-309.910	-158.357	0.132	-0.008
-308.895	-10.466	0.121	-0.079
-307.880	-78.371	0.112	-0.038
-306.866	154.716	0.255	-0.345
-305.851	-146.063	0.278	-0.024
-304.837	-162.816	0.135	0.006
-303.822	-20.423	-0.061	-0.037
-302.807	197.800	0.076	0.114
-301.793	-73.333	-0.348	-0.125
-300.778	800.000	0.102	0.320
-299.764	-200.000	0.008	-0.051
-298.749	800.000	0.107	0.411
-297.735	-200.000	-0.340	0.000
-296.720	451.597	-0.088	0.191
-295.705	30.303	-0.212	0.178
-294.691	-53.954	0.149	-0.067
-293.676	-134.059	0.426	-0.052
-292.662	233.910	-0.125	-0.203
-291.647	22.431	-0.178	0.143
-290.632	800.000	0.049	-0.213
-289.618	-57.614	-0.169	-0.073
-288.603	169.171	-0.254	-0.356
-287.589	-122.688	0.285	0.045
-286.574	-125.831	0.267	-0.040
-285.559	-200.000	-0.003	-0.017
-284.545	800.000	0.046	0.137
-283.530	-59.397	0.157	0.066
-282.516	-200.000	-0.031	0.401
-281.501	-129.260	0.312	0.043
-280.486	6.572	0.070	0.051
-279.472	-49.234	-0.169	0.079
-278.457	54.926	-0.309	0.293
-277.443	-29.211	-0.067	-0.038
-276.428	49.690	-0.036	-0.033
-275.413	-119.170	-0.150	-0.026
-274.399	9.764	-0.227	0.169
-273.384	358.481	0.129	-0.252
-272.370	-200.000	0.002	0.063
-271.355	800.000	0.089	-0.280
-270.340	132.943	-0.060	0.076
-269.326	-200.000	0.009	-0.139
-268.311	800.000	-0.153	-0.436
-267.297	152.805	-0.031	-0.042
-266.282	20.738	-0.107	0.085
-265.267	-72.715	-0.139	0.050
-264.253	-175.504	0.207	-0.006
-263.238	-200.000	-0.011	0.103
-262.224	209.769	0.164	-0.253
-261.209	105.607	-0.099	0.115
-260.195	196.196	0.192	0.286
-259.180	131.146	-0.230	0.291
-258.165	-10.632	0.116	0.076
-257.151	-200.000	-0.021	-0.124
-256.136	32.822	0.079	-0.067
-255.122	234.855	0.091	-0.148
-254.107	147.699	0.106	-0.141
-253.092	12.490	0.113	-0.085
-252.078	432.950	0.111	-0.236
-251.063	20.155	0.221	0.175
-250.049	-95.290	-0.180	0.048
-249.034	106.205	0.270	-0.313
-248.019	7.971	-0.074	-0.054
-247.005	-51.629	0.180	-0.083
-245.990	181.260	-0.052	0.075
-244.976	-200.000	0.070	-0.382
-243.961	61.037	-0.264	-0.257
-242.946	800.000	0.103	0.323
-241.932	-48.174	0.270	0.128
-240.917	-166.702	-0.259	-0.011
-239.903	-200.000	-0.001	0.173
-238.888	-200.000	-0.067	0.426
-237.873	-72.771	-0.287	0.104
-236.859	-186.565	0.349	-0.005
-235.844	800.000	-0.008	0.025
-234.830	-66.467	-0.166	-0.065
-233.815	-68.961	-0.160	0.060
-232.800	-200.000	0.014	0.075
-231.786	161.195	-0.060	0.082
-230.771	-87.395	0.131	0.039
-229.757	51.227	-0.205	0.191
-228.742	173.087	-0.053	0.074
-227.727	-177.582	0.275	-0.007
-226.713	294.546	0.052	0.093
-225.698	800.000	-0.061	-0.172
-224.684	108.455	0.113	0.132
-223.669	-200.000	0.029	-0.184
-222.655	153.508	-0.072	-0.096
-221.640	95.155	0.178	-0.199
-220.625	292.362	0.047	-0.084
-219.611	181.212	0.204	-0.294
-218.596	71.982	0.273	0.279
-217.582	800.000	-0.009	0.025
-216.567	-9.286	0.106	-0.070
-215.552	-80.888	0.319	0.104
-214.538	-52.986	-0.052	-0.023
-213.523	-110.713	-0.253	0.051
-212.509	-200.000	0.034	-0.199
-211.494	-133.618	0.275	0.034
-210.479	146.853	0.092	0.121
-209.465	114.373	-0.139	0.166
-208.450	-200.000	-0.020	0.214
-207.436	749.396	0.027	0.071
-206.421	681.760	-0.093	-0.237
-205.406	-75.516	-0.130	0.045
-204.392	-126.698	-0.405	0.059
-203.377	132.855	0.212	0.269
-202.363	-117.388	-0.032	-0.006
-201.348	328.228	-0.100	-0.188
-200.333	-200.000	-0.015	-0.072
-199.319	67.257	-0.062	0.062
-198.304	-10.106	0.093	-0.061
-197.290	705.764	0.156	0.404
-196.275	583.617	-0.088	-0.211
-195.260	800.000	0.081	-0.271
-194.246	-200.000	-0.099	-0.534
-193.231	111.759	0.048	0.057
-192.217	-16.084	-0.217	0.135
-191.202	-200.000	-0.051	0.653
-190.187	-54.127	0.419	-0.186
-189.173	800.000	-0.137	0.449
-188.158	569.513	0.156	-0.372
-187.144	800.000	-0.099	-0.324
-186.129	127.942	0.067	0.084
-185.114	591.274	-0.048	-0.116
-184.100	800.000	0.126	-0.348
-183.085	206.197	-0.126	-0.192
-182.071	155.174	0.076	-0.103
-181.056	-200.000	-0.017	-0.187
-180.042	-98.636	-0.317	0.079
-179.027	-38.257	0.252	0.131
-178.012	-200.000	-0.013	-0.238
-176.998	349.863	-0.158	0.306
-175.983	-200.000	0.014	-0.347
-174.969	-71.478	-0.094	-0.034
-173.954	162.976	-0.108	-0.148
-172.939	62.577	0.201	-0.197
-171.925	-200.000	0.048	0.337
-170.910	-183.715	0.189	-0.003
-169.896	66.971	-0.125	0.125
-168.881	201.786	-0.100	-0.151
-167.866	-153.040	0.104	0.007
-166.852	97.636	0.033	0.037
-165.837	191.451	0.217	-0.320
-164.823	179.692	0.121	-0.174
-163.808	95.598	0.236	-0.263
-162.793	-15.326	-0.160	0.100
-161.779	163.672	-0.073	-0.101
-160.764	119.746	0.043	0.052
-159.750	-114.022	-0.204	0.039
-158.735	103.603	-0.120	0.138
-157.720	-35.802	0.138	-0.073
-156.706	126.364	-0.152	0.188
-155.691	608.067	0.048	0.116
-154.677	800.000	-0.036	-0.138
-153.662	553.082	0.025	0.060
-152.647	16.652	0.219	0.170
-151.633	-200.000	-0.063	0.353
-150.618	92.494	-0.152	0.168
-149.604	47.225	0.114	0.104
-148.589	23.970	-0.099	0.080
-147.574	-200.000	-0.034	0.241
-146.560	359.529	0.248	-0.485
-145.545	181.816	0.085	-0.123
-144.531	43.298	0.119	-0.106
-143.516	-60.191	-0.283	-0.118
-142.502	-70.569	0.245	0.090
-141.487	-80.130	-0.139	0.045
-140.472	-200.000	0.001	-0.108
-139.458	103.384	-0.274	0.314
-138.443	173.539	-0.095	-0.134
-137.429	201.953	0.088	-0.132
-136.414	-45.186	-0.168	0.082
-135.399	-122.224	-0.100	0.016
-134.385	-200.000	-0.012	-0.131
-133.370	132.596	-0.116	0.147
-132.356	-79.131	0.146	0.048
-131.341	47.982	-0.142	-0.130
-130.326	-36.599	0.092	0.048
-129.312	36.245	-0.023	0.020
-128.297	252.420	0.078	0.129
-127.283	-66.044	-0.208	0.081
-126.268	-200.000	0.016	-0.265
-125.253	-78.502	0.289	0.097
-124.239	-19.082	0.202	0.123
-123.224	-96.678	0.196	-0.050
-122.210	-200.000	-0.053	0.306
