DTS Sentinel unit serial number:	SN413079Multiplexer serial number:	ORYXHardware model number:	OX4-SRSoftware version number:	ORYX F/W v4.00 Oryx Data Collector v3.7.2.0data status	okinstallation	princeton_trtdifferential loss correction	single-endedforward channel	channel 1reverse channel	N/Adate	2019/09/14time	16:46:35forward acquisition time	60.00reverse acquisition time	0.00gamma	496.2192k internal	0.2294k external	0.2294temperature offset calibration	1.0051default loss term (dB/km)	0.3790temperature slope calibration	1.0000multiplexer offset coefficient	1.0000multiplexer slope coefficient	1.0000fibre end	0.00T internal ref (°C)	38.00T ext. ref 1 (°C)	5.00T ext. ref 2 (°C)	33.84length (m)	temperature (°C)	Stokes	anti-Stokes-747.200	232.375	-0.096	-0.162
-746.185	-103.446	-0.240	-0.058
-745.171	-45.093	0.447	-0.227
-744.156	372.296	-0.091	0.190
-743.142	-13.049	0.084	-0.056
-742.127	354.072	0.044	0.088
-741.112	375.947	-0.229	0.479
-740.098	-111.940	0.154	-0.032
-739.083	-200.000	0.003	0.395
-738.069	-200.000	0.016	0.245
-737.054	-200.000	-0.034	0.296
-736.039	-72.804	-0.217	-0.082
-735.025	-77.035	0.136	0.048
-734.010	229.355	0.078	-0.130
-732.996	236.991	0.148	-0.251
-731.981	-117.251	-0.338	-0.063
-730.966	39.303	-0.124	0.114
-729.952	-71.590	0.119	-0.045
-728.937	20.421	-0.196	-0.162
-727.923	-170.546	0.085	-0.003
-726.908	22.465	-0.191	-0.159
-725.894	-42.967	-0.088	-0.046
-724.879	57.258	-0.109	-0.109
-723.864	-50.800	-0.092	-0.044
-722.850	-51.022	-0.078	0.037
-721.835	-144.369	-0.201	-0.019
-720.821	-200.000	-0.001	0.291
-719.806	170.705	-0.163	-0.238
-718.791	800.000	0.118	0.385
-717.777	-5.886	0.259	-0.181
-716.762	359.340	-0.118	-0.241
-715.748	-56.043	-0.232	0.106
-714.733	-1.304	0.276	0.199
-713.718	-200.000	0.004	0.023
-712.704	-104.045	0.230	0.055
-711.689	-142.276	-0.594	-0.060
-710.675	121.885	0.142	0.181
-709.660	-116.944	0.249	0.047
-708.645	31.496	-0.022	0.020
-707.631	-172.947	-0.302	-0.010
-706.616	-200.000	0.024	-0.197
-705.602	-200.000	-0.414	0.000
-704.587	-200.000	-0.015	0.217
-703.572	-48.959	0.167	-0.082
-702.558	15.284	-0.160	0.128
-701.543	116.668	-0.078	-0.098
-700.529	-62.920	0.169	-0.071
-699.514	249.783	-0.073	-0.126
-698.499	-125.025	-0.243	0.038
-697.485	-44.337	-0.408	-0.209
-696.470	800.000	0.108	-0.306
-695.456	-79.249	0.206	0.071
-694.441	-200.000	0.028	-0.214
-693.426	47.948	0.018	0.017
-692.412	-200.000	0.084	0.424
-691.397	88.771	0.083	-0.094
-690.383	-200.000	0.031	0.200
-689.368	42.777	-0.141	0.131
-688.354	28.900	0.095	0.082
-687.339	45.456	-0.153	0.144
-686.324	156.323	0.164	-0.231
-685.310	-144.447	0.073	0.007
-684.295	38.271	0.157	0.142
-683.281	-151.792	-0.271	0.020
-682.266	-91.167	0.531	-0.155
-681.251	-40.322	-0.036	0.019
-680.237	-199.186	-0.221	-0.001
-679.222	-57.869	-0.174	-0.078
-678.208	17.531	-0.074	0.060
-677.193	59.691	-0.136	-0.137
-676.178	-130.288	0.320	-0.044
-675.164	22.210	-0.130	0.108
-674.149	-4.876	0.212	-0.149
-673.135	71.176	0.231	-0.244
-672.120	470.387	-0.085	-0.194
-671.105	-200.000	0.021	0.109
-670.091	257.303	-0.109	0.191
-669.076	-100.535	-0.035	0.009
-668.062	29.361	-0.285	0.247
-667.047	-151.557	-0.195	-0.015
-666.032	-128.211	0.367	-0.053
-665.018	-117.316	-0.140	-0.026
-664.003	-3.057	-0.324	0.230
-662.989	-60.939	-0.251	0.108
-661.974	759.844	0.041	0.114
-660.959	49.999	0.068	0.066
-659.945	482.323	0.149	0.344
-658.930	-115.742	0.298	-0.057
-657.916	-78.040	-0.194	0.068
-656.901	-25.933	-0.104	-0.062
-655.886	289.738	0.062	0.115
-654.872	-33.062	-0.219	0.124
-653.857	-84.948	-0.342	0.109
-652.843	-101.677	0.475	0.117
-651.828	210.443	0.032	-0.051
-650.814	522.680	-0.016	0.038
-649.799	800.000	-0.044	-0.163
-648.784	38.726	-0.049	0.045
-647.770	192.170	-0.215	-0.330
-646.755	-58.688	-0.263	-0.116
-645.741	686.365	0.079	-0.211
-644.726	-173.504	-0.216	0.007
-643.711	-95.227	-0.314	-0.086
-642.697	-200.000	0.041	-0.227
-641.682	176.481	-0.091	-0.135
-640.668	16.179	-0.141	-0.113
-639.653	800.000	-0.068	0.222
-638.638	-9.068	-0.163	-0.111
-637.624	800.000	-0.082	0.263
-636.609	800.000	0.056	0.189
-635.595	701.734	0.062	-0.166
-634.580	-151.897	0.178	-0.013
-633.565	60.547	0.057	0.057
-632.551	-106.045	-0.425	-0.097
-631.536	-90.903	0.130	0.038
-630.522	-49.564	-0.327	0.159
-629.507	-23.232	0.199	0.122
-628.492	-124.417	0.124	0.020
-627.478	-123.766	-0.387	-0.062
-626.463	1.845	0.346	0.254
-625.449	-20.914	0.227	0.142
-624.434	800.000	-0.059	0.240
-623.419	53.220	-0.173	0.169
-622.405	-15.146	-0.416	-0.271
-621.390	112.141	0.181	0.222
-620.376	-12.361	-0.159	0.106
-619.361	-133.563	0.178	0.023
-618.346	800.000	0.064	0.222
-617.332	183.975	0.081	-0.123
-616.317	140.666	0.051	0.068
-615.303	127.346	0.129	-0.166
-614.288	-39.833	0.206	-0.110
-613.273	-91.638	-0.496	0.144
-612.259	-5.203	-0.113	0.079
-611.244	-200.000	0.025	0.214
-610.230	-9.960	-0.370	0.250
-609.215	-142.794	0.367	0.036
-608.201	-59.238	0.189	-0.083
-607.186	402.552	-0.080	0.171
-606.171	-200.000	-0.065	-0.347
-605.157	-133.271	0.175	-0.022
-604.142	-40.595	-0.143	-0.075
-603.128	-101.454	0.388	-0.096
-602.113	-66.826	0.246	0.099
-601.098	78.104	-0.283	0.307
-600.084	271.254	0.177	0.317
-599.069	-178.280	0.275	-0.007
-598.055	368.059	-0.137	0.281
-597.040	800.000	0.077	0.331
-596.025	81.924	-0.381	-0.420
-595.011	654.067	0.085	0.221
-593.996	-57.077	0.144	-0.064
-592.982	-200.000	-0.020	-0.207
-591.967	-28.907	0.226	-0.132
-590.952	534.098	-0.032	0.077
-589.938	800.000	0.102	0.427
-588.923	377.550	0.078	-0.163
-587.909	-83.758	0.196	-0.063
-586.894	78.402	0.195	-0.212
-585.879	-153.378	-0.119	0.008
-584.865	81.343	0.093	-0.102
-583.850	327.788	-0.200	-0.391
-582.836	115.693	-0.174	0.216
-581.821	800.000	0.018	0.073
-580.806	154.702	0.137	-0.191
-579.792	-200.000	-0.066	-0.421
-578.777	45.798	0.122	0.114
-577.763	22.838	-0.211	-0.176
-576.748	-101.384	0.174	0.043
-575.733	293.638	-0.086	0.160
-574.719	-200.000	-0.033	0.179
-573.704	74.566	-0.207	0.221
-572.690	-188.881	0.194	-0.002
-571.675	800.000	-0.001	0.005
-570.661	800.000	0.006	-0.020
-569.646	42.461	0.177	-0.163
-568.631	-132.462	-0.150	-0.020
-567.617	-84.580	-0.361	0.116
-566.602	-200.000	-0.022	0.099
-565.588	-52.730	-0.282	0.132
-564.573	139.781	-0.098	0.131
-563.558	-77.588	-0.127	-0.045
-562.544	616.271	-0.151	0.386
-561.529	-45.987	-0.243	-0.122
-560.515	-58.543	0.201	-0.089
-559.500	-200.000	0.010	0.090
-558.485	-112.738	0.065	0.013
-557.471	-200.000	-0.031	0.332
-556.456	800.000	0.125	-0.358
-555.442	-34.736	-0.033	0.019
-554.427	-127.703	-0.260	0.038
-553.412	150.609	0.133	0.183
-552.398	199.744	-0.120	-0.187
-551.383	-103.251	-0.312	0.075
-550.369	43.687	-0.158	-0.147
-549.354	-200.000	-0.030	-0.303
-548.339	-162.894	-0.412	0.020
-547.325	-17.879	0.057	0.036
-546.310	229.574	-0.053	0.089
-545.296	245.607	-0.147	-0.251
-544.281	-24.825	-0.042	-0.025
-543.266	-200.000	0.024	-0.334
-542.252	-75.921	0.203	-0.073
-541.237	64.655	-0.103	0.105
-540.223	-108.830	0.129	0.028
-539.208	392.019	0.171	0.360
-538.193	-96.225	-0.227	0.061
-537.179	271.972	0.130	0.233
-536.164	-164.823	-0.183	-0.008
-535.150	138.869	-0.172	-0.229
-534.135	-200.000	-0.012	-0.158
-533.121	-129.298	0.134	-0.019
-532.106	-200.000	0.052	0.238
-531.091	-55.408	0.077	-0.035
-530.077	800.000	0.064	0.217
-529.062	612.924	-0.089	-0.227
-528.048	-94.132	-0.359	0.100
-527.033	-200.000	-0.012	-0.247
-526.018	228.259	0.131	-0.217
-525.004	-52.341	-0.051	-0.024
-523.989	-155.222	-0.317	-0.021
-522.975	800.000	-0.104	-0.299
-521.960	-200.000	0.018	0.134
-520.945	478.556	-0.103	0.237
-519.931	-200.000	0.009	0.185
-518.916	-166.197	-0.421	0.018
-517.902	77.888	0.220	0.238
-516.887	-71.115	0.158	-0.060
-515.872	5.839	0.136	-0.102
-514.858	341.196	-0.154	-0.304
-513.843	267.483	0.099	0.175
-512.829	63.764	-0.105	-0.107
-511.814	282.159	0.021	0.039
-510.799	-124.370	-0.252	0.040
-509.785	387.691	0.174	0.365
-508.770	-200.000	-0.064	0.305
-507.756	-104.933	0.226	-0.052
-506.741	-108.645	-0.420	-0.091
-505.726	-51.681	-0.269	0.127
-504.712	-74.830	0.148	0.054
-503.697	800.000	-0.090	0.345
-502.683	113.393	-0.020	-0.024
-501.668	-50.588	-0.240	-0.114
-500.653	-200.000	0.031	0.151
-499.639	108.626	-0.166	-0.201
-498.624	-122.667	-0.140	0.023
-497.610	-96.811	0.233	-0.062
-496.595	-6.268	-0.227	-0.157
-495.581	-96.263	0.220	-0.059
-494.566	66.219	0.132	-0.136
-493.551	239.565	-0.185	-0.311
-492.537	-45.709	-0.249	-0.125
-491.522	3.730	-0.245	-0.181
-490.508	269.273	0.080	0.143
-489.493	215.602	-0.098	0.157
-488.478	108.389	-0.301	0.364
-487.464	243.020	-0.142	-0.240
-486.449	207.970	0.172	-0.271
-485.435	-120.245	-0.288	0.050
-484.420	800.000	0.040	-0.146
-483.405	-1.222	0.264	0.189
-482.391	-156.933	-0.178	-0.011
-481.376	800.000	-0.062	-0.214
-480.362	-7.283	0.107	-0.073
-479.347	65.798	-0.080	-0.082
-478.332	142.717	-0.059	-0.079
-477.318	-133.807	-0.368	-0.046
-476.303	174.602	0.113	0.166
-475.289	-58.860	0.172	0.075
-474.274	-200.000	0.014	-0.089
-473.259	-200.000	0.025	-0.257
-472.245	800.000	-0.077	-0.216
-471.230	-200.000	0.006	0.084
-470.216	-200.000	-0.007	-0.151
-469.201	-62.945	0.158	-0.066
-468.186	-60.808	0.087	0.037
-467.172	-200.000	-0.003	-0.327
-466.157	-200.000	-0.008	0.177
-465.143	-6.928	0.208	-0.143
-464.128	-200.000	-0.023	0.201
-463.113	32.119	-0.267	-0.233
-462.099	257.562	0.074	-0.128
-461.084	791.782	0.076	-0.212
-460.070	-55.802	-0.304	0.137
-459.055	-103.171	-0.153	-0.037
-458.040	-125.860	-0.153	-0.023
-457.026	12.187	-0.129	0.101
-456.011	800.000	-0.039	-0.124
-454.997	-200.000	-0.047	-0.235
-453.982	204.691	-0.094	-0.148
-452.968	243.882	-0.172	0.292
-451.953	-200.000	0.072	0.458
-450.938	-13.647	-0.207	-0.135
-449.924	198.351	-0.094	-0.146
-448.909	9.740	-0.184	-0.141
-447.895	-100.091	0.176	0.044
-446.880	-200.000	0.046	0.275
-445.865	-109.654	-0.170	0.036
-444.851	106.188	0.194	-0.232
-443.836	-143.061	0.155	0.015
-442.822	-5.238	-0.169	-0.118
-441.807	471.918	0.039	0.089
-440.792	280.066	0.137	0.247
-439.778	189.527	0.079	-0.120
-438.763	25.532	-0.253	0.212
-437.749	51.209	0.068	-0.065
-436.734	-122.435	0.401	-0.066
-435.719	-54.724	-0.307	0.140
-434.705	-67.068	0.494	0.197
-433.690	-0.075	-0.062	0.044
-432.676	159.397	-0.171	0.240
-431.661	249.022	-0.078	-0.133
-430.646	-200.000	0.004	0.023
-429.632	-48.578	0.189	-0.092
-428.617	322.468	0.137	0.263
-427.603	-22.934	0.088	-0.054
-426.588	-67.923	0.243	-0.096
-425.573	661.127	-0.039	-0.101
-424.559	-36.306	-0.211	0.115
-423.544	-165.420	0.348	0.015
-422.530	494.116	0.160	-0.372
-421.515	64.306	-0.139	-0.142
-420.500	-200.000	0.043	0.430
-419.486	-25.654	0.243	-0.145
-418.471	45.869	-0.131	0.122
-417.457	800.000	0.053	-0.230
-416.442	-46.039	-0.225	0.112
-415.428	43.824	-0.263	-0.243
-414.413	-34.117	0.283	-0.157
-413.398	-143.963	0.314	0.030
-412.384	-200.000	0.006	-0.161
-411.369	-23.287	-0.241	0.146
-410.355	-74.793	0.039	-0.014
-409.340	-73.527	0.254	0.093
-408.325	369.715	-0.050	-0.102
-407.311	45.863	-0.143	-0.134
-406.296	475.915	-0.025	0.057
-405.282	163.368	0.212	0.300
-404.267	2.005	0.102	-0.074
-403.252	30.946	-0.066	-0.057
-402.238	-111.537	0.127	-0.026
-401.223	176.150	-0.152	0.222
-400.209	143.890	-0.122	0.164
-399.194	-1.866	-0.240	0.170
-398.179	800.000	0.063	0.197
-397.165	1.060	0.092	0.066
-396.150	800.000	0.059	-0.178
-395.136	-200.000	0.041	-0.209
-394.121	20.325	-0.202	0.165
-393.106	175.380	-0.059	0.087
-392.092	-78.633	0.186	-0.064
-391.077	250.216	0.127	-0.217
-390.063	-3.242	0.166	-0.116
-389.048	81.973	-0.040	-0.043
-388.033	-17.757	-0.090	0.057
-387.019	-200.000	0.009	0.122
-386.004	27.746	0.319	0.271
-384.990	79.700	-0.129	-0.140
-383.975	43.799	-0.358	0.330
-382.960	-136.315	-0.188	0.022
-381.946	-75.764	-0.188	-0.067
-380.931	-200.000	-0.050	-0.386
-379.917	-200.000	0.026	-0.202
-378.902	-115.849	-0.192	-0.036
-377.888	-65.583	0.466	-0.188
-376.873	-84.010	-0.083	0.027
-375.858	109.817	0.059	-0.072
-374.844	800.000	-0.035	-0.105
-373.829	116.150	-0.104	0.128
-372.815	-47.893	0.101	-0.049
-371.800	466.753	-0.095	0.214
-370.785	54.363	-0.077	-0.075
-369.771	-200.000	-0.002	0.166
-368.756	28.594	0.213	-0.182
-367.742	-78.251	-0.299	-0.104
-366.727	41.817	-0.179	-0.163
-365.712	-2.147	-0.193	0.137
-364.698	-200.000	-0.011	-0.146
-363.683	492.594	0.063	0.146
-362.669	203.684	0.179	-0.280
-361.654	-141.167	-0.157	0.016
-360.639	-44.048	0.499	0.252
-359.625	-87.434	0.164	0.050
-358.610	-200.000	-0.001	-0.310
-357.596	800.000	0.041	-0.179
-356.581	-62.442	-0.322	0.135
-355.566	138.706	0.164	-0.216
-354.552	134.364	0.084	-0.110
-353.537	-200.000	-0.012	-0.081
-352.523	779.731	0.075	-0.207
-351.508	-200.000	-0.041	-0.393
-350.493	-122.926	-0.302	-0.049
-349.479	36.000	0.259	-0.229
-348.464	-118.271	-0.199	0.036
-347.450	-200.000	-0.019	-0.113
-346.435	-200.000	0.008	-0.093
-345.420	-112.015	0.378	0.077
-344.406	800.000	0.038	0.160
-343.391	-87.052	-0.287	0.088
-342.377	-200.000	-0.182	-0.001
-341.362	-200.000	-0.065	-0.527
-340.348	56.330	0.099	0.097
-339.333	-200.000	-0.006	0.172
-338.318	800.000	-0.023	-0.085
-337.304	107.270	0.197	0.235
-336.289	-135.416	0.107	0.013
-335.275	-200.000	0.003	0.381
-334.260	391.504	-0.136	0.285
-333.245	-200.000	0.056	-0.445
-332.231	-14.401	-0.249	0.162
-331.216	-68.635	0.382	-0.149
-330.202	800.000	0.092	0.326
-329.187	-200.000	0.041	-0.210
-328.172	-155.296	0.144	0.009
-327.158	800.000	0.096	0.335
-326.143	-27.660	0.108	0.063
-325.129	-136.363	-0.079	-0.009
-324.114	-200.000	-0.040	-0.194
-323.099	98.345	0.020	-0.023
-322.085	584.348	-0.150	-0.372
-321.070	-32.985	0.097	0.054
-320.056	783.704	-0.043	0.119
-319.041	56.434	0.072	0.070
-318.026	369.863	-0.127	0.259
-317.012	12.219	-0.151	0.117
-315.997	-162.201	-0.014	0.001
-314.983	166.656	-0.054	0.077
-313.968	-149.651	0.134	0.011
-312.953	-172.864	-0.336	0.011
-311.939	128.648	-0.058	0.074
-310.924	800.000	0.040	0.150
-309.910	-148.918	0.193	0.016
-308.895	161.828	-0.082	-0.115
-307.880	152.109	0.087	-0.120
-306.866	800.000	-0.083	0.243
-305.851	800.000	0.068	-0.259
-304.837	148.238	-0.206	-0.279
-303.822	52.068	0.269	-0.258
-302.807	6.264	0.073	-0.055
-301.793	27.276	0.138	0.116
-300.778	-80.559	-0.036	-0.012
-299.764	-60.483	-0.281	0.120
-298.749	-63.881	-0.126	-0.052
-297.735	113.772	0.034	-0.041
-296.720	-181.760	0.176	0.003
-295.705	-83.847	0.247	0.079
-294.691	-82.753	0.165	0.054
-293.676	-200.000	-0.033	-0.179
-292.662	398.321	0.047	0.099
-291.647	52.177	-0.126	0.121
-290.632	-200.000	0.069	-0.315
-289.618	-41.982	0.105	-0.054
-288.603	464.256	0.048	-0.108
-287.589	105.884	0.098	-0.116
-286.574	26.364	-0.277	-0.232
-285.559	258.626	0.115	-0.200
-284.545	91.232	-0.107	-0.121
-283.530	-200.000	-0.030	0.302
-282.516	-148.633	0.147	-0.012
-281.501	-200.000	0.068	0.522
-280.486	-42.344	-0.205	0.105
-279.472	732.605	0.078	-0.209
-278.457	16.845	0.150	0.119
-277.443	-32.215	0.149	-0.084
-276.428	-200.000	0.043	-0.219
-275.413	-200.000	-0.031	0.207
-274.399	-73.732	-0.124	-0.045
-273.384	-67.252	0.345	-0.136
-272.370	135.263	0.333	0.435
-271.355	-62.919	0.234	-0.097
-270.340	122.250	0.208	-0.261
-269.326	219.670	-0.089	0.142
-268.311	29.047	0.211	-0.180
-267.297	-118.430	0.293	-0.052
-266.282	-200.000	-0.038	-0.247
-265.267	30.445	-0.142	-0.122
-264.253	-115.162	-0.285	-0.054
-263.238	-200.000	0.020	0.282
-262.224	-123.485	0.132	0.021
-261.209	800.000	0.066	-0.246
-260.195	-94.189	-0.341	0.094
-259.180	-13.621	0.199	0.130
-258.165	-119.633	0.300	0.052
-257.151	-11.861	-0.111	0.073
-256.136	-200.000	0.053	-0.283
-255.122	41.568	0.204	-0.185
-254.107	169.866	-0.040	-0.057
-253.092	-34.244	-0.143	0.079
-252.078	-184.732	-0.103	-0.002
-251.063	393.082	0.050	0.104
-250.049	-200.000	0.000	0.015
-249.034	800.000	-0.031	-0.093
-248.019	800.000	-0.065	0.248
-247.005	-156.062	-0.338	0.021
-245.990	57.404	0.184	0.180
-244.976	-200.000	0.021	0.357
-243.961	45.723	-0.207	0.192
-242.946	-59.554	-0.197	0.085
-241.932	800.000	0.086	0.253
-240.917	-94.921	0.444	-0.121
-239.903	-11.954	0.208	-0.136
-238.888	-109.268	0.155	0.033
-237.873	243.540	0.174	-0.293
-236.859	-149.209	-0.204	-0.016
-235.844	173.688	-0.078	0.113
-234.830	157.425	-0.123	-0.170
-233.815	-46.123	0.080	0.040
-232.800	-35.614	0.323	0.176
-231.786	746.727	-0.046	0.124
-230.771	-91.746	0.260	0.074
-229.757	-65.701	0.078	0.031
-228.742	-200.000	-0.013	0.091
-227.727	-23.591	-0.466	0.280
-226.713	-184.239	0.245	-0.004
-225.698	3.214	0.110	-0.080
-224.684	90.998	0.257	-0.289
-223.669	800.000	-0.111	0.307
-222.655	34.977	0.147	0.129
-221.640	12.299	0.100	0.077
-220.625	70.039	-0.039	0.041
-219.611	150.257	-0.187	-0.255
-218.596	262.207	-0.081	-0.141
-217.582	-28.289	-0.116	0.067
-216.567	37.984	0.073	-0.065
-215.552	-42.811	-0.029	0.015
-214.538	-156.551	0.164	0.010
-213.523	95.389	-0.258	-0.294
-212.509	404.974	0.115	0.243
-211.494	-200.000	0.005	0.110
-210.479	56.900	-0.176	0.172
-209.465	800.000	0.078	0.239
-208.450	36.978	0.168	0.149
-207.436	221.871	0.098	-0.158
-206.421	31.185	0.193	-0.166
-205.406	-70.098	0.120	0.046
-204.392	87.122	0.181	-0.201
-203.377	-129.864	-0.391	0.054
-202.363	-171.757	0.449	-0.015
-201.348	-166.601	0.285	0.012
-200.333	103.528	0.212	-0.250
-199.319	-33.580	0.026	-0.014
-198.304	800.000	-0.078	-0.310
-197.290	511.706	-0.027	-0.062
-196.275	-200.000	-0.037	0.231
-195.260	-95.838	0.233	0.062
-194.246	275.805	-0.172	0.305
-193.231	-67.610	-0.117	-0.046
-192.217	-107.346	0.256	0.056
-191.202	-15.030	0.190	0.122
-190.187	-67.274	0.137	0.054
-189.173	448.679	0.179	-0.395
-188.158	180.437	-0.008	-0.011
-187.144	70.175	-0.237	-0.245
-186.129	-59.735	0.319	0.137
-185.114	-89.127	0.227	0.067
-184.100	378.407	0.211	0.431
-183.085	182.776	-0.093	0.137
-182.071	-75.414	-0.226	0.081
-181.056	296.543	-0.174	-0.319
-180.042	-193.047	-0.177	0.002
-179.027	21.385	-0.232	-0.189
-178.012	800.000	0.062	0.217
-176.998	800.000	-0.088	0.245
-175.983	-157.293	-0.115	0.007
-174.969	-146.324	-0.071	0.006
-173.954	186.739	-0.054	0.080
-172.939	-25.465	-0.242	0.143
-171.925	43.550	0.326	-0.298
-170.910	-128.080	0.235	-0.034
-169.896	46.262	0.266	0.246
-168.881	10.614	0.084	0.064
-167.866	117.501	0.101	-0.125
-166.852	-200.000	0.036	-0.169
-165.837	800.000	0.030	0.101
-164.823	425.786	-0.113	-0.243
-163.808	-15.285	0.538	0.344
-162.793	589.154	0.019	-0.046
-161.779	159.605	-0.056	0.078
-160.764	-141.082	-0.157	0.016
-159.750	-200.000	0.027	0.336
-158.735	-52.731	0.365	-0.168
-157.720	-200.000	-0.009	0.065
-156.706	51.137	-0.183	0.174
-155.691	-15.776	-0.237	0.151
-154.677	-68.938	0.151	0.058
-153.662	-106.944	0.234	-0.052
-152.647	-200.000	-0.004	-0.113
-151.633	-51.906	0.209	-0.097
-150.618	258.861	0.135	-0.232
-149.604	-84.455	-0.275	-0.087
-148.589	230.088	0.205	-0.334
-147.574	-104.283	-0.248	0.057
-146.560	-151.388	-0.171	0.013
-145.545	-76.358	0.186	-0.065
-144.531	-64.401	-0.100	0.041
-143.516	-111.771	0.083	0.017
-142.502	96.211	-0.155	-0.177
-141.487	-169.123	0.149	-0.006
-140.472	616.534	0.100	-0.251
-139.458	444.269	-0.137	0.300
-138.443	-200.000	-0.014	-0.154
-137.429	-200.000	0.001	0.133
-136.414	-132.732	-0.136	0.017
-135.399	-52.562	-0.210	0.097
-134.385	-179.702	0.378	-0.008
-133.370	-200.000	0.014	0.233
-132.356	-200.000	0.003	0.037
-131.341	-200.000	0.006	0.048
-130.326	-181.807	0.387	0.007
-129.312	-20.099	-0.132	-0.081
-128.297	-200.000	0.004	0.078
-127.283	7.930	-0.320	0.239
-126.268	243.968	0.147	0.247
-125.253	-112.627	-0.078	0.016
-124.239	-78.936	-0.117	-0.040
-123.224	33.702	0.061	-0.053
-122.210	-121.249	0.274	0.046
-121.195	-137.298	0.346	-0.039
