DTS Sentinel unit serial number:	SN413079Multiplexer serial number:	ORYXHardware model number:	OX4-SRSoftware version number:	ORYX F/W v4.00 Oryx Data Collector v3.7.2.0data status	okinstallation	princeton_trtdifferential loss correction	single-endedforward channel	channel 1reverse channel	N/Adate	2019/09/14time	00:50:35forward acquisition time	60.00reverse acquisition time	0.00gamma	496.2192k internal	0.2337k external	0.2337temperature offset calibration	1.0074default loss term (dB/km)	0.3790temperature slope calibration	1.0000multiplexer offset coefficient	1.0000multiplexer slope coefficient	1.0000fibre end	0.00T internal ref (°C)	26.39T ext. ref 1 (°C)	3.18T ext. ref 2 (°C)	21.19length (m)	temperature (°C)	Stokes	anti-Stokes-747.200	37.769	-0.273	0.243
-746.185	-200.000	0.002	0.189
-745.171	-115.739	0.215	-0.040
-744.156	-200.000	-0.048	0.235
-743.142	-51.981	-0.254	-0.119
-742.127	-14.101	-0.133	-0.086
-741.112	52.959	0.148	-0.142
-740.098	-41.757	-0.176	-0.090
-739.083	136.628	-0.106	-0.138
-738.069	93.888	-0.166	-0.189
-737.054	242.224	-0.041	0.068
-736.039	-118.479	0.175	-0.031
-735.025	135.273	0.132	0.172
-734.010	604.221	-0.069	-0.172
-732.996	413.561	0.134	-0.286
-731.981	800.000	0.056	-0.174
-730.966	47.633	-0.146	0.136
-729.952	484.081	0.100	0.228
-728.937	-200.000	0.013	0.452
-727.923	800.000	0.065	-0.193
-726.908	-200.000	-0.015	-0.124
-725.894	-59.505	-0.288	-0.124
-724.879	51.604	-0.314	0.299
-723.864	-4.928	0.153	0.106
-722.850	-200.000	-0.011	-0.106
-721.835	-155.419	-0.255	0.017
-720.821	150.832	-0.137	-0.187
-719.806	-200.000	-0.007	0.187
-718.791	481.987	-0.073	0.166
-717.777	800.000	-0.100	0.388
-716.762	-83.989	0.140	-0.045
-715.748	235.249	-0.096	0.159
-714.733	184.314	0.114	0.170
-713.718	-200.000	0.011	-0.223
-712.704	-88.323	-0.371	-0.111
-711.689	-31.503	0.180	0.101
-710.675	19.034	0.269	0.216
-709.660	264.886	-0.167	0.292
-708.645	443.567	0.085	0.188
-707.631	800.000	0.056	-0.167
-706.616	49.574	0.116	0.110
-705.602	-99.027	-0.056	0.014
-704.587	-50.508	0.174	-0.082
-703.572	72.806	0.091	-0.095
-702.558	-117.071	0.331	-0.061
-701.543	800.000	0.114	-0.398
-700.529	-101.564	-0.033	-0.008
-699.514	272.204	0.022	-0.039
-698.499	-22.525	-0.114	-0.069
-697.485	800.000	0.040	-0.136
-696.470	97.009	0.162	-0.186
-695.456	-39.767	0.350	0.183
-694.441	110.863	-0.094	0.113
-693.426	-200.000	0.060	-0.292
-692.412	34.562	0.295	0.258
-691.397	35.947	0.086	0.076
-690.383	69.125	-0.195	0.201
-689.368	-10.393	0.171	-0.114
-688.354	800.000	-0.047	-0.176
-687.339	-37.149	0.356	0.191
-686.324	-94.164	0.198	0.054
-685.310	-149.057	-0.418	0.034
-684.295	-160.898	0.292	-0.015
-683.281	-46.946	-0.384	-0.188
-682.266	-78.807	-0.035	0.012
-681.251	231.831	-0.109	0.180
-680.237	-79.589	0.375	-0.127
-679.222	-87.860	0.055	-0.017
-678.208	-200.000	0.023	-0.198
-677.193	-200.000	-0.031	-0.446
-676.178	34.275	0.143	-0.125
-675.164	-57.286	0.131	0.058
-674.149	21.538	-0.411	-0.335
-673.135	-200.000	-0.043	-0.294
-672.120	45.962	0.080	0.075
-671.105	-32.344	0.093	-0.052
-670.091	-102.838	-0.252	-0.060
-669.076	-133.573	0.298	-0.037
-668.062	-122.196	0.215	-0.035
-667.047	-156.884	0.115	0.007
-666.032	-129.138	0.578	-0.081
-665.018	-200.000	-0.053	-0.580
-664.003	194.749	-0.172	-0.261
-662.989	-129.793	0.098	0.013
-661.974	44.483	0.170	-0.156
-660.959	-46.262	-0.029	-0.014
-659.945	123.154	-0.109	0.137
-658.930	-200.000	-0.003	0.160
-657.916	599.613	-0.131	0.325
-656.901	800.000	0.025	0.086
-655.886	17.876	0.180	0.144
-654.872	270.107	0.218	0.383
-653.857	-200.000	-0.056	-0.410
-652.843	-200.000	0.005	-0.200
-651.828	195.284	0.167	0.254
-650.814	-128.303	-0.337	-0.048
-649.799	-200.000	0.025	0.263
-648.784	-25.104	-0.218	-0.129
-647.770	744.232	0.095	-0.255
-646.755	181.585	0.052	0.077
-645.741	800.000	-0.033	0.119
-644.726	-118.261	0.150	0.027
-643.711	800.000	-0.003	0.010
-642.697	-200.000	-0.006	0.273
-641.682	113.866	-0.099	0.120
-640.668	17.071	-0.067	-0.053
-639.653	-51.689	-0.242	0.113
-638.638	74.526	0.268	-0.281
-637.624	-70.163	-0.356	-0.135
-636.609	-200.000	-0.059	0.323
-635.595	800.000	0.013	-0.044
-634.580	306.013	0.097	-0.180
-633.565	265.864	0.098	-0.172
-632.551	513.815	0.021	-0.050
-631.536	800.000	0.060	-0.188
-630.522	10.833	-0.086	0.066
-629.507	-61.695	0.171	-0.072
-628.492	132.828	-0.067	-0.086
-627.478	0.746	0.316	-0.226
-626.463	85.454	-0.114	0.125
-625.449	-200.000	0.022	-0.120
-624.434	125.775	0.094	-0.118
-623.419	-144.864	-0.286	0.026
-622.405	-29.422	0.240	0.137
-621.390	304.264	-0.112	0.208
-620.376	-143.380	-0.541	0.052
-619.361	3.529	0.122	-0.089
-618.346	509.036	-0.124	-0.288
-617.332	410.591	-0.144	-0.305
-616.317	-200.000	-0.009	0.210
-615.303	-46.316	-0.236	0.116
-614.288	51.751	-0.055	-0.053
-613.273	338.358	-0.098	-0.191
-612.259	116.829	-0.104	-0.128
-611.244	324.004	-0.086	-0.163
-610.230	505.116	0.041	-0.095
-609.215	800.000	-0.111	-0.329
-608.201	-60.235	0.185	-0.079
-607.186	357.707	-0.052	0.103
-606.171	-142.143	-0.270	-0.027
-605.157	-112.291	-0.310	0.062
-604.142	-35.342	0.347	-0.188
-603.128	109.115	-0.230	0.275
-602.113	-71.783	-0.121	0.045
-601.098	57.893	-0.147	0.144
-600.084	-45.228	-0.214	0.106
-599.069	-200.000	-0.056	-0.327
-598.055	-200.000	0.038	-0.178
-597.040	345.986	0.189	0.372
-596.025	-47.660	-0.250	0.121
-595.011	791.716	0.075	0.206
-593.996	-137.215	-0.125	-0.014
-592.982	800.000	0.027	0.111
-591.967	-41.347	0.195	0.100
-590.952	-73.229	0.031	-0.011
-589.938	-46.663	0.409	-0.200
-588.923	76.837	-0.105	-0.111
-587.909	704.242	-0.130	0.342
-586.894	293.667	0.146	-0.266
-585.879	68.257	-0.186	0.190
-584.865	-70.367	0.129	0.049
-583.850	-18.595	0.201	-0.125
-582.836	-8.651	0.184	-0.123
-581.821	46.041	0.162	0.150
-580.806	-183.489	-0.269	0.005
-579.792	168.525	-0.102	0.146
-578.777	-62.182	-0.204	0.085
-577.763	-200.000	0.063	-0.365
-576.748	-48.796	-0.164	-0.079
-575.733	800.000	-0.050	0.159
-574.719	716.482	0.111	-0.293
-573.704	163.840	0.130	0.183
-572.690	-36.149	-0.075	-0.040
-571.675	143.765	0.107	0.142
-570.661	151.637	-0.074	-0.101
-569.646	800.000	-0.058	-0.198
-568.631	123.364	-0.123	-0.154
-567.617	800.000	-0.039	-0.141
-566.602	-89.147	0.087	0.026
-565.588	-140.919	-0.250	-0.026
-564.573	-140.751	0.129	-0.013
-563.558	800.000	0.120	-0.479
-562.544	-34.708	-0.212	-0.115
-561.529	170.006	0.145	-0.206
-560.515	226.909	0.067	-0.108
-559.500	-94.411	-0.049	0.013
-558.485	542.770	0.096	0.227
-557.471	318.772	0.210	-0.396
-556.456	-95.355	-0.238	-0.064
-555.442	-200.000	0.050	-0.284
-554.427	329.142	-0.014	-0.027
-553.412	125.573	0.093	-0.117
-552.398	233.425	0.069	0.113
-551.383	-25.356	0.249	0.147
-550.369	-102.042	-0.257	-0.062
-549.354	-101.506	0.333	-0.081
-548.339	-86.642	-0.076	0.023
-547.325	237.444	-0.048	-0.080
-546.310	-85.646	-0.257	-0.079
-545.296	-134.589	0.249	-0.030
-544.281	-17.724	0.301	-0.188
-543.266	800.000	0.054	-0.228
-542.252	-200.000	0.026	-0.413
-541.237	402.096	-0.050	0.106
-540.223	279.546	-0.111	0.198
-539.208	-200.000	-0.037	0.258
-538.193	800.000	0.142	0.391
-537.179	-109.187	0.275	-0.058
-536.164	-200.000	-0.057	0.324
-535.150	-98.049	-0.213	0.055
-534.135	23.714	0.205	-0.168
-533.121	-146.975	-0.225	0.019
-532.106	33.060	-0.224	-0.194
-531.091	771.674	-0.068	-0.183
-530.077	-111.651	-0.288	0.058
-529.062	137.483	-0.177	0.231
-528.048	115.923	-0.224	0.273
-527.033	-123.095	-0.074	0.012
-526.018	338.602	0.142	0.274
-525.004	-111.874	0.333	-0.067
-523.989	115.415	0.118	-0.143
-522.975	-52.966	-0.339	0.155
-521.960	442.316	0.176	0.384
-520.945	800.000	0.091	0.319
-519.931	291.902	0.124	-0.224
-518.916	-95.244	0.423	-0.114
-517.902	-103.978	-0.325	0.075
-516.887	73.812	0.163	0.170
-515.872	-69.593	-0.065	-0.025
-514.858	-41.346	0.105	-0.054
-513.843	800.000	-0.079	-0.258
-512.829	239.587	0.054	0.090
-511.814	800.000	-0.062	0.193
-510.799	125.314	-0.089	0.112
-509.785	214.730	-0.214	0.337
-508.770	-49.288	-0.142	0.067
-507.756	77.379	-0.054	0.058
-506.741	54.241	-0.228	0.218
-505.726	-200.000	0.029	-0.410
-504.712	620.492	-0.065	-0.162
-503.697	-48.316	-0.092	0.044
-502.683	-76.135	0.228	0.080
-501.668	800.000	0.058	-0.251
-500.653	-114.139	-0.099	-0.019
-499.639	-137.962	-0.084	-0.009
-498.624	107.355	0.220	0.260
-497.610	44.289	0.120	0.110
-496.595	633.150	-0.136	0.342
-495.581	-109.845	0.315	0.066
-494.566	104.196	0.195	-0.228
-493.551	-200.000	0.035	0.227
-492.537	-27.557	0.100	-0.058
-491.522	720.715	-0.114	0.300
-490.508	-128.305	0.212	0.030
-489.493	97.894	0.058	0.066
-488.478	800.000	0.057	0.199
-487.464	-118.487	0.184	-0.032
-486.449	120.184	0.161	-0.199
-485.435	-56.243	0.037	-0.016
-484.420	-167.756	-0.107	-0.004
-483.405	197.794	-0.171	-0.260
-482.391	205.028	-0.177	0.273
-481.376	-200.000	-0.007	-0.274
-480.362	241.736	0.083	-0.138
-479.347	-200.000	0.013	0.123
-478.332	-47.421	0.114	0.055
-477.318	-176.248	0.167	0.004
-476.303	91.061	0.124	0.138
-475.289	-58.989	-0.341	-0.147
-474.274	-39.132	0.211	0.110
-473.259	121.626	-0.194	0.240
-472.245	45.995	-0.132	-0.121
-471.230	-124.734	0.108	0.017
-470.216	-200.000	0.062	-0.507
-469.201	220.802	-0.239	0.381
-468.186	-50.537	-0.432	-0.202
-467.172	-47.497	0.221	0.107
-466.157	-97.317	-0.098	0.025
-465.143	-200.000	-0.017	-0.075
-464.128	155.034	-0.140	0.191
-463.113	-200.000	0.026	0.274
-462.099	800.000	-0.055	-0.151
-461.084	45.686	0.127	-0.116
-460.070	-78.454	0.216	0.073
-459.055	545.493	-0.121	0.287
-458.040	197.246	-0.166	0.252
-457.026	-200.000	-0.017	0.182
-456.011	-49.252	-0.092	0.043
-454.997	-27.830	0.128	0.074
-453.982	-200.000	-0.021	0.145
-452.968	800.000	0.020	0.080
-451.953	-130.959	-0.504	0.067
-450.938	102.622	-0.212	-0.246
-449.924	-200.000	-0.025	-0.141
-448.909	-200.000	-0.022	0.242
-447.895	-144.914	0.381	0.035
-446.880	336.284	0.127	0.244
-445.865	-193.561	-0.376	0.003
-444.851	66.628	0.177	0.179
-443.836	40.007	0.292	0.260
-442.822	170.282	-0.064	0.091
-441.807	-200.000	-0.004	0.023
-440.792	-132.624	0.162	0.021
-439.778	41.800	-0.074	0.067
-438.763	-25.833	0.195	-0.114
-437.749	192.439	-0.082	-0.122
-436.734	-23.399	-0.214	-0.128
-435.719	-89.963	-0.105	0.031
-434.705	-71.896	-0.029	0.011
-433.690	-149.412	-0.161	0.013
-432.676	-200.000	-0.049	-0.340
-431.661	800.000	-0.044	-0.151
-430.646	-200.000	0.031	0.182
-429.632	-200.000	-0.014	-0.099
-428.617	554.275	-0.088	0.210
-427.603	-118.922	0.049	-0.009
-426.588	213.333	-0.179	0.281
-425.573	800.000	-0.091	-0.250
-424.559	57.935	-0.106	-0.103
-423.544	56.099	-0.330	0.317
-422.530	-115.993	-0.177	0.033
-421.515	82.847	-0.152	-0.164
-420.500	-68.441	-0.058	0.022
-419.486	-14.813	-0.141	-0.090
-418.471	-23.016	0.048	0.029
-417.457	-60.290	-0.153	0.065
-416.442	680.120	0.050	-0.128
-415.428	-186.039	0.301	0.004
-414.413	321.422	0.204	-0.385
-413.398	-136.620	-0.305	0.035
-412.384	347.275	-0.087	0.171
-411.369	-200.000	-0.040	-0.291
-410.355	203.050	0.055	-0.084
-409.340	-67.324	0.293	0.114
-408.325	-95.252	-0.154	0.041
-407.311	-120.961	0.165	0.027
-406.296	-200.000	-0.092	-0.403
-405.282	-200.000	-0.024	0.111
-404.267	-94.384	0.265	0.072
-403.252	-200.000	-0.046	-0.346
-402.238	-114.076	0.354	0.068
-401.223	-19.093	0.326	0.201
-400.209	-76.736	0.321	0.111
-399.194	-30.715	0.080	-0.045
-398.179	646.107	-0.123	-0.312
-397.165	-140.383	0.180	0.019
-396.150	-104.930	-0.408	-0.093
-395.136	118.821	-0.040	0.049
-394.121	274.409	-0.172	-0.302
-393.106	158.870	-0.153	-0.211
-392.092	-74.198	0.285	0.102
-391.077	-44.974	-0.300	-0.148
-390.063	-120.599	-0.247	-0.041
-389.048	-145.485	0.159	0.014
-388.033	-42.765	0.142	-0.071
-387.019	800.000	-0.020	0.085
-386.004	6.705	0.206	0.151
-384.990	-146.124	-0.363	0.032
-383.975	-140.904	0.189	-0.019
-382.960	237.120	-0.150	-0.247
-381.946	-22.101	-0.184	0.111
-380.931	-38.864	0.257	-0.134
-379.917	800.000	0.035	0.133
-378.902	800.000	-0.086	0.241
-377.888	57.026	0.033	0.032
-376.873	20.655	-0.130	-0.104
-375.858	32.794	-0.027	-0.023
-374.844	300.809	0.161	-0.293
-373.829	-94.598	0.023	0.006
-372.815	-18.668	-0.049	0.030
-371.800	-200.000	0.014	0.164
-370.785	11.543	0.059	-0.045
-369.771	-200.000	-0.032	-0.174
-368.756	207.953	-0.102	0.157
-367.742	-96.122	0.156	0.041
-366.727	247.303	-0.056	-0.093
-365.712	283.064	-0.213	-0.378
-364.698	-148.243	0.267	-0.022
-363.683	347.088	-0.109	0.212
-362.669	-200.000	-0.062	-0.296
-361.654	-47.161	0.123	-0.060
-360.639	-200.000	0.001	-0.029
-359.625	800.000	-0.026	-0.073
-358.610	-144.585	-0.235	0.021
-357.596	-200.000	0.054	0.282
-356.581	408.669	-0.142	-0.297
-355.566	-117.158	0.227	0.041
-354.552	-200.000	0.053	-0.320
-353.537	-21.938	-0.281	-0.169
-352.523	800.000	0.167	0.511
-351.508	-42.946	0.507	0.255
-350.493	124.071	0.086	-0.106
-349.479	-55.161	0.112	-0.050
-348.464	360.845	0.064	0.126
-347.450	41.131	-0.199	-0.178
-346.435	-83.012	-0.069	-0.022
-345.420	-78.551	-0.181	0.061
-344.406	-167.261	-0.370	-0.015
-343.391	194.066	0.075	-0.112
-342.377	-121.226	0.079	0.013
-341.362	-124.328	-0.223	-0.034
-340.348	-150.703	0.080	0.006
-339.333	-200.000	-0.029	0.463
-338.318	800.000	-0.084	-0.292
-337.304	24.610	-0.159	0.130
-336.289	-129.399	-0.261	0.036
-335.275	122.160	-0.115	-0.143
-334.260	79.322	0.232	-0.245
-333.245	41.489	-0.126	-0.113
-332.231	-117.295	-0.112	0.020
-331.216	-29.727	0.052	0.029
-330.202	155.898	-0.174	-0.237
-329.187	-200.000	0.024	-0.220
-328.172	-200.000	0.021	0.226
-327.158	-200.000	0.003	-0.333
-326.143	67.843	-0.052	-0.053
-325.129	-79.413	-0.179	0.060
-324.114	-110.837	0.173	-0.035
-323.099	800.000	-0.155	0.458
-322.085	-86.851	-0.173	-0.052
-321.070	-28.710	0.333	-0.189
-320.056	-142.617	-0.087	-0.008
-319.041	25.758	0.227	0.187
-318.026	-141.803	0.149	-0.015
-317.012	-200.000	-0.015	-0.391
-315.997	-60.505	-0.171	0.072
-314.983	-48.358	0.155	-0.074
-313.968	-200.000	0.001	-0.140
-312.953	-64.355	-0.037	-0.015
-311.939	-108.420	0.458	0.097
-310.924	35.011	-0.184	-0.159
-309.910	226.087	0.130	-0.207
-308.895	-192.606	0.436	-0.004
-307.880	725.601	-0.071	-0.186
-306.866	-200.000	0.026	-0.144
-305.851	-91.012	-0.079	-0.022
-304.837	4.987	-0.201	-0.146
-303.822	-85.351	-0.243	0.075
-302.807	-96.236	0.309	-0.081
-301.793	41.945	0.165	-0.148
-300.778	-38.629	-0.153	0.080
-299.764	-36.591	0.478	0.253
-298.749	29.131	-0.189	0.158
-297.735	-200.000	-0.013	-0.068
-296.720	195.387	-0.164	0.246
-295.705	140.242	0.106	0.138
-294.691	-96.800	0.373	0.097
-293.676	253.282	0.072	-0.122
-292.662	38.081	0.217	-0.191
-291.647	131.643	0.175	0.222
-290.632	-200.000	0.005	-0.473
-289.618	287.175	-0.054	-0.096
-288.603	11.884	-0.149	0.113
-287.589	100.822	-0.175	-0.201
-286.574	-60.394	-0.237	-0.099
-285.559	-154.878	-0.353	0.023
-284.545	-200.000	0.064	0.330
-283.530	-200.000	0.080	0.382
-282.516	44.443	0.174	0.158
-281.501	-106.216	0.158	0.035
-280.486	135.793	0.238	-0.305
-279.472	-22.283	0.152	0.091
-278.457	-99.086	0.335	-0.084
-277.443	43.991	0.174	0.158
-276.428	55.427	0.180	0.172
-275.413	51.113	-0.236	0.221
-274.399	255.349	-0.089	-0.150
-273.384	-68.904	0.270	0.103
-272.370	115.111	0.196	-0.236
-271.355	-133.211	-0.223	-0.028
-270.340	-200.000	0.011	-0.054
-269.326	88.410	0.013	-0.014
-268.311	800.000	-0.039	-0.123
-267.297	-10.589	0.189	-0.123
-266.282	-68.257	0.218	0.083
-265.267	80.929	-0.185	-0.196
-264.253	800.000	0.102	-0.345
-263.238	-49.582	0.206	0.097
-262.224	-145.432	0.130	-0.012
-261.209	-169.307	0.125	0.005
-260.195	-200.000	-0.028	-0.210
-259.180	270.558	-0.135	0.234
-258.165	800.000	-0.059	0.201
-257.151	-200.000	-0.013	-0.091
-256.136	-200.000	0.001	0.412
-255.122	184.822	-0.107	0.156
-254.107	12.173	-0.198	0.150
-253.092	44.010	-0.155	0.140
-252.078	-200.000	0.010	-0.052
-251.063	-122.186	0.279	-0.045
-250.049	74.489	0.139	0.144
-249.034	243.972	-0.091	-0.150
-248.019	-9.601	0.095	0.062
-247.005	-52.731	-0.105	-0.048
-245.990	41.038	0.312	0.277
-244.976	-99.492	-0.332	0.082
-243.961	20.779	-0.107	0.086
-242.946	60.595	0.279	0.272
-241.932	-123.751	-0.135	0.021
-240.917	-200.000	-0.050	0.235
-239.903	-86.672	0.165	-0.050
-238.888	-165.098	-0.029	0.001
-237.873	-104.125	-0.370	-0.085
-236.859	-200.000	-0.004	0.252
-235.844	115.687	-0.054	-0.065
-234.830	768.890	-0.077	-0.207
-233.815	-56.477	0.186	0.081
-232.800	800.000	-0.040	0.115
-231.786	-39.704	0.225	0.116
-230.771	-142.010	-0.357	-0.035
-229.757	73.956	0.072	-0.075
-228.742	248.399	-0.045	-0.075
-227.727	5.394	-0.219	0.159
-226.713	127.562	0.113	-0.142
-225.698	800.000	0.096	-0.296
-224.684	12.946	-0.168	-0.128
-223.669	138.549	-0.222	-0.287
-222.655	711.250	0.024	-0.063
-221.640	85.852	0.274	0.296
-220.625	-200.000	0.008	0.350
-219.611	679.383	0.061	0.155
-218.596	254.024	0.120	-0.201
-217.582	-67.533	-0.027	-0.010
-216.567	-200.000	0.010	0.109
-215.552	-140.908	-0.166	0.017
-214.538	276.020	0.104	-0.181
-213.523	33.013	-0.086	-0.074
-212.509	300.889	-0.134	0.243
-211.494	-200.000	-0.111	-0.620
-210.479	-9.163	-0.319	-0.210
-209.465	-91.862	0.165	0.046
-208.450	-114.137	0.100	0.019
-207.436	-130.308	-0.373	-0.050
-206.421	-11.364	0.125	0.081
-205.406	800.000	-0.021	0.058
-204.392	192.529	0.084	-0.124
-203.377	74.027	0.098	-0.101
-202.363	-117.330	0.210	0.037
-201.348	178.030	-0.177	-0.254
-200.333	-65.250	-0.209	0.083
-199.319	-200.000	-0.035	0.154
-198.304	31.132	0.188	-0.158
-197.290	208.012	-0.216	0.332
-196.275	125.048	-0.048	-0.060
-195.260	-149.152	0.183	0.014
-194.246	800.000	-0.082	-0.294
-193.231	-200.000	-0.050	-0.434
-192.217	-138.208	0.518	0.056
-191.202	59.129	-0.126	-0.122
-190.187	-200.000	-0.000	-0.105
-189.173	316.243	0.088	-0.164
-188.158	-123.580	-0.293	-0.046
-187.144	-11.312	-0.060	0.039
-186.129	-200.000	0.027	0.332
-185.114	64.807	0.219	0.217
-184.100	134.888	0.053	0.067
-183.085	-140.217	0.271	0.028
-182.071	-200.000	-0.014	-0.069
-181.056	800.000	0.055	0.221
-180.042	-200.000	0.003	-0.028
-179.027	154.311	-0.041	-0.055
-178.012	-200.000	0.007	0.075
-176.998	-200.000	-0.025	0.293
-175.983	123.248	0.091	0.111
-174.969	73.418	0.247	0.254
-173.954	26.061	-0.193	0.158
-172.939	-69.077	0.300	0.113
-171.925	-200.000	0.075	-0.379
-170.910	85.821	0.149	0.161
-169.896	-32.960	-0.416	-0.227
-168.881	-21.374	0.144	-0.086
-167.866	26.507	0.246	0.202
-166.852	354.579	0.067	0.130
-165.837	-200.000	-0.003	-0.325
-164.823	-148.861	-0.318	0.025
-163.808	-200.000	-0.032	0.588
-162.793	-15.989	0.177	0.111
-161.779	800.000	0.125	0.368
-160.764	189.637	0.114	-0.168
-159.750	59.085	0.148	0.143
-158.735	-20.720	0.039	0.023
-157.720	152.594	0.245	0.329
-156.706	800.000	-0.083	-0.311
-155.691	-164.262	0.334	-0.015
-154.677	0.661	0.260	0.183
-153.662	-20.572	-0.318	0.192
-152.647	800.000	-0.082	0.272
-151.633	-31.489	-0.048	0.026
-150.618	-50.129	0.281	-0.131
-149.604	108.798	0.241	-0.282
-148.589	-107.717	-0.236	-0.051
-147.574	-87.479	0.417	0.124
-146.560	-200.000	-0.030	0.261
-145.545	-200.000	-0.037	-0.185
-144.531	108.819	0.104	-0.122
-143.516	13.239	0.138	0.105
-142.502	361.039	-0.101	-0.199
-141.487	-200.000	-0.040	0.210
-140.472	-43.687	-0.186	0.092
-139.458	110.047	0.089	-0.105
-138.443	800.000	0.084	0.304
-137.429	16.558	0.265	-0.205
-136.414	597.737	0.165	0.401
-135.399	-200.000	-0.046	0.267
-134.385	-48.948	-0.187	-0.088
-133.370	-74.853	0.190	0.067
-132.356	800.000	-0.059	0.243
-131.341	101.256	0.127	-0.145
-130.326	-14.370	-0.210	-0.132
-129.312	-85.816	0.101	0.031
-128.297	571.571	0.151	0.359
-127.283	-88.610	-0.178	0.052
-126.268	-127.295	0.215	0.031
-125.253	-130.588	-0.254	0.034
-124.239	800.000	-0.085	0.256
-123.224	65.231	-0.009	-0.009
-122.210	800.000	0.164	-0.477
