DTS Sentinel unit serial number:	SN413079Multiplexer serial number:	ORYXHardware model number:	OX4-SRSoftware version number:	ORYX F/W v4.00 Oryx Data Collector v3.7.2.0data status	okinstallation	princeton_trtdifferential loss correction	single-endedforward channel	channel 1reverse channel	N/Adate	2019/09/14time	14:02:35forward acquisition time	60.00reverse acquisition time	0.00gamma	496.2192k internal	0.2293k external	0.2293temperature offset calibration	1.0074default loss term (dB/km)	0.3790temperature slope calibration	1.0000multiplexer offset coefficient	1.0000multiplexer slope coefficient	1.0000fibre end	0.00T internal ref (°C)	38.06T ext. ref 1 (°C)	4.97T ext. ref 2 (°C)	36.94length (m)	temperature (°C)	Stokes	anti-Stokes-747.200	800.000	0.105	0.379
-746.185	-44.036	-0.304	-0.156
-745.171	-160.315	-0.233	-0.013
-744.156	94.666	-0.198	0.230
-743.142	467.299	0.114	0.261
-742.127	326.044	-0.099	0.195
-741.112	-200.000	-0.011	-0.083
-740.098	-153.772	-0.279	0.020
-739.083	106.394	-0.261	0.317
-738.069	-3.738	-0.181	-0.128
-737.054	-80.757	0.246	-0.083
-736.039	-105.912	0.230	-0.053
-735.025	-200.000	0.014	0.150
-734.010	-30.617	-0.112	0.065
-732.996	-20.618	-0.221	-0.139
-731.981	-144.174	-0.332	-0.032
-730.966	800.000	-0.024	0.089
-729.952	112.065	-0.177	0.218
-728.937	185.223	-0.069	0.105
-727.923	-134.955	-0.264	0.033
-726.908	-200.000	0.026	0.212
-725.894	2.001	-0.291	-0.215
-724.879	-37.587	-0.221	0.120
-723.864	800.000	-0.019	0.069
-722.850	-124.648	0.074	0.012
-721.835	-133.543	-0.141	-0.018
-720.821	404.702	-0.084	-0.181
-719.806	-49.325	0.120	-0.059
-718.791	800.000	-0.135	-0.384
-717.777	800.000	0.091	0.274
-716.762	453.776	-0.007	0.017
-715.748	215.991	-0.129	-0.210
-714.733	135.941	-0.053	0.070
-713.718	453.610	-0.118	0.268
-712.704	-38.713	0.507	0.273
-711.689	800.000	0.013	-0.059
-710.675	800.000	-0.036	-0.122
-709.660	800.000	0.095	-0.269
-708.645	-200.000	0.328	-0.000
-707.631	302.517	-0.081	0.154
-706.616	24.920	-0.200	0.169
-705.602	151.383	0.164	-0.228
-704.587	-8.855	0.216	0.148
-703.572	492.017	-0.065	-0.152
-702.558	-152.140	-0.103	-0.008
-701.543	282.376	0.064	-0.117
-700.529	141.361	0.091	0.124
-699.514	400.130	0.099	-0.213
-698.499	-138.902	-0.301	-0.033
-697.485	-79.194	0.111	0.038
-696.470	800.000	-0.057	-0.163
-695.456	-200.000	0.008	-0.509
-694.441	-102.134	0.307	0.075
-693.426	73.916	-0.160	-0.171
-692.412	281.736	0.119	-0.217
-691.397	575.554	-0.112	-0.278
-690.383	56.744	0.135	-0.134
-689.368	43.073	-0.168	-0.156
-688.354	74.950	-0.091	-0.098
-687.339	800.000	0.097	0.297
-686.324	48.617	0.118	-0.113
-685.310	142.579	-0.073	-0.099
-684.295	30.901	0.148	0.130
-683.281	-200.000	0.025	-0.298
-682.266	800.000	-0.029	0.119
-681.251	-200.000	-0.040	-0.457
-680.237	137.724	0.171	0.229
-679.222	-53.666	0.164	-0.076
-678.208	156.963	0.104	-0.147
-677.193	416.178	-0.087	-0.188
-676.178	800.000	-0.115	-0.398
-675.164	84.601	0.125	0.140
-674.149	-200.000	0.000	0.011
-673.135	18.254	-0.171	0.140
-672.120	37.932	-0.146	-0.133
-671.105	-48.649	-0.148	0.073
-670.091	-95.099	-0.244	0.067
-669.076	127.922	-0.175	-0.226
-668.062	-132.634	-0.053	-0.007
-667.047	-200.000	-0.043	-0.239
-666.032	145.637	-0.010	0.014
-665.018	359.570	-0.052	-0.107
-664.003	449.623	-0.025	0.056
-662.989	-64.182	-0.225	-0.094
-661.974	395.150	-0.059	-0.125
-660.959	800.000	-0.051	0.177
-659.945	800.000	0.092	0.309
-658.930	86.425	0.128	-0.144
-657.916	-108.448	0.163	0.036
-656.901	-36.215	0.117	-0.065
-655.886	-200.000	0.036	-0.373
-654.872	-144.351	-0.330	-0.031
-653.857	129.655	-0.109	-0.142
-652.843	-115.649	-0.152	0.029
-651.828	10.951	0.274	-0.213
-650.814	-170.983	-0.154	0.005
-649.799	103.314	0.179	0.214
-648.784	23.693	0.086	0.072
-647.770	642.616	0.043	0.112
-646.755	800.000	0.083	-0.340
-645.741	-2.172	-0.270	0.193
-644.726	-200.000	-0.012	-0.217
-643.711	603.737	-0.069	0.174
-642.697	-200.000	0.009	0.251
-641.682	-200.000	0.081	-0.471
-640.668	8.105	-0.298	-0.228
-639.653	27.358	0.206	0.176
-638.638	800.000	0.053	-0.215
-637.624	-96.700	-0.243	0.065
-636.609	-58.680	0.074	-0.033
-635.595	-137.214	0.309	-0.036
-634.580	-55.155	0.101	0.046
-633.565	800.000	0.080	0.260
-632.551	-102.553	0.316	-0.077
-631.536	173.045	-0.122	-0.178
-630.522	-88.882	-0.297	-0.090
-629.507	-57.491	0.105	0.047
-628.492	364.869	0.102	-0.210
-627.478	-200.000	-0.006	-0.309
-626.463	-52.581	0.127	-0.060
-625.449	710.914	0.106	-0.285
-624.434	730.166	-0.073	0.199
-623.419	101.330	-0.176	0.209
-622.405	323.400	0.144	-0.279
-621.390	-2.072	0.274	0.196
-620.376	800.000	-0.003	-0.011
-619.361	-51.867	-0.171	-0.081
-618.346	144.069	0.329	-0.447
-617.332	118.116	-0.121	0.151
-616.317	39.182	0.079	0.072
-615.303	22.164	-0.101	-0.084
-614.288	66.944	-0.127	0.132
-613.273	533.938	-0.061	-0.146
-612.259	-200.000	-0.002	-0.079
-611.244	-124.732	0.107	0.017
-610.230	-111.622	-0.290	-0.060
-609.215	-111.313	-0.070	0.015
-608.201	-29.158	0.159	-0.093
-607.186	38.456	0.104	-0.095
-606.171	-156.201	-0.273	-0.018
-605.157	-200.000	-0.046	0.214
-604.142	38.546	0.121	0.110
-603.128	-200.000	0.003	-0.171
-602.113	-146.150	-0.303	0.027
-601.098	800.000	0.081	0.254
-600.084	189.927	-0.108	-0.164
-599.069	462.246	-0.140	-0.317
-598.055	-71.498	-0.343	0.131
-597.040	-200.000	0.004	0.162
-596.025	-65.434	-0.192	-0.078
-595.011	126.506	-0.221	0.285
-593.996	150.231	-0.021	0.029
-592.982	524.168	-0.105	-0.251
-591.967	71.599	-0.243	0.257
-590.952	-200.000	-0.032	0.155
-589.938	61.101	0.112	0.114
-588.923	-81.514	0.235	-0.079
-587.909	169.098	-0.121	-0.176
-586.894	-43.706	0.126	-0.064
-585.879	69.164	0.060	-0.063
-584.865	-72.814	-0.105	0.039
-583.850	29.860	0.134	-0.116
-582.836	-64.082	0.423	0.176
-581.821	-200.000	-0.018	-0.109
-580.806	-118.675	0.114	0.020
-579.792	-152.543	0.320	-0.023
-578.777	-200.000	-0.009	0.272
-577.763	58.375	0.079	-0.079
-576.748	8.361	-0.216	0.165
-575.733	-200.000	0.008	-0.136
-574.719	72.113	-0.128	-0.136
-573.704	-20.942	0.054	0.034
-572.690	-183.657	-0.209	0.004
-571.675	800.000	0.068	-0.195
-570.661	-200.000	-0.039	0.210
-569.646	-5.161	-0.045	0.031
-568.631	653.962	0.077	-0.202
-567.617	-96.463	-0.210	0.056
-566.602	-37.876	-0.317	0.171
-565.588	263.593	0.169	-0.298
-564.573	-105.372	-0.396	0.092
-563.558	63.369	0.050	0.051
-562.544	-200.000	0.018	0.209
-561.529	800.000	0.087	-0.264
-560.515	147.604	-0.047	-0.065
-559.500	380.330	0.070	-0.145
-558.485	692.652	0.087	-0.232
-557.471	264.491	0.131	0.231
-556.456	205.008	-0.103	0.163
-555.442	31.269	0.334	0.291
-554.427	800.000	-0.109	0.320
-553.412	20.166	-0.074	0.061
-552.398	800.000	-0.034	0.097
-551.383	-86.928	-0.144	-0.045
-550.369	-76.659	-0.259	-0.092
-549.354	800.000	-0.032	-0.096
-548.339	540.649	-0.061	-0.149
-547.325	-25.339	-0.224	-0.134
-546.310	-72.449	0.239	0.090
-545.296	-90.839	0.087	0.025
-544.281	-200.000	-0.029	-0.186
-543.266	-80.824	-0.262	0.088
-542.252	-129.424	-0.221	-0.031
-541.237	55.437	-0.324	0.318
-540.223	68.181	0.134	-0.140
-539.208	468.097	0.067	0.152
-538.193	542.244	0.156	-0.377
-537.179	-97.545	0.146	-0.039
-536.164	-200.000	-0.012	0.068
-535.150	-3.912	0.241	0.169
-534.135	800.000	0.067	-0.191
-533.121	422.172	-0.133	0.291
-532.106	-106.535	0.313	0.071
-531.091	800.000	-0.025	-0.072
-530.077	693.749	0.083	-0.220
-529.062	-163.979	0.443	-0.021
-528.048	-13.468	0.090	-0.059
-527.033	30.542	-0.119	0.103
-526.018	572.111	-0.054	-0.134
-525.004	102.661	0.144	-0.171
-523.989	-163.465	0.091	0.004
-522.975	36.465	-0.078	-0.070
-521.960	-7.461	0.146	0.101
-520.945	800.000	-0.106	-0.301
-519.931	112.557	0.141	0.173
-518.916	-200.000	-0.037	-0.301
-517.902	156.794	0.305	-0.427
-516.887	348.045	-0.124	0.248
-515.872	314.500	-0.217	-0.414
-514.858	33.079	0.236	-0.207
-513.843	631.854	-0.080	-0.205
-512.829	68.752	-0.374	-0.389
-511.814	96.409	-0.075	0.087
-510.799	-156.402	0.258	-0.016
-509.785	88.564	-0.040	0.045
-508.770	-190.158	0.383	0.004
-507.756	-69.972	-0.357	-0.138
-506.741	-200.000	-0.016	0.093
-505.726	-200.000	-0.003	0.206
-504.712	131.020	0.231	0.300
-503.697	-200.000	0.030	0.331
-502.683	60.892	-0.153	0.154
-501.668	546.375	-0.199	0.481
-500.653	-200.000	-0.003	0.697
-499.639	-50.299	-0.412	-0.197
-498.624	-200.000	-0.002	-0.083
-497.610	63.995	0.059	-0.061
-496.595	-200.000	0.004	-0.196
-495.581	-63.928	0.267	-0.110
-494.566	-90.283	0.073	0.022
-493.551	11.237	-0.199	0.155
-492.537	-51.468	-0.160	0.076
-491.522	375.861	-0.130	-0.268
-490.508	49.870	0.214	0.205
-489.493	236.696	-0.148	-0.249
-488.478	800.000	0.016	-0.062
-487.464	76.385	0.229	0.245
-486.449	-200.000	-0.033	0.321
-485.435	214.446	0.125	0.201
-484.420	-87.608	-0.310	-0.095
-483.405	-200.000	0.029	-0.161
-482.391	-111.153	-0.210	0.044
-481.376	-1.738	-0.062	-0.044
-480.362	-77.348	-0.153	-0.054
-479.347	153.987	-0.061	0.085
-478.332	-200.000	0.007	-0.161
-477.318	-200.000	0.020	-0.155
-476.303	59.300	-0.131	0.131
-475.289	33.628	0.213	-0.188
-474.274	-200.000	-0.050	-0.431
-473.259	-16.068	-0.058	-0.037
-472.245	488.230	-0.116	-0.269
-471.230	800.000	0.006	-0.023
-470.216	149.198	-0.032	0.043
-469.201	15.547	0.147	-0.117
-468.186	136.170	-0.113	-0.149
-467.172	317.478	-0.091	0.175
-466.157	-26.896	0.249	-0.147
-465.143	-200.000	-0.002	-0.058
-464.128	76.421	-0.143	-0.153
-463.113	211.740	0.145	-0.231
-462.099	-127.058	0.266	-0.039
-461.084	39.756	-0.209	0.190
-460.070	59.656	0.213	-0.213
-459.055	-109.816	0.235	0.050
-458.040	800.000	-0.016	0.064
-457.026	-24.219	-0.198	0.119
-456.011	55.235	-0.105	0.103
-454.997	202.037	-0.078	-0.122
-453.982	-33.701	0.274	0.153
-452.968	-91.423	0.206	0.060
-451.953	-84.314	0.119	-0.038
-450.938	229.225	0.137	0.226
-449.924	-200.000	-0.040	0.192
-448.909	-72.550	-0.218	-0.082
-447.895	-40.870	0.017	-0.009
-446.880	12.606	-0.180	-0.141
-445.865	800.000	0.105	0.365
-444.851	-2.938	0.170	0.120
-443.836	-142.884	0.360	-0.035
-442.822	-164.167	-0.443	-0.021
-441.807	800.000	-0.026	0.084
-440.792	536.174	0.060	-0.144
-439.778	102.702	-0.237	0.281
-438.763	-65.813	-0.236	0.095
-437.749	800.000	0.058	0.181
-436.734	216.057	0.078	-0.125
-435.719	800.000	-0.074	0.217
-434.705	-127.933	-0.247	0.036
-433.690	-33.692	-0.166	0.092
-432.676	24.130	-0.171	0.143
-431.661	634.716	-0.095	0.244
-430.646	-159.420	0.086	0.005
-429.632	111.298	0.125	-0.153
-428.617	60.488	0.153	0.153
-427.603	-31.643	0.169	-0.096
-426.588	-54.297	0.226	-0.104
-425.573	29.961	0.147	0.127
-424.559	-10.597	-0.095	0.064
-423.544	-47.440	0.406	0.200
-422.530	-49.104	0.293	-0.142
-421.515	800.000	-0.100	0.399
-420.500	-200.000	0.019	0.137
-419.486	-172.025	0.490	-0.016
-418.471	292.973	-0.217	-0.401
-417.457	79.995	-0.146	0.159
-416.442	-89.474	0.192	0.057
-415.428	7.132	-0.185	0.139
-414.413	-138.819	0.171	-0.019
-413.398	266.898	0.108	0.191
-412.384	286.569	-0.191	-0.348
-411.369	99.421	0.066	-0.077
-410.355	-110.102	0.191	-0.040
-409.340	800.000	-0.048	0.134
-408.325	-200.000	0.026	-0.188
-407.311	800.000	0.094	-0.301
-406.296	-31.588	0.115	-0.065
-405.282	-107.786	0.435	-0.096
-404.267	513.064	-0.030	-0.070
-403.252	640.246	-0.097	-0.249
-402.238	-200.000	-0.026	0.130
-401.223	580.410	-0.092	0.228
-400.209	-185.428	0.292	-0.005
-399.194	18.332	-0.270	-0.217
-398.179	312.644	0.081	0.154
-397.165	-117.357	0.205	0.038
-396.150	-200.000	-0.043	-0.395
-395.136	36.580	0.073	0.065
-394.121	800.000	0.071	-0.225
-393.106	303.103	-0.064	-0.121
-392.092	210.957	0.038	-0.060
-391.077	238.220	0.134	-0.225
-390.063	164.260	-0.099	0.141
-389.048	-200.000	0.058	0.272
-388.033	-200.000	-0.034	-0.327
-387.019	-164.077	0.022	0.001
-386.004	-48.588	0.293	0.142
-384.990	428.883	-0.099	0.216
-383.975	800.000	-0.077	0.295
-382.960	44.089	-0.114	-0.105
-381.946	-200.000	0.073	0.343
-380.931	29.003	0.068	0.058
-379.917	-72.704	-0.211	-0.079
-378.902	-102.714	0.049	0.012
-377.888	73.017	0.120	-0.127
-376.873	-200.000	0.083	-0.446
-375.858	-130.906	-0.051	-0.007
-374.844	-71.376	-0.025	-0.009
-373.829	800.000	0.038	-0.147
-372.815	800.000	-0.023	0.086
-371.800	-104.845	0.111	-0.026
-370.785	-166.025	-0.290	-0.012
-369.771	5.263	0.157	0.117
-368.756	-111.192	0.278	-0.057
-367.742	-63.829	-0.092	0.038
-366.727	375.870	-0.100	-0.206
-365.712	166.891	0.119	0.170
-364.698	334.559	0.094	-0.183
-363.683	800.000	0.064	-0.195
-362.669	78.681	-0.104	0.112
-361.654	-176.176	0.317	-0.008
-360.639	142.175	0.215	0.287
-359.625	-91.738	-0.158	-0.045
-358.610	-70.819	-0.104	-0.040
-357.596	-117.207	-0.259	-0.047
-356.581	347.813	-0.124	-0.247
-355.566	-200.000	0.049	-0.257
-354.552	34.823	0.300	0.264
-353.537	-33.707	0.180	0.100
-352.523	-182.685	0.122	-0.002
-351.508	-33.438	0.184	0.102
-350.493	48.916	-0.184	0.174
-349.479	-49.551	0.216	0.104
-348.464	127.138	-0.197	-0.252
-347.450	172.218	0.049	-0.070
-346.435	264.247	0.141	0.248
-345.420	-103.864	0.226	-0.053
-344.406	-146.322	-0.330	0.029
-343.391	54.551	0.226	-0.219
-342.377	261.446	-0.066	0.115
-341.362	800.000	0.061	0.236
-340.348	-200.000	-0.030	-0.514
-339.333	-150.912	-0.256	-0.020
-338.318	-123.851	-0.312	-0.050
-337.304	-74.294	0.215	-0.078
-336.289	-59.095	-0.050	-0.022
-335.275	-200.000	0.002	-0.016
-334.260	-200.000	-0.052	0.451
-333.245	-116.348	0.022	0.004
-332.231	-188.187	-0.266	0.003
-331.216	-200.000	0.032	0.279
-330.202	-38.349	0.113	0.060
-329.187	-185.823	-0.252	0.004
-328.172	-200.000	0.049	0.276
-327.158	84.274	-0.051	0.056
-326.143	-200.000	0.040	0.456
-325.129	-3.818	0.180	-0.126
-324.114	42.953	0.055	0.051
-323.099	68.624	0.049	0.051
-322.085	-105.600	-0.265	-0.061
-321.070	-200.000	0.015	0.345
-320.056	-200.000	-0.001	-0.022
-319.041	-60.039	-0.140	0.060
-318.026	316.049	0.100	-0.191
-317.012	-45.239	-0.079	-0.040
-315.997	436.345	-0.110	0.241
-314.983	-103.174	-0.216	-0.051
-313.968	-140.849	-0.064	-0.007
-312.953	-200.000	0.004	0.359
-311.939	800.000	0.086	-0.278
-310.924	-117.817	0.111	-0.020
-309.910	110.092	0.156	0.189
-308.895	800.000	-0.010	-0.035
-307.880	-200.000	-0.010	-0.196
-306.866	98.379	-0.176	0.204
-305.851	-88.414	-0.038	-0.011
-304.837	327.466	0.034	-0.065
-303.822	-200.000	-0.063	-0.409
-302.807	-200.000	0.022	0.187
-301.793	-200.000	-0.014	-0.124
-300.778	213.584	0.078	-0.124
-299.764	-68.402	0.158	0.062
-298.749	-120.325	-0.212	0.036
-297.735	88.060	0.104	0.115
-296.720	800.000	-0.062	0.191
-295.705	138.135	0.014	0.019
-294.691	-27.976	-0.325	0.189
-293.676	5.085	-0.096	-0.071
-292.662	-200.000	-0.077	0.368
-291.647	502.794	0.005	0.013
-290.632	-200.000	-0.020	0.176
-289.618	253.608	-0.039	0.067
-288.603	-200.000	-0.050	-0.343
-287.589	-200.000	-0.004	0.127
-286.574	73.514	-0.143	0.150
-285.559	-58.889	-0.260	0.113
-284.545	800.000	0.033	-0.120
-283.530	-19.822	0.156	0.097
-282.516	298.486	-0.161	-0.298
-281.501	-200.000	-0.005	0.089
-280.486	188.710	-0.220	-0.330
-279.472	800.000	0.031	0.124
-278.457	-20.949	0.116	0.071
-277.443	557.040	0.074	-0.178
-276.428	32.734	0.281	-0.244
-275.413	188.811	0.130	0.196
-274.399	-139.493	-0.078	0.008
-273.384	-168.244	-0.176	-0.007
-272.370	-200.000	-0.056	-0.258
-271.355	8.842	0.207	0.156
-270.340	143.271	-0.233	-0.312
-269.326	-69.880	0.076	0.029
-268.311	-114.072	0.206	-0.040
-267.297	-9.068	0.081	-0.054
-266.282	-63.545	-0.366	-0.151
-265.267	-53.396	0.231	0.106
-264.253	616.817	0.084	-0.211
-263.238	397.167	-0.070	-0.146
-262.224	78.204	0.165	-0.177
-261.209	-3.810	-0.215	-0.150
-260.195	96.383	-0.115	0.132
-259.180	-197.165	-0.463	0.003
-258.165	-174.875	0.129	0.004
-257.151	-46.337	0.253	0.125
-256.136	800.000	-0.044	0.157
-255.122	75.518	-0.101	-0.107
-254.107	114.458	0.226	0.276
-253.092	179.702	0.129	0.189
-252.078	561.153	-0.037	0.090
-251.063	-68.397	-0.390	0.152
-250.049	-80.499	0.145	0.049
-249.034	-85.144	0.226	-0.071
-248.019	452.418	0.057	-0.126
-247.005	131.222	0.073	0.094
-245.990	22.867	-0.182	-0.150
-244.976	-64.333	0.184	-0.075
-243.961	94.745	-0.061	-0.070
-242.946	159.498	-0.015	-0.021
-241.932	-55.619	0.090	0.040
-240.917	50.186	0.131	0.125
-239.903	-15.254	0.177	0.114
-238.888	-200.000	0.030	-0.199
-237.873	181.908	0.053	0.078
-236.859	-200.000	-0.034	0.163
-235.844	106.020	-0.077	-0.091
-234.830	267.249	0.025	-0.044
-233.815	94.925	-0.151	0.172
-232.800	2.016	0.202	-0.146
-231.786	-200.000	0.062	-0.301
-230.771	-98.670	0.146	0.037
-229.757	-33.193	-0.179	-0.099
-228.742	-168.730	-0.454	-0.017
-227.727	-200.000	-0.005	-0.408
-226.713	60.410	-0.166	0.165
-225.698	-200.000	-0.030	-0.319
-224.684	72.984	-0.192	-0.202
-223.669	800.000	-0.047	0.132
-222.655	45.738	0.147	-0.136
-221.640	-122.931	-0.088	-0.014
-220.625	-200.000	-0.008	0.070
-219.611	-56.653	-0.024	0.011
-218.596	312.839	-0.162	-0.306
-217.582	-46.602	0.084	0.041
-216.567	-200.000	-0.024	0.262
-215.552	800.000	-0.086	0.254
-214.538	-158.525	-0.251	-0.015
-213.523	99.547	0.120	-0.140
-212.509	-85.262	0.040	-0.013
-211.494	366.644	-0.159	0.322
-210.479	-14.748	-0.040	-0.026
-209.465	62.986	-0.064	0.064
-208.450	445.391	-0.098	-0.217
-207.436	-200.000	0.005	-0.081
-206.421	-30.184	-0.094	-0.053
-205.406	800.000	-0.074	0.208
-204.392	576.644	-0.017	-0.042
-203.377	-200.000	-0.032	-0.215
-202.363	-118.451	-0.274	-0.049
-201.348	-200.000	-0.011	0.170
-200.333	-83.623	0.099	-0.032
-199.319	-43.344	0.175	0.089
-198.304	-183.915	0.141	0.002
-197.290	177.858	0.155	-0.226
-196.275	200.561	0.044	-0.068
-195.260	79.074	0.124	0.133
-194.246	63.099	0.358	0.359
-193.231	-121.874	-0.076	0.013
-192.217	-112.049	-0.176	0.035
-191.202	68.773	0.185	-0.190
-190.187	-141.376	0.118	-0.012
-189.173	-138.333	0.299	-0.033
-188.158	-63.389	-0.271	-0.111
-187.144	-160.814	-0.352	-0.019
-186.129	332.816	-0.137	-0.265
-185.114	-53.897	0.080	-0.036
-184.100	-67.259	-0.111	-0.044
-183.085	800.000	-0.089	0.292
-182.071	122.050	0.138	0.172
-181.056	-48.875	0.154	0.074
-180.042	213.297	-0.040	-0.063
-179.027	57.898	-0.136	-0.133
-178.012	800.000	-0.042	0.125
-176.998	-19.997	-0.125	-0.077
-175.983	-200.000	0.005	-0.294
-174.969	75.994	-0.082	-0.087
-173.954	-200.000	-0.010	0.220
-172.939	6.018	0.224	0.166
-171.925	-200.000	-0.035	0.239
-170.910	-4.438	-0.155	-0.107
-169.896	-103.438	0.117	-0.027
-168.881	-50.258	0.162	0.077
-167.866	800.000	0.177	-0.577
-166.852	247.923	-0.102	0.173
-165.837	-147.865	-0.194	0.016
-164.823	800.000	-0.056	0.192
-163.808	-121.865	0.386	-0.064
-162.793	141.038	0.154	0.204
-161.779	107.780	-0.028	-0.034
-160.764	800.000	-0.039	0.165
-159.750	-200.000	0.010	0.065
-158.735	-131.776	0.194	-0.025
-157.720	130.252	-0.300	-0.384
-156.706	800.000	0.022	-0.075
-155.691	314.186	-0.166	0.313
-154.677	-200.000	0.004	0.304
-153.662	800.000	-0.129	0.389
-152.647	-200.000	0.015	0.434
-151.633	-93.107	0.150	0.042
-150.618	-118.478	0.356	-0.063
-149.604	800.000	-0.058	0.199
-148.589	-51.946	-0.032	0.015
-147.574	178.688	-0.260	-0.379
-146.560	800.000	0.012	0.037
-145.545	-49.471	0.146	0.070
-144.531	-200.000	-0.042	-0.242
-143.516	-87.784	0.275	-0.083
-142.502	439.949	0.106	-0.231
-141.487	800.000	0.120	0.423
-140.472	28.831	0.242	0.205
-139.458	-200.000	0.021	-0.384
-138.443	-10.702	-0.345	-0.228
-137.429	37.472	0.098	-0.087
-136.414	227.846	0.136	-0.221
-135.399	740.013	0.142	-0.381
-134.385	99.389	-0.160	-0.185
-133.370	101.980	-0.164	-0.191
-132.356	5.071	-0.143	-0.105
-131.341	47.780	0.441	-0.412
-130.326	-61.043	0.233	-0.098
-129.312	-166.434	0.457	-0.019
-128.297	196.651	0.208	0.317
-127.283	800.000	-0.095	-0.271
-126.268	-123.001	0.154	0.025
-125.253	-5.676	-0.075	-0.052
-124.239	50.485	-0.205	-0.193
-123.224	-144.365	-0.088	0.008
-122.210	-91.881	0.170	0.048
-121.195	800.000	0.118	0.443
