DTS Sentinel unit serial number:	SN413079Multiplexer serial number:	ORYXHardware model number:	OX4-SRSoftware version number:	ORYX F/W v4.00 Oryx Data Collector v3.7.2.0data status	okinstallation	princeton_trtdifferential loss correction	single-endedforward channel	channel 1reverse channel	N/Adate	2019/09/18time	13:22:35forward acquisition time	60.00reverse acquisition time	0.00gamma	496.2192k internal	0.2313k external	0.2313temperature offset calibration	0.9987default loss term (dB/km)	0.3790temperature slope calibration	1.0000multiplexer offset coefficient	1.0000multiplexer slope coefficient	1.0000fibre end	0.00T internal ref (°C)	34.12T ext. ref 1 (°C)	0.60T ext. ref 2 (°C)	29.37length (m)	temperature (°C)	Stokes	anti-Stokes-747.200	-117.515	0.123	0.023
-746.185	-33.081	-0.318	-0.179
-745.171	-137.702	0.185	0.021
-744.156	220.913	-0.098	0.160
-743.142	-116.322	0.536	-0.101
-742.127	21.461	-0.093	-0.076
-741.112	-99.287	0.277	0.071
-740.098	-200.000	0.020	0.177
-739.083	-37.430	0.132	0.072
-738.069	-38.841	-0.294	0.157
-737.054	80.524	0.321	0.351
-736.039	329.682	-0.063	0.122
-735.025	5.180	0.271	-0.202
-734.010	800.000	-0.040	-0.126
-732.996	-134.101	-0.175	-0.022
-731.981	-200.000	0.030	-0.156
-730.966	264.399	-0.202	0.356
-729.952	509.995	-0.046	-0.109
-728.937	-164.755	-0.166	-0.008
-727.923	-37.888	-0.106	-0.057
-726.908	-200.000	0.014	0.133
-725.894	37.627	0.028	-0.026
-724.879	800.000	0.132	-0.376
-723.864	-77.245	0.209	0.074
-722.850	800.000	0.025	-0.085
-721.835	800.000	-0.097	-0.297
-720.821	800.000	0.074	0.249
-719.806	-152.922	-0.341	0.024
-718.791	128.972	-0.073	0.095
-717.777	-160.621	0.411	0.022
-716.762	50.828	-0.149	-0.143
-715.748	-200.000	-0.012	0.139
-714.733	-185.109	-0.197	0.003
-713.718	-156.895	-0.306	0.019
-712.704	-43.753	0.140	-0.072
-711.689	261.691	-0.035	-0.061
-710.675	29.365	0.189	0.163
-709.660	-15.649	0.252	0.163
-708.645	-73.229	0.382	0.142
-707.631	248.074	-0.084	-0.144
-706.616	800.000	-0.085	-0.293
-705.602	-179.693	0.587	-0.013
-704.587	800.000	-0.138	0.519
-703.572	-122.019	-0.319	0.053
-702.558	0.131	0.228	0.164
-701.543	-125.858	0.194	-0.030
-700.529	-64.272	-0.288	-0.119
-699.514	374.195	-0.043	-0.088
-698.499	13.943	0.178	0.140
-697.485	-132.223	-0.211	0.028
-696.470	14.979	0.085	-0.067
-695.456	-20.399	-0.174	0.108
-694.441	164.529	-0.102	-0.145
-693.426	2.477	0.190	-0.139
-692.412	-200.000	0.008	-0.139
-691.397	128.885	0.084	-0.109
-690.383	800.000	-0.067	-0.224
-689.368	79.100	0.235	-0.255
-688.354	-200.000	0.050	0.261
-687.339	-163.493	-0.135	-0.006
-686.324	-200.000	0.006	-0.156
-685.310	-60.127	0.096	0.041
-684.295	263.160	0.221	-0.388
-683.281	-60.410	-0.280	-0.120
-682.266	-139.478	-0.185	-0.020
-681.251	-200.000	-0.019	-0.296
-680.237	-97.841	-0.340	0.089
-679.222	-131.312	0.092	0.012
-678.208	800.000	0.038	0.132
-677.193	128.566	0.241	0.310
-676.178	800.000	-0.029	-0.124
-675.164	279.006	0.065	-0.118
-674.149	-44.156	-0.073	-0.037
-673.135	171.297	-0.039	0.056
-672.120	265.166	0.125	-0.220
-671.105	629.096	-0.078	0.199
-670.091	800.000	-0.049	0.161
-669.076	-57.244	-0.060	0.027
-668.062	-129.201	-0.190	0.027
-667.047	-92.346	0.165	0.047
-666.032	-17.970	0.125	-0.079
-665.018	-200.000	-0.017	-0.200
-664.003	-23.997	0.140	0.085
-662.989	-7.640	-0.158	0.108
-661.974	-163.975	-0.186	-0.009
-660.959	800.000	-0.085	0.256
-659.945	-200.000	-0.033	0.231
-658.930	-142.564	-0.024	-0.002
-657.916	91.669	0.191	0.217
-656.901	-55.656	-0.160	0.072
-655.886	196.502	0.048	0.074
-654.872	-187.306	0.258	-0.004
-653.857	800.000	0.094	-0.333
-652.843	-199.750	0.239	0.001
-651.828	-200.000	-0.011	-0.124
-650.814	-85.109	-0.241	-0.076
-649.799	-76.262	0.095	0.034
-648.784	-79.723	-0.096	0.033
-647.770	74.753	-0.266	-0.283
-646.755	800.000	0.034	-0.104
-645.741	-189.390	0.188	-0.002
-644.726	-137.654	0.170	0.019
-643.711	800.000	-0.037	-0.149
-642.697	-200.000	-0.014	0.189
-641.682	-8.304	0.049	-0.033
-640.668	-127.766	0.267	0.039
-639.653	-98.476	0.114	0.029
-638.638	-200.000	-0.002	0.026
-637.624	357.801	-0.097	0.195
-636.609	142.519	0.038	0.050
-635.595	-165.787	0.239	-0.010
-634.580	-200.000	0.086	0.496
-633.565	-20.371	0.092	-0.057
-632.551	16.670	0.131	0.105
-631.536	31.917	-0.157	0.136
-630.522	-200.000	0.019	-0.127
-629.507	-38.073	-0.206	0.111
-628.492	-54.216	0.360	-0.165
-627.478	-200.000	-0.036	0.383
-626.463	400.504	-0.171	-0.363
-625.449	-118.456	-0.299	0.053
-624.434	-200.000	-0.052	-0.264
-623.419	-15.339	-0.133	-0.086
-622.405	775.845	-0.092	0.253
-621.390	-105.063	0.097	-0.022
-620.376	-200.000	0.035	0.271
-619.361	-34.976	0.388	-0.214
-618.346	-35.021	0.151	-0.083
-617.332	33.695	0.149	0.130
-616.317	43.379	-0.151	-0.139
-615.303	-36.133	-0.307	0.167
-614.288	800.000	0.095	-0.351
-613.273	-49.921	0.149	-0.071
-612.259	-130.095	0.159	0.022
-611.244	-94.777	0.320	0.088
-610.230	-121.764	-0.375	-0.062
-609.215	131.251	-0.254	-0.329
-608.201	-49.360	-0.233	0.112
-607.186	800.000	-0.061	-0.220
-606.171	78.923	0.159	0.172
-605.157	-95.750	0.368	-0.099
-604.142	-112.106	0.106	0.022
-603.128	-100.674	-0.040	0.010
-602.113	185.490	0.080	-0.120
-601.098	-33.260	0.194	-0.108
-600.084	800.000	0.080	0.277
-599.069	-103.891	0.248	-0.059
-598.055	-95.876	0.034	-0.009
-597.040	-123.810	0.280	0.045
-596.025	419.229	-0.097	0.210
-595.011	374.639	0.130	0.266
-593.996	474.414	-0.061	-0.139
-592.982	11.951	0.181	0.140
-591.967	-144.125	-0.200	0.019
-590.952	-27.437	-0.272	-0.159
-589.938	-200.000	0.018	-0.157
-588.923	76.719	0.133	-0.143
-587.909	214.948	0.162	-0.259
-586.894	412.229	0.189	0.405
-585.879	-129.573	0.189	0.026
-584.865	106.370	0.181	0.217
-583.850	-104.436	-0.137	0.032
-582.836	-91.547	0.405	0.116
-581.821	581.205	0.131	0.323
-580.806	-200.000	0.022	0.181
-579.792	70.769	0.266	0.277
-578.777	553.633	-0.036	-0.087
-577.763	234.878	-0.110	0.183
-576.748	499.165	-0.036	-0.085
-575.733	511.243	0.076	0.179
-574.719	241.368	0.136	0.229
-573.704	-69.943	0.219	0.084
-572.690	-34.514	-0.196	-0.108
-571.675	-10.824	-0.152	-0.101
-570.661	-200.000	0.051	-0.245
-569.646	280.607	0.034	0.062
-568.631	58.478	-0.185	0.182
-567.617	-128.172	-0.315	0.045
-566.602	7.161	-0.233	-0.175
-565.588	-34.041	0.126	0.070
-564.573	-79.500	-0.124	-0.042
-563.558	364.934	-0.058	-0.117
-562.544	378.149	-0.170	-0.349
-561.529	684.535	0.105	0.276
-560.515	-97.682	-0.343	0.090
-559.500	377.906	0.019	0.038
-558.485	97.432	0.113	-0.130
-557.471	-64.147	0.139	-0.057
-556.456	-164.896	-0.267	-0.012
-555.442	-136.060	0.199	0.024
-554.427	74.598	0.072	0.076
-553.412	-38.326	0.302	0.161
-552.398	67.316	0.229	0.235
-551.383	800.000	0.101	-0.362
-550.369	-26.143	-0.219	0.129
-549.354	389.787	-0.057	0.119
-548.339	-29.811	-0.181	-0.104
-547.325	-42.941	-0.209	-0.107
-546.310	-116.929	0.276	0.051
-545.296	-51.580	-0.231	-0.109
-544.281	-200.000	-0.001	0.039
-543.266	-51.121	0.025	-0.012
-542.252	-200.000	0.012	0.106
-541.237	-32.570	0.432	-0.242
-540.223	119.661	-0.119	-0.148
-539.208	168.125	0.104	0.149
-538.193	411.908	0.090	-0.193
-537.179	-49.631	-0.355	0.170
-536.164	-64.831	-0.210	0.085
-535.150	800.000	0.114	0.344
-534.135	-33.542	0.210	-0.117
-533.121	55.596	0.033	0.032
-532.106	-58.763	0.392	-0.171
-531.091	-106.625	0.072	0.016
-530.077	-6.649	0.211	-0.145
-529.062	-102.085	-0.265	0.064
-528.048	-127.062	0.271	0.040
-527.033	-64.001	0.159	-0.065
-526.018	-106.709	-0.333	-0.074
-525.004	202.044	0.156	0.242
-523.989	-115.006	-0.409	0.078
-522.975	313.809	0.078	0.147
-521.960	-7.321	0.230	-0.157
-520.945	-111.208	-0.429	0.088
-519.931	336.916	0.029	0.056
-518.916	-95.118	0.202	-0.055
-517.902	748.709	0.004	-0.011
-516.887	-164.400	-0.216	-0.010
-515.872	-60.794	-0.363	0.154
-514.858	-200.000	-0.002	0.026
-513.843	-181.885	-0.209	-0.004
-512.829	-137.218	-0.124	-0.014
-511.814	624.297	-0.058	0.146
-510.799	-155.085	-0.295	-0.019
-509.785	647.654	0.078	0.201
-508.770	458.801	-0.064	-0.143
-507.756	188.980	0.235	0.354
-506.741	316.136	0.131	-0.249
-505.726	800.000	-0.030	-0.129
-504.712	-200.000	-0.043	0.312
-503.697	268.303	-0.053	0.093
-502.683	-113.367	0.065	-0.013
-501.668	-122.186	0.297	0.049
-500.653	-157.815	-0.150	0.009
-499.639	110.222	-0.234	-0.283
-498.624	30.685	0.189	0.163
-497.610	-161.713	0.162	0.008
-496.595	800.000	-0.034	-0.117
-495.581	535.037	-0.064	-0.153
-494.566	-163.238	-0.101	-0.005
-493.551	-200.000	-0.003	-0.081
-492.537	114.398	0.078	-0.095
-491.522	-200.000	-0.019	0.083
-490.508	-7.850	0.095	-0.064
-489.493	-42.010	0.359	-0.185
-488.478	-54.625	0.163	-0.074
-487.464	-44.225	-0.200	-0.101
-486.449	-200.000	0.011	0.071
-485.435	-200.000	-0.024	-0.257
-484.420	133.678	0.061	0.079
-483.405	32.301	0.131	0.113
-482.391	59.186	0.122	0.121
-481.376	55.774	-0.305	0.296
-480.362	179.021	0.049	0.072
-479.347	643.233	-0.112	0.286
-478.332	-92.928	0.224	0.063
-477.318	-132.970	0.271	-0.035
-476.303	211.655	-0.107	-0.169
-475.289	-200.000	-0.031	-0.224
-474.274	-200.000	0.004	0.314
-473.259	92.803	-0.182	-0.207
-472.245	-47.392	-0.135	0.066
-471.230	-200.000	0.006	-0.313
-470.216	-172.255	-0.246	0.008
-469.201	-200.000	0.021	-0.106
-468.186	-134.417	-0.180	-0.022
-467.172	-75.358	0.072	-0.026
-466.157	-45.543	-0.294	0.146
-465.143	-200.000	0.029	-0.394
-464.128	85.428	0.108	-0.119
-463.113	31.415	0.180	-0.155
-462.099	-102.199	-0.215	0.052
-461.084	434.350	0.038	-0.083
-460.070	103.703	-0.247	-0.291
-459.055	242.520	-0.035	-0.059
-458.040	-65.454	0.118	-0.048
-457.026	-200.000	-0.001	-0.160
-456.011	-159.285	0.214	0.012
-454.997	10.928	-0.060	0.046
-453.982	-13.351	-0.092	-0.060
-452.968	74.271	0.169	-0.178
-451.953	-69.258	-0.142	0.055
-450.938	391.469	-0.096	-0.200
-449.924	800.000	0.032	-0.104
-448.909	-200.000	0.021	-0.101
-447.895	48.637	-0.145	0.136
-446.880	-33.946	-0.104	-0.057
-445.865	11.398	0.393	0.302
-444.851	-200.000	-0.017	0.115
-443.836	-9.915	0.187	-0.125
-442.822	-149.441	-0.157	-0.012
-441.807	-200.000	-0.035	-0.218
-440.792	742.889	-0.019	0.050
-439.778	800.000	0.055	-0.196
-438.763	800.000	-0.034	0.144
-437.749	-117.595	-0.166	-0.030
-436.734	-167.383	0.188	0.008
-435.719	-200.000	0.014	-0.121
-434.705	-62.021	0.317	0.133
-433.690	800.000	-0.040	0.157
-432.676	-90.732	0.226	0.065
-431.661	6.309	-0.305	0.227
-430.646	-85.985	-0.343	0.106
-429.632	3.657	0.103	-0.075
-428.617	-94.235	-0.210	-0.058
-427.603	24.586	-0.188	0.156
-426.588	100.062	-0.222	-0.257
-425.573	-85.473	0.092	-0.029
-424.559	-54.580	-0.554	-0.251
-423.544	800.000	-0.061	0.217
-422.530	-200.000	-0.102	-0.530
-421.515	379.664	-0.135	0.277
-420.500	130.201	0.267	0.342
-419.486	61.388	-0.160	0.159
-418.471	34.373	0.053	-0.046
-417.457	280.099	-0.214	0.383
-416.442	-159.759	-0.110	-0.006
-415.428	-200.000	0.012	-0.229
-414.413	-200.000	-0.004	0.048
-413.398	-200.000	-0.008	-0.090
-412.384	-185.589	-0.362	-0.005
-411.369	261.003	0.248	-0.430
-410.355	-146.581	0.254	-0.022
-409.340	-122.367	-0.084	0.014
-408.325	800.000	0.053	0.213
-407.311	492.370	-0.102	0.233
-406.296	55.125	-0.138	0.133
-405.282	-55.476	-0.254	-0.114
-404.267	137.596	0.179	0.235
-403.252	35.673	-0.128	-0.113
-402.238	89.965	-0.060	-0.067
-401.223	327.353	0.090	-0.173
-400.209	351.440	0.125	0.248
-399.194	298.562	0.058	0.107
-398.179	152.428	-0.112	-0.153
-397.165	800.000	-0.031	0.118
-396.150	-1.748	-0.243	-0.171
-395.136	143.322	-0.169	-0.225
-394.121	-96.655	0.255	0.067
-393.106	-166.043	-0.248	0.011
-392.092	154.944	-0.151	-0.208
-391.077	-187.917	0.157	-0.002
-390.063	277.559	-0.100	-0.178
-389.048	-89.128	0.008	0.002
-388.033	-90.969	-0.133	-0.038
-387.019	27.415	0.295	0.248
-386.004	-200.000	-0.008	0.244
-384.990	403.117	-0.173	0.365
-383.975	800.000	0.123	0.520
-382.960	-81.216	0.329	-0.109
-381.946	44.718	0.295	0.271
-380.931	24.435	-0.121	0.100
-379.917	800.000	0.047	0.172
-378.902	-200.000	-0.043	-0.209
-377.888	44.775	0.344	-0.316
-376.873	-34.939	-0.187	0.102
-375.858	-127.486	0.115	0.017
-374.844	-169.223	-0.296	-0.011
-373.829	27.273	-0.047	0.039
-372.815	-108.384	0.229	-0.049
-371.800	-200.000	-0.006	0.133
-370.785	294.496	-0.052	0.096
-369.771	229.592	-0.096	0.157
-368.756	-133.419	-0.119	-0.015
-367.742	800.000	-0.069	0.275
-366.727	-59.433	0.393	-0.169
-365.712	-200.000	0.041	-0.609
-364.698	-146.948	0.222	0.019
-363.683	-62.164	-0.199	0.083
-362.669	-21.179	-0.106	0.065
-361.654	-27.890	-0.359	-0.208
-360.639	-200.000	-0.064	-0.307
-359.625	-45.746	-0.162	-0.080
-358.610	404.033	-0.022	0.046
-357.596	13.136	-0.306	-0.237
-356.581	800.000	-0.127	-0.391
-355.566	-72.029	-0.211	0.078
-354.552	539.349	0.073	-0.174
-353.537	97.770	0.171	-0.197
-352.523	277.017	0.025	0.044
-351.508	-1.574	-0.196	-0.138
-350.493	-72.188	-0.208	0.077
-349.479	21.787	-0.390	0.317
-348.464	220.977	-0.035	-0.056
-347.450	216.339	0.110	-0.174
-346.435	-174.295	-0.045	-0.001
-345.420	-152.534	-0.189	0.014
-344.406	800.000	0.021	-0.063
-343.391	-7.953	0.202	-0.136
-342.377	226.876	0.253	0.410
-341.362	-200.000	0.016	-0.120
-340.348	-51.323	0.118	0.055
-339.333	387.964	-0.087	0.180
-338.318	800.000	-0.066	-0.266
-337.304	-200.000	-0.018	-0.127
-336.289	-47.066	0.112	-0.054
-335.275	63.403	0.202	0.202
-334.260	296.162	0.112	-0.205
-333.245	-107.885	0.077	-0.017
-332.231	10.946	0.066	-0.051
-331.216	-0.311	-0.121	0.086
-330.202	749.294	-0.062	-0.168
-329.187	-119.792	-0.193	-0.033
-328.172	106.125	0.147	-0.174
-327.158	800.000	0.073	0.282
-326.143	97.195	-0.077	0.088
-325.129	348.464	0.106	-0.209
-324.114	-39.386	-0.126	-0.066
-323.099	-47.646	0.226	0.110
-322.085	111.517	-0.146	0.176
-321.070	72.383	-0.350	-0.364
-320.056	-127.239	-0.166	0.024
-319.041	424.624	-0.031	-0.065
-318.026	219.824	-0.060	-0.096
-317.012	25.451	-0.076	0.063
-315.997	45.256	0.164	0.151
-314.983	181.837	0.034	0.050
-313.968	800.000	-0.023	0.098
-312.953	-133.789	0.185	0.023
-311.939	4.829	0.081	-0.059
-310.924	-131.579	0.305	-0.040
-309.910	-200.000	-0.002	-0.248
-308.895	684.254	-0.083	-0.216
-307.880	-80.503	0.339	0.113
-306.866	-200.000	-0.001	0.017
-305.851	-200.000	0.016	-0.185
-304.837	-68.887	0.153	-0.059
-303.822	2.215	0.033	-0.023
-302.807	-12.316	0.136	-0.089
-301.793	-73.820	0.237	0.086
-300.778	-200.000	-0.006	0.082
-299.764	-123.579	0.160	-0.025
-298.749	-82.139	-0.237	-0.077
-297.735	-42.281	-0.136	-0.069
-296.720	-200.000	-0.015	0.354
-295.705	235.858	-0.127	-0.210
-294.691	-9.962	-0.121	0.080
-293.676	-200.000	-0.008	-0.113
-292.662	235.448	-0.078	0.129
-291.647	8.369	-0.307	0.230
-290.632	-134.350	0.151	-0.018
-289.618	-1.496	-0.351	0.246
-288.603	-91.399	0.253	0.072
-287.589	78.929	0.089	-0.095
-286.574	117.832	0.155	-0.191
-285.559	-91.925	-0.075	-0.021
-284.545	-200.000	0.002	0.078
-283.530	800.000	-0.105	-0.365
-282.516	-172.999	0.106	-0.003
-281.501	-137.070	0.359	-0.041
-280.486	800.000	0.152	0.549
-279.472	99.978	-0.241	0.278
-278.457	727.565	-0.150	0.399
-277.443	178.819	0.046	-0.066
-276.428	20.390	0.270	0.218
-275.413	-20.254	-0.061	0.037
-274.399	-144.594	-0.241	-0.022
-273.384	4.964	0.179	-0.131
-272.370	-127.047	-0.097	0.014
-271.355	-98.114	-0.403	0.103
-270.340	-129.749	0.297	0.041
-269.326	-119.483	0.208	-0.036
-268.311	123.801	-0.131	-0.164
-267.297	251.726	-0.053	-0.090
-266.282	130.159	0.098	-0.124
-265.267	105.641	-0.233	-0.275
-264.253	-200.000	-0.030	-0.158
-263.238	-102.738	0.107	0.025
-262.224	-83.474	-0.177	0.056
-261.209	-119.081	-0.221	0.039
-260.195	-46.479	-0.189	-0.093
-259.180	753.631	0.061	-0.163
-258.165	-74.995	-0.351	0.125
-257.151	-200.000	-0.002	0.188
-256.136	800.000	-0.042	0.156
-255.122	-127.798	-0.111	-0.016
-254.107	-24.681	-0.226	0.134
-253.092	-32.202	0.051	-0.028
-252.078	-200.000	-0.002	0.127
-251.063	383.637	0.063	0.130
-250.049	-200.000	-0.008	0.186
-249.034	800.000	0.023	0.067
-248.019	-72.068	0.098	-0.036
-247.005	249.473	-0.201	-0.339
-245.990	-95.794	-0.122	-0.033
-244.976	-0.820	0.388	-0.274
-243.961	800.000	0.051	0.214
-242.946	534.969	-0.029	0.068
-241.932	82.119	0.104	0.112
-240.917	-23.573	0.121	0.072
-239.903	87.368	0.081	0.089
-238.888	292.833	-0.028	-0.051
-237.873	436.736	0.135	0.291
-236.859	-172.090	0.283	0.009
-235.844	-200.000	-0.008	-0.083
-234.830	-200.000	0.029	-0.280
-233.815	-37.025	-0.286	0.152
-232.800	88.823	-0.083	0.092
-231.786	-32.489	-0.256	0.142
-230.771	-21.565	-0.135	0.082
-229.757	-200.000	-0.006	0.197
-228.742	-200.000	-0.172	0.001
-227.727	-200.000	-0.023	-0.142
-226.713	-167.420	0.141	-0.006
-225.698	-200.000	0.008	0.066
-224.684	-110.979	-0.331	-0.068
-223.669	-77.797	0.209	-0.072
-222.655	-89.835	-0.157	-0.046
-221.640	464.533	0.038	0.085
-220.625	-170.679	0.423	-0.015
-219.611	-176.102	0.402	-0.011
-218.596	-33.269	0.250	0.137
-217.582	800.000	-0.101	-0.402
-216.567	2.584	0.290	-0.209
-215.552	335.726	0.132	0.254
-214.538	148.129	-0.195	0.262
-213.523	328.700	-0.134	-0.257
-212.509	57.363	-0.275	0.266
-211.494	-29.159	-0.301	-0.171
-210.479	-76.914	0.364	-0.126
-209.465	151.612	-0.148	-0.201
-208.450	29.301	0.050	0.042
-207.436	3.735	0.169	-0.122
-206.421	-61.549	0.115	-0.048
-205.406	133.491	-0.152	0.195
-204.392	67.622	0.024	0.024
-203.377	-103.742	0.038	-0.009
-202.363	-148.075	0.087	0.007
-201.348	136.340	0.185	0.239
-200.333	215.501	0.197	0.310
-199.319	197.949	0.136	0.206
-198.304	2.352	0.246	-0.177
-197.290	-137.418	-0.234	-0.026
-196.275	-190.445	-0.279	0.003
-195.260	-200.000	0.012	-0.308
-194.246	800.000	-0.120	-0.348
-193.231	-200.000	0.106	-0.473
-192.217	85.441	-0.100	-0.109
-191.202	-200.000	-0.003	0.146
-190.187	93.342	-0.133	-0.149
-189.173	-68.628	-0.215	0.082
-188.158	95.520	-0.097	0.110
-187.144	-200.000	0.013	-0.133
-186.129	800.000	0.067	0.222
-185.114	112.176	-0.287	0.344
-184.100	-143.799	-0.118	-0.011
-183.085	79.773	0.130	0.139
-182.071	127.384	0.057	-0.071
-181.056	-124.216	0.119	-0.019
-180.042	-200.000	-0.028	-0.246
-179.027	-22.167	0.500	0.301
-178.012	-174.113	-0.324	0.009
-176.998	303.140	0.093	-0.171
-175.983	54.619	-0.297	-0.284
-174.969	503.134	-0.056	0.128
-173.954	-157.342	0.243	-0.015
-172.939	-200.000	0.058	0.325
-171.925	-200.000	0.020	-0.161
-170.910	354.182	-0.025	-0.048
-169.896	-57.131	0.419	-0.183
-168.881	441.030	0.143	-0.311
-167.866	107.549	0.044	-0.052
-166.852	800.000	-0.053	-0.209
-165.837	122.466	0.058	-0.072
-164.823	-200.000	-0.012	-0.053
-163.808	-200.000	0.029	0.314
-162.793	-127.638	0.156	0.022
-161.779	-51.398	-0.282	0.131
-160.764	-10.455	0.112	-0.074
-159.750	-81.177	-0.165	0.054
-158.735	-34.014	-0.178	0.097
-157.720	23.222	0.138	-0.112
-156.706	-200.000	0.049	-0.448
-155.691	800.000	-0.022	-0.063
-154.677	429.763	0.085	0.182
-153.662	800.000	-0.051	0.153
-152.647	-153.978	0.049	0.003
-151.633	48.721	0.165	0.154
-150.618	230.684	0.057	-0.092
-149.604	182.473	0.048	-0.071
-148.589	-94.398	0.082	-0.022
-147.574	-200.000	-0.007	-0.085
-146.560	146.472	-0.172	0.229
-145.545	-100.260	-0.115	0.028
-144.531	408.609	-0.065	-0.136
-143.516	800.000	-0.065	0.277
-142.502	800.000	-0.115	-0.417
-141.487	-200.000	0.005	0.039
-140.472	150.223	-0.160	0.216
-139.458	67.761	0.208	0.210
-138.443	548.794	-0.121	-0.287
-137.429	102.646	0.054	0.062
-136.414	-102.755	-0.201	-0.048
-135.399	-70.034	0.163	0.061
-134.385	-21.723	0.265	-0.160
-133.370	244.302	-0.054	-0.090
-132.356	-103.641	-0.091	-0.021
-131.341	-113.320	0.033	-0.006
-130.326	-200.000	-0.048	0.243
-129.312	135.170	0.224	-0.288
-128.297	171.059	0.065	-0.093
-127.283	-144.610	-0.140	0.013
-126.268	-121.861	0.049	-0.008
-125.253	-118.123	0.249	0.044
-124.239	-110.424	0.116	0.024
-123.224	124.863	-0.148	0.185
-122.210	-84.620	-0.069	-0.021
