DTS Sentinel unit serial number:	SN413079Multiplexer serial number:	ORYXHardware model number:	OX4-SRSoftware version number:	ORYX F/W v4.00 Oryx Data Collector v3.7.2.0data status	okinstallation	princeton_trtdifferential loss correction	single-endedforward channel	channel 1reverse channel	N/Adate	2019/09/12time	18:15:34forward acquisition time	15.00reverse acquisition time	0.00gamma	496.2192k internal	0.2317k external	0.2317temperature offset calibration	1.0107default loss term (dB/km)	0.3790temperature slope calibration	1.0000multiplexer offset coefficient	1.0000multiplexer slope coefficient	1.0000fibre end	0.00T internal ref (°C)	33.50T ext. ref 1 (°C)	2.93T ext. ref 2 (°C)	28.03length (m)	temperature (°C)	Stokes	anti-Stokes-747.200	-107.393	0.355	-0.079
-746.185	-150.164	0.489	-0.038
-745.171	-61.045	0.582	0.249
-744.156	-140.982	-0.799	-0.083
-743.142	-17.129	-0.175	0.112
-742.127	495.760	-0.124	-0.289
-741.112	52.708	0.380	-0.368
-740.098	-200.000	-0.162	1.151
-739.083	-45.014	0.644	0.325
-738.069	20.685	-0.412	0.338
-737.054	-177.185	0.684	-0.017
-736.039	460.312	-0.053	-0.118
-735.025	-89.334	0.588	0.175
-734.010	465.820	-0.067	-0.151
-732.996	604.089	0.509	1.283
-731.981	119.113	0.375	-0.470
-730.966	-200.000	-0.038	0.281
-729.952	-76.693	0.039	-0.014
-728.937	-68.073	0.504	0.199
-727.923	46.462	0.165	0.155
-726.908	598.080	0.284	0.712
-725.894	-118.029	-0.571	-0.103
-724.879	300.751	-0.339	-0.632
-723.864	36.913	0.265	-0.237
-722.850	-200.000	-0.093	-0.944
-721.835	83.665	0.315	-0.347
-720.821	-200.000	-0.029	0.275
-719.806	-181.998	0.989	0.019
-718.791	-89.391	-0.490	-0.146
-717.777	800.000	0.204	-0.819
-716.762	-200.000	0.016	0.095
-715.748	-136.532	-1.064	0.125
-714.733	-10.088	0.338	-0.227
-713.718	-72.437	-0.154	-0.058
-712.704	-200.000	0.094	-0.664
-711.689	-58.157	-0.627	-0.276
-710.675	-200.000	0.006	0.358
-709.660	-175.738	-0.308	0.008
-708.645	23.173	0.366	0.304
-707.631	320.327	-0.181	-0.347
-706.616	-200.000	0.238	1.160
-705.602	152.895	0.271	-0.375
-704.587	624.857	0.144	-0.367
-703.572	-16.523	-0.399	-0.256
-702.558	-200.000	-0.042	0.943
-701.543	-157.981	-0.799	-0.048
-700.529	40.815	-0.195	-0.177
-699.514	-57.871	-0.622	0.275
-698.499	-3.030	0.241	-0.170
-697.485	-106.398	0.268	0.060
-696.470	99.146	0.387	0.452
-695.456	31.768	-0.520	0.453
-694.441	355.278	-0.054	-0.108
-693.426	-200.000	-0.068	0.871
-692.412	-102.257	-0.473	0.115
-691.397	-72.064	-0.627	0.235
-690.383	174.798	-0.246	0.360
-689.368	-200.000	0.473	0.001
-688.354	187.740	-0.135	-0.203
-687.339	-80.159	-0.490	0.166
-686.324	57.012	0.134	-0.132
-685.310	-200.000	0.068	0.605
-684.295	33.994	0.569	0.501
-683.281	-200.000	-0.009	-0.276
-682.266	800.000	-0.165	0.497
-681.251	526.978	0.155	0.368
-680.237	-0.530	-0.527	0.378
-679.222	43.950	0.214	-0.198
-678.208	411.397	0.191	-0.410
-677.193	-169.152	0.405	0.015
-676.178	-56.096	0.426	-0.191
-675.164	-200.000	-0.042	-0.376
-674.149	374.718	0.190	-0.391
-673.135	41.429	0.281	-0.256
-672.120	-92.609	-0.406	-0.115
-671.105	-139.658	0.659	-0.071
-670.091	28.404	-0.287	-0.245
-669.076	49.442	-0.738	-0.701
-668.062	800.000	0.043	-0.126
-667.047	506.175	-0.272	0.637
-666.032	-71.944	-0.522	0.196
-665.018	13.672	0.471	-0.370
-664.003	11.922	-0.586	-0.454
-662.989	63.765	0.309	0.313
-661.974	-11.020	0.461	0.307
-660.959	800.000	0.055	0.200
-659.945	142.304	0.496	0.664
-658.930	137.410	-0.319	0.421
-657.916	-76.094	0.292	0.104
-656.901	-162.407	0.748	0.037
-655.886	166.655	0.360	-0.514
-654.872	-84.794	-0.417	-0.132
-653.857	800.000	-0.168	0.541
-652.843	800.000	0.183	-0.535
-651.828	88.153	0.130	-0.146
-650.814	194.607	0.271	0.415
-649.799	376.867	-0.275	0.567
-648.784	-151.358	0.952	-0.072
-647.770	-74.131	0.496	0.181
-646.755	-200.000	-0.024	-0.692
-645.741	-18.943	0.255	0.160
-644.726	-200.000	-0.014	-0.442
-643.711	-13.199	-0.448	-0.294
-642.697	800.000	-0.274	0.947
-641.682	800.000	-0.113	-0.409
-640.668	800.000	-0.176	-0.550
-639.653	-1.425	0.792	0.563
-638.638	-143.484	0.058	-0.006
-637.624	-200.000	-0.004	0.162
-636.609	-129.837	-0.517	-0.072
-635.595	-142.378	-0.776	0.077
-634.580	28.737	0.256	0.218
-633.565	-78.354	-0.596	0.206
-632.551	120.308	0.437	0.547
-631.536	37.060	0.170	-0.151
-630.522	148.032	-0.125	-0.169
-629.507	-200.000	0.155	0.697
-628.492	-200.000	0.092	-0.637
-627.478	142.934	-0.622	-0.833
-626.463	85.802	-0.460	-0.509
-625.449	-110.638	-0.644	-0.134
-624.434	15.993	0.605	0.480
-623.419	-194.965	0.859	-0.007
-622.405	-78.283	-0.248	0.086
-621.390	546.267	0.189	-0.454
-620.376	-200.000	0.056	-0.430
-619.361	221.928	0.268	0.435
-618.346	-0.668	-0.833	-0.595
-617.332	-121.921	0.548	-0.091
-616.317	24.901	-0.613	0.512
-615.303	506.576	-0.128	-0.299
-614.288	185.694	0.523	-0.783
-613.273	-25.101	0.426	0.255
-612.259	148.563	0.700	0.952
-611.244	-101.056	0.910	-0.225
-610.230	68.440	-0.435	0.449
-609.215	-119.617	-0.101	-0.018
-608.201	-157.026	-0.408	-0.025
-607.186	28.545	-0.346	-0.295
-606.171	153.228	-0.093	0.128
-605.157	-147.218	-0.201	-0.017
-604.142	-129.433	0.697	0.097
-603.128	652.569	0.171	-0.443
-602.113	511.572	0.372	-0.873
-601.098	-63.898	0.047	-0.019
-600.084	-25.869	-0.361	-0.214
-599.069	-64.295	0.914	-0.375
-598.055	800.000	0.106	-0.403
-597.040	-165.859	-0.752	-0.033
-596.025	108.074	0.519	0.623
-595.011	189.482	0.372	-0.561
-593.996	501.813	0.277	-0.645
-592.982	-37.706	1.003	0.537
-591.967	-115.354	-0.522	-0.099
-590.952	108.936	0.661	-0.795
-589.938	800.000	-0.133	-0.563
-588.923	658.511	0.282	-0.729
-587.909	590.586	0.224	-0.556
-586.894	-200.000	0.168	0.775
-585.879	93.827	-0.564	0.643
-584.865	-200.000	0.066	-0.586
-583.850	-200.000	0.075	-0.520
-582.836	800.000	-0.164	0.506
-581.821	91.978	-0.157	-0.178
-580.806	-171.699	-0.931	-0.031
-579.792	-150.683	-0.426	-0.033
-578.777	291.473	-0.332	-0.608
-577.763	-200.000	0.043	0.201
-576.748	209.510	-0.317	0.500
-575.733	-118.382	0.435	0.078
-574.719	-118.263	0.452	-0.081
-573.704	-158.963	-0.461	-0.026
-572.690	800.000	-0.336	1.079
-571.675	181.619	0.013	0.019
-570.661	450.579	-0.432	-0.958
-569.646	-164.648	-1.216	0.055
-568.631	800.000	0.227	-0.763
-567.617	179.371	-0.437	-0.643
-566.602	98.183	0.192	-0.222
-565.588	417.816	0.262	-0.563
-564.573	-109.819	0.203	-0.043
-563.558	245.314	-0.165	0.279
-562.544	800.000	-0.122	0.371
-561.529	-45.540	0.626	0.311
-560.515	-135.406	-0.126	-0.015
-559.500	-163.493	-0.351	0.017
-558.485	-44.946	-0.893	0.447
-557.471	-182.544	-0.472	-0.009
-556.456	-42.981	-0.532	-0.271
-555.442	-127.224	0.600	-0.088
-554.427	-140.926	-0.710	0.073
-553.412	-51.581	0.706	0.331
-552.398	800.000	-0.155	0.538
-551.383	23.937	-0.579	0.479
-550.369	-127.939	0.630	-0.091
-549.354	800.000	0.151	0.560
-548.339	116.916	0.313	-0.386
-547.325	55.849	-0.464	-0.452
-546.310	-81.447	0.511	-0.169
-545.296	-33.401	-0.515	-0.286
-544.281	-87.843	-0.608	-0.184
-543.266	-170.509	-0.131	-0.005
-542.252	174.009	-0.585	-0.849
-541.237	-100.309	-0.156	-0.039
-540.223	791.529	0.097	0.267
-539.208	-98.861	0.191	-0.049
-538.193	800.000	0.148	0.422
-537.179	267.901	0.395	-0.694
-536.164	-23.967	-0.470	-0.282
-535.150	-163.684	-0.854	-0.040
-534.135	139.151	-0.275	-0.363
-533.121	38.140	0.398	0.355
-532.106	-60.083	-0.486	-0.208
-531.091	-200.000	0.078	0.782
-530.077	22.708	0.294	0.242
-529.062	800.000	0.107	0.337
-528.048	13.117	-0.217	0.168
-527.033	800.000	0.179	-0.577
-526.018	-185.937	0.147	-0.002
-525.004	-200.000	-0.005	0.976
-523.989	-125.094	-0.597	0.092
-522.975	-200.000	-0.121	0.565
-521.960	-200.000	0.174	0.890
-520.945	84.817	0.256	-0.281
-519.931	338.866	0.279	0.545
-518.916	-200.000	-0.106	-0.777
-517.902	-200.000	-0.095	-0.499
-516.887	322.183	-0.023	-0.043
-515.872	-200.000	0.059	-0.517
-514.858	-200.000	0.049	0.584
-513.843	32.389	0.302	-0.262
-512.829	-67.998	0.249	-0.098
-511.814	50.544	-0.136	-0.129
-510.799	-13.353	0.523	-0.341
-509.785	-129.132	-0.573	0.080
-508.770	-172.457	-0.582	0.019
-507.756	536.922	-0.102	0.242
-506.741	47.183	-0.339	0.317
-505.726	-114.122	0.434	-0.084
-504.712	-200.000	-0.049	0.337
-503.697	587.202	0.273	0.675
-502.683	97.594	0.642	-0.740
-501.668	-186.746	0.407	0.006
-500.653	371.084	0.067	-0.136
-499.639	-107.006	-0.904	0.200
-498.624	165.309	-0.404	0.573
-497.610	-200.000	-0.114	0.572
-496.595	-144.887	-0.715	0.066
-495.581	-102.091	0.549	-0.133
-494.566	412.203	-0.162	0.344
-493.551	-120.789	-0.509	-0.086
-492.537	-200.000	-0.072	-0.643
-491.522	361.001	0.056	0.112
-490.508	-5.141	0.761	-0.525
-489.493	562.318	0.185	0.447
-488.478	128.409	0.336	0.429
-487.464	800.000	-0.336	1.001
-486.449	-56.248	-0.567	0.253
-485.435	800.000	-0.159	-0.636
-484.420	-200.000	-0.221	1.315
-483.405	-9.986	0.607	0.405
-482.391	63.503	-0.467	-0.469
-481.376	-0.422	0.590	0.420
-480.362	-0.791	0.474	-0.337
-479.347	51.303	0.527	0.501
-478.332	-1.009	0.941	-0.667
-477.318	-38.288	-0.233	-0.124
-476.303	402.260	0.034	-0.072
-475.289	94.299	-0.257	0.292
-474.274	157.743	-0.308	-0.428
-473.259	-182.012	0.933	-0.018
-472.245	130.447	0.378	-0.485
-471.230	800.000	-0.129	0.402
-470.216	-18.797	-0.283	0.176
-469.201	-45.576	0.617	0.306
-468.186	-158.533	0.098	0.006
-467.172	-11.656	-0.387	-0.255
-466.157	41.020	-0.423	0.382
-465.143	119.454	-0.488	0.605
-464.128	140.521	-0.291	-0.384
-463.113	-124.308	0.615	0.096
-462.099	-72.392	0.749	-0.278
-461.084	-70.016	-0.411	0.157
-460.070	101.334	-0.261	0.304
-459.055	-200.000	0.019	-0.556
-458.040	-162.613	0.095	-0.005
-457.026	60.386	0.285	0.283
-456.011	-47.517	-0.494	-0.240
-454.997	127.044	-0.255	-0.324
-453.982	-173.710	0.583	0.017
-452.968	193.302	-0.312	0.473
-451.953	-200.000	-0.090	0.694
-450.938	-3.886	-0.391	0.272
-449.924	-200.000	-0.002	-0.038
-448.909	17.568	0.382	0.303
-447.895	-83.555	0.580	0.186
-446.880	328.686	-0.131	-0.252
-445.865	800.000	-0.157	0.499
-444.851	-200.000	0.021	-0.652
-443.836	-124.593	0.219	-0.034
-442.822	75.203	-0.495	-0.522
-441.807	-200.000	0.077	-0.380
-440.792	-72.220	-0.830	-0.308
-439.778	306.871	-0.396	0.738
-438.763	207.124	0.245	0.382
-437.749	99.179	0.079	0.091
-436.734	63.641	0.189	0.190
-435.719	9.730	-0.760	0.576
-434.705	-25.830	-1.006	-0.593
-433.690	-99.002	0.193	0.049
-432.676	60.062	0.380	0.376
-431.661	48.195	-0.401	0.375
-430.646	-40.177	0.357	0.186
-429.632	-200.000	0.017	-0.596
-428.617	-163.293	-0.746	0.036
-427.603	-170.419	-0.870	0.030
-426.588	380.104	-0.224	-0.460
-425.573	443.827	0.084	-0.184
-424.559	800.000	-0.286	-1.002
-423.544	96.509	0.351	-0.402
-422.530	36.839	0.394	-0.348
-421.515	-128.284	0.407	-0.058
-420.500	-16.134	-0.390	-0.247
-419.486	430.376	-0.252	-0.545
-418.471	-38.861	0.800	0.421
-417.457	311.012	-0.125	-0.233
-416.442	694.360	-0.143	0.376
-415.428	800.000	0.204	-0.575
-414.413	-51.953	-0.072	-0.033
-413.398	88.412	0.409	-0.454
-412.384	-98.419	-0.867	-0.222
-411.369	-37.678	-0.552	0.294
-410.355	133.329	0.435	-0.562
-409.340	289.988	0.321	-0.582
-408.325	246.700	0.615	1.036
-407.311	800.000	0.178	0.598
-406.296	-25.813	-0.257	0.151
-405.282	10.286	0.294	-0.223
-404.267	-29.228	0.340	0.195
-403.252	67.694	0.900	0.919
-402.238	-200.000	-0.022	-0.296
-401.223	170.830	-0.080	0.114
-400.209	800.000	0.058	-0.244
-399.194	29.855	-0.538	-0.458
-398.179	-4.201	-0.373	-0.258
-397.165	-2.342	0.153	-0.107
-396.150	-84.298	-0.117	-0.037
-395.136	800.000	0.146	0.500
-394.121	-101.285	0.549	0.134
-393.106	326.294	-0.209	-0.400
-392.092	562.930	-0.241	0.582
-391.077	-96.260	0.651	-0.172
-390.063	91.006	-0.339	0.380
-389.048	166.938	0.464	-0.657
-388.033	256.236	-0.393	-0.673
-387.019	-1.748	-0.786	0.552
-386.004	-153.779	-0.274	0.019
-384.990	107.118	-0.266	-0.316
-383.975	81.208	-0.343	0.370
-382.960	131.450	0.419	-0.538
-381.946	790.461	-0.236	-0.648
-380.931	-38.445	-0.357	-0.188
-379.917	-116.103	-0.213	-0.040
-378.902	-137.034	0.127	-0.014
-377.888	-146.063	1.060	-0.093
-376.873	-59.629	-0.384	-0.164
-375.858	-38.011	-0.559	0.296
-374.844	-125.060	-0.208	-0.032
-373.829	-16.350	0.340	0.215
-372.815	-200.000	-0.101	0.561
-371.800	-29.026	0.390	-0.223
-370.785	579.020	0.239	0.584
-369.771	800.000	0.165	0.498
-368.756	-85.386	-0.262	-0.081
-367.742	24.824	-0.377	0.311
-366.727	45.662	0.602	0.555
-365.712	-200.000	-0.067	0.392
-364.698	800.000	0.133	0.560
-363.683	287.257	0.442	0.797
-362.669	-60.132	-0.791	0.336
-361.654	-43.848	0.924	0.464
-360.639	188.831	0.468	0.699
-359.625	-64.463	-0.207	0.084
-358.610	-53.777	-0.244	-0.111
-357.596	-4.170	-0.407	0.281
-356.581	-200.000	0.005	0.136
-355.566	62.062	0.358	0.356
-354.552	800.000	0.125	0.380
-353.537	0.463	-0.467	0.333
-352.523	800.000	-0.093	-0.407
-351.508	-200.000	-0.042	0.642
-350.493	-200.000	-0.030	0.441
-349.479	-36.167	0.709	0.381
-348.464	800.000	-0.398	1.116
-347.450	-40.484	-0.072	0.037
-346.435	-119.521	-1.000	0.173
-345.420	-44.191	-0.260	0.130
-344.406	711.015	-0.085	0.225
-343.391	800.000	-0.096	-0.312
-342.377	-66.948	-0.925	-0.364
-341.362	-39.531	-0.405	0.212
-340.348	-124.616	0.459	-0.071
-339.333	-118.997	-0.343	-0.060
-338.318	0.485	-0.428	0.305
-337.304	140.658	0.254	-0.335
-336.289	4.666	0.431	-0.315
-335.275	-6.740	-0.299	0.202
-334.260	8.732	-0.856	-0.643
-333.245	-169.198	-0.104	0.004
-332.231	-54.115	-0.172	0.078
-331.216	800.000	-0.143	0.528
-330.202	-49.593	0.218	-0.103
-329.187	800.000	-0.415	-1.191
-328.172	543.784	0.240	-0.570
-327.158	155.073	-0.447	0.613
-326.143	-200.000	-0.047	0.444
-325.129	-35.126	-0.572	-0.310
-324.114	147.672	0.245	0.329
-323.099	414.551	-0.460	0.974
-322.085	19.491	0.715	-0.573
-321.070	57.430	-0.353	-0.343
-320.056	641.261	0.042	-0.106
-319.041	-200.000	0.192	-1.416
-318.026	-25.975	-0.861	-0.504
-317.012	-170.693	0.890	0.031
-315.997	577.147	0.151	-0.368
-314.983	252.675	0.232	0.393
-313.968	-134.136	0.345	0.042
-312.953	254.853	0.094	0.160
-311.939	-32.514	0.417	-0.231
-310.924	-200.000	-0.053	-0.480
-309.910	-89.143	-0.141	0.041
-308.895	35.900	-0.398	0.348
-307.880	88.092	-0.416	-0.459
-306.866	-24.339	0.472	0.280
-305.851	-21.860	0.339	0.205
-304.837	127.695	-0.037	0.047
-303.822	800.000	-0.205	-0.566
-302.807	-39.199	0.745	-0.389
-301.793	446.050	-0.155	0.339
-300.778	561.805	-0.281	-0.676
-299.764	800.000	-0.076	-0.215
-298.749	278.917	-0.188	-0.334
-297.735	-121.604	0.495	0.082
-296.720	-200.000	0.107	-0.640
-295.705	800.000	-0.106	-0.305
-294.691	-154.581	0.288	-0.019
-293.676	86.788	0.160	-0.175
-292.662	223.655	-0.078	-0.126
-291.647	363.039	-0.154	-0.308
-290.632	-200.000	0.078	-0.618
-289.618	332.195	-0.195	0.374
-288.603	-200.000	-0.101	0.523
-287.589	-79.550	-0.089	0.030
-286.574	523.451	0.402	-0.939
-285.559	162.199	0.165	0.231
-284.545	184.028	-0.231	0.340
-283.530	-144.177	-0.124	0.011
-282.516	-70.065	1.465	0.554
-281.501	261.138	0.563	0.968
-280.486	800.000	0.172	0.654
-279.472	536.314	-0.119	0.281
-278.457	-24.780	-0.356	-0.210
-277.443	123.222	0.488	-0.608
-276.428	-140.224	0.341	0.035
-275.413	-200.000	-0.135	0.604
-274.399	-190.142	-0.378	0.004
-273.384	-107.418	0.293	0.064
-272.370	-195.012	0.405	-0.003
-271.355	-127.900	-0.263	0.038
-270.340	-193.965	-0.841	0.007
-269.326	-94.142	-0.365	0.099
-268.311	-200.000	-0.016	-0.364
-267.297	-111.341	0.500	-0.101
-266.282	-60.469	-0.375	0.158
-265.267	154.727	0.194	0.264
-264.253	175.460	-0.390	-0.562
-263.238	80.714	-0.815	-0.873
-262.224	265.760	0.399	-0.692
-261.209	-151.684	1.495	0.109
-260.195	800.000	-0.132	0.429
-259.180	31.022	0.503	-0.428
-258.165	-5.192	0.521	-0.356
-257.151	-200.000	-0.016	0.094
-256.136	62.731	-0.796	-0.790
-255.122	-200.000	0.042	0.521
-254.107	-21.625	-0.323	0.196
-253.092	-200.000	0.428	0.002
-252.078	-70.425	0.399	0.150
-251.063	-66.235	-0.785	-0.310
-250.049	357.712	-0.174	-0.345
-249.034	45.385	0.133	-0.122
-248.019	-58.249	0.350	0.151
-247.005	-46.890	0.646	0.313
-245.990	423.834	-0.189	-0.403
-244.976	-200.000	-0.034	-0.296
-243.961	-200.000	0.082	0.392
-242.946	-147.636	0.627	-0.052
-241.932	-200.000	0.053	-1.007
-240.917	800.000	0.272	-0.876
-239.903	20.999	-0.210	0.169
-238.888	-86.103	-0.152	0.046
-237.873	383.978	0.366	0.748
-236.859	99.025	-0.191	-0.219
-235.844	-186.616	-0.322	-0.005
-234.830	-39.802	-0.379	0.196
-233.815	262.568	-0.214	-0.369
-232.800	84.559	-0.194	-0.211
-231.786	800.000	0.261	0.827
-230.771	-200.000	-0.028	0.430
-229.757	128.519	0.214	0.270
-228.742	-137.956	-0.273	-0.030
-227.727	-200.000	0.067	-0.895
-226.713	62.556	-0.310	0.308
-225.698	111.196	-0.294	-0.351
-224.684	539.099	-0.024	0.058
-223.669	216.453	-0.456	0.719
-222.655	-2.493	0.299	-0.208
-221.640	118.223	0.344	-0.421
-220.625	574.325	0.137	-0.332
-219.611	-65.906	0.746	-0.296
-218.596	50.279	-0.082	-0.076
-217.582	74.541	0.446	0.465
-216.567	176.117	-0.175	-0.253
-215.552	-86.348	-0.569	0.174
-214.538	-27.311	-0.460	-0.266
-213.523	-48.273	0.585	-0.280
-212.509	450.826	-0.316	0.692
-211.494	-200.000	0.082	0.393
-210.479	800.000	0.181	-0.530
-209.465	150.781	0.340	-0.458
-208.450	105.021	-0.338	0.395
-207.436	-130.001	0.692	-0.094
-206.421	669.714	-0.123	-0.315
-205.406	-37.777	-0.422	0.222
-204.392	800.000	0.151	0.494
-203.377	800.000	0.240	-0.757
-202.363	-121.353	0.359	0.059
-201.348	-32.118	0.197	0.109
-200.333	-132.706	0.765	0.097
-199.319	-200.000	-0.078	-0.419
-198.304	-100.846	0.504	-0.123
-197.290	-21.107	0.121	-0.074
-196.275	-44.164	0.256	0.127
-195.260	103.059	-0.600	0.696
-194.246	355.008	-0.410	0.809
-193.231	-111.574	0.587	-0.118
-192.217	-121.705	-0.289	-0.047
-191.202	-200.000	0.046	0.626
-190.187	7.862	-0.491	0.364
-189.173	-200.000	0.049	0.685
-188.158	-88.516	-0.507	-0.150
-187.144	1.903	-0.073	-0.052
-186.129	-165.205	0.076	-0.003
-185.114	-51.390	0.268	0.124
-184.100	53.629	0.486	-0.462
-183.085	34.602	-0.055	0.048
-182.071	-200.000	-0.103	0.783
-181.056	-36.338	0.731	-0.390
-180.042	-128.920	1.219	0.170
-179.027	-17.935	-0.780	-0.484
-178.012	-114.960	-0.455	-0.086
-176.998	-23.763	1.000	0.593
-175.983	-90.511	-0.560	-0.160
-174.969	93.803	0.290	0.325
-173.954	800.000	0.200	0.761
-172.939	-61.387	-0.228	-0.095
-171.925	-26.402	-0.163	-0.095
-170.910	360.031	-0.223	-0.441
-169.896	800.000	-0.290	0.854
-168.881	306.109	0.353	0.651
-167.866	-200.000	0.011	0.108
-166.852	-23.505	-0.189	-0.112
-165.837	-83.684	-0.245	0.077
-164.823	89.103	-0.228	-0.251
-163.808	42.738	0.220	0.198
-162.793	-13.597	-0.516	-0.331
-161.779	779.022	-0.069	0.187
-160.764	-127.497	-0.686	-0.099
-159.750	-62.888	-0.381	-0.156
-158.735	-200.000	0.122	0.760
-157.720	800.000	0.261	-0.823
-156.706	-200.000	0.166	-1.049
-155.691	-58.242	0.684	-0.294
-154.677	-149.088	0.344	0.027
-153.662	-107.003	0.509	0.111
-152.647	-200.000	0.028	-0.284
-151.633	-27.800	0.865	0.496
-150.618	-91.857	0.420	0.118
-149.604	98.882	0.273	0.312
-148.589	-200.000	1.017	-0.004
-147.574	-200.000	-0.007	-0.602
-146.560	-200.000	0.095	-0.793
-145.545	-200.000	0.004	-0.503
-144.531	-161.499	-0.262	0.013
-143.516	-200.000	0.021	-0.580
-142.502	-63.768	0.592	0.240
-141.487	-104.987	-0.792	0.179
-140.472	105.655	0.476	-0.557
-139.458	109.345	0.176	-0.208
-138.443	217.267	-0.509	-0.802
-137.429	63.799	0.329	-0.327
-136.414	-144.110	0.958	-0.089
-135.399	-138.599	-0.875	-0.095
-134.385	189.965	-0.490	0.727
-133.370	26.831	-0.481	0.399
-132.356	-138.092	-0.337	0.037
-131.341	-1.157	-0.266	-0.186
-130.326	516.892	0.073	0.169
-129.312	77.361	0.815	0.857
-128.297	199.112	0.475	0.719
-127.283	-200.000	0.037	-0.710
-126.268	800.000	0.188	-0.722
-125.253	209.347	-0.587	-0.909
-124.239	378.645	0.194	-0.393
-123.224	-130.442	-1.177	-0.157
-122.210	568.604	0.428	1.028
