DTS Sentinel unit serial number:	SN413079Multiplexer serial number:	ORYXHardware model number:	OX4-SRSoftware version number:	ORYX F/W v4.00 Oryx Data Collector v3.7.2.0data status	okinstallation	princeton_trtdifferential loss correction	single-endedforward channel	channel 1reverse channel	N/Adate	2019/09/18time	19:38:35forward acquisition time	60.00reverse acquisition time	0.00gamma	496.2192k internal	0.2325k external	0.2325temperature offset calibration	1.0033default loss term (dB/km)	0.3790temperature slope calibration	1.0000multiplexer offset coefficient	1.0000multiplexer slope coefficient	1.0000fibre end	0.00T internal ref (°C)	32.11T ext. ref 1 (°C)	1.08T ext. ref 2 (°C)	22.46length (m)	temperature (°C)	Stokes	anti-Stokes-747.200	795.054	0.035	0.098
-746.185	367.533	-0.123	-0.250
-745.171	-200.000	-0.015	-0.128
-744.156	-49.105	0.306	-0.148
-743.142	-200.000	0.001	0.110
-742.127	-86.818	0.256	0.079
-741.112	800.000	0.043	-0.180
-740.098	289.813	-0.120	0.219
-739.083	-146.077	0.100	-0.009
-738.069	95.762	0.116	0.134
-737.054	800.000	-0.028	-0.109
-736.039	214.067	0.111	-0.177
-735.025	-200.000	0.011	0.226
-734.010	87.494	-0.149	-0.166
-732.996	575.727	0.080	-0.198
-731.981	-116.224	-0.309	0.058
-730.966	623.045	0.039	-0.098
-729.952	-140.931	0.109	0.011
-728.937	38.594	-0.116	-0.104
-727.923	800.000	-0.099	-0.292
-726.908	-30.814	-0.167	-0.095
-725.894	92.760	0.046	0.052
-724.879	77.659	-0.247	-0.265
-723.864	590.119	-0.061	0.152
-722.850	53.914	0.146	-0.141
-721.835	-89.603	0.183	0.054
-720.821	538.745	-0.063	0.150
-719.806	800.000	0.015	-0.058
-718.791	1.631	-0.137	-0.099
-717.777	-200.000	0.006	0.178
-716.762	-200.000	-0.031	-0.198
-715.748	-121.087	-0.241	0.041
-714.733	800.000	-0.033	0.145
-713.718	172.967	0.329	0.478
-712.704	-72.671	-0.179	-0.067
-711.689	98.550	-0.143	0.166
-710.675	-194.002	-0.125	0.001
-709.660	-200.000	0.037	-0.287
-708.645	-45.474	-0.242	0.121
-707.631	58.365	0.154	0.152
-706.616	-39.346	0.284	-0.150
-705.602	-200.000	-0.083	-0.371
-704.587	-150.605	0.314	-0.024
-703.572	-134.784	-0.218	0.027
-702.558	-32.327	-0.320	-0.180
-701.543	147.587	0.152	-0.207
-700.529	555.551	-0.056	-0.137
-699.514	573.518	-0.033	-0.080
-698.499	260.434	-0.121	-0.211
-697.485	243.145	0.079	-0.134
-696.470	-58.349	-0.334	-0.146
-695.456	-200.000	-0.049	0.269
-694.441	20.719	0.180	0.147
-693.426	-42.800	0.204	0.105
-692.412	-200.000	-0.006	-0.056
-691.397	800.000	-0.095	-0.319
-690.383	-89.185	-0.268	-0.080
-689.368	31.915	-0.086	0.075
-688.354	133.783	-0.096	-0.125
-687.339	308.488	0.125	0.234
-686.324	-82.130	-0.331	0.109
-685.310	-149.169	-0.148	-0.012
-684.295	675.044	-0.116	0.303
-683.281	151.517	-0.207	0.284
-682.266	-121.046	-0.198	0.033
-681.251	-13.575	-0.101	-0.066
-680.237	800.000	0.038	0.128
-679.222	-200.000	0.007	-0.205
-678.208	28.913	-0.046	0.039
-677.193	293.915	0.094	-0.173
-676.178	776.274	0.087	-0.239
-675.164	106.579	0.112	-0.134
-674.149	800.000	0.060	-0.167
-673.135	-200.000	0.018	0.129
-672.120	-46.232	0.187	-0.093
-671.105	-200.000	0.016	0.141
-670.091	-41.579	-0.089	-0.046
-669.076	-29.950	-0.041	-0.024
-668.062	800.000	0.029	0.122
-667.047	-77.472	-0.226	-0.079
-666.032	-62.497	-0.217	-0.091
-665.018	12.589	0.200	0.155
-664.003	800.000	0.051	-0.203
-662.989	-112.040	0.180	-0.036
-661.974	-200.000	-0.044	-0.273
-660.959	-200.000	-0.001	0.166
-659.945	-125.114	-0.259	-0.040
-658.930	660.765	-0.025	-0.065
-657.916	685.152	0.061	-0.160
-656.901	21.849	-0.157	-0.128
-655.886	-107.921	0.336	0.073
-654.872	-71.730	0.091	-0.034
-653.857	-20.745	0.076	-0.047
-652.843	-200.000	-0.010	-0.093
-651.828	800.000	-0.078	-0.227
-650.814	-43.943	-0.115	0.058
-649.799	-46.488	-0.225	0.111
-648.784	800.000	0.012	0.038
-647.770	-200.000	0.019	0.509
-646.755	-200.000	-0.005	0.265
-645.741	-71.419	0.451	-0.170
-644.726	-200.000	-0.020	-0.155
-643.711	-200.000	-0.076	-0.384
-642.697	93.045	0.057	0.064
-641.682	63.690	-0.155	-0.156
-640.668	218.760	0.144	-0.231
-639.653	-200.000	0.009	0.208
-638.638	302.092	-0.092	0.172
-637.624	-54.571	-0.273	-0.124
-636.609	1.568	0.091	0.066
-635.595	-200.000	0.000	0.038
-634.580	19.281	0.282	-0.227
-633.565	-140.684	0.076	-0.008
-632.551	-21.470	-0.136	0.083
-631.536	-90.811	-0.220	0.064
-630.522	-56.849	-0.124	0.055
-629.507	-44.848	0.133	-0.066
-628.492	42.265	0.171	-0.156
-627.478	-200.000	0.019	0.118
-626.463	-120.488	0.302	0.051
-625.449	288.251	-0.294	0.534
-624.434	729.057	0.025	-0.067
-623.419	-41.135	0.410	-0.213
-622.405	-65.872	-0.185	0.074
-621.390	-102.534	-0.297	-0.071
-620.376	91.982	-0.064	-0.073
-619.361	-74.663	-0.079	-0.029
-618.346	-200.000	-0.054	-0.251
-617.332	800.000	0.048	-0.170
-616.317	34.546	0.158	-0.138
-615.303	-56.937	-0.299	-0.132
-614.288	-3.889	0.126	-0.088
-613.273	-42.012	-0.142	0.073
-612.259	256.898	0.037	-0.063
-611.244	91.924	0.239	0.270
-610.230	0.183	-0.185	0.132
-609.215	-31.300	-0.266	0.151
-608.201	32.842	-0.123	0.106
-607.186	160.114	0.172	-0.240
-606.171	14.681	0.211	0.166
-605.157	800.000	0.056	0.180
-604.142	-44.856	0.168	0.084
-603.128	791.208	0.031	-0.086
-602.113	-3.739	0.175	-0.122
-601.098	0.250	-0.120	-0.086
-600.084	-200.000	0.001	-0.305
-599.069	228.430	-0.123	-0.201
-598.055	-26.788	0.139	0.082
-597.040	53.802	0.043	0.042
-596.025	-48.474	-0.188	-0.091
-595.011	-119.762	0.252	-0.044
-593.996	-200.000	-0.050	0.469
-592.982	-71.736	-0.179	0.067
-591.967	89.443	-0.098	0.109
-590.952	154.555	0.155	0.213
-589.938	85.984	-0.205	-0.227
-588.923	-200.000	0.005	-0.039
-587.909	-200.000	0.027	-0.272
-586.894	800.000	0.027	-0.087
-585.879	275.417	-0.086	0.153
-584.865	-200.000	0.047	-0.239
-583.850	20.148	-0.077	0.062
-582.836	316.096	0.062	0.118
-581.821	308.985	-0.075	0.141
-580.806	-100.536	-0.149	-0.037
-579.792	-86.017	-0.322	0.100
-578.777	-64.099	-0.193	-0.079
-577.763	800.000	0.065	-0.188
-576.748	58.947	-0.170	-0.168
-575.733	435.226	-0.131	0.286
-574.719	-68.104	0.119	0.046
-573.704	-200.000	0.049	-0.227
-572.690	130.933	-0.369	-0.475
-571.675	271.051	-0.169	0.298
-570.661	-88.930	-0.088	0.026
-569.646	-200.000	0.008	0.088
-568.631	250.348	0.164	0.280
-567.617	-79.429	0.159	-0.054
-566.602	-49.152	0.030	0.015
-565.588	22.168	-0.171	-0.140
-564.573	314.442	-0.070	-0.133
-563.558	-116.439	0.159	0.030
-562.544	23.007	0.184	0.151
-561.529	68.496	-0.182	-0.187
-560.515	192.230	0.227	-0.343
-559.500	-107.416	0.167	0.037
-558.485	640.147	0.022	-0.057
-557.471	-200.000	-0.020	0.337
-556.456	-142.567	0.319	0.031
-555.442	193.347	-0.169	-0.257
-554.427	-64.625	-0.116	0.047
-553.412	800.000	-0.008	0.032
-552.398	-200.000	-0.009	0.049
-551.383	-66.190	0.298	0.119
-550.369	-112.593	-0.319	0.064
-549.354	800.000	-0.062	0.253
-548.339	-142.725	0.404	-0.039
-547.325	327.914	0.094	-0.181
-546.310	590.731	-0.113	0.279
-545.296	437.834	0.119	-0.259
-544.281	627.019	0.064	-0.162
-543.266	539.319	0.101	-0.239
-542.252	-34.892	0.167	0.091
-541.237	-18.681	-0.147	0.092
-540.223	-149.588	0.321	-0.025
-539.208	-49.747	-0.213	0.101
-538.193	-200.000	0.000	0.171
-537.179	-31.293	0.040	0.023
-536.164	800.000	-0.074	0.297
-535.150	30.092	0.135	-0.115
-534.135	-200.000	0.024	-0.257
-533.121	158.969	0.140	0.195
-532.106	-200.000	-0.014	0.169
-531.091	642.095	0.065	-0.167
-530.077	-130.449	-0.484	-0.065
-529.062	152.262	0.090	0.122
-528.048	800.000	-0.096	0.369
-527.033	-200.000	-0.075	0.432
-526.018	800.000	0.049	0.185
-525.004	534.603	0.155	-0.367
-523.989	800.000	0.045	-0.143
-522.975	-200.000	-0.015	-0.085
-521.960	483.239	-0.127	0.290
-520.945	115.739	-0.156	0.191
-519.931	-64.499	-0.238	0.097
-518.916	-200.000	-0.021	-0.147
-517.902	69.907	-0.093	0.096
-516.887	-153.983	-0.426	-0.029
-515.872	800.000	0.015	0.049
-514.858	-12.208	-0.242	0.158
-513.843	-117.472	0.091	-0.016
-512.829	92.711	0.109	-0.123
-511.814	45.393	-0.095	-0.087
-510.799	-72.156	0.386	-0.143
-509.785	-200.000	0.022	0.106
-508.770	-48.437	0.241	-0.116
-507.756	-200.000	-0.078	0.351
-506.741	485.670	-0.082	0.187
-505.726	124.007	0.208	0.261
-504.712	469.042	0.116	-0.261
-503.697	-26.023	0.173	0.101
-502.683	-20.694	-0.201	0.123
-501.668	-74.321	-0.400	0.145
-500.653	-121.119	0.179	-0.030
-499.639	800.000	-0.025	-0.104
-498.624	112.140	-0.131	-0.158
-497.610	-127.221	0.236	0.034
-496.595	72.091	-0.147	0.153
-495.581	800.000	0.101	0.373
-494.566	487.083	-0.104	-0.238
-493.551	105.912	-0.170	-0.201
-492.537	800.000	0.054	-0.157
-491.522	341.014	0.071	0.138
-490.508	-72.497	-0.091	-0.034
-489.493	-72.265	-0.103	0.038
-488.478	75.367	0.194	-0.204
-487.464	-68.523	0.284	0.110
-486.449	-82.535	-0.158	0.051
-485.435	-74.499	0.148	0.053
-484.420	157.643	-0.118	-0.164
-483.405	-154.613	0.453	0.030
-482.391	-156.038	-0.291	0.018
-481.376	38.152	-0.219	-0.195
-480.362	5.523	0.242	0.178
-479.347	-78.608	0.143	-0.049
-478.332	-64.065	-0.079	-0.032
-477.318	25.852	0.171	0.143
-476.303	-41.063	-0.116	-0.060
-475.289	-200.000	-0.033	0.239
-474.274	144.713	0.010	0.013
-473.259	80.837	0.070	-0.076
-472.245	135.292	0.241	-0.313
-471.230	-122.895	-0.319	0.051
-470.216	415.114	0.071	-0.150
-469.201	14.345	-0.272	-0.212
-468.186	474.461	0.112	0.253
-467.172	-123.164	-0.166	0.027
-466.157	384.065	0.138	-0.283
-465.143	376.591	0.106	-0.216
-464.128	14.916	-0.132	-0.103
-463.113	-200.000	0.007	-0.449
-462.099	194.642	-0.019	-0.029
-461.084	114.391	-0.110	-0.133
-460.070	7.032	0.176	-0.131
-459.055	-200.000	-0.010	0.060
-458.040	425.784	0.111	0.239
-457.026	80.201	-0.240	-0.258
-456.011	120.694	0.101	0.125
-454.997	800.000	-0.097	0.352
-453.982	354.614	0.167	0.330
-452.968	179.878	0.192	0.280
-451.953	538.285	0.086	-0.204
-450.938	-200.000	0.079	-0.438
-449.924	800.000	-0.085	0.296
-448.909	-71.574	-0.109	-0.041
-447.895	-200.000	-0.039	-0.262
-446.880	-200.000	0.011	0.076
-445.865	800.000	0.060	0.191
-444.851	263.408	-0.114	-0.198
-443.836	-200.000	0.019	-0.293
-442.822	10.655	0.119	0.090
-441.807	285.446	-0.066	-0.119
-440.792	-200.000	-0.051	0.328
-439.778	141.449	0.058	0.077
-438.763	-43.298	-0.095	-0.048
-437.749	139.473	0.177	-0.232
-436.734	-128.617	0.227	-0.032
-435.719	-149.641	0.215	0.017
-434.705	-200.000	0.005	-0.192
-433.690	-109.998	-0.258	0.054
-432.676	56.167	0.049	-0.048
-431.661	-141.519	-0.457	0.046
-430.646	800.000	0.063	0.180
-429.632	73.595	-0.233	0.243
-428.617	-116.413	-0.277	-0.051
-427.603	-184.436	0.144	0.002
-426.588	-2.359	-0.099	-0.069
-425.573	-78.666	-0.237	-0.081
-424.559	-200.000	0.001	0.177
-423.544	800.000	0.072	-0.229
-422.530	-18.758	-0.345	0.214
-421.515	-139.609	-0.211	-0.022
-420.500	223.026	0.150	-0.240
-419.486	-120.591	0.132	0.022
-418.471	-92.145	0.087	-0.024
-417.457	-145.704	-0.223	0.020
-416.442	-138.048	0.197	-0.022
-415.428	-30.949	-0.226	-0.127
-414.413	800.000	0.076	0.243
-413.398	-123.309	0.143	0.023
-412.384	13.757	0.161	0.125
-411.369	-111.157	-0.065	0.013
-410.355	800.000	-0.129	0.451
-409.340	207.633	0.070	-0.109
-408.325	-6.839	-0.405	0.274
-407.311	-149.243	0.445	-0.035
-406.296	142.771	-0.182	0.241
-405.282	258.366	-0.132	-0.226
-404.267	148.000	0.096	-0.129
-403.252	-152.763	0.209	0.015
-402.238	760.657	0.115	-0.312
-401.223	674.331	-0.079	-0.203
-400.209	-200.000	-0.016	-0.241
-399.194	216.785	0.161	0.255
-398.179	800.000	-0.100	-0.324
-397.165	109.935	-0.129	-0.155
-396.150	125.353	0.225	0.282
-395.136	800.000	-0.076	-0.225
-394.121	193.601	-0.145	-0.219
-393.106	-200.000	-0.040	0.193
-392.092	241.312	-0.126	-0.209
-391.077	-200.000	-0.077	0.508
-390.063	431.813	0.059	0.128
-389.048	-187.364	0.130	0.002
-388.033	0.427	-0.312	-0.222
-387.019	-129.406	-0.156	0.021
-386.004	-200.000	0.001	0.017
-384.990	124.495	-0.173	-0.216
-383.975	737.376	-0.104	-0.277
-382.960	240.775	0.035	0.057
-381.946	-70.792	0.305	-0.114
-380.931	464.005	-0.080	0.179
-379.917	269.883	-0.198	0.345
-378.902	-50.040	-0.367	-0.173
-377.888	-28.456	-0.073	-0.042
-376.873	195.312	-0.031	-0.047
-375.858	26.438	-0.094	0.078
-374.844	676.749	-0.067	-0.174
-373.829	-51.721	0.115	-0.053
-372.815	-200.000	0.011	-0.299
-371.800	-4.241	-0.277	-0.191
-370.785	-63.353	-0.238	0.097
-369.771	-181.357	-0.296	0.006
-368.756	-192.899	0.153	-0.001
-367.742	-194.702	0.039	0.000
-366.727	306.404	-0.129	0.239
-365.712	246.796	0.201	0.337
-364.698	-56.741	0.101	0.044
-363.683	798.554	0.081	-0.222
-362.669	-200.000	-0.010	0.427
-361.654	800.000	-0.078	-0.262
-360.639	-107.230	-0.075	0.016
-359.625	-131.597	-0.342	-0.045
-358.610	432.120	-0.106	0.229
-357.596	432.875	0.105	-0.227
-356.581	-200.000	-0.035	-0.292
-355.566	66.245	0.136	-0.138
-354.552	19.726	0.328	-0.262
-353.537	-200.000	0.045	0.296
-352.523	-109.813	-0.454	-0.095
-351.508	800.000	-0.077	0.268
-350.493	92.345	-0.134	-0.150
-349.479	25.035	0.232	0.191
-348.464	-200.000	0.005	-0.084
-347.450	750.664	-0.098	-0.262
-346.435	-200.000	0.045	-0.355
-345.420	-194.299	0.184	-0.001
-344.406	-107.351	0.263	-0.057
-343.391	-200.000	-0.052	-0.287
-342.377	-97.193	-0.222	-0.058
-341.362	39.662	-0.104	0.092
-340.348	136.399	-0.037	-0.048
-339.333	800.000	0.074	-0.231
-338.318	800.000	0.079	0.256
-337.304	-152.465	-0.261	0.019
-336.289	800.000	-0.067	-0.233
-335.275	145.806	0.072	0.095
-334.260	311.371	0.023	-0.043
-333.245	-32.280	0.269	0.149
-332.231	27.632	-0.016	0.013
-331.216	-147.423	-0.380	-0.032
-330.202	404.119	0.056	-0.117
-329.187	-19.878	-0.078	-0.048
-328.172	-200.000	0.028	0.000
-327.158	4.788	0.267	-0.195
-326.143	-113.451	-0.166	-0.032
-325.129	76.465	-0.199	0.210
-324.114	-200.000	-0.039	0.000
-323.099	227.149	0.120	-0.193
-322.085	283.676	-0.208	-0.371
-321.070	-76.465	0.212	-0.074
-320.056	800.000	-0.056	0.173
-319.041	800.000	-0.102	-0.303
-318.026	-187.000	0.376	0.005
-317.012	391.630	0.068	-0.139
-315.997	314.897	0.131	-0.244
-314.983	179.337	0.075	0.109
-313.968	409.893	0.089	-0.187
-312.953	800.000	0.029	0.080
-311.939	114.595	0.291	0.352
-310.924	800.000	0.026	-0.095
-309.910	699.830	-0.122	0.318
-308.895	120.115	0.172	0.212
-307.880	-117.528	0.117	0.021
-306.866	-44.586	-0.108	0.054
-305.851	-200.000	0.059	0.366
-304.837	-77.262	0.195	-0.067
-303.822	52.656	-0.104	-0.098
-302.807	15.560	0.077	0.060
-301.793	-111.334	0.207	0.042
-300.778	-156.569	0.082	-0.005
-299.764	115.845	0.135	-0.164
-298.749	48.609	-0.154	0.143
-297.735	-69.863	-0.311	0.118
-296.720	800.000	-0.071	0.254
-295.705	-122.754	-0.091	-0.015
-294.691	-87.450	0.435	-0.131
-293.676	706.189	-0.117	0.307
-292.662	-156.197	-0.438	0.027
-291.647	-200.000	0.040	-0.201
-290.632	-57.767	0.022	0.010
-289.618	-22.119	-0.220	0.132
-288.603	578.742	0.144	0.350
-287.589	-200.000	-0.013	0.154
-286.574	-159.271	-0.131	0.007
-285.559	37.362	0.269	0.236
-284.545	29.781	0.280	-0.237
-283.530	613.487	-0.157	-0.390
-282.516	-199.583	0.204	0.001
-281.501	-200.000	-0.017	-0.151
-280.486	-50.694	0.254	0.119
-279.472	172.364	-0.119	0.169
-278.457	-200.000	-0.004	0.064
-277.443	-200.000	0.012	0.165
-276.428	-57.769	-0.171	-0.074
-275.413	-43.062	0.183	-0.092
-274.399	-71.592	-0.255	-0.094
-273.384	-162.881	0.343	-0.017
-272.370	-74.871	0.257	-0.091
-271.355	800.000	0.040	-0.133
-270.340	-36.118	0.060	-0.032
-269.326	164.965	-0.239	0.334
-268.311	-77.960	0.093	-0.032
-267.297	-83.639	0.371	0.117
-266.282	-77.958	0.283	-0.097
-265.267	-118.163	-0.244	0.043
-264.253	-200.000	-0.041	0.263
-263.238	800.000	0.048	0.190
-262.224	-19.489	-0.259	-0.159
-261.209	119.654	0.319	-0.391
-260.195	-156.983	0.101	0.006
-259.180	800.000	0.053	0.168
-258.165	-200.000	0.087	0.459
-257.151	-18.893	0.320	-0.197
-256.136	10.213	0.069	0.052
-255.122	207.165	0.050	0.077
-254.107	-200.000	0.013	-0.331
-253.092	-18.169	-0.030	0.019
-252.078	50.257	0.314	-0.294
-251.063	-3.476	0.201	0.138
-250.049	-141.203	-0.066	0.007
-249.034	-200.000	-0.007	0.218
-248.019	-75.872	0.165	-0.058
-247.005	184.238	-0.163	-0.239
-245.990	-200.000	0.004	-0.029
-244.976	109.553	0.109	0.130
-243.961	85.277	0.117	0.127
-242.946	635.007	-0.033	0.084
-241.932	-200.000	-0.016	-0.097
-240.917	731.895	0.090	-0.238
-239.903	800.000	-0.060	-0.204
-238.888	-122.516	-0.313	-0.050
-237.873	234.055	0.011	-0.018
-236.859	-7.933	-0.411	0.274
-235.844	18.232	0.122	-0.096
-234.830	-94.776	0.154	0.041
-233.815	177.097	-0.067	0.097
-232.800	253.035	0.197	0.333
-231.786	-200.000	-0.018	0.423
-230.771	-94.614	-0.198	0.053
-229.757	800.000	0.037	0.156
-228.742	-200.000	-0.005	0.269
-227.727	-62.271	0.136	-0.056
-226.713	-200.000	0.018	0.081
-225.698	-7.660	0.087	0.058
-224.684	49.631	0.083	0.077
-223.669	133.296	0.134	0.171
-222.655	242.339	0.045	-0.074
-221.640	193.685	-0.082	-0.122
-220.625	-200.000	-0.001	-0.148
-219.611	-200.000	0.030	-0.149
-218.596	298.250	-0.098	0.178
-217.582	-200.000	0.099	-0.456
-216.567	-50.229	0.161	0.075
-215.552	-121.637	0.168	-0.027
-214.538	-11.411	-0.105	0.069
-213.523	-200.000	0.025	-0.203
-212.509	-88.939	0.111	0.032
-211.494	86.614	0.268	-0.292
-210.479	-143.068	-0.152	0.015
-209.465	77.785	-0.134	-0.141
-208.450	35.007	-0.024	-0.021
-207.436	800.000	-0.065	-0.271
-206.421	95.514	0.176	-0.198
-205.406	79.913	-0.069	0.073
-204.392	232.487	0.158	0.257
-203.377	-200.000	0.011	-0.122
-202.363	80.870	0.087	-0.092
-201.348	-113.454	0.219	0.042
-200.333	-153.290	-0.018	-0.001
-199.319	522.845	-0.163	0.377
-198.304	-28.595	0.389	0.221
-197.290	-200.000	-0.018	-0.171
-196.275	-144.368	0.261	-0.024
-195.260	99.655	-0.157	0.180
-194.246	157.326	0.092	0.126
-193.231	-200.000	-0.011	0.146
-192.217	-200.000	0.011	0.208
-191.202	-25.900	0.200	-0.116
-190.187	295.359	-0.031	-0.055
-189.173	-200.000	-0.005	0.290
-188.158	332.687	-0.136	0.259
-187.144	-200.000	0.000	0.265
-186.129	-123.213	0.245	0.039
-185.114	52.463	0.112	0.106
-184.100	10.373	-0.077	0.058
-183.085	209.011	0.107	0.165
-182.071	-200.000	0.028	0.154
-181.056	38.738	-0.196	-0.173
-180.042	54.972	-0.229	0.218
-179.027	-200.000	-0.038	-0.410
-178.012	-9.160	-0.075	-0.050
-176.998	8.974	-0.276	-0.206
-175.983	155.541	-0.066	-0.090
-174.969	62.072	-0.096	-0.094
-173.954	724.653	-0.111	-0.292
-172.939	800.000	0.038	0.132
-171.925	-0.924	0.023	-0.016
-170.910	-200.000	0.014	0.228
-169.896	-61.461	0.061	-0.025
-168.881	-175.656	0.084	0.002
-167.866	-130.779	-0.022	0.003
-166.852	-72.739	0.172	0.063
-165.837	-200.000	0.097	0.537
-164.823	-106.376	0.310	0.068
-163.808	-200.000	0.011	-0.068
-162.793	-28.398	-0.046	0.026
-161.779	-200.000	-0.023	-0.152
-160.764	-91.208	-0.229	-0.065
-159.750	9.445	-0.205	-0.153
-158.735	-26.670	-0.412	-0.238
-157.720	316.237	-0.109	-0.203
-156.706	800.000	0.011	-0.033
-155.691	257.166	-0.193	-0.327
-154.677	62.763	-0.218	-0.215
-153.662	-200.000	-0.014	-0.204
-152.647	-57.035	0.119	-0.052
-151.633	-200.000	-0.056	0.322
-150.618	42.023	0.081	0.073
-149.604	-106.541	0.250	-0.055
-148.589	-53.283	0.125	0.056
-147.574	429.395	-0.016	-0.034
-146.560	-84.198	0.250	0.078
-145.545	-5.991	-0.062	0.042
-144.531	243.470	-0.150	0.248
-143.516	-100.219	0.273	0.067
-142.502	800.000	0.119	-0.359
-141.487	-74.611	0.216	0.077
-140.472	525.879	-0.044	-0.102
-139.458	26.299	0.129	-0.106
-138.443	-83.118	0.394	0.125
-137.429	800.000	0.049	0.213
-136.414	22.312	-0.050	-0.040
-135.399	-28.384	0.242	0.138
-134.385	615.980	0.038	-0.094
-133.370	17.975	0.124	-0.097
-132.356	318.569	0.071	-0.133
-131.341	76.595	-0.301	-0.315
-130.326	-121.927	0.124	0.020
-129.312	800.000	-0.035	0.098
-128.297	800.000	0.139	-0.481
-127.283	-116.085	-0.253	0.046
-126.268	-200.000	-0.010	-0.367
-125.253	800.000	-0.066	-0.251
-124.239	-95.697	0.218	-0.057
-123.224	-200.000	-0.020	-0.118
-122.210	315.474	0.148	0.274
-121.195	-12.323	-0.260	0.167
