DTS Sentinel unit serial number:	SN413079Multiplexer serial number:	ORYXHardware model number:	OX4-SRSoftware version number:	ORYX F/W v4.00 Oryx Data Collector v3.7.2.0data status	okinstallation	princeton_trtdifferential loss correction	single-endedforward channel	channel 1reverse channel	N/Adate	2019/09/15time	04:58:35forward acquisition time	60.00reverse acquisition time	0.00gamma	496.2192k internal	0.2324k external	0.2324temperature offset calibration	1.0001default loss term (dB/km)	0.3790temperature slope calibration	1.0000multiplexer offset coefficient	1.0000multiplexer slope coefficient	1.0000fibre end	0.00T internal ref (°C)	30.69T ext. ref 1 (°C)	4.85T ext. ref 2 (°C)	25.14length (m)	temperature (°C)	Stokes	anti-Stokes-747.200	-144.223	0.224	0.021
-746.185	126.356	-0.366	0.468
-745.171	-119.194	-0.239	-0.042
-744.156	101.353	-0.046	-0.055
-743.142	-188.467	-0.153	-0.002
-742.127	-77.654	0.193	0.067
-741.112	-140.371	0.045	-0.005
-740.098	-200.000	0.001	0.135
-739.083	37.283	-0.268	-0.239
-738.069	-200.000	-0.017	-0.184
-737.054	-200.000	0.053	-0.278
-736.039	264.054	-0.089	0.156
-735.025	800.000	-0.046	-0.189
-734.010	-84.353	0.059	-0.019
-732.996	-141.534	-0.688	0.070
-731.981	-168.926	-0.146	0.006
-730.966	-200.000	0.028	-0.164
-729.952	60.658	0.244	-0.244
-728.937	-155.135	-0.128	0.008
-727.923	-200.000	0.012	0.075
-726.908	-10.608	-0.320	0.214
-725.894	-200.000	-0.024	-0.134
-724.879	-24.826	-0.285	0.171
-723.864	800.000	0.114	0.396
-722.850	-157.856	-0.313	-0.019
-721.835	-74.947	0.130	0.047
-720.821	150.453	0.279	0.382
-719.806	-24.641	-0.366	-0.220
-718.791	-67.457	0.140	0.055
-717.777	-6.631	-0.068	0.046
-716.762	45.102	0.150	-0.139
-715.748	800.000	0.073	-0.268
-714.733	-100.982	-0.130	-0.032
-713.718	128.772	0.085	-0.109
-712.704	-87.613	-0.027	-0.008
-711.689	324.090	-0.093	0.180
-710.675	-34.628	0.172	0.095
-709.660	2.664	-0.094	0.068
-708.645	82.625	-0.209	-0.228
-707.631	250.408	-0.169	0.290
-706.616	-200.000	0.020	0.114
-705.602	-200.000	-0.007	-0.361
-704.587	-141.278	-0.104	0.011
-703.572	-76.516	-0.276	-0.098
-702.558	-14.828	0.520	-0.336
-701.543	-94.198	-0.164	0.045
-700.529	-118.849	-0.234	-0.041
-699.514	184.903	-0.066	-0.098
-698.499	-200.000	-0.005	0.089
-697.485	800.000	-0.033	0.094
-696.470	107.358	-0.332	-0.398
-695.456	454.158	0.052	-0.115
-694.441	654.373	0.063	-0.163
-693.426	3.126	-0.069	-0.050
-692.412	38.274	-0.353	0.317
-691.397	-7.221	0.031	0.021
-690.383	-118.020	-0.233	-0.042
-689.368	-108.341	-0.404	-0.088
-688.354	-91.266	-0.243	-0.070
-687.339	-79.670	0.128	-0.043
-686.324	191.210	-0.094	0.142
-685.310	91.384	0.133	0.150
-684.295	655.646	0.149	-0.386
-683.281	-200.000	0.001	0.131
-682.266	54.123	-0.117	-0.114
-681.251	148.125	-0.217	-0.295
-680.237	-33.482	0.252	-0.140
-679.222	-102.877	0.143	-0.034
-678.208	-139.968	0.088	-0.009
-677.193	-136.149	-0.513	0.061
-676.178	-200.000	0.020	0.136
-675.164	83.066	-0.197	0.216
-674.149	-200.000	0.009	-0.184
-673.135	77.750	-0.209	-0.224
-672.120	228.057	-0.248	-0.407
-671.105	-58.936	-0.292	-0.127
-670.091	-166.491	0.276	0.012
-669.076	-35.585	-0.265	-0.145
-668.062	-89.833	0.219	0.064
-667.047	-200.000	-0.002	-0.038
-666.032	104.488	-0.106	-0.126
-665.018	230.035	0.074	-0.121
-664.003	-200.000	0.001	0.185
-662.989	36.338	-0.354	-0.314
-661.974	161.743	-0.056	0.079
-660.959	251.112	0.077	-0.132
-659.945	94.738	-0.110	-0.126
-658.930	-78.002	0.174	-0.060
-657.916	-67.668	0.199	0.078
-656.901	-200.000	0.006	-0.107
-655.886	-118.232	-0.294	-0.053
-654.872	-21.813	0.166	-0.102
-653.857	589.481	-0.053	-0.132
-652.843	149.648	0.074	0.100
-651.828	-71.748	0.123	0.046
-650.814	56.643	0.244	0.239
-649.799	-43.723	0.106	-0.054
-648.784	800.000	0.069	-0.294
-647.770	18.126	-0.299	-0.240
-646.755	-200.000	0.031	-0.158
-645.741	479.934	-0.078	0.179
-644.726	38.733	0.014	-0.012
-643.711	8.228	0.136	0.102
-642.697	-200.000	0.000	0.119
-641.682	-200.000	-0.009	0.268
-640.668	-200.000	0.004	-0.117
-639.653	-124.124	0.415	0.065
-638.638	3.270	-0.132	-0.097
-637.624	34.876	-0.242	-0.212
-636.609	-113.553	-0.066	0.013
-635.595	332.832	-0.068	0.131
-634.580	-68.245	-0.156	0.061
-633.565	629.579	-0.104	0.265
-632.551	-200.000	0.043	0.215
-631.536	-22.557	-0.264	0.160
-630.522	-95.534	0.221	0.060
-629.507	-117.164	0.136	-0.025
-628.492	-200.000	0.037	-0.253
-627.478	-200.000	0.023	-0.332
-626.463	-115.126	-0.375	0.072
-625.449	65.793	0.273	-0.278
-624.434	800.000	-0.123	-0.353
-623.419	-120.204	0.174	0.030
-622.405	-12.180	0.170	0.112
-621.390	-9.323	0.148	-0.100
-620.376	-117.452	0.135	0.025
-619.361	101.400	-0.113	-0.132
-618.346	42.677	0.228	0.208
-617.332	800.000	0.102	-0.363
-616.317	800.000	-0.083	-0.300
-615.303	241.753	0.203	0.341
-614.288	-92.772	-0.052	-0.015
-613.273	259.042	-0.124	-0.216
-612.259	723.831	-0.035	-0.093
-611.244	109.000	-0.076	-0.091
-610.230	-78.752	0.205	0.070
-609.215	-149.704	-0.169	0.013
-608.201	-7.538	0.084	0.057
-607.186	468.902	-0.061	0.138
-606.171	72.271	-0.316	0.330
-605.157	-200.000	0.010	-0.047
-604.142	56.194	0.077	0.075
-603.128	90.384	-0.054	-0.061
-602.113	78.948	0.069	-0.074
-601.098	-50.636	-0.137	-0.065
-600.084	-200.000	0.007	-0.068
-599.069	15.613	-0.253	0.200
-598.055	-69.549	0.286	0.110
-597.040	86.509	0.285	0.316
-596.025	341.831	0.145	-0.284
-595.011	170.567	-0.045	0.065
-593.996	-149.414	-0.129	0.010
-592.982	-18.791	0.108	-0.067
-591.967	-200.000	0.001	-0.192
-590.952	177.177	-0.182	-0.266
-589.938	112.416	-0.030	-0.036
-588.923	-200.000	-0.053	-0.264
-587.909	-8.570	0.165	-0.111
-586.894	138.107	0.067	-0.088
-585.879	-42.474	0.158	0.081
-584.865	129.212	0.121	0.155
-583.850	6.858	-0.056	-0.042
-582.836	260.363	-0.026	-0.045
-581.821	-21.123	-0.102	0.063
-580.806	-8.060	-0.183	0.124
-579.792	4.366	-0.109	0.080
-578.777	204.620	0.047	-0.073
-577.763	89.235	-0.191	-0.213
-576.748	55.292	0.139	0.135
-575.733	97.491	-0.134	0.155
-574.719	-200.000	0.009	0.048
-573.704	146.614	0.193	0.260
-572.690	800.000	-0.049	0.185
-571.675	800.000	-0.043	0.127
-570.661	262.355	0.172	-0.299
-569.646	466.159	-0.017	0.039
-568.631	199.959	0.107	-0.164
-567.617	800.000	0.054	0.166
-566.602	236.123	0.119	0.198
-565.588	631.272	-0.074	0.188
-564.573	-200.000	-0.038	0.201
-563.558	800.000	-0.010	0.035
-562.544	-200.000	-0.022	0.148
-561.529	-18.682	-0.174	-0.109
-560.515	60.830	-0.213	-0.212
-559.500	-200.000	0.005	-0.025
-558.485	224.948	0.074	-0.120
-557.471	61.000	0.066	-0.066
-556.456	38.660	-0.161	-0.144
-555.442	-200.000	0.001	0.077
-554.427	132.188	-0.174	0.225
-553.412	22.662	-0.149	-0.122
-552.398	-200.000	-0.008	0.072
-551.383	-17.011	0.168	0.106
-550.369	-42.807	-0.067	-0.034
-549.354	143.011	-0.042	-0.057
-548.339	-200.000	-0.000	0.343
-547.325	7.209	-0.306	0.229
-546.310	800.000	-0.021	0.063
-545.296	101.486	0.128	0.150
-544.281	-140.298	0.254	-0.027
-543.266	-114.531	-0.220	-0.042
-542.252	-200.000	0.036	-0.281
-541.237	604.346	0.200	-0.498
-540.223	-200.000	-0.025	0.187
-539.208	800.000	0.066	0.238
-538.193	800.000	0.020	-0.080
-537.179	-84.775	0.286	0.090
-536.164	-131.446	-0.074	-0.010
-535.150	64.634	-0.199	-0.201
-534.135	-200.000	0.012	0.241
-533.121	-67.893	0.058	-0.023
-532.106	-101.204	-0.135	-0.033
-531.091	800.000	-0.042	0.158
-530.077	417.089	-0.141	-0.302
-529.062	-200.000	0.041	-0.305
-528.048	-60.079	-0.315	-0.135
-527.033	48.867	-0.063	0.059
-526.018	-34.729	0.147	-0.081
-525.004	-124.577	0.094	0.015
-523.989	-200.000	-0.006	0.160
-522.975	2.320	0.271	0.196
-521.960	-8.157	0.136	-0.092
-520.945	125.579	-0.108	0.136
-519.931	-113.921	-0.065	0.013
-518.916	-50.625	-0.313	0.148
-517.902	-200.000	0.030	0.228
-516.887	-116.899	-0.238	0.044
-515.872	-126.516	-0.237	0.035
-514.858	800.000	0.060	-0.183
-513.843	426.025	-0.091	-0.197
-512.829	-200.000	-0.005	-0.062
-511.814	-163.011	0.119	-0.006
-510.799	-64.231	-0.040	-0.016
-509.785	65.042	0.082	0.083
-508.770	-147.787	0.271	-0.023
-507.756	90.762	-0.187	-0.210
-506.741	800.000	0.024	-0.082
-505.726	-200.000	-0.033	-0.244
-504.712	-100.973	0.371	0.091
-503.697	-200.000	0.009	-0.096
-502.683	712.102	0.035	-0.093
-501.668	-200.000	-0.029	-0.135
-500.653	-57.854	-0.317	-0.139
-499.639	123.944	-0.222	0.279
-498.624	-71.173	0.218	-0.082
-497.610	-143.708	-0.126	0.012
-496.595	-42.654	-0.479	-0.243
-495.581	-147.952	-0.114	0.010
-494.566	259.397	-0.077	0.133
-493.551	25.116	0.227	0.188
-492.537	800.000	-0.071	-0.217
-491.522	-159.078	0.050	-0.003
-490.508	75.858	0.318	0.336
-489.493	800.000	-0.119	0.377
-488.478	-28.242	-0.200	0.115
-487.464	719.301	-0.032	-0.084
-486.449	458.029	-0.119	0.265
-485.435	-78.720	0.232	-0.079
-484.420	-141.901	0.067	0.007
-483.405	800.000	-0.045	-0.146
-482.391	-38.107	0.262	-0.139
-481.376	-200.000	0.001	-0.445
-480.362	-200.000	0.007	-0.313
-479.347	-12.174	0.260	0.170
-478.332	800.000	0.086	0.371
-477.318	-179.862	-0.194	0.004
-476.303	141.242	0.261	-0.345
-475.289	-133.043	-0.030	-0.004
-474.274	-200.000	-0.008	-0.129
-473.259	-59.888	-0.103	0.044
-472.245	-30.525	0.274	0.155
-471.230	800.000	0.035	0.144
-470.216	161.561	-0.187	0.261
-469.201	-45.692	-0.261	0.129
-468.186	800.000	0.142	0.410
-467.172	800.000	-0.037	-0.122
-466.157	91.111	0.124	-0.139
-465.143	1.697	0.099	-0.071
-464.128	-145.710	-0.256	0.023
-463.113	72.653	0.241	0.252
-462.099	79.675	-0.143	-0.153
-461.084	46.184	-0.158	-0.146
-460.070	367.028	0.063	-0.128
-459.055	800.000	-0.053	0.185
-458.040	210.385	0.130	-0.204
-457.026	129.389	0.091	0.116
-456.011	-49.663	0.232	0.110
-454.997	-200.000	0.003	-0.060
-453.982	-1.713	0.043	0.030
-452.968	166.289	0.135	0.191
-451.953	-136.839	-0.163	-0.019
-450.938	30.961	0.150	0.128
-449.924	583.804	0.044	0.108
-448.909	-60.966	0.122	-0.051
-447.895	-14.340	-0.247	-0.158
-446.880	-138.056	0.380	0.042
-445.865	-175.721	0.347	-0.009
-444.851	68.912	-0.176	-0.180
-443.836	604.046	-0.132	-0.327
-442.822	-151.934	0.267	-0.019
-441.807	-30.505	0.317	-0.179
-440.792	800.000	0.110	-0.303
-439.778	524.336	0.114	-0.266
-438.763	19.528	0.168	-0.134
-437.749	22.483	-0.182	-0.149
-436.734	130.621	0.076	0.097
-435.719	41.807	-0.230	0.208
-434.705	19.599	-0.281	0.225
-433.690	-200.000	-0.029	-0.184
-432.676	-115.067	0.263	-0.050
-431.661	-90.958	-0.250	-0.072
-430.646	31.297	-0.246	0.211
-429.632	-53.436	0.203	0.093
-428.617	800.000	-0.039	0.136
-427.603	319.545	0.100	0.189
-426.588	-55.696	0.082	-0.036
-425.573	33.423	-0.127	0.110
-424.559	-200.000	-0.022	0.148
-423.544	-200.000	0.009	-0.059
-422.530	-120.463	0.178	-0.030
-421.515	36.681	0.202	-0.178
-420.500	-47.980	0.254	0.122
-419.486	477.972	0.053	0.120
-418.471	376.659	-0.028	0.057
-417.457	-200.000	0.037	0.160
-416.442	242.168	0.055	-0.091
-415.428	127.085	-0.164	-0.207
-414.413	-116.233	0.302	0.056
-413.398	-31.695	0.216	-0.121
-412.384	67.637	0.064	-0.065
-411.369	-19.953	0.047	0.029
-410.355	-200.000	-0.017	0.123
-409.340	183.397	-0.070	-0.102
-408.325	136.068	-0.247	0.321
-407.311	800.000	0.073	0.223
-406.296	800.000	0.052	-0.163
-405.282	-3.661	-0.487	-0.337
-404.267	800.000	-0.097	-0.386
-403.252	320.012	0.075	0.142
-402.238	-200.000	0.067	-0.351
-401.223	-12.334	-0.279	0.181
-400.209	-31.406	0.188	0.105
-399.194	800.000	0.066	0.189
-398.179	800.000	-0.069	0.216
-397.165	463.478	0.104	0.231
-396.150	-12.069	-0.118	-0.077
-395.136	-53.724	-0.125	0.057
-394.121	800.000	-0.076	-0.247
-393.106	53.450	-0.156	0.149
-392.092	-95.124	0.194	-0.052
-391.077	407.128	-0.224	0.470
-390.063	-13.430	0.247	0.160
-389.048	800.000	-0.022	0.082
-388.033	42.933	-0.197	0.179
-387.019	126.614	-0.098	0.124
-386.004	104.980	-0.052	-0.061
-384.990	-29.684	-0.268	0.152
-383.975	-200.000	0.043	0.227
-382.960	800.000	0.084	-0.287
-381.946	-116.618	-0.273	-0.050
-380.931	27.276	0.162	0.136
-379.917	-82.829	0.065	-0.021
-378.902	-200.000	0.044	-0.207
-377.888	117.240	-0.103	0.126
-376.873	-200.000	0.016	0.101
-375.858	800.000	-0.050	0.212
-374.844	19.594	0.244	-0.195
-373.829	3.210	0.335	-0.242
-372.815	800.000	-0.046	0.152
-371.800	42.016	-0.189	-0.171
-370.785	-165.594	-0.152	0.007
-369.771	-200.000	-0.008	0.047
-368.756	-200.000	0.021	-0.164
-367.742	474.887	0.103	-0.232
-366.727	-150.427	-0.199	0.015
-365.712	-122.370	0.166	0.027
-364.698	112.494	0.047	-0.057
-363.683	176.402	0.050	0.072
-362.669	40.637	-0.043	-0.039
-361.654	29.881	-0.192	0.163
-360.639	-173.512	0.388	0.012
-359.625	143.156	0.376	-0.497
-358.610	37.961	0.118	-0.105
-357.596	800.000	-0.026	0.082
-356.581	48.265	-0.096	-0.089
-355.566	148.932	0.201	0.270
-354.552	-115.161	-0.090	-0.017
-353.537	32.550	-0.144	-0.124
-352.523	316.098	-0.116	0.217
-351.508	2.865	-0.438	-0.316
-350.493	19.760	0.078	-0.062
-349.479	-200.000	0.022	-0.120
-348.464	-63.930	-0.200	-0.081
-347.450	-95.474	0.271	0.072
-346.435	800.000	0.061	0.180
-345.420	77.198	0.331	0.350
-344.406	391.455	0.120	-0.247
-343.391	-97.967	-0.260	-0.067
-342.377	76.554	0.074	-0.078
-341.362	51.001	-0.181	-0.171
-340.348	536.193	0.079	-0.187
-339.333	-200.000	0.029	0.161
-338.318	-100.342	-0.134	-0.033
-337.304	263.362	0.070	0.121
-336.289	-49.362	0.571	-0.271
-335.275	-107.127	0.171	-0.038
-334.260	49.812	-0.278	-0.261
-333.245	-25.583	-0.145	0.085
-332.231	-200.000	0.006	0.296
-331.216	128.377	-0.055	0.069
-330.202	-200.000	-0.018	0.178
-329.187	800.000	-0.001	-0.004
-328.172	-10.993	0.384	-0.252
-327.158	-21.029	-0.403	-0.245
-326.143	126.610	0.098	-0.124
-325.129	724.329	-0.115	0.304
-324.114	543.640	-0.041	-0.098
-323.099	-88.019	0.291	0.087
-322.085	-57.691	-0.247	-0.107
-321.070	-69.231	0.526	0.201
-320.056	-200.000	0.055	0.265
-319.041	-93.746	-0.299	0.082
-318.026	29.289	0.180	0.152
-317.012	-200.000	-0.023	-0.319
-315.997	800.000	0.024	0.079
-314.983	-200.000	0.029	-0.175
-313.968	151.092	0.042	-0.057
-312.953	-161.977	-0.495	0.025
-311.939	-200.000	0.018	-0.347
-310.924	-54.638	0.285	0.128
-309.910	-64.233	0.256	0.104
-308.895	69.421	-0.188	-0.192
-307.880	800.000	0.017	0.049
-306.866	-114.721	0.108	-0.020
-305.851	800.000	0.073	-0.227
-304.837	704.937	-0.164	-0.428
-303.822	4.189	0.259	-0.188
-302.807	-21.733	0.250	-0.151
-301.793	653.357	-0.206	0.525
-300.778	206.949	-0.126	-0.195
-299.764	136.759	-0.056	0.072
-298.749	-150.664	-0.134	0.010
-297.735	-55.807	-0.138	-0.061
-296.720	8.707	-0.167	0.125
-295.705	-200.000	-0.021	-0.240
-294.691	-200.000	0.042	0.320
-293.676	-131.470	-0.126	0.017
-292.662	22.029	0.196	-0.159
-291.647	46.618	-0.291	0.268
-290.632	-152.477	0.223	-0.016
-289.618	526.783	-0.077	0.180
-288.603	-47.266	-0.230	-0.111
-287.589	800.000	-0.035	0.131
-286.574	-200.000	0.025	0.249
-285.559	-83.879	-0.083	-0.026
-284.545	489.211	-0.218	0.493
-283.530	-144.828	0.219	0.020
-282.516	-108.875	0.107	-0.023
-281.501	135.405	-0.096	0.124
-280.486	800.000	0.092	0.312
-279.472	227.157	-0.169	-0.273
-278.457	183.743	-0.108	-0.158
-277.443	-200.000	0.028	0.272
-276.428	-200.000	-0.014	-0.116
-275.413	728.708	-0.072	0.191
-274.399	-79.790	-0.224	-0.075
-273.384	-200.000	0.007	-0.035
-272.370	186.059	-0.150	0.221
-271.355	800.000	-0.036	0.139
-270.340	-103.201	-0.110	-0.026
-269.326	384.814	0.075	-0.153
-268.311	-61.218	0.212	0.089
-267.297	-200.000	-0.014	0.253
-266.282	-36.962	0.154	-0.082
-265.267	0.660	-0.248	0.176
-264.253	-87.741	0.188	0.056
-263.238	23.972	0.327	0.267
-262.224	139.076	0.048	-0.063
-261.209	-33.577	-0.083	-0.046
-260.195	-200.000	0.061	-0.368
-259.180	-200.000	0.011	-0.173
-258.165	-14.542	-0.183	-0.116
-257.151	52.819	0.263	0.249
-256.136	47.402	-0.111	-0.103
-255.122	-108.274	-0.193	0.041
-254.107	800.000	0.148	0.430
-253.092	116.018	0.085	0.103
-252.078	576.538	0.167	-0.403
-251.063	800.000	-0.077	-0.233
-250.049	-200.000	-0.095	-0.438
-249.034	-200.000	0.014	-0.063
-248.019	-37.683	0.168	-0.088
-247.005	773.200	0.079	-0.213
-245.990	-119.797	-0.344	0.059
-244.976	-200.000	0.014	0.236
-243.961	-200.000	0.040	0.220
-242.946	53.090	-0.143	0.136
-241.932	-200.000	-0.041	0.302
-240.917	-105.398	0.235	0.053
-239.903	-149.936	-0.154	0.012
-238.888	-200.000	0.040	-0.210
-237.873	-160.254	-0.425	-0.023
-236.859	-20.389	0.204	0.124
-235.844	-200.000	-0.008	0.414
-234.830	133.626	0.175	-0.224
-233.815	-45.356	0.077	-0.038
-232.800	58.430	-0.163	-0.158
-231.786	535.648	-0.050	0.118
-230.771	145.294	-0.137	-0.181
-229.757	51.752	0.216	-0.203
-228.742	-75.890	0.180	0.063
-227.727	800.000	-0.022	-0.090
-226.713	25.927	0.208	0.171
-225.698	97.326	0.142	0.162
-224.684	155.963	-0.063	0.086
-223.669	-200.000	-0.033	-0.317
-222.655	284.184	0.094	0.168
-221.640	415.243	-0.127	0.267
-220.625	106.992	0.223	-0.262
-219.611	-67.476	-0.226	0.088
-218.596	51.067	0.219	0.206
-217.582	-28.196	0.113	0.065
-216.567	-143.172	0.316	-0.030
-215.552	-148.136	-0.485	0.040
-214.538	-143.018	-0.185	0.018
-213.523	-113.047	0.381	-0.074
-212.509	-174.712	0.118	0.003
-211.494	-48.148	0.208	0.099
-210.479	-107.382	-0.198	-0.043
-209.465	-200.000	-0.029	-0.283
-208.450	228.096	-0.157	0.252
-207.436	-200.000	0.011	-0.112
-206.421	800.000	0.063	-0.224
-205.406	354.094	0.140	-0.275
-204.392	-200.000	-0.046	-0.222
-203.377	-102.622	-0.207	0.049
-202.363	-200.000	-0.004	-0.101
-201.348	-18.095	-0.097	0.060
-200.333	-60.322	-0.231	0.097
-199.319	-200.000	0.059	0.299
-198.304	276.699	0.035	0.062
-197.290	-73.711	0.171	0.062
-196.275	45.085	-0.092	0.084
-195.260	-79.655	-0.151	0.050
-194.246	-60.642	-0.052	-0.022
-193.231	-18.154	0.323	0.200
-192.217	-1.007	0.198	0.139
-191.202	-48.337	-0.242	-0.115
-190.187	-200.000	-0.010	0.056
-189.173	516.428	0.052	0.119
-188.158	-37.869	-0.023	0.012
-187.144	-148.732	-0.237	0.019
-186.129	188.460	0.129	-0.191
-185.114	-200.000	0.024	-0.368
-184.100	-60.957	-0.338	-0.141
-183.085	-118.642	-0.170	0.030
-182.071	-73.934	-0.277	-0.099
-181.056	-112.875	0.134	-0.026
-180.042	800.000	0.125	0.446
-179.027	152.664	0.205	-0.276
-178.012	800.000	-0.031	0.121
-176.998	273.007	-0.178	0.311
-175.983	800.000	0.049	-0.194
-174.969	-134.657	0.243	-0.029
-173.954	-171.254	-0.225	0.007
-172.939	196.394	-0.044	0.066
-171.925	-163.342	-0.150	-0.007
-170.910	-126.989	-0.218	0.032
-169.896	86.031	0.133	-0.145
-168.881	800.000	0.071	-0.233
-167.866	195.082	-0.149	0.223
-166.852	-200.000	0.027	0.404
-165.837	-17.864	-0.106	0.066
-164.823	-29.008	0.174	0.099
-163.808	-65.622	-0.149	0.059
-162.793	800.000	0.026	-0.082
-161.779	336.581	0.141	-0.270
-160.764	-200.000	0.021	-0.297
-159.750	800.000	-0.034	-0.128
-158.735	-200.000	0.006	-0.176
-157.720	800.000	-0.045	0.181
-156.706	-65.198	0.346	0.138
-155.691	-131.508	-0.227	-0.030
-154.677	800.000	0.055	-0.169
-153.662	-200.000	-0.057	-0.386
-152.647	-53.956	-0.324	0.146
-151.633	-44.210	-0.088	0.044
-150.618	-59.295	-0.208	-0.088
-149.604	800.000	-0.038	0.138
-148.589	-124.144	0.316	-0.049
-147.574	-70.628	-0.046	-0.017
-146.560	-87.600	-0.120	0.036
-145.545	28.325	-0.174	0.145
-144.531	-200.000	0.008	-0.126
-143.516	79.865	-0.096	0.102
-142.502	-104.314	-0.231	-0.053
-141.487	-145.295	-0.316	0.028
-140.472	29.453	0.098	0.082
-139.458	-43.681	-0.056	-0.028
-138.443	800.000	0.085	-0.244
-137.429	-93.647	0.470	-0.128
-136.414	8.022	0.094	0.070
-135.399	292.460	0.208	0.373
-134.385	-75.040	0.037	-0.013
-133.370	-46.124	-0.134	-0.065
-132.356	-3.445	-0.199	-0.137
-131.341	61.623	-0.089	0.088
-130.326	-200.000	0.015	-0.156
-129.312	16.873	0.074	0.058
-128.297	182.775	0.053	0.077
-127.283	-33.854	-0.154	0.084
-126.268	683.433	-0.140	0.359
-125.253	80.541	-0.138	-0.146
-124.239	-200.000	0.033	0.153
-123.224	-200.000	-0.085	-0.371
-122.210	-200.000	-0.005	-0.375
-121.195	83.511	0.081	0.087
