DTS Sentinel unit serial number:	SN413079Multiplexer serial number:	ORYXHardware model number:	OX4-SRSoftware version number:	ORYX F/W v4.00 Oryx Data Collector v3.7.2.0data status	okinstallation	princeton_trtdifferential loss correction	single-endedforward channel	channel 1reverse channel	N/Adate	2019/09/12time	02:56:11forward acquisition time	60.00reverse acquisition time	0.00gamma	496.2192k internal	0.2322k external	0.2322temperature offset calibration	1.0079default loss term (dB/km)	0.3790temperature slope calibration	1.0000multiplexer offset coefficient	1.0000multiplexer slope coefficient	1.0000fibre end	0.00T internal ref (°C)	32.31T ext. ref 1 (°C)	2.09T ext. ref 2 (°C)	27.32length (m)	temperature (°C)	Stokes	anti-Stokes-747.200	204.551	0.109	0.171
-746.185	285.937	0.108	0.196
-745.171	744.953	-0.045	-0.121
-744.156	682.562	-0.077	0.203
-743.142	5.329	-0.072	-0.054
-742.127	-200.000	0.046	0.357
-741.112	-172.820	-0.281	-0.009
-740.098	-136.279	-0.208	-0.025
-739.083	-162.598	0.109	-0.005
-738.069	-200.000	-0.025	0.204
-737.054	-200.000	0.012	-0.092
-736.039	800.000	-0.043	0.173
-735.025	207.291	0.139	0.219
-734.010	-200.000	-0.013	0.098
-732.996	-130.829	0.118	-0.016
-731.981	-200.000	0.006	0.078
-730.966	-200.000	-0.010	-0.443
-729.952	99.547	-0.046	-0.053
-728.937	32.023	0.064	0.055
-727.923	-200.000	0.055	-0.261
-726.908	94.646	-0.250	-0.287
-725.894	13.435	-0.104	0.081
-724.879	-180.512	-0.202	0.004
-723.864	65.820	0.187	-0.191
-722.850	0.105	-0.043	0.031
-721.835	340.276	0.021	0.042
-720.821	-163.966	-0.334	-0.016
-719.806	455.222	-0.106	-0.236
-718.791	800.000	-0.054	-0.177
-717.777	269.053	0.161	0.286
-716.762	-82.528	0.117	-0.038
-715.748	445.976	-0.117	0.259
-714.733	-93.171	0.200	-0.056
-713.718	-200.000	0.012	-0.107
-712.704	-94.195	-0.163	-0.045
-711.689	-134.067	0.156	0.019
-710.675	47.703	0.097	-0.092
-709.660	186.570	-0.126	0.190
-708.645	76.009	-0.007	-0.008
-707.631	131.132	0.069	0.090
-706.616	783.875	-0.076	0.210
-705.602	-200.000	0.021	0.273
-704.587	-119.803	-0.106	0.018
-703.572	114.830	0.036	-0.045
-702.558	463.956	-0.139	-0.313
-701.543	-200.000	-0.068	-0.374
-700.529	-172.545	0.221	0.007
-699.514	70.562	0.306	0.319
-698.499	100.546	-0.053	0.062
-697.485	-184.773	0.213	-0.003
-696.470	124.941	-0.103	-0.131
-695.456	-24.042	0.153	-0.092
-694.441	-91.449	-0.237	0.068
-693.426	-88.683	0.097	-0.029
-692.412	-200.000	-0.077	-0.353
-691.397	-200.000	-0.002	0.025
-690.383	-87.268	-0.365	-0.112
-689.368	-200.000	-0.014	0.167
-688.354	-101.914	0.298	-0.073
-687.339	-200.000	0.026	0.225
-686.324	-200.000	-0.043	0.205
-685.310	-185.056	-0.180	-0.003
-684.295	34.747	-0.131	-0.116
-683.281	-172.364	0.009	0.000
-682.266	-100.691	0.252	0.063
-681.251	113.974	-0.117	0.143
-680.237	-200.000	-0.010	-0.148
-679.222	-2.204	0.205	0.145
-678.208	-130.452	0.146	-0.020
-677.193	-15.963	0.111	0.071
-676.178	71.176	-0.066	0.069
-675.164	800.000	-0.017	-0.068
-674.149	632.399	-0.117	-0.298
-673.135	44.598	-0.111	-0.103
-672.120	-61.945	0.415	-0.175
-671.105	23.799	-0.083	-0.069
-670.091	-200.000	-0.002	-0.028
-669.076	797.458	-0.178	-0.493
-668.062	-25.190	0.206	0.123
-667.047	64.446	-0.311	-0.315
-666.032	43.388	-0.121	-0.111
-665.018	-200.000	-0.029	0.158
-664.003	-37.836	0.184	0.099
-662.989	293.750	-0.095	0.175
-661.974	718.572	-0.126	-0.336
-660.959	146.403	-0.085	-0.114
-659.945	25.302	0.324	-0.271
-658.930	-200.000	-0.012	-0.091
-657.916	51.243	0.341	0.326
-656.901	-200.000	0.008	0.397
-655.886	-165.529	0.293	-0.013
-654.872	-200.000	-0.064	0.362
-653.857	153.950	-0.148	0.204
-652.843	400.501	-0.149	-0.314
-651.828	800.000	0.069	0.220
-650.814	800.000	-0.074	0.257
-649.799	76.147	0.227	0.242
-648.784	-152.887	-0.183	0.013
-647.770	-81.322	-0.159	-0.053
-646.755	800.000	-0.066	0.259
-645.741	-9.058	-0.018	0.012
-644.726	800.000	-0.073	0.256
-643.711	-38.616	-0.214	-0.114
-642.697	122.026	0.148	0.186
-641.682	-20.102	-0.051	-0.032
-640.668	-200.000	-0.029	-0.177
-639.653	26.001	-0.159	0.134
-638.638	-77.562	-0.340	0.118
-637.624	-200.000	0.038	0.290
-636.609	329.847	0.176	0.340
-635.595	-37.640	-0.205	-0.110
-634.580	362.766	0.102	-0.206
-633.565	129.805	-0.025	-0.032
-632.551	28.378	0.313	0.266
-631.536	-200.000	-0.013	-0.155
-630.522	-137.343	0.168	-0.019
-629.507	-9.618	0.304	-0.204
-628.492	52.882	0.179	0.173
-627.478	100.549	-0.083	0.097
-626.463	10.772	-0.221	-0.170
-625.449	-200.000	-0.002	0.318
-624.434	800.000	-0.067	0.283
-623.419	155.299	-0.214	-0.296
-622.405	-142.540	-0.387	-0.038
-621.390	27.839	0.055	-0.046
-620.376	180.078	0.149	-0.220
-619.361	-21.886	0.225	-0.137
-618.346	800.000	0.034	-0.119
-617.332	151.226	0.100	0.137
-616.317	-101.563	-0.086	0.021
-615.303	800.000	0.107	0.313
-614.288	45.882	-0.031	0.029
-613.273	-1.080	0.281	0.200
-612.259	-154.055	0.104	0.007
-611.244	-200.000	0.048	-0.445
-610.230	-200.000	0.007	0.283
-609.215	-100.052	-0.154	-0.039
-608.201	-164.943	-0.218	0.010
-607.186	450.986	-0.130	0.289
-606.171	-200.000	-0.049	0.225
-605.157	-200.000	0.026	-0.193
-604.142	-80.441	0.048	0.016
-603.128	685.284	0.059	-0.155
-602.113	-43.040	-0.446	-0.227
-601.098	-200.000	-0.022	0.187
-600.084	-200.000	0.031	-0.244
-599.069	64.384	-0.102	-0.103
-598.055	-22.783	-0.140	-0.085
-597.040	238.781	-0.069	0.116
-596.025	122.817	0.181	0.228
-595.011	-64.488	0.121	0.049
-593.996	-108.988	0.121	-0.026
-592.982	18.522	-0.175	-0.140
-591.967	78.359	-0.134	-0.144
-590.952	-56.303	0.220	-0.098
-589.938	-18.784	-0.126	0.079
-588.923	-78.968	-0.274	-0.094
-587.909	420.464	-0.064	-0.137
-586.894	-91.101	0.043	-0.012
-585.879	530.162	-0.084	0.199
-584.865	518.340	0.019	-0.045
-583.850	-36.545	-0.209	0.113
-582.836	-200.000	0.003	-0.209
-581.821	272.017	-0.094	-0.167
-580.806	-162.324	-0.186	-0.009
-579.792	-125.465	0.190	0.029
-578.777	-44.757	-0.415	0.208
-577.763	-200.000	-0.055	0.319
-576.748	-49.907	0.279	-0.133
-575.733	22.785	0.241	-0.198
-574.719	268.851	0.052	0.092
-573.704	578.049	-0.030	-0.073
-572.690	630.519	0.115	-0.291
-571.675	106.554	-0.133	-0.158
-570.661	-200.000	-0.052	-0.349
-569.646	139.833	0.265	-0.351
-568.631	-131.046	-0.179	0.024
-567.617	800.000	-0.052	-0.183
-566.602	171.565	-0.253	-0.364
-565.588	-49.321	-0.202	-0.097
-564.573	-85.576	0.109	0.034
-563.558	-200.000	-0.022	-0.315
-562.544	229.278	-0.050	0.081
-561.529	11.737	-0.118	-0.091
-560.515	-74.750	-0.102	-0.037
-559.500	-57.735	-0.261	-0.115
-558.485	708.487	-0.062	0.165
-557.471	-105.583	-0.234	-0.053
-556.456	-144.910	-0.321	0.029
-555.442	2.784	0.114	-0.083
-554.427	-200.000	0.015	0.247
-553.412	124.733	-0.219	-0.277
-552.398	-200.000	0.026	-0.373
-551.383	-137.486	-0.214	-0.024
-550.369	-8.108	-0.247	0.167
-549.354	46.097	0.089	0.083
-548.339	-63.645	0.382	0.157
-547.325	302.762	-0.121	-0.224
-546.310	-57.301	0.339	0.149
-545.296	169.944	0.031	-0.044
-544.281	800.000	-0.041	-0.143
-543.266	74.519	-0.169	-0.178
-542.252	-117.007	0.181	-0.033
-541.237	-38.474	0.037	0.020
-540.223	-200.000	0.039	-0.185
-539.208	49.411	-0.195	0.184
-538.193	96.123	0.127	-0.146
-537.179	92.310	-0.110	-0.124
-536.164	-163.365	-0.250	-0.012
-535.150	80.482	0.053	0.057
-534.135	393.549	-0.100	-0.209
-533.121	-155.295	0.260	-0.017
-532.106	-17.332	0.329	0.208
-531.091	800.000	-0.115	-0.378
-530.077	-74.441	0.097	-0.035
-529.062	185.074	-0.099	0.147
-528.048	-103.310	0.039	0.009
-527.033	7.535	0.262	-0.196
-526.018	-84.046	-0.384	-0.122
-525.004	800.000	0.033	-0.117
-523.989	57.072	-0.332	-0.324
-522.975	-97.905	-0.180	0.047
-521.960	-185.727	-0.586	0.009
-520.945	800.000	-0.162	0.536
-519.931	-171.129	0.400	0.014
-518.916	800.000	-0.044	0.177
-517.902	-200.000	-0.003	-0.129
-516.887	-200.000	0.005	-0.083
-515.872	19.497	0.101	0.081
-514.858	-154.200	-0.291	0.020
-513.843	63.255	0.227	-0.228
-512.829	-200.000	-0.047	-0.277
-511.814	-46.076	-0.209	0.103
-510.799	21.384	-0.182	-0.148
-509.785	97.500	0.208	-0.240
-508.770	-10.373	0.297	-0.197
-507.756	-42.616	0.197	0.101
-506.741	-200.000	0.001	-0.446
-505.726	-126.176	0.212	0.032
-504.712	-200.000	0.026	0.220
-503.697	115.716	-0.177	0.216
-502.683	-90.912	0.327	0.094
-501.668	-14.976	0.195	0.125
-500.653	-49.270	-0.099	-0.047
-499.639	93.359	-0.051	0.057
-498.624	-97.174	0.444	0.116
-497.610	-200.000	0.011	-0.099
-496.595	-200.000	0.001	0.113
-495.581	-66.112	0.270	-0.108
-494.566	-56.713	0.318	0.141
-493.551	800.000	-0.071	0.307
-492.537	495.306	0.121	0.277
-491.522	-200.000	0.036	0.418
-490.508	403.418	0.133	0.281
-489.493	740.414	0.052	0.139
-488.478	374.173	0.057	-0.115
-487.464	-46.685	0.291	0.143
-486.449	-200.000	0.024	-0.176
-485.435	-76.610	0.399	0.140
-484.420	-200.000	-0.011	0.132
-483.405	800.000	-0.044	-0.178
-482.391	628.472	-0.090	0.227
-481.376	-200.000	-0.004	-0.516
-480.362	-200.000	-0.006	-0.091
-479.347	800.000	-0.035	0.127
-478.332	1.471	0.101	0.073
-477.318	-200.000	0.043	0.396
-476.303	-200.000	-0.002	0.103
-475.289	225.036	-0.211	0.341
-474.274	91.787	0.095	-0.107
-473.259	92.486	0.323	0.364
-472.245	-200.000	-0.043	-0.195
-471.230	259.784	0.251	-0.434
-470.216	-200.000	-0.007	-0.063
-469.201	131.228	0.198	-0.254
-468.186	61.817	0.234	0.233
-467.172	-102.549	-0.298	-0.071
-466.157	310.459	0.045	-0.084
-465.143	38.169	0.084	-0.074
-464.128	-21.208	-0.214	-0.131
-463.113	0.077	-0.149	-0.106
-462.099	118.314	-0.202	-0.249
-461.084	-103.706	-0.156	-0.037
-460.070	-200.000	0.000	-0.126
-459.055	179.261	0.164	0.240
-458.040	296.845	-0.057	-0.104
-457.026	-45.732	0.333	0.165
-456.011	-54.036	0.188	-0.085
-454.997	-152.650	0.311	0.022
-453.982	-200.000	0.009	-0.199
-452.968	-87.883	0.407	0.122
-451.953	37.875	0.127	0.113
-450.938	-77.172	0.079	0.027
-449.924	188.139	0.093	0.140
-448.909	800.000	-0.042	0.145
-447.895	371.920	-0.095	0.193
-446.880	131.138	0.063	0.081
-445.865	113.368	-0.211	0.256
-444.851	-133.221	-0.360	-0.045
-443.836	117.391	0.077	-0.095
-442.822	-167.610	-0.255	0.010
-441.807	-49.948	0.235	-0.112
-440.792	103.550	-0.130	0.152
-439.778	414.098	0.152	-0.322
-438.763	-200.000	0.028	0.344
-437.749	-21.087	0.341	-0.208
-436.734	-134.757	0.172	-0.021
-435.719	-200.000	0.019	0.179
-434.705	19.247	-0.171	0.137
-433.690	50.133	0.048	-0.045
-432.676	-50.374	0.215	-0.102
-431.661	-187.423	-0.423	-0.006
-430.646	111.346	0.199	0.240
-429.632	-200.000	-0.175	0.000
-428.617	102.392	-0.072	0.084
-427.603	29.607	0.209	-0.178
-426.588	-200.000	0.003	-0.178
-425.573	800.000	-0.041	-0.116
-424.559	-48.847	-0.130	0.062
-423.544	-162.152	0.113	-0.006
-422.530	-34.676	-0.172	-0.094
-421.515	-69.022	-0.328	-0.126
-420.500	85.356	0.252	0.276
-419.486	94.685	0.090	-0.102
-418.471	-88.620	0.304	-0.090
-417.457	-156.079	0.520	0.033
-416.442	-112.821	0.150	-0.030
-415.428	82.555	0.207	0.225
-414.413	-69.653	-0.221	-0.084
-413.398	104.016	-0.192	0.225
-412.384	-34.286	0.193	-0.106
-411.369	-6.623	-0.201	0.136
-410.355	-144.080	0.136	0.013
-409.340	-161.307	0.252	0.013
-408.325	-200.000	-0.009	0.055
-407.311	-174.462	0.321	0.009
-406.296	-200.000	0.003	0.223
-405.282	272.430	-0.125	-0.219
-404.267	67.492	-0.085	-0.087
-403.252	28.412	0.159	0.134
-402.238	-200.000	0.046	0.293
-401.223	-11.197	0.316	0.208
-400.209	-51.041	0.196	0.092
-399.194	-86.980	0.128	0.039
-398.179	448.490	-0.052	-0.115
-397.165	-200.000	0.042	-0.329
-396.150	0.621	-0.116	0.083
-395.136	-200.000	-0.062	0.350
-394.121	38.316	0.157	0.139
-393.106	-200.000	-0.005	0.155
-392.092	133.939	0.148	-0.190
-391.077	800.000	0.093	-0.300
-390.063	-65.441	0.152	-0.061
-389.048	-86.560	-0.531	0.162
-388.033	-200.000	0.043	0.206
-387.019	-52.033	0.137	-0.063
-386.004	49.298	-0.160	-0.149
-384.990	-97.721	-0.217	0.056
-383.975	-58.080	-0.282	0.123
-382.960	366.523	0.106	-0.213
-381.946	21.751	0.065	-0.053
-380.931	-121.160	0.077	-0.013
-379.917	-141.063	-0.100	-0.010
-378.902	83.377	-0.200	-0.217
-377.888	-96.693	0.278	0.073
-376.873	-36.979	0.170	-0.091
-375.858	-96.106	-0.021	-0.006
-374.844	-113.549	-0.288	0.056
-373.829	-153.429	-0.169	-0.012
-372.815	-33.031	0.112	0.062
-371.800	-200.000	0.007	-0.080
-370.785	-200.000	0.020	0.354
-369.771	-72.128	0.213	0.079
-368.756	254.658	-0.160	0.273
-367.742	-93.794	0.033	-0.009
-366.727	-200.000	0.003	0.031
-365.712	226.626	-0.033	-0.053
-364.698	388.250	0.103	0.212
-363.683	355.731	-0.105	-0.208
-362.669	-130.970	-0.516	0.069
-361.654	-18.893	0.129	-0.080
-360.639	-130.175	-0.178	-0.024
-359.625	509.737	-0.067	-0.154
-358.610	181.026	-0.147	-0.215
-357.596	378.638	0.061	-0.124
-356.581	27.685	-0.174	0.146
-355.566	-200.000	0.016	-0.075
-354.552	-142.426	-0.239	0.023
-353.537	56.901	-0.164	-0.159
-352.523	-90.948	-0.124	-0.036
-351.508	-110.507	0.391	0.081
-350.493	335.279	-0.038	0.073
-349.479	117.585	0.197	0.241
-348.464	-200.000	-0.056	0.258
-347.450	315.106	0.025	0.047
-346.435	-53.387	-0.388	0.177
-345.420	-15.727	0.300	-0.190
-344.406	-121.624	0.506	0.083
-343.391	-200.000	0.041	-0.193
-342.377	-200.000	-0.025	-0.278
-341.362	-100.189	-0.208	-0.051
-340.348	-9.796	0.298	0.198
-339.333	-12.279	-0.368	0.239
-338.318	-72.835	-0.097	-0.036
-337.304	40.411	-0.301	0.269
-336.289	664.393	0.118	0.302
-335.275	180.589	-0.187	0.273
-334.260	-148.518	-0.148	0.012
-333.245	800.000	-0.054	-0.220
-332.231	-62.578	-0.169	-0.070
-331.216	406.327	-0.044	-0.092
-330.202	-200.000	0.006	0.121
-329.187	-106.151	-0.417	0.093
-328.172	286.425	0.121	-0.217
-327.158	-200.000	0.014	0.185
-326.143	-159.865	0.117	0.006
-325.129	-71.329	-0.227	0.084
-324.114	-104.921	0.108	-0.025
-323.099	-43.996	-0.168	-0.084
-322.085	16.249	0.327	0.256
-321.070	-78.483	0.233	-0.079
-320.056	-96.784	0.369	0.096
-319.041	119.936	-0.191	-0.235
-318.026	-44.030	0.464	-0.232
-317.012	0.333	0.178	0.126
-315.997	41.726	0.145	-0.131
-314.983	-200.000	0.013	0.384
-313.968	137.267	-0.245	0.319
-312.953	45.906	-0.186	0.171
-311.939	-200.000	0.066	-0.316
-310.924	-24.524	-0.140	-0.083
-309.910	-151.110	-0.147	0.011
-308.895	-50.065	0.348	0.164
-307.880	-200.000	0.003	0.214
-306.866	-107.768	-0.119	0.026
-305.851	-107.291	-0.156	0.034
-304.837	33.911	0.122	0.106
-303.822	-98.578	-0.183	0.046
-302.807	-147.655	0.208	-0.017
-301.793	-200.000	-0.013	-0.250
-300.778	-40.669	-0.195	-0.100
-299.764	800.000	0.062	0.222
-298.749	64.577	-0.257	0.258
-297.735	68.770	-0.159	-0.162
-296.720	633.876	-0.038	-0.095
-295.705	-6.989	0.125	0.084
-294.691	-200.000	0.022	0.123
-293.676	800.000	0.107	0.305
-292.662	-200.000	-0.022	-0.162
-291.647	-73.184	0.294	-0.107
-290.632	-29.736	-0.184	-0.104
-289.618	-64.125	-0.073	0.030
-288.603	800.000	-0.115	0.351
-287.589	-200.000	0.002	0.088
-286.574	800.000	-0.035	0.105
-285.559	-106.012	-0.098	0.022
-284.545	-92.254	0.301	-0.084
-283.530	453.266	-0.098	-0.215
-282.516	147.642	0.178	0.238
-281.501	-164.728	-0.133	-0.006
-280.486	495.095	-0.058	0.133
-279.472	-131.566	-0.110	-0.014
-278.457	172.378	-0.079	-0.113
-277.443	56.796	-0.367	-0.355
-276.428	-200.000	-0.047	-0.381
-275.413	-75.593	-0.371	-0.131
-274.399	160.558	-0.046	0.064
-273.384	-111.870	0.250	0.050
-272.370	-88.748	0.042	0.012
-271.355	800.000	-0.079	0.255
-270.340	311.219	-0.117	-0.218
-269.326	299.303	-0.253	0.462
-268.311	-200.000	0.011	0.078
-267.297	-200.000	0.380	0.002
-266.282	24.374	-0.166	-0.136
-265.267	220.618	-0.130	0.206
-264.253	-9.547	-0.128	0.085
-263.238	53.417	0.177	-0.168
-262.224	532.853	-0.066	-0.156
-261.209	-200.000	0.004	0.152
-260.195	-42.829	-0.078	-0.039
-259.180	174.753	-0.157	0.225
-258.165	49.785	-0.187	-0.175
-257.151	-166.548	-0.377	0.016
-256.136	30.284	0.284	0.240
-255.122	-52.048	-0.422	0.194
-254.107	-55.954	0.210	-0.093
-253.092	-200.000	-0.103	-0.453
-252.078	112.659	0.115	-0.138
-251.063	35.424	-0.230	0.200
-250.049	-200.000	0.053	0.257
-249.034	-162.006	0.217	-0.011
-248.019	643.103	-0.059	0.150
-247.005	-94.831	0.270	0.073
-245.990	11.399	0.166	0.126
-244.976	31.243	0.345	-0.294
-243.961	-200.000	0.001	-0.051
-242.946	-87.987	0.164	-0.049
-241.932	-200.000	0.046	0.295
-240.917	-200.000	0.335	-0.001
-239.903	800.000	-0.069	-0.261
-238.888	-63.012	-0.242	-0.099
-237.873	19.555	-0.238	-0.190
-236.859	-100.195	-0.153	0.038
-235.844	800.000	-0.047	-0.191
-234.830	-72.907	0.157	-0.057
-233.815	17.767	0.166	-0.131
-232.800	15.223	0.157	0.122
-231.786	147.156	0.170	0.226
-230.771	-104.082	0.440	0.101
-229.757	-114.552	-0.328	-0.062
-228.742	52.619	-0.182	-0.173
-227.727	-9.202	-0.202	0.134
-226.713	110.155	-0.052	0.062
-225.698	-200.000	-0.059	0.262
-224.684	-62.202	-0.061	0.025
-223.669	-44.824	0.290	-0.143
-222.655	568.858	0.150	-0.360
-221.640	-155.053	-0.358	-0.023
-220.625	38.031	0.088	-0.077
-219.611	336.490	-0.221	-0.425
-218.596	312.081	-0.063	0.117
-217.582	-200.000	-0.049	0.221
-216.567	-200.000	0.005	0.028
-215.552	679.303	-0.193	-0.498
-214.538	144.340	0.184	0.243
-213.523	-200.000	0.045	-0.309
-212.509	-148.993	-0.147	0.012
-211.494	800.000	-0.056	-0.168
-210.479	593.722	0.084	-0.205
-209.465	-123.169	-0.172	0.027
-208.450	-62.096	0.214	0.088
-207.436	-200.000	-0.030	0.240
-206.421	24.625	0.212	-0.174
-205.406	137.192	-0.190	-0.246
-204.392	698.203	0.115	-0.299
-203.377	-9.032	0.416	-0.275
-202.363	-151.742	-0.164	-0.012
-201.348	-152.428	0.432	-0.031
-200.333	-38.336	-0.032	0.017
-199.319	69.394	-0.159	-0.162
-198.304	752.705	0.146	-0.390
-197.290	642.191	0.029	0.073
-196.275	169.541	-0.119	0.168
-195.260	-200.000	0.071	-0.327
-194.246	649.357	-0.105	0.266
-193.231	135.265	-0.036	0.047
-192.217	336.181	0.109	0.209
-191.202	84.363	-0.083	-0.089
-190.187	-74.852	0.154	-0.055
-189.173	800.000	-0.065	0.184
-188.158	-125.330	-0.091	-0.014
-187.144	-120.440	-0.295	0.050
-186.129	-200.000	-0.046	0.350
-185.114	-200.000	-0.026	-0.176
-184.100	99.948	-0.116	0.132
-183.085	800.000	-0.013	0.050
-182.071	86.115	-0.171	-0.186
-181.056	-38.039	-0.052	0.027
-180.042	-200.000	0.019	-0.322
-179.027	5.793	0.201	0.147
-178.012	-33.005	0.398	0.218
-176.998	-33.871	0.276	0.150
-175.983	7.830	0.296	0.219
-174.969	-23.484	0.119	0.071
-173.954	106.998	0.159	-0.186
-172.939	-200.000	0.055	-0.320
-171.925	-136.515	-0.240	-0.027
-170.910	-138.820	0.200	0.022
-169.896	19.814	0.376	-0.300
-168.881	644.620	0.049	0.123
-167.866	361.714	0.121	0.241
-166.852	702.506	0.019	0.051
-165.837	-83.034	-0.395	-0.126
-164.823	-87.512	-0.237	-0.071
-163.808	219.243	-0.116	0.184
-162.793	4.853	-0.097	-0.071
-161.779	-38.217	0.145	0.076
-160.764	186.072	0.129	-0.189
-159.750	-40.735	-0.211	0.108
-158.735	-101.542	-0.123	-0.030
-157.720	-1.162	-0.066	-0.046
-156.706	573.791	-0.092	0.222
-155.691	571.622	-0.076	-0.184
-154.677	-113.890	-0.042	0.008
-153.662	-200.000	0.059	-0.397
-152.647	-52.850	-0.254	0.116
-151.633	-84.883	0.134	0.042
-150.618	28.699	0.098	-0.082
-149.604	-16.226	0.181	0.113
-148.589	-143.707	0.086	0.008
-147.574	-200.000	-0.017	0.082
-146.560	81.562	0.229	0.245
-145.545	54.868	-0.323	0.308
-144.531	50.245	0.102	0.095
-143.516	57.401	-0.220	0.212
-142.502	-200.000	0.023	-0.213
-141.487	-51.605	-0.082	0.038
-140.472	-52.170	-0.244	0.112
-139.458	-156.032	-0.069	-0.004
-138.443	800.000	0.062	0.236
-137.429	-155.172	0.180	-0.012
-136.414	286.521	-0.068	-0.121
-135.399	158.774	-0.196	-0.269
-134.385	-32.259	0.246	0.135
-133.370	-200.000	-0.017	-0.118
-132.356	-200.000	-0.016	-0.297
-131.341	-140.623	0.099	0.010
-130.326	-200.000	0.000	-0.142
-129.312	-1.815	-0.321	0.223
-128.297	-26.067	0.252	0.146
-127.283	-200.000	-0.011	-0.068
-126.268	-200.000	-0.017	0.104
-125.253	-45.337	0.227	-0.111
-124.239	-10.987	0.332	0.216
-123.224	-31.426	0.129	0.072
-122.210	-200.000	-0.023	0.114
