DTS Sentinel unit serial number:	SN413079Multiplexer serial number:	ORYXHardware model number:	OX4-SRSoftware version number:	ORYX F/W v4.00 Oryx Data Collector v3.7.2.0data status	okinstallation	princeton_trtdifferential loss correction	single-endedforward channel	channel 1reverse channel	N/Adate	2019/09/17time	14:14:35forward acquisition time	60.00reverse acquisition time	0.00gamma	496.2192k internal	0.2299k external	0.2299temperature offset calibration	0.9967default loss term (dB/km)	0.3790temperature slope calibration	1.0000multiplexer offset coefficient	1.0000multiplexer slope coefficient	1.0000fibre end	0.00T internal ref (°C)	36.00T ext. ref 1 (°C)	0.41T ext. ref 2 (°C)	32.94length (m)	temperature (°C)	Stokes	anti-Stokes-747.200	80.670	-0.186	0.205
-746.185	-200.000	0.020	0.400
-745.171	290.221	-0.104	0.192
-744.156	464.936	0.067	0.153
-743.142	34.304	0.184	0.164
-742.127	-179.161	0.259	-0.006
-741.112	800.000	0.068	-0.257
-740.098	800.000	0.047	-0.139
-739.083	-43.793	-0.070	-0.036
-738.069	-77.943	0.084	0.030
-737.054	-65.086	-0.320	0.132
-736.039	-130.305	-0.369	-0.051
-735.025	121.735	-0.077	-0.097
-734.010	311.611	-0.085	-0.162
-732.996	-200.000	0.016	-0.155
-731.981	5.074	0.060	0.045
-730.966	169.970	0.045	0.066
-729.952	-111.029	-0.166	-0.035
-728.937	-82.158	-0.205	-0.068
-727.923	-25.756	0.273	-0.164
-726.908	-200.000	0.005	0.100
-725.894	-123.740	-0.284	0.046
-724.879	89.256	-0.212	-0.241
-723.864	-0.977	-0.134	0.096
-722.850	-102.190	0.227	-0.056
-721.835	-200.000	-0.037	-0.200
-720.821	-98.120	-0.375	-0.098
-719.806	154.885	-0.056	0.079
-718.791	-99.886	-0.341	0.087
-717.777	800.000	0.063	0.266
-716.762	-92.900	-0.191	-0.054
-715.748	-2.524	-0.150	-0.107
-714.733	-52.192	-0.139	-0.066
-713.718	-200.000	-0.041	-0.218
-712.704	-200.000	0.019	-0.195
-711.689	-200.000	0.004	0.020
-710.675	170.252	-0.107	0.156
-709.660	-200.000	-0.022	-0.271
-708.645	-42.228	-0.331	-0.172
-707.631	-200.000	0.040	0.212
-706.616	51.551	0.184	-0.178
-705.602	51.656	0.097	-0.094
-704.587	-52.626	0.185	-0.087
-703.572	-11.466	0.280	0.187
-702.558	29.975	0.363	0.315
-701.543	152.869	0.079	-0.109
-700.529	-112.370	0.323	0.066
-699.514	-114.619	-0.126	-0.025
-698.499	160.801	-0.204	-0.290
-697.485	-79.474	-0.167	0.057
-696.470	-157.881	-0.353	-0.021
-695.456	600.082	-0.081	0.204
-694.441	250.664	-0.109	-0.188
-693.426	34.971	-0.139	-0.124
-692.412	-174.276	0.198	0.006
-691.397	0.969	-0.197	-0.144
-690.383	-76.789	0.197	-0.070
-689.368	244.549	0.041	-0.071
-688.354	228.241	-0.156	-0.259
-687.339	800.000	0.078	0.334
-686.324	-94.579	-0.304	-0.084
-685.310	157.886	-0.057	0.080
-684.295	-56.042	-0.211	-0.096
-683.281	-116.045	0.215	-0.041
-682.266	-31.836	-0.159	-0.091
-681.251	-200.000	-0.006	-0.162
-680.237	-71.608	0.316	0.120
-679.222	-198.711	0.073	-0.000
-678.208	185.135	0.078	-0.118
-677.193	-200.000	0.021	0.146
-676.178	234.773	0.215	0.361
-675.164	608.680	-0.073	0.185
-674.149	-200.000	0.015	0.075
-673.135	-200.000	0.014	0.166
-672.120	-48.739	-0.103	-0.051
-671.105	74.306	0.265	-0.283
-670.091	-200.000	-0.054	-0.298
-669.076	-5.609	0.146	-0.102
-668.062	-44.475	-0.157	-0.080
-667.047	-54.993	-0.213	0.098
-666.032	-87.178	0.281	0.087
-665.018	-8.705	0.133	0.091
-664.003	173.971	0.120	-0.177
-662.989	-34.927	0.060	0.033
-661.974	31.244	0.103	-0.090
-660.959	92.184	-0.194	-0.223
-659.945	-6.486	0.174	-0.121
-658.930	224.227	-0.042	-0.068
-657.916	-75.991	0.233	-0.084
-656.901	-35.036	0.250	-0.139
-655.886	-200.000	-0.002	-0.255
-654.872	-63.782	-0.228	0.095
-653.857	-91.519	0.189	0.055
-652.843	-54.328	0.264	0.122
-651.828	-92.504	-0.290	0.083
-650.814	98.174	0.160	0.187
-649.799	-78.881	0.228	-0.079
-648.784	-107.987	0.163	0.036
-647.770	-26.662	0.207	-0.123
-646.755	-200.000	-0.012	0.220
-645.741	-60.795	-0.174	0.075
-644.726	-119.447	0.180	0.032
-643.711	-200.000	0.039	-0.258
-642.697	42.631	-0.234	-0.216
-641.682	-200.000	-0.029	0.280
-640.668	800.000	0.103	0.307
-639.653	-126.766	-0.300	-0.045
-638.638	-94.160	0.249	-0.069
-637.624	313.589	-0.098	0.187
-636.609	-102.027	0.148	-0.036
-635.595	344.495	0.049	0.098
-634.580	-51.454	-0.095	-0.045
-633.565	-200.000	0.033	0.156
-632.551	14.943	0.094	-0.075
-631.536	424.461	0.139	0.304
-630.522	40.913	0.209	-0.192
-629.507	-27.076	0.079	0.047
-628.492	66.912	0.186	0.192
-627.478	50.519	0.216	-0.207
-626.463	500.808	0.083	-0.194
-625.449	-98.008	-0.192	-0.050
-624.434	-200.000	-0.042	0.269
-623.419	800.000	0.098	0.286
-622.405	-6.951	-0.073	0.050
-621.390	800.000	-0.084	-0.300
-620.376	-89.147	-0.193	-0.058
-619.361	25.182	-0.115	-0.097
-618.346	443.554	0.115	-0.255
-617.332	-103.842	-0.419	-0.099
-616.317	-185.266	0.418	0.007
-615.303	-80.995	0.132	-0.044
-614.288	97.143	-0.126	0.146
-613.273	161.285	-0.074	0.105
-612.259	-200.000	-0.009	-0.080
-611.244	-2.510	0.090	-0.064
-610.230	31.778	-0.086	0.076
-609.215	324.418	0.092	0.178
-608.201	14.667	-0.053	-0.042
-607.186	-200.000	-0.046	-0.262
-606.171	182.896	-0.101	-0.152
-605.157	714.023	-0.067	0.180
-604.142	258.091	-0.049	-0.085
-603.128	24.276	0.300	-0.252
-602.113	800.000	-0.030	0.104
-601.098	45.133	-0.205	-0.191
-600.084	144.423	-0.073	0.098
-599.069	30.310	0.184	0.159
-598.055	-200.000	-0.015	0.132
-597.040	-138.115	0.393	-0.044
-596.025	-200.000	-0.017	0.254
-595.011	-111.156	-0.205	-0.043
-593.996	-116.842	-0.192	-0.036
-592.982	-89.873	-0.184	-0.055
-591.967	-178.021	-0.208	-0.005
-590.952	18.844	0.007	0.006
-589.938	-49.735	0.301	0.145
-588.923	38.970	0.039	0.035
-587.909	104.279	0.052	0.061
-586.894	2.789	0.105	0.077
-585.879	-62.441	-0.216	-0.091
-584.865	45.489	0.131	-0.122
-583.850	-110.697	-0.132	-0.028
-582.836	137.267	-0.154	-0.205
-581.821	-164.940	0.245	-0.011
-580.806	-132.169	-0.116	0.015
-579.792	-6.520	0.058	-0.040
-578.777	-100.913	0.309	-0.077
-577.763	-200.000	0.008	0.043
-576.748	420.273	0.045	-0.098
-575.733	-200.000	-0.007	-0.114
-574.719	464.962	0.047	-0.106
-573.704	-200.000	0.002	-0.178
-572.690	-93.995	0.189	-0.053
-571.675	69.449	0.247	0.258
-570.661	-58.517	0.205	-0.090
-569.646	-157.631	-0.133	0.008
-568.631	-1.377	0.076	0.055
-567.617	87.566	0.052	-0.058
-566.602	-99.336	-0.125	0.032
-565.588	-200.000	-0.008	-0.192
-564.573	-200.000	-0.051	-0.278
-563.558	-102.280	0.200	0.049
-562.544	350.795	0.069	0.139
-561.529	-200.000	0.030	0.140
-560.515	411.920	-0.041	-0.089
-559.500	-200.000	-0.051	-0.284
-558.485	-6.959	-0.149	-0.102
-557.471	15.256	0.121	0.096
-556.456	264.037	-0.114	0.201
-555.442	88.529	-0.196	0.220
-554.427	606.463	0.088	0.223
-553.412	-25.172	0.113	-0.068
-552.398	143.627	0.111	-0.150
-551.383	179.791	0.152	-0.226
-550.369	132.625	0.188	0.246
-549.354	57.133	-0.055	0.055
-548.339	-87.286	0.040	-0.012
-547.325	140.073	0.142	-0.189
-546.310	33.351	-0.433	-0.380
-545.296	209.316	-0.150	-0.238
-544.281	44.875	0.209	-0.195
-543.266	-64.238	-0.270	-0.111
-542.252	-167.526	-0.248	0.010
-541.237	-44.934	-0.207	-0.104
-540.223	778.506	-0.051	0.141
-539.208	105.221	0.206	0.246
-538.193	-139.290	-0.287	0.031
-537.179	-68.052	0.143	-0.056
-536.164	297.829	0.100	-0.187
-535.150	74.484	0.137	0.146
-534.135	84.814	0.071	0.078
-533.121	711.686	0.009	-0.024
-532.106	38.947	0.203	-0.184
-531.091	16.168	0.087	-0.069
-530.077	119.053	0.156	-0.195
-529.062	-200.000	-0.008	0.523
-528.048	-83.941	0.273	-0.088
-527.033	-200.000	0.043	0.439
-526.018	-126.450	-0.239	-0.036
-525.004	557.360	0.034	-0.083
-523.989	-124.780	-0.521	0.082
-522.975	-51.109	0.210	0.099
-521.960	-90.294	0.159	0.047
-520.945	-20.652	-0.046	-0.028
-519.931	225.776	-0.074	0.122
-518.916	-200.000	-0.008	-0.054
-517.902	220.574	-0.143	-0.232
-516.887	-39.310	-0.407	-0.216
-515.872	538.786	0.137	0.330
-514.858	77.733	-0.215	-0.232
-513.843	60.635	-0.185	0.186
-512.829	146.553	-0.133	-0.181
-511.814	-157.860	-0.435	-0.026
-510.799	-139.207	0.260	0.028
-509.785	-20.643	-0.270	0.168
-508.770	-133.093	-0.408	0.052
-507.756	641.533	-0.053	0.136
-506.741	256.277	0.085	-0.148
-505.726	-187.203	-0.124	0.002
-504.712	215.060	-0.089	0.142
-503.697	-90.989	0.047	0.014
-502.683	458.938	0.120	-0.271
-501.668	46.624	-0.129	0.121
-500.653	308.398	-0.023	-0.044
-499.639	800.000	-0.065	-0.277
-498.624	75.489	0.203	0.216
-497.610	-200.000	-0.004	-0.084
-496.595	148.346	-0.174	0.237
-495.581	800.000	-0.065	-0.217
-494.566	116.654	0.108	-0.134
-493.551	-61.475	0.215	0.091
-492.537	-200.000	-0.001	-0.044
-491.522	474.123	-0.093	-0.211
-490.508	-0.428	0.084	-0.060
-489.493	344.724	-0.135	-0.268
-488.478	52.548	-0.109	-0.105
-487.464	57.132	0.153	-0.151
-486.449	-200.000	0.019	-0.121
-485.435	-85.753	-0.377	-0.118
-484.420	-71.069	0.187	-0.071
-483.405	329.574	0.178	-0.347
-482.391	-22.523	0.196	0.120
-481.376	27.510	-0.141	-0.119
-480.362	-6.675	-0.048	0.033
-479.347	686.963	-0.039	-0.102
-478.332	800.000	-0.045	0.176
-477.318	-145.467	-0.146	-0.013
-476.303	-200.000	-0.071	0.422
-475.289	2.716	0.051	-0.037
-474.274	-41.179	0.279	-0.145
-473.259	22.452	0.212	0.175
-472.245	800.000	-0.177	0.530
-471.230	-200.000	-0.045	0.269
-470.216	572.656	-0.134	-0.330
-469.201	734.447	-0.102	-0.275
-468.186	-200.000	-0.019	-0.222
-467.172	12.593	-0.209	-0.163
-466.157	-200.000	0.028	-0.402
-465.143	-200.000	-0.011	0.279
-464.128	147.004	-0.118	0.160
-463.113	-200.000	-0.044	-0.208
-462.099	-105.007	-0.357	-0.083
-461.084	-54.025	0.211	-0.097
-460.070	800.000	0.107	0.308
-459.055	-200.000	-0.012	-0.177
-458.040	-63.190	-0.179	-0.074
-457.026	-200.000	0.002	-0.138
-456.011	47.296	0.291	-0.273
-454.997	-132.468	0.513	-0.067
-453.982	541.567	-0.068	0.163
-452.968	-52.039	-0.109	-0.051
-451.953	-200.000	-0.008	-0.146
-450.938	201.284	-0.148	0.230
-449.924	-200.000	-0.001	-0.145
-448.909	-200.000	0.009	-0.052
-447.895	-149.536	-0.141	-0.011
-446.880	531.917	-0.093	0.221
-445.865	-52.087	0.265	-0.124
-444.851	249.930	-0.032	0.054
-443.836	-143.311	0.213	-0.021
-442.822	-120.796	0.345	0.059
-441.807	23.483	-0.169	-0.140
-440.792	-200.000	-0.022	0.178
-439.778	110.333	-0.098	-0.118
-438.763	-21.772	-0.159	0.098
-437.749	-144.362	0.411	-0.039
-436.734	15.890	-0.260	-0.206
-435.719	73.153	-0.078	0.082
-434.705	25.013	0.143	0.120
-433.690	71.270	-0.114	-0.119
-432.676	-200.000	0.018	-0.265
-431.661	120.782	0.126	-0.158
-430.646	-52.866	-0.106	-0.049
-429.632	-154.404	-0.153	-0.010
-428.617	-60.308	-0.104	-0.044
-427.603	4.652	0.117	0.087
-426.588	-161.743	0.201	0.010
-425.573	-86.680	0.097	-0.030
-424.559	-200.000	-0.006	-0.320
-423.544	-21.042	-0.199	-0.123
-422.530	-116.627	0.205	-0.038
-421.515	34.812	-0.245	-0.216
-420.500	69.260	0.113	-0.117
-419.486	-200.000	0.029	0.140
-418.471	-159.390	0.165	-0.009
-417.457	7.853	-0.078	0.059
-416.442	-102.247	-0.279	0.068
-415.428	-200.000	0.037	0.416
-414.413	133.270	0.346	-0.451
-413.398	-200.000	-0.027	0.253
-412.384	65.259	0.296	0.302
-411.369	111.230	0.233	-0.283
-410.355	-44.616	-0.278	0.140
-409.340	-200.000	0.002	0.035
-408.325	800.000	-0.090	-0.280
-407.311	181.557	-0.212	0.315
-406.296	194.552	0.106	-0.162
-405.282	-200.000	-0.007	0.098
-404.267	-200.000	0.023	-0.218
-403.252	-115.381	0.080	0.015
-402.238	-32.737	0.141	-0.079
-401.223	-140.311	-0.368	0.039
-400.209	-200.000	0.020	0.308
-399.194	-200.000	0.037	0.395
-398.179	159.860	-0.189	-0.265
-397.165	290.739	-0.016	-0.030
-396.150	127.622	-0.246	0.314
-395.136	4.408	0.338	-0.249
-394.121	45.338	0.181	-0.168
-393.106	184.479	-0.149	0.222
-392.092	-165.514	-0.174	0.008
-391.077	-190.257	0.171	-0.002
-390.063	-117.984	0.224	-0.040
-389.048	-200.000	-0.012	0.092
-388.033	377.574	0.163	-0.334
-387.019	-200.000	0.008	-0.064
-386.004	-2.255	0.213	-0.150
-384.990	46.561	0.192	0.179
-383.975	-200.000	-0.010	0.330
-382.960	44.313	0.097	-0.090
-381.946	31.092	-0.330	-0.285
-380.931	51.996	-0.183	0.175
-379.917	17.153	0.328	0.262
-378.902	607.359	0.068	0.171
-377.888	-130.391	0.167	0.023
-376.873	34.526	-0.218	0.191
-375.858	800.000	-0.091	0.395
-374.844	236.818	-0.212	-0.354
-373.829	-200.000	-0.010	-0.065
-372.815	87.961	-0.031	0.035
-371.800	-18.375	0.100	0.063
-370.785	577.401	-0.124	-0.305
-369.771	378.003	-0.088	-0.181
-368.756	49.931	0.097	0.092
-367.742	34.193	0.048	0.043
-366.727	37.827	0.295	-0.263
-365.712	219.592	0.147	0.237
-364.698	-103.203	-0.054	0.013
-363.683	-35.079	0.113	0.062
-362.669	-63.609	0.249	-0.103
-361.654	-200.000	0.010	0.113
-360.639	354.064	0.044	0.088
-359.625	138.192	-0.149	-0.196
-358.610	-200.000	-0.030	-0.244
-357.596	-200.000	-0.027	-0.199
-356.581	-98.914	-0.130	-0.033
-355.566	-36.118	-0.107	0.058
-354.552	-52.852	0.359	0.166
-353.537	168.226	-0.076	0.109
-352.523	126.037	0.065	0.082
-351.508	-108.081	0.487	0.106
-350.493	800.000	0.034	-0.132
-349.479	139.939	0.183	0.243
-348.464	263.197	-0.070	0.121
-347.450	-84.174	-0.019	0.006
-346.435	65.296	0.174	-0.177
-345.420	-200.000	0.047	0.236
-344.406	800.000	-0.029	-0.090
-343.391	800.000	-0.067	0.209
-342.377	800.000	0.129	-0.508
-341.362	65.008	-0.147	0.149
-340.348	59.171	-0.027	-0.027
-339.333	195.334	-0.100	-0.152
-338.318	800.000	-0.091	0.318
-337.304	-89.575	-0.278	0.082
-336.289	-40.811	0.118	-0.061
-335.275	-38.742	-0.326	0.173
-334.260	-99.430	-0.261	0.066
-333.245	789.078	0.116	0.319
-332.231	-32.954	0.385	-0.214
-331.216	-39.812	-0.060	0.031
-330.202	62.451	-0.106	-0.107
-329.187	222.873	0.236	0.382
-328.172	-200.000	0.012	-0.282
-327.158	76.715	0.072	0.077
-326.143	-200.000	-0.014	-0.164
-325.129	800.000	-0.034	-0.095
-324.114	78.273	-0.058	-0.062
-323.099	101.285	-0.144	-0.168
-322.085	-154.196	-0.162	0.011
-321.070	65.249	0.169	-0.171
-320.056	-104.223	0.092	0.022
-319.041	-196.706	-0.079	-0.001
-318.026	-54.152	-0.256	-0.117
-317.012	25.230	-0.173	-0.144
-315.997	129.666	-0.129	0.166
-314.983	800.000	0.034	0.134
-313.968	-200.000	0.005	0.062
-312.953	227.999	0.076	0.124
-311.939	3.664	-0.203	0.149
-310.924	133.129	0.116	-0.150
-309.910	135.841	0.127	-0.166
-308.895	-29.693	-0.112	0.064
-307.880	-11.942	-0.157	0.103
-306.866	-165.599	-0.427	-0.019
-305.851	-73.976	0.547	-0.199
-304.837	292.737	-0.068	-0.125
-303.822	6.340	-0.194	-0.145
-302.807	-118.723	-0.272	-0.048
-301.793	-200.000	-0.036	0.644
-300.778	71.144	0.223	0.232
-299.764	-134.818	-0.313	-0.038
-298.749	-81.251	-0.137	-0.045
-297.735	693.767	0.039	0.103
-296.720	172.332	0.254	0.367
-295.705	-13.124	-0.072	0.047
-294.691	469.663	0.113	0.254
-293.676	-200.000	0.013	-0.074
-292.662	453.672	-0.064	0.143
-291.647	-200.000	-0.064	0.310
-290.632	124.870	0.176	0.222
-289.618	683.265	0.081	0.212
-288.603	-39.138	0.213	-0.112
-287.589	-200.000	0.015	0.116
-286.574	-88.760	0.234	0.070
-285.559	-1.710	-0.185	0.130
-284.545	251.751	0.085	-0.145
-283.530	-200.000	0.037	0.254
-282.516	404.337	-0.103	0.218
-281.501	-26.143	-0.041	0.024
-280.486	-146.532	0.236	-0.021
-279.472	-183.805	-0.138	-0.002
-278.457	-112.256	-0.330	0.066
-277.443	165.335	-0.070	0.100
-276.428	-117.176	-0.348	0.063
-275.413	-153.372	-0.292	0.020
-274.399	-200.000	-0.047	-0.289
-273.384	137.171	-0.079	0.103
-272.370	-200.000	0.018	0.107
-271.355	-200.000	0.002	-0.479
-270.340	-51.369	0.204	-0.095
-269.326	-57.876	0.176	0.077
-268.311	109.232	0.247	0.296
-267.297	108.745	0.215	0.257
-266.282	-23.714	-0.415	-0.249
-265.267	-132.578	0.293	0.038
-264.253	162.510	0.181	0.254
-263.238	85.993	-0.124	-0.136
-262.224	332.717	-0.085	0.165
-261.209	-53.730	-0.080	0.037
-260.195	-25.644	0.258	0.152
-259.180	-200.000	-0.001	-0.033
-258.165	59.363	0.090	0.089
-257.151	321.931	0.124	-0.237
-256.136	6.303	-0.157	-0.117
-255.122	183.334	0.003	-0.004
-254.107	-16.717	-0.089	0.056
-253.092	-171.182	-0.201	-0.007
-252.078	421.537	0.143	0.308
-251.063	357.013	0.126	0.251
-250.049	-83.750	-0.083	0.027
-249.034	25.457	-0.188	-0.157
-248.019	800.000	-0.064	-0.277
-247.005	-200.000	-0.003	-0.120
-245.990	110.112	-0.094	-0.113
-244.976	342.411	0.069	-0.134
-243.961	391.213	-0.054	-0.113
-242.946	800.000	-0.064	0.184
-241.932	167.580	-0.136	0.194
-240.917	197.343	0.156	0.237
-239.903	279.766	0.024	0.044
-238.888	-86.727	-0.307	0.094
-237.873	-54.537	-0.176	-0.080
-236.859	-200.000	0.032	0.567
-235.844	-200.000	-0.010	0.123
-234.830	171.453	0.312	0.449
-233.815	-97.097	-0.220	0.058
-232.800	104.836	0.027	0.031
-231.786	-81.611	0.198	0.065
-230.771	168.250	0.265	0.377
-229.757	800.000	0.047	-0.137
-228.742	116.705	-0.189	0.231
-227.727	218.136	-0.160	-0.255
-226.713	141.799	0.184	-0.244
-225.698	-157.314	0.325	-0.020
-224.684	-71.502	0.072	-0.027
-223.669	-143.240	0.138	-0.013
-222.655	50.911	-0.263	0.250
-221.640	-200.000	-0.027	-0.359
-220.625	92.011	0.054	-0.061
-219.611	30.346	0.252	0.215
-218.596	6.131	-0.182	-0.135
-217.582	98.947	0.179	0.206
-216.567	9.261	-0.156	-0.118
-215.552	21.411	0.082	0.066
-214.538	-200.000	0.069	0.365
-213.523	43.714	-0.060	0.055
-212.509	-200.000	0.006	-0.391
-211.494	-43.297	0.125	-0.063
-210.479	-97.874	-0.170	0.044
-209.465	517.274	0.026	-0.061
-208.450	-10.703	0.348	-0.230
-207.436	-143.441	-0.152	0.014
-206.421	-170.498	0.227	0.008
-205.406	158.863	0.067	0.093
-204.392	-113.347	-0.408	0.080
-203.377	251.646	0.155	0.264
-202.363	32.657	0.065	0.056
-201.348	12.620	-0.157	-0.121
-200.333	128.142	-0.131	0.167
-199.319	-142.330	0.224	-0.022
-198.304	-119.804	-0.233	-0.040
-197.290	800.000	-0.068	-0.214
-196.275	-6.447	-0.016	-0.011
-195.260	-122.100	-0.175	0.029
-194.246	-45.314	0.212	-0.105
-193.231	-200.000	-0.026	0.141
-192.217	285.085	-0.098	-0.176
-191.202	-72.945	-0.021	-0.008
-190.187	441.777	0.134	0.292
-189.173	57.158	0.098	-0.095
-188.158	89.537	0.052	-0.058
-187.144	800.000	0.098	-0.299
-186.129	-145.794	-0.594	-0.053
-185.114	-144.869	0.308	-0.028
-184.100	31.949	-0.182	-0.157
-183.085	-121.499	-0.195	0.032
-182.071	-5.829	0.309	-0.211
-181.056	800.000	0.028	-0.083
-180.042	615.362	0.080	0.199
-179.027	41.579	0.056	-0.051
-178.012	175.232	-0.098	-0.142
-176.998	800.000	-0.077	-0.234
-175.983	687.948	-0.092	-0.240
-174.969	276.406	-0.128	0.226
-173.954	800.000	-0.030	0.096
-172.939	-200.000	0.014	-0.099
-171.925	72.844	0.230	-0.239
-170.910	15.693	-0.167	-0.131
-169.896	-70.214	-0.125	0.048
-168.881	-32.841	-0.112	-0.062
-167.866	-124.795	-0.155	0.024
-166.852	-200.000	-0.078	0.403
-165.837	424.848	-0.086	-0.185
-164.823	460.771	0.069	0.152
-163.808	-85.856	-0.054	-0.017
-162.793	-76.291	-0.083	0.029
-161.779	6.907	0.174	-0.130
-160.764	-77.291	0.057	0.020
-159.750	-98.938	0.141	-0.036
-158.735	-200.000	0.002	-0.109
-157.720	48.267	-0.107	-0.099
-156.706	219.186	0.073	0.116
-155.691	-53.136	-0.061	-0.028
-154.677	-200.000	-0.022	0.366
-153.662	-200.000	0.009	-0.188
-152.647	224.212	-0.064	0.103
-151.633	286.024	0.262	-0.472
-150.618	70.124	0.090	0.093
-149.604	-21.569	0.372	0.226
-148.589	800.000	-0.016	-0.045
-147.574	92.608	0.148	-0.167
-146.560	-45.449	0.034	-0.017
-145.545	88.629	0.012	-0.013
-144.531	238.180	0.196	0.324
-143.516	-8.146	-0.113	-0.076
-142.502	21.991	0.273	0.222
-141.487	188.017	-0.098	-0.146
-140.472	-66.168	0.072	-0.029
-139.458	70.560	-0.238	-0.245
-138.443	800.000	-0.157	0.493
-137.429	12.373	0.099	-0.076
-136.414	56.419	0.270	-0.262
-135.399	-36.204	0.170	0.091
-134.385	-84.644	0.192	0.060
-133.370	-3.546	0.064	-0.045
-132.356	-182.994	-0.222	-0.004
-131.341	-200.000	-0.032	-0.179
-130.326	-200.000	-0.011	-0.144
-129.312	-46.345	0.266	0.130
-128.297	-179.198	0.150	0.003
-127.283	-75.390	0.214	-0.076
-126.268	788.544	0.074	0.203
-125.253	40.270	0.241	0.216
-124.239	112.688	-0.119	0.144
-123.224	-200.000	0.002	0.074
-122.210	296.751	0.111	0.202
-121.195	-200.000	-0.014	0.249
