DTS Sentinel unit serial number:	SN413079Multiplexer serial number:	ORYXHardware model number:	OX4-SRSoftware version number:	ORYX F/W v4.00 Oryx Data Collector v3.7.2.0data status	okinstallation	princeton_trtdifferential loss correction	single-endedforward channel	channel 1reverse channel	N/Adate	2019/09/18time	01:02:35forward acquisition time	60.00reverse acquisition time	0.00gamma	496.2192k internal	0.2341k external	0.2341temperature offset calibration	0.9983default loss term (dB/km)	0.3790temperature slope calibration	1.0000multiplexer offset coefficient	1.0000multiplexer slope coefficient	1.0000fibre end	0.00T internal ref (°C)	23.28T ext. ref 1 (°C)	0.17T ext. ref 2 (°C)	16.98length (m)	temperature (°C)	Stokes	anti-Stokes-747.200	104.110	-0.150	0.177
-746.185	-200.000	-0.034	0.239
-745.171	777.718	0.144	0.395
-744.156	800.000	-0.107	0.333
-743.142	186.077	-0.174	-0.259
-742.127	-200.000	0.029	-0.167
-741.112	-74.679	-0.166	0.060
-740.098	-200.000	-0.030	0.226
-739.083	29.987	-0.177	0.151
-738.069	-200.000	0.018	0.270
-737.054	-24.781	-0.168	-0.100
-736.039	-13.340	-0.327	-0.213
-735.025	-108.178	0.388	-0.084
-734.010	171.412	-0.131	-0.189
-732.996	19.929	-0.184	0.149
-731.981	216.196	-0.169	-0.270
-730.966	263.921	0.092	-0.160
-729.952	-42.064	-0.167	0.086
-728.937	-68.967	-0.130	-0.050
-727.923	313.399	-0.090	-0.169
-726.908	151.840	-0.178	-0.242
-725.894	-200.000	0.015	0.125
-724.879	424.845	-0.182	-0.392
-723.864	217.795	-0.161	-0.257
-722.850	-140.044	0.118	-0.012
-721.835	206.161	0.078	0.122
-720.821	429.039	0.114	-0.246
-719.806	-200.000	-0.007	-0.206
-718.791	-9.667	-0.055	-0.037
-717.777	71.817	0.224	0.233
-716.762	-200.000	-0.006	-0.140
-715.748	-76.126	0.211	-0.075
-714.733	402.558	-0.113	-0.237
-713.718	65.292	0.155	0.157
-712.704	322.841	-0.179	-0.342
-711.689	-200.000	-0.018	0.139
-710.675	-127.770	0.377	0.054
-709.660	268.851	-0.185	-0.324
-708.645	-24.195	0.158	0.094
-707.631	81.516	0.101	-0.109
-706.616	800.000	0.022	0.084
-705.602	-136.770	-0.226	-0.026
-704.587	-85.433	-0.396	0.123
-703.572	-184.996	-0.108	-0.002
-702.558	-200.000	-0.004	0.044
-701.543	-109.240	-0.165	0.035
-700.529	144.609	-0.030	-0.040
-699.514	-72.321	0.106	0.039
-698.499	-200.000	0.022	0.258
-697.485	-200.000	0.013	0.162
-696.470	84.408	-0.115	0.126
-695.456	-200.000	0.027	-0.142
-694.441	-200.000	0.002	0.054
-693.426	-200.000	0.058	0.311
-692.412	800.000	-0.039	0.122
-691.397	-9.751	-0.315	0.210
-690.383	-157.459	0.076	0.005
-689.368	77.289	-0.094	0.099
-688.354	-200.000	0.089	-0.395
-687.339	360.454	-0.040	-0.079
-686.324	-70.469	-0.240	0.091
-685.310	-58.649	0.094	0.041
-684.295	244.851	-0.121	-0.204
-683.281	-118.027	-0.078	0.014
-682.266	800.000	0.012	0.052
-681.251	103.117	-0.148	-0.173
-680.237	21.342	-0.214	-0.174
-679.222	202.448	-0.077	0.118
-678.208	-137.362	-0.567	-0.064
-677.193	13.195	-0.102	0.079
-676.178	242.297	-0.060	-0.101
-675.164	90.789	-0.090	0.101
-674.149	32.447	-0.281	-0.243
-673.135	23.613	-0.115	0.094
-672.120	39.498	0.154	-0.138
-671.105	-200.000	0.054	-0.339
-670.091	61.318	-0.173	0.172
-669.076	-99.991	0.196	-0.049
-668.062	42.552	-0.117	-0.107
-667.047	42.049	0.072	0.065
-666.032	-92.070	-0.179	0.051
-665.018	685.696	-0.117	-0.306
-664.003	38.275	-0.147	0.130
-662.989	642.361	-0.153	0.389
-661.974	58.152	0.086	0.085
-660.959	111.881	0.098	-0.119
-659.945	-99.599	-0.119	0.030
-658.930	-170.847	0.271	-0.009
-657.916	38.547	0.162	-0.144
-656.901	-121.146	0.140	0.023
-655.886	228.706	0.208	0.339
-654.872	-138.354	-0.439	0.048
-653.857	65.853	-0.396	-0.401
-652.843	-200.000	0.071	0.502
-651.828	-200.000	-0.020	-0.131
-650.814	-186.580	-0.057	0.001
-649.799	-200.000	0.007	-0.072
-648.784	281.951	0.131	0.234
-647.770	303.140	-0.053	0.098
-646.755	800.000	-0.052	0.145
-645.741	-50.016	-0.395	0.187
-644.726	-200.000	-0.011	-0.281
-643.711	-52.641	-0.354	-0.163
-642.697	4.754	0.232	0.170
-641.682	14.429	-0.186	-0.145
-640.668	-143.741	0.129	0.012
-639.653	313.413	0.127	-0.238
-638.638	191.793	0.094	-0.142
-637.624	-200.000	-0.002	-0.018
-636.609	-198.358	0.116	0.001
-635.595	-192.457	-0.221	0.002
-634.580	-200.000	-0.052	0.321
-633.565	-0.679	0.285	-0.201
-632.551	19.337	-0.247	-0.198
-631.536	800.000	0.021	0.079
-630.522	800.000	-0.030	-0.130
-629.507	-11.248	-0.298	0.196
-628.492	116.903	0.229	0.280
-627.478	-139.332	-0.190	-0.020
-626.463	68.057	0.077	0.079
-625.449	166.563	-0.104	0.147
-624.434	800.000	-0.098	-0.367
-623.419	17.299	-0.410	-0.325
-622.405	291.838	0.210	0.382
-621.390	-200.000	-0.005	-0.333
-620.376	-112.153	-0.344	0.069
-619.361	-200.000	-0.009	-0.089
-618.346	511.741	-0.124	-0.287
-617.332	-96.564	0.231	0.061
-616.317	-84.479	0.285	0.090
-615.303	9.105	-0.160	-0.121
-614.288	242.453	0.251	0.419
-613.273	-14.150	-0.030	-0.019
-612.259	23.582	-0.136	0.112
-611.244	-71.948	-0.235	-0.087
-610.230	233.795	0.085	0.140
-609.215	798.343	0.027	-0.074
-608.201	-17.141	0.157	-0.099
-607.186	23.075	-0.163	-0.133
-606.171	-24.614	0.269	-0.160
-605.157	-200.000	0.006	-0.180
-604.142	37.786	-0.043	-0.038
-603.128	-117.331	0.228	0.041
-602.113	-200.000	-0.096	-0.508
-601.098	-200.000	0.022	-0.101
-600.084	267.191	-0.022	-0.039
-599.069	-58.770	0.097	-0.042
-598.055	800.000	-0.139	-0.392
-597.040	85.399	0.150	-0.164
-596.025	-4.402	0.163	-0.112
-595.011	174.287	-0.156	0.225
-593.996	102.908	0.349	-0.407
-592.982	-29.959	-0.072	-0.041
-591.967	318.165	0.183	0.346
-590.952	1.814	0.019	0.013
-589.938	-125.642	-0.190	-0.029
-588.923	-200.000	-0.031	-0.193
-587.909	-8.379	0.143	-0.096
-586.894	9.356	-0.200	0.151
-585.879	-200.000	0.021	0.101
-584.865	-143.978	0.234	0.022
-583.850	-200.000	-0.016	-0.270
-582.836	-176.604	0.098	0.003
-581.821	800.000	-0.021	-0.066
-580.806	-56.225	0.063	0.028
-579.792	48.426	0.075	-0.070
-578.777	-11.787	-0.340	-0.222
-577.763	293.794	-0.137	-0.249
-576.748	-46.636	-0.109	-0.053
-575.733	-200.000	-0.007	0.124
-574.719	98.856	-0.062	0.071
-573.704	800.000	0.077	-0.233
-572.690	-4.873	-0.174	-0.120
-571.675	-7.465	0.189	-0.127
-570.661	-30.571	0.369	0.208
-569.646	-133.490	0.141	0.018
-568.631	1.163	-0.021	0.015
-567.617	800.000	0.163	-0.498
-566.602	185.963	-0.137	-0.203
-565.588	-200.000	-0.067	-0.335
-564.573	-142.008	-0.221	0.022
-563.558	295.234	0.052	0.095
-562.544	-55.683	0.075	0.033
-561.529	-145.162	-0.206	0.019
-560.515	265.106	0.122	0.212
-559.500	31.834	0.233	0.200
-558.485	-200.000	0.048	0.279
-557.471	82.081	-0.057	-0.061
-556.456	-200.000	-0.063	-0.337
-555.442	18.933	-0.198	0.158
-554.427	-42.662	-0.452	-0.229
-553.412	-80.093	0.258	0.086
-552.398	-200.000	0.016	-0.190
-551.383	246.830	0.108	0.182
-550.369	-21.001	-0.246	-0.150
-549.354	-200.000	0.041	-0.195
-548.339	107.087	0.081	0.095
-547.325	232.694	0.088	0.144
-546.310	53.416	0.189	-0.180
-545.296	2.171	-0.186	0.134
-544.281	-31.353	0.226	-0.127
-543.266	-200.000	-0.005	0.046
-542.252	800.000	-0.053	-0.161
-541.237	321.550	0.169	-0.319
-540.223	-63.411	-0.112	0.046
-539.208	-24.084	0.178	0.106
-538.193	-100.889	0.248	0.061
-537.179	800.000	0.031	0.107
-536.164	800.000	0.058	0.186
-535.150	326.617	0.189	-0.359
-534.135	231.639	0.091	-0.148
-533.121	800.000	-0.121	0.380
-532.106	-67.834	-0.222	0.086
-531.091	238.971	-0.173	0.285
-530.077	516.384	0.133	-0.308
-529.062	-103.705	0.225	0.052
-528.048	234.258	-0.164	0.269
-527.033	-57.030	0.274	0.120
-526.018	638.554	-0.152	0.385
-525.004	205.250	-0.147	0.227
-523.989	87.646	-0.124	-0.137
-522.975	-175.659	0.052	0.001
-521.960	-175.534	0.263	0.007
-520.945	12.491	-0.070	0.053
-519.931	3.290	-0.163	0.118
-518.916	-113.589	0.091	-0.018
-517.902	-139.762	-0.558	-0.059
-516.887	-23.095	-0.140	0.084
-515.872	-41.682	-0.139	0.071
-514.858	800.000	-0.057	-0.225
-513.843	-200.000	0.027	-0.196
-512.829	-6.812	0.149	0.101
-511.814	-200.000	-0.019	0.290
-510.799	-22.594	-0.176	-0.106
-509.785	-189.117	-0.039	-0.000
-508.770	23.870	-0.290	-0.238
-507.756	-30.472	0.203	-0.115
-506.741	228.626	-0.196	0.317
-505.726	-200.000	-0.034	0.339
-504.712	148.176	0.168	0.226
-503.697	-200.000	0.009	0.076
-502.683	36.891	0.112	-0.098
-501.668	800.000	0.030	-0.128
-500.653	21.817	-0.200	-0.162
-499.639	-200.000	0.059	0.283
-498.624	96.972	0.094	0.107
-497.610	116.638	-0.147	0.178
-496.595	-68.937	-0.173	-0.066
-495.581	-200.000	0.024	-0.140
-494.566	64.419	0.078	-0.078
-493.551	-171.242	-0.245	-0.008
-492.537	2.066	0.095	0.068
-491.522	546.387	0.042	-0.100
-490.508	-24.996	-0.243	-0.143
-489.493	15.570	-0.109	-0.085
-488.478	-200.000	0.052	-0.366
-487.464	-26.802	0.170	-0.098
-486.449	50.324	0.038	0.036
-485.435	-5.983	0.101	0.069
-484.420	109.386	0.109	-0.129
-483.405	-22.661	0.292	-0.175
-482.391	800.000	-0.055	0.176
-481.376	-71.858	0.019	-0.007
-480.362	81.071	0.050	0.054
-479.347	699.526	0.032	0.083
-478.332	-200.000	0.055	-0.260
-477.318	-68.121	0.117	0.045
-476.303	-166.098	0.111	0.005
-475.289	-200.000	-0.278	0.001
-474.274	800.000	-0.052	0.143
-473.259	253.355	0.257	0.435
-472.245	-83.330	-0.327	0.104
-471.230	800.000	-0.021	0.061
-470.216	9.226	0.197	-0.147
-469.201	40.880	-0.179	-0.160
-468.186	-16.687	0.113	-0.071
-467.172	-42.900	0.215	-0.108
-466.157	-27.098	-0.077	0.045
-465.143	-126.893	-0.394	-0.058
-464.128	-40.395	-0.115	0.059
-463.113	-19.279	-0.126	0.077
-462.099	260.381	0.059	-0.101
-461.084	-172.992	-0.193	0.006
-460.070	-200.000	0.012	0.192
-459.055	-200.000	-0.071	0.420
-458.040	246.158	-0.199	-0.332
-457.026	-120.159	0.091	-0.015
-456.011	146.647	-0.177	-0.235
-454.997	-200.000	-0.034	0.291
-453.982	-40.099	-0.274	-0.142
-452.968	566.431	0.126	0.304
-451.953	-11.755	-0.224	-0.145
-450.938	-13.750	-0.283	0.181
-449.924	122.729	0.133	-0.165
-448.909	-138.432	0.058	0.006
-447.895	-200.000	0.014	-0.138
-446.880	-71.036	0.328	0.122
-445.865	-6.733	0.219	-0.148
-444.851	-200.000	0.037	-0.339
-443.836	-49.772	-0.082	-0.039
-442.822	40.435	-0.261	-0.233
-441.807	8.614	0.058	-0.044
-440.792	-46.077	-0.405	-0.198
-439.778	33.698	0.198	-0.170
-438.763	60.928	0.086	-0.084
-437.749	-200.000	0.019	-0.222
-436.734	-118.338	0.358	-0.063
-435.719	-46.782	-0.305	-0.148
-434.705	262.967	-0.092	0.159
-433.690	-102.550	0.249	0.059
-432.676	347.834	0.271	-0.529
-431.661	-139.739	0.328	-0.034
-430.646	800.000	-0.157	0.603
-429.632	175.936	-0.064	0.092
-428.617	-50.270	0.215	0.101
-427.603	128.644	0.385	-0.486
-426.588	87.604	0.278	-0.304
-425.573	262.169	0.040	-0.068
-424.559	-11.291	-0.235	0.153
-423.544	-160.751	-0.199	0.010
-422.530	-200.000	0.016	0.177
-421.515	519.350	0.075	0.173
-420.500	-200.000	0.000	-0.038
-419.486	536.080	0.133	-0.311
-418.471	-200.000	-0.037	-0.185
-417.457	-200.000	-0.009	0.133
-416.442	800.000	-0.035	-0.116
-415.428	-6.039	0.179	-0.121
-414.413	86.794	0.135	0.147
-413.398	643.322	-0.035	0.088
-412.384	59.476	0.229	0.223
-411.369	-94.675	0.078	0.021
-410.355	-67.611	0.300	-0.116
-409.340	-200.000	0.001	0.098
-408.325	12.157	0.121	-0.092
-407.311	105.168	-0.081	0.094
-406.296	491.232	-0.165	-0.374
-405.282	197.389	-0.190	0.287
-404.267	429.520	0.114	0.244
-403.252	30.933	-0.193	0.164
-402.238	-43.925	-0.196	0.098
-401.223	-39.376	-0.224	0.116
-400.209	20.232	0.226	0.181
-399.194	33.333	-0.227	0.195
-398.179	63.036	0.107	-0.106
-397.165	-46.134	-0.167	0.081
-396.150	-110.298	0.377	0.078
-395.136	-20.713	0.137	-0.083
-394.121	-99.336	-0.140	-0.035
-393.106	-200.000	-0.025	0.139
-392.092	-12.389	-0.121	0.078
-391.077	-48.633	-0.275	-0.131
-390.063	53.603	-0.195	-0.185
-389.048	-200.000	0.005	-0.107
-388.033	-186.494	0.367	0.005
-387.019	-12.160	0.149	0.096
-386.004	129.533	0.086	0.108
-384.990	-133.569	0.260	-0.032
-383.975	-200.000	0.025	-0.131
-382.960	-200.000	-0.035	0.160
-381.946	-74.646	0.029	-0.010
-380.931	117.391	0.239	-0.291
-379.917	-111.828	0.514	-0.103
-378.902	-200.000	0.006	-0.180
-377.888	-10.959	-0.132	-0.086
-376.873	175.506	0.343	0.491
-375.858	-200.000	-0.045	0.209
-374.844	0.645	0.091	0.064
-373.829	2.041	0.142	-0.101
-372.815	-200.000	0.020	-0.094
-371.800	-38.912	0.119	0.062
-370.785	-131.905	0.553	-0.071
-369.771	-69.739	-0.114	0.043
-368.756	336.504	-0.073	0.140
-367.742	-89.518	0.149	-0.043
-366.727	384.884	0.118	0.240
-365.712	-89.024	-0.308	-0.090
-364.698	-200.000	0.013	0.147
-363.683	-88.785	-0.259	-0.076
-362.669	-104.645	-0.158	-0.036
-361.654	26.414	0.444	0.367
-360.639	800.000	0.170	0.472
-359.625	-200.000	-0.023	0.116
-358.610	-200.000	-0.053	-0.235
-357.596	-61.747	0.135	-0.056
-356.581	-25.689	-0.227	0.132
-355.566	364.216	0.085	-0.169
-354.552	-40.276	-0.227	0.117
-353.537	154.802	-0.234	0.317
-352.523	186.174	-0.115	-0.169
-351.508	-200.000	-0.033	-0.223
-350.493	-200.000	-0.010	-0.215
-349.479	143.444	0.070	-0.092
-348.464	800.000	-0.018	-0.051
-347.450	-8.832	-0.129	-0.085
-346.435	31.216	-0.116	0.098
-345.420	-200.000	-0.010	-0.224
-344.406	555.729	-0.072	-0.172
-343.391	800.000	-0.075	0.290
-342.377	12.065	-0.081	0.062
-341.362	776.134	-0.072	-0.194
-340.348	-200.000	0.001	0.109
-339.333	86.243	0.231	0.251
-338.318	-97.693	0.244	-0.062
-337.304	3.325	0.139	0.100
-336.289	5.691	-0.271	-0.198
-335.275	-112.331	0.212	0.042
-334.260	-188.515	-0.199	0.002
-333.245	-49.700	0.395	-0.185
-332.231	800.000	-0.056	0.218
-331.216	-61.952	-0.439	0.181
-330.202	702.160	-0.018	-0.047
-329.187	-21.588	0.114	0.069
-328.172	93.034	-0.112	-0.124
-327.158	743.533	0.051	-0.135
-326.143	-143.108	0.264	0.025
-325.129	-182.852	-0.302	-0.005
-324.114	-54.399	0.187	0.084
-323.099	365.181	-0.036	-0.072
-322.085	212.001	0.190	0.295
-321.070	338.360	0.161	-0.309
-320.056	800.000	0.026	0.093
-319.041	-200.000	0.006	0.093
-318.026	-20.365	0.154	-0.094
-317.012	-77.017	0.320	-0.110
-315.997	-15.047	-0.295	0.186
-314.983	800.000	0.063	-0.210
-313.968	-156.127	0.037	-0.002
-312.953	-183.466	0.086	0.001
-311.939	-66.341	-0.311	0.122
-310.924	-13.166	-0.286	0.183
-309.910	-6.383	0.067	0.045
-308.895	100.116	0.209	0.239
-307.880	109.046	-0.062	-0.074
-306.866	800.000	-0.093	-0.293
-305.851	800.000	0.065	0.177
-304.837	-144.717	0.514	0.047
-303.822	505.755	-0.033	-0.075
-302.807	-41.052	-0.187	-0.095
-301.793	-98.030	0.091	0.023
-300.778	-57.033	0.198	0.086
-299.764	-200.000	-0.009	0.126
-298.749	-200.000	0.017	0.128
-297.735	-200.000	-0.007	0.229
-296.720	-104.676	-0.057	-0.013
-295.705	-60.181	-0.185	0.078
-294.691	-172.006	0.329	0.011
-293.676	-200.000	-0.028	0.185
-292.662	-87.854	0.214	0.063
-291.647	244.754	-0.148	-0.245
-290.632	-60.248	0.028	-0.012
-289.618	162.966	-0.089	-0.123
-288.603	172.819	0.239	-0.339
-287.589	8.010	0.180	-0.133
-286.574	108.554	0.181	0.212
-285.559	576.997	-0.062	0.149
-284.545	-112.766	-0.114	0.022
-283.530	-7.083	0.047	0.031
-282.516	-1.638	-0.440	0.305
-281.501	252.923	-0.107	0.180
-280.486	313.289	-0.069	-0.128
-279.472	79.002	0.041	0.043
-278.457	-126.146	0.051	0.008
-277.443	-200.000	0.007	0.277
-276.428	-200.000	-0.019	0.169
-275.413	136.079	0.153	0.197
-274.399	28.068	0.106	-0.088
-273.384	-200.000	-0.033	0.154
-272.370	16.701	0.022	-0.017
-271.355	-11.864	0.078	-0.050
-270.340	-22.158	-0.058	0.035
-269.326	69.429	-0.269	-0.273
-268.311	-200.000	-0.021	0.122
-267.297	800.000	-0.082	0.299
-266.282	-200.000	-0.004	-0.174
-265.267	260.281	-0.014	0.023
-264.253	-63.472	0.174	-0.070
-263.238	-31.270	-0.402	-0.223
-262.224	800.000	0.022	-0.083
-261.209	82.651	0.269	0.287
-260.195	5.388	-0.326	0.237
-259.180	51.717	0.313	0.292
-258.165	-112.976	-0.293	0.057
-257.151	-43.698	0.295	-0.146
-256.136	-43.549	-0.518	0.257
-255.122	13.303	-0.270	-0.206
-254.107	240.061	0.020	-0.033
-253.092	24.857	-0.049	0.040
-252.078	433.865	0.051	0.109
-251.063	93.070	0.052	-0.058
-250.049	91.429	0.163	0.180
-249.034	-200.000	-0.061	-0.271
-248.019	-200.000	-0.084	-0.459
-247.005	-143.692	-0.346	-0.032
-245.990	-59.959	-0.216	-0.091
-244.976	-45.897	-0.117	0.057
-243.961	-200.000	-0.006	0.064
-242.946	-55.212	-0.191	-0.084
-241.932	6.691	0.069	0.050
-240.917	506.478	-0.105	0.240
-239.903	-97.609	0.462	-0.118
-238.888	-87.707	0.103	0.031
-237.873	-3.646	0.068	0.046
-236.859	-48.350	-0.251	0.119
-235.844	434.265	-0.094	0.200
-234.830	179.697	-0.164	0.235
-233.815	211.863	-0.094	0.146
-232.800	-107.121	0.264	0.057
-231.786	40.051	0.128	-0.113
-230.771	422.593	0.104	0.219
-229.757	-2.760	0.220	-0.151
-228.742	800.000	0.066	0.258
-227.727	30.366	-0.105	-0.088
-226.713	-200.000	-0.094	-0.568
-225.698	346.913	0.078	-0.151
-224.684	-73.257	0.081	0.029
-223.669	173.791	0.056	0.079
-222.655	-200.000	0.040	0.219
-221.640	-200.000	-0.044	0.216
-220.625	59.997	-0.074	-0.072
-219.611	-200.000	-0.005	-0.135
-218.596	40.878	0.074	0.066
-217.582	-104.890	-0.106	-0.024
-216.567	-32.532	-0.217	0.119
-215.552	172.674	-0.086	0.122
-214.538	-200.000	0.051	0.283
-213.523	497.734	0.073	0.165
-212.509	-26.163	-0.078	-0.045
-211.494	89.661	-0.162	0.177
-210.479	-111.014	-0.152	0.031
-209.465	-200.000	0.048	0.267
-208.450	-169.242	0.133	0.005
-207.436	146.261	-0.036	0.047
-206.421	-144.060	-0.197	0.018
-205.406	-13.832	0.124	0.079
-204.392	-156.769	-0.070	-0.004
-203.377	19.828	-0.176	-0.139
-202.363	-200.000	0.013	-0.186
-201.348	-41.163	-0.086	-0.044
-200.333	-124.987	-0.125	0.019
-199.319	311.326	-0.069	-0.127
-198.304	69.483	0.205	-0.207
-197.290	-25.826	-0.540	0.312
-196.275	130.195	-0.138	0.174
-195.260	167.126	-0.133	-0.185
-194.246	154.313	-0.159	0.215
-193.231	117.402	0.251	-0.303
-192.217	101.223	0.301	-0.344
-191.202	48.469	-0.056	-0.051
-190.187	534.305	-0.048	0.112
-189.173	1.464	0.495	0.349
-188.158	800.000	0.084	-0.284
-187.144	171.988	-0.262	-0.369
-186.129	800.000	-0.083	0.260
-185.114	-152.178	-0.092	0.007
-184.100	-63.810	-0.196	-0.079
-183.085	-200.000	-0.003	0.127
-182.071	-68.608	0.048	0.018
-181.056	67.418	0.220	-0.220
-180.042	800.000	-0.050	0.211
-179.027	-30.551	0.316	0.176
-178.012	-10.617	-0.154	0.100
-176.998	170.655	0.125	-0.175
-175.983	-200.000	-0.004	-0.156
-174.969	-142.885	-0.095	-0.009
-173.954	328.067	-0.012	0.022
-172.939	-142.337	-0.179	0.017
-171.925	-73.706	-0.230	0.082
-170.910	288.224	-0.204	0.362
-169.896	-117.190	0.089	-0.016
-168.881	208.910	-0.066	0.102
-167.866	-132.196	0.130	0.017
-166.852	-9.807	0.257	0.168
-165.837	107.573	-0.188	-0.220
-164.823	329.476	0.072	0.136
-163.808	-107.304	-0.242	0.052
-162.793	438.015	0.067	-0.143
-161.779	446.066	0.169	-0.364
-160.764	2.955	0.278	-0.198
-159.750	-176.487	0.366	-0.009
-158.735	-144.563	0.210	-0.019
-157.720	-147.652	-0.214	0.018
-156.706	-171.003	0.120	0.004
-155.691	-95.569	-0.127	-0.033
-154.677	-200.000	0.008	0.089
-153.662	290.530	-0.053	0.094
-152.647	-138.999	-0.134	-0.014
-151.633	800.000	-0.065	-0.277
-150.618	800.000	0.032	0.095
-149.604	-136.596	0.273	0.031
-148.589	-61.425	-0.224	-0.092
-147.574	236.593	-0.125	-0.202
-146.560	-88.884	-0.236	0.069
-145.545	-200.000	0.058	0.284
-144.531	483.566	0.046	-0.103
-143.516	93.268	-0.044	0.049
-142.502	643.249	-0.169	0.421
-141.487	137.318	0.173	-0.222
-140.472	-24.476	-0.139	-0.081
-139.458	61.214	0.134	0.131
-138.443	-200.000	-0.027	-0.393
-137.429	-200.000	0.050	0.241
-136.414	-73.615	0.079	-0.028
-135.399	-143.504	0.408	-0.038
-134.385	-64.330	-0.304	0.121
-133.370	-104.142	-0.118	0.027
-132.356	21.488	0.037	0.029
-131.341	800.000	0.074	-0.206
-130.326	-11.393	0.278	0.179
-129.312	-200.000	-0.009	0.222
-128.297	210.745	0.109	0.168
-127.283	-200.000	-0.007	-0.122
-126.268	-134.099	0.049	0.006
-125.253	-99.780	-0.070	0.017
-124.239	-144.015	0.370	0.034
-123.224	-200.000	-0.005	0.077
-122.210	-58.453	0.011	-0.005
-121.195	217.523	0.097	-0.152
-120.180	-120.177	-0.265	-0.044
