DTS Sentinel unit serial number:	SN413079Multiplexer serial number:	ORYXHardware model number:	OX4-SRSoftware version number:	ORYX F/W v4.00 Oryx Data Collector v3.7.2.0data status	okinstallation	princeton_trtdifferential loss correction	single-endedforward channel	channel 1reverse channel	N/Adate	2019/09/18time	08:14:35forward acquisition time	60.00reverse acquisition time	0.00gamma	496.2192k internal	0.2337k external	0.2337temperature offset calibration	0.9978default loss term (dB/km)	0.3790temperature slope calibration	1.0000multiplexer offset coefficient	1.0000multiplexer slope coefficient	1.0000fibre end	0.00T internal ref (°C)	23.92T ext. ref 1 (°C)	0.21T ext. ref 2 (°C)	19.62length (m)	temperature (°C)	Stokes	anti-Stokes-747.200	800.000	-0.032	0.100
-746.185	-36.722	-0.118	0.063
-745.171	29.305	-0.429	0.366
-744.156	-73.543	-0.300	0.110
-743.142	-135.599	0.201	-0.024
-742.127	97.695	-0.161	0.185
-741.112	75.124	0.162	0.171
-740.098	93.595	-0.139	0.157
-739.083	-115.268	-0.028	0.005
-738.069	696.657	0.125	-0.329
-737.054	88.455	0.159	0.177
-736.039	-159.364	-0.314	0.018
-735.025	154.513	0.149	0.205
-734.010	135.876	-0.090	-0.118
-732.996	32.386	-0.200	-0.173
-731.981	118.098	-0.083	0.103
-730.966	-66.124	0.289	0.116
-729.952	-45.969	-0.358	0.177
-728.937	1.515	0.064	-0.046
-727.923	-124.823	-0.563	0.087
-726.908	-49.368	-0.054	0.026
-725.894	40.402	-0.250	-0.226
-724.879	173.094	0.035	0.051
-723.864	-200.000	0.009	-0.468
-722.850	147.313	0.233	-0.314
-721.835	622.602	0.116	-0.292
-720.821	-200.000	-0.019	-0.268
-719.806	29.037	0.108	-0.092
-718.791	78.023	0.205	0.219
-717.777	-25.445	-0.156	-0.093
-716.762	800.000	0.064	-0.199
-715.748	501.383	-0.113	0.261
-714.733	-4.178	-0.387	0.269
-713.718	-6.096	0.115	0.079
-712.704	21.189	-0.185	-0.150
-711.689	-69.711	-0.377	-0.145
-710.675	-200.000	-0.005	-0.277
-709.660	-200.000	-0.002	-0.075
-708.645	-162.393	-0.083	-0.004
-707.631	-24.951	-0.087	0.052
-706.616	223.676	0.215	0.348
-705.602	-200.000	-0.010	-0.161
-704.587	172.430	-0.034	0.049
-703.572	-79.271	-0.111	-0.038
-702.558	800.000	-0.054	-0.152
-701.543	48.941	-0.209	-0.197
-700.529	-108.324	0.315	0.068
-699.514	-80.575	-0.230	-0.077
-698.499	800.000	-0.067	-0.252
-697.485	440.276	0.165	0.362
-696.470	-96.255	0.313	0.083
-695.456	-77.784	0.084	-0.029
-694.441	291.884	0.120	0.219
-693.426	483.519	0.109	0.248
-692.412	-200.000	0.029	0.193
-691.397	-200.000	-0.003	-0.090
-690.383	62.573	0.140	0.141
-689.368	39.956	-0.126	-0.114
-688.354	-200.000	0.003	0.185
-687.339	-200.000	-0.045	-0.382
-686.324	-200.000	0.016	0.122
-685.310	-18.636	-0.056	0.035
-684.295	5.435	-0.040	-0.030
-683.281	-200.000	-0.054	0.339
-682.266	340.835	-0.131	-0.256
-681.251	21.936	-0.192	-0.157
-680.237	-98.220	-0.207	-0.053
-679.222	-145.545	0.293	-0.026
-678.208	-73.321	-0.201	0.074
-677.193	128.754	-0.115	-0.147
-676.178	68.985	-0.087	-0.090
-675.164	800.000	-0.097	0.318
-674.149	91.347	-0.159	0.179
-673.135	-111.974	-0.281	-0.057
-672.120	25.604	-0.336	0.280
-671.105	353.258	0.192	0.382
-670.091	523.654	0.107	-0.252
-669.076	-60.662	0.018	0.008
-668.062	-45.312	-0.194	-0.097
-667.047	361.864	-0.050	-0.101
-666.032	91.360	-0.100	-0.113
-665.018	-131.558	0.179	0.024
-664.003	-200.000	0.036	0.206
-662.989	-200.000	-0.017	-0.204
-661.974	445.351	-0.111	0.243
-660.959	-200.000	-0.011	0.060
-659.945	-200.000	0.010	-0.149
-658.930	421.582	-0.151	0.325
-657.916	525.861	0.072	0.170
-656.901	261.345	-0.156	-0.270
-655.886	129.628	0.069	-0.088
-654.872	-78.909	0.255	-0.087
-653.857	14.316	-0.155	-0.121
-652.843	-39.789	-0.236	0.123
-651.828	-153.191	0.207	-0.015
-650.814	777.262	-0.132	0.360
-649.799	178.987	-0.125	0.183
-648.784	-200.000	-0.005	-0.031
-647.770	-65.677	-0.116	0.046
-646.755	607.162	0.111	-0.276
-645.741	290.093	-0.271	-0.492
-644.726	-69.465	-0.314	-0.120
-643.711	-65.399	-0.191	0.077
-642.697	-52.500	0.049	0.023
-641.682	-126.300	-0.302	0.045
-640.668	800.000	-0.067	-0.193
-639.653	-107.195	-0.384	-0.084
-638.638	-200.000	-0.029	0.290
-637.624	593.670	0.085	0.211
-636.609	-200.000	0.014	-0.312
-635.595	-96.329	-0.415	0.110
-634.580	-110.500	0.259	-0.054
-633.565	-39.866	-0.346	0.181
-632.551	763.003	0.042	0.113
-631.536	-80.954	-0.219	0.072
-630.522	36.459	-0.174	-0.153
-629.507	98.098	0.291	-0.335
-628.492	18.378	-0.143	-0.114
-627.478	-200.000	0.059	0.373
-626.463	411.429	-0.065	0.138
-625.449	22.024	-0.167	-0.136
-624.434	-111.822	0.263	-0.053
-623.419	800.000	0.100	-0.276
-622.405	-200.000	0.019	0.147
-621.390	-200.000	-0.030	0.271
-620.376	-200.000	-0.003	0.134
-619.361	-132.281	0.355	-0.046
-618.346	-200.000	0.006	0.240
-617.332	-110.049	0.137	0.029
-616.317	31.502	0.139	0.119
-615.303	-10.919	0.340	-0.224
-614.288	20.156	-0.169	0.136
-613.273	60.403	-0.093	-0.092
-612.259	439.627	-0.112	-0.244
-611.244	225.415	0.087	-0.140
-610.230	-91.225	-0.043	-0.012
-609.215	-80.261	0.041	0.014
-608.201	491.393	0.107	0.245
-607.186	82.944	-0.226	-0.246
-606.171	-200.000	0.001	-0.222
-605.157	67.126	0.114	-0.116
-604.142	-94.814	0.081	-0.022
-603.128	-15.650	-0.258	0.164
-602.113	224.192	-0.137	0.220
-601.098	268.422	0.151	0.264
-600.084	800.000	0.145	-0.463
-599.069	288.401	0.093	-0.168
-598.055	800.000	0.069	-0.196
-597.040	30.069	0.383	0.326
-596.025	800.000	-0.025	0.101
-595.011	-200.000	-0.030	-0.136
-593.996	473.320	-0.171	-0.384
-592.982	-200.000	-0.003	0.298
-591.967	221.694	0.096	0.154
-590.952	-200.000	0.012	0.425
-589.938	63.816	-0.081	0.082
-588.923	95.715	0.209	-0.238
-587.909	-69.760	-0.243	-0.092
-586.894	18.170	0.143	0.114
-585.879	28.144	-0.203	0.171
-584.865	-40.927	0.076	0.039
-583.850	-154.495	0.456	0.030
-582.836	96.269	-0.286	0.326
-581.821	21.615	-0.288	-0.233
-580.806	-152.526	-0.204	0.015
-579.792	800.000	0.154	0.467
-578.777	62.500	0.165	0.164
-577.763	-103.281	0.187	0.044
-576.748	-90.146	0.272	-0.079
-575.733	-200.000	0.003	0.104
-574.719	1.948	0.340	0.245
-573.704	205.088	0.198	0.307
-572.690	-82.158	-0.261	0.085
-571.675	671.651	0.127	0.329
-570.661	-94.891	-0.269	0.073
-569.646	-182.454	-0.228	-0.004
-568.631	105.652	-0.182	-0.214
-567.617	800.000	-0.024	0.082
-566.602	-200.000	0.023	-0.111
-565.588	117.827	-0.230	-0.283
-564.573	16.607	0.185	-0.146
-563.558	-200.000	0.010	-0.236
-562.544	624.678	-0.056	-0.142
-561.529	203.869	0.095	0.147
-560.515	-107.173	0.190	0.042
-559.500	-159.069	-0.321	0.018
-558.485	-200.000	-0.004	-0.165
-557.471	249.939	-0.125	-0.212
-556.456	-48.024	0.133	-0.064
-555.442	36.455	0.217	-0.191
-554.427	227.199	-0.119	-0.193
-553.412	598.818	-0.079	-0.194
-552.398	24.015	0.199	-0.164
-551.383	-169.744	-0.086	0.003
-550.369	0.399	0.175	-0.125
-549.354	17.065	0.103	0.081
-548.339	-200.000	0.044	-0.257
-547.325	-200.000	-0.067	-0.381
-546.310	-128.844	0.272	-0.038
-545.296	-108.731	-0.276	-0.059
-544.281	112.810	-0.061	0.074
-543.266	23.450	-0.206	-0.169
-542.252	-2.155	0.375	-0.262
-541.237	764.858	-0.180	-0.487
-540.223	332.282	-0.092	-0.178
-539.208	-127.839	0.372	0.053
-538.193	-200.000	0.018	-0.198
-537.179	-56.042	-0.120	-0.053
-536.164	-200.000	0.069	-0.336
-535.150	67.716	-0.160	-0.162
-534.135	-121.507	-0.172	0.028
-533.121	176.021	-0.084	-0.121
-532.106	800.000	-0.075	-0.223
-531.091	-25.803	0.056	-0.033
-530.077	-90.955	-0.258	-0.074
-529.062	-200.000	0.019	0.206
-528.048	86.647	-0.168	0.185
-527.033	224.372	0.015	-0.025
-526.018	-200.000	-0.038	0.201
-525.004	326.963	0.152	0.290
-523.989	-188.760	0.259	0.003
-522.975	-200.000	-0.063	-0.275
-521.960	163.343	-0.214	-0.299
-520.945	483.477	-0.112	-0.254
-519.931	-33.981	0.193	-0.105
-518.916	156.931	0.127	0.174
-517.902	-19.754	-0.371	-0.228
-516.887	443.639	0.107	0.234
-515.872	48.903	0.121	0.113
-514.858	-73.369	-0.195	-0.071
-513.843	-32.121	0.142	0.079
-512.829	-69.590	-0.314	-0.120
-511.814	-131.514	0.114	0.015
-510.799	-73.623	0.066	-0.024
-509.785	76.826	-0.085	-0.090
-508.770	-123.057	-0.059	0.009
-507.756	-200.000	0.051	0.356
-506.741	298.953	0.117	-0.214
-505.726	225.589	-0.167	0.270
-504.712	508.369	-0.105	-0.243
-503.697	47.877	0.338	0.314
-502.683	49.951	0.244	-0.229
-501.668	-88.105	-0.344	-0.103
-500.653	-200.000	-0.006	-0.045
-499.639	-25.658	0.238	0.139
-498.624	800.000	-0.093	-0.256
-497.610	-200.000	-0.022	0.153
-496.595	608.682	-0.066	-0.163
-495.581	-200.000	0.070	0.381
-494.566	223.196	-0.196	0.314
-493.551	-200.000	-0.004	0.082
-492.537	800.000	-0.057	0.157
-491.522	306.535	-0.090	-0.167
-490.508	-181.956	-0.009	-0.000
-489.493	167.436	0.165	0.233
-488.478	-80.351	-0.185	-0.062
-487.464	240.845	-0.092	-0.152
-486.449	-16.198	-0.017	0.011
-485.435	-200.000	-0.026	-0.264
-484.420	30.131	-0.201	-0.171
-483.405	79.795	-0.371	0.396
-482.391	418.489	0.083	-0.177
-481.376	-135.159	-0.264	0.032
-480.362	133.031	-0.163	0.209
-479.347	-117.273	0.260	0.047
-478.332	-105.587	0.270	0.061
-477.318	612.790	0.109	-0.270
-476.303	-182.632	0.253	0.005
-475.289	141.375	0.010	0.013
-474.274	113.002	0.128	-0.155
-473.259	-19.054	-0.125	0.077
-472.245	-4.070	-0.144	-0.099
-471.230	3.669	0.271	0.197
-470.216	418.812	0.141	-0.299
-469.201	-92.586	-0.338	-0.094
-468.186	-200.000	0.029	0.446
-467.172	-200.000	-0.024	0.172
-466.157	23.215	0.151	0.123
-465.143	674.425	0.106	-0.272
-464.128	800.000	0.074	0.254
-463.113	-25.988	0.277	0.162
-462.099	6.934	-0.095	-0.071
-461.084	201.362	0.075	-0.115
-460.070	437.557	-0.013	0.028
-459.055	-200.000	-0.003	-0.195
-458.040	-63.513	-0.411	0.168
-457.026	38.309	0.284	-0.251
-456.011	108.246	-0.180	-0.213
-454.997	384.949	0.044	-0.089
-453.982	40.815	-0.141	0.127
-452.968	-110.121	-0.161	0.033
-451.953	-41.201	0.252	-0.129
-450.938	-42.902	0.252	-0.127
-449.924	90.817	-0.166	-0.185
-448.909	3.715	0.274	0.199
-447.895	-149.762	0.122	-0.010
-446.880	800.000	0.048	-0.145
-445.865	-37.992	0.187	0.098
-444.851	-200.000	0.015	0.093
-443.836	-140.350	0.223	-0.023
-442.822	-20.992	0.232	0.141
-441.807	18.662	-0.154	-0.122
-440.792	-21.382	-0.092	0.056
-439.778	-41.545	0.115	-0.059
-438.763	196.312	0.093	0.141
-437.749	25.103	-0.189	-0.156
-436.734	-15.275	0.030	0.019
-435.719	-65.591	0.222	-0.088
-434.705	800.000	-0.031	-0.106
-433.690	-127.852	0.114	0.016
-432.676	-64.688	0.214	-0.086
-431.661	467.542	-0.021	0.046
-430.646	-81.723	-0.050	0.016
-429.632	-167.809	0.217	-0.008
-428.617	780.534	-0.012	-0.032
-427.603	-157.707	-0.078	-0.005
-426.588	27.132	0.310	0.258
-425.573	207.071	-0.016	0.024
-424.559	10.340	-0.092	-0.069
-423.544	-148.107	-0.456	0.037
-422.530	-200.000	-0.046	-0.269
-421.515	70.543	0.097	-0.100
-420.500	668.869	0.128	0.329
-419.486	34.799	-0.083	-0.072
-418.471	-64.638	-0.049	0.020
-417.457	-200.000	-0.020	0.111
-416.442	575.158	0.038	0.092
-415.428	92.298	0.229	-0.256
-414.413	-71.650	0.286	0.106
-413.398	-80.766	0.111	-0.036
-412.384	-44.746	0.346	-0.171
-411.369	-43.247	-0.254	0.127
-410.355	-27.727	0.197	-0.113
-409.340	800.000	0.047	0.144
-408.325	-104.433	-0.315	-0.072
-407.311	-27.890	0.211	0.121
-406.296	-156.556	-0.189	0.012
-405.282	-126.256	-0.085	-0.013
-404.267	-24.195	0.249	-0.147
-403.252	-200.000	-0.001	0.198
-402.238	265.361	-0.129	0.223
-401.223	-67.363	-0.341	0.133
-400.209	163.166	-0.114	-0.159
-399.194	-200.000	0.003	0.080
-398.179	-200.000	0.022	0.234
-397.165	-140.663	0.137	0.014
-396.150	800.000	-0.070	0.291
-395.136	3.499	0.172	-0.124
-394.121	-200.000	-0.035	-0.358
-393.106	-69.289	-0.191	-0.073
-392.092	-200.000	-0.076	-0.477
-391.077	42.948	0.128	0.116
-390.063	574.901	0.052	0.125
-389.048	-159.164	0.258	0.014
-388.033	-118.018	0.263	-0.047
-387.019	-127.995	-0.197	-0.028
-386.004	-200.000	-0.021	0.118
-384.990	-131.467	-0.200	-0.026
-383.975	-113.919	0.374	0.072
-382.960	534.144	-0.090	-0.211
-381.946	-8.411	0.298	-0.198
-380.931	-200.000	0.053	0.404
-379.917	28.322	-0.232	0.194
-378.902	-58.456	-0.167	-0.072
-377.888	186.498	-0.236	-0.348
-376.873	-120.796	0.214	-0.036
-375.858	-200.000	0.006	0.032
-374.844	-89.479	0.271	0.079
-373.829	-200.000	-0.031	-0.166
-372.815	-78.856	-0.209	-0.071
-371.800	439.781	0.041	-0.089
-370.785	-200.000	0.015	-0.066
-369.771	-50.453	-0.210	0.098
-368.756	5.097	0.185	0.135
-367.742	-114.091	-0.198	-0.038
-366.727	29.072	0.289	0.243
-365.712	360.382	0.121	0.240
-364.698	-98.448	-0.231	-0.059
-363.683	-200.000	0.029	0.332
-362.669	-200.000	0.040	0.321
-361.654	-81.226	0.054	0.018
-360.639	138.873	-0.068	-0.089
-359.625	-200.000	0.000	0.023
-358.610	-200.000	-0.021	-0.427
-357.596	800.000	-0.088	-0.320
-356.581	-10.298	0.111	0.073
-355.566	800.000	-0.022	0.082
-354.552	-200.000	-0.027	-0.152
-353.537	78.830	0.279	-0.295
-352.523	800.000	-0.093	0.272
-351.508	50.122	-0.195	0.182
-350.493	-66.725	-0.127	0.050
-349.479	530.562	0.098	-0.230
-348.464	214.700	-0.096	-0.150
-347.450	126.754	-0.058	-0.072
-346.435	-200.000	0.047	-0.394
-345.420	800.000	0.055	0.158
-344.406	-54.617	0.295	0.132
-343.391	109.355	-0.135	-0.160
-342.377	202.485	0.077	0.118
-341.362	-72.818	-0.330	-0.120
-340.348	-68.470	-0.064	-0.024
-339.333	-68.626	0.382	-0.146
-338.318	-127.622	-0.189	-0.027
-337.304	10.858	0.140	-0.106
-336.289	-200.000	0.047	0.297
-335.275	800.000	0.065	-0.257
-334.260	-30.697	0.116	-0.065
-333.245	-36.449	-0.057	0.030
-332.231	-200.000	0.052	0.348
-331.216	38.273	0.188	-0.165
-330.202	287.862	0.019	-0.034
-329.187	-38.699	-0.267	0.139
-328.172	153.144	0.126	0.170
-327.158	-82.966	-0.184	0.059
-326.143	-86.432	-0.337	-0.102
-325.129	40.803	0.163	0.145
-324.114	-200.000	-0.078	0.353
-323.099	454.734	-0.122	0.267
-322.085	209.005	0.154	0.239
-321.070	-89.094	-0.122	0.036
-320.056	145.989	-0.097	-0.128
-319.041	-161.846	0.151	-0.008
-318.026	-109.660	0.139	-0.029
-317.012	800.000	0.016	0.050
-315.997	800.000	0.041	-0.131
-314.983	53.219	-0.044	-0.042
-313.968	-164.340	0.595	-0.027
-312.953	800.000	0.069	-0.248
-311.939	-200.000	-0.005	-0.046
-310.924	29.371	0.257	0.215
-309.910	-106.678	-0.350	-0.077
-308.895	223.503	0.212	0.337
-307.880	-31.349	-0.090	0.050
-306.866	531.542	-0.103	0.240
-305.851	-56.339	0.109	0.048
-304.837	-177.328	0.111	0.003
-303.822	-200.000	0.016	0.133
-302.807	-200.000	-0.037	-0.159
-301.793	-81.181	-0.263	0.086
-300.778	-144.969	-0.165	0.015
-299.764	313.542	-0.129	-0.239
-298.749	-47.044	0.123	0.059
-297.735	377.774	-0.098	0.198
-296.720	84.924	-0.238	-0.257
-295.705	3.204	-0.302	-0.217
-294.691	-13.543	-0.402	-0.257
-293.676	-137.745	-0.043	0.005
-292.662	38.650	-0.180	-0.158
-291.647	800.000	-0.080	0.221
-290.632	-113.673	0.185	0.036
-289.618	-159.497	-0.170	0.009
-288.603	-104.821	-0.378	0.086
-287.589	800.000	0.081	0.301
-286.574	505.600	0.130	0.298
-285.559	346.604	0.164	-0.318
-284.545	324.156	-0.071	-0.133
-283.530	-150.432	-0.565	-0.043
-282.516	144.544	-0.140	-0.184
-281.501	-200.000	-0.046	-0.245
-280.486	179.209	0.081	-0.117
-279.472	-52.901	0.225	-0.102
-278.457	-200.000	-0.002	0.162
-277.443	67.341	-0.116	0.117
-276.428	-200.000	0.000	0.010
-275.413	67.732	0.172	-0.173
-274.399	143.297	-0.030	0.039
-273.384	-107.913	-0.130	-0.028
-272.370	-135.049	-0.266	-0.032
-271.355	-15.169	0.303	-0.191
-270.340	210.988	-0.173	0.267
-269.326	22.970	-0.028	-0.023
-268.311	201.199	-0.087	0.132
-267.297	26.379	-0.128	0.105
-266.282	60.079	0.246	-0.240
-265.267	-200.000	-0.014	-0.126
-264.253	356.989	-0.090	0.176
-263.238	19.945	0.034	-0.027
-262.224	297.870	0.128	0.231
-261.209	27.411	-0.066	0.055
-260.195	-200.000	0.023	0.322
-259.180	-135.443	0.227	-0.027
-258.165	469.367	-0.017	-0.037
-257.151	-61.786	0.255	0.105
-256.136	800.000	0.066	0.246
-255.122	155.992	0.202	-0.274
-254.107	18.164	0.115	-0.091
-253.092	-200.000	0.045	-0.289
-252.078	-200.000	-0.052	0.288
-251.063	542.607	-0.093	-0.218
-250.049	613.206	-0.144	-0.355
-249.034	800.000	0.057	0.196
-248.019	18.068	0.166	-0.130
-247.005	796.070	-0.037	0.100
-245.990	-93.199	0.249	0.068
-244.976	-200.000	0.035	-0.281
-243.961	413.755	0.004	-0.008
-242.946	66.589	-0.063	0.063
-241.932	81.501	-0.096	-0.103
-240.917	-200.000	0.059	-0.268
-239.903	-42.886	-0.234	-0.117
-238.888	-143.436	0.134	0.013
-237.873	137.674	0.089	0.114
-236.859	74.115	0.137	-0.141
-235.844	47.254	-0.271	0.249
-234.830	19.145	0.342	0.270
-233.815	-114.402	0.291	0.055
-232.800	232.643	0.042	-0.068
-231.786	12.303	-0.131	-0.100
-230.771	173.447	-0.143	0.203
-229.757	800.000	-0.081	-0.262
-228.742	-200.000	-0.020	0.403
-227.727	617.110	-0.096	0.236
-226.713	193.734	-0.099	0.148
-225.698	-135.872	-0.087	0.010
-224.684	11.165	-0.070	-0.053
-223.669	-147.187	0.107	0.009
-222.655	-167.684	-0.176	-0.007
-221.640	17.961	-0.312	0.244
-220.625	800.000	-0.081	-0.224
-219.611	714.356	-0.050	0.132
-218.596	-154.078	-0.482	0.032
-217.582	-139.917	-0.453	-0.047
-216.567	-27.056	0.412	0.236
-215.552	-139.472	-0.324	0.034
-214.538	-153.296	0.357	0.024
-213.523	222.675	0.038	-0.061
-212.509	-133.406	0.179	-0.022
-211.494	64.502	0.350	-0.347
-210.479	-16.410	0.376	0.234
-209.465	5.140	-0.162	-0.117
-208.450	235.554	0.208	0.338
-207.436	-200.000	-0.073	0.374
-206.421	-26.107	0.245	0.142
-205.406	800.000	0.037	-0.155
-204.392	788.624	0.066	0.178
-203.377	50.981	-0.086	0.080
-202.363	-111.909	-0.346	-0.069
-201.348	284.588	-0.232	0.410
-200.333	800.000	0.008	-0.029
-199.319	18.956	0.237	-0.186
-198.304	15.519	-0.230	0.178
-197.290	-157.967	-0.179	-0.010
-196.275	-3.938	0.265	0.181
-195.260	198.439	-0.176	0.265
-194.246	-62.564	0.218	-0.089
-193.231	800.000	0.047	-0.147
-192.217	800.000	-0.133	-0.401
-191.202	-200.000	-0.041	0.180
-190.187	275.930	-0.037	-0.065
-189.173	800.000	-0.048	-0.187
-188.158	37.328	0.172	0.150
-187.144	145.733	0.046	0.061
-186.129	800.000	-0.071	0.222
-185.114	276.866	-0.076	0.133
-184.100	62.494	0.402	0.395
-183.085	-39.081	0.275	0.142
-182.071	167.032	0.163	-0.227
-181.056	-118.301	-0.280	-0.049
-180.042	327.217	0.029	-0.055
-179.027	-147.751	-0.289	0.024
-178.012	337.302	-0.138	0.263
-176.998	-12.656	0.288	-0.184
-175.983	-37.321	-0.073	-0.038
-174.969	-71.671	0.109	-0.040
-173.954	127.509	0.093	0.116
-172.939	28.026	0.056	-0.047
-171.925	-54.031	-0.165	-0.074
-170.910	-200.000	0.005	-0.152
-169.896	-95.034	-0.241	0.064
-168.881	204.500	0.041	-0.063
-167.866	-25.641	0.103	0.060
-166.852	243.332	0.159	-0.262
-165.837	149.656	0.234	0.312
-164.823	539.063	-0.116	0.271
-163.808	-88.069	-0.084	-0.025
-162.793	-48.906	0.305	-0.143
-161.779	243.341	0.110	0.182
-160.764	-65.082	-0.155	-0.061
-159.750	-7.405	-0.180	-0.120
-158.735	800.000	0.064	-0.181
-157.720	241.296	0.114	-0.187
-156.706	-54.545	-0.088	0.039
-155.691	-200.000	0.066	0.398
-154.677	-93.446	0.236	0.064
-153.662	-37.760	-0.125	0.065
-152.647	57.670	-0.031	0.030
-151.633	-80.942	-0.210	-0.068
-150.618	-37.246	0.138	-0.072
-149.604	53.886	0.165	0.156
-148.589	-68.234	0.266	-0.102
-147.574	-40.521	0.283	-0.144
-146.560	-31.387	0.059	0.033
-145.545	-200.000	0.044	0.306
-144.531	315.972	0.069	0.127
-143.516	54.780	0.186	-0.176
-142.502	651.191	0.095	-0.239
-141.487	716.695	0.049	-0.128
-140.472	-101.807	-0.217	0.051
-139.458	-124.045	-0.190	0.029
-138.443	-200.000	0.008	0.156
-137.429	-165.538	-0.338	-0.014
-136.414	171.444	0.248	0.349
-135.399	-63.519	-0.103	-0.041
-134.385	800.000	0.061	-0.178
-133.370	-89.250	-0.290	-0.084
-132.356	20.369	-0.167	-0.132
-131.341	-94.312	0.202	-0.054
-130.326	-54.926	0.081	0.036
-129.312	149.330	-0.156	-0.207
-128.297	-200.000	-0.037	0.186
-127.283	-57.985	-0.162	-0.069
-126.268	376.113	0.128	-0.256
-125.253	20.956	0.257	0.204
-124.239	-62.424	-0.259	0.106
-123.224	84.691	-0.076	0.082
-122.210	-167.287	-0.053	0.002
-121.195	-200.000	0.000	0.045
