DTS Sentinel unit serial number:	SN413079Multiplexer serial number:	ORYXHardware model number:	OX4-SRSoftware version number:	ORYX F/W v4.00 Oryx Data Collector v3.7.2.0data status	okinstallation	princeton_trtdifferential loss correction	single-endedforward channel	channel 1reverse channel	N/Adate	2019/09/10time	23:20:11forward acquisition time	60.00reverse acquisition time	0.00gamma	496.2192k internal	0.2331k external	0.2331temperature offset calibration	0.9938default loss term (dB/km)	0.3790temperature slope calibration	1.0000multiplexer offset coefficient	1.0000multiplexer slope coefficient	1.0000fibre end	0.00T internal ref (°C)	29.81T ext. ref 1 (°C)	-0.31T ext. ref 2 (°C)	23.36length (m)	temperature (°C)	Stokes	anti-Stokes-747.200	-53.397	0.300	-0.138
-746.185	170.935	0.149	-0.215
-745.171	-5.146	-0.156	0.108
-744.156	252.057	0.080	0.137
-743.142	-56.492	0.328	0.147
-742.127	-123.312	0.133	-0.021
-741.112	9.907	-0.315	-0.241
-740.098	152.960	0.099	-0.137
-739.083	-60.848	-0.134	-0.057
-738.069	-131.194	0.155	0.021
-737.054	-200.000	-0.018	0.222
-736.039	-200.000	-0.022	-0.236
-735.025	800.000	-0.101	0.333
-734.010	-159.982	-0.420	-0.023
-732.996	-12.476	0.059	-0.039
-731.981	-52.340	-0.267	-0.125
-730.966	-123.737	-0.066	-0.011
-729.952	-200.000	-0.009	-0.471
-728.937	29.871	-0.179	0.153
-727.923	-133.762	0.216	0.027
-726.908	800.000	0.098	-0.291
-725.894	-20.054	-0.281	-0.175
-724.879	-73.530	-0.172	-0.063
-723.864	305.884	-0.095	-0.178
-722.850	171.358	-0.160	-0.231
-721.835	512.717	-0.158	0.371
-720.821	603.563	0.066	0.165
-719.806	221.744	-0.112	-0.181
-718.791	40.727	0.111	-0.100
-717.777	-200.000	0.004	-0.196
-716.762	-144.593	-0.399	0.037
-715.748	322.675	0.160	-0.306
-714.733	-200.000	-0.055	-0.253
-713.718	-147.830	0.174	0.015
-712.704	104.913	-0.204	-0.242
-711.689	-89.093	0.214	-0.063
-710.675	142.662	-0.039	0.052
-709.660	-134.568	-0.301	0.037
-708.645	-81.759	-0.036	0.012
-707.631	727.999	-0.024	0.064
-706.616	-200.000	0.068	-0.496
-705.602	800.000	0.124	-0.366
-704.587	-162.670	-0.237	-0.012
-703.572	304.142	0.025	-0.047
-702.558	148.019	-0.101	0.136
-701.543	-200.000	-0.009	0.292
-700.529	-146.717	-0.170	-0.015
-699.514	125.402	0.059	0.074
-698.499	-200.000	0.001	-0.122
-697.485	-92.201	-0.326	0.092
-696.470	46.770	0.119	-0.111
-695.456	-200.000	-0.004	0.295
-694.441	49.066	-0.102	-0.096
-693.426	-45.986	0.126	0.062
-692.412	-139.969	-0.220	-0.023
-691.397	71.242	-0.162	-0.169
-690.383	800.000	0.078	0.261
-689.368	442.221	-0.075	0.164
-688.354	129.190	0.115	0.148
-687.339	404.509	0.050	-0.106
-686.324	-46.049	-0.087	-0.043
-685.310	-124.686	0.320	-0.050
-684.295	800.000	0.129	-0.379
-683.281	-200.000	0.030	-0.170
-682.266	-200.000	0.003	-0.279
-681.251	-51.295	-0.137	0.064
-680.237	-30.786	-0.349	-0.198
-679.222	-45.372	0.053	-0.026
-678.208	-14.743	0.135	0.087
-677.193	-172.566	-0.100	-0.003
-676.178	-170.710	-0.179	-0.006
-675.164	-64.669	-0.245	-0.100
-674.149	-8.572	0.184	-0.124
-673.135	-60.242	-0.126	0.054
-672.120	192.428	0.082	-0.125
-671.105	-141.557	-0.029	0.003
-670.091	55.731	0.109	0.106
-669.076	129.781	-0.189	0.242
-668.062	509.209	0.023	-0.053
-667.047	-200.000	0.059	0.270
-666.032	262.165	-0.189	0.329
-665.018	-171.601	-0.212	-0.007
-664.003	-144.550	0.088	-0.008
-662.989	-64.085	-0.164	-0.067
-661.974	-200.000	0.049	0.220
-660.959	-170.544	-0.233	0.008
-659.945	53.415	-0.224	-0.216
-658.930	-169.519	0.448	-0.016
-657.916	203.323	-0.119	-0.184
-656.901	-127.793	0.179	0.026
-655.886	-106.869	0.125	0.028
-654.872	-135.430	0.200	-0.024
-653.857	126.746	-0.117	-0.148
-652.843	-38.869	-0.192	0.101
-651.828	121.398	0.234	0.293
-650.814	-33.130	-0.269	0.150
-649.799	-200.000	-0.013	0.262
-648.784	121.232	-0.124	-0.155
-647.770	-79.497	0.480	-0.163
-646.755	-9.236	0.177	0.119
-645.741	-33.819	0.174	0.096
-644.726	-200.000	0.040	0.181
-643.711	-200.000	-0.028	-0.311
-642.697	-197.850	-0.163	0.001
-641.682	800.000	-0.068	0.264
-640.668	328.380	-0.034	-0.065
-639.653	49.095	-0.061	-0.057
-638.638	89.781	-0.228	-0.255
-637.624	38.393	-0.114	-0.101
-636.609	-182.144	0.185	-0.003
-635.595	800.000	0.059	-0.173
-634.580	7.300	0.162	-0.121
-633.565	-126.494	-0.246	-0.037
-632.551	800.000	-0.108	0.411
-631.536	160.310	-0.177	0.248
-630.522	482.100	0.089	-0.202
-629.507	-35.000	0.079	-0.043
-628.492	800.000	0.065	-0.236
-627.478	473.113	-0.064	-0.144
-626.463	-100.686	-0.182	-0.045
-625.449	-200.000	0.018	-0.096
-624.434	76.538	0.195	0.207
-623.419	-200.000	0.005	-0.114
-622.405	0.296	-0.163	0.116
-621.390	161.762	-0.155	0.217
-620.376	-129.134	0.069	-0.010
-619.361	800.000	0.050	0.161
-618.346	-82.688	-0.297	0.096
-617.332	-200.000	-0.039	-0.254
-616.317	-69.611	-0.115	-0.044
-615.303	-200.000	0.018	0.332
-614.288	91.956	0.120	0.135
-613.273	354.106	-0.052	0.103
-612.259	744.049	0.052	0.141
-611.244	296.130	-0.109	-0.200
-610.230	-200.000	0.007	-0.153
-609.215	85.376	0.083	-0.091
-608.201	-4.100	0.285	-0.197
-607.186	10.000	0.187	0.142
-606.171	-45.271	0.172	0.086
-605.157	35.344	0.094	0.082
-604.142	227.277	0.078	-0.128
-603.128	212.513	-0.184	-0.291
-602.113	-58.075	0.209	-0.091
-601.098	239.246	-0.141	0.235
-600.084	451.205	0.101	0.224
-599.069	5.930	0.030	-0.022
-598.055	-55.744	-0.131	-0.059
-597.040	-52.766	0.242	-0.112
-596.025	-200.000	0.013	-0.159
-595.011	95.411	0.202	-0.231
-593.996	-133.588	0.479	0.060
-592.982	-95.481	-0.218	0.059
-591.967	-168.182	-0.267	0.010
-590.952	-27.964	-0.117	-0.068
-589.938	-200.000	-0.023	0.131
-588.923	-101.425	-0.379	-0.092
-587.909	800.000	0.024	-0.084
-586.894	140.520	0.148	0.195
-585.879	-100.999	-0.301	-0.074
-584.865	-166.457	0.180	-0.008
-583.850	151.719	0.172	-0.234
-582.836	-49.339	0.193	-0.092
-581.821	-200.000	-0.004	0.132
-580.806	-186.879	-0.269	0.004
-579.792	130.744	-0.068	-0.087
-578.777	-52.786	-0.331	-0.153
-577.763	194.847	0.135	0.205
-576.748	21.519	0.325	0.264
-575.733	175.024	0.064	-0.092
-574.719	135.478	-0.165	-0.214
-573.704	198.952	-0.218	-0.333
-572.690	126.650	-0.086	-0.109
-571.675	-11.965	0.110	0.072
-570.661	49.700	-0.206	-0.194
-569.646	-39.729	-0.277	0.145
-568.631	-66.503	-0.036	0.014
-567.617	-68.078	-0.194	0.076
-566.602	29.043	0.209	0.177
-565.588	53.943	0.203	-0.195
-564.573	-200.000	-0.028	-0.155
-563.558	26.833	0.162	0.136
-562.544	190.445	-0.106	0.160
-561.529	-74.434	-0.106	0.038
-560.515	-70.627	-0.214	-0.081
-559.500	-110.959	0.259	0.053
-558.485	-47.000	-0.184	-0.090
-557.471	-140.749	0.199	-0.021
-556.456	-32.909	0.218	-0.121
-555.442	-3.917	-0.202	-0.140
-554.427	298.495	0.091	0.167
-553.412	134.457	0.198	0.256
-552.398	75.599	0.033	-0.035
-551.383	99.233	-0.268	-0.309
-550.369	-125.988	-0.051	-0.008
-549.354	-92.802	-0.017	0.005
-548.339	800.000	-0.041	0.153
-547.325	-65.996	-0.091	-0.036
-546.310	-200.000	0.006	0.357
-545.296	166.811	-0.049	-0.070
-544.281	800.000	-0.058	-0.167
-543.266	-37.225	-0.270	0.144
-542.252	515.237	-0.068	-0.160
-541.237	343.295	-0.102	-0.199
-540.223	-170.894	-0.243	-0.008
-539.208	-200.000	0.066	0.488
-538.193	27.476	-0.154	-0.130
-537.179	-200.000	-0.022	0.421
-536.164	-108.361	-0.120	0.026
-535.150	-26.392	-0.122	-0.071
-534.135	-200.000	-0.006	0.168
-533.121	-200.000	-0.054	0.256
-532.106	-91.809	0.152	-0.043
-531.091	436.726	0.141	0.307
-530.077	-6.471	0.038	-0.026
-529.062	10.584	0.114	-0.087
-528.048	-120.914	0.275	0.046
-527.033	613.309	0.163	-0.408
-526.018	177.027	-0.147	0.214
-525.004	-200.000	0.013	0.090
-523.989	800.000	-0.097	-0.308
-522.975	265.749	-0.157	-0.274
-521.960	-25.606	-0.408	0.241
-520.945	66.623	0.042	-0.043
-519.931	-55.104	0.080	-0.036
-518.916	-82.591	0.129	-0.042
-517.902	-133.753	0.122	-0.015
-516.887	-200.000	0.036	-0.259
-515.872	-200.000	-0.019	0.274
-514.858	-200.000	-0.009	-0.178
-513.843	-0.951	0.136	0.096
-512.829	219.369	-0.115	0.183
-511.814	800.000	0.082	0.334
-510.799	121.037	-0.067	-0.083
-509.785	685.430	-0.055	0.143
-508.770	-200.000	-0.019	0.137
-507.756	-200.000	-0.007	0.221
-506.741	-170.486	-0.266	-0.009
-505.726	800.000	-0.026	-0.090
-504.712	231.645	0.022	0.036
-503.697	-96.751	-0.099	0.026
-502.683	800.000	-0.064	-0.239
-501.668	106.865	0.055	0.065
-500.653	157.171	0.105	0.145
-499.639	132.940	0.109	-0.141
-498.624	383.780	0.074	-0.152
-497.610	67.582	0.222	0.226
-496.595	800.000	0.065	0.248
-495.581	-85.625	-0.220	0.068
-494.566	90.360	-0.263	-0.293
-493.551	-97.586	0.123	-0.032
-492.537	481.211	-0.112	0.253
-491.522	-109.359	0.055	-0.012
-490.508	-151.841	-0.259	-0.019
-489.493	800.000	-0.064	-0.196
-488.478	283.502	0.185	0.331
-487.464	266.910	-0.063	-0.110
-486.449	33.413	-0.179	0.154
-485.435	-200.000	-0.002	0.122
-484.420	-3.862	-0.133	0.092
-483.405	269.715	-0.174	-0.305
-482.391	-200.000	-0.001	-0.067
-481.376	-175.363	-0.140	-0.004
-480.362	-98.903	0.226	-0.057
-479.347	800.000	0.040	0.168
-478.332	-60.819	0.193	0.082
-477.318	-200.000	-0.037	-0.386
-476.303	-107.117	0.397	-0.087
-475.289	-148.945	-0.097	0.008
-474.274	-105.456	-0.201	-0.046
-473.259	-153.004	-0.201	-0.014
-472.245	52.185	-0.130	-0.123
-471.230	800.000	-0.053	-0.150
-470.216	800.000	0.063	0.253
-469.201	800.000	-0.022	-0.094
-468.186	-200.000	-0.009	-0.244
-467.172	-64.123	0.081	-0.033
-466.157	-176.583	-0.083	-0.002
-465.143	97.096	0.045	-0.052
-464.128	800.000	-0.053	-0.210
-463.113	-200.000	0.006	0.099
-462.099	101.790	-0.132	-0.154
-461.084	189.924	0.090	0.134
-460.070	-81.478	0.156	0.051
-459.055	158.671	0.249	-0.344
-458.040	800.000	0.047	-0.192
-457.026	-76.367	-0.274	-0.096
-456.011	642.070	0.112	0.284
-454.997	-154.552	-0.291	0.019
-453.982	66.165	0.106	-0.107
-452.968	106.145	0.266	0.313
-451.953	-98.920	-0.094	0.024
-450.938	-159.064	0.092	-0.005
-449.924	579.160	-0.067	-0.163
-448.909	66.847	-0.118	-0.120
-447.895	800.000	-0.120	-0.408
-446.880	-175.410	0.231	0.006
-445.865	252.676	0.169	-0.287
-444.851	-200.000	0.042	0.204
-443.836	320.723	-0.094	0.178
-442.822	64.721	0.170	0.170
-441.807	-93.896	-0.326	-0.089
-440.792	-143.818	0.076	0.007
-439.778	800.000	0.015	-0.046
-438.763	-200.000	0.033	-0.172
-437.749	-200.000	-0.015	0.363
-436.734	-53.858	-0.210	-0.095
-435.719	69.451	0.171	-0.175
-434.705	630.231	0.094	0.236
-433.690	-90.066	-0.151	0.044
-432.676	-122.627	0.285	-0.046
-431.661	131.251	0.105	-0.134
-430.646	800.000	-0.045	0.132
-429.632	71.417	0.272	0.281
-428.617	-145.681	0.305	0.027
-427.603	-86.320	-0.195	0.060
-426.588	238.702	-0.059	-0.097
-425.573	56.029	0.020	-0.020
-424.559	-37.284	0.259	0.138
-423.544	-81.122	-0.175	-0.058
-422.530	-93.974	-0.385	0.105
-421.515	-136.202	-0.112	-0.013
-420.500	-84.194	-0.029	0.009
-419.486	313.889	-0.186	0.347
-418.471	231.408	0.180	-0.292
-417.457	-200.000	0.013	-0.162
-416.442	96.521	0.198	-0.226
-415.428	-41.419	0.298	0.152
-414.413	65.529	0.202	0.203
-413.398	-200.000	-0.013	0.107
-412.384	174.054	-0.169	-0.243
-411.369	-133.670	0.325	0.040
-410.355	800.000	0.041	-0.149
-409.340	266.887	0.126	0.218
-408.325	-200.000	-0.059	0.355
-407.311	25.045	0.069	-0.057
-406.296	47.642	-0.193	0.179
-405.282	184.985	0.156	0.230
-404.267	-128.973	-0.094	0.013
-403.252	-200.000	0.061	0.493
-402.238	-95.563	0.312	-0.083
-401.223	-91.667	0.114	0.032
-400.209	-59.597	-0.069	-0.030
-399.194	136.828	0.080	-0.103
-398.179	-200.000	0.000	-0.272
-397.165	-182.923	-0.212	-0.004
-396.150	-86.241	0.102	0.031
-395.136	-27.486	0.119	0.068
-394.121	-124.030	-0.280	0.044
-393.106	-200.000	0.029	0.141
-392.092	-160.428	0.327	0.017
-391.077	7.114	0.159	-0.118
-390.063	202.836	-0.140	-0.215
-389.048	41.218	0.183	0.164
-388.033	-72.414	-0.119	0.044
-387.019	-200.000	-0.023	-0.156
-386.004	14.293	0.090	-0.070
-384.990	-200.000	-0.064	-0.283
-383.975	-200.000	-0.048	-0.257
-382.960	-44.155	-0.163	0.081
-381.946	80.687	-0.089	0.095
-380.931	151.428	-0.031	-0.042
-379.917	87.451	-0.178	-0.195
-378.902	327.580	-0.091	-0.173
-377.888	0.124	0.331	-0.234
-376.873	-171.637	-0.570	0.019
-375.858	800.000	0.095	-0.309
-374.844	171.411	-0.136	-0.193
-373.829	-200.000	-0.014	0.177
-372.815	222.320	0.168	0.269
-371.800	-200.000	0.000	0.160
-370.785	-107.626	-0.299	0.065
-369.771	231.918	0.113	-0.184
-368.756	-139.903	0.148	-0.016
-367.742	800.000	-0.054	-0.169
-366.727	-49.630	0.174	0.082
-365.712	47.275	-0.109	0.101
-364.698	411.977	0.081	-0.171
-363.683	-200.000	-0.020	0.253
-362.669	800.000	0.033	-0.104
-361.654	-200.000	0.013	0.333
-360.639	-112.199	0.156	0.031
-359.625	303.572	0.072	0.132
-358.610	0.970	-0.220	-0.156
-357.596	-81.957	0.299	0.097
-356.581	257.846	0.122	0.208
-355.566	42.656	0.190	-0.171
-354.552	-11.415	-0.150	0.098
-353.537	800.000	0.063	-0.221
-352.523	72.638	-0.231	0.239
-351.508	192.666	0.039	0.059
-350.493	800.000	-0.081	-0.256
-349.479	-15.021	-0.065	0.041
-348.464	-200.000	-0.018	-0.142
-347.450	41.119	-0.014	-0.012
-346.435	800.000	-0.026	-0.071
-345.420	800.000	0.069	-0.213
-344.406	52.136	-0.056	0.053
-343.391	8.615	0.143	-0.106
-342.377	-190.182	0.168	-0.002
-341.362	182.454	-0.108	0.158
-340.348	130.423	-0.132	0.168
-339.333	48.773	0.141	0.131
-338.318	-120.662	0.230	0.039
-337.304	800.000	0.071	-0.230
-336.289	97.554	-0.129	-0.147
-335.275	-34.276	-0.073	-0.040
-334.260	-42.045	0.355	0.180
-333.245	294.730	0.161	-0.292
-332.231	800.000	0.056	-0.236
-331.216	271.283	0.211	-0.367
-330.202	189.510	0.212	0.315
-329.187	159.172	-0.144	0.199
-328.172	22.187	-0.374	0.302
-327.158	215.724	0.056	0.088
-326.143	-68.781	0.256	0.098
-325.129	-148.083	-0.250	0.021
-324.114	79.332	-0.094	0.100
-323.099	-200.000	0.032	0.287
-322.085	-200.000	-0.072	0.328
-321.070	243.509	-0.159	-0.264
-320.056	183.848	0.021	-0.030
-319.041	-145.660	0.361	-0.032
-318.026	570.946	0.045	0.108
-317.012	-200.000	-0.001	0.159
-315.997	311.975	0.178	-0.330
-314.983	-72.473	0.294	-0.108
-313.968	87.249	-0.110	0.120
-312.953	760.028	0.068	0.182
-311.939	-45.152	-0.589	0.290
-310.924	800.000	-0.073	0.201
-309.910	265.274	-0.150	0.258
-308.895	34.503	0.127	0.110
-307.880	111.918	0.124	-0.149
-306.866	-23.510	-0.228	-0.135
-305.851	-80.561	-0.141	-0.046
-304.837	20.912	-0.237	-0.190
-303.822	-44.615	0.250	-0.124
-302.807	182.753	-0.154	-0.225
-301.793	-99.074	-0.458	-0.115
-300.778	800.000	0.062	0.234
-299.764	447.926	-0.049	0.106
-298.749	-23.190	0.087	0.052
-297.735	-94.344	0.117	-0.032
-296.720	-54.391	0.298	0.134
-295.705	800.000	0.072	-0.233
-294.691	102.905	-0.177	0.205
-293.676	115.458	0.113	-0.136
-292.662	-114.853	0.459	-0.087
-291.647	210.147	0.164	-0.255
-290.632	-152.252	-0.239	-0.017
-289.618	-24.576	0.312	0.184
-288.603	333.290	0.101	0.194
-287.589	-200.000	-0.072	0.360
-286.574	-7.431	-0.251	-0.168
-285.559	-200.000	-0.018	-0.162
-284.545	-31.728	0.196	0.109
-283.530	65.333	-0.098	0.098
-282.516	5.767	-0.019	0.014
-281.501	154.256	0.174	-0.236
-280.486	800.000	-0.044	-0.125
-279.472	-68.707	0.398	-0.152
-278.457	143.718	0.183	0.241
-277.443	18.205	0.217	-0.171
-276.428	-200.000	-0.018	-0.503
-275.413	-34.548	0.096	0.052
-274.399	-200.000	-0.028	-0.172
-273.384	-200.000	-0.025	-0.228
-272.370	361.720	0.064	-0.127
-271.355	-200.000	0.063	0.287
-270.340	-90.721	0.330	0.094
-269.326	-111.591	-0.190	-0.038
-268.311	-50.367	-0.178	-0.083
-267.297	-9.023	0.241	-0.159
-266.282	-96.416	-0.118	0.031
-265.267	145.057	0.080	-0.106
-264.253	-200.000	-0.006	0.078
-263.238	800.000	0.066	0.230
-262.224	-196.740	-0.096	0.001
-261.209	-86.988	-0.228	-0.069
-260.195	-30.217	-0.282	0.158
-259.180	-68.844	0.106	-0.040
-258.165	38.756	0.034	0.030
-257.151	166.905	-0.079	-0.111
-256.136	10.068	0.293	-0.220
-255.122	-131.794	-0.457	-0.059
-254.107	800.000	0.050	0.181
-253.092	800.000	0.022	0.091
-252.078	-200.000	-0.002	0.265
-251.063	195.133	-0.088	0.132
-250.049	-102.879	0.228	-0.053
-249.034	-13.889	-0.099	0.063
-248.019	26.123	-0.247	0.204
-247.005	800.000	-0.043	-0.127
-245.990	217.908	0.157	0.248
-244.976	26.257	0.067	0.056
-243.961	67.064	0.100	0.100
-242.946	372.754	-0.128	-0.258
-241.932	-200.000	0.006	-0.122
-240.917	-55.668	-0.233	0.103
-239.903	-15.095	0.100	0.063
-238.888	16.821	0.136	-0.106
-237.873	21.725	-0.077	0.062
-236.859	-102.813	0.104	-0.024
-235.844	-200.000	-0.053	-0.305
-234.830	76.831	-0.125	-0.131
-233.815	174.531	-0.108	-0.154
-232.800	223.886	0.067	0.107
-231.786	-165.308	-0.568	-0.025
-230.771	118.266	-0.163	0.199
-229.757	800.000	-0.058	0.208
-228.742	-36.096	-0.264	0.141
-227.727	352.531	0.166	-0.325
-226.713	800.000	0.136	-0.424
-225.698	110.828	-0.088	-0.105
-224.684	-121.694	0.348	-0.057
-223.669	-101.129	-0.154	0.037
-222.655	-101.091	-0.349	-0.084
-221.640	-8.875	-0.133	-0.088
-220.625	11.867	-0.268	0.203
-219.611	-76.988	-0.200	0.069
-218.596	152.637	-0.124	-0.167
-217.582	455.223	0.081	-0.176
-216.567	-131.242	-0.156	-0.020
-215.552	-87.367	0.162	-0.049
-214.538	-39.273	0.282	-0.146
-213.523	-83.193	0.193	-0.061
-212.509	-101.238	0.324	0.078
-211.494	-94.448	0.120	-0.032
-210.479	297.620	0.099	0.178
-209.465	629.105	-0.125	-0.311
-208.450	749.390	-0.114	-0.304
-207.436	800.000	0.056	-0.218
-206.421	-105.919	0.174	-0.039
-205.406	800.000	-0.072	0.225
-204.392	-75.758	-0.046	0.016
-203.377	-100.327	-0.179	0.044
-202.363	-40.425	0.134	-0.069
-201.348	-7.381	-0.217	0.145
-200.333	-187.144	-0.316	0.004
-199.319	-58.427	-0.097	-0.042
-198.304	113.529	0.096	-0.115
-197.290	-56.406	0.114	-0.050
-196.275	60.784	0.279	-0.272
-195.260	-200.000	-0.081	0.405
-194.246	-18.324	-0.175	-0.108
-193.231	797.175	0.138	0.374
-192.217	-72.420	-0.276	0.100
-191.202	676.320	-0.057	-0.145
-190.187	-80.424	-0.284	-0.093
-189.173	454.692	-0.039	-0.085
-188.158	-105.248	0.237	0.053
-187.144	800.000	0.046	0.160
-186.129	104.043	-0.135	-0.157
-185.114	-124.010	0.220	0.034
-184.100	448.738	0.036	0.078
-183.085	800.000	0.079	0.235
-182.071	627.828	-0.095	0.235
-181.056	-200.000	-0.007	-0.033
-180.042	-200.000	0.088	0.449
-179.027	-24.455	-0.198	-0.116
-178.012	-43.716	0.129	0.064
-176.998	-200.000	-0.004	0.110
-175.983	336.284	-0.077	-0.146
-174.969	-200.000	-0.019	0.293
-173.954	148.802	0.216	0.288
-172.939	-54.557	-0.322	0.143
-171.925	-103.265	0.134	0.031
-170.910	800.000	0.051	0.213
-169.896	330.898	0.032	-0.060
-168.881	-76.161	0.087	0.030
-167.866	800.000	0.113	0.313
-166.852	800.000	0.023	-0.076
-165.837	609.321	0.032	0.079
-164.823	-200.000	-0.018	0.237
-163.808	800.000	0.091	-0.318
-162.793	359.000	-0.111	-0.219
-161.779	163.417	-0.188	-0.260
-160.764	-200.000	-0.023	0.234
-159.750	-181.948	0.098	-0.002
-158.735	-200.000	0.040	-0.262
-157.720	-200.000	-0.002	0.134
-156.706	-100.106	-0.033	-0.008
-155.691	-9.765	0.397	-0.260
-154.677	-180.957	-0.129	0.003
-153.662	-153.382	-0.227	0.016
-152.647	-91.516	0.232	-0.065
-151.633	252.399	-0.026	0.044
-150.618	758.268	0.064	0.171
-149.604	800.000	0.058	0.236
-148.589	-200.000	-0.067	-0.315
-147.574	90.099	0.123	-0.136
-146.560	201.533	-0.128	-0.194
-145.545	-200.000	0.048	0.441
-144.531	800.000	0.095	0.392
-143.516	-61.319	-0.319	0.132
-142.502	-99.673	0.317	0.078
-141.487	-200.000	-0.006	-0.461
-140.472	-200.000	0.003	0.187
-139.458	496.890	-0.115	-0.260
-138.443	351.452	0.107	-0.208
-137.429	128.057	-0.210	0.263
-136.414	-33.723	0.168	-0.091
-135.399	800.000	0.107	-0.305
-134.385	-41.231	0.122	-0.062
-133.370	290.942	0.087	0.155
-132.356	-113.959	0.093	0.018
-131.341	167.848	-0.120	-0.167
-130.326	22.356	0.040	-0.032
-129.312	800.000	-0.104	-0.376
-128.297	-200.000	-0.106	-0.643
-127.283	729.766	-0.184	-0.484
-126.268	-200.000	-0.028	-0.162
-125.253	800.000	0.024	0.070
-124.239	-200.000	0.030	-0.377
-123.224	-128.394	0.278	0.039
-122.210	-37.581	0.091	0.048
