DTS Sentinel unit serial number:	SN413079Multiplexer serial number:	ORYXHardware model number:	OX4-SRSoftware version number:	ORYX F/W v4.00 Oryx Data Collector v3.7.2.0data status	okinstallation	princeton_trtdifferential loss correction	single-endedforward channel	channel 1reverse channel	N/Adate	2019/09/15time	16:58:35forward acquisition time	60.00reverse acquisition time	0.00gamma	496.2192k internal	0.2292k external	0.2292temperature offset calibration	0.9933default loss term (dB/km)	0.3790temperature slope calibration	1.0000multiplexer offset coefficient	1.0000multiplexer slope coefficient	1.0000fibre end	0.00T internal ref (°C)	44.44T ext. ref 1 (°C)	5.84T ext. ref 2 (°C)	40.43length (m)	temperature (°C)	Stokes	anti-Stokes-747.200	-145.409	0.199	-0.018
-746.185	-200.000	-0.057	0.339
-745.171	-126.513	0.264	-0.040
-744.156	137.106	-0.103	0.138
-743.142	58.105	0.120	-0.120
-742.127	-31.405	-0.059	0.034
-741.112	-27.257	-0.068	-0.041
-740.098	88.677	0.227	-0.258
-739.083	147.529	-0.038	0.052
-738.069	67.061	0.225	0.235
-737.054	-118.645	0.129	-0.023
-736.039	672.627	-0.018	-0.047
-735.025	74.650	0.175	0.188
-734.010	112.603	-0.245	-0.304
-732.996	93.079	-0.144	-0.166
-731.981	-59.663	-0.090	-0.040
-730.966	695.135	0.251	-0.674
-729.952	-200.000	0.044	0.244
-728.937	-200.000	0.011	-0.072
-727.923	49.357	0.102	-0.098
-726.908	-19.965	-0.264	-0.167
-725.894	9.127	-0.269	-0.208
-724.879	-93.893	-0.195	0.055
-723.864	-4.072	-0.181	-0.128
-722.850	-62.373	-0.207	-0.088
-721.835	483.085	-0.059	0.138
-720.821	-200.000	-0.025	-0.191
-719.806	-78.475	-0.338	-0.118
-718.791	-50.530	-0.054	0.026
-717.777	85.033	-0.185	-0.207
-716.762	-163.724	-0.150	0.007
-715.748	-200.000	0.002	-0.054
-714.733	-148.649	0.459	0.038
-713.718	-6.401	-0.146	0.102
-712.704	415.687	-0.078	-0.171
-711.689	-71.837	0.375	-0.143
-710.675	147.011	-0.062	0.085
-709.660	74.491	0.024	-0.026
-708.645	-11.530	-0.206	-0.139
-707.631	-89.904	-0.178	0.053
-706.616	-5.878	0.060	-0.042
-705.602	108.551	-0.303	-0.370
-704.587	800.000	0.062	-0.253
-703.572	-162.055	0.249	-0.013
-702.558	-200.000	0.035	-0.191
-701.543	107.390	-0.193	-0.235
-700.529	327.400	-0.048	-0.095
-699.514	-155.355	0.187	-0.012
-698.499	-59.327	0.102	-0.045
-697.485	-150.885	-0.056	-0.004
-696.470	-78.504	-0.227	-0.079
-695.456	60.669	-0.341	-0.345
-694.441	-103.747	-0.227	-0.054
-693.426	96.757	-0.261	-0.305
-692.412	-105.125	0.490	-0.114
-691.397	-123.248	-0.197	-0.032
-690.383	-59.441	0.196	-0.086
-689.368	89.955	-0.250	-0.285
-688.354	-108.962	0.184	-0.040
-687.339	260.809	-0.091	0.161
-686.324	-150.705	-0.426	-0.033
-685.310	682.159	-0.063	-0.167
-684.295	-160.326	-0.093	-0.005
-683.281	800.000	0.044	0.144
-682.266	-57.860	0.252	-0.113
-681.251	-200.000	-0.014	0.282
-680.237	-126.911	0.202	-0.030
-679.222	-119.164	0.516	-0.092
-678.208	783.826	0.073	-0.204
-677.193	14.295	-0.116	-0.092
-676.178	62.954	0.089	0.091
-675.164	-91.254	-0.242	0.071
-674.149	-21.305	-0.363	-0.227
-673.135	273.152	0.199	-0.359
-672.120	-200.000	0.318	-0.001
-671.105	-42.617	0.058	-0.030
-670.091	139.971	0.124	-0.167
-669.076	-74.741	-0.291	-0.107
-668.062	-200.000	0.008	0.323
-667.047	87.092	0.146	0.165
-666.032	-48.255	-0.181	-0.089
-665.018	15.481	0.029	0.023
-664.003	270.708	-0.145	0.259
-662.989	133.816	0.047	0.062
-661.974	132.304	-0.139	0.183
-660.959	-200.000	-0.002	0.091
-659.945	231.072	-0.074	0.124
-658.930	-81.365	-0.270	0.091
-657.916	219.363	-0.219	0.358
-656.901	-58.572	0.084	0.037
-655.886	-69.109	0.078	-0.030
-654.872	-49.974	-0.149	0.072
-653.857	425.885	-0.166	-0.364
-652.843	-87.435	-0.278	-0.086
-651.828	-200.000	0.011	0.064
-650.814	-136.274	-0.063	-0.007
-649.799	-104.816	-0.226	0.053
-648.784	-174.538	-0.201	0.006
-647.770	-132.716	0.178	-0.023
-646.755	13.643	-0.385	0.305
-645.741	38.802	0.385	-0.350
-644.726	-77.639	-0.253	0.089
-643.711	-50.376	0.114	0.055
-642.697	-161.458	-0.343	-0.018
-641.682	64.035	0.037	0.037
-640.668	85.358	0.045	-0.050
-639.653	-63.615	-0.330	-0.138
-638.638	800.000	0.064	0.212
-637.624	-58.210	-0.134	0.059
-636.609	-200.000	-0.021	-0.140
-635.595	-66.509	0.237	0.096
-634.580	-83.611	-0.249	0.081
-633.565	-23.656	-0.276	-0.169
-632.551	-30.721	0.030	0.017
-631.536	-24.701	0.181	-0.110
-630.522	87.023	0.130	-0.146
-629.507	-200.000	-0.003	-0.133
-628.492	800.000	-0.013	0.041
-627.478	-200.000	-0.012	-0.353
-626.463	-71.214	-0.284	0.109
-625.449	468.126	0.075	0.172
-624.434	800.000	0.012	-0.038
-623.419	28.427	-0.348	0.300
-622.405	-31.664	-0.240	-0.137
-621.390	800.000	-0.054	-0.218
-620.376	-66.353	0.208	0.084
-619.361	800.000	-0.085	0.368
-618.346	-106.115	-0.376	-0.086
-617.332	489.733	-0.126	0.294
-616.317	-200.000	0.037	-0.298
-615.303	169.970	-0.099	-0.145
-614.288	79.444	0.072	-0.079
-613.273	-52.133	-0.124	-0.059
-612.259	-156.937	0.032	-0.002
-611.244	-64.983	-0.080	0.033
-610.230	-198.330	-0.443	0.003
-609.215	440.536	-0.066	0.146
-608.201	-68.776	0.490	0.193
-607.186	-47.234	0.080	-0.040
-606.171	94.423	-0.253	0.293
-605.157	-139.987	0.026	-0.003
-604.142	-26.624	0.156	-0.093
-603.128	540.823	-0.099	-0.239
-602.113	-59.030	-0.317	-0.139
-601.098	7.231	0.046	0.035
-600.084	-200.000	-0.052	0.371
-599.069	-200.000	-0.024	-0.300
-598.055	-9.199	0.173	-0.118
-597.040	221.293	-0.117	0.191
-596.025	-20.760	-0.138	0.086
-595.011	-200.000	-0.069	0.378
-593.996	-75.614	0.264	-0.095
-592.982	-154.790	-0.472	-0.032
-591.967	-200.000	-0.018	0.111
-590.952	-200.000	-0.007	-0.120
-589.938	173.932	-0.187	-0.275
-588.923	-93.789	-0.236	0.066
-587.909	-23.155	-0.017	-0.011
-586.894	122.779	-0.108	0.137
-585.879	-173.019	0.300	0.009
-584.865	316.445	-0.104	-0.200
-583.850	19.558	0.334	0.273
-582.836	-77.933	-0.098	-0.034
-581.821	8.556	-0.037	-0.029
-580.806	-16.236	0.217	0.140
-579.792	17.801	-0.077	0.063
-578.777	-25.408	0.326	-0.196
-577.763	41.017	0.080	-0.073
-576.748	-93.945	-0.270	-0.076
-575.733	800.000	-0.125	0.352
-574.719	610.447	-0.040	-0.101
-573.704	198.817	-0.046	0.071
-572.690	-92.127	-0.051	0.015
-571.675	74.373	-0.056	0.060
-570.661	-200.000	-0.033	-0.180
-569.646	-200.000	-0.017	-0.120
-568.631	-200.000	-0.014	-0.084
-567.617	-10.525	0.138	-0.093
-566.602	-12.123	0.133	0.088
-565.588	40.540	0.202	-0.185
-564.573	132.232	0.174	-0.228
-563.558	-175.998	-0.625	-0.017
-562.544	-200.000	0.024	-0.166
-561.529	800.000	-0.085	-0.282
-560.515	-32.876	-0.293	0.165
-559.500	-99.263	-0.215	0.055
-558.485	-75.816	-0.169	0.061
-557.471	-200.000	-0.001	-0.022
-556.456	-62.945	-0.103	-0.043
-555.442	-127.566	-0.134	-0.020
-554.427	-200.000	-0.036	0.197
-553.412	59.858	0.183	-0.184
-552.398	-133.787	0.349	0.044
-551.383	648.054	-0.179	0.465
-550.369	-12.576	-0.227	0.151
-549.354	-98.709	0.156	-0.040
-548.339	120.604	0.123	-0.155
-547.325	-200.000	-0.044	-0.363
-546.310	546.778	0.012	0.029
-545.296	-141.242	0.242	-0.025
-544.281	-188.117	0.154	-0.002
-543.266	-200.000	0.023	0.223
-542.252	-118.861	-0.337	0.060
-541.237	51.715	0.109	-0.105
-540.223	800.000	-0.059	-0.214
-539.208	-136.875	0.144	-0.017
-538.193	-70.773	-0.044	0.017
-537.179	-89.556	-0.331	-0.099
-536.164	-138.770	-0.235	0.026
-535.150	-200.000	-0.003	-0.335
-534.135	-200.000	-0.042	0.186
-533.121	-177.829	0.222	0.005
-532.106	31.227	0.109	-0.095
-531.091	-200.000	-0.016	0.099
-530.077	-200.000	-0.008	-0.338
-529.062	209.526	0.138	-0.220
-528.048	53.668	-0.054	0.052
-527.033	241.538	0.158	-0.268
-526.018	608.075	0.034	-0.086
-525.004	230.008	-0.093	-0.154
-523.989	57.317	-0.165	-0.163
-522.975	-21.638	0.079	0.049
-521.960	-200.000	0.074	0.410
-520.945	-73.550	-0.351	0.130
-519.931	310.529	0.089	-0.169
-518.916	-76.005	0.210	0.075
-517.902	-151.580	0.228	0.017
-516.887	-63.352	-0.222	0.093
-515.872	-136.595	-0.124	-0.015
-514.858	-82.291	-0.369	-0.122
-513.843	149.907	0.048	0.065
-512.829	724.714	0.041	0.112
-511.814	173.167	-0.158	0.231
-510.799	481.055	-0.088	0.203
-509.785	420.737	-0.023	0.050
-508.770	-79.333	0.362	0.124
-507.756	74.171	-0.239	0.255
-506.741	-105.235	0.184	0.043
-505.726	-160.886	0.207	-0.011
-504.712	-200.000	0.002	0.191
-503.697	-198.397	0.140	0.001
-502.683	-200.000	-0.002	0.163
-501.668	-200.000	-0.053	-0.461
-500.653	261.471	-0.133	-0.234
-499.639	159.195	-0.122	-0.172
-498.624	-200.000	0.008	0.187
-497.610	329.840	-0.178	-0.348
-496.595	-186.707	-0.171	-0.002
-495.581	-22.658	-0.329	0.202
-494.566	800.000	0.059	-0.227
-493.551	-200.000	-0.006	-0.361
-492.537	311.568	-0.112	-0.213
-491.522	-156.583	-0.072	-0.005
-490.508	-51.108	-0.101	-0.048
-489.493	179.499	0.109	0.161
-488.478	-42.726	0.286	0.148
-487.464	-76.166	-0.417	0.149
-486.449	-90.669	0.046	0.013
-485.435	800.000	0.023	0.070
-484.420	145.549	0.037	0.051
-483.405	367.248	0.042	0.087
-482.391	-94.114	-0.131	-0.036
-481.376	747.695	0.054	-0.148
-480.362	-200.000	-0.015	-0.246
-479.347	48.574	-0.039	-0.037
-478.332	-96.726	0.503	-0.134
-477.318	14.555	-0.109	0.086
-476.303	258.059	0.100	-0.174
-475.289	62.958	-0.176	0.179
-474.274	303.695	-0.115	0.216
-473.259	299.580	-0.079	0.147
-472.245	-128.732	-0.301	0.043
-471.230	4.052	-0.111	-0.082
-470.216	441.867	-0.144	-0.319
-469.201	-156.907	0.152	0.009
-468.186	51.539	-0.159	-0.153
-467.172	-93.371	0.293	0.082
-466.157	-184.832	-0.088	0.001
-465.143	-39.131	-0.216	-0.115
-464.128	-44.245	-0.188	0.096
-463.113	217.926	-0.156	-0.252
-462.099	-125.974	-0.343	0.052
-461.084	14.751	-0.128	-0.102
-460.070	-51.230	-0.381	-0.181
-459.055	800.000	0.047	0.183
-458.040	-95.954	-0.248	-0.067
-457.026	-38.855	0.046	0.025
-456.011	-200.000	0.003	-0.194
-454.997	-200.000	-0.035	0.279
-453.982	235.968	0.028	0.047
-452.968	-200.000	-0.017	0.279
-451.953	42.497	0.378	0.348
-450.938	-14.085	0.142	-0.093
-449.924	-58.492	0.041	0.018
-448.909	110.699	-0.126	0.153
-447.895	-154.347	0.309	0.021
-446.880	626.540	0.049	-0.126
-445.865	283.116	0.024	0.043
-444.851	132.761	0.067	0.087
-443.836	23.674	0.133	0.111
-442.822	-200.000	0.000	0.135
-441.807	8.156	0.275	0.209
-440.792	-154.007	-0.380	-0.026
-439.778	714.232	-0.119	0.318
-438.763	-15.742	0.099	-0.064
-437.749	68.604	-0.035	0.037
-436.734	-200.000	-0.061	0.287
-435.719	-58.413	0.270	0.119
-434.705	-160.532	0.506	0.027
-433.690	387.245	-0.053	0.111
-432.676	-35.566	0.112	-0.062
-431.661	-107.727	0.232	-0.051
-430.646	604.217	-0.137	0.344
-429.632	34.449	0.190	-0.168
-428.617	-153.827	-0.145	-0.010
-427.603	-102.097	-0.338	-0.082
-426.588	-200.000	0.070	-0.346
-425.573	-7.099	0.246	-0.169
-424.559	-104.276	0.361	-0.085
-423.544	111.248	-0.258	-0.314
-422.530	-200.000	0.041	-0.192
-421.515	174.714	-0.117	-0.172
-420.500	800.000	-0.034	0.110
-419.486	105.933	-0.133	0.159
-418.471	800.000	0.066	0.222
-417.457	800.000	-0.131	0.453
-416.442	-101.964	0.161	0.039
-415.428	97.076	-0.155	0.179
-414.413	490.781	-0.055	-0.127
-413.398	-200.000	0.003	-0.151
-412.384	716.409	-0.047	0.126
-411.369	571.961	-0.079	0.193
-410.355	177.496	0.095	0.139
-409.340	418.336	0.068	-0.148
-408.325	383.196	-0.043	-0.090
-407.311	800.000	-0.103	0.295
-406.296	-93.429	-0.283	-0.079
-405.282	724.962	0.070	-0.188
-404.267	-200.000	-0.022	0.453
-403.252	40.223	-0.150	-0.136
-402.238	-5.217	0.158	-0.110
-401.223	75.591	0.232	0.247
-400.209	72.569	0.040	0.042
-399.194	-151.683	0.154	-0.011
-398.179	-200.000	-0.005	-0.188
-397.165	-37.459	-0.297	-0.160
-396.150	-35.226	0.261	0.143
-395.136	364.839	-0.110	0.223
-394.121	391.674	0.076	-0.160
-393.106	192.811	0.087	-0.133
-392.092	-67.861	0.238	0.094
-391.077	243.536	0.026	0.044
-390.063	296.471	-0.147	-0.272
-389.048	-200.000	-0.044	0.387
-388.033	800.000	-0.011	0.039
-387.019	-88.928	0.158	-0.047
-386.004	-4.912	-0.221	-0.154
-384.990	52.180	0.074	0.071
-383.975	20.263	0.160	-0.131
-382.960	-71.666	0.587	-0.221
-381.946	-48.410	-0.175	-0.085
-380.931	26.848	0.231	-0.195
-379.917	-61.685	0.095	-0.040
-378.902	23.602	0.020	-0.017
-377.888	-84.763	0.378	0.120
-376.873	36.883	-0.178	-0.159
-375.858	451.187	-0.108	0.240
-374.844	601.769	-0.100	0.250
-373.829	256.027	0.050	0.086
-372.815	13.789	0.217	-0.170
-371.800	800.000	-0.074	-0.274
-370.785	-118.635	-0.265	-0.047
-369.771	435.412	-0.159	-0.348
-368.756	362.988	0.157	-0.319
-367.742	-21.525	0.055	-0.034
-366.727	800.000	-0.134	-0.461
-365.712	-104.766	0.180	-0.042
-364.698	70.375	-0.091	0.095
-363.683	99.606	0.296	0.346
-362.669	131.783	0.107	-0.139
-361.654	-157.103	0.062	-0.004
-360.639	-90.772	0.121	0.035
-359.625	-75.829	0.178	-0.063
-358.610	-4.355	-0.257	-0.179
-357.596	-153.456	0.188	-0.013
-356.581	46.760	0.084	-0.079
-355.566	1.349	-0.292	-0.211
-354.552	177.542	-0.058	-0.085
-353.537	-55.884	0.315	-0.142
-352.523	-1.570	-0.197	-0.140
-351.508	410.070	-0.166	-0.355
-350.493	47.872	-0.011	-0.010
-349.479	-105.204	-0.307	-0.071
-348.464	772.357	-0.123	0.338
-347.450	140.174	-0.290	0.385
-346.435	-26.668	0.184	-0.108
-345.420	364.624	0.100	-0.203
-344.406	6.641	0.105	-0.079
-343.391	-155.100	0.127	-0.008
-342.377	-200.000	-0.013	-0.089
-341.362	-23.806	0.151	0.091
-340.348	800.000	0.129	0.430
-339.333	800.000	0.093	0.280
-338.318	-190.516	0.170	-0.002
-337.304	-37.410	-0.243	-0.131
-336.289	123.227	-0.029	-0.036
-335.275	800.000	-0.011	0.047
-334.260	-200.000	-0.020	-0.163
-333.245	-200.000	-0.022	-0.212
-332.231	37.849	-0.122	-0.109
-331.216	-165.796	-0.310	0.013
-330.202	113.712	0.215	0.263
-329.187	-74.953	0.472	0.170
-328.172	-23.140	-0.103	-0.063
-327.158	654.456	0.012	-0.032
-326.143	252.098	0.122	-0.209
-325.129	-61.490	0.245	-0.104
-324.114	-42.265	0.111	-0.057
-323.099	-200.000	0.026	-0.181
-322.085	-150.331	0.129	0.010
-321.070	-48.217	-0.051	0.025
-320.056	-108.739	-0.301	0.065
-319.041	-200.000	0.003	0.099
-318.026	-200.000	0.044	0.329
-317.012	362.935	-0.108	-0.218
-315.997	-200.000	-0.014	0.107
-314.983	800.000	0.047	0.142
-313.968	408.666	-0.102	0.217
-312.953	295.073	0.105	-0.193
-311.939	-200.000	-0.031	0.223
-310.924	-138.595	-0.139	-0.015
-309.910	-102.965	0.069	-0.016
-308.895	105.545	0.185	0.220
-307.880	-99.007	-0.111	0.028
-306.866	-84.019	0.157	-0.050
-305.851	-158.160	0.009	-0.001
-304.837	-200.000	-0.070	-0.342
-303.822	-200.000	-0.031	0.203
-302.807	800.000	0.042	0.165
-301.793	-99.077	-0.154	-0.039
-300.778	140.220	0.116	0.154
-299.764	630.917	-0.114	-0.289
-298.749	800.000	-0.008	0.027
-297.735	-200.000	0.003	0.238
-296.720	-77.614	0.231	0.080
-295.705	-70.531	0.212	0.081
-294.691	-41.358	-0.107	0.056
-293.676	800.000	-0.125	-0.353
-292.662	55.908	0.101	0.099
-291.647	-178.667	-0.325	0.008
-290.632	800.000	0.092	0.271
-289.618	-105.490	0.123	-0.028
-288.603	225.751	0.119	0.193
-287.589	252.561	0.206	-0.354
-286.574	-101.373	0.186	0.046
-285.559	-98.162	-0.070	-0.018
-284.545	667.261	0.127	-0.330
-283.530	301.265	0.140	0.261
-282.516	-152.463	0.026	0.002
-281.501	800.000	-0.111	0.337
-280.486	-189.806	0.162	0.002
-279.472	800.000	-0.121	0.390
-278.457	-200.000	0.011	-0.154
-277.443	-149.973	0.185	0.014
-276.428	-8.583	0.072	0.048
-275.413	-200.000	-0.025	0.188
-274.399	257.099	0.165	-0.286
-273.384	-200.000	0.016	-0.090
-272.370	-57.665	0.261	0.115
-271.355	-121.992	0.258	0.043
-270.340	82.642	-0.042	-0.045
-269.326	513.170	-0.097	-0.227
-268.311	-48.955	0.073	-0.035
-267.297	29.364	0.121	0.103
-266.282	481.209	0.060	0.136
-265.267	377.430	0.189	0.389
-264.253	156.650	-0.308	0.427
-263.238	-200.000	-0.031	0.153
-262.224	-27.538	0.175	0.102
-261.209	147.384	-0.132	0.178
-260.195	14.701	-0.045	0.035
-259.180	-200.000	-0.013	-0.221
-258.165	142.537	0.141	-0.189
-257.151	-49.406	0.327	-0.157
-256.136	800.000	-0.039	-0.168
-255.122	-102.576	-0.506	0.121
-254.107	14.708	-0.200	0.157
-253.092	538.922	-0.105	-0.251
-252.078	-58.234	0.262	-0.114
-251.063	800.000	0.031	-0.122
-250.049	106.330	-0.119	-0.141
-249.034	-200.000	-0.012	-0.091
-248.019	94.276	0.030	0.034
-247.005	66.746	0.145	0.148
-245.990	-200.000	-0.014	0.067
-244.976	27.328	0.263	-0.222
-243.961	-21.937	0.285	-0.174
-242.946	251.584	-0.085	-0.146
-241.932	800.000	-0.081	0.272
-240.917	252.379	0.093	-0.158
-239.903	1.050	-0.077	-0.055
-238.888	453.625	-0.105	-0.234
-237.873	800.000	-0.040	-0.124
-236.859	-185.130	0.175	-0.003
-235.844	-72.830	0.545	0.201
-234.830	12.789	-0.124	0.096
-233.815	447.607	-0.067	-0.149
-232.800	138.117	0.196	-0.257
-231.786	127.025	-0.103	0.132
-230.771	-51.906	0.306	0.143
-229.757	-200.000	-0.007	0.051
-228.742	-200.000	0.015	-0.236
-227.727	-85.247	0.119	0.037
-226.713	4.383	0.261	0.192
-225.698	34.646	-0.203	0.178
-224.684	-60.346	-0.135	-0.057
-223.669	-200.000	-0.014	0.315
-222.655	-200.000	-0.013	0.148
-221.640	-178.190	0.104	0.002
-220.625	12.588	-0.286	-0.222
-219.611	-111.524	0.385	0.078
-218.596	800.000	-0.064	0.220
-217.582	-68.846	0.142	0.055
-216.567	-81.419	0.477	0.158
-215.552	217.596	-0.053	0.084
-214.538	31.401	-0.361	-0.311
-213.523	-194.221	-0.572	0.005
-212.509	115.038	-0.050	-0.061
-211.494	495.779	-0.073	0.167
-210.479	337.797	-0.138	0.270
-209.465	176.105	0.158	-0.230
-208.450	-30.042	0.077	-0.044
-207.436	33.439	-0.180	-0.157
-206.421	98.813	0.084	0.098
-205.406	-65.175	-0.291	0.118
-204.392	-200.000	-0.022	-0.173
-203.377	-102.344	0.167	0.040
-202.363	-15.974	-0.220	-0.141
-201.348	-14.352	0.082	0.053
-200.333	-64.950	0.307	0.124
-199.319	-200.000	0.011	-0.210
-198.304	-115.217	0.068	0.013
-197.290	-200.000	-0.044	-0.284
-196.275	-200.000	-0.102	0.461
-195.260	-135.033	0.063	-0.008
-194.246	-101.913	0.263	0.064
-193.231	800.000	-0.050	0.212
-192.217	82.469	0.137	-0.150
-191.202	800.000	0.043	-0.163
-190.187	723.976	0.019	0.051
-189.173	-200.000	-0.017	0.177
-188.158	-112.433	-0.174	0.035
-187.144	-100.911	0.203	-0.050
-186.129	-156.295	0.620	-0.039
-185.114	800.000	0.042	0.186
-184.100	-200.000	0.086	-0.385
-183.085	124.711	-0.101	-0.127
-182.071	-46.383	0.272	-0.134
-181.056	-200.000	0.000	-0.435
-180.042	-132.359	-0.129	0.017
-179.027	565.266	-0.060	0.147
-178.012	-145.528	-0.126	-0.011
-176.998	-200.000	0.020	-0.239
-175.983	-137.978	0.481	0.054
-174.969	710.670	-0.092	0.244
-173.954	-200.000	-0.053	0.275
-172.939	-41.732	-0.188	0.097
-171.925	800.000	0.054	-0.167
-170.910	20.575	-0.262	-0.212
-169.896	1.359	0.157	-0.113
-168.881	122.593	0.089	0.111
-167.866	37.832	0.257	0.229
-166.852	-200.000	-0.020	0.272
-165.837	65.630	-0.152	0.154
-164.823	14.503	0.190	0.149
-163.808	228.602	0.036	0.059
-162.793	635.031	0.038	-0.097
-161.779	800.000	-0.082	-0.302
-160.764	800.000	-0.067	0.193
-159.750	-129.663	-0.064	-0.009
-158.735	170.430	0.121	-0.174
-157.720	-122.879	-0.331	0.053
-156.706	-75.149	0.131	0.047
-155.691	154.821	0.086	0.118
-154.677	-200.000	0.011	-0.279
-153.662	-200.000	0.056	0.349
-152.647	214.074	-0.137	0.216
-151.633	-200.000	0.037	-0.299
-150.618	-78.563	-0.352	-0.120
-149.604	488.009	0.101	0.231
-148.589	800.000	-0.097	0.292
-147.574	515.257	-0.178	-0.416
-146.560	-110.533	0.338	0.070
-145.545	6.147	0.225	-0.167
-144.531	99.493	-0.047	0.054
-143.516	-107.273	0.257	0.057
-142.502	-106.418	0.495	-0.111
-141.487	-79.283	-0.115	-0.039
-140.472	-184.039	0.138	0.002
-139.458	-79.967	-0.179	-0.060
-138.443	383.924	0.099	-0.204
-137.429	-48.308	-0.172	-0.083
-136.414	-200.000	-0.023	-0.160
-135.399	-200.000	0.034	0.244
-134.385	-200.000	0.024	0.203
-133.370	-200.000	0.007	-0.087
-132.356	-68.461	-0.114	0.044
-131.341	-200.000	0.002	-0.035
-130.326	-200.000	0.017	0.244
-129.312	800.000	0.031	0.115
-128.297	-200.000	-0.017	-0.258
-127.283	72.470	0.118	0.123
-126.268	-41.517	0.073	0.038
-125.253	-200.000	0.042	-0.396
-124.239	-103.263	-0.300	0.071
-123.224	-65.936	-0.122	-0.049
-122.210	-200.000	0.015	-0.144
