DTS Sentinel unit serial number:	SN413079Multiplexer serial number:	ORYXHardware model number:	OX4-SRSoftware version number:	ORYX F/W v4.00 Oryx Data Collector v3.7.2.0data status	okinstallation	princeton_trtdifferential loss correction	single-endedforward channel	channel 1reverse channel	N/Adate	2019/09/15time	04:18:35forward acquisition time	60.00reverse acquisition time	0.00gamma	496.2192k internal	0.2324k external	0.2324temperature offset calibration	0.9987default loss term (dB/km)	0.3790temperature slope calibration	1.0000multiplexer offset coefficient	1.0000multiplexer slope coefficient	1.0000fibre end	0.00T internal ref (°C)	30.89T ext. ref 1 (°C)	4.63T ext. ref 2 (°C)	25.66length (m)	temperature (°C)	Stokes	anti-Stokes-747.200	-38.082	-0.340	-0.182
-746.185	-108.321	0.073	0.016
-745.171	-130.981	-0.176	-0.024
-744.156	-200.000	-0.053	0.265
-743.142	58.037	0.259	0.256
-742.127	3.325	0.214	-0.158
-741.112	-22.044	0.390	-0.239
-740.098	800.000	-0.034	-0.108
-739.083	356.048	-0.025	-0.050
-738.069	89.211	-0.061	-0.068
-737.054	-200.000	0.004	0.233
-736.039	-175.422	-0.406	0.011
-735.025	-75.249	0.151	-0.054
-734.010	231.294	-0.117	0.193
-732.996	-127.260	-0.216	0.032
-731.981	40.402	-0.080	0.073
-730.966	427.199	0.146	0.318
-729.952	223.284	0.153	0.250
-728.937	-71.498	-0.249	-0.094
-727.923	151.957	-0.173	0.238
-726.908	-85.725	0.074	0.023
-725.894	-200.000	0.004	0.126
-724.879	-200.000	-0.031	0.205
-723.864	800.000	-0.092	-0.347
-722.850	129.777	0.041	-0.053
-721.835	-195.966	-0.178	-0.001
-720.821	9.281	-0.084	-0.064
-719.806	800.000	-0.052	-0.156
-718.791	-87.527	-0.205	0.063
-717.777	-3.974	0.192	-0.134
-716.762	-32.106	-0.137	-0.077
-715.748	562.931	0.066	0.162
-714.733	299.413	0.024	-0.045
-713.718	-102.095	-0.175	-0.042
-712.704	60.371	0.194	0.194
-711.689	-35.090	-0.105	0.058
-710.675	-129.467	-0.116	0.016
-709.660	-51.056	-0.126	0.060
-708.645	-158.671	-0.229	0.013
-707.631	-19.774	-0.145	0.090
-706.616	383.187	0.065	0.135
-705.602	-38.620	0.208	-0.111
-704.587	-200.000	-0.028	0.207
-703.572	-127.551	-0.052	-0.008
-702.558	-98.220	-0.366	-0.095
-701.543	-126.306	0.289	0.043
-700.529	-200.000	-0.016	-0.122
-699.514	68.276	0.083	0.086
-698.499	151.583	0.139	-0.191
-697.485	-135.497	-0.242	0.029
-696.470	238.617	-0.081	0.135
-695.456	-200.000	0.006	-0.125
-694.441	30.631	-0.125	0.107
-693.426	-176.877	-0.225	-0.006
-692.412	-51.038	-0.127	-0.060
-691.397	264.726	-0.115	0.202
-690.383	-200.000	0.008	-0.076
-689.368	-118.846	-0.255	-0.045
-688.354	800.000	0.161	0.452
-687.339	-88.728	-0.147	0.044
-686.324	-92.256	-0.159	-0.045
-685.310	-7.145	-0.280	-0.191
-684.295	77.776	0.142	-0.152
-683.281	-200.000	-0.051	-0.417
-682.266	577.775	-0.007	0.018
-681.251	19.195	0.260	-0.210
-680.237	-200.000	-0.014	-0.111
-679.222	-15.873	-0.251	-0.161
-678.208	-55.839	0.048	-0.022
-677.193	-158.190	-0.251	-0.015
-676.178	800.000	-0.071	0.262
-675.164	-17.398	-0.107	0.068
-674.149	38.471	0.101	0.091
-673.135	-200.000	0.020	0.197
-672.120	101.778	-0.135	0.158
-671.105	-172.809	-0.339	-0.011
-670.091	-78.446	-0.205	0.071
-669.076	800.000	-0.037	-0.128
-668.062	159.884	-0.122	-0.171
-667.047	-31.254	0.217	0.123
-666.032	-200.000	-0.012	0.064
-665.018	55.054	-0.173	0.168
-664.003	-99.475	-0.456	0.116
-662.989	-200.000	0.003	0.088
-661.974	800.000	0.041	-0.147
-660.959	-125.186	0.302	-0.047
-659.945	109.417	-0.054	-0.065
-658.930	-200.000	-0.058	0.565
-657.916	124.401	-0.221	0.280
-656.901	28.155	-0.209	-0.178
-655.886	298.868	0.121	-0.225
-654.872	-200.000	-0.005	-0.281
-653.857	108.921	0.100	0.120
-652.843	-76.661	-0.110	-0.039
-651.828	115.436	0.159	-0.196
-650.814	800.000	0.031	0.100
-649.799	94.177	0.113	-0.129
-648.784	106.240	-0.196	-0.234
-647.770	-200.000	-0.000	-0.096
-646.755	-140.744	0.126	0.013
-645.741	176.644	-0.131	0.191
-644.726	800.000	-0.065	-0.234
-643.711	-106.613	0.233	0.052
-642.697	-135.148	-0.169	0.020
-641.682	-82.934	0.254	-0.083
-640.668	-200.000	0.007	0.211
-639.653	-98.046	-0.185	-0.048
-638.638	-148.215	-0.253	-0.021
-637.624	-71.555	0.099	0.037
-636.609	24.035	0.252	-0.209
-635.595	-200.000	0.024	-0.129
-634.580	800.000	-0.010	-0.037
-633.565	800.000	0.034	-0.125
-632.551	-69.975	-0.356	-0.136
-631.536	-200.000	0.012	0.101
-630.522	-123.759	-0.016	0.003
-629.507	-93.081	-0.209	-0.059
-628.492	-28.976	-0.091	-0.053
-627.478	-119.142	0.187	-0.033
-626.463	-200.000	0.022	-0.133
-625.449	800.000	0.050	-0.141
-624.434	6.736	0.264	-0.198
-623.419	2.542	-0.272	0.198
-622.405	-200.000	0.031	-0.167
-621.390	217.034	-0.093	-0.149
-620.376	-21.035	0.235	-0.144
-619.361	-200.000	0.050	0.244
-618.346	-110.456	-0.489	0.102
-617.332	211.040	0.084	0.132
-616.317	149.928	0.190	0.259
-615.303	-123.115	-0.282	-0.045
-614.288	251.697	0.102	-0.174
-613.273	2.748	-0.070	-0.051
-612.259	134.007	-0.139	-0.181
-611.244	800.000	0.082	0.295
-610.230	457.451	-0.096	0.214
-609.215	-118.369	0.162	-0.029
-608.201	472.955	-0.101	0.228
-607.186	-200.000	-0.420	0.002
-606.171	171.048	0.068	0.098
-605.157	-69.423	-0.275	0.106
-604.142	-48.500	0.249	0.121
-603.128	800.000	0.055	-0.191
-602.113	89.623	0.309	0.346
-601.098	-200.000	-0.010	-0.200
-600.084	136.591	0.194	0.254
-599.069	1.156	-0.208	0.150
-598.055	132.173	-0.161	-0.208
-597.040	-77.811	-0.176	0.061
-596.025	45.702	0.098	-0.091
-595.011	-56.953	-0.151	-0.067
-593.996	-79.233	0.254	0.086
-592.982	-80.173	0.194	0.065
-591.967	54.921	0.172	0.167
-590.952	-67.286	-0.441	-0.174
-589.938	232.967	-0.225	-0.371
-588.923	427.500	0.113	0.245
-587.909	800.000	0.018	-0.076
-586.894	800.000	0.104	0.327
-585.879	-69.957	-0.107	0.041
-584.865	113.972	0.103	0.125
-583.850	97.334	0.321	0.370
-582.836	-75.797	-0.286	-0.102
-581.821	-140.468	-0.211	-0.022
-580.806	346.761	-0.105	-0.208
-579.792	44.379	-0.166	-0.153
-578.777	7.449	0.238	-0.179
-577.763	-71.914	-0.192	0.071
-576.748	-174.740	0.268	0.008
-575.733	-65.892	0.155	-0.062
-574.719	172.600	-0.209	0.301
-573.704	-86.686	-0.039	-0.012
-572.690	410.111	0.172	-0.366
-571.675	107.562	0.200	-0.238
-570.661	40.133	0.074	-0.067
-569.646	412.123	0.062	-0.131
-568.631	-54.251	0.110	0.050
-567.617	-63.825	-0.328	-0.135
-566.602	676.742	-0.087	-0.226
-565.588	-140.811	0.182	0.019
-564.573	675.750	0.090	-0.234
-563.558	-19.954	0.359	-0.222
-562.544	-164.321	-0.305	0.014
-561.529	-116.873	-0.110	-0.020
-560.515	-69.371	-0.079	0.030
-559.500	-3.297	0.211	0.147
-558.485	800.000	0.075	0.226
-557.471	-16.615	0.165	0.104
-556.456	800.000	-0.103	-0.358
-555.442	-28.694	0.046	-0.027
-554.427	-149.135	0.134	0.011
-553.412	-45.318	0.229	-0.114
-552.398	-17.116	-0.258	-0.163
-551.383	800.000	0.074	-0.207
-550.369	800.000	-0.008	0.024
-549.354	-49.172	0.150	0.072
-548.339	-56.294	0.194	-0.086
-547.325	336.182	-0.155	0.300
-546.310	-41.483	-0.401	0.207
-545.296	-118.912	-0.021	-0.004
-544.281	-200.000	-0.020	-0.182
-543.266	160.889	0.121	-0.169
-542.252	-99.861	0.230	-0.058
-541.237	58.590	0.150	-0.147
-540.223	-129.708	-0.491	-0.068
-539.208	-167.480	-0.172	0.007
-538.193	-56.483	-0.069	-0.031
-537.179	-110.118	-0.008	0.002
-536.164	-105.506	-0.212	-0.048
-535.150	26.691	0.258	0.217
-534.135	37.626	-0.215	-0.191
-533.121	287.864	-0.007	-0.013
-532.106	79.796	-0.099	0.106
-531.091	14.052	0.153	-0.119
-530.077	-100.437	-0.058	-0.014
-529.062	211.433	-0.076	-0.119
-528.048	-44.764	0.200	0.100
-527.033	-12.221	0.010	0.006
-526.018	35.979	0.078	-0.068
-525.004	-200.000	-0.014	0.237
-523.989	-123.797	0.044	0.007
-522.975	-200.000	0.012	-0.127
-521.960	137.670	0.136	-0.178
-520.945	800.000	-0.037	-0.137
-519.931	-60.626	0.132	-0.056
-518.916	22.510	-0.267	-0.219
-517.902	-200.000	-0.083	0.403
-516.887	-135.022	-0.234	-0.028
-515.872	544.662	0.185	-0.441
-514.858	-25.072	0.134	0.080
-513.843	-144.801	-0.185	0.017
-512.829	-71.984	-0.253	-0.094
-511.814	-200.000	-0.005	0.151
-510.799	123.456	0.223	-0.279
-509.785	-50.344	-0.108	-0.051
-508.770	-174.860	0.093	-0.003
-507.756	-118.262	-0.252	-0.045
-506.741	-16.304	-0.339	-0.215
-505.726	288.007	0.123	0.222
-504.712	-0.302	-0.283	-0.201
-503.697	245.114	0.054	0.091
-502.683	58.606	0.205	0.201
-501.668	-200.000	0.055	-0.396
-500.653	-200.000	0.023	0.156
-499.639	-50.071	-0.239	0.113
-498.624	22.810	0.069	0.056
-497.610	-200.000	0.040	-0.232
-496.595	84.144	-0.309	0.338
-495.581	-200.000	0.015	0.358
-494.566	-33.295	-0.190	-0.105
-493.551	-90.077	0.268	-0.078
-492.537	485.188	-0.024	-0.054
-491.522	46.313	0.114	-0.106
-490.508	-176.726	0.276	0.007
-489.493	-200.000	0.025	0.364
-488.478	-89.713	0.055	-0.016
-487.464	-16.199	-0.192	-0.122
-486.449	-130.292	0.289	0.039
-485.435	156.545	0.186	0.256
-484.420	302.722	-0.079	-0.146
-483.405	9.071	0.079	-0.060
-482.391	219.003	-0.113	0.181
-481.376	-126.183	0.226	-0.034
-480.362	72.758	-0.176	-0.183
-479.347	29.285	0.179	0.152
-478.332	566.281	0.063	0.153
-477.318	800.000	-0.031	-0.121
-476.303	61.279	-0.248	-0.246
-475.289	-136.194	-0.349	0.041
-474.274	-29.381	-0.107	-0.061
-473.259	283.661	0.181	-0.325
-472.245	-80.950	-0.043	-0.014
-471.230	26.596	0.392	0.327
-470.216	101.898	0.169	0.197
-469.201	48.994	-0.203	0.190
-468.186	800.000	-0.105	0.312
-467.172	-147.245	0.345	0.029
-466.157	510.746	0.096	0.223
-465.143	-24.159	-0.038	0.023
-464.128	175.312	-0.209	-0.302
-463.113	-115.516	0.325	-0.061
-462.099	83.023	0.143	0.155
-461.084	512.471	-0.170	-0.395
-460.070	-12.277	-0.269	-0.176
-459.055	368.389	0.102	-0.207
-458.040	800.000	-0.027	-0.116
-457.026	-76.430	-0.232	-0.081
-456.011	-1.820	-0.256	-0.180
-454.997	11.637	-0.260	0.199
-453.982	-200.000	0.001	0.255
-452.968	-158.149	0.318	0.019
-451.953	167.043	-0.103	0.145
-450.938	165.589	-0.046	-0.065
-449.924	-200.000	-0.001	0.048
-448.909	22.419	-0.225	-0.183
-447.895	-38.563	0.265	0.140
-446.880	561.040	-0.126	-0.303
-445.865	38.032	-0.091	0.081
-444.851	182.201	-0.119	0.175
-443.836	2.638	-0.044	-0.032
-442.822	-149.796	0.087	-0.007
-441.807	53.331	-0.045	0.043
-440.792	502.557	0.099	0.228
-439.778	657.675	-0.044	0.113
-438.763	103.349	0.047	-0.055
-437.749	-102.234	0.080	-0.019
-436.734	-151.003	-0.384	-0.029
-435.719	19.781	0.141	-0.113
-434.705	-200.000	-0.026	-0.136
-433.690	-22.123	-0.215	-0.130
-432.676	-69.473	-0.061	0.024
-431.661	-85.932	-0.303	0.093
-430.646	-53.351	0.196	-0.090
-429.632	-122.839	-0.071	-0.011
-428.617	-132.208	-0.089	0.011
-427.603	254.777	0.214	-0.366
-426.588	-172.943	-0.157	-0.005
-425.573	-200.000	-0.034	-0.176
-424.559	-140.029	0.223	-0.023
-423.544	-68.159	0.239	-0.093
-422.530	-66.879	0.222	0.088
-421.515	311.600	-0.048	-0.089
-420.500	-200.000	0.030	-0.196
-419.486	434.014	0.127	-0.276
-418.471	-95.988	0.333	-0.088
-417.457	800.000	0.077	-0.254
-416.442	56.001	0.187	-0.180
-415.428	78.896	-0.258	0.275
-414.413	239.436	0.068	0.113
-413.398	800.000	-0.022	0.091
-412.384	-94.174	-0.116	-0.032
-411.369	-162.012	-0.155	0.008
-410.355	-44.604	0.050	0.025
-409.340	800.000	0.062	-0.236
-408.325	800.000	-0.069	0.190
-407.311	140.445	0.175	0.231
-406.296	-147.343	0.231	-0.020
-405.282	800.000	-0.039	0.163
-404.267	-200.000	-0.055	0.436
-403.252	-200.000	0.005	0.149
-402.238	-200.000	0.030	0.370
-401.223	800.000	0.054	-0.218
-400.209	-200.000	-0.043	0.328
-399.194	-72.376	0.262	0.097
-398.179	-79.259	-0.047	-0.016
-397.165	539.414	0.126	-0.299
-396.150	38.658	0.166	-0.147
-395.136	45.843	0.271	0.249
-394.121	-49.030	0.324	-0.155
-393.106	800.000	0.124	-0.406
-392.092	-81.528	0.201	-0.066
-391.077	800.000	-0.039	0.123
-390.063	-67.558	-0.163	-0.064
-389.048	-112.438	0.044	-0.009
-388.033	0.259	-0.155	-0.110
-387.019	174.426	0.102	0.147
-386.004	-112.600	0.204	-0.040
-384.990	346.849	0.074	0.144
-383.975	800.000	0.095	0.260
-382.960	108.291	0.148	0.176
-381.946	377.930	0.153	0.311
-380.931	-93.130	0.062	0.017
-379.917	6.544	-0.123	0.091
-378.902	138.399	0.135	-0.176
-377.888	-5.537	0.148	-0.101
-376.873	-200.000	-0.050	0.230
-375.858	800.000	0.075	0.211
-374.844	-200.000	-0.031	0.272
-373.829	144.668	0.273	-0.363
-372.815	-200.000	0.002	-0.189
-371.800	-200.000	-0.034	-0.285
-370.785	-119.755	-0.215	0.037
-369.771	423.946	0.058	-0.125
-368.756	-200.000	-0.008	-0.042
-367.742	800.000	0.024	0.100
-366.727	800.000	-0.114	0.480
-365.712	-58.032	-0.316	-0.137
-364.698	-25.809	0.198	0.116
-363.683	-200.000	0.019	0.211
-362.669	160.896	0.040	-0.056
-361.654	-49.406	-0.140	0.067
-360.639	261.586	0.160	-0.276
-359.625	15.723	0.037	-0.029
-358.610	396.801	0.082	0.170
-357.596	542.186	0.059	0.141
-356.581	-25.826	-0.081	-0.047
-355.566	-11.989	0.256	-0.167
-354.552	115.508	0.099	-0.120
-353.537	472.048	-0.049	0.109
-352.523	109.227	0.070	0.084
-351.508	214.957	-0.173	-0.272
-350.493	64.187	0.061	-0.061
-349.479	222.657	0.095	0.152
-348.464	-15.895	-0.246	-0.156
-347.450	-200.000	0.011	0.121
-346.435	176.373	0.145	0.210
-345.420	58.312	-0.090	-0.087
-344.406	-91.092	-0.213	0.061
-343.391	190.141	0.090	-0.135
-342.377	60.738	-0.083	0.081
-341.362	-9.110	0.115	0.077
-340.348	175.052	0.110	0.158
-339.333	-200.000	-0.006	0.200
-338.318	-33.173	0.032	-0.018
-337.304	693.510	-0.124	0.323
-336.289	-52.033	-0.100	-0.046
-335.275	311.200	0.022	-0.041
-334.260	-129.777	-0.240	-0.033
-333.245	715.226	-0.099	0.260
-332.231	-85.453	-0.127	0.039
-331.216	675.427	-0.040	0.102
-330.202	-26.308	-0.263	-0.153
-329.187	-200.000	0.004	-0.065
-328.172	-175.659	-0.462	0.012
-327.158	193.586	0.113	0.170
-326.143	-151.517	0.475	-0.035
-325.129	386.067	0.074	-0.151
-324.114	-61.519	0.269	0.112
-323.099	480.782	0.086	0.195
-322.085	-16.459	-0.166	0.104
-321.070	432.741	0.062	0.133
-320.056	-200.000	-0.064	0.316
-319.041	-22.940	-0.235	0.141
-318.026	-200.000	-0.002	-0.141
-317.012	800.000	0.104	-0.378
-315.997	-74.644	-0.195	-0.070
-314.983	36.753	-0.052	0.045
-313.968	208.772	0.115	0.179
-312.953	450.484	-0.022	-0.049
-311.939	-130.026	-0.070	0.010
-310.924	79.217	-0.331	0.353
-309.910	-200.000	0.086	0.411
-308.895	-24.772	0.147	-0.087
-307.880	32.879	0.183	0.157
-306.866	275.417	-0.088	-0.155
-305.851	-200.000	-0.037	-0.202
-304.837	76.100	-0.303	0.318
-303.822	800.000	0.068	-0.228
-302.807	-200.000	-0.073	-0.346
-301.793	-200.000	0.012	-0.061
-300.778	800.000	-0.059	0.194
-299.764	-27.096	0.126	0.073
-298.749	-200.000	-0.041	-0.462
-297.735	-200.000	0.034	0.232
-296.720	107.921	-0.067	-0.080
-295.705	-200.000	-0.017	-0.115
-294.691	-137.207	0.301	0.034
-293.676	-78.709	-0.255	0.086
-292.662	28.184	0.404	0.339
-291.647	-200.000	-0.053	0.321
-290.632	133.622	-0.170	-0.218
-289.618	-85.887	-0.268	-0.082
-288.603	-74.435	-0.106	-0.038
-287.589	25.402	0.115	0.095
-286.574	-93.461	0.057	-0.016
-285.559	-44.711	0.319	0.158
-284.545	-143.183	0.288	0.028
-283.530	-38.030	-0.315	-0.166
-282.516	-100.851	0.298	-0.073
-281.501	-200.000	0.007	-0.249
-280.486	63.771	-0.087	-0.087
-279.472	-200.000	0.036	0.234
-278.457	800.000	-0.097	0.345
-277.443	147.800	-0.176	0.235
-276.428	-79.763	-0.092	0.031
-275.413	-200.000	0.017	-0.299
-274.399	-87.014	-0.074	-0.022
-273.384	-200.000	0.024	0.114
-272.370	-20.077	-0.175	0.107
-271.355	-28.021	-0.169	-0.097
-270.340	-200.000	0.024	-0.175
-269.326	-200.000	-0.041	-0.220
-268.311	800.000	0.076	0.271
-267.297	-50.395	-0.178	0.083
-266.282	69.429	-0.106	0.108
-265.267	-80.987	0.142	-0.047
-264.253	800.000	-0.012	-0.044
-263.238	800.000	-0.132	0.377
-262.224	21.592	0.186	-0.150
-261.209	67.878	-0.089	-0.091
-260.195	172.267	-0.101	0.144
-259.180	503.664	0.058	0.133
-258.165	26.004	-0.252	0.208
-257.151	54.748	0.100	0.096
-256.136	-41.515	0.074	-0.038
-255.122	-200.000	-0.035	0.184
-254.107	-50.469	-0.074	-0.035
-253.092	25.999	0.269	-0.222
-252.078	210.601	-0.107	0.167
-251.063	760.858	0.092	0.248
-250.049	-1.574	-0.091	0.064
-249.034	-200.000	0.020	0.427
-248.019	59.603	-0.199	-0.194
-247.005	-200.000	-0.039	-0.366
-245.990	800.000	-0.050	-0.151
-244.976	800.000	0.067	-0.255
-243.961	-200.000	-0.025	0.166
-242.946	158.483	0.191	0.262
-241.932	-200.000	-0.021	-0.150
-240.917	-30.899	0.098	0.055
-239.903	49.300	0.145	0.135
-238.888	285.116	0.101	0.181
-237.873	202.178	-0.109	-0.166
-236.859	-200.000	-0.083	-0.375
-235.844	8.443	-0.209	-0.156
-234.830	11.487	0.139	-0.106
-233.815	435.244	-0.080	0.173
-232.800	-156.380	-0.234	-0.014
-231.786	-98.136	0.092	0.023
-230.771	-153.691	-0.145	-0.010
-229.757	211.284	0.060	0.093
-228.742	-117.958	0.342	0.061
-227.727	-111.714	-0.086	0.017
-226.713	70.630	-0.056	-0.057
-225.698	-140.882	-0.167	-0.017
-224.684	-200.000	-0.010	-0.286
-223.669	52.259	-0.125	0.118
-222.655	-135.337	0.245	0.029
-221.640	-43.533	-0.172	-0.086
-220.625	298.262	-0.035	0.064
-219.611	178.810	-0.117	0.169
-218.596	-200.000	0.013	-0.063
-217.582	122.320	0.235	0.291
-216.567	11.622	0.127	0.097
-215.552	258.378	-0.102	0.173
-214.538	-64.048	0.137	0.055
-213.523	36.432	0.126	0.110
-212.509	-162.268	-0.083	-0.004
-211.494	47.293	0.160	-0.147
-210.479	21.188	0.263	0.211
-209.465	-41.485	0.158	-0.080
-208.450	239.460	-0.034	-0.056
-207.436	255.248	-0.155	0.263
-206.421	-13.671	-0.051	-0.033
-205.406	-200.000	-0.003	0.082
-204.392	-37.545	-0.099	0.052
-203.377	-95.625	0.330	0.087
-202.363	168.057	-0.124	-0.174
-201.348	-167.070	-0.156	0.006
-200.333	-139.031	0.350	0.037
-199.319	-116.354	0.094	0.017
-198.304	-200.000	0.008	-0.231
-197.290	-117.371	0.353	-0.063
-196.275	49.630	0.171	0.159
-195.260	284.880	0.100	-0.178
-194.246	-36.315	0.165	0.088
-193.231	800.000	0.039	0.145
-192.217	92.566	0.107	-0.119
-191.202	109.609	-0.109	0.129
-190.187	40.692	-0.201	0.179
-189.173	-25.697	0.171	0.100
-188.158	51.375	0.086	0.081
-187.144	18.375	0.071	-0.056
-186.129	605.942	-0.181	0.446
-185.114	-27.186	0.290	-0.167
-184.100	76.636	-0.475	-0.497
-183.085	291.754	-0.108	-0.195
-182.071	99.157	-0.143	-0.163
-181.056	-112.821	0.055	0.011
-180.042	49.299	0.176	-0.164
-179.027	395.520	-0.127	0.261
-178.012	-200.000	-0.308	0.001
-176.998	-0.096	0.183	0.128
-175.983	-0.910	0.321	-0.224
-174.969	277.867	-0.227	-0.398
-173.954	-200.000	0.053	0.235
-172.939	174.484	-0.135	-0.193
-171.925	-200.000	-0.010	-0.205
-170.910	-6.502	0.170	0.115
-169.896	-200.000	0.009	-0.065
-168.881	-25.537	-0.262	-0.152
-167.866	-200.000	-0.002	0.069
-166.852	157.581	-0.132	-0.181
-165.837	-157.133	-0.244	-0.015
-164.823	-200.000	-0.067	-0.339
-163.808	-118.123	0.084	-0.015
-162.793	34.425	0.264	-0.227
-161.779	-6.126	-0.247	0.167
-160.764	283.857	-0.063	-0.111
-159.750	111.612	-0.061	-0.072
-158.735	-200.000	-0.001	-0.396
-157.720	36.770	-0.109	-0.095
-156.706	800.000	0.010	-0.030
-155.691	-57.608	-0.114	0.049
-154.677	119.143	0.098	0.120
-153.662	-98.353	-0.151	-0.038
-152.647	482.308	0.095	0.213
-151.633	30.420	-0.111	0.093
-150.618	274.784	-0.130	0.227
-149.604	372.232	-0.096	-0.193
-148.589	313.157	-0.083	-0.153
-147.574	-200.000	-0.042	-0.299
-146.560	-143.440	-0.499	-0.047
-145.545	472.651	-0.062	-0.139
-144.531	41.449	-0.270	-0.241
-143.516	36.123	0.142	-0.123
-142.502	-107.533	0.148	0.032
-141.487	94.626	-0.231	-0.259
-140.472	-187.049	-0.047	0.001
-139.458	-200.000	-0.007	0.090
-138.443	-62.426	0.135	0.055
-137.429	800.000	-0.012	-0.035
-136.414	-200.000	-0.023	0.465
-135.399	-95.749	-0.129	-0.034
-134.385	91.380	0.103	0.114
-133.370	-68.891	-0.194	-0.074
-132.356	-131.471	-0.128	0.017
-131.341	-200.000	0.094	-0.501
-130.326	-200.000	0.014	-0.099
-129.312	-186.153	0.159	0.002
-128.297	129.968	0.129	0.162
-127.283	31.757	0.169	-0.143
-126.268	350.499	-0.089	0.173
-125.253	-200.000	-0.026	-0.284
-124.239	8.906	-0.169	-0.126
-123.224	-78.739	0.106	-0.036
-122.210	-160.746	0.188	0.010
