DTS Sentinel unit serial number:	SN413079Multiplexer serial number:	ORYXHardware model number:	OX4-SRSoftware version number:	ORYX F/W v4.00 Oryx Data Collector v3.7.2.0data status	okinstallation	princeton_trtdifferential loss correction	single-endedforward channel	channel 1reverse channel	N/Adate	2019/09/13time	12:18:35forward acquisition time	60.00reverse acquisition time	0.00gamma	496.2192k internal	0.2309k external	0.2309temperature offset calibration	1.0172default loss term (dB/km)	0.3790temperature slope calibration	1.0000multiplexer offset coefficient	1.0000multiplexer slope coefficient	1.0000fibre end	0.00T internal ref (°C)	34.06T ext. ref 1 (°C)	4.63T ext. ref 2 (°C)	30.87length (m)	temperature (°C)	Stokes	anti-Stokes-747.200	-34.496	0.197	0.110
-746.185	-110.288	-0.358	0.076
-745.171	-76.191	0.352	-0.126
-744.156	-200.000	-0.002	-0.202
-743.142	105.304	0.051	0.062
-742.127	6.995	-0.099	-0.075
-741.112	-7.238	0.152	0.105
-740.098	163.501	-0.074	0.106
-739.083	50.540	0.049	0.047
-738.069	148.594	-0.073	-0.101
-737.054	349.582	0.204	-0.410
-736.039	17.944	-0.102	-0.082
-735.025	16.035	0.299	0.239
-734.010	67.190	-0.410	-0.424
-732.996	-200.000	-0.012	-0.168
-731.981	-129.981	0.043	0.006
-730.966	1.665	0.139	-0.102
-729.952	-154.944	-0.292	0.020
-728.937	118.057	-0.247	-0.309
-727.923	-132.745	-0.125	0.016
-726.908	-182.987	0.113	0.002
-725.894	27.331	0.190	-0.162
-724.879	75.566	0.082	0.088
-723.864	-106.274	0.332	-0.076
-722.850	244.004	-0.244	-0.417
-721.835	389.291	-0.094	-0.198
-720.821	-5.315	-0.189	0.132
-719.806	3.272	0.280	-0.207
-718.791	6.881	-0.206	-0.156
-717.777	-74.700	0.123	0.045
-716.762	-50.456	-0.115	0.055
-715.748	336.519	-0.195	0.384
-714.733	130.736	-0.082	-0.107
-713.718	47.073	-0.129	-0.122
-712.704	192.253	0.089	0.137
-711.689	-94.774	-0.368	0.101
-710.675	800.000	0.062	-0.262
-709.660	77.729	-0.237	-0.256
-708.645	314.004	-0.124	0.237
-707.631	-12.040	0.129	0.085
-706.616	-144.213	0.444	-0.042
-705.602	-68.619	-0.201	0.079
-704.587	-50.658	0.131	0.063
-703.572	800.000	0.055	0.179
-702.558	-134.277	0.383	0.048
-701.543	800.000	-0.073	0.303
-700.529	-200.000	-0.039	-0.374
-699.514	-128.610	-0.159	-0.023
-698.499	-200.000	0.014	0.199
-697.485	326.963	0.086	-0.167
-696.470	-200.000	0.028	-0.248
-695.456	37.889	0.157	-0.142
-694.441	109.955	-0.038	-0.046
-693.426	23.652	0.203	0.169
-692.412	-116.410	0.272	0.051
-691.397	-177.785	0.160	-0.004
-690.383	-23.922	0.277	-0.168
-689.368	92.335	0.068	-0.078
-688.354	-51.393	0.158	-0.075
-687.339	-76.061	0.279	-0.100
-686.324	800.000	-0.080	-0.245
-685.310	7.697	-0.195	0.148
-684.295	45.565	-0.071	0.066
-683.281	-200.000	0.039	-0.179
-682.266	-89.739	-0.496	-0.147
-681.251	-56.855	0.153	-0.068
-680.237	-161.357	-0.315	-0.016
-679.222	-84.129	0.305	0.098
-678.208	-0.782	0.099	0.071
-677.193	-200.000	0.044	-0.196
-676.178	-200.000	-0.028	-0.298
-675.164	-200.000	0.030	-0.285
-674.149	-200.000	-0.024	0.162
-673.135	-91.541	-0.319	-0.092
-672.120	-200.000	0.039	-0.332
-671.105	369.683	0.122	-0.251
-670.091	-46.292	0.057	-0.028
-669.076	338.537	-0.094	0.185
-668.062	800.000	-0.128	-0.369
-667.047	67.139	0.120	-0.124
-666.032	-200.000	0.021	0.256
-665.018	157.577	0.168	0.236
-664.003	90.629	-0.084	0.096
-662.989	-107.634	0.226	-0.050
-661.974	83.429	-0.031	0.034
-660.959	-200.000	0.091	0.497
-659.945	133.359	0.181	0.238
-658.930	78.159	0.016	0.017
-657.916	-37.945	0.260	-0.140
-656.901	64.509	0.039	-0.040
-655.886	-22.566	-0.211	0.129
-654.872	-86.412	0.136	-0.042
-653.857	-54.347	-0.158	0.073
-652.843	-94.093	-0.029	0.008
-651.828	-38.213	0.444	-0.238
-650.814	118.145	-0.152	0.189
-649.799	-65.163	-0.281	-0.115
-648.784	288.970	-0.225	-0.413
-647.770	-115.163	-0.208	-0.040
-646.755	10.824	-0.166	-0.128
-645.741	-200.000	0.032	-0.195
-644.726	87.358	0.088	0.098
-643.711	215.398	-0.084	0.135
-642.697	800.000	0.026	-0.108
-641.682	46.577	-0.152	-0.143
-640.668	22.587	0.178	0.148
-639.653	202.207	0.118	-0.184
-638.638	273.209	-0.151	0.270
-637.624	105.857	0.087	0.105
-636.609	126.730	0.134	0.171
-635.595	800.000	-0.038	0.154
-634.580	89.238	0.219	0.247
-633.565	176.357	-0.111	0.163
-632.551	-118.700	-0.404	0.072
-631.536	183.210	-0.071	-0.106
-630.522	117.521	0.044	0.055
-629.507	7.765	-0.290	-0.220
-628.492	800.000	-0.069	0.199
-627.478	-61.822	0.180	0.076
-626.463	66.153	-0.052	-0.053
-625.449	35.696	0.062	-0.055
-624.434	81.432	0.136	-0.148
-623.419	-200.000	-0.001	0.171
-622.405	-28.659	0.475	-0.276
-621.390	418.394	0.041	-0.088
-620.376	-157.899	0.272	-0.016
-619.361	-64.585	0.277	0.114
-618.346	-49.493	-0.199	0.096
-617.332	298.315	0.100	-0.187
-616.317	111.241	-0.072	0.088
-615.303	-56.435	0.338	-0.152
-614.288	575.662	0.118	0.291
-613.273	800.000	-0.026	0.108
-612.259	-71.732	0.198	0.075
-611.244	-143.020	0.123	0.012
-610.230	-61.170	0.163	0.069
-609.215	-200.000	0.027	-0.168
-608.201	800.000	0.168	0.525
-607.186	179.688	-0.141	-0.209
-606.171	-103.643	0.187	-0.044
-605.157	182.283	0.056	-0.083
-604.142	2.688	0.198	0.145
-603.128	800.000	0.031	-0.126
-602.113	-200.000	-0.020	-0.171
-601.098	-200.000	-0.016	-0.288
-600.084	652.540	0.044	0.114
-599.069	-165.576	-0.354	0.016
-598.055	12.231	0.160	0.124
-597.040	-200.000	0.041	0.374
-596.025	142.303	-0.111	0.149
-595.011	-83.866	0.048	-0.015
-593.996	-25.612	0.118	-0.070
-592.982	-114.091	-0.484	-0.095
-591.967	52.050	-0.297	0.286
-590.952	-200.000	0.033	0.270
-589.938	-200.000	-0.009	-0.122
-588.923	-145.035	0.295	-0.027
-587.909	109.364	0.368	0.445
-586.894	47.643	-0.041	-0.039
-585.879	83.958	0.082	0.090
-584.865	7.759	-0.293	-0.222
-583.850	-200.000	-0.035	0.279
-582.836	711.482	0.037	0.099
-581.821	71.808	-0.187	0.196
-580.806	-25.303	-0.123	0.073
-579.792	-200.000	-0.027	-0.295
-578.777	49.465	0.178	0.169
-577.763	800.000	-0.019	0.061
-576.748	-97.212	-0.037	-0.010
-575.733	12.954	0.232	-0.181
-574.719	-200.000	0.016	-0.161
-573.704	66.122	0.071	0.072
-572.690	800.000	-0.111	-0.412
-571.675	-143.586	-0.231	0.022
-570.661	-200.000	0.004	-0.099
-569.646	-11.130	-0.245	-0.163
-568.631	-12.821	0.100	0.066
-567.617	199.344	0.073	0.113
-566.602	69.768	-0.153	0.160
-565.588	-169.098	-0.077	0.003
-564.573	-137.597	0.351	0.040
-563.558	-35.651	-0.255	-0.139
-562.544	17.205	-0.149	-0.120
-561.529	-166.852	0.237	-0.010
-560.515	570.116	0.039	-0.097
-559.500	308.947	-0.104	-0.196
-558.485	-98.272	0.111	0.029
-557.471	-200.000	-0.030	0.414
-556.456	800.000	0.058	0.188
-555.442	-200.000	-0.014	-0.120
-554.427	-200.000	-0.011	-0.089
-553.412	578.450	0.075	0.185
-552.398	800.000	0.034	0.146
-551.383	800.000	0.063	-0.184
-550.369	-200.000	-0.032	-0.280
-549.354	-62.286	-0.262	0.110
-548.339	-200.000	0.266	0.000
-547.325	273.845	0.141	-0.251
-546.310	-112.868	-0.197	0.039
-545.296	-164.509	-0.208	-0.010
-544.281	196.334	0.180	-0.276
-543.266	88.801	0.196	0.220
-542.252	800.000	-0.031	0.111
-541.237	-82.100	0.268	-0.088
-540.223	-134.868	0.070	0.009
-539.208	154.138	-0.136	-0.188
-538.193	800.000	0.042	-0.162
-537.179	-200.000	-0.010	0.160
-536.164	-200.000	0.012	-0.141
-535.150	-50.471	-0.167	0.079
-534.135	-69.109	-0.090	0.035
-533.121	-70.484	0.113	-0.043
-532.106	13.310	-0.297	0.232
-531.091	-82.826	-0.024	-0.008
-530.077	800.000	0.107	0.427
-529.062	-200.000	-0.004	0.042
-528.048	-50.094	-0.130	-0.062
-527.033	800.000	0.104	-0.399
-526.018	69.308	-0.195	-0.202
-525.004	-173.316	-0.197	0.006
-523.989	442.434	-0.116	-0.256
-522.975	30.544	0.334	-0.287
-521.960	498.042	0.052	0.120
-520.945	162.062	0.167	-0.235
-519.931	-67.978	0.084	-0.033
-518.916	357.225	0.168	0.337
-517.902	800.000	-0.018	0.081
-516.887	800.000	0.078	-0.248
-515.872	66.229	-0.069	0.071
-514.858	403.118	-0.209	0.442
-513.843	-200.000	-0.019	0.271
-512.829	121.474	-0.263	-0.330
-511.814	210.636	0.138	-0.218
-510.799	800.000	0.059	-0.208
-509.785	-200.000	-0.026	0.132
-508.770	200.849	-0.139	-0.215
-507.756	-37.756	-0.310	-0.166
-506.741	8.436	-0.193	-0.146
-505.726	313.003	-0.103	-0.195
-504.712	-131.123	0.232	0.031
-503.697	-200.000	0.111	0.583
-502.683	101.467	-0.171	-0.201
-501.668	91.152	0.123	0.139
-500.653	-50.252	-0.145	0.069
-499.639	55.037	0.101	0.098
-498.624	150.636	-0.098	-0.133
-497.610	28.427	0.057	-0.049
-496.595	136.964	-0.130	0.171
-495.581	800.000	0.041	-0.170
-494.566	205.073	0.164	0.256
-493.551	-200.000	-0.022	0.195
-492.537	-22.629	0.130	-0.079
-491.522	29.362	-0.097	-0.083
-490.508	-171.684	-0.432	-0.014
-489.493	-43.188	0.052	-0.026
-488.478	-141.397	0.113	-0.011
-487.464	557.115	0.133	-0.323
-486.449	-82.986	0.078	0.025
-485.435	-128.736	0.142	-0.020
-484.420	358.717	-0.052	-0.104
-483.405	568.068	0.066	-0.161
-482.391	-137.953	0.363	-0.041
-481.376	-176.209	-0.147	-0.004
-480.362	-200.000	0.058	0.434
-479.347	103.154	-0.114	-0.134
-478.332	127.072	0.117	-0.150
-477.318	-111.952	-0.424	-0.086
-476.303	-99.887	-0.460	0.116
-475.289	800.000	-0.076	0.243
-474.274	240.881	-0.067	-0.112
-473.259	49.876	-0.212	-0.201
-472.245	-133.905	0.127	0.016
-471.230	-103.183	-0.086	-0.021
-470.216	-150.433	-0.229	-0.018
-469.201	137.984	0.238	-0.314
-468.186	127.206	0.148	-0.189
-467.172	-200.000	-0.006	-0.110
-466.157	159.168	0.178	-0.249
-465.143	-200.000	0.056	0.551
-464.128	-200.000	-0.016	-0.135
-463.113	117.785	0.190	-0.235
-462.099	-85.483	0.208	-0.065
-461.084	-41.379	-0.057	0.029
-460.070	-200.000	-0.033	-0.226
-459.055	-120.685	0.215	0.036
-458.040	-17.898	-0.015	-0.009
-457.026	52.306	0.149	0.143
-456.011	50.107	0.111	-0.105
-454.997	-64.264	0.034	0.014
-453.982	136.275	-0.141	0.185
-452.968	-33.443	0.213	0.118
-451.953	96.451	0.181	0.208
-450.938	-93.100	0.311	-0.087
-449.924	1.031	-0.192	-0.139
-448.909	800.000	-0.051	0.173
-447.895	379.943	-0.014	-0.028
-446.880	66.898	0.316	-0.323
-445.865	-76.985	-0.148	0.052
-444.851	-30.315	0.176	0.101
-443.836	135.166	-0.076	-0.099
-442.822	-200.000	0.037	-0.240
-441.807	-200.000	-0.021	0.454
-440.792	279.486	-0.179	0.321
-439.778	800.000	0.023	-0.077
-438.763	554.291	-0.086	-0.207
-437.749	-200.000	0.355	0.001
-436.734	174.703	0.068	0.099
-435.719	-94.239	0.207	0.057
-434.705	33.556	0.156	0.136
-433.690	67.783	0.021	0.021
-432.676	187.546	-0.163	-0.245
-431.661	800.000	0.017	-0.052
-430.646	-157.014	0.239	0.015
-429.632	-200.000	-0.025	0.228
-428.617	-200.000	0.022	0.114
-427.603	105.601	-0.042	-0.049
-426.588	350.949	-0.110	0.218
-425.573	666.353	0.161	-0.416
-424.559	23.167	-0.197	-0.163
-423.544	93.172	-0.192	0.218
-422.530	-106.618	0.158	0.035
-421.515	104.350	-0.301	0.355
-420.500	-200.000	0.031	0.152
-419.486	565.853	-0.073	0.179
-418.471	800.000	0.042	-0.134
-417.457	441.282	0.150	-0.329
-416.442	-131.912	-0.155	-0.020
-415.428	34.212	0.231	0.202
-414.413	112.902	0.077	-0.094
-413.398	-62.937	-0.219	0.091
-412.384	-200.000	0.053	-0.268
-411.369	147.782	0.139	-0.188
-410.355	-19.899	0.324	-0.201
-409.340	-85.514	-0.176	0.055
-408.325	25.679	-0.083	0.069
-407.311	800.000	0.102	-0.289
-406.296	36.887	0.142	-0.126
-405.282	-47.849	-0.175	0.085
-404.267	800.000	-0.083	0.269
-403.252	-77.672	-0.290	-0.101
-402.238	139.096	0.136	-0.180
-401.223	-33.787	0.175	-0.097
-400.209	-43.097	-0.074	-0.037
-399.194	95.625	-0.201	-0.229
-398.179	800.000	0.099	-0.343
-397.165	-200.000	-0.048	-0.241
-396.150	449.591	-0.156	-0.344
-395.136	-200.000	-0.056	-0.300
-394.121	29.976	0.081	-0.069
-393.106	-20.033	-0.029	0.018
-392.092	-117.552	-0.373	-0.068
-391.077	800.000	0.123	-0.382
-390.063	137.066	0.028	0.037
-389.048	-9.693	0.242	0.162
-388.033	41.213	-0.290	0.263
-387.019	4.009	-0.077	0.056
-386.004	-171.332	-0.145	0.005
-384.990	-65.749	0.362	-0.145
-383.975	8.994	0.168	0.127
-382.960	126.329	0.063	-0.080
-381.946	-200.000	0.010	0.183
-380.931	68.409	0.065	0.066
-379.917	644.635	0.075	0.193
-378.902	800.000	0.055	0.212
-377.888	800.000	0.025	0.076
-376.873	122.698	0.125	-0.156
-375.858	-133.587	-0.512	-0.064
-374.844	-200.000	0.037	0.178
-373.829	-200.000	-0.037	-0.240
-372.815	-24.908	-0.253	-0.151
-371.800	-58.394	0.136	-0.059
-370.785	-102.272	0.139	0.033
-369.771	-200.000	0.008	0.355
-368.756	-200.000	-0.013	-0.072
-367.742	-51.151	-0.256	-0.120
-366.727	54.543	-0.041	-0.039
-365.712	34.628	-0.082	-0.072
-364.698	-114.273	-0.214	-0.041
-363.683	-200.000	0.003	0.377
-362.669	-28.127	-0.053	-0.031
-361.654	139.401	-0.057	-0.076
-360.639	-142.043	-0.269	-0.027
-359.625	-200.000	-0.050	0.240
-358.610	800.000	-0.046	-0.186
-357.596	-200.000	-0.028	-0.399
-356.581	-50.978	0.234	0.110
-355.566	800.000	-0.070	-0.295
-354.552	-41.127	0.207	0.107
-353.537	88.921	0.033	-0.037
-352.523	568.174	0.115	0.278
-351.508	113.861	0.078	0.094
-350.493	291.437	-0.075	-0.136
-349.479	79.369	-0.280	0.301
-348.464	-139.477	-0.256	0.027
-347.450	-143.083	-0.130	0.013
-346.435	386.203	0.049	0.102
-345.420	800.000	0.078	0.229
-344.406	800.000	0.039	-0.160
-343.391	112.060	0.274	-0.331
-342.377	129.206	-0.130	-0.167
-341.362	-30.175	-0.074	-0.042
-340.348	95.802	-0.245	-0.280
-339.333	74.973	-0.118	0.124
-338.318	-46.416	0.216	0.106
-337.304	12.745	-0.549	0.424
-336.289	15.409	-0.222	0.175
-335.275	438.079	0.077	0.169
-334.260	-12.595	0.378	0.247
-333.245	385.909	-0.055	-0.114
-332.231	-5.265	-0.068	-0.047
-331.216	-99.458	0.109	-0.027
-330.202	455.134	-0.199	-0.441
-329.187	4.243	-0.282	0.207
-328.172	601.735	-0.100	-0.249
-327.158	800.000	0.118	-0.514
-326.143	765.473	0.071	0.192
-325.129	800.000	0.040	-0.146
-324.114	-92.235	-0.364	0.103
-323.099	-200.000	0.071	0.431
-322.085	118.175	-0.186	0.229
-321.070	-82.092	0.278	-0.091
-320.056	-82.091	0.012	-0.004
-319.041	-1.943	-0.059	0.042
-318.026	242.526	0.134	-0.223
-317.012	36.122	-0.171	-0.150
-315.997	1.541	-0.138	0.099
-314.983	-200.000	-0.003	-0.031
-313.968	-200.000	0.004	0.192
-312.953	49.423	0.210	-0.197
-311.939	485.265	-0.109	0.248
-310.924	-106.795	-0.128	-0.028
-309.910	-200.000	0.014	0.119
-308.895	7.823	-0.109	0.081
-307.880	-161.903	-0.190	0.010
-306.866	305.962	-0.080	-0.148
-305.851	264.166	0.180	-0.313
-304.837	-125.720	0.108	0.016
-303.822	-102.257	-0.193	-0.046
-302.807	800.000	0.042	0.118
-301.793	-200.000	-0.019	-0.105
-300.778	123.985	-0.009	0.011
-299.764	-122.765	-0.112	-0.018
-298.749	-47.685	0.433	0.210
-297.735	0.323	-0.288	-0.205
-296.720	318.879	0.085	0.161
-295.705	-0.500	0.272	-0.193
-294.691	365.930	-0.103	-0.207
-293.676	217.408	0.170	0.271
-292.662	-200.000	-0.014	-0.195
-291.647	308.545	0.081	0.151
-290.632	-87.764	0.220	0.066
-289.618	-44.377	0.081	-0.041
-288.603	800.000	-0.089	-0.288
-287.589	-140.915	0.144	-0.015
-286.574	-47.896	-0.092	-0.045
-285.559	-9.482	-0.301	0.200
-284.545	-169.003	0.131	0.005
-283.530	-47.282	0.043	-0.021
-282.516	554.464	-0.003	0.007
-281.501	-92.909	0.259	-0.072
-280.486	460.607	0.119	0.264
-279.472	33.870	-0.239	-0.207
-278.457	-53.018	0.105	0.048
-277.443	-200.000	0.010	-0.045
-276.428	-56.910	0.211	0.093
-275.413	24.272	-0.070	-0.057
-274.399	-200.000	0.043	-0.212
-273.384	221.086	-0.051	0.082
-272.370	-129.855	0.247	-0.034
-271.355	455.535	-0.021	-0.047
-270.340	637.981	0.046	-0.116
-269.326	59.963	-0.228	-0.225
-268.311	40.033	0.063	0.056
-267.297	-147.670	0.382	0.032
-266.282	800.000	-0.009	-0.027
-265.267	28.458	-0.187	0.158
-264.253	-107.459	-0.088	-0.019
-263.238	800.000	-0.009	-0.028
-262.224	141.259	-0.069	0.091
-261.209	186.036	0.129	-0.191
-260.195	-200.000	-0.034	-0.336
-259.180	111.786	0.158	-0.190
-258.165	-200.000	-0.066	0.397
-257.151	-200.000	-0.015	0.078
-256.136	800.000	0.056	0.218
-255.122	-52.379	-0.114	-0.053
-254.107	-162.155	-0.338	0.017
-253.092	-73.858	0.085	-0.031
-252.078	106.289	-0.179	-0.212
-251.063	800.000	0.041	-0.135
-250.049	-3.650	0.099	0.069
-249.034	-16.358	-0.384	0.243
-248.019	-200.000	-0.051	-0.229
-247.005	-98.607	-0.133	-0.034
-245.990	256.323	0.080	-0.137
-244.976	-200.000	-0.064	-0.298
-243.961	-26.827	0.206	-0.120
-242.946	-37.408	-0.171	-0.091
-241.932	-136.320	-0.066	0.008
-240.917	-200.000	0.036	-0.171
-239.903	-145.574	-0.328	-0.029
-238.888	-22.834	-0.375	0.225
-237.873	-128.249	0.115	0.016
-236.859	15.222	0.466	0.364
-235.844	141.441	-0.137	-0.180
-234.830	524.158	0.167	0.391
-233.815	800.000	0.153	-0.431
-232.800	686.834	-0.029	0.075
-231.786	-200.000	0.041	0.217
-230.771	121.893	0.107	0.134
-229.757	800.000	0.174	0.512
-228.742	183.244	0.038	0.055
-227.727	34.630	0.115	-0.100
-226.713	-200.000	0.014	0.149
-225.698	72.928	-0.122	-0.127
-224.684	9.959	-0.217	0.164
-223.669	15.159	0.212	-0.166
-222.655	-91.485	0.334	0.095
-221.640	-200.000	0.090	-0.413
-220.625	-200.000	0.040	-0.246
-219.611	13.126	-0.175	0.135
-218.596	-54.090	0.282	0.128
-217.582	306.490	0.092	0.171
-216.567	587.806	0.038	-0.092
-215.552	1.331	-0.078	0.056
-214.538	250.974	-0.061	-0.102
-213.523	96.123	0.120	0.136
-212.509	-200.000	0.032	-0.173
-211.494	242.062	-0.102	-0.170
-210.479	80.144	-0.212	-0.227
-209.465	-200.000	-0.075	0.385
-208.450	201.569	-0.043	0.066
-207.436	800.000	-0.039	-0.112
-206.421	800.000	-0.137	-0.477
-205.406	2.533	0.158	0.114
-204.392	-6.356	0.137	-0.093
-203.377	-35.223	-0.068	-0.037
-202.363	494.433	-0.037	-0.084
-201.348	26.229	-0.200	0.166
-200.333	-110.496	0.280	-0.058
-199.319	131.137	0.089	0.114
-198.304	800.000	-0.059	0.201
-197.290	-74.891	0.211	0.075
-196.275	88.217	-0.061	-0.067
-195.260	-28.136	0.072	-0.041
-194.246	82.327	0.176	-0.190
-193.231	-3.338	-0.103	-0.071
-192.217	-200.000	-0.022	-0.251
-191.202	473.179	0.144	0.323
-190.187	229.762	-0.139	0.226
-189.173	206.377	0.171	0.265
-188.158	-200.000	0.011	-0.116
-187.144	-46.725	-0.110	0.054
-186.129	-110.205	0.282	0.058
-185.114	520.294	-0.115	-0.268
-184.100	-10.698	-0.241	0.158
-183.085	34.652	-0.152	0.132
-182.071	-200.000	0.003	-0.125
-181.056	-114.649	0.119	-0.023
-180.042	-200.000	0.045	0.350
-179.027	135.023	0.190	0.245
-178.012	-128.051	-0.158	0.022
-176.998	-51.520	0.169	0.079
-175.983	-200.000	0.091	0.401
-174.969	106.663	-0.167	0.197
-173.954	96.879	0.037	-0.042
-172.939	226.409	0.060	0.097
-171.925	0.008	0.206	-0.146
-170.910	-200.000	-0.018	-0.179
-169.896	-36.585	0.145	0.078
-168.881	-25.735	-0.209	0.122
-167.866	396.245	-0.175	0.363
-166.852	177.658	-0.044	0.064
-165.837	-166.329	0.119	-0.005
-164.823	80.478	0.323	0.346
-163.808	413.808	0.078	-0.164
-162.793	339.454	0.136	0.263
-161.779	-11.329	-0.035	-0.023
-160.764	-51.773	0.081	0.038
-159.750	-84.656	-0.138	0.043
-158.735	-65.301	-0.330	-0.132
-157.720	800.000	0.154	0.458
-156.706	-200.000	0.008	0.230
-155.691	8.147	-0.263	0.196
-154.677	548.211	0.069	0.165
-153.662	-169.823	-0.504	-0.018
-152.647	-96.857	-0.275	0.072
-151.633	-2.117	0.251	-0.175
-150.618	282.320	-0.227	-0.404
-149.604	-190.111	0.169	0.002
-148.589	58.080	0.186	-0.181
-147.574	590.833	-0.066	0.161
-146.560	43.716	0.272	-0.247
-145.545	-43.272	-0.169	0.085
-144.531	-103.810	-0.522	0.121
-143.516	37.965	-0.056	0.050
-142.502	-169.183	0.149	0.005
-141.487	-46.736	0.151	0.073
-140.472	242.613	0.030	0.050
-139.458	13.285	0.099	0.076
-138.443	-200.000	0.010	-0.105
-137.429	39.068	-0.046	-0.040
-136.414	-200.000	-0.042	0.336
-135.399	-101.867	-0.230	0.055
-134.385	-112.256	0.229	-0.046
-133.370	-101.922	-0.150	0.036
-132.356	-200.000	0.063	-0.318
-131.341	128.574	-0.089	0.112
-130.326	70.644	0.256	-0.262
-129.312	18.878	0.032	-0.026
-128.297	91.445	-0.222	-0.247
-127.283	-14.531	0.056	-0.036
-126.268	174.140	0.138	0.198
-125.253	-137.798	0.201	0.022
-124.239	-200.000	0.020	0.143
-123.224	-200.000	0.040	0.187
-122.210	-200.000	0.027	-0.230
-121.195	-39.338	0.029	-0.015
-120.180	-41.757	0.208	0.106
-119.166	-60.643	0.288	0.121
