DTS Sentinel unit serial number:	SN413079Multiplexer serial number:	ORYXHardware model number:	OX4-SRSoftware version number:	ORYX F/W v4.00 Oryx Data Collector v3.7.2.0data status	okinstallation	princeton_trtdifferential loss correction	single-endedforward channel	channel 1reverse channel	N/Adate	2019/09/13time	06:50:35forward acquisition time	60.00reverse acquisition time	0.00gamma	496.2192k internal	0.2336k external	0.2336temperature offset calibration	1.0160default loss term (dB/km)	0.3790temperature slope calibration	1.0000multiplexer offset coefficient	1.0000multiplexer slope coefficient	1.0000fibre end	0.00T internal ref (°C)	26.00T ext. ref 1 (°C)	4.10T ext. ref 2 (°C)	20.66length (m)	temperature (°C)	Stokes	anti-Stokes-747.200	-177.421	0.130	-0.003
-746.185	-18.617	-0.175	0.109
-745.171	-87.370	-0.198	0.060
-744.156	-200.000	-0.085	0.414
-743.142	-200.000	0.012	0.091
-742.127	-70.550	0.137	0.052
-741.112	-200.000	0.005	-0.296
-740.098	-160.952	-0.326	0.017
-739.083	23.183	0.156	0.129
-738.069	-148.128	0.122	-0.010
-737.054	211.140	0.146	0.230
-736.039	-123.630	-0.169	0.027
-735.025	261.209	-0.086	0.150
-734.010	26.384	-0.201	-0.169
-732.996	-97.205	0.105	-0.027
-731.981	296.185	-0.157	0.289
-730.966	150.836	0.104	-0.142
-729.952	357.015	0.140	-0.279
-728.937	-50.817	0.394	-0.186
-727.923	-54.275	-0.157	0.071
-726.908	-39.483	0.148	-0.078
-725.894	-50.689	-0.194	-0.092
-724.879	-122.199	0.201	0.033
-723.864	-68.549	0.202	0.079
-722.850	800.000	-0.067	0.192
-721.835	279.440	0.122	-0.219
-720.821	-200.000	0.032	-0.248
-719.806	-162.346	-0.188	-0.009
-718.791	414.790	0.044	0.093
-717.777	800.000	-0.119	0.389
-716.762	22.944	-0.209	-0.172
-715.748	800.000	-0.024	0.100
-714.733	-200.000	-0.010	-0.190
-713.718	469.161	-0.119	-0.268
-712.704	-116.082	0.168	0.031
-711.689	-78.374	0.407	-0.140
-710.675	40.244	0.081	0.073
-709.660	800.000	0.123	0.498
-708.645	-18.301	-0.250	0.157
-707.631	20.120	0.131	0.106
-706.616	77.068	0.343	-0.365
-705.602	190.043	0.049	-0.074
-704.587	257.917	0.157	0.271
-703.572	800.000	0.093	-0.300
-702.558	-93.177	-0.634	-0.177
-701.543	-88.615	-0.217	0.065
-700.529	71.781	0.203	0.211
-699.514	21.371	-0.022	-0.018
-698.499	-93.382	0.270	0.075
-697.485	-78.264	-0.051	0.017
-696.470	800.000	-0.132	-0.474
-695.456	320.749	-0.149	0.283
-694.441	54.966	0.213	-0.206
-693.426	-200.000	-0.005	-0.207
-692.412	-25.881	0.145	-0.086
-691.397	-113.278	-0.166	0.033
-690.383	-126.583	-0.088	-0.013
-689.368	710.749	-0.212	-0.561
-688.354	50.436	0.087	-0.083
-687.339	201.237	-0.201	0.309
-686.324	89.555	-0.055	0.062
-685.310	-200.000	0.009	0.223
-684.295	-102.303	-0.305	-0.073
-683.281	-134.053	-0.208	0.026
-682.266	-129.808	-0.161	-0.022
-681.251	116.479	0.040	0.049
-680.237	-80.389	-0.099	-0.033
-679.222	280.221	-0.068	0.121
-678.208	68.915	-0.067	-0.069
-677.193	-200.000	0.025	0.143
-676.178	195.035	-0.109	-0.166
-675.164	800.000	-0.076	-0.306
-674.149	-165.431	0.435	0.019
-673.135	-46.300	0.034	0.017
-672.120	700.544	0.045	-0.119
-671.105	393.274	-0.116	0.242
-670.091	-166.600	-0.265	0.011
-669.076	683.861	-0.040	-0.104
-668.062	-36.742	0.166	-0.090
-667.047	-55.253	-0.285	0.128
-666.032	24.978	0.126	0.105
-665.018	-200.000	0.041	-0.221
-664.003	272.633	0.106	-0.187
-662.989	-32.639	0.346	0.193
-661.974	-54.621	-0.052	-0.024
-660.959	74.082	0.216	0.227
-659.945	95.748	0.042	0.047
-658.930	447.890	-0.093	0.205
-657.916	-174.996	-0.073	-0.002
-656.901	800.000	-0.057	0.158
-655.886	203.339	-0.136	0.211
-654.872	-193.152	-0.414	0.004
-653.857	-73.492	-0.348	0.127
-652.843	66.074	0.060	-0.061
-651.828	800.000	-0.100	-0.360
-650.814	-106.800	0.082	-0.018
-649.799	-169.408	0.189	-0.007
-648.784	12.465	-0.172	0.133
-647.770	-84.481	-0.130	-0.041
-646.755	31.871	0.229	0.197
-645.741	-106.289	0.144	-0.032
-644.726	692.276	-0.127	-0.333
-643.711	-46.815	-0.374	-0.183
-642.697	61.024	0.195	0.193
-641.682	101.601	-0.127	-0.148
-640.668	87.918	-0.253	0.281
-639.653	181.519	0.193	0.284
-638.638	-113.343	-0.177	0.035
-637.624	-144.795	-0.530	0.049
-636.609	800.000	-0.050	0.139
-635.595	-200.000	0.011	0.247
-634.580	800.000	0.036	-0.120
-633.565	227.582	-0.134	0.219
-632.551	86.701	0.371	0.410
-631.536	-200.000	-0.022	-0.250
-630.522	-200.000	0.117	-0.625
-629.507	110.243	0.099	0.119
-628.492	-200.000	-0.018	0.370
-627.478	800.000	-0.099	-0.350
-626.463	-42.785	-0.194	0.099
-625.449	127.351	0.140	-0.177
-624.434	553.137	-0.062	0.148
-623.419	800.000	-0.018	0.078
-622.405	699.292	0.135	0.355
-621.390	-50.827	-0.536	-0.252
-620.376	800.000	0.145	-0.433
-619.361	638.544	-0.097	0.247
-618.346	16.970	-0.127	0.101
-617.332	800.000	0.034	0.130
-616.317	-200.000	0.018	0.349
-615.303	-14.997	0.254	-0.163
-614.288	-9.016	-0.152	0.102
-613.273	-29.542	0.372	0.213
-612.259	20.624	-0.155	0.125
-611.244	-200.000	0.026	-0.139
-610.230	169.141	0.111	-0.159
-609.215	800.000	-0.044	0.161
-608.201	800.000	-0.101	-0.373
-607.186	-113.697	-0.122	-0.024
-606.171	-140.229	-0.293	-0.031
-605.157	253.815	-0.061	-0.103
-604.142	214.034	-0.115	-0.181
-603.128	304.823	0.032	0.060
-602.113	-200.000	0.048	0.254
-601.098	10.963	-0.071	-0.054
-600.084	-131.876	0.283	0.037
-599.069	25.861	0.063	0.052
-598.055	29.136	-0.099	0.084
-597.040	-147.027	0.444	-0.038
-596.025	-123.544	0.272	-0.043
-595.011	-200.000	-0.050	-0.276
-593.996	-84.600	0.328	0.103
-592.982	-200.000	-0.005	-0.113
-591.967	-76.936	0.104	-0.036
-590.952	-119.090	-0.182	-0.032
-589.938	348.200	-0.133	0.261
-588.923	-200.000	-0.038	-0.183
-587.909	-87.200	0.269	0.082
-586.894	-145.464	0.321	-0.029
-585.879	252.908	-0.108	0.184
-584.865	63.890	0.039	0.040
-583.850	308.399	-0.192	-0.358
-582.836	317.847	-0.161	0.304
-581.821	337.055	-0.090	-0.174
-580.806	-77.574	-0.287	0.099
-579.792	-9.523	0.118	-0.078
-578.777	-105.186	-0.347	-0.079
-577.763	162.672	-0.173	-0.243
-576.748	30.525	0.194	-0.166
-575.733	-143.603	-0.176	-0.017
-574.719	139.754	-0.063	-0.083
-573.704	-105.703	-0.368	0.083
-572.690	-200.000	0.017	-0.078
-571.675	-200.000	0.030	-0.177
-570.661	-9.024	-0.249	0.166
-569.646	-144.960	0.341	0.031
-568.631	73.526	0.204	-0.213
-567.617	-57.400	-0.259	-0.114
-566.602	274.748	0.102	0.180
-565.588	353.879	0.079	0.156
-564.573	800.000	-0.053	-0.193
-563.558	141.690	0.220	0.291
-562.544	-109.765	0.169	-0.035
-561.529	20.455	0.291	0.235
-560.515	-120.617	0.286	0.048
-559.500	296.309	0.103	-0.189
-558.485	-43.363	0.202	0.102
-557.471	107.998	0.043	-0.051
-556.456	800.000	-0.051	-0.162
-555.442	-169.904	-0.529	-0.019
-554.427	3.335	-0.153	0.111
-553.412	383.430	-0.087	-0.179
-552.398	-83.171	-0.169	0.054
-551.383	-37.818	0.109	0.058
-550.369	6.763	0.014	0.010
-549.354	637.559	-0.116	0.295
-548.339	-124.063	-0.090	0.014
-547.325	-12.794	0.201	-0.130
-546.310	-29.892	-0.053	0.030
-545.296	20.418	-0.108	-0.087
-544.281	639.596	-0.027	-0.067
-543.266	-165.692	-0.099	0.004
-542.252	-124.434	-0.201	-0.031
-541.237	-115.542	0.181	-0.034
-540.223	-200.000	0.014	-0.070
-539.208	-200.000	-0.000	0.153
-538.193	-200.000	0.055	-0.244
-537.179	271.016	0.087	-0.152
-536.164	588.333	-0.077	0.190
-535.150	-200.000	-0.020	0.367
-534.135	34.512	-0.167	0.145
-533.121	-200.000	0.014	0.105
-532.106	184.240	-0.089	0.131
-531.091	-18.651	-0.156	0.097
-530.077	-139.231	0.363	0.039
-529.062	-58.648	-0.186	-0.080
-528.048	-200.000	-0.004	-0.114
-527.033	-20.177	0.164	0.101
-526.018	72.911	-0.129	0.134
-525.004	341.681	-0.153	-0.298
-523.989	56.143	-0.228	-0.220
-522.975	-42.117	0.347	0.177
-521.960	61.612	-0.242	-0.240
-520.945	97.457	-0.107	-0.122
-519.931	444.707	-0.041	0.090
-518.916	260.000	0.022	-0.038
-517.902	73.884	-0.225	0.235
-516.887	57.601	0.131	-0.127
-515.872	-132.215	-0.299	0.039
-514.858	-76.226	0.063	0.022
-513.843	38.735	0.160	-0.142
-512.829	-200.000	0.067	0.491
-511.814	90.571	-0.084	-0.094
-510.799	117.201	0.223	-0.273
-509.785	-15.920	0.072	-0.045
-508.770	103.843	0.131	0.154
-507.756	47.262	-0.098	0.091
-506.741	-21.798	-0.195	-0.118
-505.726	332.109	0.060	-0.116
-504.712	-38.139	-0.268	0.142
-503.697	32.287	0.100	-0.086
-502.683	-200.000	-0.010	-0.073
-501.668	-66.573	-0.210	-0.083
-500.653	61.988	-0.121	-0.120
-499.639	58.391	-0.149	0.145
-498.624	-81.082	0.302	0.099
-497.610	-77.514	-0.219	0.076
-496.595	800.000	-0.044	0.171
-495.581	-200.000	0.013	0.216
-494.566	747.918	-0.112	-0.299
-493.551	-200.000	-0.049	-0.515
-492.537	276.752	-0.044	0.078
-491.522	-81.232	-0.185	-0.061
-490.508	-200.000	-0.009	-0.066
-489.493	19.324	0.300	0.239
-488.478	9.875	-0.253	-0.191
-487.464	-200.000	-0.005	-0.072
-486.449	58.634	0.093	-0.091
-485.435	50.654	0.138	-0.130
-484.420	-200.000	0.010	0.049
-483.405	368.475	0.093	0.188
-482.391	-200.000	0.027	-0.242
-481.376	-200.000	-0.022	-0.113
-480.362	800.000	0.048	-0.147
-479.347	-200.000	-0.029	0.213
-478.332	371.483	0.077	0.154
-477.318	-78.096	0.076	-0.026
-476.303	-38.240	-0.207	0.109
-475.289	-200.000	0.001	-0.137
-474.274	800.000	-0.024	0.081
-473.259	64.787	0.115	-0.115
-472.245	-85.668	0.291	-0.090
-471.230	-46.563	-0.327	0.159
-470.216	224.614	0.247	0.396
-469.201	6.103	-0.105	0.077
-468.186	-8.799	-0.205	0.137
-467.172	414.476	0.115	0.243
-466.157	-63.751	0.211	-0.086
-465.143	312.142	0.120	-0.224
-464.128	-13.330	-0.038	0.024
-463.113	420.166	-0.060	-0.128
-462.099	-116.102	-0.593	-0.110
-461.084	-200.000	0.074	0.357
-460.070	244.578	0.112	0.187
-459.055	-200.000	-0.033	-0.283
-458.040	800.000	0.126	-0.412
-457.026	310.331	-0.098	0.182
-456.011	216.131	-0.112	-0.177
-454.997	800.000	0.059	-0.246
-453.982	1.724	0.344	0.246
-452.968	508.338	0.128	0.296
-451.953	404.070	-0.142	-0.298
-450.938	-200.000	0.029	-0.345
-449.924	-200.000	-0.057	-0.271
-448.909	-200.000	-0.049	0.284
-447.895	-200.000	-0.032	0.232
-446.880	-121.735	-0.045	-0.007
-445.865	-164.369	-0.239	-0.011
-444.851	-56.429	0.271	0.119
-443.836	-200.000	0.030	-0.235
-442.822	-134.107	0.087	-0.011
-441.807	35.799	0.127	0.111
-440.792	100.646	0.008	0.009
-439.778	77.549	-0.047	0.049
-438.763	41.653	-0.129	-0.116
-437.749	-169.848	-0.322	-0.011
-436.734	-200.000	0.018	0.138
-435.719	32.225	-0.175	-0.150
-434.705	-174.862	0.105	-0.003
-433.690	-35.866	0.291	-0.156
-432.676	26.339	-0.227	0.188
-431.661	-141.728	0.357	-0.036
-430.646	-171.806	-0.084	0.003
-429.632	-39.248	-0.238	-0.124
-428.617	60.858	0.165	-0.162
-427.603	2.863	-0.381	0.275
-426.588	-114.540	0.120	-0.023
-425.573	-200.000	-0.038	0.255
-424.559	-7.186	0.181	0.122
-423.544	-81.534	-0.178	0.058
-422.530	116.934	-0.118	0.144
-421.515	-42.986	-0.104	0.052
-420.500	-200.000	0.011	0.085
-419.486	39.828	0.130	0.116
-418.471	-200.000	0.008	0.077
-417.457	374.383	-0.067	0.136
-416.442	-140.711	0.260	0.027
-415.428	73.101	-0.129	0.134
-414.413	29.224	-0.062	0.052
-413.398	137.220	-0.126	0.164
-412.384	800.000	0.101	0.426
-411.369	-200.000	0.014	-0.207
-410.355	782.005	0.062	0.168
-409.340	402.456	0.206	-0.429
-408.325	673.948	0.067	-0.172
-407.311	9.037	-0.023	0.017
-406.296	46.266	-0.234	0.215
-405.282	37.319	0.241	0.212
-404.267	-112.961	-0.321	-0.063
-403.252	-4.925	0.287	-0.196
-402.238	14.423	0.104	0.080
-401.223	-200.000	0.010	-0.292
-400.209	-154.363	-0.213	0.014
-399.194	-106.468	0.125	-0.028
-398.179	-106.205	0.109	-0.024
-397.165	501.360	-0.086	0.196
-396.150	86.839	-0.165	-0.180
-395.136	-84.730	0.053	-0.017
-394.121	61.528	-0.053	0.053
-393.106	328.160	0.100	-0.189
-392.092	666.278	-0.089	-0.229
-391.077	-135.611	0.324	0.038
-390.063	-38.672	0.187	-0.098
-389.048	800.000	-0.072	-0.222
-388.033	342.001	0.105	0.204
-387.019	-119.782	0.271	0.046
-386.004	-200.000	0.027	0.351
-384.990	-22.388	0.224	0.135
-383.975	-77.458	-0.255	-0.088
-382.960	-151.796	0.255	0.019
-381.946	17.000	-0.078	0.061
-380.931	-101.718	0.156	0.038
-379.917	-114.861	0.364	0.069
-378.902	475.304	0.041	-0.092
-377.888	-136.655	-0.402	-0.046
-376.873	166.667	-0.137	0.193
-375.858	-148.534	0.190	0.015
-374.844	252.951	-0.218	-0.369
-373.829	-141.322	0.106	-0.011
-372.815	-168.053	0.068	0.003
-371.800	507.438	-0.114	0.261
-370.785	7.760	-0.151	-0.112
-369.771	556.216	-0.028	-0.068
-368.756	-84.675	-0.202	-0.063
-367.742	-200.000	0.018	0.200
-366.727	293.587	0.220	-0.398
-365.712	800.000	0.083	0.325
-364.698	-190.877	-0.096	0.001
-363.683	230.199	-0.200	0.324
-362.669	-11.848	-0.182	-0.118
-361.654	-10.985	0.242	-0.158
-360.639	406.649	0.081	0.169
-359.625	-102.237	0.130	-0.031
-358.610	-44.735	0.149	-0.073
-357.596	-200.000	0.000	0.034
-356.581	153.031	0.061	0.083
-355.566	53.144	0.250	-0.237
-354.552	-153.742	-0.105	-0.007
-353.537	-200.000	0.068	-0.341
-352.523	800.000	-0.014	-0.041
-351.508	-76.172	0.119	-0.041
-350.493	-114.311	0.127	0.024
-349.479	-200.000	0.029	0.245
-348.464	-200.000	-0.015	-0.198
-347.450	31.772	-0.085	-0.072
-346.435	36.036	0.289	0.252
-345.420	30.338	-0.252	-0.213
-344.406	238.632	0.132	0.216
-343.391	-12.699	0.061	-0.039
-342.377	800.000	-0.079	-0.310
-341.362	548.607	-0.115	-0.272
-340.348	152.140	-0.148	0.199
-339.333	-200.000	-0.013	-0.265
-338.318	627.359	-0.055	-0.138
-337.304	-200.000	0.051	0.298
-336.289	-200.000	0.000	0.127
-335.275	800.000	-0.055	-0.196
-334.260	-109.870	0.078	-0.016
-333.245	-51.128	-0.134	-0.062
-332.231	-71.362	0.312	0.116
-331.216	219.757	0.194	0.307
-330.202	381.089	0.131	0.265
-329.187	-200.000	0.010	-0.055
-328.172	92.957	0.301	-0.337
-327.158	-75.534	0.408	0.143
-326.143	186.042	-0.251	-0.369
-325.129	800.000	-0.074	-0.267
-324.114	800.000	-0.031	-0.121
-323.099	800.000	0.032	0.129
-322.085	-122.045	-0.238	0.039
-321.070	649.619	-0.094	-0.237
-320.056	65.269	-0.175	0.175
-319.041	-200.000	0.006	-0.173
-318.026	-200.000	-0.067	0.322
-317.012	35.486	-0.106	-0.092
-315.997	130.359	0.153	0.194
-314.983	-75.780	-0.075	-0.026
-313.968	324.052	-0.115	-0.217
-312.953	267.318	-0.102	0.177
-311.939	538.935	0.092	0.215
-310.924	43.366	0.122	0.110
-309.910	50.078	-0.220	-0.205
-308.895	-200.000	-0.036	-0.423
-307.880	-200.000	-0.005	0.173
-306.866	9.997	0.293	-0.220
-305.851	-91.716	-0.271	-0.076
-304.837	166.978	-0.195	-0.273
-303.822	800.000	0.068	0.209
-302.807	-141.202	0.114	0.011
-301.793	45.469	0.085	-0.077
-300.778	-148.693	0.347	0.028
-299.764	-128.573	0.407	-0.057
-298.749	800.000	-0.032	0.123
-297.735	9.868	0.308	-0.231
-296.720	-11.167	0.263	-0.171
-295.705	-200.000	0.004	0.297
-294.691	-200.000	0.026	0.237
-293.676	-200.000	0.069	-0.316
-292.662	800.000	0.093	-0.353
-291.647	12.905	0.402	-0.307
-290.632	-20.122	-0.263	-0.160
-289.618	800.000	-0.027	0.102
-288.603	-191.477	-0.170	0.002
-287.589	1.589	-0.127	-0.090
-286.574	-3.017	0.264	-0.182
-285.559	800.000	-0.039	-0.136
-284.545	-102.075	0.169	-0.040
-283.530	-200.000	0.449	-0.000
-282.516	800.000	0.103	0.338
-281.501	-137.271	-0.128	0.014
-280.486	512.245	-0.023	-0.053
-279.472	642.084	-0.083	-0.208
-278.457	114.255	0.095	-0.114
-277.443	39.951	-0.309	0.273
-276.428	800.000	-0.041	0.152
-275.413	28.290	-0.205	0.171
-274.399	-30.503	0.366	-0.205
-273.384	-200.000	-0.013	0.157
-272.370	411.938	-0.078	0.163
-271.355	432.017	0.033	0.071
-270.340	-132.428	-0.257	-0.033
-269.326	-200.000	-0.070	0.380
-268.311	84.572	-0.148	0.160
-267.297	407.334	-0.118	-0.246
-266.282	-200.000	-0.078	-0.364
-265.267	5.130	0.116	-0.085
-264.253	-104.950	-0.109	0.025
-263.238	-134.118	-0.215	-0.026
-262.224	361.001	-0.055	-0.110
-261.209	800.000	0.126	-0.410
-260.195	-28.213	-0.246	-0.140
-259.180	-199.871	0.113	0.001
-258.165	441.075	0.064	0.139
-257.151	-148.455	0.066	0.005
-256.136	-17.956	-0.189	-0.117
-255.122	-172.090	-0.473	-0.015
-254.107	-81.700	0.263	0.085
-253.092	-26.128	-0.095	-0.055
-252.078	-200.000	0.002	0.141
-251.063	412.911	-0.037	-0.077
-250.049	-91.889	-0.250	-0.070
-249.034	-24.247	-0.276	0.162
-248.019	-1.997	0.231	0.160
-247.005	-200.000	0.096	-0.521
-245.990	-2.075	0.216	0.149
-244.976	124.978	0.173	-0.214
-243.961	796.152	-0.041	0.111
-242.946	-200.000	-0.023	0.159
-241.932	-200.000	-0.120	-0.551
-240.917	248.409	-0.092	-0.154
-239.903	-200.000	0.019	0.094
-238.888	-184.116	-0.120	-0.002
-237.873	310.204	0.066	-0.123
-236.859	285.128	0.194	-0.343
-235.844	-150.924	0.408	0.030
-234.830	703.700	-0.203	0.526
-233.815	399.420	-0.162	0.333
-232.800	73.766	0.087	0.090
-231.786	320.160	-0.046	-0.086
-230.771	800.000	0.030	-0.091
-229.757	-73.394	-0.281	0.101
-228.742	800.000	-0.100	0.280
-227.727	45.922	0.165	0.150
-226.713	-200.000	-0.006	-0.034
-225.698	71.775	-0.123	-0.125
-224.684	-141.456	-0.252	-0.025
-223.669	27.919	0.319	-0.265
-222.655	-103.033	-0.204	0.048
-221.640	-93.098	0.316	-0.087
-220.625	-115.034	0.231	-0.043
-219.611	-4.633	0.095	0.064
-218.596	198.885	-0.081	-0.122
-217.582	124.461	-0.190	-0.235
-216.567	177.099	-0.119	0.170
-215.552	-66.070	0.188	0.074
-214.538	-200.000	-0.000	-0.136
-213.523	270.197	0.122	-0.211
-212.509	-77.782	-0.311	-0.106
-211.494	36.796	-0.145	0.126
-210.479	48.906	-0.123	-0.114
-209.465	770.874	0.067	-0.180
-208.450	-113.898	-0.377	0.072
-207.436	152.694	0.194	0.260
-206.421	-41.628	0.313	-0.158
-205.406	59.035	-0.152	0.147
-204.392	-200.000	0.029	0.270
-203.377	800.000	-0.062	0.192
-202.363	-38.383	-0.089	0.046
-201.348	-107.494	0.159	-0.034
-200.333	316.224	-0.125	0.233
-199.319	-55.722	0.266	-0.117
-198.304	-94.032	0.045	0.012
-197.290	-106.606	0.134	0.029
-196.275	404.260	0.185	0.382
-195.260	-90.072	0.235	0.067
-194.246	185.481	-0.153	0.223
-193.231	-200.000	0.011	0.218
-192.217	800.000	0.046	-0.149
-191.202	-162.548	-0.416	-0.020
-190.187	238.671	0.112	-0.182
-189.173	-78.049	-0.178	0.060
-188.158	-161.369	0.185	-0.009
-187.144	17.101	0.268	-0.209
-186.129	-153.724	-0.277	0.019
-185.114	-72.062	0.080	-0.029
-184.100	-41.131	0.304	0.154
-183.085	-200.000	-0.013	0.077
-182.071	12.086	0.391	0.296
-181.056	-22.237	0.224	0.133
-180.042	165.494	0.085	-0.117
-179.027	269.178	0.041	-0.071
-178.012	-47.004	0.097	0.046
-176.998	-65.762	0.092	-0.036
-175.983	169.765	-0.036	0.050
-174.969	-8.314	-0.267	0.176
-173.954	158.041	-0.237	0.322
-172.939	125.205	-0.128	-0.158
-171.925	-149.677	-0.130	0.010
-170.910	103.445	0.135	0.155
-169.896	-120.285	-0.340	-0.057
-168.881	257.989	0.076	0.129
-167.866	800.000	0.078	-0.306
-166.852	-108.870	-0.194	0.041
-165.837	-54.489	0.207	-0.092
-164.823	78.367	-0.106	0.111
-163.808	82.590	0.146	-0.156
-162.793	527.550	-0.082	0.190
-161.779	342.083	0.122	0.233
-160.764	315.630	-0.127	0.235
-159.750	-12.790	-0.116	-0.074
-158.735	-94.544	-0.171	0.046
-157.720	-10.884	0.108	0.070
-156.706	267.289	-0.045	0.076
-155.691	46.722	0.088	0.080
-154.677	-200.000	-0.045	-0.326
-153.662	-102.321	-0.131	-0.031
-152.647	35.058	0.252	0.217
-151.633	800.000	-0.068	-0.218
-150.618	58.965	0.086	0.083
-149.604	152.405	-0.067	-0.089
-148.589	208.077	0.113	0.173
-147.574	-120.899	-0.539	0.089
-146.560	800.000	0.142	0.445
-145.545	170.997	-0.112	0.157
-144.531	-100.823	0.161	0.039
-143.516	331.883	-0.171	0.324
-142.502	63.467	0.102	-0.100
-141.487	24.953	0.057	0.046
-140.472	-48.485	0.149	0.070
-139.458	800.000	0.033	0.135
-138.443	-106.214	0.058	-0.013
-137.429	-147.823	0.174	-0.014
-136.414	-9.032	0.049	0.032
-135.399	800.000	-0.149	-0.407
-134.385	-53.352	-0.216	0.097
-133.370	86.084	-0.110	0.118
-132.356	-200.000	0.018	-0.275
-131.341	800.000	0.089	-0.252
-130.326	800.000	0.022	0.080
-129.312	-37.476	-0.226	0.118
-128.297	-70.443	0.141	0.052
-127.283	-70.065	-0.113	-0.042
-126.268	-200.000	-0.015	0.177
-125.253	576.427	-0.057	-0.137
-124.239	78.645	0.170	-0.179
-123.224	338.485	-0.138	0.264
-122.210	157.103	0.170	-0.231
-121.195	800.000	0.095	0.270
