DTS Sentinel unit serial number:	SN413079Multiplexer serial number:	ORYXHardware model number:	OX4-SRSoftware version number:	ORYX F/W v4.00 Oryx Data Collector v3.7.2.0data status	okinstallation	princeton_trtdifferential loss correction	single-endedforward channel	channel 1reverse channel	N/Adate	2019/09/12time	19:36:34forward acquisition time	15.00reverse acquisition time	0.00gamma	496.2192k internal	0.2322k external	0.2322temperature offset calibration	1.0125default loss term (dB/km)	0.3790temperature slope calibration	1.0000multiplexer offset coefficient	1.0000multiplexer slope coefficient	1.0000fibre end	0.00T internal ref (°C)	32.19T ext. ref 1 (°C)	3.39T ext. ref 2 (°C)	26.72length (m)	temperature (°C)	Stokes	anti-Stokes-747.200	-25.480	-0.709	-0.423
-746.185	316.606	-0.434	0.828
-745.171	-3.960	-0.697	-0.488
-744.156	-21.134	-0.580	0.358
-743.142	246.787	0.473	0.806
-742.127	133.496	-0.427	-0.558
-741.112	800.000	0.130	-0.365
-740.098	231.146	0.386	0.639
-739.083	-64.872	0.985	-0.402
-738.069	-110.554	-0.418	0.087
-737.054	182.566	0.114	0.170
-736.039	-200.000	0.068	-1.143
-735.025	48.339	-0.528	0.500
-734.010	207.077	0.154	0.243
-732.996	144.985	0.224	-0.303
-731.981	132.979	0.196	0.255
-730.966	-200.000	-0.021	0.102
-729.952	-200.000	-0.121	0.703
-728.937	37.544	0.565	0.506
-727.923	58.864	-0.615	-0.610
-726.908	41.057	-0.647	0.590
-725.894	18.897	0.567	0.459
-724.879	-200.000	-0.074	0.810
-723.864	-185.126	0.626	-0.010
-722.850	-30.401	-0.421	-0.241
-721.835	263.519	-0.154	-0.270
-720.821	29.598	-1.163	-0.998
-719.806	-130.665	-0.144	0.020
-718.791	800.000	0.037	-0.149
-717.777	101.913	0.430	-0.506
-716.762	117.134	-0.018	0.022
-715.748	54.621	0.446	-0.434
-714.733	133.720	-0.235	-0.307
-713.718	312.428	-0.268	-0.508
-712.704	141.419	-0.450	-0.602
-711.689	337.359	0.217	-0.426
-710.675	-29.090	-0.528	-0.306
-709.660	75.498	-0.334	0.356
-708.645	168.265	-0.230	-0.330
-707.631	17.473	-0.299	-0.240
-706.616	-124.956	0.531	0.082
-705.602	5.856	-0.470	-0.350
-704.587	-99.705	-0.849	0.215
-703.572	-200.000	0.122	-1.346
-702.558	202.874	0.403	-0.628
-701.543	-165.085	0.368	-0.016
-700.529	-153.576	-0.624	-0.043
-699.514	44.008	0.063	-0.058
-698.499	-156.769	0.458	-0.028
-697.485	-200.000	0.012	-0.283
-696.470	-200.000	0.103	0.688
-695.456	402.871	-0.121	0.257
-694.441	330.067	0.046	0.089
-693.426	-103.649	-0.548	-0.130
-692.412	17.477	0.461	0.369
-691.397	200.508	0.126	0.195
-690.383	-62.232	-0.876	0.368
-689.368	294.885	-0.305	-0.563
-688.354	800.000	-0.218	-0.644
-687.339	439.393	-0.103	-0.227
-686.324	-87.296	-0.623	-0.190
-685.310	275.059	-0.232	-0.415
-684.295	-44.622	0.651	0.328
-683.281	-69.872	-0.753	-0.290
-682.266	3.473	-0.465	-0.341
-681.251	-200.000	-0.012	0.660
-680.237	-80.285	0.477	-0.161
-679.222	494.474	-0.158	-0.365
-678.208	-69.591	0.545	-0.210
-677.193	-89.951	-0.480	-0.141
-676.178	-102.942	0.171	-0.041
-675.164	800.000	0.067	0.191
-674.149	178.969	-0.263	0.387
-673.135	21.302	-0.520	0.426
-672.120	62.277	-0.556	-0.559
-671.105	32.052	0.916	-0.795
-670.091	-63.519	0.289	-0.120
-669.076	104.116	-0.161	0.190
-668.062	-69.148	-0.867	-0.336
-667.047	-18.149	-0.294	-0.185
-666.032	-71.188	0.375	0.142
-665.018	-10.744	-0.316	0.211
-664.003	-107.720	0.752	-0.165
-662.989	-107.575	-0.514	-0.113
-661.974	-200.000	0.039	-0.775
-660.959	800.000	0.241	1.002
-659.945	568.270	0.118	0.288
-658.930	800.000	0.181	0.747
-657.916	-200.000	0.021	-0.475
-656.901	17.581	-0.116	0.093
-655.886	-35.696	0.181	0.099
-654.872	-200.000	0.015	-1.035
-653.857	334.315	0.328	-0.639
-652.843	800.000	-0.497	-1.400
-651.828	-159.520	0.579	0.032
-650.814	636.959	0.210	0.538
-649.799	-22.357	0.671	-0.409
-648.784	-70.289	-0.733	0.280
-647.770	-162.900	0.944	0.046
-646.755	-200.000	0.138	-0.877
-645.741	-169.465	0.454	0.017
-644.726	315.626	0.258	-0.490
-643.711	-147.997	0.060	-0.005
-642.697	-139.489	-1.115	0.120
-641.682	-200.000	0.003	0.490
-640.668	646.873	-0.040	0.102
-639.653	-8.095	-0.389	0.263
-638.638	-200.000	0.025	0.814
-637.624	329.702	0.180	-0.348
-636.609	-200.000	-0.005	0.284
-635.595	-124.497	0.835	0.131
-634.580	-113.311	0.141	0.028
-633.565	183.464	-0.547	-0.813
-632.551	1.205	0.301	0.217
-631.536	-27.261	-0.332	0.194
-630.522	800.000	0.309	-1.075
-629.507	-200.000	-0.162	0.727
-628.492	800.000	0.185	0.642
-627.478	800.000	0.307	-0.888
-626.463	50.392	0.337	0.321
-625.449	-148.483	0.375	0.031
-624.434	-34.505	0.493	0.271
-623.419	800.000	0.221	0.618
-622.405	-200.000	0.142	0.862
-621.390	251.676	-0.312	-0.534
-620.376	-200.000	-0.034	-0.294
-619.361	-145.413	-0.310	0.028
-618.346	-63.908	0.203	-0.083
-617.332	-8.046	0.508	-0.344
-616.317	102.610	-0.241	-0.283
-615.303	-200.000	0.054	0.619
-614.288	136.161	1.113	1.459
-613.273	19.888	0.619	0.501
-612.259	800.000	0.115	-0.351
-611.244	-200.000	-0.024	0.255
-610.230	395.538	-0.134	0.280
-609.215	-200.000	0.133	-0.842
-608.201	-35.263	-0.153	0.084
-607.186	260.151	0.247	-0.429
-606.171	141.353	-0.256	-0.340
-605.157	-138.375	0.365	0.041
-604.142	1.711	0.354	-0.256
-603.128	126.034	-0.535	0.679
-602.113	800.000	-0.054	0.221
-601.098	800.000	0.046	0.162
-600.084	800.000	-0.030	0.096
-599.069	-76.557	1.207	-0.426
-598.055	-94.728	0.195	0.053
-597.040	191.760	0.179	0.272
-596.025	16.890	0.316	-0.252
-595.011	-20.422	-0.410	0.253
-593.996	283.578	-0.222	-0.401
-592.982	151.388	0.062	0.085
-591.967	-200.000	-0.065	-0.294
-590.952	800.000	-0.266	0.761
-589.938	391.256	-0.192	0.400
-588.923	584.965	-0.180	0.444
-587.909	128.950	0.253	0.324
-586.894	93.310	-0.271	-0.308
-585.879	55.655	0.232	0.226
-584.865	800.000	-0.136	0.456
-583.850	5.704	0.718	0.533
-582.836	-200.000	0.061	0.566
-581.821	-200.000	0.169	0.746
-580.806	-200.000	0.123	-0.953
-579.792	348.091	-0.110	-0.217
-578.777	-81.529	0.537	0.177
-577.763	-96.843	-0.557	0.147
-576.748	182.998	0.195	0.288
-575.733	800.000	0.047	0.195
-574.719	800.000	0.317	-0.893
-573.704	-127.565	0.455	0.066
-572.690	-200.000	-0.043	-0.557
-571.675	23.429	0.435	0.359
-570.661	-113.238	-0.670	0.132
-569.646	-200.000	0.023	0.238
-568.631	-132.052	0.561	-0.073
-567.617	-143.550	-0.482	0.046
-566.602	-34.009	0.769	0.424
-565.588	164.567	0.285	0.403
-564.573	-19.045	-0.110	0.068
-563.558	800.000	0.197	0.554
-562.544	-76.185	0.383	0.135
-561.529	238.921	0.261	-0.435
-560.515	-8.898	0.505	0.339
-559.500	-100.509	-0.318	0.079
-558.485	-49.068	-0.994	0.477
-557.471	-111.762	0.868	0.176
-556.456	-49.177	0.253	0.121
-555.442	133.471	-0.288	0.374
-554.427	7.384	-0.588	-0.440
-553.412	-79.323	-0.670	-0.228
-552.398	-200.000	0.130	-0.582
-551.383	-64.525	0.196	0.080
-550.369	100.130	0.888	-1.032
-549.354	-136.946	0.442	0.051
-548.339	307.987	-0.358	0.670
-547.325	-128.495	-0.584	0.083
-546.310	332.811	-0.239	-0.462
-545.296	-200.000	0.065	-0.456
-544.281	-62.842	0.597	-0.248
-543.266	-36.464	-0.706	-0.381
-542.252	-99.416	-0.780	-0.197
-541.237	33.315	1.290	1.122
-540.223	-26.323	-0.232	0.137
-539.208	61.231	0.220	-0.219
-538.193	-79.134	0.558	-0.190
-537.179	-73.446	0.237	-0.087
-536.164	521.852	0.179	0.422
-535.150	372.818	0.098	-0.199
-534.135	-160.623	-0.454	-0.024
-533.121	232.429	-0.403	0.663
-532.106	800.000	-0.281	-0.880
-531.091	67.730	-0.698	-0.715
-530.077	-122.752	-0.295	-0.048
-529.062	-200.000	-0.017	-0.796
-528.048	-200.000	0.009	-0.239
-527.033	276.370	-0.086	0.153
-526.018	110.315	0.473	-0.569
-525.004	-25.520	-0.315	0.187
-523.989	-51.845	-0.469	-0.219
-522.975	-200.000	0.056	0.471
-521.960	-200.000	0.089	0.428
-520.945	-200.000	-0.022	-0.343
-519.931	-156.703	0.442	0.027
-518.916	-4.961	-0.519	-0.358
-517.902	-200.000	-0.007	-0.493
-516.887	-13.295	-0.324	-0.210
-515.872	431.041	-0.131	-0.285
-514.858	-200.000	-0.040	-0.328
-513.843	280.198	0.380	-0.681
-512.829	-200.000	-0.077	0.732
-511.814	-101.979	0.523	0.126
-510.799	-85.090	-0.651	-0.204
-509.785	-200.000	-0.002	0.163
-508.770	-23.133	-0.164	0.099
-507.756	442.941	0.197	0.431
-506.741	-122.879	-0.485	0.078
-505.726	52.316	-0.693	0.661
-504.712	-200.000	0.007	-0.406
-503.697	-200.000	-0.126	0.916
-502.683	117.119	-0.443	-0.544
-501.668	-73.648	-0.916	-0.334
-500.653	-200.000	-0.068	0.441
-499.639	-163.131	-0.663	-0.032
-498.624	-91.256	0.946	0.271
-497.610	445.955	0.278	0.611
-496.595	800.000	0.195	0.694
-495.581	137.480	0.179	-0.234
-494.566	-200.000	-0.004	-0.528
-493.551	23.307	0.549	0.452
-492.537	31.253	0.505	0.434
-491.522	-115.924	0.242	0.045
-490.508	-43.709	0.639	-0.322
-489.493	-164.943	-1.298	0.058
-488.478	-200.000	0.040	0.908
-487.464	800.000	0.134	0.443
-486.449	-200.000	-0.028	0.128
-485.435	-46.786	-0.551	0.270
-484.420	481.218	0.112	0.254
-483.405	127.167	-0.186	0.235
-482.391	370.823	0.252	-0.511
-481.376	-200.000	0.083	0.543
-480.362	-200.000	0.022	0.282
-479.347	672.273	0.137	-0.355
-478.332	-200.000	-0.075	-0.382
-477.318	-156.686	-1.149	0.071
-476.303	141.781	0.176	-0.233
-475.289	-73.705	0.419	-0.152
-474.274	-189.285	0.028	0.000
-473.259	-200.000	0.106	-0.723
-472.245	800.000	0.093	0.311
-471.230	-108.809	0.482	0.103
-470.216	-54.760	0.781	0.352
-469.201	800.000	0.157	0.534
-468.186	-99.897	-0.599	-0.150
-467.172	-200.000	-0.007	0.555
-466.157	22.167	0.296	-0.241
-465.143	-163.331	-0.804	0.038
-464.128	110.709	0.132	-0.158
-463.113	-200.000	-0.052	0.248
-462.099	800.000	-0.133	0.402
-461.084	-33.634	0.678	0.374
-460.070	-152.074	-0.361	-0.026
-459.055	-95.140	-0.574	0.155
-458.040	-200.000	-0.007	0.536
-457.026	250.026	-0.085	-0.145
-456.011	-200.000	-0.003	-0.247
-454.997	157.539	-0.667	0.923
-453.982	800.000	-0.062	-0.259
-452.968	348.876	0.214	-0.422
-451.953	661.846	-0.145	-0.374
-450.938	429.870	-0.289	-0.624
-449.924	-36.878	-0.191	0.102
-448.909	-35.675	-0.462	-0.250
-447.895	25.486	-0.496	-0.412
-446.880	239.417	0.249	0.413
-445.865	176.788	-0.270	0.392
-444.851	-21.479	-0.808	0.492
-443.836	-38.111	0.148	0.078
-442.822	-200.000	0.076	-0.369
-441.807	-200.000	-0.043	0.218
-440.792	-170.401	0.831	-0.029
-439.778	-47.293	-0.829	-0.403
-438.763	10.741	-0.911	-0.694
-437.749	-81.436	-0.966	0.317
-436.734	47.376	-0.330	0.307
-435.719	-35.923	-0.665	-0.359
-434.705	800.000	-0.187	0.547
-433.690	-85.340	0.705	0.220
-432.676	586.315	-0.148	-0.364
-431.661	14.020	-0.256	0.199
-430.646	25.805	0.434	-0.361
-429.632	-16.497	-0.435	-0.275
-428.617	-200.000	0.070	-0.437
-427.603	-200.000	0.165	-1.219
-426.588	7.239	0.584	0.435
-425.573	640.143	-0.242	0.614
-424.559	-200.000	-0.017	0.358
-423.544	47.453	-0.077	-0.072
-422.530	365.364	0.453	-0.911
-421.515	-200.000	0.014	0.201
-420.500	453.246	-0.323	0.712
-419.486	26.669	-0.215	0.179
-418.471	33.016	-0.254	-0.220
-417.457	29.137	0.750	0.635
-416.442	-89.295	0.482	-0.142
-415.428	20.560	0.506	-0.409
-414.413	800.000	0.112	-0.333
-413.398	-200.000	-0.005	-0.284
-412.384	-2.689	-0.543	0.379
-411.369	85.303	0.473	0.518
-410.355	-200.000	0.114	-0.659
-409.340	-134.855	-0.626	-0.076
-408.325	-200.000	-0.004	0.390
-407.311	-43.297	-0.558	-0.281
-406.296	-12.156	0.717	-0.468
-405.282	-200.000	-0.509	-0.000
-404.267	-200.000	0.030	0.247
-403.252	800.000	0.154	0.430
-402.238	2.182	0.153	0.110
-401.223	410.407	-0.398	0.841
-400.209	-90.773	-0.969	-0.279
-399.194	178.322	0.501	-0.729
-398.179	-200.000	0.074	0.480
-397.165	283.891	0.121	-0.217
-396.150	-200.000	0.014	0.208
-395.136	384.311	-0.177	0.362
-394.121	-200.000	0.039	-0.183
-393.106	-41.402	0.280	-0.144
-392.092	-200.000	-0.053	0.584
-391.077	-93.010	-0.778	0.216
-390.063	-200.000	0.187	0.965
-389.048	-88.871	-0.339	0.100
-388.033	349.682	-0.142	-0.280
-387.019	-122.626	1.528	-0.247
-386.004	-52.974	-0.253	-0.116
-384.990	50.998	0.622	-0.587
-383.975	-119.733	0.475	0.082
-382.960	587.761	-0.544	-1.334
-381.946	185.828	-0.355	0.525
-380.931	-21.997	-0.785	0.475
-379.917	342.439	-0.331	-0.645
-378.902	800.000	0.082	-0.324
-377.888	262.177	0.125	0.216
-376.873	118.066	-0.223	-0.273
-375.858	-200.000	-0.052	0.602
-374.844	50.086	0.481	0.452
-373.829	683.993	-0.117	-0.305
-372.815	-200.000	0.109	-0.566
-371.800	354.600	0.451	-0.893
-370.785	-200.000	0.237	-0.001
-369.771	487.562	0.166	-0.378
-368.756	121.145	-0.412	-0.510
-367.742	-64.030	-0.714	0.290
-366.727	-87.950	0.555	-0.166
-365.712	-200.000	-0.092	0.436
-364.698	800.000	0.219	-0.656
-363.683	328.329	-0.206	0.395
-362.669	413.577	-0.208	0.440
-361.654	800.000	0.149	0.443
-360.639	-38.143	-0.665	0.351
-359.625	-54.933	0.596	0.267
-358.610	-200.000	-0.021	0.160
-357.596	800.000	-0.147	-0.549
-356.581	601.330	0.272	-0.672
-355.566	233.669	-0.364	-0.596
-354.552	136.451	-0.103	-0.133
-353.537	-22.072	0.619	0.374
-352.523	19.461	-0.333	-0.267
-351.508	458.908	0.073	-0.162
-350.493	-200.000	0.042	0.286
-349.479	516.106	0.125	0.291
-348.464	-124.000	0.377	-0.059
-347.450	130.381	-0.259	-0.330
-346.435	-70.296	0.035	-0.013
-345.420	-131.987	0.683	-0.088
-344.406	502.999	-0.215	0.494
-343.391	108.293	-0.501	-0.594
-342.377	187.639	0.578	-0.858
-341.362	-200.000	0.087	0.670
-340.348	-64.570	0.288	-0.116
-339.333	-37.236	0.573	0.305
-338.318	-200.000	-0.139	-0.805
-337.304	-200.000	0.117	-0.836
-336.289	106.856	0.169	0.199
-335.275	-200.000	-0.051	0.650
-334.260	-200.000	0.064	-0.461
-333.245	13.147	0.265	-0.204
-332.231	-130.838	-0.126	0.017
-331.216	-114.451	-0.598	0.114
-330.202	-60.191	0.728	-0.309
-329.187	-200.000	-0.059	-0.581
-328.172	424.098	-0.276	0.589
-327.158	382.039	0.220	-0.449
-326.143	-89.216	0.356	0.105
-325.129	-159.569	-0.441	-0.024
-324.114	18.384	-0.571	-0.454
-323.099	-174.535	-0.656	0.019
-322.085	76.192	-0.703	0.739
-321.070	-200.000	0.006	0.077
-320.056	-37.035	-0.515	-0.274
-319.041	25.559	-0.385	0.318
-318.026	-200.000	-0.111	0.657
-317.012	-57.142	0.410	-0.179
-315.997	297.709	0.471	-0.860
-314.983	52.583	-0.252	-0.239
-313.968	-170.402	-0.419	0.015
-312.953	-200.000	-0.012	-0.259
-311.939	333.625	0.039	0.074
-310.924	110.533	-0.391	-0.467
-309.910	0.531	0.488	-0.347
-308.895	-200.000	-0.080	0.860
-307.880	-40.889	-0.762	0.392
-306.866	-200.000	-0.130	-0.664
-305.851	710.321	-0.156	0.409
-304.837	-101.369	0.452	0.109
-303.822	-179.875	-0.411	0.009
-302.807	76.915	-0.275	-0.290
-301.793	440.564	0.113	0.245
-300.778	717.046	0.211	0.557
-299.764	165.667	0.081	0.113
-298.749	-200.000	-0.005	-0.064
-297.735	-142.396	0.343	-0.034
-296.720	95.514	-0.346	-0.392
-295.705	479.508	0.283	0.636
-294.691	-102.528	-0.256	-0.061
-293.676	800.000	0.147	0.555
-292.662	507.269	0.265	0.611
-291.647	-69.513	0.317	-0.121
-290.632	-71.243	-0.594	0.221
-289.618	85.825	0.207	-0.225
-288.603	122.172	0.243	0.301
-287.589	252.849	0.183	0.310
-286.574	19.182	-0.483	-0.385
-285.559	-60.888	0.919	-0.386
-284.545	-44.505	-0.444	0.220
-283.530	-47.389	0.407	0.196
-282.516	-94.720	-0.456	0.123
-281.501	-78.712	0.675	-0.229
-280.486	-200.000	-0.153	-0.900
-279.472	653.409	-0.378	0.961
-278.457	-117.163	0.729	0.132
-277.443	-67.921	0.585	-0.227
-276.428	-92.212	0.348	-0.098
-275.413	-200.000	0.110	-0.633
-274.399	588.820	-0.260	0.636
-273.384	283.038	0.168	-0.299
-272.370	308.818	-0.250	0.462
-271.355	432.082	-0.222	-0.478
-270.340	75.373	0.573	-0.599
-269.326	-200.000	-0.117	-0.631
-268.311	-162.591	0.261	-0.013
-267.297	53.983	0.335	-0.319
-266.282	73.534	0.262	-0.273
-265.267	5.472	0.504	0.369
-264.253	-151.596	-0.490	0.036
-263.238	800.000	-0.073	-0.274
-262.224	-16.807	-0.625	-0.392
-261.209	-62.925	0.436	0.179
-260.195	-22.826	-0.396	0.237
-259.180	76.712	0.636	0.668
-258.165	-150.100	-0.525	0.040
-257.151	6.552	-0.831	-0.612
-256.136	60.223	0.398	0.390
-255.122	-68.405	-0.555	0.214
-254.107	67.900	0.314	0.318
-253.092	-200.000	-0.019	-0.450
-252.078	-200.000	0.012	0.096
-251.063	12.711	-0.443	-0.339
-250.049	514.616	-0.305	-0.705
-249.034	-146.326	0.436	-0.038
-248.019	167.349	-0.263	0.370
-247.005	78.503	0.285	-0.302
-245.990	-200.000	0.077	-0.673
-244.976	687.506	-0.483	-1.250
-243.961	-171.057	0.576	-0.019
-242.946	2.322	-0.806	-0.578
-241.932	-119.069	-0.609	-0.106
-240.917	361.135	-0.267	-0.530
-239.903	-151.487	0.359	0.026
-238.888	72.759	-0.472	-0.488
-237.873	-42.459	0.865	0.437
-236.859	-160.347	-0.559	0.030
-235.844	-132.525	0.700	-0.089
-234.830	800.000	-0.172	-0.679
-233.815	-37.829	-0.168	-0.088
-232.800	-200.000	0.152	0.816
-231.786	45.030	0.089	-0.081
-230.771	-146.987	0.551	-0.047
-229.757	-81.864	-0.695	-0.225
-228.742	431.754	0.254	0.544
-227.727	-51.690	0.360	0.166
-226.713	800.000	0.072	-0.274
-225.698	119.028	0.115	-0.140
-224.684	339.319	0.235	0.453
-223.669	-125.991	0.427	0.063
-222.655	-200.000	-0.038	-0.380
-221.640	-200.000	-0.010	-0.560
-220.625	159.986	-0.973	1.342
-219.611	-133.865	0.597	0.073
-218.596	-34.824	0.273	-0.147
-217.582	-10.242	-0.481	0.316
-216.567	-60.189	-1.272	0.537
-215.552	-54.394	0.289	0.130
-214.538	-200.000	-0.118	-0.869
-213.523	-114.400	-0.239	0.046
-212.509	800.000	0.149	-0.427
-211.494	-200.000	-0.068	0.639
-210.479	-200.000	0.136	0.732
-209.465	-56.479	0.243	-0.107
-208.450	547.781	0.224	-0.531
-207.436	-33.346	-0.346	-0.189
-206.421	435.760	0.465	1.001
-205.406	800.000	-0.026	-0.078
-204.392	-47.971	0.384	0.184
-203.377	162.320	-0.295	-0.409
-202.363	-8.644	-0.419	-0.278
-201.348	-4.965	0.723	0.493
-200.333	-163.677	1.375	0.064
-199.319	-200.000	-0.057	-0.367
-198.304	430.980	-0.249	-0.533
-197.290	-147.612	0.629	-0.052
-196.275	326.853	-0.206	0.390
-195.260	-200.000	-0.057	-0.618
-194.246	139.162	0.239	-0.311
-193.231	105.393	-0.161	-0.188
-192.217	121.107	-0.320	0.394
-191.202	-200.000	0.005	0.465
-190.187	-118.141	0.250	-0.044
-189.173	-98.939	-0.815	0.204
-188.158	800.000	-0.101	0.283
-187.144	-20.851	0.176	-0.107
-186.129	-200.000	-0.160	-0.801
-185.114	44.384	-0.492	0.447
-184.100	800.000	-0.350	1.000
-183.085	800.000	0.153	0.621
-182.071	52.000	-0.526	-0.495
-181.056	54.732	-0.173	-0.165
-180.042	94.898	0.626	-0.704
-179.027	-58.048	-0.490	-0.211
-178.012	53.427	0.283	-0.268
-176.998	17.344	0.448	-0.352
-175.983	480.085	-0.213	0.477
-174.969	731.273	0.119	0.313
-173.954	-200.000	0.077	0.630
-172.939	-159.450	-0.254	-0.014
-171.925	-116.578	-0.423	-0.077
-170.910	800.000	0.070	0.243
-169.896	357.759	-0.521	1.027
-168.881	29.063	0.331	-0.277
-167.866	124.499	0.317	-0.394
-166.852	-144.074	0.109	-0.010
-165.837	-172.316	-0.277	-0.009
-164.823	800.000	0.171	-0.483
-163.808	377.766	-0.244	-0.492
-162.793	694.806	-0.154	0.399
-161.779	150.666	0.065	0.087
-160.764	318.439	0.245	-0.458
-159.750	403.546	0.346	-0.719
-158.735	54.021	-0.215	-0.204
-157.720	-39.964	0.305	0.157
-156.706	143.374	0.197	-0.259
-155.691	-63.109	-0.650	0.265
-154.677	-82.029	0.215	-0.069
-153.662	219.989	0.048	0.075
-152.647	-4.101	-0.301	-0.206
-151.633	-200.000	-0.000	0.495
-150.618	487.888	-0.028	-0.063
-149.604	99.953	0.205	-0.235
-148.589	-181.382	-1.306	-0.025
-147.574	19.250	-0.709	0.562
-146.560	215.380	0.279	0.436
-145.545	5.476	0.447	0.326
-144.531	21.150	-0.421	-0.338
-143.516	56.710	-0.411	-0.395
-142.502	800.000	-0.087	0.289
-141.487	134.321	-0.796	-1.018
-140.472	-200.000	0.011	0.379
-139.458	-114.022	0.445	-0.085
-138.443	-200.000	-0.106	-0.608
-137.429	-76.508	-0.475	0.165
-136.414	-59.921	0.859	0.362
-135.399	-25.015	0.485	-0.284
-134.385	536.845	-0.133	-0.312
-133.370	332.423	0.060	-0.115
-132.356	-112.814	0.498	0.097
-131.341	800.000	0.086	0.368
-130.326	145.177	0.036	-0.048
-129.312	397.923	-0.444	0.916
-128.297	19.065	-0.680	0.538
-127.283	-170.060	0.582	-0.020
-126.268	-161.760	0.302	0.015
-125.253	-3.316	-0.363	-0.249
-124.239	-71.317	-0.540	0.200
-123.224	77.528	-0.459	-0.482
-122.210	2.541	-0.288	-0.206
-121.195	64.062	-0.236	-0.235
