DTS Sentinel unit serial number:	SN413079Multiplexer serial number:	ORYXHardware model number:	OX4-SRSoftware version number:	ORYX F/W v4.00 Oryx Data Collector v3.7.2.0data status	okinstallation	princeton_trtdifferential loss correction	single-endedforward channel	channel 1reverse channel	N/Adate	2019/09/18time	19:54:35forward acquisition time	60.00reverse acquisition time	0.00gamma	496.2192k internal	0.2328k external	0.2328temperature offset calibration	1.0025default loss term (dB/km)	0.3790temperature slope calibration	1.0000multiplexer offset coefficient	1.0000multiplexer slope coefficient	1.0000fibre end	0.00T internal ref (°C)	30.80T ext. ref 1 (°C)	0.94T ext. ref 2 (°C)	21.85length (m)	temperature (°C)	Stokes	anti-Stokes-747.200	800.000	0.022	0.067
-746.185	-200.000	-0.010	-0.052
-745.171	-187.331	0.172	-0.002
-744.156	109.125	-0.300	0.362
-743.142	-2.515	-0.323	0.228
-742.127	-52.933	0.021	-0.010
-741.112	661.680	0.112	-0.290
-740.098	800.000	0.155	0.585
-739.083	-55.622	0.402	0.181
-738.069	800.000	0.062	0.205
-737.054	800.000	-0.041	0.135
-736.039	138.180	-0.193	-0.255
-735.025	-200.000	0.025	-0.318
-734.010	-147.933	-0.460	-0.039
-732.996	30.008	0.117	-0.100
-731.981	800.000	-0.054	-0.204
-730.966	55.957	0.039	0.039
-729.952	139.232	-0.055	-0.073
-728.937	-119.608	0.226	0.039
-727.923	-114.749	0.193	0.037
-726.908	-17.536	-0.280	0.177
-725.894	-200.000	0.013	-0.138
-724.879	-200.000	0.046	0.223
-723.864	212.825	-0.196	0.311
-722.850	-173.865	0.113	-0.003
-721.835	-200.000	-0.034	-0.177
-720.821	426.490	-0.065	-0.141
-719.806	-26.734	-0.069	0.040
-718.791	35.351	-0.109	-0.097
-717.777	583.525	0.052	-0.129
-716.762	179.164	-0.189	-0.279
-715.748	-200.000	-0.001	-0.177
-714.733	-68.425	-0.163	-0.064
-713.718	106.334	-0.147	-0.176
-712.704	23.453	-0.254	-0.211
-711.689	37.576	0.118	0.106
-710.675	-167.373	-0.376	0.015
-709.660	28.508	0.226	0.192
-708.645	21.147	0.071	0.058
-707.631	800.000	0.158	-0.512
-706.616	-69.595	0.050	-0.019
-705.602	-200.000	-0.025	0.171
-704.587	192.427	0.093	-0.141
-703.572	496.399	-0.075	-0.174
-702.558	317.636	0.062	0.118
-701.543	22.394	-0.174	0.143
-700.529	-67.578	-0.303	-0.119
-699.514	-173.905	0.140	-0.004
-698.499	-142.352	-0.338	-0.034
-697.485	-200.000	-0.059	-0.420
-696.470	59.995	0.258	-0.257
-695.456	114.585	-0.084	-0.103
-694.441	-94.415	0.297	-0.082
-693.426	-197.791	0.415	-0.003
-692.412	169.362	-0.173	0.249
-691.397	312.011	0.176	-0.332
-690.383	800.000	-0.032	0.112
-689.368	264.288	0.101	0.177
-688.354	800.000	-0.068	0.258
-687.339	402.771	0.136	0.287
-686.324	-17.937	-0.233	0.147
-685.310	-200.000	0.011	-0.300
-684.295	-166.662	-0.172	0.007
-683.281	-200.000	-0.013	-0.106
-682.266	-4.110	-0.097	-0.068
-681.251	215.290	-0.158	0.251
-680.237	-200.000	0.084	-0.389
-679.222	-200.000	0.006	-0.053
-678.208	161.367	-0.090	0.127
-677.193	-62.073	0.202	0.085
-676.178	-49.630	-0.299	0.143
-675.164	-200.000	-0.024	-0.120
-674.149	31.853	0.274	0.237
-673.135	-200.000	0.006	-0.109
-672.120	-92.302	-0.158	-0.045
-671.105	-59.903	0.300	0.129
-670.091	-27.893	0.208	0.121
-669.076	-98.421	-0.344	-0.088
-668.062	-10.228	-0.153	-0.102
-667.047	-103.843	-0.257	-0.060
-666.032	-200.000	0.036	0.289
-665.018	-55.867	-0.225	-0.101
-664.003	-157.621	-0.252	-0.015
-662.989	800.000	-0.074	0.211
-661.974	198.299	-0.105	0.162
-660.959	2.737	-0.032	0.023
-659.945	-123.536	0.158	0.025
-658.930	99.610	-0.257	-0.299
-657.916	-200.000	-0.051	-0.270
-656.901	-101.440	-0.207	0.051
-655.886	43.282	-0.115	-0.105
-654.872	-200.000	-0.018	-0.438
-653.857	800.000	-0.057	-0.204
-652.843	-61.009	0.252	-0.107
-651.828	88.520	0.371	-0.414
-650.814	-26.755	-0.362	0.213
-649.799	-200.000	0.029	0.189
-648.784	384.103	-0.178	-0.368
-647.770	-200.000	0.024	0.210
-646.755	208.224	-0.107	-0.168
-645.741	178.688	-0.167	-0.246
-644.726	-12.059	-0.216	0.142
-643.711	334.139	-0.065	0.127
-642.697	-64.052	-0.428	0.175
-641.682	800.000	0.110	-0.347
-640.668	550.797	0.118	-0.285
-639.653	20.099	0.034	-0.028
-638.638	42.917	0.210	0.192
-637.624	-200.000	0.037	-0.211
-636.609	-200.000	-0.025	0.190
-635.595	-80.443	0.243	0.081
-634.580	-37.222	-0.205	-0.110
-633.565	157.906	0.040	-0.056
-632.551	-93.978	-0.239	-0.066
-631.536	57.445	0.161	-0.158
-630.522	-74.048	0.212	-0.077
-629.507	-152.688	-0.111	0.008
-628.492	-200.000	-0.039	0.305
-627.478	298.448	0.069	0.128
-626.463	257.626	0.214	0.370
-625.449	-200.000	0.003	-0.207
-624.434	-103.739	-0.140	-0.033
-623.419	-66.453	-0.129	-0.051
-622.405	159.822	0.205	-0.286
-621.390	-200.000	0.001	0.143
-620.376	104.022	-0.178	-0.210
-619.361	-33.099	-0.332	-0.185
-618.346	-45.346	-0.150	0.075
-617.332	84.660	0.280	-0.307
-616.317	85.398	-0.222	0.245
-615.303	-97.409	-0.394	-0.103
-614.288	-64.333	-0.118	0.048
-613.273	-200.000	-0.058	0.472
-612.259	-150.006	-0.405	-0.032
-611.244	-85.183	0.143	-0.045
-610.230	-29.492	0.160	0.092
-609.215	-110.453	0.374	-0.078
-608.201	-200.000	-0.015	0.181
-607.186	-200.000	-0.030	-0.140
-606.171	-126.489	0.261	-0.039
-605.157	101.347	0.117	0.137
-604.142	-106.990	-0.255	0.057
-603.128	-121.937	-0.279	0.046
-602.113	92.928	0.114	0.130
-601.098	41.567	-0.189	0.171
-600.084	-129.286	-0.228	0.032
-599.069	-200.000	-0.003	0.275
-598.055	-130.309	-0.178	-0.024
-597.040	425.593	-0.127	0.273
-596.025	108.310	-0.199	-0.238
-595.011	-29.377	0.105	0.060
-593.996	-200.000	0.032	-0.308
-592.982	105.845	0.098	-0.116
-591.967	-200.000	0.051	-0.306
-590.952	253.841	-0.036	-0.061
-589.938	-65.132	0.167	0.067
-588.923	201.307	-0.061	0.094
-587.909	-91.366	0.122	0.035
-586.894	-48.447	-0.239	0.115
-585.879	-147.887	-0.315	-0.026
-584.865	-55.085	-0.418	-0.188
-583.850	135.145	0.171	0.223
-582.836	-99.343	-0.181	0.046
-581.821	78.884	-0.149	-0.160
-580.806	-106.740	-0.299	-0.067
-579.792	800.000	0.031	0.088
-578.777	-200.000	0.053	0.297
-577.763	800.000	0.016	-0.058
-576.748	-113.596	0.190	-0.037
-575.733	337.126	-0.122	-0.237
-574.719	-52.739	-0.455	-0.210
-573.704	-200.000	0.012	-0.116
-572.690	-121.968	-0.205	-0.034
-571.675	-200.000	-0.004	0.255
-570.661	-36.744	0.370	0.199
-569.646	-128.916	0.180	0.025
-568.631	171.101	-0.178	-0.255
-567.617	59.494	0.158	-0.156
-566.602	-8.451	0.166	-0.112
-565.588	-77.541	0.298	-0.103
-564.573	-200.000	0.026	0.122
-563.558	-200.000	-0.072	-0.496
-562.544	44.867	0.203	-0.187
-561.529	205.721	-0.061	0.094
-560.515	-94.922	-0.129	0.035
-559.500	-43.603	-0.222	0.112
-558.485	-165.934	0.251	0.011
-557.471	-80.611	-0.166	-0.055
-556.456	800.000	-0.008	0.030
-555.442	-74.636	0.284	0.102
-554.427	702.884	0.168	-0.442
-553.412	-50.689	-0.089	-0.042
-552.398	-97.808	0.158	0.041
-551.383	501.814	-0.056	0.129
-550.369	-200.000	0.010	-0.321
-549.354	800.000	-0.054	-0.175
-548.339	-107.145	-0.217	-0.048
-547.325	-131.353	-0.294	0.039
-546.310	-78.365	-0.090	-0.031
-545.296	800.000	0.037	-0.160
-544.281	-200.000	-0.070	0.311
-543.266	800.000	0.030	-0.097
-542.252	92.869	0.173	0.196
-541.237	800.000	-0.037	0.116
-540.223	-185.812	0.136	-0.002
-539.208	155.901	-0.145	0.199
-538.193	-159.762	0.565	0.031
-537.179	-173.301	-0.215	-0.007
-536.164	-200.000	-0.011	0.244
-535.150	161.176	0.179	0.250
-534.135	117.326	0.072	-0.089
-533.121	74.980	-0.090	-0.095
-532.106	714.537	0.094	0.249
-531.091	200.164	-0.122	-0.188
-530.077	9.465	0.152	-0.115
-529.062	-200.000	-0.026	-0.198
-528.048	235.534	-0.089	0.147
-527.033	-55.078	0.077	-0.035
-526.018	800.000	-0.082	-0.238
-525.004	-54.837	0.059	-0.027
-523.989	30.692	0.084	-0.072
-522.975	323.339	-0.045	-0.086
-521.960	800.000	-0.042	0.169
-520.945	-134.038	-0.255	0.031
-519.931	-110.089	0.205	0.043
-518.916	-133.163	0.186	-0.023
-517.902	84.717	-0.120	-0.132
-516.887	-121.079	-0.362	-0.061
-515.872	-200.000	0.012	-0.218
-514.858	422.977	-0.050	-0.108
-513.843	-200.000	0.046	-0.212
-512.829	57.240	0.024	-0.024
-511.814	91.582	-0.151	0.170
-510.799	800.000	-0.041	0.146
-509.785	800.000	0.112	0.363
-508.770	757.145	0.055	0.149
-507.756	-2.083	-0.192	-0.135
-506.741	-79.918	-0.095	-0.032
-505.726	-177.067	0.115	0.003
-504.712	149.099	0.191	-0.259
-503.697	148.931	-0.075	0.101
-502.683	-200.000	0.002	-0.162
-501.668	132.079	-0.142	-0.182
-500.653	365.723	0.046	0.093
-499.639	405.636	-0.082	-0.173
-498.624	143.907	0.230	-0.307
-497.610	82.186	-0.123	-0.133
-496.595	162.472	0.135	0.189
-495.581	-97.760	-0.086	-0.022
-494.566	21.477	0.191	-0.155
-493.551	-82.499	-0.360	-0.116
-492.537	-53.824	-0.260	-0.118
-491.522	47.455	-0.233	0.216
-490.508	-98.046	0.115	0.030
-489.493	38.841	0.070	-0.063
-488.478	-39.420	0.115	0.060
-487.464	-200.000	-0.028	-0.147
-486.449	-200.000	-0.026	0.125
-485.435	126.529	0.183	0.231
-484.420	-63.783	0.151	-0.062
-483.405	-200.000	-0.054	-0.418
-482.391	20.658	-0.216	-0.174
-481.376	53.278	-0.154	-0.148
-480.362	139.646	-0.134	-0.176
-479.347	132.071	-0.081	0.104
-478.332	-200.000	0.076	0.359
-477.318	-36.637	-0.250	0.134
-476.303	0.042	0.235	-0.167
-475.289	-94.400	0.388	-0.106
-474.274	-146.696	-0.372	-0.032
-473.259	397.772	-0.073	0.152
-472.245	-77.779	-0.224	0.077
-471.230	-85.992	0.108	0.033
-470.216	-200.000	0.004	-0.100
-469.201	-200.000	0.022	0.160
-468.186	800.000	0.054	0.198
-467.172	121.133	0.166	0.206
-466.157	87.624	-0.335	0.369
-465.143	160.129	-0.058	-0.080
-464.128	-5.063	0.231	0.158
-463.113	-25.038	0.366	0.217
-462.099	137.316	0.110	-0.143
-461.084	8.827	-0.166	-0.124
-460.070	247.500	-0.020	0.033
-459.055	-200.000	-0.035	0.000
-458.040	763.460	-0.101	0.273
-457.026	800.000	-0.068	-0.260
-456.011	99.293	0.118	0.136
-454.997	33.226	-0.141	0.122
-453.982	-200.000	0.006	0.299
-452.968	163.101	0.192	0.269
-451.953	-150.331	-0.161	-0.012
-450.938	207.814	-0.174	0.270
-449.924	132.385	0.089	0.115
-448.909	298.310	-0.230	0.421
-447.895	-78.854	0.088	-0.030
-446.880	-78.509	-0.248	-0.085
-445.865	63.979	0.073	0.074
-444.851	-95.816	0.160	-0.043
-443.836	-170.332	-0.310	-0.011
-442.822	-146.924	0.092	0.008
-441.807	-134.452	-0.333	0.041
-440.792	131.536	-0.068	-0.087
-439.778	0.633	0.242	-0.173
-438.763	-200.000	0.017	-0.222
-437.749	800.000	-0.081	-0.249
-436.734	800.000	-0.068	0.213
-435.719	-90.898	0.105	0.030
-434.705	-123.599	-0.140	0.022
-433.690	-57.843	-0.280	0.122
-432.676	-36.434	0.191	0.103
-431.661	235.083	0.303	-0.498
-430.646	237.630	0.066	-0.108
-429.632	-200.000	0.003	0.019
-428.617	-87.912	-0.148	-0.044
-427.603	277.876	0.154	0.273
-426.588	118.533	-0.096	0.118
-425.573	11.817	-0.045	0.034
-424.559	96.994	-0.187	0.213
-423.544	93.492	-0.026	0.029
-422.530	-105.346	0.334	0.076
-421.515	-200.000	0.014	-0.150
-420.500	-132.780	0.165	0.021
-419.486	-15.416	0.140	0.089
-418.471	-200.000	0.007	-0.060
-417.457	-62.485	0.065	-0.027
-416.442	-8.700	0.228	-0.152
-415.428	201.008	-0.141	-0.216
-414.413	67.786	0.161	-0.163
-413.398	-26.916	-0.278	-0.162
-412.384	150.727	-0.240	-0.325
-411.369	686.126	0.159	0.412
-410.355	317.924	-0.110	-0.206
-409.340	-58.831	0.102	0.044
-408.325	768.325	-0.042	-0.114
-407.311	406.604	-0.100	-0.210
-406.296	-200.000	-0.019	0.085
-405.282	-200.000	-0.052	-0.475
-404.267	-84.989	0.169	0.053
-403.252	24.372	-0.180	-0.148
-402.238	-1.510	0.222	0.156
-401.223	513.332	0.044	0.101
-400.209	229.251	0.165	-0.268
-399.194	381.089	0.068	0.139
-398.179	800.000	-0.023	-0.098
-397.165	-200.000	-0.027	0.541
-396.150	-200.000	-0.064	0.385
-395.136	-50.072	-0.294	-0.139
-394.121	541.012	0.124	-0.294
-393.106	-66.344	0.277	-0.110
-392.092	-88.675	0.231	-0.068
-391.077	173.528	0.191	0.274
-390.063	20.464	-0.056	0.045
-389.048	-200.000	0.046	0.274
-388.033	27.598	0.150	-0.126
-387.019	800.000	0.017	0.053
-386.004	-105.040	-0.066	-0.015
-384.990	-28.090	-0.254	0.146
-383.975	-200.000	0.016	0.076
-382.960	-164.952	0.167	-0.007
-381.946	265.802	-0.079	0.137
-380.931	426.842	0.173	-0.372
-379.917	-100.651	0.197	-0.048
-378.902	-200.000	-0.001	-0.035
-377.888	-124.914	0.200	0.031
-376.873	-56.488	-0.204	0.090
-375.858	124.234	-0.042	-0.052
-374.844	-24.719	-0.321	0.189
-373.829	-6.525	0.040	0.027
-372.815	57.451	0.076	0.073
-371.800	96.180	-0.154	0.175
-370.785	93.864	-0.180	-0.202
-369.771	800.000	-0.039	-0.139
-368.756	-200.000	-0.026	-0.173
-367.742	-97.797	0.189	0.049
-366.727	-15.710	0.252	-0.159
-365.712	-169.874	-0.391	-0.014
-364.698	-81.640	-0.026	0.009
-363.683	-58.919	-0.403	0.173
-362.669	436.838	0.109	0.236
-361.654	-147.738	0.267	-0.022
-360.639	-128.677	-0.127	-0.018
-359.625	179.942	-0.110	0.159
-358.610	-5.876	0.211	0.144
-357.596	-78.080	-0.319	0.109
-356.581	-200.000	-0.010	0.095
-355.566	-93.930	0.168	-0.046
-354.552	-185.002	0.057	0.001
-353.537	-200.000	0.000	-0.220
-352.523	193.897	0.112	0.169
-351.508	-200.000	-0.078	0.428
-350.493	762.005	-0.110	0.296
-349.479	418.688	-0.124	-0.264
-348.464	-34.611	-0.221	-0.120
-347.450	-16.493	-0.094	0.059
-346.435	70.641	0.049	0.051
-345.420	-47.420	-0.098	0.047
-344.406	-200.000	-0.070	0.344
-343.391	-2.003	0.211	-0.147
-342.377	-200.000	-0.032	0.333
-341.362	6.488	0.398	-0.293
-340.348	-159.569	0.130	-0.007
-339.333	800.000	0.016	-0.059
-338.318	25.841	-0.214	0.177
-337.304	-162.652	0.328	-0.016
-336.289	-103.172	-0.221	0.052
-335.275	-82.968	0.140	-0.045
-334.260	101.109	0.154	0.178
-333.245	115.439	-0.204	-0.247
-332.231	-200.000	-0.011	-0.311
-331.216	-200.000	0.055	-0.254
-330.202	-139.251	-0.195	0.021
-329.187	327.525	-0.095	-0.180
-328.172	-118.058	0.162	0.029
-327.158	29.694	-0.066	0.056
-326.143	73.592	-0.116	-0.121
-325.129	450.926	0.121	-0.265
-324.114	-127.910	0.182	0.026
-323.099	-165.174	-0.086	0.004
-322.085	-200.000	-0.007	-0.085
-321.070	-174.931	0.237	0.007
-320.056	125.553	0.173	-0.216
-319.041	-11.271	-0.293	-0.191
-318.026	800.000	-0.042	-0.126
-317.012	-20.184	0.328	-0.200
-315.997	-200.000	0.014	-0.258
-314.983	-200.000	0.106	0.582
-313.968	6.225	0.230	-0.169
-312.953	23.401	-0.034	0.028
-311.939	119.877	0.160	-0.196
-310.924	-60.768	-0.098	-0.041
-309.910	800.000	-0.016	0.068
-308.895	106.837	0.136	0.160
-307.880	-120.608	0.576	-0.097
-306.866	177.719	0.223	0.322
-305.851	-200.000	0.065	0.302
-304.837	-200.000	-0.028	0.184
-303.822	-81.636	0.185	-0.060
-302.807	366.041	0.195	-0.389
-301.793	-179.273	-0.047	0.001
-300.778	45.216	-0.154	-0.141
-299.764	61.492	0.021	-0.021
-298.749	307.889	0.070	0.130
-297.735	55.653	0.213	0.204
-296.720	93.090	-0.268	-0.300
-295.705	332.212	-0.119	-0.227
-294.691	77.427	-0.239	-0.251
-293.676	-200.000	0.025	0.232
-292.662	-195.097	-0.263	0.002
-291.647	217.610	-0.237	0.375
-290.632	78.533	0.163	0.173
-289.618	74.706	0.191	0.199
-288.603	-29.788	-0.341	0.193
-287.589	-92.893	-0.265	0.073
-286.574	419.585	0.147	0.311
-285.559	-84.473	-0.105	0.033
-284.545	493.379	-0.105	0.238
-283.530	43.080	0.114	0.103
-282.516	-141.264	-0.193	-0.019
-281.501	35.428	-0.077	-0.067
-280.486	-200.000	0.035	0.184
-279.472	97.018	0.306	-0.347
-278.457	518.803	0.113	0.262
-277.443	51.821	0.210	0.197
-276.428	188.064	-0.050	-0.074
-275.413	-56.845	0.409	-0.179
-274.399	46.230	-0.191	-0.175
-273.384	484.428	0.030	-0.069
-272.370	703.332	-0.088	0.230
-271.355	30.129	0.150	-0.126
-270.340	-200.000	0.027	-0.307
-269.326	308.950	-0.047	-0.086
-268.311	-92.129	-0.276	0.077
-267.297	82.304	0.126	-0.135
-266.282	800.000	0.049	-0.207
-265.267	-39.644	0.152	-0.078
-264.253	43.778	-0.090	-0.081
-263.238	-26.845	-0.187	0.108
-262.224	-72.340	-0.189	-0.069
-261.209	68.396	-0.221	0.224
-260.195	-200.000	0.040	0.394
-259.180	5.889	0.007	0.005
-258.165	-46.496	0.140	-0.068
-257.151	455.689	0.077	-0.168
-256.136	416.724	0.100	0.212
-255.122	658.605	-0.133	0.338
-254.107	-200.000	-0.018	-0.335
-253.092	711.427	-0.142	-0.372
-252.078	363.106	0.147	-0.292
-251.063	113.500	-0.222	-0.266
-250.049	-107.775	-0.360	-0.078
-249.034	800.000	0.087	0.355
-248.019	100.272	0.266	0.305
-247.005	800.000	0.050	0.145
-245.990	-114.749	-0.080	-0.015
-244.976	-14.549	0.149	0.095
-243.961	-200.000	0.009	-0.151
-242.946	166.175	-0.055	0.077
-241.932	47.866	0.215	-0.199
-240.917	61.209	-0.031	-0.030
-239.903	-75.018	-0.132	-0.047
-238.888	94.569	-0.032	-0.036
-237.873	-129.417	0.156	0.021
-236.859	-200.000	0.030	-0.218
-235.844	642.094	0.016	-0.041
-234.830	-83.852	-0.356	-0.112
-233.815	175.956	0.200	0.287
-232.800	61.029	0.276	-0.270
-231.786	210.127	0.094	-0.145
-230.771	-99.885	-0.129	-0.032
-229.757	-97.651	0.128	0.033
-228.742	-200.000	-0.033	0.244
-227.727	-78.377	-0.150	0.051
-226.713	25.179	0.226	-0.185
-225.698	-155.978	0.366	0.023
-224.684	209.146	-0.196	-0.302
-223.669	511.874	-0.005	-0.012
-222.655	6.352	0.172	0.126
-221.640	3.873	-0.085	-0.061
-220.625	-103.934	0.204	0.047
-219.611	-9.407	-0.180	-0.119
-218.596	70.954	0.279	-0.285
-217.582	-64.407	0.293	0.118
-216.567	117.673	-0.146	0.178
-215.552	129.076	-0.048	-0.061
-214.538	-57.260	-0.038	0.017
-213.523	-122.841	-0.195	0.031
-212.509	464.009	0.102	-0.225
-211.494	8.739	0.173	0.129
-210.479	76.238	0.217	0.227
-209.465	72.629	0.042	-0.043
-208.450	421.203	-0.053	-0.112
-207.436	-117.778	0.232	0.041
-206.421	178.404	0.149	-0.215
-205.406	-200.000	-0.019	-0.086
-204.392	-200.000	-0.028	0.365
-203.377	111.983	0.036	0.042
-202.363	-45.860	-0.236	0.115
-201.348	-200.000	-0.012	0.489
-200.333	361.322	0.055	0.109
-199.319	-7.544	-0.187	-0.125
-198.304	-22.182	0.247	0.148
-197.290	-200.000	-0.034	-0.148
-196.275	-46.683	-0.296	0.143
-195.260	800.000	0.120	-0.406
-194.246	800.000	-0.037	-0.133
-193.231	132.414	-0.140	-0.178
-192.217	-47.249	0.107	-0.051
-191.202	295.089	0.236	0.426
-190.187	-135.760	0.183	-0.021
-189.173	569.908	-0.078	0.188
-188.158	800.000	0.043	0.155
-187.144	-26.438	0.361	-0.209
-186.129	-200.000	-0.014	0.186
-185.114	49.571	0.107	-0.100
-184.100	800.000	-0.065	0.274
-183.085	-200.000	0.033	0.163
-182.071	-75.471	0.252	0.088
-181.056	-85.510	0.175	0.054
-180.042	95.892	0.097	0.109
-179.027	12.421	-0.300	0.228
-178.012	-59.411	0.095	-0.040
-176.998	-125.706	-0.272	0.041
-175.983	-200.000	0.022	-0.146
-174.969	92.222	-0.118	-0.131
-173.954	800.000	0.103	-0.372
-172.939	-6.637	-0.044	-0.029
-171.925	71.250	0.192	0.197
-170.910	-200.000	-0.022	-0.128
-169.896	220.774	-0.105	0.166
-168.881	680.791	-0.090	0.230
-167.866	-18.786	0.409	-0.251
-166.852	800.000	-0.049	-0.206
-165.837	-147.073	0.444	-0.037
-164.823	-109.807	-0.183	0.038
-163.808	298.960	-0.106	0.192
-162.793	350.445	0.078	0.152
-161.779	800.000	0.057	-0.192
-160.764	-126.308	0.074	0.011
-159.750	144.493	-0.140	0.184
-158.735	-98.698	0.054	-0.013
-157.720	-100.629	-0.114	0.028
-156.706	372.109	0.040	-0.081
-155.691	-119.711	-0.311	-0.053
-154.677	-30.502	0.180	0.100
-153.662	104.074	-0.201	-0.233
-152.647	-200.000	-0.074	0.409
-151.633	185.273	0.166	-0.242
-150.618	800.000	0.075	-0.315
-149.604	36.246	-0.255	-0.221
-148.589	-200.000	0.053	-0.538
-147.574	-34.604	-0.256	0.138
-146.560	-50.492	0.064	0.030
-145.545	-56.001	0.291	0.128
-144.531	140.520	0.093	-0.121
-143.516	16.469	-0.114	-0.089
-142.502	175.356	0.015	0.021
-141.487	-90.688	0.219	-0.062
-140.472	220.946	-0.215	-0.339
-139.458	-148.122	0.308	-0.025
-138.443	506.641	0.089	0.203
-137.429	-117.628	-0.235	-0.042
-136.414	-70.381	0.144	-0.054
-135.399	192.224	-0.152	0.225
-134.385	27.185	0.117	-0.097
-133.370	85.749	-0.198	0.214
-132.356	-9.561	0.118	0.077
-131.341	-134.634	0.107	0.013
-130.326	373.650	-0.033	-0.066
-129.312	512.906	0.096	0.220
-128.297	800.000	0.121	0.424
-127.283	-200.000	0.085	0.427
-126.268	-5.896	0.206	0.138
-125.253	55.874	0.223	0.213
-124.239	-33.164	-0.364	0.198
-123.224	226.729	0.205	0.328
-122.210	-200.000	-0.021	0.139
-121.195	-85.903	-0.269	-0.082
