DTS Sentinel unit serial number:	SN413079Multiplexer serial number:	ORYXHardware model number:	OX4-SRSoftware version number:	ORYX F/W v4.00 Oryx Data Collector v3.7.2.0data status	okinstallation	princeton_trtdifferential loss correction	single-endedforward channel	channel 1reverse channel	N/Adate	2019/09/14time	22:18:35forward acquisition time	60.00reverse acquisition time	0.00gamma	496.2192k internal	0.2319k external	0.2319temperature offset calibration	1.0005default loss term (dB/km)	0.3790temperature slope calibration	1.0000multiplexer offset coefficient	1.0000multiplexer slope coefficient	1.0000fibre end	0.00T internal ref (°C)	32.61T ext. ref 1 (°C)	4.69T ext. ref 2 (°C)	27.57length (m)	temperature (°C)	Stokes	anti-Stokes-747.200	382.600	-0.144	0.299
-746.185	538.714	0.155	0.373
-745.171	485.593	-0.191	-0.441
-744.156	302.805	0.160	0.299
-743.142	-63.610	-0.210	0.087
-742.127	-94.847	0.149	0.041
-741.112	-17.334	-0.228	-0.145
-740.098	43.228	-0.187	-0.172
-739.083	-20.682	0.285	0.177
-738.069	-200.000	-0.007	0.073
-737.054	638.996	-0.027	-0.070
-736.039	130.162	-0.125	-0.162
-735.025	137.220	0.257	0.340
-734.010	-200.000	-0.037	-0.294
-732.996	-17.663	-0.190	-0.121
-731.981	677.344	-0.074	0.194
-730.966	-56.933	0.182	-0.081
-729.952	37.555	-0.235	-0.211
-728.937	69.130	-0.209	-0.217
-727.923	-200.000	0.009	0.070
-726.908	1.034	-0.312	0.226
-725.894	-200.000	0.017	-0.077
-724.879	800.000	-0.087	-0.335
-723.864	-55.958	0.157	-0.071
-722.850	-48.035	0.163	0.080
-721.835	800.000	0.084	-0.291
-720.821	800.000	-0.027	-0.091
-719.806	124.081	0.104	-0.132
-718.791	15.381	-0.265	-0.210
-717.777	118.587	0.161	-0.201
-716.762	-167.003	-0.301	-0.012
-715.748	-93.971	0.176	-0.049
-714.733	-90.233	-0.056	0.016
-713.718	32.277	0.054	0.047
-712.704	-70.056	-0.193	-0.074
-711.689	800.000	-0.023	-0.079
-710.675	-26.114	-0.033	0.020
-709.660	-42.394	-0.136	0.070
-708.645	-126.473	-0.384	-0.058
-707.631	-200.000	0.016	-0.141
-706.616	-15.954	0.025	-0.016
-705.602	-61.228	-0.119	0.051
-704.587	-147.413	0.342	-0.029
-703.572	-174.685	0.070	0.002
-702.558	-149.018	-0.167	0.014
-701.543	800.000	0.105	-0.349
-700.529	61.903	-0.127	-0.128
-699.514	-88.956	0.278	0.083
-698.499	-73.633	-0.201	0.074
-697.485	46.674	0.118	-0.111
-696.470	-64.910	-0.110	0.045
-695.456	-200.000	0.022	0.126
-694.441	-120.185	-0.176	-0.030
-693.426	800.000	0.099	0.387
-692.412	-13.702	-0.099	-0.065
-691.397	-79.040	-0.053	0.018
-690.383	235.041	0.112	-0.187
-689.368	171.512	0.065	-0.094
-688.354	109.003	-0.074	0.090
-687.339	-46.117	0.155	-0.077
-686.324	39.935	0.099	0.090
-685.310	-80.895	-0.065	-0.022
-684.295	-105.989	-0.016	-0.004
-683.281	106.119	0.020	-0.024
-682.266	203.713	-0.077	0.120
-681.251	384.377	0.168	-0.349
-680.237	-25.810	0.216	-0.129
-679.222	742.668	0.056	-0.153
-678.208	-200.000	0.041	0.185
-677.193	-104.647	-0.034	0.008
-676.178	-29.971	0.144	-0.083
-675.164	800.000	0.076	-0.277
-674.149	568.016	-0.017	-0.043
-673.135	-30.392	0.187	0.107
-672.120	-84.889	-0.102	-0.032
-671.105	65.301	0.194	0.198
-670.091	800.000	0.059	-0.195
-669.076	-131.839	-0.240	-0.032
-668.062	-44.901	0.204	0.103
-667.047	61.072	0.045	-0.046
-666.032	28.776	-0.166	-0.141
-665.018	800.000	-0.037	0.135
-664.003	800.000	0.024	0.075
-662.989	404.666	-0.089	0.189
-661.974	111.853	0.063	-0.077
-660.959	-198.121	-0.061	0.000
-659.945	-97.772	0.043	0.011
-658.930	-93.179	0.223	0.063
-657.916	800.000	-0.090	-0.264
-656.901	-117.255	0.161	-0.029
-655.886	-106.543	0.366	0.082
-654.872	-63.962	-0.201	-0.083
-653.857	800.000	0.063	-0.179
-652.843	29.424	0.258	-0.221
-651.828	800.000	-0.005	-0.023
-650.814	-54.954	0.251	0.114
-649.799	800.000	-0.074	-0.278
-648.784	531.267	-0.102	0.242
-647.770	46.714	0.185	-0.173
-646.755	-200.000	-0.004	-0.177
-645.741	800.000	0.030	-0.123
-644.726	746.646	0.138	-0.375
-643.711	409.399	-0.077	0.164
-642.697	77.788	0.188	0.202
-641.682	303.629	-0.157	0.294
-640.668	-66.828	0.154	0.062
-639.653	-200.000	-0.009	-0.186
-638.638	175.026	-0.048	0.070
-637.624	-50.914	0.258	0.122
-636.609	45.122	-0.189	-0.175
-635.595	78.840	-0.113	-0.122
-634.580	257.669	-0.152	0.263
-633.565	9.899	-0.217	-0.166
-632.551	354.910	0.067	-0.133
-631.536	-158.385	0.242	0.014
-630.522	-51.901	-0.310	-0.145
-629.507	-200.000	-0.011	-0.208
-628.492	14.899	0.296	-0.233
-627.478	359.468	-0.097	-0.194
-626.463	-200.000	0.041	-0.278
-625.449	206.839	-0.084	-0.132
-624.434	-200.000	-0.017	-0.510
-623.419	-19.969	-0.136	-0.085
-622.405	-62.588	0.403	0.168
-621.390	-200.000	0.037	0.273
-620.376	-47.433	-0.049	0.024
-619.361	469.393	0.044	0.099
-618.346	59.423	-0.118	0.117
-617.332	-155.415	0.201	0.013
-616.317	318.282	-0.069	-0.132
-615.303	281.902	0.074	-0.134
-614.288	-107.269	0.303	0.067
-613.273	-200.000	0.001	-0.120
-612.259	28.529	0.104	-0.089
-611.244	-49.247	0.408	0.196
-610.230	-24.522	-0.062	-0.037
-609.215	123.221	-0.034	-0.043
-608.201	-147.747	0.019	-0.002
-607.186	-200.000	0.017	0.210
-606.171	-200.000	0.013	0.358
-605.157	-97.658	0.074	0.019
-604.142	-111.729	-0.086	-0.017
-603.128	186.327	0.153	-0.229
-602.113	155.829	-0.073	-0.102
-601.098	-200.000	-0.023	0.164
-600.084	800.000	0.055	0.221
-599.069	522.851	-0.094	-0.223
-598.055	-58.116	-0.222	0.097
-597.040	-200.000	0.003	0.015
-596.025	-200.000	0.055	-0.297
-595.011	102.172	-0.110	-0.129
-593.996	-110.156	-0.344	-0.072
-592.982	-108.572	0.131	0.028
-591.967	113.758	0.117	-0.143
-590.952	-11.228	0.145	-0.096
-589.938	-122.208	0.332	0.055
-588.923	-200.000	-0.431	-0.002
-587.909	55.372	0.237	-0.231
-586.894	-144.907	0.240	-0.022
-585.879	800.000	0.031	0.119
-584.865	-38.001	-0.256	-0.137
-583.850	-97.009	0.226	-0.060
-582.836	-128.662	-0.112	-0.016
-581.821	45.556	0.115	0.107
-580.806	-200.000	0.002	0.079
-579.792	-13.698	0.256	-0.166
-578.777	-172.778	0.155	-0.005
-577.763	-200.000	-0.036	0.351
-576.748	-146.523	0.152	0.013
-575.733	-97.139	-0.039	-0.010
-574.719	-23.485	0.114	-0.069
-573.704	-94.369	0.243	0.067
-572.690	-200.000	-0.030	0.132
-571.675	800.000	-0.017	0.057
-570.661	-112.508	-0.126	-0.025
-569.646	-29.238	0.356	-0.205
-568.631	-42.424	-0.192	-0.098
-567.617	-200.000	-0.027	0.197
-566.602	35.909	0.205	0.181
-565.588	117.777	-0.124	-0.153
-564.573	16.175	-0.090	0.071
-563.558	199.476	-0.134	0.206
-562.544	296.056	0.066	-0.121
-561.529	133.721	0.170	0.221
-560.515	30.661	-0.112	-0.096
-559.500	617.405	-0.137	0.344
-558.485	22.738	-0.107	-0.088
-557.471	-128.521	-0.514	-0.073
-556.456	-102.456	-0.190	0.046
-555.442	112.367	0.063	-0.076
-554.427	-52.493	0.303	-0.141
-553.412	-84.853	-0.114	-0.036
-552.398	-200.000	-0.014	-0.202
-551.383	192.617	-0.152	0.230
-550.369	-142.185	0.247	-0.025
-549.354	-145.895	0.268	-0.024
-548.339	-45.409	0.200	0.100
-547.325	800.000	-0.094	0.355
-546.310	-170.116	0.182	-0.006
-545.296	148.102	-0.248	0.335
-544.281	-200.000	-0.018	0.233
-543.266	-200.000	0.065	-0.559
-542.252	-142.361	-0.066	0.007
-541.237	726.651	0.077	0.206
-540.223	800.000	-0.059	-0.165
-539.208	-20.427	-0.234	-0.144
-538.193	466.088	0.014	0.031
-537.179	444.737	-0.129	-0.284
-536.164	43.640	-0.108	-0.099
-535.150	-104.619	-0.283	0.066
-534.135	-200.000	-0.021	-0.261
-533.121	244.446	-0.110	0.185
-532.106	-178.766	0.348	-0.008
-531.091	-31.943	0.210	0.118
-530.077	-44.585	0.221	0.111
-529.062	-67.539	-0.148	-0.058
-528.048	800.000	-0.103	0.358
-527.033	-111.339	0.158	0.032
-526.018	105.548	-0.258	0.306
-525.004	301.092	0.110	0.204
-523.989	800.000	-0.052	0.178
-522.975	60.931	-0.128	0.127
-521.960	800.000	0.055	-0.193
-520.945	-200.000	-0.005	0.218
-519.931	-37.260	-0.179	0.096
-518.916	-200.000	0.019	-0.108
-517.902	-200.000	-0.027	-0.259
-516.887	718.379	-0.115	-0.305
-515.872	68.904	-0.324	0.334
-514.858	-34.610	-0.170	-0.093
-513.843	-57.107	-0.384	-0.170
-512.829	80.180	-0.070	-0.075
-511.814	-60.077	-0.204	-0.087
-510.799	300.128	0.138	0.255
-509.785	800.000	-0.051	0.181
-508.770	-59.035	-0.065	-0.028
-507.756	18.300	0.222	-0.178
-506.741	-65.665	0.212	-0.085
-505.726	800.000	-0.107	-0.446
-504.712	800.000	0.017	-0.065
-503.697	-200.000	-0.007	-0.135
-502.683	8.917	0.272	-0.205
-501.668	132.285	-0.182	0.234
-500.653	163.503	0.080	-0.112
-499.639	106.664	0.119	0.141
-498.624	-171.329	0.197	-0.007
-497.610	492.322	-0.054	0.124
-496.595	33.117	0.316	0.274
-495.581	747.587	-0.081	-0.219
-494.566	106.698	-0.297	-0.353
-493.551	-200.000	-0.035	-0.200
-492.537	12.314	-0.142	-0.110
-491.522	-87.284	0.104	0.032
-490.508	-134.443	0.455	-0.056
-489.493	-22.472	0.220	-0.133
-488.478	-23.616	0.072	0.043
-487.464	186.221	-0.187	0.279
-486.449	-200.000	0.026	0.203
-485.435	59.457	-0.270	-0.266
-484.420	-88.258	0.226	0.068
-483.405	-200.000	-0.008	-0.186
-482.391	-157.012	0.157	-0.010
-481.376	-94.070	-0.139	-0.038
-480.362	10.877	-0.047	0.036
-479.347	800.000	-0.120	-0.402
-478.332	-35.023	0.087	0.047
-477.318	-95.818	0.553	-0.148
-476.303	70.665	0.092	0.096
-475.289	102.665	-0.174	0.204
-474.274	27.773	-0.227	0.191
-473.259	141.893	0.069	-0.091
-472.245	-150.610	0.224	0.017
-471.230	-52.599	-0.328	0.152
-470.216	800.000	0.127	-0.518
-469.201	2.483	-0.103	-0.074
-468.186	-200.000	-0.041	-0.260
-467.172	-200.000	-0.018	0.182
-466.157	197.224	-0.066	-0.101
-465.143	-48.932	0.098	0.047
-464.128	-56.537	-0.140	-0.062
-463.113	186.371	-0.152	0.226
-462.099	-200.000	-0.051	0.408
-461.084	-200.000	0.012	0.068
-460.070	123.150	-0.119	-0.150
-459.055	-96.680	0.118	0.031
-458.040	-136.066	-0.118	-0.014
-457.026	-158.296	0.239	-0.014
-456.011	-39.031	-0.356	0.187
-454.997	33.770	0.329	-0.286
-453.982	74.084	-0.095	-0.100
-452.968	310.050	-0.168	0.314
-451.953	-116.175	-0.325	0.060
-450.938	311.756	0.076	0.143
-449.924	493.800	-0.078	0.178
-448.909	-51.651	-0.355	-0.165
-447.895	169.201	-0.108	-0.154
-446.880	354.526	0.098	-0.194
-445.865	369.317	-0.131	0.265
-444.851	-200.000	-0.010	0.317
-443.836	506.089	0.107	0.248
-442.822	-200.000	0.002	-0.172
-441.807	154.231	0.108	-0.149
-440.792	698.962	-0.058	0.154
-439.778	-154.128	-0.356	-0.024
-438.763	33.522	-0.252	0.219
-437.749	-102.281	-0.356	0.085
-436.734	586.998	0.082	-0.201
-435.719	800.000	0.097	-0.373
-434.705	76.285	-0.103	-0.108
-433.690	-200.000	0.033	0.239
-432.676	231.436	0.026	0.042
-431.661	-14.270	0.183	-0.118
-430.646	-9.361	0.050	0.033
-429.632	-63.067	0.149	0.061
-428.617	-146.949	0.257	0.022
-427.603	-168.928	-0.292	-0.011
-426.588	-158.566	-0.063	0.004
-425.573	432.512	-0.154	-0.334
-424.559	-139.773	-0.315	-0.033
-423.544	800.000	-0.122	-0.372
-422.530	15.275	-0.199	-0.156
-421.515	-33.873	-0.046	0.025
-420.500	283.717	0.073	-0.131
-419.486	-200.000	-0.068	-0.358
-418.471	-175.224	0.128	-0.004
-417.457	152.512	0.202	-0.276
-416.442	87.703	-0.016	-0.017
-415.428	-38.122	-0.469	0.248
-414.413	-200.000	-0.019	0.140
-413.398	29.495	-0.193	0.164
-412.384	24.621	0.223	0.184
-411.369	131.495	-0.223	-0.286
-410.355	31.049	-0.109	-0.093
-409.340	-45.290	-0.151	0.075
-408.325	-200.000	-0.057	0.277
-407.311	368.518	-0.134	0.271
-406.296	800.000	-0.045	0.137
-405.282	166.123	0.280	-0.396
-404.267	63.510	0.152	0.152
-403.252	-192.865	-0.222	-0.002
-402.238	-4.911	0.096	-0.066
-401.223	-14.933	-0.343	0.219
-400.209	14.494	0.173	-0.134
-399.194	-116.369	-0.138	0.025
-398.179	-200.000	-0.059	-0.271
-397.165	29.254	-0.137	0.116
-396.150	-200.000	-0.028	-0.281
-395.136	-77.691	0.404	0.139
-394.121	-43.653	-0.241	-0.121
-393.106	78.611	0.067	0.072
-392.092	-59.509	-0.237	-0.101
-391.077	-200.000	-0.018	0.178
-390.063	-80.282	-0.137	-0.046
-389.048	238.797	0.271	-0.449
-388.033	97.872	0.020	0.023
-387.019	-200.000	0.072	0.388
-386.004	53.604	0.195	0.187
-384.990	-200.000	-0.016	0.123
-383.975	-161.074	0.141	-0.007
-382.960	0.948	-0.172	0.123
-381.946	-54.065	0.165	0.075
-380.931	225.380	0.091	0.146
-379.917	-200.000	-0.028	0.438
-378.902	9.066	0.373	0.281
-377.888	92.636	-0.115	0.129
-376.873	-97.291	0.104	-0.027
-375.858	800.000	0.080	-0.282
-374.844	-97.147	-0.212	-0.055
-373.829	243.700	0.247	-0.414
-372.815	757.104	0.111	0.301
-371.800	394.813	0.085	-0.176
-370.785	447.101	0.060	0.132
-369.771	-161.113	0.163	0.009
-368.756	285.778	-0.103	-0.185
-367.742	-127.140	-0.018	-0.003
-366.727	-168.555	-0.514	0.020
-365.712	800.000	0.119	0.333
-364.698	69.207	-0.295	0.303
-363.683	-67.934	-0.237	0.092
-362.669	-88.833	0.077	-0.023
-361.654	546.905	-0.151	0.360
-360.639	-146.784	-0.260	-0.022
-359.625	-90.214	0.360	0.104
-358.610	-66.817	-0.057	0.023
-357.596	615.837	-0.113	-0.283
-356.581	-21.938	-0.052	0.032
-355.566	111.458	-0.023	-0.028
-354.552	-3.179	0.218	0.151
-353.537	6.691	-0.118	0.087
-352.523	33.845	0.106	-0.092
-351.508	800.000	0.014	-0.054
-350.493	526.673	0.155	-0.363
-349.479	800.000	0.092	-0.295
-348.464	800.000	-0.076	0.288
-347.450	292.476	-0.168	-0.305
-346.435	-47.270	0.016	0.008
-345.420	98.386	0.072	0.083
-344.406	123.345	0.165	-0.206
-343.391	-1.296	0.220	0.155
-342.377	-200.000	0.030	-0.162
-341.362	-76.857	-0.253	0.088
-340.348	800.000	-0.061	-0.175
-339.333	-115.894	-0.145	-0.027
-338.318	-62.912	0.110	0.046
-337.304	21.028	0.119	0.096
-336.289	117.976	0.226	0.277
-335.275	-112.239	0.302	-0.060
-334.260	397.630	0.153	0.319
-333.245	-200.000	0.018	0.300
-332.231	-200.000	0.013	0.107
-331.216	706.607	0.136	0.357
-330.202	145.338	-0.134	-0.179
-329.187	-18.759	-0.101	0.063
-328.172	-140.571	0.511	-0.053
-327.158	800.000	-0.021	-0.080
-326.143	107.729	0.156	0.185
-325.129	-17.842	0.057	-0.036
-324.114	-200.000	-0.022	-0.504
-323.099	-200.000	-0.017	0.111
-322.085	-200.000	0.001	-0.122
-321.070	88.618	-0.165	0.183
-320.056	138.368	0.152	-0.199
-319.041	-109.172	0.340	-0.072
-318.026	179.926	0.220	0.321
-317.012	99.144	0.292	0.335
-315.997	297.968	-0.055	-0.101
-314.983	-64.649	-0.310	0.125
-313.968	800.000	-0.008	0.028
-312.953	-116.901	-0.172	0.031
-311.939	90.659	-0.088	0.098
-310.924	225.172	0.122	0.197
-309.910	-200.000	-0.017	-0.109
-308.895	389.510	0.065	-0.134
-307.880	182.903	0.195	-0.286
-306.866	-200.000	0.037	0.174
-305.851	19.942	-0.050	-0.040
-304.837	156.721	0.082	-0.113
-303.822	-17.539	0.131	0.082
-302.807	-44.725	0.337	-0.167
-301.793	-93.415	0.061	0.017
-300.778	212.486	0.112	0.176
-299.764	8.482	0.285	0.213
-298.749	378.717	-0.097	0.196
-297.735	-200.000	0.022	0.433
-296.720	-200.000	0.067	0.297
-295.705	-119.534	-0.204	0.035
-294.691	-102.151	0.098	0.023
-293.676	40.001	-0.206	0.184
-292.662	-200.000	0.012	0.080
-291.647	158.181	-0.219	-0.302
-290.632	-120.382	-0.039	-0.007
-289.618	-105.060	0.285	0.065
-288.603	301.500	0.066	-0.120
-287.589	-102.582	0.130	0.031
-286.574	-116.037	0.325	0.060
-285.559	105.308	0.034	-0.040
-284.545	72.757	0.119	0.123
-283.530	77.436	0.118	-0.125
-282.516	7.699	0.242	0.180
-281.501	41.959	0.221	-0.199
-280.486	175.964	-0.167	-0.240
-279.472	279.675	-0.045	0.081
-278.457	202.540	0.115	-0.176
-277.443	-131.948	-0.234	-0.030
-276.428	158.011	-0.131	-0.180
-275.413	286.012	-0.148	-0.264
-274.399	106.547	-0.048	0.057
-273.384	-200.000	0.029	0.466
-272.370	-170.072	0.188	-0.007
-271.355	585.568	0.101	0.247
-270.340	-133.946	-0.318	-0.039
-269.326	-200.000	-0.008	-0.089
-268.311	296.974	0.155	-0.282
-267.297	444.893	0.034	-0.074
-266.282	-30.906	-0.106	0.060
-265.267	-200.000	0.066	-0.344
-264.253	800.000	-0.051	-0.189
-263.238	-127.298	-0.172	-0.025
-262.224	159.117	-0.117	0.161
-261.209	-80.680	-0.132	0.044
-260.195	-5.709	-0.350	-0.238
-259.180	-81.380	0.251	0.082
-258.165	299.514	0.067	0.123
-257.151	-200.000	-0.078	0.376
-256.136	-94.491	0.129	-0.035
-255.122	-200.000	0.035	0.205
-254.107	175.633	0.040	0.058
-253.092	189.136	0.079	0.118
-252.078	-200.000	-0.028	-0.298
-251.063	-152.602	0.154	0.011
-250.049	161.742	0.058	-0.080
-249.034	-200.000	0.094	0.478
-248.019	-91.238	0.122	-0.035
-247.005	-125.278	0.161	-0.024
-245.990	-160.717	-0.518	-0.027
-244.976	-75.958	-0.178	0.063
-243.961	-106.407	0.136	-0.030
-242.946	-122.637	0.188	0.030
-241.932	39.299	-0.097	0.086
-240.917	-97.284	-0.249	0.065
-239.903	-200.000	-0.004	0.204
-238.888	-45.289	-0.075	-0.037
-237.873	123.104	0.084	0.104
-236.859	-3.586	0.284	-0.196
-235.844	800.000	-0.027	-0.077
-234.830	70.118	0.209	-0.214
-233.815	137.921	-0.105	-0.137
-232.800	800.000	0.053	-0.203
-231.786	-131.477	-0.084	-0.011
-230.771	-200.000	-0.076	-0.376
-229.757	-42.377	0.239	-0.121
-228.742	0.456	0.084	0.060
-227.727	184.247	-0.203	0.298
-226.713	-200.000	-0.000	-0.277
-225.698	31.617	-0.116	-0.099
-224.684	115.654	-0.102	0.124
-223.669	-47.239	0.079	-0.038
-222.655	-90.733	-0.163	-0.047
-221.640	165.811	-0.171	0.239
-220.625	40.463	0.219	0.195
-219.611	423.587	0.098	-0.208
-218.596	-126.091	-0.008	0.001
-217.582	39.823	-0.292	0.259
-216.567	75.007	-0.205	-0.214
-215.552	752.810	0.047	-0.127
-214.538	800.000	-0.005	0.023
-213.523	40.593	0.119	0.107
-212.509	96.142	-0.154	-0.175
-211.494	-200.000	0.012	0.254
-210.479	-42.945	-0.266	0.134
-209.465	-95.106	-0.127	-0.034
-208.450	-3.189	-0.041	-0.029
-207.436	-25.174	0.126	-0.074
-206.421	-138.429	-0.130	0.014
-205.406	85.654	0.097	0.105
-204.392	401.244	-0.120	0.249
-203.377	-117.637	-0.154	-0.028
-202.363	-69.249	-0.152	-0.058
-201.348	-199.804	-0.378	-0.002
-200.333	-17.721	0.362	-0.225
-199.319	-111.001	-0.158	0.032
-198.304	27.265	0.190	0.158
-197.290	800.000	-0.029	-0.119
-196.275	800.000	0.016	-0.064
-195.260	-88.848	-0.140	-0.041
-194.246	-76.613	-0.201	-0.070
-193.231	-200.000	0.049	-0.241
-192.217	691.332	-0.057	0.147
-191.202	-101.218	0.285	0.069
-190.187	239.108	-0.028	-0.046
-189.173	-63.644	-0.196	-0.080
-188.158	217.343	0.120	0.189
-187.144	-93.107	-0.166	-0.046
-186.129	4.663	-0.017	0.012
-185.114	-127.288	-0.305	-0.044
-184.100	770.741	-0.053	0.142
-183.085	800.000	0.014	0.059
-182.071	-49.941	0.137	0.064
-181.056	89.277	-0.054	-0.059
-180.042	7.733	-0.346	-0.256
-179.027	-133.988	0.298	-0.036
-178.012	-117.602	-0.124	0.022
-176.998	572.938	0.004	0.009
-175.983	44.539	0.163	-0.148
-174.969	50.882	0.105	0.098
-173.954	137.206	0.194	-0.251
-172.939	-102.830	-0.061	0.014
-171.925	70.896	-0.211	-0.216
-170.910	-183.678	-0.222	0.004
-169.896	47.109	0.042	-0.039
-168.881	-143.222	0.474	-0.045
-167.866	-10.781	0.204	0.133
-166.852	-147.384	-0.164	-0.014
-165.837	-113.236	-0.361	0.070
-164.823	95.341	-0.127	-0.143
-163.808	800.000	-0.068	-0.283
-162.793	127.328	0.212	0.266
-161.779	-29.652	-0.040	0.023
-160.764	800.000	-0.123	0.402
-159.750	8.388	0.041	-0.031
-158.735	-128.334	0.046	-0.006
-157.720	738.367	0.088	-0.234
-156.706	-35.006	0.260	0.140
-155.691	-200.000	-0.016	-0.155
-154.677	-52.009	0.443	-0.204
-153.662	9.574	-0.169	0.127
-152.647	21.928	-0.233	0.188
-151.633	82.610	0.261	0.280
-150.618	-200.000	-0.008	0.109
-149.604	13.181	0.341	0.261
-148.589	-200.000	-0.016	-0.143
-147.574	96.652	-0.217	0.246
-146.560	513.592	0.126	-0.291
-145.545	-59.879	-0.162	0.069
-144.531	46.626	0.244	-0.224
-143.516	-138.252	-0.650	0.071
-142.502	-46.460	-0.158	-0.077
-141.487	118.762	0.181	0.221
-140.472	-122.022	0.423	-0.069
-139.458	-41.586	0.121	0.061
-138.443	623.340	-0.094	0.234
-137.429	-200.000	0.009	0.381
-136.414	74.231	-0.103	0.107
-135.399	-3.116	-0.231	-0.159
-134.385	-200.000	0.020	-0.258
-133.370	-11.038	-0.305	0.199
-132.356	402.230	0.128	0.266
-131.341	183.191	0.118	-0.172
-130.326	-200.000	-0.034	0.179
-129.312	80.821	0.225	-0.239
-128.297	605.599	0.036	-0.089
-127.283	800.000	-0.091	0.320
-126.268	-149.061	0.399	0.032
-125.253	51.554	0.197	-0.185
-124.239	570.855	-0.103	0.247
-123.224	-0.906	0.162	0.113
-122.210	-103.565	-0.360	-0.083
-121.195	-15.180	-0.166	0.105
