DTS Sentinel unit serial number:	SN413079Multiplexer serial number:	ORYXHardware model number:	OX4-SRSoftware version number:	ORYX F/W v4.00 Oryx Data Collector v3.7.2.0data status	okinstallation	princeton_trtdifferential loss correction	single-endedforward channel	channel 1reverse channel	N/Adate	2019/09/17time	16:02:35forward acquisition time	60.00reverse acquisition time	0.00gamma	496.2192k internal	0.2291k external	0.2291temperature offset calibration	0.9954default loss term (dB/km)	0.3790temperature slope calibration	1.0000multiplexer offset coefficient	1.0000multiplexer slope coefficient	1.0000fibre end	0.00T internal ref (°C)	40.03T ext. ref 1 (°C)	0.38T ext. ref 2 (°C)	38.58length (m)	temperature (°C)	Stokes	anti-Stokes-747.200	-38.601	-0.079	-0.043
-746.185	-130.614	-0.149	0.021
-745.171	-116.999	-0.299	-0.056
-744.156	-200.000	-0.096	0.437
-743.142	776.274	-0.079	-0.221
-742.127	-24.445	0.197	-0.120
-741.112	161.963	0.202	0.289
-740.098	270.367	-0.325	0.585
-739.083	329.141	0.162	0.319
-738.069	-105.521	0.131	0.030
-737.054	-200.000	-0.042	-0.203
-736.039	-61.240	-0.148	-0.064
-735.025	-37.767	-0.284	0.155
-734.010	-200.000	-0.485	-0.001
-732.996	-74.825	-0.203	-0.075
-731.981	78.077	0.231	-0.252
-730.966	-13.511	-0.226	-0.150
-729.952	-13.121	0.107	0.071
-728.937	101.989	-0.227	-0.272
-727.923	-86.923	-0.101	-0.032
-726.908	-172.607	-0.427	0.014
-725.894	68.529	0.159	-0.167
-724.879	800.000	-0.058	-0.202
-723.864	479.673	-0.078	-0.182
-722.850	-200.000	-0.024	0.158
-721.835	-200.000	-0.001	-0.012
-720.821	25.716	-0.063	-0.054
-719.806	-59.832	-0.155	0.068
-718.791	-69.976	-0.250	-0.097
-717.777	-116.642	-0.049	-0.009
-716.762	47.018	-0.206	0.196
-715.748	-200.000	-0.028	-0.188
-714.733	88.290	0.269	0.306
-713.718	-200.000	-0.010	-0.262
-712.704	-69.091	0.054	-0.021
-711.689	7.836	-0.162	-0.124
-710.675	-23.366	-0.163	0.100
-709.660	800.000	-0.048	-0.177
-708.645	-40.193	0.343	-0.183
-707.631	290.554	-0.112	-0.208
-706.616	504.032	-0.195	-0.462
-705.602	-33.201	0.191	-0.108
-704.587	-51.052	-0.185	-0.089
-703.572	782.198	-0.092	-0.258
-702.558	-200.000	-0.016	-0.080
-701.543	52.234	-0.247	-0.241
-700.529	-26.650	0.120	0.072
-699.514	608.014	-0.126	0.321
-698.499	790.686	-0.084	0.236
-697.485	-1.467	0.160	0.115
-696.470	403.433	-0.115	-0.248
-695.456	-170.509	-0.364	-0.013
-694.441	679.706	0.059	-0.156
-693.426	-73.666	0.152	-0.057
-692.412	800.000	0.142	0.418
-691.397	74.156	0.118	-0.126
-690.383	345.790	0.101	-0.203
-689.368	-110.756	-0.207	-0.044
-688.354	253.809	-0.011	-0.019
-687.339	-135.729	0.284	0.034
-686.324	74.934	-0.081	0.087
-685.310	692.392	-0.068	0.183
-684.295	400.747	0.064	0.138
-683.281	-200.000	-0.013	0.199
-682.266	-200.000	0.026	-0.309
-681.251	800.000	0.036	-0.148
-680.237	-41.222	-0.203	0.107
-679.222	-104.215	0.047	-0.011
-678.208	-89.278	-0.133	-0.040
-677.193	406.228	-0.101	0.218
-676.178	-193.136	0.176	0.002
-675.164	394.539	-0.200	-0.426
-674.149	-128.289	0.198	0.029
-673.135	-200.000	0.070	-0.325
-672.120	-200.000	0.011	-0.113
-671.105	-200.000	-0.031	-0.168
-670.091	-172.086	0.228	0.008
-669.076	-200.000	-0.003	-0.490
-668.062	-31.667	-0.365	0.209
-667.047	-69.463	-0.231	-0.090
-666.032	-86.782	0.144	-0.045
-665.018	596.633	-0.036	-0.092
-664.003	348.628	-0.075	-0.152
-662.989	493.075	-0.150	-0.351
-661.974	559.514	0.066	-0.162
-660.959	-75.238	0.028	0.010
-659.945	69.199	-0.349	0.366
-658.930	96.773	-0.203	0.237
-657.916	334.962	-0.129	0.255
-656.901	621.821	0.033	0.084
-655.886	800.000	0.026	0.116
-654.872	133.665	-0.196	0.258
-653.857	-200.000	-0.045	-0.290
-652.843	16.808	-0.308	0.248
-651.828	121.377	-0.126	0.160
-650.814	-52.611	-0.275	-0.129
-649.799	506.000	0.016	-0.038
-648.784	84.565	0.387	0.433
-647.770	23.783	-0.078	0.065
-646.755	800.000	-0.052	-0.198
-645.741	550.998	0.053	-0.130
-644.726	-151.282	0.203	-0.015
-643.711	355.596	0.055	0.112
-642.697	800.000	0.088	-0.279
-641.682	346.473	-0.092	-0.185
-640.668	-49.201	-0.412	0.201
-639.653	-200.000	-0.016	0.281
-638.638	410.192	0.029	-0.064
-637.624	205.841	0.118	-0.187
-636.609	150.866	-0.087	0.121
-635.595	-81.396	-0.281	-0.094
-634.580	-200.000	0.021	0.187
-633.565	308.318	-0.081	-0.155
-632.551	-72.191	-0.018	0.007
-631.536	121.494	0.054	0.069
-630.522	136.547	0.177	-0.236
-629.507	493.604	-0.037	0.088
-628.492	43.518	-0.157	-0.147
-627.478	-42.491	-0.172	0.089
-626.463	-54.116	0.279	0.129
-625.449	-160.861	-0.155	-0.008
-624.434	27.009	-0.188	-0.161
-623.419	800.000	0.064	0.202
-622.405	-133.169	0.230	0.030
-621.390	-146.260	-0.230	-0.021
-620.376	-32.949	0.233	-0.132
-619.361	28.272	0.030	-0.026
-618.346	-47.747	0.233	-0.115
-617.332	-52.115	0.278	-0.131
-616.317	59.420	-0.292	-0.293
-615.303	800.000	0.064	-0.220
-614.288	-109.584	-0.250	-0.054
-613.273	586.380	0.019	-0.047
-612.259	-61.612	0.206	-0.088
-611.244	-148.783	-0.570	-0.047
-610.230	173.459	-0.077	0.113
-609.215	-56.217	0.229	0.104
-608.201	64.866	-0.195	-0.200
-607.186	-200.000	-0.014	0.098
-606.171	4.395	0.094	-0.070
-605.157	108.605	-0.215	-0.261
-604.142	-108.794	-0.308	0.067
-603.128	-200.000	-0.007	0.177
-602.113	800.000	0.063	-0.192
-601.098	-142.209	-0.385	0.039
-600.084	-176.145	0.059	0.002
-599.069	497.063	-0.019	-0.045
-598.055	-100.234	0.468	0.118
-597.040	497.419	0.022	-0.050
-596.025	-200.000	0.061	-0.283
-595.011	800.000	-0.102	-0.290
-593.996	200.710	0.153	-0.240
-592.982	-200.000	-0.026	-0.172
-591.967	-75.832	-0.119	-0.043
-590.952	-200.000	0.057	0.398
-589.938	-88.903	0.183	0.055
-588.923	-200.000	0.000	0.061
-587.909	-69.807	0.482	-0.187
-586.894	800.000	-0.086	0.252
-585.879	209.140	0.088	0.141
-584.865	-200.000	-0.001	-0.366
-583.850	-96.830	-0.335	-0.090
-582.836	506.825	-0.018	-0.042
-581.821	-200.000	0.056	-0.256
-580.806	107.441	-0.170	0.206
-579.792	356.624	0.051	0.103
-578.777	-200.000	0.005	-0.204
-577.763	-3.132	0.196	-0.139
-576.748	32.082	0.134	0.118
-575.733	-80.948	0.148	-0.050
-574.719	-200.000	-0.031	-0.158
-573.704	50.544	-0.173	-0.166
-572.690	96.666	-0.165	0.193
-571.675	-200.000	0.023	0.130
-570.661	800.000	-0.058	-0.200
-569.646	-200.000	-0.004	-0.215
-568.631	-25.197	0.145	0.087
-567.617	113.455	-0.066	-0.081
-566.602	800.000	0.074	-0.214
-565.588	59.210	-0.396	-0.397
-564.573	-176.809	0.326	0.008
-563.558	-48.151	0.126	0.062
-562.544	486.444	0.090	-0.210
-561.529	-72.231	-0.177	0.067
-560.515	-19.102	-0.251	0.159
-559.500	26.135	0.026	-0.022
-558.485	-29.194	0.077	-0.045
-557.471	-200.000	-0.201	0.001
-556.456	800.000	0.036	-0.103
-555.442	16.016	-0.056	-0.045
-554.427	-88.406	-0.384	-0.117
-553.412	-57.352	0.228	-0.102
-552.398	-200.000	-0.025	-0.241
-551.383	-126.435	-0.428	-0.065
-550.369	800.000	0.016	-0.048
-549.354	-182.010	-0.360	0.007
-548.339	62.297	-0.084	-0.085
-547.325	-110.464	0.394	0.083
-546.310	-200.000	-0.025	-0.175
-545.296	-200.000	-0.003	-0.040
-544.281	342.809	-0.146	0.289
-543.266	21.871	-0.250	-0.207
-542.252	-10.680	0.069	0.046
-541.237	209.299	-0.107	0.170
-540.223	-200.000	-0.067	-0.301
-539.208	-75.738	-0.072	0.026
-538.193	-200.000	-0.029	0.449
-537.179	-47.537	-0.086	-0.043
-536.164	-85.601	-0.068	0.021
-535.150	-182.653	0.166	0.003
-534.135	-200.000	0.008	0.211
-533.121	-90.468	-0.104	0.031
-532.106	282.647	0.125	0.228
-531.091	65.653	0.165	-0.170
-530.077	492.689	-0.138	0.320
-529.062	-163.845	-0.337	0.016
-528.048	-96.171	0.232	0.063
-527.033	-122.617	-0.127	-0.021
-526.018	800.000	0.020	-0.074
-525.004	-200.000	-0.012	-0.233
-523.989	181.339	0.061	-0.091
-522.975	-91.347	0.234	-0.068
-521.960	-200.000	-0.005	0.316
-520.945	109.776	-0.154	0.187
-519.931	34.522	-0.166	-0.147
-518.916	-178.899	-0.228	-0.005
-517.902	32.697	-0.018	-0.016
-516.887	-64.403	0.278	-0.115
-515.872	168.455	-0.246	-0.355
-514.858	150.961	-0.050	-0.070
-513.843	171.820	-0.223	-0.326
-512.829	295.018	0.157	0.291
-511.814	-200.000	0.021	-0.169
-510.799	-200.000	0.049	0.238
-509.785	-166.924	-0.279	-0.012
-508.770	-49.336	0.019	-0.009
-507.756	-23.732	0.068	0.041
-506.741	-58.091	0.173	-0.076
-505.726	281.451	-0.093	-0.169
-504.712	-200.000	0.019	0.261
-503.697	-34.790	0.149	0.082
-502.683	-102.406	-0.276	0.067
-501.668	-20.157	0.143	-0.089
-500.653	-141.305	0.368	0.038
-499.639	-82.772	-0.238	0.078
-498.624	-200.000	-0.046	0.259
-497.610	-54.654	0.303	-0.139
-496.595	595.841	-0.049	-0.124
-495.581	42.653	0.249	-0.229
-494.566	18.610	0.273	0.222
-493.551	36.281	0.177	-0.158
-492.537	-146.434	-0.160	-0.014
-491.522	800.000	0.049	0.189
-490.508	-59.157	0.169	-0.074
-489.493	-200.000	0.042	-0.233
-488.478	38.267	-0.238	-0.215
-487.464	800.000	0.037	-0.160
-486.449	470.165	0.146	-0.333
-485.435	-200.000	-0.002	-0.108
-484.420	-200.000	-0.028	0.139
-483.405	-106.003	0.181	-0.041
-482.391	-200.000	0.015	0.506
-481.376	-164.484	-0.150	0.007
-480.362	33.437	-0.141	0.124
-479.347	-200.000	0.001	0.100
-478.332	28.801	-0.221	0.190
-477.318	148.608	-0.082	0.113
-476.303	639.494	-0.043	-0.110
-475.289	-39.772	0.117	-0.062
-474.274	-200.000	0.000	0.247
-473.259	-20.929	0.079	0.049
-472.245	-31.713	0.021	0.012
-471.230	219.026	0.030	0.049
-470.216	800.000	0.107	0.366
-469.201	49.679	0.096	-0.092
-468.186	-200.000	0.006	0.132
-467.172	-58.782	-0.573	0.251
-466.157	205.902	0.192	-0.303
-465.143	357.846	0.074	-0.149
-464.128	386.427	0.129	0.270
-463.113	-124.305	-0.096	0.015
-462.099	-200.000	-0.025	0.305
-461.084	-200.000	0.013	0.099
-460.070	-91.925	-0.236	-0.068
-459.055	-105.738	-0.161	0.037
-458.040	221.524	-0.154	0.250
-457.026	30.581	-0.311	0.269
-456.011	100.599	-0.112	0.131
-454.997	-200.000	-0.004	0.096
-453.982	-136.573	0.135	0.016
-452.968	-7.112	-0.143	0.099
-451.953	-85.890	0.275	0.086
-450.938	146.976	0.196	0.266
-449.924	-74.252	0.149	0.055
-448.909	119.453	0.105	0.132
-447.895	-200.000	0.047	-0.267
-446.880	-123.209	-0.202	0.033
-445.865	-20.591	-0.222	0.138
-444.851	-31.069	0.393	-0.224
-443.836	-10.980	0.241	-0.161
-442.822	-200.000	0.005	-0.153
-441.807	-75.642	0.294	-0.106
-440.792	-94.422	-0.273	0.075
-439.778	-122.001	-0.182	0.030
-438.763	-13.882	-0.172	0.112
-437.749	-170.302	0.122	-0.004
-436.734	-21.821	0.165	0.102
-435.719	-98.582	-0.273	0.070
-434.705	-71.058	0.131	0.050
-433.690	-8.594	0.101	-0.069
-432.676	562.594	-0.090	0.221
-431.661	95.336	-0.222	0.256
-430.646	100.120	0.070	0.083
-429.632	800.000	0.054	0.198
-428.617	-99.810	0.123	-0.031
-427.603	-170.508	0.153	-0.005
-426.588	-20.065	0.147	-0.092
-425.573	800.000	0.075	-0.214
-424.559	800.000	-0.063	0.194
-423.544	-200.000	0.003	0.191
-422.530	800.000	-0.044	-0.188
-421.515	-200.000	0.033	-0.266
-420.500	-122.927	-0.358	0.058
-419.486	35.040	0.004	-0.004
-418.471	-155.861	-0.282	-0.018
-417.457	799.464	-0.024	0.068
-416.442	-110.854	0.277	-0.058
-415.428	-156.560	0.218	-0.014
-414.413	-200.000	-0.004	0.289
-413.398	-200.000	0.024	0.222
-412.384	69.922	-0.077	-0.080
-411.369	-92.541	-0.183	-0.052
-410.355	-12.392	0.350	0.231
-409.340	85.980	0.121	0.134
-408.325	-74.943	-0.335	-0.121
-407.311	276.721	-0.160	0.288
-406.296	-200.000	0.038	0.280
-405.282	41.607	-0.089	-0.082
-404.267	-110.711	0.297	0.062
-403.252	88.177	0.114	-0.127
-402.238	349.089	0.100	0.200
-401.223	-42.556	-0.197	0.101
-400.209	-86.231	0.125	0.039
-399.194	-33.947	0.181	0.101
-398.179	135.057	-0.268	0.352
-397.165	116.510	-0.126	0.156
-396.150	120.839	0.163	0.205
-395.136	-55.371	-0.212	0.096
-394.121	615.510	-0.096	0.243
-393.106	589.553	-0.117	-0.292
-392.092	-98.036	0.336	-0.087
-391.077	-133.587	0.094	-0.012
-390.063	800.000	0.039	0.114
-389.048	58.896	0.213	-0.211
-388.033	-142.021	0.118	0.012
-387.019	-149.143	-0.166	0.013
-386.004	38.957	0.183	-0.165
-384.990	-186.879	0.102	0.001
-383.975	-96.516	0.027	0.007
-382.960	-83.032	-0.162	0.053
-381.946	-200.000	-0.065	-0.319
-380.931	-7.434	0.167	0.114
-379.917	-48.210	-0.351	-0.171
-378.902	30.139	0.085	-0.073
-377.888	-154.007	-0.233	0.016
-376.873	-127.794	-0.235	-0.034
-375.858	-200.000	-0.002	0.114
-374.844	45.389	0.065	0.060
-373.829	-132.647	-0.253	0.033
-372.815	132.844	0.088	-0.114
-371.800	-9.447	-0.250	0.168
-370.785	119.988	-0.121	0.152
-369.771	-122.878	-0.368	-0.060
-368.756	-176.624	-0.036	-0.001
-367.742	800.000	0.075	0.241
-366.727	128.414	0.027	0.035
-365.712	800.000	0.039	-0.129
-364.698	-67.419	0.032	0.013
-363.683	-200.000	-0.056	-0.268
-362.669	-18.956	-0.437	-0.274
-361.654	177.044	-0.209	0.307
-360.639	-200.000	-0.031	0.308
-359.625	800.000	0.079	0.283
-358.610	-93.748	0.063	-0.018
-357.596	134.654	0.006	0.008
-356.581	254.386	0.205	-0.353
-355.566	324.202	0.039	-0.074
-354.552	-84.375	-0.273	0.087
-353.537	-200.000	-0.014	0.346
-352.523	-200.000	-0.005	-0.042
-351.508	-69.895	-0.104	-0.040
-350.493	432.043	-0.099	0.216
-349.479	-102.510	0.084	0.020
-348.464	148.688	0.074	0.100
-347.450	-40.810	0.161	-0.084
-346.435	49.724	0.214	0.203
-345.420	-200.000	-0.007	0.210
-344.406	-109.918	0.174	-0.037
-343.391	-24.126	0.424	-0.255
-342.377	193.368	0.031	0.048
-341.362	-200.000	0.026	-0.145
-340.348	-62.890	-0.310	0.129
-339.333	-127.835	-0.286	0.042
-338.318	281.375	0.035	0.064
-337.304	8.749	-0.068	0.051
-336.289	-149.715	0.243	0.019
-335.275	19.006	-0.293	-0.237
-334.260	516.972	0.123	-0.289
-333.245	-154.283	0.241	-0.016
-332.231	-118.474	0.116	-0.021
-331.216	-103.316	0.174	-0.041
-330.202	-89.424	-0.314	0.093
-329.187	-200.000	0.035	-0.178
-328.172	-200.000	0.047	-0.259
-327.158	109.094	0.016	0.019
-326.143	-200.000	-0.052	0.362
-325.129	800.000	-0.044	-0.165
-324.114	310.172	0.121	-0.229
-323.099	192.264	-0.124	0.189
-322.085	59.324	0.043	-0.043
-321.070	800.000	0.027	-0.087
-320.056	-165.082	0.323	-0.014
-319.041	-200.000	0.008	-0.182
-318.026	-200.000	-0.018	0.102
-317.012	279.778	0.094	0.168
-315.997	-98.760	-0.170	0.044
-314.983	154.878	0.259	-0.359
-313.968	-5.455	0.042	0.029
-312.953	13.319	0.433	0.338
-311.939	608.054	-0.052	0.131
-310.924	800.000	0.076	-0.238
-309.910	53.945	0.101	0.097
-308.895	193.935	-0.202	-0.309
-307.880	105.580	-0.089	-0.106
-306.866	800.000	0.023	0.092
-305.851	800.000	-0.063	0.176
-304.837	-133.091	-0.206	0.026
-303.822	189.995	-0.103	-0.155
-302.807	800.000	0.025	0.071
-301.793	652.308	0.073	-0.189
-300.778	16.610	0.070	0.056
-299.764	800.000	-0.118	-0.328
-298.749	-81.270	0.261	0.087
-297.735	-52.696	0.019	0.009
-296.720	158.734	0.059	0.082
-295.705	470.247	-0.016	-0.037
-294.691	166.379	-0.076	0.108
-293.676	99.998	-0.074	0.087
-292.662	-74.971	-0.155	0.056
-291.647	-90.712	-0.058	0.017
-290.632	-124.757	0.242	0.038
-289.618	324.388	0.082	0.158
-288.603	90.350	-0.104	-0.117
-287.589	-200.000	-0.010	-0.136
-286.574	151.007	0.231	-0.316
-285.559	-200.000	0.034	-0.225
-284.545	17.231	-0.189	0.151
-283.530	-48.887	0.236	-0.114
-282.516	243.049	0.094	-0.158
-281.501	-41.669	-0.103	0.053
-280.486	-200.000	-0.040	0.330
-279.472	235.384	-0.193	-0.320
-278.457	800.000	-0.081	0.283
-277.443	-200.000	0.064	0.351
-276.428	-200.000	-0.029	-0.253
-275.413	800.000	-0.032	0.113
-274.399	-200.000	0.027	-0.281
-273.384	-200.000	0.049	-0.274
-272.370	211.002	0.091	-0.145
-271.355	-200.000	0.002	-0.069
-270.340	-200.000	0.017	-0.114
-269.326	509.979	-0.031	0.073
-268.311	-28.847	0.084	0.048
-267.297	-200.000	-0.062	0.365
-266.282	-17.884	0.147	-0.093
-265.267	57.168	-0.149	0.146
-264.253	-102.803	0.119	-0.028
-263.238	493.640	0.043	0.099
-262.224	-87.746	0.308	-0.093
-261.209	-122.644	-0.140	0.023
-260.195	-200.000	-0.024	-0.120
-259.180	83.333	-0.030	0.033
-258.165	-166.407	-0.274	0.012
-257.151	3.342	-0.122	0.089
-256.136	129.386	0.019	-0.025
-255.122	53.379	0.142	-0.136
-254.107	322.171	-0.060	-0.114
-253.092	545.207	0.204	-0.490
-252.078	-200.000	0.056	-0.279
-251.063	518.533	0.135	0.318
-250.049	388.779	-0.010	0.021
-249.034	108.430	-0.158	-0.190
-248.019	-98.390	0.170	0.044
-247.005	-65.587	0.112	0.045
-245.990	-73.910	0.345	-0.126
-244.976	433.598	-0.069	0.151
-243.961	153.107	-0.173	0.237
-242.946	-200.000	-0.001	0.010
-241.932	-200.000	0.021	-0.513
-240.917	800.000	0.068	-0.209
-239.903	-115.614	0.234	-0.044
-238.888	-200.000	-0.003	-0.089
-237.873	222.219	-0.179	0.290
-236.859	22.155	-0.155	0.127
-235.844	406.660	0.127	0.268
-234.830	-120.134	0.153	-0.026
-233.815	43.709	0.133	0.122
-232.800	-141.098	-0.069	-0.007
-231.786	-100.714	0.186	0.046
-230.771	105.697	0.068	0.081
-229.757	-35.058	0.118	-0.064
-228.742	-152.066	-0.218	-0.016
-227.727	-21.293	0.039	0.024
-226.713	709.699	0.170	0.450
-225.698	76.103	0.163	0.173
-224.684	-78.681	-0.077	0.026
-223.669	-200.000	-0.006	0.200
-222.655	460.674	0.126	0.282
-221.640	-119.448	0.140	0.024
-220.625	81.038	-0.263	-0.285
-219.611	-15.935	0.216	-0.138
-218.596	-16.195	-0.050	-0.032
-217.582	-147.627	0.212	-0.018
-216.567	-200.000	0.042	-0.482
-215.552	-141.831	0.447	-0.045
-214.538	-106.633	-0.399	0.089
-213.523	-200.000	-0.042	-0.429
-212.509	-75.022	0.108	-0.039
-211.494	-115.065	-0.163	-0.031
-210.479	198.184	-0.182	-0.279
-209.465	-21.100	0.140	-0.086
-208.450	-200.000	-0.061	-0.334
-207.436	470.758	0.068	-0.153
-206.421	-136.346	-0.271	-0.032
-205.406	-58.511	-0.271	-0.118
-204.392	-149.766	0.189	-0.015
-203.377	-200.000	-0.012	-0.101
-202.363	-116.017	0.345	-0.064
-201.348	-170.046	0.311	0.011
-200.333	414.356	0.134	-0.286
-199.319	-200.000	0.158	-0.001
-198.304	-184.933	-0.100	0.002
-197.290	34.576	0.093	0.082
-196.275	-200.000	-0.001	0.634
-195.260	-45.360	0.036	0.018
-194.246	-7.076	-0.089	0.060
-193.231	-22.939	-0.199	0.121
-192.217	-200.000	0.001	0.081
-191.202	144.709	-0.244	-0.326
-190.187	-26.405	-0.218	0.128
-189.173	20.237	-0.151	0.122
-188.158	800.000	-0.110	0.383
-187.144	-49.347	0.239	0.114
-186.129	800.000	0.038	0.151
-185.114	-67.914	-0.196	-0.077
-184.100	-200.000	0.001	-0.142
-183.085	25.326	-0.124	-0.103
-182.071	178.956	-0.093	-0.136
-181.056	745.315	-0.118	0.319
-180.042	135.262	0.179	-0.233
-179.027	-146.313	-0.317	-0.028
-178.012	494.566	-0.021	0.049
-176.998	-168.808	-0.203	0.008
-175.983	-12.981	0.066	0.043
-174.969	421.754	-0.057	0.123
-173.954	92.427	0.140	-0.158
-172.939	-66.678	0.074	-0.029
-171.925	455.083	0.047	-0.104
-170.910	252.800	0.042	-0.071
-169.896	-200.000	-0.063	-0.289
-168.881	24.304	0.222	-0.184
-167.866	-160.641	0.091	0.005
-166.852	102.476	0.291	0.340
-165.837	-110.088	0.115	0.024
-164.823	-200.000	-0.069	0.372
-163.808	-47.853	0.435	0.211
-162.793	61.151	-0.161	0.160
-161.779	-200.000	-0.026	0.125
-160.764	281.330	-0.136	-0.243
-159.750	83.816	-0.135	-0.148
-158.735	426.543	0.057	-0.123
-157.720	-200.000	0.016	0.112
-156.706	800.000	0.028	0.094
-155.691	-78.738	-0.282	-0.096
-154.677	19.772	0.141	0.114
-153.662	800.000	-0.021	0.076
-152.647	505.416	-0.032	0.075
-151.633	800.000	0.060	0.204
-150.618	800.000	-0.053	-0.192
-149.604	-66.784	0.240	-0.095
-148.589	-200.000	-0.029	-0.336
-147.574	-200.000	-0.028	-0.293
-146.560	445.010	0.020	-0.044
-145.545	-8.053	-0.289	-0.195
-144.531	-28.680	0.033	-0.019
-143.516	-200.000	-0.011	0.087
-142.502	-52.930	0.092	0.043
-141.487	-176.306	0.169	0.004
-140.472	58.219	-0.026	0.025
-139.458	425.366	-0.050	-0.108
-138.443	-13.555	0.093	0.060
-137.429	87.460	-0.106	0.118
-136.414	-57.411	0.107	-0.047
-135.399	-55.992	0.309	0.138
-134.385	37.442	-0.192	0.170
-133.370	-82.018	0.071	0.023
-132.356	-193.705	-0.100	0.001
-131.341	-112.770	-0.042	0.008
-130.326	-133.305	0.170	-0.021
-129.312	-101.421	-0.516	0.126
-128.297	1.198	0.143	0.103
-127.283	800.000	0.070	-0.224
-126.268	-105.024	-0.260	-0.060
-125.253	149.001	-0.119	0.161
-124.239	-186.103	0.175	-0.003
-123.224	172.692	-0.169	-0.243
