DTS Sentinel unit serial number:	SN413079Multiplexer serial number:	ORYXHardware model number:	OX4-SRSoftware version number:	ORYX F/W v4.00 Oryx Data Collector v3.7.2.0data status	okinstallation	princeton_trtdifferential loss correction	single-endedforward channel	channel 1reverse channel	N/Adate	2019/09/19time	11:10:35forward acquisition time	60.00reverse acquisition time	0.00gamma	496.2192k internal	0.2338k external	0.2338temperature offset calibration	1.0009default loss term (dB/km)	0.3790temperature slope calibration	1.0000multiplexer offset coefficient	1.0000multiplexer slope coefficient	1.0000fibre end	0.00T internal ref (°C)	25.03T ext. ref 1 (°C)	0.77T ext. ref 2 (°C)	20.62length (m)	temperature (°C)	Stokes	anti-Stokes-747.200	73.827	-0.117	-0.123
-746.185	27.522	-0.102	0.086
-745.171	-23.803	0.106	-0.064
-744.156	150.648	-0.009	0.013
-743.142	155.279	-0.051	-0.071
-742.127	-146.373	0.202	0.018
-741.112	20.598	-0.363	0.295
-740.098	86.342	0.104	0.115
-739.083	57.665	0.202	0.199
-738.069	-200.000	-0.073	0.352
-737.054	394.363	0.094	-0.195
-736.039	-52.068	-0.368	0.171
-735.025	297.990	0.160	0.294
-734.010	-142.027	-0.166	-0.017
-732.996	-200.000	0.034	-0.240
-731.981	-4.148	-0.125	0.087
-730.966	249.953	-0.050	-0.085
-729.952	-120.765	-0.211	0.036
-728.937	157.504	0.088	-0.122
-727.923	220.113	0.038	-0.061
-726.908	-26.362	-0.037	0.022
-725.894	210.646	-0.074	0.117
-724.879	-105.052	0.081	0.019
-723.864	-4.256	0.206	0.143
-722.850	-96.454	-0.291	-0.077
-721.835	-200.000	0.015	-0.345
-720.821	-200.000	0.010	-0.344
-719.806	800.000	0.047	-0.147
-718.791	136.093	0.014	0.018
-717.777	424.699	-0.076	-0.165
-716.762	436.940	-0.104	-0.226
-715.748	165.731	-0.150	0.213
-714.733	-63.934	0.175	0.072
-713.718	-122.842	-0.209	-0.034
-712.704	-97.777	-0.073	0.019
-711.689	173.592	0.092	0.132
-710.675	-160.272	0.091	0.005
-709.660	-200.000	-0.023	-0.113
-708.645	751.075	-0.056	0.151
-707.631	65.347	-0.232	0.235
-706.616	377.648	0.083	0.169
-705.602	800.000	-0.081	-0.253
-704.587	11.352	0.068	-0.052
-703.572	-37.373	-0.390	-0.209
-702.558	83.727	0.152	0.166
-701.543	115.672	0.270	-0.330
-700.529	179.010	0.024	-0.035
-699.514	516.893	0.058	-0.135
-698.499	800.000	0.016	0.045
-697.485	-200.000	-0.019	-0.152
-696.470	-102.955	-0.363	0.086
-695.456	-158.761	-0.296	0.017
-694.441	-4.626	0.091	-0.063
-693.426	-57.710	-0.361	-0.158
-692.412	800.000	-0.044	-0.134
-691.397	-84.069	0.174	-0.055
-690.383	80.019	-0.082	-0.088
-689.368	-63.195	0.145	-0.060
-688.354	-79.971	0.085	0.029
-687.339	-110.772	-0.312	-0.065
-686.324	-29.203	0.349	0.200
-685.310	-200.000	-0.055	-0.347
-684.295	595.006	0.018	-0.044
-683.281	-86.704	-0.101	0.031
-682.266	-49.643	0.339	-0.161
-681.251	44.890	0.173	0.160
-680.237	-31.451	0.136	-0.076
-679.222	-97.758	-0.263	-0.068
-678.208	-5.973	-0.172	-0.118
-677.193	-80.959	-0.155	0.052
-676.178	-26.605	-0.130	0.076
-675.164	-60.966	0.149	0.063
-674.149	-116.400	-0.393	-0.073
-673.135	216.619	-0.032	0.051
-672.120	-16.889	-0.239	0.151
-671.105	130.119	-0.103	-0.133
-670.091	145.706	-0.095	0.128
-669.076	-101.089	0.084	0.021
-668.062	-38.319	0.400	0.212
-667.047	44.877	-0.130	-0.120
-666.032	-200.000	0.037	-0.162
-665.018	235.113	-0.116	0.191
-664.003	-200.000	-0.021	0.144
-662.989	-66.833	-0.059	0.023
-661.974	156.386	0.033	-0.046
-660.959	212.526	-0.056	-0.088
-659.945	-200.000	0.030	-0.337
-658.930	-11.029	-0.216	0.143
-657.916	397.590	0.097	-0.204
-656.901	-200.000	0.033	0.315
-655.886	-200.000	-0.005	0.268
-654.872	152.160	0.080	-0.109
-653.857	239.621	-0.111	0.184
-652.843	599.712	0.066	-0.164
-651.828	169.978	-0.035	-0.049
-650.814	-105.076	0.162	0.037
-649.799	-160.356	-0.248	-0.013
-648.784	-114.311	0.225	0.043
-647.770	-200.000	-0.022	0.248
-646.755	23.301	0.162	-0.133
-645.741	-98.575	0.153	-0.039
-644.726	43.167	0.254	-0.232
-643.711	-75.607	0.226	-0.080
-642.697	-9.982	0.380	0.253
-641.682	800.000	0.026	0.074
-640.668	-58.727	0.088	0.038
-639.653	307.644	-0.049	0.091
-638.638	800.000	0.035	-0.104
-637.624	293.229	-0.034	-0.062
-636.609	-6.804	-0.261	0.177
-635.595	-59.573	0.343	0.147
-634.580	-65.748	0.049	0.020
-633.565	-68.954	-0.383	-0.148
-632.551	267.516	0.025	-0.044
-631.536	800.000	-0.038	0.155
-630.522	-159.220	0.163	-0.009
-629.507	-47.521	0.051	-0.025
-628.492	288.871	-0.068	0.123
-627.478	67.168	0.145	0.147
-626.463	-200.000	-0.034	0.186
-625.449	52.830	-0.062	-0.060
-624.434	22.711	0.214	0.175
-623.419	-77.027	-0.244	0.085
-622.405	62.063	-0.221	-0.221
-621.390	22.843	0.220	-0.180
-620.376	-9.503	-0.205	-0.136
-619.361	18.128	-0.096	0.077
-618.346	203.668	-0.210	0.325
-617.332	138.355	0.168	0.221
-616.317	800.000	-0.052	-0.152
-615.303	-200.000	0.014	-0.160
-614.288	-200.000	0.007	0.223
-613.273	491.378	0.178	0.406
-612.259	246.946	-0.091	-0.153
-611.244	91.438	-0.154	-0.173
-610.230	40.899	-0.275	0.248
-609.215	-29.822	-0.104	0.059
-608.201	78.808	0.220	-0.235
-607.186	-154.012	-0.122	0.008
-606.171	-116.885	-0.137	0.025
-605.157	101.820	0.181	0.210
-604.142	-200.000	-0.055	0.334
-603.128	-200.000	-0.011	0.115
-602.113	-88.875	-0.027	-0.008
-601.098	-2.112	-0.138	-0.097
-600.084	-200.000	-0.041	-0.264
-599.069	-122.087	-0.325	0.053
-598.055	470.921	0.044	0.099
-597.040	-107.120	0.336	0.074
-596.025	-57.026	0.194	0.085
-595.011	324.880	0.054	-0.104
-593.996	-200.000	-0.159	-0.000
-592.982	505.415	0.039	-0.090
-591.967	-60.147	0.146	-0.062
-590.952	-4.849	0.381	-0.262
-589.938	53.069	0.155	-0.148
-588.923	-91.352	-0.294	0.084
-587.909	-69.121	-0.362	-0.139
-586.894	270.532	0.081	-0.142
-585.879	-87.733	-0.357	0.107
-584.865	-200.000	-0.097	0.589
-583.850	12.198	-0.126	-0.097
-582.836	-112.497	-0.125	-0.025
-581.821	-200.000	0.018	-0.112
-580.806	-42.685	0.324	0.164
-579.792	800.000	0.024	-0.094
-578.777	-158.143	0.030	-0.002
-577.763	-200.000	-0.042	0.242
-576.748	-106.844	0.324	-0.072
-575.733	77.103	0.162	-0.172
-574.719	-197.722	-0.147	0.001
-573.704	758.212	-0.041	-0.111
-572.690	553.822	-0.062	0.149
-571.675	-4.306	-0.232	0.160
-570.661	-64.192	0.254	0.103
-569.646	173.367	-0.150	-0.215
-568.631	85.336	0.027	0.029
-567.617	170.262	-0.159	0.227
-566.602	388.078	-0.119	0.244
-565.588	800.000	-0.066	-0.189
-564.573	-144.692	-0.332	-0.030
-563.558	-66.844	-0.132	0.052
-562.544	52.250	-0.083	0.079
-561.529	437.259	-0.076	0.164
-560.515	795.210	0.131	0.359
-559.500	-30.013	0.133	0.076
-558.485	-66.110	-0.359	-0.143
-557.471	-53.049	-0.070	0.032
-556.456	-48.558	-0.429	0.205
-555.442	-59.545	-0.146	-0.062
-554.427	122.199	-0.083	0.103
-553.412	800.000	0.031	0.093
-552.398	-3.662	0.219	-0.152
-551.383	800.000	0.022	-0.072
-550.369	87.153	0.278	-0.306
-549.354	-104.557	0.070	-0.016
-548.339	-200.000	0.007	0.148
-547.325	350.585	-0.090	0.178
-546.310	-77.642	0.264	0.091
-545.296	-200.000	-0.036	-0.177
-544.281	-111.587	-0.321	0.065
-543.266	-153.816	0.271	-0.019
-542.252	-79.945	0.267	-0.089
-541.237	-89.513	-0.168	0.049
-540.223	-44.009	-0.321	-0.161
-539.208	143.945	0.183	0.243
-538.193	196.214	-0.147	0.223
-537.179	163.286	0.089	0.125
-536.164	-64.968	0.256	0.103
-535.150	131.439	-0.080	-0.103
-534.135	-39.433	-0.102	-0.053
-533.121	-200.000	-0.004	0.274
-532.106	168.988	-0.151	0.214
-531.091	-200.000	-0.029	0.129
-530.077	155.568	0.184	-0.252
-529.062	52.343	-0.061	0.058
-528.048	289.091	-0.102	-0.184
-527.033	-200.000	0.004	-0.517
-526.018	287.843	0.015	-0.027
-525.004	-200.000	-0.073	-0.389
-523.989	-35.070	-0.151	-0.082
-522.975	-30.841	0.118	-0.067
-521.960	-123.025	-0.194	-0.031
-520.945	246.647	-0.178	-0.299
-519.931	-119.566	0.247	-0.043
-518.916	800.000	0.024	-0.071
-517.902	-79.970	-0.382	-0.128
-516.887	469.432	-0.060	0.134
-515.872	-31.317	0.214	0.120
-514.858	-150.932	0.166	0.013
-513.843	35.442	-0.159	-0.138
-512.829	369.513	0.082	0.164
-511.814	-200.000	0.001	0.195
-510.799	-24.324	-0.071	0.042
-509.785	-200.000	-0.011	-0.399
-508.770	451.984	0.053	-0.117
-507.756	800.000	0.047	-0.135
-506.741	-200.000	-0.002	-0.512
-505.726	-200.000	-0.039	-0.202
-504.712	66.294	0.187	0.189
-503.697	-200.000	-0.017	0.139
-502.683	-79.381	0.117	-0.039
-501.668	-82.626	0.101	-0.033
-500.653	8.726	-0.143	0.107
-499.639	319.362	0.076	-0.144
-498.624	-40.875	-0.383	-0.197
-497.610	-200.000	0.026	0.259
-496.595	-145.656	0.148	-0.013
-495.581	57.655	-0.125	0.121
-494.566	110.891	0.085	-0.101
-493.551	-121.508	-0.111	-0.018
-492.537	-200.000	0.022	0.329
-491.522	-39.151	-0.084	0.044
-490.508	90.936	-0.151	0.168
-489.493	-59.351	-0.178	-0.076
-488.478	199.300	-0.057	-0.087
-487.464	-100.804	-0.238	-0.058
-486.449	616.120	0.073	0.181
-485.435	-134.226	-0.173	-0.021
-484.420	6.621	-0.147	0.109
-483.405	131.351	0.177	-0.226
-482.391	-110.006	-0.292	0.061
-481.376	-26.311	0.105	0.061
-480.362	-200.000	0.018	-0.260
-479.347	46.532	0.059	0.054
-478.332	-200.000	-0.028	0.127
-477.318	-200.000	-0.023	0.172
-476.303	239.133	-0.075	-0.123
-475.289	-200.000	-0.000	0.233
-474.274	498.990	0.198	-0.454
-473.259	223.873	0.236	-0.378
-472.245	212.891	0.118	0.184
-471.230	-78.538	0.131	0.045
-470.216	488.711	0.066	-0.150
-469.201	-90.829	-0.187	-0.054
-468.186	-78.459	0.157	-0.053
-467.172	360.993	0.096	-0.190
-466.157	288.439	0.052	-0.093
-465.143	-100.210	0.345	-0.085
-464.128	241.336	0.175	-0.291
-463.113	528.748	-0.054	-0.126
-462.099	800.000	-0.058	-0.223
-461.084	-200.000	-0.022	0.104
-460.070	-21.535	-0.077	0.047
-459.055	-200.000	-0.037	-0.352
-458.040	-110.661	0.402	0.082
-457.026	-165.799	0.153	0.007
-456.011	-46.817	-0.211	-0.102
-454.997	-83.869	0.380	0.120
-453.982	-119.113	0.349	0.060
-452.968	-80.012	-0.124	-0.041
-451.953	-200.000	-0.019	0.280
-450.938	74.704	0.189	-0.198
-449.924	-29.005	0.120	0.068
-448.909	-28.869	-0.177	0.101
-447.895	141.791	0.119	0.156
-446.880	800.000	0.038	-0.110
-445.865	-200.000	-0.073	-0.505
-444.851	-51.921	-0.459	0.212
-443.836	-72.064	-0.129	0.048
-442.822	-200.000	-0.053	0.340
-441.807	-39.458	0.163	0.085
-440.792	279.612	0.038	-0.068
-439.778	-70.867	-0.090	0.034
-438.763	800.000	0.073	0.316
-437.749	54.576	-0.207	0.198
-436.734	196.213	-0.114	-0.172
-435.719	152.683	-0.073	-0.099
-434.705	-106.387	-0.476	0.105
-433.690	-200.000	-0.016	-0.408
-432.676	-189.652	-0.156	-0.002
-431.661	32.693	0.123	0.105
-430.646	683.251	0.112	0.290
-429.632	112.579	0.231	0.277
-428.617	-120.807	-0.156	0.026
-427.603	-200.000	-0.011	0.186
-426.588	392.086	-0.095	0.196
-425.573	800.000	0.072	0.255
-424.559	-42.464	0.167	-0.085
-423.544	-99.665	-0.289	0.072
-422.530	-63.947	0.343	-0.139
-421.515	244.519	0.243	0.405
-420.500	-200.000	-0.003	-0.238
-419.486	-200.000	0.015	-0.174
-418.471	297.894	-0.132	-0.241
-417.457	56.594	0.196	0.189
-416.442	99.004	-0.171	-0.196
-415.428	54.999	-0.137	0.131
-414.413	-153.757	0.249	-0.017
-413.398	-52.949	0.023	-0.010
-412.384	-158.128	-0.164	-0.009
-411.369	-200.000	-0.016	0.123
-410.355	800.000	0.032	-0.094
-409.340	-89.214	0.147	0.043
-408.325	-200.000	-0.038	0.254
-407.311	28.903	0.261	-0.219
-406.296	208.321	-0.232	-0.359
-405.282	45.974	0.047	-0.043
-404.267	-114.031	0.169	-0.032
-403.252	-132.997	0.069	-0.009
-402.238	-82.746	0.133	0.042
-401.223	52.336	-0.072	0.068
-400.209	161.625	-0.116	-0.161
-399.194	61.813	-0.184	-0.181
-398.179	89.219	-0.169	0.186
-397.165	-62.107	0.172	0.071
-396.150	461.815	-0.048	-0.106
-395.136	-10.122	0.316	-0.208
-394.121	463.151	0.106	-0.235
-393.106	198.455	-0.044	0.067
-392.092	-123.066	-0.266	-0.042
-391.077	-86.678	-0.102	0.031
-390.063	268.356	-0.087	-0.150
-389.048	22.097	-0.126	0.102
-388.033	251.102	-0.112	-0.189
-387.019	764.944	-0.138	-0.371
-386.004	-139.181	0.054	-0.006
-384.990	343.974	-0.257	0.499
-383.975	-55.169	0.282	0.126
-382.960	304.647	0.146	-0.267
-381.946	121.281	0.265	0.326
-380.931	-200.000	0.034	0.277
-379.917	120.755	0.102	0.125
-378.902	-200.000	-0.087	0.474
-377.888	244.548	0.037	0.061
-376.873	435.077	0.209	0.449
-375.858	-63.021	-0.267	0.109
-374.844	-162.523	0.232	0.011
-373.829	-113.526	0.107	-0.021
-372.815	-109.923	-0.152	0.032
-371.800	-35.740	-0.087	-0.047
-370.785	793.481	0.007	-0.018
-369.771	-24.236	-0.417	-0.246
-368.756	-200.000	-0.012	0.107
-367.742	-117.871	-0.084	0.015
-366.727	7.087	-0.074	-0.054
-365.712	-158.452	0.322	0.018
-364.698	-157.810	0.239	0.014
-363.683	-53.441	-0.155	0.070
-362.669	259.441	0.271	-0.462
-361.654	-200.000	0.052	-0.291
-360.639	26.261	0.231	0.190
-359.625	-60.487	0.016	-0.007
-358.610	-84.310	0.022	0.007
-357.596	8.222	-0.332	0.246
-356.581	107.433	0.050	-0.059
-355.566	-200.000	0.002	-0.191
-354.552	174.854	-0.170	-0.244
-353.537	413.453	-0.092	0.193
-352.523	39.291	-0.184	-0.163
-351.508	-138.816	-0.112	-0.012
-350.493	256.899	0.156	0.264
-349.479	-200.000	-0.002	-0.026
-348.464	800.000	0.062	-0.174
-347.450	112.312	-0.280	-0.334
-346.435	-60.525	-0.304	-0.128
-345.420	181.974	-0.204	-0.297
-344.406	-24.816	-0.088	0.051
-343.391	-200.000	0.015	-0.172
-342.377	800.000	-0.045	-0.184
-341.362	-56.723	0.244	0.107
-340.348	-69.166	0.407	-0.155
-339.333	-128.683	0.310	-0.043
-338.318	-164.125	0.046	0.002
-337.304	-2.240	-0.075	-0.052
-336.289	131.315	-0.198	-0.251
-335.275	279.071	-0.037	0.066
-334.260	-107.082	0.183	0.040
-333.245	-8.628	0.252	0.167
-332.231	366.433	0.119	0.237
-331.216	-24.090	0.108	-0.064
-330.202	30.951	-0.084	-0.071
-329.187	157.326	0.108	-0.148
-328.172	-200.000	0.035	-0.423
-327.158	-28.417	-0.095	-0.054
-326.143	-44.879	0.190	-0.093
-325.129	85.058	-0.081	-0.088
-324.114	800.000	-0.037	0.148
-323.099	-200.000	0.009	0.084
-322.085	60.657	0.239	-0.233
-321.070	-200.000	-0.002	-0.079
-320.056	289.651	-0.115	-0.206
-319.041	800.000	0.024	-0.098
-318.026	-93.610	-0.177	0.048
-317.012	-136.002	-0.168	-0.019
-315.997	-200.000	0.240	-0.001
-314.983	800.000	0.059	-0.173
-313.968	399.375	-0.046	-0.095
-312.953	-200.000	-0.019	-0.210
-311.939	695.475	-0.032	0.082
-310.924	325.530	0.094	-0.177
-309.910	234.110	-0.086	0.140
-308.895	-130.962	0.278	-0.037
-307.880	-57.342	-0.223	-0.097
-306.866	-2.319	0.291	0.201
-305.851	-145.859	0.279	-0.024
-304.837	-140.944	-0.084	0.008
-303.822	800.000	0.099	-0.419
-302.807	33.097	0.229	-0.196
-301.793	430.958	-0.068	-0.144
-300.778	-112.748	0.234	-0.046
-299.764	133.455	0.209	-0.267
-298.749	800.000	-0.141	-0.409
-297.735	-87.876	-0.071	0.021
-296.720	-5.072	-0.241	0.163
-295.705	-200.000	-0.034	-0.349
-294.691	118.108	-0.110	0.133
-293.676	114.839	-0.141	0.170
-292.662	-98.771	-0.268	-0.067
-291.647	800.000	-0.045	-0.181
-290.632	800.000	0.068	-0.193
-289.618	152.136	-0.256	0.345
-288.603	-200.000	-0.038	-0.165
-287.589	-200.000	0.070	0.316
-286.574	-200.000	0.084	0.467
-285.559	201.065	0.104	0.158
-284.545	-59.660	-0.203	0.086
-283.530	-59.067	-0.140	-0.059
-282.516	-200.000	-0.022	-0.099
-281.501	43.720	-0.174	-0.157
-280.486	49.044	-0.181	-0.168
-279.472	19.679	0.349	0.277
-278.457	800.000	0.108	0.318
-277.443	800.000	0.028	0.108
-276.428	-130.575	-0.282	-0.038
-275.413	318.063	-0.127	-0.236
-274.399	-73.137	0.265	-0.096
-273.384	-133.719	0.141	-0.017
-272.370	56.588	0.164	0.158
-271.355	671.436	0.127	0.323
-270.340	-37.542	-0.244	0.128
-269.326	-115.426	-0.227	0.042
-268.311	-98.467	0.094	0.024
-267.297	-100.300	-0.370	-0.091
-266.282	369.344	-0.221	-0.441
-265.267	45.543	0.007	-0.006
-264.253	-200.000	0.027	0.209
-263.238	372.367	-0.099	0.199
-262.224	800.000	-0.043	0.142
-261.209	-88.078	0.155	-0.046
-260.195	90.714	0.178	0.197
-259.180	-200.000	-0.018	-0.132
-258.165	61.012	0.130	0.127
-257.151	579.893	0.152	0.366
-256.136	147.521	-0.059	-0.078
-255.122	42.517	-0.327	-0.293
-254.107	-146.986	0.051	-0.004
-253.092	28.033	-0.128	0.107
-252.078	474.033	-0.051	0.113
-251.063	-200.000	0.046	-0.255
-250.049	-77.842	-0.159	-0.054
-249.034	371.370	-0.131	0.262
-248.019	-103.700	0.494	0.114
-247.005	-200.000	-0.002	0.195
-245.990	44.646	0.153	0.138
-244.976	130.794	0.245	-0.309
-243.961	58.619	0.383	0.370
-242.946	12.242	-0.048	0.037
-241.932	-17.421	0.067	-0.042
-240.917	-8.095	-0.023	-0.016
-239.903	-34.765	0.203	0.109
-238.888	76.918	0.214	0.223
-237.873	-132.042	0.176	-0.023
-236.859	800.000	0.016	0.050
-235.844	-161.265	0.302	-0.015
-234.830	-47.558	-0.332	-0.158
-233.815	121.960	-0.054	0.066
-232.800	93.834	0.389	0.434
-231.786	337.058	-0.023	0.044
-230.771	800.000	0.116	0.327
-229.757	141.344	0.108	-0.141
-228.742	15.504	-0.166	-0.128
-227.727	-200.000	-0.059	-0.311
-226.713	-200.000	0.025	-0.225
-225.698	-16.005	0.115	-0.072
-224.684	161.394	-0.087	0.120
-223.669	-132.764	0.386	-0.049
-222.655	-200.000	0.026	0.341
-221.640	259.604	-0.179	0.304
-220.625	-101.082	-0.069	0.017
-219.611	160.407	0.195	0.267
-218.596	-21.262	-0.098	0.059
-217.582	741.917	-0.024	-0.064
-216.567	-200.000	-0.037	-0.227
-215.552	-66.328	0.050	0.019
-214.538	11.399	-0.200	-0.151
-213.523	-200.000	0.034	-0.207
-212.509	-165.788	-0.209	-0.009
-211.494	-200.000	-0.039	0.225
-210.479	161.687	-0.074	0.101
-209.465	209.061	-0.102	-0.157
-208.450	-200.000	-0.038	-0.197
-207.436	-92.678	-0.341	0.094
-206.421	314.991	0.088	0.163
-205.406	2.659	-0.235	-0.167
-204.392	-53.862	-0.176	0.079
-203.377	-200.000	0.033	-0.177
-202.363	48.615	0.110	0.101
-201.348	-69.900	0.075	-0.028
-200.333	800.000	-0.069	-0.212
-199.319	488.209	0.058	-0.130
-198.304	800.000	-0.029	0.087
-197.290	382.372	-0.120	-0.242
-196.275	99.107	0.182	0.206
-195.260	-99.550	-0.094	-0.023
-194.246	-144.480	-0.149	0.014
-193.231	154.297	-0.111	0.150
-192.217	123.600	-0.168	-0.207
-191.202	-16.543	-0.156	-0.097
-190.187	47.245	0.243	-0.222
-189.173	91.107	-0.076	-0.084
-188.158	58.331	0.075	0.072
-187.144	-17.895	0.095	-0.059
-186.129	24.762	0.176	0.143
-185.114	33.947	0.210	-0.179
-184.100	65.959	-0.197	0.196
-183.085	125.296	0.166	0.205
-182.071	20.163	-0.259	0.205
-181.056	99.730	0.204	-0.232
-180.042	-113.575	-0.336	0.064
-179.027	114.778	-0.103	0.124
-178.012	-110.472	-0.171	-0.035
-176.998	-91.735	0.130	-0.036
-175.983	220.939	0.167	-0.264
-174.969	-16.663	-0.129	0.080
-173.954	77.173	-0.196	-0.204
-172.939	-200.000	-0.020	-0.157
-171.925	774.659	-0.045	0.119
-170.910	26.414	-0.187	0.154
-169.896	200.017	0.275	-0.414
-168.881	-21.979	0.150	-0.089
-167.866	193.671	-0.120	0.179
-166.852	148.421	0.048	0.064
-165.837	-45.303	0.298	-0.145
-164.823	70.888	0.194	0.197
-163.808	-180.402	0.129	-0.003
-162.793	-200.000	0.030	0.165
-161.779	29.402	0.243	0.203
-160.764	-200.000	0.025	0.344
-159.750	-200.000	0.011	-0.057
-158.735	-143.125	0.113	-0.011
-157.720	46.421	-0.137	-0.124
-156.706	-200.000	-0.031	0.199
-155.691	562.170	-0.071	0.169
-154.677	112.884	-0.081	-0.097
-153.662	516.173	0.084	-0.194
-152.647	128.806	-0.221	0.277
-151.633	800.000	-0.068	0.196
-150.618	-200.000	-0.030	0.319
-149.604	-40.539	0.223	0.113
-148.589	58.822	-0.093	-0.090
-147.574	-105.074	-0.193	0.043
-146.560	-88.510	-0.071	-0.021
-145.545	-116.848	-0.254	-0.046
-144.531	182.120	-0.041	-0.059
-143.516	-54.384	-0.224	0.099
-142.502	-2.469	-0.183	-0.126
-141.487	-200.000	-0.001	0.111
-140.472	-163.891	-0.146	0.007
-139.458	-200.000	-0.013	-0.368
-138.443	-7.246	0.132	-0.088
-137.429	-85.120	-0.225	0.069
-136.414	-200.000	-0.060	0.465
-135.399	68.677	0.295	-0.297
-134.385	-108.618	-0.095	-0.020
-133.370	626.534	-0.015	-0.037
-132.356	-81.681	0.390	-0.125
-131.341	-200.000	-0.006	0.122
-130.326	170.104	0.271	0.379
-129.312	-113.478	-0.176	-0.034
-128.297	-76.891	0.228	0.078
-127.283	-200.000	-0.000	0.119
-126.268	384.511	0.064	-0.129
-125.253	800.000	-0.027	0.074
-124.239	332.983	-0.051	-0.096
-123.224	-175.288	-0.103	-0.003
-122.210	-61.526	-0.319	-0.131
