DTS Sentinel unit serial number:	SN413079Multiplexer serial number:	ORYXHardware model number:	OX4-SRSoftware version number:	ORYX F/W v4.00 Oryx Data Collector v3.7.2.0data status	okinstallation	princeton_trtdifferential loss correction	single-endedforward channel	channel 1reverse channel	N/Adate	2019/09/15time	08:30:35forward acquisition time	60.00reverse acquisition time	0.00gamma	496.2192k internal	0.2320k external	0.2320temperature offset calibration	0.9988default loss term (dB/km)	0.3790temperature slope calibration	1.0000multiplexer offset coefficient	1.0000multiplexer slope coefficient	1.0000fibre end	0.00T internal ref (°C)	31.61T ext. ref 1 (°C)	4.96T ext. ref 2 (°C)	28.63length (m)	temperature (°C)	Stokes	anti-Stokes-747.200	460.732	0.043	-0.096
-746.185	-107.323	-0.338	0.075
-745.171	-147.449	0.159	0.014
-744.156	355.818	-0.108	0.218
-743.142	-2.658	-0.132	-0.094
-742.127	-140.672	-0.342	0.036
-741.112	-108.841	0.119	-0.026
-740.098	-82.527	0.343	0.112
-739.083	-110.444	0.223	-0.047
-738.069	600.130	-0.111	0.278
-737.054	-200.000	0.032	0.212
-736.039	573.175	-0.157	0.388
-735.025	-130.830	-0.285	0.039
-734.010	175.622	-0.131	-0.191
-732.996	800.000	0.085	-0.324
-731.981	-33.975	-0.124	0.069
-730.966	147.325	0.041	-0.055
-729.952	538.054	-0.055	-0.133
-728.937	93.157	-0.074	-0.085
-727.923	145.850	0.027	-0.037
-726.908	-28.772	0.032	0.019
-725.894	-200.000	0.007	-0.148
-724.879	-200.000	0.046	0.411
-723.864	-100.048	0.084	-0.021
-722.850	-71.613	-0.340	0.128
-721.835	66.044	-0.342	-0.350
-720.821	800.000	-0.021	0.081
-719.806	-200.000	0.021	0.173
-718.791	145.814	-0.078	-0.106
-717.777	-129.628	-0.070	0.010
-716.762	-11.693	-0.161	-0.107
-715.748	-82.682	-0.361	-0.118
-714.733	-184.544	-0.359	0.006
-713.718	-118.021	0.131	0.024
-712.704	-139.484	-0.442	0.048
-711.689	228.114	-0.173	-0.285
-710.675	-200.000	-0.040	-0.514
-709.660	-200.000	0.013	0.232
-708.645	-15.074	0.127	0.082
-707.631	800.000	0.107	0.335
-706.616	-200.000	-0.008	-0.208
-705.602	212.692	-0.144	-0.229
-704.587	25.259	0.140	-0.118
-703.572	81.938	-0.304	-0.332
-702.558	-200.000	0.033	-0.344
-701.543	717.925	0.079	-0.211
-700.529	-200.000	0.012	0.069
-699.514	343.064	-0.144	-0.284
-698.499	453.054	0.056	0.125
-697.485	-106.622	0.206	-0.046
-696.470	-90.591	0.196	0.057
-695.456	-102.699	0.350	-0.084
-694.441	-75.781	0.202	0.072
-693.426	-175.831	-0.291	0.008
-692.412	38.095	0.272	0.244
-691.397	298.525	0.128	0.238
-690.383	-69.243	-0.238	0.092
-689.368	800.000	-0.105	0.327
-688.354	-200.000	-0.081	-0.516
-687.339	20.962	-0.215	0.175
-686.324	199.387	0.184	-0.285
-685.310	15.838	0.063	-0.050
-684.295	-95.338	-0.292	0.079
-683.281	-64.290	-0.268	-0.110
-682.266	-89.653	-0.056	-0.017
-681.251	46.140	-0.024	-0.023
-680.237	-200.000	0.005	-0.223
-679.222	49.030	0.273	-0.258
-678.208	-129.872	0.085	0.012
-677.193	-69.459	0.151	-0.058
-676.178	415.042	0.047	0.101
-675.164	-166.502	-0.158	0.007
-674.149	800.000	-0.063	-0.185
-673.135	194.188	-0.135	-0.207
-672.120	-200.000	-0.015	-0.329
-671.105	-200.000	0.022	0.128
-670.091	-13.643	-0.259	-0.169
-669.076	-80.159	-0.199	-0.067
-668.062	-120.103	-0.239	0.041
-667.047	7.922	-0.186	-0.141
-666.032	51.453	0.124	-0.118
-665.018	-126.062	0.086	0.013
-664.003	180.471	0.086	-0.128
-662.989	78.308	-0.053	0.057
-661.974	-200.000	0.016	0.203
-660.959	-148.438	-0.379	0.031
-659.945	-88.030	-0.242	0.073
-658.930	-200.000	-0.023	-0.105
-657.916	-49.491	-0.057	-0.028
-656.901	192.891	-0.144	0.220
-655.886	-41.176	0.237	0.123
-654.872	-124.581	-0.582	-0.091
-653.857	126.281	-0.185	-0.235
-652.843	800.000	-0.016	-0.056
-651.828	-200.000	0.016	-0.181
-650.814	10.843	-0.065	-0.050
-649.799	3.206	-0.128	0.094
-648.784	196.468	0.238	-0.366
-647.770	-134.939	0.340	-0.041
-646.755	-130.352	0.176	0.024
-645.741	-8.806	-0.324	0.219
-644.726	-146.280	-0.165	0.015
-643.711	-37.507	-0.153	-0.082
-642.697	39.125	0.072	0.065
-641.682	-200.000	0.030	-0.257
-640.668	-88.351	-0.301	-0.090
-639.653	-109.493	-0.383	-0.081
-638.638	11.697	-0.202	-0.156
-637.624	628.135	-0.054	0.138
-636.609	-92.981	-0.096	0.027
-635.595	-200.000	0.009	0.185
-634.580	342.716	-0.171	0.337
-633.565	-112.742	-0.147	-0.029
-632.551	18.678	-0.245	-0.197
-631.536	-122.444	0.234	0.038
-630.522	124.647	-0.148	-0.187
-629.507	301.192	0.180	-0.335
-628.492	-139.450	-0.236	0.025
-627.478	-47.556	0.164	0.080
-626.463	-200.000	0.008	0.047
-625.449	172.959	-0.109	-0.158
-624.434	-200.000	0.017	-0.212
-623.419	30.508	0.205	-0.176
-622.405	-200.000	-0.028	-0.251
-621.390	141.139	-0.183	0.243
-620.376	-90.138	0.136	-0.040
-619.361	-77.035	-0.065	-0.023
-618.346	800.000	-0.083	0.244
-617.332	94.523	-0.098	-0.112
-616.317	-79.570	0.443	-0.151
-615.303	-200.000	0.005	-0.180
-614.288	-200.000	-0.027	-0.197
-613.273	-127.950	-0.112	-0.016
-612.259	-15.268	0.032	-0.021
-611.244	-137.882	0.101	-0.011
-610.230	-20.949	0.300	-0.185
-609.215	800.000	0.079	-0.301
-608.201	-150.586	0.319	-0.025
-607.186	246.410	0.094	0.160
-606.171	86.558	0.148	-0.165
-605.157	-5.263	-0.228	-0.158
-604.142	-41.485	0.235	0.121
-603.128	-100.938	0.061	-0.015
-602.113	-123.332	-0.182	0.029
-601.098	-200.000	0.030	0.209
-600.084	-14.514	0.113	0.073
-599.069	54.734	-0.112	-0.109
-598.055	-110.529	-0.238	-0.049
-597.040	800.000	0.054	-0.177
-596.025	716.026	-0.044	-0.117
-595.011	-200.000	0.042	-0.336
-593.996	71.189	0.207	0.215
-592.982	-127.917	-0.135	0.020
-591.967	476.240	-0.182	-0.414
-590.952	-200.000	0.040	-0.204
-589.938	-106.482	-0.192	0.043
-588.923	228.714	-0.117	0.192
-587.909	45.007	-0.081	-0.075
-586.894	628.605	0.043	-0.110
-585.879	21.000	-0.079	0.064
-584.865	-200.000	-0.010	-0.107
-583.850	-105.174	-0.200	-0.046
-582.836	52.321	0.147	0.141
-581.821	800.000	0.051	0.150
-580.806	-91.441	0.196	0.056
-579.792	-117.622	-0.085	0.015
-578.777	-98.595	0.161	-0.041
-577.763	621.257	0.075	0.189
-576.748	-123.767	-0.227	0.036
-575.733	-63.254	0.123	0.051
-574.719	21.707	0.202	0.165
-573.704	-58.723	-0.258	0.112
-572.690	438.298	0.060	0.131
-571.675	81.240	-0.058	0.063
-570.661	-200.000	0.024	0.133
-569.646	119.348	0.071	0.088
-568.631	-200.000	0.035	0.351
-567.617	-158.112	-0.393	0.023
-566.602	622.571	-0.042	-0.106
-565.588	-200.000	-0.030	0.174
-564.573	84.579	-0.110	-0.121
-563.558	-200.000	-0.016	0.144
-562.544	-89.284	0.055	-0.016
-561.529	-93.973	0.097	0.027
-560.515	-200.000	0.021	0.197
-559.500	-87.448	-0.283	0.086
-558.485	-200.000	0.013	-0.156
-557.471	-78.819	-0.343	-0.117
-556.456	-200.000	-0.013	0.089
-555.442	248.236	0.173	0.293
-554.427	-144.721	0.072	0.007
-553.412	-200.000	-0.030	0.200
-552.398	-72.158	0.138	-0.051
-551.383	-200.000	-0.006	-0.218
-550.369	-137.876	-0.164	0.018
-549.354	-47.454	0.062	0.030
-548.339	67.212	0.250	0.255
-547.325	-85.127	0.236	0.074
-546.310	-200.000	-0.014	-0.078
-545.296	-142.174	0.321	0.032
-544.281	-43.937	-0.229	-0.116
-543.266	800.000	-0.034	0.122
-542.252	23.193	-0.166	0.136
-541.237	764.904	-0.020	0.055
-540.223	-144.571	-0.254	0.024
-539.208	106.783	0.155	0.185
-538.193	-63.191	-0.101	-0.042
-537.179	660.572	-0.071	0.185
-536.164	-200.000	-0.069	0.397
-535.150	41.109	0.250	-0.226
-534.135	441.659	0.084	-0.184
-533.121	523.807	-0.040	-0.093
-532.106	-200.000	0.029	0.167
-531.091	-200.000	0.004	0.152
-530.077	-200.000	-0.038	0.200
-529.062	-156.221	-0.356	0.022
-528.048	-200.000	0.028	-0.295
-527.033	800.000	0.064	0.208
-526.018	408.923	-0.061	-0.129
-525.004	235.872	0.292	-0.484
-523.989	-10.012	-0.149	-0.099
-522.975	704.276	-0.002	0.006
-521.960	-24.116	0.230	0.138
-520.945	-200.000	0.003	0.106
-519.931	15.340	-0.085	0.066
-518.916	-55.534	-0.068	0.031
-517.902	-79.246	-0.155	-0.053
-516.887	800.000	0.114	0.337
-515.872	21.404	-0.211	0.172
-514.858	-86.901	-0.244	-0.075
-513.843	-42.564	-0.119	-0.061
-512.829	800.000	-0.067	-0.197
-511.814	-180.608	0.328	-0.007
-510.799	-200.000	0.024	0.263
-509.785	-200.000	-0.001	0.145
-508.770	-50.776	0.150	-0.071
-507.756	379.040	0.119	-0.245
-506.741	136.089	-0.324	0.424
-505.726	-96.760	-0.053	0.014
-504.712	-38.259	-0.230	-0.122
-503.697	116.271	0.121	-0.148
-502.683	25.187	0.352	0.293
-501.668	228.327	-0.111	0.181
-500.653	52.637	0.230	0.220
-499.639	-134.022	0.273	0.034
-498.624	114.567	-0.070	0.086
-497.610	48.434	-0.128	-0.120
-496.595	-200.000	0.026	-0.236
-495.581	366.068	0.095	-0.192
-494.566	83.189	-0.066	0.072
-493.551	-183.459	-0.218	-0.004
-492.537	75.956	-0.198	-0.209
-491.522	-20.441	-0.140	-0.086
-490.508	-47.457	-0.438	-0.213
-489.493	-154.726	0.218	0.014
-488.478	46.555	-0.152	0.142
-487.464	9.739	-0.257	-0.195
-486.449	105.437	0.120	0.142
-485.435	-74.855	0.184	0.066
-484.420	1.266	-0.070	-0.050
-483.405	800.000	0.064	0.203
-482.391	-48.118	-0.143	0.069
-481.376	-88.199	0.270	-0.081
-480.362	117.225	0.194	0.238
-479.347	-200.000	-0.046	0.315
-478.332	-121.727	0.194	0.032
-477.318	94.688	-0.060	0.068
-476.303	-200.000	0.025	0.161
-475.289	800.000	0.102	-0.427
-474.274	74.069	0.077	0.081
-473.259	170.967	-0.121	-0.174
-472.245	-26.781	0.133	0.078
-471.230	-45.376	0.056	-0.028
-470.216	-200.000	0.045	-0.260
-469.201	24.805	-0.145	0.121
-468.186	-3.978	-0.338	-0.234
-467.172	24.129	-0.049	-0.041
-466.157	-41.195	-0.118	-0.061
-465.143	800.000	-0.120	0.334
-464.128	-200.000	-0.012	-0.080
-463.113	-200.000	-0.018	-0.257
-462.099	3.806	0.399	-0.292
-461.084	-129.097	0.319	-0.045
-460.070	48.706	0.314	-0.295
-459.055	-200.000	-0.031	0.445
-458.040	-118.402	-0.090	0.016
-457.026	-200.000	-0.039	-0.250
-456.011	800.000	0.051	-0.208
-454.997	14.238	-0.154	0.120
-453.982	-27.744	-0.182	-0.105
-452.968	-146.934	0.048	0.004
-451.953	-27.979	-0.244	0.141
-450.938	800.000	0.082	0.264
-449.924	-37.401	0.236	-0.126
-448.909	507.663	-0.124	0.287
-447.895	-200.000	0.051	-0.247
-446.880	83.239	0.102	-0.111
-445.865	51.544	-0.153	-0.145
-444.851	-200.000	0.039	-0.193
-443.836	254.243	0.099	0.169
-442.822	275.734	0.097	0.173
-441.807	-200.000	-0.055	-0.316
-440.792	76.854	0.100	-0.106
-439.778	-148.971	0.266	0.021
-438.763	-134.370	-0.256	-0.031
-437.749	-175.733	0.437	-0.012
-436.734	-156.561	-0.209	-0.013
-435.719	-31.386	0.185	0.104
-434.705	209.045	0.035	-0.055
-433.690	370.382	-0.020	0.040
-432.676	-40.274	0.069	0.036
-431.661	-200.000	0.051	-0.227
-430.646	-99.026	-0.234	0.059
-429.632	800.000	-0.084	0.345
-428.617	-200.000	-0.071	0.325
-427.603	-200.000	-0.107	0.000
-426.588	-39.008	0.114	-0.060
-425.573	-100.983	0.085	0.021
-424.559	62.216	-0.228	-0.227
-423.544	800.000	0.226	-0.625
-422.530	629.751	-0.104	0.264
-421.515	-200.000	0.018	0.154
-420.500	254.288	-0.077	-0.132
-419.486	800.000	0.037	0.115
-418.471	205.498	0.205	0.318
-417.457	-58.546	0.273	-0.118
-416.442	-200.000	0.016	-0.081
-415.428	-26.721	0.154	0.090
-414.413	262.444	0.070	-0.121
-413.398	84.353	0.232	0.253
-412.384	-200.000	0.044	0.233
-411.369	59.674	-0.240	0.236
-410.355	190.442	-0.071	-0.106
-409.340	157.913	-0.123	0.171
-408.325	800.000	-0.022	0.067
-407.311	14.103	-0.260	0.202
-406.296	800.000	-0.045	0.130
-405.282	72.226	-0.175	0.182
-404.267	543.040	-0.090	0.215
-403.252	-200.000	0.034	0.238
-402.238	285.321	-0.347	-0.624
-401.223	-111.028	-0.123	0.025
-400.209	800.000	0.114	-0.406
-399.194	-25.454	-0.139	0.082
-398.179	-23.156	0.323	-0.194
-397.165	-200.000	0.006	-0.034
-396.150	38.598	0.061	-0.054
-395.136	-3.074	0.077	0.054
-394.121	-19.565	0.250	-0.154
-393.106	7.138	-0.150	-0.112
-392.092	249.009	-0.194	-0.327
-391.077	332.094	0.134	-0.259
-390.063	800.000	-0.112	-0.369
-389.048	-87.068	-0.200	0.061
-388.033	79.271	0.162	0.173
-387.019	130.185	-0.205	0.262
-386.004	120.073	0.100	0.123
-384.990	-4.008	-0.080	-0.055
-383.975	87.438	-0.168	0.185
-382.960	-17.796	0.054	-0.034
-381.946	44.834	0.270	0.248
-380.931	78.704	-0.262	-0.279
-379.917	800.000	-0.111	0.401
-378.902	-50.486	-0.184	-0.087
-377.888	146.353	0.027	0.036
-376.873	800.000	0.042	0.156
-375.858	-115.286	0.156	0.029
-374.844	800.000	-0.129	-0.530
-373.829	-86.795	-0.130	0.040
-372.815	-108.439	-0.168	0.036
-371.800	81.875	-0.166	0.179
-370.785	528.241	0.038	-0.090
-369.771	-32.138	-0.181	0.101
-368.756	14.748	0.159	-0.124
-367.742	95.900	0.097	-0.110
-366.727	-10.241	0.272	0.180
-365.712	-33.108	0.203	-0.112
-364.698	133.849	-0.256	-0.330
-363.683	27.533	-0.249	0.209
-362.669	80.206	0.311	-0.333
-361.654	-59.682	-0.061	0.026
-360.639	-200.000	-0.051	-0.236
-359.625	800.000	0.020	-0.057
-358.610	800.000	-0.015	0.051
-357.596	519.556	-0.124	-0.290
-356.581	46.351	0.215	0.199
-355.566	-93.061	0.293	0.081
-354.552	-68.728	0.076	-0.029
-353.537	82.858	0.081	0.087
-352.523	-82.724	0.196	0.063
-351.508	-200.000	-0.022	-0.150
-350.493	338.613	0.095	-0.183
-349.479	37.326	0.023	0.020
-348.464	135.269	-0.144	0.186
-347.450	418.295	0.050	-0.106
-346.435	-200.000	-0.007	0.128
-345.420	13.002	0.193	0.148
-344.406	-91.794	-0.240	-0.068
-343.391	-12.517	-0.269	-0.175
-342.377	433.098	0.118	-0.254
-341.362	144.262	-0.255	-0.339
-340.348	-200.000	-0.042	0.280
-339.333	-49.738	-0.227	-0.107
-338.318	140.525	-0.116	0.152
-337.304	493.032	-0.082	0.187
-336.289	-29.161	-0.279	-0.159
-335.275	96.510	-0.067	-0.076
-334.260	407.465	0.078	0.163
-333.245	83.938	-0.138	0.150
-332.231	800.000	-0.055	-0.204
-331.216	-88.549	0.259	0.077
-330.202	-102.589	-0.282	0.067
-329.187	115.974	-0.048	0.058
-328.172	-128.128	-0.220	-0.031
-327.158	-94.027	-0.208	0.057
-326.143	-128.032	-0.029	0.004
-325.129	104.801	-0.051	0.060
-324.114	144.102	-0.146	0.194
-323.099	800.000	-0.078	0.214
-322.085	-58.257	0.217	0.094
-321.070	129.573	0.249	-0.317
-320.056	29.232	-0.175	0.147
-319.041	-89.679	0.231	-0.067
-318.026	189.238	0.117	-0.174
-317.012	800.000	-0.069	0.293
-315.997	-131.568	-0.331	-0.043
-314.983	800.000	0.080	0.306
-313.968	-2.611	0.187	-0.130
-312.953	247.892	0.140	-0.235
-311.939	130.085	0.225	-0.287
-310.924	48.296	0.325	-0.302
-309.910	-70.295	-0.114	0.043
-308.895	118.292	-0.061	0.075
-307.880	-18.239	-0.273	0.170
-306.866	-200.000	0.037	0.291
-305.851	59.540	0.223	0.219
-304.837	-200.000	-0.322	-0.000
-303.822	-82.649	0.338	0.109
-302.807	-11.996	0.234	-0.152
-301.793	83.765	0.166	0.180
-300.778	-200.000	-0.009	-0.074
-299.764	-200.000	0.043	-0.317
-298.749	42.895	-0.039	0.035
-297.735	800.000	-0.072	0.240
-296.720	48.218	0.148	0.137
-295.705	-122.425	-0.099	-0.016
-294.691	-200.000	-0.038	-0.194
-293.676	800.000	-0.100	0.290
-292.662	-66.372	0.289	-0.114
-291.647	33.382	0.118	-0.101
-290.632	206.781	-0.205	-0.317
-289.618	-200.000	-0.009	-0.471
-288.603	-94.652	0.458	0.124
-287.589	-91.502	-0.028	0.008
-286.574	-151.513	0.171	0.013
-285.559	166.982	-0.158	0.222
-284.545	58.699	-0.005	-0.005
-283.530	-200.000	0.013	-0.268
-282.516	-54.497	0.247	-0.111
-281.501	-160.922	0.350	-0.018
-280.486	800.000	-0.049	-0.150
-279.472	800.000	0.163	0.466
-278.457	161.138	-0.027	-0.037
-277.443	-200.000	0.032	0.210
-276.428	114.779	0.129	0.156
-275.413	3.992	-0.142	-0.103
-274.399	40.146	-0.172	0.154
-273.384	335.590	-0.110	-0.212
-272.370	-114.680	-0.295	0.056
-271.355	272.042	0.073	-0.127
-270.340	-200.000	-0.071	0.329
-269.326	-200.000	0.029	-0.141
-268.311	674.709	-0.029	-0.075
-267.297	-200.000	-0.021	-0.381
-266.282	7.865	0.071	0.053
-265.267	61.693	0.100	0.098
-264.253	-200.000	-0.000	0.088
-263.238	-50.537	-0.087	-0.041
-262.224	195.209	-0.197	-0.297
-261.209	-200.000	0.013	0.107
-260.195	-200.000	-0.010	-0.148
-259.180	800.000	-0.109	-0.413
-258.165	62.165	0.076	-0.075
-257.151	619.741	0.085	0.213
-256.136	-116.141	0.280	0.052
-255.122	371.608	-0.071	0.143
-254.107	629.323	-0.059	0.147
-253.092	800.000	0.033	-0.109
-252.078	-59.914	-0.115	0.049
-251.063	59.252	0.337	0.329
-250.049	379.660	0.065	0.133
-249.034	-63.666	0.147	-0.060
-248.019	641.003	-0.078	0.197
-247.005	-200.000	0.025	0.154
-245.990	-95.913	-0.160	-0.042
-244.976	110.272	-0.138	0.164
-243.961	6.140	-0.128	-0.094
-242.946	-164.166	0.344	0.016
-241.932	-31.283	-0.194	0.108
-240.917	294.759	0.075	0.136
-239.903	-200.000	-0.029	-0.223
-238.888	-30.837	0.121	-0.068
-237.873	456.383	-0.095	0.208
-236.859	-12.097	0.079	-0.051
-235.844	74.987	0.198	-0.206
-234.830	-117.767	-0.245	0.044
-233.815	286.968	0.028	-0.050
-232.800	79.746	0.178	0.189
-231.786	-40.845	-0.201	0.103
-230.771	204.993	0.136	0.209
-229.757	-74.687	-0.284	0.101
-228.742	14.557	-0.051	-0.040
-227.727	-200.000	0.040	-0.244
-226.713	-68.659	0.246	0.094
-225.698	-200.000	-0.006	-0.084
-224.684	-103.820	-0.180	-0.042
-223.669	-12.440	0.198	-0.128
-222.655	-200.000	0.075	0.353
-221.640	92.810	-0.158	-0.177
-220.625	800.000	0.030	-0.110
-219.611	294.843	-0.021	-0.039
-218.596	-200.000	0.016	-0.099
-217.582	-200.000	0.024	0.112
-216.567	-111.335	0.282	-0.057
-215.552	-33.645	0.155	0.085
-214.538	-198.159	0.050	0.000
-213.523	-40.236	0.315	-0.162
-212.509	-142.255	0.402	0.039
-211.494	55.894	0.042	0.040
-210.479	183.770	0.147	0.216
-209.465	-71.134	0.092	0.034
-208.450	-113.120	-0.208	0.041
-207.436	-18.509	0.115	0.071
-206.421	-126.027	0.275	-0.041
-205.406	51.097	0.171	-0.161
-204.392	-158.393	-0.171	-0.010
-203.377	-3.204	0.133	-0.092
-202.363	-200.000	-0.002	0.055
-201.348	-105.541	0.197	-0.044
-200.333	-42.190	-0.227	0.115
-199.319	-5.558	0.118	0.080
-198.304	-64.092	-0.248	-0.100
-197.290	410.097	0.018	-0.038
-196.275	314.669	-0.013	-0.024
-195.260	-200.000	0.002	0.275
-194.246	800.000	-0.016	-0.058
-193.231	-179.422	0.071	-0.002
-192.217	800.000	-0.117	-0.350
-191.202	-53.629	-0.227	-0.103
-190.187	-173.816	0.066	-0.002
-189.173	-200.000	0.019	0.092
-188.158	39.462	-0.251	0.222
-187.144	73.343	0.296	0.306
-186.129	16.536	-0.179	0.140
-185.114	23.459	-0.099	0.081
-184.100	42.194	0.299	0.268
-183.085	-200.000	-0.029	-0.159
-182.071	-106.886	-0.214	-0.047
-181.056	-200.000	0.037	0.172
-180.042	128.417	0.066	-0.083
-179.027	-83.498	-0.253	0.080
-178.012	-35.252	0.259	-0.139
-176.998	-200.000	0.020	-0.190
-175.983	175.779	0.170	0.243
-174.969	126.413	0.080	-0.100
-173.954	147.900	0.090	-0.120
-172.939	116.477	-0.248	-0.301
-171.925	-12.669	-0.159	-0.102
-170.910	-102.806	0.131	-0.031
-169.896	-154.164	-0.418	-0.028
-168.881	501.727	0.068	0.155
-167.866	-8.037	0.185	-0.123
-166.852	-83.030	0.365	-0.116
-165.837	123.329	0.215	-0.266
-164.823	800.000	-0.079	-0.289
-163.808	-152.631	-0.190	-0.013
-162.793	-200.000	-0.059	0.322
-161.779	86.623	-0.147	0.160
-160.764	43.245	0.280	0.253
-159.750	-53.359	0.096	-0.044
-158.735	-80.049	-0.409	0.136
-157.720	-200.000	0.000	0.201
-156.706	365.606	-0.032	-0.064
-155.691	338.336	-0.231	-0.444
-154.677	-73.262	0.194	0.070
-153.662	-200.000	-0.031	-0.176
-152.647	-3.195	-0.301	0.208
-151.633	-200.000	-0.009	0.105
-150.618	800.000	0.055	0.168
-149.604	800.000	-0.031	-0.105
-148.589	-117.673	0.044	-0.008
-147.574	74.008	0.098	-0.101
-146.560	-200.000	-0.315	0.000
-145.545	185.922	0.053	0.077
-144.531	515.711	-0.069	0.159
-143.516	-130.314	0.205	0.027
-142.502	-61.246	-0.162	-0.068
-141.487	-54.542	0.101	0.045
-140.472	347.606	-0.165	-0.322
-139.458	30.306	0.277	-0.233
-138.443	-11.351	-0.130	0.085
-137.429	301.660	-0.100	-0.182
-136.414	-48.127	0.138	-0.066
-135.399	67.237	0.369	0.371
-134.385	40.416	0.119	0.106
-133.370	-164.848	-0.322	0.014
-132.356	800.000	-0.075	0.278
-131.341	800.000	0.069	0.191
-130.326	-200.000	-0.023	0.251
-129.312	177.898	0.143	0.205
-128.297	527.678	-0.055	0.127
-127.283	-200.000	0.012	0.494
-126.268	186.705	0.134	-0.197
-125.253	-200.000	0.000	0.074
-124.239	-141.354	0.238	-0.024
-123.224	119.612	0.144	0.176
-122.210	8.240	0.164	-0.121
-121.195	800.000	-0.029	-0.100
