DTS Sentinel unit serial number:	SN413079Multiplexer serial number:	ORYXHardware model number:	OX4-SRSoftware version number:	ORYX F/W v4.00 Oryx Data Collector v3.7.2.0data status	okinstallation	princeton_trtdifferential loss correction	single-endedforward channel	channel 1reverse channel	N/Adate	2019/09/14time	11:54:35forward acquisition time	60.00reverse acquisition time	0.00gamma	496.2192k internal	0.2295k external	0.2295temperature offset calibration	1.0081default loss term (dB/km)	0.3790temperature slope calibration	1.0000multiplexer offset coefficient	1.0000multiplexer slope coefficient	1.0000fibre end	0.00T internal ref (°C)	37.22T ext. ref 1 (°C)	4.64T ext. ref 2 (°C)	34.82length (m)	temperature (°C)	Stokes	anti-Stokes-747.200	22.022	-0.107	-0.089
-746.185	-200.000	-0.008	0.335
-745.171	155.801	-0.266	-0.374
-744.156	-200.000	-0.026	-0.154
-743.142	374.450	-0.080	0.167
-742.127	-95.729	0.156	0.043
-741.112	83.329	-0.115	-0.127
-740.098	800.000	-0.060	0.222
-739.083	534.614	-0.047	0.115
-738.069	-200.000	0.015	-0.129
-737.054	-200.000	0.065	0.301
-736.039	-106.589	-0.414	0.094
-735.025	800.000	-0.041	-0.140
-734.010	-87.583	-0.310	0.096
-732.996	96.367	-0.229	0.268
-731.981	290.766	-0.025	-0.046
-730.966	143.617	-0.184	-0.250
-729.952	138.959	0.262	0.352
-728.937	-75.350	-0.256	0.093
-727.923	262.238	-0.208	-0.369
-726.908	28.609	-0.314	-0.271
-725.894	-82.911	0.172	-0.057
-724.879	-87.305	-0.049	-0.015
-723.864	130.886	-0.118	0.155
-722.850	133.505	-0.168	-0.221
-721.835	-37.183	-0.046	0.025
-720.821	3.596	-0.228	-0.170
-719.806	214.504	-0.038	-0.062
-718.791	229.344	0.115	-0.191
-717.777	-128.218	-0.178	-0.026
-716.762	-36.376	0.198	0.109
-715.748	-40.199	0.149	0.079
-714.733	800.000	0.096	-0.395
-713.718	645.480	0.072	0.187
-712.704	-155.974	-0.356	0.023
-711.689	-28.089	0.100	-0.059
-710.675	719.475	-0.055	-0.150
-709.660	-156.192	0.096	-0.006
-708.645	-27.725	0.189	0.112
-707.631	-160.489	0.061	-0.003
-706.616	632.242	-0.139	-0.359
-705.602	-68.600	-0.156	-0.062
-704.587	800.000	0.058	-0.188
-703.572	-157.699	0.204	-0.012
-702.558	-92.238	0.099	-0.028
-701.543	39.727	0.184	-0.169
-700.529	800.000	-0.125	-0.457
-699.514	-39.349	-0.071	0.038
-698.499	-42.827	-0.053	-0.027
-697.485	-48.430	0.091	0.045
-696.470	-137.883	0.230	-0.026
-695.456	-43.683	-0.109	-0.056
-694.441	-200.000	-0.019	-0.140
-693.426	-12.547	-0.121	0.081
-692.412	43.228	-0.070	0.065
-691.397	-200.000	0.008	0.210
-690.383	-200.000	0.001	-0.156
-689.368	800.000	0.107	0.316
-688.354	-147.372	-0.284	0.025
-687.339	-200.000	0.040	-0.193
-686.324	-56.786	0.222	-0.100
-685.310	-96.094	-0.170	-0.046
-684.295	-200.000	-0.059	-0.340
-683.281	90.429	-0.181	-0.207
-682.266	800.000	0.051	-0.222
-681.251	619.497	0.050	0.127
-680.237	-200.000	-0.021	-0.236
-679.222	88.075	-0.160	-0.181
-678.208	-52.776	0.452	0.213
-677.193	-182.246	-0.206	0.004
-676.178	345.042	-0.206	0.412
-675.164	-200.000	0.016	-0.080
-674.149	-69.126	0.131	0.051
-673.135	-26.816	-0.318	0.189
-672.120	-200.000	0.038	0.238
-671.105	-23.742	-0.190	0.116
-670.091	-200.000	0.017	-0.143
-669.076	-200.000	0.057	-0.262
-668.062	-200.000	-0.053	0.302
-667.047	-200.000	-0.025	0.159
-666.032	-200.000	0.003	0.073
-665.018	-30.806	0.128	-0.074
-664.003	-34.251	-0.252	-0.141
-662.989	93.638	0.176	0.203
-661.974	180.161	-0.126	0.188
-660.959	-60.473	0.275	0.119
-659.945	84.901	-0.341	-0.381
-658.930	800.000	0.071	-0.265
-657.916	309.227	-0.106	0.202
-656.901	-68.231	-0.039	-0.015
-655.886	117.284	0.309	-0.387
-654.872	-56.400	0.024	-0.011
-653.857	348.629	0.134	-0.268
-652.843	-86.505	0.348	0.109
-651.828	-81.682	-0.169	0.057
-650.814	800.000	-0.070	0.200
-649.799	15.501	0.121	-0.097
-648.784	4.038	0.203	-0.151
-647.770	-72.119	0.146	-0.055
-646.755	-113.751	0.089	-0.018
-645.741	4.596	-0.141	0.106
-644.726	-200.000	0.044	-0.251
-643.711	-52.799	-0.121	0.057
-642.697	248.463	-0.085	-0.146
-641.682	800.000	0.044	-0.158
-640.668	125.719	-0.089	-0.114
-639.653	13.634	-0.069	-0.055
-638.638	-93.958	-0.175	-0.049
-637.624	35.202	0.309	-0.275
-636.609	35.685	-0.255	0.228
-635.595	195.703	0.030	-0.047
-634.580	-200.000	0.001	-0.283
-633.565	2.483	-0.076	0.056
-632.551	151.253	0.096	-0.133
-631.536	-147.499	-0.069	0.006
-630.522	-0.795	-0.061	-0.044
-629.507	144.643	0.097	-0.132
-628.492	89.995	-0.129	-0.147
-627.478	-58.433	-0.169	0.075
-626.463	52.044	0.126	-0.122
-625.449	-4.325	0.233	0.164
-624.434	-112.695	0.150	0.030
-623.419	-69.158	-0.201	0.079
-622.405	660.370	-0.095	0.250
-621.390	-46.821	0.113	-0.056
-620.376	-200.000	0.028	0.168
-619.361	49.981	0.105	-0.100
-618.346	151.059	-0.124	0.171
-617.332	94.096	-0.089	-0.103
-616.317	800.000	-0.073	0.290
-615.303	-20.815	-0.110	0.068
-614.288	382.949	-0.095	0.200
-613.273	88.922	-0.192	0.218
-612.259	133.497	0.063	0.082
-611.244	-134.781	0.164	0.020
-610.230	116.591	0.101	-0.126
-609.215	654.247	-0.120	-0.313
-608.201	50.581	-0.143	0.138
-607.186	-56.873	-0.188	0.085
-606.171	158.644	0.089	-0.125
-605.157	592.586	-0.030	0.074
-604.142	800.000	-0.047	-0.208
-603.128	-101.189	0.055	-0.014
-602.113	-118.964	-0.443	-0.079
-601.098	-58.515	-0.192	-0.085
-600.084	158.672	-0.120	-0.170
-599.069	63.761	0.112	0.114
-598.055	-109.037	0.298	0.064
-597.040	-55.801	-0.103	-0.047
-596.025	347.079	0.047	0.095
-595.011	-54.677	0.233	-0.107
-593.996	121.796	-0.184	0.234
-592.982	21.725	0.054	-0.045
-591.967	-65.342	0.283	-0.116
-590.952	-200.000	-0.001	-0.078
-589.938	97.084	0.089	-0.104
-588.923	57.981	-0.122	0.121
-587.909	130.816	0.213	-0.277
-586.894	202.971	-0.117	-0.184
-585.879	-157.228	0.114	0.007
-584.865	-200.000	-0.044	-0.301
-583.850	-4.983	0.213	-0.149
-582.836	-152.242	0.074	-0.005
-581.821	-57.874	0.284	0.126
-580.806	431.568	-0.010	0.023
-579.792	66.067	0.121	0.125
-578.777	129.309	0.144	-0.187
-577.763	12.581	0.154	0.120
-576.748	2.837	0.039	-0.029
-575.733	81.346	-0.263	0.288
-574.719	-169.697	-0.298	-0.011
-573.704	296.017	-0.046	0.085
-572.690	-56.367	0.099	-0.045
-571.675	-200.000	0.000	0.012
-570.661	-142.861	-0.048	-0.005
-569.646	140.747	-0.155	-0.208
-568.631	49.310	-0.073	0.070
-567.617	-169.467	0.230	0.009
-566.602	55.205	0.123	-0.121
-565.588	800.000	0.115	0.461
-564.573	180.264	0.120	-0.178
-563.558	223.745	-0.112	-0.184
-562.544	53.326	-0.129	-0.125
-561.529	-47.985	0.208	0.102
-560.515	-158.938	0.172	-0.010
-559.500	-38.165	-0.482	0.260
-558.485	-167.662	-0.066	-0.003
-557.471	-193.619	-0.163	-0.001
-556.456	42.354	-0.107	-0.098
-555.442	-200.000	0.022	-0.166
-554.427	-200.000	0.016	0.263
-553.412	-49.279	-0.139	-0.067
-552.398	242.288	-0.075	-0.128
-551.383	240.367	0.106	0.179
-550.369	271.049	0.061	0.110
-549.354	99.253	-0.158	-0.185
-548.339	432.163	-0.076	-0.167
-547.325	-82.485	0.232	0.076
-546.310	257.910	-0.088	0.154
-545.296	-113.579	-0.094	-0.019
-544.281	476.426	-0.007	-0.016
-543.266	37.052	-0.098	0.088
-542.252	-200.000	0.022	0.184
-541.237	-180.501	-0.230	-0.005
-540.223	-124.114	0.073	0.012
-539.208	-200.000	0.010	-0.176
-538.193	-151.982	0.305	0.023
-537.179	-66.474	0.131	-0.053
-536.164	-105.894	0.097	-0.022
-535.150	-200.000	0.035	0.368
-534.135	-90.799	-0.207	-0.061
-533.121	-200.000	-0.021	0.283
-532.106	2.779	-0.314	0.231
-531.091	-116.829	0.210	-0.039
-530.077	-38.100	0.541	-0.291
-529.062	-111.675	-0.215	0.044
-528.048	-193.398	0.233	-0.002
-527.033	800.000	0.071	0.201
-526.018	75.042	-0.045	0.048
-525.004	-200.000	0.040	-0.205
-523.989	-75.217	-0.066	0.024
-522.975	-68.507	-0.469	0.184
-521.960	800.000	-0.043	-0.154
-520.945	-200.000	0.045	-0.380
-519.931	72.279	0.074	-0.078
-518.916	147.821	-0.086	-0.118
-517.902	-32.454	-0.211	-0.119
-516.887	800.000	-0.085	0.256
-515.872	-173.756	-0.245	-0.007
-514.858	800.000	-0.041	-0.143
-513.843	800.000	-0.031	-0.118
-512.829	-168.817	-0.208	-0.008
-511.814	32.275	0.186	-0.162
-510.799	800.000	-0.102	-0.345
-509.785	223.784	0.132	0.216
-508.770	800.000	-0.040	0.132
-507.756	-200.000	-0.003	-0.046
-506.741	-200.000	-0.003	-0.111
-505.726	508.378	-0.119	-0.281
-504.712	-200.000	-0.070	0.399
-503.697	-200.000	-0.047	-0.343
-502.683	-49.644	0.368	0.177
-501.668	387.335	-0.125	0.261
-500.653	262.713	-0.175	0.307
-499.639	-42.743	-0.350	0.180
-498.624	71.983	0.114	-0.120
-497.610	-123.543	-0.368	0.059
-496.595	-3.425	0.408	-0.287
-495.581	310.279	0.111	-0.210
-494.566	-133.800	-0.338	-0.043
-493.551	-200.000	0.039	0.225
-492.537	90.152	0.283	-0.321
-491.522	-113.046	0.370	0.074
-490.508	-157.868	-0.165	0.010
-489.493	-0.651	0.203	0.145
-488.478	20.215	0.031	0.025
-487.464	755.681	-0.043	0.117
-486.449	388.530	0.114	-0.238
-485.435	800.000	-0.109	-0.389
-484.420	-71.989	0.119	-0.045
-483.405	-200.000	-0.047	0.405
-482.391	19.498	0.038	-0.031
-481.376	-200.000	0.005	0.152
-480.362	-200.000	0.009	-0.115
-479.347	153.296	0.013	-0.017
-478.332	45.207	0.249	-0.232
-477.318	42.255	-0.169	0.156
-476.303	-78.356	0.283	0.098
-475.289	800.000	-0.094	-0.264
-474.274	164.684	0.115	-0.164
-473.259	-32.028	-0.077	0.044
-472.245	-200.000	0.002	0.078
-471.230	110.670	-0.047	-0.057
-470.216	737.673	-0.112	-0.304
-469.201	182.956	0.095	-0.142
-468.186	-22.584	0.105	0.064
-467.172	800.000	0.014	-0.046
-466.157	5.763	-0.172	-0.129
-465.143	-36.652	-0.332	-0.180
-464.128	-106.578	-0.234	0.053
-463.113	598.976	-0.067	-0.167
-462.099	656.563	-0.055	0.143
-461.084	-167.432	0.279	0.011
-460.070	-71.371	-0.186	0.070
-459.055	-125.221	0.081	-0.013
-458.040	-200.000	-0.038	-0.251
-457.026	-68.160	0.221	-0.087
-456.011	118.428	-0.128	-0.159
-454.997	-7.789	0.351	0.239
-453.982	-62.097	-0.141	-0.059
-452.968	-54.749	0.232	0.106
-451.953	48.234	0.093	-0.088
-450.938	154.087	0.071	0.098
-449.924	-89.727	-0.115	0.034
-448.909	-165.553	-0.227	0.010
-447.895	155.558	-0.242	0.337
-446.880	-120.547	0.056	0.010
-445.865	-93.371	-0.240	0.067
-444.851	53.382	0.176	-0.171
-443.836	-94.112	0.198	0.055
-442.822	123.442	-0.093	-0.118
-441.807	36.554	-0.186	0.166
-440.792	-123.501	0.166	-0.027
-439.778	100.436	0.200	0.234
-438.763	771.065	-0.079	-0.217
-437.749	-141.357	-0.161	0.017
-436.734	-45.057	0.060	0.030
-435.719	-200.000	-0.004	-0.421
-434.705	715.239	0.028	0.075
-433.690	82.789	0.250	0.274
-432.676	70.465	0.175	0.183
-431.661	226.241	-0.164	-0.269
-430.646	-122.229	-0.299	0.049
-429.632	442.434	-0.197	-0.435
-428.617	32.359	0.271	-0.236
-427.603	-93.337	0.174	-0.049
-426.588	-77.702	-0.146	0.051
-425.573	375.262	-0.103	-0.212
-424.559	-153.876	-0.249	-0.017
-423.544	-152.413	0.118	0.009
-422.530	-25.027	0.168	0.101
-421.515	-200.000	-0.056	-0.293
-420.500	-84.404	0.252	-0.080
-419.486	-200.000	-0.047	0.300
-418.471	166.987	0.052	0.075
-417.457	-79.052	0.293	-0.100
-416.442	44.390	0.184	0.171
-415.428	-88.952	-0.377	0.113
-414.413	233.909	0.137	-0.227
-413.398	561.182	-0.025	-0.061
-412.384	-36.837	-0.158	-0.085
-411.369	-109.204	0.113	-0.024
-410.355	78.582	0.305	0.329
-409.340	-200.000	0.004	0.069
-408.325	-120.280	0.449	0.077
-407.311	800.000	0.037	-0.154
-406.296	-200.000	0.007	0.166
-405.282	-200.000	-0.073	-0.383
-404.267	800.000	0.050	-0.174
-403.252	800.000	-0.022	-0.066
-402.238	199.265	-0.053	-0.083
-401.223	387.666	-0.085	0.177
-400.209	71.682	0.068	0.071
-399.194	-27.505	-0.306	0.179
-398.179	565.489	-0.179	-0.439
-397.165	-153.684	0.504	-0.035
-396.150	-200.000	-0.018	0.177
-395.136	-100.282	-0.385	0.096
-394.121	63.177	0.211	-0.213
-393.106	-200.000	0.035	-0.166
-392.092	-80.394	-0.060	0.020
-391.077	53.011	-0.049	-0.048
-390.063	-17.821	0.173	-0.109
-389.048	-137.982	-0.190	-0.021
-388.033	-200.000	0.027	-0.203
-387.019	78.387	-0.342	-0.368
-386.004	-70.590	0.007	-0.003
-384.990	-58.427	0.253	-0.111
-383.975	-200.000	0.008	0.098
-382.960	800.000	0.090	0.311
-381.946	-107.319	-0.204	-0.045
-380.931	-8.199	-0.128	0.087
-379.917	-57.848	0.311	0.137
-378.902	225.453	-0.199	-0.324
-377.888	-131.902	-0.234	-0.031
-376.873	-32.016	-0.146	-0.082
-375.858	22.713	-0.311	0.256
-374.844	-143.281	0.068	0.007
-373.829	-53.918	0.197	0.091
-372.815	-200.000	0.018	0.196
-371.800	-85.595	-0.089	-0.028
-370.785	-125.875	0.338	0.051
-369.771	-37.274	-0.244	-0.131
-368.756	-200.000	-0.009	-0.065
-367.742	-200.000	0.002	-0.180
-366.727	9.143	0.217	-0.165
-365.712	48.564	-0.176	-0.166
-364.698	-48.770	-0.237	0.115
-363.683	-181.539	-0.180	-0.004
-362.669	59.297	-0.050	-0.049
-361.654	93.978	0.200	0.228
-360.639	-80.993	-0.330	0.110
-359.625	209.343	-0.118	0.186
-358.610	-103.091	0.286	-0.068
-357.596	-30.808	-0.139	-0.079
-356.581	120.751	0.196	0.245
-355.566	264.438	-0.086	0.151
-354.552	68.452	0.125	0.129
-353.537	-200.000	-0.019	-0.400
-352.523	-52.314	-0.315	0.147
-351.508	-131.161	0.030	-0.004
-350.493	-200.000	-0.038	-0.192
-349.479	284.967	0.128	-0.232
-348.464	130.161	-0.144	-0.185
-347.450	-137.311	-0.183	0.021
-346.435	-125.499	0.105	0.016
-345.420	158.802	0.062	0.087
-344.406	-49.201	0.126	-0.061
-343.391	-200.000	0.027	0.422
-342.377	60.979	0.019	0.019
-341.362	-200.000	0.015	0.129
-340.348	-200.000	-0.004	0.022
-339.333	181.659	0.047	-0.070
-338.318	-200.000	-0.015	-0.082
-337.304	208.500	0.071	-0.111
-336.289	6.952	0.136	-0.102
-335.275	-31.015	-0.425	-0.241
-334.260	-67.487	-0.384	0.151
-333.245	55.123	0.128	0.124
-332.231	-126.916	-0.228	0.034
-331.216	-64.231	-0.199	0.082
-330.202	541.492	-0.073	-0.174
-329.187	-188.366	-0.197	-0.002
-328.172	57.353	-0.169	-0.165
-327.158	142.792	0.234	-0.313
-326.143	352.905	0.099	0.197
-325.129	-181.475	-0.120	-0.002
-324.114	211.761	-0.100	0.158
-323.099	250.053	0.134	-0.229
-322.085	-9.891	0.213	-0.143
-321.070	333.444	-0.116	0.226
-320.056	-80.063	-0.083	-0.028
-319.041	-145.975	0.115	0.010
-318.026	-104.028	-0.280	-0.066
-317.012	603.968	0.220	0.550
-315.997	146.511	-0.146	0.198
-314.983	800.000	0.051	-0.151
-313.968	-188.939	0.141	-0.002
-312.953	-109.947	-0.179	0.038
-311.939	49.919	0.054	-0.051
-310.924	418.610	0.046	-0.099
-309.910	-71.652	-0.050	-0.019
-308.895	220.614	0.085	-0.137
-307.880	-0.666	-0.344	-0.245
-306.866	-200.000	0.020	0.216
-305.851	-54.154	-0.105	-0.048
-304.837	-152.734	0.118	-0.008
-303.822	-19.618	0.276	0.172
-302.807	701.632	0.170	0.450
-301.793	-64.340	-0.186	-0.076
-300.778	102.568	-0.060	-0.070
-299.764	-136.814	-0.354	0.041
-298.749	248.532	-0.021	-0.036
-297.735	800.000	0.022	-0.088
-296.720	44.000	0.105	0.097
-295.705	-200.000	-0.001	0.208
-294.691	-200.000	-0.069	-0.318
-293.676	-36.358	0.262	0.142
-292.662	108.767	0.074	-0.089
-291.647	735.300	-0.031	0.084
-290.632	-151.242	-0.240	0.018
-289.618	-200.000	0.022	-0.174
-288.603	-21.440	0.030	-0.019
-287.589	57.362	0.054	0.053
-286.574	-200.000	-0.037	0.358
-285.559	85.696	0.229	0.253
-284.545	800.000	0.104	0.340
-283.530	-54.081	0.110	-0.050
-282.516	-200.000	0.025	-0.169
-281.501	35.463	-0.107	-0.094
-280.486	800.000	-0.118	0.350
-279.472	-200.000	0.271	0.000
-278.457	254.549	-0.045	0.077
-277.443	800.000	-0.123	-0.414
-276.428	800.000	0.042	-0.133
-275.413	800.000	-0.087	0.306
-274.399	-14.367	0.278	0.180
-273.384	-39.970	0.143	0.075
-272.370	194.978	0.050	-0.076
-271.355	166.154	-0.144	-0.205
-270.340	800.000	-0.075	-0.252
-269.326	67.444	-0.124	0.127
-268.311	-75.946	-0.194	0.069
-267.297	-43.112	-0.220	-0.112
-266.282	86.722	-0.206	-0.228
-265.267	229.911	0.287	-0.470
-264.253	29.652	-0.044	0.038
-263.238	17.295	0.191	0.152
-262.224	470.912	-0.117	-0.264
-261.209	-200.000	0.036	0.283
-260.195	477.938	0.089	0.203
-259.180	-177.710	0.333	0.008
-258.165	-68.850	-0.161	0.063
-257.151	-92.518	0.171	-0.048
-256.136	-197.485	-0.242	0.002
-255.122	-22.152	-0.252	0.153
-254.107	-42.258	0.213	0.109
-253.092	-36.216	0.118	0.064
-252.078	658.376	-0.036	0.093
-251.063	45.157	-0.013	-0.012
-250.049	3.654	-0.403	0.295
-249.034	16.671	0.294	0.233
-248.019	85.092	-0.159	0.175
-247.005	-70.387	0.172	0.066
-245.990	216.371	0.057	0.091
-244.976	18.634	0.369	0.295
-243.961	-200.000	0.009	-0.137
-242.946	69.136	0.121	0.125
-241.932	75.723	-0.011	-0.011
-240.917	-152.436	0.180	0.013
-239.903	44.609	0.082	-0.076
-238.888	-167.268	0.269	0.011
-237.873	-98.773	0.054	0.014
-236.859	97.760	-0.112	-0.128
-235.844	-114.765	-0.157	0.030
-234.830	165.743	0.111	-0.157
-233.815	-157.769	-0.130	0.008
-232.800	-141.358	-0.170	-0.017
-231.786	37.414	0.186	-0.166
-230.771	66.842	-0.076	0.077
-229.757	207.405	-0.125	-0.195
-228.742	800.000	0.122	0.349
-227.727	-200.000	0.013	0.304
-226.713	589.630	0.012	-0.031
-225.698	350.908	-0.048	0.095
-224.684	-34.784	-0.128	0.070
-223.669	83.286	0.170	0.186
-222.655	800.000	0.048	0.189
-221.640	-23.889	0.337	-0.202
-220.625	800.000	-0.074	0.305
-219.611	-137.152	-0.134	-0.015
-218.596	146.712	0.198	0.266
-217.582	0.867	-0.208	0.149
-216.567	800.000	-0.045	0.133
-215.552	55.705	-0.081	0.079
-214.538	12.458	0.066	0.051
-213.523	-68.579	-0.195	-0.076
-212.509	101.991	0.072	0.084
-211.494	60.373	-0.244	0.241
-210.479	-200.000	0.015	-0.221
-209.465	-137.631	0.245	-0.028
-208.450	-143.966	0.127	-0.012
-207.436	-44.341	0.071	-0.035
-206.421	97.478	-0.206	-0.237
-205.406	-153.521	-0.030	-0.002
-204.392	153.746	-0.128	0.176
-203.377	-177.549	0.238	0.006
-202.363	-5.164	0.295	-0.203
-201.348	-200.000	-0.014	0.470
-200.333	-136.994	-0.199	0.023
-199.319	74.709	-0.200	-0.211
-198.304	67.871	0.147	0.150
-197.290	417.149	-0.094	-0.202
-196.275	79.686	0.146	0.157
-195.260	800.000	0.104	-0.295
-194.246	256.072	-0.107	0.183
-193.231	-125.411	-0.208	0.032
-192.217	-95.836	-0.222	-0.059
-191.202	144.989	0.258	-0.345
-190.187	361.291	0.140	-0.281
-189.173	-200.000	-0.024	0.136
-188.158	27.483	0.101	0.085
-187.144	-54.216	-0.406	0.184
-186.129	-63.769	0.308	-0.126
-185.114	131.830	0.224	0.288
-184.100	-146.495	0.297	0.026
-183.085	63.383	0.259	0.260
-182.071	97.104	-0.119	-0.136
-181.056	466.300	0.086	-0.193
-180.042	-200.000	0.029	0.134
-179.027	-200.000	-0.005	0.171
-178.012	-158.730	-0.429	0.025
-176.998	55.005	0.194	0.188
-175.983	-68.242	-0.124	-0.048
-174.969	800.000	-0.031	-0.111
-173.954	800.000	-0.061	-0.180
-172.939	715.528	0.049	0.131
-171.925	-95.863	0.085	0.023
-170.910	-200.000	-0.055	-0.247
-169.896	-200.000	0.092	0.000
-168.881	-34.109	-0.172	-0.094
-167.866	800.000	0.115	-0.329
-166.852	-175.865	-0.229	0.006
-165.837	226.906	-0.036	-0.059
-164.823	800.000	-0.021	-0.070
-163.808	78.869	0.253	0.270
-162.793	592.512	0.036	0.088
-161.779	336.489	0.135	0.261
-160.764	46.050	0.091	0.084
-159.750	-159.685	-0.007	0.000
-158.735	-23.786	-0.175	0.105
-157.720	-6.821	0.131	0.089
-156.706	-106.860	0.402	-0.089
-155.691	-98.970	-0.168	0.043
-154.677	137.996	0.061	0.080
-153.662	348.882	0.207	0.407
-152.647	173.654	0.204	0.294
-151.633	-200.000	-0.040	-0.228
-150.618	800.000	-0.096	-0.311
-149.604	-37.061	0.099	0.053
-148.589	173.039	0.091	-0.132
-147.574	195.757	-0.141	0.214
-146.560	10.418	-0.293	0.222
-145.545	-153.535	-0.371	-0.026
-144.531	79.269	-0.143	0.153
-143.516	287.546	0.101	-0.183
-142.502	-66.794	0.162	-0.064
-141.487	-180.324	0.374	-0.008
-140.472	-45.363	-0.276	-0.137
-139.458	328.669	-0.054	0.104
-138.443	-51.466	0.202	-0.094
-137.429	241.507	-0.062	-0.103
-136.414	89.311	-0.252	0.280
-135.399	-8.013	0.088	0.059
-134.385	-81.561	-0.382	0.125
-133.370	-7.091	0.136	0.092
-132.356	12.946	-0.162	-0.125
-131.341	415.914	0.075	-0.159
-130.326	-102.400	0.303	-0.072
-129.312	337.644	-0.023	-0.044
-128.297	82.231	0.222	-0.240
-127.283	800.000	0.038	-0.122
-126.268	-86.906	-0.307	-0.093
-125.253	28.707	0.066	-0.056
-124.239	-91.488	0.281	0.080
-123.224	800.000	0.073	0.236
-122.210	11.117	-0.313	0.238
-121.195	78.811	-0.162	0.173
