DTS Sentinel unit serial number:	SN413079Multiplexer serial number:	ORYXHardware model number:	OX4-SRSoftware version number:	ORYX F/W v4.00 Oryx Data Collector v3.7.2.0data status	okinstallation	princeton_trtdifferential loss correction	single-endedforward channel	channel 1reverse channel	N/Adate	2019/09/17time	17:54:35forward acquisition time	60.00reverse acquisition time	0.00gamma	496.2192k internal	0.2291k external	0.2291temperature offset calibration	0.9954default loss term (dB/km)	0.3790temperature slope calibration	1.0000multiplexer offset coefficient	1.0000multiplexer slope coefficient	1.0000fibre end	0.00T internal ref (°C)	43.50T ext. ref 1 (°C)	0.34T ext. ref 2 (°C)	38.57length (m)	temperature (°C)	Stokes	anti-Stokes-747.200	-10.898	-0.086	0.058
-746.185	-200.000	-0.075	0.387
-745.171	190.317	-0.144	-0.221
-744.156	800.000	0.056	0.241
-743.142	90.789	0.096	-0.111
-742.127	186.191	0.115	0.176
-741.112	-66.311	0.113	-0.046
-740.098	-69.310	-0.043	0.017
-739.083	-29.131	0.206	-0.121
-738.069	-103.400	0.125	0.030
-737.054	477.369	-0.047	-0.109
-736.039	503.270	-0.142	0.337
-735.025	800.000	0.054	0.198
-734.010	-200.000	-0.090	-0.417
-732.996	-200.000	-0.022	-0.270
-731.981	70.963	-0.161	0.171
-730.966	800.000	0.052	-0.199
-729.952	-90.256	0.084	-0.025
-728.937	-99.464	-0.022	-0.006
-727.923	402.969	0.132	-0.284
-726.908	-133.893	-0.376	-0.048
-725.894	372.592	-0.069	0.143
-724.879	800.000	-0.072	0.238
-723.864	173.105	-0.261	0.385
-722.850	92.137	0.012	-0.014
-721.835	-88.896	-0.366	-0.111
-720.821	45.261	-0.136	-0.128
-719.806	347.978	0.068	-0.138
-718.791	76.062	-0.308	0.333
-717.777	204.883	0.050	0.079
-716.762	-39.529	-0.153	-0.082
-715.748	-200.000	-0.028	0.216
-714.733	-42.261	-0.167	0.087
-713.718	124.155	-0.221	-0.283
-712.704	800.000	-0.017	-0.056
-711.689	-200.000	0.003	0.311
-710.675	15.207	0.115	0.092
-709.660	31.553	-0.077	-0.067
-708.645	-78.394	0.392	0.138
-707.631	100.641	-0.199	0.236
-706.616	171.178	-0.115	0.168
-705.602	341.945	0.111	-0.223
-704.587	-100.522	0.121	-0.031
-703.572	-0.305	-0.229	-0.167
-702.558	-124.089	-0.083	0.013
-701.543	-94.431	-0.299	-0.083
-700.529	-152.762	-0.312	-0.023
-699.514	-200.000	0.008	0.240
-698.499	-40.181	-0.061	0.033
-697.485	-179.800	0.188	0.004
-696.470	208.926	-0.140	0.224
-695.456	-126.064	0.146	0.022
-694.441	-200.000	-0.020	-0.433
-693.426	-32.191	-0.220	0.125
-692.412	-66.306	0.310	0.126
-691.397	800.000	-0.117	-0.371
-690.383	-8.772	-0.075	-0.051
-689.368	5.544	0.258	0.195
-688.354	-151.790	0.174	0.013
-687.339	704.059	0.045	0.121
-686.324	293.176	0.108	0.201
-685.310	-7.149	-0.102	0.071
-684.295	41.982	-0.126	-0.117
-683.281	35.388	-0.104	-0.093
-682.266	-43.667	-0.242	0.124
-681.251	735.900	0.149	-0.409
-680.237	-133.378	0.061	-0.008
-679.222	308.672	-0.096	-0.183
-678.208	800.000	0.036	-0.149
-677.193	121.376	-0.244	0.310
-676.178	140.042	0.022	-0.030
-675.164	18.552	0.167	-0.136
-674.149	-30.253	0.247	-0.143
-673.135	-92.514	-0.264	0.076
-672.120	800.000	0.045	-0.177
-671.105	49.685	-0.135	0.130
-670.091	-103.130	0.127	-0.031
-669.076	-136.203	0.394	-0.047
-668.062	-141.138	-0.051	0.005
-667.047	-48.717	-0.436	0.214
-666.032	202.231	0.115	-0.182
-665.018	134.917	0.186	-0.246
-664.003	-176.864	-0.443	0.011
-662.989	154.250	-0.163	-0.228
-661.974	800.000	0.030	0.093
-660.959	800.000	-0.054	0.162
-659.945	-200.000	-0.022	-0.187
-658.930	69.965	0.108	0.114
-657.916	-94.117	0.121	0.034
-656.901	-12.962	0.043	-0.028
-655.886	-200.000	0.048	-0.266
-654.872	78.076	0.053	0.058
-653.857	-90.121	-0.295	0.088
-652.843	16.070	0.244	0.196
-651.828	-200.000	-0.004	0.038
-650.814	-121.375	-0.161	0.027
-649.799	53.954	0.129	0.127
-648.784	-166.606	0.081	-0.003
-647.770	-200.000	-0.001	-0.065
-646.755	187.612	-0.136	0.207
-645.741	-72.057	-0.242	0.092
-644.726	-91.677	-0.381	0.110
-643.711	61.547	0.272	-0.276
-642.697	-148.342	0.172	0.014
-641.682	133.443	-0.237	-0.312
-640.668	-32.428	0.080	0.046
-639.653	434.166	-0.124	-0.274
-638.638	251.604	0.054	0.093
-637.624	72.276	0.085	-0.091
-636.609	-40.543	-0.209	0.111
-635.595	800.000	-0.074	0.296
-634.580	-200.000	0.000	0.285
-633.565	-129.477	0.372	0.053
-632.551	67.378	0.206	-0.214
-631.536	71.321	-0.343	-0.362
-630.522	-153.514	-0.095	-0.007
-629.507	5.387	-0.451	0.339
-628.492	-53.512	0.147	0.069
-627.478	521.709	-0.034	0.080
-626.463	800.000	-0.018	-0.051
-625.449	-35.788	0.108	-0.060
-624.434	-99.067	0.110	-0.028
-623.419	572.287	0.082	-0.204
-622.405	-200.000	0.016	0.128
-621.390	38.938	-0.106	0.096
-620.376	419.582	-0.110	0.241
-619.361	800.000	0.014	0.061
-618.346	89.331	-0.011	0.013
-617.332	73.805	-0.011	-0.012
-616.317	800.000	-0.068	0.280
-615.303	-40.502	-0.100	-0.053
-614.288	-72.719	0.401	0.150
-613.273	276.241	-0.186	-0.337
-612.259	-200.000	-0.010	-0.063
-611.244	-60.084	-0.047	-0.020
-610.230	344.260	0.041	-0.083
-609.215	296.383	-0.149	0.279
-608.201	174.169	-0.162	0.239
-607.186	594.381	0.019	-0.049
-606.171	800.000	-0.039	-0.139
-605.157	-108.840	0.179	-0.039
-604.142	-200.000	-0.039	-0.274
-603.128	-200.000	-0.031	0.233
-602.113	-200.000	0.012	0.179
-601.098	-200.000	0.022	0.126
-600.084	182.376	-0.174	0.261
-599.069	800.000	0.033	0.132
-598.055	-160.823	-0.132	0.007
-597.040	181.403	0.100	-0.149
-596.025	-66.343	0.261	0.106
-595.011	101.667	0.152	-0.181
-593.996	104.044	0.276	0.330
-592.982	-200.000	-0.060	-0.273
-591.967	-96.026	0.272	0.074
-590.952	176.988	-0.069	-0.102
-589.938	-6.451	-0.097	-0.067
-588.923	-62.345	-0.113	-0.048
-587.909	187.314	0.187	0.284
-586.894	121.030	0.179	0.227
-585.879	422.144	-0.136	-0.298
-584.865	-46.363	-0.127	-0.064
-583.850	29.611	-0.280	0.243
-582.836	145.310	0.165	0.224
-581.821	-57.174	-0.168	0.075
-580.806	96.883	0.152	-0.177
-579.792	-117.881	-0.244	0.045
-578.777	-88.592	-0.347	-0.105
-577.763	-200.000	-0.039	0.337
-576.748	-53.602	0.093	0.043
-575.733	521.328	-0.061	-0.145
-574.719	800.000	0.014	-0.053
-573.704	-10.331	-0.102	-0.069
-572.690	-124.609	-0.136	-0.022
-571.675	-200.000	-0.058	-0.393
-570.661	13.629	-0.027	0.022
-569.646	-109.642	-0.202	-0.043
-568.631	-25.592	-0.287	-0.172
-567.617	716.505	0.055	-0.149
-566.602	800.000	0.022	-0.070
-565.588	-63.589	-0.086	-0.036
-564.573	85.613	-0.109	0.122
-563.558	307.113	0.234	-0.442
-562.544	-178.263	0.188	0.004
-561.529	-119.475	0.243	-0.043
-560.515	-129.873	0.045	0.006
-559.500	25.870	0.108	-0.092
-558.485	-56.399	0.036	-0.016
-557.471	146.077	-0.122	0.166
-556.456	533.084	0.079	-0.189
-555.442	-200.000	-0.018	0.118
-554.427	800.000	0.043	0.143
-553.412	262.584	0.060	0.106
-552.398	476.922	-0.106	-0.243
-551.383	-119.422	0.239	0.042
-550.369	-66.637	-0.142	0.057
-549.354	58.213	0.126	0.125
-548.339	-50.002	-0.233	0.112
-547.325	-60.243	-0.195	0.085
-546.310	38.784	0.391	0.355
-545.296	240.944	0.063	-0.106
-544.281	388.509	0.009	-0.020
-543.266	-50.494	0.208	-0.100
-542.252	166.091	-0.139	-0.200
-541.237	115.983	0.126	-0.156
-540.223	-200.000	0.000	0.069
-539.208	-7.833	-0.162	-0.111
-538.193	795.573	-0.076	-0.212
-537.179	-200.000	0.075	-0.347
-536.164	-1.213	-0.188	-0.135
-535.150	227.464	0.108	-0.178
-534.135	-43.886	-0.136	-0.069
-533.121	-33.627	-0.111	-0.062
-532.106	-114.155	0.146	0.029
-531.091	-178.886	-0.122	0.003
-530.077	46.607	-0.162	0.152
-529.062	-200.000	0.008	0.162
-528.048	-200.000	-0.004	-0.054
-527.033	-1.497	-0.219	-0.157
-526.018	261.248	-0.188	0.331
-525.004	198.272	-0.117	-0.181
-523.989	176.673	-0.242	-0.357
-522.975	-200.000	-0.023	-0.135
-521.960	122.716	0.190	0.241
-520.945	-3.773	0.118	0.083
-519.931	-65.512	-0.233	0.095
-518.916	800.000	-0.093	-0.331
-517.902	-57.167	0.165	0.074
-516.887	313.135	-0.103	-0.196
-515.872	-59.555	0.047	-0.020
-514.858	38.952	-0.168	0.153
-513.843	800.000	-0.076	-0.218
-512.829	311.510	0.143	0.272
-511.814	44.834	0.056	0.052
-510.799	37.100	0.251	0.225
-509.785	800.000	0.044	-0.162
-508.770	90.619	-0.212	-0.241
-507.756	298.040	0.124	0.231
-506.741	-156.837	-0.361	0.023
-505.726	-200.000	-0.020	-0.239
-504.712	-14.460	0.356	-0.233
-503.697	26.785	-0.308	-0.262
-502.683	0.836	-0.122	-0.089
-501.668	-10.343	-0.183	0.123
-500.653	57.085	0.137	-0.135
-499.639	89.387	-0.030	0.034
-498.624	-179.253	-0.236	0.005
-497.610	29.883	0.152	0.131
-496.595	790.324	-0.022	0.062
-495.581	-200.000	0.010	-0.079
-494.566	-139.013	-0.271	0.030
-493.551	-166.425	0.157	-0.007
-492.537	-180.654	0.058	-0.001
-491.522	18.153	0.152	-0.123
-490.508	54.906	-0.103	0.100
-489.493	228.047	0.083	-0.136
-488.478	200.057	0.103	-0.160
-487.464	-54.750	-0.162	-0.074
-486.449	47.092	-0.041	0.039
-485.435	-52.428	0.198	0.093
-484.420	45.017	-0.140	0.131
-483.405	206.649	0.192	-0.303
-482.391	-6.145	0.195	0.135
-481.376	-200.000	0.011	-0.381
-480.362	-200.000	-0.029	-0.135
-479.347	12.420	-0.316	-0.247
-478.332	-200.000	-0.012	-0.173
-477.318	800.000	-0.025	0.074
-476.303	-139.829	0.192	0.021
-475.289	-29.387	-0.091	-0.053
-474.274	101.145	-0.098	0.116
-473.259	331.803	-0.123	-0.241
-472.245	800.000	0.071	-0.247
-471.230	-200.000	0.016	0.100
-470.216	83.803	-0.274	-0.303
-469.201	800.000	-0.065	0.218
-468.186	255.360	0.141	-0.244
-467.172	564.627	0.051	0.126
-466.157	358.590	0.123	0.249
-465.143	-9.710	0.119	-0.080
-464.128	463.042	-0.023	0.051
-463.113	-142.347	-0.305	0.030
-462.099	-200.000	0.052	0.390
-461.084	28.825	-0.123	-0.106
-460.070	-1.167	-0.061	-0.044
-459.055	248.978	0.106	-0.182
-458.040	-90.116	-0.122	-0.036
-457.026	-200.000	-0.024	-0.120
-456.011	800.000	0.085	-0.276
-454.997	-29.335	0.292	0.169
-453.982	52.172	0.268	-0.258
-452.968	307.033	-0.111	0.209
-451.953	-156.055	-0.244	-0.016
-450.938	292.409	0.113	-0.208
-449.924	202.912	0.117	0.183
-448.909	-48.501	0.199	0.097
-447.895	-200.000	0.001	0.186
-446.880	581.577	0.092	-0.228
-445.865	42.943	-0.293	0.270
-444.851	26.640	-0.137	0.116
-443.836	367.908	-0.070	-0.143
-442.822	-200.000	-0.014	-0.116
-441.807	4.270	-0.136	0.101
-440.792	800.000	0.075	0.220
-439.778	800.000	-0.012	-0.037
-438.763	145.421	0.260	0.352
-437.749	97.724	-0.102	0.119
-436.734	-95.478	0.136	0.037
-435.719	292.288	-0.050	0.093
-434.705	80.180	0.084	0.092
-433.690	44.229	0.199	0.185
-432.676	800.000	-0.055	0.162
-431.661	-101.048	-0.164	-0.041
-430.646	231.220	-0.188	-0.311
-429.632	235.804	-0.034	-0.057
-428.617	92.818	0.193	-0.221
-427.603	310.373	-0.116	0.219
-426.588	11.636	-0.125	-0.097
-425.573	49.154	0.057	-0.055
-424.559	8.605	0.174	0.133
-423.544	-6.114	-0.183	0.126
-422.530	334.505	-0.125	0.244
-421.515	-200.000	-0.027	-0.168
-420.500	-63.416	-0.085	0.035
-419.486	-84.773	0.128	-0.041
-418.471	-107.629	0.222	-0.049
-417.457	621.305	0.072	0.183
-416.442	-67.032	-0.406	-0.162
-415.428	-17.240	-0.227	0.144
-414.413	26.809	0.081	-0.068
-413.398	36.543	-0.175	-0.156
-412.384	96.266	-0.065	0.075
-411.369	-75.016	0.205	-0.074
-410.355	24.907	0.177	-0.148
-409.340	22.860	0.097	-0.080
-408.325	230.789	0.098	-0.163
-407.311	-50.942	-0.105	0.050
-406.296	-87.186	0.433	-0.133
-405.282	-25.132	-0.228	-0.137
-404.267	-178.320	-0.246	0.006
-403.252	127.080	0.199	-0.256
-402.238	-136.239	-0.243	-0.029
-401.223	-200.000	-0.056	0.273
-400.209	25.406	0.133	0.112
-399.194	-154.335	0.105	0.007
-398.179	69.381	0.056	0.059
-397.165	-200.000	0.010	-0.061
-396.150	18.324	-0.154	0.124
-395.136	-82.175	-0.063	-0.021
-394.121	213.078	-0.084	0.133
-393.106	514.081	-0.159	-0.373
-392.092	800.000	0.070	0.220
-391.077	510.802	-0.059	-0.138
-390.063	158.036	0.235	-0.329
-389.048	-21.314	0.253	-0.156
-388.033	-32.459	-0.111	-0.062
-387.019	-84.184	0.135	-0.043
-386.004	383.958	0.091	-0.190
-384.990	583.615	0.107	-0.265
-383.975	530.497	-0.044	-0.106
-382.960	800.000	0.049	-0.160
-381.946	-200.000	-0.001	-0.080
-380.931	800.000	-0.098	0.291
-379.917	196.245	0.113	0.174
-378.902	-118.226	-0.101	0.018
-377.888	95.879	-0.275	0.317
-376.873	-40.439	-0.351	-0.184
-375.858	-200.000	-0.022	0.199
-374.844	-200.000	-0.020	0.234
-373.829	-193.626	0.158	0.001
-372.815	-200.000	-0.067	0.420
-371.800	-68.086	-0.465	-0.183
-370.785	643.392	-0.066	0.170
-369.771	-19.148	-0.247	-0.155
-368.756	-148.142	-0.351	-0.029
-367.742	-200.000	0.011	0.116
-366.727	-200.000	-0.003	-0.092
-365.712	-10.360	0.269	-0.180
-364.698	-127.428	0.194	-0.029
-363.683	-200.000	-0.012	0.000
-362.669	213.116	0.066	0.105
-361.654	61.704	0.144	0.144
-360.639	29.884	0.424	0.364
-359.625	-88.585	-0.112	-0.034
-358.610	-92.962	-0.207	0.058
-357.596	-119.981	0.057	0.010
-356.581	650.917	0.074	-0.191
-355.566	-47.417	0.229	-0.112
-354.552	-131.363	0.019	0.003
-353.537	800.000	-0.133	0.470
-352.523	-63.347	0.032	-0.013
-351.508	469.512	0.057	-0.130
-350.493	569.501	0.069	0.169
-349.479	-200.000	-0.008	0.272
-348.464	-200.000	-0.043	0.202
-347.450	176.278	0.189	0.277
-346.435	800.000	-0.067	0.220
-345.420	-32.318	-0.179	0.101
-344.406	471.870	0.077	0.174
-343.391	66.177	0.132	-0.135
-342.377	-200.000	-0.030	-0.304
-341.362	-179.330	0.154	0.003
-340.348	745.247	0.040	0.110
-339.333	440.098	0.097	0.213
-338.318	340.455	-0.076	-0.150
-337.304	9.167	-0.092	0.070
-336.289	-200.000	-0.006	0.089
-335.275	-73.987	-0.113	0.041
-334.260	800.000	-0.054	-0.209
-333.245	206.300	0.124	-0.195
-332.231	-200.000	0.007	0.109
-331.216	-200.000	0.025	-0.215
-330.202	563.535	0.100	0.245
-329.187	800.000	-0.106	0.463
-328.172	-164.493	-0.289	-0.013
-327.158	800.000	0.100	0.403
-326.143	-200.000	0.013	-0.135
-325.129	16.337	0.136	-0.108
-324.114	-28.765	0.120	0.070
-323.099	800.000	0.038	0.113
-322.085	-111.565	-0.503	0.103
-321.070	-200.000	-0.001	0.210
-320.056	40.125	-0.197	-0.178
-319.041	-200.000	-0.022	0.143
-318.026	-60.955	0.174	-0.074
-317.012	-66.611	0.154	-0.062
-315.997	12.271	0.074	-0.057
-314.983	-65.122	0.131	-0.053
-313.968	-113.165	0.087	-0.017
-312.953	800.000	-0.098	-0.363
-311.939	-200.000	0.063	-0.441
-310.924	-92.181	0.288	0.082
-309.910	87.565	-0.201	-0.223
-308.895	98.772	-0.110	0.127
-307.880	-189.612	0.075	0.001
-306.866	705.886	-0.039	-0.104
-305.851	-127.822	0.247	-0.036
-304.837	-92.731	-0.307	-0.086
-303.822	9.440	0.246	0.187
-302.807	-200.000	-0.000	0.064
-301.793	82.287	-0.069	0.075
-300.778	-200.000	-0.003	0.083
-299.764	130.254	0.065	0.084
-298.749	37.367	0.096	0.086
-297.735	800.000	-0.093	-0.298
-296.720	25.390	-0.031	0.026
-295.705	-76.583	0.414	0.146
-294.691	800.000	-0.155	-0.446
-293.676	-122.678	0.170	-0.028
-292.662	-79.844	0.300	-0.102
-291.647	0.526	0.172	0.124
-290.632	-75.979	-0.169	0.060
-289.618	-179.973	0.158	0.003
-288.603	11.901	0.080	0.062
-287.589	239.617	0.050	0.084
-286.574	-141.124	-0.192	-0.020
-285.559	251.425	-0.131	0.224
-284.545	89.455	-0.300	-0.336
-283.530	-44.932	0.242	-0.121
-282.516	337.876	-0.093	-0.183
-281.501	187.861	0.028	0.042
-280.486	800.000	0.086	0.317
-279.472	5.840	-0.276	0.206
-278.457	-13.893	-0.067	-0.044
-277.443	-200.000	-0.012	0.135
-276.428	-92.234	-0.308	0.087
-275.413	-200.000	0.019	0.117
-274.399	12.377	0.339	0.262
-273.384	-103.070	-0.297	-0.071
-272.370	-124.782	-0.162	0.025
-271.355	317.664	-0.104	-0.198
-270.340	-200.000	0.008	-0.120
-269.326	-8.359	-0.134	-0.091
-268.311	-68.913	0.349	0.135
-267.297	259.208	0.240	0.416
-266.282	589.974	-0.148	-0.367
-265.267	-11.037	0.139	0.092
-264.253	-69.447	0.158	-0.061
-263.238	800.000	-0.119	-0.337
-262.224	227.958	-0.115	-0.188
-261.209	-200.000	-0.017	-0.099
-260.195	107.876	-0.030	0.036
-259.180	96.211	0.085	-0.097
-258.165	121.750	0.192	-0.240
-257.151	465.759	0.142	0.320
-256.136	-200.000	0.005	0.250
-255.122	-200.000	-0.034	0.154
-254.107	31.171	0.354	0.305
-253.092	-200.000	-0.032	-0.308
-252.078	226.044	-0.106	-0.172
-251.063	-161.578	0.098	0.005
-250.049	-200.000	-0.014	0.154
-249.034	-47.248	0.245	0.120
-248.019	-127.673	0.214	0.031
-247.005	-200.000	-0.010	0.202
-245.990	453.164	-0.031	0.069
-244.976	-67.412	-0.119	-0.047
-243.961	9.807	-0.224	0.171
-242.946	-144.687	0.099	0.009
-241.932	50.938	-0.180	-0.171
-240.917	-200.000	-0.025	-0.235
-239.903	-21.687	-0.205	0.125
-238.888	21.082	-0.111	0.090
-237.873	88.113	-0.082	-0.092
-236.859	-200.000	-0.045	-0.298
-235.844	175.784	0.210	0.306
-234.830	-7.579	0.155	0.105
-233.815	-86.844	0.435	0.133
-232.800	-154.206	0.280	0.019
-231.786	41.506	-0.233	0.211
-230.771	800.000	-0.049	0.156
-229.757	-152.617	0.297	0.021
-228.742	610.953	0.072	0.180
-227.727	527.083	-0.178	0.420
-226.713	-91.689	0.327	-0.093
-225.698	189.304	-0.154	0.232
-224.684	-192.011	0.105	0.001
-223.669	104.567	0.185	-0.219
-222.655	-66.163	0.314	-0.126
-221.640	-164.137	0.145	0.007
-220.625	339.776	0.145	0.283
-219.611	-89.434	-0.135	0.040
-218.596	80.463	0.107	-0.116
-217.582	111.189	-0.093	-0.113
-216.567	-159.531	0.091	-0.005
-215.552	126.273	-0.040	-0.051
-214.538	-200.000	0.021	0.099
-213.523	800.000	0.082	0.325
-212.509	86.238	-0.080	-0.089
-211.494	-15.410	0.107	0.068
-210.479	86.087	0.266	-0.293
-209.465	194.702	0.034	0.052
-208.450	800.000	-0.032	-0.124
-207.436	207.816	0.206	0.322
-206.421	-21.538	0.183	-0.112
-205.406	-200.000	-0.032	0.144
-204.392	800.000	-0.015	-0.063
-203.377	-200.000	-0.105	-0.564
-202.363	-200.000	-0.042	0.190
-201.348	44.812	0.075	-0.069
-200.333	-66.749	-0.200	0.079
-199.319	-179.119	0.405	0.009
-198.304	425.892	0.040	-0.087
-197.290	131.574	0.057	0.073
-196.275	800.000	0.068	-0.277
-195.260	799.373	0.114	-0.317
-194.246	-17.485	0.097	-0.061
-193.231	333.951	0.044	0.086
-192.217	-93.286	0.174	-0.048
-191.202	194.566	0.286	-0.435
-190.187	-73.539	-0.112	-0.041
-189.173	73.445	-0.122	-0.128
-188.158	-1.783	0.159	0.112
-187.144	-84.171	-0.245	0.078
-186.129	21.593	-0.167	0.136
-185.114	-102.071	0.303	0.073
-184.100	213.073	0.140	-0.222
-183.085	515.656	-0.175	-0.409
-182.071	-96.486	-0.255	0.068
-181.056	-88.848	0.366	-0.109
-180.042	-9.444	-0.145	-0.097
-179.027	162.182	0.101	-0.141
-178.012	-39.567	-0.039	-0.020
-176.998	625.663	0.067	0.168
-175.983	15.538	-0.266	-0.209
-174.969	-200.000	0.022	0.510
-173.954	-200.000	0.022	-0.180
-172.939	-200.000	-0.014	0.307
-171.925	-87.049	0.160	0.049
-170.910	-95.572	-0.282	0.076
-169.896	719.655	0.090	0.240
-168.881	267.710	0.079	-0.138
-167.866	-80.562	0.073	0.024
-166.852	5.481	0.114	0.084
-165.837	-200.000	-0.034	-0.306
-164.823	257.900	-0.150	0.258
-163.808	-42.564	-0.240	-0.122
-162.793	-113.464	-0.292	-0.057
-161.779	800.000	0.031	0.098
-160.764	800.000	-0.044	0.157
-159.750	0.613	-0.179	0.128
-158.735	-200.000	0.510	-0.001
-157.720	-60.389	0.200	0.085
-156.706	170.068	-0.213	-0.305
-155.691	-200.000	-0.007	0.070
-154.677	-63.414	-0.236	0.097
-153.662	-97.507	-0.347	0.090
-152.647	-84.717	-0.247	-0.078
-151.633	-16.395	-0.175	-0.111
-150.618	-115.647	0.249	-0.047
-149.604	-112.304	-0.122	0.024
-148.589	-112.376	-0.317	-0.063
-147.574	-167.147	0.461	-0.019
-146.560	-56.876	0.172	-0.076
-145.545	378.219	0.112	-0.229
-144.531	753.955	-0.105	0.283
-143.516	142.090	-0.290	0.385
-142.502	-23.709	0.198	-0.119
-141.487	28.022	0.112	-0.095
-140.472	22.136	0.268	0.219
-139.458	118.329	0.224	0.277
-138.443	-145.813	0.359	-0.032
-137.429	-168.787	-0.070	0.003
-136.414	25.604	0.284	0.236
-135.399	-200.000	-0.037	0.394
-134.385	336.106	-0.051	0.098
-133.370	-38.588	-0.153	0.081
-132.356	-200.000	0.003	0.111
-131.341	800.000	-0.035	-0.129
-130.326	110.654	-0.104	-0.125
-129.312	726.868	0.063	0.169
-128.297	13.416	0.439	0.340
-127.283	-76.189	-0.203	0.072
-126.268	-200.000	0.021	-0.264
-125.253	-114.553	-0.136	0.026
-124.239	-200.000	-0.018	0.132
-123.224	-121.382	0.151	0.025
-122.210	-48.080	0.149	-0.072
-121.195	-25.932	-0.276	-0.162
-120.180	-19.176	0.210	-0.130
