DTS Sentinel unit serial number:	SN413079Multiplexer serial number:	ORYXHardware model number:	OX4-SRSoftware version number:	ORYX F/W v4.00 Oryx Data Collector v3.7.2.0data status	okinstallation	princeton_trtdifferential loss correction	single-endedforward channel	channel 1reverse channel	N/Adate	2019/09/12time	10:32:11forward acquisition time	60.00reverse acquisition time	0.00gamma	496.2192k internal	0.2297k external	0.2297temperature offset calibration	1.0045default loss term (dB/km)	0.3790temperature slope calibration	1.0000multiplexer offset coefficient	1.0000multiplexer slope coefficient	1.0000fibre end	0.00T internal ref (°C)	37.14T ext. ref 1 (°C)	1.86T ext. ref 2 (°C)	35.10length (m)	temperature (°C)	Stokes	anti-Stokes-747.200	-146.134	0.089	0.008
-746.185	-113.202	-0.195	0.039
-745.171	800.000	0.095	0.415
-744.156	-158.382	0.217	0.013
-743.142	459.893	-0.100	0.228
-742.127	548.106	-0.098	0.239
-741.112	192.187	0.050	0.076
-740.098	-94.989	-0.170	0.047
-739.083	-123.772	0.218	0.035
-738.069	-30.283	-0.181	0.105
-737.054	-17.072	-0.315	0.203
-736.039	-200.000	0.041	0.225
-735.025	-53.620	0.048	0.023
-734.010	-87.100	-0.235	-0.073
-732.996	-141.655	0.144	-0.015
-731.981	145.043	0.081	0.111
-730.966	561.470	0.008	0.019
-729.952	-92.985	0.088	0.025
-728.937	-200.000	-0.022	-0.210
-727.923	-200.000	-0.056	-0.356
-726.908	-136.111	-0.268	-0.032
-725.894	-55.140	-0.427	-0.196
-724.879	-69.483	0.101	-0.040
-723.864	-200.000	-0.017	-0.187
-722.850	800.000	0.144	0.442
-721.835	-48.253	-0.347	0.171
-720.821	-61.152	0.221	-0.095
-719.806	-70.976	0.031	-0.012
-718.791	-200.000	-0.021	-0.221
-717.777	413.963	-0.228	0.495
-716.762	800.000	0.087	-0.290
-715.748	800.000	0.054	-0.191
-714.733	-11.412	-0.202	-0.136
-713.718	67.307	-0.037	-0.039
-712.704	281.967	-0.058	0.106
-711.689	23.315	-0.131	0.110
-710.675	-90.653	0.372	-0.110
-709.660	-60.101	-0.128	-0.056
-708.645	516.069	0.017	-0.039
-707.631	-129.649	0.195	-0.027
-706.616	203.462	-0.248	-0.391
-705.602	-94.836	-0.213	-0.059
-704.587	-30.397	0.264	-0.153
-703.572	403.055	0.019	0.041
-702.558	317.236	0.064	0.124
-701.543	93.244	-0.150	-0.173
-700.529	-79.913	-0.259	-0.089
-699.514	800.000	0.038	0.149
-698.499	-75.988	-0.134	-0.048
-697.485	-200.000	-0.024	-0.293
-696.470	133.805	0.227	0.300
-695.456	-200.000	0.020	0.348
-694.441	131.350	0.062	0.082
-693.426	118.412	-0.130	0.164
-692.412	-72.087	0.169	-0.064
-691.397	113.926	0.084	0.104
-690.383	-107.727	0.035	0.008
-689.368	-22.880	-0.010	-0.006
-688.354	-93.404	-0.033	0.009
-687.339	800.000	-0.050	0.215
-686.324	-46.055	-0.085	0.043
-685.310	-20.031	0.097	0.061
-684.295	-157.933	0.160	0.010
-683.281	-200.000	0.023	-0.125
-682.266	800.000	0.082	0.270
-681.251	477.471	-0.123	-0.284
-680.237	-13.511	-0.263	0.173
-679.222	-33.665	-0.054	-0.030
-678.208	-25.049	-0.160	-0.097
-677.193	-138.585	-0.239	-0.027
-676.178	47.214	-0.105	-0.099
-675.164	-131.851	0.142	0.019
-674.149	612.418	0.035	0.089
-673.135	57.561	0.169	0.168
-672.120	212.353	-0.094	0.150
-671.105	-158.480	-0.093	-0.006
-670.091	422.078	0.104	0.228
-669.076	-147.412	-0.267	-0.023
-668.062	-80.782	-0.197	-0.067
-667.047	-200.000	0.009	-0.150
-666.032	4.673	0.226	0.169
-665.018	-41.580	0.102	-0.053
-664.003	-200.000	-0.047	0.319
-662.989	363.099	-0.099	0.202
-661.974	104.791	-0.185	-0.222
-660.959	-4.354	0.405	-0.285
-659.945	225.326	0.147	0.243
-658.930	-188.129	0.184	-0.002
-657.916	224.141	-0.100	0.165
-656.901	-7.398	0.253	-0.175
-655.886	-97.237	0.048	0.013
-654.872	800.000	0.036	0.124
-653.857	-35.744	0.146	-0.081
-652.843	800.000	0.031	-0.097
-651.828	-104.103	0.142	-0.034
-650.814	145.332	-0.021	0.028
-649.799	-66.767	-0.281	0.113
-648.784	760.548	0.170	0.470
-647.770	-200.000	-0.053	-0.285
-646.755	159.089	-0.030	-0.042
-645.741	800.000	0.094	0.394
-644.726	800.000	-0.020	0.075
-643.711	-143.796	0.153	-0.015
-642.697	800.000	-0.007	0.030
-641.682	-75.717	-0.157	-0.057
-640.668	135.797	-0.251	-0.333
-639.653	-200.000	-0.042	0.347
-638.638	-96.157	0.289	-0.078
-637.624	-40.402	-0.095	0.050
-636.609	-109.738	-0.087	0.019
-635.595	-79.240	0.169	0.058
-634.580	116.400	-0.300	0.374
-633.565	323.095	-0.058	0.112
-632.551	-196.552	0.063	0.000
-631.536	215.451	0.115	0.186
-630.522	-53.862	-0.111	-0.052
-629.507	7.619	0.156	0.119
-628.492	-24.181	0.266	0.162
-627.478	-83.669	0.194	0.063
-626.463	-24.652	-0.123	0.074
-625.449	-44.448	-0.463	-0.235
-624.434	-122.646	0.286	0.047
-623.419	38.974	0.257	0.234
-622.405	102.578	0.107	-0.127
-621.390	-200.000	-0.001	-0.080
-620.376	31.004	0.081	0.071
-619.361	-200.000	-0.000	-0.102
-618.346	-185.840	-0.303	0.005
-617.332	-10.168	-0.182	0.123
-616.317	275.496	-0.022	-0.040
-615.303	800.000	-0.056	-0.223
-614.288	-200.000	0.014	-0.088
-613.273	800.000	0.068	0.248
-612.259	-70.119	-0.170	-0.066
-611.244	800.000	0.080	-0.245
-610.230	-74.658	0.289	0.105
-609.215	800.000	0.053	-0.173
-608.201	2.522	0.188	0.139
-607.186	-182.727	-0.145	-0.003
-606.171	800.000	0.014	0.061
-605.157	-53.758	0.177	-0.082
-604.142	800.000	-0.042	-0.144
-603.128	-200.000	-0.051	0.322
-602.113	-61.687	0.172	-0.073
-601.098	502.292	-0.183	0.430
-600.084	-37.509	0.121	-0.065
-599.069	-119.732	-0.257	0.045
-598.055	431.107	-0.080	0.175
-597.040	-94.036	0.168	0.047
-596.025	313.972	-0.061	0.117
-595.011	-50.458	-0.141	0.068
-593.996	-3.922	0.225	0.158
-592.982	216.800	-0.205	-0.332
-591.967	800.000	-0.055	0.176
-590.952	-73.795	-0.200	-0.074
-589.938	-200.000	-0.015	0.209
-588.923	-200.000	-0.037	-0.228
-587.909	7.094	0.067	-0.051
-586.894	29.356	-0.156	0.134
-585.879	302.402	0.018	0.033
-584.865	-81.793	-0.102	0.034
-583.850	800.000	-0.038	-0.150
-582.836	5.338	-0.194	0.146
-581.821	-15.115	0.052	0.034
-580.806	628.450	0.167	-0.429
-579.792	-85.561	-0.208	0.066
-578.777	-200.000	-0.073	0.420
-577.763	-200.000	0.019	-0.116
-576.748	140.956	-0.197	0.264
-575.733	-118.908	-0.142	-0.025
-574.719	-69.713	0.200	-0.078
-573.704	-45.248	0.478	-0.241
-572.690	-200.000	0.029	-0.269
-571.675	78.014	-0.315	0.341
-570.661	-46.248	0.194	-0.097
-569.646	-14.614	0.233	0.152
-568.631	-200.000	0.044	0.311
-567.617	-161.490	0.213	0.011
-566.602	46.088	0.245	-0.231
-565.588	113.941	0.036	-0.045
-564.573	800.000	-0.043	-0.121
-563.558	800.000	0.046	0.145
-562.544	78.248	0.270	-0.292
-561.529	-200.000	0.006	0.146
-560.515	13.357	0.207	-0.163
-559.500	-200.000	0.039	-0.337
-558.485	43.999	0.266	-0.247
-557.471	-130.073	0.294	-0.041
-556.456	800.000	-0.047	-0.202
-555.442	-146.368	-0.321	0.028
-554.427	-119.454	-0.098	-0.017
-553.412	385.339	0.049	-0.102
-552.398	60.754	0.279	-0.280
-551.383	210.672	-0.055	0.087
-550.369	60.950	-0.400	-0.403
-549.354	800.000	0.058	-0.229
-548.339	578.622	-0.154	-0.381
-547.325	-3.225	-0.211	-0.149
-546.310	-98.235	-0.176	-0.046
-545.296	-200.000	-0.019	0.218
-544.281	-121.683	0.141	0.024
-543.266	189.777	-0.164	-0.249
-542.252	271.024	0.067	-0.120
-541.237	311.568	-0.130	-0.248
-540.223	147.694	0.037	0.051
-539.208	-200.000	-0.008	0.116
-538.193	-60.352	0.284	-0.122
-537.179	82.471	-0.131	0.144
-536.164	-82.681	0.255	-0.084
-535.150	-152.413	0.251	-0.018
-534.135	-75.587	0.303	0.109
-533.121	41.292	-0.143	0.131
-532.106	-60.465	-0.353	-0.152
-531.091	-23.792	-0.323	0.196
-530.077	22.285	0.126	-0.104
-529.062	-200.000	0.007	0.153
-528.048	11.405	-0.146	-0.113
-527.033	56.139	0.187	-0.184
-526.018	124.016	-0.106	-0.135
-525.004	482.445	-0.052	0.120
-523.989	-48.220	0.030	-0.015
-522.975	-71.134	0.199	-0.076
-521.960	229.860	0.153	-0.253
-520.945	375.844	-0.167	-0.344
-519.931	18.838	0.119	-0.096
-518.916	-82.279	-0.125	-0.041
-517.902	94.384	-0.189	-0.217
-516.887	-200.000	-0.034	0.343
-515.872	-49.206	-0.240	0.116
-514.858	-175.692	0.261	0.007
-513.843	68.877	-0.168	-0.174
-512.829	298.941	-0.109	0.203
-511.814	321.519	-0.125	-0.240
-510.799	-73.311	0.426	-0.158
-509.785	-79.350	-0.195	-0.067
-508.770	-200.000	-0.040	0.268
-507.756	-138.148	0.162	0.018
-506.741	-200.000	0.009	0.050
-505.726	800.000	-0.041	0.128
-504.712	63.154	0.064	-0.065
-503.697	-155.251	-0.565	0.037
-502.683	-31.387	-0.072	0.041
-501.668	128.927	-0.125	-0.161
-500.653	-185.047	0.158	0.003
-499.639	800.000	0.071	-0.272
-498.624	800.000	0.085	-0.318
-497.610	-2.231	0.347	-0.246
-496.595	-200.000	-0.047	0.254
-495.581	-200.000	-0.015	0.105
-494.566	-200.000	0.029	-0.239
-493.551	-200.000	-0.030	0.200
-492.537	800.000	-0.095	-0.327
-491.522	800.000	0.058	0.214
-490.508	-38.636	0.346	0.185
-489.493	32.791	-0.279	0.244
-488.478	157.702	-0.129	-0.181
-487.464	14.841	0.192	-0.152
-486.449	-63.628	0.208	-0.086
-485.435	-36.494	0.116	0.063
-484.420	178.594	0.088	-0.130
-483.405	-60.236	-0.296	0.128
-482.391	-200.000	-0.058	0.260
-481.376	-36.339	-0.255	-0.139
-480.362	-109.130	-0.232	0.050
-479.347	1.402	0.127	-0.093
-478.332	33.818	0.170	0.150
-477.318	-200.000	0.009	-0.237
-476.303	154.533	0.083	-0.115
-475.289	103.206	-0.176	-0.209
-474.274	213.606	0.050	0.079
-473.259	36.762	0.045	-0.040
-472.245	-164.307	0.099	0.005
-471.230	-12.364	0.360	0.238
-470.216	800.000	0.085	-0.286
-469.201	-200.000	0.071	-0.356
-468.186	-69.628	-0.242	-0.093
-467.172	34.002	0.387	0.340
-466.157	-200.000	0.015	0.156
-465.143	205.487	-0.117	-0.183
-464.128	133.067	0.053	-0.069
-463.113	82.397	0.122	0.134
-462.099	335.271	-0.177	0.346
-461.084	-200.000	-0.036	-0.186
-460.070	800.000	-0.096	-0.326
-459.055	-133.612	0.188	-0.024
-458.040	-136.326	0.176	0.021
-457.026	252.007	-0.152	-0.261
-456.011	-45.180	0.220	0.110
-454.997	32.858	-0.333	0.292
-453.982	296.777	-0.165	-0.305
-452.968	800.000	-0.025	-0.096
-451.953	70.129	0.136	-0.142
-450.938	133.615	0.060	0.078
-449.924	800.000	-0.059	-0.203
-448.909	-55.816	0.231	-0.104
-447.895	-72.458	-0.198	-0.074
-446.880	-8.843	0.337	0.228
-445.865	130.079	0.172	-0.222
-444.851	-18.274	0.178	-0.112
-443.836	-34.995	-0.177	0.098
-442.822	29.468	0.324	0.278
-441.807	-93.336	-0.130	-0.037
-440.792	61.088	-0.187	-0.187
-439.778	666.604	0.031	-0.081
-438.763	800.000	-0.059	0.224
-437.749	85.737	-0.260	0.289
-436.734	36.176	-0.074	0.066
-435.719	-14.503	0.275	-0.179
-434.705	-91.841	0.371	-0.106
-433.690	-200.000	0.000	-0.369
-432.676	248.126	-0.131	0.224
-431.661	-136.998	0.134	-0.015
-430.646	-78.345	-0.157	-0.054
-429.632	-200.000	0.055	-0.291
-428.617	-71.562	-0.108	-0.041
-427.603	192.386	0.059	-0.089
-426.588	1.643	0.267	-0.194
-425.573	-200.000	-0.094	-0.467
-424.559	187.732	-0.111	-0.168
-423.544	624.362	0.030	0.076
-422.530	-52.676	-0.194	-0.090
-421.515	124.566	-0.187	0.237
-420.500	29.001	-0.277	0.237
-419.486	-65.094	-0.291	-0.118
-418.471	-200.000	-0.013	0.331
-417.457	-98.222	-0.287	0.074
-416.442	-94.176	-0.293	0.081
-415.428	524.541	-0.012	0.030
-414.413	-200.000	0.027	0.323
-413.398	202.124	-0.044	-0.068
-412.384	96.661	-0.082	0.095
-411.369	-21.703	0.179	-0.110
-410.355	230.607	-0.216	-0.357
-409.340	-36.460	0.062	0.034
-408.325	113.537	0.275	-0.337
-407.311	800.000	0.086	-0.326
-406.296	150.385	0.096	0.131
-405.282	401.647	-0.047	0.100
-404.267	-45.990	-0.281	-0.139
-403.252	-200.000	-0.009	-0.045
-402.238	25.036	0.187	0.157
-401.223	-79.193	-0.207	0.071
-400.209	-101.433	-0.094	0.023
-399.194	-200.000	0.026	0.116
-398.179	-200.000	-0.022	-0.452
-397.165	-200.000	-0.029	0.334
-396.150	800.000	-0.097	0.287
-395.136	65.534	0.013	0.013
-394.121	-200.000	-0.072	-0.418
-393.106	-200.000	0.030	-0.139
-392.092	-109.471	-0.059	-0.013
-391.077	-162.136	0.403	-0.020
-390.063	800.000	0.091	0.275
-389.048	-108.377	0.087	-0.019
-388.033	-69.613	0.234	0.090
-387.019	225.022	-0.171	-0.279
-386.004	-163.025	0.219	0.011
-384.990	-1.647	-0.329	-0.234
-383.975	268.168	0.207	0.365
-382.960	140.937	-0.138	0.183
-381.946	350.560	0.090	-0.180
-380.931	-200.000	0.007	0.143
-379.917	-128.809	-0.357	-0.051
-378.902	234.567	0.065	-0.107
-377.888	-45.805	0.129	-0.064
-376.873	-200.000	0.003	0.098
-375.858	-163.351	-0.281	0.013
-374.844	391.234	0.131	0.274
-373.829	78.534	0.179	-0.192
-372.815	17.336	-0.145	0.116
-371.800	-179.709	-0.225	-0.005
-370.785	57.988	0.106	0.104
-369.771	-111.262	0.473	0.097
-368.756	-29.949	-0.098	-0.056
-367.742	758.138	-0.075	-0.204
-366.727	76.871	-0.137	-0.147
-365.712	-63.802	0.140	-0.058
-364.698	-96.235	0.113	-0.030
-363.683	-48.325	-0.196	0.095
-362.669	0.594	-0.302	0.217
-361.654	88.276	0.122	-0.137
-360.639	-96.585	-0.050	-0.013
-359.625	186.744	-0.234	0.351
-358.610	-200.000	0.008	0.252
-357.596	176.973	0.121	-0.177
-356.581	-155.873	0.074	-0.005
-355.566	38.896	0.140	-0.126
-354.552	-200.000	0.001	-0.026
-353.537	-122.052	-0.085	-0.014
-352.523	-17.298	-0.309	0.196
-351.508	-106.277	0.167	-0.038
-350.493	-200.000	-0.024	0.304
-349.479	-200.000	0.014	0.116
-348.464	-200.000	0.044	0.379
-347.450	-85.629	0.220	0.069
-346.435	49.784	0.262	-0.248
-345.420	281.704	0.139	-0.250
-344.406	-73.125	0.265	0.098
-343.391	68.581	-0.103	-0.106
-342.377	502.642	-0.107	0.248
-341.362	-76.599	0.235	-0.083
-340.348	44.365	-0.123	0.114
-339.333	-200.000	-0.029	-0.147
-338.318	-73.285	-0.212	0.078
-337.304	-58.526	0.189	-0.083
-336.289	800.000	0.074	-0.250
-335.275	-51.030	-0.269	0.127
-334.260	-200.000	0.005	0.328
-333.245	119.909	0.203	-0.253
-332.231	165.773	-0.050	-0.071
-331.216	339.235	-0.078	-0.152
-330.202	136.617	0.118	-0.155
-329.187	105.567	-0.069	0.082
-328.172	-200.000	0.033	-0.176
-327.158	-200.000	-0.022	-0.268
-326.143	679.492	-0.059	-0.155
-325.129	4.092	-0.253	-0.186
-324.114	-63.995	-0.301	0.124
-323.099	-100.910	-0.209	0.051
-322.085	186.704	0.175	0.262
-321.070	373.687	-0.065	-0.133
-320.056	308.112	-0.067	-0.125
-319.041	-200.000	0.008	0.139
-318.026	-200.000	0.034	-0.192
-317.012	800.000	-0.167	0.512
-315.997	156.229	0.107	0.148
-314.983	53.029	0.321	0.308
-313.968	631.704	0.051	-0.129
-312.953	800.000	0.039	0.131
-311.939	12.956	0.232	-0.180
-310.924	67.188	0.083	-0.085
-309.910	37.161	0.051	-0.045
-308.895	-91.517	-0.330	-0.095
-307.880	-38.518	0.192	0.102
-306.866	-158.041	0.183	0.011
-305.851	-200.000	-0.056	-0.395
-304.837	632.371	0.019	-0.048
-303.822	322.704	0.097	-0.186
-302.807	260.598	-0.130	0.226
-301.793	105.729	-0.045	-0.054
-300.778	-106.489	0.265	0.059
-299.764	490.489	0.018	-0.042
-298.749	-189.213	0.224	0.003
-297.735	-5.489	0.281	-0.194
-296.720	666.301	0.071	0.185
-295.705	202.438	-0.031	0.047
-294.691	-129.823	0.180	0.025
-293.676	103.485	0.141	0.166
-292.662	-72.995	-0.146	-0.054
-291.647	-24.590	0.245	0.147
-290.632	11.242	-0.057	0.044
-289.618	-200.000	0.077	-0.361
-288.603	-200.000	0.013	0.226
-287.589	-88.473	-0.055	-0.016
-286.574	-96.632	-0.146	0.039
-285.559	-67.743	-0.339	0.133
-284.545	-112.240	0.227	-0.046
-283.530	552.300	0.117	0.282
-282.516	800.000	-0.058	-0.172
-281.501	-124.906	0.387	-0.060
-280.486	14.902	-0.111	0.087
-279.472	-200.000	-0.016	0.209
-278.457	120.413	0.093	0.116
-277.443	11.812	-0.077	0.059
-276.428	-200.000	-0.060	0.316
-275.413	-27.489	0.202	0.118
-274.399	-140.864	-0.296	0.031
-273.384	-200.000	0.001	0.175
-272.370	35.627	0.240	0.211
-271.355	399.648	0.111	0.233
-270.340	-160.130	0.335	-0.018
-269.326	349.827	0.056	-0.110
-268.311	230.060	-0.321	0.527
-267.297	-10.709	0.314	0.208
-266.282	77.276	0.062	-0.066
-265.267	-70.585	0.092	0.035
-264.253	50.279	-0.049	-0.046
-263.238	-151.007	-0.263	-0.020
-262.224	-75.659	0.125	0.045
-261.209	-200.000	-0.039	0.369
-260.195	-200.000	0.043	0.336
-259.180	213.319	-0.199	0.316
-258.165	-93.851	0.533	0.147
-257.151	-38.108	-0.334	0.178
-256.136	212.966	-0.093	0.147
-255.122	-8.119	0.117	-0.079
-254.107	603.287	-0.058	0.145
-253.092	-42.926	-0.136	0.069
-252.078	194.942	-0.124	-0.189
-251.063	-137.075	-0.275	0.031
-250.049	118.374	0.220	-0.272
-249.034	-117.801	-0.200	-0.036
-248.019	166.265	-0.173	-0.246
-247.005	-98.597	-0.043	0.011
-245.990	-116.510	-0.174	-0.032
-244.976	-24.483	-0.222	0.132
-243.961	-29.591	-0.411	0.235
-242.946	8.420	-0.362	-0.273
-241.932	624.602	-0.024	-0.062
-240.917	-89.230	0.104	0.031
-239.903	-200.000	-0.044	0.311
-238.888	-89.783	-0.094	0.027
-237.873	165.040	0.240	0.339
-236.859	32.549	0.138	0.120
-235.844	-200.000	0.001	0.210
-234.830	-27.544	-0.182	0.106
-233.815	219.514	-0.194	0.310
-232.800	142.341	0.278	-0.369
-231.786	-200.000	-0.001	0.074
-230.771	-200.000	-0.007	-0.097
-229.757	218.139	0.177	-0.282
-228.742	-126.149	-0.282	-0.042
-227.727	-5.507	0.365	-0.250
-226.713	-92.299	-0.609	0.172
-225.698	144.530	-0.091	0.122
-224.684	293.924	0.025	0.045
-223.669	-17.889	-0.207	0.130
-222.655	-117.147	0.206	-0.038
-221.640	-120.051	0.250	0.043
-220.625	-200.000	0.009	-0.126
-219.611	-200.000	0.001	0.307
-218.596	309.956	0.021	-0.039
-217.582	-200.000	0.032	0.295
-216.567	199.836	-0.063	0.097
-215.552	-76.501	0.251	0.088
-214.538	-27.712	0.160	-0.093
-213.523	-118.657	-0.237	-0.042
-212.509	158.033	-0.118	0.163
-211.494	800.000	-0.097	0.308
-210.479	-200.000	-0.014	-0.167
-209.465	46.590	-0.179	-0.166
-208.450	-136.066	0.120	-0.014
-207.436	-7.410	-0.230	-0.156
-206.421	-200.000	-0.032	-0.283
-205.406	-200.000	-0.019	-0.273
-204.392	-200.000	0.001	0.108
-203.377	-83.829	0.116	-0.037
-202.363	282.720	-0.114	-0.204
-201.348	-148.154	-0.251	0.021
-200.333	556.396	-0.078	-0.188
-199.319	187.404	-0.106	-0.159
-198.304	75.920	0.082	0.087
-197.290	-200.000	0.009	-0.150
-196.275	276.734	-0.010	-0.018
-195.260	-115.308	-0.198	-0.037
-194.246	215.246	-0.088	0.140
-193.231	48.610	0.225	0.211
-192.217	286.104	0.121	-0.218
-191.202	-127.742	0.246	0.035
-190.187	-200.000	0.026	-0.223
-189.173	-72.924	-0.305	0.112
-188.158	-200.000	0.053	0.576
-187.144	-200.000	0.009	0.097
-186.129	-87.582	-0.165	0.050
-185.114	35.409	0.237	0.208
-184.100	-200.000	0.036	-0.181
-183.085	-31.391	-0.158	0.089
-182.071	156.177	-0.100	-0.138
-181.056	-20.755	-0.284	-0.174
-180.042	78.739	0.249	-0.266
-179.027	-200.000	-0.001	-0.089
-178.012	275.773	0.171	-0.303
-176.998	86.555	0.151	0.166
-175.983	88.796	-0.172	0.191
-174.969	289.059	0.162	-0.294
-173.954	129.368	-0.227	-0.289
-172.939	45.823	0.120	0.111
-171.925	82.461	-0.229	0.249
-170.910	-89.992	-0.127	0.037
-169.896	-164.893	-0.040	-0.002
-168.881	110.293	0.116	-0.139
-167.866	-67.751	0.296	-0.116
-166.852	-200.000	-0.019	0.333
-165.837	-101.202	-0.295	0.072
-164.823	750.493	-0.137	-0.370
-163.808	-151.274	0.112	-0.008
-162.793	232.062	0.058	0.095
-161.779	-39.272	0.230	-0.121
-160.764	-81.819	-0.104	-0.034
-159.750	64.142	-0.203	-0.204
-158.735	-33.300	-0.150	0.083
-157.720	800.000	0.036	0.099
-156.706	-87.140	0.064	-0.019
-155.691	110.931	0.089	-0.107
-154.677	16.682	0.162	-0.128
-153.662	-149.261	0.272	0.022
-152.647	800.000	0.062	0.245
-151.633	-200.000	0.013	0.143
-150.618	-30.434	0.208	0.118
-149.604	10.435	-0.137	-0.104
-148.589	-61.902	-0.142	-0.059
-147.574	533.627	0.159	0.377
-146.560	-62.267	0.072	-0.030
-145.545	-200.000	0.064	-0.362
-144.531	76.255	0.269	-0.284
-143.516	224.293	-0.121	-0.196
-142.502	-200.000	0.014	-0.124
-141.487	140.958	-0.040	0.053
-140.472	-46.182	0.270	0.132
-139.458	-50.459	0.169	0.079
-138.443	-163.407	-0.175	-0.008
-137.429	-128.138	0.049	-0.007
-136.414	181.404	0.069	-0.101
-135.399	41.394	-0.200	0.181
-134.385	-200.000	-0.002	0.317
-133.370	-11.904	0.183	-0.119
-132.356	-200.000	0.011	0.115
-131.341	-126.499	-0.266	0.039
-130.326	14.547	-0.173	0.135
-129.312	-93.334	-0.161	-0.045
-128.297	-169.088	0.108	-0.004
-127.283	202.841	0.266	0.409
-126.268	800.000	0.051	0.150
-125.253	-109.196	0.351	-0.074
-124.239	-143.765	0.263	-0.025
-123.224	79.819	-0.044	0.047
-122.210	-81.241	0.262	-0.086
-121.195	40.579	-0.147	-0.132
