DTS Sentinel unit serial number:	SN413079Multiplexer serial number:	ORYXHardware model number:	OX4-SRSoftware version number:	ORYX F/W v4.00 Oryx Data Collector v3.7.2.0data status	okinstallation	princeton_trtdifferential loss correction	single-endedforward channel	channel 1reverse channel	N/Adate	2019/09/16time	03:06:35forward acquisition time	60.00reverse acquisition time	0.00gamma	496.2192k internal	0.2331k external	0.2331temperature offset calibration	0.9979default loss term (dB/km)	0.3790temperature slope calibration	1.0000multiplexer offset coefficient	1.0000multiplexer slope coefficient	1.0000fibre end	0.00T internal ref (°C)	27.75T ext. ref 1 (°C)	10.44T ext. ref 2 (°C)	22.13length (m)	temperature (°C)	Stokes	anti-Stokes-747.200	-31.695	0.155	-0.088
-746.185	330.322	-0.166	0.322
-745.171	-200.000	0.022	0.307
-744.156	38.058	0.047	-0.042
-743.142	-164.863	-0.230	-0.010
-742.127	118.148	-0.055	0.068
-741.112	166.063	0.122	0.173
-740.098	-85.526	-0.182	0.057
-739.083	-41.987	0.286	0.147
-738.069	296.157	-0.033	0.062
-737.054	87.592	0.142	-0.158
-736.039	47.611	-0.212	0.199
-735.025	-110.697	-0.123	-0.026
-734.010	800.000	0.065	0.235
-732.996	-41.652	0.128	-0.066
-731.981	-148.757	-0.350	-0.029
-730.966	-200.000	0.017	-0.096
-729.952	55.278	-0.131	0.127
-728.937	800.000	0.044	0.144
-727.923	-14.102	0.139	0.090
-726.908	-200.000	0.004	-0.083
-725.894	800.000	0.018	-0.080
-724.879	57.749	-0.176	-0.173
-723.864	1.425	0.227	-0.164
-722.850	89.472	0.143	-0.160
-721.835	-139.569	-0.132	0.014
-720.821	800.000	-0.103	-0.316
-719.806	800.000	-0.009	0.038
-718.791	106.490	0.121	0.145
-717.777	-46.876	0.119	-0.059
-716.762	-111.331	-0.239	0.049
-715.748	-200.000	-0.001	0.246
-714.733	163.917	-0.228	-0.323
-713.718	-50.852	-0.142	0.067
-712.704	474.982	-0.062	0.141
-711.689	-45.674	-0.281	0.140
-710.675	18.030	0.193	-0.155
-709.660	484.123	-0.071	0.163
-708.645	-65.358	0.437	-0.177
-707.631	491.003	-0.069	0.158
-706.616	-82.193	-0.158	-0.052
-705.602	800.000	-0.070	-0.193
-704.587	-141.763	-0.165	-0.017
-703.572	28.775	-0.066	-0.056
-702.558	114.912	0.127	0.156
-701.543	-200.000	-0.055	0.243
-700.529	-130.665	0.245	0.033
-699.514	-99.603	0.268	-0.068
-698.499	-109.409	-0.350	-0.074
-697.485	-200.000	0.049	0.314
-696.470	269.332	-0.047	-0.082
-695.456	-200.000	-0.012	0.317
-694.441	66.088	0.077	-0.079
-693.426	99.691	-0.092	0.107
-692.412	800.000	-0.023	0.095
-691.397	440.748	-0.107	-0.236
-690.383	-75.793	-0.324	-0.116
-689.368	-200.000	0.009	-0.061
-688.354	61.225	-0.218	-0.218
-687.339	-200.000	-0.029	-0.255
-686.324	106.652	0.175	0.209
-685.310	-55.842	0.210	0.094
-684.295	13.393	0.299	-0.233
-683.281	641.638	0.070	-0.178
-682.266	-71.227	-0.330	0.124
-681.251	-200.000	-0.026	0.385
-680.237	159.347	0.074	0.104
-679.222	576.876	-0.092	0.226
-678.208	150.044	0.113	0.154
-677.193	-200.000	0.018	0.082
-676.178	800.000	0.128	0.392
-675.164	-200.000	-0.024	-0.173
-674.149	-200.000	-0.004	0.036
-673.135	105.872	-0.157	0.187
-672.120	153.530	-0.143	0.196
-671.105	279.553	0.086	0.155
-670.091	11.143	-0.372	0.286
-669.076	526.537	-0.069	-0.164
-668.062	800.000	-0.128	-0.388
-667.047	-48.200	-0.268	0.130
-666.032	72.256	0.092	-0.096
-665.018	506.500	-0.099	-0.231
-664.003	-166.003	0.363	-0.016
-662.989	-91.183	-0.023	0.007
-661.974	-44.932	-0.397	0.198
-660.959	800.000	-0.071	-0.229
-659.945	-4.700	-0.054	0.037
-658.930	-43.945	-0.119	-0.060
-657.916	72.512	-0.051	-0.053
-656.901	-138.688	-0.170	-0.019
-655.886	335.398	-0.047	0.091
-654.872	-53.617	0.038	-0.018
-653.857	100.474	-0.195	-0.228
-652.843	-200.000	0.012	0.059
-651.828	-162.000	0.454	-0.023
-650.814	202.201	-0.053	-0.082
-649.799	800.000	-0.095	-0.344
-648.784	5.861	0.094	0.070
-647.770	-200.000	0.060	0.276
-646.755	-200.000	-0.012	0.103
-645.741	419.748	0.047	0.101
-644.726	63.507	-0.100	0.101
-643.711	508.099	0.090	0.210
-642.697	-200.000	0.014	0.085
-641.682	467.625	-0.024	-0.054
-640.668	-36.798	-0.116	0.062
-639.653	679.964	0.016	0.041
-638.638	-116.755	0.115	0.021
-637.624	-72.520	0.306	0.113
-636.609	-123.292	-0.442	0.071
-635.595	-28.984	-0.155	0.089
-634.580	101.926	0.102	-0.120
-633.565	800.000	-0.111	-0.325
-632.551	281.201	-0.030	0.054
-631.536	33.862	-0.200	-0.174
-630.522	-88.325	0.262	-0.079
-629.507	-184.216	0.412	0.007
-628.492	113.536	0.166	-0.201
-627.478	-48.450	-0.368	-0.178
-626.463	141.596	0.096	-0.127
-625.449	43.041	-0.285	0.260
-624.434	-126.445	0.267	0.040
-623.419	239.634	-0.126	0.210
-622.405	800.000	-0.101	-0.437
-621.390	-200.000	0.039	-0.190
-620.376	-111.605	0.270	0.055
-619.361	-137.079	0.260	-0.030
-618.346	-0.724	-0.127	-0.090
-617.332	105.589	-0.080	-0.095
-616.317	-28.640	0.227	0.131
-615.303	427.605	-0.092	-0.200
-614.288	-12.222	0.110	0.072
-613.273	-137.446	-0.145	-0.016
-612.259	-36.291	-0.193	-0.104
-611.244	800.000	0.045	-0.135
-610.230	113.210	0.209	-0.253
-609.215	-200.000	-0.028	-0.553
-608.201	279.936	-0.128	0.230
-607.186	-88.592	0.065	-0.019
-606.171	-49.865	-0.333	-0.158
-605.157	442.868	0.221	0.485
-604.142	20.995	0.077	0.062
-603.128	-15.089	-0.114	-0.073
-602.113	-128.055	-0.113	-0.016
-601.098	177.742	-0.190	-0.278
-600.084	800.000	-0.042	0.135
-599.069	-73.734	-0.019	0.007
-598.055	-91.110	0.286	0.082
-597.040	-110.339	-0.289	0.060
-596.025	-200.000	-0.026	-0.525
-595.011	-200.000	-0.024	0.169
-593.996	9.042	-0.060	-0.046
-592.982	716.508	0.049	0.131
-591.967	800.000	0.106	0.363
-590.952	-20.284	-0.176	-0.108
-589.938	280.064	-0.056	0.100
-588.923	-75.339	0.203	0.073
-587.909	800.000	0.057	-0.170
-586.894	236.016	-0.095	-0.158
-585.879	52.585	-0.173	0.165
-584.865	254.926	0.290	-0.497
-583.850	-172.891	0.075	-0.002
-582.836	34.431	-0.182	-0.159
-581.821	615.383	0.024	-0.060
-580.806	99.565	-0.193	-0.223
-579.792	-200.000	0.003	-0.263
-578.777	-103.234	0.109	0.026
-577.763	-58.797	0.081	0.035
-576.748	50.189	-0.062	0.058
-575.733	800.000	-0.107	-0.307
-574.719	332.713	0.031	0.061
-573.704	315.692	-0.052	0.099
-572.690	-159.830	0.197	-0.011
-571.675	247.058	-0.191	0.322
-570.661	800.000	-0.024	0.083
-569.646	786.577	-0.083	-0.228
-568.631	669.909	-0.106	0.275
-567.617	-118.012	0.066	0.012
-566.602	-128.199	0.072	-0.010
-565.588	2.285	-0.272	0.196
-564.573	192.475	0.143	0.216
-563.558	-200.000	-0.025	0.278
-562.544	-88.592	0.220	0.065
-561.529	256.693	0.296	0.508
-560.515	-93.568	-0.191	0.053
-559.500	403.106	-0.199	-0.419
-558.485	228.655	-0.160	-0.260
-557.471	298.248	-0.191	0.352
-556.456	-170.250	0.193	-0.007
-555.442	6.547	-0.227	-0.168
-554.427	-19.625	0.404	0.250
-553.412	-200.000	-0.028	0.190
-552.398	-200.000	-0.061	-0.456
-551.383	186.111	0.199	-0.296
-550.369	-5.847	-0.149	0.102
-549.354	-68.927	0.337	0.130
-548.339	800.000	0.039	0.135
-547.325	-51.707	-0.041	-0.019
-546.310	347.809	-0.147	-0.289
-545.296	171.018	0.048	0.068
-544.281	-105.858	0.319	-0.072
-543.266	800.000	-0.052	-0.168
-542.252	109.741	-0.029	-0.035
-541.237	-141.709	0.422	0.042
-540.223	21.118	-0.172	-0.139
-539.208	-200.000	0.041	0.428
-538.193	-200.000	-0.050	0.274
-537.179	783.905	0.016	-0.044
-536.164	-175.565	0.252	-0.007
-535.150	-125.880	0.566	0.085
-534.135	-200.000	-0.006	0.248
-533.121	756.095	-0.064	0.173
-532.106	-131.447	0.316	0.042
-531.091	-131.892	-0.370	0.048
-530.077	-139.969	-0.355	0.037
-529.062	-164.781	-0.204	-0.009
-528.048	344.428	0.052	-0.102
-527.033	-155.713	0.159	-0.010
-526.018	-23.943	0.047	-0.028
-525.004	31.266	-0.127	-0.109
-523.989	103.020	-0.203	0.237
-522.975	-9.280	0.142	0.095
-521.960	220.730	0.037	0.059
-520.945	117.363	-0.141	-0.173
-519.931	800.000	0.061	0.214
-518.916	217.033	0.085	0.135
-517.902	-200.000	0.006	-0.061
-516.887	227.838	0.057	0.093
-515.872	143.323	-0.232	0.308
-514.858	10.266	-0.174	-0.132
-513.843	-10.897	-0.403	0.265
-512.829	153.742	-0.028	0.039
-511.814	-148.040	-0.034	0.003
-510.799	558.841	-0.200	-0.482
-509.785	22.522	0.161	0.131
-508.770	-200.000	0.015	-0.446
-507.756	6.174	0.161	-0.119
-506.741	149.164	0.098	-0.132
-505.726	-121.101	0.134	0.022
-504.712	-84.636	-0.451	0.142
-503.697	30.091	0.049	0.042
-502.683	-200.000	-0.014	0.087
-501.668	50.622	-0.095	0.090
-500.653	296.523	0.019	-0.035
-499.639	-5.892	-0.134	-0.092
-498.624	-200.000	-0.057	-0.323
-497.610	1.081	-0.121	0.086
-496.595	54.081	0.091	0.088
-495.581	-171.547	-0.130	0.004
-494.566	-0.042	-0.226	0.161
-493.551	87.617	0.039	-0.043
-492.537	800.000	0.030	0.093
-491.522	800.000	0.073	-0.309
-490.508	219.272	-0.053	-0.084
-489.493	299.976	-0.026	0.047
-488.478	800.000	-0.064	0.215
-487.464	-42.184	-0.212	0.108
-486.449	334.977	-0.207	-0.400
-485.435	-200.000	0.030	0.228
-484.420	-34.490	-0.119	0.065
-483.405	-31.216	-0.361	-0.202
-482.391	-200.000	0.002	0.241
-481.376	-2.538	0.141	-0.098
-480.362	-10.075	0.237	-0.157
-479.347	-200.000	-0.102	-0.647
-478.332	800.000	-0.126	-0.525
-477.318	38.200	-0.123	-0.109
-476.303	-166.825	0.205	-0.008
-475.289	29.809	-0.378	-0.321
-474.274	233.406	-0.144	-0.237
-473.259	792.355	-0.098	-0.269
-472.245	-10.358	0.382	0.253
-471.230	-180.202	0.156	0.003
-470.216	-69.108	-0.173	0.066
-469.201	222.729	0.177	0.283
-468.186	205.882	-0.041	0.064
-467.172	800.000	-0.130	0.382
-466.157	1.458	0.225	0.161
-465.143	742.016	-0.065	-0.175
-464.128	-200.000	0.053	-0.233
-463.113	800.000	0.084	-0.293
-462.099	54.596	0.041	-0.039
-461.084	800.000	0.033	-0.131
-460.070	-54.248	0.178	0.080
-459.055	-126.092	-0.066	-0.010
-458.040	221.858	0.135	0.216
-457.026	156.202	-0.083	0.113
-456.011	-46.817	0.291	-0.142
-454.997	630.234	-0.062	-0.155
-453.982	-200.000	0.021	0.137
-452.968	-67.820	-0.341	0.133
-451.953	-200.000	0.009	-0.152
-450.938	36.537	-0.120	-0.105
-449.924	-8.084	0.257	-0.172
-448.909	-6.553	-0.163	0.111
-447.895	-200.000	-0.008	0.410
-446.880	-112.791	0.225	-0.044
-445.865	-126.062	-0.372	-0.056
-444.851	-200.000	-0.036	0.354
-443.836	49.889	0.039	0.037
-442.822	-200.000	-0.060	0.458
-441.807	-65.076	-0.325	-0.130
-440.792	-109.513	-0.080	0.017
-439.778	-118.990	0.258	-0.045
-438.763	90.376	0.087	-0.097
-437.749	-200.000	0.062	0.339
-436.734	-103.762	-0.126	-0.029
-435.719	195.247	-0.061	-0.092
-434.705	130.212	-0.056	0.071
-433.690	-200.000	-0.003	0.110
-432.676	182.124	0.284	0.417
-431.661	800.000	-0.037	0.157
-430.646	258.466	-0.265	0.455
-429.632	-141.387	0.317	0.032
-428.617	260.699	-0.016	-0.027
-427.603	166.642	-0.213	-0.301
-426.588	800.000	0.077	-0.310
-425.573	-73.833	0.077	0.028
-424.559	-157.027	0.345	0.021
-423.544	-110.695	0.141	-0.029
-422.530	-93.706	0.092	-0.025
-421.515	46.947	0.042	0.039
-420.500	-75.242	0.214	0.076
-419.486	-200.000	0.001	0.304
-418.471	426.010	-0.041	-0.089
-417.457	91.243	-0.211	-0.235
-416.442	-66.337	-0.239	0.094
-415.428	193.239	0.244	0.367
-414.413	8.422	-0.075	0.056
-413.398	-29.477	-0.222	0.126
-412.384	107.981	0.157	-0.186
-411.369	37.362	-0.173	0.152
-410.355	11.619	0.127	-0.096
-409.340	-200.000	0.036	-0.360
-408.325	-56.819	-0.271	0.119
-407.311	291.907	0.092	-0.167
-406.296	-200.000	0.008	-0.191
-405.282	-200.000	-0.011	0.160
-404.267	800.000	-0.054	0.163
-403.252	371.176	-0.100	0.202
-402.238	-58.269	0.201	-0.087
-401.223	-145.428	-0.233	-0.021
-400.209	59.757	0.095	0.093
-399.194	298.028	0.140	-0.256
-398.179	-33.273	-0.463	-0.254
-397.165	-200.000	0.039	0.392
-396.150	-87.451	0.418	0.126
-395.136	703.687	0.006	-0.017
-394.121	-200.000	0.014	0.184
-393.106	313.356	-0.018	-0.033
-392.092	-138.022	0.378	0.042
-391.077	37.818	0.244	0.216
-390.063	-22.877	-0.094	0.056
-389.048	800.000	0.040	-0.148
-388.033	-119.650	0.174	0.030
-387.019	41.539	0.161	-0.145
-386.004	4.078	-0.188	-0.137
-384.990	416.355	0.040	-0.086
-383.975	-32.519	0.301	-0.166
-382.960	-10.294	0.070	-0.046
-381.946	-146.692	-0.183	0.016
-380.931	39.245	-0.155	0.138
-379.917	115.509	0.055	0.066
-378.902	-48.081	-0.296	-0.142
-377.888	-200.000	-0.003	-0.094
-376.873	56.385	0.134	-0.129
-375.858	-115.276	-0.290	-0.054
-374.844	-48.735	0.019	0.009
-373.829	-83.084	-0.451	0.144
-372.815	165.660	-0.063	0.088
-371.800	126.642	-0.068	-0.086
-370.785	-200.000	0.029	0.297
-369.771	-200.000	-0.031	0.194
-368.756	259.673	0.123	0.211
-367.742	145.962	0.066	-0.088
-366.727	121.588	-0.215	0.266
-365.712	800.000	-0.085	0.352
-364.698	-200.000	0.014	-0.063
-363.683	-200.000	0.002	0.098
-362.669	-200.000	-0.003	-0.022
-361.654	-41.538	0.249	0.127
-360.639	-66.181	-0.150	0.059
-359.625	-108.545	0.308	0.066
-358.610	800.000	0.008	-0.028
-357.596	56.594	-0.068	-0.066
-356.581	31.986	-0.059	0.050
-355.566	57.492	-0.161	-0.156
-354.552	29.136	-0.046	-0.039
-353.537	100.804	-0.189	-0.217
-352.523	-29.150	0.163	0.092
-351.508	-28.693	0.082	0.047
-350.493	44.579	0.062	0.057
-349.479	-200.000	-0.008	0.158
-348.464	-111.738	-0.324	-0.065
-347.450	113.362	-0.043	0.052
-346.435	-66.188	-0.116	-0.046
-345.420	800.000	0.092	-0.291
-344.406	70.913	0.151	-0.155
-343.391	538.440	-0.117	-0.277
-342.377	552.997	0.071	0.168
-341.362	82.402	-0.214	-0.230
-340.348	-200.000	-0.023	-0.512
-339.333	166.417	0.055	-0.077
-338.318	-34.846	-0.249	-0.135
-337.304	20.435	-0.143	-0.115
-336.289	-200.000	0.016	-0.094
-335.275	-75.742	-0.235	0.082
-334.260	47.069	0.053	-0.049
-333.245	353.497	0.098	0.193
-332.231	74.151	-0.218	-0.226
-331.216	-129.093	0.133	-0.018
-330.202	9.963	0.275	-0.207
-329.187	-36.715	-0.345	0.183
-328.172	800.000	0.021	0.089
-327.158	-200.000	-0.042	0.188
-326.143	-200.000	-0.067	-0.403
-325.129	-170.184	0.631	0.022
-324.114	-200.000	-0.009	-0.054
-323.099	359.398	0.137	-0.271
-322.085	800.000	-0.068	0.215
-321.070	-170.924	-0.342	0.012
-320.056	800.000	-0.088	0.338
-319.041	434.587	0.121	0.260
-318.026	-49.597	-0.222	-0.104
-317.012	77.068	-0.117	-0.123
-315.997	244.425	0.100	0.167
-314.983	41.177	0.177	-0.158
-313.968	-79.571	0.331	0.111
-312.953	-175.404	-0.110	0.003
-311.939	61.332	-0.135	0.133
-310.924	800.000	0.028	-0.118
-309.910	-200.000	0.013	-0.101
-308.895	-131.546	-0.432	-0.056
-307.880	800.000	-0.066	0.254
-306.866	684.173	-0.137	0.353
-305.851	39.485	-0.126	-0.112
-304.837	135.206	0.022	0.028
-303.822	-43.938	-0.164	0.081
-302.807	-133.131	0.117	-0.015
-301.793	-102.695	0.179	0.042
-300.778	363.768	0.167	-0.332
-299.764	5.066	-0.372	0.271
-298.749	-60.963	0.137	0.057
-297.735	-200.000	0.065	0.362
-296.720	88.632	-0.146	0.160
-295.705	-185.259	0.120	0.002
-294.691	368.745	-0.254	0.509
-293.676	-82.865	-0.372	0.119
-292.662	-32.013	0.138	0.076
-291.647	-200.000	-0.049	0.218
-290.632	103.637	-0.174	0.202
-289.618	-112.733	0.191	-0.037
-288.603	157.150	-0.037	0.050
-287.589	34.990	-0.038	-0.033
-286.574	-200.000	-0.010	0.142
-285.559	-15.717	-0.073	0.046
-284.545	-119.632	0.206	-0.035
-283.530	-132.192	0.301	-0.039
-282.516	-200.000	0.014	0.146
-281.501	-55.277	-0.465	0.207
-280.486	-200.000	-0.025	-0.143
-279.472	130.397	-0.178	0.225
-278.457	52.589	0.156	0.147
-277.443	800.000	-0.065	0.206
-276.428	-34.914	0.230	-0.124
-275.413	627.743	-0.107	0.268
-274.399	-200.000	-0.027	-0.319
-273.384	-26.404	-0.239	0.139
-272.370	-36.283	-0.107	-0.057
-271.355	17.385	0.214	0.168
-270.340	214.499	0.089	0.139
-269.326	-58.031	-0.371	-0.160
-268.311	-48.352	0.146	-0.069
-267.297	800.000	-0.018	-0.077
-266.282	-162.228	0.244	0.012
-265.267	-200.000	0.008	-0.049
-264.253	-84.179	0.255	0.080
-263.238	-76.299	-0.108	0.037
-262.224	-107.939	0.235	0.050
-261.209	-94.982	-0.064	-0.017
-260.195	-169.871	-0.381	-0.013
-259.180	-79.102	0.488	-0.164
-258.165	800.000	0.029	-0.113
-257.151	13.623	-0.196	-0.150
-256.136	-31.931	0.275	-0.152
-255.122	96.807	0.099	0.112
-254.107	-33.193	0.298	0.163
-253.092	-99.044	-0.345	0.086
-252.078	800.000	-0.031	-0.121
-251.063	-9.199	0.164	-0.108
-250.049	262.823	-0.079	0.135
-249.034	-200.000	-0.015	0.100
-248.019	239.220	-0.106	-0.174
-247.005	-200.000	0.071	-0.438
-245.990	251.598	0.126	0.212
-244.976	-142.925	-0.013	0.001
-243.961	-200.000	0.001	-0.171
-242.946	800.000	0.033	0.118
-241.932	-200.000	0.059	-0.351
-240.917	-21.337	0.315	-0.190
-239.903	87.918	-0.126	-0.138
-238.888	13.818	0.332	0.254
-237.873	-49.270	0.160	-0.075
-236.859	568.894	0.063	-0.150
-235.844	-200.000	-0.020	0.218
-234.830	-37.919	0.203	0.107
-233.815	-40.584	-0.104	-0.053
-232.800	571.442	0.079	0.190
-231.786	-60.718	-0.213	-0.089
-230.771	-113.623	0.059	-0.011
-229.757	-21.701	-0.042	-0.025
-228.742	-106.293	0.264	0.058
-227.727	800.000	-0.092	-0.264
-226.713	165.560	0.179	-0.249
-225.698	800.000	-0.044	-0.158
-224.684	-200.000	0.267	0.000
-223.669	-200.000	0.080	0.403
-222.655	-14.910	0.253	-0.160
-221.640	72.037	-0.055	-0.056
-220.625	-49.443	-0.096	0.045
-219.611	160.151	0.006	0.008
-218.596	-50.526	-0.265	-0.123
-217.582	118.987	0.119	-0.146
-216.567	-200.000	0.007	-0.100
-215.552	87.820	-0.145	-0.159
-214.538	-20.618	-0.231	-0.140
-213.523	589.686	0.056	0.137
-212.509	260.491	-0.141	-0.240
-211.494	129.920	-0.024	0.030
-210.479	800.000	0.049	-0.190
-209.465	476.204	-0.067	0.149
-208.450	486.941	-0.048	-0.108
-207.436	800.000	0.077	-0.238
-206.421	-57.623	0.125	0.054
-205.406	-137.583	0.156	0.017
-204.392	-200.000	-0.012	-0.257
-203.377	-36.701	-0.097	-0.051
-202.363	-78.756	0.341	-0.115
-201.348	800.000	-0.071	0.283
-200.333	800.000	-0.083	-0.242
-199.319	800.000	0.035	-0.106
-198.304	53.861	-0.119	0.113
-197.290	-111.492	0.093	0.019
-196.275	-200.000	-0.009	-0.422
-195.260	-37.058	0.382	0.201
-194.246	-54.275	-0.174	0.078
-193.231	13.231	0.062	0.047
-192.217	-200.000	-0.011	-0.127
-191.202	-200.000	0.037	0.236
-190.187	-7.998	-0.108	0.072
-189.173	-36.722	0.345	0.182
-188.158	80.073	-0.086	0.091
-187.144	371.527	-0.041	0.081
-186.129	36.230	0.077	0.067
-185.114	-18.083	-0.012	-0.008
-184.100	572.292	0.152	-0.365
-183.085	185.190	0.105	-0.153
-182.071	48.145	0.231	-0.213
-181.056	-200.000	0.009	0.098
-180.042	800.000	-0.076	-0.268
-179.027	800.000	-0.058	0.162
-178.012	129.952	0.187	0.235
-176.998	-198.776	-0.246	0.001
-175.983	-69.644	-0.096	0.036
-174.969	-96.767	-0.191	-0.050
-173.954	-64.310	0.085	0.034
-172.939	-200.000	-0.017	-0.204
-171.925	-147.267	0.174	0.015
-170.910	31.992	0.402	-0.341
-169.896	57.521	0.172	0.165
-168.881	-200.000	-0.023	-0.269
-167.866	-122.158	-0.060	-0.010
-166.852	565.878	0.097	0.231
-165.837	800.000	0.026	-0.083
-164.823	187.559	-0.237	-0.348
-163.808	800.000	-0.082	0.232
-162.793	-44.931	0.140	0.069
-161.779	-200.000	-0.023	0.103
-160.764	-128.126	0.115	-0.016
-159.750	28.537	-0.276	0.229
-158.735	99.901	0.280	0.320
-157.720	20.763	-0.108	0.086
-156.706	-91.087	0.158	-0.045
-155.691	-200.000	-0.032	-0.284
-154.677	-200.000	0.041	0.259
-153.662	342.825	0.200	0.385
-152.647	18.859	0.196	-0.154
-151.633	62.250	-0.197	-0.193
-150.618	-200.000	0.014	-0.271
-149.604	-150.654	-0.332	-0.025
-148.589	431.746	0.146	0.312
-147.574	-94.885	0.242	0.064
-146.560	-79.058	0.195	0.065
-145.545	129.438	0.088	0.111
-144.531	-121.955	0.347	0.056
-143.516	71.446	0.140	0.143
-142.502	-117.960	-0.315	-0.055
-141.487	226.567	0.167	0.267
-140.472	-98.703	-0.248	-0.062
-139.458	-200.000	-0.023	-0.157
-138.443	-90.267	-0.221	-0.063
-137.429	-200.000	0.012	-0.428
-136.414	-69.587	-0.263	0.099
-135.399	-27.179	-0.105	-0.060
-134.385	106.224	-0.220	0.256
-133.370	-51.048	0.218	0.100
-132.356	19.525	-0.154	0.121
-131.341	-61.315	-0.192	-0.079
-130.326	800.000	-0.071	-0.201
-129.312	98.428	-0.179	0.203
-128.297	565.365	0.077	0.184
-127.283	-167.262	0.070	-0.003
-126.268	-200.000	-0.032	-0.164
-125.253	142.844	0.249	0.325
-124.239	97.919	-0.150	0.170
-123.224	800.000	0.017	0.050
-122.210	-200.000	-0.025	-0.120
-121.195	-155.856	-0.126	0.008
