DTS Sentinel unit serial number:	SN413079Multiplexer serial number:	ORYXHardware model number:	OX4-SRSoftware version number:	ORYX F/W v4.00 Oryx Data Collector v3.7.2.0data status	okinstallation	princeton_trtdifferential loss correction	single-endedforward channel	channel 1reverse channel	N/Adate	2019/09/15time	14:54:35forward acquisition time	60.00reverse acquisition time	0.00gamma	496.2192k internal	0.2292k external	0.2292temperature offset calibration	0.9953default loss term (dB/km)	0.3790temperature slope calibration	1.0000multiplexer offset coefficient	1.0000multiplexer slope coefficient	1.0000fibre end	0.00T internal ref (°C)	40.00T ext. ref 1 (°C)	4.86T ext. ref 2 (°C)	36.96length (m)	temperature (°C)	Stokes	anti-Stokes-747.200	-74.246	0.246	-0.091
-746.185	-86.502	0.169	0.053
-745.171	-93.542	-0.412	0.117
-744.156	-31.076	0.318	0.184
-743.142	105.590	0.152	0.184
-742.127	0.731	-0.081	-0.059
-741.112	-115.812	-0.071	-0.014
-740.098	800.000	-0.171	0.514
-739.083	158.969	-0.096	0.136
-738.069	401.241	-0.125	0.269
-737.054	138.711	-0.140	0.188
-736.039	179.196	-0.259	-0.387
-735.025	800.000	0.080	0.251
-734.010	113.095	-0.283	-0.351
-732.996	91.789	-0.277	-0.319
-731.981	800.000	0.023	0.077
-730.966	-90.472	0.314	-0.093
-729.952	-4.839	0.095	0.067
-728.937	-140.231	-0.211	0.023
-727.923	-105.582	-0.169	-0.039
-726.908	191.022	0.123	-0.190
-725.894	6.428	0.068	0.052
-724.879	-63.454	-0.278	-0.117
-723.864	800.000	0.070	-0.275
-722.850	-57.933	0.312	-0.140
-721.835	-92.831	-0.274	0.078
-720.821	160.943	0.047	0.067
-719.806	43.696	-0.253	-0.237
-718.791	581.329	0.176	0.442
-717.777	702.967	0.100	0.270
-716.762	-17.200	0.118	0.076
-715.748	128.899	0.075	-0.098
-714.733	-104.776	0.347	0.082
-713.718	4.824	0.162	-0.122
-712.704	140.984	-0.181	-0.245
-711.689	-149.335	-0.232	-0.019
-710.675	-100.281	-0.155	-0.039
-709.660	126.204	0.246	-0.318
-708.645	94.304	-0.074	-0.085
-707.631	580.719	0.153	-0.383
-706.616	56.595	0.338	-0.336
-705.602	221.606	-0.071	-0.117
-704.587	-18.518	-0.135	-0.086
-703.572	-47.636	-0.222	-0.110
-702.558	-72.841	0.265	-0.099
-701.543	15.708	0.324	-0.260
-700.529	-20.649	-0.224	0.141
-699.514	49.615	0.034	0.033
-698.499	-92.629	-0.229	0.066
-697.485	81.167	-0.123	0.136
-696.470	353.894	-0.086	-0.175
-695.456	-31.178	0.076	-0.044
-694.441	524.716	-0.205	-0.493
-693.426	-95.359	-0.350	-0.096
-692.412	-32.739	-0.044	0.025
-691.397	-85.570	0.095	-0.030
-690.383	295.032	0.123	0.230
-689.368	-83.211	0.140	0.046
-688.354	33.382	0.267	0.236
-687.339	-82.758	-0.254	-0.084
-686.324	800.000	-0.097	0.273
-685.310	-200.000	-0.339	-0.002
-684.295	15.762	-0.185	-0.149
-683.281	-200.000	0.016	-0.142
-682.266	69.938	-0.341	-0.359
-681.251	800.000	0.052	-0.160
-680.237	-99.343	-0.105	0.027
-679.222	-98.262	-0.119	-0.031
-678.208	-170.588	-0.174	0.006
-677.193	-200.000	-0.001	-0.297
-676.178	-200.000	-0.333	0.001
-675.164	-133.189	-0.551	0.071
-674.149	800.000	-0.069	-0.275
-673.135	-162.489	-0.169	-0.009
-672.120	107.427	-0.202	0.245
-671.105	36.446	-0.258	0.232
-670.091	202.195	-0.141	0.222
-669.076	36.527	0.316	0.285
-668.062	395.436	0.209	-0.444
-667.047	260.612	0.257	-0.454
-666.032	800.000	-0.079	-0.274
-665.018	-200.000	0.053	-0.418
-664.003	-77.330	-0.462	0.164
-662.989	-89.376	-0.196	-0.059
-661.974	-106.820	0.249	-0.056
-660.959	-200.000	-0.001	0.169
-659.945	529.804	-0.063	0.153
-658.930	-149.019	0.214	0.018
-657.916	279.954	-0.037	0.067
-656.901	66.692	-0.230	-0.238
-655.886	138.671	0.182	0.244
-654.872	-200.000	-0.011	0.087
-653.857	-134.262	-0.152	-0.019
-652.843	40.246	0.136	-0.125
-651.828	-200.000	-0.004	-0.599
-650.814	51.708	-0.164	0.159
-649.799	-200.000	-0.057	0.322
-648.784	-200.000	-0.034	-0.181
-647.770	-200.000	-0.042	-0.190
-646.755	50.659	0.123	-0.118
-645.741	158.004	0.218	-0.308
-644.726	124.864	-0.198	-0.255
-643.711	-173.158	-0.235	0.007
-642.697	264.799	0.090	0.160
-641.682	2.744	-0.132	-0.098
-640.668	-200.000	0.038	-0.381
-639.653	-75.305	0.309	0.112
-638.638	64.580	-0.074	0.076
-637.624	-107.779	-0.231	0.051
-636.609	-70.585	0.387	-0.149
-635.595	-62.041	0.045	-0.019
-634.580	-88.228	0.107	-0.033
-633.565	-149.482	0.381	0.031
-632.551	33.249	0.046	-0.041
-631.536	-200.000	0.010	0.160
-630.522	-52.811	-0.137	-0.064
-629.507	264.385	-0.104	-0.185
-628.492	-90.413	-0.174	-0.052
-627.478	424.459	0.246	-0.539
-626.463	-70.452	0.033	-0.013
-625.449	61.986	0.070	-0.071
-624.434	-200.000	0.047	-0.370
-623.419	1.580	-0.077	-0.056
-622.405	-50.602	0.382	-0.183
-621.390	-149.089	-0.286	-0.023
-620.376	-64.599	-0.397	0.164
-619.361	-58.535	0.183	-0.081
-618.346	-200.000	-0.021	-0.106
-617.332	-156.812	-0.231	-0.014
-616.317	-40.319	0.323	0.171
-615.303	442.733	0.085	0.191
-614.288	-127.984	0.341	0.050
-613.273	-133.225	-0.088	0.011
-612.259	31.721	0.121	0.106
-611.244	-75.704	0.138	-0.050
-610.230	-200.000	-0.006	-0.235
-609.215	-200.000	-0.027	0.173
-608.201	-144.260	-0.087	0.008
-607.186	-200.000	-0.022	0.106
-606.171	-67.415	0.123	-0.049
-605.157	-114.142	-0.201	-0.040
-604.142	800.000	-0.082	-0.265
-603.128	71.902	0.170	-0.180
-602.113	-62.691	-0.251	0.106
-601.098	-83.751	-0.346	0.112
-600.084	-200.000	0.040	-0.241
-599.069	-8.560	-0.288	-0.197
-598.055	265.147	0.136	0.242
-597.040	-55.693	0.136	0.062
-596.025	136.960	-0.138	-0.183
-595.011	-125.792	-0.089	0.014
-593.996	-30.777	-0.220	-0.127
-592.982	96.112	0.135	0.157
-591.967	22.860	-0.227	0.189
-590.952	-14.238	0.356	-0.234
-589.938	-96.072	-0.148	0.040
-588.923	18.222	-0.162	-0.132
-587.909	-28.057	-0.152	0.089
-586.894	-95.780	-0.057	-0.015
-585.879	-18.996	-0.234	0.148
-584.865	157.844	-0.068	-0.095
-583.850	-46.928	-0.278	-0.138
-582.836	-88.375	-0.196	-0.059
-581.821	36.523	-0.214	-0.192
-580.806	64.965	0.084	-0.086
-579.792	7.601	-0.112	0.085
-578.777	195.943	0.260	-0.402
-577.763	800.000	0.018	-0.070
-576.748	29.037	0.141	0.122
-575.733	107.388	-0.114	-0.138
-574.719	367.619	-0.118	0.243
-573.704	26.866	-0.151	-0.129
-572.690	-200.000	-0.033	0.282
-571.675	800.000	-0.046	0.174
-570.661	25.998	0.103	0.087
-569.646	-74.851	-0.155	-0.056
-568.631	29.313	0.228	0.197
-567.617	-153.264	-0.105	-0.007
-566.602	-164.200	0.103	-0.005
-565.588	-200.000	-0.019	-0.110
-564.573	-200.000	-0.010	-0.215
-563.558	271.259	-0.157	0.281
-562.544	264.630	0.011	-0.019
-561.529	-154.045	-0.059	0.004
-560.515	-200.000	0.008	0.071
-559.500	-50.408	-0.339	-0.163
-558.485	-200.000	0.035	0.202
-557.471	-103.542	0.155	0.037
-556.456	-111.635	0.332	0.068
-555.442	-17.339	-0.197	-0.126
-554.427	164.725	0.030	-0.042
-553.412	256.917	0.076	-0.133
-552.398	800.000	0.077	0.255
-551.383	1.984	-0.165	0.121
-550.369	-200.000	-0.009	-0.245
-549.354	-200.000	-0.003	0.316
-548.339	-200.000	0.026	-0.162
-547.325	-41.064	0.235	0.123
-546.310	106.301	-0.195	-0.235
-545.296	6.518	-0.056	-0.042
-544.281	183.094	0.157	-0.236
-543.266	-44.184	0.172	0.088
-542.252	-150.989	-0.354	0.027
-541.237	-90.045	0.092	0.027
-540.223	-172.554	-0.076	-0.002
-539.208	-12.577	-0.166	0.110
-538.193	45.362	-0.144	0.135
-537.179	382.238	-0.108	-0.225
-536.164	800.000	0.046	-0.169
-535.150	800.000	-0.054	-0.166
-534.135	110.166	-0.030	-0.037
-533.121	56.866	0.062	0.061
-532.106	43.101	-0.176	0.163
-531.091	-14.732	0.136	0.089
-530.077	-63.451	-0.049	-0.021
-529.062	259.751	-0.124	-0.217
-528.048	-125.980	0.128	-0.020
-527.033	428.426	-0.049	0.107
-526.018	548.184	0.032	-0.077
-525.004	-200.000	0.032	-0.366
-523.989	-52.285	0.391	-0.184
-522.975	261.515	0.130	0.229
-521.960	149.478	0.099	-0.136
-520.945	-30.471	-0.146	0.084
-519.931	-22.475	0.082	-0.050
-518.916	-154.606	-0.173	0.012
-517.902	-175.743	0.248	0.007
-516.887	-89.575	0.060	-0.018
-515.872	759.629	0.135	0.371
-514.858	234.362	0.156	0.260
-513.843	-12.019	-0.079	-0.052
-512.829	133.361	0.071	-0.093
-511.814	-71.865	-0.270	0.102
-510.799	-91.966	-0.115	0.033
-509.785	-48.038	-0.152	-0.075
-508.770	800.000	-0.008	0.025
-507.756	123.064	-0.208	-0.264
-506.741	-86.995	-0.205	-0.063
-505.726	-5.651	-0.203	-0.141
-504.712	-200.000	-0.044	-0.481
-503.697	109.923	0.152	0.185
-502.683	800.000	-0.080	-0.281
-501.668	49.632	0.127	-0.122
-500.653	800.000	-0.069	-0.227
-499.639	159.935	-0.131	-0.185
-498.624	800.000	-0.038	0.129
-497.610	-48.612	-0.133	0.065
-496.595	800.000	0.069	-0.210
-495.581	125.649	0.140	0.179
-494.566	124.536	0.020	0.025
-493.551	122.431	-0.059	-0.074
-492.537	-29.677	-0.111	-0.064
-491.522	166.790	0.199	0.286
-490.508	-115.176	0.286	0.055
-489.493	-15.653	-0.223	0.144
-488.478	800.000	0.054	0.235
-487.464	291.547	-0.098	-0.181
-486.449	11.919	-0.165	-0.129
-485.435	13.897	-0.255	-0.201
-484.420	-200.000	0.037	0.168
-483.405	-200.000	-0.003	0.218
-482.391	226.669	-0.027	-0.044
-481.376	710.676	-0.143	-0.384
-480.362	-65.355	-0.277	0.113
-479.347	-200.000	0.028	0.323
-478.332	-200.000	0.043	0.292
-477.318	79.067	0.191	-0.207
-476.303	-78.297	-0.428	-0.149
-475.289	-41.716	-0.241	-0.125
-474.274	-15.223	0.257	0.167
-473.259	-200.000	0.242	0.000
-472.245	107.543	-0.115	-0.139
-471.230	256.632	-0.030	0.053
-470.216	-39.080	0.118	0.063
-469.201	-200.000	0.057	0.273
-468.186	-120.567	-0.398	-0.068
-467.172	10.319	-0.219	-0.169
-466.157	-57.941	-0.290	0.128
-465.143	35.734	-0.108	-0.096
-464.128	143.038	-0.006	0.009
-463.113	800.000	0.078	0.225
-462.099	13.586	0.059	0.046
-461.084	70.425	-0.235	-0.246
-460.070	118.481	0.233	-0.291
-459.055	-177.758	-0.197	-0.005
-458.040	-200.000	0.039	-0.289
-457.026	800.000	0.040	0.121
-456.011	-104.213	0.213	-0.050
-454.997	419.342	0.133	0.287
-453.982	-200.000	-0.005	-0.204
-452.968	641.227	-0.099	0.255
-451.953	-200.000	-0.007	-0.071
-450.938	287.569	0.175	-0.321
-449.924	-77.183	-0.120	-0.042
-448.909	-165.511	0.170	0.007
-447.895	79.310	-0.189	-0.205
-446.880	-73.695	-0.077	-0.028
-445.865	108.440	0.142	-0.172
-444.851	158.757	-0.108	0.152
-443.836	-164.356	-0.114	0.005
-442.822	800.000	-0.050	-0.145
-441.807	247.520	0.144	0.246
-440.792	800.000	0.032	0.110
-439.778	800.000	-0.024	0.082
-438.763	-200.000	-0.098	-0.440
-437.749	153.011	-0.126	0.174
-436.734	-62.446	-0.438	-0.184
-435.719	26.680	0.217	0.183
-434.705	-134.211	-0.159	0.020
-433.690	204.041	0.073	-0.114
-432.676	-200.000	-0.020	0.234
-431.661	30.688	0.070	0.061
-430.646	47.860	0.060	0.057
-429.632	-200.000	0.013	0.089
-428.617	-70.194	0.353	-0.136
-427.603	45.618	-0.075	-0.070
-426.588	4.268	0.343	-0.254
-425.573	-90.418	0.149	0.044
-424.559	228.286	0.079	-0.131
-423.544	-138.876	-0.152	-0.017
-422.530	203.389	-0.054	0.085
-421.515	-48.056	-0.236	0.115
-420.500	-132.534	-0.196	-0.025
-419.486	53.261	-0.020	0.019
-418.471	160.855	0.058	0.082
-417.457	-162.460	0.411	0.021
-416.442	50.008	0.270	-0.258
-415.428	635.016	-0.115	-0.295
-414.413	800.000	0.069	0.285
-413.398	-55.348	0.186	-0.084
-412.384	-200.000	0.006	-0.309
-411.369	-147.724	0.190	0.016
-410.355	-161.055	0.355	0.019
-409.340	800.000	0.021	0.072
-408.325	84.908	0.165	-0.183
-407.311	53.069	0.067	-0.064
-406.296	111.876	-0.067	0.081
-405.282	-110.912	0.349	0.073
-404.267	338.154	-0.070	-0.137
-403.252	800.000	-0.089	0.377
-402.238	800.000	-0.086	0.292
-401.223	-61.984	0.184	0.078
-400.209	0.216	-0.130	0.093
-399.194	800.000	-0.054	-0.207
-398.179	-100.237	0.267	-0.067
-397.165	11.553	-0.119	0.092
-396.150	-96.050	-0.385	0.103
-395.136	322.133	0.185	0.355
-394.121	800.000	-0.020	0.084
-393.106	-172.967	-0.060	0.002
-392.092	-27.845	0.036	0.021
-391.077	43.183	0.070	-0.064
-390.063	-25.707	0.064	0.038
-389.048	9.317	-0.132	0.101
-388.033	-200.000	0.038	-0.247
-387.019	-200.000	-0.009	0.233
-386.004	34.331	0.381	0.336
-384.990	-20.394	0.347	0.215
-383.975	-33.202	0.332	0.186
-382.960	757.224	0.135	-0.369
-381.946	131.633	0.103	-0.134
-380.931	109.513	-0.113	0.137
-379.917	800.000	0.115	-0.334
-378.902	62.744	0.103	0.104
-377.888	-5.109	-0.191	0.133
-376.873	637.848	0.090	0.231
-375.858	-200.000	0.031	0.260
-374.844	236.402	0.196	0.327
-373.829	-93.616	0.289	-0.081
-372.815	-63.196	-0.455	-0.189
-371.800	-111.769	0.277	-0.057
-370.785	-24.063	-0.110	0.066
-369.771	360.578	-0.081	0.163
-368.756	200.356	0.064	0.098
-367.742	299.369	0.156	-0.290
-366.727	-173.094	0.223	0.007
-365.712	-29.118	-0.161	-0.093
-364.698	35.599	0.234	-0.207
-363.683	796.827	0.039	0.108
-362.669	75.417	-0.074	0.078
-361.654	56.313	0.203	0.199
-360.639	263.699	0.235	0.412
-359.625	-200.000	0.005	0.079
-358.610	-96.475	-0.238	0.063
-357.596	62.244	-0.162	0.163
-356.581	-180.324	0.364	0.008
-355.566	-144.562	-0.104	-0.010
-354.552	449.145	-0.122	0.272
-353.537	145.814	0.077	-0.103
-352.523	114.032	-0.137	0.168
-351.508	112.739	-0.130	0.158
-350.493	520.012	-0.027	-0.063
-349.479	255.197	-0.193	-0.333
-348.464	357.781	-0.090	-0.180
-347.450	-200.000	-0.008	0.199
-346.435	74.368	0.172	0.182
-345.420	800.000	-0.048	0.148
-344.406	-144.607	0.253	-0.024
-343.391	800.000	0.108	0.369
-342.377	-31.066	-0.035	0.020
-341.362	-56.619	0.032	-0.014
-340.348	377.340	0.122	0.251
-339.333	81.862	0.126	-0.137
-338.318	-98.540	-0.258	-0.067
-337.304	-200.000	-0.020	-0.142
-336.289	-67.687	-0.136	-0.054
-335.275	-200.000	0.041	-0.204
-334.260	-200.000	0.033	0.315
-333.245	74.541	0.239	-0.253
-332.231	102.191	0.183	-0.215
-331.216	202.576	-0.050	-0.078
-330.202	-38.117	0.173	0.092
-329.187	495.287	-0.088	-0.205
-328.172	-200.000	-0.050	-0.286
-327.158	-164.295	0.108	0.005
-326.143	800.000	0.055	0.178
-325.129	-130.659	0.245	-0.033
-324.114	-117.863	0.378	0.068
-323.099	-119.080	-0.387	0.068
-322.085	42.000	0.204	0.186
-321.070	-148.524	-0.125	0.010
-320.056	148.814	-0.245	0.333
-319.041	-117.010	-0.253	0.047
-318.026	-200.000	-0.004	0.019
-317.012	-104.010	0.295	-0.069
-315.997	800.000	0.047	-0.155
-314.983	-165.781	0.416	0.018
-313.968	-200.000	-0.009	0.080
-312.953	-199.122	0.535	0.003
-311.939	-200.000	0.004	0.285
-310.924	-13.382	0.206	0.135
-309.910	101.537	-0.072	-0.084
-308.895	-164.667	-0.155	-0.007
-307.880	125.818	0.108	-0.137
-306.866	99.737	-0.268	-0.313
-305.851	115.652	-0.188	-0.231
-304.837	-168.726	0.286	-0.011
-303.822	320.604	0.082	0.156
-302.807	226.615	-0.088	0.144
-301.793	78.312	0.216	-0.232
-300.778	194.867	0.121	0.185
-299.764	-159.482	0.157	-0.009
-298.749	-200.000	0.033	0.188
-297.735	169.877	-0.058	0.083
-296.720	800.000	0.035	-0.131
-295.705	-198.023	-0.165	0.001
-294.691	725.844	-0.055	0.149
-293.676	47.322	0.105	-0.099
-292.662	72.563	-0.221	0.231
-291.647	-200.000	-0.010	-0.107
-290.632	800.000	0.047	-0.185
-289.618	-111.179	0.152	0.031
-288.603	254.653	0.052	0.089
-287.589	800.000	0.017	-0.056
-286.574	-81.848	0.093	-0.030
-285.559	391.668	0.084	-0.175
-284.545	-200.000	0.046	-0.516
-283.530	-200.000	-0.067	-0.312
-282.516	356.087	0.013	-0.027
-281.501	-200.000	0.058	-0.376
-280.486	246.012	-0.122	-0.207
-279.472	-200.000	0.037	-0.398
-278.457	-200.000	-0.002	0.041
-277.443	-200.000	-0.044	0.244
-276.428	-200.000	0.065	0.360
-275.413	-200.000	0.053	-0.254
-274.399	509.622	0.044	-0.102
-273.384	800.000	0.112	0.418
-272.370	-24.180	-0.230	0.138
-271.355	228.839	0.091	0.150
-270.340	531.851	-0.071	0.169
-269.326	-43.667	0.302	-0.153
-268.311	276.083	-0.130	0.233
-267.297	-161.300	0.118	-0.006
-266.282	210.333	-0.207	-0.326
-265.267	185.293	-0.149	-0.222
-264.253	-102.587	-0.106	0.025
-263.238	-96.420	-0.316	0.084
-262.224	-200.000	0.012	0.200
-261.209	800.000	0.144	-0.430
-260.195	-200.000	-0.017	0.152
-259.180	-40.812	-0.135	0.070
-258.165	800.000	0.018	0.075
-257.151	13.214	-0.122	0.095
-256.136	36.968	-0.317	-0.281
-255.122	-95.185	0.083	-0.022
-254.107	-103.897	0.341	-0.080
-253.092	-10.031	-0.177	-0.118
-252.078	-79.594	-0.330	0.112
-251.063	-115.758	-0.183	-0.034
-250.049	-158.560	0.152	-0.009
-249.034	337.405	-0.116	0.227
-248.019	-185.817	-0.252	-0.004
-247.005	-63.902	0.304	-0.125
-245.990	377.646	-0.117	-0.239
-244.976	-122.851	-0.064	0.010
-243.961	38.147	-0.098	0.087
-242.946	112.532	0.094	0.114
-241.932	-16.333	-0.236	0.151
-240.917	29.497	0.138	-0.118
-239.903	-60.707	-0.181	-0.077
-238.888	-139.590	0.223	0.024
-237.873	-95.111	0.231	-0.063
-236.859	325.911	-0.125	0.240
-235.844	-117.113	-0.237	-0.043
-234.830	-106.187	0.058	-0.013
-233.815	-200.000	0.008	-0.099
-232.800	-14.663	0.384	0.248
-231.786	-200.000	-0.008	0.106
-230.771	92.420	0.195	0.221
-229.757	128.381	-0.078	0.100
-228.742	346.151	-0.151	0.298
-227.727	500.733	-0.089	0.206
-226.713	-81.060	0.264	0.087
-225.698	-38.101	0.147	0.078
-224.684	444.790	-0.093	0.204
-223.669	-200.000	-0.085	0.000
-222.655	800.000	-0.046	0.141
-221.640	-56.460	-0.162	0.072
-220.625	155.335	-0.161	-0.222
-219.611	-200.000	-0.020	0.128
-218.596	361.479	0.072	-0.144
-217.582	800.000	0.071	-0.211
-216.567	682.687	-0.158	-0.414
-215.552	1.582	-0.153	0.110
-214.538	-200.000	-0.023	0.190
-213.523	-200.000	0.000	-0.339
-212.509	169.963	-0.102	0.146
-211.494	800.000	-0.145	0.520
-210.479	29.280	-0.152	0.129
-209.465	53.727	0.236	0.227
-208.450	-106.445	0.379	-0.085
-207.436	-37.190	-0.388	-0.208
-206.421	-95.960	0.231	-0.062
-205.406	-200.000	0.031	0.225
-204.392	51.232	0.108	0.103
-203.377	201.851	0.115	-0.178
-202.363	378.205	-0.030	0.061
-201.348	800.000	0.057	0.226
-200.333	-166.467	0.108	0.005
-199.319	-18.268	0.097	0.061
-198.304	-200.000	0.010	0.068
-197.290	-43.862	0.087	0.044
-196.275	-96.040	-0.337	-0.090
-195.260	-51.366	0.210	0.098
-194.246	-148.144	-0.313	0.026
-193.231	-153.708	-0.313	-0.022
-192.217	-31.719	0.062	0.035
-191.202	-200.000	0.043	-0.204
-190.187	53.447	-0.219	0.210
-189.173	87.262	0.122	0.135
-188.158	-88.431	0.314	0.094
-187.144	-200.000	-0.046	-0.323
-186.129	800.000	-0.083	0.245
-185.114	-109.343	0.289	0.061
-184.100	-62.315	-0.242	-0.101
-183.085	-44.897	0.015	-0.007
-182.071	-200.000	0.020	0.158
-181.056	210.886	-0.256	0.402
-180.042	-119.776	0.222	0.038
-179.027	407.820	0.051	0.108
-178.012	746.270	-0.070	0.188
-176.998	-200.000	0.050	0.358
-175.983	-93.893	-0.187	0.051
-174.969	-92.245	0.222	-0.063
-173.954	-48.229	-0.140	-0.067
-172.939	-58.980	0.086	0.037
-171.925	-114.122	0.173	-0.033
-170.910	-200.000	0.026	-0.118
-169.896	-140.985	0.343	-0.035
-168.881	-200.000	0.013	0.083
-167.866	102.722	-0.262	-0.307
-166.852	-200.000	0.053	-0.271
-165.837	-200.000	-0.026	-0.237
-164.823	-200.000	0.018	0.280
-163.808	-200.000	0.038	0.248
-162.793	-80.198	-0.174	0.058
-161.779	88.775	-0.209	-0.232
-160.764	-154.229	-0.225	-0.015
-159.750	158.788	0.257	-0.357
-158.735	459.542	-0.120	-0.266
-157.720	196.791	-0.173	0.264
-156.706	-29.240	-0.332	0.190
-155.691	-53.407	-0.129	0.059
-154.677	413.105	-0.041	0.087
-153.662	800.000	-0.057	-0.172
-152.647	160.152	0.091	0.127
-151.633	526.894	-0.112	0.265
-150.618	132.982	-0.053	0.068
-149.604	198.375	-0.053	-0.082
-148.589	248.868	0.255	-0.431
-147.574	800.000	-0.115	-0.364
-146.560	-97.681	-0.286	-0.074
-145.545	67.065	0.111	-0.113
-144.531	238.708	0.053	-0.088
-143.516	800.000	-0.072	0.314
-142.502	10.033	0.045	0.035
-141.487	111.090	-0.132	-0.159
-140.472	778.052	0.049	-0.135
-139.458	86.185	-0.133	-0.147
-138.443	-126.147	0.315	-0.047
-137.429	146.037	-0.140	-0.188
-136.414	-172.382	0.166	0.005
-135.399	-121.254	0.251	-0.042
-134.385	-200.000	0.023	0.198
-133.370	328.711	0.016	0.031
-132.356	-200.000	-0.011	-0.081
-131.341	-87.249	-0.119	0.036
-130.326	64.768	0.025	0.025
-129.312	6.388	-0.175	0.130
-128.297	2.684	0.064	0.047
-127.283	417.507	-0.105	0.224
-126.268	166.934	0.108	0.154
-125.253	-200.000	-0.030	-0.218
-124.239	10.568	-0.202	0.154
-123.224	-38.457	-0.093	0.049
-122.210	265.952	0.128	-0.224
-121.195	146.201	0.083	0.111
