DTS Sentinel unit serial number:	SN413079Multiplexer serial number:	ORYXHardware model number:	OX4-SRSoftware version number:	ORYX F/W v4.00 Oryx Data Collector v3.7.2.0data status	okinstallation	princeton_trtdifferential loss correction	single-endedforward channel	channel 1reverse channel	N/Adate	2019/09/13time	02:38:35forward acquisition time	60.00reverse acquisition time	0.00gamma	496.2192k internal	0.2332k external	0.2332temperature offset calibration	1.0160default loss term (dB/km)	0.3790temperature slope calibration	1.0000multiplexer offset coefficient	1.0000multiplexer slope coefficient	1.0000fibre end	0.00T internal ref (°C)	27.47T ext. ref 1 (°C)	3.99T ext. ref 2 (°C)	22.26length (m)	temperature (°C)	Stokes	anti-Stokes-747.200	688.207	-0.112	-0.294
-746.185	-200.000	-0.021	0.135
-745.171	72.412	0.179	0.188
-744.156	219.666	-0.019	0.031
-743.142	84.497	0.077	-0.084
-742.127	39.942	0.209	0.189
-741.112	52.722	0.239	-0.229
-740.098	800.000	0.049	-0.167
-739.083	-200.000	0.043	-0.266
-738.069	-33.676	-0.481	0.267
-737.054	262.574	-0.160	-0.278
-736.039	23.336	-0.314	-0.260
-735.025	-200.000	-0.061	0.279
-734.010	81.759	0.068	-0.074
-732.996	479.426	0.076	-0.174
-731.981	-0.304	-0.295	-0.211
-730.966	-151.447	-0.247	0.018
-729.952	-93.140	-0.187	0.052
-728.937	-70.199	0.123	-0.047
-727.923	555.592	0.133	-0.322
-726.908	-200.000	0.014	-0.154
-725.894	800.000	-0.096	-0.368
-724.879	600.280	-0.158	-0.393
-723.864	-168.190	0.203	-0.008
-722.850	-98.097	0.192	0.050
-721.835	9.615	0.036	-0.028
-720.821	-200.000	0.007	-0.119
-719.806	-200.000	-0.055	0.462
-718.791	102.484	0.125	-0.147
-717.777	87.894	-0.046	0.051
-716.762	-200.000	0.002	-0.141
-715.748	66.121	0.025	-0.026
-714.733	-71.705	-0.307	0.115
-713.718	297.336	-0.115	-0.213
-712.704	-137.764	-0.228	0.026
-711.689	-165.952	-0.248	0.011
-710.675	-116.344	-0.113	0.021
-709.660	71.448	0.263	-0.274
-708.645	686.296	-0.010	-0.026
-707.631	73.421	-0.094	0.098
-706.616	206.347	-0.142	0.222
-705.602	68.129	0.099	0.102
-704.587	800.000	-0.044	0.157
-703.572	800.000	-0.087	-0.316
-702.558	-86.318	-0.179	-0.055
-701.543	1.906	-0.137	0.099
-700.529	-34.683	-0.187	-0.103
-699.514	800.000	-0.090	-0.263
-698.499	142.918	0.070	-0.093
-697.485	128.670	0.225	0.288
-696.470	-85.224	0.264	-0.083
-695.456	245.323	0.089	0.151
-694.441	-101.110	0.285	-0.070
-693.426	96.553	-0.239	0.275
-692.412	-22.569	-0.111	-0.067
-691.397	-200.000	-0.008	0.093
-690.383	-89.833	-0.506	-0.149
-689.368	-164.989	0.487	0.022
-688.354	-114.554	-0.253	-0.049
-687.339	-16.587	-0.248	-0.157
-686.324	-68.615	0.209	0.081
-685.310	800.000	0.077	0.263
-684.295	-10.999	0.281	-0.186
-683.281	54.345	0.177	0.171
-682.266	-200.000	0.005	0.163
-681.251	-200.000	0.248	0.001
-680.237	-200.000	-0.018	0.125
-679.222	230.611	0.118	0.193
-678.208	-200.000	0.006	0.422
-677.193	-4.841	-0.154	-0.106
-676.178	-200.000	-0.069	-0.383
-675.164	314.685	0.194	0.368
-674.149	-194.361	-0.265	0.002
-673.135	-84.971	-0.223	0.070
-672.120	63.003	-0.126	0.126
-671.105	241.582	0.110	-0.185
-670.091	124.015	0.124	0.157
-669.076	800.000	0.112	0.315
-668.062	-61.643	-0.227	0.095
-667.047	-200.000	0.008	-0.178
-666.032	-33.094	-0.211	-0.117
-665.018	56.381	-0.095	-0.093
-664.003	35.190	0.437	-0.384
-662.989	270.483	-0.092	-0.162
-661.974	-68.008	-0.142	-0.056
-660.959	36.190	0.113	0.100
-659.945	13.862	-0.163	-0.127
-658.930	207.457	0.150	-0.235
-657.916	35.013	-0.211	0.185
-656.901	119.610	-0.147	-0.183
-655.886	32.795	-0.201	-0.174
-654.872	-200.000	-0.045	-0.280
-653.857	298.435	-0.009	-0.017
-652.843	161.942	0.151	-0.212
-651.828	800.000	-0.095	-0.305
-650.814	-168.548	-0.342	-0.013
-649.799	800.000	0.020	-0.059
-648.784	97.162	0.163	0.188
-647.770	510.527	-0.121	-0.281
-646.755	-200.000	0.018	-0.347
-645.741	-200.000	0.044	0.210
-644.726	646.000	0.152	-0.388
-643.711	-139.323	-0.118	-0.013
-642.697	549.835	0.157	0.377
-641.682	-159.735	-0.281	0.016
-640.668	646.130	-0.178	-0.455
-639.653	-18.320	-0.147	-0.092
-638.638	38.753	0.174	0.156
-637.624	484.083	-0.030	0.068
-636.609	-26.979	0.211	-0.123
-635.595	-91.105	-0.165	-0.047
-634.580	320.232	0.123	-0.235
-633.565	-44.817	0.118	0.059
-632.551	218.612	-0.103	-0.165
-631.536	-42.284	0.119	-0.061
-630.522	800.000	-0.077	0.215
-629.507	-200.000	-0.040	-0.190
-628.492	-19.448	0.131	-0.082
-627.478	-64.468	0.261	-0.106
-626.463	-126.598	0.116	0.017
-625.449	-200.000	0.029	0.301
-624.434	800.000	-0.157	0.449
-623.419	-200.000	-0.019	-0.123
-622.405	-200.000	0.023	0.178
-621.390	-96.263	0.162	0.043
-620.376	303.193	0.026	0.049
-619.361	-153.443	-0.118	0.008
-618.346	-11.402	-0.391	0.258
-617.332	-200.000	-0.040	0.228
-616.317	-41.250	0.173	0.090
-615.303	0.987	-0.075	0.054
-614.288	101.967	-0.200	-0.234
-613.273	-200.000	-0.183	0.000
-612.259	30.174	0.205	0.175
-611.244	22.502	-0.049	0.040
-610.230	145.348	0.072	-0.096
-609.215	190.036	0.217	-0.326
-608.201	-33.571	-0.208	0.115
-607.186	800.000	0.083	-0.323
-606.171	67.833	0.084	0.086
-605.157	-21.960	-0.042	0.026
-604.142	-200.000	-0.018	-0.136
-603.128	175.106	0.119	-0.172
-602.113	-110.724	0.168	-0.035
-601.098	-60.557	-0.211	-0.089
-600.084	-200.000	-0.008	-0.241
-599.069	-200.000	-0.027	-0.502
-598.055	-93.116	-0.291	-0.081
-597.040	-200.000	-0.033	-0.305
-596.025	-134.055	-0.127	-0.016
-595.011	32.014	-0.330	0.284
-593.996	179.713	0.087	0.127
-592.982	-72.172	0.355	0.132
-591.967	-82.049	-0.248	-0.081
-590.952	65.700	-0.145	0.146
-589.938	6.171	0.366	0.271
-588.923	-12.593	0.200	-0.130
-587.909	-200.000	-0.036	-0.230
-586.894	-54.031	-0.206	-0.094
-585.879	223.981	-0.164	-0.265
-584.865	193.777	-0.168	0.255
-583.850	61.554	0.310	0.308
-582.836	295.382	0.209	-0.383
-581.821	-106.239	0.135	-0.030
-580.806	446.365	-0.099	-0.217
-579.792	245.784	-0.074	0.124
-578.777	-200.000	0.027	-0.191
-577.763	-34.358	0.064	0.035
-576.748	-142.781	-0.132	0.013
-575.733	-18.439	-0.071	0.045
-574.719	10.718	0.038	-0.029
-573.704	-41.969	0.192	0.098
-572.690	29.987	0.239	0.204
-571.675	-200.000	-0.041	0.253
-570.661	-138.199	0.085	0.009
-569.646	-180.619	-0.327	-0.007
-568.631	-200.000	0.034	-0.194
-567.617	-15.861	-0.240	-0.153
-566.602	23.894	0.289	0.238
-565.588	-200.000	0.005	-0.077
-564.573	117.767	0.110	0.136
-563.558	-89.535	-0.195	0.057
-562.544	-15.981	0.294	-0.187
-561.529	800.000	0.103	0.367
-560.515	-112.307	0.125	0.025
-559.500	-91.763	-0.338	0.096
-558.485	219.537	0.061	0.098
-557.471	44.143	-0.089	0.082
-556.456	-130.240	-0.032	0.004
-555.442	-92.992	-0.492	-0.137
-554.427	46.034	-0.051	-0.047
-553.412	-72.634	0.238	0.088
-552.398	321.097	0.146	0.276
-551.383	-200.000	-0.009	0.166
-550.369	800.000	-0.051	0.141
-549.354	-60.531	0.254	-0.108
-548.339	-72.226	-0.344	0.127
-547.325	102.629	0.103	-0.120
-546.310	96.649	0.166	0.189
-545.296	-200.000	0.018	0.188
-544.281	-81.723	0.241	-0.079
-543.266	-200.000	0.013	0.338
-542.252	-169.619	-0.170	0.006
-541.237	-200.000	-0.018	-0.166
-540.223	-200.000	0.054	-0.267
-539.208	-51.162	-0.161	-0.075
-538.193	-51.926	-0.220	-0.102
-537.179	-99.690	0.140	-0.035
-536.164	26.742	0.258	-0.216
-535.150	-59.633	0.207	0.089
-534.135	-149.235	0.207	0.017
-533.121	-8.294	0.225	-0.151
-532.106	340.790	-0.174	-0.339
-531.091	28.047	-0.160	0.135
-530.077	-110.061	-0.209	-0.044
-529.062	34.861	0.215	-0.187
-528.048	-200.000	0.039	-0.265
-527.033	-107.528	-0.196	0.043
-526.018	-72.051	-0.197	0.073
-525.004	-137.764	-0.022	0.002
-523.989	-200.000	0.021	0.178
-522.975	800.000	0.136	0.496
-521.960	119.783	-0.226	-0.280
-520.945	-200.000	-0.009	-0.064
-519.931	-200.000	-0.007	0.337
-518.916	-122.122	-0.182	-0.030
-517.902	84.171	-0.245	-0.267
-516.887	290.473	0.090	0.162
-515.872	-49.576	0.129	0.061
-514.858	176.881	0.102	-0.148
-513.843	193.141	0.087	-0.131
-512.829	-106.089	-0.490	-0.110
-511.814	32.219	-0.289	0.249
-510.799	-200.000	0.073	0.336
-509.785	-0.287	-0.192	-0.136
-508.770	255.992	-0.033	0.057
-507.756	-3.650	0.329	0.228
-506.741	-200.000	0.039	-0.379
-505.726	-71.151	0.139	0.052
-504.712	781.805	0.090	-0.245
-503.697	443.470	0.073	-0.160
-502.683	-120.812	-0.136	-0.023
-501.668	61.525	-0.068	-0.068
-500.653	55.309	-0.149	-0.143
-499.639	-17.108	0.118	0.074
-498.624	-132.063	0.023	-0.003
-497.610	53.772	-0.190	-0.182
-496.595	180.725	0.060	0.087
-495.581	-150.450	0.251	0.019
-494.566	-19.245	0.151	-0.093
-493.551	-53.225	-0.334	-0.153
-492.537	-65.579	0.316	0.126
-491.522	168.647	0.157	0.223
-490.508	-200.000	-0.032	-0.153
-489.493	489.010	0.126	-0.286
-488.478	-32.759	-0.208	0.115
-487.464	-200.000	0.051	0.451
-486.449	-200.000	0.003	0.047
-485.435	-13.506	0.122	-0.079
-484.420	-106.381	-0.287	0.064
-483.405	6.779	0.116	-0.086
-482.391	-36.322	-0.135	-0.072
-481.376	-161.740	-0.136	0.007
-480.362	649.543	-0.063	-0.161
-479.347	-86.853	0.189	-0.058
-478.332	20.775	-0.247	0.200
-477.318	-97.657	-0.313	0.081
-476.303	160.339	0.100	0.140
-475.289	730.723	-0.061	0.163
-474.274	551.153	0.059	-0.140
-473.259	-38.657	-0.344	-0.181
-472.245	-21.495	0.090	0.055
-471.230	-200.000	-0.004	-0.176
-470.216	-141.764	-0.260	-0.026
-469.201	-99.878	0.058	0.014
-468.186	-200.000	-0.003	-0.202
-467.172	-87.035	0.279	0.085
-466.157	800.000	-0.106	0.430
-465.143	477.919	0.051	0.116
-464.128	7.011	-0.105	-0.078
-463.113	-200.000	0.001	0.329
-462.099	21.747	0.122	-0.099
-461.084	-58.385	-0.188	0.081
-460.070	-134.625	0.205	0.025
-459.055	190.820	0.103	-0.155
-458.040	-87.599	0.453	0.136
-457.026	-89.699	-0.378	0.110
-456.011	-141.307	0.200	-0.020
-454.997	27.518	-0.014	-0.011
-453.982	-145.063	-0.195	-0.018
-452.968	-200.000	-0.006	0.135
-451.953	540.373	-0.023	0.056
-450.938	357.881	-0.095	-0.189
-449.924	800.000	-0.113	-0.436
-448.909	-85.778	-0.225	0.069
-447.895	-200.000	-0.019	-0.165
-446.880	-200.000	0.012	0.291
-445.865	-11.824	0.189	0.123
-444.851	-56.889	-0.201	0.088
-443.836	-97.612	-0.413	-0.107
-442.822	-200.000	-0.016	0.149
-441.807	102.304	0.091	0.106
-440.792	-103.959	-0.163	-0.038
-439.778	26.673	-0.119	-0.099
-438.763	-125.339	0.063	0.010
-437.749	-200.000	-0.004	-0.495
-436.734	-200.000	0.025	0.111
-435.719	-83.392	-0.121	-0.038
-434.705	-200.000	-0.009	-0.151
-433.690	126.957	-0.108	-0.136
-432.676	-200.000	0.024	-0.123
-431.661	800.000	-0.083	0.241
-430.646	-108.457	0.253	-0.054
-429.632	15.467	-0.248	0.193
-428.617	18.867	-0.311	0.248
-427.603	-200.000	0.016	-0.127
-426.588	-117.374	-0.245	0.044
-425.573	800.000	-0.032	-0.135
-424.559	-199.261	0.068	0.000
-423.544	-20.706	0.142	0.087
-422.530	222.283	0.119	0.191
-421.515	800.000	0.068	0.210
-420.500	-42.219	0.141	-0.072
-419.486	-93.776	-0.159	0.044
-418.471	216.495	-0.231	0.366
-417.457	118.952	0.119	-0.146
-416.442	-136.080	0.071	0.008
-415.428	-144.857	0.258	-0.023
-414.413	202.863	0.143	-0.220
-413.398	277.949	-0.049	0.086
-412.384	-59.150	-0.201	0.086
-411.369	800.000	0.043	-0.134
-410.355	800.000	0.123	-0.404
-409.340	180.692	0.078	-0.113
-408.325	11.544	0.166	0.127
-407.311	-129.091	-0.229	-0.032
-406.296	726.293	-0.056	0.148
-405.282	-88.156	-0.343	0.102
-404.267	509.039	-0.081	0.187
-403.252	2.525	0.095	-0.069
-402.238	-200.000	0.082	-0.410
-401.223	-75.970	-0.192	-0.067
-400.209	-105.248	0.383	0.087
-399.194	716.865	0.043	0.113
-398.179	-5.382	0.118	-0.080
-397.165	-13.029	-0.256	0.165
-396.150	-100.645	-0.088	0.021
-395.136	580.153	-0.122	0.296
-394.121	190.930	-0.151	0.225
-393.106	214.279	-0.200	-0.314
-392.092	800.000	-0.115	-0.386
-391.077	133.406	-0.092	0.118
-390.063	-95.450	0.124	-0.033
-389.048	800.000	0.078	-0.247
-388.033	-42.193	-0.065	0.033
-387.019	-200.000	-0.058	0.324
-386.004	164.227	0.108	0.151
-384.990	-200.000	0.048	-0.214
-383.975	433.228	-0.165	-0.356
-382.960	233.284	-0.167	-0.272
-381.946	93.868	-0.162	-0.182
-380.931	-118.443	0.171	-0.030
-379.917	-18.109	-0.103	-0.064
-378.902	59.984	0.108	-0.106
-377.888	425.478	-0.093	0.199
-376.873	309.742	0.054	-0.099
-375.858	704.636	0.114	-0.297
-374.844	-200.000	0.008	0.354
-373.829	-151.426	-0.243	0.018
-372.815	79.223	-0.068	0.072
-371.800	-200.000	-0.019	-0.240
-370.785	-109.027	0.187	0.040
-369.771	483.992	-0.013	0.029
-368.756	-150.584	-0.232	-0.018
-367.742	-49.703	0.101	0.047
-366.727	-124.362	0.026	-0.004
-365.712	101.662	0.080	-0.093
-364.698	9.335	-0.008	-0.006
-363.683	177.449	-0.163	0.235
-362.669	32.594	0.375	0.321
-361.654	-55.513	-0.365	-0.162
-360.639	291.536	0.076	0.137
-359.625	-108.146	-0.157	0.034
-358.610	120.894	0.129	-0.158
-357.596	158.417	-0.187	0.257
-356.581	255.587	-0.093	-0.158
-355.566	-200.000	-0.028	-0.345
-354.552	-200.000	0.019	-0.144
-353.537	160.519	-0.163	0.225
-352.523	-115.504	0.184	-0.034
-351.508	-52.875	-0.164	-0.075
-350.493	-200.000	0.003	-0.078
-349.479	331.267	0.096	-0.184
-348.464	25.919	0.047	0.039
-347.450	-43.209	0.156	0.078
-346.435	33.880	0.094	-0.081
-345.420	-49.807	-0.127	-0.060
-344.406	61.669	0.169	0.166
-343.391	265.362	0.211	-0.364
-342.377	279.554	-0.060	-0.107
-341.362	78.821	0.179	-0.190
-340.348	331.557	-0.145	0.277
-339.333	-97.415	-0.148	-0.038
-338.318	-103.296	-0.245	-0.057
-337.304	-200.000	-0.004	-0.393
-336.289	-72.271	-0.189	0.069
-335.275	-82.590	-0.433	0.139
-334.260	-103.638	0.092	-0.021
-333.245	-72.856	0.077	-0.028
-332.231	-200.000	-0.002	-0.246
-331.216	309.756	-0.058	-0.107
-330.202	-163.051	0.097	-0.005
-329.187	162.490	0.100	0.138
-328.172	17.228	0.083	-0.066
-327.158	282.809	0.087	0.154
-326.143	113.065	-0.118	-0.142
-325.129	-48.790	0.316	0.150
-324.114	-147.206	0.306	0.026
-323.099	37.993	0.281	-0.247
-322.085	1.181	0.298	0.212
-321.070	433.864	-0.043	0.093
-320.056	274.013	0.092	0.161
-319.041	-51.739	-0.398	0.183
-318.026	-37.766	0.027	-0.014
-317.012	-200.000	-0.008	0.069
-315.997	-69.407	0.102	0.039
-314.983	-77.330	-0.094	-0.032
-313.968	182.772	0.324	-0.472
-312.953	800.000	-0.059	0.223
-311.939	-73.941	-0.079	-0.029
-310.924	-85.394	-0.302	-0.093
-309.910	491.496	-0.013	-0.030
-308.895	69.805	0.075	-0.077
-307.880	494.740	0.039	-0.088
-306.866	-16.886	0.233	0.146
-305.851	-129.739	0.399	-0.054
-304.837	476.265	-0.050	-0.112
-303.822	-74.374	0.079	-0.028
-302.807	27.164	-0.201	0.167
-301.793	-114.206	-0.175	-0.033
-300.778	-200.000	-0.034	0.186
-299.764	800.000	0.124	0.346
-298.749	-22.448	-0.162	-0.097
-297.735	59.346	-0.155	-0.151
-296.720	-38.897	-0.127	-0.066
-295.705	-65.118	-0.161	0.064
-294.691	791.353	-0.192	-0.522
-293.676	-44.176	0.280	0.139
-292.662	-22.095	0.154	0.093
-291.647	-96.003	0.223	0.059
-290.632	-12.581	0.423	-0.273
-289.618	746.607	-0.143	0.382
-288.603	-49.923	0.277	0.130
-287.589	-149.710	0.380	-0.030
-286.574	-200.000	-0.042	0.355
-285.559	-200.000	-0.055	0.266
-284.545	-102.575	-0.171	-0.040
-283.530	-98.608	-0.508	-0.128
-282.516	90.020	0.241	0.266
-281.501	14.749	-0.166	-0.129
-280.486	800.000	0.074	0.276
-279.472	-98.155	-0.321	0.081
-278.457	57.520	0.176	0.170
-277.443	-81.167	-0.381	0.125
-276.428	800.000	-0.052	0.203
-275.413	800.000	0.034	-0.139
-274.399	-108.185	-0.077	0.016
-273.384	270.244	0.095	0.164
-272.370	17.069	-0.387	0.303
-271.355	721.286	0.098	0.258
-270.340	-200.000	-0.052	0.351
-269.326	-200.000	-0.039	-0.388
-268.311	-16.597	0.148	0.092
-267.297	-55.153	-0.247	0.110
-266.282	107.202	0.285	-0.334
-265.267	419.028	-0.036	0.076
-264.253	800.000	-0.039	0.121
-263.238	-50.256	-0.210	0.098
-262.224	-111.497	0.283	0.057
-261.209	800.000	-0.053	0.166
-260.195	29.200	-0.190	-0.159
-259.180	408.223	0.082	-0.171
-258.165	26.110	-0.093	0.077
-257.151	651.550	0.025	-0.062
-256.136	200.449	0.163	0.248
-255.122	222.458	0.101	0.161
-254.107	-122.787	-0.290	0.046
-253.092	-37.892	0.396	0.208
-252.078	-200.000	-0.032	0.213
-251.063	135.560	-0.116	-0.150
-250.049	-74.362	0.159	0.057
-249.034	800.000	0.089	0.252
-248.019	-200.000	-0.057	0.282
-247.005	-200.000	-0.008	0.153
-245.990	45.371	-0.081	-0.074
-244.976	-41.317	0.190	-0.097
-243.961	-115.782	-0.055	0.010
-242.946	-200.000	0.005	-0.343
-241.932	-17.774	-0.127	-0.078
-240.917	-97.935	0.098	-0.025
-239.903	-200.000	0.002	0.090
-238.888	61.627	0.178	0.175
-237.873	253.599	-0.167	0.282
-236.859	-146.636	0.244	0.021
-235.844	305.663	-0.315	-0.577
-234.830	125.655	0.285	-0.355
-233.815	200.194	0.209	-0.317
-232.800	152.564	-0.235	0.317
-231.786	-200.000	0.007	0.217
-230.771	-200.000	0.014	-0.089
-229.757	51.001	-0.171	0.160
-228.742	800.000	-0.029	0.112
-227.727	-200.000	0.036	-0.170
-226.713	-76.549	-0.343	-0.119
-225.698	-194.587	0.353	-0.003
-224.684	61.276	0.179	-0.176
-223.669	20.797	0.232	-0.185
-222.655	32.236	0.291	0.248
-221.640	800.000	-0.004	-0.015
-220.625	-87.422	0.332	-0.099
-219.611	-27.197	0.144	0.083
-218.596	800.000	-0.072	0.201
-217.582	-200.000	0.004	-0.026
-216.567	-65.165	0.095	0.038
-215.552	359.470	0.201	-0.397
-214.538	-76.670	0.141	0.049
-213.523	278.125	0.147	0.257
-212.509	-200.000	0.013	-0.123
-211.494	0.044	0.065	-0.046
-210.479	366.987	-0.142	0.282
-209.465	-102.890	0.135	0.032
-208.450	2.274	0.290	0.206
-207.436	-95.804	0.487	0.128
-206.421	63.677	-0.020	0.020
-205.406	114.360	0.407	0.488
-204.392	-200.000	-0.050	-0.358
-203.377	679.459	-0.046	0.117
-202.363	-65.120	-0.354	-0.140
-201.348	118.895	-0.100	0.121
-200.333	-112.205	-0.331	-0.066
-199.319	-9.474	0.393	0.259
-198.304	-110.520	-0.098	-0.020
-197.290	249.023	-0.005	-0.009
-196.275	334.689	-0.096	0.183
-195.260	-118.461	0.158	0.028
-194.246	89.125	0.142	-0.156
-193.231	-85.078	-0.223	0.069
-192.217	-200.000	0.040	-0.426
-191.202	-115.454	0.112	-0.021
-190.187	156.405	0.256	-0.348
-189.173	-42.165	-0.117	0.059
-188.158	355.469	-0.003	0.005
-187.144	-200.000	0.010	-0.334
-186.129	-179.953	-0.239	0.005
-185.114	411.576	0.105	0.220
-184.100	800.000	0.076	-0.207
-183.085	-28.165	-0.114	0.065
-182.071	-200.000	-0.014	0.259
-181.056	800.000	0.039	0.129
-180.042	233.271	0.122	-0.198
-179.027	116.918	-0.119	-0.144
-178.012	10.742	0.187	-0.141
-176.998	206.243	0.067	0.102
-175.983	-147.968	0.106	-0.009
-174.969	-63.409	0.245	-0.099
-173.954	64.963	0.045	0.045
-172.939	1.801	0.251	0.178
-171.925	109.977	-0.256	0.302
-170.910	-63.661	0.059	-0.024
-169.896	89.378	0.042	-0.046
-168.881	-139.676	0.195	0.020
-167.866	284.457	-0.027	-0.048
-166.852	-200.000	0.013	-0.152
-165.837	-127.576	-0.238	-0.034
-164.823	-51.907	-0.192	0.088
-163.808	-138.779	-0.126	0.013
-162.793	-200.000	-0.022	0.163
-161.779	191.543	-0.053	-0.079
-160.764	-155.087	-0.160	0.010
-159.750	23.560	0.129	-0.104
-158.735	800.000	0.072	-0.253
-157.720	-62.516	0.197	-0.080
-156.706	-200.000	-0.020	-0.107
-155.691	176.257	-0.204	0.291
-154.677	-177.154	0.161	-0.004
-153.662	161.442	-0.102	-0.140
-152.647	432.617	-0.117	-0.250
-151.633	800.000	0.028	-0.086
-150.618	-103.386	0.188	-0.044
-149.604	-134.403	-0.308	-0.037
-148.589	800.000	-0.096	0.398
-147.574	800.000	0.045	0.195
-146.560	212.359	-0.102	0.158
-145.545	279.125	0.105	0.183
-144.531	-2.781	-0.060	-0.041
-143.516	-16.828	-0.198	0.123
-142.502	-83.551	-0.033	-0.010
-141.487	256.698	-0.075	0.127
-140.472	-9.097	-0.134	0.088
-139.458	-181.887	-0.236	0.004
-138.443	-200.000	-0.042	-0.253
-137.429	27.810	0.268	-0.222
-136.414	-200.000	-0.009	0.257
-135.399	631.604	-0.165	0.411
-134.385	21.455	-0.203	-0.162
-133.370	-118.663	0.156	0.027
-132.356	-58.121	0.092	-0.040
-131.341	-200.000	0.029	0.173
-130.326	800.000	-0.006	-0.018
-129.312	-24.140	0.103	-0.061
-128.297	114.234	-0.093	-0.111
-127.283	203.118	0.143	-0.217
-126.268	-200.000	0.001	0.020
-125.253	437.534	-0.101	0.215
-124.239	363.584	-0.049	0.097
-123.224	-200.000	-0.011	0.336
-122.210	-200.000	0.080	-0.361
-121.195	-94.913	0.244	-0.065
