DTS Sentinel unit serial number:	SN413079Multiplexer serial number:	ORYXHardware model number:	OX4-SRSoftware version number:	ORYX F/W v4.00 Oryx Data Collector v3.7.2.0data status	okinstallation	princeton_trtdifferential loss correction	single-endedforward channel	channel 1reverse channel	N/Adate	2019/09/18time	05:50:35forward acquisition time	60.00reverse acquisition time	0.00gamma	496.2192k internal	0.2340k external	0.2340temperature offset calibration	0.9981default loss term (dB/km)	0.3790temperature slope calibration	1.0000multiplexer offset coefficient	1.0000multiplexer slope coefficient	1.0000fibre end	0.00T internal ref (°C)	23.25T ext. ref 1 (°C)	0.19T ext. ref 2 (°C)	16.99length (m)	temperature (°C)	Stokes	anti-Stokes-747.200	405.938	0.036	-0.075
-746.185	-105.774	0.074	0.017
-745.171	-10.451	0.172	0.114
-744.156	173.255	-0.043	-0.063
-743.142	800.000	0.036	-0.142
-742.127	457.830	-0.061	0.136
-741.112	-57.486	-0.409	0.180
-740.098	18.606	-0.278	0.223
-739.083	392.552	0.041	0.085
-738.069	14.957	-0.209	0.164
-737.054	0.442	0.137	0.098
-736.039	-135.004	-0.298	-0.036
-735.025	67.455	0.047	0.048
-734.010	-200.000	-0.003	-0.213
-732.996	124.788	-0.127	-0.160
-731.981	239.871	-0.179	-0.298
-730.966	800.000	-0.130	-0.466
-729.952	9.841	0.149	-0.113
-728.937	-59.944	-0.316	0.135
-727.923	-200.000	0.057	-0.617
-726.908	800.000	-0.132	0.445
-725.894	-118.213	-0.132	0.024
-724.879	65.291	-0.335	0.339
-723.864	218.299	0.250	0.400
-722.850	292.056	0.091	-0.167
-721.835	-58.560	-0.480	-0.209
-720.821	-96.945	-0.261	-0.068
-719.806	-200.000	0.002	-0.262
-718.791	-161.002	-0.416	-0.022
-717.777	-49.602	-0.171	0.081
-716.762	-64.013	0.452	0.185
-715.748	-94.638	-0.326	0.089
-714.733	199.809	0.213	-0.328
-713.718	-54.071	0.348	0.159
-712.704	28.603	0.183	0.155
-711.689	-96.173	-0.287	0.076
-710.675	282.756	-0.167	0.301
-709.660	-200.000	0.029	0.244
-708.645	96.924	0.108	0.124
-707.631	-200.000	0.034	0.204
-706.616	-200.000	-0.010	0.349
-705.602	-32.609	0.273	0.152
-704.587	39.915	-0.039	-0.035
-703.572	-30.435	0.141	0.080
-702.558	2.207	-0.182	-0.131
-701.543	17.527	0.232	0.185
-700.529	-109.057	0.098	-0.021
-699.514	12.321	0.152	-0.117
-698.499	-200.000	0.045	0.570
-697.485	-117.312	0.164	0.030
-696.470	-105.056	-0.162	0.037
-695.456	800.000	0.036	0.150
-694.441	454.809	0.025	-0.056
-693.426	-59.208	-0.204	0.088
-692.412	-200.000	0.029	0.249
-691.397	98.297	0.116	0.134
-690.383	225.944	-0.095	0.155
-689.368	-200.000	-0.021	0.099
-688.354	179.015	0.156	0.228
-687.339	-200.000	0.004	-0.057
-686.324	-200.000	-0.080	-0.358
-685.310	107.477	0.070	-0.083
-684.295	539.954	-0.152	-0.362
-683.281	-69.507	-0.325	-0.125
-682.266	518.342	0.067	0.158
-681.251	203.776	0.112	0.173
-680.237	389.901	-0.023	0.047
-679.222	-32.843	-0.179	0.100
-678.208	180.253	-0.061	-0.090
-677.193	800.000	0.118	-0.341
-676.178	-111.257	0.328	-0.067
-675.164	-11.574	-0.145	0.095
-674.149	-9.090	-0.048	0.032
-673.135	400.468	-0.040	-0.083
-672.120	-139.387	0.261	-0.028
-671.105	-40.134	0.280	0.146
-670.091	800.000	0.045	0.171
-669.076	-80.805	-0.203	-0.068
-668.062	306.936	-0.029	0.054
-667.047	-77.753	-0.179	-0.062
-666.032	-23.564	-0.347	0.208
-665.018	800.000	0.024	0.068
-664.003	-56.564	0.320	0.142
-662.989	4.202	-0.164	-0.120
-661.974	185.605	0.097	-0.144
-660.959	-153.308	-0.103	-0.007
-659.945	-154.886	-0.255	-0.017
-658.930	800.000	0.038	-0.109
-657.916	800.000	0.023	-0.066
-656.901	-62.136	-0.106	0.044
-655.886	-200.000	0.049	-0.413
-654.872	-64.996	-0.129	-0.052
-653.857	-0.583	0.131	0.093
-652.843	-85.622	0.265	0.082
-651.828	-200.000	-0.076	-0.335
-650.814	-200.000	-0.031	0.288
-649.799	-50.577	-0.195	0.092
-648.784	-175.918	-0.072	0.002
-647.770	798.237	0.056	0.153
-646.755	-68.624	-0.306	-0.118
-645.741	-88.307	-0.255	-0.076
-644.726	-22.420	0.219	0.133
-643.711	266.333	-0.030	-0.052
-642.697	-127.968	0.112	-0.016
-641.682	-116.801	-0.233	0.043
-640.668	-119.031	0.299	0.052
-639.653	-107.507	-0.249	0.054
-638.638	489.656	0.102	0.233
-637.624	-172.731	0.263	-0.008
-636.609	-62.375	0.123	-0.051
-635.595	3.006	0.191	0.138
-634.580	394.023	0.118	-0.246
-633.565	-200.000	0.004	-0.313
-632.551	-29.527	-0.076	-0.043
-631.536	724.664	-0.149	-0.397
-630.522	-139.754	0.253	0.027
-629.507	532.155	-0.188	-0.444
-628.492	-137.877	-0.568	-0.063
-627.478	-168.558	-0.139	0.005
-626.463	800.000	-0.056	0.172
-625.449	28.635	-0.159	-0.134
-624.434	84.596	-0.124	-0.135
-623.419	155.660	0.085	-0.117
-622.405	800.000	-0.062	-0.252
-621.390	465.430	-0.031	0.070
-620.376	-111.198	0.229	0.047
-619.361	583.718	0.146	-0.359
-618.346	-149.859	-0.211	0.016
-617.332	-200.000	-0.013	0.260
-616.317	547.722	-0.089	0.213
-615.303	-200.000	0.003	-0.012
-614.288	-25.350	0.164	0.097
-613.273	800.000	-0.034	0.094
-612.259	-62.335	-0.183	0.076
-611.244	-141.462	0.345	0.035
-610.230	800.000	0.066	-0.211
-609.215	-41.367	0.235	-0.121
-608.201	74.796	-0.119	-0.125
-607.186	800.000	0.050	-0.173
-606.171	-97.309	0.219	-0.057
-605.157	-81.432	-0.507	0.167
-604.142	-200.000	-0.015	0.175
-603.128	11.674	-0.228	0.174
-602.113	237.968	0.097	0.161
-601.098	76.382	-0.012	-0.013
-600.084	800.000	-0.078	-0.265
-599.069	50.256	0.081	0.076
-598.055	701.454	0.093	-0.243
-597.040	-42.346	-0.345	-0.175
-596.025	155.445	0.205	-0.281
-595.011	-114.146	0.131	0.025
-593.996	-85.564	-0.292	0.090
-592.982	-200.000	0.011	0.345
-591.967	800.000	0.144	-0.410
-590.952	-200.000	0.012	0.349
-589.938	221.994	-0.285	0.457
-588.923	653.251	-0.162	-0.415
-587.909	800.000	-0.121	-0.462
-586.894	-200.000	-0.032	0.206
-585.879	243.694	-0.043	0.073
-584.865	207.272	-0.146	0.228
-583.850	231.535	0.115	0.187
-582.836	297.392	-0.153	-0.280
-581.821	-74.135	0.237	-0.086
-580.806	-2.078	-0.111	0.078
-579.792	-22.927	0.139	-0.083
-578.777	323.992	-0.241	-0.458
-577.763	16.441	0.225	-0.177
-576.748	-153.807	-0.182	0.012
-575.733	800.000	-0.060	-0.213
-574.719	-17.459	0.148	-0.093
-573.704	259.058	0.099	-0.171
-572.690	503.708	0.056	0.128
-571.675	339.214	0.179	-0.348
-570.661	-200.000	0.057	-0.320
-569.646	713.233	-0.101	-0.267
-568.631	-134.833	-0.406	0.049
-567.617	-163.943	-0.278	0.013
-566.602	153.638	0.117	0.160
-565.588	38.768	-0.273	0.242
-564.573	-114.298	0.493	-0.095
-563.558	-200.000	-0.018	0.143
-562.544	-167.750	0.032	-0.001
-561.529	11.317	0.162	-0.124
-560.515	204.768	0.251	-0.387
-559.500	142.105	-0.151	-0.199
-558.485	-97.983	-0.155	-0.040
-557.471	-130.657	-0.318	0.043
-556.456	-200.000	0.006	0.124
-555.442	-200.000	-0.008	-0.115
-554.427	800.000	-0.106	-0.309
-553.412	13.183	-0.072	-0.056
-552.398	252.047	0.106	-0.179
-551.383	800.000	0.032	0.139
-550.369	141.065	-0.193	0.255
-549.354	-44.652	0.179	0.089
-548.339	-36.234	0.217	0.117
-547.325	-66.946	0.370	0.145
-546.310	110.995	-0.149	0.179
-545.296	-70.858	0.267	0.100
-544.281	-14.054	-0.289	-0.186
-543.266	-73.943	-0.190	-0.069
-542.252	150.123	-0.145	0.196
-541.237	-1.815	-0.244	0.171
-540.223	109.437	-0.166	-0.198
-539.208	-14.510	-0.062	0.040
-538.193	27.858	0.286	0.240
-537.179	-26.150	-0.210	0.123
-536.164	142.128	0.161	-0.212
-535.150	411.381	-0.039	0.081
-534.135	121.413	-0.141	-0.174
-533.121	-65.161	-0.228	0.091
-532.106	314.870	-0.126	-0.236
-531.091	267.969	0.145	0.253
-530.077	-86.147	-0.139	-0.042
-529.062	47.453	0.223	0.207
-528.048	41.618	0.016	-0.015
-527.033	-38.373	0.316	0.166
-526.018	-104.027	-0.387	-0.090
-525.004	-114.727	-0.169	0.032
-523.989	0.513	-0.185	-0.131
-522.975	-93.416	-0.116	0.032
-521.960	14.223	0.249	-0.193
-520.945	477.833	-0.083	-0.188
-519.931	-40.373	0.223	0.115
-518.916	-43.781	0.105	0.053
-517.902	-200.000	-0.016	0.301
-516.887	-118.262	-0.155	-0.027
-515.872	-200.000	0.008	-0.207
-514.858	-25.997	0.027	-0.016
-513.843	-23.901	-0.156	0.093
-512.829	-32.931	-0.329	-0.181
-511.814	46.140	0.253	-0.233
-510.799	44.157	-0.082	-0.075
-509.785	174.764	0.133	0.191
-508.770	-115.516	-0.205	-0.038
-507.756	16.930	0.407	-0.320
-506.741	85.902	-0.335	0.366
-505.726	216.393	0.235	-0.371
-504.712	-57.633	0.392	-0.171
-503.697	42.503	-0.413	0.373
-502.683	-107.998	0.129	0.028
-501.668	-200.000	-0.006	-0.167
-500.653	800.000	-0.063	-0.238
-499.639	-154.219	-0.293	0.020
-498.624	-90.247	-0.143	0.041
-497.610	252.266	0.172	0.290
-496.595	326.962	0.033	-0.064
-495.581	37.031	0.176	-0.155
-494.566	65.840	-0.087	0.087
-493.551	800.000	-0.037	0.107
-492.537	800.000	-0.050	0.159
-491.522	489.452	0.065	0.148
-490.508	-200.000	-0.012	0.109
-489.493	-200.000	0.011	0.330
-488.478	-72.150	0.128	-0.047
-487.464	800.000	-0.073	-0.215
-486.449	800.000	0.062	-0.202
-485.435	-200.000	-0.005	0.190
-484.420	317.063	0.167	-0.314
-483.405	14.310	0.371	0.287
-482.391	800.000	0.037	0.116
-481.376	-53.516	-0.057	0.026
-480.362	-107.897	0.254	-0.055
-479.347	-144.666	0.324	-0.030
-478.332	-200.000	0.011	-0.172
-477.318	-160.969	0.172	0.009
-476.303	-200.000	-0.004	-0.080
-475.289	-91.980	-0.487	0.137
-474.274	-172.051	0.162	-0.005
-473.259	570.334	0.101	0.243
-472.245	800.000	-0.037	-0.131
-471.230	14.380	0.140	-0.108
-470.216	800.000	0.025	-0.107
-469.201	-18.542	-0.054	-0.034
-468.186	141.326	-0.143	-0.188
-467.172	800.000	-0.125	-0.464
-466.157	-137.287	-0.351	0.040
-465.143	-110.612	-0.241	-0.049
-464.128	-200.000	-0.009	0.296
-463.113	101.687	-0.301	-0.349
-462.099	-59.821	0.450	0.191
-461.084	-200.000	0.116	-0.529
-460.070	-91.399	0.245	-0.069
-459.055	-73.107	-0.343	0.125
-458.040	-200.000	0.007	-0.106
-457.026	66.296	-0.183	-0.184
-456.011	81.426	0.160	-0.171
-454.997	261.606	-0.217	0.373
-453.982	223.359	0.054	-0.086
-452.968	33.217	-0.198	-0.171
-451.953	-150.030	-0.227	-0.018
-450.938	-66.078	0.192	0.076
-449.924	-9.507	-0.408	0.270
-448.909	-8.971	0.149	0.099
-447.895	-200.000	-0.034	-0.183
-446.880	-90.392	-0.303	0.087
-445.865	30.316	0.375	-0.317
-444.851	-200.000	0.045	0.206
-443.836	-151.031	-0.405	0.030
-442.822	81.446	-0.293	0.314
-441.807	-200.000	0.007	0.125
-440.792	-102.510	-0.178	0.042
-439.778	-160.420	0.109	-0.006
-438.763	-88.114	0.247	0.073
-437.749	45.819	-0.150	-0.138
-436.734	-39.858	0.273	0.141
-435.719	-200.000	0.018	0.451
-434.705	320.476	0.112	-0.210
-433.690	-51.605	-0.370	-0.171
-432.676	-82.294	0.303	-0.098
-431.661	800.000	-0.063	0.228
-430.646	-136.210	0.436	-0.051
-429.632	-106.923	-0.103	0.023
-428.617	82.657	-0.260	0.280
-427.603	-91.465	0.214	-0.061
-426.588	-131.263	-0.215	0.028
-425.573	-79.307	0.130	0.044
-424.559	-200.000	-0.029	-0.305
-423.544	-69.715	-0.304	0.115
-422.530	119.912	0.112	-0.138
-421.515	-11.478	-0.104	0.068
-420.500	76.956	-0.259	-0.272
-419.486	-200.000	-0.026	0.152
-418.471	-67.904	0.336	-0.130
-417.457	-136.244	0.199	0.023
-416.442	800.000	0.046	0.192
-415.428	533.212	-0.010	-0.024
-414.413	515.039	-0.084	-0.193
-413.398	408.812	-0.158	-0.331
-412.384	-172.077	0.285	-0.009
-411.369	210.123	0.090	-0.140
-410.355	-183.129	0.054	-0.001
-409.340	-84.087	0.309	-0.097
-408.325	-200.000	-0.036	0.179
-407.311	-8.884	-0.091	0.060
-406.296	800.000	-0.043	-0.148
-405.282	-136.939	0.116	0.013
-404.267	-137.891	-0.041	0.005
-403.252	-200.000	0.031	0.161
-402.238	108.935	-0.147	0.174
-401.223	800.000	0.044	-0.171
-400.209	37.036	0.014	-0.012
-399.194	-16.404	0.217	-0.136
-398.179	303.830	0.093	0.170
-397.165	299.858	0.064	-0.117
-396.150	-17.940	0.251	0.156
-395.136	0.294	0.333	-0.235
-394.121	-50.369	-0.203	0.095
-393.106	-117.871	0.221	-0.039
-392.092	0.305	-0.181	-0.128
-391.077	-80.881	0.108	-0.035
-390.063	-200.000	0.010	-0.072
-389.048	-81.317	-0.449	-0.146
-388.033	800.000	-0.018	0.073
-387.019	-76.672	0.270	0.093
-386.004	69.012	0.198	0.202
-384.990	800.000	0.058	-0.219
-383.975	-200.000	-0.079	0.368
-382.960	154.964	-0.181	-0.245
-381.946	50.758	-0.298	-0.279
-380.931	46.963	0.158	-0.145
-379.917	-182.220	0.188	-0.003
-378.902	680.028	-0.048	0.124
-377.888	122.060	-0.231	0.285
-376.873	-131.723	-0.071	0.009
-375.858	452.786	-0.242	-0.528
-374.844	353.353	0.179	-0.352
-373.829	214.054	0.034	-0.053
-372.815	213.554	0.079	0.123
-371.800	-23.243	0.203	0.120
-370.785	-4.295	-0.346	-0.237
-369.771	38.486	0.048	-0.043
-368.756	-157.128	0.235	-0.014
-367.742	-179.740	0.282	0.006
-366.727	11.083	-0.182	-0.137
-365.712	-16.150	0.297	-0.186
-364.698	756.454	0.044	0.117
-363.683	-73.016	-0.116	0.042
-362.669	-91.737	0.310	0.087
-361.654	-63.392	-0.101	-0.041
-360.639	-46.789	0.154	-0.075
-359.625	-95.906	0.515	-0.136
-358.610	221.144	-0.219	-0.347
-357.596	-47.426	-0.299	0.144
-356.581	-52.942	0.127	-0.058
-355.566	-159.671	0.507	0.028
-354.552	53.778	-0.207	-0.196
-353.537	-200.000	0.087	0.421
-352.523	147.863	0.056	0.074
-351.508	-60.760	-0.175	0.073
-350.493	264.032	0.173	0.298
-349.479	136.356	-0.090	0.116
-348.464	-83.176	0.232	0.074
-347.450	-101.693	0.230	-0.055
-346.435	397.987	-0.143	0.296
-345.420	249.004	0.043	-0.072
-344.406	-48.690	-0.346	-0.164
-343.391	-200.000	0.027	-0.196
-342.377	-200.000	-0.077	0.449
-341.362	106.153	-0.246	0.287
-340.348	627.004	-0.108	-0.269
-339.333	239.018	-0.095	0.155
-338.318	19.049	0.072	-0.057
-337.304	-86.471	0.198	0.060
-336.289	-27.565	-0.242	0.139
-335.275	179.090	-0.038	-0.055
-334.260	-200.000	-0.019	-0.111
-333.245	-161.609	0.427	0.022
-332.231	-0.095	0.200	-0.141
-331.216	-147.750	0.181	0.015
-330.202	800.000	-0.080	0.252
-329.187	-53.096	-0.114	-0.052
-328.172	-35.872	0.065	0.035
-327.158	-84.701	-0.144	-0.045
-326.143	-20.410	-0.163	0.099
-325.129	262.023	0.088	0.151
-324.114	-140.079	-0.256	0.027
-323.099	-200.000	0.339	0.000
-322.085	76.627	-0.184	0.192
-321.070	-58.600	-0.147	0.063
-320.056	344.909	0.171	-0.331
-319.041	637.729	0.067	-0.169
-318.026	575.183	0.101	0.243
-317.012	73.357	0.211	0.218
-315.997	-141.151	-0.123	-0.012
-314.983	-0.632	-0.191	0.134
-313.968	182.026	0.134	0.194
-312.953	-70.187	0.159	-0.060
-311.939	-114.948	0.430	0.081
-310.924	-160.031	0.361	0.019
-309.910	-200.000	0.013	0.104
-308.895	-157.066	-0.113	0.007
-307.880	-138.606	-0.202	0.022
-306.866	-200.000	-0.054	0.350
-305.851	64.277	0.113	-0.112
-304.837	-2.318	0.118	-0.082
-303.822	-109.796	-0.047	0.010
-302.807	387.987	0.161	-0.328
-301.793	0.021	-0.210	0.148
-300.778	-200.000	0.056	-0.264
-299.764	-200.000	-0.035	0.224
-298.749	800.000	-0.057	-0.172
-297.735	133.946	-0.285	-0.364
-296.720	96.572	0.135	-0.152
-295.705	-98.146	0.071	0.018
-294.691	127.979	0.209	-0.262
-293.676	-73.124	-0.221	0.080
-292.662	153.369	-0.123	0.166
-291.647	-200.000	-0.069	-0.399
-290.632	139.217	-0.226	0.293
-289.618	86.200	0.151	-0.164
-288.603	6.070	-0.086	-0.063
-287.589	-200.000	0.040	0.277
-286.574	619.917	0.161	-0.398
-285.559	-170.889	0.186	-0.006
-284.545	-64.711	0.118	-0.047
-283.530	-83.693	-0.271	-0.085
-282.516	402.193	-0.171	-0.354
-281.501	-168.159	-0.337	0.013
-280.486	-58.378	0.354	0.151
-279.472	-30.504	-0.155	0.087
-278.457	-200.000	0.013	-0.222
-277.443	-80.951	-0.102	0.033
-276.428	-121.223	-0.238	0.039
-275.413	-16.475	-0.363	0.226
-274.399	290.332	-0.043	0.077
-273.384	-60.814	-0.109	-0.046
-272.370	-200.000	-0.005	0.394
-271.355	-56.711	-0.154	0.067
-270.340	21.923	-0.210	0.169
-269.326	-200.000	0.023	-0.127
-268.311	-111.936	0.299	0.059
-267.297	-121.007	0.233	-0.038
-266.282	-200.000	-0.014	-0.258
-265.267	-82.869	-0.262	0.083
-264.253	753.260	-0.023	-0.061
-263.238	328.277	0.130	0.246
-262.224	-200.000	-0.015	-0.301
-261.209	-200.000	-0.074	-0.326
-260.195	-106.871	0.197	0.043
-259.180	-176.001	0.394	-0.010
-258.165	-133.012	0.148	0.018
-257.151	261.132	0.095	0.162
-256.136	565.823	-0.108	0.258
-255.122	-200.000	-0.027	-0.124
-254.107	800.000	-0.073	0.226
-253.092	-67.147	0.359	0.139
-252.078	89.370	-0.128	0.140
-251.063	-144.595	-0.154	-0.014
-250.049	-200.000	-0.012	0.175
-249.034	9.546	0.248	0.185
-248.019	-158.269	-0.144	0.008
-247.005	145.101	0.062	-0.082
-245.990	-200.000	-0.040	-0.328
-244.976	-145.191	-0.036	0.003
-243.961	800.000	0.032	0.097
-242.946	-67.468	-0.172	-0.066
-241.932	-200.000	-0.027	-0.216
-240.917	96.357	-0.082	0.092
-239.903	195.958	-0.161	-0.240
-238.888	800.000	0.072	0.197
-237.873	-84.050	0.293	0.091
-236.859	-31.980	-0.172	-0.094
-235.844	3.644	-0.121	-0.087
-234.830	-12.305	0.085	0.055
-233.815	800.000	-0.060	0.252
-232.800	662.862	-0.111	0.282
-231.786	-200.000	-0.015	0.314
-230.771	16.033	0.107	0.082
-229.757	556.704	0.097	0.230
-228.742	800.000	0.026	0.075
-227.727	280.264	-0.190	-0.334
-226.713	168.484	-0.092	0.129
-225.698	124.580	-0.109	-0.135
-224.684	-98.582	0.314	0.079
-223.669	5.020	-0.138	0.100
-222.655	-200.000	0.042	-0.311
-221.640	800.000	-0.097	-0.363
-220.625	-127.988	0.590	-0.083
-219.611	-200.000	0.046	0.244
-218.596	95.018	0.174	0.195
-217.582	44.375	0.196	0.177
-216.567	-42.106	0.162	-0.082
-215.552	-200.000	0.000	-0.074
-214.538	352.573	0.078	-0.152
-213.523	-200.000	0.008	-0.055
-212.509	2.889	0.220	0.157
-211.494	-4.985	0.302	-0.205
-210.479	-28.317	0.286	0.162
-209.465	49.488	-0.145	0.134
-208.450	-200.000	0.010	-0.087
-207.436	217.520	-0.073	0.115
-206.421	-174.804	-0.119	-0.003
-205.406	-7.822	0.191	0.127
-204.392	800.000	0.050	0.174
-203.377	-175.900	-0.191	0.005
-202.363	-110.696	-0.328	-0.067
-201.348	305.954	0.111	0.204
-200.333	159.398	-0.142	0.193
-199.319	630.818	-0.105	-0.262
-198.304	-200.000	-0.005	0.068
-197.290	-174.308	-0.164	-0.005
-196.275	-34.655	0.013	-0.007
-195.260	-110.072	-0.083	-0.017
-194.246	335.871	0.065	0.123
-193.231	-17.368	0.215	0.133
-192.217	411.464	0.122	0.254
-191.202	-200.000	-0.003	0.266
-190.187	361.336	0.128	-0.252
-189.173	-48.759	0.114	-0.053
-188.158	-200.000	-0.029	0.133
-187.144	92.781	-0.085	0.094
-186.129	800.000	-0.054	0.190
-185.114	-200.000	-0.023	0.440
-184.100	-200.000	-0.028	0.178
-183.085	39.071	0.075	-0.065
-182.071	-5.121	-0.196	0.132
-181.056	-20.864	-0.194	-0.116
-180.042	-41.769	-0.105	0.053
-179.027	364.463	-0.056	-0.111
-178.012	579.947	0.142	-0.341
-176.998	-200.000	-0.019	0.160
-175.983	-200.000	0.001	-0.315
-174.969	-53.350	-0.213	0.096
-173.954	800.000	-0.088	0.239
-172.939	206.595	-0.164	0.251
-171.925	631.408	-0.089	0.221
-170.910	25.607	0.026	-0.021
-169.896	218.256	-0.076	0.119
-168.881	554.684	-0.230	0.543
-167.866	507.429	-0.118	-0.268
-166.852	-83.668	0.276	-0.086
-165.837	-182.045	0.191	0.004
-164.823	-33.739	0.208	-0.112
-163.808	800.000	-0.073	0.206
-162.793	-200.000	-0.026	0.318
-161.779	74.674	-0.005	-0.006
-160.764	-200.000	-0.003	-0.248
-159.750	131.381	0.094	0.118
-158.735	-96.567	0.312	-0.081
-157.720	800.000	-0.014	0.048
-156.706	155.467	-0.142	0.191
-155.691	240.164	-0.046	-0.076
-154.677	-77.866	0.419	0.142
-153.662	-200.000	-0.019	0.397
-152.647	217.229	-0.047	-0.074
-151.633	-200.000	-0.002	0.140
-150.618	-190.185	-0.186	0.002
-149.604	42.242	0.145	0.129
-148.589	-137.282	0.023	-0.003
-147.574	-142.485	-0.417	-0.040
-146.560	-14.892	-0.303	0.190
-145.545	556.698	0.051	-0.121
-144.531	62.255	-0.206	-0.201
-143.516	800.000	-0.162	0.530
-142.502	-11.432	0.223	-0.144
-141.487	-144.812	-0.046	0.004
-140.472	-200.000	0.015	0.097
-139.458	-200.000	0.083	0.438
-138.443	-200.000	-0.009	0.287
-137.429	215.295	-0.127	0.198
-136.414	-128.775	0.289	-0.040
-135.399	-200.000	-0.024	0.450
-134.385	-5.561	0.057	-0.038
-133.370	242.010	0.136	0.223
-132.356	388.204	-0.088	0.178
-131.341	1.360	0.188	0.132
-130.326	330.723	-0.191	0.360
-129.312	-15.024	-0.123	-0.077
-128.297	-82.002	0.196	0.063
-127.283	-200.000	-0.023	-0.140
-126.268	-125.941	-0.146	-0.022
-125.253	-90.699	-0.020	-0.006
-124.239	92.114	0.189	-0.208
-123.224	-200.000	-0.002	0.057
-122.210	557.969	0.128	-0.302
-121.195	153.597	0.089	-0.119
