DTS Sentinel unit serial number:	SN413079Multiplexer serial number:	ORYXHardware model number:	OX4-SRSoftware version number:	ORYX F/W v4.00 Oryx Data Collector v3.7.2.0data status	okinstallation	princeton_trtdifferential loss correction	single-endedforward channel	channel 1reverse channel	N/Adate	2019/09/13time	19:50:36forward acquisition time	60.00reverse acquisition time	0.00gamma	496.2192k internal	0.2328k external	0.2328temperature offset calibration	1.0096default loss term (dB/km)	0.3790temperature slope calibration	1.0000multiplexer offset coefficient	1.0000multiplexer slope coefficient	1.0000fibre end	0.00T internal ref (°C)	30.06T ext. ref 1 (°C)	3.36T ext. ref 2 (°C)	24.12length (m)	temperature (°C)	Stokes	anti-Stokes-747.200	109.907	-0.124	-0.149
-746.185	-122.231	0.453	0.075
-745.171	-40.375	-0.383	-0.200
-744.156	305.930	0.102	0.192
-743.142	641.139	-0.074	-0.189
-742.127	49.838	0.167	0.158
-741.112	67.297	-0.392	0.402
-740.098	-16.537	0.158	0.101
-739.083	800.000	0.038	-0.156
-738.069	-3.107	-0.200	-0.141
-737.054	96.705	-0.327	0.378
-736.039	29.517	-0.210	0.180
-735.025	-48.631	0.267	0.129
-734.010	437.250	-0.155	-0.341
-732.996	-168.352	0.105	-0.004
-731.981	-162.686	0.099	-0.005
-730.966	370.424	0.035	0.072
-729.952	-111.169	0.187	0.039
-728.937	-82.311	-0.298	-0.097
-727.923	-93.452	0.186	0.052
-726.908	-142.547	0.380	0.038
-725.894	201.115	-0.098	-0.151
-724.879	-138.620	-0.303	-0.033
-723.864	219.576	-0.094	0.151
-722.850	800.000	0.077	-0.261
-721.835	6.875	-0.345	-0.258
-720.821	-13.521	0.284	0.185
-719.806	48.486	-0.150	-0.141
-718.791	-51.041	0.146	-0.069
-717.777	508.348	0.112	-0.261
-716.762	-200.000	-0.055	-0.358
-715.748	-200.000	0.003	-0.189
-714.733	-119.421	0.375	-0.066
-713.718	99.770	-0.113	-0.132
-712.704	-55.238	0.030	-0.014
-711.689	-129.141	0.138	-0.019
-710.675	-26.471	0.211	0.125
-709.660	282.192	0.078	-0.141
-708.645	-97.090	-0.128	0.034
-707.631	-187.452	-0.054	-0.001
-706.616	-125.099	-0.242	-0.037
-705.602	35.924	-0.236	-0.209
-704.587	-121.877	-0.328	0.054
-703.572	193.205	-0.133	0.202
-702.558	94.049	0.219	0.250
-701.543	-177.711	0.445	-0.011
-700.529	-140.722	-0.158	-0.016
-699.514	-179.692	-0.116	0.003
-698.499	-200.000	-0.015	-0.161
-697.485	98.599	-0.035	0.040
-696.470	-165.783	-0.098	0.004
-695.456	-47.971	-0.068	0.033
-694.441	-148.434	0.300	0.025
-693.426	493.139	0.170	0.392
-692.412	-56.875	-0.226	-0.100
-691.397	-158.921	0.200	0.011
-690.383	800.000	0.076	-0.236
-689.368	-133.035	-0.070	-0.009
-688.354	-134.196	0.264	-0.033
-687.339	-200.000	0.030	0.179
-686.324	-162.298	-0.262	-0.013
-685.310	-6.440	-0.262	-0.179
-684.295	-200.000	-0.016	-0.321
-683.281	-36.526	-0.238	-0.129
-682.266	-151.937	-0.048	0.003
-681.251	-78.029	0.145	0.050
-680.237	-200.000	-0.001	0.243
-679.222	254.260	-0.134	0.230
-678.208	34.167	-0.161	0.141
-677.193	-75.671	-0.250	0.089
-676.178	800.000	-0.029	0.099
-675.164	-20.130	-0.198	0.123
-674.149	339.974	-0.106	0.208
-673.135	-104.021	-0.271	-0.064
-672.120	484.683	0.091	-0.208
-671.105	-13.706	0.086	0.056
-670.091	-157.978	0.116	-0.007
-669.076	115.212	-0.242	-0.297
-668.062	240.361	-0.115	0.192
-667.047	-132.074	0.452	-0.059
-666.032	-200.000	0.017	0.225
-665.018	-124.326	0.368	0.058
-664.003	-200.000	0.002	-0.068
-662.989	-68.762	-0.379	-0.147
-661.974	133.797	0.183	0.238
-660.959	634.860	0.007	-0.019
-659.945	-1.595	-0.231	0.163
-658.930	-87.113	-0.181	-0.055
-657.916	-200.000	-0.012	-0.234
-656.901	-200.000	-0.011	-0.163
-655.886	-200.000	0.017	0.112
-654.872	-35.012	0.156	0.085
-653.857	99.547	-0.314	-0.364
-652.843	-200.000	-0.001	-0.076
-651.828	163.325	-0.119	-0.169
-650.814	-117.752	0.288	-0.052
-649.799	-123.051	-0.183	-0.029
-648.784	800.000	-0.010	-0.029
-647.770	-160.901	0.369	-0.020
-646.755	-107.548	0.241	0.053
-645.741	-200.000	0.034	-0.308
-644.726	-200.000	0.047	-0.289
-643.711	401.780	-0.134	-0.282
-642.697	-200.000	-0.016	0.084
-641.682	-68.589	0.096	-0.037
-640.668	-78.312	-0.141	0.049
-639.653	75.101	-0.131	-0.139
-638.638	-138.519	-0.217	-0.024
-637.624	-10.068	-0.197	-0.132
-636.609	-200.000	-0.031	0.186
-635.595	-200.000	-0.069	0.479
-634.580	97.802	-0.121	-0.140
-633.565	-145.254	0.154	-0.014
-632.551	-200.000	0.024	0.163
-631.536	-12.720	-0.230	0.151
-630.522	-98.748	-0.396	-0.101
-629.507	-157.841	-0.261	-0.016
-628.492	26.263	-0.243	-0.204
-627.478	-31.560	0.240	0.136
-626.463	-73.770	0.557	0.203
-625.449	-169.320	0.183	0.007
-624.434	-200.000	-0.052	-0.232
-623.419	-56.136	-0.231	0.103
-622.405	25.134	-0.234	0.195
-621.390	-82.872	-0.234	-0.076
-620.376	-15.218	-0.141	-0.091
-619.361	90.006	-0.191	-0.214
-618.346	-13.416	0.137	0.089
-617.332	-200.000	-0.039	-0.172
-616.317	-200.000	0.013	-0.140
-615.303	-200.000	-0.006	-0.039
-614.288	-200.000	-0.010	-0.216
-613.273	196.211	0.111	-0.169
-612.259	-151.975	0.368	0.027
-611.244	219.651	0.148	0.237
-610.230	64.683	0.034	-0.034
-609.215	-66.390	-0.064	0.025
-608.201	-200.000	-0.027	-0.263
-607.186	40.546	-0.208	0.188
-606.171	-0.757	-0.065	0.046
-605.157	-139.244	0.174	0.019
-604.142	-200.000	-0.018	0.123
-603.128	227.740	-0.132	0.216
-602.113	88.277	0.355	-0.395
-601.098	122.273	0.176	-0.221
-600.084	-171.849	0.177	0.006
-599.069	-200.000	0.002	-0.231
-598.055	23.639	-0.127	0.105
-597.040	-138.309	0.062	0.007
-596.025	34.244	0.182	-0.159
-595.011	146.325	-0.263	0.353
-593.996	-200.000	-0.016	0.072
-592.982	-200.000	0.018	-0.448
-591.967	-14.909	-0.121	-0.078
-590.952	-166.305	-0.248	-0.010
-589.938	-28.673	-0.311	-0.179
-588.923	73.117	-0.148	-0.155
-587.909	-131.421	-0.301	0.040
-586.894	112.498	-0.095	-0.115
-585.879	-110.936	-0.306	-0.063
-584.865	-133.538	-0.182	0.023
-583.850	800.000	-0.064	0.258
-582.836	565.650	0.115	0.280
-581.821	-200.000	0.012	-0.289
-580.806	123.833	-0.088	0.111
-579.792	-53.575	-0.298	-0.137
-578.777	-200.000	-0.047	-0.238
-577.763	-79.959	-0.098	0.033
-576.748	462.217	-0.085	-0.189
-575.733	-200.000	-0.002	0.222
-574.719	-22.727	0.081	0.049
-573.704	800.000	0.033	-0.143
-572.690	234.874	-0.094	-0.156
-571.675	-200.000	0.002	0.058
-570.661	800.000	0.050	-0.180
-569.646	-20.120	0.349	0.215
-568.631	-23.689	0.101	0.061
-567.617	744.680	0.075	-0.202
-566.602	93.953	0.286	-0.324
-565.588	-89.042	-0.322	0.095
-564.573	93.794	0.154	0.175
-563.558	85.309	0.073	-0.081
-562.544	574.855	0.097	0.236
-561.529	-143.875	0.115	0.011
-560.515	-33.577	0.340	0.188
-559.500	800.000	0.049	-0.162
-558.485	136.779	0.090	-0.118
-557.471	-13.875	-0.337	-0.218
-556.456	15.725	-0.070	0.055
-555.442	519.137	-0.023	0.053
-554.427	-9.871	-0.034	-0.022
-553.412	140.691	0.254	-0.335
-552.398	-19.783	0.224	0.138
-551.383	-27.402	0.293	-0.170
-550.369	185.104	-0.221	0.328
-549.354	-200.000	-0.018	-0.178
-548.339	-79.669	0.266	0.090
-547.325	-154.817	0.337	0.022
-546.310	-200.000	-0.052	-0.271
-545.296	-200.000	-0.040	-0.223
-544.281	-58.049	0.248	0.108
-543.266	58.579	0.100	-0.098
-542.252	344.294	0.085	0.166
-541.237	-139.640	-0.135	0.014
-540.223	-200.000	0.328	0.001
-539.208	-83.025	-0.311	-0.100
-538.193	-165.176	-0.220	-0.010
-537.179	-178.676	0.058	-0.001
-536.164	155.693	0.041	0.057
-535.150	329.478	0.131	0.252
-534.135	770.911	-0.047	0.128
-533.121	110.612	-0.036	0.043
-532.106	-52.298	0.217	-0.101
-531.091	123.787	-0.066	0.082
-530.077	104.096	-0.062	-0.073
-529.062	625.697	0.054	0.137
-528.048	-182.859	-0.095	0.002
-527.033	17.870	-0.047	0.037
-526.018	-107.858	0.261	0.057
-525.004	-106.310	-0.113	0.025
-523.989	-37.711	-0.047	-0.025
-522.975	-200.000	-0.005	-0.142
-521.960	0.586	0.220	0.157
-520.945	420.446	-0.052	0.111
-519.931	251.172	0.190	-0.322
-518.916	231.351	0.013	0.021
-517.902	500.872	0.141	0.325
-516.887	-12.955	-0.260	-0.169
-515.872	-200.000	0.018	-0.370
-514.858	-200.000	-0.018	-0.252
-513.843	51.223	-0.077	-0.073
-512.829	-92.039	0.502	0.142
-511.814	77.881	0.218	0.232
-510.799	275.809	-0.090	0.159
-509.785	-46.766	0.134	-0.065
-508.770	210.205	-0.183	0.287
-507.756	-200.000	0.018	-0.160
-506.741	-200.000	0.016	-0.126
-505.726	443.251	0.077	-0.169
-504.712	-53.466	0.026	0.012
-503.697	44.219	-0.136	0.124
-502.683	226.799	0.171	0.277
-501.668	800.000	-0.089	0.385
-500.653	761.703	-0.052	0.141
-499.639	136.580	-0.123	0.160
-498.624	-85.073	0.277	0.086
-497.610	800.000	0.073	-0.250
-496.595	-143.460	0.279	0.027
-495.581	-23.880	0.074	-0.044
-494.566	800.000	-0.063	-0.235
-493.551	-132.038	-0.413	-0.054
-492.537	1.663	-0.243	0.175
-491.522	-200.000	0.018	0.262
-490.508	-70.670	0.174	-0.066
-489.493	-147.617	0.149	-0.013
-488.478	800.000	0.034	0.099
-487.464	353.236	0.074	0.146
-486.449	-122.759	0.119	-0.019
-485.435	-61.584	0.168	0.070
-484.420	-180.027	0.196	-0.004
-483.405	423.504	0.111	0.239
-482.391	0.161	-0.131	-0.093
-481.376	61.546	0.168	-0.167
-480.362	334.968	0.055	-0.105
-479.347	-8.443	-0.328	-0.220
-478.332	-152.635	-0.021	0.001
-477.318	-171.235	-0.148	0.005
-476.303	60.669	-0.194	-0.192
-475.289	800.000	-0.040	-0.151
-474.274	-200.000	0.020	0.206
-473.259	748.850	0.100	0.270
-472.245	-115.848	0.096	0.018
-471.230	800.000	-0.063	0.182
-470.216	-29.364	-0.338	0.193
-469.201	-165.062	0.126	-0.006
-468.186	-200.000	0.005	-0.036
-467.172	395.735	-0.149	-0.311
-466.157	517.099	-0.189	-0.439
-465.143	1.386	0.125	0.090
-464.128	-15.244	-0.340	-0.216
-463.113	256.035	0.208	0.356
-462.099	-151.676	0.364	-0.027
-461.084	-200.000	0.011	-0.123
-460.070	449.558	0.044	-0.098
-459.055	238.363	0.060	0.100
-458.040	655.612	-0.056	0.143
-457.026	-200.000	-0.025	-0.246
-456.011	188.122	-0.135	0.202
-454.997	-66.379	0.312	-0.124
-453.982	323.852	0.051	0.096
-452.968	-98.582	0.233	-0.059
-451.953	-200.000	-0.033	-0.161
-450.938	89.263	-0.051	-0.057
-449.924	-127.261	0.328	0.048
-448.909	177.442	0.097	0.141
-447.895	-90.659	-0.014	0.004
-446.880	800.000	-0.061	-0.203
-445.865	-200.000	-0.020	0.191
-444.851	-200.000	0.003	0.185
-443.836	800.000	0.086	0.245
-442.822	-200.000	-0.012	-0.085
-441.807	-114.204	-0.189	0.036
-440.792	144.530	-0.183	-0.243
-439.778	-200.000	0.022	0.250
-438.763	-90.347	0.059	0.017
-437.749	-200.000	-0.027	0.121
-436.734	800.000	0.003	0.009
-435.719	121.356	0.036	0.045
-434.705	-162.451	-0.218	-0.011
-433.690	-200.000	0.011	0.075
-432.676	-85.415	-0.097	-0.030
-431.661	800.000	0.054	0.197
-430.646	-125.212	0.145	-0.022
-429.632	20.353	-0.153	0.123
-428.617	-36.965	-0.196	0.105
-427.603	-122.913	0.745	0.120
-426.588	8.583	0.137	0.103
-425.573	211.146	0.043	0.068
-424.559	-86.952	-0.232	-0.070
-423.544	-6.641	-0.356	0.241
-422.530	-200.000	0.009	-0.090
-421.515	-118.151	-0.220	0.039
-420.500	259.164	0.224	0.384
-419.486	-114.175	-0.192	0.037
-418.471	-32.150	0.174	0.097
-417.457	-95.848	0.208	-0.055
-416.442	280.649	-0.146	0.259
-415.428	-84.578	-0.062	-0.020
-414.413	302.310	0.081	0.149
-413.398	155.512	-0.180	-0.247
-412.384	129.319	-0.280	-0.355
-411.369	800.000	-0.081	-0.229
-410.355	-200.000	0.035	0.170
-409.340	511.001	0.062	-0.144
-408.325	-23.709	0.175	0.104
-407.311	180.486	0.055	0.080
-406.296	192.311	-0.090	0.135
-405.282	532.173	-0.042	0.098
-404.267	-96.065	-0.058	-0.015
-403.252	-100.693	-0.323	-0.079
-402.238	737.845	-0.073	-0.195
-401.223	-66.776	0.092	0.036
-400.209	214.864	-0.069	-0.108
-399.194	-171.276	-0.312	0.010
-398.179	-56.920	-0.419	0.184
-397.165	91.034	0.017	-0.019
-396.150	10.129	-0.165	0.124
-395.136	800.000	0.028	-0.123
-394.121	172.080	-0.090	-0.129
-393.106	-200.000	-0.021	-0.342
-392.092	-49.673	0.115	0.054
-391.077	-64.733	-0.433	0.174
-390.063	-200.000	-0.016	-0.164
-389.048	-121.979	-0.222	0.036
-388.033	-41.185	0.244	-0.125
-387.019	162.206	-0.134	-0.187
-386.004	275.807	-0.151	-0.266
-384.990	30.250	0.218	0.185
-383.975	-119.070	0.404	0.070
-382.960	-67.348	0.186	0.073
-381.946	-75.292	-0.278	-0.099
-380.931	-106.881	0.361	-0.079
-379.917	-133.049	-0.425	0.054
-378.902	-100.709	0.139	0.034
-377.888	-130.410	0.456	0.061
-376.873	-6.759	0.111	-0.075
-375.858	402.725	-0.194	0.405
-374.844	41.429	0.209	-0.188
-373.829	81.319	0.191	0.205
-372.815	-94.319	0.206	-0.056
-371.800	800.000	0.021	-0.059
-370.785	-62.069	0.184	0.076
-369.771	-51.708	-0.426	-0.197
-368.756	800.000	0.083	-0.244
-367.742	628.540	0.114	-0.285
-366.727	-143.063	-0.130	0.012
-365.712	-200.000	0.023	0.212
-364.698	-68.021	-0.339	0.131
-363.683	-78.097	-0.250	0.085
-362.669	98.993	-0.090	-0.103
-361.654	-93.325	0.310	-0.085
-360.639	482.583	0.037	0.084
-359.625	35.440	-0.368	-0.321
-358.610	-3.177	0.178	-0.123
-357.596	-200.000	-0.013	0.086
-356.581	-200.000	-0.014	0.120
-355.566	-144.510	0.196	-0.018
-354.552	-141.021	0.364	0.037
-353.537	14.098	-0.353	0.273
-352.523	-69.005	-0.111	-0.042
-351.508	-85.981	-0.321	-0.099
-350.493	557.341	0.108	0.258
-349.479	-55.434	-0.107	0.048
-348.464	251.037	-0.150	-0.253
-347.450	800.000	-0.028	0.113
-346.435	-28.218	0.277	0.159
-345.420	-141.793	-0.213	0.021
-344.406	37.416	-0.077	-0.068
-343.391	-181.748	-0.175	-0.003
-342.377	800.000	0.026	0.108
-341.362	-200.000	-0.010	-0.148
-340.348	20.913	0.015	-0.012
-339.333	492.928	-0.067	-0.152
-338.318	-200.000	0.042	-0.206
-337.304	-111.615	0.052	0.010
-336.289	48.298	-0.255	-0.237
-335.275	79.732	-0.071	-0.075
-334.260	125.721	0.037	0.047
-333.245	262.073	0.067	0.115
-332.231	-181.773	0.110	0.002
-331.216	228.972	-0.245	0.397
-330.202	37.499	-0.221	-0.194
-329.187	-64.503	0.060	-0.024
-328.172	20.849	0.257	0.206
-327.158	-63.275	-0.175	-0.072
-326.143	120.558	0.162	0.200
-325.129	-44.861	0.192	0.095
-324.114	58.896	0.107	0.104
-323.099	-31.180	0.209	0.116
-322.085	-59.801	-0.247	-0.105
-321.070	-200.000	0.014	0.178
-320.056	653.314	0.147	0.373
-319.041	-12.348	0.059	-0.038
-318.026	11.176	0.340	0.258
-317.012	-81.736	-0.178	-0.058
-315.997	436.973	0.152	0.328
-314.983	-200.000	0.133	0.605
-313.968	0.661	0.096	0.068
-312.953	5.435	0.169	0.124
-311.939	165.058	-0.062	-0.086
-310.924	-200.000	-0.123	-0.559
-309.910	349.538	-0.014	-0.028
-308.895	508.945	-0.074	-0.169
-307.880	-30.838	0.350	0.196
-306.866	800.000	-0.061	0.223
-305.851	110.577	-0.046	0.054
-304.837	601.337	0.083	-0.204
-303.822	14.551	-0.210	-0.162
-302.807	225.601	-0.112	-0.179
-301.793	742.963	-0.053	0.140
-300.778	98.723	-0.112	0.129
-299.764	38.209	0.076	-0.067
-298.749	-142.920	-0.124	-0.012
-297.735	222.163	-0.196	-0.313
-296.720	-200.000	0.008	-0.389
-295.705	-156.767	-0.182	-0.011
-294.691	800.000	-0.098	0.303
-293.676	-110.603	-0.062	-0.013
-292.662	164.685	0.055	-0.077
-291.647	-200.000	-0.006	0.066
-290.632	-70.226	0.242	0.091
-289.618	-29.848	-0.278	-0.157
-288.603	-72.364	0.400	0.146
-287.589	-167.131	0.200	0.008
-286.574	-16.730	-0.134	0.084
-285.559	-48.098	-0.157	0.075
-284.545	42.381	0.167	0.150
-283.530	55.042	0.008	0.008
-282.516	-44.397	0.200	0.099
-281.501	122.002	-0.086	0.106
-280.486	15.765	0.143	0.111
-279.472	95.573	-0.100	0.113
-278.457	-72.149	-0.076	-0.028
-277.443	274.335	-0.038	0.067
-276.428	-200.000	0.024	0.123
-275.413	796.658	0.098	-0.268
-274.399	-200.000	-0.020	-0.140
-273.384	5.737	-0.132	-0.097
-272.370	-95.877	-0.198	0.052
-271.355	-21.843	0.056	0.034
-270.340	-200.000	-0.023	0.147
-269.326	34.651	-0.165	-0.143
-268.311	-112.992	-0.155	-0.030
-267.297	43.618	-0.320	-0.290
-266.282	800.000	0.147	0.415
-265.267	-200.000	-0.018	-0.252
-264.253	101.950	-0.017	0.020
-263.238	212.480	-0.122	0.190
-262.224	-159.494	0.182	0.010
-261.209	800.000	-0.058	-0.219
-260.195	-200.000	0.035	-0.411
-259.180	-200.000	-0.016	-0.430
-258.165	-97.604	0.165	0.042
-257.151	105.009	0.026	0.030
-256.136	800.000	0.065	-0.187
-255.122	-20.674	-0.126	0.076
-254.107	329.039	0.032	0.060
-253.092	-16.913	-0.190	0.119
-252.078	-14.996	0.198	-0.125
-251.063	611.095	-0.129	-0.319
-250.049	224.508	0.087	-0.139
-249.034	204.685	0.145	0.222
-248.019	-200.000	0.013	0.250
-247.005	109.390	-0.222	-0.263
-245.990	-1.341	-0.156	0.109
-244.976	29.346	-0.140	-0.118
-243.961	-149.167	0.254	0.020
-242.946	237.330	-0.123	-0.201
-241.932	-200.000	0.051	0.263
-240.917	800.000	-0.090	0.381
-239.903	-200.000	0.013	-0.367
-238.888	-92.168	-0.144	-0.040
-237.873	17.807	0.193	-0.151
-236.859	47.277	-0.153	0.141
-235.844	405.929	-0.062	-0.130
-234.830	-130.885	0.092	-0.012
-233.815	39.573	-0.170	-0.150
-232.800	-95.946	0.068	0.018
-231.786	621.445	0.025	-0.063
-230.771	-93.128	0.086	0.024
-229.757	-9.590	-0.123	0.081
-228.742	-143.539	0.298	-0.028
-227.727	-200.000	-0.008	-0.071
-226.713	-200.000	-0.036	0.449
-225.698	-200.000	-0.008	0.059
-224.684	-157.773	0.281	-0.016
-223.669	-115.006	0.065	-0.012
-222.655	800.000	0.127	0.359
-221.640	-11.801	-0.123	-0.080
-220.625	-56.018	-0.325	0.143
-219.611	-114.709	0.231	0.044
-218.596	103.719	-0.147	0.170
-217.582	800.000	-0.081	-0.306
-216.567	-116.841	-0.112	0.020
-215.552	181.049	-0.254	-0.368
-214.538	-36.505	0.282	-0.150
-213.523	3.962	-0.036	-0.026
-212.509	800.000	0.097	0.279
-211.494	559.884	0.086	-0.205
-210.479	45.044	-0.126	0.115
-209.465	-200.000	0.025	-0.127
-208.450	-60.320	0.424	0.178
-207.436	256.013	0.298	-0.504
-206.421	18.918	0.326	-0.257
-205.406	-30.792	-0.256	-0.143
-204.392	-2.936	-0.257	-0.177
-203.377	-200.000	-0.027	0.285
-202.363	800.000	-0.040	-0.111
-201.348	292.570	0.081	0.146
-200.333	-120.795	0.272	-0.045
-199.319	800.000	-0.003	-0.014
-198.304	-94.995	0.301	-0.080
-197.290	-76.535	-0.213	0.074
-196.275	-200.000	0.020	0.090
-195.260	-155.492	0.113	0.007
-194.246	-66.703	-0.056	0.022
-193.231	-17.646	-0.244	-0.151
-192.217	-91.008	-0.133	-0.038
-191.202	-62.501	-0.144	-0.059
-190.187	-136.226	-0.443	-0.051
-189.173	800.000	0.004	-0.012
-188.158	-200.000	-0.007	0.046
-187.144	251.882	-0.154	-0.258
-186.129	34.979	0.205	-0.177
-185.114	-53.322	0.078	0.035
-184.100	480.520	0.138	0.309
-183.085	128.601	-0.119	-0.149
-182.071	800.000	-0.055	0.153
-181.056	-200.000	-0.016	0.163
-180.042	800.000	-0.044	0.189
-179.027	-163.980	0.202	-0.009
-178.012	-170.844	0.246	0.008
-176.998	800.000	-0.069	0.225
-175.983	-200.000	-0.006	-0.238
-174.969	36.009	0.039	-0.034
-173.954	-28.155	0.389	0.222
-172.939	-200.000	-0.022	-0.191
-171.925	-200.000	-0.017	-0.114
-170.910	-16.090	0.224	0.140
-169.896	82.650	0.105	-0.112
-168.881	-200.000	-0.007	0.087
-167.866	-18.839	0.237	-0.145
-166.852	58.480	0.075	0.073
-165.837	97.738	0.081	0.092
-164.823	-43.720	-0.251	0.125
-163.808	-20.972	0.103	0.062
-162.793	717.727	0.136	0.355
-161.779	-46.368	-0.118	-0.057
-160.764	73.091	-0.141	0.145
-159.750	281.770	0.103	0.182
-158.735	-160.504	-0.416	0.022
-157.720	800.000	-0.015	0.063
-156.706	-126.425	0.517	0.076
-155.691	-60.820	-0.159	0.066
-154.677	196.514	0.131	-0.196
-153.662	-200.000	-0.004	-0.047
-152.647	-82.145	-0.101	0.032
-151.633	674.999	-0.117	0.300
-150.618	-23.200	0.119	0.071
-149.604	82.481	0.179	-0.191
-148.589	-89.612	-0.046	0.013
-147.574	-200.000	0.019	-0.306
-146.560	-200.000	0.016	0.140
-145.545	800.000	0.050	0.158
-144.531	-86.135	0.319	-0.097
-143.516	-33.288	-0.200	0.109
-142.502	219.580	0.142	-0.224
-141.487	-75.908	-0.372	-0.130
-140.472	462.225	-0.043	-0.095
-139.458	331.335	-0.110	-0.209
-138.443	80.270	0.061	-0.064
-137.429	527.290	0.130	0.301
-136.414	167.531	0.146	0.204
-135.399	405.931	-0.050	-0.105
-134.385	800.000	0.006	0.026
-133.370	204.914	0.192	0.293
-132.356	285.489	0.116	0.206
-131.341	26.709	0.219	-0.180
-130.326	-152.158	-0.111	0.008
-129.312	-0.122	-0.162	0.113
-128.297	-111.055	0.038	0.008
-127.283	-30.938	-0.152	-0.084
-126.268	-83.976	0.165	0.052
-125.253	-200.000	0.035	0.238
-124.239	49.591	-0.161	-0.149
-123.224	38.554	-0.338	0.297
-122.210	-78.970	0.037	-0.013
