DTS Sentinel unit serial number:	SN413079Multiplexer serial number:	ORYXHardware model number:	OX4-SRSoftware version number:	ORYX F/W v4.00 Oryx Data Collector v3.7.2.0data status	okinstallation	princeton_trtdifferential loss correction	single-endedforward channel	channel 1reverse channel	N/Adate	2019/09/15time	04:54:35forward acquisition time	60.00reverse acquisition time	0.00gamma	496.2192k internal	0.2324k external	0.2324temperature offset calibration	1.0002default loss term (dB/km)	0.3790temperature slope calibration	1.0000multiplexer offset coefficient	1.0000multiplexer slope coefficient	1.0000fibre end	0.00T internal ref (°C)	30.75T ext. ref 1 (°C)	4.83T ext. ref 2 (°C)	25.23length (m)	temperature (°C)	Stokes	anti-Stokes-747.200	-142.486	0.268	-0.027
-746.185	-22.264	0.112	0.068
-745.171	510.227	-0.032	0.075
-744.156	-200.000	-0.001	0.467
-743.142	-200.000	0.021	-0.118
-742.127	218.029	0.091	0.146
-741.112	-200.000	0.012	-0.085
-740.098	800.000	-0.055	0.190
-739.083	-86.097	-0.168	0.052
-738.069	-131.803	-0.186	-0.025
-737.054	564.724	0.100	-0.244
-736.039	-200.000	-0.076	-0.359
-735.025	-112.685	0.413	-0.083
-734.010	800.000	0.096	0.290
-732.996	-135.685	0.121	0.014
-731.981	62.497	-0.076	-0.077
-730.966	598.067	-0.034	-0.086
-729.952	252.130	0.056	-0.096
-728.937	88.659	-0.096	-0.108
-727.923	-96.069	0.197	0.053
-726.908	-64.746	-0.183	-0.075
-725.894	-117.446	-0.278	0.051
-724.879	211.983	-0.234	-0.372
-723.864	312.024	0.073	-0.138
-722.850	-136.565	0.261	0.030
-721.835	11.480	-0.092	0.071
-720.821	27.876	0.111	-0.095
-719.806	93.773	-0.183	0.209
-718.791	-47.066	-0.228	-0.112
-717.777	181.278	-0.040	-0.059
-716.762	2.655	-0.284	-0.208
-715.748	-83.191	-0.267	0.087
-714.733	-16.585	-0.209	0.134
-713.718	800.000	0.028	-0.078
-712.704	-113.395	-0.246	0.049
-711.689	-200.000	-0.418	0.000
-710.675	-51.465	-0.287	0.135
-709.660	-200.000	-0.024	0.107
-708.645	-81.650	0.172	0.057
-707.631	362.151	0.169	-0.342
-706.616	800.000	0.086	0.294
-705.602	-80.736	-0.400	0.134
-704.587	-1.967	-0.142	-0.100
-703.572	67.143	-0.022	0.023
-702.558	-200.000	-0.009	-0.052
-701.543	-45.657	0.179	-0.089
-700.529	7.487	-0.104	-0.079
-699.514	-10.719	-0.032	0.022
-698.499	16.576	-0.125	-0.099
-697.485	98.469	0.162	0.188
-696.470	-88.831	-0.307	0.092
-695.456	-58.881	-0.251	-0.109
-694.441	-90.958	0.110	-0.032
-693.426	-200.000	0.042	0.308
-692.412	-34.362	0.083	0.046
-691.397	-63.018	0.115	0.048
-690.383	31.513	-0.293	0.253
-689.368	-79.179	0.163	-0.056
-688.354	33.605	0.183	-0.160
-687.339	-200.000	0.020	0.530
-686.324	333.653	-0.034	-0.066
-685.310	466.524	-0.189	-0.426
-684.295	800.000	-0.024	-0.083
-683.281	284.219	-0.162	-0.293
-682.266	87.426	0.030	0.033
-681.251	-104.445	-0.250	0.058
-680.237	800.000	-0.036	0.121
-679.222	-117.517	-0.297	-0.054
-678.208	-176.548	-0.228	-0.006
-677.193	-136.818	0.099	0.012
-676.178	800.000	-0.022	-0.096
-675.164	72.991	-0.215	-0.226
-674.149	-145.057	-0.340	-0.031
-673.135	800.000	0.051	-0.187
-672.120	175.255	-0.109	-0.158
-671.105	-89.129	0.047	-0.014
-670.091	800.000	-0.062	0.185
-669.076	50.911	-0.221	-0.211
-668.062	119.960	-0.281	-0.351
-667.047	124.338	0.196	-0.248
-666.032	115.954	0.046	-0.057
-665.018	225.784	-0.209	-0.341
-664.003	-99.789	-0.396	-0.100
-662.989	197.453	-0.010	0.015
-661.974	-200.000	-0.030	0.174
-660.959	418.922	-0.070	0.151
-659.945	26.903	0.162	0.137
-658.930	155.468	-0.078	-0.108
-657.916	287.930	-0.031	0.056
-656.901	-200.000	-0.009	0.148
-655.886	52.794	0.048	-0.046
-654.872	25.732	-0.029	0.024
-653.857	-63.683	-0.151	-0.062
-652.843	800.000	-0.029	-0.088
-651.828	-5.477	-0.142	-0.098
-650.814	-78.605	-0.062	0.021
-649.799	-57.805	0.116	-0.051
-648.784	-200.000	0.004	-0.143
-647.770	800.000	-0.012	-0.033
-646.755	-200.000	0.062	-0.407
-645.741	-95.352	0.461	-0.125
-644.726	-19.954	-0.160	0.100
-643.711	497.839	-0.132	-0.306
-642.697	747.861	-0.047	-0.128
-641.682	-70.341	-0.405	0.154
-640.668	800.000	0.156	-0.449
-639.653	-111.035	0.554	0.114
-638.638	522.570	-0.097	0.229
-637.624	429.878	-0.084	-0.182
-636.609	86.421	-0.094	-0.104
-635.595	-139.533	0.168	0.018
-634.580	-86.266	-0.089	-0.028
-633.565	-200.000	-0.083	0.385
-632.551	-158.148	0.221	-0.013
-631.536	57.210	-0.107	-0.105
-630.522	-35.961	-0.245	0.133
-629.507	-200.000	0.002	-0.078
-628.492	-78.957	-0.157	0.054
-627.478	-166.176	0.350	0.015
-626.463	-5.083	0.186	-0.129
-625.449	-49.883	-0.226	-0.108
-624.434	6.469	-0.212	0.159
-623.419	800.000	0.020	0.058
-622.405	-200.000	0.029	-0.350
-621.390	-200.000	-0.073	-0.338
-620.376	63.651	-0.262	0.264
-619.361	-116.431	-0.124	0.023
-618.346	386.456	-0.076	0.157
-617.332	-93.051	-0.128	-0.036
-616.317	-68.483	0.142	-0.055
-615.303	57.338	-0.277	0.271
-614.288	36.055	-0.091	0.080
-613.273	-200.000	-0.037	0.178
-612.259	46.377	0.272	-0.253
-611.244	7.606	-0.183	-0.138
-610.230	-114.467	0.300	0.058
-609.215	93.806	-0.168	-0.191
-608.201	420.596	-0.116	-0.250
-607.186	-200.000	-0.062	0.282
-606.171	-115.702	-0.429	0.081
-605.157	-200.000	0.005	0.032
-604.142	-122.602	-0.109	-0.018
-603.128	59.589	0.051	-0.050
-602.113	-57.211	0.179	0.079
-601.098	-103.701	0.304	0.071
-600.084	800.000	0.084	0.233
-599.069	85.924	0.063	0.069
-598.055	800.000	0.047	0.152
-597.040	-37.429	0.173	-0.093
-596.025	-200.000	-0.011	0.093
-595.011	76.421	0.398	-0.423
-593.996	33.657	0.215	-0.188
-592.982	-200.000	0.032	-0.394
-591.967	-200.000	0.037	-0.186
-590.952	-107.333	0.019	0.004
-589.938	-118.622	0.190	0.034
-588.923	-200.000	0.005	-0.077
-587.909	93.894	-0.138	-0.157
-586.894	414.534	0.116	0.247
-585.879	-165.962	-0.075	0.003
-584.865	-54.777	-0.331	-0.150
-583.850	20.355	0.047	0.038
-582.836	11.440	-0.199	-0.153
-581.821	131.389	0.116	-0.149
-580.806	-10.396	0.097	0.064
-579.792	-73.348	0.038	-0.014
-578.777	-77.525	-0.166	-0.058
-577.763	-84.029	0.193	-0.062
-576.748	30.478	0.153	-0.131
-575.733	526.853	-0.049	-0.117
-574.719	-82.880	0.165	-0.053
-573.704	800.000	-0.044	0.181
-572.690	389.663	0.067	0.138
-571.675	-200.000	0.050	-0.274
-570.661	-126.438	-0.245	-0.036
-569.646	107.601	-0.121	0.144
-568.631	800.000	-0.125	-0.429
-567.617	800.000	0.023	0.076
-566.602	8.911	-0.142	0.108
-565.588	-200.000	-0.001	-0.074
-564.573	58.697	-0.125	-0.123
-563.558	360.659	0.050	0.100
-562.544	46.173	0.116	0.108
-561.529	-12.664	0.135	-0.088
-560.515	83.402	-0.141	0.154
-559.500	-56.175	0.278	-0.124
-558.485	116.417	0.012	0.014
-557.471	600.463	0.047	0.118
-556.456	597.929	0.088	-0.218
-555.442	273.088	0.184	0.325
-554.427	-37.113	-0.081	-0.043
-553.412	37.013	-0.114	-0.101
-552.398	-51.905	0.130	-0.061
-551.383	800.000	-0.070	0.197
-550.369	-53.455	0.104	-0.047
-549.354	-72.768	0.059	0.022
-548.339	-200.000	-0.006	-0.159
-547.325	94.806	0.122	-0.139
-546.310	-61.308	-0.314	0.132
-545.296	-200.000	-0.022	0.147
-544.281	89.363	-0.241	0.268
-543.266	-2.710	0.112	0.078
-542.252	23.505	-0.303	0.249
-541.237	-80.922	0.009	-0.003
-540.223	157.019	-0.112	0.155
-539.208	-200.000	0.006	0.292
-538.193	-10.266	0.195	-0.130
-537.179	-22.997	-0.235	0.142
-536.164	-149.148	0.314	-0.025
-535.150	-200.000	-0.042	0.189
-534.135	401.686	0.238	-0.500
-533.121	234.725	-0.202	-0.333
-532.106	-96.239	-0.347	-0.092
-531.091	-29.082	0.318	-0.183
-530.077	-129.151	-0.366	0.051
-529.062	-200.000	0.029	0.359
-528.048	-200.000	0.006	0.213
-527.033	-15.214	0.169	0.108
-526.018	266.800	0.109	-0.191
-525.004	-87.518	-0.370	0.112
-523.989	-74.350	-0.211	-0.076
-522.975	169.349	-0.058	-0.082
-521.960	-148.400	0.256	-0.021
-520.945	-187.136	-0.266	0.004
-519.931	-43.922	0.170	-0.086
-518.916	800.000	-0.071	0.217
-517.902	197.179	0.133	0.203
-516.887	-123.444	-0.422	0.067
-515.872	56.820	-0.064	-0.062
-514.858	17.654	0.065	0.051
-513.843	203.264	-0.143	-0.221
-512.829	32.721	0.310	0.268
-511.814	231.846	0.159	0.261
-510.799	-91.970	0.405	-0.115
-509.785	-200.000	-0.007	0.064
-508.770	-200.000	-0.051	-0.259
-507.756	-131.880	-0.318	-0.042
-506.741	-19.358	0.162	0.101
-505.726	19.401	0.059	-0.048
-504.712	-54.015	-0.084	-0.038
-503.697	-200.000	0.001	0.325
-502.683	-72.891	0.116	-0.043
-501.668	800.000	-0.057	-0.244
-500.653	-5.149	-0.136	0.093
-499.639	-200.000	-0.042	-0.280
-498.624	-100.816	-0.230	-0.057
-497.610	151.693	-0.082	-0.112
-496.595	-7.349	0.319	0.216
-495.581	-39.905	-0.254	0.133
-494.566	-140.592	0.117	-0.012
-493.551	-95.890	-0.118	0.031
-492.537	-34.151	-0.155	-0.085
-491.522	-96.371	-0.227	-0.060
-490.508	240.924	-0.067	0.111
-489.493	48.891	0.081	0.076
-488.478	27.279	-0.110	0.092
-487.464	-200.000	0.022	-0.317
-486.449	-72.769	-0.094	-0.035
-485.435	69.373	0.153	0.157
-484.420	318.176	0.171	0.323
-483.405	90.952	-0.197	0.220
-482.391	12.821	-0.195	-0.150
-481.376	-37.428	-0.151	0.081
-480.362	-22.151	0.318	0.193
-479.347	-153.911	-0.290	0.020
-478.332	-148.159	-0.085	-0.007
-477.318	-26.719	-0.380	0.222
-476.303	37.390	-0.063	-0.056
-475.289	-200.000	-0.009	0.127
-474.274	422.614	0.052	0.111
-473.259	-192.078	-0.205	0.002
-472.245	-123.497	0.241	-0.038
-471.230	-68.411	0.288	-0.112
-470.216	132.797	-0.160	-0.206
-469.201	-38.861	-0.262	-0.138
-468.186	234.483	0.076	-0.125
-467.172	-72.708	-0.289	-0.106
-466.157	10.046	-0.117	0.089
-465.143	474.912	-0.040	0.091
-464.128	102.122	0.175	0.203
-463.113	-96.563	-0.176	-0.046
-462.099	-200.000	0.029	-0.288
-461.084	-200.000	0.035	-0.312
-460.070	-123.883	-0.231	0.036
-459.055	-57.717	0.076	0.033
-458.040	466.724	0.023	-0.051
-457.026	35.063	-0.341	-0.298
-456.011	269.431	-0.098	-0.172
-454.997	262.755	0.168	-0.292
-453.982	254.166	-0.109	0.187
-452.968	19.603	-0.323	0.260
-451.953	-76.866	-0.107	-0.037
-450.938	143.932	0.253	0.337
-449.924	800.000	-0.026	0.073
-448.909	-24.816	0.085	-0.050
-447.895	-142.267	-0.329	-0.032
-446.880	-41.163	-0.114	0.059
-445.865	-96.634	0.269	-0.071
-444.851	800.000	-0.105	0.436
-443.836	-62.555	0.373	0.154
-442.822	-138.666	0.191	-0.021
-441.807	-144.534	-0.287	-0.026
-440.792	-75.306	-0.095	-0.034
-439.778	-200.000	-0.035	-0.406
-438.763	108.790	0.233	-0.277
-437.749	-47.887	0.085	-0.041
-436.734	-34.384	0.115	0.063
-435.719	63.328	0.178	-0.178
-434.705	-200.000	-0.022	0.390
-433.690	-200.000	0.015	-0.255
-432.676	-110.369	0.018	-0.004
-431.661	43.299	0.090	0.082
-430.646	-85.743	-0.254	0.078
-429.632	485.183	-0.074	-0.168
-428.617	41.789	-0.128	-0.116
-427.603	343.745	-0.131	-0.255
-426.588	-57.109	0.212	0.093
-425.573	600.229	-0.091	0.224
-424.559	-59.198	0.284	-0.122
-423.544	-200.000	-0.029	0.311
-422.530	-106.630	0.340	0.075
-421.515	-46.483	-0.092	-0.045
-420.500	68.399	-0.166	-0.169
-419.486	800.000	0.016	-0.056
-418.471	118.592	0.258	0.317
-417.457	9.727	-0.090	-0.068
-416.442	-200.000	-0.004	0.348
-415.428	85.392	0.109	-0.119
-414.413	-53.500	-0.275	-0.126
-413.398	-66.516	-0.210	0.083
-412.384	45.182	0.083	-0.076
-411.369	800.000	0.040	-0.142
-410.355	19.730	-0.006	-0.005
-409.340	628.518	0.131	-0.331
-408.325	638.216	0.077	-0.196
-407.311	69.335	0.136	-0.139
-406.296	116.269	-0.116	-0.141
-405.282	90.236	0.206	-0.229
-404.267	-200.000	-0.092	-0.552
-403.252	124.086	0.294	0.367
-402.238	185.566	-0.100	-0.148
-401.223	-90.304	-0.575	0.166
-400.209	82.859	0.136	-0.147
-399.194	21.245	-0.183	-0.148
-398.179	-134.639	0.324	-0.039
-397.165	800.000	0.070	-0.301
-396.150	800.000	0.056	-0.234
-395.136	-17.846	-0.077	-0.048
-394.121	-200.000	-0.034	0.178
-393.106	-102.766	-0.293	0.070
-392.092	158.804	0.246	0.340
-391.077	-197.132	-0.080	-0.001
-390.063	349.778	-0.285	0.561
-389.048	-92.717	-0.222	-0.062
-388.033	-35.386	0.429	0.232
-387.019	119.692	-0.062	-0.077
-386.004	-83.869	0.183	0.058
-384.990	-200.000	0.018	0.175
-383.975	506.897	0.088	0.202
-382.960	-91.763	0.117	0.033
-381.946	-146.059	0.209	-0.018
-380.931	-192.324	0.261	0.002
-379.917	125.339	-0.101	-0.127
-378.902	176.508	-0.065	0.094
-377.888	-100.214	0.296	-0.073
-376.873	268.589	0.139	-0.242
-375.858	-200.000	-0.046	0.261
-374.844	301.013	0.115	0.212
-373.829	-8.605	-0.060	-0.040
-372.815	800.000	-0.041	-0.169
-371.800	-200.000	0.017	0.157
-370.785	-200.000	0.052	0.309
-369.771	283.891	0.124	-0.221
-368.756	-173.018	-0.215	0.007
-367.742	-100.033	-0.290	0.072
-366.727	-129.476	0.188	0.026
-365.712	356.454	-0.122	0.242
-364.698	110.943	-0.122	0.146
-363.683	-113.200	-0.181	0.036
-362.669	800.000	-0.070	0.221
-361.654	-59.463	0.294	0.126
-360.639	319.151	0.037	-0.070
-359.625	-33.131	-0.242	0.133
-358.610	225.150	-0.083	-0.133
-357.596	494.155	-0.145	0.332
-356.581	-50.298	-0.122	0.057
-355.566	62.199	0.071	0.071
-354.552	-156.975	-0.040	-0.002
-353.537	-194.625	0.232	0.002
-352.523	46.754	-0.170	-0.157
-351.508	-173.064	0.351	0.011
-350.493	101.740	-0.122	-0.142
-349.479	-94.693	0.096	-0.026
-348.464	-200.000	0.054	-0.399
-347.450	293.193	-0.071	-0.129
-346.435	-182.255	0.276	-0.005
-345.420	733.885	0.042	0.113
-344.406	-122.385	-0.264	0.043
-343.391	-143.081	0.222	-0.021
-342.377	2.902	-0.084	-0.060
-341.362	60.398	0.053	0.052
-340.348	-95.072	0.072	0.019
-339.333	-32.072	-0.145	-0.080
-338.318	173.414	-0.099	0.141
-337.304	84.564	0.186	0.202
-336.289	-200.000	-0.011	-0.104
-335.275	-54.465	-0.516	-0.232
-334.260	0.052	-0.146	-0.104
-333.245	592.947	0.088	0.215
-332.231	57.588	0.284	-0.276
-331.216	-128.128	0.294	0.042
-330.202	13.385	-0.068	0.053
-329.187	48.756	0.070	-0.065
-328.172	-45.643	0.252	0.124
-327.158	283.182	0.044	-0.079
-326.143	-200.000	0.012	0.236
-325.129	-146.269	0.200	0.017
-324.114	-93.445	0.325	0.089
-323.099	-132.902	0.163	-0.021
-322.085	800.000	0.112	0.390
-321.070	21.267	-0.325	0.262
-320.056	-8.259	-0.157	0.105
-319.041	-16.830	0.431	0.271
-318.026	281.714	0.150	-0.267
-317.012	800.000	-0.041	0.136
-315.997	455.501	0.096	0.210
-314.983	-200.000	0.001	-0.141
-313.968	442.498	-0.169	0.367
-312.953	-200.000	-0.010	0.063
-311.939	-114.864	0.069	-0.013
-310.924	800.000	-0.085	0.311
-309.910	-81.008	0.171	-0.056
-308.895	800.000	0.073	-0.253
-307.880	31.111	-0.172	-0.147
-306.866	632.795	0.062	0.155
-305.851	93.759	-0.234	0.263
-304.837	-101.402	-0.311	-0.075
-303.822	-200.000	-0.002	0.198
-302.807	-108.969	-0.426	-0.090
-301.793	-98.301	0.088	0.023
-300.778	62.683	-0.064	0.064
-299.764	-115.328	0.430	-0.081
-298.749	265.163	0.164	0.283
-297.735	355.349	-0.107	0.212
-296.720	112.012	0.199	0.239
-295.705	-135.198	0.251	-0.030
-294.691	298.699	0.135	-0.247
-293.676	-138.028	-0.330	0.036
-292.662	-177.895	-0.161	-0.004
-291.647	238.463	0.080	-0.132
-290.632	800.000	-0.086	-0.325
-289.618	-9.684	-0.092	0.061
-288.603	800.000	0.041	0.163
-287.589	107.445	-0.162	-0.191
-286.574	9.444	0.128	-0.096
-285.559	156.082	-0.217	0.296
-284.545	-41.357	0.274	0.140
-283.530	-140.237	-0.185	0.019
-282.516	-200.000	-0.027	-0.166
-281.501	-52.194	-0.089	0.041
-280.486	104.800	-0.126	0.148
-279.472	161.349	0.098	-0.135
-278.457	401.869	0.141	0.293
-277.443	794.600	0.205	0.558
-276.428	188.056	-0.103	0.153
-275.413	-107.786	0.261	-0.056
-274.399	-116.573	-0.176	0.032
-273.384	-7.872	0.105	0.070
-272.370	-145.907	0.216	-0.019
-271.355	-200.000	-0.002	0.234
-270.340	800.000	-0.107	-0.308
-269.326	-56.747	0.201	0.088
-268.311	-200.000	0.017	0.097
-267.297	57.259	-0.196	0.190
-266.282	-165.607	-0.066	0.003
-265.267	124.537	-0.155	-0.193
-264.253	-19.124	0.122	-0.075
-263.238	35.945	0.425	0.371
-262.224	20.783	0.088	0.070
-261.209	652.444	0.090	-0.228
-260.195	135.194	0.191	-0.246
-259.180	-64.538	0.292	-0.117
-258.165	800.000	0.068	0.260
-257.151	-68.240	-0.159	0.061
-256.136	-200.000	-0.010	-0.104
-255.122	-82.904	-0.449	0.144
-254.107	20.877	0.229	0.184
-253.092	-200.000	-0.008	0.125
-252.078	-200.000	0.029	0.231
-251.063	543.210	0.153	-0.362
-250.049	23.518	-0.256	-0.209
-249.034	800.000	-0.017	-0.055
-248.019	97.969	0.024	-0.027
-247.005	465.443	0.104	-0.231
-245.990	-200.000	-0.038	-0.210
-244.976	612.053	0.062	-0.152
-243.961	-60.171	0.337	-0.142
-242.946	-33.837	-0.312	-0.170
-241.932	-192.541	0.351	-0.003
-240.917	-57.982	-0.187	-0.081
-239.903	-103.922	0.233	-0.054
-238.888	-200.000	0.071	-0.510
-237.873	770.941	0.083	-0.225
-236.859	800.000	0.032	0.112
-235.844	-200.000	-0.004	0.255
-234.830	-200.000	0.030	0.136
-233.815	-200.000	-0.024	0.310
-232.800	563.986	-0.088	-0.210
-231.786	445.740	0.050	-0.108
-230.771	-93.827	-0.200	0.055
-229.757	7.047	0.262	-0.193
-228.742	-200.000	-0.093	0.463
-227.727	-146.965	-0.243	0.021
-226.713	174.535	0.131	0.187
-225.698	-200.000	-0.062	-0.268
-224.684	173.276	0.048	0.068
-223.669	-200.000	-0.003	-0.152
-222.655	641.742	-0.171	0.430
-221.640	54.515	-0.049	0.047
-220.625	103.609	0.114	0.132
-219.611	-200.000	0.004	-0.283
-218.596	800.000	-0.069	-0.230
-217.582	-128.741	0.168	-0.023
-216.567	-137.670	-0.381	0.042
-215.552	800.000	-0.042	-0.135
-214.538	755.631	0.152	0.406
-213.523	6.564	-0.163	0.120
-212.509	800.000	0.062	-0.202
-211.494	-72.545	-0.258	-0.094
-210.479	-41.027	-0.176	-0.090
-209.465	40.359	-0.098	-0.087
-208.450	464.326	-0.093	-0.206
-207.436	-200.000	-0.015	-0.072
-206.421	29.003	0.056	-0.047
-205.406	20.978	0.079	0.063
-204.392	800.000	-0.037	-0.143
-203.377	16.930	-0.342	0.268
-202.363	0.915	0.321	-0.227
-201.348	-200.000	0.002	-0.176
-200.333	-200.000	-0.009	-0.058
-199.319	147.055	0.069	0.092
-198.304	800.000	-0.046	-0.146
-197.290	800.000	0.047	-0.137
-196.275	-11.560	-0.303	-0.197
-195.260	388.805	0.062	0.126
-194.246	49.151	0.151	-0.141
-193.231	-165.089	-0.245	0.011
-192.217	-86.903	0.216	0.065
-191.202	-13.631	0.161	-0.103
-190.187	-112.869	0.044	-0.009
-189.173	374.980	0.034	0.069
-188.158	112.656	-0.214	0.256
-187.144	-73.402	-0.200	0.072
-186.129	-200.000	-0.013	-0.141
-185.114	800.000	0.046	-0.130
-184.100	-38.498	0.217	0.113
-183.085	-77.429	0.193	-0.066
-182.071	800.000	0.023	0.064
-181.056	-69.211	-0.282	0.107
-180.042	-200.000	0.017	0.093
-179.027	800.000	-0.034	0.123
-178.012	-80.930	-0.205	-0.067
-176.998	28.769	-0.102	-0.086
-175.983	53.193	-0.095	0.090
-174.969	116.243	0.068	-0.083
-173.954	298.331	0.019	0.034
-172.939	220.487	0.202	-0.320
-171.925	-200.000	-0.032	-0.162
-170.910	-9.403	0.112	0.074
-169.896	86.619	-0.055	-0.060
-168.881	335.273	-0.117	-0.225
-167.866	-200.000	-0.005	0.061
-166.852	288.281	-0.110	0.197
-165.837	40.240	0.297	-0.264
-164.823	-42.474	0.204	-0.102
-163.808	229.526	0.046	0.075
-162.793	-92.820	0.049	0.013
-161.779	43.182	0.035	-0.031
-160.764	-193.568	-0.381	-0.003
-159.750	17.834	0.217	-0.170
-158.735	-200.000	0.023	0.260
-157.720	186.345	0.064	-0.094
-156.706	-79.112	-0.029	0.010
-155.691	800.000	0.072	0.279
-154.677	800.000	-0.020	0.070
-153.662	800.000	0.048	0.132
-152.647	-47.306	0.122	0.059
-151.633	800.000	0.063	-0.232
-150.618	-200.000	0.023	0.257
-149.604	39.084	-0.087	-0.076
-148.589	-200.000	-0.050	0.319
-147.574	-63.149	0.144	0.058
-146.560	-60.575	0.420	0.176
-145.545	527.791	-0.069	-0.161
-144.531	-102.807	-0.125	-0.029
-143.516	-55.028	-0.255	0.113
-142.502	680.985	0.145	-0.372
-141.487	800.000	-0.081	0.231
-140.472	-72.659	-0.151	0.055
-139.458	800.000	-0.049	-0.179
-138.443	-94.294	-0.285	-0.077
-137.429	-19.580	-0.105	-0.064
-136.414	568.496	-0.067	0.160
-135.399	800.000	0.054	0.180
-134.385	-160.872	0.124	0.006
-133.370	-157.840	-0.179	-0.010
-132.356	14.968	0.280	-0.216
-131.341	-49.288	0.306	0.144
-130.326	17.329	-0.132	0.103
-129.312	481.370	0.125	0.280
-128.297	552.878	-0.064	0.151
-127.283	-75.485	-0.171	-0.060
-126.268	-54.957	-0.176	-0.078
-125.253	-3.313	-0.117	-0.081
-124.239	-58.191	0.440	-0.189
-123.224	5.458	0.326	-0.237
-122.210	51.427	0.119	-0.111
-121.195	165.425	-0.252	0.351
