DTS Sentinel unit serial number:	SN413079Multiplexer serial number:	ORYXHardware model number:	OX4-SRSoftware version number:	ORYX F/W v4.00 Oryx Data Collector v3.7.2.0data status	okinstallation	princeton_trtdifferential loss correction	single-endedforward channel	channel 1reverse channel	N/Adate	2019/09/12time	19:07:34forward acquisition time	15.00reverse acquisition time	0.00gamma	496.2192k internal	0.2320k external	0.2320temperature offset calibration	1.0115default loss term (dB/km)	0.3790temperature slope calibration	1.0000multiplexer offset coefficient	1.0000multiplexer slope coefficient	1.0000fibre end	0.00T internal ref (°C)	32.62T ext. ref 1 (°C)	3.18T ext. ref 2 (°C)	27.26length (m)	temperature (°C)	Stokes	anti-Stokes-747.200	103.740	-0.271	0.322
-746.185	800.000	-0.159	0.648
-745.171	-47.036	-0.486	0.240
-744.156	355.111	-0.156	0.314
-743.142	-58.443	-0.260	0.114
-742.127	280.073	0.475	-0.858
-741.112	80.730	0.104	-0.113
-740.098	800.000	0.185	0.579
-739.083	-61.876	0.491	-0.208
-738.069	-47.288	-0.551	0.271
-737.054	-21.265	0.464	-0.287
-736.039	-200.000	0.021	0.211
-735.025	608.676	-0.120	0.303
-734.010	183.863	-0.633	-0.946
-732.996	-44.463	-0.642	0.325
-731.981	35.342	-0.289	0.256
-730.966	-173.349	-0.811	-0.025
-729.952	-163.767	0.454	0.022
-728.937	798.353	-0.096	-0.269
-727.923	18.102	0.248	0.200
-726.908	-68.806	0.163	0.064
-725.894	-200.000	0.118	0.578
-724.879	-69.588	0.104	0.040
-723.864	226.136	-0.291	-0.477
-722.850	-70.153	0.212	0.081
-721.835	17.911	-0.142	-0.115
-720.821	66.903	-0.229	0.236
-719.806	12.545	0.487	-0.380
-718.791	182.758	0.791	-1.179
-717.777	-200.000	-0.009	0.059
-716.762	52.852	0.505	0.488
-715.748	11.902	-0.460	0.357
-714.733	-5.995	-0.445	-0.308
-713.718	292.786	-0.338	-0.622
-712.704	-80.107	0.608	-0.206
-711.689	-169.329	0.445	0.017
-710.675	-149.531	-0.317	0.025
-709.660	-200.000	-0.000	-0.554
-708.645	202.609	0.670	-1.045
-707.631	800.000	-0.266	0.760
-706.616	-46.071	0.278	0.138
-705.602	-200.000	-0.013	-0.277
-704.587	290.984	0.259	-0.475
-703.572	223.717	0.289	-0.471
-702.558	123.054	-0.471	0.596
-701.543	-32.073	-0.362	-0.204
-700.529	772.982	0.080	0.220
-699.514	-180.649	0.701	0.015
-698.499	118.498	-0.203	-0.252
-697.485	480.390	0.079	0.182
-696.470	-200.000	-0.036	0.457
-695.456	207.254	0.118	-0.186
-694.441	443.128	-0.048	0.107
-693.426	800.000	0.047	-0.179
-692.412	71.545	-0.345	-0.362
-691.397	757.602	0.167	-0.457
-690.383	19.934	-0.227	-0.185
-689.368	177.152	0.488	-0.717
-688.354	194.630	-0.299	-0.457
-687.339	800.000	-0.145	-0.474
-686.324	-200.000	-0.053	-0.484
-685.310	295.260	-0.299	0.553
-684.295	800.000	0.074	0.224
-683.281	-153.167	-0.232	0.016
-682.266	-83.513	-0.603	0.195
-681.251	68.124	-0.150	0.155
-680.237	-60.859	0.534	-0.228
-679.222	-16.487	-0.581	-0.371
-678.208	-200.000	-0.429	0.001
-677.193	291.572	0.364	-0.667
-676.178	-200.000	0.047	0.288
-675.164	452.809	-0.302	-0.674
-674.149	294.388	-0.409	0.755
-673.135	-94.378	-0.797	-0.219
-672.120	158.484	-0.092	0.129
-671.105	56.850	0.425	-0.418
-670.091	-45.444	0.526	0.263
-669.076	-0.002	0.384	-0.276
-668.062	-33.024	-0.229	-0.128
-667.047	13.431	0.129	0.101
-666.032	-200.000	0.054	-0.709
-665.018	-146.008	0.765	-0.068
-664.003	-86.304	-0.734	-0.228
-662.989	44.829	-0.411	0.382
-661.974	161.240	-0.212	0.299
-660.959	-26.208	-0.510	0.302
-659.945	-156.571	-0.716	0.045
-658.930	-40.999	-0.541	0.282
-657.916	171.589	0.409	0.593
-656.901	-118.881	0.465	-0.082
-655.886	-74.455	-0.387	0.141
-654.872	800.000	0.283	-0.904
-653.857	1.296	0.587	0.425
-652.843	-200.000	0.051	-0.616
-651.828	-111.436	-0.506	-0.104
-650.814	-200.000	-0.250	-0.001
-649.799	-42.615	0.594	0.305
-648.784	800.000	-0.100	0.402
-647.770	-200.000	-0.156	-0.864
-646.755	-27.857	-0.979	-0.572
-645.741	48.557	0.610	0.576
-644.726	-200.000	0.002	0.131
-643.711	-200.000	0.015	0.597
-642.697	774.074	-0.316	0.869
-641.682	-200.000	0.017	0.213
-640.668	677.064	0.390	1.020
-639.653	-83.091	-0.269	-0.087
-638.638	-33.623	0.284	-0.158
-637.624	-100.942	0.607	-0.150
-636.609	130.587	-0.996	1.286
-635.595	124.475	0.486	0.616
-634.580	800.000	-0.049	0.207
-633.565	-137.669	0.587	-0.067
-632.551	800.000	-0.096	-0.356
-631.536	-133.505	-0.546	0.069
-630.522	800.000	-0.124	-0.496
-629.507	-200.000	0.068	-0.449
-628.492	-200.000	0.094	0.605
-627.478	800.000	-0.176	0.500
-626.463	-153.965	-0.634	0.043
-625.449	-200.000	0.073	0.573
-624.434	-125.090	-0.586	-0.091
-623.419	232.044	0.205	-0.338
-622.405	29.207	-0.402	-0.344
-621.390	40.843	-0.551	-0.500
-620.376	19.243	0.656	0.530
-619.361	-200.000	0.018	0.617
-618.346	-64.143	1.383	0.568
-617.332	188.734	0.271	-0.409
-616.317	238.445	0.187	-0.312
-615.303	-118.782	0.458	0.081
-614.288	172.790	0.203	-0.294
-613.273	-44.932	0.499	0.250
-612.259	-90.512	-0.452	-0.132
-611.244	800.000	0.024	0.079
-610.230	-29.505	-0.461	-0.265
-609.215	-200.000	-0.019	0.147
-608.201	-56.467	0.284	0.127
-607.186	222.552	-0.434	-0.703
-606.171	215.914	-0.425	-0.678
-605.157	-200.000	0.037	-0.246
-604.142	-132.954	-0.576	-0.074
-603.128	-40.598	-0.378	-0.197
-602.113	-44.706	0.581	0.292
-601.098	-55.245	-0.164	-0.074
-600.084	89.397	-0.583	-0.654
-599.069	-200.000	-0.096	0.683
-598.055	-59.758	0.567	0.244
-597.040	-63.628	-0.165	0.068
-596.025	-200.000	-0.206	-1.270
-595.011	32.745	0.802	-0.698
-593.996	-200.000	0.035	0.240
-592.982	-33.738	-0.439	0.243
-591.967	-150.856	0.173	-0.013
-590.952	-13.043	-0.455	0.297
-589.938	-135.348	-0.797	-0.096
-588.923	-200.000	0.155	-0.692
-587.909	15.930	0.549	0.434
-586.894	41.353	-0.509	0.463
-585.879	220.356	-0.283	0.456
-584.865	-92.511	-0.516	-0.146
-583.850	673.716	0.108	0.282
-582.836	800.000	-0.038	-0.116
-581.821	-109.302	-0.482	0.103
-580.806	-98.006	0.189	-0.049
-579.792	-200.000	0.073	0.889
-578.777	-72.280	-0.808	0.301
-577.763	408.714	0.263	-0.559
-576.748	-130.103	1.108	0.152
-575.733	20.874	-0.668	0.544
-574.719	-117.138	-0.511	-0.093
-573.704	-176.958	-0.442	0.011
-572.690	-127.604	0.881	-0.128
-571.675	330.400	-0.204	0.394
-570.661	772.091	-0.197	-0.540
-569.646	-163.818	-0.060	0.003
-568.631	-57.546	0.479	-0.211
-567.617	-114.834	-0.520	0.100
-566.602	70.955	-0.098	-0.101
-565.588	-91.158	-0.943	-0.272
-564.573	-83.194	0.242	0.078
-563.558	10.749	-0.711	0.545
-562.544	110.916	-0.194	-0.234
-561.529	-200.000	-0.030	0.342
-560.515	-200.000	0.014	0.199
-559.500	329.788	-0.507	-0.979
-558.485	800.000	0.210	0.590
-557.471	-160.634	-0.138	0.007
-556.456	-200.000	-0.045	-0.862
-555.442	-13.848	-0.391	0.254
-554.427	-200.000	-0.026	0.222
-553.412	66.745	0.677	0.692
-552.398	-135.772	-0.974	0.116
-551.383	-200.000	-0.044	-0.451
-550.369	800.000	-0.131	0.438
-549.354	-178.866	0.541	-0.012
-548.339	-197.833	-1.557	0.009
-547.325	-168.114	1.059	0.041
-546.310	-200.000	0.082	-0.823
-545.296	222.425	-0.484	-0.782
-544.281	-77.097	0.533	-0.187
-543.266	30.774	-0.469	0.403
-542.252	-200.000	-0.210	1.094
-541.237	572.610	-0.117	-0.286
-540.223	291.164	0.184	0.336
-539.208	368.935	0.197	0.399
-538.193	98.314	-0.199	-0.230
-537.179	-200.000	-0.080	-0.352
-536.164	-200.000	0.062	0.610
-535.150	-200.000	-0.025	-0.186
-534.135	137.663	0.449	-0.589
-533.121	-96.712	0.567	-0.150
-532.106	-164.074	-0.366	0.017
-531.091	51.563	0.395	-0.376
-530.077	-17.840	0.262	-0.165
-529.062	-74.239	-0.630	-0.229
-528.048	-200.000	-0.034	0.284
-527.033	800.000	-0.102	-0.405
-526.018	800.000	0.198	0.725
-525.004	-23.906	0.382	0.229
-523.989	-18.297	0.226	0.141
-522.975	-200.000	0.017	0.146
-521.960	342.521	-0.069	-0.135
-520.945	157.661	-0.051	0.071
-519.931	-159.177	-0.728	-0.041
-518.916	51.510	0.317	0.302
-517.902	141.969	0.282	0.375
-516.887	800.000	-0.085	-0.335
-515.872	257.936	-0.127	-0.220
-514.858	-22.192	0.330	-0.201
-513.843	-58.693	-0.555	0.241
-512.829	-200.000	-0.039	0.181
-511.814	370.220	0.620	-1.259
-510.799	92.186	-0.483	0.545
-509.785	-32.085	-0.241	0.135
-508.770	85.608	0.352	0.387
-507.756	-200.000	0.025	-0.829
-506.741	136.521	0.401	-0.525
-505.726	4.368	-0.310	0.228
-504.712	-111.459	-0.598	0.122
-503.697	-70.604	0.645	0.244
-502.683	-88.452	0.474	-0.142
-501.668	-58.582	-0.334	-0.145
-500.653	-140.089	-0.575	-0.061
-499.639	-76.451	0.360	-0.127
-498.624	14.063	0.257	-0.201
-497.610	-3.572	-0.051	0.036
-496.595	-200.000	0.091	1.035
-495.581	-139.947	0.390	0.041
-494.566	247.467	0.489	0.827
-493.551	-200.000	-0.135	1.056
-492.537	536.322	-0.106	-0.252
-491.522	800.000	-0.099	-0.278
-490.508	-200.000	0.002	-0.561
-489.493	-200.000	0.027	-0.623
-488.478	167.510	0.556	-0.792
-487.464	459.901	0.170	0.379
-486.449	-50.243	-1.027	0.486
-485.435	-200.000	-0.029	-0.408
-484.420	-73.807	0.233	0.085
-483.405	615.948	-0.219	0.550
-482.391	-200.000	0.049	-0.308
-481.376	800.000	0.091	0.343
-480.362	-66.109	0.219	0.088
-479.347	-87.199	0.177	-0.054
-478.332	-50.995	0.131	-0.061
-477.318	210.455	-0.273	0.430
-476.303	-115.381	0.482	-0.091
-475.289	19.510	0.386	-0.311
-474.274	-111.718	0.441	-0.089
-473.259	-109.013	0.161	0.034
-472.245	-44.697	-0.855	0.427
-471.230	-28.038	-0.722	0.418
-470.216	260.621	-0.600	1.039
-469.201	-39.957	-0.775	0.405
-468.186	-200.000	0.010	-0.268
-467.172	694.749	-0.128	-0.337
-466.157	165.110	0.324	-0.458
-465.143	490.711	0.181	-0.414
-464.128	-61.876	1.084	-0.454
-463.113	800.000	-0.102	0.420
-462.099	39.397	0.207	0.185
-461.084	-112.420	0.778	0.156
-460.070	-62.335	-0.239	0.100
-459.055	32.632	0.217	0.188
-458.040	-34.438	-0.790	-0.433
-457.026	18.499	-0.240	-0.192
-456.011	-200.000	0.003	-0.176
-454.997	-62.902	-0.441	0.182
-453.982	-200.000	-0.001	0.321
-452.968	71.677	-0.478	0.497
-451.953	48.426	0.326	0.306
-450.938	66.651	-0.376	0.382
-449.924	-200.000	-0.051	-0.539
-448.909	203.743	0.027	-0.042
-447.895	-65.886	0.981	0.392
-446.880	800.000	-0.145	0.580
-445.865	743.557	0.419	1.126
-444.851	-200.000	-0.039	0.519
-443.836	-63.680	0.763	-0.313
-442.822	524.059	-0.428	-1.005
-441.807	-200.000	0.004	0.158
-440.792	-155.594	0.453	-0.029
-439.778	-149.747	0.311	0.024
-438.763	-13.120	-0.614	-0.399
-437.749	159.767	0.443	0.617
-436.734	-28.730	0.667	-0.383
-435.719	-75.944	0.278	-0.098
-434.705	-4.186	-0.334	-0.231
-433.690	101.232	-0.155	-0.181
-432.676	316.132	0.512	-0.966
-431.661	-9.091	-0.489	-0.327
-430.646	-65.185	0.170	-0.069
-429.632	23.010	-0.969	0.794
-428.617	107.410	-0.602	-0.716
-427.603	43.677	0.988	0.903
-426.588	326.408	-0.264	-0.505
-425.573	90.654	0.198	0.222
-424.559	-95.633	-0.377	-0.101
-423.544	19.580	0.258	-0.208
-422.530	-200.000	-0.057	-0.451
-421.515	265.952	-0.325	-0.566
-420.500	-7.853	0.143	-0.097
-419.486	-200.000	-0.070	-0.346
-418.471	277.255	-0.492	-0.873
-417.457	-200.000	0.269	-1.221
-416.442	178.408	-0.367	-0.534
-415.428	-132.424	0.471	0.061
-414.413	-200.000	-0.079	-0.899
-413.398	2.407	0.356	0.257
-412.384	-125.997	-0.195	-0.029
-411.369	132.344	-0.333	-0.429
-410.355	-175.254	-0.553	0.015
-409.340	-131.201	-0.314	-0.042
-408.325	-109.095	0.418	-0.089
-407.311	-102.109	-1.164	-0.280
-406.296	-92.505	0.205	0.058
-405.282	140.841	-0.439	-0.579
-404.267	-200.000	0.063	0.443
-403.252	-12.331	-0.620	-0.404
-402.238	-147.411	-0.968	0.082
-401.223	-58.813	1.209	-0.522
-400.209	241.096	-0.116	0.193
-399.194	255.971	-0.264	0.452
-398.179	-97.222	-0.356	0.093
-397.165	-200.000	-0.009	0.339
-396.150	641.524	-0.049	-0.125
-395.136	-128.858	-0.220	0.031
-394.121	259.864	-0.308	0.531
-393.106	-96.805	0.503	-0.132
-392.092	-122.005	-0.362	-0.059
-391.077	800.000	0.102	-0.300
-390.063	10.309	0.443	0.336
-389.048	25.546	-0.436	0.362
-388.033	284.178	-0.201	-0.361
-387.019	-140.993	0.672	-0.069
-386.004	79.640	-0.159	0.170
-384.990	-78.835	-0.686	0.233
-383.975	54.146	-0.767	-0.735
-382.960	-200.000	0.033	0.850
-381.946	117.070	0.368	0.451
-380.931	-76.596	-0.185	-0.065
-379.917	-18.423	-0.558	-0.348
-378.902	-119.244	-0.164	0.029
-377.888	-7.303	0.152	0.102
-376.873	88.991	-0.324	0.360
-375.858	-78.401	-0.715	-0.244
-374.844	-200.000	-0.169	-1.223
-373.829	800.000	-0.159	-0.482
-372.815	-200.000	-0.053	0.371
-371.800	-30.369	-0.149	-0.084
-370.785	417.778	-0.069	0.147
-369.771	800.000	0.154	0.448
-368.756	501.177	-0.333	0.766
-367.742	-200.000	-0.034	-0.589
-366.727	193.306	0.348	-0.524
-365.712	-71.089	-0.278	-0.104
-364.698	-84.390	0.547	0.172
-363.683	651.743	-0.192	0.491
-362.669	-200.000	-0.055	0.768
-361.654	493.844	0.409	0.936
-360.639	404.196	0.217	-0.455
-359.625	301.162	-0.196	-0.360
-358.610	-143.401	0.897	0.085
-357.596	68.334	0.254	-0.259
-356.581	-22.874	0.475	0.286
-355.566	88.596	0.189	-0.210
-354.552	-147.988	0.990	-0.082
-353.537	-103.738	-0.448	0.105
-352.523	15.609	-0.362	-0.283
-351.508	-200.000	-0.041	-0.271
-350.493	175.857	0.338	-0.488
-349.479	-153.444	-0.547	0.038
-348.464	54.342	-0.389	-0.373
-347.450	262.805	-0.356	-0.616
-346.435	-187.773	1.070	0.014
-345.420	167.788	-0.126	-0.178
-344.406	-144.045	0.462	-0.043
-343.391	-200.000	-0.005	-0.690
-342.377	173.030	-0.771	-1.106
-341.362	800.000	0.331	1.092
-340.348	800.000	0.117	0.362
-339.333	50.353	-0.206	-0.194
-338.318	60.214	-0.635	-0.625
-337.304	-89.472	0.227	0.066
-336.289	-149.196	0.425	-0.034
-335.275	-200.000	-0.017	-0.394
-334.260	245.878	0.369	-0.619
-333.245	327.018	-0.098	-0.187
-332.231	77.129	0.504	0.533
-331.216	82.998	0.462	0.500
-330.202	543.684	-0.183	-0.435
-329.187	-53.735	0.807	-0.367
-328.172	-103.108	0.594	-0.140
-327.158	-109.514	0.318	-0.067
-326.143	-96.793	-0.400	-0.105
-325.129	800.000	0.117	0.395
-324.114	152.887	0.425	-0.578
-323.099	114.444	-0.399	-0.483
-322.085	-89.141	1.056	-0.310
-321.070	-200.000	0.085	-0.568
-320.056	-164.166	-0.692	0.032
-319.041	349.808	0.112	-0.219
-318.026	-188.087	0.346	-0.004
-317.012	542.769	0.130	-0.307
-315.997	-96.978	-0.502	0.131
-314.983	134.879	0.279	0.360
-313.968	635.848	0.446	1.126
-312.953	-14.723	0.282	-0.180
-311.939	27.640	-0.150	0.126
-310.924	-29.376	0.446	0.254
-309.910	-92.699	-0.877	0.244
-308.895	241.223	0.451	0.749
-307.880	36.054	0.070	0.061
-306.866	130.270	0.117	0.149
-305.851	-200.000	0.035	-0.611
-304.837	7.834	-0.679	-0.506
-303.822	21.859	-0.490	0.397
-302.807	-26.125	0.273	0.160
-301.793	-117.683	0.494	-0.088
-300.778	-97.764	0.643	0.165
-299.764	-200.000	-0.111	0.618
-298.749	800.000	0.062	0.259
-297.735	800.000	-0.091	0.338
-296.720	-200.000	-0.021	0.764
-295.705	60.022	-0.665	-0.653
-294.691	69.142	-0.414	0.423
-293.676	319.518	-0.291	-0.548
-292.662	-62.076	0.323	-0.134
-291.647	800.000	0.021	-0.064
-290.632	194.338	-0.527	-0.793
-289.618	-200.000	-0.063	-0.570
-288.603	381.041	-0.400	0.816
-287.589	139.437	0.546	0.714
-286.574	-48.813	0.265	-0.126
-285.559	437.964	-0.113	-0.246
-284.545	166.333	-0.076	0.108
-283.530	84.964	-0.438	0.477
-282.516	-50.891	0.880	0.411
-281.501	-146.598	0.593	0.051
-280.486	510.411	-0.186	-0.429
-279.472	-105.674	-0.034	-0.008
-278.457	-74.350	-0.529	0.190
-277.443	-92.978	0.745	0.207
-276.428	21.799	-0.229	0.185
-275.413	-200.000	0.032	0.700
-274.399	-8.248	-0.412	-0.275
-273.384	-30.183	-0.512	0.289
-272.370	-51.965	0.614	0.283
-271.355	-19.980	-0.401	0.246
-270.340	93.016	0.373	0.419
-269.326	228.659	0.358	-0.579
-268.311	-154.332	0.655	0.044
-267.297	562.918	0.197	-0.474
-266.282	112.541	0.381	-0.458
-265.267	19.322	0.689	-0.550
-264.253	82.624	0.419	-0.452
-263.238	-115.586	-0.447	-0.083
-262.224	-200.000	0.044	-0.287
-261.209	800.000	-0.246	-0.895
-260.195	-64.816	1.037	0.416
-259.180	338.911	-0.589	1.139
-258.165	-152.564	-0.401	-0.028
-257.151	168.417	-0.297	0.420
-256.136	755.819	0.194	-0.520
-255.122	-56.429	-0.502	0.221
-254.107	-51.080	-0.333	-0.155
-253.092	-200.000	-0.012	0.509
-252.078	67.672	-0.202	0.205
-251.063	-104.401	-0.880	0.202
-250.049	-200.000	-0.011	-0.053
-249.034	30.886	0.552	0.469
-248.019	-173.863	0.165	0.005
-247.005	-200.000	0.126	-0.737
-245.990	-200.000	0.074	-0.471
-244.976	312.435	0.048	0.090
-243.961	330.428	-0.072	0.137
-242.946	436.566	-0.113	0.244
-241.932	-200.000	0.138	-0.735
-240.917	13.608	-0.345	0.265
-239.903	-122.856	-0.704	0.113
-238.888	-172.859	-0.670	-0.021
-237.873	220.579	-0.226	0.360
-236.859	72.538	-0.194	0.201
-235.844	28.699	-0.154	0.129
-234.830	800.000	-0.068	0.286
-233.815	-26.283	0.799	-0.465
-232.800	800.000	0.148	0.571
-231.786	39.413	-0.275	-0.244
-230.771	-60.369	-0.375	0.158
-229.757	114.168	0.393	0.474
-228.742	-200.000	0.085	-0.948
-227.727	-77.308	0.619	0.213
-226.713	-200.000	-0.075	-0.730
-225.698	386.735	-0.212	0.434
-224.684	800.000	-0.169	0.595
-223.669	-6.677	0.969	0.653
-222.655	-104.102	-0.657	0.151
-221.640	-122.337	0.694	0.112
-220.625	-200.000	0.031	-0.679
-219.611	134.226	0.167	-0.214
-218.596	17.853	0.473	0.373
-217.582	-127.669	0.543	-0.078
-216.567	800.000	-0.072	0.247
-215.552	-200.000	-0.096	0.724
-214.538	-200.000	-0.037	-1.112
-213.523	5.360	0.309	-0.226
-212.509	107.538	-0.521	-0.614
-211.494	246.520	-0.156	0.261
-210.479	170.895	-0.191	0.272
-209.465	-200.000	0.055	-0.304
-208.450	85.185	0.401	-0.436
-207.436	800.000	-0.241	-0.669
-206.421	-93.665	-0.533	-0.146
-205.406	44.488	0.642	-0.584
-204.392	-141.330	0.492	-0.050
-203.377	-50.285	-0.516	-0.242
-202.363	11.251	0.705	-0.534
-201.348	-46.647	0.692	-0.336
-200.333	-65.008	-0.238	-0.095
-199.319	83.136	-0.275	-0.296
-198.304	238.762	0.448	0.738
-197.290	-200.000	0.211	1.088
-196.275	4.512	0.337	-0.245
-195.260	-200.000	0.008	0.079
-194.246	-19.888	-1.060	-0.648
-193.231	-140.692	-0.827	-0.085
-192.217	150.405	0.382	-0.513
-191.202	-18.786	0.491	-0.302
-190.187	-88.268	-0.518	-0.154
-189.173	800.000	-0.227	0.819
-188.158	-200.000	0.085	-0.456
-187.144	-142.199	-0.555	0.054
-186.129	-85.724	-0.254	0.078
-185.114	-90.767	-0.272	0.078
-184.100	83.657	0.410	0.443
-183.085	-61.303	0.724	-0.301
-182.071	691.084	0.013	0.033
-181.056	-17.715	-0.606	0.376
-180.042	-84.969	0.606	-0.188
-179.027	-76.540	0.545	0.189
-178.012	517.711	-0.075	0.174
-176.998	-200.000	-0.068	0.324
-175.983	800.000	-0.217	-0.652
-174.969	-200.000	0.033	-0.191
-173.954	8.053	1.043	-0.774
-172.939	-137.855	-0.585	0.065
-171.925	800.000	-0.197	0.587
-170.910	-90.985	-0.448	0.127
-169.896	-86.805	0.383	-0.116
-168.881	-200.000	0.108	0.668
-167.866	-8.519	-0.951	0.632
-166.852	8.985	0.233	0.174
-165.837	1.211	0.436	0.310
-164.823	-171.969	1.229	-0.039
-163.808	-20.320	0.159	-0.097
-162.793	42.461	0.696	0.625
-161.779	-115.143	0.571	-0.107
-160.764	163.844	-0.545	-0.758
-159.750	-200.000	0.154	0.865
-158.735	206.055	-0.425	0.654
-157.720	172.563	0.281	-0.400
-156.706	115.235	-0.210	0.254
-155.691	346.686	-0.064	0.125
-154.677	-200.000	0.009	0.088
-153.662	-99.065	0.767	-0.192
-152.647	51.037	0.507	0.475
-151.633	413.770	-0.045	0.094
-150.618	316.913	0.297	-0.555
-149.604	1.598	0.642	-0.457
-148.589	217.776	0.278	-0.439
-147.574	-111.199	-0.326	0.066
-146.560	482.651	-0.308	-0.691
-145.545	173.331	-0.027	-0.038
-144.531	-47.388	0.538	-0.259
-143.516	-36.808	0.123	0.065
-142.502	-200.000	0.002	-0.279
-141.487	-178.730	-0.022	0.000
-140.472	-200.000	0.017	-0.276
-139.458	228.053	0.277	0.446
-138.443	-200.000	0.039	0.268
-137.429	-69.181	0.535	-0.203
-136.414	-127.789	0.655	-0.093
-135.399	-135.964	-0.357	0.041
-134.385	-21.098	0.905	-0.547
-133.370	49.820	-0.065	-0.061
-132.356	-66.584	0.425	-0.166
-131.341	800.000	-0.180	0.755
-130.326	-98.259	0.575	0.146
-129.312	139.954	0.464	-0.604
-128.297	-50.234	-0.535	-0.250
-127.283	308.452	0.157	-0.289
-126.268	-8.527	0.666	0.442
-125.253	-12.494	-0.225	0.145
-124.239	-45.260	0.528	0.259
-123.224	394.495	-0.198	0.407
-122.210	-111.112	-0.812	0.164
-121.195	-39.797	-0.639	-0.330
