DTS Sentinel unit serial number:	SN413079Multiplexer serial number:	ORYXHardware model number:	OX4-SRSoftware version number:	ORYX F/W v4.00 Oryx Data Collector v3.7.2.0data status	okinstallation	princeton_trtdifferential loss correction	single-endedforward channel	channel 1reverse channel	N/Adate	2019/09/18time	09:26:35forward acquisition time	60.00reverse acquisition time	0.00gamma	496.2192k internal	0.2336k external	0.2336temperature offset calibration	0.9970default loss term (dB/km)	0.3790temperature slope calibration	1.0000multiplexer offset coefficient	1.0000multiplexer slope coefficient	1.0000fibre end	0.00T internal ref (°C)	26.22T ext. ref 1 (°C)	0.27T ext. ref 2 (°C)	23.40length (m)	temperature (°C)	Stokes	anti-Stokes-747.200	247.965	-0.129	0.218
-746.185	-200.000	0.007	0.180
-745.171	11.934	0.181	0.140
-744.156	-87.835	-0.394	0.119
-743.142	800.000	0.100	0.286
-742.127	-118.617	-0.161	-0.029
-741.112	-138.401	0.520	-0.058
-740.098	-132.852	-0.097	0.012
-739.083	-38.194	-0.128	-0.068
-738.069	-10.305	-0.254	0.169
-737.054	-89.538	0.172	-0.051
-736.039	18.341	-0.258	0.206
-735.025	-90.041	0.195	-0.057
-734.010	-55.227	-0.517	-0.233
-732.996	83.980	0.108	-0.118
-731.981	14.193	-0.033	0.026
-730.966	-200.000	-0.011	-0.179
-729.952	-200.000	-0.032	-0.192
-728.937	-73.874	-0.241	-0.088
-727.923	-200.000	0.023	-0.199
-726.908	-76.877	0.297	-0.104
-725.894	-93.785	-0.207	-0.057
-724.879	63.488	0.084	-0.085
-723.864	-102.003	-0.148	-0.036
-722.850	43.210	0.135	-0.123
-721.835	-200.000	-0.008	0.050
-720.821	-17.216	-0.222	0.141
-719.806	-146.900	-0.528	-0.046
-718.791	116.664	0.053	-0.065
-717.777	191.480	-0.125	-0.188
-716.762	-149.881	0.183	-0.014
-715.748	93.000	0.082	0.093
-714.733	800.000	-0.088	0.361
-713.718	-50.174	-0.181	0.086
-712.704	-200.000	0.053	-0.273
-711.689	5.151	-0.240	-0.178
-710.675	-128.116	0.135	-0.019
-709.660	530.407	0.188	0.446
-708.645	198.389	0.158	0.243
-707.631	428.110	-0.144	-0.312
-706.616	-108.315	-0.452	-0.098
-705.602	-0.799	0.064	0.045
-704.587	-34.615	-0.125	0.068
-703.572	-44.068	0.469	-0.236
-702.558	-118.362	-0.162	-0.029
-701.543	-92.179	0.047	0.013
-700.529	-200.000	0.003	-0.361
-699.514	-70.894	-0.309	0.117
-698.499	-87.553	0.235	-0.071
-697.485	49.370	-0.093	0.088
-696.470	-72.246	0.034	0.013
-695.456	153.284	-0.041	-0.057
-694.441	-132.082	-0.297	-0.039
-693.426	51.273	-0.197	-0.187
-692.412	-108.965	0.308	-0.066
-691.397	212.821	0.100	-0.159
-690.383	42.374	-0.425	-0.388
-689.368	-31.188	0.224	-0.127
-688.354	-200.000	-0.033	-0.220
-687.339	3.490	0.205	-0.150
-686.324	-200.000	-0.052	-0.306
-685.310	-176.828	0.212	0.005
-684.295	172.809	0.016	0.024
-683.281	351.307	-0.111	0.221
-682.266	-200.000	0.003	-0.279
-681.251	-55.329	0.078	0.035
-680.237	800.000	-0.022	0.065
-679.222	-200.000	-0.045	0.360
-678.208	44.837	0.314	-0.290
-677.193	-1.656	-0.112	-0.079
-676.178	-13.306	0.053	0.034
-675.164	-66.613	0.225	0.089
-674.149	60.458	-0.308	-0.305
-673.135	321.322	-0.168	0.319
-672.120	496.510	-0.153	-0.352
-671.105	101.162	-0.232	0.270
-670.091	-67.675	-0.203	-0.080
-669.076	800.000	-0.056	-0.166
-668.062	-140.371	0.182	-0.019
-667.047	108.691	0.106	0.127
-666.032	800.000	-0.067	0.227
-665.018	-81.006	0.179	-0.059
-664.003	-200.000	-0.040	0.190
-662.989	-200.000	0.010	-0.135
-661.974	-81.901	0.118	0.039
-660.959	-110.875	0.207	0.043
-659.945	410.731	-0.098	-0.209
-658.930	-137.313	-0.170	0.019
-657.916	90.053	-0.162	0.182
-656.901	800.000	-0.013	-0.050
-655.886	-200.000	0.033	-0.271
-654.872	359.543	0.113	-0.226
-653.857	800.000	0.018	0.056
-652.843	165.168	0.138	-0.195
-651.828	20.906	0.149	-0.121
-650.814	800.000	0.037	-0.114
-649.799	-48.655	0.248	-0.119
-648.784	296.892	-0.046	-0.085
-647.770	425.895	0.098	0.212
-646.755	-96.416	-0.307	0.081
-645.741	161.999	-0.208	0.291
-644.726	-200.000	0.000	-0.144
-643.711	583.283	0.094	0.230
-642.697	371.523	0.015	0.031
-641.682	800.000	0.095	-0.373
-640.668	4.360	0.270	0.198
-639.653	-93.111	0.113	0.031
-638.638	-8.524	0.238	0.160
-637.624	28.115	0.211	-0.178
-636.609	34.317	-0.136	0.119
-635.595	-6.769	-0.151	-0.103
-634.580	800.000	0.139	-0.390
-633.565	-200.000	-0.031	0.244
-632.551	-133.467	-0.339	-0.043
-631.536	-100.143	-0.094	0.023
-630.522	800.000	-0.116	0.323
-629.507	111.364	0.207	-0.250
-628.492	-89.834	0.219	-0.064
-627.478	-102.600	0.422	0.101
-626.463	-48.117	0.071	0.035
-625.449	-9.925	-0.120	0.080
-624.434	14.247	-0.157	0.122
-623.419	-200.000	-0.081	0.366
-622.405	243.868	-0.172	0.288
-621.390	-74.894	0.486	-0.174
-620.376	68.043	0.099	0.101
-619.361	-4.152	-0.126	0.087
-618.346	-200.000	-0.099	0.502
-617.332	-140.257	0.111	0.012
-616.317	-57.079	-0.246	-0.108
-615.303	-200.000	0.007	-0.107
-614.288	-200.000	-0.017	-0.184
-613.273	800.000	0.020	-0.064
-612.259	306.633	0.070	-0.130
-611.244	42.683	-0.356	0.324
-610.230	106.203	-0.141	-0.167
-609.215	-113.889	-0.126	0.024
-608.201	184.109	0.219	-0.324
-607.186	-37.090	-0.045	0.024
-606.171	-104.888	0.235	0.054
-605.157	-200.000	0.074	-0.465
-604.142	-200.000	-0.015	0.163
-603.128	151.184	0.054	-0.073
-602.113	-200.000	-0.245	0.001
-601.098	-73.712	0.396	-0.144
-600.084	-175.535	-0.195	-0.005
-599.069	-4.786	0.288	0.198
-598.055	-84.352	-0.119	0.038
-597.040	409.998	-0.108	0.229
-596.025	30.046	-0.166	0.141
-595.011	-200.000	0.014	0.072
-593.996	-200.000	0.087	0.000
-592.982	117.239	0.146	0.180
-591.967	34.430	0.136	-0.118
-590.952	-132.446	-0.325	0.042
-589.938	-64.961	0.288	0.116
-588.923	-11.162	0.129	-0.085
-587.909	-195.526	0.277	-0.002
-586.894	-200.000	0.012	-0.314
-585.879	1.473	-0.250	-0.179
-584.865	708.610	-0.070	-0.185
-583.850	52.180	-0.241	0.229
-582.836	-105.725	-0.174	-0.039
-581.821	-65.139	0.314	0.126
-580.806	467.466	0.206	0.460
-579.792	-39.596	-0.289	-0.151
-578.777	800.000	-0.058	0.237
-577.763	-114.230	0.146	0.028
-576.748	11.831	-0.059	0.045
-575.733	742.204	-0.074	0.200
-574.719	-200.000	-0.015	0.227
-573.704	800.000	0.084	-0.301
-572.690	431.723	0.013	-0.028
-571.675	469.699	0.080	-0.180
-570.661	-200.000	0.010	0.183
-569.646	-14.881	-0.107	-0.069
-568.631	-132.051	0.103	0.013
-567.617	101.150	0.099	-0.115
-566.602	-67.239	0.235	0.092
-565.588	71.658	-0.203	-0.210
-564.573	517.871	-0.057	0.133
-563.558	233.012	-0.072	-0.118
-562.544	623.260	0.165	-0.414
-561.529	800.000	-0.025	-0.068
-560.515	306.442	0.030	-0.055
-559.500	263.465	-0.100	-0.174
-558.485	277.287	0.025	0.044
-557.471	800.000	0.071	0.300
-556.456	55.821	-0.120	0.116
-555.442	44.949	0.206	-0.189
-554.427	-200.000	0.020	-0.269
-553.412	386.049	-0.187	-0.385
-552.398	-20.414	0.085	-0.052
-551.383	181.367	0.179	0.262
-550.369	140.084	-0.085	0.111
-549.354	-24.211	-0.119	0.071
-548.339	-164.312	-0.354	0.016
-547.325	-94.637	-0.163	0.044
-546.310	123.304	0.059	0.073
-545.296	-156.743	0.332	-0.020
-544.281	-17.634	0.263	-0.165
-543.266	-73.659	0.174	0.063
-542.252	-200.000	0.023	0.322
-541.237	61.437	-0.199	-0.198
-540.223	-74.280	-0.191	0.069
-539.208	800.000	-0.038	-0.122
-538.193	130.030	-0.159	-0.202
-537.179	572.182	-0.135	-0.327
-536.164	-200.000	-0.016	-0.137
-535.150	-82.639	0.099	-0.032
-534.135	-112.911	-0.125	-0.025
-533.121	-105.974	0.318	-0.071
-532.106	142.616	-0.172	0.227
-531.091	-138.455	-0.102	-0.011
-530.077	-43.910	0.164	0.082
-529.062	-103.176	0.355	-0.084
-528.048	-200.000	-0.015	-0.227
-527.033	800.000	-0.098	0.425
-526.018	608.607	-0.112	-0.279
-525.004	31.169	0.088	-0.075
-523.989	-159.341	0.122	-0.007
-522.975	-200.000	0.049	0.261
-521.960	-200.000	0.003	0.196
-520.945	123.904	-0.131	0.164
-519.931	-200.000	-0.019	-0.259
-518.916	-107.601	0.081	0.018
-517.902	800.000	0.112	-0.328
-516.887	666.306	0.037	-0.094
-515.872	-200.000	0.032	0.345
-514.858	-9.158	0.074	-0.049
-513.843	-181.219	0.158	0.003
-512.829	17.520	0.092	0.073
-511.814	270.173	0.162	0.284
-510.799	463.110	0.055	0.123
-509.785	-29.471	0.120	-0.068
-508.770	-129.193	-0.150	-0.021
-507.756	-200.000	-0.019	0.262
-506.741	800.000	-0.044	0.160
-505.726	800.000	-0.025	0.088
-504.712	-0.989	0.149	-0.105
-503.697	101.547	0.038	-0.044
-502.683	311.038	-0.124	-0.231
-501.668	-59.690	-0.167	-0.071
-500.653	-160.603	-0.284	0.015
-499.639	116.618	-0.112	0.136
-498.624	-111.784	-0.278	-0.056
-497.610	-200.000	0.001	0.188
-496.595	800.000	-0.071	-0.267
-495.581	179.987	0.279	0.406
-494.566	247.431	-0.175	0.294
-493.551	350.455	-0.018	0.036
-492.537	32.856	0.069	0.060
-491.522	-200.000	0.003	0.042
-490.508	30.463	0.261	0.222
-489.493	43.109	0.264	0.240
-488.478	-36.659	-0.036	0.019
-487.464	137.440	-0.092	-0.119
-486.449	107.282	-0.112	-0.133
-485.435	-78.600	0.126	-0.043
-484.420	-11.086	-0.178	-0.117
-483.405	-118.979	-0.400	-0.070
-482.391	-88.921	-0.288	-0.085
-481.376	-47.769	0.152	-0.073
-480.362	593.705	-0.044	-0.108
-479.347	-141.323	0.085	0.009
-478.332	-195.743	0.158	-0.001
-477.318	-168.861	-0.318	0.012
-476.303	141.202	0.160	0.210
-475.289	-146.806	0.137	0.012
-474.274	23.314	0.163	-0.133
-473.259	49.368	-0.037	-0.034
-472.245	800.000	0.045	0.191
-471.230	-7.032	-0.111	0.075
-470.216	532.757	-0.153	-0.360
-469.201	-121.844	0.182	-0.030
-468.186	56.336	-0.266	0.257
-467.172	-168.705	-0.280	-0.011
-466.157	-95.102	-0.160	0.043
-465.143	497.432	0.024	0.056
-464.128	-87.231	0.044	0.013
-463.113	-200.000	-0.040	-0.206
-462.099	800.000	0.077	-0.249
-461.084	800.000	-0.073	0.206
-460.070	-200.000	0.005	-0.024
-459.055	621.511	0.090	-0.226
-458.040	-24.210	-0.151	0.089
-457.026	26.468	0.221	-0.184
-456.011	32.730	-0.092	-0.079
-454.997	0.588	0.182	0.130
-453.982	-131.229	0.092	-0.012
-452.968	-168.531	-0.368	-0.014
-451.953	457.419	0.086	0.189
-450.938	251.584	-0.084	0.143
-449.924	800.000	-0.138	0.585
-448.909	-128.493	-0.260	-0.037
-447.895	144.551	-0.280	-0.372
-446.880	114.811	-0.192	-0.233
-445.865	-93.740	-0.085	0.023
-444.851	800.000	-0.132	0.370
-443.836	-39.045	0.269	0.140
-442.822	-142.847	0.248	0.024
-441.807	-200.000	-0.011	0.047
-440.792	-94.171	-0.116	0.031
-439.778	412.640	-0.149	-0.315
-438.763	-200.000	-0.056	0.324
-437.749	-61.877	0.317	-0.132
-436.734	-104.090	-0.177	0.041
-435.719	171.660	-0.123	0.175
-434.705	-200.000	0.028	-0.202
-433.690	290.723	0.114	-0.205
-432.676	71.341	0.100	-0.103
-431.661	5.776	-0.210	0.154
-430.646	-200.000	0.001	-0.321
-429.632	-59.455	-0.115	0.049
-428.617	-183.477	-0.052	0.001
-427.603	800.000	-0.043	-0.129
-426.588	-200.000	0.007	0.169
-425.573	-51.804	-0.174	0.080
-424.559	800.000	-0.089	-0.372
-423.544	-60.343	-0.191	-0.081
-422.530	-200.000	-0.019	0.184
-421.515	800.000	0.113	0.335
-420.500	800.000	-0.046	0.162
-419.486	-16.533	-0.111	0.070
-418.471	220.494	0.130	-0.207
-417.457	-75.158	0.117	-0.041
-416.442	-48.950	-0.072	-0.034
-415.428	800.000	-0.020	-0.073
-414.413	-200.000	-0.032	0.206
-413.398	64.482	-0.234	-0.234
-412.384	-200.000	0.041	0.293
-411.369	-200.000	0.022	0.263
-410.355	-128.611	0.133	-0.019
-409.340	-200.000	-0.047	0.244
-408.325	4.745	0.415	0.302
-407.311	-92.460	-0.107	-0.030
-406.296	-200.000	0.030	0.370
-405.282	115.205	-0.196	-0.237
-404.267	72.356	-0.126	-0.130
-403.252	10.231	-0.161	0.122
-402.238	-140.395	-0.155	-0.016
-401.223	-200.000	0.028	-0.316
-400.209	800.000	-0.010	-0.039
-399.194	800.000	0.061	-0.193
-398.179	62.029	-0.285	-0.282
-397.165	581.698	0.113	0.275
-396.150	-125.871	0.319	-0.048
-395.136	142.073	-0.187	-0.245
-394.121	366.789	-0.044	-0.087
-393.106	800.000	0.133	0.417
-392.092	-200.000	-0.004	0.070
-391.077	-122.923	0.169	-0.027
-390.063	64.906	0.154	0.154
-389.048	-200.000	-0.002	-0.062
-388.033	-200.000	0.009	-0.083
-387.019	-77.745	-0.180	0.062
-386.004	-55.057	0.084	0.037
-384.990	127.520	0.133	0.168
-383.975	62.076	0.345	0.341
-382.960	-75.591	-0.252	0.089
-381.946	-125.225	0.163	-0.025
-380.931	800.000	-0.088	0.347
-379.917	-15.886	0.151	0.096
-378.902	800.000	-0.054	-0.165
-377.888	394.017	-0.136	-0.280
-376.873	-153.653	0.232	0.016
-375.858	-200.000	-0.028	0.186
-374.844	-110.194	0.162	-0.033
-373.829	30.681	-0.202	-0.171
-372.815	-86.545	0.317	-0.096
-371.800	282.415	-0.111	-0.196
-370.785	-122.554	-0.050	-0.008
-369.771	206.994	0.068	-0.104
-368.756	-70.402	0.259	-0.097
-367.742	-81.398	-0.138	-0.045
-366.727	23.382	-0.149	0.122
-365.712	-0.163	-0.172	-0.121
-364.698	30.112	0.159	-0.134
-363.683	184.990	-0.040	-0.059
-362.669	-105.839	0.244	0.054
-361.654	45.570	-0.250	-0.229
-360.639	-124.615	0.162	0.025
-359.625	58.819	-0.459	-0.446
-358.610	-72.519	0.004	-0.002
-357.596	-88.221	0.124	-0.037
-356.581	-170.417	0.087	0.003
-355.566	398.616	0.086	-0.178
-354.552	-70.598	-0.279	-0.105
-353.537	-76.301	0.217	0.076
-352.523	-12.943	0.085	-0.055
-351.508	-200.000	0.003	-0.110
-350.493	-200.000	-0.032	-0.342
-349.479	-166.715	0.384	-0.016
-348.464	-35.797	-0.112	0.060
-347.450	635.692	-0.086	0.215
-346.435	-200.000	0.006	-0.298
-345.420	-200.000	-0.014	-0.074
-344.406	145.371	-0.217	0.287
-343.391	342.004	0.065	0.125
-342.377	-200.000	0.036	-0.199
-341.362	-200.000	-0.011	0.063
-340.348	205.551	-0.170	-0.262
-339.333	194.087	0.130	-0.195
-338.318	-156.220	0.197	-0.012
-337.304	-112.455	0.335	-0.066
-336.289	-200.000	0.003	-0.037
-335.275	-77.076	0.300	0.104
-334.260	-99.719	0.241	0.060
-333.245	-165.199	-0.306	-0.013
-332.231	-195.034	-0.105	0.001
-331.216	-15.045	-0.137	-0.087
-330.202	60.559	-0.150	-0.146
-329.187	40.459	-0.128	-0.114
-328.172	104.524	-0.029	-0.034
-327.158	-81.733	0.244	0.079
-326.143	324.273	-0.171	-0.322
-325.129	144.089	-0.115	-0.152
-324.114	-181.366	-0.125	0.002
-323.099	-139.627	-0.248	0.026
-322.085	39.290	0.250	-0.221
-321.070	-200.000	-0.020	-0.191
-320.056	-200.000	0.034	0.159
-319.041	82.008	0.218	0.233
-318.026	-49.039	-0.085	0.040
-317.012	139.588	-0.093	-0.121
-315.997	800.000	0.127	-0.462
-314.983	-200.000	-0.001	-0.136
-313.968	800.000	-0.082	0.261
-312.953	-19.684	-0.239	0.146
-311.939	-117.620	0.113	0.020
-310.924	-38.072	-0.218	-0.114
-309.910	-149.215	-0.285	-0.023
-308.895	86.698	-0.025	0.027
-307.880	-200.000	-0.030	-0.137
-306.866	-49.305	0.200	-0.094
-305.851	-89.166	0.131	-0.038
-304.837	335.003	-0.089	-0.171
-303.822	-28.093	0.219	0.125
-302.807	118.270	0.268	-0.326
-301.793	800.000	0.056	-0.231
-300.778	-60.960	-0.320	0.134
-299.764	-94.099	0.184	-0.050
-298.749	259.082	-0.114	0.195
-297.735	-200.000	0.016	0.171
-296.720	-83.405	-0.097	-0.031
-295.705	-66.993	0.128	-0.050
-294.691	-197.514	0.144	-0.001
-293.676	197.880	-0.081	-0.122
-292.662	83.568	-0.162	-0.174
-291.647	-75.675	0.264	0.092
-290.632	-200.000	0.000	-0.152
-289.618	188.825	0.108	0.160
-288.603	-180.308	0.137	0.003
-287.589	-52.512	0.055	0.025
-286.574	-114.751	0.191	-0.036
-285.559	-200.000	-0.060	-0.384
-284.545	210.092	-0.066	-0.102
-283.530	-157.219	0.622	-0.037
-282.516	-177.459	-0.104	-0.003
-281.501	-200.000	-0.008	0.038
-280.486	274.254	0.103	-0.180
-279.472	-39.919	-0.267	-0.138
-278.457	-200.000	-0.004	-0.172
-277.443	-101.795	-0.504	0.120
-276.428	-12.484	0.102	0.066
-275.413	-200.000	-0.011	-0.301
-274.399	221.591	-0.078	-0.124
-273.384	731.144	0.040	0.107
-272.370	177.107	0.167	-0.240
-271.355	5.505	-0.229	0.166
-270.340	-46.791	0.067	0.032
-269.326	79.015	0.206	0.217
-268.311	421.614	-0.156	0.330
-267.297	-200.000	-0.017	0.389
-266.282	333.602	0.194	0.369
-265.267	-200.000	0.008	-0.192
-264.253	242.677	0.087	0.144
-263.238	7.598	-0.176	0.130
-262.224	45.859	0.133	-0.121
-261.209	205.499	0.250	-0.382
-260.195	-200.000	0.008	0.130
-259.180	705.154	0.098	0.256
-258.165	116.093	0.183	-0.221
-257.151	18.661	0.076	0.060
-256.136	-106.495	-0.068	-0.015
-255.122	-77.231	-0.221	-0.076
-254.107	-35.682	-0.137	0.073
-253.092	-200.000	-0.013	0.353
-252.078	-53.214	-0.236	0.107
-251.063	154.697	0.019	0.025
-250.049	1.919	0.281	-0.200
-249.034	-116.363	-0.296	0.054
-248.019	240.848	-0.056	-0.091
-247.005	-200.000	-0.057	0.253
-245.990	-200.000	-0.002	-0.072
-244.976	76.498	0.048	0.050
-243.961	482.259	-0.064	0.144
-242.946	-95.195	-0.174	-0.046
-241.932	800.000	0.074	-0.267
-240.917	54.853	0.282	0.268
-239.903	104.707	0.057	0.066
-238.888	50.868	0.225	-0.210
-237.873	-34.630	-0.101	0.055
-236.859	-126.685	-0.064	0.009
-235.844	-23.677	0.130	0.077
-234.830	31.479	-0.164	-0.139
-233.815	-114.060	-0.304	-0.058
-232.800	663.698	0.011	-0.027
-231.786	-143.340	0.096	-0.009
-230.771	-200.000	0.113	0.501
-229.757	46.175	0.049	-0.045
-228.742	177.349	0.178	-0.255
-227.727	-126.296	0.193	-0.028
-226.713	40.146	0.236	0.209
-225.698	153.492	-0.198	0.266
-224.684	-107.476	-0.111	0.024
-223.669	-22.082	0.162	0.097
-222.655	158.409	-0.079	0.108
-221.640	78.030	-0.413	0.434
-220.625	-55.844	0.027	0.012
-219.611	-173.257	-0.158	-0.005
-218.596	800.000	0.113	0.378
-217.582	-78.464	-0.376	0.127
-216.567	-96.440	0.271	0.070
-215.552	800.000	0.058	-0.230
-214.538	-200.000	0.027	-0.198
-213.523	-200.000	-0.041	0.179
-212.509	725.865	-0.061	-0.161
-211.494	-200.000	0.038	0.184
-210.479	735.189	-0.005	-0.013
-209.465	-53.833	-0.140	0.063
-208.450	-79.853	0.258	-0.085
-207.436	196.134	-0.158	-0.236
-206.421	-200.000	0.033	0.189
-205.406	88.982	0.171	-0.187
-204.392	257.317	0.085	0.143
-203.377	-156.160	-0.199	0.012
-202.363	734.364	-0.108	-0.283
-201.348	-22.563	0.161	0.096
-200.333	189.184	-0.176	0.259
-199.319	34.082	-0.111	-0.095
-198.304	-107.530	-0.219	0.047
-197.290	38.173	-0.214	-0.187
-196.275	-200.000	0.058	0.357
-195.260	-62.664	0.199	-0.081
-194.246	77.324	0.266	-0.278
-193.231	-88.175	-0.320	0.094
-192.217	-26.910	0.285	-0.163
-191.202	65.512	-0.060	0.060
-190.187	-82.878	-0.043	0.014
-189.173	-134.311	0.028	-0.003
-188.158	-8.057	-0.103	0.068
-187.144	-117.524	0.124	0.022
-186.129	-154.543	0.227	0.015
-185.114	-200.000	-0.008	-0.123
-184.100	199.954	-0.150	0.226
-183.085	800.000	0.030	-0.094
-182.071	440.390	0.090	0.192
-181.056	800.000	0.055	-0.162
-180.042	-200.000	-0.011	-0.200
-179.027	-200.000	-0.019	0.236
-178.012	132.442	-0.068	-0.086
-176.998	-200.000	0.008	-0.174
-175.983	800.000	0.001	-0.005
-174.969	18.510	-0.089	0.070
-173.954	-200.000	-0.230	0.001
-172.939	800.000	-0.087	-0.276
-171.925	12.446	0.241	-0.182
-170.910	-55.479	-0.123	0.054
-169.896	800.000	0.009	0.025
-168.881	129.282	-0.201	-0.251
-167.866	86.150	-0.251	-0.272
-166.852	-200.000	0.044	0.200
-165.837	800.000	0.177	0.482
-164.823	800.000	-0.032	-0.098
-163.808	-80.480	0.255	-0.084
-162.793	61.402	0.099	0.096
-161.779	15.631	0.179	0.138
-160.764	701.510	-0.044	-0.113
-159.750	81.061	-0.315	-0.334
-158.735	119.724	0.197	0.240
-157.720	300.488	-0.039	-0.070
-156.706	-107.503	-0.103	0.022
-155.691	362.556	0.083	-0.164
-154.677	-10.528	0.053	0.034
-153.662	-185.181	0.201	-0.003
-152.647	-146.673	0.072	0.006
-151.633	115.918	-0.170	0.204
-150.618	243.560	0.223	0.366
-149.604	-139.978	-0.177	-0.018
-148.589	800.000	0.059	0.189
-147.574	40.350	-0.270	0.238
-146.560	-200.000	0.034	-0.280
-145.545	-85.452	0.100	0.031
-144.531	221.116	-0.129	0.203
-143.516	164.093	-0.197	-0.272
-142.502	-142.685	0.284	-0.027
-141.487	-17.047	0.168	-0.104
-140.472	452.334	-0.111	0.240
-139.458	-10.186	0.200	-0.130
-138.443	-200.000	0.002	-0.037
-137.429	49.256	-0.180	0.166
-136.414	-37.290	-0.303	-0.159
-135.399	-44.438	-0.131	0.065
-134.385	-23.104	0.176	0.104
-133.370	-70.456	0.189	0.070
-132.356	800.000	-0.052	0.145
-131.341	350.070	0.085	-0.165
-130.326	268.750	-0.037	0.064
-129.312	-137.508	0.450	0.050
-128.297	-179.948	-0.185	0.004
-127.283	-109.451	0.222	0.046
-126.268	172.910	0.206	-0.290
-125.253	474.245	-0.068	-0.150
-124.239	-87.309	-0.209	-0.062
-123.224	370.287	-0.125	0.249
-122.210	228.671	0.121	-0.194
