DTS Sentinel unit serial number:	SN413079Multiplexer serial number:	ORYXHardware model number:	OX4-SRSoftware version number:	ORYX F/W v4.00 Oryx Data Collector v3.7.2.0data status	okinstallation	princeton_trtdifferential loss correction	single-endedforward channel	channel 1reverse channel	N/Adate	2019/09/17time	01:34:35forward acquisition time	60.00reverse acquisition time	0.00gamma	496.2192k internal	0.2324k external	0.2324temperature offset calibration	0.9957default loss term (dB/km)	0.3790temperature slope calibration	1.0000multiplexer offset coefficient	1.0000multiplexer slope coefficient	1.0000fibre end	0.00T internal ref (°C)	29.55T ext. ref 1 (°C)	0.11T ext. ref 2 (°C)	24.46length (m)	temperature (°C)	Stokes	anti-Stokes-747.200	-81.529	-0.195	0.065
-746.185	-200.000	-0.004	0.185
-745.171	-88.906	0.201	0.060
-744.156	-63.810	-0.081	-0.033
-743.142	-140.070	0.254	0.027
-742.127	-148.052	-0.580	0.049
-741.112	316.725	0.137	0.261
-740.098	-200.000	0.009	0.259
-739.083	800.000	-0.051	0.170
-738.069	800.000	0.058	0.246
-737.054	-111.078	-0.062	-0.013
-736.039	-200.000	0.001	-0.282
-735.025	-58.007	0.164	-0.072
-734.010	-69.251	-0.131	-0.051
-732.996	-200.000	-0.036	-0.251
-731.981	-152.785	-0.392	0.028
-730.966	230.385	-0.184	-0.304
-729.952	-97.880	-0.365	0.095
-728.937	-200.000	-0.000	0.273
-727.923	-200.000	0.004	-0.234
-726.908	-200.000	-0.022	-0.192
-725.894	-78.484	-0.227	0.078
-724.879	53.336	-0.036	0.035
-723.864	-200.000	-0.076	-0.468
-722.850	-109.022	0.351	0.075
-721.835	-200.000	-0.039	0.336
-720.821	-133.603	-0.169	-0.021
-719.806	-46.171	-0.266	0.132
-718.791	-11.923	-0.330	-0.218
-717.777	768.865	0.009	0.024
-716.762	370.517	0.045	-0.091
-715.748	-151.106	-0.196	0.015
-714.733	-18.389	0.223	0.140
-713.718	-47.541	-0.332	0.163
-712.704	-193.646	-0.467	-0.004
-711.689	-17.606	-0.090	0.057
-710.675	208.344	0.138	-0.217
-709.660	41.661	-0.036	0.033
-708.645	339.018	0.086	0.169
-707.631	-131.868	0.259	0.034
-706.616	-161.612	-0.227	0.012
-705.602	-16.839	0.070	-0.045
-704.587	-16.877	-0.404	-0.257
-703.572	800.000	-0.022	-0.087
-702.558	-41.755	-0.038	0.020
-701.543	-46.293	-0.080	0.040
-700.529	514.525	0.044	-0.104
-699.514	24.083	0.300	0.249
-698.499	232.164	-0.190	-0.314
-697.485	103.507	-0.204	-0.241
-696.470	239.013	0.168	0.282
-695.456	-200.000	0.019	0.113
-694.441	-10.925	0.171	-0.114
-693.426	-37.633	-0.286	-0.153
-692.412	-151.837	-0.159	-0.012
-691.397	466.277	-0.225	0.509
-690.383	180.682	-0.092	0.136
-689.368	183.375	0.151	0.225
-688.354	-131.232	-0.283	0.038
-687.339	-102.391	-0.057	0.014
-686.324	66.997	0.113	0.116
-685.310	195.625	-0.160	0.245
-684.295	-200.000	-0.007	-0.084
-683.281	35.786	-0.216	-0.191
-682.266	745.144	-0.078	-0.212
-681.251	-115.345	0.171	-0.033
-680.237	-200.000	0.033	-0.243
-679.222	90.063	0.256	-0.288
-678.208	21.626	-0.193	0.158
-677.193	51.214	-0.213	-0.203
-676.178	111.069	0.140	-0.169
-675.164	-94.640	-0.056	0.015
-674.149	-200.000	-0.009	-0.255
-673.135	-84.793	0.263	-0.083
-672.120	-119.867	-0.194	0.034
-671.105	-200.000	-0.006	0.218
-670.091	333.241	0.051	-0.100
-669.076	53.166	-0.164	-0.158
-668.062	289.673	-0.237	0.433
-667.047	-139.294	-0.101	0.011
-666.032	-7.871	-0.316	-0.215
-665.018	474.770	-0.124	0.281
-664.003	800.000	-0.093	-0.273
-662.989	38.432	0.139	-0.125
-661.974	-200.000	0.028	-0.287
-660.959	784.956	-0.069	-0.191
-659.945	137.685	-0.204	-0.269
-658.930	1.059	-0.171	0.123
-657.916	-52.932	0.051	0.023
-656.901	13.875	0.018	0.014
-655.886	485.007	-0.058	-0.132
-654.872	-200.000	-0.022	-0.141
-653.857	-200.000	-0.015	-0.382
-652.843	-50.980	-0.321	-0.152
-651.828	-4.383	0.198	0.138
-650.814	-200.000	-0.002	0.031
-649.799	-40.472	0.170	-0.089
-648.784	-20.376	0.183	0.113
-647.770	-24.956	0.340	0.203
-646.755	-33.380	-0.153	0.085
-645.741	-49.861	-0.316	0.151
-644.726	353.792	-0.107	-0.213
-643.711	-77.019	0.209	-0.073
-642.697	-142.080	0.297	0.030
-641.682	-53.308	-0.266	-0.123
-640.668	101.666	0.153	-0.179
-639.653	-50.265	0.120	-0.057
-638.638	720.109	0.103	-0.276
-637.624	602.811	-0.058	0.144
-636.609	50.664	-0.101	0.096
-635.595	-148.825	0.137	-0.011
-634.580	-12.077	-0.177	0.116
-633.565	-9.478	-0.169	0.113
-632.551	398.423	-0.064	-0.134
-631.536	43.768	-0.061	0.057
-630.522	235.462	-0.086	-0.143
-629.507	-12.224	-0.130	0.085
-628.492	-200.000	0.011	0.123
-627.478	-158.571	-0.338	0.020
-626.463	94.880	-0.256	0.292
-625.449	136.154	-0.229	0.300
-624.434	122.406	0.074	0.093
-623.419	402.735	0.165	0.348
-622.405	37.933	0.129	0.115
-621.390	-55.043	-0.140	-0.063
-620.376	-200.000	-0.007	-0.076
-619.361	87.987	-0.124	0.138
-618.346	32.761	-0.328	0.285
-617.332	-141.348	-0.135	0.014
-616.317	11.893	0.118	0.091
-615.303	-69.606	0.153	0.059
-614.288	800.000	-0.004	0.014
-613.273	30.945	0.100	0.086
-612.259	-68.003	-0.012	0.005
-611.244	800.000	0.043	-0.122
-610.230	-77.607	-0.364	0.126
-609.215	31.281	-0.153	0.132
-608.201	74.988	-0.267	0.282
-607.186	800.000	-0.077	0.222
-606.171	98.091	-0.132	-0.152
-605.157	55.737	0.192	0.187
-604.142	-107.128	-0.091	-0.020
-603.128	631.347	-0.086	0.218
-602.113	65.136	-0.233	0.237
-601.098	743.278	0.035	0.093
-600.084	800.000	0.113	-0.322
-599.069	-126.220	-0.196	0.029
-598.055	-200.000	0.002	-0.487
-597.040	201.561	-0.060	-0.092
-596.025	-50.591	-0.291	0.138
-595.011	-35.217	-0.203	0.111
-593.996	30.790	0.262	-0.225
-592.982	30.148	0.123	-0.105
-591.967	-13.624	-0.103	0.067
-590.952	-69.716	0.033	0.013
-589.938	-17.336	0.242	-0.153
-588.923	77.988	-0.170	-0.182
-587.909	-200.000	-0.026	-0.118
-586.894	65.503	-0.095	0.096
-585.879	-75.541	0.210	0.075
-584.865	-114.546	0.147	-0.028
-583.850	-12.748	0.389	-0.255
-582.836	299.227	0.223	-0.412
-581.821	800.000	-0.025	-0.106
-580.806	-200.000	-0.011	-0.198
-579.792	-100.808	0.306	-0.075
-578.777	-21.667	-0.290	0.177
-577.763	800.000	0.036	0.146
-576.748	547.026	0.120	0.289
-575.733	140.098	-0.051	-0.068
-574.719	-200.000	0.056	-0.345
-573.704	800.000	-0.046	-0.166
-572.690	-109.201	-0.166	0.035
-571.675	74.427	-0.115	0.121
-570.661	-72.198	0.340	-0.126
-569.646	0.719	0.184	0.132
-568.631	399.633	-0.159	0.333
-567.617	45.796	0.160	-0.148
-566.602	-37.570	-0.180	0.096
-565.588	5.632	-0.201	0.149
-564.573	-200.000	-0.032	-0.171
-563.558	-145.904	-0.196	0.017
-562.544	464.242	0.081	-0.181
-561.529	800.000	-0.026	-0.099
-560.515	800.000	-0.038	-0.131
-559.500	382.094	-0.058	0.120
-558.485	-200.000	-0.020	-0.152
-557.471	-132.639	-0.236	0.030
-556.456	262.800	0.093	-0.162
-555.442	-199.850	0.216	0.001
-554.427	-28.605	0.183	-0.106
-553.412	72.724	-0.072	-0.075
-552.398	-82.477	-0.224	-0.073
-551.383	-56.187	0.159	-0.071
-550.369	179.298	-0.037	-0.054
-549.354	7.882	-0.082	-0.061
-548.339	293.322	0.088	0.161
-547.325	61.260	0.190	0.189
-546.310	415.029	0.091	-0.194
-545.296	-200.000	0.001	0.076
-544.281	-54.149	0.203	0.092
-543.266	-45.072	0.446	0.222
-542.252	64.816	-0.179	0.181
-541.237	800.000	-0.054	0.203
-540.223	-89.962	-0.249	0.073
-539.208	-22.864	-0.131	-0.079
-538.193	-29.272	0.302	-0.173
-537.179	800.000	0.106	0.319
-536.164	-200.000	0.057	0.296
-535.150	24.664	0.294	0.244
-534.135	-26.246	0.254	0.149
-533.121	53.764	-0.196	-0.188
-532.106	-32.620	0.319	0.178
-531.091	-40.413	-0.089	0.046
-530.077	800.000	-0.045	-0.145
-529.062	-200.000	0.002	0.127
-528.048	31.570	0.270	0.233
-527.033	-72.719	0.071	0.026
-526.018	55.857	0.227	0.220
-525.004	62.990	0.166	-0.166
-523.989	48.986	-0.099	0.093
-522.975	-72.479	0.281	-0.104
-521.960	36.076	-0.133	-0.118
-520.945	-54.036	-0.206	0.094
-519.931	-60.854	-0.121	-0.051
-518.916	-185.623	-0.425	0.006
-517.902	-5.111	-0.092	0.064
-516.887	-124.502	0.274	0.043
-515.872	-23.432	0.080	-0.048
-514.858	-65.311	-0.181	-0.073
-513.843	155.903	0.036	0.049
-512.829	35.163	0.167	-0.146
-511.814	24.548	-0.243	0.201
-510.799	11.549	-0.118	-0.090
-509.785	-6.249	-0.145	-0.099
-508.770	772.360	0.097	-0.265
-507.756	-9.759	0.177	0.118
-506.741	-140.245	0.175	-0.018
-505.726	226.039	-0.046	-0.074
-504.712	89.712	-0.218	-0.244
-503.697	-85.106	0.294	-0.092
-502.683	33.899	-0.303	0.263
-501.668	634.116	-0.098	0.248
-500.653	-200.000	0.033	-0.481
-499.639	-27.694	-0.193	-0.112
-498.624	-88.402	-0.304	-0.091
-497.610	99.369	0.229	0.265
-496.595	158.796	0.014	0.019
-495.581	447.025	0.075	-0.166
-494.566	256.486	0.169	-0.291
-493.551	-200.000	-0.020	-0.502
-492.537	-200.000	-0.003	-0.069
-491.522	-200.000	0.076	0.356
-490.508	128.483	-0.164	-0.209
-489.493	-18.541	0.235	0.147
-488.478	56.187	-0.187	0.182
-487.464	-200.000	-0.041	0.239
-486.449	800.000	0.045	-0.142
-485.435	41.396	0.292	-0.264
-484.420	800.000	0.041	-0.144
-483.405	-200.000	0.051	-0.255
-482.391	585.152	-0.039	0.095
-481.376	178.816	0.065	-0.095
-480.362	186.551	-0.038	-0.056
-479.347	38.406	0.138	0.123
-478.332	411.302	0.074	-0.157
-477.318	800.000	0.074	-0.219
-476.303	120.730	-0.296	-0.368
-475.289	-116.706	0.146	-0.027
-474.274	-109.518	-0.125	0.026
-473.259	-38.745	0.081	-0.042
-472.245	800.000	-0.059	-0.211
-471.230	-164.998	-0.277	-0.012
-470.216	-52.730	0.189	-0.087
-469.201	-82.036	-0.064	0.021
-468.186	496.498	-0.081	0.187
-467.172	28.845	0.232	0.197
-466.157	78.048	0.093	0.099
-465.143	74.685	0.161	0.169
-464.128	800.000	0.068	-0.208
-463.113	37.682	0.097	0.086
-462.099	-200.000	0.026	-0.263
-461.084	251.295	-0.146	-0.249
-460.070	-200.000	0.026	-0.139
-459.055	-88.692	-0.321	-0.095
-458.040	800.000	-0.046	-0.182
-457.026	57.431	-0.100	-0.097
-456.011	-198.571	0.122	-0.001
-454.997	-88.488	0.263	-0.078
-453.982	-200.000	0.007	-0.284
-452.968	-200.000	-0.025	-0.182
-451.953	800.000	-0.013	0.051
-450.938	11.104	-0.347	0.265
-449.924	-41.389	0.248	0.127
-448.909	181.183	0.212	0.311
-447.895	800.000	0.044	-0.191
-446.880	16.919	0.140	-0.111
-445.865	287.932	0.134	0.241
-444.851	-37.956	-0.220	-0.117
-443.836	-56.672	-0.050	-0.022
-442.822	-200.000	-0.019	-0.294
-441.807	-49.401	0.288	-0.137
-440.792	-200.000	0.035	-0.256
-439.778	-200.000	-0.010	-0.101
-438.763	-76.226	0.189	-0.067
-437.749	-200.000	0.013	0.102
-436.734	-200.000	-0.044	0.216
-435.719	-60.589	-0.141	0.060
-434.705	-39.550	-0.190	-0.099
-433.690	-146.866	0.215	-0.018
-432.676	-60.775	-0.354	0.149
-431.661	-200.000	0.013	-0.069
-430.646	-200.000	0.047	0.302
-429.632	-200.000	0.004	0.181
-428.617	283.677	0.145	-0.259
-427.603	-122.954	0.174	0.028
-426.588	4.050	-0.130	-0.095
-425.573	7.271	0.236	0.176
-424.559	-153.064	-0.235	-0.016
-423.544	441.743	0.107	0.234
-422.530	800.000	0.086	0.246
-421.515	87.906	0.146	-0.161
-420.500	475.346	-0.152	-0.341
-419.486	-200.000	-0.036	-0.235
-418.471	-139.329	-0.255	-0.027
-417.457	56.577	-0.112	-0.108
-416.442	18.176	-0.111	-0.089
-415.428	-200.000	0.026	-0.115
-414.413	-93.996	0.134	-0.037
-413.398	-200.000	-0.013	0.132
-412.384	80.687	-0.094	-0.101
-411.369	296.403	0.100	0.182
-410.355	-123.656	-0.185	-0.029
-409.340	-200.000	-0.040	-0.370
-408.325	215.169	0.155	0.246
-407.311	-33.637	-0.180	0.099
-406.296	94.804	-0.281	0.318
-405.282	-53.287	-0.131	-0.060
-404.267	-200.000	-0.025	0.321
-403.252	-88.908	0.254	0.075
-402.238	-200.000	-0.030	0.207
-401.223	-2.633	-0.142	0.099
-400.209	28.380	-0.179	-0.151
-399.194	800.000	0.047	0.185
-398.179	-133.717	0.246	-0.031
-397.165	-1.093	0.108	0.076
-396.150	34.413	-0.246	-0.214
-395.136	800.000	0.040	0.139
-394.121	98.631	0.224	-0.257
-393.106	800.000	0.050	0.194
-392.092	-90.225	0.300	0.087
-391.077	-94.361	0.226	0.061
-390.063	800.000	-0.081	0.260
-389.048	501.912	0.117	0.268
-388.033	-33.036	-0.026	-0.014
-387.019	-47.871	-0.392	-0.189
-386.004	800.000	0.015	0.047
-384.990	-200.000	0.008	-0.049
-383.975	-200.000	0.004	-0.160
-382.960	-63.076	-0.167	-0.068
-381.946	800.000	-0.039	-0.145
-380.931	-200.000	-0.004	0.390
-379.917	-37.438	-0.035	0.019
-378.902	-116.082	-0.129	0.024
-377.888	-8.551	-0.135	0.090
-376.873	28.266	0.171	0.144
-375.858	-94.467	-0.109	-0.030
-374.844	-131.046	0.269	-0.036
-373.829	800.000	0.021	0.059
-372.815	800.000	0.067	-0.288
-371.800	-120.669	0.098	0.016
-370.785	-200.000	0.048	-0.249
-369.771	-113.333	-0.132	0.026
-368.756	-56.750	-0.276	0.121
-367.742	-72.692	0.431	-0.158
-366.727	47.084	0.330	0.306
-365.712	468.349	-0.034	-0.076
-364.698	-200.000	0.015	0.172
-363.683	278.740	-0.119	0.211
-362.669	800.000	-0.017	0.055
-361.654	-73.559	0.321	-0.116
-360.639	536.689	0.081	0.191
-359.625	-64.011	-0.074	-0.030
-358.610	-33.156	-0.138	0.076
-357.596	159.032	0.116	0.160
-356.581	-200.000	-0.011	0.161
-355.566	-193.569	-0.172	0.001
-354.552	63.797	-0.160	0.159
-353.537	172.170	0.218	-0.312
-352.523	-121.203	-0.089	0.015
-351.508	-76.114	0.135	-0.047
-350.493	436.996	-0.093	-0.201
-349.479	-70.629	-0.304	0.114
-348.464	164.832	-0.207	-0.290
-347.450	54.714	0.168	-0.161
-346.435	-7.977	0.016	0.011
-345.420	67.306	-0.150	0.152
-344.406	735.292	-0.048	0.129
-343.391	26.303	0.133	-0.110
-342.377	115.195	-0.171	0.207
-341.362	800.000	-0.162	0.532
-340.348	-16.184	-0.215	-0.136
-339.333	100.823	-0.219	0.253
-338.318	328.286	0.044	-0.083
-337.304	800.000	0.074	-0.207
-336.289	47.094	-0.294	-0.272
-335.275	-200.000	0.001	-0.040
-334.260	-200.000	0.018	-0.295
-333.245	-46.489	0.303	0.148
-332.231	466.398	-0.052	-0.117
-331.216	223.712	-0.080	0.129
-330.202	-46.145	0.345	-0.169
-329.187	-200.000	-0.020	0.225
-328.172	-159.828	0.089	-0.005
-327.158	265.323	-0.077	-0.134
-326.143	260.513	0.142	-0.244
-325.129	-200.000	-0.013	0.327
-324.114	89.715	-0.169	0.188
-323.099	-200.000	0.024	-0.182
-322.085	-75.662	0.065	-0.023
-321.070	721.876	0.099	-0.263
-320.056	-0.909	-0.170	0.120
-319.041	-200.000	-0.010	-0.192
-318.026	344.722	0.119	0.233
-317.012	-94.698	0.157	-0.042
-315.997	32.905	0.026	-0.022
-314.983	-200.000	-0.005	0.238
-313.968	33.873	-0.363	-0.314
-312.953	-200.000	-0.016	-0.342
-311.939	520.171	-0.109	0.254
-310.924	-60.170	0.247	-0.104
-309.910	-196.270	-0.274	-0.002
-308.895	751.449	0.150	-0.401
-307.880	-138.617	-0.263	-0.029
-306.866	147.650	0.077	0.103
-305.851	-30.978	0.116	0.065
-304.837	527.834	0.173	0.404
-303.822	197.264	0.125	0.189
-302.807	800.000	-0.017	0.056
-301.793	-71.516	0.179	0.067
-300.778	139.813	0.090	-0.118
-299.764	-0.687	0.356	0.250
-298.749	-200.000	-0.050	0.309
-297.735	313.816	0.065	0.121
-296.720	-71.106	0.237	-0.088
-295.705	-115.548	-0.327	0.061
-294.691	456.199	0.196	0.432
-293.676	-50.449	0.367	0.172
-292.662	16.164	0.037	0.029
-291.647	-200.000	-0.083	-0.466
-290.632	376.652	0.030	0.060
-289.618	-136.072	-0.221	0.026
-288.603	800.000	0.049	0.182
-287.589	-200.000	0.002	0.171
-286.574	-138.261	0.259	0.028
-285.559	-200.000	0.026	-0.190
-284.545	-111.400	-0.205	0.041
-283.530	-50.698	0.170	-0.079
-282.516	-200.000	0.013	0.089
-281.501	-200.000	0.052	-0.288
-280.486	-186.595	0.159	-0.002
-279.472	-115.938	-0.026	-0.005
-278.457	-129.945	-0.366	0.050
-277.443	64.202	0.172	-0.172
-276.428	679.970	0.048	-0.125
-275.413	50.150	-0.144	0.134
-274.399	-77.403	0.188	-0.065
-273.384	-200.000	-0.034	-0.417
-272.370	-200.000	0.024	0.196
-271.355	800.000	0.003	0.015
-270.340	800.000	0.116	-0.349
-269.326	-126.012	0.231	-0.034
-268.311	381.599	-0.138	-0.280
-267.297	76.930	-0.171	0.179
-266.282	-200.000	-0.013	-0.106
-265.267	-94.264	-0.157	0.043
-264.253	241.961	-0.198	-0.328
-263.238	48.565	0.126	0.117
-262.224	-137.006	-0.064	-0.007
-261.209	-103.814	0.221	0.051
-260.195	800.000	0.102	0.324
-259.180	238.511	-0.028	0.045
-258.165	190.581	0.094	-0.141
-257.151	800.000	0.032	0.087
-256.136	367.566	-0.070	-0.140
-255.122	-200.000	0.016	0.254
-254.107	800.000	0.026	-0.105
-253.092	-148.672	-0.273	0.022
-252.078	-200.000	-0.032	0.324
-251.063	-106.189	0.143	-0.032
-250.049	-200.000	0.035	0.254
-249.034	-21.475	0.206	0.124
-248.019	-200.000	0.039	-0.194
-247.005	103.312	-0.121	0.140
-245.990	-146.469	-0.244	0.021
-244.976	-200.000	0.046	-0.509
-243.961	-31.243	0.556	-0.310
-242.946	800.000	0.041	0.143
-241.932	89.269	-0.177	-0.196
-240.917	213.852	0.044	0.068
-239.903	-15.866	-0.144	-0.091
-238.888	800.000	0.014	-0.050
-237.873	41.735	-0.159	-0.143
-236.859	125.833	-0.175	0.219
-235.844	800.000	0.079	-0.285
-234.830	-120.202	-0.387	0.065
-233.815	-121.438	-0.188	-0.031
-232.800	92.630	0.181	0.202
-231.786	400.081	0.171	0.355
-230.771	-200.000	-0.049	0.421
-229.757	-89.748	-0.167	0.048
-228.742	640.164	0.068	-0.172
-227.727	30.365	-0.144	0.121
-226.713	-200.000	-0.053	0.273
-225.698	800.000	-0.012	-0.049
-224.684	152.746	0.324	0.438
-223.669	-131.546	-0.070	0.009
-222.655	155.146	-0.058	0.079
-221.640	-33.407	-0.239	-0.131
-220.625	94.456	-0.109	-0.123
-219.611	720.000	-0.062	-0.162
-218.596	-16.852	0.144	0.090
-217.582	61.451	0.134	0.132
-216.567	406.328	0.054	-0.113
-215.552	159.106	0.279	0.384
-214.538	-89.240	0.151	0.044
-213.523	-161.564	-0.298	0.015
-212.509	399.961	0.175	-0.364
-211.494	-114.767	0.412	-0.078
-210.479	173.850	-0.192	0.274
-209.465	-126.391	-0.250	0.037
-208.450	-101.754	0.289	0.069
-207.436	-118.535	0.161	-0.028
-206.421	90.531	-0.209	-0.231
-205.406	-101.091	-0.224	-0.054
-204.392	781.149	0.050	-0.135
-203.377	-200.000	-0.036	-0.258
-202.363	-77.398	-0.137	0.047
-201.348	-8.387	-0.157	-0.104
-200.333	-63.198	-0.444	0.181
-199.319	-200.000	-0.025	-0.116
-198.304	-7.670	0.131	-0.088
-197.290	93.923	-0.225	-0.252
-196.275	40.743	0.337	-0.300
-195.260	-200.000	0.009	-0.152
-194.246	610.187	-0.071	-0.176
-193.231	-34.275	-0.125	-0.068
-192.217	293.691	0.169	-0.304
-191.202	44.927	0.221	0.201
-190.187	134.616	-0.046	0.059
-189.173	800.000	-0.085	-0.343
-188.158	11.435	0.187	-0.141
-187.144	-200.000	0.047	-0.300
-186.129	-200.000	-0.020	-0.090
-185.114	-200.000	-0.026	-0.259
-184.100	13.089	-0.273	0.208
-183.085	-200.000	0.044	-0.308
-182.071	-72.197	-0.161	-0.059
-181.056	-38.698	0.108	0.056
-180.042	-200.000	0.037	0.296
-179.027	-158.889	-0.377	0.021
-178.012	-84.695	-0.182	-0.056
-176.998	-74.120	-0.216	0.077
-175.983	-46.503	-0.158	-0.077
-174.969	-54.171	0.130	0.058
-173.954	-70.262	0.365	0.137
-172.939	-50.600	0.166	-0.077
-171.925	-19.359	0.119	0.073
-170.910	-134.049	-0.256	-0.031
-169.896	0.732	-0.045	0.032
-168.881	-63.668	0.147	0.060
-167.866	62.565	-0.099	0.098
-166.852	180.401	0.048	-0.070
-165.837	-6.265	-0.364	0.245
-164.823	102.093	0.116	0.133
-163.808	-8.994	-0.067	0.045
-162.793	95.034	-0.121	0.136
-161.779	-22.326	0.429	0.257
-160.764	-90.482	-0.231	-0.066
-159.750	36.420	-0.143	-0.124
-158.735	378.026	-0.043	-0.087
-157.720	-163.296	-0.253	-0.012
-156.706	159.288	0.164	-0.225
-155.691	119.086	0.152	0.185
-154.677	272.506	-0.099	0.171
-153.662	-200.000	0.042	0.212
-152.647	327.969	0.171	0.323
-151.633	-200.000	0.006	-0.172
-150.618	174.564	0.303	0.432
-149.604	-94.858	0.327	0.087
-148.589	-200.000	0.021	-0.323
-147.574	-135.695	0.148	0.017
-146.560	269.825	0.152	0.264
-145.545	-200.000	-0.092	0.419
-144.531	-47.234	-0.200	-0.096
-143.516	88.533	0.298	-0.327
-142.502	34.690	-0.206	-0.178
-141.487	-200.000	0.025	-0.146
-140.472	423.905	0.102	-0.216
-139.458	363.537	0.065	-0.129
-138.443	-200.000	0.030	0.169
-137.429	45.885	-0.240	-0.219
-136.414	-141.684	0.050	-0.005
-135.399	19.560	0.051	-0.040
-134.385	-136.413	-0.440	-0.050
-133.370	800.000	-0.086	0.285
-132.356	52.202	0.267	-0.251
-131.341	-64.708	-0.239	-0.095
-130.326	-20.422	-0.249	0.151
-129.312	-200.000	0.016	-0.326
-128.297	-200.000	0.029	0.197
-127.283	136.925	-0.200	-0.258
-126.268	61.427	-0.233	-0.228
-125.253	311.812	-0.072	0.133
-124.239	317.987	-0.146	0.272
-123.224	-47.077	0.249	0.120
-122.210	-163.388	0.388	0.018
-121.195	122.268	0.207	-0.255
