DTS Sentinel unit serial number:	SN413079Multiplexer serial number:	ORYXHardware model number:	OX4-SRSoftware version number:	ORYX F/W v4.00 Oryx Data Collector v3.7.2.0data status	okinstallation	princeton_trtdifferential loss correction	single-endedforward channel	channel 1reverse channel	N/Adate	2019/09/13time	13:38:35forward acquisition time	60.00reverse acquisition time	0.00gamma	496.2192k internal	0.2303k external	0.2303temperature offset calibration	1.0162default loss term (dB/km)	0.3790temperature slope calibration	1.0000multiplexer offset coefficient	1.0000multiplexer slope coefficient	1.0000fibre end	0.00T internal ref (°C)	35.08T ext. ref 1 (°C)	4.57T ext. ref 2 (°C)	31.57length (m)	temperature (°C)	Stokes	anti-Stokes-747.200	-71.139	0.232	0.089
-746.185	-104.440	-0.135	-0.032
-745.171	400.631	-0.184	0.394
-744.156	-42.696	0.175	0.091
-743.142	-200.000	0.030	0.280
-742.127	-200.000	-0.034	-0.211
-741.112	499.585	0.084	0.197
-740.098	279.523	0.060	0.109
-739.083	-158.898	0.142	-0.008
-738.069	680.919	-0.033	0.086
-737.054	-100.374	0.197	0.050
-736.039	16.192	-0.270	0.217
-735.025	9.131	-0.112	0.086
-734.010	-70.421	-0.071	0.028
-732.996	-85.262	-0.128	-0.041
-731.981	171.932	0.179	-0.262
-730.966	800.000	0.031	0.098
-729.952	0.991	0.293	-0.214
-728.937	-165.033	-0.313	0.014
-727.923	101.133	0.042	-0.049
-726.908	-71.047	-0.089	-0.034
-725.894	-138.157	-0.324	0.037
-724.879	210.264	0.081	-0.130
-723.864	0.578	0.083	-0.060
-722.850	-200.000	0.068	-0.449
-721.835	104.999	-0.322	-0.387
-720.821	309.218	-0.073	-0.138
-719.806	-93.308	-0.152	-0.043
-718.791	-38.602	-0.255	0.137
-717.777	-99.080	-0.129	-0.033
-716.762	-54.504	-0.223	0.103
-715.748	-105.574	0.233	0.054
-714.733	-64.249	-0.184	0.076
-713.718	63.977	-0.246	-0.251
-712.704	100.767	0.104	-0.123
-711.689	-81.077	-0.193	-0.065
-710.675	-200.000	-0.030	-0.273
-709.660	786.707	0.072	-0.201
-708.645	-65.652	0.251	-0.102
-707.631	-81.389	-0.099	-0.033
-706.616	-200.000	-0.003	-0.229
-705.602	-13.196	-0.210	-0.139
-704.587	-47.392	-0.227	-0.112
-703.572	-65.428	0.045	0.018
-702.558	-47.549	0.205	0.101
-701.543	-103.702	0.182	-0.043
-700.529	71.830	0.194	-0.205
-699.514	106.307	0.182	-0.219
-698.499	601.228	-0.062	0.155
-697.485	-65.061	-0.171	-0.070
-696.470	800.000	0.055	-0.237
-695.456	-58.411	-0.451	-0.199
-694.441	-141.528	0.251	-0.026
-693.426	-39.926	-0.224	-0.119
-692.412	119.899	0.114	0.144
-691.397	-58.882	0.074	0.032
-690.383	-24.203	-0.272	-0.165
-689.368	-200.000	0.045	-0.361
-688.354	-3.313	-0.321	0.227
-687.339	318.005	-0.043	-0.083
-686.324	-200.000	0.003	-0.040
-685.310	-165.642	-0.090	0.004
-684.295	-36.309	0.176	-0.096
-683.281	473.360	0.164	0.375
-682.266	-46.369	-0.385	-0.192
-681.251	71.024	0.355	-0.374
-680.237	256.214	-0.079	-0.138
-679.222	800.000	0.042	-0.143
-678.208	119.701	0.107	-0.134
-677.193	24.464	0.357	-0.300
-676.178	324.438	-0.120	0.232
-675.164	800.000	-0.123	0.473
-674.149	-20.298	-0.092	0.057
-673.135	-200.000	-0.043	-0.289
-672.120	-200.000	0.007	0.046
-671.105	-77.367	0.280	0.099
-670.091	-92.673	-0.069	-0.020
-669.076	577.029	0.029	0.072
-668.062	-115.397	0.248	-0.047
-667.047	-123.680	-0.295	0.047
-666.032	73.367	0.149	0.158
-665.018	-135.494	-0.509	-0.062
-664.003	69.078	0.071	-0.074
-662.989	127.369	0.211	-0.272
-661.974	800.000	0.116	-0.444
-660.959	-59.248	-0.125	0.055
-659.945	-100.996	-0.231	0.058
-658.930	206.398	0.098	-0.156
-657.916	547.079	-0.028	0.068
-656.901	-87.742	0.086	0.026
-655.886	104.656	-0.094	-0.113
-654.872	-18.439	-0.300	-0.190
-653.857	-200.000	-0.025	0.207
-652.843	800.000	-0.054	0.179
-651.828	-109.661	0.189	-0.040
-650.814	193.717	0.069	0.106
-649.799	-170.232	-0.164	-0.006
-648.784	493.299	-0.027	-0.063
-647.770	-81.541	0.357	-0.119
-646.755	-77.032	-0.469	-0.166
-645.741	35.144	0.119	-0.106
-644.726	800.000	0.057	-0.194
-643.711	-200.000	0.018	-0.204
-642.697	296.064	0.071	0.132
-641.682	-86.862	0.193	-0.060
-640.668	169.403	-0.218	0.316
-639.653	65.778	0.099	0.102
-638.638	-195.731	-0.331	-0.002
-637.624	-200.000	0.015	-0.117
-636.609	159.411	0.098	0.139
-635.595	-20.887	0.167	0.104
-634.580	-78.759	-0.329	-0.114
-633.565	30.664	-0.188	-0.163
-632.551	-3.682	-0.399	-0.281
-631.536	-127.424	0.261	-0.039
-630.522	800.000	0.056	0.246
-629.507	8.836	0.425	0.325
-628.492	65.279	0.256	-0.262
-627.478	-91.926	-0.130	0.037
-626.463	-170.876	0.125	-0.004
-625.449	800.000	-0.030	0.090
-624.434	204.708	-0.108	-0.170
-623.419	445.216	-0.074	-0.165
-622.405	-167.267	-0.331	-0.014
-621.390	101.792	0.167	-0.197
-620.376	70.809	0.051	0.054
-619.361	800.000	0.022	-0.062
-618.346	-14.126	-0.168	0.110
-617.332	-73.475	0.193	-0.072
-616.317	-148.582	-0.207	-0.017
-615.303	-64.871	0.056	0.023
-614.288	-200.000	-0.002	-0.020
-613.273	223.588	0.111	0.182
-612.259	69.788	-0.158	0.165
-611.244	-55.814	-0.094	-0.043
-610.230	-120.139	-0.268	-0.047
-609.215	-87.149	0.196	-0.060
-608.201	800.000	-0.022	0.066
-607.186	-9.934	-0.129	0.087
-606.171	47.899	0.208	-0.197
-605.157	6.686	-0.069	0.052
-604.142	-200.000	0.026	0.229
-603.128	2.443	0.111	0.082
-602.113	-63.570	-0.253	0.105
-601.098	-155.657	-0.138	0.009
-600.084	-17.034	0.457	0.292
-599.069	-95.577	-0.082	0.022
-598.055	800.000	-0.026	-0.082
-597.040	-62.839	0.140	0.059
-596.025	-117.051	0.115	-0.021
-595.011	46.944	-0.190	-0.179
-593.996	-171.022	-0.286	-0.010
-592.982	399.562	-0.117	-0.248
-591.967	-114.292	0.223	-0.044
-590.952	68.749	-0.183	-0.190
-589.938	-9.576	0.240	0.162
-588.923	-200.000	0.061	0.337
-587.909	-40.262	0.299	0.158
-586.894	-88.559	0.093	0.028
-585.879	-200.000	0.013	-0.232
-584.865	32.828	0.112	-0.098
-583.850	-130.983	-0.248	0.034
-582.836	-200.000	0.018	0.153
-581.821	-200.000	-0.069	0.394
-580.806	21.982	-0.409	-0.337
-579.792	47.015	-0.076	-0.071
-578.777	88.315	-0.106	-0.119
-577.763	-200.000	0.016	-0.257
-576.748	-200.000	-0.047	0.281
-575.733	-33.689	-0.268	0.150
-574.719	-46.731	0.190	0.094
-573.704	104.118	-0.229	-0.273
-572.690	501.213	-0.077	-0.181
-571.675	-114.049	0.309	0.061
-570.661	366.614	0.146	-0.299
-569.646	-89.043	-0.227	0.068
-568.631	-200.000	-0.005	0.192
-567.617	-65.270	-0.158	-0.064
-566.602	3.732	-0.206	-0.152
-565.588	-126.761	0.288	-0.043
-564.573	176.790	0.189	-0.277
-563.558	-0.164	0.261	-0.188
-562.544	-87.115	0.164	-0.050
-561.529	-88.530	-0.389	-0.117
-560.515	-148.455	-0.133	0.011
-559.500	25.352	0.186	-0.156
-558.485	-110.188	0.411	0.087
-557.471	317.024	-0.144	0.274
-556.456	16.915	0.279	0.223
-555.442	148.562	-0.032	0.043
-554.427	313.600	-0.119	0.227
-553.412	23.432	-0.165	-0.138
-552.398	-74.029	0.193	-0.071
-551.383	-113.248	0.295	0.059
-550.369	50.399	-0.310	0.296
-549.354	1.195	0.072	-0.052
-548.339	438.220	-0.157	-0.345
-547.325	634.333	-0.041	0.105
-546.310	112.599	0.142	0.174
-545.296	-78.568	-0.267	0.092
-544.281	259.570	-0.209	-0.364
-543.266	40.078	0.264	-0.240
-542.252	230.552	-0.057	0.094
-541.237	-10.217	-0.190	0.127
-540.223	224.953	0.024	0.039
-539.208	51.152	0.190	0.182
-538.193	-120.742	0.117	0.020
-537.179	-58.930	-0.153	0.067
-536.164	-32.942	0.345	0.194
-535.150	65.224	-0.041	-0.042
-534.135	-71.207	-0.330	-0.125
-533.121	-17.990	0.205	-0.130
-532.106	304.916	0.100	-0.188
-531.091	-63.436	0.107	0.045
-530.077	-159.693	-0.113	0.006
-529.062	800.000	0.144	0.481
-528.048	-200.000	-0.018	-0.204
-527.033	736.186	-0.063	0.170
-526.018	220.185	-0.085	-0.137
-525.004	428.451	-0.045	-0.098
-523.989	3.843	-0.238	0.176
-522.975	29.711	0.271	0.233
-521.960	-36.627	-0.206	-0.112
-520.945	285.141	0.130	-0.236
-519.931	369.331	0.079	0.161
-518.916	-55.589	-0.113	-0.051
-517.902	-200.000	0.031	-0.190
-516.887	174.524	-0.192	0.281
-515.872	284.626	0.152	-0.275
-514.858	800.000	-0.026	-0.085
-513.843	301.526	0.049	-0.092
-512.829	121.236	0.190	0.239
-511.814	40.220	0.219	0.199
-510.799	40.749	0.349	-0.318
-509.785	14.728	0.261	0.206
-508.770	-101.132	0.083	-0.020
-507.756	-46.478	-0.223	-0.110
-506.741	736.278	-0.102	0.275
-505.726	-200.000	-0.051	0.260
-504.712	97.354	0.063	-0.073
-503.697	19.736	-0.168	0.137
-502.683	-14.329	-0.233	-0.151
-501.668	-144.776	-0.071	-0.007
-500.653	800.000	0.056	0.213
-499.639	-41.969	-0.048	-0.025
-498.624	-50.719	0.148	-0.070
-497.610	-135.690	0.202	-0.024
-496.595	286.673	0.141	0.257
-495.581	587.389	-0.159	0.395
-494.566	257.588	-0.053	0.092
-493.551	-97.142	-0.290	0.077
-492.537	-173.389	0.278	-0.009
-491.522	-200.000	-0.005	0.186
-490.508	48.574	-0.075	0.070
-489.493	-200.000	0.018	-0.127
-488.478	-200.000	-0.004	-0.182
-487.464	85.423	-0.108	0.120
-486.449	800.000	-0.029	-0.092
-485.435	-200.000	0.016	0.170
-484.420	80.724	-0.160	0.173
-483.405	368.001	-0.007	0.014
-482.391	55.752	0.201	0.196
-481.376	615.892	0.148	0.375
-480.362	4.910	-0.047	-0.035
-479.347	152.539	0.056	-0.077
-478.332	132.286	0.112	-0.145
-477.318	-73.791	-0.151	-0.055
-476.303	-44.038	0.091	0.046
-475.289	36.274	0.258	-0.229
-474.274	-200.000	0.023	0.332
-473.259	-81.331	-0.478	0.159
-472.245	-200.000	-0.000	0.047
-471.230	-200.000	0.012	-0.177
-470.216	64.544	0.317	-0.322
-469.201	-200.000	0.013	0.154
-468.186	800.000	-0.077	0.249
-467.172	-200.000	0.046	0.249
-466.157	235.204	0.162	0.269
-465.143	-84.941	0.070	0.022
-464.128	16.671	0.224	-0.178
-463.113	183.092	-0.204	0.304
-462.099	-200.000	0.040	0.195
-461.084	62.949	-0.341	0.344
-460.070	-71.023	-0.321	-0.122
-459.055	-102.625	-0.217	-0.052
-458.040	-200.000	0.039	-0.176
-457.026	-200.000	-0.064	-0.308
-456.011	-113.693	0.252	-0.049
-454.997	-200.000	0.010	-0.099
-453.982	634.649	-0.108	-0.276
-452.968	-34.294	-0.097	-0.054
-451.953	-57.081	0.316	-0.140
-450.938	-19.273	-0.035	0.022
-449.924	92.057	-0.078	0.089
-448.909	-60.503	-0.075	0.032
-447.895	-200.000	-0.023	0.148
-446.880	-200.000	0.019	-0.347
-445.865	156.152	0.205	-0.284
-444.851	201.231	-0.078	0.120
-443.836	639.156	-0.134	-0.344
-442.822	-103.676	-0.150	0.035
-441.807	607.050	0.040	-0.099
-440.792	203.764	-0.088	0.137
-439.778	42.470	-0.142	0.130
-438.763	-16.474	0.181	0.116
-437.749	103.619	-0.076	-0.090
-436.734	740.646	-0.087	-0.234
-435.719	-38.768	0.393	-0.209
-434.705	64.061	0.072	-0.073
-433.690	-94.294	0.273	-0.075
-432.676	-123.875	-0.541	-0.086
-431.661	-200.000	0.011	0.087
-430.646	190.780	-0.112	-0.170
-429.632	-92.719	-0.111	0.031
-428.617	57.751	-0.147	0.145
-427.603	24.863	0.239	0.200
-426.588	-200.000	-0.013	0.217
-425.573	-78.840	0.065	0.022
-424.559	175.713	0.141	-0.206
-423.544	800.000	-0.037	-0.113
-422.530	34.266	0.113	0.099
-421.515	27.132	0.100	0.084
-420.500	452.726	-0.040	0.088
-419.486	-45.668	-0.171	0.085
-418.471	-124.433	0.228	-0.036
-417.457	347.863	0.033	-0.065
-416.442	-111.962	-0.208	-0.042
-415.428	217.095	-0.155	0.249
-414.413	181.791	0.119	-0.176
-413.398	-141.352	-0.184	-0.019
-412.384	-151.999	0.288	0.021
-411.369	-168.257	-0.266	0.010
-410.355	327.926	0.073	-0.141
-409.340	42.042	0.078	0.071
-408.325	101.858	0.116	-0.136
-407.311	4.754	0.195	-0.144
-406.296	-3.158	0.039	0.027
-405.282	-200.000	0.008	-0.160
-404.267	-200.000	-0.027	-0.227
-403.252	-100.223	-0.270	0.067
-402.238	-42.997	0.205	0.104
-401.223	-7.993	0.179	0.121
-400.209	-89.835	-0.271	0.080
-399.194	-200.000	-0.011	0.087
-398.179	-200.000	0.019	0.265
-397.165	107.055	0.007	0.008
-396.150	613.371	-0.083	0.209
-395.136	6.626	0.377	0.282
-394.121	213.877	-0.146	0.233
-393.106	17.053	0.183	-0.146
-392.092	204.874	-0.117	0.183
-391.077	-125.722	0.309	0.047
-390.063	800.000	0.045	0.139
-389.048	-200.000	-0.045	0.397
-388.033	388.915	-0.040	0.084
-387.019	-62.736	0.084	-0.035
-386.004	122.791	-0.150	0.188
-384.990	370.603	0.149	-0.303
-383.975	221.691	0.099	-0.160
-382.960	-13.670	0.388	-0.252
-381.946	183.987	-0.064	0.096
-380.931	179.973	-0.038	0.056
-379.917	46.827	0.229	0.214
-378.902	139.987	-0.186	-0.246
-377.888	261.991	0.164	0.286
-376.873	50.334	0.209	0.198
-375.858	-156.714	-0.152	-0.009
-374.844	-143.048	-0.365	0.035
-373.829	-1.137	-0.259	-0.184
-372.815	-10.986	0.358	0.237
-371.800	116.387	-0.137	-0.168
-370.785	102.637	-0.110	0.129
-369.771	28.012	-0.189	0.160
-368.756	800.000	-0.039	-0.149
-367.742	212.805	0.208	-0.329
-366.727	-161.210	0.241	0.013
-365.712	197.867	0.207	-0.318
-364.698	-55.115	-0.178	0.080
-363.683	-120.526	-0.049	0.008
-362.669	-36.155	-0.306	0.166
-361.654	-119.439	0.209	0.036
-360.639	-200.000	-0.048	-0.387
-359.625	-200.000	-0.002	-0.346
-358.610	127.096	0.212	-0.270
-357.596	-11.187	0.042	-0.028
-356.581	-102.699	-0.560	0.134
-355.566	34.715	0.046	-0.040
-354.552	-200.000	0.069	0.372
-353.537	630.825	-0.084	-0.213
-352.523	800.000	-0.056	-0.238
-351.508	-82.675	0.152	0.049
-350.493	132.651	-0.048	0.062
-349.479	-89.051	0.430	0.128
-348.464	-200.000	0.032	0.219
-347.450	91.474	0.098	0.111
-346.435	800.000	-0.103	-0.318
-345.420	-110.354	0.114	0.024
-344.406	1.091	0.176	-0.127
-343.391	76.659	0.011	0.012
-342.377	800.000	-0.056	-0.190
-341.362	-200.000	0.016	0.090
-340.348	8.422	-0.314	0.237
-339.333	15.109	0.258	0.203
-338.318	441.999	-0.117	-0.257
-337.304	-200.000	0.009	-0.178
-336.289	800.000	0.043	-0.186
-335.275	138.351	-0.035	0.047
-334.260	248.489	0.188	-0.319
-333.245	-12.040	0.295	0.193
-332.231	-185.183	0.054	0.001
-331.216	261.532	-0.136	0.236
-330.202	30.515	-0.128	-0.109
-329.187	301.136	0.140	-0.259
-328.172	288.981	-0.091	-0.165
-327.158	9.772	0.170	0.129
-326.143	295.685	-0.068	0.125
-325.129	-105.720	-0.209	0.047
-324.114	-123.061	0.215	-0.035
-323.099	-135.179	-0.175	-0.021
-322.085	115.573	-0.111	0.136
-321.070	-54.061	0.184	-0.084
-320.056	-91.809	-0.328	0.093
-319.041	-130.028	0.068	0.009
-318.026	800.000	0.133	-0.447
-317.012	-21.809	-0.343	-0.209
-315.997	-23.211	0.126	-0.076
-314.983	-82.132	-0.116	-0.038
-313.968	39.224	-0.233	0.208
-312.953	-119.036	0.173	-0.030
-311.939	288.543	0.115	-0.208
-310.924	151.704	-0.037	-0.051
-309.910	-200.000	0.010	0.130
-308.895	20.386	-0.194	0.157
-307.880	179.611	0.157	-0.231
-306.866	424.970	0.039	0.085
-305.851	152.707	0.192	0.262
-304.837	309.311	-0.194	0.363
-303.822	-135.542	-0.303	0.036
-302.807	-130.554	-0.012	-0.002
-301.793	-144.160	-0.318	-0.030
-300.778	51.781	0.106	-0.101
-299.764	-9.890	-0.176	0.117
-298.749	-127.584	0.407	-0.059
-297.735	-96.394	-0.105	0.028
-296.720	-185.407	-0.180	-0.003
-295.705	163.377	0.113	-0.159
-294.691	78.788	-0.034	-0.037
-293.676	-27.828	0.207	-0.120
-292.662	-200.000	0.016	-0.107
-291.647	-157.950	-0.330	-0.019
-290.632	1.332	0.368	-0.265
-289.618	-46.501	-0.105	-0.051
-288.603	258.361	0.090	0.155
-287.589	-116.666	0.228	-0.042
-286.574	-73.982	-0.162	0.059
-285.559	381.614	-0.198	-0.408
-284.545	-200.000	0.019	-0.333
-283.530	-43.341	0.188	0.095
-282.516	-200.000	0.008	-0.080
-281.501	26.879	-0.135	0.113
-280.486	-133.152	0.113	0.014
-279.472	323.500	0.170	0.324
-278.457	-164.341	0.209	0.010
-277.443	-83.647	-0.348	0.111
-276.428	-56.472	-0.194	-0.086
-275.413	-93.598	0.294	-0.081
-274.399	-140.173	0.132	-0.014
-273.384	-60.661	-0.183	-0.077
-272.370	201.153	-0.139	0.214
-271.355	49.307	-0.123	0.116
-270.340	-125.859	-0.159	0.024
-269.326	-200.000	-0.012	-0.074
-268.311	-101.099	0.060	-0.015
-267.297	232.585	-0.094	-0.154
-266.282	-138.264	0.046	-0.005
-265.267	-200.000	0.055	-0.328
-264.253	56.224	-0.065	-0.063
-263.238	16.224	0.267	0.211
-262.224	800.000	0.024	-0.099
-261.209	-43.159	0.105	-0.053
-260.195	-55.710	0.124	0.056
-259.180	-99.585	0.017	-0.004
-258.165	276.172	-0.260	0.461
-257.151	11.698	0.285	-0.219
-256.136	-200.000	0.035	-0.263
-255.122	-80.429	-0.179	-0.060
-254.107	-200.000	0.056	-0.251
-253.092	37.360	-0.229	0.203
-252.078	-200.000	0.010	0.075
-251.063	-37.710	-0.419	-0.223
-250.049	161.045	0.042	0.058
-249.034	111.305	-0.018	-0.022
-248.019	550.019	-0.069	0.166
-247.005	315.316	-0.108	0.204
-245.990	-42.820	-0.165	-0.084
-244.976	-162.887	0.283	0.014
-243.961	19.004	0.060	0.048
-242.946	-68.083	0.209	0.081
-241.932	-200.000	0.027	-0.366
-240.917	800.000	0.056	0.203
-239.903	-0.968	0.302	-0.213
-238.888	-200.000	0.051	0.228
-237.873	54.821	-0.207	-0.200
-236.859	-118.758	-0.210	0.037
-235.844	-28.353	-0.258	-0.149
-234.830	227.375	-0.096	-0.155
-233.815	-45.849	-0.280	0.138
-232.800	115.011	-0.099	0.121
-231.786	536.818	0.049	-0.117
-230.771	61.679	0.221	-0.220
-229.757	67.854	0.179	-0.183
-228.742	24.668	-0.173	-0.143
-227.727	0.754	-0.037	-0.027
-226.713	-155.285	0.264	-0.017
-225.698	-200.000	0.020	-0.090
-224.684	29.397	-0.184	-0.156
-223.669	-200.000	-0.002	-0.011
-222.655	-6.051	0.194	0.132
-221.640	-52.308	0.166	-0.077
-220.625	800.000	-0.023	0.077
-219.611	-62.493	0.296	0.123
-218.596	-200.000	0.009	0.250
-217.582	615.407	0.033	0.082
-216.567	-54.450	-0.108	-0.049
-215.552	92.288	0.193	0.217
-214.538	-200.000	-0.010	-0.223
-213.523	66.171	0.044	0.044
-212.509	-79.077	0.054	-0.018
-211.494	-200.000	-0.005	0.163
-210.479	185.425	-0.159	0.236
-209.465	130.656	-0.112	0.143
-208.450	-4.726	-0.124	0.085
-207.436	23.364	-0.099	-0.081
-206.421	-131.940	-0.393	0.051
-205.406	128.879	-0.099	-0.125
-204.392	-82.314	0.220	0.072
-203.377	87.316	0.069	0.076
-202.363	626.916	-0.059	-0.149
-201.348	800.000	0.115	-0.405
-200.333	-172.341	-0.361	-0.011
-199.319	800.000	-0.033	-0.092
-198.304	56.819	0.186	-0.181
-197.290	-81.173	-0.203	0.067
-196.275	-143.222	0.246	0.024
-195.260	140.517	-0.351	-0.461
-194.246	6.929	-0.304	-0.226
-193.231	725.615	-0.042	-0.112
-192.217	144.073	0.177	0.235
-191.202	800.000	-0.053	-0.210
-190.187	255.185	0.112	-0.191
-189.173	-200.000	-0.019	0.240
-188.158	-156.086	0.208	-0.013
-187.144	0.248	-0.239	0.170
-186.129	-200.000	0.003	-0.134
-185.114	27.073	-0.394	0.330
-184.100	-8.427	0.038	-0.026
-183.085	-200.000	-0.020	0.492
-182.071	65.205	0.350	0.352
-181.056	-200.000	0.008	0.431
-180.042	-23.357	-0.208	0.124
-179.027	800.000	-0.052	-0.186
-178.012	394.219	0.024	-0.049
-176.998	623.750	-0.038	0.096
-175.983	32.485	-0.174	0.150
-174.969	145.437	0.220	-0.294
-173.954	-11.262	0.130	-0.085
-172.939	-58.297	-0.310	-0.134
-171.925	-200.000	-0.005	-0.091
-170.910	-200.000	0.039	0.319
-169.896	-164.544	0.237	-0.011
-168.881	-68.030	0.222	-0.086
-167.866	-200.000	0.021	-0.287
-166.852	502.780	-0.063	-0.146
-165.837	65.256	0.023	0.023
-164.823	-16.051	0.116	-0.074
-163.808	-39.614	-0.078	-0.041
-162.793	-200.000	0.021	0.191
-161.779	800.000	-0.047	0.201
-160.764	800.000	0.107	-0.333
-159.750	-125.946	-0.087	0.013
-158.735	164.991	0.312	0.438
-157.720	-72.871	-0.063	0.023
-156.706	33.955	-0.137	0.119
-155.691	-100.168	0.304	-0.075
-154.677	800.000	-0.058	-0.206
-153.662	-78.512	-0.113	0.039
-152.647	-135.577	0.072	-0.009
-151.633	-200.000	0.073	0.379
-150.618	4.732	-0.140	0.103
-149.604	47.505	-0.254	0.236
-148.589	-69.999	-0.154	0.058
-147.574	-155.599	-0.162	0.010
-146.560	783.809	-0.114	0.310
-145.545	-168.157	-0.178	-0.007
-144.531	-71.806	-0.173	0.064
-143.516	-19.306	-0.269	0.166
-142.502	-80.435	0.401	-0.133
-141.487	117.307	0.105	0.129
-140.472	7.348	-0.158	0.117
-139.458	89.948	0.089	0.099
-138.443	-63.137	0.177	0.073
-137.429	297.648	-0.133	-0.242
-136.414	9.397	-0.077	-0.058
-135.399	-74.309	-0.485	-0.174
-134.385	-93.278	0.065	-0.018
-133.370	-117.509	-0.280	-0.050
-132.356	719.300	-0.030	0.079
-131.341	-112.949	-0.035	0.007
-130.326	32.924	0.271	-0.233
-129.312	-46.882	-0.309	0.150
-128.297	87.938	0.054	-0.059
-127.283	-117.463	-0.051	-0.009
-126.268	-30.484	0.131	0.074
-125.253	55.125	0.168	-0.161
-124.239	-200.000	-0.060	0.306
-123.224	-86.175	-0.205	0.063
-122.210	58.056	-0.168	0.164
-121.195	-54.862	0.284	-0.127
-120.180	-83.746	0.209	0.066
