DTS Sentinel unit serial number:	SN413079Multiplexer serial number:	ORYXHardware model number:	OX4-SRSoftware version number:	ORYX F/W v4.00 Oryx Data Collector v3.7.2.0data status	okinstallation	princeton_trtdifferential loss correction	single-endedforward channel	channel 1reverse channel	N/Adate	2019/09/13time	17:58:35forward acquisition time	60.00reverse acquisition time	0.00gamma	496.2192k internal	0.2307k external	0.2307temperature offset calibration	1.0145default loss term (dB/km)	0.3790temperature slope calibration	1.0000multiplexer offset coefficient	1.0000multiplexer slope coefficient	1.0000fibre end	0.00T internal ref (°C)	35.08T ext. ref 1 (°C)	4.78T ext. ref 2 (°C)	27.91length (m)	temperature (°C)	Stokes	anti-Stokes-747.200	-200.000	0.017	0.235
-746.185	-200.000	-0.027	0.125
-745.171	800.000	-0.025	-0.083
-744.156	-92.685	-0.269	0.077
-743.142	-200.000	0.038	0.213
-742.127	88.312	-0.142	0.161
-741.112	39.473	0.199	-0.181
-740.098	331.434	-0.053	-0.103
-739.083	-200.000	0.043	0.276
-738.069	-86.656	-0.071	-0.022
-737.054	-50.480	-0.266	0.128
-736.039	-142.405	-0.371	0.037
-735.025	-59.860	-0.039	0.017
-734.010	-200.000	0.134	-0.627
-732.996	-40.091	-0.366	-0.194
-731.981	-70.342	0.063	-0.024
-730.966	-200.000	-0.014	-0.255
-729.952	800.000	-0.062	-0.215
-728.937	151.157	-0.014	-0.020
-727.923	-200.000	-0.024	-0.214
-726.908	252.393	-0.165	0.285
-725.894	7.837	0.199	-0.151
-724.879	-200.000	-0.013	0.317
-723.864	-200.000	-0.045	-0.377
-722.850	-200.000	0.025	-0.147
-721.835	-134.754	-0.539	-0.066
-720.821	-196.088	0.220	-0.002
-719.806	-200.000	0.004	-0.066
-718.791	800.000	-0.150	-0.437
-717.777	800.000	-0.036	-0.130
-716.762	-72.218	0.326	0.123
-715.748	-170.417	0.046	0.002
-714.733	-200.000	0.065	-0.642
-713.718	-39.111	0.195	-0.104
-712.704	-71.466	-0.055	-0.021
-711.689	-103.631	-0.148	-0.035
-710.675	-200.000	-0.004	0.185
-709.660	-7.046	0.169	-0.117
-708.645	37.327	0.045	-0.041
-707.631	-102.482	-0.317	0.077
-706.616	800.000	-0.059	0.167
-705.602	333.712	0.042	-0.082
-704.587	213.731	0.034	0.055
-703.572	75.976	-0.178	-0.191
-702.558	-27.793	-0.246	0.145
-701.543	-53.310	-0.315	-0.147
-700.529	84.188	-0.116	0.129
-699.514	-71.259	0.254	0.097
-698.499	-200.000	0.010	-0.114
-697.485	398.600	0.155	-0.329
-696.470	800.000	0.053	0.189
-695.456	-53.896	-0.040	0.019
-694.441	-49.458	-0.072	-0.035
-693.426	-60.673	-0.103	0.044
-692.412	438.245	0.057	0.127
-691.397	-67.725	0.149	0.059
-690.383	-141.236	-0.114	-0.012
-689.368	-200.000	-0.025	0.193
-688.354	183.618	-0.188	0.282
-687.339	489.397	-0.059	0.136
-686.324	248.447	-0.147	0.252
-685.310	800.000	-0.119	-0.388
-684.295	-129.761	0.204	-0.028
-683.281	-73.044	-0.189	0.070
-682.266	-60.479	-0.219	-0.095
-681.251	-39.691	0.118	0.063
-680.237	22.023	0.125	-0.104
-679.222	-134.401	0.148	-0.018
-678.208	-64.552	0.299	-0.123
-677.193	-198.990	-0.320	-0.002
-676.178	-200.000	-0.020	-0.187
-675.164	-200.000	-0.004	-0.118
-674.149	-146.637	-0.073	0.006
-673.135	-89.574	0.099	0.029
-672.120	42.066	-0.088	0.081
-671.105	34.979	-0.050	-0.044
-670.091	-87.759	0.098	0.030
-669.076	207.023	0.170	-0.269
-668.062	82.138	0.186	0.205
-667.047	800.000	-0.119	-0.363
-666.032	416.194	0.064	-0.139
-665.018	-144.901	-0.197	-0.018
-664.003	85.273	0.166	0.184
-662.989	-111.317	-0.146	0.030
-661.974	-97.996	0.292	0.076
-660.959	-43.796	0.103	-0.052
-659.945	165.893	0.239	0.343
-658.930	800.000	0.141	0.412
-657.916	275.125	-0.044	0.079
-656.901	-200.000	-0.005	0.039
-655.886	-158.074	0.193	-0.012
-654.872	-138.142	0.030	-0.003
-653.857	-200.000	-0.004	-0.184
-652.843	800.000	0.052	0.191
-651.828	800.000	-0.034	0.107
-650.814	6.341	-0.224	-0.169
-649.799	-151.382	-0.141	-0.011
-648.784	-200.000	-0.031	0.349
-647.770	320.470	0.109	0.210
-646.755	-79.706	0.125	-0.043
-645.741	-136.070	-0.098	-0.012
-644.726	-27.334	0.275	-0.162
-643.711	52.135	0.071	-0.068
-642.697	-43.388	0.369	-0.189
-641.682	5.995	-0.057	0.043
-640.668	182.280	-0.016	-0.024
-639.653	-200.000	0.032	0.231
-638.638	262.418	0.205	-0.360
-637.624	-99.805	0.256	0.065
-636.609	-54.050	-0.103	-0.048
-635.595	-148.401	-0.355	-0.029
-634.580	-4.597	-0.155	0.108
-633.565	68.722	0.245	0.254
-632.551	250.547	0.168	0.290
-631.536	87.077	0.143	-0.160
-630.522	435.674	0.202	-0.444
-629.507	512.030	-0.054	-0.128
-628.492	-200.000	0.052	0.352
-627.478	-109.757	-0.124	0.026
-626.463	800.000	-0.058	0.209
-625.449	800.000	-0.072	0.248
-624.434	17.142	-0.147	-0.118
-623.419	94.322	-0.152	-0.175
-622.405	-200.000	0.069	0.403
-621.390	150.228	0.165	-0.226
-620.376	-200.000	-0.002	0.064
-619.361	105.177	-0.233	-0.278
-618.346	314.947	0.170	0.325
-617.332	-91.083	-0.109	0.032
-616.317	800.000	0.041	0.122
-615.303	-200.000	-0.024	-0.214
-614.288	800.000	0.105	-0.300
-613.273	-69.625	0.149	0.058
-612.259	-78.817	0.142	-0.049
-611.244	733.222	0.185	0.500
-610.230	215.564	-0.131	-0.210
-609.215	-200.000	0.011	0.221
-608.201	-125.725	0.190	0.029
-607.186	-150.729	-0.448	0.035
-606.171	-154.306	-0.048	-0.003
-605.157	800.000	-0.017	-0.057
-604.142	-89.632	0.134	0.040
-603.128	2.850	0.249	0.183
-602.113	-27.839	-0.137	-0.080
-601.098	243.575	-0.037	0.063
-600.084	-2.385	0.065	0.046
-599.069	389.264	0.159	0.333
-598.055	-152.722	-0.233	0.017
-597.040	-101.075	0.202	0.050
-596.025	192.301	-0.045	-0.069
-595.011	546.357	-0.123	-0.296
-593.996	748.823	-0.097	-0.263
-592.982	-200.000	-0.017	-0.099
-591.967	130.656	0.055	-0.071
-590.952	-31.616	0.020	-0.011
-589.938	109.516	0.155	0.187
-588.923	-126.987	-0.053	-0.008
-587.909	-13.111	0.246	0.162
-586.894	-200.000	0.020	-0.186
-585.879	800.000	-0.071	0.214
-584.865	800.000	0.037	-0.114
-583.850	311.632	0.192	0.364
-582.836	789.816	-0.074	-0.206
-581.821	800.000	-0.049	-0.151
-580.806	-200.000	0.003	0.194
-579.792	195.888	-0.221	0.340
-578.777	373.627	-0.085	-0.176
-577.763	-69.469	0.169	-0.065
-576.748	-200.000	0.027	0.153
-575.733	-31.893	-0.272	-0.154
-574.719	-148.416	-0.232	-0.019
-573.704	76.521	-0.054	0.058
-572.690	156.691	0.149	0.208
-571.675	34.091	-0.086	0.076
-570.661	83.908	-0.265	-0.292
-569.646	-200.000	-0.010	0.075
-568.631	-200.000	-0.016	0.283
-567.617	-23.875	0.201	0.121
-566.602	121.455	0.188	0.236
-565.588	16.657	0.308	-0.246
-564.573	89.374	0.251	0.283
-563.558	-129.920	-0.075	0.010
-562.544	-11.597	-0.226	0.150
-561.529	83.086	-0.279	-0.307
-560.515	-156.747	-0.425	0.026
-559.500	51.742	0.219	0.210
-558.485	-200.000	-0.020	0.288
-557.471	-1.084	0.319	0.228
-556.456	-200.000	0.021	-0.396
-555.442	800.000	0.061	-0.223
-554.427	33.308	-0.267	0.234
-553.412	-0.716	-0.113	0.081
-552.398	441.824	-0.048	0.106
-551.383	800.000	0.037	0.135
-550.369	-200.000	0.042	-0.213
-549.354	-36.293	0.235	0.128
-548.339	31.327	-0.093	0.080
-547.325	-58.034	0.103	-0.045
-546.310	800.000	0.040	-0.151
-545.296	-158.900	0.230	-0.013
-544.281	-165.543	0.299	0.013
-543.266	-60.053	-0.274	0.118
-542.252	50.562	0.116	-0.110
-541.237	127.143	-0.052	-0.066
-540.223	-54.460	-0.160	-0.073
-539.208	530.036	0.096	0.228
-538.193	25.243	0.037	-0.031
-537.179	285.668	0.122	0.222
-536.164	195.322	-0.015	-0.023
-535.150	-96.203	-0.150	-0.040
-534.135	-199.242	0.455	0.002
-533.121	657.210	0.057	-0.149
-532.106	-181.791	-0.295	0.006
-531.091	-200.000	0.026	0.117
-530.077	-113.295	-0.067	-0.013
-529.062	114.209	-0.125	0.153
-528.048	289.821	0.145	0.265
-527.033	-25.239	0.259	-0.155
-526.018	436.528	0.118	-0.259
-525.004	-2.564	-0.128	-0.091
-523.989	800.000	0.041	0.180
-522.975	67.519	0.073	-0.075
-521.960	-56.292	0.222	-0.099
-520.945	-200.000	0.004	0.019
-519.931	48.082	0.251	0.237
-518.916	-200.000	0.050	-0.393
-517.902	-153.085	-0.311	-0.022
-516.887	-200.000	0.020	0.103
-515.872	-101.980	-0.129	-0.031
-514.858	-200.000	0.054	0.267
-513.843	-200.000	0.004	0.118
-512.829	184.716	0.040	0.059
-511.814	-63.455	-0.352	0.146
-510.799	52.576	-0.344	-0.331
-509.785	-8.854	0.264	0.178
-508.770	473.864	-0.112	-0.255
-507.756	-8.184	0.174	-0.118
-506.741	-54.967	0.206	0.093
-505.726	-157.078	-0.032	0.002
-504.712	-72.132	-0.237	-0.089
-503.697	-12.089	0.224	0.148
-502.683	79.784	-0.386	0.417
-501.668	-200.000	-0.040	0.197
-500.653	385.856	-0.078	-0.161
-499.639	-10.406	-0.104	-0.070
-498.624	800.000	-0.065	0.218
-497.610	800.000	-0.063	0.217
-496.595	118.749	-0.126	0.157
-495.581	-60.743	-0.215	0.092
-494.566	287.521	0.054	-0.098
-493.551	86.992	-0.072	0.080
-492.537	-71.997	-0.255	-0.095
-491.522	800.000	-0.046	0.152
-490.508	-93.895	0.063	0.018
-489.493	-20.441	-0.053	-0.033
-488.478	-88.556	-0.175	0.053
-487.464	103.613	0.124	0.147
-486.449	-108.349	0.154	-0.033
-485.435	-98.265	0.107	-0.028
-484.420	-164.546	0.120	0.006
-483.405	-155.175	0.250	-0.016
-482.391	-200.000	-0.039	0.268
-481.376	293.077	0.134	-0.247
-480.362	303.131	0.189	-0.352
-479.347	88.863	-0.167	-0.187
-478.332	-200.000	-0.007	0.347
-477.318	-200.000	-0.013	0.179
-476.303	-5.488	-0.113	-0.078
-475.289	621.133	-0.044	0.112
-474.274	226.025	0.142	0.232
-473.259	179.815	0.090	0.133
-472.245	-93.194	-0.117	0.033
-471.230	47.160	0.246	-0.230
-470.216	-110.904	-0.166	-0.034
-469.201	-112.096	-0.214	-0.043
-468.186	-113.397	-0.266	0.053
-467.172	-86.398	-0.302	0.093
-466.157	-200.000	-0.005	-0.208
-465.143	728.246	0.196	0.527
-464.128	-98.650	-0.205	-0.053
-463.113	179.231	-0.100	-0.147
-462.099	-84.862	0.159	0.050
-461.084	-33.746	0.302	0.168
-460.070	-58.264	-0.315	0.138
-459.055	-140.112	0.315	-0.033
-458.040	-116.766	0.249	0.046
-457.026	-200.000	-0.032	0.292
-456.011	227.804	-0.018	0.029
-454.997	-138.222	0.181	0.020
-453.982	80.605	0.167	0.181
-452.968	-61.733	-0.141	0.060
-451.953	-200.000	0.024	-0.127
-450.938	80.231	0.216	-0.233
-449.924	-200.000	-0.018	-0.459
-448.909	-1.893	-0.091	-0.064
-447.895	-200.000	0.060	-0.410
-446.880	-90.199	-0.151	-0.044
-445.865	-143.217	-0.166	0.016
-444.851	-200.000	-0.018	-0.303
-443.836	-185.712	0.313	-0.005
-442.822	-105.507	0.369	-0.084
-441.807	13.850	-0.123	-0.096
-440.792	-200.000	-0.019	-0.459
-439.778	385.383	0.055	-0.114
-438.763	-60.342	-0.290	-0.124
-437.749	-200.000	0.023	0.372
-436.734	-170.936	-0.128	-0.004
-435.719	25.968	-0.089	0.075
-434.705	245.362	-0.024	-0.040
-433.690	-55.122	-0.207	-0.094
-432.676	219.916	-0.041	0.066
-431.661	-121.967	-0.153	0.025
-430.646	800.000	-0.060	0.191
-429.632	-92.542	0.152	0.043
-428.617	296.498	-0.233	-0.428
-427.603	278.487	0.136	-0.243
-426.588	800.000	-0.058	0.187
-425.573	-60.631	0.180	0.077
-424.559	-106.280	-0.155	0.035
-423.544	-54.381	0.245	0.112
-422.530	-200.000	0.020	0.122
-421.515	139.464	-0.241	-0.319
-420.500	-105.993	-0.215	-0.048
-419.486	-200.000	0.016	-0.220
-418.471	26.342	-0.170	-0.143
-417.457	-200.000	-0.025	-0.126
-416.442	-8.220	0.065	0.044
-415.428	-134.728	-0.244	-0.030
-414.413	-46.835	-0.287	0.141
-413.398	169.931	-0.173	0.248
-412.384	214.165	-0.158	0.251
-411.369	-200.000	-0.005	-0.043
-410.355	318.505	0.117	0.222
-409.340	19.423	-0.191	0.154
-408.325	-138.075	0.027	0.003
-407.311	-58.493	0.385	-0.168
-406.296	-62.549	0.149	0.062
-405.282	-15.452	-0.146	0.093
-404.267	-96.055	0.197	-0.052
-403.252	-54.410	0.204	0.093
-402.238	800.000	-0.047	-0.159
-401.223	-147.777	-0.353	-0.030
-400.209	140.704	0.275	-0.364
-399.194	-58.507	0.056	0.024
-398.179	630.363	0.097	-0.246
-397.165	-200.000	0.017	-0.225
-396.150	-61.720	0.165	-0.069
-395.136	-113.992	0.183	0.036
-394.121	0.889	0.182	0.131
-393.106	-70.005	0.227	-0.087
-392.092	20.479	-0.036	-0.029
-391.077	204.123	0.119	-0.186
-390.063	158.433	-0.231	-0.322
-389.048	-124.955	0.158	-0.024
-388.033	287.015	-0.156	-0.283
-387.019	-200.000	0.076	-0.356
-386.004	215.665	0.103	-0.164
-384.990	346.710	-0.039	-0.076
-383.975	-65.784	0.325	-0.130
-382.960	-200.000	-0.001	-0.170
-381.946	146.855	0.089	0.119
-380.931	800.000	0.102	-0.294
-379.917	-200.000	0.021	-0.203
-378.902	-5.568	0.339	-0.233
-377.888	-173.191	0.250	-0.008
-376.873	147.104	-0.143	-0.193
-375.858	-107.166	-0.227	-0.050
-374.844	-11.553	0.351	-0.231
-373.829	-32.222	0.241	0.135
-372.815	-200.000	-0.003	0.143
-371.800	-51.231	-0.145	0.068
-370.785	97.335	-0.153	-0.177
-369.771	577.373	-0.073	0.179
-368.756	9.363	-0.139	0.105
-367.742	228.809	-0.110	-0.180
-366.727	-16.635	0.180	-0.114
-365.712	800.000	0.053	-0.183
-364.698	67.559	0.279	-0.286
-363.683	-200.000	0.009	0.121
-362.669	489.237	0.049	0.112
-361.654	-130.876	0.217	0.029
-360.639	-65.308	-0.137	0.055
-359.625	-106.150	0.086	0.019
-358.610	-97.758	0.186	-0.048
-357.596	-21.421	-0.166	0.101
-356.581	174.049	-0.128	0.186
-355.566	-48.450	-0.241	0.116
-354.552	-34.443	-0.212	0.117
-353.537	-66.779	0.328	-0.130
-352.523	0.867	-0.324	0.233
-351.508	-52.427	-0.218	-0.101
-350.493	-151.450	0.281	-0.021
-349.479	-200.000	0.017	-0.129
-348.464	-34.433	-0.367	-0.202
-347.450	-200.000	-0.009	-0.226
-346.435	-200.000	0.012	0.148
-345.420	53.471	-0.131	-0.126
-344.406	800.000	0.042	-0.171
-343.391	-200.000	-0.018	-0.374
-342.377	319.169	0.068	-0.130
-341.362	50.936	-0.177	-0.168
-340.348	49.015	-0.381	0.358
-339.333	-148.297	0.091	0.007
-338.318	27.819	-0.243	-0.205
-337.304	-200.000	0.010	0.222
-336.289	146.029	-0.143	-0.192
-335.275	-200.000	-0.022	-0.133
-334.260	-157.585	-0.446	-0.027
-333.245	-200.000	0.010	-0.120
-332.231	-200.000	-0.013	0.059
-331.216	710.926	0.160	-0.423
-330.202	-141.416	0.253	-0.026
-329.187	-80.409	-0.451	-0.151
-328.172	-200.000	0.031	-0.148
-327.158	26.358	0.126	0.105
-326.143	-41.140	-0.290	0.150
-325.129	-96.825	0.210	-0.055
-324.114	-55.338	-0.050	0.022
-323.099	-121.082	-0.375	0.063
-322.085	316.825	-0.123	-0.232
-321.070	800.000	0.030	0.093
-320.056	800.000	0.049	-0.162
-319.041	800.000	-0.019	-0.057
-318.026	-200.000	0.029	0.317
-317.012	3.560	-0.167	0.122
-315.997	800.000	-0.074	-0.233
-314.983	-200.000	0.017	0.102
-313.968	-40.830	0.198	0.102
-312.953	-138.268	-0.329	0.036
-311.939	277.877	-0.053	0.095
-310.924	16.200	-0.228	0.179
-309.910	497.319	0.152	0.349
-308.895	-45.065	-0.166	0.082
-307.880	-158.841	0.380	0.022
-306.866	-128.185	0.056	0.008
-305.851	425.465	0.096	0.208
-304.837	1.000	-0.049	-0.035
-303.822	690.945	-0.148	0.387
-302.807	-9.337	-0.164	-0.109
-301.793	-200.000	0.026	-0.177
-300.778	-125.053	-0.108	0.017
-299.764	49.690	-0.121	-0.114
-298.749	-28.463	0.180	-0.104
-297.735	-200.000	0.012	-0.129
-296.720	-93.345	-0.188	-0.052
-295.705	-200.000	-0.014	0.192
-294.691	-106.840	0.292	0.065
-293.676	-19.841	-0.115	-0.071
-292.662	92.680	0.137	-0.154
-291.647	-200.000	-0.025	0.233
-290.632	171.687	0.049	0.071
-289.618	46.410	-0.230	0.213
-288.603	-200.000	-0.005	0.263
-287.589	-200.000	-0.024	0.254
-286.574	603.059	-0.081	0.201
-285.559	-68.464	0.217	0.084
-284.545	-103.236	-0.015	-0.003
-283.530	800.000	-0.117	0.488
-282.516	-200.000	-0.017	0.263
-281.501	800.000	0.187	0.545
-280.486	195.355	0.190	-0.289
-279.472	-200.000	-0.020	-0.516
-278.457	95.226	0.027	0.031
-277.443	800.000	0.074	0.247
-276.428	-83.035	-0.235	0.076
-275.413	-139.756	0.166	-0.018
-274.399	-98.662	0.119	0.030
-273.384	-102.753	0.264	0.063
-272.370	630.666	0.062	-0.156
-271.355	87.109	-0.205	-0.226
-270.340	-68.694	0.221	0.085
-269.326	-175.199	0.220	-0.006
-268.311	-200.000	-0.007	0.358
-267.297	302.173	-0.062	-0.114
-266.282	-57.032	-0.236	0.104
-265.267	-90.451	0.329	0.095
-264.253	-87.845	0.077	-0.023
-263.238	51.366	-0.386	0.366
-262.224	-152.712	0.338	-0.024
-261.209	360.530	0.138	0.276
-260.195	113.388	-0.179	0.217
-259.180	800.000	-0.045	-0.165
-258.165	726.610	-0.109	-0.289
-257.151	227.437	0.175	0.284
-256.136	-163.906	-0.215	0.010
-255.122	-157.710	-0.210	-0.012
-254.107	-200.000	0.035	0.226
-253.092	87.813	-0.188	-0.208
-252.078	-139.636	0.249	0.026
-251.063	-35.595	-0.209	0.113
-250.049	89.430	0.088	-0.098
-249.034	-92.314	-0.281	0.079
-248.019	-200.000	-0.033	0.264
-247.005	-200.000	-0.000	-0.032
-245.990	800.000	0.030	0.123
-244.976	800.000	-0.027	0.083
-243.961	-12.692	-0.191	-0.124
-242.946	-37.755	-0.114	-0.061
-241.932	250.945	-0.042	0.071
-240.917	800.000	0.129	-0.380
-239.903	16.845	-0.188	-0.149
-238.888	18.437	0.134	-0.107
-237.873	-200.000	0.002	-0.287
-236.859	-6.482	0.080	-0.055
-235.844	-23.230	0.258	-0.154
-234.830	-35.430	-0.279	-0.151
-233.815	264.075	-0.155	-0.269
-232.800	-200.000	-0.058	0.272
-231.786	-90.596	0.102	0.029
-230.771	102.723	0.315	0.367
-229.757	186.800	-0.047	0.069
-228.742	8.659	-0.195	0.147
-227.727	-200.000	-0.057	0.293
-226.713	89.521	-0.198	0.220
-225.698	319.974	-0.149	-0.282
-224.684	-105.677	-0.030	-0.007
-223.669	-200.000	-0.010	0.227
-222.655	800.000	-0.042	-0.121
-221.640	-21.421	0.307	-0.186
-220.625	143.125	-0.143	0.190
-219.611	1.784	0.336	0.241
-218.596	-200.000	-0.041	-0.274
-217.582	-112.722	0.591	-0.117
-216.567	-18.810	-0.045	0.028
-215.552	-152.666	-0.269	-0.019
-214.538	161.302	-0.188	-0.262
-213.523	297.534	-0.127	0.232
-212.509	-77.724	0.303	0.104
-211.494	-104.406	-0.333	-0.077
-210.479	477.101	-0.024	-0.054
-209.465	216.352	0.167	0.265
-208.450	-23.070	-0.150	0.090
-207.436	-20.287	-0.169	-0.104
-206.421	485.987	-0.193	-0.438
-205.406	-27.694	-0.496	0.286
-204.392	343.909	0.133	-0.260
-203.377	95.999	0.216	-0.245
-202.363	-200.000	-0.005	-0.058
-201.348	-200.000	0.041	-0.205
-200.333	97.104	-0.022	0.025
-199.319	60.471	0.129	-0.127
-198.304	-98.445	0.284	-0.072
-197.290	-98.155	-0.643	-0.165
-196.275	375.472	-0.102	-0.206
-195.260	-12.671	0.201	0.130
-194.246	-200.000	-0.017	-0.132
-193.231	415.958	0.161	-0.341
-192.217	-10.988	0.145	0.095
-191.202	450.687	0.054	0.118
-190.187	-200.000	0.006	0.088
-189.173	-131.854	0.246	0.032
-188.158	-12.758	0.294	0.190
-187.144	339.564	0.218	0.422
-186.129	224.282	-0.066	-0.106
-185.114	49.722	-0.205	-0.192
-184.100	43.733	-0.148	0.135
-183.085	-101.602	0.253	0.061
-182.071	-120.559	-0.061	-0.010
-181.056	-200.000	0.069	-0.357
-180.042	278.939	-0.115	0.204
-179.027	301.660	-0.148	0.272
-178.012	387.860	0.063	0.129
-176.998	-64.591	0.240	0.097
-175.983	322.285	0.141	-0.267
-174.969	-95.427	0.048	-0.013
-173.954	772.432	-0.022	-0.061
-172.939	-200.000	0.023	0.112
-171.925	45.229	0.233	-0.214
-170.910	-192.235	0.197	-0.002
-169.896	-151.483	-0.191	-0.014
-168.881	277.599	-0.119	0.210
-167.866	323.352	-0.093	-0.176
-166.852	319.081	-0.011	0.020
-165.837	800.000	0.068	0.200
-164.823	800.000	0.027	-0.094
-163.808	-148.547	-0.102	-0.008
-162.793	-63.623	0.242	-0.099
-161.779	-200.000	-0.031	-0.286
-160.764	-85.973	-0.198	-0.061
-159.750	12.518	0.195	-0.149
-158.735	-200.000	-0.030	-0.156
-157.720	800.000	-0.166	0.465
-156.706	652.048	0.051	0.131
-155.691	32.483	0.085	0.073
-154.677	-200.000	-0.050	-0.239
-153.662	81.908	-0.301	-0.324
-152.647	93.523	0.284	-0.319
-151.633	261.845	0.099	-0.170
-150.618	800.000	0.023	-0.073
-149.604	332.343	0.109	-0.209
-148.589	10.186	0.107	0.081
-147.574	102.239	-0.103	0.120
-146.560	-106.637	0.172	-0.038
-145.545	501.190	0.098	0.226
-144.531	-200.000	0.022	-0.273
-143.516	-200.000	0.012	-0.193
-142.502	-74.280	0.270	-0.097
-141.487	-119.862	0.100	0.017
-140.472	-17.128	-0.041	0.026
-139.458	-49.514	0.223	-0.105
-138.443	249.899	0.057	-0.097
-137.429	333.201	-0.204	-0.392
-136.414	800.000	-0.057	0.207
-135.399	-34.010	-0.329	0.180
-134.385	62.398	0.098	0.098
-133.370	266.490	-0.097	0.169
-132.356	-111.260	0.174	0.035
-131.341	127.657	-0.259	0.327
-130.326	-179.329	-0.172	0.004
-129.312	-115.017	-0.353	-0.066
-128.297	6.300	0.386	0.285
-127.283	-200.000	-0.057	0.250
-126.268	-30.867	0.211	-0.118
-125.253	-118.309	-0.132	0.023
-124.239	117.169	-0.073	0.089
-123.224	800.000	-0.007	0.028
-122.210	-75.737	0.279	-0.098
