DTS Sentinel unit serial number:	SN413079Multiplexer serial number:	ORYXHardware model number:	OX4-SRSoftware version number:	ORYX F/W v4.00 Oryx Data Collector v3.7.2.0data status	okinstallation	princeton_trtdifferential loss correction	single-endedforward channel	channel 1reverse channel	N/Adate	2019/09/15time	04:30:35forward acquisition time	60.00reverse acquisition time	0.00gamma	496.2192k internal	0.2323k external	0.2323temperature offset calibration	0.9991default loss term (dB/km)	0.3790temperature slope calibration	1.0000multiplexer offset coefficient	1.0000multiplexer slope coefficient	1.0000fibre end	0.00T internal ref (°C)	30.86T ext. ref 1 (°C)	4.66T ext. ref 2 (°C)	25.49length (m)	temperature (°C)	Stokes	anti-Stokes-747.200	-43.470	0.293	0.150
-746.185	520.371	-0.162	0.384
-745.171	308.406	-0.141	0.266
-744.156	800.000	-0.126	0.521
-743.142	-55.753	0.407	0.183
-742.127	-89.350	-0.126	0.037
-741.112	800.000	-0.103	0.453
-740.098	49.894	-0.256	0.243
-739.083	-148.615	0.149	-0.012
-738.069	-200.000	-0.020	0.090
-737.054	-19.685	-0.557	0.348
-736.039	-122.501	0.350	-0.057
-735.025	-200.000	0.027	0.147
-734.010	-5.101	-0.614	0.426
-732.996	-200.000	0.062	0.307
-731.981	-126.229	0.049	0.007
-730.966	-61.661	-0.282	-0.119
-729.952	-200.000	-0.024	-0.290
-728.937	-184.042	-0.338	-0.006
-727.923	-151.977	-0.134	0.010
-726.908	-11.624	0.139	0.092
-725.894	-88.849	-0.150	0.045
-724.879	-51.922	0.156	-0.073
-723.864	40.010	-0.133	-0.120
-722.850	27.526	-0.275	-0.233
-721.835	250.803	0.046	0.080
-720.821	112.993	0.104	0.127
-719.806	1.074	-0.170	-0.123
-718.791	-27.346	-0.253	-0.148
-717.777	226.417	-0.058	-0.095
-716.762	484.534	-0.108	-0.248
-715.748	-43.125	0.041	0.021
-714.733	-38.011	-0.357	-0.191
-713.718	-21.399	0.123	0.076
-712.704	-177.967	-0.226	0.005
-711.689	800.000	-0.015	0.044
-710.675	63.639	-0.250	-0.253
-709.660	104.816	0.089	0.106
-708.645	-85.807	-0.318	0.099
-707.631	-88.373	0.351	0.106
-706.616	17.299	-0.393	-0.315
-705.602	484.801	0.099	-0.227
-704.587	15.790	-0.158	0.125
-703.572	12.977	0.109	0.085
-702.558	800.000	0.023	-0.071
-701.543	-200.000	-0.005	0.210
-700.529	-161.570	0.243	0.013
-699.514	800.000	-0.054	-0.234
-698.499	36.302	0.121	0.108
-697.485	708.575	0.050	0.134
-696.470	-200.000	0.004	-0.163
-695.456	-83.533	-0.248	-0.080
-694.441	-100.883	0.295	-0.073
-693.426	-182.254	-0.265	0.005
-692.412	60.100	-0.227	-0.226
-691.397	-200.000	0.004	-0.450
-690.383	-21.384	-0.534	-0.329
-689.368	-200.000	-0.033	0.322
-688.354	136.400	0.036	-0.048
-687.339	30.890	-0.110	0.095
-686.324	-200.000	-0.049	-0.287
-685.310	-140.414	0.104	-0.011
-684.295	-43.574	0.280	-0.142
-683.281	613.887	-0.054	0.137
-682.266	-146.791	-0.252	0.022
-681.251	800.000	0.058	0.246
-680.237	-69.241	-0.099	-0.038
-679.222	-9.988	0.213	0.143
-678.208	65.956	0.111	0.114
-677.193	179.777	-0.199	0.294
-676.178	-147.902	-0.326	-0.027
-675.164	-200.000	0.003	0.024
-674.149	279.206	-0.046	0.083
-673.135	-200.000	-0.012	-0.224
-672.120	30.284	-0.178	-0.153
-671.105	800.000	0.052	0.168
-670.091	-93.434	-0.134	-0.037
-669.076	-56.310	0.193	0.086
-668.062	86.267	0.151	0.168
-667.047	-124.125	0.288	0.046
-666.032	800.000	-0.056	-0.216
-665.018	-82.136	0.269	-0.088
-664.003	-42.416	0.142	0.073
-662.989	-63.834	0.237	0.098
-661.974	-200.000	-0.022	0.261
-660.959	-72.760	-0.246	0.091
-659.945	-200.000	-0.007	0.047
-658.930	-51.817	-0.333	0.156
-657.916	356.489	0.045	0.091
-656.901	-200.000	-0.007	0.148
-655.886	-200.000	-0.016	-0.494
-654.872	14.887	-0.028	-0.022
-653.857	-200.000	-0.012	0.182
-652.843	-200.000	-0.002	0.077
-651.828	258.385	-0.071	-0.124
-650.814	-9.636	0.174	0.117
-649.799	104.021	-0.237	-0.281
-648.784	437.678	-0.057	0.125
-647.770	-65.045	0.287	-0.116
-646.755	48.768	-0.167	-0.158
-645.741	-18.434	0.105	0.066
-644.726	71.376	-0.208	0.217
-643.711	393.758	-0.108	-0.227
-642.697	78.305	-0.373	-0.401
-641.682	-200.000	0.020	-0.243
-640.668	-162.723	0.390	-0.019
-639.653	800.000	0.127	0.369
-638.638	209.605	0.072	-0.114
-637.624	-96.089	-0.297	0.079
-636.609	800.000	0.072	-0.251
-635.595	-148.426	-0.115	0.009
-634.580	-200.000	0.028	-0.283
-633.565	-71.041	0.068	-0.026
-632.551	594.611	-0.036	0.088
-631.536	-200.000	-0.054	-0.242
-630.522	800.000	-0.075	-0.313
-629.507	370.110	0.054	-0.111
-628.492	74.844	0.134	-0.142
-627.478	113.593	0.293	0.358
-626.463	-200.000	0.058	0.328
-625.449	349.200	0.118	-0.233
-624.434	20.715	-0.267	0.218
-623.419	131.622	-0.251	0.324
-622.405	-5.478	-0.097	0.067
-621.390	393.950	-0.124	-0.260
-620.376	87.445	-0.206	-0.229
-619.361	-93.004	0.138	0.039
-618.346	-122.979	0.302	0.049
-617.332	800.000	0.051	-0.194
-616.317	213.654	-0.244	-0.388
-615.303	-22.037	0.305	0.186
-614.288	-200.000	-0.025	0.109
-613.273	-72.232	0.188	-0.070
-612.259	-148.977	0.230	-0.019
-611.244	49.567	-0.087	0.083
-610.230	-200.000	0.034	0.285
-609.215	-200.000	-0.001	0.077
-608.201	-113.249	0.215	0.043
-607.186	-35.430	-0.095	-0.052
-606.171	39.455	-0.544	-0.490
-605.157	-110.730	0.250	-0.052
-604.142	238.544	0.086	-0.144
-603.128	-59.393	-0.469	0.203
-602.113	-110.032	-0.043	-0.009
-601.098	771.268	-0.071	-0.194
-600.084	-200.000	0.063	-0.383
-599.069	-99.455	-0.247	-0.062
-598.055	104.561	-0.110	-0.130
-597.040	-200.000	-0.020	0.239
-596.025	95.146	-0.167	0.191
-595.011	249.353	-0.136	-0.232
-593.996	598.030	-0.098	0.245
-592.982	-1.892	-0.062	0.043
-591.967	92.706	-0.099	0.112
-590.952	-200.000	-0.001	0.084
-589.938	-173.648	-0.101	-0.003
-588.923	-166.669	-0.108	-0.005
-587.909	8.131	-0.183	-0.138
-586.894	17.324	0.212	0.169
-585.879	800.000	-0.037	0.110
-584.865	-79.741	-0.196	0.066
-583.850	739.118	0.116	0.311
-582.836	355.724	0.129	0.258
-581.821	169.615	0.064	-0.092
-580.806	538.949	0.110	-0.263
-579.792	-200.000	-0.008	0.213
-578.777	349.047	0.048	0.095
-577.763	-200.000	-0.032	0.222
-576.748	437.862	-0.102	0.223
-575.733	800.000	-0.039	0.121
-574.719	-4.930	-0.104	-0.072
-573.704	-44.198	0.169	0.085
-572.690	-124.248	0.494	-0.078
-571.675	626.042	-0.130	0.328
-570.661	-200.000	0.034	-0.257
-569.646	-59.177	-0.268	0.116
-568.631	-17.458	-0.233	-0.147
-567.617	-200.000	0.004	-0.175
-566.602	800.000	0.040	-0.128
-565.588	-200.000	-0.021	0.292
-564.573	403.651	0.092	0.194
-563.558	-18.455	0.163	-0.102
-562.544	-25.659	0.129	0.076
-561.529	-47.668	0.076	0.037
-560.515	437.018	0.119	-0.260
-559.500	85.856	-0.190	-0.210
-558.485	-22.924	-0.141	0.085
-557.471	800.000	0.031	0.115
-556.456	-137.619	0.245	-0.028
-555.442	-12.645	0.081	-0.053
-554.427	-63.558	0.389	0.160
-553.412	-65.811	0.075	0.030
-552.398	-141.126	-0.227	0.023
-551.383	235.888	0.147	0.243
-550.369	-135.381	0.548	0.066
-549.354	-200.000	0.005	0.182
-548.339	324.266	-0.100	-0.192
-547.325	-15.711	0.100	-0.064
-546.310	-49.662	0.063	-0.030
-545.296	-129.513	0.309	-0.043
-544.281	27.935	0.021	-0.018
-543.266	-53.873	0.170	0.077
-542.252	214.536	0.039	0.062
-541.237	-6.411	0.219	0.150
-540.223	25.613	-0.126	-0.105
-539.208	-2.973	-0.178	-0.124
-538.193	-143.962	0.151	0.014
-537.179	-200.000	0.007	-0.098
-536.164	-126.627	0.073	-0.011
-535.150	-98.624	0.074	0.019
-534.135	197.113	-0.172	0.263
-533.121	66.221	0.200	-0.203
-532.106	61.173	-0.214	0.213
-531.091	800.000	0.045	-0.164
-530.077	228.699	0.030	0.049
-529.062	420.267	0.053	-0.114
-528.048	-39.877	0.059	-0.031
-527.033	635.610	0.129	0.329
-526.018	-200.000	-0.005	0.392
-525.004	-71.924	0.095	0.036
-523.989	378.300	0.045	0.092
-522.975	94.785	-0.149	0.170
-521.960	-65.891	0.140	-0.056
-520.945	87.456	-0.137	0.152
-519.931	182.143	-0.204	-0.300
-518.916	-6.875	0.214	-0.145
-517.902	-53.432	-0.076	-0.035
-516.887	-122.505	-0.320	0.052
-515.872	-70.377	-0.270	-0.103
-514.858	-200.000	-0.043	0.264
-513.843	-67.013	0.227	0.090
-512.829	-58.348	0.151	0.066
-511.814	-200.000	0.016	0.116
-510.799	87.780	0.010	-0.012
-509.785	-50.213	0.217	-0.103
-508.770	-72.842	-0.122	-0.045
-507.756	287.895	0.059	0.107
-506.741	-200.000	-0.028	-0.155
-505.726	144.816	0.235	-0.314
-504.712	142.429	0.020	-0.026
-503.697	-93.493	-0.277	-0.077
-502.683	150.907	0.067	-0.091
-501.668	30.487	0.182	-0.156
-500.653	800.000	-0.072	0.282
-499.639	-26.308	0.184	0.108
-498.624	-19.040	0.346	0.215
-497.610	132.862	0.108	-0.140
-496.595	-200.000	0.005	-0.282
-495.581	156.194	-0.111	0.153
-494.566	88.399	-0.179	-0.199
-493.551	800.000	-0.097	-0.283
-492.537	520.081	-0.043	0.101
-491.522	11.430	0.127	-0.097
-490.508	-200.000	0.012	0.054
-489.493	-49.750	-0.076	0.036
-488.478	-150.716	-0.173	0.013
-487.464	74.629	0.057	-0.060
-486.449	163.064	-0.228	-0.320
-485.435	-45.713	-0.438	0.216
-484.420	-200.000	0.016	0.202
-483.405	50.892	-0.154	-0.146
-482.391	111.735	-0.254	0.306
-481.376	-200.000	-0.012	-0.071
-480.362	-73.462	-0.220	0.080
-479.347	-200.000	-0.057	-0.394
-478.332	506.985	0.124	-0.287
-477.318	800.000	-0.031	-0.099
-476.303	800.000	-0.011	0.030
-475.289	-200.000	-0.005	-0.095
-474.274	713.601	-0.045	-0.118
-473.259	-103.659	0.349	-0.082
-472.245	129.244	-0.137	0.174
-471.230	-10.998	0.427	-0.281
-470.216	77.111	0.272	-0.289
-469.201	114.222	-0.171	-0.208
-468.186	-49.269	0.213	-0.102
-467.172	800.000	0.085	-0.240
-466.157	360.393	0.124	-0.248
-465.143	-21.097	-0.227	0.139
-464.128	274.479	-0.090	0.159
-463.113	25.791	-0.075	-0.063
-462.099	-200.000	-0.006	0.094
-461.084	708.351	-0.206	0.544
-460.070	-200.000	0.003	0.221
-459.055	-104.308	-0.424	0.098
-458.040	-165.386	0.321	0.014
-457.026	-141.840	0.140	-0.014
-456.011	-200.000	0.011	0.129
-454.997	-146.283	-0.490	0.043
-453.982	21.970	0.065	0.053
-452.968	-200.000	-0.055	0.253
-451.953	230.291	-0.094	0.153
-450.938	-18.125	-0.088	0.055
-449.924	-118.013	-0.183	0.033
-448.909	-68.155	0.230	0.089
-447.895	-47.011	-0.223	0.109
-446.880	-11.628	-0.114	0.075
-445.865	-82.936	-0.133	-0.043
-444.851	71.115	-0.073	-0.075
-443.836	-45.490	-0.322	0.159
-442.822	184.157	0.101	-0.149
-441.807	-101.710	-0.189	0.046
-440.792	158.359	0.216	-0.299
-439.778	-185.046	-0.176	-0.003
-438.763	-135.908	0.201	-0.024
-437.749	-113.102	-0.034	-0.007
-436.734	216.786	-0.088	-0.139
-435.719	160.362	-0.028	-0.039
-434.705	148.789	0.069	-0.093
-433.690	-41.436	-0.154	-0.079
-432.676	-200.000	0.013	-0.062
-431.661	22.047	0.212	0.172
-430.646	-70.937	0.221	-0.083
-429.632	215.415	-0.122	-0.193
-428.617	9.936	-0.079	-0.060
-427.603	-111.000	-0.273	-0.056
-426.588	12.127	0.205	-0.157
-425.573	-200.000	0.055	0.263
-424.559	297.817	0.055	-0.100
-423.544	-60.160	0.483	0.205
-422.530	16.135	-0.194	-0.153
-421.515	107.394	-0.158	-0.187
-420.500	657.073	0.021	-0.055
-419.486	682.766	-0.033	0.085
-418.471	800.000	0.085	-0.262
-417.457	309.158	-0.171	-0.318
-416.442	8.375	0.224	-0.168
-415.428	-58.990	0.141	0.061
-414.413	63.851	-0.099	0.099
-413.398	33.165	-0.083	0.071
-412.384	-200.000	0.048	-0.276
-411.369	334.341	0.091	0.176
-410.355	-42.107	0.138	-0.070
-409.340	41.047	-0.203	0.183
-408.325	-10.049	-0.214	0.142
-407.311	-15.762	-0.275	0.175
-406.296	137.071	0.190	0.247
-405.282	-52.144	-0.185	-0.086
-404.267	-186.789	0.113	0.002
-403.252	726.373	-0.116	-0.309
-402.238	-98.139	0.149	-0.038
-401.223	-28.260	0.179	0.103
-400.209	-80.761	-0.332	0.110
-399.194	135.508	-0.102	0.132
-398.179	389.199	0.085	-0.175
-397.165	35.380	-0.238	-0.208
-396.150	49.937	-0.032	0.030
-395.136	210.874	0.074	0.116
-394.121	-63.866	0.189	0.077
-393.106	-200.000	0.003	0.048
-392.092	60.691	-0.124	0.122
-391.077	35.926	-0.088	-0.077
-390.063	-55.345	0.286	-0.128
-389.048	-200.000	0.046	-0.266
-388.033	72.734	-0.197	0.205
-387.019	665.304	0.063	0.162
-386.004	800.000	0.018	0.053
-384.990	264.014	-0.164	0.284
-383.975	-200.000	-0.003	-0.164
-382.960	357.307	-0.068	-0.136
-381.946	800.000	-0.050	0.173
-380.931	-200.000	0.017	-0.155
-379.917	-110.297	-0.131	-0.027
-378.902	22.823	0.349	0.285
-377.888	800.000	0.014	-0.060
-376.873	-133.165	0.182	0.023
-375.858	31.323	0.189	-0.162
-374.844	76.697	-0.017	-0.018
-373.829	102.440	0.313	0.364
-372.815	142.176	-0.143	-0.188
-371.800	443.977	0.053	0.116
-370.785	-1.839	-0.165	0.115
-369.771	-57.693	0.247	0.107
-368.756	800.000	-0.122	-0.387
-367.742	59.555	0.087	-0.086
-366.727	-117.899	-0.116	0.021
-365.712	615.826	0.115	0.287
-364.698	-170.252	0.142	0.005
-363.683	444.240	-0.145	0.315
-362.669	458.551	-0.140	0.310
-361.654	-126.835	0.092	0.013
-360.639	-148.469	0.242	-0.020
-359.625	-40.202	-0.095	0.049
-358.610	88.289	-0.139	0.153
-357.596	-102.616	0.326	0.077
-356.581	-27.846	-0.287	0.165
-355.566	-34.729	0.356	-0.193
-354.552	-162.093	0.492	0.025
-353.537	131.059	0.225	-0.287
-352.523	424.717	0.084	-0.179
-351.508	-29.731	-0.122	0.069
-350.493	-91.266	-0.132	0.037
-349.479	-45.959	-0.250	0.122
-348.464	-56.878	-0.260	0.114
-347.450	-18.402	-0.174	-0.108
-346.435	213.467	-0.034	0.054
-345.420	-90.311	-0.218	0.063
-344.406	104.684	0.094	0.110
-343.391	268.384	0.099	-0.173
-342.377	-28.850	0.201	0.115
-341.362	-1.877	-0.054	-0.038
-340.348	327.546	0.097	-0.185
-339.333	-154.573	0.312	-0.021
-338.318	-153.371	-0.386	0.027
-337.304	-53.454	0.245	0.111
-336.289	800.000	-0.047	-0.194
-335.275	-200.000	0.042	0.279
-334.260	401.511	-0.117	-0.244
-333.245	-24.668	0.403	0.238
-332.231	165.278	0.048	0.068
-331.216	-200.000	0.010	-0.157
-330.202	-117.686	-0.405	0.072
-329.187	58.516	-0.284	0.277
-328.172	-121.830	-0.368	0.060
-327.158	356.567	0.068	0.135
-326.143	-176.817	-0.280	-0.007
-325.129	-100.050	0.153	-0.038
-324.114	326.854	-0.081	0.154
-323.099	2.610	-0.097	0.070
-322.085	800.000	0.059	-0.243
-321.070	329.726	-0.027	0.052
-320.056	-153.331	0.203	-0.014
-319.041	9.158	-0.128	0.096
-318.026	-200.000	-0.039	-0.404
-317.012	800.000	0.059	0.171
-315.997	716.709	0.080	0.212
-314.983	720.421	-0.068	-0.180
-313.968	-61.964	-0.378	-0.157
-312.953	-200.000	-0.005	0.033
-311.939	-104.260	0.343	-0.079
-310.924	107.045	-0.165	0.194
-309.910	-200.000	-0.004	0.201
-308.895	152.517	0.066	0.089
-307.880	319.793	0.110	-0.207
-306.866	-93.401	0.204	-0.056
-305.851	139.756	-0.086	0.113
-304.837	43.242	0.103	0.093
-303.822	-200.000	-0.014	-0.346
-302.807	800.000	-0.066	-0.246
-301.793	16.921	-0.215	0.169
-300.778	800.000	-0.018	0.071
-299.764	-98.376	-0.034	0.009
-298.749	-200.000	0.001	-0.195
-297.735	249.005	-0.130	-0.218
-296.720	288.983	0.067	-0.121
-295.705	8.809	0.235	0.176
-294.691	-25.049	0.108	-0.063
-293.676	-27.739	0.214	0.123
-292.662	295.417	-0.009	0.017
-291.647	800.000	-0.042	-0.159
-290.632	-79.987	-0.493	-0.164
-289.618	800.000	0.004	0.012
-288.603	-180.958	0.300	-0.006
-287.589	449.151	0.107	-0.235
-286.574	-113.384	0.235	-0.046
-285.559	-106.402	0.094	0.021
-284.545	-25.593	0.356	-0.209
-283.530	58.491	0.102	-0.099
-282.516	81.074	0.078	-0.083
-281.501	-200.000	0.026	-0.164
-280.486	-45.886	-0.318	0.156
-279.472	-11.074	0.229	0.150
-278.457	153.668	-0.324	-0.440
-277.443	195.460	0.059	-0.089
-276.428	595.064	0.095	0.234
-275.413	126.070	-0.165	-0.207
-274.399	-200.000	0.009	-0.173
-273.384	164.828	0.158	0.221
-272.370	-200.000	0.058	0.303
-271.355	753.261	0.040	-0.107
-270.340	-101.432	-0.130	0.031
-269.326	-80.380	0.114	-0.038
-268.311	-200.000	-0.057	0.252
-267.297	51.614	0.168	-0.158
-266.282	-15.341	-0.236	-0.149
-265.267	177.950	-0.104	-0.150
-264.253	-121.625	-0.213	-0.035
-263.238	800.000	0.117	0.346
-262.224	512.348	-0.005	0.011
-261.209	298.034	0.034	-0.062
-260.195	56.565	-0.123	-0.119
-259.180	-200.000	-0.018	0.276
-258.165	249.593	-0.059	-0.099
-257.151	-85.968	0.113	-0.035
-256.136	1.435	-0.089	0.063
-255.122	-108.542	0.111	0.024
-254.107	-28.510	-0.291	0.166
-253.092	-50.488	-0.087	0.040
-252.078	-200.000	0.026	0.161
-251.063	-61.686	0.147	-0.061
-250.049	-130.277	-0.024	0.003
-249.034	-38.202	0.238	0.125
-248.019	-61.603	0.194	0.081
-247.005	-145.608	0.272	0.024
-245.990	800.000	0.062	-0.182
-244.976	276.160	-0.140	0.247
-243.961	1.791	-0.214	0.152
-242.946	-192.701	0.351	-0.003
-241.932	800.000	-0.066	0.248
-240.917	-200.000	-0.009	-0.182
-239.903	198.161	-0.068	-0.103
-238.888	15.456	0.168	0.131
-237.873	189.549	0.180	0.267
-236.859	282.745	-0.164	-0.291
-235.844	-200.000	-0.008	0.124
-234.830	76.843	0.213	0.224
-233.815	800.000	0.118	-0.386
-232.800	3.996	0.225	0.163
-231.786	16.754	0.297	-0.233
-230.771	-200.000	0.041	0.266
-229.757	-200.000	-0.031	0.161
-228.742	77.632	0.157	0.165
-227.727	414.131	0.076	-0.160
-226.713	228.380	-0.097	0.156
-225.698	-200.000	0.062	0.291
-224.684	-0.942	-0.149	-0.104
-223.669	72.736	-0.142	0.147
-222.655	359.214	-0.051	-0.101
-221.640	-200.000	-0.037	0.332
-220.625	800.000	-0.056	-0.175
-219.611	-79.289	-0.332	0.111
-218.596	63.923	-0.121	0.121
-217.582	210.198	-0.169	-0.262
-216.567	-85.396	0.221	-0.068
-215.552	-170.691	-0.176	0.006
-214.538	156.463	0.049	0.067
-213.523	37.953	-0.075	-0.066
-212.509	89.026	-0.174	-0.192
-211.494	70.076	-0.258	-0.263
-210.479	44.706	0.304	0.276
-209.465	-25.293	-0.381	0.223
-208.450	9.839	0.208	-0.156
-207.436	-200.000	0.012	0.107
-206.421	-10.525	0.122	0.080
-205.406	-48.894	0.084	0.040
-204.392	-122.902	-0.223	-0.036
-203.377	557.650	-0.086	0.205
-202.363	-200.000	0.032	-0.446
-201.348	-200.000	-0.039	0.419
-200.333	-16.180	-0.177	0.111
-199.319	-200.000	0.074	0.377
-198.304	64.250	0.102	0.101
-197.290	263.609	-0.032	0.055
-196.275	-200.000	-0.042	0.405
-195.260	-200.000	-0.006	-0.228
-194.246	20.008	-0.514	-0.410
-193.231	-20.486	-0.320	-0.194
-192.217	-179.994	-0.293	0.006
-191.202	-114.772	0.227	0.043
-190.187	-165.071	-0.036	0.002
-189.173	-85.193	0.151	-0.047
-188.158	-175.354	-0.151	0.004
-187.144	328.731	-0.111	-0.212
-186.129	160.314	0.047	0.064
-185.114	-189.365	-0.338	-0.004
-184.100	-155.048	0.363	0.024
-183.085	61.992	-0.143	0.141
-182.071	-124.309	0.362	0.056
-181.056	36.710	-0.107	0.093
-180.042	800.000	0.042	-0.154
-179.027	-18.043	0.106	0.065
-178.012	-200.000	0.002	0.369
-176.998	-200.000	0.045	0.338
-175.983	379.357	-0.055	-0.111
-174.969	154.628	0.120	-0.163
-173.954	-126.767	0.096	-0.014
-172.939	-181.595	0.174	-0.003
-171.925	147.094	0.100	0.133
-170.910	-104.086	-0.055	0.013
-169.896	-0.589	0.352	-0.247
-168.881	-24.374	-0.170	-0.100
-167.866	553.887	-0.128	-0.304
-166.852	-108.783	-0.117	0.025
-165.837	-0.423	0.099	-0.069
-164.823	-50.577	-0.241	-0.112
-163.808	62.404	0.191	-0.188
-162.793	229.257	-0.143	-0.231
-161.779	249.883	0.169	-0.283
-160.764	101.768	-0.093	-0.107
-159.750	-89.673	0.574	-0.166
-158.735	180.997	-0.005	-0.008
-157.720	516.084	0.057	0.132
-156.706	-5.695	0.227	0.153
-155.691	-200.000	0.005	-0.061
-154.677	-139.829	0.083	-0.009
-153.662	113.046	0.160	-0.192
-152.647	-155.290	-0.263	0.017
-151.633	-147.077	-0.263	0.022
-150.618	-200.000	0.010	-0.174
-149.604	81.668	-0.186	-0.198
-148.589	-67.907	-0.171	-0.066
-147.574	-25.262	-0.394	-0.230
-146.560	-78.663	-0.160	-0.054
-145.545	-137.245	0.452	0.051
-144.531	-140.185	-0.147	0.015
-143.516	-86.329	0.251	0.076
-142.502	519.941	0.066	0.152
-141.487	-200.000	-0.032	-0.269
-140.472	-39.116	0.170	-0.088
-139.458	102.307	0.113	-0.130
-138.443	125.411	0.237	-0.294
-137.429	-187.792	0.121	-0.002
-136.414	-62.541	0.131	-0.054
-135.399	5.515	0.187	0.136
-134.385	-12.931	0.231	-0.148
-133.370	-23.905	-0.206	0.122
-132.356	625.732	-0.069	0.172
-131.341	-161.079	0.071	0.004
-130.326	-91.764	0.282	0.079
-129.312	-200.000	-0.062	0.292
-128.297	142.340	-0.150	0.196
-127.283	312.234	-0.102	-0.188
-126.268	-200.000	0.063	-0.300
-125.253	-200.000	0.002	-0.209
-124.239	-200.000	-0.018	-0.186
-123.224	-87.536	0.432	0.129
-122.210	36.218	0.122	0.106
-121.195	-76.513	-0.484	0.167
-120.180	-106.933	0.147	-0.032
