DTS Sentinel unit serial number:	SN413079Multiplexer serial number:	ORYXHardware model number:	OX4-SRSoftware version number:	ORYX F/W v4.00 Oryx Data Collector v3.7.2.0data status	okinstallation	princeton_trtdifferential loss correction	single-endedforward channel	channel 1reverse channel	N/Adate	2019/09/16time	05:30:36forward acquisition time	60.00reverse acquisition time	0.00gamma	496.2192k internal	0.2331k external	0.2331temperature offset calibration	0.9982default loss term (dB/km)	0.3790temperature slope calibration	1.0000multiplexer offset coefficient	1.0000multiplexer slope coefficient	1.0000fibre end	0.00T internal ref (°C)	27.27T ext. ref 1 (°C)	11.12T ext. ref 2 (°C)	22.10length (m)	temperature (°C)	Stokes	anti-Stokes-747.200	89.672	0.226	0.253
-746.185	-84.653	0.183	-0.058
-745.171	-1.028	0.077	-0.055
-744.156	-20.189	-0.384	0.238
-743.142	-154.203	-0.175	0.012
-742.127	100.254	-0.267	0.312
-741.112	201.843	0.128	-0.198
-740.098	118.329	0.094	0.116
-739.083	800.000	-0.059	-0.232
-738.069	186.498	-0.153	0.229
-737.054	-113.079	0.216	0.043
-736.039	-200.000	0.008	0.071
-735.025	-47.092	0.391	0.192
-734.010	105.794	-0.249	0.296
-732.996	800.000	-0.020	-0.086
-731.981	-114.986	-0.210	-0.040
-730.966	-22.719	-0.208	0.126
-729.952	-147.116	-0.293	0.025
-728.937	-200.000	-0.007	0.098
-727.923	800.000	-0.015	0.058
-726.908	-44.212	-0.292	-0.148
-725.894	110.178	-0.082	0.099
-724.879	-47.445	-0.477	0.233
-723.864	-97.133	-0.127	-0.033
-722.850	291.420	0.260	-0.476
-721.835	37.910	-0.097	-0.087
-720.821	-200.000	0.012	-0.146
-719.806	111.659	0.083	0.101
-718.791	800.000	-0.018	0.069
-717.777	-115.620	-0.365	0.069
-716.762	-119.061	0.212	-0.037
-715.748	-55.471	0.118	-0.053
-714.733	8.126	-0.240	0.181
-713.718	82.138	0.084	-0.091
-712.704	800.000	-0.064	-0.215
-711.689	-200.000	0.004	0.189
-710.675	353.614	0.027	0.054
-709.660	-200.000	0.003	0.082
-708.645	-200.000	-0.024	-0.135
-707.631	88.939	-0.039	0.044
-706.616	-130.401	0.447	-0.061
-705.602	133.439	-0.128	0.167
-704.587	-81.490	0.277	-0.092
-703.572	-99.990	0.206	-0.052
-702.558	-84.491	-0.298	-0.095
-701.543	-4.204	-0.149	-0.104
-700.529	-133.492	-0.179	0.023
-699.514	245.367	-0.092	0.156
-698.499	-200.000	0.024	-0.175
-697.485	236.137	-0.043	0.071
-696.470	-53.172	-0.084	-0.039
-695.456	-80.768	-0.156	0.052
-694.441	-27.420	-0.080	0.047
-693.426	-40.283	0.123	0.064
-692.412	800.000	0.051	0.176
-691.397	16.888	-0.145	0.115
-690.383	361.577	-0.053	-0.108
-689.368	521.711	-0.053	-0.125
-688.354	529.205	0.095	0.224
-687.339	-93.496	0.313	-0.087
-686.324	-200.000	-0.014	-0.254
-685.310	-200.000	0.059	-0.304
-684.295	800.000	-0.079	-0.296
-683.281	-10.224	-0.043	0.029
-682.266	-86.398	0.159	-0.049
-681.251	12.036	0.136	0.105
-680.237	119.092	0.082	0.102
-679.222	327.423	0.081	-0.156
-678.208	-38.293	-0.371	-0.197
-677.193	506.074	0.139	0.322
-676.178	257.077	0.035	-0.060
-675.164	-158.883	-0.226	0.013
-674.149	-200.000	0.021	-0.451
-673.135	-102.552	-0.069	0.017
-672.120	261.975	0.166	0.288
-671.105	-141.977	0.325	0.032
-670.091	121.745	-0.182	-0.228
-669.076	-64.404	-0.204	0.083
-668.062	141.953	0.238	-0.317
-667.047	384.999	-0.248	-0.512
-666.032	-133.292	-0.282	0.036
-665.018	-149.393	0.348	0.028
-664.003	92.912	-0.228	0.258
-662.989	121.230	0.206	-0.257
-661.974	-200.000	0.008	-0.123
-660.959	134.383	0.104	-0.136
-659.945	387.554	0.105	0.217
-658.930	-5.520	0.371	0.255
-657.916	-20.282	-0.256	0.158
-656.901	114.710	0.167	-0.204
-655.886	532.370	0.061	0.144
-654.872	-200.000	-0.078	0.502
-653.857	-117.199	-0.335	-0.061
-652.843	24.596	-0.180	-0.150
-651.828	-21.752	-0.279	-0.170
-650.814	-85.602	0.092	-0.029
-649.799	-90.647	-0.101	0.029
-648.784	50.677	-0.263	-0.250
-647.770	35.454	0.231	-0.203
-646.755	-44.129	-0.215	0.108
-645.741	-20.833	-0.398	0.245
-644.726	-63.738	0.150	-0.062
-643.711	-61.215	-0.333	0.140
-642.697	235.646	-0.217	-0.360
-641.682	-41.119	0.158	-0.082
-640.668	-44.751	0.111	0.056
-639.653	-30.739	-0.127	-0.072
-638.638	239.115	-0.023	-0.038
-637.624	800.000	-0.067	0.248
-636.609	193.181	0.138	0.209
-635.595	-76.911	-0.246	-0.086
-634.580	426.506	-0.123	0.266
-633.565	-200.000	-0.001	-0.191
-632.551	150.418	-0.158	0.215
-631.536	-10.423	0.021	0.014
-630.522	51.898	-0.227	0.216
-629.507	150.591	0.030	0.040
-628.492	-87.250	-0.165	-0.050
-627.478	583.897	0.093	0.229
-626.463	-17.054	0.379	0.240
-625.449	-117.268	0.248	0.045
-624.434	-103.583	0.218	0.051
-623.419	-200.000	0.026	0.134
-622.405	128.210	0.102	-0.130
-621.390	176.796	-0.204	-0.298
-620.376	-159.955	-0.304	-0.017
-619.361	800.000	-0.070	-0.285
-618.346	109.396	-0.044	-0.053
-617.332	241.987	0.085	0.142
-616.317	-5.503	-0.178	-0.122
-615.303	26.868	0.117	-0.098
-614.288	-132.632	-0.244	0.031
-613.273	304.717	0.025	0.047
-612.259	-166.091	0.178	-0.008
-611.244	-94.614	0.037	0.010
-610.230	-100.609	0.121	0.030
-609.215	-85.202	0.329	-0.103
-608.201	-101.506	-0.270	-0.066
-607.186	512.174	-0.036	-0.083
-606.171	-105.121	0.330	-0.075
-605.157	82.805	0.213	-0.232
-604.142	112.899	-0.134	-0.163
-603.128	-200.000	-0.029	-0.172
-602.113	-169.818	0.211	-0.008
-601.098	312.006	0.070	0.132
-600.084	-20.191	-0.251	-0.155
-599.069	-200.000	0.067	0.343
-598.055	59.816	0.140	-0.138
-597.040	800.000	-0.107	-0.308
-596.025	196.877	0.127	-0.194
-595.011	800.000	-0.125	0.350
-593.996	267.783	-0.187	0.328
-592.982	-200.000	0.011	0.099
-591.967	142.574	0.188	0.249
-590.952	800.000	-0.078	-0.305
-589.938	31.296	-0.225	-0.194
-588.923	800.000	-0.084	0.269
-587.909	-72.898	-0.440	-0.162
-586.894	-15.963	-0.175	-0.112
-585.879	-54.758	0.314	-0.142
-584.865	107.425	0.074	-0.088
-583.850	-121.530	0.036	-0.006
-582.836	-2.689	-0.221	-0.155
-581.821	80.448	0.138	0.148
-580.806	-89.281	0.073	0.022
-579.792	-106.214	-0.209	-0.047
-578.777	39.717	-0.136	-0.122
-577.763	-200.000	0.008	-0.298
-576.748	800.000	-0.086	-0.274
-575.733	-15.840	0.241	0.153
-574.719	-156.481	-0.130	-0.008
-573.704	-122.898	-0.115	-0.019
-572.690	391.532	0.098	0.203
-571.675	-107.361	-0.343	0.075
-570.661	397.724	0.212	0.443
-569.646	-200.000	-0.006	-0.131
-568.631	-200.000	0.012	0.068
-567.617	174.897	0.202	-0.292
-566.602	-110.827	-0.215	0.044
-565.588	-46.971	-0.271	-0.132
-564.573	800.000	0.069	-0.227
-563.558	-200.000	0.017	0.236
-562.544	-111.134	0.263	0.054
-561.529	-200.000	-0.014	-0.159
-560.515	800.000	0.032	-0.122
-559.500	800.000	-0.068	0.200
-558.485	461.008	-0.095	0.212
-557.471	-200.000	-0.029	0.301
-556.456	54.545	0.174	-0.168
-555.442	-200.000	0.000	0.003
-554.427	-200.000	-0.030	-0.465
-553.412	-153.842	-0.159	-0.011
-552.398	-200.000	0.094	0.481
-551.383	-200.000	-0.032	-0.190
-550.369	78.307	-0.189	-0.202
-549.354	-160.464	0.166	0.009
-548.339	503.160	0.023	-0.052
-547.325	70.827	-0.093	0.097
-546.310	800.000	0.081	-0.277
-545.296	-200.000	0.021	-0.140
-544.281	-3.164	-0.224	-0.156
-543.266	315.143	0.036	0.067
-542.252	421.417	0.038	-0.082
-541.237	204.799	0.199	0.308
-540.223	189.053	0.200	-0.299
-539.208	-178.001	-0.126	-0.003
-538.193	36.675	-0.281	-0.248
-537.179	-143.931	-0.128	0.012
-536.164	76.434	-0.145	0.154
-535.150	-149.036	0.339	-0.027
-534.135	-159.152	0.370	0.021
-533.121	192.459	0.070	0.105
-532.106	55.088	-0.148	0.143
-531.091	146.364	0.222	0.297
-530.077	800.000	0.155	0.556
-529.062	168.280	-0.121	0.173
-528.048	115.447	0.106	0.129
-527.033	93.509	0.163	0.184
-526.018	-200.000	0.039	0.229
-525.004	-200.000	-0.058	-0.276
-523.989	170.433	0.052	0.075
-522.975	-179.673	0.227	-0.005
-521.960	424.896	-0.113	0.242
-520.945	6.972	-0.181	0.135
-519.931	-96.279	0.192	-0.051
-518.916	225.052	0.149	0.240
-517.902	545.315	0.074	0.176
-516.887	357.906	0.101	0.201
-515.872	308.749	0.155	-0.290
-514.858	18.447	-0.122	0.097
-513.843	175.927	-0.200	-0.289
-512.829	96.969	-0.159	-0.182
-511.814	13.889	-0.291	0.226
-510.799	19.851	-0.077	-0.062
-509.785	-87.363	-0.438	0.132
-508.770	-92.323	0.352	-0.099
-507.756	-200.000	-0.021	-0.294
-506.741	214.238	-0.233	-0.368
-505.726	-62.755	0.265	-0.109
-504.712	-200.000	0.003	-0.198
-503.697	800.000	0.060	0.221
-502.683	-147.634	-0.101	-0.008
-501.668	-200.000	0.007	-0.066
-500.653	16.788	0.193	-0.152
-499.639	322.663	0.022	-0.041
-498.624	-69.050	0.137	-0.052
-497.610	-200.000	-0.007	0.077
-496.595	-200.000	-0.020	-0.172
-495.581	417.265	-0.103	0.218
-494.566	109.883	0.331	0.396
-493.551	-189.035	-0.203	0.002
-492.537	-12.319	-0.307	0.200
-491.522	525.714	-0.066	0.156
-490.508	-53.231	-0.027	0.012
-489.493	44.908	-0.415	-0.381
-488.478	-200.000	0.008	0.475
-487.464	646.637	0.071	-0.182
-486.449	-20.776	-0.309	-0.189
-485.435	-98.473	-0.212	0.054
-484.420	113.540	0.108	-0.131
-483.405	-200.000	-0.001	0.082
-482.391	210.219	0.145	0.227
-481.376	123.629	0.125	0.156
-480.362	-71.599	-0.119	-0.044
-479.347	-106.985	-0.214	0.047
-478.332	-200.000	0.019	-0.096
-477.318	-24.289	-0.221	-0.131
-476.303	-70.548	0.306	0.115
-475.289	266.495	0.096	-0.166
-474.274	-137.457	-0.038	0.004
-473.259	-200.000	-0.004	0.193
-472.245	409.769	0.130	-0.274
-471.230	-126.987	-0.152	0.022
-470.216	-56.552	-0.229	0.101
-469.201	-185.517	-0.415	0.006
-468.186	-36.010	0.058	-0.031
-467.172	93.335	0.070	0.078
-466.157	-10.123	-0.402	0.266
-465.143	-200.000	0.086	0.450
-464.128	717.436	-0.015	-0.040
-463.113	190.739	-0.175	-0.262
-462.099	-76.954	-0.059	0.021
-461.084	-108.535	-0.310	-0.066
-460.070	-145.869	-0.291	-0.026
-459.055	-200.000	-0.006	0.195
-458.040	800.000	0.072	-0.281
-457.026	-172.523	-0.479	-0.015
-456.011	-104.311	-0.237	-0.055
-454.997	-16.070	0.324	0.205
-453.982	-14.111	0.186	-0.119
-452.968	9.260	-0.264	0.199
-451.953	-130.234	0.217	-0.029
-450.938	33.551	-0.087	-0.075
-449.924	-200.000	0.043	-0.234
-448.909	198.487	0.026	-0.040
-447.895	309.824	-0.035	-0.065
-446.880	-82.570	0.110	0.035
-445.865	800.000	-0.096	-0.387
-444.851	160.387	0.258	-0.358
-443.836	-11.160	0.184	-0.121
-442.822	412.796	0.120	-0.254
-441.807	-112.135	-0.301	-0.060
-440.792	-8.274	0.160	-0.107
-439.778	391.752	-0.066	-0.136
-438.763	69.613	0.269	0.276
-437.749	132.724	-0.295	0.379
-436.734	63.083	-0.265	-0.264
-435.719	800.000	-0.041	0.129
-434.705	200.182	0.076	-0.117
-433.690	-171.970	0.202	0.007
-432.676	800.000	-0.044	0.131
-431.661	-138.096	0.290	0.032
-430.646	102.872	-0.152	-0.177
-429.632	-183.573	0.383	-0.007
-428.617	-31.195	0.326	-0.182
-427.603	-97.020	-0.105	0.027
-426.588	465.374	0.086	-0.192
-425.573	168.877	0.068	0.096
-424.559	800.000	-0.067	0.270
-423.544	141.934	0.133	0.176
-422.530	800.000	0.075	0.266
-421.515	-69.221	-0.440	0.168
-420.500	-40.177	0.443	-0.229
-419.486	-28.101	-0.287	0.165
-418.471	-39.631	0.121	0.063
-417.457	31.742	-0.203	0.174
-416.442	800.000	0.049	-0.184
-415.428	-113.364	0.334	-0.065
-414.413	800.000	-0.057	0.169
-413.398	64.616	-0.124	0.124
-412.384	-40.257	0.268	-0.139
-411.369	-153.669	-0.529	0.036
-410.355	-74.540	-0.174	0.062
-409.340	71.209	-0.263	0.271
-408.325	-119.101	0.184	0.032
-407.311	-72.970	-0.050	-0.018
-406.296	-200.000	-0.033	0.288
-405.282	146.789	0.098	-0.131
-404.267	-32.571	-0.143	-0.079
-403.252	210.196	0.120	-0.187
-402.238	800.000	0.062	-0.185
-401.223	-200.000	-0.017	-0.290
-400.209	508.202	0.039	-0.090
-399.194	-48.119	-0.119	0.057
-398.179	-48.723	0.060	-0.029
-397.165	800.000	0.059	-0.239
-396.150	-144.502	0.015	0.001
-395.136	432.792	0.212	0.457
-394.121	-95.558	-0.549	-0.146
-393.106	-120.295	-0.336	-0.057
-392.092	-38.226	-0.312	0.164
-391.077	57.640	0.208	0.202
-390.063	-12.101	0.068	0.044
-389.048	-115.386	0.426	0.080
-388.033	700.810	0.027	-0.070
-387.019	-46.165	-0.157	-0.077
-386.004	-6.169	0.275	0.186
-384.990	-200.000	-0.003	0.294
-383.975	800.000	-0.027	0.079
-382.960	109.342	0.196	0.233
-381.946	-135.955	-0.179	-0.021
-380.931	51.497	-0.103	0.097
-379.917	469.275	-0.040	-0.088
-378.902	254.681	0.253	-0.430
-377.888	151.485	0.167	0.225
-376.873	1.700	-0.103	-0.073
-375.858	-106.081	-0.264	-0.059
-374.844	-200.000	-0.126	-0.001
-373.829	-149.912	-0.175	0.014
-372.815	-200.000	0.020	0.371
-371.800	-146.198	0.094	0.008
-370.785	435.374	0.061	-0.132
-369.771	-118.966	-0.423	-0.074
-368.756	198.531	0.214	-0.325
-367.742	-24.353	-0.207	0.123
-366.727	-200.000	0.002	-0.136
-365.712	-70.915	-0.288	0.108
-364.698	-40.884	-0.076	0.039
-363.683	50.551	0.193	0.181
-362.669	606.346	0.053	-0.130
-361.654	120.678	0.234	-0.289
-360.639	-104.915	-0.079	0.018
-359.625	77.836	-0.075	0.079
-358.610	800.000	-0.078	-0.303
-357.596	-78.462	0.374	0.127
-356.581	-71.546	-0.097	0.036
-355.566	170.704	-0.186	0.264
-354.552	43.671	0.131	-0.119
-353.537	273.473	0.090	0.158
-352.523	-58.993	0.443	-0.189
-351.508	70.063	-0.265	-0.271
-350.493	305.868	0.049	0.091
-349.479	-200.000	-0.044	0.250
-348.464	800.000	-0.052	-0.191
-347.450	-100.426	-0.068	0.017
-346.435	499.313	0.051	0.117
-345.420	-200.000	-0.015	-0.118
-344.406	5.178	0.113	-0.083
-343.391	288.185	-0.170	0.305
-342.377	-37.021	-0.135	-0.071
-341.362	-200.000	0.061	0.315
-340.348	-200.000	-0.022	0.132
-339.333	-200.000	-0.029	-0.128
-338.318	-106.553	0.194	0.043
-337.304	3.963	-0.186	0.135
-336.289	-200.000	0.037	0.265
-335.275	561.123	0.098	0.235
-334.260	368.157	0.069	0.139
-333.245	-69.745	0.228	-0.086
-332.231	800.000	-0.052	-0.207
-331.216	800.000	-0.020	-0.076
-330.202	-183.073	0.303	0.005
-329.187	80.624	0.158	-0.169
-328.172	-40.003	-0.094	-0.049
-327.158	-95.888	0.216	0.057
-326.143	103.278	0.112	-0.130
-325.129	-200.000	0.010	0.200
-324.114	-193.027	-0.086	-0.001
-323.099	192.898	0.071	-0.106
-322.085	-102.188	-0.304	0.072
-321.070	-30.370	0.226	0.127
-320.056	800.000	-0.014	0.058
-319.041	29.756	-0.202	0.170
-318.026	118.685	-0.008	0.009
-317.012	-45.004	-0.300	-0.148
-315.997	30.785	0.099	-0.084
-314.983	99.572	-0.275	-0.315
-313.968	-99.351	0.320	-0.080
-312.953	-200.000	0.030	-0.214
-311.939	-159.554	-0.089	0.005
-310.924	57.157	0.020	0.020
-309.910	-79.344	0.349	-0.117
-308.895	800.000	0.027	0.104
-307.880	-200.000	-0.022	0.164
-306.866	54.269	0.459	-0.437
-305.851	614.609	0.050	-0.125
-304.837	-114.218	0.221	0.042
-303.822	800.000	-0.068	-0.203
-302.807	-44.527	-0.222	0.110
-301.793	-52.608	0.069	-0.032
-300.778	-100.037	-0.189	0.047
-299.764	-200.000	-0.073	-0.412
-298.749	214.650	0.101	0.159
-297.735	800.000	-0.057	-0.171
-296.720	462.611	-0.038	-0.084
-295.705	-70.928	0.195	0.073
-294.691	-99.142	0.252	-0.063
-293.676	143.105	-0.212	-0.279
-292.662	22.192	-0.035	-0.028
-291.647	80.803	0.106	0.113
-290.632	-82.212	-0.155	-0.050
-289.618	-200.000	-0.019	0.098
-288.603	-89.023	-0.249	-0.073
-287.589	266.638	-0.113	0.195
-286.574	80.147	-0.029	0.031
-285.559	800.000	0.077	-0.224
-284.545	-138.780	0.255	0.028
-283.530	538.772	0.135	-0.317
-282.516	800.000	0.072	0.280
-281.501	36.390	-0.116	-0.101
-280.486	-25.695	0.114	-0.066
-279.472	-200.000	-0.044	-0.449
-278.457	-19.380	0.121	-0.074
-277.443	-31.758	-0.332	0.184
-276.428	-19.754	0.100	-0.061
-275.413	800.000	0.032	0.094
-274.399	-128.416	-0.362	-0.051
-273.384	179.532	0.257	0.371
-272.370	800.000	0.047	0.197
-271.355	39.991	-0.159	0.141
-270.340	442.508	0.167	0.361
-269.326	649.413	-0.122	0.308
-268.311	81.110	-0.066	-0.071
-267.297	-2.417	-0.287	-0.198
-266.282	-168.840	-0.186	-0.007
-265.267	117.304	-0.079	-0.096
-264.253	134.291	0.227	-0.291
-263.238	-142.057	0.032	0.003
-262.224	701.257	-0.045	0.118
-261.209	101.449	-0.148	0.171
-260.195	-130.893	0.198	0.026
-259.180	-54.994	-0.405	-0.180
-258.165	182.323	0.117	-0.170
-257.151	800.000	-0.032	0.092
-256.136	-42.326	0.159	0.080
-255.122	140.822	-0.270	-0.353
-254.107	800.000	0.057	-0.170
-253.092	32.951	-0.134	-0.114
-252.078	-124.672	0.251	0.038
-251.063	-151.786	0.090	-0.007
-250.049	124.651	0.152	-0.189
-249.034	-79.761	-0.313	-0.104
-248.019	120.682	0.094	0.116
-247.005	800.000	0.079	0.221
-245.990	800.000	0.078	0.301
-244.976	800.000	0.058	0.223
-243.961	800.000	0.040	0.126
-242.946	425.911	0.151	0.322
-241.932	-200.000	0.041	-0.180
-240.917	388.853	-0.097	-0.198
-239.903	199.503	0.146	-0.221
-238.888	283.838	-0.026	0.045
-237.873	-191.620	0.372	-0.004
-236.859	-105.413	-0.313	0.070
-235.844	-200.000	0.010	-0.056
-234.830	-115.879	0.168	0.031
-233.815	-121.097	0.254	-0.042
-232.800	291.931	-0.126	-0.226
-231.786	763.081	0.051	0.137
-230.771	192.101	-0.015	0.023
-229.757	102.193	0.172	-0.198
-228.742	594.273	0.063	0.154
-227.727	800.000	0.075	-0.237
-226.713	46.104	0.150	-0.137
-225.698	22.879	-0.240	-0.194
-224.684	221.323	-0.039	-0.061
-223.669	108.525	-0.049	0.058
-222.655	192.185	0.029	0.043
-221.640	131.432	-0.127	0.162
-220.625	448.826	-0.036	-0.079
-219.611	281.280	-0.101	-0.179
-218.596	-48.612	-0.306	0.145
-217.582	74.108	0.150	0.156
-216.567	-58.952	0.135	-0.057
-215.552	-158.078	-0.191	0.011
-214.538	-141.992	0.446	0.044
-213.523	800.000	-0.017	-0.062
-212.509	401.839	-0.139	-0.288
-211.494	64.822	0.077	0.077
-210.479	-94.644	0.116	0.031
-209.465	-103.639	-0.307	-0.071
-208.450	-171.845	-0.282	-0.009
-207.436	150.801	0.155	-0.207
-206.421	-200.000	0.003	0.172
-205.406	78.909	0.134	0.141
-204.392	-200.000	0.010	0.365
-203.377	-200.000	-0.007	-0.062
-202.363	-89.200	0.294	0.086
-201.348	-200.000	0.030	-0.139
-200.333	-44.611	0.530	-0.261
-199.319	-128.058	0.159	0.022
-198.304	-59.052	0.080	-0.034
-197.290	-167.574	0.194	0.008
-196.275	43.392	0.184	0.165
-195.260	431.907	0.061	0.129
-194.246	-124.128	0.183	-0.028
-193.231	-87.689	-0.446	-0.133
-192.217	360.002	-0.056	0.110
-191.202	-200.000	-0.065	-0.292
-190.187	95.594	-0.179	0.201
-189.173	207.279	-0.049	-0.075
-188.158	490.348	0.120	-0.271
-187.144	800.000	0.034	0.113
-186.129	208.387	-0.083	0.129
-185.114	-200.000	-0.001	0.142
-184.100	52.039	-0.154	-0.144
-183.085	-67.570	-0.071	-0.028
-182.071	58.106	-0.232	0.224
-181.056	800.000	0.082	-0.257
-180.042	100.370	0.207	-0.236
-179.027	799.226	0.120	0.326
-178.012	149.966	0.163	-0.218
-176.998	143.876	0.168	-0.220
-175.983	281.517	0.207	0.365
-174.969	256.109	-0.035	-0.059
-173.954	723.481	0.143	0.375
-172.939	10.090	0.034	-0.025
-171.925	5.798	0.076	-0.055
-170.910	173.442	-0.122	0.174
-169.896	-38.940	0.225	0.117
-168.881	-200.000	0.004	0.283
-167.866	-152.956	0.282	-0.020
-166.852	286.792	-0.110	0.196
-165.837	406.784	0.019	0.039
-164.823	-78.165	0.070	0.024
-163.808	63.497	0.354	0.350
-162.793	-119.405	0.282	-0.048
-161.779	-200.000	-0.026	-0.115
-160.764	-200.000	-0.044	0.234
-159.750	800.000	0.015	-0.052
-158.735	113.910	-0.179	-0.215
-157.720	-72.230	0.103	0.038
-156.706	-200.000	-0.018	-0.229
-155.691	-37.490	-0.240	-0.126
-154.677	185.076	0.150	0.219
-153.662	-91.744	0.082	0.023
-152.647	-46.600	0.277	-0.133
-151.633	-73.648	-0.154	0.055
-150.618	34.310	0.145	-0.124
-149.604	558.098	0.149	-0.354
-148.589	-142.368	-0.073	0.007
-147.574	52.830	-0.276	0.260
-146.560	90.441	0.194	0.214
-145.545	-78.672	0.281	0.094
-144.531	-66.923	0.286	0.111
-143.516	-200.000	-0.024	-0.257
-142.502	800.000	0.052	-0.224
-141.487	-28.986	-0.214	0.121
-140.472	633.030	0.099	-0.247
-139.458	-200.000	-0.091	0.518
-138.443	17.765	-0.229	-0.179
-137.429	59.361	-0.203	0.197
-136.414	-140.971	-0.245	0.025
-135.399	154.542	-0.158	-0.213
-134.385	209.734	0.139	0.214
-133.370	-127.041	0.051	-0.007
-132.356	-100.671	-0.149	-0.036
-131.341	160.488	-0.254	0.348
-130.326	-112.095	0.304	0.060
-129.312	24.640	0.179	0.145
-128.297	152.960	0.215	-0.288
-127.283	800.000	0.117	-0.379
-126.268	-40.538	-0.301	0.153
-125.253	800.000	0.003	0.010
-124.239	800.000	0.100	-0.338
-123.224	-36.703	-0.156	0.082
-122.210	-200.000	-0.048	0.236
-121.195	-46.643	-0.441	-0.212
