DTS Sentinel unit serial number:	SN413079Multiplexer serial number:	ORYXHardware model number:	OX4-SRSoftware version number:	ORYX F/W v4.00 Oryx Data Collector v3.7.2.0data status	okinstallation	princeton_trtdifferential loss correction	single-endedforward channel	channel 1reverse channel	N/Adate	2019/09/14time	03:18:35forward acquisition time	60.00reverse acquisition time	0.00gamma	496.2192k internal	0.2336k external	0.2336temperature offset calibration	1.0074default loss term (dB/km)	0.3790temperature slope calibration	1.0000multiplexer offset coefficient	1.0000multiplexer slope coefficient	1.0000fibre end	0.00T internal ref (°C)	26.62T ext. ref 1 (°C)	3.26T ext. ref 2 (°C)	21.66length (m)	temperature (°C)	Stokes	anti-Stokes-747.200	1.958	-0.117	0.085
-746.185	350.095	0.069	0.136
-745.171	-117.375	-0.084	-0.015
-744.156	306.858	0.045	0.084
-743.142	-102.773	-0.247	0.059
-742.127	-98.381	-0.348	0.089
-741.112	-200.000	0.006	0.213
-740.098	87.441	-0.331	0.367
-739.083	-200.000	0.012	-0.159
-738.069	-168.476	-0.440	-0.017
-737.054	-77.829	0.278	-0.096
-736.039	-85.502	-0.357	0.112
-735.025	-79.617	-0.186	0.063
-734.010	-45.258	0.231	0.115
-732.996	159.000	-0.136	-0.190
-731.981	-114.889	0.056	0.011
-730.966	661.267	0.080	-0.206
-729.952	276.082	0.080	-0.142
-728.937	-200.000	-0.053	-0.432
-727.923	515.094	-0.049	-0.116
-726.908	-200.000	-0.022	-0.108
-725.894	738.423	0.103	-0.278
-724.879	-107.464	-0.210	-0.046
-723.864	-200.000	-0.015	-0.148
-722.850	-200.000	0.008	-0.264
-721.835	-135.503	0.483	-0.058
-720.821	11.560	0.254	-0.195
-719.806	18.149	-0.456	-0.365
-718.791	-76.057	0.176	-0.062
-717.777	-155.885	-0.414	-0.026
-716.762	-20.277	0.200	-0.123
-715.748	800.000	-0.041	-0.157
-714.733	-65.624	0.133	0.053
-713.718	-35.398	-0.117	0.064
-712.704	62.796	-0.164	-0.165
-711.689	-13.428	0.265	-0.172
-710.675	445.476	0.063	0.138
-709.660	-165.545	-0.055	0.002
-708.645	728.472	0.108	-0.289
-707.631	-200.000	-0.017	0.306
-706.616	-127.094	0.219	0.032
-705.602	108.341	-0.015	0.017
-704.587	38.490	-0.122	-0.109
-703.572	83.944	0.188	-0.206
-702.558	-200.000	-0.011	-0.095
-701.543	40.731	-0.191	-0.173
-700.529	-77.695	0.287	0.100
-699.514	-200.000	0.003	0.079
-698.499	39.051	-0.024	0.021
-697.485	-31.515	0.311	0.175
-696.470	-200.000	0.004	-0.490
-695.456	800.000	-0.062	0.249
-694.441	-124.360	-0.186	-0.029
-693.426	36.234	0.031	-0.027
-692.412	-200.000	0.090	0.400
-691.397	-200.000	-0.019	-0.304
-690.383	-200.000	-0.013	-0.172
-689.368	-122.206	-0.379	0.062
-688.354	200.323	0.006	0.009
-687.339	119.718	-0.245	-0.304
-686.324	222.106	-0.063	0.102
-685.310	-140.119	-0.221	-0.023
-684.295	633.026	0.080	-0.204
-683.281	-200.000	-0.010	-0.216
-682.266	577.389	0.011	0.028
-681.251	800.000	-0.121	-0.490
-680.237	7.480	0.204	0.153
-679.222	79.860	-0.232	-0.250
-678.208	100.692	-0.112	0.130
-677.193	39.471	-0.027	-0.025
-676.178	63.120	-0.151	0.152
-675.164	-151.127	0.148	-0.011
-674.149	7.321	-0.119	-0.089
-673.135	-192.178	-0.169	-0.002
-672.120	-200.000	-0.021	-0.140
-671.105	800.000	0.022	0.081
-670.091	-65.266	0.424	-0.171
-669.076	15.536	-0.233	0.184
-668.062	70.445	-0.243	0.252
-667.047	-4.565	-0.121	0.084
-666.032	-137.812	-0.292	0.033
-665.018	301.646	0.085	-0.158
-664.003	25.233	0.124	-0.103
-662.989	25.293	-0.217	0.180
-661.974	800.000	-0.069	0.196
-660.959	20.084	-0.241	-0.195
-659.945	-37.344	0.348	-0.186
-658.930	-10.408	-0.256	-0.170
-657.916	-66.198	-0.211	0.084
-656.901	-200.000	-0.011	-0.384
-655.886	-115.354	0.373	-0.070
-654.872	-55.628	-0.271	-0.121
-653.857	9.693	0.353	-0.268
-652.843	-105.985	0.265	-0.060
-651.828	17.652	0.090	0.071
-650.814	209.267	0.082	0.128
-649.799	107.448	-0.163	-0.194
-648.784	329.589	-0.188	-0.361
-647.770	-57.303	-0.365	-0.161
-646.755	-73.783	0.080	0.029
-645.741	60.448	0.115	0.114
-644.726	-200.000	-0.021	-0.122
-643.711	-119.996	0.319	-0.055
-642.697	-132.972	-0.120	0.015
-641.682	45.952	-0.130	-0.120
-640.668	-200.000	-0.036	0.220
-639.653	64.487	0.205	-0.207
-638.638	800.000	0.155	0.505
-637.624	23.994	0.167	0.137
-636.609	-200.000	-0.032	-0.363
-635.595	800.000	-0.085	0.308
-634.580	-200.000	-0.007	0.052
-633.565	-200.000	-0.011	0.312
-632.551	250.847	-0.056	0.095
-631.536	689.547	-0.027	0.071
-630.522	-3.949	-0.214	0.149
-629.507	-89.529	-0.322	0.094
-628.492	357.067	-0.056	0.112
-627.478	-57.934	0.042	-0.018
-626.463	565.390	0.112	-0.272
-625.449	45.072	0.059	-0.054
-624.434	-81.865	0.151	0.049
-623.419	614.741	-0.205	0.514
-622.405	-39.367	0.223	-0.117
-621.390	-200.000	-0.004	-0.210
-620.376	-140.718	-0.232	0.024
-619.361	800.000	0.072	-0.308
-618.346	471.909	0.115	-0.259
-617.332	-120.636	0.313	0.053
-616.317	800.000	0.053	0.165
-615.303	333.744	0.121	-0.235
-614.288	-200.000	0.039	-0.200
-613.273	69.783	-0.180	0.186
-612.259	-88.895	-0.151	-0.045
-611.244	149.430	-0.143	0.193
-610.230	309.582	-0.151	-0.283
-609.215	56.305	-0.044	0.043
-608.201	188.896	0.109	0.164
-607.186	-200.000	-0.026	-0.177
-606.171	261.451	-0.114	-0.197
-605.157	244.393	0.076	0.127
-604.142	-195.931	0.023	0.000
-603.128	-200.000	0.039	0.396
-602.113	-49.842	-0.095	-0.045
-601.098	588.206	-0.060	-0.148
-600.084	-71.943	0.346	-0.129
-599.069	7.727	-0.105	-0.078
-598.055	-117.673	-0.087	-0.016
-597.040	13.486	-0.132	0.102
-596.025	89.193	-0.204	-0.227
-595.011	175.089	0.092	0.133
-593.996	-111.236	-0.278	-0.057
-592.982	18.712	0.074	0.059
-591.967	-119.924	-0.237	0.041
-590.952	254.315	0.080	-0.137
-589.938	-148.474	0.227	0.019
-588.923	359.298	-0.027	0.053
-587.909	-96.095	0.150	-0.040
-586.894	68.730	0.133	-0.137
-585.879	-200.000	0.037	-0.235
-584.865	17.816	-0.179	0.142
-583.850	311.482	-0.056	-0.105
-582.836	71.833	0.165	-0.171
-581.821	-33.966	-0.262	0.144
-580.806	-2.484	0.221	-0.154
-579.792	-58.058	0.249	-0.108
-578.777	-200.000	-0.003	-0.119
-577.763	130.534	0.210	0.268
-576.748	305.842	0.044	-0.082
-575.733	-200.000	0.044	0.234
-574.719	289.612	0.059	-0.106
-573.704	729.079	-0.013	0.035
-572.690	-14.737	0.106	-0.068
-571.675	280.789	-0.095	-0.169
-570.661	-61.054	-0.229	-0.097
-569.646	13.971	-0.190	-0.147
-568.631	-78.597	0.123	-0.042
-567.617	194.637	0.132	-0.200
-566.602	-77.598	-0.126	-0.044
-565.588	-34.254	-0.090	0.049
-564.573	-131.789	-0.226	0.029
-563.558	800.000	0.023	-0.080
-562.544	-88.675	0.312	0.093
-561.529	800.000	-0.027	-0.088
-560.515	-78.877	-0.149	0.051
-559.500	636.304	0.063	-0.158
-558.485	139.439	0.164	-0.215
-557.471	-17.298	0.202	0.127
-556.456	44.565	-0.221	0.202
-555.442	-36.837	0.081	0.043
-554.427	311.291	-0.118	0.221
-553.412	39.547	0.113	0.101
-552.398	-98.495	0.127	0.032
-551.383	78.341	0.081	0.086
-550.369	-200.000	0.029	0.404
-549.354	183.584	0.231	-0.341
-548.339	-5.150	0.185	0.127
-547.325	143.846	0.104	-0.138
-546.310	-141.324	-0.332	-0.034
-545.296	-7.286	0.116	0.078
-544.281	-22.189	-0.306	-0.185
-543.266	176.422	-0.150	-0.217
-542.252	-200.000	-0.005	0.177
-541.237	-65.428	-0.274	-0.110
-540.223	166.761	0.135	-0.190
-539.208	-32.449	-0.254	-0.141
-538.193	-158.820	-0.090	-0.005
-537.179	-79.678	0.107	0.036
-536.164	4.619	0.198	0.145
-535.150	206.126	0.132	0.204
-534.135	-30.165	-0.233	0.132
-533.121	-8.276	-0.133	0.089
-532.106	800.000	0.120	0.362
-531.091	-39.450	-0.217	0.113
-530.077	42.236	0.046	0.042
-529.062	-27.782	-0.174	-0.100
-528.048	779.025	-0.018	0.049
-527.033	-155.230	-0.341	0.022
-526.018	-73.494	-0.303	0.110
-525.004	96.708	-0.032	-0.036
-523.989	-200.000	0.003	-0.169
-522.975	160.216	-0.046	0.064
-521.960	-200.000	-0.022	-0.255
-520.945	-143.506	-0.087	-0.008
-519.931	-200.000	-0.029	0.144
-518.916	257.107	0.015	0.026
-517.902	-108.439	-0.203	-0.043
-516.887	-8.266	0.251	0.168
-515.872	69.755	0.169	0.174
-514.858	-24.248	0.120	0.071
-513.843	-86.674	0.015	0.005
-512.829	-167.205	-0.165	-0.007
-511.814	-154.422	0.348	0.023
-510.799	-69.125	-0.090	-0.034
-509.785	-33.902	-0.159	0.087
-508.770	-200.000	0.020	-0.179
-507.756	-50.249	-0.328	0.154
-506.741	45.321	0.171	0.157
-505.726	-144.606	0.426	-0.039
-504.712	-92.257	-0.374	0.105
-503.697	30.810	0.138	-0.118
-502.683	-63.061	-0.399	0.164
-501.668	-48.732	-0.034	0.016
-500.653	92.303	0.077	-0.086
-499.639	43.300	-0.140	-0.127
-498.624	221.645	0.104	-0.166
-497.610	-180.851	0.305	0.006
-496.595	72.345	-0.185	-0.191
-495.581	800.000	0.129	-0.396
-494.566	-163.089	0.638	0.031
-493.551	35.821	-0.277	-0.242
-492.537	800.000	0.035	0.102
-491.522	-200.000	-0.016	-0.357
-490.508	800.000	0.066	0.270
-489.493	751.322	-0.033	-0.088
-488.478	99.868	-0.126	0.146
-487.464	192.388	-0.216	0.323
-486.449	-119.076	-0.119	0.021
-485.435	76.184	0.069	0.073
-484.420	800.000	-0.143	-0.414
-483.405	-200.000	-0.031	0.344
-482.391	-174.514	0.172	-0.005
-481.376	-152.370	-0.078	-0.006
-480.362	-37.477	-0.193	-0.103
-479.347	48.278	-0.170	-0.158
-478.332	-200.000	0.002	0.087
-477.318	-193.757	-0.148	0.001
-476.303	46.340	0.339	0.312
-475.289	468.172	0.106	-0.237
-474.274	65.046	0.240	0.241
-473.259	-200.000	-0.009	-0.162
-472.245	-107.889	0.302	-0.065
-471.230	-139.807	0.191	0.020
-470.216	-61.490	-0.046	0.019
-469.201	151.658	-0.033	-0.045
-468.186	60.016	0.194	-0.191
-467.172	-200.000	-0.063	0.308
-466.157	93.403	0.133	0.149
-465.143	-48.912	-0.134	0.064
-464.128	-127.902	0.182	-0.026
-463.113	-3.123	0.470	0.325
-462.099	372.243	-0.125	0.252
-461.084	26.882	0.248	0.206
-460.070	-168.993	-0.160	-0.006
-459.055	67.997	-0.098	-0.100
-458.040	254.999	-0.112	-0.191
-457.026	-56.642	-0.284	-0.125
-456.011	84.057	0.047	-0.051
-454.997	55.085	-0.228	-0.218
-453.982	800.000	-0.080	0.312
-452.968	26.144	-0.196	0.162
-451.953	234.520	0.301	-0.493
-450.938	800.000	0.066	-0.183
-449.924	27.538	-0.115	-0.096
-448.909	80.647	0.067	0.072
-447.895	-50.390	-0.314	-0.147
-446.880	207.649	-0.009	-0.014
-445.865	44.683	-0.080	-0.073
-444.851	216.583	0.075	-0.119
-443.836	-133.810	-0.025	0.003
-442.822	-4.229	-0.078	-0.053
-441.807	-200.000	0.074	-0.326
-440.792	-200.000	-0.015	-0.093
-439.778	6.236	-0.279	-0.205
-438.763	436.034	0.099	-0.215
-437.749	-67.012	0.073	-0.028
-436.734	492.763	-0.035	0.079
-435.719	175.454	0.286	-0.411
-434.705	-165.659	-0.195	0.008
-433.690	411.903	0.061	0.129
-432.676	-37.063	0.266	0.141
-431.661	-23.227	-0.159	-0.095
-430.646	435.562	0.102	0.220
-429.632	332.002	0.152	0.291
-428.617	-186.114	0.341	0.005
-427.603	4.874	0.367	-0.268
-426.588	-83.362	0.145	0.046
-425.573	202.038	0.010	0.015
-424.559	-200.000	-0.061	-0.277
-423.544	254.909	0.121	0.205
-422.530	248.387	-0.190	0.318
-421.515	-53.620	-0.150	0.068
-420.500	-54.769	-0.037	-0.016
-419.486	22.608	0.237	0.192
-418.471	800.000	0.088	-0.255
-417.457	-135.678	0.281	-0.033
-416.442	-200.000	0.021	-0.357
-415.428	-86.484	-0.177	0.054
-414.413	178.554	-0.203	-0.294
-413.398	-10.306	0.305	-0.201
-412.384	-149.542	-0.126	-0.010
-411.369	-130.271	0.173	0.023
-410.355	-151.403	0.148	0.011
-409.340	-200.000	-0.032	0.295
-408.325	657.960	0.078	-0.199
-407.311	116.999	0.161	-0.196
-406.296	-160.478	-0.216	0.011
-405.282	-200.000	0.000	-0.142
-404.267	-200.000	0.021	0.131
-403.252	-52.618	0.189	0.086
-402.238	-54.092	-0.226	0.102
-401.223	-200.000	0.051	0.522
-400.209	-200.000	0.008	0.083
-399.194	800.000	0.075	-0.265
-398.179	502.617	0.197	-0.451
-397.165	-128.903	-0.127	0.018
-396.150	41.738	0.157	-0.141
-395.136	338.748	0.063	-0.122
-394.121	96.291	0.037	0.042
-393.106	10.565	0.062	0.047
-392.092	-200.000	0.042	-0.260
-391.077	55.826	0.082	0.079
-390.063	-94.992	-0.268	0.072
-389.048	559.884	0.035	-0.083
-388.033	-200.000	0.045	0.239
-387.019	-200.000	0.039	0.181
-386.004	-86.472	0.084	0.026
-384.990	4.827	0.345	-0.251
-383.975	-200.000	0.031	0.203
-382.960	-21.758	0.174	0.105
-381.946	167.992	0.137	-0.192
-380.931	-23.227	-0.210	0.125
-379.917	-7.601	-0.068	-0.046
-378.902	399.066	0.014	0.029
-377.888	-200.000	0.058	0.378
-376.873	-99.519	0.051	-0.013
-375.858	-77.748	0.297	0.102
-374.844	-200.000	-0.035	0.176
-373.829	-200.000	-0.050	0.345
-372.815	800.000	0.086	0.308
-371.800	-116.901	0.215	0.039
-370.785	-111.441	-0.431	-0.087
-369.771	71.073	-0.084	-0.086
-368.756	-200.000	-0.019	0.112
-367.742	66.664	-0.035	-0.036
-366.727	229.622	0.181	-0.292
-365.712	132.199	-0.053	-0.068
-364.698	-96.175	-0.152	0.040
-363.683	-31.764	-0.267	-0.148
-362.669	-51.784	0.135	-0.062
-361.654	122.963	0.134	-0.166
-360.639	-32.831	0.146	-0.080
-359.625	-105.038	0.080	0.018
-358.610	-85.362	0.059	-0.018
-357.596	-63.034	-0.168	-0.069
-356.581	-22.940	0.122	-0.073
-355.566	275.280	-0.211	0.369
-354.552	41.572	0.088	0.079
-353.537	-3.543	0.218	-0.150
-352.523	800.000	-0.131	0.422
-351.508	-97.158	-0.202	-0.052
-350.493	557.211	-0.047	0.111
-349.479	393.567	0.074	-0.152
-348.464	800.000	-0.064	0.240
-347.450	288.706	0.161	0.288
-346.435	-165.114	-0.275	0.012
-345.420	-200.000	0.027	0.370
-344.406	-57.624	0.289	0.125
-343.391	-200.000	-0.003	0.042
-342.377	800.000	0.034	-0.122
-341.362	83.588	-0.246	-0.265
-340.348	198.779	0.087	-0.131
-339.333	-39.409	-0.210	0.109
-338.318	-33.373	-0.060	-0.033
-337.304	-200.000	-0.043	0.289
-336.289	81.570	0.263	0.281
-335.275	800.000	-0.036	-0.134
-334.260	1.145	-0.080	-0.057
-333.245	-200.000	-0.014	0.066
-332.231	-41.448	0.241	-0.122
-331.216	162.569	-0.014	-0.019
-330.202	-200.000	0.026	-0.119
-329.187	-19.908	0.210	0.128
-328.172	-73.534	-0.283	-0.102
-327.158	113.612	-0.237	-0.285
-326.143	-200.000	0.009	-0.075
-325.129	111.474	0.065	-0.077
-324.114	-200.000	-0.008	0.167
-323.099	-99.514	0.172	0.043
-322.085	245.271	-0.096	-0.160
-321.070	283.412	0.250	0.443
-320.056	-200.000	-0.012	-0.058
-319.041	-9.947	0.159	-0.105
-318.026	243.053	0.030	0.049
-317.012	-200.000	0.007	-0.087
-315.997	-200.000	0.008	-0.037
-314.983	246.219	0.089	-0.149
-313.968	764.384	-0.168	-0.450
-312.953	-145.390	-0.204	0.018
-311.939	313.401	-0.126	0.233
-310.924	800.000	0.012	-0.036
-309.910	-21.095	-0.547	-0.331
-308.895	-200.000	-0.075	0.354
-307.880	4.041	-0.023	0.016
-306.866	94.629	0.053	0.059
-305.851	-51.206	-0.323	0.149
-304.837	-30.721	-0.375	-0.209
-303.822	-106.956	-0.201	0.044
-302.807	-200.000	0.008	0.121
-301.793	-39.281	-0.242	-0.125
-300.778	800.000	0.063	0.265
-299.764	82.810	0.088	0.094
-298.749	-200.000	-0.043	-0.226
-297.735	95.318	-0.152	0.171
-296.720	-132.189	0.094	0.012
-295.705	34.044	-0.194	-0.167
-294.691	448.788	-0.023	-0.049
-293.676	-143.021	0.361	-0.034
-292.662	122.532	-0.118	-0.146
-291.647	-200.000	0.024	-0.140
-290.632	245.015	0.187	-0.311
-289.618	156.128	0.098	0.134
-288.603	-67.267	-0.361	-0.140
-287.589	91.463	0.034	-0.038
-286.574	-6.270	-0.083	0.056
-285.559	-45.877	-0.277	-0.135
-284.545	-200.000	-0.007	-0.496
-283.530	-87.478	-0.124	-0.037
-282.516	21.850	0.397	0.319
-281.501	250.261	0.090	0.150
-280.486	-100.860	-0.166	-0.040
-279.472	284.889	0.103	0.182
-278.457	42.191	0.250	0.223
-277.443	-200.000	0.009	-0.083
-276.428	422.870	0.096	-0.203
-275.413	90.218	-0.128	0.141
-274.399	15.582	-0.096	-0.074
-273.384	-200.000	-0.008	0.149
-272.370	-26.534	0.318	0.184
-271.355	-125.481	0.108	-0.016
-270.340	77.859	-0.204	-0.215
-269.326	-200.000	0.115	-0.000
-268.311	-200.000	0.005	0.460
-267.297	-75.816	0.163	-0.057
-266.282	329.357	0.085	0.162
-265.267	414.260	-0.161	0.338
-264.253	-31.953	0.208	0.115
-263.238	-200.000	0.026	-0.146
-262.224	-120.712	0.190	-0.032
-261.209	-200.000	-0.008	-0.278
-260.195	-200.000	0.009	-0.378
-259.180	-56.640	0.115	-0.050
-258.165	794.752	0.020	0.055
-257.151	-53.735	-0.226	-0.102
-256.136	82.244	0.164	0.175
-255.122	-47.193	-0.283	0.136
-254.107	-200.000	-0.080	-0.375
-253.092	272.779	-0.094	-0.163
-252.078	-54.222	-0.204	-0.091
-251.063	-167.463	-0.215	0.008
-250.049	-81.054	-0.215	0.070
-249.034	-135.695	-0.177	-0.021
-248.019	-200.000	-0.017	0.239
-247.005	-200.000	0.002	-0.079
-245.990	166.712	-0.044	-0.062
-244.976	-56.148	0.332	-0.145
-243.961	-82.826	0.201	0.064
-242.946	690.284	0.218	-0.563
-241.932	366.967	-0.021	0.042
-240.917	800.000	0.017	-0.058
-239.903	-115.417	0.357	0.066
-238.888	0.396	0.117	0.082
-237.873	-44.998	-0.122	0.060
-236.859	-74.228	-0.493	0.175
-235.844	181.216	-0.094	-0.136
-234.830	-200.000	-0.087	0.401
-233.815	451.008	0.022	-0.048
-232.800	-50.819	0.148	0.068
-231.786	42.955	0.182	0.163
-230.771	159.188	0.038	0.052
-229.757	195.652	-0.049	0.074
-228.742	-49.172	0.155	0.073
-227.727	78.212	0.171	-0.179
-226.713	-53.904	-0.093	0.042
-225.698	-187.269	-0.282	0.004
-224.684	800.000	0.040	0.121
-223.669	800.000	0.102	0.292
-222.655	-200.000	-0.004	0.457
-221.640	222.767	0.245	0.388
-220.625	467.181	-0.145	-0.319
-219.611	-53.038	0.093	-0.042
-218.596	-68.956	0.236	-0.090
-217.582	800.000	0.171	0.468
-216.567	-22.222	-0.197	-0.117
-215.552	123.250	0.087	-0.107
-214.538	-147.487	0.114	-0.009
-213.523	142.927	0.072	-0.095
-212.509	186.661	-0.083	0.121
-211.494	-151.022	0.196	-0.014
-210.479	-200.000	0.030	-0.156
-209.465	191.053	0.140	0.208
-208.450	-86.139	-0.263	-0.080
-207.436	612.301	0.024	0.058
-206.421	573.633	-0.125	-0.300
-205.406	253.765	0.035	-0.059
-204.392	-87.970	0.419	-0.124
-203.377	-116.017	-0.237	-0.043
-202.363	-15.948	0.125	0.078
-201.348	800.000	-0.044	0.163
-200.333	-200.000	-0.050	0.235
-199.319	-165.976	-0.242	0.010
-198.304	179.579	-0.049	-0.070
-197.290	-200.000	0.011	-0.186
-196.275	800.000	-0.066	-0.218
-195.260	-24.748	-0.262	-0.153
-194.246	800.000	-0.011	0.032
-193.231	670.206	0.120	-0.304
-192.217	-200.000	0.016	0.078
-191.202	800.000	0.084	-0.309
-190.187	270.979	0.093	0.162
-189.173	243.275	-0.039	-0.064
-188.158	-8.086	0.180	-0.119
-187.144	-106.213	0.043	-0.009
-186.129	41.490	0.159	0.142
-185.114	-81.455	0.194	-0.063
-184.100	258.386	0.137	0.232
-183.085	46.534	-0.179	0.163
-182.071	-141.363	-0.224	0.022
-181.056	163.569	0.147	-0.203
-180.042	-37.182	-0.246	0.129
-179.027	-68.147	-0.126	0.048
-178.012	-138.920	0.212	0.023
-176.998	80.099	-0.089	-0.094
-175.983	-200.000	0.004	0.267
-174.969	398.518	-0.071	-0.146
-173.954	-200.000	0.054	0.292
-172.939	-136.094	-0.285	0.033
-171.925	-60.235	0.184	0.077
-170.910	74.775	-0.274	-0.283
-169.896	647.691	-0.113	0.284
-168.881	164.626	-0.086	-0.119
-167.866	-200.000	-0.000	0.034
-166.852	-41.999	0.122	-0.061
-165.837	66.183	-0.249	0.248
-164.823	-66.092	-0.149	0.058
-163.808	435.523	-0.088	0.188
-162.793	-56.534	-0.219	0.095
-161.779	-87.468	0.084	-0.025
-160.764	194.005	0.201	-0.299
-159.750	-17.770	-0.146	-0.090
-158.735	114.242	-0.223	0.267
-157.720	800.000	0.057	0.193
-156.706	-51.939	0.190	0.087
-155.691	-35.672	0.086	0.046
-154.677	800.000	0.068	-0.211
-153.662	133.007	0.069	0.088
-152.647	-82.924	0.038	-0.012
-151.633	-67.307	-0.254	-0.098
-150.618	507.747	0.020	0.045
-149.604	184.610	-0.267	-0.388
-148.589	-47.446	-0.415	-0.198
-147.574	-173.820	-0.408	-0.012
-146.560	-151.351	0.160	-0.012
-145.545	54.567	0.180	-0.170
-144.531	-200.000	-0.044	0.255
-143.516	-200.000	0.015	0.151
-142.502	274.161	-0.067	0.117
-141.487	96.330	0.116	0.130
-140.472	73.615	0.058	-0.060
-139.458	-200.000	-0.013	-0.200
-138.443	-60.891	0.239	0.099
-137.429	-43.563	-0.095	0.047
-136.414	-200.000	0.012	-0.070
-135.399	-133.548	-0.411	-0.050
-134.385	-107.430	-0.285	0.061
-133.370	-8.151	-0.245	-0.162
-132.356	-200.000	0.065	-0.365
-131.341	-116.849	-0.191	-0.034
-130.326	249.269	-0.237	0.394
-129.312	10.963	0.102	0.076
-128.297	-70.824	-0.268	-0.099
-127.283	271.432	0.107	0.185
-126.268	516.220	-0.124	-0.284
-125.253	-62.888	-0.302	-0.123
-124.239	152.094	-0.135	0.180
-123.224	-183.074	-0.067	-0.001
-122.210	453.791	-0.025	0.053
-121.195	800.000	0.045	0.155
