DTS Sentinel unit serial number:	SN413079Multiplexer serial number:	ORYXHardware model number:	OX4-SRSoftware version number:	ORYX F/W v4.00 Oryx Data Collector v3.7.2.0data status	okinstallation	princeton_trtdifferential loss correction	single-endedforward channel	channel 1reverse channel	N/Adate	2019/09/10time	22:04:11forward acquisition time	60.00reverse acquisition time	0.00gamma	496.2192k internal	0.2331k external	0.2331temperature offset calibration	0.9935default loss term (dB/km)	0.3790temperature slope calibration	1.0000multiplexer offset coefficient	1.0000multiplexer slope coefficient	1.0000fibre end	0.00T internal ref (°C)	30.67T ext. ref 1 (°C)	-0.31T ext. ref 2 (°C)	23.91length (m)	temperature (°C)	Stokes	anti-Stokes-747.200	72.281	0.175	0.184
-746.185	-64.630	-0.181	0.074
-745.171	-112.360	0.292	-0.059
-744.156	-200.000	0.037	0.179
-743.142	34.836	0.161	0.142
-742.127	-173.532	-0.173	-0.005
-741.112	393.391	-0.118	-0.247
-740.098	-200.000	-0.005	0.163
-739.083	15.925	-0.119	0.094
-738.069	166.961	0.254	0.363
-737.054	-117.941	0.283	0.051
-736.039	7.181	-0.128	-0.096
-735.025	134.170	0.105	0.137
-734.010	-10.380	-0.154	-0.102
-732.996	24.441	-0.064	0.053
-731.981	800.000	-0.044	0.176
-730.966	200.316	-0.131	-0.202
-729.952	137.360	0.055	-0.072
-728.937	8.313	-0.284	-0.214
-727.923	51.601	-0.077	0.074
-726.908	-200.000	0.005	0.054
-725.894	223.703	0.060	0.097
-724.879	-28.548	0.188	-0.109
-723.864	-200.000	-0.020	0.000
-722.850	97.855	0.239	-0.276
-721.835	-82.074	-0.313	0.103
-720.821	-200.000	0.000	0.113
-719.806	-200.000	-0.033	-0.181
-718.791	-200.000	0.014	0.070
-717.777	-99.237	-0.424	0.108
-716.762	562.007	0.100	-0.243
-715.748	-153.421	0.322	-0.022
-714.733	3.476	0.099	-0.073
-713.718	-34.872	0.239	0.131
-712.704	334.941	0.102	-0.199
-711.689	-63.627	-0.152	-0.063
-710.675	800.000	-0.112	-0.366
-709.660	-170.366	0.239	0.008
-708.645	-200.000	0.058	0.454
-707.631	-19.469	-0.114	0.071
-706.616	136.222	0.193	-0.253
-705.602	-188.557	-0.468	-0.006
-704.587	75.101	-0.131	-0.138
-703.572	513.247	-0.020	-0.048
-702.558	-200.000	-0.017	-0.471
-701.543	-127.645	-0.328	0.048
-700.529	138.850	-0.095	-0.125
-699.514	-43.961	-0.207	-0.105
-698.499	100.670	-0.193	-0.225
-697.485	-38.631	-0.210	-0.111
-696.470	-20.370	-0.118	0.073
-695.456	-200.000	-0.029	0.150
-694.441	-200.000	-0.002	0.175
-693.426	387.258	-0.122	0.254
-692.412	-35.185	-0.330	-0.180
-691.397	-200.000	-0.006	0.041
-690.383	-200.000	-0.068	-0.336
-689.368	3.027	-0.242	-0.176
-688.354	542.528	-0.077	-0.185
-687.339	800.000	0.115	0.402
-686.324	160.272	0.130	-0.182
-685.310	800.000	-0.039	-0.115
-684.295	-132.136	-0.343	-0.045
-683.281	800.000	-0.097	0.381
-682.266	800.000	-0.093	-0.271
-681.251	366.429	-0.085	-0.172
-680.237	-98.514	-0.238	0.061
-679.222	800.000	-0.043	-0.124
-678.208	-16.760	0.173	-0.110
-677.193	-111.893	-0.131	0.027
-676.178	-156.091	-0.381	0.024
-675.164	151.874	-0.191	0.262
-674.149	-200.000	0.011	0.249
-673.135	-129.048	-0.321	0.045
-672.120	-34.319	-0.209	0.115
-671.105	-113.109	-0.218	-0.043
-670.091	-6.860	0.257	-0.175
-669.076	-200.000	-0.022	-0.176
-668.062	-61.752	-0.575	-0.242
-667.047	300.637	-0.072	0.134
-666.032	-53.523	0.245	-0.113
-665.018	-200.000	0.003	-0.097
-664.003	-50.065	0.265	0.126
-662.989	-200.000	-0.049	0.337
-661.974	-24.928	-0.251	0.150
-660.959	-24.912	0.191	-0.114
-659.945	51.085	-0.172	0.163
-658.930	271.261	0.225	-0.397
-657.916	-113.795	0.139	0.027
-656.901	-17.701	0.117	-0.074
-655.886	-100.341	-0.173	-0.043
-654.872	-48.981	0.285	-0.137
-653.857	-24.383	0.065	0.039
-652.843	800.000	0.019	-0.063
-651.828	-183.995	0.134	-0.002
-650.814	800.000	-0.026	-0.076
-649.799	-86.966	-0.252	-0.077
-648.784	57.530	0.151	0.147
-647.770	-67.807	0.332	-0.130
-646.755	-51.011	-0.235	0.110
-645.741	800.000	0.034	-0.129
-644.726	-137.187	0.307	-0.035
-643.711	53.067	-0.022	-0.022
-642.697	451.748	-0.013	0.030
-641.682	-147.416	0.268	-0.023
-640.668	242.262	0.098	0.165
-639.653	-16.110	0.004	-0.002
-638.638	-58.230	0.323	0.141
-637.624	341.607	0.064	0.124
-636.609	-129.030	0.174	0.024
-635.595	-48.700	-0.091	-0.044
-634.580	-23.328	0.105	-0.063
-633.565	193.705	-0.094	0.142
-632.551	77.151	-0.092	0.098
-631.536	682.121	0.044	0.115
-630.522	-200.000	0.022	0.136
-629.507	437.460	0.046	-0.100
-628.492	-200.000	-0.008	-0.211
-627.478	13.180	0.107	-0.083
-626.463	27.189	0.119	0.100
-625.449	-3.070	0.301	0.211
-624.434	82.670	-0.244	-0.265
-623.419	-72.708	-0.210	-0.078
-622.405	800.000	0.052	0.155
-621.390	248.886	-0.138	-0.234
-620.376	-78.671	0.213	0.073
-619.361	82.380	-0.173	-0.188
-618.346	4.668	0.292	-0.215
-617.332	-200.000	-0.002	-0.187
-616.317	800.000	0.080	-0.305
-615.303	344.949	0.140	-0.275
-614.288	-37.816	0.121	0.064
-613.273	-200.000	-0.044	0.265
-612.259	800.000	-0.096	0.281
-611.244	-200.000	0.010	0.128
-610.230	800.000	-0.049	0.213
-609.215	-200.000	0.030	-0.177
-608.201	-124.686	0.334	-0.052
-607.186	26.589	0.345	-0.289
-606.171	-103.142	0.304	-0.072
-605.157	-67.504	-0.203	-0.080
-604.142	4.681	0.392	-0.288
-603.128	84.736	0.271	0.297
-602.113	-100.222	-0.244	-0.061
-601.098	-59.966	-0.298	0.127
-600.084	-200.000	0.024	0.111
-599.069	-158.829	-0.197	0.011
-598.055	-41.381	0.068	0.035
-597.040	53.356	0.372	-0.357
-596.025	-59.098	0.125	0.054
-595.011	126.070	0.218	0.276
-593.996	292.198	0.216	-0.394
-592.982	-66.319	0.203	-0.081
-591.967	202.946	-0.241	0.373
-590.952	-18.188	0.189	0.119
-589.938	-118.503	-0.217	-0.038
-588.923	-36.028	-0.306	0.166
-587.909	-200.000	-0.007	0.169
-586.894	-59.927	-0.039	-0.017
-585.879	590.740	0.155	0.383
-584.865	-114.712	0.145	-0.028
-583.850	-200.000	-0.055	-0.251
-582.836	-200.000	0.012	-0.146
-581.821	86.109	0.099	-0.108
-580.806	800.000	0.101	-0.278
-579.792	-200.000	-0.010	-0.270
-578.777	-200.000	-0.015	-0.446
-577.763	5.981	-0.145	-0.108
-576.748	-76.631	-0.140	-0.049
-575.733	171.473	-0.112	-0.161
-574.719	-3.571	-0.369	0.256
-573.704	-21.024	-0.076	0.047
-572.690	800.000	0.099	-0.304
-571.675	-200.000	-0.011	0.074
-570.661	12.093	0.153	-0.118
-569.646	-80.877	0.205	0.068
-568.631	756.487	0.133	0.361
-567.617	-42.175	-0.368	-0.188
-566.602	800.000	0.042	0.122
-565.588	-200.000	-0.017	-0.160
-564.573	-141.319	-0.092	0.009
-563.558	-50.366	-0.115	0.054
-562.544	800.000	-0.123	0.416
-561.529	-145.980	-0.061	-0.005
-560.515	-70.718	-0.378	-0.142
-559.500	-135.780	-0.141	-0.017
-558.485	1.121	0.179	-0.128
-557.471	319.045	-0.045	0.086
-556.456	99.751	0.402	-0.465
-555.442	-109.451	0.252	0.053
-554.427	-103.683	0.197	0.046
-553.412	-200.000	0.014	0.251
-552.398	-152.733	0.053	-0.004
-551.383	-27.339	-0.099	-0.057
-550.369	44.727	0.054	-0.050
-549.354	-200.000	-0.006	0.209
-548.339	800.000	0.064	0.182
-547.325	-200.000	0.328	0.000
-546.310	-152.143	-0.150	-0.011
-545.296	-176.358	-0.233	0.006
-544.281	64.691	-0.081	-0.082
-543.266	150.129	0.083	0.112
-542.252	-160.302	-0.104	0.006
-541.237	585.762	0.071	0.176
-540.223	-200.000	-0.055	0.338
-539.208	-60.514	0.363	-0.154
-538.193	-113.752	-0.236	0.046
-537.179	800.000	-0.037	-0.155
-536.164	-200.000	-0.054	-0.323
-535.150	-190.729	0.424	-0.005
-534.135	-126.758	0.213	-0.031
-533.121	-19.179	-0.211	0.131
-532.106	539.440	0.033	-0.078
-531.091	-148.490	0.226	-0.018
-530.077	145.431	0.317	-0.424
-529.062	-53.171	-0.388	0.178
-528.048	195.198	-0.086	0.131
-527.033	800.000	0.048	-0.143
-526.018	-5.866	0.073	0.050
-525.004	15.197	-0.149	0.117
-523.989	111.456	-0.183	0.220
-522.975	-152.449	0.252	-0.018
-521.960	238.620	0.094	0.155
-520.945	-173.362	-0.111	0.003
-519.931	793.887	-0.049	-0.135
-518.916	-73.618	-0.170	-0.062
-517.902	-71.996	-0.034	-0.013
-516.887	-174.485	-0.241	-0.007
-515.872	-141.603	-0.043	0.004
-514.858	172.999	-0.186	-0.268
-513.843	-200.000	-0.001	0.171
-512.829	243.009	-0.109	0.183
-511.814	-109.713	0.277	0.058
-510.799	352.415	0.148	-0.293
-509.785	-118.551	-0.327	0.058
-508.770	139.497	-0.072	0.095
-507.756	-105.625	0.262	-0.059
-506.741	82.082	-0.114	-0.123
-505.726	-200.000	0.017	0.089
-504.712	97.192	0.147	-0.168
-503.697	62.912	-0.268	-0.268
-502.683	341.050	-0.070	-0.136
-501.668	-108.399	0.375	-0.081
-500.653	105.740	0.172	0.203
-499.639	255.981	0.110	0.189
-498.624	384.837	0.064	-0.132
-497.610	-33.909	0.351	-0.193
-496.595	50.703	-0.087	-0.082
-495.581	-156.122	-0.179	0.011
-494.566	589.583	-0.163	0.402
-493.551	-128.105	-0.235	0.034
-492.537	-90.903	-0.252	-0.072
-491.522	5.162	-0.203	-0.149
-490.508	-83.680	-0.094	-0.030
-489.493	-92.092	0.088	-0.025
-488.478	800.000	0.037	-0.152
-487.464	-200.000	0.012	0.161
-486.449	-175.433	0.051	-0.001
-485.435	-200.000	-0.026	-0.135
-484.420	112.663	0.236	-0.285
-483.405	-78.576	0.516	-0.176
-482.391	800.000	0.084	0.242
-481.376	-133.823	-0.331	0.041
-480.362	-103.318	0.310	0.073
-479.347	-64.807	0.093	0.037
-478.332	183.490	-0.088	-0.130
-477.318	-134.333	-0.070	0.009
-476.303	142.875	-0.260	-0.344
-475.289	396.895	-0.138	-0.287
-474.274	-200.000	-0.015	-0.195
-473.259	-48.122	0.245	0.118
-472.245	-70.271	-0.325	-0.123
-471.230	114.270	-0.124	0.151
-470.216	-41.240	-0.150	-0.077
-469.201	-200.000	0.022	-0.122
-468.186	-155.473	-0.109	-0.007
-467.172	18.208	-0.164	-0.130
-466.157	-0.258	-0.315	-0.223
-465.143	297.089	-0.215	0.393
-464.128	-117.023	-0.060	0.011
-463.113	-66.729	0.251	0.099
-462.099	-200.000	0.003	0.238
-461.084	800.000	0.072	-0.246
-460.070	-124.742	0.211	0.032
-459.055	90.501	-0.043	-0.048
-458.040	-126.949	-0.130	-0.019
-457.026	-200.000	-0.074	0.589
-456.011	-107.168	0.186	0.041
-454.997	-200.000	-0.026	0.131
-453.982	-128.975	-0.203	0.028
-452.968	-47.214	0.100	-0.049
-451.953	800.000	-0.041	0.129
-450.938	-200.000	-0.012	-0.179
-449.924	-88.267	0.134	-0.040
-448.909	800.000	-0.051	0.174
-447.895	186.374	0.288	-0.427
-446.880	-200.000	0.043	-0.249
-445.865	-77.868	-0.111	0.038
-444.851	-200.000	0.016	-0.157
-443.836	360.517	-0.154	-0.307
-442.822	230.833	0.091	-0.148
-441.807	-46.149	-0.295	0.144
-440.792	800.000	-0.140	0.391
-439.778	-200.000	0.007	-0.359
-438.763	-90.908	-0.017	-0.005
-437.749	28.281	-0.087	-0.073
-436.734	-128.855	-0.192	-0.027
-435.719	800.000	-0.069	-0.234
-434.705	-122.903	-0.046	0.007
-433.690	-200.000	-0.016	0.125
-432.676	721.851	0.062	-0.163
-431.661	365.352	-0.135	-0.270
-430.646	34.462	-0.169	-0.146
-429.632	800.000	0.044	-0.127
-428.617	800.000	-0.112	-0.471
-427.603	-5.173	-0.231	0.158
-426.588	271.857	-0.067	0.118
-425.573	-130.929	-0.416	-0.055
-424.559	68.319	-0.128	0.130
-423.544	800.000	-0.024	0.090
-422.530	-74.583	-0.215	-0.077
-421.515	410.551	-0.083	0.174
-420.500	-17.164	0.050	-0.031
-419.486	-102.546	0.075	-0.018
-418.471	277.871	-0.011	-0.020
-417.457	800.000	0.006	-0.018
-416.442	-50.012	-0.161	-0.076
-415.428	800.000	-0.076	0.250
-414.413	-100.986	-0.351	-0.086
-413.398	-5.093	0.317	0.217
-412.384	-200.000	0.005	-0.070
-411.369	20.761	-0.203	0.163
-410.355	310.790	-0.079	-0.147
-409.340	202.784	-0.169	-0.260
-408.325	-200.000	0.021	-0.469
-407.311	47.320	-0.206	0.191
-406.296	82.515	0.183	-0.197
-405.282	50.106	0.185	-0.174
-404.267	-53.997	0.145	-0.066
-403.252	77.893	-0.074	0.078
-402.238	-12.953	-0.286	0.185
-401.223	269.228	0.223	-0.389
-400.209	-200.000	0.026	-0.164
-399.194	-200.000	0.022	0.206
-398.179	20.797	-0.117	0.094
-397.165	34.383	-0.258	0.223
-396.150	-90.898	-0.381	0.109
-395.136	800.000	-0.040	0.124
-394.121	-77.659	0.197	0.068
-393.106	-49.784	-0.345	-0.163
-392.092	-158.572	-0.109	-0.006
-391.077	-200.000	-0.006	0.112
-390.063	176.665	-0.132	-0.191
-389.048	-78.122	0.144	-0.049
-388.033	-200.000	0.006	-0.042
-387.019	190.412	-0.124	0.185
-386.004	-200.000	-0.024	0.160
-384.990	-29.742	0.086	0.049
-383.975	-95.737	0.305	-0.081
-382.960	-193.003	0.105	-0.001
-381.946	-200.000	-0.021	0.334
-380.931	396.295	-0.090	0.187
-379.917	-46.468	-0.205	-0.100
-378.902	-46.162	0.158	-0.077
-377.888	292.378	0.051	0.091
-376.873	84.019	-0.049	-0.054
-375.858	-103.129	-0.201	-0.047
-374.844	334.602	0.044	-0.085
-373.829	-200.000	-0.002	0.128
-372.815	-139.753	0.166	0.017
-371.800	202.373	-0.090	0.138
-370.785	99.208	0.058	-0.066
-369.771	-200.000	-0.052	-0.311
-368.756	23.779	0.164	0.134
-367.742	-126.143	0.179	0.027
-366.727	-200.000	-0.014	-0.114
-365.712	125.929	0.278	-0.348
-364.698	207.316	0.200	-0.309
-363.683	-4.730	-0.172	0.118
-362.669	-55.642	-0.036	-0.016
-361.654	-106.133	0.187	0.042
-360.639	49.419	0.044	-0.041
-359.625	-200.000	0.015	-0.072
-358.610	62.888	0.297	-0.295
-357.596	341.928	0.059	-0.114
-356.581	144.239	0.184	-0.243
-355.566	576.637	-0.175	0.425
-354.552	-30.112	0.251	0.141
-353.537	-200.000	0.002	0.193
-352.523	-131.717	-0.055	-0.007
-351.508	-134.266	0.058	0.007
-350.493	71.665	0.225	-0.232
-349.479	-22.473	0.096	0.058
-348.464	-94.050	0.185	-0.050
-347.450	-12.108	-0.086	-0.056
-346.435	580.486	0.143	0.347
-345.420	103.145	-0.060	0.070
-344.406	159.765	-0.167	0.231
-343.391	-159.985	0.340	0.018
-342.377	214.571	0.070	0.110
-341.362	-200.000	0.001	0.180
-340.348	-112.144	0.313	-0.062
-339.333	-200.000	0.008	0.183
-338.318	48.485	0.292	-0.271
-337.304	31.331	-0.126	-0.107
-336.289	-67.426	-0.391	-0.152
-335.275	-76.685	0.325	-0.113
-334.260	-68.517	-0.103	0.040
-333.245	-14.870	-0.041	0.026
-332.231	-16.903	-0.094	0.059
-331.216	-53.133	-0.291	-0.132
-330.202	95.375	0.118	0.133
-329.187	800.000	0.043	-0.178
-328.172	576.460	0.008	-0.018
-327.158	97.139	-0.110	0.125
-326.143	36.603	0.156	-0.136
-325.129	-200.000	0.013	-0.180
-324.114	-84.273	-0.241	0.076
-323.099	-147.222	-0.245	0.021
-322.085	69.081	0.145	-0.147
-321.070	-54.565	-0.121	0.054
-320.056	-40.478	-0.275	0.141
-319.041	-44.133	0.251	0.125
-318.026	4.017	0.056	0.040
-317.012	-150.456	-0.395	0.030
-315.997	-200.000	-0.009	-0.041
-314.983	432.277	0.037	0.080
-313.968	389.212	0.197	0.404
-312.953	120.915	-0.077	-0.094
-311.939	-200.000	-0.027	-0.125
-310.924	319.949	-0.095	-0.179
-309.910	38.700	-0.033	-0.029
-308.895	-24.033	0.234	-0.138
-307.880	108.629	-0.147	-0.174
-306.866	-149.221	0.131	0.010
-305.851	153.991	0.190	0.258
-304.837	141.868	0.185	0.243
-303.822	227.188	-0.168	0.270
-302.807	640.558	0.084	0.212
-301.793	92.661	-0.130	-0.145
-300.778	797.970	0.057	0.155
-299.764	209.567	-0.122	0.190
-298.749	6.073	0.116	-0.085
-297.735	-121.039	-0.299	0.050
-296.720	101.446	-0.144	-0.165
-295.705	-36.745	-0.107	0.057
-294.691	-200.000	-0.008	0.047
-293.676	407.038	-0.081	0.170
-292.662	800.000	0.105	0.345
-291.647	113.661	0.155	0.187
-290.632	800.000	-0.070	0.227
-289.618	115.252	0.120	0.145
-288.603	794.583	0.029	-0.080
-287.589	-135.340	0.195	-0.023
-286.574	-200.000	-0.013	0.289
-285.559	-119.549	0.166	-0.028
-284.545	143.398	-0.033	-0.043
-283.530	-33.838	-0.032	-0.017
-282.516	-200.000	-0.057	0.356
-281.501	800.000	0.042	0.150
-280.486	36.057	0.064	0.056
-279.472	800.000	0.138	0.406
-278.457	-200.000	0.016	0.192
-277.443	800.000	-0.027	0.110
-276.428	284.214	0.127	-0.226
-275.413	222.343	-0.144	-0.229
-274.399	-122.237	0.245	0.040
-273.384	609.725	0.079	0.195
-272.370	800.000	0.026	0.103
-271.355	800.000	0.097	-0.273
-270.340	-113.422	0.331	0.064
-269.326	23.680	0.078	-0.063
-268.311	-58.705	0.011	-0.005
-267.297	-168.270	-0.173	-0.007
-266.282	-178.373	-0.089	0.002
-265.267	6.741	-0.159	-0.117
-264.253	-200.000	0.023	-0.218
-263.238	36.477	-0.104	-0.091
-262.224	-200.000	-0.024	0.379
-261.209	-200.000	0.028	-0.215
-260.195	8.408	-0.131	-0.097
-259.180	652.338	0.112	0.283
-258.165	-61.740	0.124	-0.051
-257.151	800.000	-0.105	0.355
-256.136	77.083	-0.123	0.129
-255.122	-34.851	0.156	0.084
-254.107	642.110	-0.103	-0.258
-253.092	181.110	0.161	-0.233
-252.078	800.000	-0.025	-0.104
-251.063	135.677	0.104	-0.133
-250.049	55.756	-0.141	-0.135
-249.034	-200.000	0.075	0.380
-248.019	-94.734	-0.303	0.081
-247.005	-45.830	0.293	-0.143
-245.990	-200.000	0.024	-0.139
-244.976	-61.319	-0.239	-0.099
-243.961	-200.000	-0.051	-0.237
-242.946	5.570	-0.074	0.054
-241.932	-200.000	0.019	-0.197
-240.917	-18.171	-0.154	-0.095
-239.903	800.000	0.077	0.262
-238.888	-73.968	-0.242	-0.087
-237.873	-170.557	0.303	0.010
-236.859	-80.438	-0.138	0.046
-235.844	79.493	0.074	0.079
-234.830	-23.480	-0.098	0.058
-233.815	164.879	0.091	0.126
-232.800	-200.000	-0.005	0.044
-231.786	1.625	-0.175	0.125
-230.771	260.109	0.033	0.057
-229.757	800.000	0.017	-0.057
-228.742	-200.000	0.052	0.408
-227.727	-168.370	-0.289	0.011
-226.713	-55.024	0.093	0.041
-225.698	-200.000	0.041	0.216
-224.684	170.464	0.065	0.092
-223.669	800.000	0.070	-0.284
-222.655	-175.628	0.138	0.004
-221.640	-200.000	0.001	-0.119
-220.625	191.625	-0.071	-0.106
-219.611	163.032	0.083	0.116
-218.596	187.143	0.085	-0.125
-217.582	800.000	-0.069	0.273
-216.567	239.640	0.081	-0.133
-215.552	-80.768	0.248	-0.081
-214.538	32.485	-0.157	0.134
-213.523	800.000	0.101	0.300
-212.509	311.966	-0.052	0.096
-211.494	191.566	0.193	0.287
-210.479	-92.152	0.201	-0.056
-209.465	-200.000	0.027	-0.146
-208.450	608.037	0.033	-0.081
-207.436	710.059	-0.047	-0.124
-206.421	247.442	0.150	0.250
-205.406	363.751	-0.057	-0.113
-204.392	-163.644	-0.068	-0.003
-203.377	-148.580	-0.318	-0.026
-202.363	-200.000	-0.003	0.134
-201.348	45.214	-0.198	0.180
-200.333	-26.540	0.136	0.078
-199.319	385.384	0.208	0.423
-198.304	103.104	-0.229	-0.264
-197.290	-200.000	0.001	-0.037
-196.275	-62.603	-0.295	0.121
-195.260	-149.940	0.201	0.015
-194.246	310.730	0.010	-0.018
-193.231	426.291	-0.178	0.379
-192.217	-200.000	0.022	0.204
-191.202	46.103	-0.171	0.156
-190.187	-183.300	0.106	-0.002
-189.173	13.751	-0.102	-0.078
-188.158	166.511	-0.205	-0.286
-187.144	-83.238	-0.337	-0.107
-186.129	-53.390	-0.339	0.153
-185.114	-73.597	0.236	-0.085
-184.100	189.789	-0.042	-0.062
-183.085	-51.973	0.240	0.110
-182.071	-13.921	-0.033	-0.021
-181.056	-55.880	-0.115	-0.051
-180.042	702.396	-0.149	-0.387
-179.027	24.074	0.484	-0.393
-178.012	-200.000	0.059	0.325
-176.998	614.421	-0.074	0.184
-175.983	190.073	-0.060	0.089
-174.969	-200.000	0.006	-0.206
-173.954	-119.485	0.176	0.030
-172.939	-101.986	-0.245	0.058
-171.925	28.602	0.135	0.112
-170.910	-200.000	-0.034	0.154
-169.896	36.819	0.234	-0.203
-168.881	-98.834	-0.229	-0.057
-167.866	-200.000	-0.000	-0.046
-166.852	327.372	0.011	-0.021
-165.837	-168.962	-0.183	-0.007
-164.823	81.132	-0.013	0.014
-163.808	-104.990	-0.216	-0.049
-162.793	174.944	0.055	-0.078
-161.779	-77.693	0.436	-0.148
-160.764	-200.000	-0.017	0.186
-159.750	229.120	-0.127	0.203
-158.735	800.000	0.017	0.050
-157.720	387.667	-0.071	-0.145
-156.706	-152.419	0.065	0.005
-155.691	800.000	-0.101	0.412
-154.677	-200.000	-0.009	0.132
-153.662	800.000	-0.108	-0.346
-152.647	54.219	0.021	-0.020
-151.633	79.319	-0.178	-0.187
-150.618	800.000	0.030	0.119
-149.604	11.275	0.201	-0.151
-148.589	800.000	-0.146	-0.490
-147.574	-126.106	0.219	0.032
-146.560	-135.856	-0.170	0.020
-145.545	-200.000	0.004	-0.188
-144.531	-112.170	-0.042	-0.008
-143.516	554.043	0.083	0.197
-142.502	354.224	-0.071	0.139
-141.487	75.593	-0.133	0.139
-140.472	-82.455	-0.195	-0.062
-139.458	446.622	-0.154	0.334
-138.443	-3.587	-0.152	-0.104
-137.429	-114.437	-0.214	0.041
-136.414	-129.397	0.277	-0.038
-135.399	308.961	0.048	-0.089
-134.385	24.204	0.188	0.153
-133.370	-139.165	0.168	-0.018
-132.356	-99.076	-0.187	0.047
-131.341	-67.977	0.303	-0.116
-130.326	54.288	0.013	0.013
-129.312	-200.000	0.011	-0.569
-128.297	-200.000	0.017	0.151
-127.283	800.000	0.085	0.271
-126.268	800.000	-0.024	0.066
-125.253	-83.332	0.102	-0.032
-124.239	168.710	-0.131	0.183
-123.224	153.800	-0.088	-0.118
-122.210	-2.099	-0.139	-0.096
