DTS Sentinel unit serial number:	SN413079Multiplexer serial number:	ORYXHardware model number:	OX4-SRSoftware version number:	ORYX F/W v4.00 Oryx Data Collector v3.7.2.0data status	okinstallation	princeton_trtdifferential loss correction	single-endedforward channel	channel 1reverse channel	N/Adate	2019/09/13time	11:06:35forward acquisition time	60.00reverse acquisition time	0.00gamma	496.2192k internal	0.2318k external	0.2318temperature offset calibration	1.0160default loss term (dB/km)	0.3790temperature slope calibration	1.0000multiplexer offset coefficient	1.0000multiplexer slope coefficient	1.0000fibre end	0.00T internal ref (°C)	32.00T ext. ref 1 (°C)	4.66T ext. ref 2 (°C)	29.31length (m)	temperature (°C)	Stokes	anti-Stokes-747.200	-49.608	0.132	0.064
-746.185	50.579	0.152	0.146
-745.171	-74.120	-0.078	-0.028
-744.156	-200.000	-0.064	0.348
-743.142	64.143	0.151	-0.153
-742.127	-200.000	-0.305	-0.001
-741.112	-136.466	0.184	-0.022
-740.098	439.345	-0.229	0.507
-739.083	575.808	0.042	-0.105
-738.069	154.987	0.227	0.316
-737.054	-0.003	-0.289	0.208
-736.039	-116.934	-0.211	-0.039
-735.025	-169.819	0.300	0.011
-734.010	-200.000	0.012	-0.124
-732.996	-156.252	-0.190	-0.012
-731.981	-164.091	-0.062	0.003
-730.966	-58.487	-0.014	-0.006
-729.952	-125.806	-0.122	0.019
-728.937	64.261	-0.266	0.270
-727.923	96.888	0.121	-0.141
-726.908	800.000	-0.054	-0.170
-725.894	38.576	-0.374	-0.338
-724.879	85.430	0.013	-0.014
-723.864	-136.693	0.231	0.027
-722.850	386.812	-0.126	-0.262
-721.835	-154.251	-0.250	0.017
-720.821	-47.003	0.206	0.102
-719.806	-87.837	-0.265	0.081
-718.791	-53.712	0.201	-0.093
-717.777	33.370	0.099	-0.087
-716.762	105.820	-0.050	-0.060
-715.748	143.832	-0.156	-0.211
-714.733	7.873	-0.220	-0.167
-713.718	95.705	-0.156	0.180
-712.704	800.000	-0.037	0.159
-711.689	-74.961	0.290	-0.105
-710.675	-200.000	-0.018	-0.136
-709.660	-200.000	0.055	0.248
-708.645	-155.975	-0.254	0.016
-707.631	423.714	-0.164	-0.356
-706.616	-90.227	0.223	-0.065
-705.602	17.917	-0.292	-0.235
-704.587	-22.103	0.174	-0.107
-703.572	59.681	0.123	0.122
-702.558	-2.542	0.168	-0.119
-701.543	-66.224	-0.176	0.071
-700.529	506.063	0.067	0.157
-699.514	-200.000	0.020	0.127
-698.499	216.907	-0.033	-0.052
-697.485	-141.845	-0.322	-0.033
-696.470	-117.434	0.081	-0.015
-695.456	-7.077	0.167	-0.114
-694.441	-47.774	0.185	-0.090
-693.426	-103.406	-0.282	-0.067
-692.412	-30.126	-0.183	-0.105
-691.397	95.097	0.120	-0.138
-690.383	47.878	-0.221	-0.209
-689.368	-144.652	-0.148	0.014
-688.354	764.530	0.059	0.163
-687.339	203.587	-0.110	0.172
-686.324	-200.000	-0.009	0.121
-685.310	229.451	-0.097	-0.161
-684.295	-78.020	0.052	-0.018
-683.281	-36.326	-0.178	-0.097
-682.266	-200.000	-0.003	0.130
-681.251	-200.000	0.028	-0.151
-680.237	223.492	0.081	0.131
-679.222	-200.000	0.001	-0.025
-678.208	-33.358	-0.054	0.030
-677.193	800.000	0.066	0.265
-676.178	-56.631	-0.312	0.140
-675.164	-150.163	0.308	-0.024
-674.149	-200.000	0.020	-0.356
-673.135	-115.241	0.154	0.029
-672.120	-0.777	-0.426	-0.305
-671.105	-176.724	0.085	0.002
-670.091	800.000	0.025	0.076
-669.076	12.181	0.221	-0.171
-668.062	249.224	-0.194	-0.332
-667.047	136.406	0.181	0.239
-666.032	76.626	-0.067	0.072
-665.018	-19.724	0.165	0.103
-664.003	-200.000	0.042	-0.242
-662.989	169.064	-0.088	-0.127
-661.974	-200.000	-0.014	-0.572
-660.959	-52.589	-0.242	-0.113
-659.945	-200.000	-0.004	-0.085
-658.930	713.796	0.076	-0.203
-657.916	-28.276	0.069	-0.040
-656.901	56.369	0.157	-0.154
-655.886	-50.589	0.371	-0.176
-654.872	-200.000	-0.012	0.117
-653.857	145.686	-0.134	0.181
-652.843	-142.089	0.150	-0.015
-651.828	22.176	-0.177	-0.146
-650.814	-200.000	-0.009	-0.239
-649.799	-24.254	-0.168	-0.101
-648.784	-13.642	-0.374	-0.244
-647.770	-178.173	-0.283	-0.007
-646.755	-200.000	-0.012	-0.090
-645.741	-200.000	-0.060	0.352
-644.726	-62.444	0.220	0.092
-643.711	-96.593	-0.340	-0.090
-642.697	-45.937	-0.065	0.032
-641.682	-25.170	0.029	-0.017
-640.668	-76.667	0.212	-0.075
-639.653	81.030	0.063	-0.069
-638.638	-34.917	0.303	-0.167
-637.624	-62.829	0.445	0.186
-636.609	704.971	0.027	-0.071
-635.595	-200.000	0.009	-0.182
-634.580	10.045	0.262	-0.201
-633.565	-200.000	0.002	0.052
-632.551	529.925	-0.111	-0.264
-631.536	-35.133	-0.324	0.178
-630.522	-102.899	0.223	-0.053
-629.507	-117.777	-0.089	0.016
-628.492	-200.000	-0.010	-0.283
-627.478	800.000	-0.013	-0.048
-626.463	137.704	-0.217	0.287
-625.449	48.038	-0.032	0.030
-624.434	-166.508	-0.140	0.006
-623.419	-164.811	0.139	-0.006
-622.405	8.014	-0.078	0.059
-621.390	94.081	-0.165	-0.188
-620.376	800.000	-0.049	0.148
-619.361	-79.909	-0.057	0.019
-618.346	155.530	0.101	0.140
-617.332	438.180	-0.071	0.157
-616.317	800.000	-0.068	0.251
-615.303	216.153	-0.042	0.068
-614.288	-50.378	0.439	-0.209
-613.273	-7.969	0.129	-0.088
-612.259	123.983	-0.296	0.375
-611.244	25.022	-0.059	-0.049
-610.230	-94.099	-0.310	0.085
-609.215	-200.000	0.050	-0.355
-608.201	-16.286	-0.167	0.107
-607.186	-200.000	0.084	0.369
-606.171	40.400	0.096	0.087
-605.157	9.546	-0.195	0.148
-604.142	158.558	-0.051	-0.072
-603.128	-87.345	0.195	-0.059
-602.113	800.000	-0.147	-0.520
-601.098	-200.000	0.002	0.424
-600.084	48.369	-0.142	-0.134
-599.069	26.115	0.109	-0.092
-598.055	69.872	0.079	-0.082
-597.040	71.947	-0.176	-0.184
-596.025	-107.513	-0.165	-0.036
-595.011	108.766	-0.155	0.187
-593.996	-101.738	0.202	-0.049
-592.982	-200.000	0.018	-0.174
-591.967	35.030	0.087	-0.077
-590.952	-2.793	-0.245	-0.172
-589.938	172.472	-0.105	-0.152
-588.923	72.828	0.088	0.093
-587.909	-43.036	-0.064	0.032
-586.894	-160.890	-0.332	0.018
-585.879	94.956	0.170	-0.195
-584.865	615.353	0.111	0.280
-583.850	-60.948	0.131	-0.056
-582.836	83.535	0.137	0.150
-581.821	412.152	0.058	-0.123
-580.806	-61.595	-0.019	-0.008
-579.792	50.810	-0.045	-0.043
-578.777	353.596	-0.057	0.115
-577.763	345.402	0.162	-0.319
-576.748	593.977	-0.051	-0.127
-575.733	87.810	0.262	-0.292
-574.719	-78.153	-0.299	-0.103
-573.704	-20.349	-0.166	0.103
-572.690	605.361	0.124	0.310
-571.675	262.023	0.147	-0.256
-570.661	-200.000	-0.060	0.323
-569.646	-115.413	0.129	-0.024
-568.631	-161.215	0.342	-0.018
-567.617	-200.000	0.022	-0.468
-566.602	-200.000	-0.007	-0.182
-565.588	-200.000	0.029	-0.221
-564.573	-200.000	0.019	0.367
-563.558	-119.983	0.126	0.022
-562.544	800.000	0.015	-0.059
-561.529	-25.428	-0.234	0.139
-560.515	-18.836	-0.087	0.054
-559.500	203.385	0.168	-0.261
-558.485	-111.124	0.114	0.023
-557.471	-200.000	0.058	0.395
-556.456	800.000	0.018	-0.079
-555.442	-100.570	0.287	0.071
-554.427	-200.000	-0.007	-0.178
-553.412	594.641	-0.193	-0.479
-552.398	9.829	0.206	-0.157
-551.383	74.744	0.160	0.169
-550.369	-35.597	0.200	-0.109
-549.354	62.841	0.352	0.354
-548.339	-200.000	-0.014	-0.147
-547.325	249.268	-0.054	0.092
-546.310	-139.769	0.117	0.012
-545.296	-148.617	0.201	0.016
-544.281	-155.469	0.404	-0.026
-543.266	-30.191	-0.140	0.080
-542.252	-200.000	-0.032	0.303
-541.237	-200.000	0.019	0.225
-540.223	345.312	0.102	-0.201
-539.208	115.638	-0.149	0.183
-538.193	627.329	0.058	-0.147
-537.179	16.638	-0.206	0.164
-536.164	128.749	-0.190	-0.243
-535.150	87.500	0.087	-0.097
-534.135	-97.840	0.283	-0.073
-533.121	-18.007	0.061	0.038
-532.106	206.152	-0.146	0.228
-531.091	155.245	-0.123	-0.170
-530.077	-200.000	0.038	-0.214
-529.062	-124.035	0.209	0.033
-528.048	-132.454	0.067	0.009
-527.033	-115.896	-0.230	-0.043
-526.018	-200.000	-0.019	-0.236
-525.004	154.801	-0.060	-0.083
-523.989	-136.242	0.553	-0.065
-522.975	17.085	-0.250	-0.199
-521.960	-200.000	0.011	-0.115
-520.945	-89.357	-0.271	0.080
-519.931	108.141	0.264	-0.316
-518.916	-98.877	-0.219	0.056
-517.902	-110.860	-0.270	-0.056
-516.887	-30.065	-0.281	0.160
-515.872	-109.164	-0.183	0.039
-514.858	-132.517	0.194	-0.025
-513.843	697.805	-0.119	0.314
-512.829	-200.000	0.000	0.148
-511.814	-110.913	-0.350	0.072
-510.799	-136.587	0.281	0.033
-509.785	13.612	0.146	0.113
-508.770	-200.000	-0.029	0.391
-507.756	140.123	0.042	0.056
-506.741	-200.000	0.081	-0.423
-505.726	222.182	0.028	0.045
-504.712	160.324	-0.041	0.058
-503.697	86.381	0.274	0.303
-502.683	-89.094	-0.206	0.061
-501.668	800.000	0.057	-0.208
-500.653	-22.796	0.329	-0.199
-499.639	-89.031	0.227	-0.067
-498.624	800.000	-0.087	-0.274
-497.610	-100.793	0.051	-0.013
-496.595	-184.650	-0.132	-0.002
-495.581	-76.342	0.219	0.077
-494.566	45.264	-0.100	0.092
-493.551	-200.000	0.046	-0.314
-492.537	-24.959	0.480	0.285
-491.522	800.000	-0.006	0.017
-490.508	-0.173	0.074	0.053
-489.493	24.614	0.192	0.160
-488.478	-82.904	0.145	0.047
-487.464	-160.532	0.098	-0.005
-486.449	49.299	0.114	0.108
-485.435	-200.000	-0.006	0.155
-484.420	11.312	0.327	-0.251
-483.405	654.578	0.186	0.477
-482.391	-13.964	0.242	0.157
-481.376	-107.625	-0.285	0.062
-480.362	-200.000	0.009	0.136
-479.347	77.686	-0.142	0.151
-478.332	275.758	0.071	-0.126
-477.318	-149.809	0.275	0.022
-476.303	-161.972	-0.084	0.004
-475.289	-73.134	-0.044	-0.016
-474.274	84.353	0.176	0.192
-473.259	-113.248	0.134	0.026
-472.245	-42.540	-0.129	0.066
-471.230	41.654	0.272	0.246
-470.216	-40.583	0.161	0.084
-469.201	522.017	-0.086	-0.201
-468.186	-22.185	0.325	-0.198
-467.172	-81.455	-0.040	-0.013
-466.157	-68.738	-0.186	0.072
-465.143	108.016	-0.205	-0.245
-464.128	-56.633	0.161	-0.071
-463.113	746.981	0.059	-0.158
-462.099	20.546	-0.408	0.330
-461.084	-200.000	0.031	0.309
-460.070	-40.001	-0.409	-0.214
-459.055	13.557	0.209	-0.162
-458.040	-200.000	0.009	0.061
-457.026	117.529	0.239	-0.295
-456.011	-149.641	0.193	-0.015
-454.997	-120.984	0.105	-0.018
-453.982	87.772	-0.316	0.350
-452.968	-12.805	0.171	0.112
-451.953	-33.186	0.032	-0.018
-450.938	-138.732	0.260	-0.028
-449.924	32.595	-0.216	0.187
-448.909	-200.000	-0.005	-0.059
-447.895	-93.847	-0.281	0.077
-446.880	621.901	-0.030	-0.075
-445.865	800.000	-0.030	-0.120
-444.851	17.474	0.359	-0.285
-443.836	342.874	0.135	0.264
-442.822	-52.544	-0.105	-0.048
-441.807	-200.000	0.021	0.154
-440.792	-50.166	-0.193	-0.092
-439.778	-21.494	-0.088	0.053
-438.763	75.640	-0.279	0.295
-437.749	-177.529	0.363	0.009
-436.734	599.826	-0.081	0.202
-435.719	510.532	-0.122	-0.283
-434.705	-166.494	-0.222	-0.009
-433.690	800.000	0.082	0.263
-432.676	-200.000	0.035	0.240
-431.661	-200.000	0.000	0.099
-430.646	800.000	-0.043	0.144
-429.632	800.000	0.104	0.310
-428.617	800.000	-0.059	0.235
-427.603	112.461	-0.125	0.151
-426.588	-183.052	0.139	0.002
-425.573	-125.218	0.221	0.034
-424.559	-180.935	-0.268	-0.005
-423.544	800.000	0.018	-0.059
-422.530	566.408	-0.115	-0.279
-421.515	-200.000	-0.014	0.306
-420.500	-200.000	0.027	-0.253
-419.486	800.000	-0.074	-0.321
-418.471	800.000	0.093	-0.356
-417.457	800.000	-0.093	0.303
-416.442	-103.121	0.140	0.033
-415.428	-40.197	0.193	-0.101
-414.413	-3.162	-0.110	0.077
-413.398	452.094	0.040	0.088
-412.384	-200.000	0.007	-0.207
-411.369	-143.810	-0.101	-0.010
-410.355	-62.050	0.050	-0.021
-409.340	53.039	0.104	-0.100
-408.325	-200.000	-0.055	-0.264
-407.311	485.762	-0.158	-0.360
-406.296	800.000	0.053	0.205
-405.282	-92.716	-0.334	-0.093
-404.267	487.368	-0.089	0.203
-403.252	800.000	-0.053	0.206
-402.238	106.464	-0.085	0.101
-401.223	-200.000	-0.004	-0.087
-400.209	25.825	0.267	0.222
-399.194	-200.000	-0.008	-0.141
-398.179	232.072	-0.045	0.073
-397.165	-130.743	0.214	-0.029
-396.150	-200.000	-0.044	0.229
-395.136	-200.000	-0.011	0.127
-394.121	-115.670	0.177	-0.033
-393.106	-200.000	-0.031	-0.284
-392.092	35.300	0.016	0.014
-391.077	800.000	0.085	-0.363
-390.063	800.000	0.062	-0.224
-389.048	13.347	0.172	-0.133
-388.033	-131.363	0.101	0.013
-387.019	-187.775	-0.515	-0.007
-386.004	385.918	0.109	-0.225
-384.990	-200.000	-0.007	0.096
-383.975	119.758	0.164	-0.203
-382.960	-15.748	-0.178	0.113
-381.946	-50.068	0.282	0.133
-380.931	800.000	-0.109	0.367
-379.917	49.116	-0.155	0.145
-378.902	-97.287	-0.180	0.047
-377.888	9.060	-0.230	-0.173
-376.873	202.326	-0.101	0.155
-375.858	800.000	0.017	0.072
-374.844	-92.936	0.200	0.056
-373.829	-200.000	-0.095	-0.445
-372.815	135.929	0.116	0.151
-371.800	64.802	-0.167	-0.168
-370.785	4.294	0.246	0.179
-369.771	-143.625	-0.178	-0.017
-368.756	-121.316	-0.390	0.065
-367.742	148.815	-0.103	-0.139
-366.727	800.000	0.027	0.092
-365.712	-33.017	-0.182	-0.101
-364.698	-22.335	-0.197	0.119
-363.683	-38.321	-0.105	-0.055
-362.669	-200.000	0.055	0.258
-361.654	-200.000	0.023	0.177
-360.639	263.369	-0.121	0.210
-359.625	217.466	0.073	-0.116
-358.610	-68.618	-0.232	-0.090
-357.596	54.014	0.029	0.028
-356.581	532.855	0.071	0.169
-355.566	-10.683	-0.157	-0.103
-354.552	167.074	-0.082	0.116
-353.537	800.000	-0.024	-0.092
-352.523	800.000	0.014	-0.045
-351.508	-20.127	0.078	0.048
-350.493	79.557	-0.076	-0.082
-349.479	451.190	0.121	0.267
-348.464	-200.000	0.003	-0.102
-347.450	-86.989	0.202	0.061
-346.435	-200.000	-0.054	-0.374
-345.420	800.000	0.049	-0.161
-344.406	-76.456	-0.133	-0.047
-343.391	12.720	0.201	-0.155
-342.377	-59.727	-0.018	0.008
-341.362	800.000	-0.072	0.211
-340.348	117.539	0.138	0.169
-339.333	-200.000	0.010	0.110
-338.318	188.425	-0.103	0.153
-337.304	-151.596	-0.030	0.002
-336.289	308.690	-0.053	0.098
-335.275	174.607	0.129	-0.185
-334.260	-61.424	0.208	0.087
-333.245	61.563	0.147	0.146
-332.231	-103.367	-0.252	0.059
-331.216	-112.297	-0.116	0.023
-330.202	800.000	-0.028	0.085
-329.187	447.014	0.134	0.294
-328.172	-63.687	-0.202	0.083
-327.158	489.256	0.120	0.274
-326.143	227.872	-0.031	-0.051
-325.129	441.141	0.041	-0.089
-324.114	-200.000	-0.062	0.284
-323.099	-25.848	-0.218	-0.128
-322.085	-142.900	-0.256	-0.025
-321.070	800.000	-0.046	0.175
-320.056	-200.000	0.000	0.161
-319.041	38.418	-0.117	-0.103
-318.026	139.414	0.057	0.075
-317.012	-200.000	0.021	0.235
-315.997	165.865	0.225	0.317
-314.983	-40.473	0.308	0.159
-313.968	186.594	-0.128	0.190
-312.953	-4.744	-0.316	-0.217
-311.939	186.067	0.198	-0.292
-310.924	-11.275	0.016	0.011
-309.910	29.882	0.053	-0.045
-308.895	-200.000	0.046	0.315
-307.880	45.110	0.194	-0.178
-306.866	-200.000	-0.077	-0.511
-305.851	-200.000	-0.069	-0.355
-304.837	96.231	0.101	0.115
-303.822	800.000	-0.026	0.104
-302.807	109.843	-0.138	-0.165
-301.793	-200.000	0.014	0.107
-300.778	-200.000	-0.033	0.300
-299.764	145.251	-0.141	0.188
-298.749	209.354	0.199	0.310
-297.735	800.000	0.058	0.238
-296.720	202.241	0.089	0.136
-295.705	-161.523	0.118	0.006
-294.691	-111.699	0.086	0.017
-293.676	35.404	0.171	-0.149
-292.662	-3.131	-0.238	-0.165
-291.647	44.150	0.055	0.050
-290.632	726.517	0.081	-0.216
-289.618	60.206	-0.249	-0.244
-288.603	304.622	0.211	-0.390
-287.589	454.485	0.086	-0.190
-286.574	-200.000	0.022	-0.252
-285.559	188.775	-0.206	0.307
-284.545	-37.553	0.053	0.028
-283.530	133.783	-0.106	0.137
-282.516	-200.000	0.019	0.133
-281.501	135.663	0.198	0.256
-280.486	652.817	0.049	-0.124
-279.472	-122.206	0.087	-0.014
-278.457	-200.000	0.020	0.091
-277.443	-200.000	0.002	-0.046
-276.428	39.456	-0.254	-0.226
-275.413	-27.880	0.276	-0.159
-274.399	251.214	-0.187	0.317
-273.384	-87.549	0.145	0.043
-272.370	-200.000	0.029	0.284
-271.355	55.424	-0.188	0.181
-270.340	94.596	-0.170	0.192
-269.326	-145.748	0.123	-0.011
-268.311	-200.000	0.064	-0.292
-267.297	267.606	0.066	0.114
-266.282	-200.000	0.023	-0.257
-265.267	124.293	0.134	-0.168
-264.253	-46.092	-0.095	0.047
-263.238	-200.000	-0.005	0.029
-262.224	-17.628	0.248	0.155
-261.209	407.171	0.052	0.108
-260.195	42.031	-0.205	-0.185
-259.180	-110.364	0.281	-0.058
-258.165	-31.512	-0.281	-0.157
-257.151	447.423	0.037	-0.080
-256.136	1.751	0.270	0.193
-255.122	-119.776	-0.273	-0.047
-254.107	-35.716	-0.229	-0.123
-253.092	-80.932	-0.217	0.072
-252.078	333.520	-0.074	-0.141
-251.063	280.980	0.096	0.170
-250.049	-87.798	-0.088	0.026
-249.034	442.537	0.068	-0.148
-248.019	-86.864	0.253	-0.077
-247.005	-200.000	-0.033	0.257
-245.990	-200.000	0.032	0.188
-244.976	700.591	0.072	0.188
-243.961	-200.000	0.011	-0.154
-242.946	-6.836	0.077	0.052
-241.932	-18.658	0.072	-0.044
-240.917	458.450	0.117	0.259
-239.903	250.619	-0.095	0.160
-238.888	38.879	0.132	-0.117
-237.873	79.422	-0.137	-0.146
-236.859	29.822	-0.120	-0.101
-235.844	-200.000	0.008	0.225
-234.830	-84.446	0.113	0.035
-233.815	-200.000	0.012	0.053
-232.800	-25.927	0.131	0.076
-231.786	190.130	0.081	-0.120
-230.771	447.041	0.178	-0.388
-229.757	376.592	-0.067	-0.135
-228.742	31.980	0.144	-0.123
-227.727	-56.241	-0.337	0.149
-226.713	-17.228	-0.115	-0.072
-225.698	-200.000	-0.080	0.529
-224.684	-200.000	0.025	0.200
-223.669	800.000	-0.041	-0.177
-222.655	-39.446	0.203	0.106
-221.640	800.000	0.013	-0.049
-220.625	554.435	0.062	0.148
-219.611	222.910	0.137	0.219
-218.596	800.000	-0.089	-0.273
-217.582	-200.000	-0.036	-0.260
-216.567	8.028	-0.069	-0.051
-215.552	165.683	-0.044	-0.061
-214.538	800.000	-0.086	-0.298
-213.523	9.015	-0.082	-0.062
-212.509	131.959	0.099	-0.126
-211.494	-126.478	-0.134	0.020
-210.479	-11.782	0.203	0.132
-209.465	232.448	0.172	0.281
-208.450	-200.000	0.002	0.030
-207.436	-185.234	-0.122	0.002
-206.421	-140.183	0.109	-0.011
-205.406	-200.000	-0.031	0.267
-204.392	168.798	-0.052	-0.074
-203.377	800.000	-0.079	-0.262
-202.363	-35.375	0.039	-0.021
-201.348	800.000	-0.008	0.025
-200.333	-200.000	-0.022	0.107
-199.319	68.184	0.202	-0.205
-198.304	-49.763	-0.350	-0.165
-197.290	136.424	0.147	0.190
-196.275	-103.624	0.067	0.016
-195.260	318.010	-0.059	-0.111
-194.246	-121.035	0.183	-0.030
-193.231	-78.688	-0.514	0.174
-192.217	-200.000	-0.040	-0.212
-191.202	-200.000	0.210	0.000
-190.187	2.934	-0.053	0.038
-189.173	-23.004	0.092	-0.055
-188.158	-124.599	-0.061	0.009
-187.144	-160.621	-0.295	0.016
-186.129	800.000	-0.038	-0.133
-185.114	-93.284	-0.338	0.093
-184.100	-27.655	-0.024	-0.014
-183.085	407.240	-0.051	0.106
-182.071	-200.000	-0.062	-0.303
-181.056	-200.000	-0.015	0.086
-180.042	-200.000	0.013	-0.315
-179.027	-200.000	-0.050	-0.238
-178.012	171.759	-0.069	-0.097
-176.998	-126.041	-0.162	0.024
-175.983	-200.000	-0.025	-0.324
-174.969	800.000	-0.047	-0.166
-173.954	603.950	-0.059	-0.145
-172.939	-110.974	0.256	-0.052
-171.925	-163.998	-0.235	0.011
-170.910	-29.952	-0.175	-0.098
-169.896	170.976	-0.338	-0.479
-168.881	54.705	-0.149	-0.142
-167.866	800.000	-0.042	-0.143
-166.852	69.124	-0.144	0.146
-165.837	134.034	-0.044	-0.056
-164.823	214.773	0.086	-0.134
-163.808	-74.111	0.327	-0.117
-162.793	-45.158	-0.307	-0.151
-161.779	800.000	-0.041	0.140
-160.764	221.116	0.107	-0.170
-159.750	-56.473	0.074	0.032
-158.735	800.000	-0.068	0.276
-157.720	-18.814	0.117	-0.072
-156.706	208.009	0.208	-0.322
-155.691	63.810	-0.304	0.302
-154.677	736.173	0.089	0.236
-153.662	-95.566	0.184	0.049
-152.647	-30.133	-0.067	-0.038
-151.633	-152.986	-0.369	-0.026
-150.618	113.634	0.160	0.192
-149.604	-45.913	-0.112	0.055
-148.589	-73.723	-0.262	-0.094
-147.574	-67.622	-0.134	0.052
-146.560	-51.726	0.262	-0.121
-145.545	-200.000	0.004	0.118
-144.531	-73.677	0.283	-0.102
-143.516	-20.907	-0.124	-0.075
-142.502	26.706	0.181	0.150
-141.487	800.000	0.097	0.407
-140.472	-200.000	-0.013	0.102
-139.458	582.316	-0.076	0.183
-138.443	-23.858	0.181	0.107
-137.429	-25.244	-0.098	-0.057
-136.414	297.181	0.228	-0.413
-135.399	-85.058	0.614	0.190
-134.385	-127.542	-0.185	-0.026
-133.370	4.162	-0.259	0.187
-132.356	-200.000	0.042	-0.204
-131.341	176.843	0.011	-0.016
-130.326	-9.022	-0.077	0.051
-129.312	56.236	-0.136	0.130
-128.297	800.000	-0.055	0.181
-127.283	61.723	0.233	-0.229
-126.268	-93.158	0.413	0.114
-125.253	14.408	-0.121	-0.093
-124.239	-115.886	0.358	-0.066
-123.224	34.238	0.219	0.189
-122.210	-24.411	0.061	0.036
-121.195	15.400	-0.308	-0.239
