DTS Sentinel unit serial number:	SN413079Multiplexer serial number:	ORYXHardware model number:	OX4-SRSoftware version number:	ORYX F/W v4.00 Oryx Data Collector v3.7.2.0data status	okinstallation	princeton_trtdifferential loss correction	single-endedforward channel	channel 1reverse channel	N/Adate	2019/09/16time	14:46:35forward acquisition time	60.00reverse acquisition time	0.00gamma	496.2192k internal	0.2292k external	0.2292temperature offset calibration	0.9958default loss term (dB/km)	0.3790temperature slope calibration	1.0000multiplexer offset coefficient	1.0000multiplexer slope coefficient	1.0000fibre end	0.00T internal ref (°C)	41.50T ext. ref 1 (°C)	14.36T ext. ref 2 (°C)	35.67length (m)	temperature (°C)	Stokes	anti-Stokes-747.200	550.130	0.077	0.190
-746.185	-53.983	-0.111	0.052
-745.171	-79.224	0.248	-0.086
-744.156	378.634	-0.046	0.097
-743.142	626.416	-0.081	0.209
-742.127	25.127	0.049	0.041
-741.112	-28.395	0.294	0.173
-740.098	391.151	-0.103	0.219
-739.083	-200.000	-0.036	0.302
-738.069	-200.000	0.047	0.259
-737.054	-37.479	0.378	-0.207
-736.039	129.568	0.139	-0.181
-735.025	83.115	0.213	0.237
-734.010	138.915	0.168	-0.226
-732.996	385.865	0.019	-0.040
-731.981	334.499	0.249	0.493
-730.966	114.287	0.224	-0.279
-729.952	302.064	-0.122	-0.231
-728.937	-116.462	-0.229	-0.043
-727.923	490.046	0.059	-0.138
-726.908	144.889	0.106	-0.144
-725.894	-21.859	-0.095	-0.059
-724.879	-123.673	0.425	0.069
-723.864	-200.000	0.005	0.388
-722.850	8.974	0.116	-0.090
-721.835	-170.199	-0.530	-0.019
-720.821	55.686	-0.197	-0.195
-719.806	-25.198	-0.221	-0.134
-718.791	-54.729	-0.149	-0.069
-717.777	800.000	-0.076	-0.236
-716.762	-27.818	0.162	-0.096
-715.748	28.878	-0.283	-0.245
-714.733	-27.001	-0.179	0.107
-713.718	48.569	0.138	0.132
-712.704	-200.000	-0.005	0.153
-711.689	-200.000	-0.024	-0.196
-710.675	800.000	-0.102	0.293
-709.660	-200.000	0.007	0.179
-708.645	154.326	0.158	-0.222
-707.631	-200.000	-0.047	0.282
-706.616	31.588	-0.240	0.211
-705.602	-144.973	0.398	-0.037
-704.587	622.378	-0.045	0.117
-703.572	-111.374	-0.411	0.086
-702.558	216.815	0.028	0.046
-701.543	-200.000	0.023	-0.245
-700.529	-154.794	0.321	0.022
-699.514	94.696	-0.155	0.180
-698.499	-74.836	-0.155	0.057
-697.485	-64.239	-0.141	-0.059
-696.470	-107.937	0.021	-0.005
-695.456	-146.215	-0.051	0.005
-694.441	45.700	-0.087	0.083
-693.426	-200.000	0.020	0.169
-692.412	49.693	-0.284	-0.274
-691.397	-200.000	-0.016	0.176
-690.383	245.684	-0.262	0.451
-689.368	-54.900	-0.203	-0.093
-688.354	-2.327	-0.142	0.102
-687.339	-101.788	0.147	-0.036
-686.324	-89.182	0.268	0.081
-685.310	378.772	-0.054	0.112
-684.295	-34.533	-0.387	0.216
-683.281	-91.099	0.180	-0.053
-682.266	-200.000	0.014	-0.126
-681.251	-200.000	0.002	0.217
-680.237	-200.000	0.014	0.183
-679.222	-200.000	0.016	0.110
-678.208	-200.000	0.027	-0.138
-677.193	80.323	0.277	0.304
-676.178	214.972	0.061	-0.098
-675.164	-142.666	-0.252	-0.025
-674.149	220.435	-0.021	0.034
-673.135	-56.728	-0.082	-0.037
-672.120	683.769	-0.037	-0.099
-671.105	259.039	0.035	0.061
-670.091	35.952	0.262	-0.235
-669.076	-9.636	-0.360	-0.245
-668.062	-200.000	-0.008	0.544
-667.047	-104.712	-0.187	0.044
-666.032	3.282	-0.127	-0.094
-665.018	800.000	0.074	0.257
-664.003	-120.593	-0.367	-0.063
-662.989	-67.833	-0.111	0.044
-661.974	-67.517	-0.264	-0.106
-660.959	85.316	0.166	0.186
-659.945	365.394	-0.072	-0.147
-658.930	-80.953	-0.127	0.043
-657.916	-200.000	0.000	-0.143
-656.901	-82.801	-0.240	0.079
-655.886	-200.000	0.047	0.333
-654.872	-183.874	0.216	-0.004
-653.857	-93.989	-0.059	-0.017
-652.843	142.572	0.090	0.121
-651.828	-113.519	0.047	-0.009
-650.814	-200.000	0.011	0.263
-649.799	316.407	0.031	-0.060
-648.784	800.000	0.094	-0.348
-647.770	-200.000	-0.021	0.279
-646.755	65.780	-0.162	-0.168
-645.741	800.000	-0.048	0.136
-644.726	-47.932	0.333	-0.164
-643.711	-200.000	-0.023	-0.257
-642.697	-200.000	-0.008	0.377
-641.682	-200.000	0.004	0.234
-640.668	457.062	-0.080	-0.182
-639.653	-200.000	-0.041	-0.221
-638.638	144.744	-0.133	-0.181
-637.624	155.267	-0.202	0.284
-636.609	800.000	0.070	0.298
-635.595	-35.064	0.296	-0.164
-634.580	-137.041	-0.224	0.026
-633.565	-137.987	-0.175	0.020
-632.551	-46.090	-0.165	-0.083
-631.536	800.000	0.038	0.114
-630.522	-45.781	-0.134	0.067
-629.507	-98.021	-0.203	0.053
-628.492	330.404	-0.053	0.104
-627.478	-85.806	-0.523	-0.165
-626.463	-11.386	-0.138	-0.092
-625.449	-131.081	0.224	-0.030
-624.434	-200.000	0.020	-0.333
-623.419	-53.268	0.134	0.063
-622.405	-95.917	0.343	-0.093
-621.390	-147.262	-0.216	-0.019
-620.376	292.746	-0.163	0.303
-619.361	800.000	-0.085	0.334
-618.346	-36.175	0.475	0.261
-617.332	235.096	-0.051	0.085
-616.317	-148.675	-0.059	0.005
-615.303	-138.394	-0.192	0.022
-614.288	84.692	-0.069	-0.077
-613.273	-4.583	-0.381	0.268
-612.259	63.357	0.168	0.172
-611.244	24.495	0.228	-0.192
-610.230	-182.456	-0.118	0.002
-609.215	-165.094	0.066	0.003
-608.201	-136.682	-0.200	0.023
-607.186	76.955	0.246	-0.266
-606.171	36.776	0.065	0.059
-605.157	-71.020	-0.107	0.041
-604.142	24.370	-0.129	-0.108
-603.128	279.113	0.046	-0.083
-602.113	-31.879	-0.254	0.145
-601.098	491.184	0.171	-0.398
-600.084	-161.562	0.122	-0.006
-599.069	-93.600	0.192	0.054
-598.055	22.656	-0.311	0.259
-597.040	-200.000	-0.063	-0.413
-596.025	59.729	-0.154	0.154
-595.011	-172.264	-0.250	-0.008
-593.996	800.000	0.083	0.250
-592.982	-110.943	0.269	0.056
-591.967	-23.785	-0.254	-0.155
-590.952	-13.124	0.267	0.177
-589.938	-12.866	-0.153	-0.102
-588.923	26.565	-0.257	0.219
-587.909	-123.640	-0.250	-0.040
-586.894	-89.590	0.091	-0.027
-585.879	-76.952	0.309	-0.110
-584.865	-200.000	-0.000	0.003
-583.850	117.308	-0.115	0.144
-582.836	-200.000	0.036	0.396
-581.821	-11.965	0.079	-0.053
-580.806	173.652	-0.165	0.242
-579.792	-67.058	0.349	0.140
-578.777	-133.372	0.418	0.053
-577.763	-59.826	0.224	0.097
-576.748	74.269	-0.101	0.107
-575.733	-20.457	-0.227	-0.142
-574.719	358.458	0.130	0.264
-573.704	-160.890	0.366	0.020
-572.690	-162.064	-0.192	0.010
-571.675	-8.832	0.066	-0.045
-570.661	55.659	0.229	0.225
-569.646	101.497	-0.281	-0.333
-568.631	415.970	-0.119	-0.258
-567.617	-84.443	-0.291	0.094
-566.602	800.000	0.069	-0.239
-565.588	284.525	0.144	0.263
-564.573	-150.843	0.424	0.033
-563.558	-92.102	0.371	-0.106
-562.544	-200.000	-0.060	0.320
-561.529	-42.386	-0.086	-0.045
-560.515	196.751	-0.254	-0.393
-559.500	2.121	0.223	0.164
-558.485	-105.202	0.090	0.021
-557.471	-121.065	-0.182	-0.031
-556.456	-45.413	-0.083	0.042
-555.442	-154.766	-0.300	0.020
-554.427	71.725	-0.188	-0.198
-553.412	-135.802	-0.256	0.031
-552.398	-200.000	0.003	-0.391
-551.383	-20.508	-0.318	0.199
-550.369	398.020	-0.021	-0.044
-549.354	-200.000	-0.003	-0.078
-548.339	153.282	0.296	0.412
-547.325	2.391	0.130	0.095
-546.310	-200.000	-0.068	0.305
-545.296	-200.000	-0.072	-0.000
-544.281	-147.541	0.127	0.011
-543.266	-200.000	-0.040	0.408
-542.252	715.152	-0.167	-0.450
-541.237	-200.000	0.017	-0.407
-540.223	70.225	-0.191	-0.201
-539.208	-124.052	0.176	-0.028
-538.193	-77.392	-0.083	0.029
-537.179	-111.934	-0.157	-0.032
-536.164	-191.992	0.103	-0.001
-535.150	291.504	-0.169	0.313
-534.135	-31.285	0.313	0.179
-533.121	109.364	0.352	0.428
-532.106	-110.117	0.063	-0.013
-531.091	800.000	-0.030	0.118
-530.077	90.288	0.198	0.225
-529.062	167.122	-0.201	-0.290
-528.048	71.627	0.148	-0.156
-527.033	20.999	-0.160	-0.132
-526.018	-144.093	0.302	0.029
-525.004	-137.330	-0.142	-0.016
-523.989	-22.920	-0.163	0.100
-522.975	121.467	-0.074	-0.094
-521.960	-200.000	-0.006	-0.222
-520.945	800.000	0.089	-0.255
-519.931	481.935	-0.030	-0.070
-518.916	-200.000	-0.013	-0.136
-517.902	-0.146	0.117	0.084
-516.887	800.000	0.045	-0.142
-515.872	-118.899	-0.380	-0.068
-514.858	-89.609	-0.270	0.080
-513.843	-129.465	0.131	-0.018
-512.829	-129.100	-0.129	-0.018
-511.814	800.000	0.015	-0.045
-510.799	99.658	0.127	0.149
-509.785	4.077	0.255	-0.189
-508.770	66.315	-0.160	-0.165
-507.756	61.912	0.173	-0.175
-506.741	-21.026	0.145	-0.090
-505.726	-67.884	-0.041	0.016
-504.712	61.172	-0.111	0.112
-503.697	-98.827	-0.021	0.006
-502.683	-126.656	0.074	0.011
-501.668	108.618	-0.353	0.427
-500.653	-68.879	0.199	-0.078
-499.639	-7.901	0.085	-0.058
-498.624	-6.095	-0.152	-0.105
-497.610	-16.241	-0.198	-0.127
-496.595	-35.357	-0.447	0.246
-495.581	5.151	0.277	0.207
-494.566	62.302	0.114	-0.115
-493.551	-90.686	-0.276	0.081
-492.537	-20.427	0.237	0.147
-491.522	-154.072	-0.063	0.004
-490.508	207.739	-0.174	0.276
-489.493	201.305	-0.150	-0.234
-488.478	-135.044	-0.041	-0.005
-487.464	-28.335	0.190	0.111
-486.449	301.877	0.033	-0.062
-485.435	-65.304	0.132	0.054
-484.420	-33.274	0.279	0.156
-483.405	-83.318	0.026	-0.008
-482.391	-47.900	0.148	0.073
-481.376	-30.892	0.127	0.073
-480.362	-74.123	0.210	0.077
-479.347	-121.669	0.106	0.018
-478.332	-22.526	0.176	-0.108
-477.318	-200.000	0.062	-0.418
-476.303	179.755	0.188	0.278
-475.289	80.051	0.007	0.008
-474.274	22.228	0.265	0.219
-473.259	-150.851	-0.161	0.012
-472.245	-129.189	-0.461	-0.065
-471.230	-71.279	-0.348	0.132
-470.216	269.115	-0.057	-0.101
-469.201	-38.788	0.144	-0.077
-468.186	-167.771	-0.230	-0.009
-467.172	-200.000	0.035	-0.226
-466.157	380.861	-0.120	0.250
-465.143	800.000	-0.154	0.553
-464.128	14.285	0.142	0.112
-463.113	-85.738	0.308	0.097
-462.099	800.000	-0.024	-0.099
-461.084	-40.371	-0.094	0.050
-460.070	298.292	0.038	-0.070
-459.055	57.044	-0.056	0.055
-458.040	4.692	-0.316	-0.235
-457.026	-36.435	-0.066	0.036
-456.011	123.984	-0.166	-0.211
-454.997	-143.569	0.196	-0.019
-453.982	6.470	0.316	0.238
-452.968	7.763	0.157	-0.119
-451.953	53.454	0.125	-0.122
-450.938	-27.053	-0.341	0.201
-449.924	-119.450	-0.033	0.006
-448.909	-120.640	-0.193	-0.033
-447.895	193.672	-0.231	0.354
-446.880	-43.353	-0.020	0.010
-445.865	325.398	-0.169	-0.326
-444.851	-20.750	0.266	-0.165
-443.836	-200.000	-0.009	0.552
-442.822	133.047	0.227	-0.296
-441.807	-146.120	-0.085	-0.008
-440.792	158.175	-0.229	-0.321
-439.778	-132.317	-0.119	-0.016
-438.763	-106.860	0.311	0.070
-437.749	-113.439	0.339	0.067
-436.734	64.437	0.293	-0.299
-435.719	-200.000	-0.030	0.144
-434.705	-42.839	-0.165	-0.085
-433.690	24.542	-0.162	0.136
-432.676	-36.899	-0.282	-0.153
-431.661	159.250	0.094	-0.133
-430.646	758.179	-0.094	-0.257
-429.632	-200.000	-0.044	-0.273
-428.617	-75.990	0.373	0.133
-427.603	-112.759	0.100	0.020
-426.588	294.372	0.113	-0.208
-425.573	-27.092	-0.269	-0.159
-424.559	800.000	-0.069	-0.193
-423.544	-71.137	-0.080	0.030
-422.530	142.892	-0.146	0.196
-421.515	-75.977	0.223	0.080
-420.500	100.589	-0.139	-0.163
-419.486	36.876	-0.138	0.123
-418.471	800.000	-0.087	-0.298
-417.457	756.619	0.060	0.165
-416.442	-88.675	0.221	-0.066
-415.428	-200.000	-0.029	0.204
-414.413	-8.079	-0.335	0.228
-413.398	-135.773	-0.244	-0.029
-412.384	107.316	-0.117	0.141
-411.369	-48.541	0.181	0.088
-410.355	-101.546	-0.092	-0.023
-409.340	-72.088	0.161	-0.060
-408.325	-200.000	-0.000	-0.218
-407.311	326.002	-0.039	-0.075
-406.296	-94.539	0.016	-0.004
-405.282	-71.198	0.256	0.097
-404.267	-200.000	0.013	-0.168
-403.252	123.487	0.104	0.132
-402.238	112.261	-0.297	-0.363
-401.223	-173.189	0.231	-0.007
-400.209	-150.641	0.162	0.013
-399.194	800.000	0.055	-0.193
-398.179	-139.644	-0.113	0.012
-397.165	172.954	-0.181	0.264
-396.150	-200.000	-0.005	0.060
-395.136	-129.943	0.180	0.025
-394.121	-200.000	-0.024	0.183
-393.106	-120.036	-0.404	-0.070
-392.092	-116.368	-0.295	0.055
-391.077	-83.025	-0.138	-0.045
-390.063	80.775	-0.158	0.172
-389.048	-200.000	0.061	-0.423
-388.033	150.264	-0.145	-0.198
-387.019	535.121	-0.018	-0.043
-386.004	-61.059	-0.330	-0.141
-384.990	-200.000	0.025	-0.322
-383.975	279.199	0.069	0.125
-382.960	-200.000	0.037	-0.211
-381.946	-200.000	0.018	-0.256
-380.931	126.546	-0.060	0.076
-379.917	-200.000	0.013	0.133
-378.902	800.000	-0.030	0.107
-377.888	-138.193	-0.237	0.026
-376.873	-128.104	-0.187	0.027
-375.858	-200.000	0.016	-0.198
-374.844	29.112	0.061	0.052
-373.829	-66.962	0.423	0.168
-372.815	-82.877	0.221	0.072
-371.800	53.491	-0.088	-0.085
-370.785	-200.000	-0.043	-0.191
-369.771	49.038	-0.093	0.088
-368.756	-20.827	-0.076	-0.047
-367.742	-110.108	-0.408	-0.086
-366.727	800.000	0.024	0.102
-365.712	316.997	0.136	0.259
-364.698	-200.000	-0.016	-0.111
-363.683	335.169	0.054	-0.106
-362.669	-16.813	0.158	-0.101
-361.654	-137.766	0.114	-0.013
-360.639	295.083	-0.018	0.033
-359.625	-2.704	-0.140	-0.099
-358.610	-160.044	0.279	-0.015
-357.596	661.208	-0.075	-0.194
-356.581	800.000	-0.025	0.092
-355.566	9.561	0.206	0.157
-354.552	-200.000	-0.021	0.170
-353.537	-35.791	-0.307	-0.167
-352.523	800.000	-0.103	0.328
-351.508	-200.000	0.014	-0.179
-350.493	396.809	-0.111	-0.233
-349.479	-151.205	0.299	0.023
-348.464	-111.513	0.240	-0.049
-347.450	5.222	-0.140	0.104
-346.435	177.876	0.040	0.059
-345.420	436.660	-0.090	0.198
-344.406	-200.000	0.003	0.090
-343.391	800.000	-0.066	0.265
-342.377	-200.000	-0.043	0.238
-341.362	-37.352	-0.231	-0.124
-340.348	800.000	-0.062	0.193
-339.333	12.025	0.061	0.047
-338.318	72.483	-0.075	-0.079
-337.304	189.553	-0.088	-0.133
-336.289	800.000	0.060	-0.234
-335.275	-200.000	-0.072	0.324
-334.260	-65.326	-0.348	-0.141
-333.245	-92.413	-0.284	-0.080
-332.231	35.824	0.286	0.253
-331.216	-149.765	0.179	0.014
-330.202	163.894	-0.073	0.104
-329.187	159.288	0.119	-0.167
-328.172	282.144	0.107	-0.193
-327.158	110.843	0.229	0.278
-326.143	800.000	-0.029	0.094
-325.129	-47.197	-0.150	0.074
-324.114	-28.368	-0.143	-0.083
-323.099	-40.325	0.220	0.115
-322.085	202.136	-0.092	0.144
-321.070	-137.914	-0.187	-0.021
-320.056	800.000	-0.043	-0.124
-319.041	111.737	-0.167	0.203
-318.026	800.000	-0.035	0.103
-317.012	269.438	0.091	0.160
-315.997	-40.838	-0.168	0.087
-314.983	-144.229	0.127	0.012
-313.968	800.000	0.044	-0.156
-312.953	39.104	0.205	0.185
-311.939	482.329	0.103	-0.235
-310.924	-200.000	-0.074	-0.342
-309.910	521.781	-0.099	0.234
-308.895	754.876	0.155	0.422
-307.880	-162.694	0.262	0.013
-306.866	401.308	0.124	0.262
-305.851	46.899	0.234	-0.219
-304.837	-4.112	-0.080	0.056
-303.822	800.000	-0.021	0.085
-302.807	567.555	-0.072	-0.175
-301.793	-42.387	0.224	0.115
-300.778	-200.000	0.003	0.106
-299.764	524.124	-0.056	0.131
-298.749	-200.000	0.231	-0.001
-297.735	-200.000	0.010	-0.152
-296.720	800.000	-0.066	-0.191
-295.705	-31.991	0.339	-0.191
-294.691	-200.000	0.011	0.124
-293.676	740.720	0.076	0.206
-292.662	-0.925	-0.283	-0.201
-291.647	-47.646	-0.127	-0.062
-290.632	800.000	-0.032	-0.105
-289.618	157.656	0.039	-0.054
-288.603	-21.613	0.141	-0.086
-287.589	800.000	0.080	-0.266
-286.574	-81.461	0.084	0.028
-285.559	22.640	-0.153	0.126
-284.545	18.059	0.134	-0.107
-283.530	-200.000	-0.002	-0.029
-282.516	-26.086	0.162	-0.095
-281.501	128.109	-0.020	-0.025
-280.486	2.850	0.298	0.218
-279.472	-111.976	0.251	-0.051
-278.457	800.000	0.071	0.200
-277.443	67.407	0.202	0.208
-276.428	-100.555	0.171	-0.042
-275.413	-10.173	0.185	-0.123
-274.399	800.000	0.039	0.141
-273.384	-200.000	0.031	-0.298
-272.370	436.205	0.065	-0.141
-271.355	-200.000	0.000	-0.306
-270.340	800.000	0.068	-0.262
-269.326	800.000	-0.094	-0.316
-268.311	791.922	-0.108	0.299
-267.297	504.172	0.104	0.241
-266.282	84.678	0.133	0.146
-265.267	800.000	-0.139	-0.552
-264.253	681.791	-0.062	-0.163
-263.238	-59.773	0.231	0.099
-262.224	-200.000	0.084	0.443
-261.209	-81.777	-0.246	0.081
-260.195	153.448	0.142	-0.196
-259.180	-200.000	0.215	-0.000
-258.165	19.075	0.294	-0.236
-257.151	-186.779	0.137	0.002
-256.136	800.000	0.054	-0.183
-255.122	393.599	0.211	-0.440
-254.107	70.042	-0.122	-0.126
-253.092	-85.443	-0.147	0.046
-252.078	129.299	0.127	0.163
-251.063	211.973	-0.080	-0.127
-250.049	662.003	-0.023	0.060
-249.034	-19.825	-0.156	0.097
-248.019	243.442	0.066	0.111
-247.005	-108.528	-0.232	0.050
-245.990	-9.844	-0.082	0.055
-244.976	800.000	0.087	-0.286
-243.961	-99.508	0.171	0.043
-242.946	-119.149	-0.106	0.019
-241.932	-130.909	-0.100	-0.013
-240.917	-127.578	-0.144	-0.021
-239.903	-54.503	-0.335	0.152
-238.888	-200.000	-0.020	0.249
-237.873	-46.756	0.261	0.128
-236.859	-200.000	0.049	-0.329
-235.844	2.897	-0.392	-0.285
-234.830	123.017	0.147	-0.184
-233.815	55.989	0.031	0.030
-232.800	-111.096	0.300	-0.062
-231.786	56.417	0.254	0.248
-230.771	-200.000	0.053	0.262
-229.757	800.000	0.106	0.308
-228.742	800.000	0.016	-0.053
-227.727	677.023	0.099	0.257
-226.713	-131.804	0.093	0.012
-225.698	-69.738	-0.274	-0.105
-224.684	-0.258	0.064	-0.045
-223.669	56.512	-0.204	0.199
-222.655	-101.683	-0.200	-0.049
-221.640	333.196	0.226	0.438
-220.625	-171.292	-0.230	-0.008
-219.611	104.251	-0.210	-0.247
-218.596	-200.000	0.577	-0.001
-217.582	-42.430	0.157	-0.080
-216.567	481.877	-0.103	0.235
-215.552	139.627	0.118	-0.156
-214.538	-200.000	-0.027	-0.156
-213.523	-200.000	-0.027	-0.178
-212.509	319.055	-0.149	0.283
-211.494	-86.095	-0.078	-0.024
-210.479	-120.489	-0.222	-0.038
-209.465	10.814	0.119	-0.091
-208.450	163.775	0.100	-0.141
-207.436	-68.782	0.289	-0.112
-206.421	-200.000	0.032	-0.147
-205.406	112.745	-0.188	-0.228
-204.392	-102.191	0.094	-0.023
-203.377	-31.629	0.241	-0.135
-202.363	-200.000	0.003	0.223
-201.348	11.710	-0.247	0.190
-200.333	41.150	-0.161	-0.146
-199.319	-200.000	0.048	-0.218
-198.304	97.022	0.149	0.171
-197.290	318.982	0.156	-0.296
-196.275	311.459	-0.148	-0.278
-195.260	25.507	-0.241	-0.201
-194.246	50.880	0.140	0.133
-193.231	-200.000	0.012	-0.074
-192.217	151.752	0.070	-0.095
-191.202	-200.000	0.074	0.331
-190.187	77.116	-0.341	0.363
-189.173	363.447	0.076	-0.152
-188.158	304.297	0.140	-0.261
-187.144	800.000	-0.048	0.179
-186.129	27.371	-0.198	0.167
-185.114	27.160	0.177	0.148
-184.100	218.041	0.101	0.161
-183.085	-165.722	0.267	-0.012
-182.071	-185.553	0.322	0.005
-181.056	-30.042	-0.149	-0.085
-180.042	-5.589	0.114	-0.078
-179.027	73.892	-0.154	-0.162
-178.012	-41.887	0.164	-0.084
-176.998	-168.014	-0.263	0.010
-175.983	80.166	-0.256	-0.276
-174.969	-93.572	-0.049	0.014
-173.954	-118.757	0.146	0.026
-172.939	-150.757	0.255	-0.019
-171.925	-200.000	0.046	0.207
-170.910	-200.000	0.023	0.458
-169.896	-200.000	-0.020	-0.111
-168.881	-145.938	-0.134	0.012
-167.866	-107.018	-0.184	0.041
-166.852	-41.564	-0.016	0.008
-165.837	-82.289	-0.160	0.052
-164.823	11.032	-0.060	-0.046
-163.808	-54.160	0.133	0.061
-162.793	-98.762	-0.139	0.035
-161.779	10.097	0.100	-0.076
-160.764	-130.151	-0.378	-0.051
-159.750	0.256	0.305	-0.218
-158.735	-99.660	0.282	0.071
-157.720	275.255	-0.025	0.044
-156.706	99.174	-0.294	-0.340
-155.691	-200.000	-0.009	0.227
-154.677	800.000	-0.069	0.273
-153.662	-135.099	0.088	-0.011
-152.647	-136.161	0.162	-0.019
-151.633	-82.341	-0.034	-0.011
-150.618	800.000	-0.044	-0.184
-149.604	-200.000	-0.027	-0.254
-148.589	49.117	0.129	0.121
-147.574	800.000	0.152	0.463
-146.560	13.469	-0.260	0.202
-145.545	141.922	0.043	0.057
-144.531	-200.000	-0.014	0.066
-143.516	800.000	0.016	0.059
-142.502	-110.231	0.180	0.037
-141.487	489.040	-0.117	-0.268
-140.472	48.652	-0.144	0.135
-139.458	-71.621	-0.105	0.039
-138.443	-43.718	-0.065	0.033
-137.429	-58.383	-0.342	0.148
-136.414	-200.000	0.017	-0.095
-135.399	490.177	0.010	-0.022
-134.385	144.828	0.241	0.322
-133.370	-137.168	-0.212	0.024
-132.356	-80.548	0.266	0.089
-131.341	522.942	0.099	-0.233
-130.326	-197.314	0.216	0.001
-129.312	-102.263	0.179	0.043
-128.297	-76.173	-0.161	-0.057
-127.283	-43.587	-0.263	0.133
-126.268	-109.836	0.099	0.021
-125.253	-111.922	0.084	0.017
-124.239	-2.328	0.312	0.219
-123.224	-72.349	-0.189	0.070
-122.210	-88.840	0.132	-0.039
-121.195	-127.453	-0.096	-0.014
