DTS Sentinel unit serial number:	SN413079Multiplexer serial number:	ORYXHardware model number:	OX4-SRSoftware version number:	ORYX F/W v4.00 Oryx Data Collector v3.7.2.0data status	okinstallation	princeton_trtdifferential loss correction	single-endedforward channel	channel 1reverse channel	N/Adate	2019/09/13time	23:22:35forward acquisition time	60.00reverse acquisition time	0.00gamma	496.2192k internal	0.2336k external	0.2336temperature offset calibration	1.0085default loss term (dB/km)	0.3790temperature slope calibration	1.0000multiplexer offset coefficient	1.0000multiplexer slope coefficient	1.0000fibre end	0.00T internal ref (°C)	26.95T ext. ref 1 (°C)	3.16T ext. ref 2 (°C)	20.91length (m)	temperature (°C)	Stokes	anti-Stokes-747.200	631.941	0.089	0.227
-746.185	800.000	-0.081	0.258
-745.171	800.000	-0.052	0.158
-744.156	-72.731	-0.242	0.090
-743.142	-140.554	-0.288	-0.030
-742.127	-200.000	-0.002	0.205
-741.112	126.570	0.078	-0.100
-740.098	-97.824	-0.339	0.088
-739.083	496.300	0.026	0.060
-738.069	187.935	0.088	0.132
-737.054	-78.861	-0.086	0.030
-736.039	-25.499	-0.249	-0.148
-735.025	-13.198	-0.082	-0.053
-734.010	609.335	-0.116	-0.290
-732.996	72.176	0.187	-0.196
-731.981	76.813	0.083	0.088
-730.966	-57.096	-0.334	-0.148
-729.952	67.373	0.193	0.198
-728.937	15.719	-0.123	-0.097
-727.923	-25.003	-0.262	0.156
-726.908	782.338	-0.041	0.113
-725.894	31.558	-0.138	0.119
-724.879	-200.000	0.004	-0.046
-723.864	800.000	-0.059	0.207
-722.850	-37.217	0.415	-0.223
-721.835	-83.872	-0.096	-0.031
-720.821	-78.366	-0.216	0.075
-719.806	-8.047	-0.101	0.068
-718.791	-103.345	-0.276	-0.065
-717.777	-147.654	-0.125	0.011
-716.762	11.431	0.105	-0.081
-715.748	800.000	-0.093	0.285
-714.733	800.000	0.021	0.089
-713.718	800.000	-0.156	-0.522
-712.704	19.051	-0.138	0.111
-711.689	-147.371	-0.051	-0.004
-710.675	503.709	-0.092	-0.214
-709.660	-200.000	0.018	0.109
-708.645	-46.922	0.280	0.137
-707.631	27.733	-0.152	0.128
-706.616	611.784	0.070	0.175
-705.602	50.045	0.123	0.116
-704.587	-200.000	0.032	-0.261
-703.572	-70.205	-0.049	-0.019
-702.558	-49.570	0.325	-0.155
-701.543	-143.311	-0.225	0.022
-700.529	-36.942	0.179	-0.096
-699.514	-138.762	-0.298	0.033
-698.499	-200.000	-0.006	0.060
-697.485	-133.677	-0.345	0.043
-696.470	800.000	0.095	-0.369
-695.456	736.117	-0.025	-0.068
-694.441	-167.719	0.157	0.006
-693.426	800.000	0.157	0.469
-692.412	152.827	0.227	0.311
-691.397	-200.000	-0.047	0.254
-690.383	-98.660	-0.452	0.115
-689.368	-35.044	0.195	0.106
-688.354	-118.320	0.431	0.077
-687.339	-111.687	0.153	-0.031
-686.324	800.000	0.060	-0.188
-685.310	-30.094	0.345	-0.197
-684.295	-97.533	0.259	0.068
-683.281	-69.759	-0.264	0.101
-682.266	-14.400	-0.252	-0.163
-681.251	439.103	-0.078	0.170
-680.237	214.676	-0.139	-0.221
-679.222	-200.000	-0.032	0.159
-678.208	-27.381	-0.338	0.197
-677.193	800.000	-0.039	-0.123
-676.178	365.336	-0.031	-0.063
-675.164	144.054	-0.251	0.336
-674.149	-100.182	0.309	-0.077
-673.135	-114.058	0.154	0.030
-672.120	-43.034	-0.169	-0.086
-671.105	-42.442	-0.190	0.097
-670.091	178.565	-0.142	0.207
-669.076	-200.000	0.005	-0.027
-668.062	318.826	0.140	-0.265
-667.047	464.965	0.133	0.298
-666.032	-63.856	0.119	-0.049
-665.018	-14.419	-0.207	-0.133
-664.003	272.130	-0.168	0.297
-662.989	-200.000	-0.043	-0.194
-661.974	-117.920	-0.100	-0.018
-660.959	-35.802	-0.133	0.072
-659.945	-17.447	0.004	-0.003
-658.930	-111.893	-0.251	-0.051
-657.916	-87.697	-0.273	0.082
-656.901	44.344	0.103	-0.095
-655.886	800.000	0.027	0.083
-654.872	800.000	-0.066	-0.227
-653.857	-52.638	0.300	-0.139
-652.843	-7.386	-0.138	0.093
-651.828	800.000	0.069	-0.197
-650.814	-200.000	-0.019	-0.290
-649.799	649.574	-0.114	-0.291
-648.784	-101.487	0.398	-0.097
-647.770	800.000	-0.148	-0.500
-646.755	-28.478	-0.147	0.085
-645.741	-126.379	0.299	0.045
-644.726	547.449	-0.076	0.182
-643.711	-77.409	0.227	-0.079
-642.697	678.870	0.046	-0.120
-641.682	-200.000	0.000	-0.169
-640.668	53.876	0.158	0.152
-639.653	-38.492	0.327	-0.173
-638.638	-30.197	-0.315	-0.179
-637.624	-97.621	0.082	-0.021
-636.609	-107.809	0.106	0.023
-635.595	-85.828	-0.141	0.044
-634.580	399.249	0.063	0.132
-633.565	-200.000	0.058	0.440
-632.551	691.643	-0.027	-0.071
-631.536	139.171	-0.202	-0.266
-630.522	50.429	0.121	0.114
-629.507	113.398	-0.104	-0.126
-628.492	-36.772	0.104	-0.056
-627.478	-167.524	0.361	-0.014
-626.463	800.000	-0.084	-0.269
-625.449	800.000	-0.024	0.098
-624.434	65.417	-0.199	0.201
-623.419	95.329	-0.045	0.052
-622.405	-46.218	0.303	0.149
-621.390	-117.584	0.187	0.034
-620.376	16.878	-0.290	0.230
-619.361	-200.000	-0.025	0.173
-618.346	-23.879	-0.193	0.116
-617.332	-200.000	-0.001	0.127
-616.317	-2.963	-0.147	-0.103
-615.303	-162.667	-0.194	-0.010
-614.288	-67.623	0.144	-0.056
-613.273	-200.000	0.005	0.032
-612.259	-200.000	-0.000	-0.394
-611.244	247.416	0.123	-0.208
-610.230	349.856	-0.086	0.171
-609.215	-156.534	0.187	-0.012
-608.201	49.403	0.164	0.154
-607.186	-127.173	-0.406	0.059
-606.171	-200.000	0.016	-0.111
-605.157	66.841	-0.215	0.219
-604.142	36.663	-0.225	0.198
-603.128	-113.897	0.320	-0.062
-602.113	-67.202	-0.285	-0.112
-601.098	111.631	0.223	0.269
-600.084	85.972	-0.222	-0.245
-599.069	-200.000	0.019	-0.097
-598.055	19.246	-0.221	0.177
-597.040	717.789	0.060	-0.160
-596.025	169.318	-0.125	-0.179
-595.011	800.000	-0.109	0.342
-593.996	107.716	-0.241	-0.286
-592.982	-183.775	0.264	-0.004
-591.967	-53.305	-0.163	0.075
-590.952	-200.000	0.002	-0.225
-589.938	-94.554	-0.206	-0.056
-588.923	326.496	-0.134	0.257
-587.909	-200.000	-0.030	-0.178
-586.894	800.000	0.061	0.266
-585.879	-146.760	-0.165	-0.014
-584.865	48.453	0.091	0.085
-583.850	-20.532	0.124	0.076
-582.836	-200.000	-0.065	-0.389
-581.821	77.134	0.193	0.204
-580.806	-130.897	-0.019	0.003
-579.792	-80.153	-0.234	0.078
-578.777	-62.475	0.193	0.080
-577.763	-34.304	-0.185	0.101
-576.748	95.395	-0.220	-0.250
-575.733	50.955	-0.324	-0.307
-574.719	356.887	0.063	0.125
-573.704	34.778	-0.436	0.381
-572.690	206.990	0.109	0.170
-571.675	392.767	0.218	-0.453
-570.661	-31.293	0.404	0.227
-569.646	331.449	0.060	0.115
-568.631	-132.799	0.237	-0.030
-567.617	189.098	-0.253	0.377
-566.602	-74.454	0.221	-0.079
-565.588	159.278	0.202	-0.281
-564.573	-200.000	0.052	-0.239
-563.558	800.000	-0.043	0.126
-562.544	-200.000	0.025	0.213
-561.529	-49.340	-0.245	0.117
-560.515	-2.820	0.049	0.034
-559.500	-200.000	-0.021	0.110
-558.485	-127.208	0.168	0.024
-557.471	-28.989	-0.207	0.119
-556.456	-200.000	-0.046	-0.265
-555.442	423.946	-0.089	-0.190
-554.427	153.289	0.061	-0.083
-553.412	800.000	-0.048	0.140
-552.398	-200.000	-0.018	-0.244
-551.383	-200.000	0.033	-0.216
-550.369	85.513	-0.157	0.172
-549.354	-29.859	-0.170	-0.097
-548.339	-89.998	-0.333	0.097
-547.325	0.931	0.214	-0.153
-546.310	-155.976	0.331	-0.021
-545.296	-61.973	-0.355	-0.148
-544.281	534.853	0.019	0.044
-543.266	330.568	-0.087	-0.167
-542.252	142.608	0.120	0.159
-541.237	16.111	-0.148	0.117
-540.223	238.977	0.063	-0.104
-539.208	-60.203	0.344	-0.146
-538.193	45.570	0.157	-0.145
-537.179	-92.254	-0.238	0.067
-536.164	199.691	0.069	0.105
-535.150	202.918	-0.112	0.173
-534.135	130.044	0.108	0.138
-533.121	274.077	0.104	0.184
-532.106	-200.000	-0.015	0.101
-531.091	138.016	-0.277	-0.361
-530.077	45.643	0.110	0.101
-529.062	636.350	-0.103	-0.260
-528.048	584.598	-0.174	0.425
-527.033	12.943	-0.181	-0.139
-526.018	139.745	0.103	0.135
-525.004	-20.839	0.175	0.107
-523.989	-200.000	-0.000	0.021
-522.975	2.938	-0.052	-0.038
-521.960	-98.377	0.129	-0.033
-520.945	6.205	0.017	-0.013
-519.931	-10.386	0.039	-0.026
-518.916	-21.102	-0.057	0.035
-517.902	28.221	-0.390	0.328
-516.887	294.104	-0.047	-0.085
-515.872	16.851	0.327	0.258
-514.858	-134.830	-0.186	0.022
-513.843	-200.000	-0.003	0.087
-512.829	-26.527	0.092	-0.054
-511.814	-200.000	0.137	0.000
-510.799	732.986	0.168	0.447
-509.785	3.439	0.123	-0.090
-508.770	-111.000	0.268	0.055
-507.756	-200.000	-0.032	-0.184
-506.741	-151.893	-0.343	0.025
-505.726	-132.343	0.174	0.022
-504.712	-87.038	0.257	0.078
-503.697	-200.000	0.009	-0.120
-502.683	-200.000	0.008	0.088
-501.668	-36.691	-0.097	-0.052
-500.653	11.065	-0.049	-0.038
-499.639	384.099	0.123	0.251
-498.624	-32.723	0.150	0.083
-497.610	87.161	-0.102	0.113
-496.595	218.066	-0.226	-0.359
-495.581	-55.795	0.142	-0.063
-494.566	0.792	-0.248	-0.177
-493.551	-99.561	-0.337	-0.084
-492.537	26.614	0.132	0.110
-491.522	-84.913	0.494	-0.154
-490.508	-200.000	0.016	0.154
-489.493	91.287	0.334	0.373
-488.478	-18.846	-0.276	0.171
-487.464	-176.983	-0.059	0.001
-486.449	800.000	-0.042	0.181
-485.435	800.000	0.032	-0.118
-484.420	201.778	0.091	0.140
-483.405	800.000	-0.025	0.089
-482.391	-89.262	0.082	-0.024
-481.376	177.098	-0.125	-0.181
-480.362	800.000	0.011	-0.036
-479.347	42.249	0.255	-0.231
-478.332	0.151	-0.238	-0.169
-477.318	-47.882	-0.219	0.106
-476.303	18.308	0.150	0.119
-475.289	-200.000	-0.078	0.356
-474.274	62.437	-0.091	0.091
-473.259	-171.517	-0.287	0.009
-472.245	-2.407	0.178	0.124
-471.230	1.476	0.084	-0.060
-470.216	-138.858	0.394	0.043
-469.201	-29.708	-0.159	0.090
-468.186	-110.855	-0.157	0.032
-467.172	800.000	-0.031	0.098
-466.157	800.000	-0.079	-0.255
-465.143	-133.065	-0.141	0.018
-464.128	-68.001	0.100	-0.039
-463.113	-131.468	0.358	-0.047
-462.099	-125.930	-0.284	-0.042
-461.084	47.279	-0.339	-0.314
-460.070	786.270	-0.034	-0.094
-459.055	-85.849	-0.075	-0.023
-458.040	-200.000	-0.006	-0.233
-457.026	-51.382	-0.273	-0.127
-456.011	23.845	-0.088	0.072
-454.997	-7.748	-0.130	-0.087
-453.982	-200.000	0.302	-0.000
-452.968	44.923	-0.216	-0.198
-451.953	174.369	-0.100	-0.144
-450.938	-23.335	-0.238	-0.142
-449.924	-66.890	0.367	-0.144
-448.909	-44.063	-0.274	-0.137
-447.895	-56.050	0.323	0.143
-446.880	-111.144	-0.258	0.052
-445.865	61.502	0.181	0.179
-444.851	-89.262	-0.131	0.038
-443.836	263.207	-0.219	-0.378
-442.822	-200.000	0.008	-0.114
-441.807	800.000	0.063	-0.187
-440.792	313.509	0.011	-0.020
-439.778	-59.562	-0.176	0.075
-438.763	19.043	0.159	-0.127
-437.749	249.889	0.112	-0.188
-436.734	612.022	-0.087	-0.216
-435.719	-127.518	-0.172	0.025
-434.705	-165.403	-0.273	0.012
-433.690	61.617	-0.125	0.123
-432.676	8.450	-0.103	-0.077
-431.661	504.144	0.097	-0.222
-430.646	-41.237	0.229	0.117
-429.632	800.000	-0.045	0.128
-428.617	-158.083	-0.212	-0.012
-427.603	-67.556	0.056	0.022
-426.588	312.434	0.123	-0.228
-425.573	-1.632	0.292	0.204
-424.559	-109.228	-0.348	0.073
-423.544	800.000	-0.113	0.412
-422.530	-159.653	-0.439	-0.024
-421.515	-153.821	0.212	0.014
-420.500	-200.000	0.005	-0.075
-419.486	-14.174	-0.163	-0.104
-418.471	800.000	-0.031	-0.104
-417.457	800.000	-0.102	-0.350
-416.442	46.271	0.095	0.087
-415.428	6.191	0.154	0.114
-414.413	-32.519	-0.113	-0.063
-413.398	-135.184	0.376	-0.045
-412.384	-66.780	0.113	0.044
-411.369	-58.709	0.168	0.072
-410.355	-108.015	-0.319	0.069
-409.340	147.793	-0.013	0.017
-408.325	-137.623	0.330	0.037
-407.311	-84.884	-0.132	-0.041
-406.296	522.456	-0.087	0.202
-405.282	56.813	0.434	-0.419
-404.267	-123.188	-0.304	-0.048
-403.252	-123.225	0.263	-0.042
-402.238	-9.035	-0.301	0.199
-401.223	-37.186	0.469	-0.249
-400.209	424.279	0.206	-0.439
-399.194	-200.000	0.042	0.321
-398.179	-79.265	0.133	0.045
-397.165	-116.140	-0.507	0.093
-396.150	-127.199	0.179	0.026
-395.136	140.777	0.093	0.122
-394.121	211.516	-0.106	-0.165
-393.106	-22.437	-0.229	0.137
-392.092	-200.000	0.015	0.130
-391.077	-200.000	0.003	-0.140
-390.063	-136.652	0.407	0.047
-389.048	-60.196	0.271	-0.115
-388.033	79.456	0.129	0.137
-387.019	-57.250	0.107	-0.047
-386.004	-26.395	-0.294	0.171
-384.990	-170.139	0.186	0.007
-383.975	-34.522	0.341	-0.185
-382.960	259.859	0.095	0.163
-381.946	800.000	0.085	0.240
-380.931	150.361	-0.277	-0.372
-379.917	-159.003	-0.183	-0.010
-378.902	310.931	-0.050	-0.094
-377.888	133.589	0.061	-0.078
-376.873	-122.123	-0.209	-0.034
-375.858	-72.420	0.194	0.071
-374.844	61.293	-0.078	0.077
-373.829	-49.416	-0.423	-0.200
-372.815	-200.000	0.028	-0.407
-371.800	-103.991	0.171	-0.039
-370.785	-95.770	-0.135	-0.036
-369.771	42.782	-0.078	0.070
-368.756	-200.000	-0.021	0.286
-367.742	-69.366	0.236	-0.090
-366.727	-48.284	-0.171	0.082
-365.712	-15.947	-0.246	-0.155
-364.698	-144.018	0.046	0.004
-363.683	-200.000	-0.027	-0.276
-362.669	800.000	0.052	-0.197
-361.654	-161.851	-0.286	0.014
-360.639	800.000	0.058	0.163
-359.625	448.266	0.077	0.168
-358.610	800.000	-0.026	-0.095
-357.596	-159.904	0.148	0.008
-356.581	337.291	-0.104	-0.200
-355.566	-33.086	0.176	-0.097
-354.552	240.454	0.175	-0.289
-353.537	13.531	-0.109	0.084
-352.523	-181.570	0.510	0.010
-351.508	-200.000	-0.046	-0.292
-350.493	-167.988	0.268	-0.010
-349.479	522.908	0.174	-0.405
-348.464	127.788	-0.049	0.062
-347.450	-200.000	-0.010	0.333
-346.435	-78.110	-0.317	0.108
-345.420	351.278	0.126	-0.247
-344.406	800.000	0.038	0.136
-343.391	-36.413	-0.286	0.152
-342.377	451.970	0.122	0.266
-341.362	253.550	-0.105	-0.177
-340.348	-64.448	0.165	0.066
-339.333	520.216	0.056	0.130
-338.318	800.000	-0.049	-0.140
-337.304	800.000	-0.023	-0.071
-336.289	94.150	-0.138	-0.155
-335.275	59.937	-0.163	-0.160
-334.260	-89.401	-0.145	-0.042
-333.245	-41.704	-0.298	-0.151
-332.231	254.943	0.075	-0.127
-331.216	79.015	0.274	-0.290
-330.202	360.943	-0.046	-0.091
-329.187	-0.594	0.168	-0.118
-328.172	101.789	-0.126	-0.145
-327.158	-144.910	0.204	0.018
-326.143	66.759	0.255	0.257
-325.129	467.869	0.049	0.109
-324.114	200.258	0.104	0.158
-323.099	-177.481	-0.073	0.002
-322.085	-65.305	-0.203	0.081
-321.070	-200.000	0.050	0.314
-320.056	115.785	0.240	0.291
-319.041	800.000	-0.048	-0.136
-318.026	6.443	0.299	-0.219
-317.012	80.339	-0.110	-0.117
-315.997	800.000	0.037	0.140
-314.983	-50.889	0.108	0.050
-313.968	27.127	0.166	-0.138
-312.953	-132.288	0.197	0.025
-311.939	55.151	-0.224	-0.214
-310.924	-200.000	-0.001	0.128
-309.910	628.832	0.037	0.091
-308.895	-118.243	-0.361	0.064
-307.880	-68.135	-0.258	0.099
-306.866	800.000	-0.045	-0.144
-305.851	166.257	0.040	-0.056
-304.837	20.323	0.227	0.181
-303.822	-79.101	0.135	-0.045
-302.807	128.534	-0.096	-0.120
-301.793	-72.244	-0.163	-0.060
-300.778	800.000	-0.065	-0.204
-299.764	188.534	-0.135	-0.199
-298.749	-43.172	0.481	-0.240
-297.735	-132.359	0.205	0.026
-296.720	71.009	0.179	-0.183
-295.705	-200.000	-0.030	0.270
-294.691	-128.942	-0.177	-0.025
-293.676	143.127	0.132	-0.173
-292.662	221.300	-0.219	-0.347
-291.647	780.185	0.106	0.285
-290.632	-105.167	0.147	0.033
-289.618	-200.000	-0.017	-0.116
-288.603	800.000	0.083	-0.261
-287.589	49.198	-0.179	-0.166
-286.574	-54.538	-0.182	-0.081
-285.559	-86.242	0.206	0.063
-284.545	104.506	0.136	0.158
-283.530	625.563	0.089	0.223
-282.516	-119.005	-0.219	-0.038
-281.501	9.699	0.234	0.175
-280.486	-200.000	-0.002	-0.031
-279.472	-151.482	-0.320	-0.023
-278.457	-58.405	-0.124	-0.053
-277.443	-200.000	-0.013	-0.059
-276.428	41.848	-0.137	0.122
-275.413	211.162	-0.082	0.127
-274.399	-145.726	0.034	0.003
-273.384	-200.000	-0.001	-0.052
-272.370	800.000	0.053	-0.212
-271.355	-40.051	0.162	0.083
-270.340	800.000	-0.080	0.281
-269.326	-145.356	0.164	-0.015
-268.311	-164.736	0.254	-0.011
-267.297	324.908	0.105	0.197
-266.282	-80.553	0.174	0.057
-265.267	112.858	0.194	0.231
-264.253	-86.561	0.541	-0.163
-263.238	800.000	-0.098	-0.326
-262.224	-33.395	-0.232	-0.127
-261.209	44.669	0.246	-0.223
-260.195	-200.000	0.001	-0.131
-259.180	702.068	0.092	0.239
-258.165	-21.059	-0.225	0.136
-257.151	-128.250	0.204	-0.029
-256.136	761.087	-0.042	-0.113
-255.122	202.535	0.115	0.175
-254.107	191.328	-0.271	0.402
-253.092	44.436	0.116	0.105
-252.078	189.258	0.179	0.265
-251.063	-25.400	0.265	0.154
-250.049	-135.025	-0.320	0.038
-249.034	45.448	0.146	0.133
-248.019	-200.000	0.000	0.227
-247.005	440.129	-0.061	-0.132
-245.990	-88.871	0.140	0.041
-244.976	49.772	-0.127	0.118
-243.961	-155.883	0.064	-0.004
-242.946	800.000	-0.053	-0.192
-241.932	-200.000	0.036	0.172
-240.917	42.610	0.218	0.196
-239.903	85.768	0.110	0.119
-238.888	-146.510	-0.118	-0.010
-237.873	-200.000	0.002	0.169
-236.859	-200.000	0.006	-0.119
-235.844	-22.850	0.072	0.043
-234.830	176.289	0.042	0.060
-233.815	17.981	0.118	-0.093
-232.800	143.680	0.166	0.218
-231.786	-26.519	-0.036	0.021
-230.771	226.040	-0.091	0.146
-229.757	7.480	-0.310	0.228
-228.742	126.954	-0.070	-0.087
-227.727	800.000	-0.050	0.156
-226.713	-92.569	-0.152	-0.042
-225.698	-58.131	0.271	-0.116
-224.684	800.000	-0.031	-0.095
-223.669	-83.648	-0.190	0.060
-222.655	-135.527	0.253	0.030
-221.640	-200.000	-0.020	0.495
-220.625	39.132	0.284	0.250
-219.611	76.198	0.132	0.137
-218.596	-89.273	-0.238	-0.069
-217.582	121.615	-0.189	0.232
-216.567	-200.000	-0.009	-0.137
-215.552	-43.582	0.174	-0.087
-214.538	62.029	-0.275	0.270
-213.523	49.014	-0.194	0.179
-212.509	-67.023	0.231	-0.090
-211.494	120.450	0.154	0.188
-210.479	9.141	-0.068	0.050
-209.465	-200.000	0.025	0.307
-208.450	94.293	-0.196	0.219
-207.436	-86.189	-0.341	-0.103
-206.421	-89.772	-0.251	-0.072
-205.406	474.296	-0.077	0.171
-204.392	151.400	0.154	0.207
-203.377	460.190	0.061	-0.133
-202.363	-200.000	-0.044	-0.388
-201.348	-157.808	0.269	0.016
-200.333	592.857	0.107	-0.260
-199.319	-200.000	-0.050	0.221
-198.304	-200.000	0.084	-0.394
-197.290	79.084	-0.123	-0.130
-196.275	-36.565	0.158	-0.084
-195.260	-167.957	0.204	0.008
-194.246	-138.985	0.394	-0.042
-193.231	-200.000	-0.018	0.115
-192.217	-101.671	-0.249	0.059
-191.202	541.472	-0.131	-0.306
-190.187	13.285	0.308	-0.235
-189.173	55.714	-0.106	-0.101
-188.158	462.030	0.090	0.196
-187.144	-82.696	-0.295	-0.094
-186.129	-154.352	-0.333	0.022
-185.114	-92.498	0.187	-0.052
-184.100	800.000	-0.029	-0.082
-183.085	20.666	-0.266	-0.212
-182.071	-200.000	-0.009	0.069
-181.056	-200.000	-0.044	-0.234
-180.042	1.214	0.156	0.110
-179.027	-200.000	-0.002	0.044
-178.012	-12.644	0.095	0.061
-176.998	-200.000	0.006	0.055
-175.983	114.242	0.170	0.204
-174.969	-200.000	-0.018	0.287
-173.954	-200.000	-0.013	0.211
-172.939	800.000	-0.072	-0.256
-171.925	147.556	-0.184	-0.244
-170.910	13.130	-0.193	0.147
-169.896	-64.809	-0.307	-0.122
-168.881	-200.000	0.040	0.357
-167.866	-49.682	0.116	0.054
-166.852	99.579	-0.075	0.085
-165.837	169.686	0.210	0.294
-164.823	45.046	-0.179	-0.162
-163.808	-26.875	-0.267	-0.153
-162.793	121.543	0.118	0.144
-161.779	-22.611	-0.234	0.139
-160.764	-200.000	-0.017	-0.239
-159.750	41.858	0.183	-0.163
-158.735	605.595	-0.065	-0.159
-157.720	-65.685	-0.226	-0.089
-156.706	10.628	0.019	-0.014
-155.691	-69.287	0.219	-0.083
-154.677	-63.915	0.110	-0.044
-153.662	-200.000	-0.027	0.117
-152.647	-39.693	0.161	0.083
-151.633	484.451	-0.218	0.487
-150.618	-11.941	0.348	-0.224
-149.604	406.707	0.031	0.065
-148.589	369.788	-0.041	0.081
-147.574	-101.097	0.024	0.006
-146.560	55.572	-0.227	-0.215
-145.545	-176.480	-0.229	0.006
-144.531	131.606	0.111	-0.140
-143.516	-16.287	-0.031	0.019
-142.502	81.370	0.020	0.021
-141.487	190.945	0.119	-0.176
-140.472	-15.180	-0.282	-0.177
-139.458	-79.144	-0.071	0.024
-138.443	-35.976	0.055	-0.029
-137.429	39.570	-0.129	0.113
-136.414	-1.153	0.269	-0.187
-135.399	401.529	-0.050	0.102
-134.385	800.000	0.048	0.185
-133.370	82.521	-0.267	0.284
-132.356	287.938	-0.148	-0.262
-131.341	7.164	-0.168	-0.123
-130.326	-200.000	0.026	-0.272
-129.312	-98.895	-0.182	0.045
-128.297	-200.000	-0.011	-0.243
-127.283	-38.353	0.123	0.064
-126.268	219.956	0.055	-0.086
-125.253	55.757	-0.050	-0.047
-124.239	171.360	0.195	0.275
-123.224	460.269	-0.044	0.095
-122.210	274.157	0.176	-0.306
-121.195	-44.929	-0.289	-0.141
-120.180	156.214	0.272	0.368
