DTS Sentinel unit serial number:	SN413079Multiplexer serial number:	ORYXHardware model number:	OX4-SRSoftware version number:	ORYX F/W v4.00 Oryx Data Collector v3.7.2.0data status	okinstallation	princeton_trtdifferential loss correction	single-endedforward channel	channel 1reverse channel	N/Adate	2019/09/13time	12:34:35forward acquisition time	60.00reverse acquisition time	0.00gamma	496.2192k internal	0.2306k external	0.2306temperature offset calibration	1.0168default loss term (dB/km)	0.3790temperature slope calibration	1.0000multiplexer offset coefficient	1.0000multiplexer slope coefficient	1.0000fibre end	0.00T internal ref (°C)	34.50T ext. ref 1 (°C)	4.60T ext. ref 2 (°C)	31.51length (m)	temperature (°C)	Stokes	anti-Stokes-747.200	333.460	-0.011	-0.021
-746.185	-5.393	-0.207	0.145
-745.171	-42.766	0.162	0.084
-744.156	-114.411	-0.143	0.028
-743.142	800.000	-0.032	-0.093
-742.127	463.376	-0.097	0.220
-741.112	-125.135	0.082	0.013
-740.098	-51.322	0.421	0.200
-739.083	-31.041	-0.146	-0.084
-738.069	-127.651	0.285	0.042
-737.054	-34.469	0.061	-0.034
-736.039	800.000	0.046	-0.144
-735.025	38.613	0.073	-0.066
-734.010	171.094	-0.092	-0.135
-732.996	-200.000	0.000	-0.043
-731.981	3.512	0.120	-0.089
-730.966	-40.215	-0.242	0.128
-729.952	800.000	-0.089	0.311
-728.937	-16.800	-0.280	0.180
-727.923	-200.000	0.009	0.161
-726.908	446.299	0.061	-0.137
-725.894	256.632	-0.046	0.080
-724.879	-122.709	-0.042	-0.007
-723.864	225.331	0.170	0.280
-722.850	-200.000	-0.003	0.235
-721.835	-130.568	-0.241	0.033
-720.821	-137.606	-0.301	-0.035
-719.806	-200.000	0.029	-0.332
-718.791	18.823	-0.098	-0.079
-717.777	-97.661	-0.309	0.082
-716.762	-200.000	0.011	-0.404
-715.748	-200.000	-0.042	-0.426
-714.733	592.394	0.065	-0.162
-713.718	414.393	-0.113	0.246
-712.704	147.364	0.216	-0.296
-711.689	-131.510	-0.368	-0.049
-710.675	-86.736	-0.333	0.104
-709.660	103.773	-0.081	-0.096
-708.645	-200.000	0.040	0.204
-707.631	-126.657	-0.372	0.056
-706.616	94.448	0.158	0.183
-705.602	-90.926	0.215	0.063
-704.587	621.018	-0.114	-0.292
-703.572	-200.000	0.037	0.213
-702.558	-146.653	-0.048	0.004
-701.543	-200.000	-0.032	-0.166
-700.529	-200.000	-0.048	-0.277
-699.514	-176.597	-0.323	-0.008
-698.499	-53.132	0.327	0.152
-697.485	-19.917	-0.251	0.157
-696.470	-54.931	-0.174	-0.080
-695.456	-200.000	-0.005	-0.086
-694.441	-115.503	0.335	-0.064
-693.426	28.270	-0.270	-0.231
-692.412	24.127	-0.065	-0.054
-691.397	-10.028	0.375	0.253
-690.383	-32.483	-0.236	-0.134
-689.368	69.496	-0.236	-0.247
-688.354	132.214	-0.129	-0.168
-687.339	-168.960	0.481	0.018
-686.324	800.000	0.062	0.228
-685.310	-88.027	0.175	0.053
-684.295	-58.179	0.159	-0.070
-683.281	-87.611	-0.257	-0.079
-682.266	200.216	0.119	-0.186
-681.251	8.075	0.044	-0.034
-680.237	-81.998	-0.271	-0.090
-679.222	-149.684	0.154	0.012
-678.208	-75.413	0.222	-0.080
-677.193	579.859	-0.105	-0.261
-676.178	-130.803	0.165	-0.022
-675.164	-98.124	-0.174	-0.046
-674.149	-45.941	-0.150	-0.075
-673.135	-69.678	0.137	0.053
-672.120	-47.919	-0.083	0.041
-671.105	504.312	0.110	-0.258
-670.091	-200.000	-0.011	-0.121
-669.076	-49.039	0.146	0.071
-668.062	-200.000	0.049	-0.333
-667.047	763.018	-0.122	0.337
-666.032	-28.340	-0.160	-0.094
-665.018	-48.715	0.217	-0.106
-664.003	-200.000	-0.011	0.075
-662.989	-200.000	-0.017	-0.236
-661.974	-40.675	-0.301	-0.158
-660.959	10.018	0.119	0.091
-659.945	-200.000	-0.022	0.394
-658.930	189.007	-0.184	0.279
-657.916	179.515	0.102	-0.151
-656.901	51.727	0.207	0.199
-655.886	336.060	-0.102	0.201
-654.872	-200.000	0.004	-0.349
-653.857	800.000	-0.118	-0.356
-652.843	2.164	-0.379	0.277
-651.828	155.354	0.204	0.285
-650.814	-45.925	-0.279	0.139
-649.799	64.684	0.188	-0.192
-648.784	-57.646	-0.130	-0.058
-647.770	4.504	0.064	-0.048
-646.755	-200.000	-0.012	-0.186
-645.741	800.000	0.056	-0.196
-644.726	82.498	-0.098	-0.108
-643.711	-200.000	-0.015	-0.191
-642.697	-118.849	-0.218	0.039
-641.682	-200.000	0.030	0.256
-640.668	219.937	-0.054	-0.088
-639.653	37.684	0.339	-0.305
-638.638	-200.000	-0.035	-0.221
-637.624	3.220	0.074	0.054
-636.609	-8.093	0.260	-0.177
-635.595	-200.000	0.018	-0.243
-634.580	-49.043	-0.289	-0.140
-633.565	267.477	-0.016	-0.028
-632.551	-200.000	-0.029	-0.149
-631.536	-65.383	0.163	-0.067
-630.522	-19.231	-0.135	0.085
-629.507	-101.002	-0.104	0.026
-628.492	-159.512	-0.221	-0.012
-627.478	-200.000	0.029	-0.342
-626.463	667.541	0.097	0.255
-625.449	-45.530	0.175	0.088
-624.434	-161.966	-0.165	-0.008
-623.419	-86.175	0.132	-0.041
-622.405	-100.757	-0.063	0.016
-621.390	800.000	0.040	-0.162
-620.376	-79.519	-0.278	0.095
-619.361	-110.074	-0.230	-0.049
-618.346	-7.366	-0.162	-0.111
-617.332	160.146	-0.132	0.187
-616.317	800.000	0.110	0.434
-615.303	40.690	0.203	-0.185
-614.288	97.436	-0.227	-0.264
-613.273	397.004	-0.113	0.239
-612.259	-200.000	0.001	0.290
-611.244	-200.000	0.023	0.193
-610.230	-45.972	-0.256	-0.128
-609.215	-22.062	0.148	-0.091
-608.201	-200.000	-0.042	0.526
-607.186	59.484	-0.147	-0.146
-606.171	800.000	-0.061	-0.218
-605.157	88.588	-0.130	-0.147
-604.142	355.736	-0.030	-0.061
-603.128	203.227	-0.265	-0.414
-602.113	-200.000	0.039	-0.297
-601.098	800.000	0.113	-0.408
-600.084	-121.541	0.402	0.068
-599.069	0.503	0.146	-0.106
-598.055	-33.835	0.283	0.158
-597.040	800.000	0.044	0.125
-596.025	301.785	-0.078	-0.145
-595.011	296.691	0.146	0.272
-593.996	-6.515	0.110	0.076
-592.982	800.000	0.032	-0.123
-591.967	48.281	0.171	-0.162
-590.952	33.486	0.010	-0.009
-589.938	42.147	-0.123	0.113
-588.923	-133.762	0.098	-0.012
-587.909	-147.459	-0.050	-0.004
-586.894	800.000	-0.049	0.152
-585.879	128.441	0.045	0.058
-584.865	262.526	-0.163	-0.287
-583.850	-69.574	0.116	0.045
-582.836	4.288	-0.148	0.110
-581.821	-200.000	-0.018	-0.211
-580.806	-200.000	-0.028	-0.187
-579.792	800.000	-0.022	-0.064
-578.777	-97.517	0.359	-0.094
-577.763	-200.000	-0.012	0.096
-576.748	-19.150	0.194	-0.122
-575.733	-179.105	0.366	-0.008
-574.719	106.852	0.178	0.213
-573.704	-200.000	-0.048	0.683
-572.690	-61.395	-0.196	0.083
-571.675	230.016	-0.191	-0.316
-570.661	-200.000	-0.005	0.057
-569.646	-105.693	0.284	-0.065
-568.631	255.627	-0.248	-0.430
-567.617	-10.283	-0.193	-0.129
-566.602	-54.512	-0.295	-0.135
-565.588	391.444	-0.092	-0.193
-564.573	-172.409	0.316	0.010
-563.558	242.013	-0.074	0.124
-562.544	-119.983	-0.098	0.017
-561.529	-200.000	0.010	-0.122
-560.515	165.103	0.093	0.133
-559.500	800.000	0.107	0.302
-558.485	800.000	0.066	-0.211
-557.471	-61.766	0.127	-0.054
-556.456	-104.621	0.066	0.015
-555.442	-127.649	-0.158	0.023
-554.427	-34.277	0.086	0.048
-553.412	336.722	-0.123	-0.242
-552.398	-6.306	0.150	0.104
-551.383	-148.236	-0.488	-0.041
-550.369	-200.000	-0.016	0.136
-549.354	-51.188	-0.212	-0.100
-548.339	-200.000	0.008	-0.385
-547.325	-132.089	-0.266	-0.035
-546.310	-200.000	0.031	0.284
-545.296	224.160	-0.136	-0.221
-544.281	-61.065	0.092	0.039
-543.266	120.148	0.113	-0.142
-542.252	480.391	-0.096	-0.219
-541.237	93.124	-0.173	-0.197
-540.223	192.649	0.165	0.251
-539.208	0.895	-0.209	0.151
-538.193	-65.985	-0.201	-0.081
-537.179	-61.135	0.422	-0.180
-536.164	83.866	0.259	-0.286
-535.150	148.130	0.225	-0.306
-534.135	800.000	-0.035	0.099
-533.121	659.017	-0.039	0.102
-532.106	800.000	-0.128	0.366
-531.091	800.000	0.032	0.109
-530.077	-24.781	-0.344	-0.207
-529.062	-45.545	-0.254	0.127
-528.048	311.439	-0.102	0.193
-527.033	-115.297	-0.368	0.070
-526.018	-200.000	-0.017	-0.084
-525.004	13.022	-0.084	0.066
-523.989	800.000	-0.086	0.287
-522.975	255.786	-0.095	-0.164
-521.960	-122.218	-0.129	-0.021
-520.945	-200.000	0.041	-0.191
-519.931	-65.004	-0.404	0.165
-518.916	800.000	-0.100	-0.299
-517.902	-64.943	-0.222	-0.090
-516.887	800.000	0.098	-0.341
-515.872	-99.275	-0.204	-0.052
-514.858	32.411	-0.102	0.088
-513.843	-90.181	0.257	0.075
-512.829	284.177	0.076	0.138
-511.814	-124.812	-0.382	-0.059
-510.799	-115.571	-0.238	-0.045
-509.785	187.686	-0.164	0.247
-508.770	-200.000	0.002	0.138
-507.756	-167.911	0.028	-0.001
-506.741	-200.000	-0.068	-0.430
-505.726	-144.651	0.367	-0.034
-504.712	51.177	-0.222	0.213
-503.697	-200.000	0.039	-0.211
-502.683	800.000	-0.040	0.151
-501.668	109.464	0.191	0.231
-500.653	28.536	-0.214	0.182
-499.639	71.056	-0.085	-0.089
-498.624	-71.856	0.276	0.103
-497.610	-115.145	0.224	0.043
-496.595	137.084	-0.090	0.119
-495.581	-82.959	-0.270	0.088
-494.566	483.235	-0.091	0.208
-493.551	108.289	-0.139	0.167
-492.537	-200.000	-0.008	-0.160
-491.522	-28.652	-0.210	0.122
-490.508	-79.887	0.140	-0.047
-489.493	3.175	0.132	0.097
-488.478	-62.010	0.180	0.076
-487.464	-200.000	-0.045	-0.354
-486.449	-200.000	0.014	-0.089
-485.435	748.238	-0.125	-0.340
-484.420	-143.990	0.089	-0.008
-483.405	-70.129	-0.115	0.044
-482.391	7.433	0.243	0.183
-481.376	800.000	0.071	-0.266
-480.362	44.506	-0.058	0.054
-479.347	114.536	0.133	-0.163
-478.332	148.309	-0.058	0.079
-477.318	-141.512	0.319	-0.032
-476.303	93.377	-0.041	0.047
-475.289	-200.000	-0.031	0.259
-474.274	-103.459	0.218	0.052
-473.259	-86.462	-0.216	0.067
-472.245	-128.950	-0.086	0.012
-471.230	180.017	-0.048	-0.070
-470.216	107.298	-0.288	0.345
-469.201	266.222	-0.030	0.053
-468.186	-200.000	0.019	0.340
-467.172	-192.714	0.266	-0.002
-466.157	-200.000	0.007	0.181
-465.143	391.102	-0.044	0.092
-464.128	-37.421	0.235	-0.126
-463.113	-26.502	0.169	-0.100
-462.099	-200.000	-0.023	0.221
-461.084	488.759	0.128	0.294
-460.070	141.108	0.185	-0.247
-459.055	162.041	-0.053	-0.075
-458.040	573.165	-0.075	-0.184
-457.026	-200.000	0.060	-0.462
-456.011	-17.607	0.174	0.110
-454.997	-200.000	0.042	-0.197
-453.982	-99.130	0.121	-0.031
-452.968	397.255	-0.081	-0.169
-451.953	-62.049	-0.311	-0.131
-450.938	145.617	-0.245	0.330
-449.924	-51.281	-0.222	0.104
-448.909	800.000	0.077	-0.215
-447.895	-40.235	0.148	0.077
-446.880	800.000	0.022	-0.071
-445.865	-200.000	0.001	0.107
-444.851	60.122	0.041	0.041
-443.836	345.194	0.017	0.034
-442.822	478.564	-0.080	-0.181
-441.807	372.809	-0.103	0.210
-440.792	800.000	-0.083	0.257
-439.778	445.808	-0.107	0.237
-438.763	33.818	-0.114	-0.100
-437.749	67.300	0.159	-0.163
-436.734	-200.000	0.004	0.144
-435.719	146.417	-0.098	-0.132
-434.705	215.846	-0.205	-0.328
-433.690	25.667	0.183	-0.153
-432.676	32.591	-0.105	-0.091
-431.661	-50.685	0.272	-0.129
-430.646	-200.000	0.018	-0.174
-429.632	367.285	0.096	-0.194
-428.617	367.325	0.022	0.044
-427.603	0.862	-0.129	0.093
-426.588	-78.994	-0.010	-0.003
-425.573	21.453	0.339	0.277
-424.559	220.567	0.101	-0.163
-423.544	-55.568	0.351	0.158
-422.530	74.975	-0.108	0.114
-421.515	-86.347	0.108	0.033
-420.500	-108.642	-0.179	0.039
-419.486	-200.000	-0.033	0.228
-418.471	299.015	0.013	-0.025
-417.457	18.874	-0.172	-0.139
-416.442	-79.858	-0.119	-0.040
-415.428	281.476	0.052	0.094
-414.413	152.767	-0.175	0.241
-413.398	139.995	-0.217	0.287
-412.384	-147.408	0.088	0.007
-411.369	-95.791	0.243	0.065
-410.355	216.857	0.007	0.012
-409.340	119.811	-0.159	0.198
-408.325	144.826	-0.157	0.211
-407.311	121.105	-0.152	-0.190
-406.296	-60.923	0.299	0.127
-405.282	3.582	0.278	-0.204
-404.267	-104.779	0.169	-0.039
-403.252	-94.441	-0.086	-0.023
-402.238	-200.000	0.079	-0.382
-401.223	800.000	0.045	-0.169
-400.209	-44.342	0.105	-0.053
-399.194	64.644	0.188	0.191
-398.179	87.036	0.194	0.215
-397.165	-3.686	-0.295	-0.206
-396.150	25.157	-0.153	0.127
-395.136	11.470	-0.291	-0.224
-394.121	-200.000	-0.076	0.390
-393.106	800.000	0.068	0.285
-392.092	14.714	-0.141	-0.110
-391.077	35.639	-0.165	-0.145
-390.063	8.113	-0.057	0.043
-389.048	-47.918	-0.280	0.136
-388.033	-9.679	-0.217	0.145
-387.019	744.578	0.038	0.102
-386.004	-126.152	-0.296	0.044
-384.990	800.000	0.069	-0.288
-383.975	-99.649	0.111	-0.028
-382.960	-22.495	0.292	-0.177
-381.946	627.889	0.032	-0.081
-380.931	131.715	-0.063	0.081
-379.917	32.959	-0.460	0.400
-378.902	-119.292	-0.196	-0.034
-377.888	-200.000	-0.000	0.111
-376.873	-189.535	0.078	0.001
-375.858	789.124	0.109	0.299
-374.844	-200.000	0.016	0.284
-373.829	34.227	0.184	0.161
-372.815	-128.250	-0.047	-0.007
-371.800	68.421	0.077	-0.079
-370.785	68.342	0.218	-0.224
-369.771	-158.424	-0.369	0.021
-368.756	-81.826	-0.099	-0.033
-367.742	-200.000	-0.095	0.425
-366.727	116.777	-0.214	0.264
-365.712	800.000	-0.043	0.176
-364.698	119.206	0.251	0.311
-363.683	232.486	-0.204	0.336
-362.669	-159.111	0.170	-0.010
-361.654	-28.067	0.322	-0.187
-360.639	108.387	-0.060	-0.072
-359.625	-200.000	-0.001	-0.039
-358.610	800.000	-0.007	-0.023
-357.596	-86.615	-0.039	0.012
-356.581	40.253	-0.185	-0.167
-355.566	-59.259	-0.074	0.032
-354.552	241.617	0.025	-0.042
-353.537	-56.734	0.153	0.068
-352.523	-166.043	0.215	-0.009
-351.508	-4.702	0.089	-0.062
-350.493	-84.274	-0.179	0.057
-349.479	197.485	0.060	-0.092
-348.464	-200.000	0.012	-0.356
-347.450	-38.806	-0.356	-0.188
-346.435	-78.459	0.151	-0.052
-345.420	-200.000	-0.016	-0.316
-344.406	-57.622	-0.168	-0.074
-343.391	-200.000	-0.089	-0.393
-342.377	31.334	0.277	-0.238
-341.362	-58.887	-0.225	0.097
-340.348	-90.288	-0.159	-0.046
-339.333	-200.000	0.024	0.110
-338.318	-200.000	0.020	0.270
-337.304	-200.000	0.007	-0.115
-336.289	-200.000	-0.017	0.146
-335.275	-139.695	-0.122	0.013
-334.260	41.227	0.046	-0.042
-333.245	15.745	0.074	-0.059
-332.231	-102.016	-0.243	0.059
-331.216	-200.000	0.044	-0.257
-330.202	-63.753	-0.169	0.069
-329.187	611.437	-0.129	-0.324
-328.172	-76.248	0.188	-0.066
-327.158	123.774	0.152	0.192
-326.143	-57.366	-0.151	0.066
-325.129	33.402	-0.243	-0.211
-324.114	283.020	0.224	0.403
-323.099	-200.000	0.015	-0.359
-322.085	-14.704	-0.167	-0.108
-321.070	-97.374	0.102	-0.027
-320.056	-98.959	0.261	-0.066
-319.041	-200.000	0.032	-0.160
-318.026	800.000	-0.120	0.365
-317.012	-200.000	-0.009	0.069
-315.997	460.908	-0.133	-0.298
-314.983	-129.932	-0.351	0.048
-313.968	-61.912	0.012	-0.005
-312.953	63.066	0.177	0.177
-311.939	-110.902	0.315	0.065
-310.924	-176.025	-0.322	0.009
-309.910	10.621	0.170	0.129
-308.895	110.303	0.052	0.062
-307.880	266.440	-0.014	-0.024
-306.866	-109.466	0.388	0.082
-305.851	-200.000	-0.002	-0.115
-304.837	-39.292	0.235	-0.123
-303.822	262.237	0.217	0.376
-302.807	-200.000	0.045	-0.259
-301.793	-70.448	-0.189	-0.072
-300.778	588.932	0.094	0.231
-299.764	-18.065	-0.150	-0.094
-298.749	-46.666	0.402	-0.197
-297.735	29.658	0.255	-0.217
-296.720	701.099	-0.093	0.244
-295.705	-200.000	0.008	0.197
-294.691	251.831	0.069	-0.117
-293.676	-200.000	0.005	0.090
-292.662	-143.565	0.082	0.008
-291.647	147.898	0.254	-0.342
-290.632	361.281	-0.074	-0.149
-289.618	-200.000	-0.004	0.270
-288.603	-37.661	-0.202	-0.107
-287.589	539.538	-0.058	-0.137
-286.574	139.422	-0.253	-0.333
-285.559	186.798	-0.058	-0.086
-284.545	-200.000	-0.022	-0.131
-283.530	-69.961	0.167	-0.064
-282.516	800.000	0.023	0.088
-281.501	44.504	-0.247	-0.227
-280.486	51.504	-0.160	-0.152
-279.472	-200.000	0.063	0.286
-278.457	554.354	0.052	-0.126
-277.443	100.668	0.136	0.158
-276.428	72.858	-0.081	0.084
-275.413	630.574	0.081	-0.204
-274.399	-200.000	0.009	0.056
-273.384	-200.000	0.034	0.216
-272.370	-200.000	-0.011	-0.070
-271.355	-164.315	0.425	0.019
-270.340	-163.752	0.077	0.004
-269.326	100.802	-0.166	0.192
-268.311	-53.179	0.052	0.024
-267.297	-162.617	0.371	-0.018
-266.282	-20.196	0.248	0.153
-265.267	206.819	-0.195	-0.303
-264.253	800.000	-0.034	-0.144
-263.238	179.169	-0.017	0.025
-262.224	-14.375	0.162	0.104
-261.209	95.010	-0.118	-0.134
-260.195	-200.000	0.012	-0.301
-259.180	-200.000	0.033	-0.224
-258.165	705.912	0.166	0.438
-257.151	38.423	-0.249	0.222
-256.136	-200.000	-0.045	-0.216
-255.122	418.896	-0.193	-0.412
-254.107	14.011	-0.123	0.095
-253.092	151.382	-0.119	-0.162
-252.078	-15.702	-0.354	0.225
-251.063	84.827	0.236	-0.258
-250.049	-100.653	-0.421	0.104
-249.034	-98.113	-0.439	0.113
-248.019	-200.000	0.047	-0.233
-247.005	-101.405	0.174	-0.042
-245.990	202.191	0.165	0.255
-244.976	98.974	0.085	0.098
-243.961	-145.822	-0.181	0.016
-242.946	-31.082	-0.205	-0.115
-241.932	-48.052	0.360	0.173
-240.917	26.738	0.223	0.187
-239.903	-135.862	0.045	-0.005
-238.888	119.757	0.213	-0.263
-237.873	-102.327	0.390	0.093
-236.859	330.428	0.075	-0.145
-235.844	459.812	0.039	-0.086
-234.830	-200.000	-0.003	0.289
-233.815	193.536	-0.230	0.347
-232.800	800.000	-0.111	0.331
-231.786	212.661	0.233	0.367
-230.771	-8.151	-0.102	0.068
-229.757	-200.000	-0.040	0.244
-228.742	62.029	0.194	-0.193
-227.727	800.000	0.041	-0.141
-226.713	604.452	-0.065	-0.161
-225.698	800.000	0.034	0.139
-224.684	800.000	0.127	0.424
-223.669	58.553	0.184	-0.180
-222.655	120.379	-0.177	0.219
-221.640	792.763	0.143	0.393
-220.625	57.343	0.457	-0.445
-219.611	-200.000	-0.045	0.284
-218.596	565.132	-0.128	-0.310
-217.582	-137.830	0.203	-0.023
-216.567	217.143	-0.042	0.067
-215.552	2.287	0.296	0.213
-214.538	-200.000	-0.026	-0.268
-213.523	52.266	0.163	0.155
-212.509	62.713	0.283	-0.282
-211.494	168.446	0.122	-0.173
-210.479	100.546	0.012	-0.013
-209.465	370.302	-0.121	0.245
-208.450	-200.000	0.012	0.078
-207.436	65.214	-0.154	0.155
-206.421	-89.309	0.123	0.036
-205.406	154.983	-0.190	-0.260
-204.392	-65.836	0.240	-0.096
-203.377	624.139	0.045	0.113
-202.363	-200.000	0.012	0.090
-201.348	273.116	0.128	0.225
-200.333	-142.275	-0.338	0.033
-199.319	-173.339	-0.125	-0.004
-198.304	250.368	0.050	-0.085
-197.290	-126.113	-0.029	-0.004
-196.275	-200.000	-0.006	-0.133
-195.260	2.717	0.166	0.120
-194.246	87.748	-0.078	-0.086
-193.231	74.638	0.195	0.204
-192.217	77.172	-0.126	-0.133
-191.202	-2.735	0.244	0.170
-190.187	-35.481	-0.087	0.047
-189.173	-200.000	-0.020	0.152
-188.158	-200.000	-0.070	0.338
-187.144	-140.477	-0.184	-0.019
-186.129	-165.033	0.195	0.009
-185.114	-200.000	-0.033	0.170
-184.100	37.537	0.212	0.188
-183.085	800.000	-0.103	-0.395
-182.071	-115.653	0.099	-0.019
-181.056	-200.000	0.039	-0.170
-180.042	9.690	0.142	0.107
-179.027	150.952	0.060	-0.082
-178.012	800.000	0.052	-0.217
-176.998	-47.968	0.283	-0.136
-175.983	-130.450	0.222	0.030
-174.969	91.220	-0.233	0.260
-173.954	45.540	0.116	-0.107
-172.939	-129.202	-0.192	0.027
-171.925	-200.000	0.050	-0.256
-170.910	216.038	0.168	0.265
-169.896	95.041	0.193	0.219
-168.881	-200.000	-0.047	-0.216
-167.866	370.754	-0.054	0.109
-166.852	-34.972	0.187	0.102
-165.837	630.099	0.132	0.331
-164.823	-75.070	0.079	0.028
-163.808	407.663	-0.075	0.159
-162.793	-32.627	0.301	0.167
-161.779	-78.512	-0.188	-0.064
-160.764	420.756	-0.091	-0.194
-159.750	110.298	0.163	-0.194
-158.735	40.893	-0.370	0.332
-157.720	-91.749	0.055	0.015
-156.706	-200.000	-0.025	-0.191
-155.691	-200.000	-0.014	0.271
-154.677	66.718	-0.222	0.224
-153.662	33.997	0.171	0.148
-152.647	-79.045	0.285	-0.096
-151.633	-7.912	-0.281	0.189
-150.618	742.912	-0.151	0.404
-149.604	75.370	0.165	-0.173
-148.589	36.105	0.051	-0.044
-147.574	704.304	0.061	0.160
-146.560	-118.214	0.295	0.052
-145.545	38.658	-0.026	-0.023
-144.531	-91.872	-0.219	-0.062
-143.516	122.878	0.219	0.272
-142.502	590.202	0.155	0.379
-141.487	-22.651	0.287	0.173
-140.472	-200.000	-0.023	-0.128
-139.458	34.763	0.145	0.126
-138.443	9.175	-0.288	-0.216
-137.429	-147.923	0.174	0.014
-136.414	-140.472	0.263	-0.027
-135.399	-61.556	0.040	-0.017
-134.385	21.267	0.416	0.336
-133.370	-132.110	-0.079	-0.010
-132.356	800.000	-0.085	-0.271
-131.341	39.548	-0.255	-0.227
-130.326	800.000	0.071	0.224
-129.312	-200.000	0.058	0.387
-128.297	-56.264	0.383	0.169
-127.283	-83.993	0.209	0.066
-126.268	388.114	0.161	-0.331
-125.253	52.507	0.141	0.134
-124.239	-6.602	-0.074	0.050
-123.224	-200.000	0.000	-0.256
-122.210	-200.000	-0.006	0.047
-121.195	94.615	0.191	-0.215
