DTS Sentinel unit serial number:	SN413079Multiplexer serial number:	ORYXHardware model number:	OX4-SRSoftware version number:	ORYX F/W v4.00 Oryx Data Collector v3.7.2.0data status	okinstallation	princeton_trtdifferential loss correction	single-endedforward channel	channel 1reverse channel	N/Adate	2019/09/18time	18:58:35forward acquisition time	60.00reverse acquisition time	0.00gamma	496.2192k internal	0.2309k external	0.2309temperature offset calibration	1.0016default loss term (dB/km)	0.3790temperature slope calibration	1.0000multiplexer offset coefficient	1.0000multiplexer slope coefficient	1.0000fibre end	0.00T internal ref (°C)	36.23T ext. ref 1 (°C)	0.94T ext. ref 2 (°C)	25.38length (m)	temperature (°C)	Stokes	anti-Stokes-747.200	129.733	0.212	0.275
-746.185	43.960	-0.346	0.322
-745.171	22.478	-0.102	-0.085
-744.156	-145.424	-0.101	-0.009
-743.142	34.699	-0.079	0.070
-742.127	-79.801	-0.192	0.066
-741.112	-145.745	-0.154	-0.014
-740.098	-200.000	0.069	0.323
-739.083	-200.000	0.065	0.316
-738.069	-113.713	-0.214	0.042
-737.054	-83.202	0.458	-0.150
-736.039	-23.420	-0.362	-0.221
-735.025	-83.264	-0.235	-0.077
-734.010	-79.058	-0.097	-0.033
-732.996	63.773	0.122	0.124
-731.981	-200.000	0.063	-0.313
-730.966	-171.078	-0.199	-0.007
-729.952	-92.293	-0.362	0.104
-728.937	44.213	0.098	-0.091
-727.923	423.357	-0.097	0.213
-726.908	-121.145	-0.163	0.028
-725.894	115.499	-0.113	-0.140
-724.879	-200.000	0.030	0.250
-723.864	18.708	-0.129	0.105
-722.850	-56.297	-0.214	0.096
-721.835	800.000	-0.026	0.103
-720.821	800.000	0.115	0.344
-719.806	4.708	0.304	0.227
-718.791	-200.000	-0.026	-0.156
-717.777	190.839	0.127	-0.194
-716.762	-200.000	0.011	0.253
-715.748	6.142	-0.236	0.178
-714.733	532.099	0.084	0.202
-713.718	-127.754	0.157	0.023
-712.704	-200.000	0.007	0.326
-711.689	-30.437	-0.063	-0.036
-710.675	136.039	-0.144	-0.190
-709.660	182.084	0.091	0.135
-708.645	-18.362	-0.227	0.144
-707.631	539.494	0.099	0.239
-706.616	-168.394	-0.144	0.006
-705.602	-10.955	-0.169	-0.113
-704.587	-85.445	0.160	-0.051
-703.572	-71.730	0.162	0.061
-702.558	-102.239	-0.098	0.024
-701.543	-65.444	-0.083	-0.034
-700.529	-58.775	0.125	-0.055
-699.514	-89.470	0.198	0.059
-698.499	442.582	-0.090	-0.201
-697.485	296.375	0.050	0.092
-696.470	-200.000	-0.052	-0.278
-695.456	56.780	0.154	-0.152
-694.441	-48.520	0.076	0.037
-693.426	-133.286	-0.127	-0.016
-692.412	-200.000	0.014	0.088
-691.397	675.427	-0.111	-0.293
-690.383	129.767	-0.028	-0.036
-689.368	-21.932	-0.143	0.088
-688.354	618.709	0.069	-0.176
-687.339	-164.187	0.104	0.005
-686.324	124.454	0.149	-0.191
-685.310	210.549	-0.168	-0.267
-684.295	-200.000	-0.017	-0.179
-683.281	675.504	0.067	0.177
-682.266	-73.564	-0.160	-0.059
-681.251	-163.414	-0.412	0.020
-680.237	389.790	-0.138	-0.290
-679.222	800.000	0.102	-0.306
-678.208	800.000	-0.063	0.249
-677.193	-26.311	0.140	-0.083
-676.178	-28.733	0.126	-0.074
-675.164	-132.636	-0.255	0.033
-674.149	46.353	-0.239	0.224
-673.135	-149.668	0.419	-0.033
-672.120	-200.000	-0.021	0.134
-671.105	-84.483	0.128	-0.041
-670.091	-111.519	-0.198	-0.041
-669.076	265.998	-0.020	-0.035
-668.062	-132.060	-0.211	0.028
-667.047	-85.242	-0.223	-0.071
-666.032	129.702	-0.155	0.201
-665.018	-140.541	-0.195	0.020
-664.003	86.262	-0.026	-0.029
-662.989	-24.645	-0.352	0.212
-661.974	800.000	-0.057	-0.204
-660.959	-162.891	0.220	-0.011
-659.945	-11.470	-0.030	0.020
-658.930	-125.253	0.150	-0.023
-657.916	-4.473	-0.249	0.175
-656.901	-200.000	0.047	0.236
-655.886	-36.939	0.280	-0.152
-654.872	761.406	-0.172	-0.472
-653.857	-157.047	0.144	0.009
-652.843	259.539	-0.071	-0.125
-651.828	800.000	-0.026	-0.078
-650.814	591.006	0.089	0.223
-649.799	31.859	-0.220	0.192
-648.784	800.000	0.149	-0.423
-647.770	-163.031	0.106	-0.005
-646.755	-138.296	-0.104	-0.012
-645.741	408.760	-0.062	0.134
-644.726	-135.005	0.085	0.010
-643.711	-200.000	0.010	-0.132
-642.697	-3.540	-0.173	-0.121
-641.682	-73.079	-0.332	0.123
-640.668	-200.000	-0.035	-0.236
-639.653	-200.000	0.003	0.046
-638.638	414.309	-0.067	0.144
-637.624	36.701	-0.210	0.188
-636.609	-148.275	0.182	-0.015
-635.595	-200.000	0.049	-0.247
-634.580	-158.812	-0.291	-0.017
-633.565	-200.000	-0.025	0.162
-632.551	81.679	0.095	0.104
-631.536	800.000	0.055	0.183
-630.522	102.503	-0.058	-0.068
-629.507	-134.489	-0.248	0.031
-628.492	-200.000	0.055	-0.331
-627.478	114.781	-0.137	0.169
-626.463	-17.878	-0.344	-0.218
-625.449	161.624	0.017	0.024
-624.434	-200.000	0.001	0.039
-623.419	-6.646	0.351	-0.242
-622.405	800.000	-0.073	0.213
-621.390	37.004	-0.152	0.136
-620.376	762.131	-0.154	0.424
-619.361	450.079	0.101	-0.225
-618.346	800.000	-0.101	-0.402
-617.332	-70.521	0.023	-0.009
-616.317	-110.759	0.195	-0.041
-615.303	-27.478	-0.193	-0.113
-614.288	-45.665	0.177	-0.089
-613.273	-69.201	0.155	-0.060
-612.259	-36.641	0.262	0.143
-611.244	-147.671	-0.311	-0.026
-610.230	-86.341	0.139	-0.043
-609.215	293.770	-0.183	0.338
-608.201	-74.826	-0.163	-0.059
-607.186	-139.668	-0.056	0.006
-606.171	-200.000	0.059	-0.350
-605.157	-37.750	-0.151	-0.081
-604.142	-104.055	-0.256	-0.060
-603.128	47.456	-0.145	-0.137
-602.113	-130.102	0.241	0.033
-601.098	0.864	0.292	-0.211
-600.084	-75.458	-0.335	-0.121
-599.069	41.377	-0.140	-0.128
-598.055	-126.664	-0.188	-0.028
-597.040	-85.589	-0.242	-0.076
-596.025	230.838	0.036	-0.059
-595.011	-200.000	0.012	-0.099
-593.996	-62.396	-0.223	0.094
-592.982	-32.165	0.108	-0.061
-591.967	800.000	0.127	0.489
-590.952	295.031	0.012	-0.022
-589.938	800.000	0.044	0.146
-588.923	42.876	-0.267	-0.246
-587.909	-71.472	-0.075	-0.028
-586.894	-110.112	-0.200	-0.042
-585.879	31.211	-0.439	-0.380
-584.865	327.170	0.112	-0.216
-583.850	800.000	0.046	-0.151
-582.836	110.509	0.128	0.156
-581.821	-200.000	0.024	-0.132
-580.806	-20.176	0.083	0.052
-579.792	51.427	0.226	0.216
-578.777	219.793	-0.081	0.132
-577.763	126.691	-0.170	-0.217
-576.748	-200.000	-0.031	-0.179
-575.733	273.980	0.300	0.535
-574.719	800.000	-0.084	0.306
-573.704	-14.701	0.194	0.126
-572.690	-200.000	0.000	-0.153
-571.675	45.420	-0.108	-0.101
-570.661	10.775	-0.118	-0.091
-569.646	-200.000	-0.026	0.328
-568.631	-115.966	-0.187	-0.035
-567.617	-93.067	-0.084	0.024
-566.602	128.452	0.070	0.090
-565.588	-79.163	-0.298	-0.102
-564.573	-43.977	-0.280	-0.142
-563.558	-200.000	-0.044	0.285
-562.544	144.715	-0.074	-0.100
-561.529	-102.043	0.250	-0.061
-560.515	423.837	-0.155	-0.337
-559.500	675.291	-0.099	0.260
-558.485	-16.786	0.095	-0.060
-557.471	-200.000	-0.003	-0.017
-556.456	99.330	0.223	-0.260
-555.442	539.709	0.141	-0.339
-554.427	-200.000	0.007	-0.214
-553.412	-81.319	-0.049	-0.016
-552.398	-200.000	-0.002	0.061
-551.383	539.657	0.120	0.289
-550.369	800.000	-0.102	-0.291
-549.354	-200.000	0.027	-0.328
-548.339	-8.562	0.043	-0.029
-547.325	134.253	0.182	-0.238
-546.310	-62.950	-0.354	-0.148
-545.296	-135.582	0.416	0.050
-544.281	800.000	0.038	0.123
-543.266	242.055	-0.031	0.052
-542.252	-83.302	-0.442	-0.143
-541.237	-0.647	0.201	0.144
-540.223	-124.819	0.094	0.015
-539.208	51.679	0.215	-0.206
-538.193	-200.000	-0.016	0.133
-537.179	221.583	0.108	0.175
-536.164	-200.000	-0.027	0.155
-535.150	-200.000	-0.036	-0.207
-534.135	289.522	-0.045	0.082
-533.121	-98.548	-0.269	-0.069
-532.106	354.119	0.202	0.405
-531.091	-95.607	-0.394	-0.106
-530.077	800.000	0.024	-0.075
-529.062	-53.097	-0.241	-0.112
-528.048	-82.822	0.022	0.007
-527.033	395.234	-0.152	-0.320
-526.018	-100.070	0.152	-0.038
-525.004	-73.475	-0.143	-0.052
-523.989	-57.099	-0.154	0.068
-522.975	-143.223	0.107	-0.010
-521.960	-76.793	-0.078	-0.027
-520.945	-85.496	-0.080	-0.025
-519.931	39.618	-0.066	0.060
-518.916	-71.748	-0.138	-0.052
-517.902	800.000	0.082	-0.244
-516.887	199.566	-0.170	0.262
-515.872	17.828	0.095	0.076
-514.858	336.721	0.127	-0.249
-513.843	120.782	-0.117	-0.146
-512.829	800.000	0.050	-0.150
-511.814	-59.643	0.207	0.090
-510.799	-93.960	-0.365	0.101
-509.785	-76.303	0.177	-0.063
-508.770	-16.722	-0.197	0.125
-507.756	79.331	-0.228	0.246
-506.741	-200.000	-0.027	0.163
-505.726	33.701	-0.158	0.138
-504.712	237.837	0.063	-0.105
-503.697	-56.290	0.102	-0.045
-502.683	63.354	-0.063	-0.064
-501.668	60.246	-0.139	0.139
-500.653	-40.330	0.208	0.109
-499.639	449.368	-0.077	0.171
-498.624	117.004	0.062	-0.077
-497.610	-200.000	-0.019	-0.175
-496.595	-160.017	0.278	0.015
-495.581	800.000	-0.042	0.165
-494.566	16.162	-0.379	0.301
-493.551	269.037	0.124	0.218
-492.537	166.730	0.072	0.103
-491.522	-106.928	-0.123	0.027
-490.508	119.216	0.093	0.115
-489.493	20.955	0.132	0.108
-488.478	-200.000	0.013	-0.081
-487.464	800.000	-0.046	0.183
-486.449	-200.000	0.052	0.264
-485.435	-137.166	0.162	0.019
-484.420	-200.000	0.011	0.055
-483.405	-128.533	-0.497	0.071
-482.391	-105.651	-0.280	-0.064
-481.376	-12.041	-0.282	0.186
-480.362	-83.404	-0.020	0.007
-479.347	800.000	0.126	-0.372
-478.332	-2.706	0.080	-0.056
-477.318	85.007	-0.105	-0.115
-476.303	-29.080	0.573	0.331
-475.289	-46.034	0.125	0.062
-474.274	-120.765	-0.150	-0.025
-473.259	-40.377	-0.176	0.092
-472.245	-17.919	-0.213	-0.134
-471.230	-100.126	-0.311	0.078
-470.216	75.565	-0.199	0.212
-469.201	-105.442	-0.207	0.047
-468.186	800.000	0.053	0.156
-467.172	-200.000	-0.019	-0.130
-466.157	64.285	0.170	0.172
-465.143	-77.261	0.293	-0.103
-464.128	185.998	0.055	0.083
-463.113	-195.836	-0.188	-0.001
-462.099	-135.968	-0.348	-0.041
-461.084	-13.398	-0.148	0.096
-460.070	-75.090	-0.173	0.062
-459.055	-200.000	-0.034	-0.288
-458.040	-129.016	0.412	-0.058
-457.026	-188.717	-0.227	0.003
-456.011	57.079	0.111	0.109
-454.997	295.008	0.125	-0.230
-453.982	800.000	-0.045	0.144
-452.968	-62.037	0.176	0.074
-451.953	354.160	0.071	0.142
-450.938	-2.684	-0.285	-0.200
-449.924	-78.270	0.198	0.068
-448.909	-97.576	0.365	0.095
-447.895	109.510	0.085	0.102
-446.880	83.858	-0.077	-0.085
-445.865	-147.750	-0.512	-0.043
-444.851	-9.068	-0.112	-0.075
-443.836	-29.590	0.123	0.070
-442.822	-200.000	-0.018	-0.148
-441.807	457.850	0.090	0.201
-440.792	-72.743	0.490	-0.181
-439.778	-200.000	0.034	0.222
-438.763	-67.913	-0.182	0.072
-437.749	68.946	0.138	-0.142
-436.734	10.761	-0.121	-0.092
-435.719	-200.000	0.037	-0.200
-434.705	800.000	0.051	0.150
-433.690	-200.000	0.024	-0.200
-432.676	86.478	0.080	0.089
-431.661	-110.132	-0.221	0.046
-430.646	594.569	0.069	-0.173
-429.632	-58.657	-0.071	0.031
-428.617	-200.000	-0.012	0.150
-427.603	-92.477	0.420	0.118
-426.588	-125.650	-0.240	-0.037
-425.573	-98.405	-0.277	-0.071
-424.559	-172.645	-0.207	0.007
-423.544	-148.583	0.258	-0.021
-422.530	-88.971	-0.470	0.140
-421.515	-200.000	-0.038	-0.250
-420.500	-62.350	-0.112	0.047
-419.486	-200.000	0.032	0.234
-418.471	-13.100	-0.189	0.123
-417.457	422.253	0.045	0.098
-416.442	-42.235	0.148	-0.076
-415.428	323.711	0.103	-0.198
-414.413	-90.784	-0.155	-0.045
-413.398	2.283	0.197	-0.143
-412.384	-133.661	0.337	-0.042
-411.369	-200.000	-0.015	0.557
-410.355	-160.939	-0.237	-0.012
-409.340	-28.380	-0.143	-0.083
-408.325	800.000	0.022	0.073
-407.311	-128.006	0.222	0.032
-406.296	119.620	0.037	0.046
-405.282	4.056	0.143	-0.105
-404.267	-42.969	0.169	-0.086
-403.252	575.746	-0.008	0.020
-402.238	-28.626	0.228	-0.132
-401.223	-200.000	-0.018	0.110
-400.209	519.341	-0.089	-0.208
-399.194	-57.029	0.313	-0.138
-398.179	-200.000	-0.031	0.197
-397.165	-200.000	0.037	0.270
-396.150	212.091	0.198	-0.313
-395.136	-174.606	-0.301	0.009
-394.121	-149.550	0.246	-0.019
-393.106	-150.228	0.446	-0.035
-392.092	-38.198	0.305	-0.162
-391.077	-161.962	-0.335	-0.017
-390.063	76.133	0.183	-0.195
-389.048	427.481	-0.052	-0.112
-388.033	-200.000	0.083	0.590
-387.019	-200.000	-0.035	0.362
-386.004	-167.762	0.090	-0.004
-384.990	123.496	-0.174	-0.219
-383.975	800.000	0.052	-0.219
-382.960	-133.331	-0.464	0.059
-381.946	-133.735	-0.267	0.033
-380.931	209.187	0.096	-0.151
-379.917	-126.188	0.235	0.035
-378.902	-10.966	-0.193	0.128
-377.888	119.290	-0.068	0.084
-376.873	191.654	0.105	0.158
-375.858	-200.000	0.019	-0.191
-374.844	-38.290	0.128	0.068
-373.829	-19.010	-0.100	-0.062
-372.815	137.218	0.231	0.302
-371.800	217.632	-0.255	0.407
-370.785	348.859	0.054	-0.107
-369.771	631.796	0.104	0.265
-368.756	218.840	0.094	-0.150
-367.742	105.422	0.377	-0.445
-366.727	107.536	-0.179	-0.213
-365.712	30.461	0.074	-0.063
-364.698	-6.738	0.237	-0.161
-363.683	212.510	0.083	-0.130
-362.669	800.000	0.011	0.043
-361.654	-75.650	0.218	-0.078
-360.639	800.000	0.050	-0.139
-359.625	-88.590	-0.213	-0.064
-358.610	135.143	0.066	-0.086
-357.596	16.555	-0.391	-0.309
-356.581	-19.641	-0.166	-0.103
-355.566	-200.000	0.002	0.111
-354.552	691.554	-0.009	-0.024
-353.537	205.300	0.041	-0.064
-352.523	-200.000	-0.016	-0.098
-351.508	800.000	-0.101	-0.437
-350.493	120.039	-0.076	0.094
-349.479	-200.000	-0.023	0.193
-348.464	-200.000	0.041	-0.251
-347.450	-200.000	0.031	-0.240
-346.435	109.404	0.088	0.105
-345.420	361.720	0.111	0.223
-344.406	800.000	-0.051	-0.182
-343.391	-10.545	-0.219	-0.145
-342.377	-49.549	-0.127	0.061
-341.362	-75.599	0.320	0.114
-340.348	42.506	-0.112	-0.102
-339.333	-23.892	0.192	0.115
-338.318	587.578	-0.148	-0.365
-337.304	-200.000	0.421	0.000
-336.289	8.043	0.065	-0.049
-335.275	-34.049	-0.261	0.144
-334.260	51.570	-0.280	0.266
-333.245	-200.000	-0.050	0.446
-332.231	-200.000	0.021	0.235
-331.216	-138.599	-0.481	0.053
-330.202	-200.000	-0.006	-0.375
-329.187	745.440	0.041	-0.112
-328.172	-75.389	0.178	-0.063
-327.158	-86.295	0.203	-0.062
-326.143	316.176	-0.107	-0.201
-325.129	50.770	0.114	-0.108
-324.114	32.869	-0.077	-0.067
-323.099	-60.127	-0.078	-0.033
-322.085	352.790	0.056	-0.112
-321.070	-194.714	-0.225	0.002
-320.056	-5.710	0.132	0.091
-319.041	-154.259	0.068	0.005
-318.026	29.221	0.216	0.183
-317.012	252.220	-0.032	-0.055
-315.997	125.053	-0.237	0.299
-314.983	284.819	-0.169	-0.303
-313.968	56.777	-0.089	0.087
-312.953	-93.596	0.332	-0.092
-311.939	302.898	-0.196	0.363
-310.924	-139.939	-0.246	-0.026
-309.910	-200.000	0.033	0.158
-308.895	698.747	-0.053	0.138
-307.880	40.973	0.124	-0.112
-306.866	-173.136	0.243	-0.007
-305.851	267.663	0.026	-0.046
-304.837	39.956	-0.176	-0.158
-303.822	-200.000	-0.007	-0.167
-302.807	86.189	0.069	0.076
-301.793	800.000	-0.039	0.129
-300.778	227.914	0.105	-0.170
-299.764	205.641	-0.197	-0.306
-298.749	175.716	-0.153	0.222
-297.735	800.000	0.124	0.345
-296.720	800.000	-0.071	0.289
-295.705	40.849	0.048	-0.043
-294.691	-200.000	-0.057	-0.400
-293.676	142.802	0.009	0.011
-292.662	-200.000	-0.017	0.000
-291.647	-182.838	-0.249	-0.004
-290.632	185.630	0.324	0.480
-289.618	19.649	0.238	0.191
-288.603	297.081	0.127	-0.232
-287.589	-112.906	-0.277	-0.055
-286.574	-200.000	-0.002	0.179
-285.559	259.486	-0.075	0.129
-284.545	136.785	0.040	-0.052
-283.530	-200.000	-0.015	-0.145
-282.516	800.000	-0.113	0.340
-281.501	-166.707	0.323	0.013
-280.486	800.000	0.081	-0.264
-279.472	-43.741	-0.289	0.145
-278.457	-48.516	0.246	-0.118
-277.443	8.849	-0.109	-0.082
-276.428	800.000	-0.038	-0.125
-275.413	148.984	0.045	-0.061
-274.399	-127.739	0.435	0.063
-273.384	306.732	-0.163	-0.303
-272.370	43.881	-0.276	0.252
-271.355	-56.366	-0.331	-0.147
-270.340	-90.514	0.183	-0.053
-269.326	-135.901	0.611	-0.072
-268.311	114.708	0.078	0.095
-267.297	-200.000	-0.009	0.163
-266.282	-63.276	-0.215	0.088
-265.267	800.000	-0.083	0.332
-264.253	-55.513	0.169	-0.076
-263.238	-155.196	-0.212	-0.014
-262.224	-101.202	0.269	-0.066
-261.209	-64.091	0.063	-0.026
-260.195	-119.144	0.283	0.049
-259.180	-145.506	0.192	0.017
-258.165	-160.416	-0.169	0.009
-257.151	451.682	0.106	0.234
-256.136	376.961	-0.061	0.125
-255.122	209.674	0.242	-0.378
-254.107	-128.804	0.128	0.018
-253.092	-5.640	0.085	0.058
-252.078	170.464	0.300	-0.428
-251.063	62.749	0.100	0.100
-250.049	103.901	0.150	-0.176
-249.034	-11.855	-0.215	-0.140
-248.019	53.648	0.065	-0.062
-247.005	-200.000	-0.002	-0.026
-245.990	-200.000	-0.004	0.202
-244.976	800.000	0.013	-0.046
-243.961	-76.628	0.297	-0.104
-242.946	-22.679	-0.225	-0.136
-241.932	-200.000	0.015	0.268
-240.917	-135.208	0.117	-0.014
-239.903	356.408	0.190	0.377
-238.888	185.097	0.214	-0.316
-237.873	215.178	0.015	-0.023
-236.859	242.689	0.058	-0.098
-235.844	424.749	0.067	0.143
-234.830	-104.148	0.060	0.014
-233.815	-93.328	0.127	0.035
-232.800	380.823	-0.019	0.040
-231.786	-200.000	-0.014	0.068
-230.771	-24.226	0.228	-0.136
-229.757	-3.788	-0.123	0.085
-228.742	-117.735	0.133	0.024
-227.727	-188.200	0.224	-0.003
-226.713	99.437	-0.250	-0.288
-225.698	44.304	0.213	0.194
-224.684	74.360	-0.160	0.167
-223.669	-34.876	-0.109	-0.059
-222.655	125.703	0.176	-0.221
-221.640	-177.739	0.192	-0.005
-220.625	45.743	-0.019	0.018
-219.611	-200.000	0.002	0.177
-218.596	-153.578	0.226	0.016
-217.582	-48.965	-0.209	0.100
-216.567	-200.000	0.019	0.108
-215.552	214.337	-0.104	0.164
-214.538	-89.014	-0.162	0.048
-213.523	800.000	0.083	-0.332
-212.509	-72.058	-0.192	-0.071
-211.494	-70.736	0.117	-0.044
-210.479	-88.244	0.277	0.083
-209.465	428.781	-0.066	-0.143
-208.450	800.000	-0.080	-0.242
-207.436	11.721	0.347	0.265
-206.421	-158.442	-0.214	-0.012
-205.406	-200.000	0.033	0.192
-204.392	-200.000	0.061	0.317
-203.377	376.332	0.107	-0.216
-202.363	259.353	0.091	-0.155
-201.348	60.075	0.162	0.159
-200.333	-24.546	0.112	-0.066
-199.319	76.685	0.188	-0.199
-198.304	-200.000	0.009	-0.105
-197.290	546.641	0.020	-0.048
-196.275	-40.708	-0.304	-0.157
-195.260	443.594	-0.032	-0.070
-194.246	237.395	0.181	0.298
-193.231	520.432	-0.136	0.316
-192.217	402.308	0.145	-0.303
-191.202	310.231	0.133	0.248
-190.187	366.214	0.258	0.517
-189.173	800.000	0.169	0.565
-188.158	121.000	-0.095	0.118
-187.144	375.788	0.090	-0.182
-186.129	-20.285	0.107	-0.065
-185.114	-141.474	-0.177	0.018
-184.100	393.517	-0.066	-0.137
-183.085	800.000	0.055	0.204
-182.071	800.000	0.039	0.165
-181.056	-130.500	-0.277	0.037
-180.042	-156.623	-0.167	-0.010
-179.027	395.923	0.040	-0.083
-178.012	-200.000	0.032	-0.197
-176.998	-200.000	-0.044	-0.268
-175.983	-5.566	0.371	0.253
-174.969	-120.784	0.289	0.049
-173.954	-136.761	0.200	-0.023
-172.939	-92.254	0.134	-0.038
-171.925	800.000	-0.066	-0.241
-170.910	-85.619	-0.108	-0.033
-169.896	-200.000	-0.004	0.035
-168.881	313.253	0.125	0.234
-167.866	-20.174	-0.284	-0.174
-166.852	-200.000	-0.023	-0.349
-165.837	293.652	-0.055	0.100
-164.823	27.126	0.046	0.038
-163.808	-64.745	0.238	0.096
-162.793	-139.332	0.038	-0.004
-161.779	7.778	0.158	0.118
-160.764	800.000	0.051	0.214
-159.750	-45.430	0.075	-0.037
-158.735	33.771	0.089	0.077
-157.720	-163.427	-0.289	-0.014
-156.706	195.818	-0.130	-0.197
-155.691	310.532	-0.158	0.294
-154.677	-33.214	-0.165	-0.091
-153.662	246.031	0.054	0.090
-152.647	-200.000	-0.048	0.287
-151.633	-39.691	0.095	0.049
-150.618	-53.114	-0.239	0.109
-149.604	-59.106	-0.354	-0.151
-148.589	-105.658	0.190	-0.043
-147.574	-118.659	-0.183	0.032
-146.560	203.540	-0.006	0.009
-145.545	-200.000	-0.039	0.309
-144.531	-73.043	0.060	-0.022
-143.516	-68.332	-0.222	0.086
-142.502	-17.565	0.261	0.163
-141.487	72.301	-0.257	-0.266
-140.472	800.000	0.059	0.224
-139.458	-200.000	-0.004	-0.179
-138.443	405.830	0.036	-0.076
-137.429	147.876	0.178	0.239
-136.414	626.714	0.051	0.127
-135.399	-200.000	-0.028	-0.304
-134.385	-200.000	-0.020	0.116
-133.370	-200.000	0.043	0.334
-132.356	253.088	-0.135	-0.229
-131.341	-150.146	-0.267	-0.021
-130.326	-143.828	0.321	0.030
-129.312	58.455	0.062	0.060
-128.297	173.999	-0.032	-0.045
-127.283	800.000	-0.009	0.028
-126.268	-91.874	-0.126	0.035
-125.253	1.933	-0.134	-0.096
-124.239	800.000	0.055	0.156
-123.224	-47.329	0.191	0.092
-122.210	-200.000	-0.008	0.160
