DTS Sentinel unit serial number:	SN413079Multiplexer serial number:	ORYXHardware model number:	OX4-SRSoftware version number:	ORYX F/W v4.00 Oryx Data Collector v3.7.2.0data status	okinstallation	princeton_trtdifferential loss correction	single-endedforward channel	channel 1reverse channel	N/Adate	2019/09/16time	11:10:35forward acquisition time	60.00reverse acquisition time	0.00gamma	496.2192k internal	0.2299k external	0.2299temperature offset calibration	0.9969default loss term (dB/km)	0.3790temperature slope calibration	1.0000multiplexer offset coefficient	1.0000multiplexer slope coefficient	1.0000fibre end	0.00T internal ref (°C)	37.11T ext. ref 1 (°C)	12.82T ext. ref 2 (°C)	33.29length (m)	temperature (°C)	Stokes	anti-Stokes-747.200	10.449	0.125	0.097
-746.185	186.691	-0.194	0.295
-745.171	763.708	0.172	0.476
-744.156	800.000	-0.114	0.367
-743.142	198.067	0.173	0.269
-742.127	800.000	0.075	0.227
-741.112	-200.000	-0.022	-0.272
-740.098	-200.000	0.039	-0.201
-739.083	-58.560	-0.229	-0.101
-738.069	-15.023	0.154	0.100
-737.054	-200.000	-0.051	0.299
-736.039	159.954	0.095	-0.136
-735.025	-64.260	0.234	0.097
-734.010	-77.109	-0.400	-0.142
-732.996	475.376	0.151	-0.347
-731.981	214.613	0.168	-0.271
-730.966	504.625	-0.123	-0.291
-729.952	25.202	0.098	0.083
-728.937	-14.435	0.083	0.054
-727.923	155.197	0.119	-0.167
-726.908	-26.528	-0.278	-0.166
-725.894	-17.014	-0.306	0.197
-724.879	189.668	-0.003	0.005
-723.864	56.135	0.253	0.250
-722.850	124.996	0.222	-0.285
-721.835	86.755	-0.199	0.223
-720.821	135.787	0.151	-0.201
-719.806	-153.641	0.183	-0.013
-718.791	247.250	-0.036	0.061
-717.777	-4.888	-0.215	0.151
-716.762	800.000	-0.068	-0.229
-715.748	380.868	0.093	-0.194
-714.733	17.788	-0.119	-0.097
-713.718	410.847	0.195	0.421
-712.704	-162.818	-0.151	0.007
-711.689	80.162	-0.138	0.151
-710.675	-48.510	0.236	0.116
-709.660	-200.000	0.021	0.377
-708.645	-75.847	-0.113	0.041
-707.631	17.904	0.096	-0.078
-706.616	-173.722	0.164	-0.005
-705.602	-200.000	-0.146	0.000
-704.587	-110.396	0.368	-0.078
-703.572	-104.834	0.130	0.031
-702.558	-82.181	0.079	-0.026
-701.543	129.271	-0.216	-0.280
-700.529	-200.000	0.048	-0.306
-699.514	49.229	-0.264	0.253
-698.499	13.230	-0.100	-0.079
-697.485	-106.367	0.114	-0.026
-696.470	-142.121	-0.200	0.020
-695.456	120.621	0.166	-0.210
-694.441	100.535	0.039	-0.046
-693.426	133.125	0.193	0.254
-692.412	252.983	-0.135	-0.235
-691.397	41.029	-0.132	-0.121
-690.383	20.629	0.177	-0.146
-689.368	-5.612	-0.261	0.183
-688.354	-119.955	-0.442	-0.077
-687.339	-17.138	0.212	-0.136
-686.324	800.000	-0.060	-0.196
-685.310	-200.000	-0.008	-0.152
-684.295	18.211	-0.432	0.351
-683.281	-93.653	-0.097	-0.027
-682.266	-200.000	-0.057	0.299
-681.251	235.217	0.169	0.283
-680.237	96.529	0.060	-0.070
-679.222	-12.517	0.092	0.061
-678.208	-157.709	0.136	0.008
-677.193	-84.283	0.238	0.077
-676.178	-30.217	-0.256	-0.148
-675.164	59.345	-0.396	-0.397
-674.149	800.000	-0.066	0.279
-673.135	13.251	0.166	-0.131
-672.120	-60.780	-0.168	0.072
-671.105	800.000	0.083	-0.292
-670.091	150.044	-0.162	-0.224
-669.076	-200.000	-0.015	-0.265
-668.062	800.000	-0.064	0.285
-667.047	-16.807	-0.272	-0.175
-666.032	35.393	0.153	-0.137
-665.018	800.000	-0.051	-0.189
-664.003	136.445	0.177	0.235
-662.989	14.820	-0.045	-0.036
-661.974	-61.740	0.180	0.077
-660.959	79.827	0.131	0.143
-659.945	-200.000	0.043	0.339
-658.930	104.678	-0.111	0.133
-657.916	800.000	-0.057	-0.189
-656.901	49.070	-0.052	-0.049
-655.886	-104.120	0.022	0.005
-654.872	-200.000	-0.000	0.158
-653.857	-24.573	0.235	0.142
-652.843	-81.580	-0.144	0.048
-651.828	-94.661	-0.226	0.063
-650.814	464.788	-0.080	0.183
-649.799	-18.603	0.171	-0.109
-648.784	-200.000	0.008	-0.126
-647.770	-144.478	-0.108	-0.010
-646.755	769.375	0.042	-0.116
-645.741	-200.000	-0.018	-0.480
-644.726	337.682	0.008	0.015
-643.711	52.087	0.067	0.065
-642.697	-144.522	0.070	0.007
-641.682	-5.403	-0.059	-0.041
-640.668	525.179	-0.006	0.015
-639.653	248.570	0.103	0.178
-638.638	-170.763	0.201	0.007
-637.624	-33.278	-0.297	-0.167
-636.609	-48.587	-0.027	0.013
-635.595	-88.760	-0.281	0.085
-634.580	-122.762	0.113	0.019
-633.565	81.704	-0.226	-0.248
-632.551	239.066	0.064	0.108
-631.536	528.016	0.040	-0.095
-630.522	344.160	-0.130	0.259
-629.507	78.276	0.079	-0.085
-628.492	-93.513	0.268	0.075
-627.478	-120.222	-0.264	0.046
-626.463	-200.000	-0.062	-0.285
-625.449	-118.081	0.166	-0.030
-624.434	64.707	-0.136	0.139
-623.419	115.673	-0.071	-0.089
-622.405	792.297	0.097	-0.270
-621.390	-109.191	0.212	0.046
-620.376	413.349	0.080	-0.173
-619.361	-200.000	0.009	-0.092
-618.346	130.470	-0.061	-0.080
-617.332	-91.928	0.337	-0.097
-616.317	-64.135	0.105	-0.044
-615.303	-96.620	0.450	-0.120
-614.288	-7.352	0.143	0.099
-613.273	-200.000	-0.036	-0.437
-612.259	376.643	-0.086	0.179
-611.244	-1.165	-0.143	0.103
-610.230	73.395	-0.020	0.021
-609.215	13.727	-0.106	0.084
-608.201	324.019	0.055	-0.106
-607.186	-175.884	-0.189	0.005
-606.171	299.675	0.106	0.199
-605.157	-66.786	-0.303	-0.122
-604.142	3.538	-0.195	0.144
-603.128	112.551	-0.100	0.123
-602.113	701.968	0.164	0.439
-601.098	433.717	0.061	0.133
-600.084	800.000	-0.111	0.417
-599.069	-200.000	-0.056	-0.262
-598.055	332.968	0.076	0.148
-597.040	-98.823	-0.195	-0.050
-596.025	97.833	0.050	0.059
-595.011	78.150	0.090	0.097
-593.996	11.036	-0.590	0.457
-592.982	450.997	-0.076	0.171
-591.967	-200.000	0.006	0.473
-590.952	10.504	-0.183	0.142
-589.938	800.000	0.071	-0.231
-588.923	76.207	-0.096	-0.103
-587.909	621.037	0.047	-0.119
-586.894	800.000	0.077	0.234
-585.879	52.558	-0.313	0.303
-584.865	-116.059	-0.492	0.093
-583.850	-21.787	-0.068	0.042
-582.836	800.000	0.030	-0.131
-581.821	-123.515	0.257	-0.041
-580.806	28.781	-0.066	-0.057
-579.792	-123.391	-0.206	-0.033
-578.777	-200.000	-0.019	0.268
-577.763	800.000	-0.089	-0.338
-576.748	29.363	-0.092	-0.079
-575.733	-200.000	0.051	-0.232
-574.719	-65.686	-0.306	0.124
-573.704	800.000	0.099	0.297
-572.690	-14.144	0.118	-0.077
-571.675	-142.792	0.172	0.017
-570.661	-107.773	0.190	0.042
-569.646	-162.183	-0.151	0.008
-568.631	84.277	-0.093	-0.103
-567.617	436.476	0.302	0.667
-566.602	26.724	-0.305	0.259
-565.588	287.655	-0.063	0.115
-564.573	-200.000	-0.004	0.137
-563.558	-19.592	-0.250	0.157
-562.544	-200.000	0.075	-0.395
-561.529	-127.121	-0.466	0.069
-560.515	116.941	-0.112	0.139
-559.500	226.653	-0.101	-0.166
-558.485	103.871	-0.071	-0.084
-557.471	-200.000	0.008	-0.179
-556.456	173.091	0.043	0.063
-555.442	-200.000	-0.001	-0.031
-554.427	-200.000	-0.022	0.145
-553.412	282.837	0.111	0.202
-552.398	211.409	0.188	0.299
-551.383	104.595	-0.073	0.088
-550.369	35.332	-0.200	-0.178
-549.354	19.118	0.224	-0.182
-548.339	-200.000	-0.031	0.264
-547.325	800.000	0.036	-0.105
-546.310	-200.000	-0.054	-0.483
-545.296	-7.418	-0.071	0.049
-544.281	-200.000	0.000	0.151
-543.266	-142.087	0.333	0.033
-542.252	239.825	-0.094	0.158
-541.237	38.256	0.080	-0.072
-540.223	-49.414	0.128	0.062
-539.208	-92.576	0.243	-0.069
-538.193	-102.838	-0.184	-0.044
-537.179	-200.000	-0.060	-0.324
-536.164	217.629	0.087	0.140
-535.150	-63.634	-0.266	0.111
-534.135	-93.468	-0.281	-0.079
-533.121	-174.634	0.178	-0.005
-532.106	-200.000	-0.014	0.550
-531.091	-8.137	-0.195	0.133
-530.077	-134.439	0.140	-0.017
-529.062	-9.561	-0.388	0.262
-528.048	-130.435	0.068	-0.009
-527.033	-156.955	0.068	-0.004
-526.018	-110.466	0.256	-0.054
-525.004	319.778	0.128	0.245
-523.989	-131.158	0.137	0.018
-522.975	-99.870	0.056	-0.014
-521.960	6.432	0.041	0.031
-520.945	434.430	-0.084	-0.185
-519.931	-14.239	0.167	-0.109
-518.916	-104.358	0.040	0.009
-517.902	-30.774	0.229	0.131
-516.887	-195.709	0.296	-0.002
-515.872	-13.156	0.169	-0.111
-514.858	-200.000	0.012	-0.311
-513.843	-40.540	-0.218	0.114
-512.829	-23.468	0.198	0.120
-511.814	800.000	-0.066	-0.268
-510.799	52.522	-0.212	-0.205
-509.785	-200.000	-0.020	0.158
-508.770	321.455	0.194	0.374
-507.756	6.435	-0.212	-0.159
-506.741	577.927	0.025	0.061
-505.726	-38.851	0.148	0.079
-504.712	107.614	-0.141	-0.169
-503.697	20.002	0.154	-0.126
-502.683	-200.000	0.005	-0.283
-501.668	166.428	0.072	-0.104
-500.653	-200.000	-0.041	-0.188
-499.639	800.000	-0.021	0.094
-498.624	64.847	0.095	-0.096
-497.610	-104.896	-0.316	-0.073
-496.595	-96.553	0.054	0.014
-495.581	25.249	-0.175	-0.147
-494.566	5.939	-0.198	-0.148
-493.551	7.458	0.549	-0.415
-492.537	129.799	-0.035	-0.045
-491.522	-200.000	0.137	0.000
-490.508	-58.826	-0.184	0.081
-489.493	-200.000	-0.046	-0.330
-488.478	135.334	-0.147	-0.194
-487.464	81.129	-0.195	-0.213
-486.449	-93.208	0.122	0.034
-485.435	140.180	0.125	0.167
-484.420	-200.000	0.007	-0.274
-483.405	-200.000	0.024	0.485
-482.391	0.683	0.092	0.066
-481.376	-120.427	0.332	-0.057
-480.362	774.699	0.061	-0.167
-479.347	444.818	-0.093	0.205
-478.332	-113.869	-0.206	0.040
-477.318	-64.958	0.220	0.090
-476.303	-6.348	-0.249	-0.172
-475.289	-200.000	0.000	-0.072
-474.274	100.245	-0.094	-0.110
-473.259	-120.988	0.032	0.005
-472.245	226.033	-0.128	-0.210
-471.230	581.359	-0.070	-0.174
-470.216	-200.000	-0.027	-0.125
-469.201	511.157	0.021	0.050
-468.186	-200.000	-0.072	-0.361
-467.172	50.991	0.080	-0.076
-466.157	-32.554	0.234	-0.132
-465.143	-54.461	0.450	0.206
-464.128	800.000	-0.021	-0.069
-463.113	487.778	0.236	-0.543
-462.099	111.628	0.230	-0.280
-461.084	468.509	0.070	-0.158
-460.070	-200.000	-0.010	-0.096
-459.055	58.694	-0.096	0.095
-458.040	85.580	0.238	0.263
-457.026	93.526	0.175	-0.200
-456.011	800.000	-0.063	-0.220
-454.997	-170.792	-0.113	0.004
-453.982	247.337	-0.092	-0.157
-452.968	-99.866	0.025	-0.006
-451.953	-195.821	-0.174	0.001
-450.938	-200.000	-0.005	0.133
-449.924	-107.228	0.068	0.015
-448.909	-1.913	-0.186	-0.132
-447.895	-67.442	0.333	-0.132
-446.880	-2.299	-0.123	0.087
-445.865	-51.457	-0.325	0.153
-444.851	-128.700	-0.218	0.031
-443.836	-18.030	-0.230	-0.146
-442.822	233.407	0.071	-0.118
-441.807	-43.629	-0.183	-0.093
-440.792	800.000	-0.032	-0.135
-439.778	328.384	-0.160	-0.309
-438.763	-47.407	-0.101	-0.049
-437.749	127.542	-0.311	0.398
-436.734	-66.443	-0.155	-0.062
-435.719	-136.066	-0.077	-0.009
-434.705	800.000	-0.113	0.352
-433.690	96.765	0.264	0.305
-432.676	-200.000	0.047	0.288
-431.661	180.812	0.193	0.286
-430.646	-90.919	-0.200	0.058
-429.632	-40.941	0.141	-0.074
-428.617	800.000	0.053	0.223
-427.603	-16.550	0.209	-0.133
-426.588	32.328	0.040	-0.035
-425.573	-181.537	-0.412	0.008
-424.559	150.067	-0.159	0.217
-423.544	546.566	-0.179	-0.431
-422.530	97.679	-0.101	0.117
-421.515	701.065	0.176	0.467
-420.500	800.000	-0.032	0.112
-419.486	-37.087	-0.273	0.147
-418.471	132.496	0.076	0.099
-417.457	-49.508	-0.245	0.118
-416.442	66.199	-0.119	0.122
-415.428	370.678	-0.132	-0.269
-414.413	-108.540	-0.170	0.037
-413.398	-106.616	0.301	0.067
-412.384	-200.000	0.035	0.205
-411.369	-75.359	0.315	0.113
-410.355	-151.434	0.243	-0.018
-409.340	-156.643	0.285	-0.018
-408.325	-131.331	-0.273	0.036
-407.311	-71.859	-0.170	-0.064
-406.296	82.656	0.030	0.032
-405.282	-139.791	-0.339	-0.036
-404.267	197.954	0.198	-0.304
-403.252	-67.814	0.261	0.103
-402.238	800.000	-0.091	0.256
-401.223	217.442	0.126	0.202
-400.209	-93.403	0.229	-0.064
-399.194	-88.565	0.157	-0.047
-398.179	277.220	0.076	0.136
-397.165	-200.000	0.064	0.327
-396.150	-11.924	0.301	0.199
-395.136	59.057	0.186	-0.184
-394.121	-17.347	0.177	0.112
-393.106	-200.000	-0.013	-0.140
-392.092	210.046	0.136	-0.215
-391.077	-15.405	-0.184	-0.118
-390.063	-98.533	-0.026	-0.007
-389.048	13.216	-0.221	0.172
-388.033	-200.000	-0.054	0.309
-387.019	51.163	-0.159	0.152
-386.004	-84.403	-0.414	0.132
-384.990	-177.926	-0.232	-0.006
-383.975	29.216	0.186	0.158
-382.960	264.036	0.054	0.095
-381.946	87.010	-0.142	0.157
-380.931	-20.775	-0.369	0.227
-379.917	128.038	0.094	-0.120
-378.902	43.042	0.213	-0.195
-377.888	800.000	-0.044	0.151
-376.873	3.792	0.289	-0.212
-375.858	79.655	-0.263	0.284
-374.844	-11.672	0.107	0.071
-373.829	-106.264	-0.209	-0.047
-372.815	107.164	0.020	-0.023
-371.800	800.000	0.022	0.092
-370.785	-38.231	-0.058	0.031
-369.771	-139.731	-0.136	-0.014
-368.756	-104.132	0.024	-0.006
-367.742	261.384	-0.065	0.113
-366.727	-200.000	0.001	0.051
-365.712	17.546	0.063	0.050
-364.698	14.371	-0.299	-0.234
-363.683	-31.164	0.134	-0.076
-362.669	-200.000	0.048	-0.270
-361.654	309.902	-0.144	-0.270
-360.639	-130.034	-0.177	-0.024
-359.625	-139.436	-0.428	-0.046
-358.610	-87.936	-0.109	-0.033
-357.596	6.425	-0.142	0.106
-356.581	-72.347	-0.286	-0.106
-355.566	461.855	0.133	0.299
-354.552	184.317	0.104	0.155
-353.537	-3.309	-0.077	0.054
-352.523	-200.000	0.022	0.234
-351.508	-96.444	0.067	0.018
-350.493	53.789	-0.053	-0.052
-349.479	358.406	0.069	-0.139
-348.464	38.840	-0.180	-0.161
-347.450	-44.780	-0.458	-0.229
-346.435	-120.148	-0.353	0.061
-345.420	186.063	0.205	-0.307
-344.406	-44.110	-0.309	0.156
-343.391	800.000	-0.106	-0.353
-342.377	-200.000	0.017	0.360
-341.362	800.000	0.122	-0.441
-340.348	800.000	0.066	-0.264
-339.333	598.972	-0.117	0.291
-338.318	-37.125	-0.111	-0.059
-337.304	800.000	0.045	0.185
-336.289	146.240	0.163	0.220
-335.275	-96.813	-0.274	-0.072
-334.260	-103.554	-0.068	-0.016
-333.245	-200.000	-0.057	0.415
-332.231	65.909	0.121	0.123
-331.216	432.912	0.094	-0.205
-330.202	45.659	-0.389	-0.361
-329.187	98.059	0.197	-0.227
-328.172	69.181	-0.043	-0.045
-327.158	800.000	0.031	-0.126
-326.143	91.898	0.181	0.204
-325.129	-38.295	-0.159	-0.085
-324.114	800.000	-0.103	0.360
-323.099	608.481	0.093	0.233
-322.085	-200.000	-0.008	0.079
-321.070	-101.533	0.516	0.126
-320.056	-200.000	0.036	0.396
-319.041	204.359	0.144	0.224
-318.026	-23.514	-0.232	-0.140
-317.012	800.000	0.081	-0.256
-315.997	-81.893	0.093	0.031
-314.983	27.304	0.231	0.195
-313.968	-90.288	0.228	0.067
-312.953	148.260	0.288	-0.390
-311.939	-95.931	-0.309	0.082
-310.924	-156.825	-0.119	-0.007
-309.910	-135.553	0.456	0.054
-308.895	33.373	-0.262	-0.228
-307.880	324.770	-0.119	-0.228
-306.866	34.670	-0.192	0.169
-305.851	800.000	-0.091	-0.296
-304.837	-123.872	-0.163	0.026
-303.822	45.335	-0.071	0.066
-302.807	110.048	0.084	-0.102
-301.793	256.844	0.181	-0.311
-300.778	-128.721	0.151	0.021
-299.764	64.543	0.176	-0.178
-298.749	-42.567	0.037	-0.019
-297.735	102.558	-0.087	-0.102
-296.720	192.954	-0.206	-0.312
-295.705	-171.557	0.239	0.008
-294.691	15.086	-0.170	-0.133
-293.676	786.956	-0.071	0.195
-292.662	713.434	-0.084	-0.224
-291.647	800.000	0.128	-0.394
-290.632	800.000	0.041	0.156
-289.618	-200.000	-0.044	-0.225
-288.603	-118.206	-0.449	0.080
-287.589	420.975	-0.177	0.381
-286.574	-87.728	-0.358	0.108
-285.559	-200.000	0.002	0.156
-284.545	223.591	0.150	-0.242
-283.530	-11.156	0.271	-0.179
-282.516	-179.174	0.142	0.003
-281.501	243.722	-0.131	-0.220
-280.486	-200.000	0.012	0.331
-279.472	800.000	-0.095	0.340
-278.457	113.515	0.214	0.260
-277.443	-200.000	0.039	0.293
-276.428	-112.485	0.095	-0.019
-275.413	-178.817	0.153	-0.003
-274.399	-82.970	0.326	-0.105
-273.384	-194.274	0.229	-0.002
-272.370	-200.000	-0.024	0.197
-271.355	69.965	0.101	-0.105
-270.340	-0.093	-0.161	0.115
-269.326	224.441	-0.035	-0.057
-268.311	62.467	-0.155	-0.155
-267.297	-200.000	-0.025	-0.175
-266.282	-108.377	0.138	0.030
-265.267	-170.689	-0.324	-0.011
-264.253	-197.054	0.125	0.001
-263.238	56.157	0.173	0.168
-262.224	-57.735	0.283	-0.124
-261.209	178.855	-0.066	-0.096
-260.195	-200.000	-0.034	0.237
-259.180	800.000	-0.051	-0.142
-258.165	-141.971	-0.045	-0.005
-257.151	20.491	-0.215	-0.174
-256.136	-65.357	0.360	-0.145
-255.122	133.371	0.249	0.322
-254.107	69.795	0.175	0.181
-253.092	-65.119	0.336	-0.136
-252.078	-51.636	0.171	-0.080
-251.063	-87.343	0.324	0.098
-250.049	602.455	0.140	-0.348
-249.034	-158.183	0.308	0.018
-248.019	-78.585	0.226	0.077
-247.005	655.073	-0.051	-0.131
-245.990	13.357	-0.302	0.234
-244.976	335.379	0.096	0.187
-243.961	6.681	-0.209	-0.156
-242.946	800.000	-0.100	-0.325
-241.932	1.179	0.255	0.183
-240.917	-13.566	-0.278	-0.180
-239.903	-200.000	0.065	-0.332
-238.888	-33.571	-0.261	-0.144
-237.873	-71.744	-0.218	-0.081
-236.859	800.000	0.030	0.124
-235.844	-22.896	-0.268	-0.162
-234.830	-0.386	-0.296	0.211
-233.815	-105.311	-0.118	0.027
-232.800	-200.000	-0.036	-0.267
-231.786	-27.464	-0.189	0.110
-230.771	427.551	0.064	0.137
-229.757	800.000	-0.057	-0.168
-228.742	625.985	0.164	0.414
-227.727	-62.527	-0.243	-0.101
-226.713	115.784	0.074	0.090
-225.698	-93.459	0.226	-0.063
-224.684	-128.629	-0.319	-0.045
-223.669	800.000	0.069	-0.250
-222.655	80.389	-0.182	-0.196
-221.640	188.093	-0.114	0.170
-220.625	-132.692	0.153	-0.020
-219.611	17.478	0.262	-0.208
-218.596	800.000	-0.098	-0.320
-217.582	-28.759	0.115	0.066
-216.567	-72.927	0.269	-0.099
-215.552	-11.691	-0.120	0.079
-214.538	-136.063	0.203	0.024
-213.523	-51.852	0.081	0.037
-212.509	405.236	-0.127	-0.267
-211.494	24.052	0.024	-0.020
-210.479	59.638	-0.327	0.323
-209.465	338.112	0.154	-0.299
-208.450	-142.430	0.428	-0.042
-207.436	31.117	0.081	-0.070
-206.421	-64.410	0.252	-0.102
-205.406	-177.827	0.195	-0.005
-204.392	-102.509	-0.312	-0.074
-203.377	83.199	0.086	-0.094
-202.363	-138.383	0.030	0.003
-201.348	-62.007	0.359	-0.150
-200.333	-200.000	0.002	-0.202
-199.319	800.000	0.079	0.306
-198.304	333.289	0.185	0.357
-197.290	210.498	-0.217	-0.341
-196.275	102.776	0.183	-0.213
-195.260	328.969	-0.049	-0.095
-194.246	-14.846	0.320	0.205
-193.231	8.843	0.319	0.240
-192.217	-30.467	0.397	0.225
-191.202	-99.356	0.117	-0.029
-190.187	800.000	0.074	-0.218
-189.173	8.941	0.184	0.139
-188.158	-77.564	-0.080	-0.028
-187.144	-70.761	0.012	-0.005
-186.129	382.985	0.089	-0.183
-185.114	39.548	-0.063	0.056
-184.100	53.674	0.076	-0.072
-183.085	-157.310	-0.166	-0.010
-182.071	-200.000	0.027	0.262
-181.056	-98.147	0.192	-0.049
-180.042	800.000	0.085	-0.242
-179.027	50.254	0.309	0.292
-178.012	-179.695	-0.161	0.003
-176.998	-114.595	0.179	-0.034
-175.983	379.421	-0.072	-0.147
-174.969	-3.988	-0.271	0.187
-173.954	8.581	0.204	0.153
-172.939	-200.000	0.053	0.326
-171.925	9.633	0.230	0.174
-170.910	376.363	-0.185	0.376
-169.896	-55.610	-0.056	0.025
-168.881	-57.307	0.169	0.074
-167.866	-200.000	0.009	0.073
-166.852	-63.483	0.183	-0.075
-165.837	-127.018	-0.033	-0.005
-164.823	7.190	0.109	0.081
-163.808	-200.000	-0.017	0.181
-162.793	17.373	-0.124	0.098
-161.779	172.260	0.092	-0.132
-160.764	-122.272	-0.333	-0.054
-159.750	118.561	-0.068	-0.083
-158.735	-64.963	-0.286	-0.115
-157.720	445.536	0.065	0.141
-156.706	-159.336	-0.358	-0.020
-155.691	381.631	-0.050	0.103
-154.677	148.091	0.040	-0.054
-153.662	-130.684	0.149	-0.020
-152.647	-40.812	0.499	-0.258
-151.633	-200.000	-0.009	0.044
-150.618	-200.000	-0.001	0.342
-149.604	-200.000	-0.080	0.397
-148.589	-66.427	0.178	-0.071
-147.574	-200.000	0.018	-0.332
-146.560	345.725	-0.068	0.134
-145.545	-109.904	0.129	-0.027
-144.531	-50.111	-0.149	-0.070
-143.516	-11.161	0.130	0.085
-142.502	-119.257	0.030	-0.005
-141.487	151.581	0.142	-0.193
-140.472	49.999	0.122	0.115
-139.458	-110.518	0.407	0.084
-138.443	-115.191	-0.189	0.036
-137.429	-200.000	-0.016	0.111
-136.414	205.144	0.199	-0.308
-135.399	123.271	-0.074	0.092
-134.385	86.794	-0.126	-0.138
-133.370	187.801	0.145	-0.215
-132.356	-200.000	-0.002	0.097
-131.341	-137.013	0.279	-0.032
-130.326	-186.235	0.221	-0.003
-129.312	-200.000	-0.036	0.228
-128.297	316.397	0.072	0.136
-127.283	566.314	-0.014	-0.034
-126.268	54.627	-0.133	-0.128
-125.253	-56.258	-0.087	0.039
-124.239	-200.000	-0.011	0.335
-123.224	-83.217	-0.177	-0.057
-122.210	109.210	-0.109	-0.130
-121.195	64.447	-0.063	-0.063
-120.180	-3.893	-0.222	-0.153
