DTS Sentinel unit serial number:	SN413079Multiplexer serial number:	ORYXHardware model number:	OX4-SRSoftware version number:	ORYX F/W v4.00 Oryx Data Collector v3.7.2.0data status	okinstallation	princeton_trtdifferential loss correction	single-endedforward channel	channel 1reverse channel	N/Adate	2019/09/15time	22:58:35forward acquisition time	60.00reverse acquisition time	0.00gamma	496.2192k internal	0.2331k external	0.2331temperature offset calibration	0.9966default loss term (dB/km)	0.3790temperature slope calibration	1.0000multiplexer offset coefficient	1.0000multiplexer slope coefficient	1.0000fibre end	0.00T internal ref (°C)	28.62T ext. ref 1 (°C)	8.95T ext. ref 2 (°C)	22.20length (m)	temperature (°C)	Stokes	anti-Stokes-747.200	65.348	0.227	0.231
-746.185	491.775	-0.118	0.272
-745.171	-5.714	0.038	-0.026
-744.156	85.390	-0.067	0.074
-743.142	-6.249	-0.390	0.268
-742.127	-28.007	-0.297	0.173
-741.112	-128.647	0.212	0.030
-740.098	32.526	-0.234	0.204
-739.083	-104.546	0.092	-0.021
-738.069	335.177	-0.179	0.348
-737.054	-41.551	0.219	0.114
-736.039	-28.977	-0.363	0.210
-735.025	-103.432	0.349	0.083
-734.010	-200.000	-0.045	0.256
-732.996	-200.000	0.032	-0.206
-731.981	-8.375	-0.126	-0.085
-730.966	-54.001	-0.289	-0.132
-729.952	-85.837	-0.174	0.054
-728.937	288.159	-0.105	-0.192
-727.923	23.311	0.131	0.108
-726.908	-159.096	0.098	0.006
-725.894	-198.795	-0.302	-0.002
-724.879	-31.910	0.167	0.094
-723.864	734.562	-0.110	-0.297
-722.850	323.624	-0.073	0.141
-721.835	-200.000	-0.024	0.157
-720.821	381.205	-0.083	0.171
-719.806	152.480	-0.269	-0.369
-718.791	-200.000	0.026	0.194
-717.777	-45.114	0.034	0.017
-716.762	-114.324	-0.068	0.013
-715.748	-73.165	-0.101	-0.037
-714.733	52.455	0.159	-0.152
-713.718	-18.776	-0.218	-0.137
-712.704	551.629	0.055	-0.133
-711.689	-200.000	0.000	-0.005
-710.675	-174.869	0.150	0.004
-709.660	449.220	0.075	-0.167
-708.645	-145.726	-0.218	0.020
-707.631	800.000	0.088	0.258
-706.616	21.676	0.085	0.070
-705.602	-200.000	-0.038	-0.372
-704.587	-49.762	-0.083	-0.039
-703.572	-61.530	0.130	0.055
-702.558	800.000	-0.032	-0.112
-701.543	-160.397	-0.117	0.006
-700.529	800.000	-0.182	0.532
-699.514	-97.216	0.051	-0.013
-698.499	48.666	-0.098	-0.092
-697.485	-39.436	-0.307	-0.162
-696.470	111.520	0.069	-0.084
-695.456	-200.000	0.001	-0.133
-694.441	-200.000	0.018	-0.191
-693.426	-83.102	-0.047	0.015
-692.412	-32.075	0.045	0.025
-691.397	-73.324	-0.454	-0.167
-690.383	800.000	-0.046	-0.173
-689.368	11.015	0.109	-0.083
-688.354	374.529	-0.038	-0.077
-687.339	-66.009	-0.118	-0.047
-686.324	800.000	-0.037	-0.126
-685.310	213.859	0.101	-0.160
-684.295	-170.026	0.172	-0.006
-683.281	-200.000	0.037	0.263
-682.266	-89.448	0.224	0.066
-681.251	151.125	0.195	0.266
-680.237	-141.681	0.095	-0.010
-679.222	-200.000	0.125	-0.580
-678.208	-46.337	0.198	0.098
-677.193	183.312	0.116	0.172
-676.178	572.053	0.090	-0.219
-675.164	-121.137	0.343	-0.058
-674.149	-20.413	-0.312	0.193
-673.135	-68.040	-0.104	-0.041
-672.120	77.430	0.104	-0.111
-671.105	173.884	0.103	0.149
-670.091	-103.712	0.646	-0.152
-669.076	-42.849	-0.376	-0.191
-668.062	800.000	0.035	-0.119
-667.047	4.141	0.043	-0.031
-666.032	48.733	-0.069	0.065
-665.018	-200.000	0.016	0.186
-664.003	-53.753	-0.079	0.036
-662.989	-200.000	0.023	-0.182
-661.974	-200.000	0.008	0.216
-660.959	-66.606	-0.280	0.111
-659.945	52.924	0.101	-0.096
-658.930	540.497	0.076	0.182
-657.916	-38.917	-0.252	-0.133
-656.901	-154.411	-0.059	0.004
-655.886	151.669	-0.290	-0.396
-654.872	800.000	-0.010	0.038
-653.857	-25.894	-0.290	0.171
-652.843	-76.475	0.152	-0.053
-651.828	141.883	0.199	0.264
-650.814	-200.000	-0.009	-0.372
-649.799	107.237	-0.176	-0.210
-648.784	30.771	-0.161	-0.138
-647.770	30.481	0.036	-0.031
-646.755	123.033	0.219	-0.275
-645.741	708.560	-0.034	-0.089
-644.726	800.000	0.026	-0.098
-643.711	-35.372	-0.230	0.125
-642.697	257.181	0.144	0.248
-641.682	-200.000	0.008	-0.209
-640.668	-128.522	0.114	-0.016
-639.653	-200.000	0.005	0.074
-638.638	-141.219	0.181	-0.018
-637.624	800.000	0.129	0.496
-636.609	-200.000	-0.011	0.259
-635.595	594.990	0.010	-0.025
-634.580	72.008	0.151	0.157
-633.565	-89.462	0.171	0.050
-632.551	147.388	-0.256	-0.345
-631.536	75.150	0.086	-0.091
-630.522	0.259	0.042	-0.030
-629.507	-138.303	-0.281	-0.031
-628.492	230.424	0.070	0.115
-627.478	-200.000	0.041	-0.336
-626.463	98.389	-0.088	0.101
-625.449	-126.010	-0.120	0.018
-624.434	95.830	-0.144	-0.164
-623.419	-200.000	-0.017	0.086
-622.405	-2.580	0.295	-0.207
-621.390	126.943	0.075	0.095
-620.376	-200.000	-0.009	0.250
-619.361	-108.442	-0.357	0.077
-618.346	-200.000	-0.002	-0.023
-617.332	-61.640	0.260	-0.109
-616.317	73.361	-0.134	0.141
-615.303	-61.510	-0.250	-0.105
-614.288	494.929	-0.133	-0.306
-613.273	790.539	0.105	0.288
-612.259	800.000	0.101	-0.328
-611.244	-43.475	0.174	0.088
-610.230	-103.687	0.328	0.077
-609.215	216.576	-0.094	0.150
-608.201	-138.604	0.170	0.019
-607.186	238.628	0.075	-0.125
-606.171	800.000	-0.053	-0.160
-605.157	205.498	-0.162	-0.251
-604.142	800.000	-0.074	-0.234
-603.128	-49.666	0.204	0.097
-602.113	800.000	0.017	-0.062
-601.098	-63.432	-0.216	-0.089
-600.084	-200.000	0.013	-0.369
-599.069	-37.842	-0.141	-0.075
-598.055	800.000	-0.059	-0.183
-597.040	415.661	-0.060	0.127
-596.025	392.558	0.197	-0.410
-595.011	-81.790	0.130	0.043
-593.996	-200.000	0.027	-0.123
-592.982	-200.000	-0.041	0.183
-591.967	-145.110	0.087	-0.008
-590.952	80.819	0.075	-0.080
-589.938	-138.886	0.104	-0.011
-588.923	57.311	0.097	0.095
-587.909	234.361	0.174	-0.286
-586.894	-152.940	-0.091	0.006
-585.879	2.427	0.326	0.236
-584.865	-170.433	0.231	0.008
-583.850	-200.000	0.070	0.441
-582.836	-200.000	-0.028	0.334
-581.821	-28.772	-0.096	0.055
-580.806	-197.227	0.198	-0.001
-579.792	-153.376	0.236	0.016
-578.777	800.000	-0.071	0.291
-577.763	-141.103	0.151	0.015
-576.748	29.421	-0.124	0.105
-575.733	800.000	0.097	0.344
-574.719	145.022	0.145	-0.194
-573.704	-55.715	-0.331	-0.148
-572.690	-111.980	0.266	-0.054
-571.675	-27.422	0.160	-0.093
-570.661	-200.000	0.001	0.005
-569.646	-67.688	-0.339	-0.133
-568.631	800.000	-0.071	0.213
-567.617	495.446	-0.054	-0.125
-566.602	797.391	0.045	-0.124
-565.588	-99.813	-0.107	0.027
-564.573	-145.036	-0.285	-0.026
-563.558	800.000	-0.010	0.039
-562.544	293.355	-0.136	0.247
-561.529	-18.524	-0.094	-0.059
-560.515	132.136	-0.173	0.222
-559.500	312.164	0.017	-0.032
-558.485	800.000	0.020	0.061
-557.471	-70.476	0.091	-0.034
-556.456	41.353	0.107	-0.097
-555.442	47.281	-0.128	-0.119
-554.427	150.627	-0.135	-0.183
-553.412	0.859	0.341	0.244
-552.398	800.000	-0.015	-0.061
-551.383	240.061	-0.182	0.303
-550.369	-73.570	-0.118	-0.043
-549.354	4.296	-0.133	0.097
-548.339	800.000	0.008	0.031
-547.325	-90.606	0.163	0.047
-546.310	3.489	0.050	-0.036
-545.296	800.000	-0.028	0.117
-544.281	204.989	0.042	0.065
-543.266	165.168	-0.186	-0.262
-542.252	-108.525	-0.298	-0.064
-541.237	59.454	-0.085	-0.084
-540.223	412.942	0.081	0.172
-539.208	800.000	-0.046	0.128
-538.193	175.755	-0.180	-0.261
-537.179	-200.000	-0.038	0.180
-536.164	800.000	-0.020	-0.079
-535.150	241.306	-0.059	0.098
-534.135	654.086	-0.083	0.213
-533.121	21.836	0.191	0.155
-532.106	61.089	0.169	0.167
-531.091	125.800	0.292	0.368
-530.077	-200.000	0.008	-0.117
-529.062	-1.887	-0.260	-0.183
-528.048	28.330	0.225	-0.189
-527.033	800.000	0.078	0.334
-526.018	-154.309	0.297	-0.020
-525.004	-38.512	0.322	0.170
-523.989	147.458	-0.075	0.101
-522.975	-93.745	0.166	-0.046
-521.960	134.267	0.138	-0.179
-520.945	190.906	0.112	-0.169
-519.931	-200.000	0.028	0.187
-518.916	325.804	-0.122	-0.232
-517.902	-151.335	-0.123	0.009
-516.887	800.000	-0.054	0.177
-515.872	679.798	0.100	-0.259
-514.858	-111.535	-0.215	-0.044
-513.843	-200.000	-0.056	0.268
-512.829	507.561	-0.082	0.190
-511.814	136.456	0.143	-0.186
-510.799	136.685	-0.114	-0.148
-509.785	-200.000	-0.041	-0.318
-508.770	-85.780	-0.186	-0.057
-507.756	462.802	-0.157	-0.350
-506.741	53.188	-0.178	-0.170
-505.726	-200.000	-0.031	-0.190
-504.712	-82.666	-0.359	0.116
-503.697	75.306	0.074	0.077
-502.683	-107.282	0.043	0.009
-501.668	174.258	-0.168	-0.241
-500.653	-200.000	0.020	-0.242
-499.639	800.000	0.086	0.288
-498.624	95.395	-0.348	-0.395
-497.610	398.129	-0.030	-0.063
-496.595	-200.000	0.033	0.160
-495.581	-122.819	0.408	-0.066
-494.566	-71.250	-0.429	0.160
-493.551	148.098	-0.024	0.033
-492.537	-13.365	0.073	-0.047
-491.522	-20.864	0.284	0.174
-490.508	47.630	-0.273	0.254
-489.493	-200.000	-0.017	-0.215
-488.478	-71.240	-0.255	-0.095
-487.464	544.254	0.068	0.163
-486.449	-84.154	0.227	0.072
-485.435	70.555	-0.046	-0.048
-484.420	-153.593	-0.156	-0.011
-483.405	-69.763	0.258	0.098
-482.391	-200.000	-0.008	-0.216
-481.376	-37.739	0.298	-0.158
-480.362	40.128	-0.293	0.263
-479.347	800.000	-0.034	0.126
-478.332	-123.588	0.183	-0.029
-477.318	-125.481	0.548	0.083
-476.303	-132.627	-0.343	-0.044
-475.289	800.000	-0.087	-0.287
-474.274	-135.544	-0.057	0.007
-473.259	-164.297	-0.294	-0.013
-472.245	800.000	0.024	0.084
-471.230	45.089	0.267	-0.245
-470.216	285.427	0.116	0.207
-469.201	81.622	-0.136	0.146
-468.186	-143.354	0.222	0.021
-467.172	-200.000	0.026	-0.345
-466.157	215.169	0.061	0.097
-465.143	-164.747	-0.065	0.003
-464.128	390.221	-0.079	-0.164
-463.113	-18.461	0.052	-0.032
-462.099	-200.000	0.026	0.247
-461.084	485.072	-0.061	-0.138
-460.070	-6.422	-0.317	0.215
-459.055	-119.717	0.398	0.068
-458.040	459.629	-0.091	-0.202
-457.026	-200.000	-0.053	-0.396
-456.011	-200.000	0.017	-0.124
-454.997	-200.000	-0.011	0.121
-453.982	0.577	0.190	-0.135
-452.968	-112.380	-0.294	0.059
-451.953	389.964	0.104	0.215
-450.938	-200.000	0.022	-0.145
-449.924	-101.497	-0.069	0.017
-448.909	-7.882	0.102	-0.068
-447.895	700.902	-0.039	-0.101
-446.880	800.000	-0.034	-0.104
-445.865	-102.627	0.127	-0.030
-444.851	18.036	-0.221	-0.175
-443.836	-200.000	-0.007	0.212
-442.822	318.556	-0.140	0.263
-441.807	-122.883	-0.132	-0.021
-440.792	9.346	0.086	-0.065
-439.778	30.877	-0.062	0.053
-438.763	466.900	0.078	0.173
-437.749	-200.000	-0.062	-0.360
-436.734	449.723	-0.077	0.170
-435.719	-200.000	-0.042	0.270
-434.705	800.000	-0.091	0.278
-433.690	-200.000	-0.008	0.139
-432.676	-5.982	0.227	-0.154
-431.661	-149.581	-0.137	0.011
-430.646	-41.796	-0.366	-0.186
-429.632	29.328	-0.348	0.294
-428.617	146.382	0.028	0.037
-427.603	-200.000	-0.037	0.379
-426.588	-63.194	-0.163	0.067
-425.573	-54.180	0.268	0.121
-424.559	27.033	0.223	-0.186
-423.544	-200.000	0.007	0.186
-422.530	-113.011	0.317	0.062
-421.515	-64.093	-0.346	-0.140
-420.500	17.406	-0.242	0.191
-419.486	-200.000	-0.003	0.066
-418.471	-108.331	0.299	-0.064
-417.457	-200.000	0.019	-0.233
-416.442	-160.116	-0.183	0.010
-415.428	0.245	-0.171	-0.121
-414.413	-48.146	-0.146	0.070
-413.398	-200.000	0.006	-0.146
-412.384	24.492	0.082	0.067
-411.369	245.363	0.094	0.157
-410.355	89.185	0.084	-0.093
-409.340	10.648	0.121	-0.092
-408.325	-200.000	-0.022	0.099
-407.311	44.877	-0.218	-0.199
-406.296	560.170	0.077	0.184
-405.282	-200.000	0.022	-0.348
-404.267	-64.878	-0.153	0.062
-403.252	-22.242	-0.156	-0.094
-402.238	-200.000	-0.018	-0.274
-401.223	-104.008	0.468	-0.108
-400.209	50.759	-0.138	-0.129
-399.194	7.388	0.082	-0.061
-398.179	469.057	0.171	-0.381
-397.165	-50.172	0.167	-0.078
-396.150	-135.490	-0.169	-0.020
-395.136	28.221	-0.210	-0.176
-394.121	-33.098	0.170	0.093
-393.106	-25.156	0.143	0.084
-392.092	111.284	-0.044	0.052
-391.077	-91.654	-0.195	-0.055
-390.063	-200.000	-0.007	-0.071
-389.048	-26.222	0.362	0.211
-388.033	-17.895	-0.160	0.100
-387.019	14.799	-0.261	-0.202
-386.004	-70.413	0.035	-0.013
-384.990	-200.000	0.019	-0.176
-383.975	263.019	0.019	-0.033
-382.960	-144.610	0.339	-0.031
-381.946	-200.000	0.001	0.328
-380.931	-200.000	0.039	0.172
-379.917	800.000	-0.057	0.233
-378.902	-200.000	-0.003	0.305
-377.888	-200.000	-0.013	0.197
-376.873	-80.233	0.221	0.073
-375.858	96.248	-0.230	0.260
-374.844	-148.174	0.112	0.009
-373.829	-200.000	0.012	-0.073
-372.815	-17.203	-0.049	0.031
-371.800	206.021	0.193	-0.298
-370.785	-45.197	-0.122	-0.060
-369.771	800.000	-0.108	-0.431
-368.756	197.243	0.063	0.096
-367.742	-116.104	0.056	0.010
-366.727	88.217	-0.186	0.205
-365.712	210.522	0.088	0.138
-364.698	67.634	0.103	-0.105
-363.683	163.939	0.109	-0.152
-362.669	180.457	-0.138	0.201
-361.654	227.044	0.108	0.174
-360.639	-200.000	0.001	-0.159
-359.625	109.317	0.101	-0.120
-358.610	-168.999	-0.166	-0.006
-357.596	800.000	-0.088	-0.259
-356.581	177.025	-0.125	-0.180
-355.566	-42.968	-0.203	0.102
-354.552	-90.035	0.172	-0.050
-353.537	751.382	0.114	-0.305
-352.523	61.877	-0.104	0.102
-351.508	163.586	0.079	0.110
-350.493	496.314	-0.143	-0.325
-349.479	-200.000	-0.033	-0.293
-348.464	-200.000	0.022	0.151
-347.450	294.836	0.095	0.172
-346.435	-70.878	-0.153	0.057
-345.420	-40.768	-0.039	-0.020
-344.406	1.504	0.206	0.146
-343.391	25.708	-0.207	0.171
-342.377	145.261	-0.236	0.313
-341.362	800.000	-0.050	-0.200
-340.348	93.394	-0.150	0.168
-339.333	97.619	0.189	0.215
-338.318	-200.000	0.014	0.124
-337.304	-109.094	-0.293	-0.062
-336.289	-192.827	0.160	0.001
-335.275	137.676	-0.157	0.204
-334.260	-200.000	0.019	0.217
-333.245	-185.389	0.015	0.000
-332.231	-33.745	0.024	0.013
-331.216	-65.410	-0.101	-0.040
-330.202	704.153	0.100	0.261
-329.187	73.155	0.137	-0.142
-328.172	-36.251	0.259	0.138
-327.158	278.287	-0.080	0.141
-326.143	39.591	-0.066	-0.059
-325.129	-127.535	-0.121	-0.017
-324.114	800.000	-0.140	-0.408
-323.099	-89.870	0.157	0.045
-322.085	-128.380	0.279	-0.039
-321.070	373.587	-0.082	0.166
-320.056	24.423	-0.225	0.184
-319.041	-177.748	0.171	-0.004
-318.026	113.537	0.106	-0.127
-317.012	171.914	0.084	-0.119
-315.997	239.020	0.054	-0.089
-314.983	41.562	-0.045	-0.040
-313.968	-104.190	-0.246	-0.057
-312.953	-200.000	0.031	0.266
-311.939	421.129	-0.126	0.266
-310.924	138.377	-0.105	-0.136
-309.910	450.730	0.075	0.164
-308.895	38.886	-0.202	0.179
-307.880	-200.000	-0.000	-0.024
-306.866	28.202	0.202	0.169
-305.851	-200.000	-0.028	-0.151
-304.837	589.782	-0.099	-0.242
-303.822	401.614	0.088	0.183
-302.807	-109.690	0.234	0.049
-301.793	-51.461	-0.350	-0.162
-300.778	-200.000	-0.003	0.151
-299.764	-157.821	-0.338	-0.020
-298.749	-200.000	0.000	0.009
-297.735	-37.549	0.372	0.196
-296.720	-121.997	0.108	-0.018
-295.705	-72.382	-0.183	-0.067
-294.691	497.142	0.108	0.247
-293.676	92.134	-0.055	-0.061
-292.662	-191.279	0.154	-0.002
-291.647	-8.603	-0.038	-0.025
-290.632	415.379	-0.059	-0.124
-289.618	5.275	0.027	0.020
-288.603	619.831	-0.068	0.170
-287.589	-68.905	0.225	-0.086
-286.574	92.946	-0.043	0.048
-285.559	107.275	-0.030	0.035
-284.545	-102.929	-0.126	-0.030
-283.530	296.044	0.156	0.283
-282.516	-200.000	0.028	-0.275
-281.501	117.478	-0.143	-0.174
-280.486	271.275	-0.207	0.361
-279.472	-4.774	-0.187	0.127
-278.457	-200.000	-0.001	0.032
-277.443	56.911	-0.047	0.046
-276.428	301.953	0.048	-0.087
-275.413	-191.654	0.096	-0.001
-274.399	-200.000	-0.005	-0.042
-273.384	187.172	0.238	-0.350
-272.370	17.414	-0.165	-0.130
-271.355	-200.000	-0.023	-0.233
-270.340	-119.617	0.124	-0.021
-269.326	-166.908	-0.061	0.002
-268.311	-35.643	0.148	0.079
-267.297	-111.874	-0.434	-0.087
-266.282	-200.000	0.027	0.190
-265.267	-73.799	0.069	0.025
-264.253	542.843	-0.103	0.243
-263.238	-4.432	0.258	0.176
-262.224	-114.308	0.090	0.017
-261.209	164.879	-0.170	-0.236
-260.195	19.728	-0.328	-0.261
-259.180	57.206	-0.258	0.249
-258.165	620.084	-0.050	0.125
-257.151	155.636	0.218	0.296
-256.136	800.000	-0.099	0.293
-255.122	-159.087	-0.597	-0.033
-254.107	-120.473	-0.170	0.028
-253.092	-32.100	0.080	0.044
-252.078	-2.490	-0.089	0.061
-251.063	4.381	-0.040	-0.029
-250.049	-11.452	-0.136	-0.088
-249.034	-77.188	-0.269	-0.092
-248.019	27.367	0.229	-0.190
-247.005	-200.000	-0.004	-0.140
-245.990	482.953	-0.153	-0.343
-244.976	-200.000	0.008	0.319
-243.961	-16.176	-0.201	0.126
-242.946	-200.000	0.004	0.176
-241.932	3.660	-0.201	-0.145
-240.917	47.555	0.107	0.099
-239.903	-143.716	-0.253	0.024
-238.888	-27.156	0.373	-0.215
-237.873	-200.000	0.015	-0.092
-236.859	-200.000	0.018	0.115
-235.844	-26.841	0.252	-0.145
-234.830	-200.000	-0.002	0.087
-233.815	-59.737	0.367	0.155
-232.800	-200.000	0.029	-0.333
-231.786	480.427	0.050	0.113
-230.771	97.420	0.119	0.135
-229.757	-43.173	0.431	0.215
-228.742	1.488	-0.224	-0.159
-227.727	-81.318	-0.320	0.104
-226.713	-164.358	-0.300	-0.014
-225.698	659.402	0.144	-0.365
-224.684	-3.759	0.217	0.148
-223.669	-200.000	0.007	0.038
-222.655	800.000	0.049	-0.156
-221.640	304.899	0.155	0.284
-220.625	-104.263	0.300	0.069
-219.611	-16.078	-0.238	0.149
-218.596	-123.411	-0.276	-0.043
-217.582	-40.510	0.165	0.084
-216.567	800.000	0.015	-0.045
-215.552	68.220	0.024	0.024
-214.538	-86.594	0.112	-0.034
-213.523	292.803	0.140	-0.252
-212.509	-119.703	0.187	-0.032
-211.494	406.906	0.037	0.078
-210.479	-32.104	0.253	-0.139
-209.465	800.000	-0.042	-0.151
-208.450	-65.869	-0.593	-0.234
-207.436	10.890	-0.058	-0.044
-206.421	800.000	0.021	-0.084
-205.406	-96.789	0.319	-0.083
-204.392	-200.000	0.004	-0.338
-203.377	-160.133	-0.257	-0.014
-202.363	125.256	-0.056	-0.069
-201.348	373.610	-0.126	0.253
-200.333	757.589	0.090	0.241
-199.319	286.634	-0.090	0.161
-198.304	112.682	-0.105	-0.125
-197.290	56.746	-0.244	0.234
-196.275	34.642	0.205	-0.176
-195.260	-128.957	0.356	-0.049
-194.246	-34.048	-0.309	-0.167
-193.231	327.259	-0.071	0.134
-192.217	-200.000	0.018	0.210
-191.202	-84.516	0.142	0.044
-190.187	-87.436	0.153	0.046
-189.173	-200.000	0.005	0.091
-188.158	-130.303	0.219	-0.029
-187.144	-78.914	-0.141	-0.047
-186.129	-190.158	0.453	-0.005
-185.114	800.000	0.072	-0.290
-184.100	-200.000	-0.025	0.382
-183.085	34.869	-0.048	0.041
-182.071	-133.939	0.321	0.039
-181.056	-200.000	0.012	-0.171
-180.042	-164.627	0.124	-0.006
-179.027	-48.315	-0.184	-0.087
-178.012	8.301	0.172	-0.127
-176.998	-70.130	0.206	0.077
-175.983	61.497	0.124	0.122
-174.969	-200.000	-0.009	0.129
-173.954	-21.966	0.220	0.131
-172.939	-38.947	-0.184	0.095
-171.925	-149.720	0.111	0.009
-170.910	-45.128	0.014	0.007
-169.896	506.104	0.064	-0.145
-168.881	54.510	-0.042	-0.039
-167.866	-39.444	0.147	-0.076
-166.852	-25.925	-0.154	-0.089
-165.837	800.000	0.049	0.198
-164.823	126.927	-0.110	-0.138
-163.808	800.000	0.103	0.349
-162.793	373.393	0.157	-0.315
-161.779	-200.000	-0.005	0.083
-160.764	724.114	-0.056	0.147
-159.750	-200.000	0.039	-0.311
-158.735	800.000	0.048	-0.170
-157.720	-79.358	-0.191	-0.063
-156.706	-200.000	0.029	0.195
-155.691	800.000	-0.062	-0.197
-154.677	-81.719	0.295	-0.095
-153.662	-169.938	0.391	0.014
-152.647	-73.478	-0.119	0.043
-151.633	-200.000	0.009	-0.159
-150.618	800.000	0.059	-0.200
-149.604	50.949	0.146	-0.136
-148.589	102.482	-0.215	0.247
-147.574	-70.725	0.441	-0.164
-146.560	-200.000	-0.003	0.134
-145.545	-14.914	-0.156	-0.098
-144.531	-200.000	-0.026	0.357
-143.516	-29.177	0.197	-0.111
-142.502	-62.603	0.182	-0.074
-141.487	-200.000	0.066	0.309
-140.472	-200.000	-0.025	0.124
-139.458	42.014	-0.200	0.179
-138.443	-200.000	-0.001	-0.037
-137.429	-157.024	-0.111	0.007
-136.414	78.656	0.066	-0.069
-135.399	-27.630	-0.169	0.097
-134.385	76.944	0.108	0.113
-133.370	2.328	-0.100	0.071
-132.356	800.000	0.073	0.201
-131.341	364.606	-0.081	0.159
-130.326	-10.625	0.451	0.293
-129.312	-71.609	-0.319	0.117
-128.297	236.818	-0.154	-0.251
-127.283	-200.000	0.079	-0.403
-126.268	42.046	0.087	0.077
-125.253	-113.014	0.157	0.030
-124.239	-168.678	0.154	0.006
-123.224	-200.000	0.044	-0.325
-122.210	-23.685	-0.133	0.078
-121.195	155.908	-0.063	0.085
