DTS Sentinel unit serial number:	SN413079Multiplexer serial number:	ORYXHardware model number:	OX4-SRSoftware version number:	ORYX F/W v4.00 Oryx Data Collector v3.7.2.0data status	okinstallation	princeton_trtdifferential loss correction	single-endedforward channel	channel 1reverse channel	N/Adate	2019/09/19time	14:58:35forward acquisition time	60.00reverse acquisition time	0.00gamma	496.2192k internal	0.2316k external	0.2316temperature offset calibration	1.0025default loss term (dB/km)	0.3790temperature slope calibration	1.0000multiplexer offset coefficient	1.0000multiplexer slope coefficient	1.0000fibre end	0.00T internal ref (°C)	33.06T ext. ref 1 (°C)	1.10T ext. ref 2 (°C)	30.02length (m)	temperature (°C)	Stokes	anti-Stokes-747.200	29.403	0.273	-0.235
-746.185	-200.000	0.004	0.060
-745.171	775.804	0.131	-0.363
-744.156	117.505	0.057	0.071
-743.142	800.000	0.075	-0.236
-742.127	-147.136	0.210	0.018
-741.112	800.000	0.012	0.048
-740.098	-151.390	-0.098	-0.007
-739.083	-6.582	-0.131	-0.091
-738.069	800.000	0.077	0.227
-737.054	32.228	-0.284	-0.248
-736.039	517.985	-0.183	-0.433
-735.025	181.626	0.068	-0.101
-734.010	85.158	-0.284	0.316
-732.996	800.000	-0.004	-0.017
-731.981	218.652	-0.125	-0.202
-730.966	-200.000	0.075	-0.344
-729.952	-18.946	-0.349	-0.220
-728.937	-34.537	-0.131	-0.072
-727.923	126.851	-0.263	0.338
-726.908	-12.232	0.082	0.054
-725.894	-200.000	-0.053	-0.294
-724.879	-31.122	-0.139	-0.079
-723.864	190.249	0.198	-0.300
-722.850	77.727	-0.290	0.313
-721.835	72.680	-0.299	0.316
-720.821	60.340	0.110	-0.110
-719.806	800.000	-0.135	0.484
-718.791	21.540	0.111	-0.091
-717.777	90.737	-0.249	-0.282
-716.762	-200.000	0.030	0.175
-715.748	314.585	-0.043	-0.081
-714.733	-200.000	0.019	-0.479
-713.718	-48.236	-0.261	0.127
-712.704	-176.866	0.309	-0.008
-711.689	-200.000	-0.031	-0.141
-710.675	800.000	0.028	0.120
-709.660	-137.490	0.395	0.045
-708.645	-38.777	0.197	0.105
-707.631	800.000	0.086	-0.315
-706.616	-112.900	0.272	0.054
-705.602	-27.726	0.263	-0.154
-704.587	143.742	-0.303	-0.408
-703.572	-200.000	-0.013	-0.068
-702.558	-92.812	0.071	0.020
-701.543	-21.250	-0.236	-0.146
-700.529	-82.794	0.116	0.038
-699.514	636.294	-0.064	-0.165
-698.499	-161.068	-0.287	-0.015
-697.485	-200.000	0.023	0.300
-696.470	163.206	-0.057	-0.081
-695.456	-166.816	-0.380	-0.016
-694.441	31.063	-0.118	-0.102
-693.426	159.152	0.192	-0.270
-692.412	52.073	-0.022	-0.021
-691.397	90.796	0.149	0.169
-690.383	-78.301	-0.102	-0.035
-689.368	-200.000	0.009	-0.195
-688.354	77.961	0.152	0.164
-687.339	48.495	-0.147	-0.139
-686.324	-115.712	-0.085	-0.016
-685.310	141.101	-0.026	0.035
-684.295	267.716	0.122	0.216
-683.281	210.815	0.224	0.355
-682.266	466.302	0.102	0.231
-681.251	800.000	0.041	-0.121
-680.237	41.910	-0.114	0.104
-679.222	-200.000	-0.013	-0.090
-678.208	-72.240	0.397	-0.149
-677.193	-15.715	0.225	0.145
-676.178	313.976	0.166	-0.315
-675.164	-200.000	-0.007	-0.035
-674.149	-45.650	-0.472	0.236
-673.135	800.000	0.082	0.277
-672.120	-38.032	0.234	-0.125
-671.105	-91.382	-0.337	0.097
-670.091	-83.170	-0.191	-0.062
-669.076	-200.000	-0.021	-0.168
-668.062	-200.000	0.006	-0.203
-667.047	-14.096	-0.264	-0.172
-666.032	626.978	0.142	0.362
-665.018	-118.726	-0.242	-0.043
-664.003	148.560	-0.074	-0.100
-662.989	-80.453	-0.261	0.088
-661.974	-12.460	0.175	-0.115
-660.959	-89.250	-0.416	-0.124
-659.945	-105.214	0.058	0.013
-658.930	498.821	-0.120	-0.279
-657.916	181.842	0.192	0.286
-656.901	60.145	-0.212	-0.211
-655.886	-200.000	0.018	-0.317
-654.872	9.590	0.172	-0.132
-653.857	-93.893	-0.277	-0.077
-652.843	-160.495	-0.158	-0.009
-651.828	-67.733	-0.060	0.024
-650.814	59.106	-0.103	-0.103
-649.799	-200.000	0.017	-0.256
-648.784	-200.000	0.023	0.351
-647.770	-106.598	-0.067	-0.015
-646.755	7.468	-0.238	0.180
-645.741	-23.285	-0.196	-0.119
-644.726	-188.387	-0.183	-0.002
-643.711	-200.000	-0.006	-0.154
-642.697	-115.577	0.119	-0.023
-641.682	-93.731	0.351	-0.098
-640.668	800.000	-0.087	-0.347
-639.653	-200.000	-0.008	0.066
-638.638	-200.000	0.013	0.258
-637.624	195.938	0.104	0.160
-636.609	16.562	0.290	-0.231
-635.595	164.649	-0.044	0.063
-634.580	-4.896	0.121	-0.084
-633.565	104.477	0.132	0.156
-632.551	-200.000	0.066	0.496
-631.536	233.773	-0.156	0.259
-630.522	54.308	0.093	0.091
-629.507	-30.424	-0.136	-0.078
-628.492	-125.751	0.312	-0.048
-627.478	-173.783	-0.246	0.007
-626.463	225.217	0.071	-0.116
-625.449	-19.677	-0.231	-0.144
-624.434	6.036	0.239	-0.178
-623.419	-188.740	-0.244	-0.003
-622.405	-163.231	-0.136	0.007
-621.390	25.694	0.367	-0.308
-620.376	-200.000	0.009	0.151
-619.361	-200.000	-0.001	-0.376
-618.346	63.956	-0.234	-0.237
-617.332	-158.403	-0.115	-0.007
-616.317	76.719	-0.272	0.291
-615.303	-200.000	0.052	-0.412
-614.288	88.111	-0.119	0.134
-613.273	-77.654	-0.153	-0.053
-612.259	-8.198	0.197	-0.134
-611.244	-24.741	-0.267	-0.160
-610.230	-74.696	-0.503	-0.182
-609.215	129.211	-0.203	0.261
-608.201	800.000	-0.069	-0.271
-607.186	-200.000	0.046	0.249
-606.171	-42.227	-0.132	0.068
-605.157	197.298	0.127	-0.195
-604.142	-200.000	0.003	0.162
-603.128	-127.953	-0.127	-0.018
-602.113	-55.050	0.125	0.057
-601.098	52.984	-0.244	-0.236
-600.084	-185.132	0.185	-0.003
-599.069	-200.000	0.016	-0.165
-598.055	76.910	0.207	0.221
-597.040	69.170	-0.016	0.017
-596.025	-36.804	0.106	0.057
-595.011	563.688	0.139	-0.339
-593.996	228.193	-0.112	0.184
-592.982	84.868	0.129	-0.143
-591.967	604.174	-0.108	0.271
-590.952	157.248	0.080	-0.111
-589.938	155.560	-0.082	-0.114
-588.923	-77.070	0.304	-0.107
-587.909	-101.134	-0.124	-0.031
-586.894	53.457	0.140	0.135
-585.879	-121.147	-0.168	0.028
-584.865	480.383	-0.124	0.283
-583.850	70.573	-0.162	0.169
-582.836	177.431	-0.258	0.378
-581.821	129.380	0.117	-0.150
-580.806	-200.000	0.058	-0.392
-579.792	800.000	-0.055	0.221
-578.777	-200.000	-0.049	-0.300
-577.763	-97.895	0.345	-0.090
-576.748	3.011	-0.186	-0.136
-575.733	64.233	0.159	-0.161
-574.719	-200.000	0.005	-0.086
-573.704	83.292	-0.169	-0.186
-572.690	121.894	-0.090	-0.113
-571.675	115.840	0.202	0.249
-570.661	211.504	-0.076	0.120
-569.646	-64.631	0.084	-0.034
-568.631	-91.575	-0.094	0.027
-567.617	-168.828	-0.393	0.015
-566.602	3.913	-0.186	-0.137
-565.588	-64.804	0.204	-0.083
-564.573	-200.000	0.030	-0.205
-563.558	387.611	0.074	0.155
-562.544	194.650	-0.024	-0.036
-561.529	334.560	0.221	-0.430
-560.515	-149.729	0.126	-0.010
-559.500	9.176	-0.091	-0.069
-558.485	-112.466	0.349	0.070
-557.471	473.075	0.054	-0.123
-556.456	-200.000	0.013	0.108
-555.442	-200.000	-0.008	-0.188
-554.427	330.609	0.126	0.244
-553.412	67.220	-0.282	0.289
-552.398	-45.500	-0.253	0.126
-551.383	318.186	-0.121	-0.231
-550.369	-96.525	0.085	-0.022
-549.354	-90.357	-0.168	-0.049
-548.339	-23.666	-0.308	0.185
-547.325	-200.000	-0.030	-0.365
-546.310	21.340	-0.205	-0.167
-545.296	-25.420	-0.056	-0.033
-544.281	-200.000	0.014	0.083
-543.266	-25.077	0.129	0.077
-542.252	9.209	-0.251	-0.191
-541.237	73.046	-0.257	0.270
-540.223	-26.878	-0.211	-0.124
-539.208	-62.895	-0.261	0.109
-538.193	-65.797	0.137	-0.055
-537.179	-128.989	0.602	-0.085
-536.164	165.448	-0.192	-0.273
-535.150	69.149	0.189	-0.195
-534.135	252.180	-0.030	0.051
-533.121	264.197	0.152	0.265
-532.106	-200.000	-0.026	0.243
-531.091	800.000	-0.091	-0.310
-530.077	-200.000	-0.025	0.354
-529.062	112.398	0.055	-0.067
-528.048	-0.126	-0.216	-0.154
-527.033	59.888	0.202	-0.200
-526.018	-94.440	-0.269	-0.074
-525.004	-200.000	0.019	-0.105
-523.989	-200.000	-0.028	-0.142
-522.975	-197.238	0.340	-0.002
-521.960	-200.000	0.014	0.102
-520.945	236.921	-0.098	-0.163
-519.931	-200.000	-0.006	-0.209
-518.916	-99.211	-0.179	0.045
-517.902	46.516	-0.042	-0.039
-516.887	-155.421	0.083	0.005
-515.872	-200.000	-0.003	-0.332
-514.858	-138.755	0.055	-0.006
-513.843	780.795	-0.078	-0.214
-512.829	-106.130	0.154	0.035
-511.814	-42.545	0.042	-0.021
-510.799	-200.000	0.004	0.214
-509.785	-26.737	0.345	-0.202
-508.770	227.191	0.043	-0.069
-507.756	-84.780	0.151	0.048
-506.741	680.510	-0.146	-0.382
-505.726	-106.099	0.168	-0.038
-504.712	-200.000	0.007	0.389
-503.697	-200.000	-0.015	0.258
-502.683	-10.426	0.107	-0.071
-501.668	-136.541	-0.252	0.029
-500.653	-115.164	-0.103	-0.020
-499.639	668.882	0.102	0.265
-498.624	10.141	-0.042	-0.032
-497.610	298.774	-0.092	-0.170
-496.595	-157.370	-0.052	0.003
-495.581	-200.000	-0.022	-0.339
-494.566	47.027	-0.044	0.041
-493.551	-65.487	-0.193	-0.078
-492.537	29.238	-0.216	0.184
-491.522	-83.945	-0.107	0.034
-490.508	4.756	0.218	-0.161
-489.493	800.000	0.076	0.222
-488.478	224.696	-0.110	0.178
-487.464	72.903	-0.065	0.069
-486.449	-50.102	0.210	0.100
-485.435	-68.275	0.244	-0.095
-484.420	39.418	-0.076	0.068
-483.405	46.111	-0.259	-0.240
-482.391	800.000	0.081	-0.268
-481.376	-200.000	0.007	0.088
-480.362	800.000	0.036	0.104
-479.347	-30.126	0.017	0.010
-478.332	10.826	-0.304	-0.233
-477.318	-129.553	0.071	-0.010
-476.303	-52.726	0.093	0.043
-475.289	-200.000	0.031	0.243
-474.274	-83.266	0.184	0.059
-473.259	204.491	0.233	0.362
-472.245	411.333	-0.074	0.158
-471.230	-80.929	0.197	-0.066
-470.216	-200.000	0.001	0.121
-469.201	-47.429	0.140	0.068
-468.186	800.000	0.023	-0.071
-467.172	230.112	0.062	0.102
-466.157	241.535	0.183	0.306
-465.143	-59.582	0.312	-0.134
-464.128	158.049	-0.130	-0.181
-463.113	-96.776	0.227	-0.060
-462.099	97.092	0.132	0.152
-461.084	-200.000	0.029	-0.180
-460.070	246.946	0.138	0.233
-459.055	-111.221	0.195	0.040
-458.040	-117.142	0.154	-0.028
-457.026	697.583	-0.087	-0.230
-456.011	-200.000	0.020	-0.195
-454.997	120.324	-0.216	0.269
-453.982	800.000	0.091	-0.367
-452.968	110.902	-0.146	-0.176
-451.953	-174.795	-0.317	0.009
-450.938	199.736	0.026	0.040
-449.924	30.789	0.190	0.163
-448.909	-59.868	0.179	0.077
-447.895	520.547	0.140	-0.328
-446.880	800.000	0.069	-0.227
-445.865	2.846	-0.249	-0.181
-444.851	800.000	-0.019	-0.081
-443.836	-142.480	-0.267	-0.026
-442.822	-59.088	0.352	0.152
-441.807	-92.181	-0.579	-0.164
-440.792	139.479	-0.067	-0.088
-439.778	-76.420	-0.047	0.017
-438.763	162.095	-0.128	0.179
-437.749	157.927	-0.178	-0.247
-436.734	-147.618	0.223	-0.019
-435.719	713.859	-0.055	0.145
-434.705	-61.210	0.128	-0.054
-433.690	34.479	-0.118	0.103
-432.676	-200.000	0.008	0.105
-431.661	-200.000	0.067	0.299
-430.646	-103.558	-0.379	-0.089
-429.632	353.777	-0.116	0.230
-428.617	11.591	0.109	0.084
-427.603	55.360	0.196	0.190
-426.588	-6.627	0.183	0.125
-425.573	-35.105	-0.085	0.046
-424.559	-47.630	0.317	0.154
-423.544	271.998	0.207	0.366
-422.530	-200.000	-0.012	-0.068
-421.515	-128.742	0.356	0.050
-420.500	-131.505	-0.329	0.043
-419.486	-200.000	-0.014	-0.142
-418.471	-200.000	0.049	-0.305
-417.457	62.389	-0.080	-0.080
-416.442	-200.000	0.045	0.258
-415.428	800.000	0.115	-0.322
-414.413	21.945	-0.227	0.185
-413.398	-200.000	0.012	-0.081
-412.384	46.778	0.040	-0.037
-411.369	352.400	-0.082	-0.163
-410.355	713.953	0.053	0.139
-409.340	371.463	-0.081	0.164
-408.325	-200.000	0.007	-0.050
-407.311	20.409	0.310	-0.251
-406.296	-109.869	0.147	-0.031
-405.282	-103.447	0.207	0.049
-404.267	-200.000	-0.022	0.177
-403.252	46.758	-0.062	0.058
-402.238	-61.375	0.139	-0.058
-401.223	-175.805	0.192	-0.005
-400.209	115.636	-0.086	-0.105
-399.194	126.000	0.043	0.054
-398.179	-200.000	0.002	0.184
-397.165	-13.270	-0.206	0.134
-396.150	58.331	0.174	0.171
-395.136	-200.000	-0.019	0.226
-394.121	-200.000	-0.073	-0.437
-393.106	171.047	0.104	-0.149
-392.092	800.000	-0.030	0.113
-391.077	-120.423	-0.195	-0.033
-390.063	-135.813	-0.212	-0.025
-389.048	800.000	-0.041	-0.142
-388.033	-86.132	-0.169	-0.052
-387.019	-133.977	-0.345	0.043
-386.004	-81.914	0.288	0.094
-384.990	-200.000	-0.021	0.186
-383.975	-200.000	-0.045	-0.309
-382.960	-19.798	-0.103	0.063
-381.946	-151.822	-0.324	0.024
-380.931	17.738	-0.080	-0.064
-379.917	-90.621	-0.062	-0.018
-378.902	68.932	0.188	0.193
-377.888	310.202	-0.098	0.184
-376.873	559.403	-0.097	-0.233
-375.858	800.000	-0.026	-0.102
-374.844	44.330	-0.030	0.028
-373.829	-106.777	0.286	0.063
-372.815	32.954	-0.079	-0.068
-371.800	272.899	-0.262	-0.462
-370.785	347.096	0.175	-0.343
-369.771	-150.562	-0.161	0.012
-368.756	352.209	-0.163	-0.323
-367.742	-144.298	0.237	-0.022
-366.727	682.967	-0.027	0.070
-365.712	174.106	0.117	-0.168
-364.698	5.384	0.243	-0.179
-363.683	-141.255	-0.122	0.012
-362.669	800.000	0.025	0.081
-361.654	-117.292	0.303	-0.055
-360.639	-200.000	0.033	-0.340
-359.625	-5.293	-0.019	-0.013
-358.610	-200.000	-0.029	-0.269
-357.596	-78.456	-0.130	0.044
-356.581	113.811	-0.117	-0.142
-355.566	-78.687	0.393	0.134
-354.552	-200.000	0.030	-0.245
-353.537	-16.638	-0.340	-0.215
-352.523	13.998	-0.216	0.168
-351.508	-200.000	-0.026	-0.163
-350.493	-48.137	0.162	0.078
-349.479	482.592	-0.037	0.085
-348.464	683.981	0.109	-0.283
-347.450	-200.000	0.033	-0.219
-346.435	413.735	-0.158	-0.336
-345.420	132.114	-0.181	0.233
-344.406	-26.271	-0.387	0.227
-343.391	108.281	0.037	-0.044
-342.377	-128.848	0.191	-0.027
-341.362	126.459	0.065	-0.082
-340.348	28.221	-0.374	0.315
-339.333	-72.443	-0.149	0.055
-338.318	800.000	0.189	0.791
-337.304	-89.210	-0.277	-0.082
-336.289	55.857	-0.183	0.177
-335.275	244.552	-0.179	0.299
-334.260	-22.952	0.079	0.047
-333.245	-200.000	0.064	0.369
-332.231	-200.000	0.020	0.119
-331.216	-47.442	0.259	-0.126
-330.202	-65.142	-0.313	-0.126
-329.187	-130.815	-0.194	-0.026
-328.172	268.300	0.085	-0.149
-327.158	-35.316	0.284	0.154
-326.143	72.134	0.071	-0.074
-325.129	800.000	0.088	0.278
-324.114	-7.152	0.226	-0.153
-323.099	66.444	-0.174	0.176
-322.085	218.595	0.078	-0.124
-321.070	235.405	-0.086	-0.142
-320.056	-173.395	-0.239	-0.007
-319.041	-101.115	-0.351	0.086
-318.026	47.405	0.067	0.062
-317.012	800.000	-0.040	0.157
-315.997	800.000	-0.009	0.029
-314.983	-91.724	0.222	-0.063
-313.968	-136.724	-0.258	0.030
-312.953	-200.000	0.001	-0.183
-311.939	-200.000	0.050	0.401
-310.924	-103.755	0.192	-0.045
-309.910	-200.000	0.012	-0.197
-308.895	-200.000	0.033	-0.296
-307.880	150.960	0.224	0.303
-306.866	-83.940	0.513	0.163
-305.851	173.182	-0.051	0.073
-304.837	-112.329	0.084	-0.017
-303.822	-45.534	-0.104	0.051
-302.807	-30.667	0.237	0.134
-301.793	687.922	-0.091	0.236
-300.778	-30.854	-0.280	0.158
-299.764	208.751	-0.158	-0.247
-298.749	-137.594	0.078	0.009
-297.735	363.073	-0.016	-0.032
-296.720	-134.037	-0.216	-0.027
-295.705	-118.350	-0.144	0.025
-294.691	134.343	-0.262	0.338
-293.676	537.590	0.050	0.117
-292.662	800.000	-0.038	-0.116
-291.647	-35.544	-0.057	-0.031
-290.632	-127.894	-0.152	-0.022
-289.618	36.823	0.115	-0.101
-288.603	-200.000	-0.032	0.154
-287.589	800.000	0.039	-0.165
-286.574	239.585	0.078	-0.129
-285.559	376.910	0.076	-0.153
-284.545	-155.129	-0.213	-0.014
-283.530	-200.000	-0.062	-0.296
-282.516	-92.851	-0.109	-0.030
-281.501	91.379	0.180	-0.201
-280.486	-200.000	0.065	0.337
-279.472	178.126	0.146	0.211
-278.457	-104.250	0.336	-0.078
-277.443	800.000	-0.054	0.228
-276.428	-156.442	-0.119	0.007
-275.413	157.047	-0.061	-0.084
-274.399	330.814	0.154	0.294
-273.384	-72.731	-0.106	0.039
-272.370	1.928	-0.274	0.197
-271.355	494.921	0.061	0.140
-270.340	-114.367	-0.284	-0.054
-269.326	-34.625	0.280	-0.153
-268.311	-95.728	-0.395	0.105
-267.297	93.187	0.075	0.084
-266.282	-55.133	-0.313	0.140
-265.267	103.216	-0.055	-0.064
-264.253	-2.635	0.050	-0.035
-263.238	-62.931	-0.089	0.037
-262.224	443.955	-0.114	0.248
-261.209	-50.246	-0.163	0.077
-260.195	-81.255	-0.063	0.021
-259.180	800.000	-0.127	0.396
-258.165	-117.147	0.141	-0.026
-257.151	-157.946	-0.208	0.012
-256.136	123.138	0.090	0.112
-255.122	-144.524	-0.128	0.012
-254.107	463.549	0.053	-0.118
-253.092	-200.000	-0.049	-0.436
-252.078	65.124	0.039	-0.039
-251.063	-1.074	0.480	0.337
-250.049	-200.000	-0.020	0.135
-249.034	-107.354	0.213	0.047
-248.019	-196.456	0.337	-0.002
-247.005	-39.876	0.176	-0.092
-245.990	81.506	-0.131	-0.141
-244.976	-200.000	0.041	0.431
-243.961	91.539	0.106	0.119
-242.946	-99.356	0.234	-0.059
-241.932	784.412	-0.029	0.080
-240.917	-152.892	0.121	0.009
-239.903	-200.000	-0.016	0.215
-238.888	-28.962	0.196	-0.112
-237.873	29.504	-0.024	-0.021
-236.859	-137.455	-0.072	-0.008
-235.844	-132.682	0.241	-0.031
-234.830	31.865	-0.274	-0.235
-233.815	-200.000	-0.046	-0.204
-232.800	-200.000	-0.038	-0.358
-231.786	714.855	0.112	0.295
-230.771	-6.013	-0.070	-0.047
-229.757	-200.000	-0.028	0.213
-228.742	306.264	-0.125	-0.232
-227.727	345.955	0.162	0.315
-226.713	774.732	-0.090	0.243
-225.698	-200.000	0.059	0.437
-224.684	-39.137	-0.150	-0.078
-223.669	-25.438	0.096	-0.056
-222.655	-200.000	0.019	0.132
-221.640	-126.273	-0.059	0.009
-220.625	25.893	0.292	-0.242
-219.611	99.967	0.179	-0.206
-218.596	-140.839	0.188	0.019
-217.582	37.316	0.128	-0.112
-216.567	757.175	0.035	0.095
-215.552	-177.890	0.267	0.006
-214.538	-30.698	0.262	0.147
-213.523	33.171	-0.105	0.091
-212.509	283.758	-0.100	0.179
-211.494	-178.447	0.288	0.007
-210.479	464.593	-0.054	-0.119
-209.465	-55.187	-0.146	-0.065
-208.450	38.696	-0.205	-0.182
-207.436	669.532	-0.054	-0.138
-206.421	-200.000	0.020	-0.126
-205.406	144.155	-0.119	0.157
-204.392	-129.788	0.467	0.064
-203.377	465.189	-0.065	0.145
-202.363	-200.000	-0.005	-0.159
-201.348	165.746	0.031	0.043
-200.333	-200.000	-0.050	0.331
-199.319	-80.393	0.315	0.104
-198.304	21.994	-0.271	0.219
-197.290	-200.000	0.047	-0.255
-196.275	-26.088	-0.103	-0.060
-195.260	-200.000	0.003	-0.033
-194.246	-90.124	0.358	0.103
-193.231	282.130	0.133	0.237
-192.217	197.481	-0.328	-0.496
-191.202	-126.514	-0.160	-0.024
-190.187	-200.000	0.007	0.162
-189.173	150.790	0.163	-0.219
-188.158	-55.463	0.129	-0.057
-187.144	488.249	-0.084	-0.191
-186.129	268.553	0.152	0.264
-185.114	293.875	0.194	0.352
-184.100	212.262	-0.193	-0.302
-183.085	169.183	0.065	-0.092
-182.071	-60.184	0.185	0.078
-181.056	-152.199	0.255	-0.018
-180.042	181.488	0.138	-0.201
-179.027	-15.001	-0.251	0.160
-178.012	-77.766	-0.102	0.035
-176.998	-24.624	0.235	0.138
-175.983	511.804	-0.083	0.192
-174.969	22.559	0.280	-0.227
-173.954	-200.000	0.060	0.000
-172.939	-105.811	0.169	-0.038
-171.925	115.752	0.089	0.108
-170.910	-200.000	0.001	0.081
-169.896	221.494	-0.068	-0.109
-168.881	-200.000	-0.033	0.262
-167.866	22.904	-0.338	-0.274
-166.852	-41.030	0.231	-0.118
-165.837	589.540	0.150	0.366
-164.823	800.000	0.055	-0.188
-163.808	800.000	0.108	-0.354
-162.793	-20.546	-0.187	0.114
-161.779	205.824	-0.168	0.259
-160.764	-200.000	0.079	-0.365
-159.750	-166.694	0.187	-0.008
-158.735	153.716	-0.057	0.078
-157.720	-143.093	-0.231	-0.022
-156.706	-200.000	-0.033	0.262
-155.691	461.550	-0.098	0.217
-154.677	-73.990	0.051	-0.018
-153.662	196.169	0.253	0.381
-152.647	-193.194	-0.266	0.002
-151.633	469.811	-0.076	0.169
-150.618	-25.076	0.206	0.121
-149.604	-54.170	0.188	-0.085
-148.589	800.000	-0.068	0.236
-147.574	-17.315	0.231	0.144
-146.560	197.108	-0.063	0.095
-145.545	101.955	-0.033	-0.038
-144.531	661.594	-0.120	-0.307
-143.516	-6.796	-0.169	-0.114
-142.502	-11.970	0.230	0.149
-141.487	800.000	-0.067	0.202
-140.472	-59.556	0.270	0.115
-139.458	-50.646	-0.185	0.086
-138.443	-98.997	0.229	0.057
-137.429	701.705	0.130	-0.339
-136.414	800.000	0.114	0.448
-135.399	-200.000	0.008	-0.202
-134.385	800.000	0.023	-0.100
-133.370	-77.227	0.295	-0.101
-132.356	204.767	-0.193	0.295
-131.341	-56.588	0.043	-0.019
-130.326	800.000	0.065	0.259
-129.312	-79.954	-0.258	0.086
-128.297	-133.747	0.201	0.025
-127.283	-200.000	0.017	0.115
-126.268	312.801	-0.077	0.143
-125.253	265.438	0.042	0.072
-124.239	-75.708	0.404	-0.142
-123.224	-87.306	-0.156	0.047
-122.210	-114.594	-0.184	-0.035
