DTS Sentinel unit serial number:	SN413079Multiplexer serial number:	ORYXHardware model number:	OX4-SRSoftware version number:	ORYX F/W v4.00 Oryx Data Collector v3.7.2.0data status	okinstallation	princeton_trtdifferential loss correction	single-endedforward channel	channel 1reverse channel	N/Adate	2019/09/11time	05:24:11forward acquisition time	60.00reverse acquisition time	0.00gamma	496.2192k internal	0.2331k external	0.2331temperature offset calibration	0.9928default loss term (dB/km)	0.3790temperature slope calibration	1.0000multiplexer offset coefficient	1.0000multiplexer slope coefficient	1.0000fibre end	0.00T internal ref (°C)	29.44T ext. ref 1 (°C)	-0.24T ext. ref 2 (°C)	23.52length (m)	temperature (°C)	Stokes	anti-Stokes-747.200	137.823	0.108	-0.142
-746.185	-78.255	-0.258	0.089
-745.171	-132.998	0.422	-0.054
-744.156	-200.000	0.002	0.282
-743.142	426.185	0.156	0.339
-742.127	-134.397	0.201	-0.025
-741.112	6.496	0.103	-0.077
-740.098	307.839	0.099	0.185
-739.083	-22.638	0.226	0.137
-738.069	-200.000	0.053	0.296
-737.054	205.181	-0.103	-0.161
-736.039	-48.445	-0.157	0.076
-735.025	-200.000	-0.052	0.338
-734.010	-2.989	-0.226	-0.159
-732.996	-2.499	-0.317	-0.223
-731.981	-133.765	0.183	-0.023
-730.966	211.626	-0.075	0.119
-729.952	263.274	-0.245	-0.428
-728.937	-11.041	-0.136	-0.090
-727.923	159.276	0.153	-0.214
-726.908	-200.000	0.012	-0.143
-725.894	-200.000	0.053	-0.245
-724.879	-100.352	-0.266	-0.066
-723.864	421.649	0.134	-0.289
-722.850	-94.093	-0.252	0.070
-721.835	800.000	0.066	-0.214
-720.821	-122.373	0.100	0.016
-719.806	1.650	-0.262	0.190
-718.791	21.025	-0.223	-0.182
-717.777	800.000	-0.091	-0.360
-716.762	13.849	0.201	-0.157
-715.748	-88.105	0.160	0.048
-714.733	299.415	-0.185	0.343
-713.718	270.896	-0.239	-0.423
-712.704	-132.025	-0.266	-0.035
-711.689	-21.341	-0.233	0.143
-710.675	-128.124	0.155	0.022
-709.660	-21.094	0.414	-0.254
-708.645	-30.649	0.178	-0.101
-707.631	-200.000	-0.002	-0.011
-706.616	-128.177	-0.097	-0.014
-705.602	44.415	0.144	-0.133
-704.587	-58.205	0.196	0.086
-703.572	-45.664	-0.149	0.074
-702.558	20.073	-0.185	-0.150
-701.543	148.981	0.131	0.178
-700.529	339.377	0.099	-0.194
-699.514	-101.017	0.181	-0.045
-698.499	-130.944	0.356	-0.048
-697.485	357.745	-0.111	-0.223
-696.470	137.901	-0.012	-0.016
-695.456	-200.000	0.005	0.038
-694.441	11.463	0.223	-0.172
-693.426	307.492	-0.076	-0.142
-692.412	128.430	0.255	-0.326
-691.397	-41.282	-0.150	-0.078
-690.383	97.227	-0.061	-0.070
-689.368	-8.529	-0.085	0.057
-688.354	-140.296	-0.317	-0.033
-687.339	-200.000	-0.009	0.082
-686.324	-186.951	-0.094	-0.001
-685.310	145.498	-0.051	0.069
-684.295	188.374	-0.053	-0.080
-683.281	-82.009	0.203	0.067
-682.266	125.206	-0.195	-0.247
-681.251	-83.340	-0.254	-0.082
-680.237	36.148	-0.085	0.075
-679.222	-148.513	-0.064	0.005
-678.208	44.362	-0.156	-0.144
-677.193	-119.990	0.288	-0.050
-676.178	800.000	-0.042	-0.121
-675.164	-200.000	-0.019	-0.304
-674.149	734.323	-0.178	0.478
-673.135	13.165	0.134	-0.104
-672.120	-152.340	0.236	0.017
-671.105	-147.002	-0.147	-0.013
-670.091	8.150	0.158	0.119
-669.076	486.686	0.057	-0.131
-668.062	-200.000	-0.019	-0.384
-667.047	404.864	-0.131	-0.277
-666.032	-200.000	-0.025	0.346
-665.018	800.000	-0.040	0.159
-664.003	615.908	-0.058	-0.147
-662.989	-61.349	-0.114	0.048
-661.974	-78.523	-0.207	0.071
-660.959	90.172	0.087	0.098
-659.945	497.397	0.085	0.196
-658.930	-200.000	0.001	-0.047
-657.916	380.669	-0.104	-0.213
-656.901	-31.917	-0.067	-0.038
-655.886	-60.207	0.132	-0.056
-654.872	175.691	0.149	-0.216
-653.857	-200.000	-0.098	-0.541
-652.843	-46.959	0.090	-0.044
-651.828	-200.000	-0.063	0.294
-650.814	-96.071	-0.101	0.027
-649.799	800.000	-0.032	0.093
-648.784	-126.506	0.235	0.035
-647.770	-200.000	-0.047	-0.251
-646.755	-88.289	-0.085	0.025
-645.741	-33.426	-0.211	0.117
-644.726	449.329	0.103	-0.228
-643.711	-200.000	-0.046	-0.222
-642.697	-200.000	0.037	-0.205
-641.682	32.821	0.221	-0.192
-640.668	105.148	-0.164	-0.194
-639.653	-12.224	0.105	0.069
-638.638	-65.817	0.080	-0.032
-637.624	158.476	0.198	0.276
-636.609	-200.000	0.018	-0.362
-635.595	-200.000	0.046	-0.204
-634.580	23.058	-0.094	-0.077
-633.565	-85.592	0.087	0.027
-632.551	800.000	-0.102	0.314
-631.536	-105.182	0.236	-0.054
-630.522	-200.000	-0.021	-0.154
-629.507	-148.561	-0.277	-0.023
-628.492	-34.705	0.419	0.230
-627.478	-90.618	-0.188	0.054
-626.463	-119.103	-0.044	0.008
-625.449	-200.000	-0.047	0.240
-624.434	-129.303	0.218	0.030
-623.419	-21.116	0.225	-0.138
-622.405	-96.165	0.183	-0.049
-621.390	-200.000	-0.003	-0.168
-620.376	-99.394	0.354	0.089
-619.361	147.700	0.031	0.041
-618.346	-28.980	0.119	-0.069
-617.332	235.140	0.172	0.285
-616.317	-41.970	-0.285	-0.146
-615.303	-123.025	-0.205	-0.033
-614.288	268.863	-0.128	-0.224
-613.273	37.408	-0.236	-0.209
-612.259	-200.000	-0.010	0.048
-611.244	253.416	0.129	-0.220
-610.230	0.826	0.063	-0.045
-609.215	-157.299	0.497	-0.030
-608.201	-64.416	0.221	-0.090
-607.186	405.178	-0.083	0.174
-606.171	92.624	-0.073	0.082
-605.157	45.421	0.382	0.353
-604.142	94.203	-0.073	-0.082
-603.128	-200.000	0.091	-0.524
-602.113	436.331	0.158	-0.345
-601.098	-125.183	-0.160	0.024
-600.084	49.885	-0.159	0.150
-599.069	-42.444	-0.094	0.048
-598.055	-135.805	0.283	-0.033
-597.040	800.000	0.050	-0.190
-596.025	-200.000	-0.011	0.093
-595.011	35.888	-0.082	-0.072
-593.996	25.567	-0.224	-0.186
-592.982	-147.428	0.433	0.037
-591.967	126.004	-0.100	-0.126
-590.952	-200.000	0.022	0.209
-589.938	181.510	0.191	-0.281
-588.923	124.008	0.064	0.081
-587.909	342.525	-0.220	-0.430
-586.894	224.547	-0.085	-0.137
-585.879	104.788	0.133	0.157
-584.865	79.245	-0.075	-0.081
-583.850	-200.000	-0.009	-0.228
-582.836	-89.159	-0.134	-0.040
-581.821	-124.308	-0.238	-0.037
-580.806	-93.297	-0.350	-0.097
-579.792	383.571	0.133	0.273
-578.777	-41.896	0.129	-0.066
-577.763	164.121	-0.121	0.171
-576.748	214.898	0.031	0.050
-575.733	-31.968	0.111	0.062
-574.719	800.000	0.017	-0.062
-573.704	-77.023	-0.183	0.064
-572.690	-23.827	-0.124	-0.074
-571.675	-173.396	0.091	0.003
-570.661	124.554	0.199	0.250
-569.646	487.146	0.014	0.033
-568.631	48.688	-0.318	-0.298
-567.617	5.635	-0.304	-0.225
-566.602	-13.215	0.074	-0.048
-565.588	800.000	-0.133	-0.372
-564.573	133.259	-0.097	0.125
-563.558	-200.000	0.012	0.324
-562.544	198.854	0.121	0.186
-561.529	-200.000	0.000	0.130
-560.515	8.333	-0.361	-0.271
-559.500	-200.000	-0.035	-0.322
-558.485	130.962	-0.052	-0.066
-557.471	41.149	-0.152	-0.137
-556.456	198.170	-0.189	0.289
-555.442	293.348	0.185	-0.336
-554.427	-34.956	-0.061	0.033
-553.412	-200.000	-0.014	0.106
-552.398	-200.000	0.020	0.133
-551.383	-200.000	-0.001	-0.107
-550.369	-158.236	-0.104	-0.006
-549.354	-200.000	-0.024	-0.215
-548.339	96.515	-0.344	-0.393
-547.325	28.595	0.099	0.084
-546.310	-118.050	0.140	-0.025
-545.296	-200.000	-0.038	0.433
-544.281	34.251	0.233	-0.203
-543.266	76.800	-0.301	0.319
-542.252	-34.038	0.203	-0.112
-541.237	800.000	0.087	-0.277
-540.223	800.000	-0.124	0.364
-539.208	-200.000	0.022	0.176
-538.193	-85.231	0.242	0.076
-537.179	104.815	-0.142	-0.167
-536.164	-40.576	-0.319	-0.165
-535.150	485.941	-0.060	-0.137
-534.135	0.425	0.129	0.092
-533.121	-108.289	0.269	0.058
-532.106	235.118	-0.056	0.092
-531.091	-44.005	-0.191	0.096
-530.077	238.663	-0.047	-0.078
-529.062	92.986	-0.138	-0.155
-528.048	800.000	0.023	-0.072
-527.033	800.000	-0.070	-0.275
-526.018	295.774	0.074	-0.135
-525.004	-73.129	0.098	0.036
-523.989	-50.712	-0.048	-0.023
-522.975	-63.091	-0.301	0.124
-521.960	-106.033	0.175	0.039
-520.945	-40.045	-0.030	0.016
-519.931	64.388	0.300	0.302
-518.916	541.911	-0.150	-0.357
-517.902	42.344	0.086	-0.078
-516.887	-49.464	-0.115	0.055
-515.872	-125.819	0.243	-0.037
-514.858	37.159	-0.112	0.099
-513.843	-44.861	-0.095	-0.047
-512.829	-200.000	-0.062	-0.278
-511.814	-107.470	-0.139	0.030
-510.799	344.520	-0.056	0.110
-509.785	-200.000	-0.016	0.241
-508.770	130.215	0.186	-0.238
-507.756	800.000	-0.047	0.158
-506.741	-144.188	-0.131	-0.012
-505.726	238.383	0.184	0.305
-504.712	-105.971	0.306	0.069
-503.697	800.000	0.097	-0.316
-502.683	212.459	-0.139	0.218
-501.668	94.684	0.107	0.121
-500.653	129.273	-0.182	0.231
-499.639	-112.294	0.091	-0.018
-498.624	-47.129	0.313	-0.152
-497.610	-69.302	0.122	-0.047
-496.595	800.000	0.024	-0.090
-495.581	-90.818	-0.235	-0.067
-494.566	-137.772	0.420	-0.047
-493.551	-7.661	-0.168	0.113
-492.537	135.839	0.185	0.240
-491.522	477.125	0.056	-0.127
-490.508	122.893	0.272	0.339
-489.493	35.326	-0.181	0.159
-488.478	7.595	-0.182	0.136
-487.464	-23.616	0.138	0.082
-486.449	-200.000	0.046	0.245
-485.435	-73.364	0.382	0.139
-484.420	4.720	0.196	0.144
-483.405	254.836	-0.095	-0.161
-482.391	-169.623	0.125	0.005
-481.376	97.730	0.089	0.102
-480.362	800.000	-0.038	-0.110
-479.347	-148.371	-0.223	0.018
-478.332	-78.289	0.116	-0.040
-477.318	-109.389	-0.314	-0.066
-476.303	-15.634	-0.203	-0.129
-475.289	-200.000	0.038	-0.309
-474.274	-24.141	0.191	0.113
-473.259	-187.092	-0.219	0.003
-472.245	51.856	0.278	0.264
-471.230	-13.486	-0.227	-0.146
-470.216	-200.000	0.011	-0.221
-469.201	110.125	-0.042	0.050
-468.186	-54.464	-0.221	0.100
-467.172	41.584	0.117	0.106
-466.157	800.000	0.111	0.384
-465.143	461.706	-0.068	0.152
-464.128	-77.184	0.369	-0.128
-463.113	458.392	0.086	0.191
-462.099	800.000	-0.084	-0.360
-461.084	80.455	0.373	-0.399
-460.070	439.373	0.144	-0.312
-459.055	800.000	-0.025	-0.098
-458.040	17.559	0.220	0.174
-457.026	-84.108	-0.235	0.074
-456.011	-154.515	-0.509	0.034
-454.997	-98.948	0.196	0.049
-453.982	-96.625	-0.336	-0.088
-452.968	12.384	-0.425	-0.326
-451.953	136.967	0.076	0.099
-450.938	159.383	0.021	0.029
-449.924	447.746	0.101	-0.220
-448.909	-200.000	0.017	0.074
-447.895	-113.044	0.089	0.018
-446.880	60.288	-0.189	0.186
-445.865	-39.127	0.231	-0.121
-444.851	-1.981	-0.282	-0.197
-443.836	-32.709	0.509	-0.282
-442.822	112.256	0.088	-0.106
-441.807	162.135	0.051	0.071
-440.792	-87.868	0.238	-0.071
-439.778	-200.000	0.037	-0.305
-438.763	-200.000	-0.009	0.097
-437.749	800.000	-0.003	-0.012
-436.734	-115.889	-0.084	0.016
-435.719	-200.000	0.018	-0.103
-434.705	-200.000	0.018	-0.194
-433.690	-129.344	-0.250	-0.035
-432.676	67.623	-0.160	0.162
-431.661	-200.000	0.027	0.154
-430.646	-200.000	-0.010	-0.051
-429.632	-191.854	-0.023	0.000
-428.617	-200.000	-0.015	0.180
-427.603	-114.260	-0.099	-0.019
-426.588	-125.963	0.217	-0.032
-425.573	-114.786	-0.048	-0.009
-424.559	-168.714	-0.261	0.010
-423.544	190.467	0.142	-0.212
-422.530	-60.240	0.005	0.002
-421.515	-172.026	0.067	-0.002
-420.500	86.720	0.237	-0.260
-419.486	182.265	-0.062	-0.091
-418.471	-34.822	-0.228	0.124
-417.457	-200.000	-0.014	0.143
-416.442	-109.719	0.253	-0.053
-415.428	104.699	0.216	-0.253
-414.413	130.857	-0.338	-0.430
-413.398	-200.000	-0.039	-0.232
-412.384	800.000	-0.112	-0.428
-411.369	367.830	0.146	-0.292
-410.355	-200.000	-0.042	0.279
-409.340	321.665	0.105	-0.199
-408.325	-37.877	-0.484	0.256
-407.311	786.072	-0.137	-0.373
-406.296	-142.948	0.093	0.009
-405.282	111.947	-0.083	0.099
-404.267	-9.976	0.120	-0.079
-403.252	-200.000	-0.047	0.280
-402.238	110.845	-0.081	-0.097
-401.223	-200.000	-0.033	0.271
-400.209	757.471	-0.047	-0.126
-399.194	-180.070	-0.257	-0.005
-398.179	-85.835	0.222	0.068
-397.165	86.092	-0.157	-0.172
-396.150	-34.778	-0.131	0.071
-395.136	-74.723	0.404	-0.144
-394.121	-35.721	0.058	-0.031
-393.106	416.942	0.057	0.122
-392.092	-200.000	0.030	-0.360
-391.077	0.905	-0.286	0.203
-390.063	-48.655	-0.137	-0.065
-389.048	313.826	0.213	0.397
-388.033	800.000	-0.055	0.216
-387.019	-200.000	-0.005	-0.048
-386.004	-200.000	0.017	0.110
-384.990	-200.000	-0.033	-0.187
-383.975	-40.353	-0.183	-0.094
-382.960	-30.869	-0.207	-0.116
-381.946	-23.465	0.097	-0.058
-380.931	239.516	-0.026	0.042
-379.917	3.742	0.136	0.099
-378.902	-79.285	-0.335	0.113
-377.888	101.012	0.053	-0.061
-376.873	800.000	0.092	-0.325
-375.858	-200.000	0.087	-0.516
-374.844	800.000	-0.014	0.054
-373.829	247.997	-0.075	0.126
-372.815	324.228	-0.072	0.136
-371.800	-200.000	0.013	-0.111
-370.785	610.554	-0.096	0.239
-369.771	-13.561	-0.148	0.095
-368.756	-33.373	-0.257	-0.141
-367.742	347.998	0.061	0.119
-366.727	129.588	-0.246	0.312
-365.712	31.050	-0.167	0.142
-364.698	-200.000	-0.094	-0.420
-363.683	800.000	0.036	0.151
-362.669	-24.297	-0.299	0.177
-361.654	-200.000	-0.026	0.131
-360.639	46.269	0.455	0.418
-359.625	800.000	-0.091	0.362
-358.610	266.987	0.122	-0.212
-357.596	54.646	-0.055	-0.053
-356.581	111.125	-0.136	0.163
-355.566	4.888	0.069	0.050
-354.552	800.000	0.113	0.456
-353.537	158.736	-0.075	0.103
-352.523	-33.181	-0.268	0.147
-351.508	-127.383	-0.181	-0.026
-350.493	494.551	0.065	0.149
-349.479	-99.237	-0.202	-0.051
-348.464	572.104	0.072	-0.173
-347.450	-69.087	-0.339	0.129
-346.435	-104.819	0.153	0.035
-345.420	-50.822	0.337	0.157
-344.406	-90.910	-0.145	-0.041
-343.391	156.966	0.053	-0.073
-342.377	-105.274	0.302	0.068
-341.362	-200.000	-0.016	-0.142
-340.348	-3.983	0.083	-0.057
-339.333	65.007	-0.199	0.199
-338.318	-174.991	-0.228	0.006
-337.304	233.213	-0.146	-0.238
-336.289	-181.143	-0.214	0.004
-335.275	-200.000	0.026	0.210
-334.260	800.000	-0.125	-0.428
-333.245	97.921	0.209	-0.239
-332.231	-189.649	-0.137	0.002
-331.216	-106.021	-0.159	0.035
-330.202	-200.000	-0.068	-0.462
-329.187	800.000	0.128	0.443
-328.172	800.000	-0.087	-0.245
-327.158	246.233	-0.175	-0.293
-326.143	302.779	-0.095	-0.175
-325.129	9.593	0.185	-0.139
-324.114	800.000	-0.061	-0.250
-323.099	-200.000	0.016	0.121
-322.085	44.061	0.226	0.205
-321.070	-197.666	-0.469	0.003
-320.056	-11.464	-0.421	0.274
-319.041	135.000	0.184	0.236
-318.026	-200.000	-0.013	-0.099
-317.012	184.311	-0.057	-0.083
-315.997	-55.867	0.371	0.164
-314.983	-200.000	-0.039	0.457
-313.968	82.245	0.364	0.391
-312.953	-0.080	0.314	0.221
-311.939	-200.000	0.006	0.132
-310.924	-121.906	0.141	0.023
-309.910	-36.711	0.054	0.029
-308.895	67.912	-0.036	0.037
-307.880	800.000	-0.029	-0.106
-306.866	800.000	0.111	0.331
-305.851	-57.712	0.192	0.083
-304.837	157.969	0.067	-0.091
-303.822	-200.000	0.007	0.366
-302.807	-69.112	-0.089	-0.034
-301.793	-200.000	0.010	0.292
-300.778	-200.000	-0.018	-0.140
-299.764	-149.269	-0.350	0.028
-298.749	250.623	-0.066	0.110
-297.735	-18.830	0.191	0.117
-296.720	-87.310	0.363	0.109
-295.705	-182.851	-0.337	-0.006
-294.691	7.298	0.241	-0.178
-293.676	-28.160	0.199	-0.114
-292.662	-47.064	-0.096	-0.046
-291.647	-123.990	-0.139	-0.022
-290.632	103.343	0.063	0.074
-289.618	-79.023	-0.132	0.044
-288.603	-36.564	-0.267	0.142
-287.589	-200.000	-0.003	0.069
-286.574	27.183	-0.147	-0.122
-285.559	64.786	-0.274	0.274
-284.545	800.000	-0.062	-0.247
-283.530	9.642	0.256	-0.192
-282.516	-200.000	0.002	0.136
-281.501	116.850	-0.155	0.188
-280.486	-32.631	0.118	-0.065
-279.472	-48.533	-0.082	-0.039
-278.457	800.000	-0.011	-0.043
-277.443	160.703	0.240	0.332
-276.428	27.858	-0.111	-0.093
-275.413	-51.666	-0.049	-0.023
-274.399	-200.000	-0.031	-0.233
-273.384	-58.629	-0.234	-0.100
-272.370	800.000	-0.054	0.174
-271.355	61.089	-0.136	-0.134
-270.340	-200.000	-0.026	-0.146
-269.326	800.000	-0.065	-0.251
-268.311	-54.591	0.046	0.020
-267.297	389.642	0.160	0.327
-266.282	-110.307	0.101	0.021
-265.267	-9.734	-0.173	-0.114
-264.253	-175.102	0.361	-0.010
-263.238	169.617	0.223	-0.315
-262.224	-52.984	0.263	0.119
-261.209	-115.103	0.144	0.027
-260.195	1.064	-0.269	-0.191
-259.180	-1.141	-0.020	-0.014
-258.165	-34.592	-0.111	-0.060
-257.151	264.399	0.097	0.167
-256.136	-187.151	-0.306	-0.004
-255.122	-200.000	-0.030	-0.138
-254.107	94.576	-0.076	-0.085
-253.092	-44.879	0.123	0.060
-252.078	-64.805	0.084	0.034
-251.063	-131.070	0.094	-0.012
-250.049	-200.000	-0.020	-0.187
-249.034	-9.400	0.327	0.216
-248.019	-200.000	0.013	0.250
-247.005	545.420	-0.102	-0.240
-245.990	-129.769	0.139	-0.019
-244.976	-104.729	-0.063	0.014
-243.961	57.345	-0.188	0.181
-242.946	800.000	0.099	0.325
-241.932	-200.000	-0.043	0.186
-240.917	-144.561	-0.094	0.009
-239.903	111.072	0.300	-0.357
-238.888	800.000	0.062	-0.247
-237.873	629.395	0.052	-0.129
-236.859	6.093	0.205	0.150
-235.844	31.287	-0.291	-0.247
-234.830	-200.000	-0.037	-0.226
-233.815	69.299	0.108	-0.110
-232.800	800.000	-0.063	0.220
-231.786	116.260	-0.016	0.019
-230.771	-200.000	-0.004	-0.126
-229.757	-173.879	-0.153	0.004
-228.742	-36.778	-0.145	0.077
-227.727	534.259	-0.046	0.108
-226.713	-69.563	0.267	0.101
-225.698	-179.316	-0.191	0.004
-224.684	-177.489	-0.310	0.007
-223.669	156.448	0.271	0.369
-222.655	117.778	-0.079	-0.095
-221.640	-146.605	-0.338	0.029
-220.625	-136.884	-0.115	0.013
-219.611	144.806	-0.115	0.151
-218.596	54.510	-0.147	0.140
-217.582	-116.489	0.248	0.045
-216.567	-200.000	-0.044	0.297
-215.552	-36.512	0.176	-0.094
-214.538	14.094	0.152	0.117
-213.523	83.128	-0.126	0.135
-212.509	-116.906	0.125	0.022
-211.494	143.200	-0.039	0.052
-210.479	-24.001	-0.144	-0.085
-209.465	33.129	-0.163	-0.139
-208.450	-200.000	0.045	0.633
-207.436	-200.000	-0.048	0.747
-206.421	-200.000	0.051	0.250
-205.406	-75.288	-0.076	-0.027
-204.392	356.929	-0.035	-0.068
-203.377	490.845	0.072	0.162
-202.363	800.000	-0.122	-0.374
-201.348	20.249	0.355	0.282
-200.333	68.513	0.220	0.222
-199.319	229.237	-0.182	-0.293
-198.304	76.915	-0.076	0.080
-197.290	-200.000	-0.061	0.305
-196.275	74.419	-0.091	0.094
-195.260	83.257	0.178	0.191
-194.246	48.780	-0.228	-0.210
-193.231	-200.000	-0.006	-0.122
-192.217	-70.783	-0.299	0.111
-191.202	800.000	0.092	-0.342
-190.187	18.471	-0.172	-0.135
-189.173	-116.933	0.216	-0.039
-188.158	114.271	0.111	0.133
-187.144	-113.439	0.201	0.039
-186.129	-200.000	0.005	0.191
-185.114	-7.118	0.060	0.040
-184.100	-158.087	0.365	-0.021
-183.085	48.614	-0.133	0.123
-182.071	800.000	-0.018	-0.076
-181.056	800.000	-0.046	-0.138
-180.042	12.582	0.523	0.398
-179.027	-20.009	0.196	-0.119
-178.012	-200.000	0.002	-0.062
-176.998	-200.000	0.075	0.336
-175.983	-78.775	0.306	0.103
-174.969	-23.895	-0.187	-0.110
-173.954	-40.988	-0.162	0.082
-172.939	300.725	0.141	-0.257
-171.925	-93.141	-0.120	0.033
-170.910	-200.000	0.001	0.025
-169.896	800.000	0.054	0.180
-168.881	-136.819	0.192	-0.022
-167.866	-99.221	-0.226	-0.056
-166.852	-41.789	0.316	-0.159
-165.837	-74.426	0.222	-0.079
-164.823	68.926	0.294	0.298
-163.808	-106.857	-0.155	-0.034
-162.793	290.149	0.067	-0.119
-161.779	-122.497	-0.251	0.040
-160.764	-123.532	0.141	0.022
-159.750	-97.592	-0.157	0.040
-158.735	-200.000	-0.020	0.191
-157.720	-200.000	-0.012	0.207
-156.706	490.684	0.160	-0.359
-155.691	49.321	-0.195	-0.180
-154.677	-68.724	-0.216	-0.082
-153.662	800.000	0.068	0.269
-152.647	39.420	0.127	-0.112
-151.633	-35.746	0.333	-0.177
-150.618	625.637	0.161	-0.400
-149.604	-195.342	0.436	0.003
-148.589	-153.871	-0.196	-0.013
-147.574	-97.715	0.279	0.071
-146.560	198.141	0.182	-0.274
-145.545	800.000	0.082	-0.276
-144.531	-46.781	-0.234	-0.113
-143.516	-88.435	0.177	-0.052
-142.502	405.047	0.101	-0.209
-141.487	8.161	-0.174	0.129
-140.472	26.695	-0.105	0.086
-139.458	800.000	-0.039	-0.156
-138.443	141.346	0.154	0.200
-137.429	285.040	-0.063	0.112
-136.414	-200.000	-0.026	-0.111
-135.399	88.780	-0.109	-0.119
-134.385	-12.870	-0.146	-0.093
-133.370	8.732	-0.145	-0.107
-132.356	447.383	-0.165	-0.358
-131.341	-140.483	0.188	-0.019
-130.326	800.000	-0.030	-0.083
-129.312	7.861	0.354	0.261
-128.297	46.776	0.120	0.110
-127.283	-61.713	-0.087	0.036
-126.268	60.969	0.219	-0.214
-125.253	-200.000	0.023	0.322
-124.239	31.319	0.219	0.185
-123.224	-32.929	-0.334	-0.182
-122.210	68.696	-0.238	0.240
