DTS Sentinel unit serial number:	SN413079Multiplexer serial number:	ORYXHardware model number:	OX4-SRSoftware version number:	ORYX F/W v4.00 Oryx Data Collector v3.7.2.0data status	okinstallation	princeton_trtdifferential loss correction	single-endedforward channel	channel 1reverse channel	N/Adate	2019/09/11time	18:28:11forward acquisition time	60.00reverse acquisition time	0.00gamma	496.2192k internal	0.2290k external	0.2290temperature offset calibration	1.0003default loss term (dB/km)	0.3790temperature slope calibration	1.0000multiplexer offset coefficient	1.0000multiplexer slope coefficient	1.0000fibre end	0.00T internal ref (°C)	43.87T ext. ref 1 (°C)	1.17T ext. ref 2 (°C)	37.71length (m)	temperature (°C)	Stokes	anti-Stokes-747.200	-56.479	-0.222	0.101
-746.185	-200.000	-0.006	0.310
-745.171	424.363	-0.089	0.195
-744.156	-33.336	0.400	0.227
-743.142	-49.522	-0.242	0.118
-742.127	-200.000	-0.016	0.414
-741.112	-87.047	-0.120	0.037
-740.098	107.857	-0.149	0.182
-739.083	-62.169	0.270	0.115
-738.069	420.478	0.061	0.134
-737.054	187.545	-0.093	0.142
-736.039	-40.091	-0.422	-0.225
-735.025	574.440	0.089	-0.223
-734.010	76.029	0.049	0.053
-732.996	-27.386	0.299	-0.178
-731.981	337.867	-0.089	-0.177
-730.966	-74.237	-0.248	-0.092
-729.952	99.015	0.087	-0.102
-728.937	-90.476	-0.203	-0.060
-727.923	-200.000	-0.012	-0.078
-726.908	-200.000	0.000	-0.087
-725.894	101.949	-0.192	-0.229
-724.879	659.137	-0.053	-0.139
-723.864	618.877	-0.090	-0.232
-722.850	-80.631	0.286	0.097
-721.835	20.960	-0.038	-0.032
-720.821	-109.736	-0.186	0.040
-719.806	-70.924	-0.112	0.043
-718.791	-200.000	0.006	0.131
-717.777	316.284	-0.037	0.071
-716.762	642.137	-0.204	-0.533
-715.748	94.515	-0.267	-0.311
-714.733	2.634	-0.432	0.320
-713.718	65.991	-0.045	0.047
-712.704	5.685	0.214	-0.162
-711.689	800.000	0.035	-0.100
-710.675	-200.000	-0.016	-0.109
-709.660	-20.496	0.372	0.234
-708.645	-87.596	-0.237	0.073
-707.631	-65.702	-0.149	-0.061
-706.616	-34.299	0.064	0.036
-705.602	-82.722	-0.091	0.030
-704.587	-200.000	-0.021	-0.465
-703.572	185.176	-0.123	0.187
-702.558	274.044	0.093	0.169
-701.543	409.140	0.102	0.221
-700.529	-43.687	-0.129	0.067
-699.514	61.539	0.482	0.491
-698.499	-95.693	0.177	0.048
-697.485	115.936	-0.257	-0.322
-696.470	-17.419	0.050	-0.032
-695.456	-7.618	0.094	0.065
-694.441	72.680	0.158	0.169
-693.426	-122.666	-0.260	0.043
-692.412	-6.248	0.156	0.109
-691.397	78.520	0.099	-0.108
-690.383	-168.090	-0.448	0.018
-689.368	29.170	0.322	-0.279
-688.354	-27.745	0.043	-0.026
-687.339	-92.492	0.261	0.075
-686.324	-4.938	-0.239	-0.168
-685.310	-200.000	0.008	0.079
-684.295	16.169	-0.260	0.210
-683.281	-200.000	0.076	0.468
-682.266	334.562	-0.112	-0.222
-681.251	14.238	0.214	-0.171
-680.237	305.970	-0.114	0.218
-679.222	-33.786	-0.140	-0.079
-678.208	-148.499	-0.323	-0.027
-677.193	117.188	-0.070	-0.088
-676.178	46.606	-0.166	-0.157
-675.164	510.730	-0.046	0.110
-674.149	268.088	-0.106	0.190
-673.135	-7.111	0.105	-0.073
-672.120	-200.000	0.028	0.251
-671.105	-161.975	0.033	-0.002
-670.091	35.695	0.028	0.026
-669.076	-200.000	0.010	-0.204
-668.062	162.648	0.071	0.102
-667.047	199.273	0.127	0.199
-666.032	-27.731	0.180	-0.107
-665.018	59.535	-0.052	0.053
-664.003	58.221	0.146	-0.146
-662.989	-200.000	-0.014	0.127
-661.974	-200.000	-0.027	-0.164
-660.959	-51.967	-0.177	-0.084
-659.945	76.538	-0.100	-0.108
-658.930	800.000	-0.071	-0.271
-657.916	-200.000	-0.008	-0.131
-656.901	95.275	-0.102	0.119
-655.886	800.000	0.069	-0.265
-654.872	90.994	0.203	-0.233
-653.857	-154.228	-0.196	0.014
-652.843	-118.302	-0.391	-0.071
-651.828	-35.149	-0.170	0.094
-650.814	800.000	0.093	0.299
-649.799	-200.000	0.003	-0.108
-648.784	-124.841	0.246	0.039
-647.770	-133.892	0.058	0.007
-646.755	-200.000	-0.001	0.343
-645.741	-105.198	0.193	0.045
-644.726	-200.000	-0.043	0.191
-643.711	0.636	0.201	-0.147
-642.697	-93.449	0.103	-0.029
-641.682	-76.137	-0.395	-0.142
-640.668	188.426	0.105	0.160
-639.653	-146.600	0.273	-0.024
-638.638	69.267	0.289	-0.303
-637.624	19.149	-0.197	0.162
-636.609	157.492	0.072	-0.102
-635.595	-200.000	0.003	0.121
-634.580	-7.803	0.050	-0.034
-633.565	248.142	0.083	-0.143
-632.551	800.000	0.159	-0.537
-631.536	-200.000	-0.054	0.292
-630.522	374.353	0.061	-0.127
-629.507	90.677	-0.084	-0.096
-628.492	24.318	-0.292	0.246
-627.478	-103.857	0.313	0.075
-626.463	155.077	0.090	0.126
-625.449	210.472	0.111	-0.178
-624.434	146.856	-0.089	-0.122
-623.419	-200.000	0.017	-0.505
-622.405	-200.000	0.015	0.183
-621.390	800.000	0.017	0.074
-620.376	74.391	-0.132	0.141
-619.361	390.312	-0.076	-0.160
-618.346	800.000	0.142	-0.447
-617.332	43.832	0.174	0.162
-616.317	134.741	-0.204	-0.270
-615.303	-145.088	-0.183	0.017
-614.288	800.000	-0.099	0.336
-613.273	800.000	-0.070	0.225
-612.259	-200.000	-0.072	-0.327
-611.244	800.000	0.069	0.200
-610.230	547.076	0.142	0.347
-609.215	-20.290	0.256	0.160
-608.201	-200.000	-0.028	-0.129
-607.186	211.911	0.095	-0.152
-606.171	19.385	0.110	0.090
-605.157	34.864	-0.084	0.075
-604.142	-131.178	-0.342	0.046
-603.128	506.221	-0.090	0.212
-602.113	800.000	0.087	-0.264
-601.098	-45.952	-0.203	0.102
-600.084	60.435	0.064	0.065
-599.069	-200.000	-0.043	-0.284
-598.055	142.652	0.147	0.198
-597.040	-153.907	0.382	-0.027
-596.025	-105.223	0.098	-0.023
-595.011	325.894	-0.061	-0.118
-593.996	-200.000	-0.040	-0.353
-592.982	33.140	0.048	0.042
-591.967	800.000	-0.077	-0.221
-590.952	-97.544	-0.298	-0.079
-589.938	-24.273	0.242	-0.147
-588.923	-200.000	-0.022	-0.111
-587.909	148.986	-0.154	0.212
-586.894	-143.413	0.385	0.037
-585.879	-200.000	-0.060	-0.354
-584.865	-106.506	0.202	0.046
-583.850	-12.325	0.074	-0.049
-582.836	-200.000	-0.062	-0.341
-581.821	401.506	-0.105	0.224
-580.806	164.641	0.142	0.203
-579.792	-200.000	0.002	-0.069
-578.777	64.114	-0.262	-0.268
-577.763	-121.736	0.179	0.030
-576.748	4.308	0.115	-0.085
-575.733	800.000	0.037	-0.160
-574.719	77.649	0.213	-0.231
-573.704	-46.125	0.081	0.041
-572.690	77.565	-0.157	0.170
-571.675	-200.000	0.009	0.396
-570.661	66.117	-0.117	0.121
-569.646	-200.000	-0.038	-0.279
-568.631	638.613	0.102	-0.264
-567.617	800.000	-0.099	-0.356
-566.602	-200.000	-0.039	-0.275
-565.588	-139.364	0.187	-0.020
-564.573	-94.811	-0.139	-0.038
-563.558	151.067	-0.077	-0.107
-562.544	171.566	-0.114	0.166
-561.529	275.354	-0.166	-0.299
-560.515	-81.234	0.290	-0.097
-559.500	-80.549	0.250	-0.085
-558.485	43.577	-0.320	0.297
-557.471	-108.023	0.251	-0.055
-556.456	-200.000	0.068	0.339
-555.442	-200.000	0.038	0.374
-554.427	229.324	-0.150	0.249
-553.412	800.000	0.039	0.135
-552.398	12.802	0.116	-0.091
-551.383	584.823	-0.105	-0.263
-550.369	71.703	0.210	0.222
-549.354	29.415	0.042	0.036
-548.339	-200.000	-0.055	-0.391
-547.325	560.962	-0.122	-0.299
-546.310	-82.386	-0.272	0.090
-545.296	123.301	-0.046	-0.059
-544.281	-106.179	-0.242	-0.055
-543.266	-11.415	-0.252	0.168
-542.252	-3.026	0.075	-0.053
-541.237	55.767	0.116	-0.114
-540.223	-139.333	0.262	-0.029
-539.208	-97.271	0.073	-0.019
-538.193	-105.453	0.196	0.045
-537.179	-84.174	-0.283	-0.091
-536.164	122.821	0.021	-0.027
-535.150	-28.342	0.101	-0.059
-534.135	-139.591	-0.260	-0.028
-533.121	-200.000	0.026	0.201
-532.106	800.000	0.053	0.184
-531.091	241.312	-0.261	0.442
-530.077	-200.000	-0.014	-0.068
-529.062	59.058	0.101	0.101
-528.048	-128.716	0.140	0.020
-527.033	800.000	-0.052	-0.156
-526.018	35.926	-0.094	0.084
-525.004	-112.757	0.171	0.034
-523.989	276.809	-0.135	0.244
-522.975	179.940	-0.134	-0.200
-521.960	-83.775	0.117	-0.038
-520.945	-81.246	-0.222	0.074
-519.931	-133.589	0.140	-0.018
-518.916	244.841	0.319	-0.545
-517.902	-15.411	-0.153	-0.100
-516.887	-0.268	-0.084	0.060
-515.872	-151.000	-0.037	0.003
-514.858	-83.594	-0.318	-0.103
-513.843	-124.494	-0.245	-0.039
-512.829	-22.923	-0.328	-0.201
-511.814	224.990	0.113	0.186
-510.799	-34.366	-0.237	0.132
-509.785	-36.393	-0.057	0.031
-508.770	-102.502	0.412	0.100
-507.756	540.421	0.059	0.142
-506.741	-200.000	-0.016	-0.079
-505.726	-94.347	-0.174	0.048
-504.712	-80.077	-0.219	-0.075
-503.697	734.097	-0.102	-0.278
-502.683	-51.534	-0.068	0.032
-501.668	-82.380	-0.011	0.004
-500.653	59.055	-0.049	0.049
-499.639	-123.307	-0.180	-0.029
-498.624	-110.357	-0.233	0.049
-497.610	-188.981	-0.172	0.002
-496.595	-97.625	-0.038	-0.010
-495.581	-40.743	0.179	-0.094
-494.566	194.396	-0.097	0.149
-493.551	13.885	-0.068	0.054
-492.537	202.858	-0.136	0.212
-491.522	-167.064	0.252	0.010
-490.508	-59.947	0.204	-0.088
-489.493	-121.678	-0.093	0.016
-488.478	635.588	0.127	0.328
-487.464	65.557	-0.126	0.130
-486.449	244.843	0.112	0.192
-485.435	382.627	-0.118	0.246
-484.420	-200.000	0.026	0.284
-483.405	221.328	-0.140	0.229
-482.391	-159.593	0.260	-0.015
-481.376	-200.000	0.060	-0.413
-480.362	-174.603	-0.269	-0.008
-479.347	800.000	0.086	-0.256
-478.332	-49.680	-0.314	0.151
-477.318	-9.811	-0.268	0.181
-476.303	-200.000	-0.020	-0.155
-475.289	-200.000	0.033	-0.346
-474.274	-200.000	-0.014	-0.087
-473.259	107.518	-0.054	0.065
-472.245	-200.000	0.041	0.206
-471.230	-200.000	-0.001	-0.273
-470.216	-51.693	0.115	0.054
-469.201	-103.020	-0.029	0.007
-468.186	363.116	-0.175	0.356
-467.172	-10.090	-0.185	0.125
-466.157	-200.000	0.051	0.323
-465.143	765.014	0.080	0.221
-464.128	-58.017	0.160	0.071
-463.113	800.000	0.061	0.231
-462.099	-64.508	-0.181	-0.074
-461.084	253.905	-0.140	0.243
-460.070	800.000	0.093	-0.300
-459.055	800.000	-0.132	0.394
-458.040	78.841	-0.085	-0.092
-457.026	-161.119	0.112	-0.006
-456.011	-44.566	0.178	0.090
-454.997	-200.000	0.025	-0.180
-453.982	-41.509	-0.141	0.074
-452.968	-200.000	-0.011	0.421
-451.953	-95.762	-0.112	0.030
-450.938	800.000	-0.042	-0.147
-449.924	-83.792	-0.234	0.076
-448.909	72.190	0.036	0.038
-447.895	800.000	-0.066	-0.284
-446.880	83.821	-0.127	-0.140
-445.865	179.968	0.101	0.150
-444.851	40.440	0.074	-0.067
-443.836	-200.000	0.030	-0.172
-442.822	-131.427	0.044	-0.006
-441.807	-200.000	-0.005	0.243
-440.792	-200.000	0.001	-0.032
-439.778	-34.579	-0.188	0.104
-438.763	800.000	-0.044	-0.164
-437.749	183.678	-0.213	-0.319
-436.734	-95.563	-0.112	0.030
-435.719	456.173	0.094	0.211
-434.705	258.909	-0.143	0.250
-433.690	68.489	-0.262	0.271
-432.676	800.000	-0.038	0.150
-431.661	-96.319	-0.172	-0.046
-430.646	-119.023	0.477	0.085
-429.632	131.169	-0.105	-0.136
-428.617	138.586	0.176	0.233
-427.603	-200.000	-0.003	0.443
-426.588	590.218	-0.115	0.286
-425.573	77.352	0.062	0.067
-424.559	800.000	-0.105	-0.301
-423.544	22.141	-0.269	0.222
-422.530	204.344	-0.080	0.126
-421.515	-144.860	0.230	0.021
-420.500	-69.374	-0.154	0.060
-419.486	146.492	0.122	0.165
-418.471	65.020	0.055	-0.056
-417.457	335.158	0.238	-0.467
-416.442	266.975	0.063	0.111
-415.428	153.263	0.081	-0.113
-414.413	-115.824	0.262	0.050
-413.398	-200.000	-0.002	-0.165
-412.384	800.000	-0.074	0.298
-411.369	-6.161	-0.350	0.242
-410.355	36.748	-0.209	0.187
-409.340	0.796	0.283	-0.205
-408.325	37.410	-0.130	-0.116
-407.311	-74.661	-0.253	-0.092
-406.296	-56.963	0.068	-0.030
-405.282	232.357	0.160	0.266
-404.267	-80.065	0.093	-0.031
-403.252	36.778	-0.090	0.080
-402.238	-65.720	-0.157	0.064
-401.223	1.755	-0.252	0.184
-400.209	568.936	-0.052	0.127
-399.194	-101.720	0.249	-0.061
-398.179	-100.095	0.222	-0.056
-397.165	-8.317	0.115	0.078
-396.150	37.497	0.103	-0.093
-395.136	-68.942	-0.068	0.027
-394.121	33.398	0.154	-0.135
-393.106	47.532	0.097	-0.091
-392.092	-145.382	-0.251	0.023
-391.077	-80.843	0.417	-0.140
-390.063	-200.000	-0.003	0.246
-389.048	213.529	0.073	0.117
-388.033	770.131	0.106	0.291
-387.019	800.000	-0.083	0.256
-386.004	800.000	0.057	-0.197
-384.990	4.613	-0.173	-0.128
-383.975	-129.053	-0.108	-0.015
-382.960	314.332	-0.095	-0.181
-381.946	-200.000	0.004	0.214
-380.931	98.554	0.165	-0.193
-379.917	-200.000	0.003	-0.116
-378.902	-200.000	-0.074	-0.340
-377.888	58.432	-0.186	-0.184
-376.873	345.170	0.028	0.056
-375.858	-125.310	-0.098	-0.015
-374.844	-102.546	0.165	-0.040
-373.829	23.019	-0.106	-0.088
-372.815	56.509	-0.039	-0.038
-371.800	19.026	0.174	-0.141
-370.785	55.044	-0.162	-0.158
-369.771	20.734	0.122	-0.100
-368.756	800.000	-0.067	0.211
-367.742	-47.519	0.364	0.179
-366.727	-200.000	0.053	0.346
-365.712	149.991	0.086	0.118
-364.698	-49.409	0.151	0.073
-363.683	95.216	0.110	0.127
-362.669	-64.999	0.085	-0.035
-361.654	60.392	-0.159	0.159
-360.639	-200.000	-0.015	-0.424
-359.625	-114.489	0.362	-0.070
-358.610	-200.000	-0.023	0.190
-357.596	-200.000	0.018	-0.083
-356.581	-67.524	-0.188	0.075
-355.566	762.669	0.068	0.185
-354.552	610.015	-0.081	0.204
-353.537	53.706	0.393	0.381
-352.523	79.685	-0.037	0.040
-351.508	-61.073	-0.125	0.053
-350.493	-157.225	-0.241	-0.015
-349.479	64.204	0.212	-0.215
-348.464	-200.000	0.020	0.228
-347.450	-132.123	0.346	-0.045
-346.435	128.271	-0.108	0.139
-345.420	-135.055	0.244	-0.030
-344.406	93.749	-0.120	0.137
-343.391	-200.000	0.001	0.220
-342.377	115.482	0.109	0.134
-341.362	-200.000	-0.015	-0.135
-340.348	243.416	0.079	-0.134
-339.333	-151.486	-0.429	0.032
-338.318	-9.938	0.135	0.091
-337.304	21.666	-0.203	0.167
-336.289	143.198	0.174	0.234
-335.275	42.390	-0.077	-0.071
-334.260	-6.352	-0.426	-0.293
-333.245	-6.698	0.356	-0.245
-332.231	-151.577	0.252	0.019
-331.216	263.203	0.120	0.210
-330.202	-200.000	0.015	0.220
-329.187	-200.000	-0.089	0.413
-328.172	-114.994	-0.231	0.044
-327.158	-200.000	0.039	-0.268
-326.143	433.813	0.091	0.199
-325.129	-127.265	-0.275	0.040
-324.114	-176.021	-0.347	-0.009
-323.099	71.695	-0.069	0.072
-322.085	-168.739	-0.126	-0.005
-321.070	-21.425	-0.260	0.160
-320.056	81.189	-0.310	-0.337
-319.041	-200.000	-0.075	-0.372
-318.026	-60.194	-0.261	-0.112
-317.012	-200.000	-0.043	-0.342
-315.997	38.909	-0.114	0.102
-314.983	-176.031	0.330	0.009
-313.968	39.807	0.106	-0.096
-312.953	-12.346	-0.211	0.139
-311.939	578.494	-0.092	-0.228
-310.924	37.200	0.185	0.165
-309.910	252.543	-0.080	-0.137
-308.895	118.979	0.040	0.049
-307.880	72.012	0.163	0.171
-306.866	-56.553	-0.242	-0.108
-305.851	-200.000	-0.032	-0.241
-304.837	-76.202	-0.123	-0.044
-303.822	-0.631	-0.081	-0.058
-302.807	-28.330	0.304	-0.177
-301.793	-15.003	0.081	-0.052
-300.778	134.466	0.416	-0.543
-299.764	-200.000	0.022	-0.163
-298.749	-200.000	-0.003	0.143
-297.735	-66.207	-0.272	-0.109
-296.720	41.647	0.226	-0.206
-295.705	72.289	0.099	-0.104
-294.691	-27.094	-0.569	-0.334
-293.676	-75.345	0.018	-0.006
-292.662	-108.442	-0.155	-0.034
-291.647	83.896	-0.161	-0.177
-290.632	10.123	0.087	0.067
-289.618	1.486	0.206	0.149
-288.603	364.555	-0.098	0.198
-287.589	379.474	0.250	-0.515
-286.574	401.927	0.149	-0.314
-285.559	85.770	0.123	-0.137
-284.545	-200.000	0.024	0.210
-283.530	800.000	-0.051	0.197
-282.516	66.015	0.029	-0.030
-281.501	-185.469	0.267	0.004
-280.486	10.065	0.072	-0.055
-279.472	-200.000	0.001	0.212
-278.457	-16.376	-0.127	-0.081
-277.443	800.000	0.035	0.104
-276.428	-10.988	0.133	-0.088
-275.413	-74.096	0.139	-0.051
-274.399	149.423	0.211	0.287
-273.384	-77.153	-0.294	0.103
-272.370	-8.415	0.263	-0.178
-271.355	-60.903	0.053	-0.022
-270.340	274.175	-0.166	0.295
-269.326	151.531	-0.100	-0.137
-268.311	51.226	-0.179	0.171
-267.297	122.337	0.245	0.308
-266.282	800.000	0.060	0.233
-265.267	-200.000	-0.061	0.281
-264.253	-200.000	-0.018	-0.135
-263.238	190.135	0.196	-0.296
-262.224	-78.011	-0.504	-0.175
-261.209	-153.547	0.136	0.009
-260.195	-200.000	-0.000	0.184
-259.180	2.629	0.134	-0.098
-258.165	-58.318	0.237	-0.104
-257.151	800.000	0.055	-0.154
-256.136	-112.601	-0.184	0.037
-255.122	-120.751	0.399	-0.068
-254.107	232.659	0.068	0.113
-253.092	146.522	0.038	-0.051
-252.078	-66.623	-0.107	0.043
-251.063	800.000	0.082	-0.299
-250.049	509.754	0.138	-0.323
-249.034	-123.793	-0.241	0.038
-248.019	-200.000	-0.010	-0.151
-247.005	265.155	-0.070	0.122
-245.990	-170.386	-0.122	-0.004
-244.976	405.908	0.172	0.364
-243.961	41.753	-0.054	-0.049
-242.946	-134.485	-0.152	0.019
-241.932	-200.000	0.090	-0.415
-240.917	738.071	0.138	-0.371
-239.903	-110.523	-0.311	0.065
-238.888	-179.275	0.357	0.008
-237.873	-23.068	-0.239	0.145
-236.859	-21.353	0.199	-0.122
-235.844	604.053	0.095	0.238
-234.830	363.391	0.056	0.112
-233.815	-25.036	0.249	-0.148
-232.800	-117.340	0.204	-0.037
-231.786	-200.000	-0.019	-0.105
-230.771	51.251	0.188	0.179
-229.757	-99.003	0.117	-0.030
-228.742	-127.374	0.356	-0.052
-227.727	268.263	-0.019	-0.033
-226.713	-88.280	0.015	0.005
-225.698	-36.975	-0.194	-0.104
-224.684	443.640	-0.038	-0.083
-223.669	-135.505	0.233	-0.028
-222.655	55.000	-0.149	0.145
-221.640	800.000	0.019	-0.078
-220.625	274.334	0.068	0.121
-219.611	8.565	-0.184	-0.139
-218.596	38.488	-0.091	0.082
-217.582	-122.970	0.221	0.036
-216.567	-200.000	0.039	-0.211
-215.552	228.322	-0.232	-0.379
-214.538	-200.000	0.025	0.160
-213.523	-200.000	-0.080	0.366
-212.509	-58.613	0.073	0.032
-211.494	-159.749	-0.295	-0.016
-210.479	-160.135	0.138	0.008
-209.465	436.394	-0.182	0.399
-208.450	-200.000	-0.001	0.111
-207.436	-86.503	0.141	-0.043
-206.421	-104.307	-0.177	-0.041
-205.406	65.276	-0.119	-0.121
-204.392	174.032	-0.072	0.104
-203.377	-200.000	0.044	0.198
-202.363	48.491	0.166	-0.156
-201.348	-104.635	-0.168	-0.039
-200.333	48.877	0.163	0.153
-199.319	-200.000	-0.019	0.207
-198.304	339.616	0.114	-0.223
-197.290	-115.559	-0.259	-0.049
-196.275	-132.893	0.276	0.035
-195.260	800.000	0.109	-0.322
-194.246	700.390	-0.103	0.271
-193.231	-36.266	0.239	0.129
-192.217	-200.000	-0.012	-0.093
-191.202	168.203	0.121	0.173
-190.187	57.060	0.108	0.105
-189.173	-29.091	0.149	-0.086
-188.158	-200.000	0.024	0.239
-187.144	-200.000	-0.010	0.072
-186.129	-160.188	-0.113	-0.006
-185.114	332.320	0.031	-0.061
-184.100	67.561	-0.102	-0.105
-183.085	-85.141	-0.145	-0.045
-182.071	57.496	-0.046	0.045
-181.056	39.908	-0.153	0.138
-180.042	800.000	-0.051	-0.190
-179.027	37.553	0.151	0.134
-178.012	275.816	-0.135	-0.240
-176.998	800.000	0.159	-0.550
-175.983	-47.132	-0.265	-0.129
-174.969	-200.000	-0.008	0.095
-173.954	-79.108	0.134	0.046
-172.939	-19.156	0.201	-0.125
-171.925	-140.166	-0.508	0.053
-170.910	-200.000	0.003	-0.157
-169.896	-200.000	0.018	0.146
-168.881	522.106	-0.096	-0.226
-167.866	162.798	0.128	-0.180
-166.852	20.404	0.162	-0.131
-165.837	-81.749	-0.180	-0.059
-164.823	-0.261	-0.249	-0.177
-163.808	558.085	-0.013	0.031
-162.793	57.674	0.147	0.144
-161.779	-145.434	0.289	-0.026
-160.764	497.975	-0.156	0.359
-159.750	-44.827	0.185	0.092
-158.735	-200.000	0.002	-0.241
-157.720	228.576	-0.223	0.364
-156.706	339.403	0.162	-0.315
-155.691	-123.323	0.196	-0.031
-154.677	-86.208	-0.054	0.017
-153.662	26.442	0.169	0.142
-152.647	67.082	-0.026	-0.027
-151.633	-67.546	-0.274	-0.108
-150.618	-200.000	-0.009	0.396
-149.604	-59.219	-0.219	-0.094
-148.589	248.900	0.053	-0.090
-147.574	-87.602	0.107	-0.032
-146.560	-200.000	-0.012	-0.118
-145.545	4.616	0.166	-0.122
-144.531	-76.501	0.210	-0.074
-143.516	-200.000	-0.001	-0.043
-142.502	-4.671	-0.118	0.081
-141.487	-53.635	0.068	-0.031
-140.472	-200.000	-0.066	0.372
-139.458	703.870	0.024	-0.064
-138.443	259.036	0.286	-0.494
-137.429	169.852	0.302	0.432
-136.414	-200.000	0.015	0.164
-135.399	-114.339	-0.110	0.021
-134.385	-94.394	0.232	0.063
-133.370	-200.000	-0.017	0.159
-132.356	-134.371	0.102	0.013
-131.341	800.000	-0.091	0.332
-130.326	-82.166	-0.252	0.082
-129.312	800.000	-0.082	0.264
-128.297	-200.000	-0.007	0.209
-127.283	124.514	0.081	0.102
-126.268	-72.064	0.338	-0.126
-125.253	63.474	-0.242	0.243
-124.239	117.842	-0.158	0.195
-123.224	56.539	0.034	0.033
-122.210	-200.000	-0.002	0.124
-121.195	14.106	-0.086	-0.067
-120.180	-41.878	-0.361	0.185
