DTS Sentinel unit serial number:	SN413079Multiplexer serial number:	ORYXHardware model number:	OX4-SRSoftware version number:	ORYX F/W v4.00 Oryx Data Collector v3.7.2.0data status	okinstallation	princeton_trtdifferential loss correction	single-endedforward channel	channel 1reverse channel	N/Adate	2019/09/16time	17:42:35forward acquisition time	60.00reverse acquisition time	0.00gamma	496.2192k internal	0.2298k external	0.2298temperature offset calibration	0.9969default loss term (dB/km)	0.3790temperature slope calibration	1.0000multiplexer offset coefficient	1.0000multiplexer slope coefficient	1.0000fibre end	0.00T internal ref (°C)	38.12T ext. ref 1 (°C)	15.56T ext. ref 2 (°C)	32.17length (m)	temperature (°C)	Stokes	anti-Stokes-747.200	301.427	0.109	0.205
-746.185	-36.093	0.161	0.089
-745.171	332.731	-0.109	0.214
-744.156	164.873	-0.239	0.345
-743.142	441.879	-0.162	0.363
-742.127	-75.544	-0.277	0.101
-741.112	-140.286	0.192	-0.020
-740.098	-25.207	-0.144	0.087
-739.083	18.971	-0.074	-0.061
-738.069	-117.313	-0.379	0.070
-737.054	-111.365	-0.045	0.009
-736.039	9.375	-0.083	-0.064
-735.025	-55.756	0.099	0.045
-734.010	-116.617	-0.192	0.036
-732.996	405.537	-0.060	-0.130
-731.981	-170.969	-0.117	-0.004
-730.966	-183.271	0.306	0.005
-729.952	-83.647	-0.297	-0.097
-728.937	-200.000	0.021	-0.192
-727.923	195.804	-0.084	-0.130
-726.908	-200.000	-0.019	0.246
-725.894	-124.484	0.051	0.008
-724.879	-145.368	-0.174	-0.016
-723.864	246.114	0.053	0.090
-722.850	-200.000	0.020	0.185
-721.835	274.093	-0.019	0.033
-720.821	-145.821	0.448	-0.041
-719.806	8.392	-0.184	0.141
-718.791	386.599	-0.156	0.328
-717.777	-200.000	-0.006	-0.167
-716.762	160.943	-0.206	0.293
-715.748	-200.000	-0.027	0.287
-714.733	65.740	-0.245	-0.253
-713.718	-29.152	0.083	0.049
-712.704	24.110	-0.095	0.080
-711.689	800.000	0.057	-0.194
-710.675	-27.576	0.091	0.054
-709.660	48.061	-0.087	0.083
-708.645	-53.046	0.175	-0.082
-707.631	-136.929	-0.441	-0.052
-706.616	48.721	0.155	-0.148
-705.602	212.121	-0.211	-0.339
-704.587	800.000	0.052	-0.216
-703.572	-35.471	0.114	-0.063
-702.558	70.595	0.302	-0.319
-701.543	125.769	0.101	-0.131
-700.529	-69.401	-0.227	-0.089
-699.514	-200.000	0.031	0.194
-698.499	-39.161	0.081	0.043
-697.485	127.006	0.247	0.319
-696.470	-70.093	0.118	-0.046
-695.456	-60.644	-0.094	0.041
-694.441	492.157	-0.144	-0.336
-693.426	25.567	-0.205	0.174
-692.412	800.000	0.062	-0.234
-691.397	24.957	0.271	0.229
-690.383	-1.110	-0.311	0.224
-689.368	-200.000	-0.004	0.384
-688.354	-72.328	-0.503	-0.190
-687.339	-200.000	-0.011	0.062
-686.324	70.125	0.220	0.232
-685.310	-71.824	-0.351	0.133
-684.295	-200.000	0.056	-0.352
-683.281	-128.721	0.033	0.005
-682.266	800.000	0.031	0.123
-681.251	800.000	-0.071	-0.227
-680.237	114.802	-0.169	0.209
-679.222	-9.723	-0.092	0.062
-678.208	800.000	0.009	0.034
-677.193	146.340	0.079	0.108
-676.178	94.670	-0.068	-0.079
-675.164	800.000	-0.028	-0.121
-674.149	-200.000	-0.013	-0.298
-673.135	-3.937	-0.163	0.115
-672.120	-99.920	-0.388	-0.099
-671.105	800.000	-0.157	0.490
-670.091	105.579	-0.039	0.046
-669.076	-88.136	-0.313	0.096
-668.062	316.506	0.165	-0.317
-667.047	-22.283	0.173	-0.107
-666.032	65.636	-0.254	-0.262
-665.018	33.005	-0.369	0.325
-664.003	-101.606	0.140	-0.035
-662.989	260.203	0.080	0.141
-661.974	324.160	-0.165	0.320
-660.959	-40.652	0.279	0.147
-659.945	800.000	-0.064	-0.223
-658.930	-42.371	0.212	0.110
-657.916	-129.392	0.438	-0.062
-656.901	101.856	-0.063	-0.075
-655.886	195.257	-0.052	0.080
-654.872	-64.128	0.179	-0.074
-653.857	100.577	0.129	-0.153
-652.843	226.450	0.175	-0.289
-651.828	-136.747	-0.329	-0.039
-650.814	800.000	-0.034	-0.119
-649.799	214.323	0.146	-0.236
-648.784	-59.170	-0.313	0.137
-647.770	-200.000	-0.263	0.000
-646.755	55.561	-0.283	-0.279
-645.741	-26.508	0.117	0.069
-644.726	380.438	0.070	0.146
-643.711	-26.878	-0.160	-0.095
-642.697	-63.243	-0.162	-0.068
-641.682	0.018	-0.231	0.167
-640.668	446.930	0.158	-0.354
-639.653	23.123	0.121	-0.101
-638.638	800.000	-0.061	0.250
-637.624	171.395	0.263	-0.384
-636.609	-200.000	-0.053	0.296
-635.595	800.000	-0.060	-0.170
-634.580	-200.000	0.029	-0.292
-633.565	181.616	-0.088	-0.132
-632.551	-50.147	-0.144	-0.069
-631.536	51.969	0.121	-0.117
-630.522	74.580	0.111	0.119
-629.507	35.843	0.167	0.149
-628.492	-82.962	0.079	-0.026
-627.478	-7.804	-0.169	-0.116
-626.463	-103.934	-0.039	0.009
-625.449	128.440	-0.123	0.160
-624.434	-113.192	0.326	-0.065
-623.419	-27.666	0.122	0.072
-622.405	800.000	0.090	0.377
-621.390	77.295	-0.192	-0.207
-620.376	-82.640	-0.199	-0.066
-619.361	45.569	-0.099	0.093
-618.346	638.147	0.136	0.350
-617.332	-87.868	-0.218	-0.067
-616.317	31.594	-0.111	-0.097
-615.303	-58.516	-0.202	0.089
-614.288	351.312	-0.077	0.155
-613.273	155.997	-0.078	0.109
-612.259	-127.558	-0.336	-0.049
-611.244	524.747	0.151	-0.361
-610.230	-30.451	0.200	-0.115
-609.215	118.514	-0.149	0.186
-608.201	-81.665	0.122	-0.041
-607.186	17.612	-0.104	-0.084
-606.171	-13.717	-0.134	-0.088
-605.157	-200.000	-0.008	0.257
-604.142	-138.193	0.273	-0.031
-603.128	-128.728	-0.580	-0.083
-602.113	-121.582	0.241	-0.041
-601.098	-200.000	0.245	0.001
-600.084	800.000	-0.058	-0.250
-599.069	13.617	0.101	0.080
-598.055	127.524	0.114	0.147
-597.040	-177.396	-0.124	0.003
-596.025	-36.180	-0.173	-0.095
-595.011	-58.958	0.325	0.143
-593.996	-157.074	0.376	0.023
-592.982	163.154	0.162	0.231
-591.967	-102.504	0.116	-0.028
-590.952	-200.000	-0.000	-0.075
-589.938	-63.686	0.105	-0.044
-588.923	800.000	-0.057	-0.177
-587.909	-200.000	0.044	0.456
-586.894	-200.000	-0.017	-0.138
-585.879	62.354	0.221	0.224
-584.865	-108.324	-0.037	0.008
-583.850	-200.000	0.053	-0.427
-582.836	-107.531	0.045	0.010
-581.821	1.831	-0.216	0.158
-580.806	-173.792	-0.232	-0.007
-579.792	800.000	0.078	-0.277
-578.777	557.915	0.097	-0.237
-577.763	396.189	0.157	-0.332
-576.748	-200.000	0.022	-0.189
-575.733	800.000	0.076	-0.294
-574.719	144.624	0.205	-0.278
-573.704	-5.897	0.278	-0.193
-572.690	525.744	-0.050	-0.120
-571.675	800.000	-0.074	-0.316
-570.661	19.337	-0.473	-0.385
-569.646	620.483	-0.087	-0.222
-568.631	-92.996	0.042	0.012
-567.617	-166.007	0.520	0.023
-566.602	-130.330	0.151	-0.021
-565.588	-23.228	0.112	-0.068
-564.573	-200.000	0.009	0.118
-563.558	-48.623	0.262	0.128
-562.544	264.463	0.186	-0.329
-561.529	76.538	-0.037	-0.039
-560.515	800.000	0.036	0.104
-559.500	-90.682	0.125	-0.037
-558.485	-200.000	-0.001	-0.051
-557.471	-85.243	-0.342	0.108
-556.456	-169.663	0.433	-0.016
-555.442	-41.564	0.201	0.105
-554.427	335.863	-0.218	-0.430
-553.412	-200.000	0.073	-0.373
-552.398	12.623	-0.219	0.172
-551.383	-120.096	0.201	0.035
-550.369	-32.809	-0.258	0.145
-549.354	38.381	0.239	0.216
-548.339	-6.851	0.437	0.301
-547.325	-152.298	-0.151	-0.011
-546.310	179.098	0.079	0.117
-545.296	-200.000	0.056	0.271
-544.281	800.000	0.017	0.058
-543.266	800.000	-0.063	-0.258
-542.252	-113.245	0.194	-0.039
-541.237	-168.287	-0.332	-0.013
-540.223	119.516	-0.091	0.114
-539.208	103.726	-0.350	-0.417
-538.193	195.535	0.155	0.239
-537.179	-109.746	-0.119	-0.025
-536.164	-2.869	-0.261	0.185
-535.150	-200.000	0.004	-0.158
-534.135	741.337	-0.069	0.188
-533.121	-17.886	-0.110	0.070
-532.106	40.301	-0.032	0.029
-531.091	-200.000	0.010	0.129
-530.077	-200.000	-0.078	-0.495
-529.062	800.000	-0.128	-0.515
-528.048	-163.913	0.588	-0.028
-527.033	-23.038	-0.443	0.270
-526.018	-56.980	-0.280	-0.125
-525.004	-48.260	0.497	-0.243
-523.989	-5.492	-0.141	0.098
-522.975	-31.399	-0.404	0.230
-521.960	-39.290	0.115	0.061
-520.945	-200.000	0.018	-0.136
-519.931	-157.311	-0.187	0.011
-518.916	318.214	-0.088	-0.168
-517.902	-200.000	-0.047	0.227
-516.887	-167.831	-0.068	-0.003
-515.872	-130.734	-0.248	0.034
-514.858	383.159	0.119	-0.247
-513.843	84.830	-0.118	-0.130
-512.829	198.625	-0.051	-0.080
-511.814	-8.845	0.168	-0.114
-510.799	-109.515	0.013	-0.003
-509.785	108.266	0.156	-0.188
-508.770	179.643	-0.104	0.154
-507.756	-200.000	0.011	-0.251
-506.741	258.155	-0.039	-0.068
-505.726	-145.506	-0.286	0.026
-504.712	-150.274	0.305	0.024
-503.697	47.540	0.134	0.126
-502.683	86.359	-0.244	0.272
-501.668	-73.542	-0.201	0.074
-500.653	69.272	-0.086	-0.089
-499.639	12.930	0.073	-0.057
-498.624	-162.259	-0.210	-0.011
-497.610	800.000	0.048	-0.177
-496.595	-166.986	0.243	0.010
-495.581	78.065	0.057	-0.061
-494.566	-200.000	0.031	-0.253
-493.551	348.205	0.179	-0.356
-492.537	-117.013	0.048	0.009
-491.522	-94.766	0.144	-0.039
-490.508	114.165	0.102	0.126
-489.493	151.590	0.189	0.261
-488.478	228.985	0.080	-0.132
-487.464	-150.612	0.421	0.032
-486.449	-106.971	0.266	-0.060
-485.435	159.568	0.049	0.069
-484.420	-200.000	-0.021	0.360
-483.405	-158.400	-0.145	-0.008
-482.391	662.794	0.058	0.152
-481.376	-123.337	-0.178	-0.029
-480.362	-200.000	-0.003	-0.039
-479.347	585.500	-0.060	-0.150
-478.332	-135.679	-0.150	-0.018
-477.318	513.899	0.070	-0.165
-476.303	-64.178	0.054	-0.022
-475.289	-57.844	-0.315	0.139
-474.274	38.389	-0.053	-0.048
-473.259	-200.000	0.004	0.117
-472.245	106.172	0.114	-0.137
-471.230	-54.103	-0.203	0.093
-470.216	-93.113	0.232	-0.065
-469.201	347.266	-0.176	-0.350
-468.186	-189.785	-0.305	0.004
-467.172	-200.000	-0.054	0.394
-466.157	344.992	-0.056	0.110
-465.143	108.563	0.104	0.126
-464.128	-200.000	-0.048	-0.227
-463.113	-72.603	0.112	-0.042
-462.099	17.428	-0.137	-0.110
-461.084	800.000	-0.049	-0.155
-460.070	-129.170	-0.298	0.042
-459.055	-14.436	-0.125	0.081
-458.040	397.105	-0.183	0.386
-457.026	-181.527	-0.250	-0.005
-456.011	159.521	-0.105	0.148
-454.997	-200.000	-0.028	-0.209
-453.982	-42.035	-0.107	0.055
-452.968	-10.475	-0.220	0.147
-451.953	-200.000	-0.009	-0.048
-450.938	-130.994	-0.129	0.017
-449.924	-21.639	-0.266	0.164
-448.909	-200.000	0.026	-0.186
-447.895	18.172	0.261	-0.210
-446.880	-40.091	0.119	0.063
-445.865	98.688	-0.126	0.147
-444.851	-200.000	0.056	-0.325
-443.836	-69.561	0.310	0.120
-442.822	99.621	0.211	-0.247
-441.807	-200.000	0.021	-0.200
-440.792	-181.503	0.431	-0.008
-439.778	661.562	0.124	-0.322
-438.763	-2.834	-0.115	0.081
-437.749	-101.957	-0.251	0.061
-436.734	-26.193	-0.051	0.030
-435.719	800.000	-0.120	0.383
-434.705	-102.278	-0.413	0.100
-433.690	5.957	-0.322	0.241
-432.676	-123.755	-0.209	-0.033
-431.661	-200.000	-0.034	0.225
-430.646	-34.574	0.214	-0.118
-429.632	-200.000	0.030	0.265
-428.617	-64.259	-0.319	0.131
-427.603	-109.055	0.383	-0.082
-426.588	750.767	-0.079	0.215
-425.573	-35.497	0.061	0.033
-424.559	50.186	-0.143	-0.136
-423.544	800.000	-0.102	-0.284
-422.530	183.605	0.275	0.410
-421.515	122.083	0.082	-0.103
-420.500	-200.000	0.020	-0.519
-419.486	-121.727	-0.373	0.062
-418.471	-53.650	-0.146	0.067
-417.457	800.000	0.069	0.216
-416.442	-99.484	-0.108	0.027
-415.428	15.935	0.118	-0.093
-414.413	25.577	0.250	-0.210
-413.398	458.596	-0.179	-0.401
-412.384	6.092	-0.165	0.123
-411.369	-126.009	-0.150	0.023
-410.355	800.000	-0.083	-0.329
-409.340	52.634	-0.141	0.136
-408.325	800.000	0.073	0.249
-407.311	195.403	-0.043	0.067
-406.296	-127.883	-0.247	0.036
-405.282	175.966	-0.197	0.288
-404.267	800.000	0.112	0.424
-403.252	800.000	-0.121	-0.360
-402.238	800.000	-0.049	0.154
-401.223	-101.922	0.177	0.043
-400.209	36.029	0.126	-0.111
-399.194	242.853	0.096	-0.162
-398.179	-200.000	0.012	0.144
-397.165	149.529	-0.059	-0.081
-396.150	-91.413	-0.347	-0.100
-395.136	345.727	0.091	-0.181
-394.121	202.351	0.167	-0.260
-393.106	-133.784	0.301	0.038
-392.092	-14.745	0.110	0.071
-391.077	233.825	0.053	0.088
-390.063	-38.800	-0.227	0.120
-389.048	131.356	-0.082	0.106
-388.033	-93.576	0.134	0.037
-387.019	-140.439	0.209	-0.022
-386.004	14.467	-0.246	-0.193
-384.990	-13.214	-0.125	0.081
-383.975	102.117	0.230	0.271
-382.960	274.605	-0.116	0.206
-381.946	201.229	0.169	-0.262
-380.931	702.255	-0.047	0.126
-379.917	263.257	0.270	-0.472
-378.902	430.614	-0.081	-0.176
-377.888	398.821	0.177	-0.373
-376.873	-200.000	0.031	0.227
-375.858	-83.144	-0.241	-0.078
-374.844	-51.794	-0.312	0.146
-373.829	53.356	0.278	0.268
-372.815	800.000	-0.018	-0.072
-371.800	230.241	0.190	-0.312
-370.785	409.379	-0.062	-0.131
-369.771	-64.992	-0.272	0.111
-368.756	-15.971	0.124	0.079
-367.742	-43.584	0.387	0.196
-366.727	-200.000	-0.022	-0.450
-365.712	800.000	-0.040	0.148
-364.698	23.686	-0.021	0.017
-363.683	-175.972	-0.316	0.008
-362.669	-9.024	0.226	0.152
-361.654	-130.709	0.303	-0.041
-360.639	800.000	-0.026	0.098
-359.625	14.673	0.128	0.101
-358.610	426.540	0.130	-0.282
-357.596	300.446	-0.032	0.059
-356.581	292.609	0.048	0.089
-355.566	-177.268	0.102	-0.003
-354.552	-17.075	0.129	-0.082
-353.537	-200.000	-0.018	0.123
-352.523	-89.508	0.157	0.046
-351.508	-127.776	0.154	0.022
-350.493	95.973	-0.150	-0.173
-349.479	-25.561	-0.069	0.041
-348.464	-145.515	0.060	-0.005
-347.450	-105.337	0.211	-0.048
-346.435	60.814	0.362	-0.361
-345.420	102.924	-0.284	-0.334
-344.406	67.251	-0.216	0.221
-343.391	-68.698	0.271	0.106
-342.377	-200.000	-0.003	0.398
-341.362	-14.850	0.145	-0.094
-340.348	-57.511	0.142	-0.063
-339.333	-11.322	0.139	-0.092
-338.318	41.614	0.202	0.184
-337.304	247.667	0.136	0.231
-336.289	-150.488	-0.074	-0.006
-335.275	800.000	0.022	-0.066
-334.260	-47.432	-0.269	-0.131
-333.245	-93.286	-0.161	-0.045
-332.231	502.411	0.115	-0.268
-331.216	42.475	0.246	-0.225
-330.202	544.532	-0.085	0.205
-329.187	451.932	-0.125	0.276
-328.172	-133.281	0.107	0.014
-327.158	-200.000	0.021	-0.206
-326.143	-144.390	0.226	-0.021
-325.129	387.708	0.112	-0.232
-324.114	-51.815	0.037	-0.017
-323.099	-135.729	0.101	-0.012
-322.085	-120.060	-0.428	-0.074
-321.070	-105.889	0.178	-0.040
-320.056	15.483	-0.348	0.274
-319.041	92.965	0.048	0.055
-318.026	273.686	0.167	0.296
-317.012	-178.515	0.210	0.005
-315.997	-29.521	-0.233	0.134
-314.983	-57.417	0.246	0.108
-313.968	800.000	-0.073	0.268
-312.953	32.135	0.077	-0.067
-311.939	95.838	0.137	0.157
-310.924	546.837	-0.026	0.062
-309.910	800.000	0.013	0.044
-308.895	-200.000	-0.065	0.335
-307.880	164.496	-0.161	0.228
-306.866	-9.124	-0.271	-0.182
-305.851	-80.640	-0.203	0.068
-304.837	369.408	-0.084	0.171
-303.822	0.473	-0.205	-0.147
-302.807	26.102	-0.137	-0.115
-301.793	-200.000	0.015	0.297
-300.778	-22.628	-0.208	-0.126
-299.764	-143.526	0.106	-0.010
-298.749	800.000	-0.033	-0.132
-297.735	-50.056	0.246	-0.117
-296.720	800.000	-0.095	-0.263
-295.705	800.000	-0.062	0.249
-294.691	800.000	0.064	0.183
-293.676	-68.264	-0.168	0.066
-292.662	14.185	0.085	0.066
-291.647	-2.446	0.138	0.097
-290.632	175.721	0.043	0.063
-289.618	-200.000	0.007	0.132
-288.603	-23.904	-0.177	0.107
-287.589	-128.475	-0.347	-0.049
-286.574	201.074	-0.126	0.195
-285.559	15.281	0.119	0.094
-284.545	120.227	0.281	0.349
-283.530	-200.000	0.058	0.385
-282.516	800.000	0.048	0.188
-281.501	-200.000	-0.013	0.238
-280.486	800.000	-0.061	0.221
-279.472	-83.126	-0.193	-0.062
-278.457	-200.000	-0.011	-0.050
-277.443	-200.000	0.036	-0.183
-276.428	-200.000	0.035	0.230
-275.413	174.403	0.110	0.159
-274.399	-19.000	0.080	0.050
-273.384	310.909	0.204	0.383
-272.370	242.890	-0.209	-0.352
-271.355	-85.948	0.173	0.054
-270.340	24.014	0.160	0.132
-269.326	-97.714	-0.099	-0.026
-268.311	238.812	0.097	0.161
-267.297	289.654	0.079	-0.144
-266.282	503.687	-0.104	-0.240
-265.267	138.485	0.069	0.091
-264.253	-200.000	-0.025	0.173
-263.238	119.290	-0.148	-0.184
-262.224	-110.659	-0.119	-0.025
-261.209	-76.026	0.360	0.128
-260.195	0.593	0.261	0.187
-259.180	800.000	0.017	-0.055
-258.165	192.969	-0.042	0.063
-257.151	52.966	0.098	0.094
-256.136	-25.890	-0.167	-0.098
-255.122	165.158	-0.218	-0.308
-254.107	-200.000	-0.023	0.182
-253.092	-200.000	0.049	0.274
-252.078	0.503	-0.207	0.148
-251.063	131.118	0.119	-0.153
-250.049	-24.568	-0.197	0.118
-249.034	-10.315	0.226	-0.150
-248.019	441.386	0.062	0.136
-247.005	40.089	-0.210	0.189
-245.990	-200.000	-0.005	-0.168
-244.976	119.498	-0.166	0.205
-243.961	-132.359	0.065	0.008
-242.946	-200.000	-0.016	0.246
-241.932	178.914	-0.105	0.153
-240.917	800.000	0.029	0.106
-239.903	68.014	-0.054	0.055
-238.888	-59.019	0.317	0.137
-237.873	-200.000	-0.001	-0.440
-236.859	-115.838	0.176	-0.033
-235.844	-20.250	-0.235	0.145
-234.830	-200.000	0.064	0.334
-233.815	744.852	0.132	0.355
-232.800	-200.000	-0.005	-0.330
-231.786	96.795	0.126	-0.144
-230.771	-177.747	-0.164	0.004
-229.757	-50.884	0.089	-0.042
-228.742	581.122	0.118	-0.290
-227.727	-200.000	0.067	-0.347
-226.713	296.062	-0.203	0.372
-225.698	800.000	0.030	0.085
-224.684	-200.000	-0.025	0.195
-223.669	320.467	-0.199	-0.378
-222.655	363.446	0.104	-0.209
-221.640	-62.301	0.348	-0.145
-220.625	-200.000	0.008	-0.110
-219.611	800.000	0.062	0.254
-218.596	800.000	0.030	0.104
-217.582	-200.000	-0.041	0.217
-216.567	-200.000	-0.074	-0.423
-215.552	416.085	0.031	-0.067
-214.538	-39.543	-0.175	0.092
-213.523	-45.552	-0.261	-0.129
-212.509	102.085	-0.114	0.133
-211.494	76.230	0.050	0.053
-210.479	-9.014	0.050	0.033
-209.465	-200.000	-0.009	0.101
-208.450	-200.000	-0.013	-0.152
-207.436	-96.113	-0.222	-0.059
-206.421	-151.668	-0.136	-0.010
-205.406	50.836	-0.314	0.298
-204.392	340.492	-0.089	0.175
-203.377	564.521	0.025	-0.060
-202.363	800.000	-0.080	-0.306
-201.348	-41.489	0.058	-0.030
-200.333	-22.435	0.178	0.108
-199.319	-54.540	-0.208	0.094
-198.304	56.730	-0.080	-0.078
-197.290	19.172	0.139	0.111
-196.275	662.260	-0.064	0.164
-195.260	-63.312	0.126	-0.052
-194.246	37.632	0.093	-0.082
-193.231	-94.995	0.089	-0.024
-192.217	-200.000	-0.025	-0.258
-191.202	474.594	0.091	0.205
-190.187	-47.723	0.150	-0.072
-189.173	210.037	-0.168	0.263
-188.158	-168.236	-0.332	-0.013
-187.144	145.777	0.046	-0.062
-186.129	800.000	0.130	-0.559
-185.114	281.289	-0.081	-0.145
-184.100	357.728	-0.008	0.016
-183.085	147.608	0.094	0.126
-182.071	2.372	-0.082	-0.059
-181.056	-110.148	-0.205	0.043
-180.042	37.826	0.279	0.247
-179.027	-57.581	0.381	-0.167
-178.012	-65.608	0.245	-0.098
-176.998	-131.411	0.058	0.008
-175.983	225.046	0.111	0.179
-174.969	-93.707	-0.409	0.113
-173.954	-8.018	-0.099	-0.067
-172.939	126.607	-0.215	0.272
-171.925	800.000	0.016	-0.047
-170.910	27.939	0.233	-0.197
-169.896	-55.296	-0.093	0.042
-168.881	-200.000	0.021	0.338
-167.866	-200.000	-0.425	0.000
-166.852	-200.000	-0.037	0.295
-165.837	53.211	0.158	-0.151
-164.823	189.149	0.172	0.258
-163.808	333.150	0.159	-0.306
-162.793	124.664	0.351	-0.441
-161.779	34.005	0.170	-0.148
-160.764	-200.000	0.046	0.432
-159.750	-14.537	0.112	0.072
-158.735	-200.000	-0.000	-0.135
-157.720	130.803	-0.148	-0.189
-156.706	56.916	0.183	0.178
-155.691	628.046	0.050	0.127
-154.677	-200.000	0.022	0.221
-153.662	142.247	0.236	-0.313
-152.647	-200.000	0.030	-0.185
-151.633	137.854	-0.166	0.216
-150.618	-94.681	-0.394	0.107
-149.604	-200.000	-0.052	-0.382
-148.589	7.459	0.074	0.055
-147.574	62.110	0.162	-0.161
-146.560	-37.005	-0.366	-0.196
-145.545	98.199	-0.116	-0.133
-144.531	-200.000	-0.031	-0.294
-143.516	772.005	0.018	-0.050
-142.502	-9.591	-0.163	-0.108
-141.487	-200.000	0.005	-0.143
-140.472	340.504	0.056	0.109
-139.458	211.366	-0.126	-0.197
-138.443	-47.066	0.309	-0.151
-137.429	-78.096	-0.212	-0.073
-136.414	-12.116	-0.163	-0.106
-135.399	800.000	-0.099	-0.277
-134.385	55.695	0.244	-0.236
-133.370	-76.837	0.137	0.048
-132.356	-157.675	-0.100	-0.006
-131.341	256.349	0.099	0.169
-130.326	-54.821	0.256	-0.115
-129.312	-80.121	-0.339	0.113
-128.297	-200.000	-0.003	0.249
-127.283	-150.716	-0.506	0.038
-126.268	-200.000	-0.001	0.230
-125.253	2.886	-0.245	-0.177
-124.239	63.946	0.309	-0.309
-123.224	129.597	0.233	-0.297
-122.210	-200.000	-0.064	-0.330
-121.195	-200.000	-0.014	0.068
