DTS Sentinel unit serial number:	SN413079Multiplexer serial number:	ORYXHardware model number:	OX4-SRSoftware version number:	ORYX F/W v4.00 Oryx Data Collector v3.7.2.0data status	okinstallation	princeton_trtdifferential loss correction	single-endedforward channel	channel 1reverse channel	N/Adate	2019/09/13time	08:30:35forward acquisition time	60.00reverse acquisition time	0.00gamma	496.2192k internal	0.2329k external	0.2329temperature offset calibration	1.0159default loss term (dB/km)	0.3790temperature slope calibration	1.0000multiplexer offset coefficient	1.0000multiplexer slope coefficient	1.0000fibre end	0.00T internal ref (°C)	27.50T ext. ref 1 (°C)	4.29T ext. ref 2 (°C)	24.34length (m)	temperature (°C)	Stokes	anti-Stokes-747.200	-136.536	0.284	0.033
-746.185	18.881	0.261	0.210
-745.171	6.813	-0.141	0.105
-744.156	74.807	-0.245	-0.260
-743.142	109.080	0.109	-0.132
-742.127	-109.480	-0.487	0.104
-741.112	-166.455	0.148	-0.006
-740.098	310.235	0.176	0.332
-739.083	88.446	-0.409	-0.458
-738.069	527.079	-0.080	0.190
-737.054	216.272	0.130	-0.209
-736.039	-57.901	-0.433	-0.191
-735.025	-62.130	0.156	0.066
-734.010	26.941	0.032	0.027
-732.996	87.910	-0.100	0.112
-731.981	-200.000	0.051	-0.308
-730.966	800.000	0.075	-0.263
-729.952	-56.453	-0.098	0.044
-728.937	800.000	-0.023	-0.069
-727.923	-85.311	-0.081	-0.025
-726.908	-146.267	-0.202	-0.018
-725.894	95.735	0.105	0.121
-724.879	-200.000	-0.006	-0.353
-723.864	-102.325	-0.217	0.052
-722.850	-200.000	-0.018	-0.159
-721.835	-147.180	-0.061	0.005
-720.821	228.125	-0.157	0.257
-719.806	-138.381	-0.114	0.013
-718.791	764.813	0.104	-0.285
-717.777	173.049	-0.113	-0.164
-716.762	-45.550	-0.561	-0.280
-715.748	267.813	-0.127	0.224
-714.733	-200.000	0.058	-0.327
-713.718	-91.731	-0.343	-0.098
-712.704	175.084	0.067	-0.098
-711.689	90.335	-0.282	-0.318
-710.675	-200.000	-0.048	-0.290
-709.660	-22.375	-0.243	0.148
-708.645	-200.000	-0.011	-0.429
-707.631	163.331	-0.192	0.272
-706.616	170.008	-0.125	-0.179
-705.602	-145.478	0.152	0.014
-704.587	-26.493	0.180	-0.106
-703.572	59.362	0.169	0.168
-702.558	138.252	0.141	0.186
-701.543	488.469	-0.087	-0.200
-700.529	-165.457	0.081	-0.004
-699.514	326.287	-0.119	-0.229
-698.499	74.570	0.110	-0.117
-697.485	-79.411	0.146	-0.050
-696.470	175.126	0.072	0.105
-695.456	-164.358	-0.095	0.004
-694.441	-172.601	-0.141	0.004
-693.426	-200.000	-0.015	0.183
-692.412	147.338	-0.030	0.041
-691.397	246.070	0.102	-0.173
-690.383	-200.000	-0.016	-0.074
-689.368	704.432	-0.062	-0.165
-688.354	-42.586	-0.100	-0.051
-687.339	-53.052	-0.153	-0.071
-686.324	-200.000	-0.037	-0.328
-685.310	-200.000	0.029	0.253
-684.295	-200.000	0.013	-0.105
-683.281	104.968	-0.158	-0.187
-682.266	301.500	0.150	-0.278
-681.251	-200.000	-0.449	0.002
-680.237	284.792	0.018	-0.033
-679.222	508.430	-0.121	0.283
-678.208	76.137	-0.207	0.220
-677.193	-54.876	-0.211	-0.096
-676.178	769.240	0.116	-0.317
-675.164	-200.000	0.065	0.291
-674.149	-30.649	-0.132	0.075
-673.135	-200.000	-0.036	0.258
-672.120	800.000	-0.239	-0.693
-671.105	45.790	-0.316	-0.293
-670.091	-58.373	0.081	0.035
-669.076	-200.000	0.008	0.064
-668.062	-200.000	-0.219	0.000
-667.047	261.274	0.173	0.301
-666.032	83.857	0.232	0.254
-665.018	301.085	-0.137	0.253
-664.003	-54.474	-0.141	0.064
-662.989	-103.986	0.066	-0.016
-661.974	12.215	-0.358	-0.277
-660.959	800.000	-0.107	0.437
-659.945	-21.874	0.238	0.146
-658.930	-75.191	-0.232	-0.083
-657.916	-77.434	0.085	0.030
-656.901	48.202	0.086	0.081
-655.886	95.477	0.241	0.276
-654.872	76.072	-0.133	-0.141
-653.857	-200.000	-0.019	0.251
-652.843	-12.551	0.033	-0.022
-651.828	375.067	0.070	-0.144
-650.814	28.540	0.227	-0.193
-649.799	-53.066	0.179	-0.083
-648.784	141.780	-0.037	0.049
-647.770	-41.795	-0.145	-0.075
-646.755	215.853	-0.103	-0.164
-645.741	-7.376	-0.259	0.176
-644.726	800.000	0.080	0.303
-643.711	13.567	-0.254	-0.198
-642.697	-160.992	0.323	-0.017
-641.682	177.750	0.098	0.144
-640.668	-84.497	-0.129	-0.041
-639.653	106.402	0.085	0.101
-638.638	732.335	0.030	-0.082
-637.624	144.887	0.066	0.088
-636.609	-108.454	-0.161	-0.035
-635.595	-27.860	-0.177	-0.103
-634.580	610.585	0.069	-0.173
-633.565	31.244	-0.271	-0.233
-632.551	-59.834	-0.341	-0.146
-631.536	-113.493	0.195	0.038
-630.522	-125.347	0.281	0.043
-629.507	-200.000	-0.075	0.436
-628.492	800.000	-0.058	0.172
-627.478	-126.026	0.196	-0.030
-626.463	680.066	0.021	-0.055
-625.449	-200.000	0.004	0.187
-624.434	-118.531	-0.121	-0.021
-623.419	-3.967	-0.215	-0.149
-622.405	232.670	0.148	0.244
-621.390	800.000	-0.081	-0.297
-620.376	-194.216	0.284	-0.002
-619.361	-5.483	-0.187	-0.128
-618.346	-147.692	0.246	0.021
-617.332	63.136	0.137	0.138
-616.317	144.873	0.155	0.208
-615.303	-200.000	-0.046	0.257
-614.288	239.173	0.125	0.208
-613.273	-176.631	0.266	-0.007
-612.259	63.629	0.092	-0.092
-611.244	-150.368	-0.262	0.020
-610.230	800.000	-0.034	-0.140
-609.215	-200.000	-0.013	-0.087
-608.201	800.000	-0.046	-0.160
-607.186	627.394	-0.110	-0.279
-606.171	-0.903	-0.196	0.139
-605.157	175.304	-0.051	0.074
-604.142	172.982	-0.176	-0.254
-603.128	-94.886	0.170	-0.046
-602.113	-200.000	0.007	0.196
-601.098	174.965	0.107	0.155
-600.084	-200.000	-0.010	0.218
-599.069	-13.530	0.138	0.090
-598.055	-86.760	0.261	0.080
-597.040	547.365	0.041	0.098
-596.025	224.792	-0.155	-0.251
-595.011	553.670	-0.145	-0.349
-593.996	-46.533	0.276	-0.136
-592.982	615.135	0.107	0.270
-591.967	83.502	0.174	-0.190
-590.952	-200.000	0.019	0.255
-589.938	-137.852	0.192	-0.021
-588.923	299.520	0.072	0.133
-587.909	-29.794	0.260	-0.149
-586.894	-44.106	-0.115	-0.058
-585.879	-133.452	0.081	0.010
-584.865	-81.032	-0.296	0.098
-583.850	-128.952	-0.049	0.007
-582.836	62.764	0.339	-0.339
-581.821	-42.799	-0.115	0.059
-580.806	-0.869	-0.181	-0.128
-579.792	-36.827	-0.080	-0.043
-578.777	-53.819	0.109	0.050
-577.763	-200.000	-0.019	-0.211
-576.748	433.548	-0.022	-0.047
-575.733	-197.196	-0.382	0.002
-574.719	259.165	0.157	-0.271
-573.704	91.343	0.079	0.088
-572.690	-2.705	0.395	0.276
-571.675	251.819	-0.207	0.353
-570.661	31.797	-0.122	0.105
-569.646	-176.167	0.439	-0.012
-568.631	58.375	-0.314	0.309
-567.617	720.973	-0.064	-0.171
-566.602	-200.000	0.024	-0.181
-565.588	-81.804	-0.347	-0.114
-564.573	-126.940	0.273	0.040
-563.558	-3.727	0.301	-0.209
-562.544	-2.893	0.039	-0.027
-561.529	800.000	-0.030	0.102
-560.515	114.902	-0.239	-0.291
-559.500	-80.370	-0.211	0.070
-558.485	360.559	0.038	0.076
-557.471	-115.176	-0.464	-0.088
-556.456	-154.534	-0.073	-0.005
-555.442	-100.490	0.221	-0.055
-554.427	800.000	-0.023	0.101
-553.412	-200.000	0.006	0.184
-552.398	-63.333	-0.080	-0.033
-551.383	429.180	0.099	-0.213
-550.369	-45.426	-0.204	-0.101
-549.354	-52.235	-0.049	-0.023
-548.339	-97.835	-0.084	-0.022
-547.325	76.520	-0.312	0.331
-546.310	53.482	-0.215	-0.206
-545.296	18.915	-0.360	-0.288
-544.281	-187.416	0.198	-0.003
-543.266	-142.951	-0.337	-0.033
-542.252	-21.438	0.272	-0.166
-541.237	-54.367	0.169	-0.077
-540.223	-17.783	-0.194	-0.122
-539.208	181.212	-0.158	0.231
-538.193	129.729	0.239	0.305
-537.179	389.833	0.095	0.198
-536.164	-200.000	-0.076	-0.363
-535.150	-146.043	0.208	0.018
-534.135	7.898	-0.070	0.053
-533.121	-14.001	-0.095	-0.061
-532.106	-104.094	0.126	-0.029
-531.091	-200.000	0.062	-0.464
-530.077	-107.400	-0.268	0.059
-529.062	-200.000	-0.001	-0.006
-528.048	-143.493	0.139	-0.013
-527.033	-200.000	0.014	-0.233
-526.018	595.890	-0.175	-0.433
-525.004	57.920	-0.025	0.025
-523.989	-32.719	0.363	-0.202
-522.975	-135.885	0.192	0.023
-521.960	-200.000	0.050	-0.282
-520.945	-53.656	0.206	-0.094
-519.931	-55.282	-0.144	-0.065
-518.916	-61.022	-0.218	-0.092
-517.902	-200.000	-0.008	-0.257
-516.887	195.061	0.081	0.122
-515.872	-33.807	-0.292	-0.160
-514.858	182.706	0.143	-0.210
-513.843	800.000	0.054	-0.180
-512.829	108.242	-0.142	0.169
-511.814	722.937	0.077	-0.205
-510.799	800.000	-0.022	0.095
-509.785	-200.000	0.043	-0.327
-508.770	7.606	-0.245	0.183
-507.756	-200.000	0.035	0.266
-506.741	327.530	-0.064	0.123
-505.726	-18.030	0.133	0.083
-504.712	800.000	0.042	-0.131
-503.697	-200.000	0.010	0.102
-502.683	147.209	0.315	-0.423
-501.668	800.000	-0.081	0.330
-500.653	-96.321	0.075	0.020
-499.639	68.868	0.083	-0.085
-498.624	-109.586	0.306	-0.064
-497.610	-8.735	-0.397	0.266
-496.595	-82.100	0.150	0.049
-495.581	-166.148	-0.059	-0.003
-494.566	-200.000	0.003	-0.305
-493.551	800.000	-0.128	-0.382
-492.537	239.942	-0.123	0.205
-491.522	-72.139	-0.322	0.119
-490.508	800.000	-0.018	0.066
-489.493	-66.667	-0.241	0.095
-488.478	-80.276	-0.448	-0.149
-487.464	-118.799	0.605	0.106
-486.449	59.442	0.108	0.106
-485.435	119.589	-0.167	-0.206
-484.420	125.094	-0.097	-0.122
-483.405	47.370	-0.152	0.141
-482.391	591.201	-0.121	0.297
-481.376	121.851	0.105	-0.130
-480.362	-109.286	-0.168	0.036
-479.347	-70.243	0.434	-0.164
-478.332	800.000	0.044	0.180
-477.318	-49.298	-0.234	0.111
-476.303	406.492	-0.115	-0.243
-475.289	86.379	0.116	-0.127
-474.274	-200.000	-0.002	0.122
-473.259	198.775	-0.050	-0.076
-472.245	800.000	-0.063	-0.241
-471.230	17.921	0.071	0.056
-470.216	612.300	0.114	0.284
-469.201	324.763	0.133	-0.252
-468.186	-108.518	0.160	0.034
-467.172	-200.000	-0.046	-0.277
-466.157	-95.477	0.115	0.031
-465.143	-88.627	0.189	-0.056
-464.128	617.702	0.074	-0.185
-463.113	198.901	-0.092	0.140
-462.099	-30.591	0.230	0.130
-461.084	-53.868	-0.206	-0.093
-460.070	-200.000	-0.032	-0.146
-459.055	208.237	-0.056	0.087
-458.040	-107.494	0.236	0.051
-457.026	59.237	-0.076	-0.075
-456.011	437.417	0.057	0.124
-454.997	-136.045	0.052	0.006
-453.982	-179.895	0.025	-0.001
-452.968	-90.929	-0.536	0.154
-451.953	-77.656	0.265	-0.091
-450.938	-36.910	-0.136	0.073
-449.924	-62.917	0.199	0.082
-448.909	-200.000	0.006	0.184
-447.895	-200.000	-0.011	0.053
-446.880	800.000	0.095	0.280
-445.865	725.379	-0.218	-0.579
-444.851	800.000	-0.078	-0.280
-443.836	-200.000	-0.043	-0.230
-442.822	-124.811	0.232	0.036
-441.807	-200.000	0.028	0.338
-440.792	-200.000	0.021	-0.369
-439.778	-200.000	0.012	0.230
-438.763	5.622	-0.303	-0.223
-437.749	378.607	-0.133	0.272
-436.734	86.008	-0.053	0.059
-435.719	800.000	-0.006	0.025
-434.705	-200.000	0.027	-0.351
-433.690	-16.562	0.212	-0.133
-432.676	-62.790	0.386	0.159
-431.661	272.908	-0.206	-0.362
-430.646	-200.000	0.005	0.054
-429.632	63.406	0.164	-0.164
-428.617	-181.227	-0.225	-0.004
-427.603	350.429	-0.071	-0.140
-426.588	666.070	0.041	-0.105
-425.573	-200.000	0.044	-0.333
-424.559	115.533	0.110	0.134
-423.544	-43.917	-0.139	0.069
-422.530	8.735	-0.181	0.136
-421.515	436.696	0.108	0.234
-420.500	115.127	0.126	0.153
-419.486	23.570	0.021	-0.017
-418.471	2.767	-0.259	0.187
-417.457	-136.018	-0.238	0.028
-416.442	-137.231	0.379	-0.043
-415.428	635.095	-0.168	-0.424
-414.413	-200.000	-0.022	-0.287
-413.398	51.916	0.243	-0.230
-412.384	-22.428	0.203	-0.122
-411.369	-200.000	0.039	-0.258
-410.355	0.934	-0.159	-0.113
-409.340	21.302	0.227	0.184
-408.325	-200.000	0.014	-0.320
-407.311	-81.498	0.118	-0.039
-406.296	405.628	0.064	-0.133
-405.282	-102.067	0.189	0.045
-404.267	451.288	-0.060	-0.132
-403.252	711.104	-0.061	0.160
-402.238	800.000	0.092	0.338
-401.223	-200.000	-0.004	0.279
-400.209	800.000	0.036	-0.104
-399.194	-160.442	-0.258	-0.014
-398.179	-61.383	-0.192	0.080
-397.165	-6.842	0.140	-0.095
-396.150	-41.726	0.234	0.120
-395.136	110.116	0.145	-0.173
-394.121	225.752	-0.137	0.220
-393.106	800.000	0.085	0.257
-392.092	75.585	0.157	0.164
-391.077	603.905	0.112	-0.277
-390.063	800.000	-0.080	0.248
-389.048	-32.967	0.195	-0.108
-388.033	-200.000	0.044	0.211
-387.019	-166.160	-0.149	0.006
-386.004	-8.321	-0.098	-0.065
-384.990	-59.953	-0.037	-0.016
-383.975	-193.295	-0.084	-0.001
-382.960	-36.024	-0.254	-0.136
-381.946	190.507	0.162	-0.242
-380.931	472.215	-0.140	0.312
-379.917	-122.389	-0.254	0.041
-378.902	742.267	0.087	-0.234
-377.888	-200.000	-0.017	-0.152
-376.873	-48.099	0.213	0.102
-375.858	800.000	0.018	-0.075
-374.844	148.237	0.362	0.486
-373.829	800.000	-0.047	-0.189
-372.815	-121.489	-0.426	-0.070
-371.800	-156.795	0.136	0.008
-370.785	-83.594	0.084	-0.027
-369.771	12.511	-0.236	-0.181
-368.756	94.409	-0.026	0.029
-367.742	-132.477	-0.178	-0.023
-366.727	-29.176	0.220	0.125
-365.712	-48.648	0.127	-0.060
-364.698	-33.121	0.018	0.010
-363.683	137.621	-0.068	0.089
-362.669	800.000	0.059	0.220
-361.654	-200.000	-0.076	0.000
-360.639	-200.000	0.008	0.361
-359.625	-46.883	-0.312	0.151
-358.610	-138.638	0.076	-0.008
-357.596	-125.213	-0.282	0.043
-356.581	-122.972	-0.166	0.027
-355.566	632.980	-0.091	0.230
-354.552	-69.272	-0.076	-0.029
-353.537	-129.617	-0.015	0.002
-352.523	45.353	-0.210	-0.192
-351.508	191.400	0.067	-0.101
-350.493	-114.603	-0.261	0.050
-349.479	-200.000	-0.056	-0.249
-348.464	-60.745	0.290	-0.122
-347.450	-106.428	0.211	0.047
-346.435	-92.275	0.148	-0.041
-345.420	-39.378	0.191	0.099
-344.406	-60.107	0.370	-0.156
-343.391	-2.291	-0.142	-0.099
-342.377	-113.302	0.126	-0.025
-341.362	-133.639	0.275	0.034
-340.348	164.594	-0.136	0.190
-339.333	-200.000	-0.005	0.118
-338.318	626.918	-0.033	-0.083
-337.304	113.398	-0.035	-0.042
-336.289	-200.000	-0.047	-0.356
-335.275	-85.483	0.129	0.040
-334.260	800.000	-0.023	0.100
-333.245	-86.286	0.253	0.077
-332.231	-200.000	-0.007	0.241
-331.216	-28.892	0.158	0.090
-330.202	381.372	-0.052	-0.107
-329.187	109.501	-0.024	0.029
-328.172	800.000	-0.047	-0.160
-327.158	44.107	0.126	0.114
-326.143	236.885	0.164	-0.269
-325.129	-157.633	0.336	-0.020
-324.114	-122.967	-0.312	-0.050
-323.099	45.939	-0.039	0.036
-322.085	-65.313	-0.036	0.014
-321.070	107.735	0.334	-0.394
-320.056	-74.429	-0.125	-0.045
-319.041	13.632	0.203	0.156
-318.026	-200.000	0.012	0.146
-317.012	557.256	0.131	0.313
-315.997	547.006	0.089	0.212
-314.983	14.051	-0.161	0.125
-313.968	91.275	0.088	0.098
-312.953	-165.106	0.250	-0.011
-311.939	-200.000	-0.015	-0.091
-310.924	-172.098	0.251	-0.008
-309.910	-200.000	0.036	-0.632
-308.895	60.788	0.067	0.066
-307.880	44.007	0.058	-0.053
-306.866	-27.460	0.117	0.067
-305.851	-200.000	0.032	0.240
-304.837	-68.157	0.098	-0.038
-303.822	25.194	0.100	0.082
-302.807	268.902	-0.073	0.127
-301.793	800.000	-0.129	-0.366
-300.778	82.276	-0.125	0.135
-299.764	391.372	0.117	0.240
-298.749	52.882	0.224	-0.212
-297.735	-96.096	-0.416	0.110
-296.720	86.784	-0.133	-0.146
-295.705	-78.662	-0.328	0.111
-294.691	-87.485	0.300	-0.090
-293.676	229.069	-0.036	0.058
-292.662	46.147	-0.174	-0.160
-291.647	-54.594	-0.202	-0.090
-290.632	63.464	0.065	0.065
-289.618	-76.204	-0.208	0.073
-288.603	-200.000	0.008	0.158
-287.589	-19.713	-0.058	0.036
-286.574	12.630	0.117	-0.089
-285.559	-29.315	-0.129	0.073
-284.545	257.977	0.103	-0.175
-283.530	-200.000	0.005	-0.034
-282.516	291.544	-0.053	0.096
-281.501	427.213	0.022	-0.047
-280.486	80.811	-0.127	0.136
-279.472	-159.953	-0.193	0.010
-278.457	15.660	-0.254	-0.198
-277.443	286.730	0.055	-0.098
-276.428	-200.000	-0.019	0.205
-275.413	-93.876	0.100	-0.027
-274.399	-157.153	0.348	-0.021
-273.384	168.647	0.112	0.158
-272.370	-18.710	-0.204	-0.126
-271.355	-200.000	-0.021	-0.199
-270.340	-200.000	0.019	0.352
-269.326	800.000	-0.007	-0.024
-268.311	41.865	0.224	0.201
-267.297	-200.000	-0.028	0.199
-266.282	-200.000	-0.030	-0.133
-265.267	126.896	-0.229	0.286
-264.253	-99.538	0.371	0.092
-263.238	181.072	0.059	0.086
-262.224	-64.629	-0.148	0.059
-261.209	-3.565	-0.145	0.100
-260.195	-143.127	-0.072	-0.007
-259.180	800.000	-0.080	0.313
-258.165	-200.000	-0.028	0.214
-257.151	-173.119	-0.330	0.010
-256.136	4.768	0.312	0.226
-255.122	-173.007	-0.474	0.014
-254.107	117.280	0.127	-0.154
-253.092	-73.031	0.287	-0.104
-252.078	71.584	0.325	-0.334
-251.063	-111.945	0.255	-0.051
-250.049	-200.000	0.061	-0.298
-249.034	-74.584	-0.144	0.051
-248.019	-200.000	-0.011	-0.134
-247.005	111.275	-0.165	0.196
-245.990	79.281	-0.157	0.166
-244.976	18.268	0.218	-0.172
-243.961	138.174	0.196	0.254
-242.946	-200.000	0.019	-0.147
-241.932	-200.000	0.042	-0.487
-240.917	28.064	-0.074	-0.062
-239.903	-45.897	0.138	-0.067
-238.888	800.000	0.060	0.191
-237.873	196.370	0.125	0.188
-236.859	-200.000	0.041	0.199
-235.844	-118.997	-0.181	0.031
-234.830	309.188	-0.072	-0.132
-233.815	-46.143	0.156	0.076
-232.800	510.860	0.035	0.081
-231.786	74.768	0.117	0.122
-230.771	-200.000	0.005	-0.094
-229.757	448.826	-0.051	0.111
-228.742	82.092	-0.132	0.141
-227.727	595.546	-0.081	0.197
-226.713	-66.890	0.152	-0.059
-225.698	-158.642	0.133	-0.008
-224.684	531.450	0.081	0.189
-223.669	59.414	0.147	0.143
-222.655	-28.147	-0.319	-0.182
-221.640	127.231	0.122	0.153
-220.625	800.000	0.022	0.060
-219.611	19.923	-0.152	0.121
-218.596	-32.865	-0.216	0.119
-217.582	-200.000	0.026	0.271
-216.567	61.153	0.188	0.185
-215.552	-72.143	-0.473	-0.173
-214.538	800.000	0.099	0.424
-213.523	-122.343	0.225	0.036
-212.509	-200.000	-0.045	-0.205
-211.494	-200.000	0.013	0.163
-210.479	-200.000	0.005	0.216
-209.465	22.246	0.113	-0.091
-208.450	25.738	0.367	-0.301
-207.436	210.329	0.108	0.167
-206.421	494.458	0.134	0.303
-205.406	32.941	-0.133	0.114
-204.392	800.000	-0.092	0.263
-203.377	-200.000	-0.002	-0.124
-202.363	-96.718	0.139	-0.036
-201.348	-200.000	-0.014	-0.208
-200.333	-169.457	-0.224	0.008
-199.319	800.000	-0.045	0.193
-198.304	-2.526	0.146	-0.101
-197.290	800.000	-0.085	0.240
-196.275	-128.111	0.191	-0.027
-195.260	664.042	0.077	-0.196
-194.246	-200.000	0.004	0.031
-193.231	-59.569	0.241	-0.102
-192.217	-141.854	-0.251	-0.025
-191.202	246.361	-0.068	0.113
-190.187	4.298	0.383	0.277
-189.173	122.194	-0.265	0.326
-188.158	-65.957	0.208	0.082
-187.144	81.314	-0.110	0.118
-186.129	306.150	0.105	0.192
-185.114	63.167	-0.212	-0.209
-184.100	-93.727	0.199	0.054
-183.085	-8.232	-0.249	0.165
-182.071	-98.263	-0.207	-0.052
-181.056	178.475	-0.105	-0.152
-180.042	83.630	-0.192	0.206
-179.027	-200.000	-0.018	0.104
-178.012	-200.000	0.001	-0.154
-176.998	145.135	-0.263	0.347
-175.983	-71.944	-0.100	-0.036
-174.969	208.228	-0.076	0.118
-173.954	111.864	-0.085	-0.101
-172.939	-132.316	0.121	-0.015
-171.925	-200.000	0.079	0.000
-170.910	-71.825	-0.332	0.122
-169.896	-105.903	-0.083	-0.019
-168.881	130.185	0.170	0.214
-167.866	-81.799	0.232	-0.075
-166.852	-63.030	0.242	-0.098
-165.837	60.402	-0.174	-0.169
-164.823	-156.504	-0.240	-0.015
-163.808	-136.369	-0.052	0.006
-162.793	-200.000	0.011	0.253
-161.779	-107.732	0.177	-0.038
-160.764	-48.602	-0.164	-0.078
-159.750	80.905	-0.056	-0.060
-158.735	800.000	-0.051	-0.156
-157.720	-155.253	-0.420	0.027
-156.706	-42.233	-0.424	-0.213
-155.691	112.647	-0.025	-0.030
-154.677	-151.522	-0.057	-0.004
-153.662	56.062	-0.068	-0.065
-152.647	-78.348	0.081	0.027
-151.633	1.872	0.135	0.096
-150.618	-131.684	0.463	0.060
-149.604	-12.319	-0.203	-0.131
-148.589	-190.291	0.260	-0.003
-147.574	-45.365	-0.178	0.087
-146.560	-154.182	-0.411	0.027
-145.545	-40.906	-0.042	-0.021
-144.531	21.517	-0.045	-0.036
-143.516	-200.000	-0.252	-0.001
-142.502	383.397	0.058	0.118
-141.487	33.158	0.243	0.207
-140.472	-22.154	0.461	0.275
-139.458	-200.000	-0.006	0.104
-138.443	52.150	-0.126	0.118
-137.429	96.911	0.157	0.177
-136.414	282.841	-0.168	-0.297
-135.399	-26.613	0.379	0.218
-134.385	114.287	0.120	0.144
-133.370	-98.802	0.414	-0.103
-132.356	54.875	0.203	-0.193
-131.341	-200.000	0.034	-0.356
-130.326	-192.287	0.142	-0.001
-129.312	20.360	0.143	-0.113
-128.297	-200.000	-0.066	-0.593
-127.283	141.314	-0.090	0.118
-126.268	-3.748	-0.237	0.162
-125.253	800.000	0.092	0.334
-124.239	-162.979	0.405	0.019
-123.224	-95.308	0.176	-0.046
-122.210	-90.524	-0.037	0.011
-121.195	-44.033	0.122	0.060
