DTS Sentinel unit serial number:	SN413079Multiplexer serial number:	ORYXHardware model number:	OX4-SRSoftware version number:	ORYX F/W v4.00 Oryx Data Collector v3.7.2.0data status	okinstallation	princeton_trtdifferential loss correction	single-endedforward channel	channel 1reverse channel	N/Adate	2019/09/14time	15:26:35forward acquisition time	60.00reverse acquisition time	0.00gamma	496.2192k internal	0.2294k external	0.2294temperature offset calibration	1.0079default loss term (dB/km)	0.3790temperature slope calibration	1.0000multiplexer offset coefficient	1.0000multiplexer slope coefficient	1.0000fibre end	0.00T internal ref (°C)	39.00T ext. ref 1 (°C)	5.13T ext. ref 2 (°C)	33.39length (m)	temperature (°C)	Stokes	anti-Stokes-747.200	-200.000	0.012	0.257
-746.185	140.739	-0.135	0.183
-745.171	-200.000	-0.053	0.282
-744.156	59.212	0.107	0.107
-743.142	-200.000	-0.017	0.101
-742.127	-57.036	0.269	0.121
-741.112	-101.656	0.266	-0.066
-740.098	-60.973	0.155	0.067
-739.083	-108.373	-0.272	-0.060
-738.069	-200.000	0.010	0.340
-737.054	-65.666	0.079	-0.032
-736.039	289.738	-0.208	0.386
-735.025	-169.595	0.215	0.008
-734.010	79.100	-0.116	0.127
-732.996	161.122	-0.120	0.172
-731.981	-100.504	-0.249	-0.063
-730.966	104.216	0.074	0.089
-729.952	200.069	0.176	0.276
-728.937	-200.000	0.006	-0.233
-727.923	-200.000	0.012	0.232
-726.908	-108.062	0.109	0.024
-725.894	-9.853	-0.142	0.097
-724.879	25.207	0.073	0.062
-723.864	35.501	-0.255	-0.228
-722.850	503.396	-0.117	-0.277
-721.835	102.798	0.208	0.249
-720.821	151.548	-0.146	-0.203
-719.806	-124.873	-0.140	0.022
-718.791	39.779	-0.088	0.081
-717.777	-27.425	-0.301	0.179
-716.762	56.642	-0.202	-0.201
-715.748	-108.199	0.200	0.044
-714.733	-200.000	-0.045	0.308
-713.718	-72.547	0.079	0.030
-712.704	-200.000	-0.011	0.265
-711.689	122.857	-0.130	0.166
-710.675	800.000	-0.123	-0.449
-709.660	-105.080	-0.213	0.050
-708.645	-75.361	-0.177	0.065
-707.631	-200.000	-0.015	-0.119
-706.616	144.162	0.104	-0.141
-705.602	-14.994	0.142	-0.093
-704.587	252.414	-0.180	0.312
-703.572	-24.281	0.242	0.148
-702.558	-138.229	-0.258	-0.029
-701.543	-133.996	-0.167	-0.021
-700.529	22.938	-0.345	0.289
-699.514	-19.045	-0.178	-0.113
-698.499	50.009	0.128	0.123
-697.485	-44.981	-0.223	0.113
-696.470	345.801	-0.099	0.199
-695.456	131.290	0.155	0.203
-694.441	230.020	0.165	-0.274
-693.426	-122.679	-0.063	-0.010
-692.412	-74.979	0.185	-0.067
-691.397	-31.376	0.065	0.037
-690.383	-200.000	-0.013	-0.222
-689.368	-200.000	-0.036	0.317
-688.354	103.507	0.036	-0.043
-687.339	-69.399	0.290	-0.113
-686.324	133.472	0.185	-0.244
-685.310	-5.240	0.262	0.184
-684.295	163.072	-0.106	0.152
-683.281	800.000	0.013	0.056
-682.266	-2.477	0.329	-0.235
-681.251	659.080	0.133	-0.349
-680.237	-89.991	-0.076	0.023
-679.222	206.678	0.134	-0.212
-678.208	43.223	-0.262	0.244
-677.193	-200.000	-0.005	0.216
-676.178	-200.000	0.053	-0.250
-675.164	800.000	0.059	-0.233
-674.149	154.007	-0.156	0.218
-673.135	-200.000	0.004	-0.183
-672.120	-200.000	-0.015	-0.133
-671.105	26.058	-0.187	-0.159
-670.091	-31.086	-0.085	0.049
-669.076	800.000	0.129	0.375
-668.062	-106.418	-0.397	-0.090
-667.047	-74.611	-0.101	0.037
-666.032	-50.576	0.107	-0.052
-665.018	-89.223	0.426	-0.128
-664.003	-66.586	0.118	0.048
-662.989	-111.498	-0.176	0.037
-661.974	539.202	0.108	-0.261
-660.959	-200.000	-0.036	-0.181
-659.945	-53.622	-0.115	0.053
-658.930	-114.539	-0.259	0.051
-657.916	226.613	-0.206	-0.341
-656.901	-200.000	-0.075	0.495
-655.886	-200.000	-0.036	0.259
-654.872	199.035	0.025	0.039
-653.857	-154.302	0.138	0.009
-652.843	102.467	-0.125	-0.149
-651.828	-165.147	0.286	0.013
-650.814	143.465	-0.203	0.276
-649.799	-200.000	0.012	-0.140
-648.784	-169.811	-0.129	0.005
-647.770	-137.701	0.160	-0.018
-646.755	800.000	0.045	-0.178
-645.741	696.875	0.153	-0.409
-644.726	-200.000	0.025	0.164
-643.711	81.076	0.183	-0.201
-642.697	-200.000	-0.025	-0.278
-641.682	107.355	0.192	-0.232
-640.668	-137.159	0.292	-0.034
-639.653	276.358	-0.091	-0.164
-638.638	738.393	-0.054	-0.147
-637.624	-111.616	0.144	-0.030
-636.609	-200.000	0.043	-0.313
-635.595	38.243	-0.210	-0.191
-634.580	-92.075	-0.237	-0.068
-633.565	-141.886	-0.307	-0.031
-632.551	-110.494	-0.201	-0.043
-631.536	-200.000	-0.004	0.192
-630.522	-91.768	-0.195	0.056
-629.507	-140.234	-0.057	0.006
-628.492	222.031	-0.133	0.218
-627.478	-76.615	0.166	0.059
-626.463	-89.709	-0.062	-0.019
-625.449	10.338	0.187	-0.145
-624.434	-100.162	-0.197	-0.050
-623.419	-159.071	-0.228	-0.013
-622.405	183.142	0.144	0.217
-621.390	-200.000	-0.007	-0.055
-620.376	-200.000	0.052	-0.411
-619.361	-200.000	0.006	0.206
-618.346	109.999	0.077	0.093
-617.332	-18.385	-0.047	0.030
-616.317	330.538	-0.076	-0.149
-615.303	-200.000	0.002	-0.346
-614.288	240.552	0.052	0.088
-613.273	-35.906	0.240	0.132
-612.259	124.468	-0.065	0.083
-611.244	-78.019	0.301	0.105
-610.230	36.658	0.182	-0.164
-609.215	-200.000	-0.290	0.001
-608.201	800.000	0.033	-0.136
-607.186	-0.913	-0.153	0.110
-606.171	-133.429	-0.119	-0.015
-605.157	-200.000	0.046	0.285
-604.142	-31.221	-0.085	0.049
-603.128	53.334	-0.247	-0.240
-602.113	-200.000	-0.014	0.119
-601.098	-83.352	-0.249	0.081
-600.084	-200.000	-0.064	0.453
-599.069	-1.382	0.207	0.148
-598.055	-104.764	-0.048	-0.011
-597.040	-200.000	0.006	-0.088
-596.025	182.986	-0.041	-0.062
-595.011	-200.000	-0.022	-0.164
-593.996	-200.000	-0.060	0.334
-592.982	136.001	-0.074	0.098
-591.967	-16.505	-0.262	0.168
-590.952	800.000	-0.037	-0.129
-589.938	-126.777	-0.156	0.023
-588.923	-58.812	0.292	0.128
-587.909	-123.570	0.383	0.062
-586.894	800.000	-0.110	0.329
-585.879	23.175	-0.183	-0.152
-584.865	-200.000	-0.043	-0.398
-583.850	-38.130	-0.355	-0.191
-582.836	-200.000	0.005	0.263
-581.821	-165.899	-0.020	0.001
-580.806	800.000	-0.095	0.298
-579.792	-200.000	0.045	0.365
-578.777	-104.207	0.258	0.061
-577.763	-62.229	0.091	-0.038
-576.748	-200.000	-0.339	0.000
-575.733	332.338	-0.137	-0.268
-574.719	24.762	-0.070	-0.059
-573.704	-200.000	0.020	-0.286
-572.690	-109.322	0.391	0.084
-571.675	-24.641	0.248	0.150
-570.661	-115.010	0.223	-0.043
-569.646	-11.189	0.189	0.127
-568.631	-37.501	-0.125	-0.067
-567.617	126.493	-0.034	-0.044
-566.602	800.000	-0.044	0.186
-565.588	96.583	0.091	-0.106
-564.573	-46.622	-0.219	-0.109
-563.558	447.305	0.034	-0.077
-562.544	17.490	-0.213	0.172
-561.529	632.212	-0.116	-0.298
-560.515	93.274	0.102	0.118
-559.500	800.000	0.055	0.163
-558.485	24.193	-0.496	-0.416
-557.471	-200.000	-0.013	-0.163
-556.456	370.170	0.120	0.247
-555.442	-40.569	-0.205	0.108
-554.427	-126.538	-0.340	-0.051
-553.412	-162.421	0.206	0.010
-552.398	320.894	0.112	-0.217
-551.383	152.347	0.082	-0.113
-550.369	-200.000	0.017	-0.088
-549.354	274.984	-0.141	-0.254
-548.339	-200.000	0.026	0.403
-547.325	-112.644	0.087	0.018
-546.310	-124.488	-0.093	-0.015
-545.296	-200.000	0.018	-0.131
-544.281	-1.697	0.178	0.127
-543.266	725.779	-0.126	0.341
-542.252	75.654	-0.119	0.128
-541.237	-37.493	0.207	-0.112
-540.223	-200.000	-0.006	-0.188
-539.208	800.000	0.069	0.195
-538.193	-169.633	-0.332	-0.012
-537.179	800.000	-0.061	-0.261
-536.164	-100.861	0.299	-0.074
-535.150	-200.000	0.048	-0.260
-534.135	165.915	-0.081	-0.117
-533.121	-31.311	-0.123	0.070
-532.106	-89.946	-0.200	-0.059
-531.091	219.693	-0.320	0.519
-530.077	766.293	-0.083	-0.229
-529.062	524.808	0.153	0.364
-528.048	-200.000	-0.002	-0.132
-527.033	56.808	0.226	0.223
-526.018	-37.450	0.087	-0.047
-525.004	-173.026	0.208	0.007
-523.989	800.000	-0.092	-0.288
-522.975	-111.746	-0.243	-0.050
-521.960	617.983	-0.070	0.178
-520.945	270.992	0.077	0.138
-519.931	27.671	0.065	-0.056
-518.916	-48.734	-0.180	-0.088
-517.902	800.000	-0.019	0.072
-516.887	-130.939	-0.102	-0.014
-515.872	403.978	0.137	0.293
-514.858	-200.000	0.001	0.166
-513.843	423.675	-0.109	0.238
-512.829	2.882	0.108	0.079
-511.814	-91.909	-0.049	-0.014
-510.799	-110.941	0.440	-0.092
-509.785	800.000	-0.020	0.090
-508.770	-200.000	0.193	0.001
-507.756	-169.325	0.176	-0.007
-506.741	-200.000	0.007	0.072
-505.726	-200.000	-0.015	-0.175
-504.712	-28.115	-0.217	-0.127
-503.697	-86.353	-0.172	-0.054
-502.683	354.071	0.098	0.197
-501.668	-98.346	0.229	-0.059
-500.653	506.444	0.094	-0.220
-499.639	319.662	-0.113	-0.217
-498.624	267.221	0.047	-0.084
-497.610	-50.324	0.403	-0.193
-496.595	800.000	-0.046	-0.197
-495.581	-40.396	-0.284	0.149
-494.566	-43.995	0.122	-0.062
-493.551	-200.000	0.024	0.311
-492.537	-10.762	-0.257	0.172
-491.522	-200.000	-0.044	-0.287
-490.508	-118.492	0.268	-0.048
-489.493	110.870	-0.144	0.176
-488.478	800.000	-0.057	-0.215
-487.464	800.000	0.046	-0.135
-486.449	800.000	0.047	0.188
-485.435	-109.479	-0.252	-0.054
-484.420	-156.958	-0.140	-0.009
-483.405	579.093	-0.058	-0.144
-482.391	-80.542	-0.211	-0.071
-481.376	-200.000	0.026	0.405
-480.362	-28.485	0.282	0.164
-479.347	-29.395	0.118	-0.069
-478.332	406.494	-0.180	-0.384
-477.318	513.383	-0.191	-0.450
-476.303	129.786	0.127	-0.164
-475.289	61.502	0.132	-0.133
-474.274	0.909	0.244	0.177
-473.259	800.000	-0.022	0.067
-472.245	556.175	0.074	0.181
-471.230	45.887	-0.101	0.094
-470.216	15.602	0.244	0.194
-469.201	111.137	0.208	0.254
-468.186	-200.000	0.011	0.312
-467.172	-32.000	-0.162	-0.092
-466.157	509.311	-0.052	0.123
-465.143	70.937	-0.161	-0.169
-464.128	517.387	-0.077	0.182
-463.113	592.906	-0.087	-0.217
-462.099	-200.000	0.001	0.272
-461.084	-100.522	-0.296	0.074
-460.070	-118.992	0.396	0.070
-459.055	258.033	-0.234	-0.407
-458.040	56.776	-0.166	0.163
-457.026	-125.836	-0.151	0.023
-456.011	-143.659	0.378	-0.036
-454.997	-122.286	0.120	-0.020
-453.982	-22.023	0.176	-0.108
-452.968	-160.841	-0.037	-0.002
-451.953	-89.882	0.250	0.074
-450.938	419.784	-0.070	0.153
-449.924	-144.192	0.081	0.008
-448.909	10.871	0.152	-0.117
-447.895	-200.000	-0.031	0.200
-446.880	-97.981	0.460	-0.120
-445.865	185.653	-0.126	0.189
-444.851	-43.738	0.170	-0.087
-443.836	196.717	-0.053	0.081
-442.822	-122.234	-0.286	-0.047
-441.807	800.000	-0.138	-0.401
-440.792	-170.094	0.227	0.008
-439.778	-200.000	-0.009	-0.258
-438.763	-99.596	0.155	0.039
-437.749	0.788	-0.478	-0.346
-436.734	-200.000	-0.018	-0.132
-435.719	-200.000	-0.006	-0.301
-434.705	-72.788	0.320	-0.119
-433.690	23.489	0.213	0.177
-432.676	-50.445	0.035	0.017
-431.661	800.000	-0.106	-0.326
-430.646	191.368	0.226	0.344
-429.632	15.873	-0.264	0.210
-428.617	-171.456	-0.394	-0.013
-427.603	-200.000	0.005	-0.355
-426.588	-59.448	-0.131	-0.057
-425.573	39.395	0.178	-0.161
-424.559	-18.678	-0.303	0.191
-423.544	-116.327	0.173	0.032
-422.530	-200.000	-0.003	-0.379
-421.515	27.212	-0.060	-0.051
-420.500	-200.000	-0.057	0.377
-419.486	114.380	0.158	0.194
-418.471	-200.000	-0.036	0.304
-417.457	-200.000	-0.010	0.237
-416.442	-148.551	0.209	0.017
-415.428	800.000	-0.039	0.138
-414.413	310.049	0.203	0.384
-413.398	-4.785	-0.419	-0.292
-412.384	-4.592	-0.019	-0.013
-411.369	-24.774	-0.344	-0.206
-410.355	142.488	0.054	-0.073
-409.340	56.404	0.178	-0.174
-408.325	-59.000	-0.302	0.131
-407.311	800.000	0.037	-0.112
-406.296	-109.004	-0.369	-0.079
-405.282	-50.702	-0.186	-0.088
-404.267	44.475	-0.123	0.114
-403.252	28.425	-0.104	0.089
-402.238	-54.874	0.186	-0.085
-401.223	58.936	0.134	0.133
-400.209	-83.843	-0.200	0.064
-399.194	-8.608	-0.175	-0.119
-398.179	-200.000	0.036	0.610
-397.165	252.714	-0.124	-0.213
-396.150	73.510	-0.066	-0.069
-395.136	-29.202	0.128	-0.074
-394.121	244.481	0.091	-0.154
-393.106	105.505	-0.086	-0.103
-392.092	78.133	0.117	-0.125
-391.077	-200.000	0.035	0.201
-390.063	-200.000	-0.008	0.275
-389.048	-72.505	0.091	-0.034
-388.033	-102.186	-0.092	-0.022
-387.019	-200.000	-0.031	0.149
-386.004	179.443	0.084	-0.124
-384.990	-200.000	0.011	0.211
-383.975	81.961	0.101	-0.110
-382.960	149.269	0.086	0.118
-381.946	-127.826	-0.246	0.036
-380.931	64.450	-0.248	-0.252
-379.917	82.047	0.155	0.169
-378.902	243.004	-0.041	0.069
-377.888	-65.277	-0.128	0.052
-376.873	-74.334	-0.230	0.084
-375.858	-200.000	0.052	-0.434
-374.844	-200.000	0.064	0.402
-373.829	710.678	0.044	0.116
-372.815	118.902	0.031	-0.039
-371.800	-141.956	-0.096	0.010
-370.785	-104.392	0.062	0.015
-369.771	57.569	0.202	0.198
-368.756	-28.538	-0.307	0.178
-367.742	800.000	-0.077	-0.294
-366.727	133.802	0.122	-0.159
-365.712	199.222	0.120	-0.185
-364.698	-144.968	-0.112	-0.010
-363.683	119.247	-0.154	-0.192
-362.669	255.042	-0.307	-0.529
-361.654	800.000	0.151	0.436
-360.639	-200.000	-0.001	-0.147
-359.625	800.000	-0.069	-0.206
-358.610	-8.787	-0.317	-0.214
-357.596	64.219	0.035	0.035
-356.581	-75.391	-0.172	-0.062
-355.566	800.000	0.051	0.189
-354.552	-200.000	0.023	-0.184
-353.537	78.751	0.180	0.194
-352.523	-24.195	0.098	0.059
-351.508	-107.925	0.191	0.042
-350.493	5.032	-0.105	0.078
-349.479	160.856	0.092	0.129
-348.464	45.204	-0.128	-0.119
-347.450	349.560	0.049	-0.098
-346.435	-200.000	0.022	-0.177
-345.420	63.277	-0.094	-0.095
-344.406	102.156	0.170	0.200
-343.391	615.052	-0.034	-0.085
-342.377	-200.000	-0.037	0.381
-341.362	-73.724	0.317	-0.116
-340.348	-39.491	-0.218	-0.115
-339.333	126.036	0.126	0.161
-338.318	-200.000	0.010	-0.108
-337.304	-43.155	-0.289	-0.147
-336.289	-97.821	-0.128	-0.033
-335.275	-1.850	0.259	-0.183
-334.260	-79.865	0.210	0.071
-333.245	-8.120	-0.121	0.082
-332.231	-84.990	0.357	0.113
-331.216	-67.723	0.276	0.109
-330.202	800.000	-0.102	-0.348
-329.187	-129.043	0.255	0.036
-328.172	416.832	0.075	0.162
-327.158	-11.368	0.127	-0.084
-326.143	290.035	0.148	-0.271
-325.129	579.889	0.159	-0.392
-324.114	23.385	0.267	0.221
-323.099	225.855	-0.046	-0.074
-322.085	-200.000	0.013	-0.183
-321.070	63.997	-0.214	0.217
-320.056	-200.000	-0.052	0.412
-319.041	503.803	0.040	0.093
-318.026	-160.621	0.401	0.022
-317.012	49.412	0.242	0.229
-315.997	-35.141	-0.063	-0.035
-314.983	154.092	-0.075	0.104
-313.968	493.251	0.008	0.019
-312.953	-167.655	-0.153	-0.006
-311.939	46.951	-0.062	0.058
-310.924	238.148	-0.113	0.189
-309.910	-200.000	-0.024	0.201
-308.895	145.297	-0.092	0.124
-307.880	62.604	0.073	-0.073
-306.866	37.790	0.114	-0.102
-305.851	-47.897	-0.207	0.101
-304.837	248.009	0.153	0.261
-303.822	52.279	0.307	-0.294
-302.807	6.139	0.108	0.081
-301.793	370.211	-0.089	0.182
-300.778	46.238	0.057	-0.053
-299.764	-168.531	0.185	0.007
-298.749	-200.000	-0.025	-0.178
-297.735	800.000	0.201	0.560
-296.720	609.480	0.112	0.282
-295.705	293.013	0.088	-0.160
-294.691	-49.576	-0.161	-0.077
-293.676	-200.000	-0.044	-0.218
-292.662	-139.851	0.463	0.049
-291.647	-200.000	0.028	0.228
-290.632	-166.525	0.330	-0.014
-289.618	-93.082	0.154	-0.043
-288.603	-11.193	-0.197	0.131
-287.589	-68.836	0.407	0.158
-286.574	-97.100	0.187	0.049
-285.559	40.415	-0.211	0.191
-284.545	-200.000	0.007	0.102
-283.530	-200.000	-0.066	-0.436
-282.516	-89.745	0.179	0.053
-281.501	-200.000	-0.045	-0.276
-280.486	155.969	-0.132	0.183
-279.472	306.835	-0.100	0.186
-278.457	-77.366	-0.116	-0.040
-277.443	-106.271	0.200	-0.045
-276.428	-164.215	-0.102	0.005
-275.413	800.000	0.091	0.268
-274.399	69.815	0.175	0.181
-273.384	573.584	-0.041	0.100
-272.370	-174.937	0.218	-0.006
-271.355	468.409	0.050	-0.113
-270.340	-78.693	-0.162	0.056
-269.326	177.496	-0.147	0.214
-268.311	-200.000	0.039	0.427
-267.297	3.983	-0.252	0.185
-266.282	800.000	-0.062	0.244
-265.267	744.610	-0.052	0.140
-264.253	82.923	-0.096	-0.104
-263.238	-103.634	-0.326	-0.077
-262.224	228.553	-0.061	-0.099
-261.209	-21.111	-0.203	-0.124
-260.195	66.938	-0.291	-0.297
-259.180	-146.355	0.381	-0.033
-258.165	30.569	0.080	-0.069
-257.151	-200.000	0.016	0.117
-256.136	-75.387	0.301	0.108
-255.122	605.081	0.125	-0.312
-254.107	-60.301	-0.263	-0.112
-253.092	-200.000	0.070	-0.478
-252.078	-200.000	-0.010	0.235
-251.063	-200.000	-0.030	0.159
-250.049	88.793	0.219	0.244
-249.034	59.580	-0.031	0.030
-248.019	556.147	-0.090	-0.218
-247.005	71.901	0.284	-0.297
-245.990	287.202	0.079	0.144
-244.976	-35.495	-0.169	0.092
-243.961	-57.673	0.183	-0.081
-242.946	-100.467	-0.083	-0.021
-241.932	-108.451	0.074	-0.016
-240.917	-200.000	0.013	-0.066
-239.903	6.634	0.106	-0.079
-238.888	482.029	-0.083	-0.188
-237.873	800.000	0.064	-0.188
-236.859	25.603	-0.191	0.160
-235.844	800.000	0.067	-0.252
-234.830	-200.000	-0.024	-0.383
-233.815	-200.000	-0.017	-0.134
-232.800	-43.354	0.259	-0.131
-231.786	800.000	-0.081	0.345
-230.771	-16.609	-0.222	-0.141
-229.757	-60.705	-0.350	-0.148
-228.742	-200.000	0.073	0.339
-227.727	-21.570	0.227	-0.138
-226.713	800.000	0.078	-0.339
-225.698	-8.759	-0.165	-0.111
-224.684	477.991	-0.016	0.037
-223.669	-118.996	0.186	-0.033
-222.655	-200.000	0.443	-0.001
-221.640	800.000	-0.034	-0.110
-220.625	-200.000	0.021	0.119
-219.611	-67.166	-0.456	0.180
-218.596	-109.067	0.185	0.039
-217.582	18.804	0.069	0.055
-216.567	-97.104	0.296	0.078
-215.552	800.000	0.171	-0.548
-214.538	800.000	-0.046	-0.150
-213.523	-24.504	0.146	-0.087
-212.509	-58.127	0.303	0.132
-211.494	-200.000	-0.008	-0.154
-210.479	783.416	0.015	-0.041
-209.465	-200.000	0.022	-0.363
-208.450	-87.676	-0.255	-0.077
-207.436	670.948	-0.072	-0.188
-206.421	800.000	0.034	0.109
-205.406	-84.685	-0.328	-0.103
-204.392	-200.000	0.014	-0.185
-203.377	32.168	-0.267	-0.230
-202.363	15.813	0.164	-0.129
-201.348	-200.000	-0.009	0.279
-200.333	689.018	0.149	0.390
-199.319	-134.265	-0.106	-0.013
-198.304	-44.796	-0.515	-0.257
-197.290	-200.000	-0.048	0.402
-196.275	86.530	0.143	0.158
-195.260	258.395	0.118	0.204
-194.246	-4.694	-0.244	-0.169
-193.231	-130.029	0.204	-0.028
-192.217	204.645	-0.188	0.292
-191.202	-200.000	-0.005	0.270
-190.187	-200.000	-0.025	0.124
-189.173	154.397	0.112	-0.153
-188.158	7.698	0.150	0.112
-187.144	89.211	-0.292	-0.325
-186.129	-158.626	0.118	0.007
-185.114	52.028	0.334	0.318
-184.100	800.000	0.067	0.194
-183.085	325.231	-0.115	-0.220
-182.071	-62.580	-0.131	-0.054
-181.056	-66.813	0.258	-0.102
-180.042	-95.068	0.185	0.050
-179.027	10.391	-0.219	-0.167
-178.012	704.439	-0.068	0.180
-176.998	-100.527	0.478	-0.118
-175.983	18.921	-0.027	-0.021
-174.969	-117.762	0.204	-0.037
-173.954	-200.000	-0.027	0.395
-172.939	-72.349	0.088	-0.032
-171.925	50.730	-0.300	-0.284
-170.910	113.582	-0.235	0.285
-169.896	-200.000	-0.015	0.149
-168.881	-81.918	-0.244	0.080
-167.866	-200.000	0.053	-0.326
-166.852	-200.000	0.014	-0.086
-165.837	152.247	-0.089	-0.122
-164.823	-29.768	-0.333	0.190
-163.808	800.000	-0.061	-0.172
-162.793	-200.000	0.034	-0.246
-161.779	65.615	0.175	-0.177
-160.764	167.632	-0.277	0.394
-159.750	87.545	-0.102	0.112
-158.735	3.890	0.074	0.054
-157.720	119.248	-0.258	0.319
-156.706	54.031	0.204	0.196
-155.691	159.658	0.164	0.228
-154.677	194.070	-0.044	-0.067
-153.662	-137.181	-0.147	-0.017
-152.647	28.443	-0.141	0.119
-151.633	800.000	0.116	0.363
-150.618	105.381	-0.143	-0.169
-149.604	19.712	0.125	-0.100
-148.589	-70.583	-0.138	0.052
-147.574	260.763	-0.151	0.262
-146.560	97.780	0.041	0.047
-145.545	-73.825	0.147	0.053
-144.531	-200.000	-0.095	-0.442
-143.516	800.000	-0.036	-0.112
-142.502	-89.854	-0.464	0.135
-141.487	-200.000	-0.037	0.205
-140.472	-102.022	-0.094	0.023
-139.458	-13.536	-0.254	0.164
-138.443	-200.000	-0.008	0.351
-137.429	-200.000	-0.000	0.247
-136.414	541.679	0.073	0.175
-135.399	-200.000	0.033	-0.229
-134.385	35.596	0.341	-0.299
-133.370	177.761	0.215	-0.314
-132.356	-200.000	-0.063	-0.408
-131.341	-171.181	0.290	0.010
-130.326	800.000	-0.021	0.072
-129.312	-80.275	0.182	-0.061
-128.297	-32.091	-0.182	-0.102
-127.283	800.000	-0.072	0.274
-126.268	44.814	0.090	-0.082
-125.253	394.294	-0.031	0.065
-124.239	694.905	-0.074	0.194
-123.224	-200.000	-0.028	0.348
-122.210	-165.523	0.365	0.016
