DTS Sentinel unit serial number:	SN413079Multiplexer serial number:	ORYXHardware model number:	OX4-SRSoftware version number:	ORYX F/W v4.00 Oryx Data Collector v3.7.2.0data status	okinstallation	princeton_trtdifferential loss correction	single-endedforward channel	channel 1reverse channel	N/Adate	2019/09/12time	12:00:11forward acquisition time	60.00reverse acquisition time	0.00gamma	496.2192k internal	0.2293k external	0.2293temperature offset calibration	1.0036default loss term (dB/km)	0.3790temperature slope calibration	1.0000multiplexer offset coefficient	1.0000multiplexer slope coefficient	1.0000fibre end	0.00T internal ref (°C)	40.31T ext. ref 1 (°C)	1.99T ext. ref 2 (°C)	38.34length (m)	temperature (°C)	Stokes	anti-Stokes-747.200	800.000	0.111	0.316
-746.185	-200.000	-0.002	0.346
-745.171	456.221	0.147	0.335
-744.156	-107.501	-0.271	0.061
-743.142	61.323	0.194	-0.198
-742.127	-128.830	0.247	-0.036
-741.112	-75.826	-0.267	-0.097
-740.098	-51.319	0.201	0.096
-739.083	-200.000	0.002	-0.237
-738.069	0.879	-0.277	0.203
-737.054	230.230	0.135	0.226
-736.039	-133.229	-0.280	-0.036
-735.025	130.088	-0.101	-0.132
-734.010	-200.000	0.015	-0.096
-732.996	-200.000	-0.017	-0.201
-731.981	-73.920	0.237	-0.088
-730.966	-110.383	0.241	0.051
-729.952	-63.564	-0.295	-0.124
-728.937	-12.329	-0.137	-0.092
-727.923	-200.000	0.011	-0.052
-726.908	-53.244	-0.230	-0.108
-725.894	-200.000	0.000	-0.258
-724.879	-35.827	0.124	-0.069
-723.864	-120.007	-0.616	-0.108
-722.850	-21.085	0.149	0.093
-721.835	800.000	-0.146	-0.543
-720.821	-172.548	0.389	0.013
-719.806	-26.769	-0.162	-0.097
-718.791	-200.000	0.032	-0.183
-717.777	499.433	-0.100	0.236
-716.762	-24.724	-0.123	0.075
-715.748	82.919	-0.122	0.135
-714.733	187.490	0.065	-0.099
-713.718	-117.703	0.176	-0.032
-712.704	-159.697	0.448	-0.025
-711.689	-200.000	0.012	0.149
-710.675	-56.759	-0.562	0.254
-709.660	149.551	-0.120	0.167
-708.645	222.370	0.158	0.260
-707.631	-33.422	-0.202	0.114
-706.616	-29.549	0.148	0.086
-705.602	32.190	-0.112	0.099
-704.587	-61.620	0.220	-0.094
-703.572	95.484	-0.086	0.100
-702.558	-200.000	0.050	0.353
-701.543	-200.000	0.024	0.186
-700.529	46.526	-0.023	0.022
-699.514	82.113	0.210	0.233
-698.499	-51.290	-0.303	0.145
-697.485	-55.172	0.186	-0.085
-696.470	-200.000	0.042	-0.285
-695.456	-41.264	0.177	0.093
-694.441	-200.000	-0.002	0.104
-693.426	126.712	0.135	-0.175
-692.412	205.183	-0.146	-0.232
-691.397	190.503	0.071	-0.109
-690.383	-200.000	0.032	0.158
-689.368	-2.569	-0.246	-0.176
-688.354	-147.119	0.428	0.037
-687.339	-200.000	-0.006	0.116
-686.324	-65.373	-0.098	-0.040
-685.310	71.518	0.046	-0.048
-684.295	-90.560	-0.307	0.091
-683.281	38.362	-0.078	0.071
-682.266	800.000	-0.082	-0.276
-681.251	800.000	-0.055	-0.193
-680.237	-74.771	0.313	0.115
-679.222	63.076	-0.114	-0.116
-678.208	385.159	0.076	-0.161
-677.193	-166.965	0.228	0.010
-676.178	-200.000	0.012	0.122
-675.164	-168.415	-0.291	-0.011
-674.149	206.802	0.126	-0.200
-673.135	800.000	0.099	-0.287
-672.120	113.652	0.066	-0.082
-671.105	101.742	-0.116	0.138
-670.091	205.738	-0.164	0.260
-669.076	192.434	-0.070	-0.107
-668.062	-200.000	0.001	-0.090
-667.047	-200.000	-0.019	0.200
-666.032	-102.273	0.321	-0.079
-665.018	486.314	0.009	-0.020
-664.003	166.642	-0.040	0.058
-662.989	-200.000	0.005	-0.245
-661.974	1.587	0.176	-0.129
-660.959	800.000	-0.124	0.379
-659.945	-156.614	0.438	0.028
-658.930	68.425	-0.103	0.108
-657.916	358.886	-0.075	0.154
-656.901	110.346	0.202	0.247
-655.886	800.000	0.026	0.104
-654.872	-200.000	-0.041	0.186
-653.857	-121.611	-0.179	-0.030
-652.843	-200.000	0.056	-0.300
-651.828	-133.378	-0.083	0.011
-650.814	258.210	-0.116	-0.204
-649.799	-63.883	-0.388	-0.162
-648.784	-144.990	0.183	-0.017
-647.770	451.796	0.039	-0.088
-646.755	-200.000	-0.001	-0.509
-645.741	-33.841	-0.092	0.052
-644.726	23.091	0.151	0.126
-643.711	-85.252	-0.011	-0.003
-642.697	-125.343	0.306	-0.048
-641.682	-49.381	-0.245	0.119
-640.668	-200.000	-0.002	0.327
-639.653	-147.294	0.455	0.039
-638.638	-35.598	-0.360	-0.199
-637.624	227.505	0.141	-0.234
-636.609	-200.000	-0.030	-0.154
-635.595	-200.000	-0.047	0.211
-634.580	8.875	-0.092	-0.071
-633.565	-40.032	0.431	-0.229
-632.551	-193.476	-0.064	-0.001
-631.536	800.000	-0.042	0.122
-630.522	-200.000	-0.096	-0.514
-629.507	-109.391	0.348	-0.075
-628.492	800.000	-0.041	0.138
-627.478	67.501	-0.129	-0.134
-626.463	-55.435	0.202	-0.092
-625.449	-46.752	-0.293	-0.146
-624.434	0.553	-0.216	-0.157
-623.419	-125.718	0.323	0.050
-622.405	-1.691	0.218	0.157
-621.390	800.000	-0.137	-0.409
-620.376	81.894	0.021	-0.023
-619.361	-107.508	-0.131	-0.029
-618.346	-92.837	0.218	-0.062
-617.332	348.856	0.145	-0.291
-616.317	-112.569	-0.184	0.037
-615.303	-154.969	0.318	0.021
-614.288	800.000	-0.082	0.275
-613.273	48.389	-0.228	0.218
-612.259	-200.000	-0.001	0.368
-611.244	-71.512	-0.510	-0.194
-610.230	-114.705	-0.220	-0.043
-609.215	800.000	0.016	0.061
-608.201	440.517	0.024	0.054
-607.186	-34.454	-0.117	0.066
-606.171	-94.095	0.102	0.028
-605.157	391.626	0.078	-0.165
-604.142	627.353	0.054	-0.140
-603.128	-200.000	-0.043	0.452
-602.113	-200.000	-0.048	0.236
-601.098	800.000	0.105	-0.297
-600.084	-89.296	-0.188	0.056
-599.069	-200.000	-0.214	-0.000
-598.055	800.000	0.071	-0.224
-597.040	161.543	0.162	-0.231
-596.025	-140.004	0.229	-0.025
-595.011	556.918	0.082	0.201
-593.996	122.005	0.281	0.356
-592.982	70.182	-0.094	0.099
-591.967	-170.508	-0.133	-0.005
-590.952	167.664	0.266	0.384
-589.938	165.600	-0.073	-0.105
-588.923	75.614	-0.096	-0.103
-587.909	-200.000	-0.008	-0.056
-586.894	18.533	-0.209	-0.170
-585.879	120.990	0.222	-0.281
-584.865	102.073	-0.272	0.323
-583.850	-102.682	0.124	-0.030
-582.836	56.749	0.057	-0.057
-581.821	457.315	0.081	0.184
-580.806	471.954	0.075	-0.173
-579.792	65.875	-0.162	0.167
-578.777	-92.556	0.320	-0.091
-577.763	-200.000	0.071	-0.435
-576.748	-180.635	-0.381	0.008
-575.733	-200.000	-0.031	0.225
-574.719	-66.534	-0.321	0.129
-573.704	800.000	-0.059	-0.257
-572.690	800.000	0.047	-0.168
-571.675	20.568	0.119	0.098
-570.661	185.616	0.176	0.265
-569.646	134.473	-0.277	0.365
-568.631	-79.601	-0.313	-0.107
-567.617	-17.136	0.090	0.058
-566.602	114.369	-0.156	-0.193
-565.588	21.966	-0.318	-0.263
-564.573	-34.104	-0.238	0.133
-563.558	800.000	0.039	0.118
-562.544	747.145	0.074	0.202
-561.529	800.000	0.029	0.090
-560.515	-98.659	-0.135	-0.035
-559.500	-15.761	-0.139	-0.090
-558.485	-110.207	0.133	-0.028
-557.471	-200.000	-0.026	-0.366
-556.456	-23.056	0.132	-0.081
-555.442	382.151	-0.003	0.006
-554.427	26.264	0.166	0.141
-553.412	-113.777	0.178	-0.035
-552.398	28.351	0.169	-0.145
-551.383	-3.397	0.285	-0.202
-550.369	4.562	-0.299	-0.223
-549.354	-200.000	0.016	-0.310
-548.339	445.008	0.083	0.184
-547.325	-200.000	0.006	-0.133
-546.310	173.516	0.211	-0.309
-545.296	-116.332	0.322	0.061
-544.281	-200.000	-0.043	-0.333
-543.266	-200.000	-0.028	-0.358
-542.252	-37.536	0.170	0.092
-541.237	-98.303	0.138	0.036
-540.223	-200.000	0.013	0.215
-539.208	6.606	-0.313	-0.236
-538.193	457.207	0.102	0.230
-537.179	203.630	-0.052	-0.081
-536.164	129.076	-0.084	-0.109
-535.150	-200.000	0.008	0.088
-534.135	309.030	-0.165	0.314
-533.121	-85.212	0.156	-0.050
-532.106	479.806	0.040	-0.093
-531.091	716.089	0.042	0.112
-530.077	-81.773	-0.215	-0.071
-529.062	-1.964	0.122	0.087
-528.048	-200.000	0.043	0.209
-527.033	-103.967	-0.213	-0.050
-526.018	26.260	-0.169	0.144
-525.004	800.000	-0.038	0.158
-523.989	357.399	0.163	-0.330
-522.975	37.600	-0.277	-0.249
-521.960	-24.201	0.071	-0.043
-520.945	-200.000	-0.012	-0.151
-519.931	284.073	-0.134	0.244
-518.916	241.892	-0.049	-0.082
-517.902	-83.536	-0.258	0.084
-516.887	-89.003	-0.127	0.038
-515.872	549.774	0.085	0.206
-514.858	-161.677	-0.330	0.017
-513.843	-200.000	0.007	0.241
-512.829	60.279	-0.214	0.215
-511.814	-200.000	0.028	-0.159
-510.799	-200.000	0.012	-0.350
-509.785	293.127	0.064	-0.119
-508.770	109.687	0.164	0.199
-507.756	324.181	-0.126	-0.245
-506.741	88.916	0.116	0.131
-505.726	800.000	0.069	0.227
-504.712	-67.953	-0.113	-0.045
-503.697	800.000	0.075	0.252
-502.683	99.544	-0.144	-0.169
-501.668	163.203	0.085	-0.122
-500.653	-200.000	0.021	0.113
-499.639	-139.692	-0.228	-0.025
-498.624	-200.000	0.013	0.090
-497.610	83.812	0.264	-0.292
-496.595	-176.606	0.035	0.001
-495.581	67.617	-0.033	0.035
-494.566	123.623	-0.125	-0.159
-493.551	49.101	-0.148	0.141
-492.537	-200.000	0.012	0.448
-491.522	-87.798	0.103	0.032
-490.508	-49.094	-0.127	0.062
-489.493	-20.173	0.116	0.072
-488.478	-200.000	0.026	0.222
-487.464	33.384	-0.220	0.194
-486.449	800.000	-0.041	0.164
-485.435	30.740	-0.227	-0.197
-484.420	42.008	0.149	0.137
-483.405	-200.000	0.062	0.285
-482.391	7.067	-0.308	0.233
-481.376	365.294	0.111	0.227
-480.362	-200.000	-0.008	-0.143
-479.347	-146.747	0.286	-0.025
-478.332	138.201	0.006	-0.008
-477.318	-24.864	-0.074	-0.045
-476.303	-91.431	-0.142	0.041
-475.289	-83.069	-0.075	0.024
-474.274	250.609	0.093	0.160
-473.259	-100.136	-0.206	-0.052
-472.245	94.121	0.013	-0.014
-471.230	-34.824	0.224	0.124
-470.216	187.522	0.159	0.241
-469.201	-200.000	-0.049	0.336
-468.186	-43.617	-0.083	-0.042
-467.172	517.382	-0.079	-0.187
-466.157	-200.000	0.056	-0.275
-465.143	-132.201	-0.413	-0.054
-464.128	-146.850	0.068	0.006
-463.113	-36.193	-0.161	0.088
-462.099	34.448	0.263	-0.232
-461.084	-98.765	0.306	0.079
-460.070	197.762	-0.205	0.316
-459.055	-80.826	-0.153	0.051
-458.040	-108.879	-0.171	0.037
-457.026	191.085	0.096	-0.146
-456.011	577.899	-0.111	-0.275
-454.997	-70.328	0.053	0.020
-453.982	-49.072	-0.230	-0.111
-452.968	-200.000	0.087	0.507
-451.953	-118.792	-0.385	-0.069
-450.938	-108.815	0.072	-0.016
-449.924	-37.764	-0.139	0.075
-448.909	51.222	0.207	-0.198
-447.895	10.953	0.162	-0.125
-446.880	-200.000	0.003	-0.116
-445.865	182.546	0.080	-0.120
-444.851	67.653	0.327	-0.338
-443.836	70.748	0.116	-0.121
-442.822	800.000	-0.054	0.188
-441.807	64.532	-0.227	0.232
-440.792	-98.263	-0.172	-0.045
-439.778	800.000	0.072	0.315
-438.763	739.885	0.107	-0.291
-437.749	428.146	0.137	0.300
-436.734	15.975	0.044	0.035
-435.719	800.000	0.060	0.244
-434.705	-66.762	0.175	-0.070
-433.690	800.000	0.091	-0.299
-432.676	23.876	-0.414	-0.345
-431.661	-200.000	0.020	-0.097
-430.646	90.379	0.215	-0.244
-429.632	-17.538	-0.184	0.117
-428.617	43.681	0.244	0.226
-427.603	51.061	-0.205	0.196
-426.588	-41.587	0.132	-0.068
-425.573	114.983	0.109	-0.135
-424.559	138.921	-0.252	-0.335
-423.544	126.103	0.145	0.185
-422.530	-200.000	-0.031	-0.171
-421.515	-200.000	0.019	-0.169
-420.500	-200.000	0.001	-0.204
-419.486	464.106	-0.027	0.062
-418.471	28.116	-0.168	0.143
-417.457	-200.000	-0.007	-0.167
-416.442	-200.000	-0.014	-0.243
-415.428	23.401	-0.335	-0.278
-414.413	-49.955	-0.187	0.090
-413.398	-122.524	-0.208	-0.034
-412.384	-62.366	0.108	0.045
-411.369	490.061	-0.060	0.139
-410.355	181.489	-0.113	0.168
-409.340	588.347	0.135	-0.335
-408.325	151.283	0.077	-0.106
-407.311	-42.075	-0.127	0.066
-406.296	659.278	-0.051	-0.132
-405.282	-200.000	0.018	0.146
-404.267	-200.000	0.040	0.185
-403.252	-200.000	-0.038	0.334
-402.238	31.967	-0.088	-0.077
-401.223	36.558	-0.029	0.026
-400.209	-200.000	-0.035	-0.161
-399.194	-82.549	-0.004	-0.001
-398.179	136.757	-0.180	0.237
-397.165	-103.985	0.082	0.019
-396.150	-200.000	-0.048	-0.242
-395.136	800.000	-0.078	-0.278
-394.121	800.000	0.072	0.221
-393.106	110.518	-0.066	0.081
-392.092	-21.502	-0.048	-0.030
-391.077	128.253	0.082	-0.105
-390.063	79.417	0.280	0.303
-389.048	102.867	-0.107	0.126
-388.033	800.000	0.040	0.119
-387.019	-53.245	0.198	-0.092
-386.004	800.000	-0.043	-0.178
-384.990	-200.000	0.022	0.215
-383.975	-187.285	0.331	-0.005
-382.960	-145.226	0.324	0.030
-381.946	-17.739	-0.218	0.138
-380.931	-200.000	-0.021	-0.250
-379.917	376.089	0.170	-0.351
-378.902	40.006	0.187	0.169
-377.888	333.830	0.104	0.203
-376.873	-123.144	0.054	0.009
-375.858	-200.000	-0.050	0.628
-374.844	-41.599	0.340	0.176
-373.829	-5.668	0.183	-0.126
-372.815	51.826	-0.304	0.292
-371.800	242.233	-0.090	0.153
-370.785	239.382	0.044	-0.074
-369.771	25.950	0.200	-0.168
-368.756	-159.885	0.215	0.012
-367.742	-120.607	-0.265	-0.045
-366.727	800.000	-0.038	0.133
-365.712	-95.842	-0.372	0.100
-364.698	41.486	-0.136	-0.124
-363.683	160.134	0.078	-0.110
-362.669	-126.067	0.438	0.066
-361.654	-132.676	0.105	-0.014
-360.639	158.451	0.073	-0.103
-359.625	-63.380	0.058	-0.024
-358.610	-44.472	0.075	-0.038
-357.596	-200.000	0.004	0.292
-356.581	800.000	0.090	0.321
-355.566	707.733	-0.032	0.086
-354.552	31.713	-0.205	-0.178
-353.537	-27.250	-0.296	-0.174
-352.523	-200.000	0.049	-0.229
-351.508	800.000	0.039	-0.114
-350.493	45.143	-0.160	-0.149
-349.479	-85.041	0.176	-0.056
-348.464	216.367	0.153	-0.246
-347.450	-51.559	-0.246	-0.116
-346.435	-200.000	-0.014	-0.098
-345.420	-179.522	-0.407	-0.009
-344.406	-32.105	0.125	-0.070
-343.391	-43.099	-0.186	0.095
-342.377	-200.000	0.015	-0.149
-341.362	465.310	0.085	-0.191
-340.348	148.725	0.117	0.159
-339.333	-157.099	-0.299	-0.018
-338.318	-56.601	-0.188	-0.084
-337.304	800.000	-0.042	0.133
-336.289	-200.000	-0.020	0.326
-335.275	738.167	-0.078	0.210
-334.260	-31.898	0.285	0.161
-333.245	-101.998	-0.078	-0.019
-332.231	-138.019	0.027	-0.003
-331.216	-52.101	-0.147	0.069
-330.202	-200.000	-0.027	0.307
-329.187	311.880	-0.044	-0.083
-328.172	-200.000	0.013	-0.130
-327.158	3.049	0.039	-0.028
-326.143	92.443	0.070	-0.079
-325.129	90.343	0.151	-0.170
-324.114	25.231	-0.211	-0.176
-323.099	-59.044	0.265	-0.115
-322.085	800.000	-0.016	-0.063
-321.070	47.650	0.262	0.246
-320.056	-131.551	0.158	0.021
-319.041	-200.000	0.023	0.124
-318.026	114.306	0.188	-0.230
-317.012	213.374	0.190	0.302
-315.997	-35.623	0.230	-0.126
-314.983	24.611	0.145	-0.120
-313.968	490.958	-0.179	0.413
-312.953	23.627	0.093	0.077
-311.939	89.888	-0.014	0.015
-310.924	-131.114	0.317	-0.043
-309.910	198.501	-0.059	-0.091
-308.895	789.803	-0.090	0.249
-307.880	-200.000	-0.001	0.167
-306.866	800.000	-0.101	-0.390
-305.851	405.127	-0.074	0.156
-304.837	6.092	0.211	-0.157
-303.822	255.942	0.038	0.066
-302.807	123.195	0.128	0.161
-301.793	-200.000	-0.031	-0.276
-300.778	209.603	-0.075	0.118
-299.764	-86.951	-0.021	-0.006
-298.749	143.047	-0.148	0.198
-297.735	74.673	0.218	0.230
-296.720	-200.000	-0.031	0.148
-295.705	-11.278	0.194	-0.128
-294.691	-135.149	0.422	-0.051
-293.676	31.402	0.193	0.166
-292.662	203.122	0.080	-0.124
-291.647	772.788	0.095	-0.260
-290.632	255.830	0.033	0.057
-289.618	-7.803	-0.140	0.095
-288.603	-200.000	-0.059	0.267
-287.589	-200.000	-0.024	-0.210
-286.574	-200.000	0.031	0.208
-285.559	-45.918	-0.060	0.030
-284.545	-200.000	-0.048	-0.366
-283.530	-30.465	0.102	-0.058
-282.516	-200.000	-0.007	0.061
-281.501	-152.354	-0.224	0.016
-280.486	119.668	0.169	0.210
-279.472	-98.030	-0.495	-0.128
-278.457	-11.414	0.228	-0.151
-277.443	-200.000	0.045	-0.216
-276.428	-167.420	0.502	-0.020
-275.413	-200.000	0.015	0.150
-274.399	192.472	-0.236	-0.358
-273.384	62.128	0.152	0.152
-272.370	-200.000	-0.007	0.186
-271.355	-200.000	0.037	-0.177
-270.340	-200.000	-0.030	-0.200
-269.326	346.852	-0.059	0.117
-268.311	-98.290	-0.151	-0.039
-267.297	-146.484	0.222	0.019
-266.282	279.136	-0.188	0.337
-265.267	340.727	0.201	0.394
-264.253	-200.000	0.048	-0.225
-263.238	102.473	-0.161	-0.189
-262.224	691.450	-0.052	-0.136
-261.209	-22.591	0.229	-0.139
-260.195	23.351	-0.301	0.248
-259.180	291.360	0.177	0.324
-258.165	-149.955	-0.194	-0.015
-257.151	-148.822	-0.213	-0.017
-256.136	641.332	-0.060	0.154
-255.122	102.313	0.158	-0.186
-254.107	-135.213	-0.214	-0.026
-253.092	800.000	0.090	0.279
-252.078	118.278	0.139	0.172
-251.063	-200.000	0.023	-0.163
-250.049	-164.889	0.200	-0.009
-249.034	281.512	-0.147	0.264
-248.019	53.521	-0.171	0.165
-247.005	-34.524	-0.182	0.100
-245.990	484.453	-0.088	-0.202
-244.976	45.919	-0.389	-0.361
-243.961	24.147	-0.269	0.223
-242.946	630.631	0.056	-0.142
-241.932	-151.194	0.165	-0.012
-240.917	472.192	0.024	-0.055
-239.903	-200.000	-0.040	0.283
-238.888	35.419	0.159	0.140
-237.873	-200.000	0.021	0.342
-236.859	-200.000	-0.585	-0.002
-235.844	209.037	0.211	-0.332
-234.830	94.018	-0.295	-0.336
-233.815	-79.356	0.215	-0.073
-232.800	-200.000	-0.032	0.238
-231.786	533.517	0.101	-0.240
-230.771	-145.670	-0.264	0.024
-229.757	670.041	0.183	-0.476
-228.742	114.884	0.079	-0.096
-227.727	298.871	-0.086	0.159
-226.713	-200.000	-0.005	0.209
-225.698	42.362	-0.102	0.093
-224.684	-116.392	-0.137	0.025
-223.669	-200.000	0.023	-0.178
-222.655	-200.000	0.076	-0.435
-221.640	-200.000	-0.003	-0.072
-220.625	8.832	-0.194	-0.147
-219.611	2.682	0.099	0.072
-218.596	-10.913	0.307	0.203
-217.582	63.332	0.268	-0.269
-216.567	-37.731	0.190	0.102
-215.552	-36.321	-0.368	-0.199
-214.538	800.000	0.072	0.217
-213.523	91.709	-0.089	-0.100
-212.509	535.270	0.042	0.100
-211.494	99.340	0.116	0.135
-210.479	75.037	0.094	-0.100
-209.465	47.606	0.211	-0.197
-208.450	127.560	0.208	0.265
-207.436	166.951	-0.135	0.193
-206.421	-90.216	0.124	0.036
-205.406	193.742	0.084	-0.128
-204.392	-100.852	-0.278	0.068
-203.377	-200.000	0.033	0.154
-202.363	-34.302	0.156	0.085
-201.348	479.456	-0.124	-0.281
-200.333	-200.000	-0.010	-0.355
-199.319	-77.786	-0.251	0.087
-198.304	235.108	0.152	0.252
-197.290	-22.036	0.178	0.108
-196.275	1.994	-0.187	-0.135
-195.260	-124.447	0.120	0.019
-194.246	72.235	0.041	0.043
-193.231	-200.000	-0.036	0.183
-192.217	-15.303	-0.135	0.087
-191.202	-17.636	0.119	-0.075
-190.187	-24.493	-0.099	0.059
-189.173	-38.546	0.025	0.013
-188.158	800.000	-0.025	-0.069
-187.144	-69.516	0.170	0.065
-186.129	227.707	0.048	0.078
-185.114	22.276	-0.064	-0.053
-184.100	-45.997	-0.176	-0.087
-183.085	-104.856	0.091	0.021
-182.071	94.012	0.175	-0.199
-181.056	-164.046	-0.334	-0.015
-180.042	-200.000	0.029	0.211
-179.027	-2.765	-0.229	0.160
-178.012	791.435	0.112	0.308
-176.998	-74.123	0.317	-0.115
-175.983	-128.339	0.551	0.079
-174.969	63.746	-0.311	0.312
-173.954	800.000	-0.029	0.115
-172.939	800.000	0.036	0.135
-171.925	-117.244	-0.040	0.007
-170.910	2.308	-0.204	-0.148
-169.896	273.847	0.152	-0.270
-168.881	-14.080	0.125	0.081
-167.866	-200.000	0.011	-0.089
-166.852	800.000	-0.065	-0.265
-165.837	198.119	0.154	-0.236
-164.823	-111.371	0.229	-0.047
-163.808	-200.000	0.010	-0.249
-162.793	800.000	-0.060	0.193
-161.779	176.334	-0.142	0.206
-160.764	-84.640	0.138	0.043
-159.750	162.870	-0.069	-0.096
-158.735	800.000	0.014	-0.053
-157.720	-54.919	-0.084	0.038
-156.706	-200.000	0.002	-0.119
-155.691	-200.000	0.008	0.352
-154.677	79.808	0.169	-0.181
-153.662	79.556	-0.150	0.160
-152.647	-49.782	0.087	0.041
-151.633	390.126	-0.070	-0.144
-150.618	-2.907	-0.127	0.089
-149.604	-88.060	0.448	-0.135
-148.589	-200.000	0.011	-0.128
-147.574	-129.557	0.137	-0.019
-146.560	-80.206	0.169	0.057
-145.545	162.676	0.093	0.131
-144.531	-42.964	0.141	0.072
-143.516	165.781	-0.033	-0.047
-142.502	54.526	-0.218	-0.210
-141.487	312.617	-0.080	0.150
-140.472	-200.000	0.038	0.230
-139.458	-177.934	0.163	0.004
-138.443	574.581	0.096	0.233
-137.429	-114.076	-0.194	-0.038
-136.414	41.659	-0.033	0.030
-135.399	-121.398	-0.220	0.037
-134.385	800.000	0.126	0.419
-133.370	619.342	-0.069	0.172
-132.356	-135.230	0.436	0.052
-131.341	445.035	-0.109	0.238
-130.326	112.577	0.058	0.070
-129.312	229.594	0.119	0.194
-128.297	-200.000	0.033	0.242
-127.283	-100.079	0.359	-0.089
-126.268	542.487	-0.069	-0.165
-125.253	449.917	-0.046	0.101
-124.239	62.812	0.145	-0.145
-123.224	192.017	0.150	0.226
-122.210	800.000	-0.017	0.075
-121.195	68.872	0.288	-0.296
