DTS Sentinel unit serial number:	SN413079Multiplexer serial number:	ORYXHardware model number:	OX4-SRSoftware version number:	ORYX F/W v4.00 Oryx Data Collector v3.7.2.0data status	okinstallation	princeton_trtdifferential loss correction	single-endedforward channel	channel 1reverse channel	N/Adate	2019/09/13time	00:50:35forward acquisition time	60.00reverse acquisition time	0.00gamma	496.2192k internal	0.2329k external	0.2329temperature offset calibration	1.0139default loss term (dB/km)	0.3790temperature slope calibration	1.0000multiplexer offset coefficient	1.0000multiplexer slope coefficient	1.0000fibre end	0.00T internal ref (°C)	28.16T ext. ref 1 (°C)	3.65T ext. ref 2 (°C)	22.62length (m)	temperature (°C)	Stokes	anti-Stokes-747.200	9.629	-0.152	0.116
-746.185	-134.457	0.282	-0.035
-745.171	-45.920	0.085	-0.042
-744.156	-36.002	-0.205	0.112
-743.142	-143.562	0.377	0.036
-742.127	311.041	-0.081	-0.154
-741.112	166.254	-0.089	0.127
-740.098	161.650	0.130	0.183
-739.083	800.000	0.068	-0.207
-738.069	-200.000	0.020	0.167
-737.054	-93.755	-0.050	0.014
-736.039	800.000	-0.139	-0.405
-735.025	187.663	0.147	0.220
-734.010	-200.000	0.023	0.119
-732.996	-36.075	-0.147	-0.080
-731.981	-64.170	-0.162	0.066
-730.966	125.247	-0.137	0.174
-729.952	-200.000	0.049	-0.234
-728.937	52.371	-0.082	-0.079
-727.923	-200.000	-0.018	0.107
-726.908	246.456	-0.146	-0.247
-725.894	-174.861	-0.472	0.013
-724.879	68.850	0.096	-0.099
-723.864	-92.974	0.272	0.076
-722.850	225.519	0.196	-0.320
-721.835	-75.480	-0.302	0.108
-720.821	161.050	-0.102	-0.143
-719.806	98.998	-0.100	0.116
-718.791	210.689	0.286	-0.453
-717.777	800.000	-0.123	0.364
-716.762	61.979	-0.163	0.164
-715.748	-133.526	-0.285	0.036
-714.733	75.854	-0.136	0.145
-713.718	-80.403	0.269	0.090
-712.704	-135.860	0.048	0.006
-711.689	-49.449	-0.276	0.132
-710.675	-146.417	-0.350	-0.031
-709.660	-87.502	-0.034	-0.010
-708.645	-124.281	-0.385	0.061
-707.631	-71.932	-0.365	-0.137
-706.616	132.003	0.102	0.132
-705.602	-200.000	0.004	-0.328
-704.587	-141.791	-0.352	0.036
-703.572	-33.196	0.417	0.232
-702.558	54.335	0.166	0.160
-701.543	800.000	-0.012	-0.041
-700.529	25.804	-0.092	-0.077
-699.514	-25.066	0.151	0.090
-698.499	-200.000	-0.008	-0.098
-697.485	-15.623	-0.385	-0.247
-696.470	-200.000	0.331	-0.001
-695.456	333.168	-0.235	-0.457
-694.441	-175.781	0.303	0.008
-693.426	-118.690	0.332	0.059
-692.412	-113.358	0.058	0.011
-691.397	59.658	0.282	0.280
-690.383	-8.527	0.202	-0.136
-689.368	-77.485	-0.148	-0.052
-688.354	133.372	-0.279	-0.362
-687.339	641.153	0.065	-0.167
-686.324	240.282	0.014	-0.024
-685.310	183.530	0.052	0.077
-684.295	-200.000	-0.014	-0.340
-683.281	-30.156	-0.225	-0.128
-682.266	136.685	0.193	-0.253
-681.251	800.000	0.057	-0.191
-680.237	-200.000	-0.015	-0.142
-679.222	-200.000	-0.010	-0.061
-678.208	-138.194	-0.120	-0.013
-677.193	-122.503	-0.477	-0.078
-676.178	11.070	-0.192	-0.148
-675.164	-77.796	0.165	0.057
-674.149	17.554	0.109	-0.087
-673.135	-200.000	-0.030	-0.179
-672.120	-200.000	0.027	0.157
-671.105	-79.791	-0.249	-0.084
-670.091	46.321	0.147	-0.137
-669.076	-0.010	-0.054	-0.039
-668.062	-200.000	0.009	0.097
-667.047	128.211	-0.220	0.281
-666.032	-200.000	0.027	0.184
-665.018	8.996	0.175	-0.133
-664.003	34.772	-0.129	0.113
-662.989	151.064	0.091	-0.125
-661.974	-90.615	-0.227	0.066
-660.959	-66.974	0.364	0.144
-659.945	-200.000	0.027	0.293
-658.930	-148.453	-0.674	-0.055
-657.916	-117.316	-0.090	-0.016
-656.901	75.694	0.116	0.123
-655.886	-15.274	-0.102	-0.066
-654.872	-57.296	-0.103	-0.045
-653.857	5.397	-0.073	-0.054
-652.843	19.575	0.117	0.094
-651.828	414.829	-0.068	0.146
-650.814	800.000	-0.035	0.096
-649.799	-200.000	-0.012	-0.086
-648.784	-200.000	-0.036	-0.254
-647.770	-200.000	0.001	0.083
-646.755	118.255	-0.148	-0.183
-645.741	787.110	0.093	-0.255
-644.726	800.000	0.080	-0.258
-643.711	19.584	-0.058	-0.047
-642.697	-41.535	0.205	0.106
-641.682	35.162	-0.062	0.055
-640.668	17.687	0.139	-0.111
-639.653	-137.740	-0.332	-0.037
-638.638	800.000	0.056	0.238
-637.624	800.000	-0.014	-0.050
-636.609	-71.361	0.201	-0.076
-635.595	-58.404	-0.118	0.051
-634.580	313.051	0.177	-0.334
-633.565	191.418	-0.108	0.162
-632.551	206.714	0.075	-0.118
-631.536	800.000	0.040	-0.152
-630.522	571.403	-0.037	-0.090
-629.507	12.833	-0.131	0.101
-628.492	0.054	-0.151	0.108
-627.478	0.198	-0.341	-0.244
-626.463	41.936	-0.289	0.262
-625.449	-125.035	0.124	0.019
-624.434	234.256	0.067	-0.111
-623.419	-141.033	0.129	-0.013
-622.405	66.246	-0.187	-0.190
-621.390	739.135	-0.038	-0.101
-620.376	149.283	0.172	0.234
-619.361	-9.841	0.223	-0.149
-618.346	646.726	0.008	-0.020
-617.332	336.341	-0.135	-0.264
-616.317	301.844	-0.022	-0.041
-615.303	-159.105	-0.215	0.012
-614.288	-22.021	0.113	0.069
-613.273	143.223	0.161	-0.214
-612.259	800.000	0.047	-0.138
-611.244	88.273	-0.198	-0.221
-610.230	50.596	0.117	0.111
-609.215	-48.388	0.500	0.241
-608.201	-109.787	0.126	0.027
-607.186	800.000	-0.075	-0.220
-606.171	51.450	0.187	-0.178
-605.157	-23.326	-0.226	-0.136
-604.142	-86.855	0.149	-0.045
-603.128	-48.806	-0.102	0.049
-602.113	800.000	0.066	-0.221
-601.098	-138.412	-0.241	0.027
-600.084	-155.100	0.419	0.027
-599.069	1.022	0.177	0.127
-598.055	-200.000	-0.018	0.302
-597.040	560.509	-0.140	-0.339
-596.025	190.936	-0.099	0.149
-595.011	800.000	-0.038	0.117
-593.996	-200.000	-0.040	-0.206
-592.982	73.536	-0.105	-0.110
-591.967	-27.891	-0.322	0.187
-590.952	-11.644	-0.418	0.275
-589.938	-77.739	0.287	-0.099
-588.923	340.291	-0.220	-0.430
-587.909	709.140	0.064	-0.170
-586.894	-18.512	-0.098	0.061
-585.879	20.632	0.302	-0.244
-584.865	-94.666	0.211	-0.057
-583.850	-38.389	0.174	-0.092
-582.836	-60.665	-0.254	0.108
-581.821	800.000	-0.027	0.078
-580.806	8.295	-0.050	0.037
-579.792	-200.000	-0.007	0.090
-578.777	800.000	0.106	0.307
-577.763	-145.822	-0.220	0.020
-576.748	-150.146	0.253	-0.020
-575.733	309.038	0.239	0.447
-574.719	-49.978	0.266	0.126
-573.704	-62.888	-0.104	-0.043
-572.690	241.311	0.017	-0.028
-571.675	12.801	-0.213	0.164
-570.661	66.573	-0.224	0.228
-569.646	-56.936	0.244	0.108
-568.631	-142.228	-0.161	0.016
-567.617	57.633	-0.164	-0.160
-566.602	33.831	0.105	-0.091
-565.588	-50.142	-0.137	0.065
-564.573	14.212	0.321	-0.250
-563.558	108.994	0.175	0.209
-562.544	-200.000	0.007	0.215
-561.529	800.000	0.039	0.117
-560.515	-10.309	-0.342	0.227
-559.500	-200.000	0.017	0.336
-558.485	771.993	-0.036	0.099
-557.471	273.543	-0.109	0.193
-556.456	42.207	0.438	0.398
-555.442	67.382	0.193	-0.197
-554.427	-200.000	-0.009	0.105
-553.412	-35.791	-0.142	0.077
-552.398	-83.185	-0.069	0.022
-551.383	15.430	-0.102	-0.080
-550.369	-198.038	0.200	-0.001
-549.354	-200.000	0.060	-0.264
-548.339	-200.000	-0.036	0.353
-547.325	116.810	-0.075	-0.092
-546.310	-45.332	-0.071	-0.035
-545.296	108.693	0.096	-0.115
-544.281	-200.000	0.000	0.296
-543.266	69.599	0.142	0.146
-542.252	426.834	0.113	-0.244
-541.237	176.102	0.192	-0.278
-540.223	230.083	-0.058	-0.094
-539.208	59.690	-0.066	-0.066
-538.193	538.542	0.077	-0.183
-537.179	-200.000	-0.046	-0.285
-536.164	-118.819	-0.142	-0.025
-535.150	81.304	0.175	-0.188
-534.135	-200.000	-0.009	-0.067
-533.121	540.575	0.063	0.151
-532.106	-200.000	0.021	0.143
-531.091	-200.000	0.059	-0.374
-530.077	-14.252	0.222	0.143
-529.062	-84.536	-0.107	-0.034
-528.048	146.610	0.165	-0.221
-527.033	209.050	0.120	0.187
-526.018	223.877	-0.159	0.256
-525.004	800.000	-0.073	0.217
-523.989	-21.471	-0.208	0.127
-522.975	24.704	-0.315	0.260
-521.960	-50.065	-0.138	0.065
-520.945	-85.090	0.271	0.085
-519.931	173.140	0.071	0.102
-518.916	158.287	-0.236	-0.327
-517.902	-34.471	-0.142	-0.078
-516.887	-0.480	-0.206	0.146
-515.872	319.689	-0.082	-0.156
-514.858	-85.056	0.226	0.071
-513.843	74.445	-0.166	-0.175
-512.829	-133.894	-0.226	0.028
-511.814	160.373	-0.102	0.141
-510.799	800.000	-0.049	-0.182
-509.785	800.000	-0.057	0.201
-508.770	-19.270	-0.219	0.136
-507.756	800.000	-0.117	-0.331
-506.741	-195.557	0.282	0.002
-505.726	-35.297	-0.438	-0.238
-504.712	-4.817	0.172	0.119
-503.697	-200.000	0.045	0.356
-502.683	-79.059	-0.206	0.070
-501.668	-172.457	-0.071	0.002
-500.653	202.883	-0.264	-0.408
-499.639	-89.217	0.186	0.055
-498.624	-53.291	-0.101	0.046
-497.610	800.000	-0.044	0.124
-496.595	-2.035	0.329	0.231
-495.581	-52.132	0.111	0.051
-494.566	-89.976	-0.279	-0.081
-493.551	-200.000	0.041	-0.233
-492.537	-86.066	-0.161	-0.049
-491.522	155.537	0.191	0.263
-490.508	-61.429	0.205	0.086
-489.493	-200.000	-0.007	0.239
-488.478	6.268	0.278	-0.206
-487.464	570.417	0.041	-0.099
-486.449	132.789	-0.315	-0.406
-485.435	291.694	0.092	0.167
-484.420	81.880	0.337	0.364
-483.405	264.446	-0.158	0.274
-482.391	429.890	-0.034	-0.074
-481.376	-50.220	0.318	-0.150
-480.362	-141.709	0.009	0.001
-479.347	-18.009	-0.208	0.130
-478.332	-103.017	-0.073	0.017
-477.318	800.000	-0.059	0.164
-476.303	-155.745	-0.273	-0.017
-475.289	3.291	0.261	0.189
-474.274	59.890	-0.211	-0.208
-473.259	-28.670	0.237	0.136
-472.245	107.736	0.235	-0.279
-471.230	800.000	0.041	-0.143
-470.216	-83.492	-0.191	-0.061
-469.201	-64.181	0.355	0.144
-468.186	490.764	-0.058	0.133
-467.172	-8.785	0.232	-0.155
-466.157	-111.689	0.193	-0.039
-465.143	-200.000	0.008	-0.336
-464.128	352.866	-0.060	-0.119
-463.113	764.097	-0.079	-0.213
-462.099	800.000	0.123	-0.452
-461.084	24.201	-0.204	0.168
-460.070	27.866	0.112	0.094
-459.055	-200.000	-0.009	-0.126
-458.040	-115.767	-0.268	-0.050
-457.026	30.676	0.221	0.188
-456.011	413.720	-0.141	0.299
-454.997	328.052	-0.065	0.124
-453.982	37.295	0.221	-0.195
-452.968	0.884	-0.241	-0.172
-451.953	800.000	0.104	-0.328
-450.938	4.392	0.189	0.138
-449.924	-30.815	0.132	0.074
-448.909	33.321	-0.395	-0.341
-447.895	-37.067	-0.195	0.104
-446.880	101.259	-0.198	-0.230
-445.865	272.393	0.160	0.282
-444.851	-75.774	0.292	-0.103
-443.836	-111.062	-0.295	-0.060
-442.822	-77.168	-0.324	-0.112
-441.807	21.282	-0.209	0.169
-440.792	-122.902	0.320	-0.051
-439.778	-200.000	0.009	-0.094
-438.763	43.494	0.068	0.062
-437.749	800.000	0.080	0.319
-436.734	701.715	-0.023	-0.060
-435.719	214.105	0.137	-0.216
-434.705	-72.744	0.093	-0.034
-433.690	-45.798	-0.033	0.016
-432.676	16.152	-0.455	0.357
-431.661	800.000	0.035	0.098
-430.646	120.665	0.115	0.143
-429.632	-102.585	-0.151	0.036
-428.617	-90.113	-0.369	0.107
-427.603	-47.960	-0.142	0.068
-426.588	19.800	0.017	-0.014
-425.573	-81.901	-0.182	0.059
-424.559	-57.211	0.144	0.063
-423.544	-121.341	-0.100	0.017
-422.530	-200.000	-0.045	0.210
-421.515	15.794	-0.421	0.329
-420.500	-55.177	0.263	0.118
-419.486	-94.037	0.035	-0.010
-418.471	-77.967	-0.032	-0.011
-417.457	8.310	0.108	0.080
-416.442	-58.270	0.129	-0.056
-415.428	141.699	-0.238	0.313
-414.413	44.778	-0.207	0.190
-413.398	-19.645	-0.257	-0.158
-412.384	-2.110	-0.170	0.119
-411.369	77.755	0.056	0.059
-410.355	-74.852	-0.165	-0.059
-409.340	56.643	-0.079	-0.077
-408.325	-101.018	0.279	0.068
-407.311	-151.678	-0.148	0.011
-406.296	800.000	0.025	0.077
-405.282	350.363	-0.120	0.235
-404.267	800.000	0.035	-0.122
-403.252	-45.534	-0.238	0.117
-402.238	-200.000	0.034	0.190
-401.223	216.315	-0.161	-0.255
-400.209	-16.665	0.186	-0.117
-399.194	-50.825	-0.268	0.125
-398.179	-85.676	-0.108	-0.033
-397.165	-119.109	-0.216	0.038
-396.150	-98.215	0.281	0.072
-395.136	-41.552	-0.169	-0.086
-394.121	-76.031	0.287	0.101
-393.106	-200.000	-0.042	-0.188
-392.092	-200.000	-0.038	-0.303
-391.077	60.979	-0.069	0.068
-390.063	34.790	0.119	-0.104
-389.048	136.512	0.205	0.265
-388.033	287.277	-0.133	0.239
-387.019	246.600	-0.015	0.024
-386.004	176.961	-0.106	-0.153
-384.990	7.901	0.333	-0.248
-383.975	800.000	-0.075	0.230
-382.960	56.748	-0.244	-0.236
-381.946	1.948	0.031	-0.022
-380.931	46.630	0.051	0.047
-379.917	-200.000	0.014	0.140
-378.902	800.000	-0.015	0.061
-377.888	3.343	-0.279	-0.202
-376.873	624.716	-0.172	-0.429
-375.858	-200.000	-0.007	-0.124
-374.844	778.612	0.109	-0.296
-373.829	-8.666	0.077	0.051
-372.815	48.973	0.223	0.208
-371.800	800.000	0.062	0.240
-370.785	-74.392	0.236	0.085
-369.771	101.340	0.094	-0.109
-368.756	800.000	-0.015	-0.047
-367.742	-154.834	-0.435	0.029
-366.727	-102.948	0.062	0.015
-365.712	246.837	0.132	-0.222
-364.698	-111.371	-0.187	-0.038
-363.683	22.439	0.276	-0.224
-362.669	-200.000	-0.017	-0.224
-361.654	-50.991	0.044	0.021
-360.639	104.297	-0.251	-0.293
-359.625	-182.302	0.387	0.007
-358.610	-66.297	0.228	-0.090
-357.596	141.365	0.227	-0.299
-356.581	170.319	-0.134	-0.190
-355.566	-130.153	-0.011	-0.001
-354.552	-142.246	0.337	0.033
-353.537	207.366	-0.202	0.313
-352.523	800.000	0.063	-0.272
-351.508	121.082	0.061	0.075
-350.493	-200.000	-0.011	-0.270
-349.479	-166.868	0.262	0.011
-348.464	800.000	-0.048	0.138
-347.450	800.000	-0.031	-0.106
-346.435	-200.000	-0.091	0.466
-345.420	127.660	-0.005	-0.006
-344.406	-120.540	0.248	0.042
-343.391	51.163	0.174	0.164
-342.377	-42.129	-0.144	-0.073
-341.362	-165.574	0.138	0.006
-340.348	264.223	0.030	-0.051
-339.333	-200.000	0.008	0.049
-338.318	-51.829	-0.210	0.097
-337.304	-2.560	-0.017	0.012
-336.289	-144.032	0.068	0.006
-335.275	-200.000	0.021	0.143
-334.260	800.000	0.055	0.173
-333.245	-200.000	-0.064	0.354
-332.231	33.570	0.385	-0.332
-331.216	-92.665	0.198	-0.055
-330.202	-181.056	0.158	-0.003
-329.187	47.597	-0.234	-0.216
-328.172	-39.300	0.052	0.027
-327.158	-25.470	0.106	-0.062
-326.143	800.000	-0.049	-0.168
-325.129	79.324	0.228	0.242
-324.114	-200.000	0.020	0.276
-323.099	-88.927	-0.118	-0.035
-322.085	-200.000	-0.021	-0.160
-321.070	-162.674	0.205	0.010
-320.056	-200.000	0.016	-0.155
-319.041	502.136	0.116	-0.265
-318.026	-85.630	0.142	0.044
-317.012	263.640	-0.170	0.292
-315.997	-37.814	-0.211	-0.111
-314.983	-200.000	0.010	-0.093
-313.968	-200.000	-0.017	0.296
-312.953	-41.028	-0.311	-0.159
-311.939	133.693	0.221	0.283
-310.924	-200.000	-0.038	0.202
-309.910	284.499	-0.150	0.268
-308.895	800.000	-0.061	0.168
-307.880	-76.889	0.288	0.100
-306.866	-200.000	0.005	-0.030
-305.851	330.413	0.060	0.113
-304.837	-120.345	0.205	-0.035
-303.822	-8.056	0.160	0.107
-302.807	-76.197	0.229	-0.080
-301.793	-200.000	0.024	0.186
-300.778	155.229	0.031	-0.042
-299.764	258.504	0.073	-0.124
-298.749	65.794	-0.191	-0.191
-297.735	57.259	0.090	-0.086
-296.720	-200.000	0.003	0.120
-295.705	-35.643	-0.130	0.070
-294.691	486.460	-0.031	0.070
-293.676	9.556	-0.082	0.062
-292.662	55.236	0.173	0.166
-291.647	-25.007	0.189	0.111
-290.632	800.000	-0.268	-0.822
-289.618	113.972	0.149	-0.180
-288.603	62.732	-0.283	-0.280
-287.589	-200.000	-0.007	-0.089
-286.574	800.000	-0.108	-0.421
-285.559	-173.623	0.120	0.004
-284.545	-147.958	-0.213	-0.018
-283.530	421.381	0.111	0.235
-282.516	209.104	0.083	-0.129
-281.501	315.769	0.083	0.154
-280.486	-200.000	0.046	-0.256
-279.472	-128.973	-0.147	-0.020
-278.457	-200.000	0.031	-0.137
-277.443	-68.890	0.176	-0.067
-276.428	710.575	0.095	-0.249
-275.413	170.751	0.121	0.171
-274.399	53.197	0.133	0.126
-273.384	12.691	-0.151	0.115
-272.370	-129.886	0.353	0.048
-271.355	95.966	0.126	0.143
-270.340	-200.000	0.005	0.346
-269.326	244.412	-0.099	0.165
-268.311	133.512	-0.090	0.115
-267.297	-157.948	0.504	-0.029
-266.282	-161.822	-0.254	-0.013
-265.267	158.156	-0.136	0.186
-264.253	263.421	-0.031	0.054
-263.238	148.208	-0.253	0.338
-262.224	460.280	-0.097	0.213
-261.209	-82.123	-0.423	-0.137
-260.195	-50.334	0.104	0.049
-259.180	86.665	0.058	0.063
-258.165	98.269	0.059	0.067
-257.151	-142.406	-0.093	0.009
-256.136	9.058	0.285	0.212
-255.122	254.057	0.110	0.186
-254.107	-67.570	-0.249	0.097
-253.092	43.666	-0.246	0.222
-252.078	-200.000	-0.014	-0.141
-251.063	323.006	0.170	0.320
-250.049	-27.838	-0.249	-0.142
-249.034	800.000	0.084	-0.267
-248.019	-188.602	-0.145	-0.002
-247.005	96.000	-0.152	0.171
-245.990	-76.641	0.356	-0.123
-244.976	-124.625	0.242	0.037
-243.961	206.902	0.258	0.397
-242.946	-107.632	-0.110	0.024
-241.932	58.229	-0.125	-0.121
-240.917	11.006	-0.324	-0.244
-239.903	245.350	0.057	-0.095
-238.888	175.551	-0.092	-0.131
-237.873	17.433	0.394	0.309
-236.859	-104.202	0.089	0.020
-235.844	-138.503	-0.116	-0.013
-234.830	30.503	0.111	-0.094
-233.815	-116.765	0.131	0.024
-232.800	800.000	0.039	-0.120
-231.786	10.243	0.145	-0.109
-230.771	-148.998	-0.116	0.009
-229.757	-14.416	-0.275	-0.175
-228.742	-19.732	-0.183	-0.112
-227.727	50.705	-0.269	0.252
-226.713	444.946	0.042	-0.090
-225.698	613.716	0.101	0.249
-224.684	-149.722	-0.178	0.014
-223.669	21.697	-0.100	0.080
-222.655	474.406	0.139	-0.309
-221.640	-200.000	-0.020	0.249
-220.625	-46.768	-0.176	-0.085
-219.611	-200.000	0.001	-0.120
-218.596	-200.000	-0.051	0.271
-217.582	-200.000	-0.021	0.229
-216.567	553.482	-0.005	-0.011
-215.552	-19.636	0.272	-0.166
-214.538	-64.535	-0.169	-0.068
-213.523	800.000	0.075	0.246
-212.509	144.528	-0.289	0.380
-211.494	-29.794	-0.404	0.227
-210.479	-44.148	0.331	0.164
-209.465	12.120	-0.081	-0.061
-208.450	337.838	0.141	0.271
-207.436	180.710	0.128	-0.185
-206.421	424.319	-0.074	0.158
-205.406	52.292	-0.162	-0.153
-204.392	-136.639	0.126	0.014
-203.377	-27.994	0.263	-0.150
-202.363	-39.032	-0.103	0.054
-201.348	38.024	0.329	-0.289
-200.333	800.000	-0.031	0.099
-199.319	-18.669	-0.134	-0.082
-198.304	-200.000	0.049	-0.340
-197.290	22.041	0.214	-0.172
-196.275	800.000	0.020	0.081
-195.260	-121.982	0.134	-0.022
-194.246	-19.917	0.209	-0.127
-193.231	47.371	-0.175	0.160
-192.217	502.252	0.039	-0.089
-191.202	43.633	0.261	-0.235
-190.187	-61.959	-0.265	-0.109
-189.173	800.000	-0.076	-0.292
-188.158	194.695	-0.087	0.130
-187.144	-54.180	-0.155	0.069
-186.129	-26.808	0.329	0.190
-185.114	-191.087	0.073	0.001
-184.100	-44.527	-0.172	0.085
-183.085	91.575	-0.034	0.037
-182.071	800.000	0.071	0.201
-181.056	800.000	-0.031	-0.113
-180.042	30.122	0.138	-0.116
-179.027	104.113	-0.288	-0.333
-178.012	-121.191	0.253	-0.042
-176.998	487.894	0.057	0.128
-175.983	800.000	0.101	0.390
-174.969	-159.969	0.306	-0.016
-173.954	110.808	-0.187	0.222
-172.939	800.000	0.071	0.238
-171.925	509.332	-0.088	-0.201
-170.910	-200.000	-0.019	-0.140
-169.896	-58.391	-0.055	0.024
-168.881	31.902	0.070	-0.059
-167.866	800.000	0.070	-0.285
-166.852	274.478	0.082	0.143
-165.837	299.177	-0.121	-0.220
-164.823	278.035	0.099	0.173
-163.808	24.667	-0.172	-0.141
-162.793	44.563	-0.054	-0.049
-161.779	579.949	-0.138	-0.332
-160.764	116.040	-0.191	-0.230
-159.750	14.606	0.167	-0.128
-158.735	-78.446	-0.141	0.048
-157.720	496.207	0.109	-0.248
-156.706	-200.000	-0.000	-0.248
-155.691	128.628	0.080	0.101
-154.677	108.931	-0.069	-0.081
-153.662	554.863	-0.055	-0.131
-152.647	-81.842	-0.259	0.083
-151.633	-200.000	-0.004	0.190
-150.618	-200.000	0.023	0.237
-149.604	-200.000	-0.065	-0.506
-148.589	156.973	-0.101	-0.137
-147.574	-154.395	-0.072	0.005
-146.560	568.822	0.081	-0.193
-145.545	-200.000	-0.038	0.255
-144.531	45.043	-0.265	-0.240
-143.516	675.271	0.079	0.203
-142.502	-147.626	-0.050	0.004
-141.487	229.924	-0.102	-0.164
-140.472	155.584	-0.044	0.060
-139.458	463.761	-0.105	-0.231
-138.443	-151.961	0.352	0.025
-137.429	-106.618	-0.044	-0.010
-136.414	-90.407	0.283	0.081
-135.399	-33.570	-0.071	0.039
-134.385	-81.145	0.267	0.087
-133.370	773.990	0.054	0.145
-132.356	-200.000	0.024	-0.117
-131.341	114.538	0.136	0.163
-130.326	539.982	-0.126	-0.294
-129.312	-154.398	0.070	-0.005
-128.297	-144.443	-0.046	-0.004
-127.283	23.413	-0.217	0.175
-126.268	16.257	-0.260	-0.202
-125.253	215.717	0.043	-0.067
-124.239	11.300	0.178	0.134
-123.224	-132.854	-0.179	0.022
-122.210	-23.203	0.151	0.090
-121.195	800.000	0.026	0.088
-120.180	800.000	-0.065	-0.210
-119.166	330.756	-0.010	0.018
