DTS Sentinel unit serial number:	SN413079Multiplexer serial number:	ORYXHardware model number:	OX4-SRSoftware version number:	ORYX F/W v4.00 Oryx Data Collector v3.7.2.0data status	okinstallation	princeton_trtdifferential loss correction	single-endedforward channel	channel 1reverse channel	N/Adate	2019/09/18time	00:54:35forward acquisition time	60.00reverse acquisition time	0.00gamma	496.2192k internal	0.2341k external	0.2341temperature offset calibration	0.9980default loss term (dB/km)	0.3790temperature slope calibration	1.0000multiplexer offset coefficient	1.0000multiplexer slope coefficient	1.0000fibre end	0.00T internal ref (°C)	23.33T ext. ref 1 (°C)	0.16T ext. ref 2 (°C)	17.03length (m)	temperature (°C)	Stokes	anti-Stokes-747.200	-200.000	-0.024	-0.191
-746.185	298.866	0.149	0.275
-745.171	-188.260	-0.197	0.003
-744.156	-25.335	-0.316	0.187
-743.142	22.701	0.200	-0.164
-742.127	-1.682	-0.275	0.194
-741.112	460.103	0.073	0.163
-740.098	104.117	0.047	0.055
-739.083	-200.000	-0.002	0.215
-738.069	43.280	-0.222	0.204
-737.054	800.000	0.010	0.034
-736.039	800.000	-0.056	0.180
-735.025	277.378	0.184	0.328
-734.010	5.666	-0.314	-0.233
-732.996	229.010	-0.222	-0.363
-731.981	-60.661	0.266	0.113
-730.966	800.000	-0.068	-0.216
-729.952	130.276	0.110	0.141
-728.937	-76.285	-0.225	0.079
-727.923	759.743	-0.079	-0.215
-726.908	98.200	-0.094	-0.109
-725.894	272.057	-0.206	-0.364
-724.879	-40.691	0.130	0.068
-723.864	-200.000	0.011	-0.198
-722.850	-78.589	-0.362	-0.124
-721.835	-200.000	-0.022	-0.235
-720.821	110.492	0.081	0.097
-719.806	114.546	0.186	0.227
-718.791	-200.000	0.046	-0.288
-717.777	247.220	-0.146	0.247
-716.762	-179.203	-0.106	0.002
-715.748	-60.047	0.091	0.039
-714.733	389.639	-0.180	-0.373
-713.718	283.838	0.162	0.291
-712.704	-166.549	0.249	0.010
-711.689	248.148	-0.185	0.313
-710.675	7.460	0.241	-0.181
-709.660	-155.021	0.237	-0.016
-708.645	-200.000	0.005	-0.024
-707.631	-142.264	0.119	0.012
-706.616	800.000	0.033	0.102
-705.602	110.194	0.205	-0.246
-704.587	217.380	0.125	-0.200
-703.572	412.144	0.011	-0.024
-702.558	-34.605	0.130	0.071
-701.543	143.617	-0.129	0.172
-700.529	-106.966	0.089	0.020
-699.514	-22.705	0.312	0.188
-698.499	710.416	0.089	0.235
-697.485	-200.000	-0.034	0.159
-696.470	12.381	-0.209	-0.161
-695.456	429.291	0.093	-0.201
-694.441	-21.848	0.115	0.070
-693.426	17.082	0.034	-0.027
-692.412	124.358	-0.104	-0.131
-691.397	-174.946	0.317	-0.009
-690.383	-62.912	0.115	0.047
-689.368	-147.055	-0.431	-0.037
-688.354	-200.000	0.036	0.233
-687.339	-155.883	0.081	-0.005
-686.324	-100.046	-0.065	0.016
-685.310	-200.000	-0.012	-0.357
-684.295	-49.097	0.149	0.071
-683.281	-83.811	0.177	0.056
-682.266	-63.412	0.231	-0.095
-681.251	-158.533	0.216	0.012
-680.237	-200.000	-0.031	0.167
-679.222	-142.769	-0.523	0.051
-678.208	-40.973	-0.113	-0.058
-677.193	513.634	-0.073	0.170
-676.178	719.505	-0.103	-0.274
-675.164	82.245	-0.162	0.176
-674.149	724.212	-0.085	-0.226
-673.135	-90.815	0.304	0.088
-672.120	-148.043	0.347	-0.029
-671.105	38.003	-0.234	-0.208
-670.091	-105.700	0.292	0.066
-669.076	-200.000	-0.026	0.163
-668.062	-73.379	-0.429	-0.157
-667.047	89.338	0.103	-0.115
-666.032	800.000	-0.022	0.085
-665.018	-78.713	-0.083	0.028
-664.003	-145.538	0.232	-0.021
-662.989	46.936	-0.043	-0.040
-661.974	-200.000	0.017	-0.216
-660.959	78.381	0.260	0.278
-659.945	-55.972	-0.405	0.180
-658.930	-27.915	-0.279	-0.161
-657.916	1.755	-0.196	-0.141
-656.901	45.661	-0.131	0.121
-655.886	-200.000	-0.001	0.160
-654.872	-81.598	0.135	0.044
-653.857	800.000	-0.073	0.212
-652.843	93.076	0.241	-0.272
-651.828	-63.259	0.198	-0.081
-650.814	-16.060	-0.260	0.165
-649.799	536.758	0.073	-0.173
-648.784	-151.160	0.084	0.006
-647.770	78.657	0.221	0.236
-646.755	257.372	0.142	-0.244
-645.741	-158.188	-0.112	-0.007
-644.726	-200.000	-0.018	-0.261
-643.711	76.507	-0.151	0.160
-642.697	65.197	0.219	0.221
-641.682	800.000	0.081	0.263
-640.668	-140.680	-0.348	0.036
-639.653	-200.000	-0.079	-0.413
-638.638	-200.000	-0.030	0.178
-637.624	-200.000	-0.025	0.158
-636.609	254.329	-0.051	0.087
-635.595	5.331	0.051	-0.038
-634.580	143.898	-0.071	0.095
-633.565	65.840	-0.171	-0.173
-632.551	-200.000	0.044	0.253
-631.536	179.868	-0.213	0.311
-630.522	617.542	-0.030	-0.076
-629.507	-137.137	-0.204	-0.023
-628.492	142.784	-0.294	-0.390
-627.478	-200.000	-0.030	-0.162
-626.463	-2.011	0.384	-0.269
-625.449	-194.799	0.189	0.001
-624.434	800.000	-0.014	-0.059
-623.419	800.000	0.123	-0.434
-622.405	800.000	-0.021	0.076
-621.390	-123.099	-0.442	-0.071
-620.376	-25.412	-0.154	0.091
-619.361	484.959	-0.088	0.199
-618.346	-24.105	-0.336	-0.200
-617.332	-101.043	0.262	0.064
-616.317	30.927	-0.221	0.189
-615.303	-200.000	-0.055	-0.371
-614.288	-7.294	0.143	-0.097
-613.273	-80.406	-0.261	-0.087
-612.259	-200.000	-0.012	0.072
-611.244	-26.605	-0.035	0.020
-610.230	-180.068	-0.212	0.004
-609.215	-16.033	-0.237	-0.150
-608.201	-23.425	0.146	-0.087
-607.186	-36.014	0.286	-0.154
-606.171	59.121	0.254	0.250
-605.157	-139.738	-0.280	-0.030
-604.142	188.338	0.108	-0.160
-603.128	202.703	-0.128	-0.198
-602.113	-200.000	-0.047	0.219
-601.098	-125.480	-0.327	0.050
-600.084	68.445	0.194	-0.198
-599.069	152.993	-0.223	0.303
-598.055	-104.518	-0.082	-0.019
-597.040	-200.000	-0.000	-0.114
-596.025	-200.000	-0.000	-0.019
-595.011	-91.500	-0.124	-0.035
-593.996	151.651	-0.106	-0.145
-592.982	-200.000	-0.016	0.128
-591.967	-200.000	-0.012	-0.154
-590.952	-200.000	0.018	-0.156
-589.938	300.241	-0.117	-0.214
-588.923	800.000	-0.020	0.062
-587.909	500.899	0.078	0.179
-586.894	-95.296	-0.078	-0.021
-585.879	-108.649	-0.292	0.063
-584.865	-200.000	0.025	-0.194
-583.850	-113.942	0.233	-0.045
-582.836	-184.144	0.062	0.001
-581.821	20.645	-0.173	-0.139
-580.806	-141.570	-0.210	-0.021
-579.792	-150.256	-0.131	0.010
-578.777	-120.808	-0.328	-0.055
-577.763	182.124	-0.194	-0.285
-576.748	-122.446	0.300	-0.049
-575.733	-129.004	0.516	0.072
-574.719	-67.138	0.136	0.053
-573.704	-64.792	0.116	-0.047
-572.690	645.515	-0.068	0.172
-571.675	259.613	-0.144	0.248
-570.661	82.920	0.133	-0.144
-569.646	-112.200	-0.322	0.064
-568.631	800.000	-0.054	0.202
-567.617	-57.260	0.121	-0.053
-566.602	-15.732	-0.126	0.080
-565.588	-44.105	0.083	0.041
-564.573	193.472	0.059	-0.089
-563.558	-154.754	-0.288	0.019
-562.544	-111.910	-0.317	0.064
-561.529	457.768	-0.193	-0.427
-560.515	-99.379	-0.223	-0.056
-559.500	-200.000	0.081	-0.376
-558.485	26.267	0.222	0.184
-557.471	175.455	-0.135	0.194
-556.456	341.656	0.112	-0.217
-555.442	179.514	0.030	0.044
-554.427	-119.784	0.303	0.052
-553.412	-200.000	-0.036	0.322
-552.398	22.685	0.091	-0.074
-551.383	-5.407	0.382	-0.261
-550.369	-143.337	-0.473	0.045
-549.354	314.760	-0.078	-0.145
-548.339	360.002	0.052	-0.103
-547.325	-124.385	0.388	-0.060
-546.310	-127.355	-0.218	-0.032
-545.296	-130.098	0.175	-0.024
-544.281	-78.122	0.214	-0.073
-543.266	323.970	-0.241	0.457
-542.252	-129.470	0.308	-0.042
-541.237	-139.589	0.098	-0.010
-540.223	148.611	-0.205	-0.276
-539.208	756.845	0.142	0.381
-538.193	-83.305	-0.021	0.007
-537.179	44.106	0.187	0.171
-536.164	115.799	-0.255	-0.310
-535.150	-133.290	0.122	0.015
-534.135	800.000	0.115	-0.488
-533.121	294.138	-0.091	0.165
-532.106	800.000	0.141	-0.475
-531.091	-135.187	-0.206	-0.025
-530.077	184.493	-0.099	0.145
-529.062	-171.164	0.287	-0.010
-528.048	-17.838	-0.349	-0.217
-527.033	-200.000	0.011	0.205
-526.018	499.441	-0.056	0.129
-525.004	-17.962	0.054	-0.034
-523.989	-80.182	0.312	-0.104
-522.975	398.174	0.110	-0.229
-521.960	800.000	0.010	-0.029
-520.945	-38.889	0.182	0.095
-519.931	472.348	-0.059	0.132
-518.916	292.907	-0.087	-0.157
-517.902	800.000	-0.062	-0.250
-516.887	209.962	-0.082	0.127
-515.872	-131.481	-0.187	0.024
-514.858	-80.895	0.359	0.118
-513.843	-79.967	-0.209	0.070
-512.829	412.485	-0.045	0.095
-511.814	439.777	0.083	0.179
-510.799	-138.504	-0.345	-0.038
-509.785	-104.987	-0.258	-0.059
-508.770	800.000	0.060	-0.226
-507.756	-46.258	-0.090	0.044
-506.741	-30.864	-0.131	-0.074
-505.726	-154.376	-0.058	-0.004
-504.712	-136.573	-0.338	-0.039
-503.697	-83.040	0.073	-0.023
-502.683	-27.261	-0.246	0.142
-501.668	-41.972	-0.131	0.067
-500.653	-17.655	0.207	-0.129
-499.639	800.000	0.092	0.340
-498.624	93.301	0.095	0.106
-497.610	264.093	0.117	0.202
-496.595	120.422	0.119	0.147
-495.581	570.864	-0.067	-0.163
-494.566	-150.243	-0.217	0.017
-493.551	800.000	-0.074	-0.212
-492.537	-28.356	-0.180	0.103
-491.522	4.641	-0.158	-0.115
-490.508	800.000	0.039	-0.143
-489.493	32.108	0.267	0.228
-488.478	-77.559	0.051	-0.018
-487.464	159.446	0.030	0.041
-486.449	-85.214	0.271	-0.084
-485.435	-83.120	-0.310	0.099
-484.420	-27.359	0.131	0.076
-483.405	-61.470	0.172	-0.072
-482.391	19.229	-0.155	-0.123
-481.376	-94.712	0.216	0.058
-480.362	49.032	0.281	0.262
-479.347	-48.871	-0.049	0.023
-478.332	-32.205	-0.222	-0.123
-477.318	-87.336	-0.230	0.069
-476.303	-200.000	0.011	-0.053
-475.289	274.211	0.069	0.121
-474.274	-113.739	-0.250	0.048
-473.259	336.575	0.033	-0.063
-472.245	-200.000	-0.011	0.181
-471.230	800.000	-0.050	-0.166
-470.216	150.108	-0.029	0.039
-469.201	-140.247	0.487	0.051
-468.186	-64.709	0.148	-0.060
-467.172	800.000	-0.042	0.144
-466.157	-200.000	-0.013	-0.175
-465.143	-109.282	0.307	0.065
-464.128	-29.503	0.317	0.179
-463.113	-200.000	0.019	-0.138
-462.099	-134.034	0.164	-0.020
-461.084	40.202	-0.347	-0.309
-460.070	-200.000	-0.017	-0.158
-459.055	12.127	-0.267	0.204
-458.040	-130.105	-0.339	-0.046
-457.026	800.000	0.088	-0.367
-456.011	-200.000	0.027	0.282
-454.997	-189.409	-0.078	-0.001
-453.982	-83.515	-0.323	-0.103
-452.968	534.518	0.095	0.224
-451.953	112.846	-0.167	0.201
-450.938	443.190	0.114	0.247
-449.924	158.992	0.181	0.250
-448.909	800.000	-0.057	0.243
-447.895	-175.125	0.082	0.002
-446.880	166.094	-0.222	-0.312
-445.865	148.502	-0.108	-0.144
-444.851	-125.853	0.147	-0.022
-443.836	-77.732	-0.329	-0.113
-442.822	-158.410	-0.029	-0.002
-441.807	-141.808	0.136	-0.013
-440.792	-162.333	0.051	0.003
-439.778	-6.775	-0.047	0.032
-438.763	800.000	-0.062	0.201
-437.749	24.983	0.138	0.113
-436.734	-131.924	0.042	0.005
-435.719	654.479	0.039	-0.099
-434.705	283.550	-0.213	-0.380
-433.690	-155.861	-0.233	0.015
-432.676	800.000	-0.075	-0.233
-431.661	334.934	0.079	-0.151
-430.646	685.058	-0.119	0.309
-429.632	-20.066	-0.074	0.045
-428.617	-200.000	-0.013	0.194
-427.603	154.268	0.111	-0.150
-426.588	-59.548	0.197	-0.084
-425.573	-108.614	0.121	0.026
-424.559	-200.000	0.058	-0.265
-423.544	724.251	0.056	0.147
-422.530	-200.000	-0.041	0.260
-421.515	36.796	0.335	-0.293
-420.500	-29.279	-0.283	0.161
-419.486	135.914	0.015	0.019
-418.471	-125.893	-0.146	0.022
-417.457	-15.058	0.180	0.114
-416.442	-58.866	-0.131	0.056
-415.428	14.164	-0.215	0.165
-414.413	-200.000	0.022	0.119
-413.398	-68.367	-0.216	-0.083
-412.384	-200.000	-0.003	-0.255
-411.369	-27.320	-0.204	-0.117
-410.355	-25.355	0.129	0.075
-409.340	-133.382	0.198	-0.025
-408.325	454.873	-0.061	0.133
-407.311	-29.664	0.049	0.028
-406.296	-78.974	-0.122	0.041
-405.282	80.981	-0.015	0.016
-404.267	-12.670	-0.168	0.108
-403.252	-169.453	0.352	-0.013
-402.238	-200.000	-0.008	0.054
-401.223	-69.414	0.326	-0.124
-400.209	110.944	0.115	0.137
-399.194	-49.726	0.203	-0.096
-398.179	-200.000	-0.035	0.159
-397.165	-177.866	0.450	-0.011
-396.150	-152.967	-0.174	0.012
-395.136	124.047	-0.141	-0.175
-394.121	-124.167	-0.337	-0.052
-393.106	22.204	-0.114	-0.092
-392.092	-171.734	0.397	0.013
-391.077	172.265	0.245	0.348
-390.063	-27.876	-0.095	-0.055
-389.048	-199.742	0.292	-0.001
-388.033	-125.551	0.206	-0.031
-387.019	-8.643	-0.327	0.217
-386.004	-40.874	0.134	0.068
-384.990	800.000	-0.047	0.186
-383.975	-200.000	0.053	0.340
-382.960	-200.000	0.004	-0.035
-381.946	-135.058	0.101	-0.012
-380.931	217.829	-0.120	0.188
-379.917	800.000	0.090	-0.281
-378.902	466.861	0.156	0.345
-377.888	20.884	0.243	-0.194
-376.873	656.948	0.032	-0.080
-375.858	-106.745	0.370	0.081
-374.844	-111.895	-0.118	-0.024
-373.829	-200.000	0.008	-0.219
-372.815	-62.937	-0.065	-0.027
-371.800	-200.000	-0.050	0.217
-370.785	-64.908	0.092	-0.037
-369.771	-93.059	0.280	0.077
-368.756	65.527	-0.189	0.189
-367.742	800.000	-0.025	-0.099
-366.727	245.999	0.111	-0.184
-365.712	-174.351	-0.275	0.008
-364.698	-35.555	-0.308	-0.165
-363.683	14.776	0.231	-0.179
-362.669	-200.000	0.035	-0.320
-361.654	-200.000	0.024	0.154
-360.639	-108.087	0.176	0.038
-359.625	2.067	0.034	0.024
-358.610	-200.000	0.004	0.270
-357.596	-174.922	-0.182	0.005
-356.581	16.526	-0.065	0.051
-355.566	-73.064	0.343	-0.124
-354.552	579.443	-0.119	-0.287
-353.537	-200.000	0.064	0.334
-352.523	-57.635	-0.193	0.083
-351.508	144.055	0.098	-0.130
-350.493	800.000	-0.078	0.267
-349.479	127.229	0.159	0.199
-348.464	-200.000	0.011	-0.122
-347.450	-129.412	0.195	-0.027
-346.435	125.959	0.160	-0.199
-345.420	-200.000	0.006	-0.355
-344.406	-101.205	-0.237	0.057
-343.391	800.000	-0.014	-0.052
-342.377	800.000	-0.086	-0.334
-341.362	767.030	-0.045	0.121
-340.348	-143.018	-0.111	0.011
-339.333	-56.934	-0.048	0.021
-338.318	124.596	-0.182	0.226
-337.304	368.724	0.072	-0.143
-336.289	-200.000	-0.005	0.095
-335.275	-51.127	-0.474	0.219
-334.260	-28.585	0.074	-0.042
-333.245	-69.917	-0.048	0.018
-332.231	-70.425	-0.298	-0.111
-331.216	-123.690	0.238	-0.037
-330.202	162.016	0.174	0.241
-329.187	800.000	-0.042	-0.175
-328.172	-139.509	-0.310	-0.033
-327.158	800.000	-0.049	0.148
-326.143	-65.189	-0.172	0.068
-325.129	348.617	-0.106	-0.206
-324.114	691.275	0.052	-0.134
-323.099	665.572	0.006	0.014
-322.085	-97.043	0.147	-0.038
-321.070	-69.930	0.212	-0.080
-320.056	419.144	0.023	0.048
-319.041	-151.072	0.232	-0.017
-318.026	177.528	0.089	0.128
-317.012	47.640	0.346	0.318
-315.997	80.798	-0.228	0.243
-314.983	345.687	-0.088	0.171
-313.968	-83.419	-0.429	-0.135
-312.953	-200.000	0.100	0.443
-311.939	315.362	0.017	0.031
-310.924	-0.020	0.080	0.056
-309.910	800.000	-0.029	-0.099
-308.895	800.000	0.029	-0.110
-307.880	174.072	-0.142	-0.202
-306.866	-64.672	-0.266	-0.106
-305.851	127.623	0.253	0.316
-304.837	-58.451	-0.249	-0.106
-303.822	800.000	0.006	-0.020
-302.807	-120.241	0.272	-0.046
-301.793	-183.608	0.367	-0.006
-300.778	133.268	0.202	-0.257
-299.764	-200.000	-0.043	0.371
-298.749	-135.137	0.262	0.031
-297.735	0.464	-0.154	0.109
-296.720	800.000	-0.071	0.272
-295.705	-68.165	-0.130	-0.050
-294.691	-65.333	-0.049	0.019
-293.676	35.406	-0.138	-0.119
-292.662	-200.000	0.066	0.338
-291.647	-200.000	-0.019	0.151
-290.632	-16.597	-0.075	-0.047
-289.618	455.552	0.134	-0.293
-288.603	111.289	0.173	0.205
-287.589	375.547	0.157	0.316
-286.574	436.180	-0.154	0.330
-285.559	52.782	-0.188	-0.177
-284.545	-9.191	-0.251	0.165
-283.530	-21.381	0.154	0.093
-282.516	557.015	0.104	0.246
-281.501	108.713	-0.091	0.107
-280.486	-200.000	0.030	0.287
-279.472	-28.872	0.031	-0.017
-278.457	306.292	0.039	-0.072
-277.443	-200.000	-0.012	0.109
-276.428	-45.307	-0.202	-0.099
-275.413	-34.227	0.274	-0.148
-274.399	-140.503	0.175	0.018
-273.384	800.000	0.063	0.180
-272.370	250.868	0.106	0.178
-271.355	-200.000	-0.012	-0.259
-270.340	-29.346	0.362	-0.204
-269.326	800.000	0.076	-0.293
-268.311	-97.638	0.126	-0.032
-267.297	-200.000	0.036	-0.213
-266.282	800.000	-0.080	0.227
-265.267	-200.000	-0.057	0.441
-264.253	800.000	-0.033	0.110
-263.238	693.268	-0.057	-0.148
-262.224	-106.785	-0.166	0.036
-261.209	181.705	0.047	-0.068
-260.195	405.413	0.129	0.268
-259.180	34.897	-0.117	-0.100
-258.165	800.000	0.060	0.241
-257.151	-147.093	0.343	0.029
-256.136	556.949	-0.170	-0.403
-255.122	57.999	0.102	0.098
-254.107	617.999	0.052	-0.129
-253.092	-126.543	-0.079	-0.012
-252.078	424.513	0.088	0.186
-251.063	-170.157	0.221	-0.008
-250.049	-152.243	-0.217	-0.015
-249.034	90.371	-0.205	0.225
-248.019	-106.565	0.038	-0.008
-247.005	-16.386	0.266	-0.166
-245.990	-200.000	0.031	0.258
-244.976	-200.000	0.028	0.320
-243.961	-200.000	-0.006	-0.231
-242.946	26.940	-0.156	-0.129
-241.932	7.054	0.195	0.143
-240.917	-15.433	-0.098	-0.062
-239.903	218.037	-0.166	-0.261
-238.888	-167.145	0.126	-0.005
-237.873	246.005	0.030	-0.050
-236.859	-118.170	0.202	-0.035
-235.844	-116.552	-0.335	-0.061
-234.830	-200.000	0.004	-0.450
-233.815	-69.575	0.367	-0.138
-232.800	27.609	0.182	0.151
-231.786	49.299	0.189	-0.175
-230.771	-121.733	0.131	-0.021
-229.757	-178.767	0.271	0.006
-228.742	800.000	-0.035	-0.132
-227.727	542.935	0.054	-0.127
-226.713	400.505	0.165	0.340
-225.698	-56.131	0.270	0.118
-224.684	-62.283	-0.277	-0.113
-223.669	32.544	0.037	0.031
-222.655	-30.070	0.291	-0.163
-221.640	-159.597	-0.202	-0.011
-220.625	-119.209	-0.205	0.035
-219.611	-155.433	0.402	0.026
-218.596	-172.125	-0.140	-0.004
-217.582	-112.719	-0.094	0.018
-216.567	-31.323	0.277	0.153
-215.552	160.731	-0.232	-0.319
-214.538	268.911	0.141	0.242
-213.523	-200.000	0.050	-0.325
-212.509	800.000	0.158	-0.553
-211.494	-120.131	-0.220	0.037
-210.479	-200.000	0.125	0.000
-209.465	163.093	0.106	0.146
-208.450	517.623	-0.129	0.296
-207.436	-200.000	-0.019	-0.231
-206.421	475.602	-0.082	-0.181
-205.406	800.000	0.049	0.172
-204.392	-42.326	-0.182	-0.091
-203.377	92.320	0.319	0.352
-202.363	208.433	0.098	0.151
-201.348	29.016	0.205	0.171
-200.333	-103.469	-0.100	0.023
-199.319	800.000	0.045	0.184
-198.304	-83.327	0.089	0.028
-197.290	144.862	0.264	-0.347
-196.275	761.296	0.062	0.164
-195.260	800.000	-0.024	-0.071
-194.246	181.842	0.205	-0.296
-193.231	58.978	-0.166	-0.161
-192.217	85.212	0.271	-0.292
-191.202	-11.952	-0.104	0.067
-190.187	45.447	-0.192	0.173
-189.173	385.584	-0.137	0.277
-188.158	-72.826	-0.088	-0.032
-187.144	-200.000	-0.034	-0.386
-186.129	512.251	-0.099	-0.226
-185.114	121.803	-0.131	-0.161
-184.100	441.971	-0.175	-0.376
-183.085	77.253	-0.168	0.175
-182.071	77.969	-0.146	0.153
-181.056	176.404	-0.091	-0.130
-180.042	-126.327	-0.386	-0.057
-179.027	-45.184	0.133	-0.065
-178.012	-200.000	0.002	0.142
-176.998	-69.347	-0.222	0.084
-175.983	-161.785	0.131	-0.007
-174.969	-21.397	0.200	0.119
-173.954	235.528	-0.043	0.070
-172.939	96.159	-0.139	0.156
-171.925	-200.000	0.028	0.263
-170.910	-107.256	0.129	-0.028
-169.896	-42.947	-0.202	0.101
-168.881	-142.476	0.140	-0.014
-167.866	-200.000	0.013	-0.194
-166.852	439.629	-0.048	0.103
-165.837	800.000	-0.068	-0.236
-164.823	75.391	-0.085	-0.088
-163.808	103.614	-0.142	0.163
-162.793	-41.478	0.353	0.178
-161.779	-29.360	0.147	0.083
-160.764	800.000	0.030	-0.093
-159.750	-58.742	-0.243	0.103
-158.735	-200.000	-0.001	0.132
-157.720	800.000	-0.052	0.198
-156.706	-200.000	0.047	-0.213
-155.691	800.000	-0.121	-0.379
-154.677	800.000	0.008	0.027
-153.662	-34.233	0.261	0.140
-152.647	-200.000	-0.002	-0.065
-151.633	-123.131	0.114	-0.018
-150.618	15.532	-0.239	-0.184
-149.604	127.859	-0.139	-0.172
-148.589	-50.720	0.163	-0.075
-147.574	-65.062	0.136	-0.054
-146.560	498.442	-0.182	0.411
-145.545	0.763	-0.108	0.076
-144.531	800.000	-0.063	-0.250
-143.516	140.337	0.156	0.202
-142.502	-200.000	-0.005	0.042
-141.487	435.428	0.188	-0.400
-140.472	-163.141	-0.198	0.009
-139.458	64.402	-0.237	0.233
-138.443	268.822	-0.038	0.064
-137.429	172.855	-0.077	0.109
-136.414	-200.000	-0.004	0.029
-135.399	51.269	-0.117	0.109
-134.385	-149.214	0.070	0.005
-133.370	-10.455	-0.134	0.087
-132.356	670.070	0.119	-0.302
-131.341	800.000	-0.073	0.232
-130.326	-113.622	0.491	0.094
-129.312	-200.000	0.055	-0.364
-128.297	684.816	0.026	-0.067
-127.283	38.973	-0.127	0.111
-126.268	91.706	0.142	-0.156
-125.253	496.983	0.072	-0.162
-124.239	-109.678	0.569	0.117
-123.224	118.078	0.126	0.152
-122.210	-200.000	0.033	0.286
