DTS Sentinel unit serial number:	SN413079Multiplexer serial number:	ORYXHardware model number:	OX4-SRSoftware version number:	ORYX F/W v4.00 Oryx Data Collector v3.7.2.0data status	okinstallation	princeton_trtdifferential loss correction	single-endedforward channel	channel 1reverse channel	N/Adate	2019/09/18time	12:58:35forward acquisition time	60.00reverse acquisition time	0.00gamma	496.2192k internal	0.2315k external	0.2315temperature offset calibration	0.9978default loss term (dB/km)	0.3790temperature slope calibration	1.0000multiplexer offset coefficient	1.0000multiplexer slope coefficient	1.0000fibre end	0.00T internal ref (°C)	33.31T ext. ref 1 (°C)	0.56T ext. ref 2 (°C)	30.76length (m)	temperature (°C)	Stokes	anti-Stokes-747.200	-132.260	-0.157	0.021
-746.185	-200.000	-0.001	0.256
-745.171	-11.422	0.481	0.321
-744.156	-28.310	0.193	0.113
-743.142	130.868	0.058	0.075
-742.127	223.527	-0.138	0.226
-741.112	-73.156	-0.161	0.060
-740.098	-200.000	-0.001	0.384
-739.083	-98.795	-0.143	0.037
-738.069	-200.000	0.054	0.327
-737.054	800.000	0.109	-0.315
-736.039	378.665	0.065	-0.134
-735.025	-86.033	0.375	0.117
-734.010	118.723	-0.229	-0.286
-732.996	-65.565	-0.225	-0.091
-731.981	-83.955	-0.216	-0.070
-730.966	169.006	0.132	0.190
-729.952	14.288	0.076	-0.060
-728.937	-200.000	-0.097	-0.706
-727.923	12.499	-0.148	-0.116
-726.908	498.689	-0.092	0.214
-725.894	-8.960	-0.163	-0.110
-724.879	330.676	-0.044	0.086
-723.864	-69.859	-0.191	-0.074
-722.850	118.561	-0.269	-0.336
-721.835	2.061	0.098	-0.071
-720.821	24.955	0.151	0.126
-719.806	544.271	-0.078	0.188
-718.791	800.000	0.025	-0.093
-717.777	369.859	-0.138	-0.284
-716.762	125.604	0.291	0.372
-715.748	-200.000	-0.017	0.124
-714.733	27.877	0.093	0.079
-713.718	-8.079	-0.205	-0.140
-712.704	-30.087	-0.198	0.114
-711.689	254.282	-0.107	0.186
-710.675	-200.000	0.046	-0.325
-709.660	-200.000	0.064	-0.384
-708.645	18.174	-0.157	0.127
-707.631	114.842	-0.083	0.103
-706.616	105.256	0.136	-0.162
-705.602	-114.561	-0.383	0.074
-704.587	800.000	0.036	-0.158
-703.572	-200.000	-0.031	0.268
-702.558	618.954	-0.117	0.299
-701.543	-71.390	0.115	0.044
-700.529	-6.151	-0.190	-0.131
-699.514	-82.542	0.157	-0.051
-698.499	93.512	0.274	0.313
-697.485	800.000	-0.017	0.057
-696.470	-66.083	-0.076	-0.031
-695.456	-139.899	0.231	-0.025
-694.441	1.198	0.091	0.066
-693.426	77.478	-0.205	-0.221
-692.412	113.511	0.055	0.067
-691.397	-140.677	-0.210	-0.022
-690.383	-104.099	0.149	0.035
-689.368	401.749	-0.106	-0.226
-688.354	211.014	0.271	-0.430
-687.339	-175.238	0.173	0.005
-686.324	-111.433	-0.221	0.045
-685.310	-108.647	0.245	-0.053
-684.295	510.341	-0.105	0.247
-683.281	-65.364	-0.059	0.024
-682.266	-167.304	-0.320	-0.013
-681.251	218.072	0.172	0.277
-680.237	-94.809	-0.043	-0.012
-679.222	-27.458	-0.275	0.162
-678.208	21.819	0.113	0.093
-677.193	-118.790	-0.343	0.061
-676.178	-97.287	0.204	0.054
-675.164	66.651	-0.128	-0.132
-674.149	-200.000	0.010	-0.064
-673.135	369.324	0.250	-0.510
-672.120	-103.096	-0.197	0.047
-671.105	126.709	0.069	0.088
-670.091	-67.423	-0.174	0.069
-669.076	26.239	0.109	-0.092
-668.062	57.101	-0.232	-0.229
-667.047	32.250	-0.359	0.313
-666.032	388.219	0.208	0.435
-665.018	58.618	0.146	0.145
-664.003	246.718	0.179	0.306
-662.989	-200.000	0.025	0.187
-661.974	789.447	0.076	-0.210
-660.959	-200.000	0.043	-0.271
-659.945	-73.222	0.043	0.016
-658.930	-105.516	-0.076	-0.017
-657.916	-103.979	-0.340	-0.080
-656.901	-149.247	0.301	0.024
-655.886	-200.000	0.025	0.296
-654.872	-81.247	-0.363	0.121
-653.857	2.324	-0.090	-0.066
-652.843	-34.084	-0.362	0.201
-651.828	-200.000	0.067	0.312
-650.814	122.842	-0.172	0.217
-649.799	-175.148	-0.161	0.004
-648.784	356.237	-0.061	0.123
-647.770	102.888	-0.287	-0.339
-646.755	800.000	-0.043	-0.160
-645.741	-1.015	0.180	-0.128
-644.726	8.575	0.121	-0.092
-643.711	0.867	-0.081	0.059
-642.697	-112.257	-0.380	0.077
-641.682	-200.000	0.023	0.279
-640.668	-200.000	0.046	-0.252
-639.653	84.960	-0.308	-0.340
-638.638	-98.313	0.128	0.033
-637.624	94.327	-0.189	0.216
-636.609	800.000	-0.017	0.066
-635.595	44.786	0.201	-0.187
-634.580	-45.183	-0.126	0.063
-633.565	225.667	-0.071	-0.116
-632.551	-59.428	0.264	0.114
-631.536	552.998	-0.153	0.372
-630.522	59.069	-0.177	-0.176
-629.507	-52.055	0.258	-0.121
-628.492	285.075	0.088	-0.160
-627.478	4.176	0.060	-0.045
-626.463	-81.045	-0.170	0.057
-625.449	-200.000	0.001	0.093
-624.434	-74.642	-0.238	0.086
-623.419	3.925	0.212	-0.156
-622.405	-71.454	-0.147	-0.056
-621.390	770.550	0.122	-0.335
-620.376	3.429	0.072	0.053
-619.361	-74.458	-0.315	0.115
-618.346	-133.458	-0.135	0.017
-617.332	-144.796	0.197	-0.018
-616.317	117.799	0.035	-0.043
-615.303	-117.832	-0.168	0.030
-614.288	-97.551	-0.483	-0.126
-613.273	-73.805	-0.288	0.105
-612.259	-200.000	0.017	-0.113
-611.244	301.298	-0.071	0.132
-610.230	-200.000	-0.004	0.203
-609.215	-200.000	0.030	-0.269
-608.201	-7.324	-0.242	0.165
-607.186	431.318	0.057	-0.124
-606.171	645.636	-0.030	0.076
-605.157	83.230	0.267	-0.293
-604.142	-200.000	-0.010	0.198
-603.128	-91.204	0.540	0.156
-602.113	80.095	0.233	-0.253
-601.098	60.857	-0.164	0.164
-600.084	-21.303	-0.207	0.127
-599.069	-50.991	0.251	-0.119
-598.055	323.892	-0.082	0.158
-597.040	95.644	-0.213	-0.245
-596.025	359.428	0.141	-0.284
-595.011	344.140	0.029	0.057
-593.996	-11.193	-0.132	-0.087
-592.982	800.000	0.021	-0.086
-591.967	322.438	-0.157	-0.302
-590.952	-200.000	-0.052	-0.473
-589.938	-200.000	-0.054	0.328
-588.923	492.078	-0.142	-0.327
-587.909	-100.145	-0.285	-0.072
-586.894	-70.991	-0.121	-0.046
-585.879	114.865	-0.026	-0.032
-584.865	-200.000	0.019	0.245
-583.850	-190.840	0.467	0.005
-582.836	-200.000	-0.010	-0.131
-581.821	-72.088	0.251	0.094
-580.806	-87.321	0.527	0.161
-579.792	484.988	0.050	-0.115
-578.777	202.178	-0.100	0.156
-577.763	89.803	-0.272	-0.306
-576.748	122.983	-0.144	0.181
-575.733	-3.161	-0.141	-0.099
-574.719	449.300	0.038	0.085
-573.704	-102.867	0.355	0.085
-572.690	-50.371	0.107	0.051
-571.675	60.134	-0.028	-0.028
-570.661	-113.233	0.027	0.005
-569.646	800.000	0.018	-0.052
-568.631	-84.736	-0.361	-0.114
-567.617	-54.244	0.086	0.039
-566.602	-62.909	-0.107	0.044
-565.588	67.109	-0.046	0.047
-564.573	-144.580	0.293	0.027
-563.558	-102.182	-0.380	-0.092
-562.544	-151.688	-0.246	-0.018
-561.529	53.994	0.172	0.166
-560.515	-80.750	-0.324	-0.108
-559.500	32.772	-0.341	-0.296
-558.485	-200.000	-0.000	0.143
-557.471	800.000	0.092	-0.367
-556.456	-162.279	0.325	-0.016
-555.442	-21.564	0.167	-0.102
-554.427	-151.193	0.267	0.020
-553.412	-200.000	0.050	-0.288
-552.398	-111.637	-0.305	-0.062
-551.383	358.066	0.073	-0.147
-550.369	-138.070	0.338	0.038
-549.354	-200.000	-0.054	-0.250
-548.339	800.000	0.185	0.728
-547.325	47.250	0.214	-0.200
-546.310	-121.202	0.492	0.083
-545.296	181.931	0.168	-0.249
-544.281	-106.393	-0.085	-0.019
-543.266	-32.235	-0.329	-0.185
-542.252	38.351	-0.280	-0.251
-541.237	307.106	0.111	-0.208
-540.223	244.723	-0.167	0.282
-539.208	14.621	-0.177	-0.139
-538.193	25.422	-0.161	0.134
-537.179	-52.448	-0.303	-0.141
-536.164	28.340	0.095	-0.080
-535.150	-200.000	-0.001	-0.029
-534.135	289.695	-0.166	0.303
-533.121	-91.841	-0.334	0.095
-532.106	20.275	-0.243	0.197
-531.091	405.717	0.228	0.483
-530.077	35.438	-0.286	0.252
-529.062	219.409	-0.196	0.316
-528.048	130.375	0.137	0.177
-527.033	-107.291	0.192	-0.042
-526.018	-73.161	-0.144	-0.053
-525.004	40.671	0.080	-0.072
-523.989	-200.000	0.119	0.546
-522.975	-200.000	0.003	0.290
-521.960	49.566	-0.095	0.090
-520.945	-96.737	0.028	-0.008
-519.931	-200.000	-0.013	-0.196
-518.916	212.408	0.169	0.268
-517.902	0.097	-0.422	0.302
-516.887	-59.560	-0.272	-0.117
-515.872	-200.000	-0.007	0.155
-514.858	-122.694	0.103	-0.017
-513.843	22.479	0.333	-0.274
-512.829	-68.297	0.322	-0.126
-511.814	-131.438	-0.148	0.020
-510.799	56.596	-0.096	-0.094
-509.785	800.000	0.139	-0.489
-508.770	-172.630	0.011	0.000
-507.756	-200.000	-0.001	0.006
-506.741	53.500	-0.012	-0.011
-505.726	556.927	-0.023	-0.055
-504.712	-37.586	0.145	0.077
-503.697	800.000	-0.078	-0.296
-502.683	-84.901	0.359	0.113
-501.668	-43.417	0.172	-0.087
-500.653	462.687	0.131	-0.293
-499.639	52.597	-0.273	-0.262
-498.624	205.314	-0.184	-0.287
-497.610	-200.000	-0.007	-0.177
-496.595	-200.000	0.028	-0.214
-495.581	535.055	-0.108	0.257
-494.566	83.917	0.140	0.153
-493.551	351.641	-0.076	0.152
-492.537	800.000	0.054	-0.161
-491.522	309.678	-0.192	0.360
-490.508	800.000	0.056	-0.184
-489.493	-118.225	0.338	-0.060
-488.478	-200.000	0.046	-0.246
-487.464	800.000	0.053	0.169
-486.449	-136.123	0.359	0.042
-485.435	30.114	0.082	-0.070
-484.420	-146.292	-0.149	0.013
-483.405	-82.729	-0.264	0.086
-482.391	118.382	-0.270	-0.334
-481.376	71.576	-0.078	-0.081
-480.362	-127.737	0.266	-0.039
-479.347	110.426	0.153	-0.184
-478.332	-37.174	0.046	0.024
-477.318	150.186	-0.224	-0.304
-476.303	360.185	0.123	-0.247
-475.289	-200.000	-0.061	-0.409
-474.274	-126.329	0.106	-0.016
-473.259	-46.453	-0.345	-0.170
-472.245	-51.106	-0.106	0.050
-471.230	-14.059	-0.088	-0.057
-470.216	87.750	-0.328	0.364
-469.201	35.986	-0.179	0.158
-468.186	400.957	-0.091	0.191
-467.172	390.114	-0.036	-0.074
-466.157	-81.521	0.290	-0.095
-465.143	800.000	0.062	-0.225
-464.128	251.173	0.048	-0.082
-463.113	-77.938	-0.506	0.175
-462.099	-200.000	-0.013	0.373
-461.084	-49.572	0.115	-0.055
-460.070	-120.618	0.189	0.032
-459.055	800.000	0.096	0.311
-458.040	7.495	0.136	-0.102
-457.026	-119.867	0.236	-0.041
-456.011	800.000	0.074	-0.298
-454.997	-43.941	0.050	0.025
-453.982	1.833	-0.259	-0.187
-452.968	-20.268	0.126	0.077
-451.953	86.616	-0.317	0.350
-450.938	76.358	-0.275	0.292
-449.924	-101.916	0.394	-0.095
-448.909	74.015	0.126	0.133
-447.895	-77.823	-0.201	-0.070
-446.880	-139.004	0.326	0.035
-445.865	304.940	0.087	-0.162
-444.851	-143.171	0.036	0.003
-443.836	-35.179	0.017	0.009
-442.822	-62.235	-0.093	0.039
-441.807	-23.004	0.089	-0.054
-440.792	16.646	0.175	-0.138
-439.778	44.406	-0.076	0.070
-438.763	-123.244	0.310	0.050
-437.749	-135.562	0.154	0.018
-436.734	-77.841	0.211	0.073
-435.719	-200.000	0.001	0.013
-434.705	800.000	0.131	0.442
-433.690	-63.338	-0.106	-0.044
-432.676	800.000	0.057	-0.234
-431.661	-200.000	-0.006	-0.155
-430.646	-81.470	-0.318	0.105
-429.632	-62.296	-0.122	-0.051
-428.617	-116.031	0.203	-0.038
-427.603	-71.506	-0.051	-0.019
-426.588	32.972	-0.105	-0.091
-425.573	-65.169	-0.148	0.060
-424.559	-200.000	0.030	-0.150
-423.544	-43.689	0.333	0.168
-422.530	-72.705	0.297	0.110
-421.515	382.428	-0.145	0.299
-420.500	-101.222	-0.123	-0.030
-419.486	-200.000	0.027	0.230
-418.471	-200.000	0.018	-0.183
-417.457	-200.000	0.035	0.174
-416.442	-200.000	0.058	0.311
-415.428	195.461	0.135	0.205
-414.413	161.419	-0.041	-0.057
-413.398	59.440	-0.249	-0.246
-412.384	38.764	-0.212	0.189
-411.369	-141.259	0.097	0.010
-410.355	137.610	0.151	-0.198
-409.340	-36.210	-0.285	0.154
-408.325	-38.566	-0.310	0.164
-407.311	-71.238	-0.143	0.054
-406.296	6.341	-0.138	-0.103
-405.282	-141.487	0.305	0.031
-404.267	-194.996	0.160	0.001
-403.252	-99.122	0.404	0.102
-402.238	-120.106	-0.074	0.013
-401.223	-146.620	0.273	0.024
-400.209	-43.686	-0.162	0.082
-399.194	242.970	-0.134	0.224
-398.179	-29.515	-0.247	-0.141
-397.165	177.935	-0.088	0.128
-396.150	47.599	-0.210	0.196
-395.136	-200.000	0.003	0.152
-394.121	251.991	-0.203	0.345
-393.106	-134.302	-0.289	-0.035
-392.092	-138.143	-0.085	0.009
-391.077	-158.657	-0.234	0.013
-390.063	-200.000	0.037	-0.392
-389.048	-12.662	-0.200	0.130
-388.033	307.124	0.169	0.315
-387.019	-17.840	0.293	-0.183
-386.004	313.136	0.014	0.027
-384.990	-27.754	0.219	0.127
-383.975	219.486	0.082	0.131
-382.960	-23.231	0.049	0.029
-381.946	6.177	0.136	0.101
-380.931	317.521	0.192	-0.364
-379.917	-200.000	-0.010	-0.248
-378.902	256.057	0.043	-0.073
-377.888	-60.726	0.141	0.060
-376.873	-110.179	0.148	-0.031
-375.858	-200.000	0.026	-0.187
-374.844	-151.218	-0.200	-0.015
-373.829	-64.338	-0.077	-0.031
-372.815	-23.040	-0.217	0.131
-371.800	223.547	-0.044	-0.072
-370.785	73.284	-0.180	-0.188
-369.771	284.028	-0.082	-0.148
-368.756	59.410	-0.139	0.137
-367.742	-29.844	-0.108	-0.061
-366.727	-56.272	-0.268	0.119
-365.712	97.493	0.043	0.049
-364.698	86.456	-0.088	0.097
-363.683	800.000	-0.096	-0.338
-362.669	-200.000	0.022	0.364
-361.654	800.000	-0.048	-0.170
-360.639	517.173	-0.026	0.062
-359.625	-200.000	-0.030	0.482
-358.610	241.220	-0.168	0.280
-357.596	-63.703	0.180	0.074
-356.581	-105.381	0.121	0.028
-355.566	800.000	-0.093	0.324
-354.552	-200.000	-0.009	-0.180
-353.537	454.606	-0.110	-0.244
-352.523	-43.695	0.095	-0.048
-351.508	11.308	-0.234	-0.179
-350.493	30.218	-0.241	0.206
-349.479	234.578	0.062	0.102
-348.464	-104.822	0.127	-0.029
-347.450	76.166	0.212	-0.224
-346.435	-155.686	0.217	0.014
-345.420	-9.030	0.512	-0.342
-344.406	-27.759	0.287	0.166
-343.391	110.544	0.139	-0.166
-342.377	164.783	0.116	-0.163
-341.362	-29.093	0.107	-0.061
-340.348	170.230	-0.302	0.431
-339.333	-18.464	-0.236	-0.147
-338.318	-60.344	-0.171	0.072
-337.304	-200.000	0.041	-0.252
-336.289	-200.000	0.022	0.250
-335.275	200.212	-0.065	0.099
-334.260	-106.697	0.223	-0.049
-333.245	48.074	-0.150	0.140
-332.231	-13.459	0.281	-0.182
-331.216	-132.844	-0.198	-0.025
-330.202	198.333	-0.051	0.078
-329.187	-51.166	0.449	-0.210
-328.172	259.517	-0.240	-0.412
-327.158	188.907	0.110	0.164
-326.143	-20.945	0.277	0.169
-325.129	-119.940	-0.171	-0.029
-324.114	-200.000	-0.008	-0.367
-323.099	-136.079	0.322	-0.038
-322.085	533.808	-0.107	-0.253
-321.070	26.936	0.180	0.151
-320.056	14.090	-0.135	-0.105
-319.041	-86.119	0.116	0.036
-318.026	-75.015	0.200	0.071
-317.012	103.252	-0.114	0.133
-315.997	-129.909	0.118	0.016
-314.983	-125.940	-0.167	-0.025
-313.968	-200.000	0.014	0.088
-312.953	151.866	0.121	0.165
-311.939	-200.000	0.032	0.248
-310.924	-200.000	0.063	-0.311
-309.910	800.000	0.052	0.219
-308.895	800.000	-0.044	-0.182
-307.880	-13.999	0.244	0.157
-306.866	153.738	0.111	-0.151
-305.851	-38.777	0.133	0.070
-304.837	-115.243	-0.062	-0.012
-303.822	-200.000	-0.019	0.160
-302.807	146.739	0.140	-0.187
-301.793	17.873	0.192	-0.152
-300.778	-178.253	-0.313	0.007
-299.764	-31.114	0.077	-0.043
-298.749	-141.844	0.104	-0.010
-297.735	-92.072	0.277	-0.078
-296.720	-200.000	-0.069	-0.307
-295.705	73.975	-0.197	-0.206
-294.691	535.751	-0.125	-0.294
-293.676	-200.000	-0.040	-0.325
-292.662	-18.609	-0.064	0.040
-291.647	-29.444	0.070	0.040
-290.632	-200.000	0.011	0.054
-289.618	-31.620	0.205	-0.115
-288.603	-62.696	0.306	0.126
-287.589	800.000	0.087	-0.281
-286.574	199.915	-0.128	-0.195
-285.559	-101.197	0.105	0.026
-284.545	598.416	0.152	-0.375
-283.530	-124.355	0.200	0.031
-282.516	-200.000	-0.078	0.400
-281.501	84.941	-0.118	0.129
-280.486	425.493	0.060	0.128
-279.472	-200.000	0.022	0.153
-278.457	800.000	0.079	0.272
-277.443	-81.916	-0.228	0.074
-276.428	-138.987	0.211	0.023
-275.413	-2.368	-0.324	-0.226
-274.399	-200.000	0.034	-0.187
-273.384	-200.000	0.014	0.427
-272.370	183.413	-0.075	-0.111
-271.355	-52.824	0.132	-0.061
-270.340	207.885	-0.161	0.249
-269.326	268.032	-0.038	0.066
-268.311	-37.721	-0.064	-0.034
-267.297	14.151	-0.182	0.141
-266.282	-138.937	-0.010	0.001
-265.267	22.986	0.118	-0.096
-264.253	-200.000	0.027	-0.188
-263.238	470.436	0.128	0.286
-262.224	-68.243	-0.065	0.025
-261.209	190.953	-0.171	-0.256
-260.195	-130.760	0.406	0.054
-259.180	-97.447	0.160	-0.041
-258.165	145.156	-0.067	0.089
-257.151	32.899	0.124	-0.106
-256.136	-131.418	-0.276	0.036
-255.122	-90.127	-0.337	-0.098
-254.107	-135.106	-0.149	-0.018
-253.092	231.429	-0.174	0.283
-252.078	212.442	-0.251	-0.393
-251.063	-120.889	0.336	-0.056
-250.049	-200.000	-0.009	-0.152
-249.034	-200.000	-0.009	-0.172
-248.019	-200.000	-0.005	-0.089
-247.005	149.368	-0.107	0.145
-245.990	105.523	0.341	0.401
-244.976	147.190	0.137	0.184
-243.961	-200.000	0.005	0.217
-242.946	-94.674	0.216	0.058
-241.932	-124.404	-0.398	-0.062
-240.917	332.130	-0.066	0.127
-239.903	-200.000	-0.005	-0.125
-238.888	107.255	-0.305	-0.360
-237.873	-200.000	0.038	0.190
-236.859	203.384	-0.144	-0.222
-235.844	-200.000	-0.014	0.149
-234.830	800.000	0.066	-0.226
-233.815	-200.000	-0.046	-0.302
-232.800	-171.902	0.328	-0.011
-231.786	-89.851	-0.065	-0.019
-230.771	345.005	-0.153	0.298
-229.757	-200.000	0.029	0.185
-228.742	-200.000	0.013	-0.258
-227.727	-200.000	0.052	0.257
-226.713	573.965	-0.092	0.223
-225.698	381.589	0.080	-0.162
-224.684	347.449	0.044	-0.087
-223.669	1.444	0.234	-0.167
-222.655	-147.072	-0.218	0.018
-221.640	-42.845	0.094	0.048
-220.625	-134.545	-0.114	0.014
-219.611	-200.000	0.007	0.093
-218.596	-93.931	-0.193	-0.053
-217.582	-200.000	-0.010	0.052
-216.567	-200.000	0.032	-0.138
-215.552	-56.807	0.128	-0.056
-214.538	172.538	-0.221	0.316
-213.523	87.458	-0.185	0.203
-212.509	112.719	-0.150	-0.180
-211.494	-174.173	0.302	-0.009
-210.479	-3.294	-0.097	0.067
-209.465	-36.031	0.163	-0.087
-208.450	418.251	0.190	-0.403
-207.436	800.000	0.022	0.085
-206.421	-200.000	0.007	0.061
-205.406	800.000	0.061	-0.181
-204.392	69.930	0.256	-0.262
-203.377	738.539	0.092	-0.244
-202.363	-47.562	-0.140	-0.067
-201.348	42.158	-0.096	0.086
-200.333	71.117	0.199	0.205
-199.319	593.209	0.203	0.498
-198.304	625.446	-0.050	0.124
-197.290	41.398	0.261	-0.234
-196.275	-167.416	0.237	0.009
-195.260	13.948	-0.181	0.139
-194.246	159.398	-0.083	-0.114
-193.231	133.922	-0.172	-0.221
-192.217	-200.000	-0.000	0.257
-191.202	-95.755	-0.077	-0.020
-190.187	-25.753	-0.153	0.089
-189.173	-11.087	0.225	-0.147
-188.158	-21.450	0.112	-0.068
-187.144	-20.985	0.033	-0.020
-186.129	354.121	0.059	-0.117
-185.114	-200.000	-0.015	0.080
-184.100	-200.000	-0.010	-0.226
-183.085	-136.902	-0.124	0.014
-182.071	1.890	-0.398	-0.285
-181.056	-64.348	-0.060	-0.024
-180.042	-44.414	0.376	0.186
-179.027	-200.000	-0.011	0.176
-178.012	256.358	0.200	0.340
-176.998	-80.950	-0.139	-0.046
-175.983	800.000	0.076	0.216
-174.969	32.151	-0.083	-0.071
-173.954	186.797	0.123	0.181
-172.939	-95.314	0.253	-0.068
-171.925	800.000	-0.029	0.108
-170.910	-96.104	0.138	-0.036
-169.896	60.649	-0.487	0.478
-168.881	222.232	-0.183	0.291
-167.866	-97.640	-0.326	0.084
-166.852	3.524	0.113	0.082
-165.837	66.862	-0.105	-0.106
-164.823	-200.000	-0.009	-0.096
-163.808	348.469	0.046	-0.089
-162.793	800.000	-0.072	0.237
-161.779	432.064	0.116	0.248
-160.764	238.913	0.194	0.320
-159.750	-84.856	0.197	-0.061
-158.735	-148.329	-0.209	-0.017
-157.720	-42.462	-0.111	0.056
-156.706	376.905	0.149	0.301
-155.691	449.396	-0.163	0.357
-154.677	236.461	0.078	0.127
-153.662	-39.916	0.302	0.156
-152.647	181.149	0.080	-0.117
-151.633	-3.351	0.079	0.054
-150.618	-200.000	-0.009	-0.152
-149.604	315.108	0.165	-0.309
-148.589	-64.736	0.138	-0.056
-147.574	-148.968	-0.185	-0.015
-146.560	-69.645	0.164	0.062
-145.545	-137.942	-0.178	0.020
-144.531	-78.440	-0.165	-0.056
-143.516	-135.238	-0.278	0.033
-142.502	234.062	-0.219	0.357
-141.487	-93.574	-0.216	0.059
-140.472	437.031	-0.071	0.152
-139.458	31.448	0.171	-0.146
-138.443	190.913	0.141	0.210
-137.429	-200.000	0.005	0.062
-136.414	-80.692	0.250	-0.082
-135.399	222.632	-0.113	-0.181
-134.385	800.000	-0.082	-0.229
-133.370	-123.529	-0.242	0.038
-132.356	22.576	0.245	0.199
-131.341	-200.000	0.140	0.000
-130.326	-65.486	0.197	0.078
-129.312	800.000	0.078	0.219
-128.297	800.000	-0.025	0.088
-127.283	57.628	0.152	-0.147
-126.268	-3.361	-0.112	0.077
-125.253	319.445	-0.120	0.226
-124.239	800.000	-0.048	-0.155
-123.224	-15.860	-0.189	0.119
-122.210	-122.582	0.319	0.051
-121.195	800.000	0.069	-0.290
-120.180	800.000	0.066	0.206
