DTS Sentinel unit serial number:	SN413079Multiplexer serial number:	ORYXHardware model number:	OX4-SRSoftware version number:	ORYX F/W v4.00 Oryx Data Collector v3.7.2.0data status	okinstallation	princeton_trtdifferential loss correction	single-endedforward channel	channel 1reverse channel	N/Adate	2019/09/18time	21:14:35forward acquisition time	60.00reverse acquisition time	0.00gamma	496.2192k internal	0.2341k external	0.2341temperature offset calibration	1.0023default loss term (dB/km)	0.3790temperature slope calibration	1.0000multiplexer offset coefficient	1.0000multiplexer slope coefficient	1.0000fibre end	0.00T internal ref (°C)	25.89T ext. ref 1 (°C)	0.84T ext. ref 2 (°C)	18.16length (m)	temperature (°C)	Stokes	anti-Stokes-747.200	-152.439	0.293	-0.021
-746.185	-200.000	-0.003	0.089
-745.171	551.603	-0.077	0.186
-744.156	-200.000	0.004	0.102
-743.142	96.054	-0.043	-0.050
-742.127	66.596	-0.357	0.364
-741.112	97.556	0.097	-0.112
-740.098	98.489	0.061	-0.070
-739.083	-145.586	-0.013	0.001
-738.069	30.688	-0.261	0.224
-737.054	-123.841	0.101	-0.016
-736.039	-22.343	-0.275	0.167
-735.025	288.651	0.169	0.306
-734.010	-200.000	-0.006	-0.284
-732.996	-42.241	-0.391	-0.200
-731.981	-200.000	-0.053	-0.249
-730.966	433.208	-0.109	-0.237
-729.952	91.620	0.125	0.141
-728.937	4.090	-0.208	-0.152
-727.923	631.702	-0.124	0.315
-726.908	-59.328	-0.108	-0.047
-725.894	-28.860	-0.385	-0.222
-724.879	-200.000	-0.027	-0.172
-723.864	-168.694	-0.406	0.015
-722.850	53.037	0.281	-0.269
-721.835	800.000	-0.056	-0.188
-720.821	-200.000	0.024	-0.149
-719.806	11.197	0.090	-0.069
-718.791	687.678	0.112	-0.294
-717.777	-200.000	-0.024	0.106
-716.762	-7.125	-0.223	0.152
-715.748	-21.654	-0.121	-0.074
-714.733	-188.093	-0.336	0.004
-713.718	234.076	0.103	-0.170
-712.704	235.438	-0.050	-0.083
-711.689	321.301	0.089	-0.170
-710.675	-79.339	0.268	-0.091
-709.660	-70.168	0.097	0.037
-708.645	136.278	0.094	-0.122
-707.631	-68.659	0.092	-0.036
-706.616	208.247	-0.099	0.155
-705.602	-136.328	-0.241	0.028
-704.587	800.000	0.077	-0.232
-703.572	554.601	-0.013	-0.031
-702.558	-200.000	0.006	0.062
-701.543	-200.000	-0.049	-0.317
-700.529	-71.381	-0.271	-0.102
-699.514	36.778	-0.242	-0.214
-698.499	-129.400	0.216	0.030
-697.485	-83.205	-0.212	-0.068
-696.470	5.655	-0.212	-0.156
-695.456	-91.094	0.084	-0.024
-694.441	800.000	0.115	-0.394
-693.426	-200.000	0.012	0.120
-692.412	-73.340	-0.442	-0.161
-691.397	800.000	-0.068	0.245
-690.383	-200.000	-0.010	0.049
-689.368	-181.393	-0.199	-0.004
-688.354	-96.140	-0.141	-0.038
-687.339	307.308	0.024	0.044
-686.324	-200.000	0.036	-0.342
-685.310	-35.708	-0.106	-0.058
-684.295	-101.511	0.037	-0.009
-683.281	53.430	-0.249	-0.238
-682.266	27.060	-0.350	-0.293
-681.251	-87.829	0.153	0.046
-680.237	-200.000	-0.007	-0.127
-679.222	-9.161	0.113	-0.076
-678.208	-82.365	-0.092	0.030
-677.193	-200.000	0.020	-0.235
-676.178	103.825	-0.277	-0.325
-675.164	-195.760	0.253	-0.002
-674.149	182.921	-0.107	-0.158
-673.135	-200.000	-0.044	0.251
-672.120	-99.872	-0.387	0.097
-671.105	-4.346	-0.123	0.085
-670.091	-1.662	-0.188	0.133
-669.076	-95.790	-0.122	0.033
-668.062	-104.365	-0.251	0.058
-667.047	-200.000	0.019	-0.387
-666.032	373.195	-0.042	0.086
-665.018	-200.000	-0.032	0.280
-664.003	800.000	-0.060	0.169
-662.989	135.075	-0.161	0.209
-661.974	149.132	0.231	0.312
-660.959	171.991	-0.166	0.238
-659.945	-21.396	-0.289	-0.176
-658.930	92.007	0.252	-0.283
-657.916	-75.735	-0.062	-0.022
-656.901	-102.218	-0.302	0.072
-655.886	98.024	-0.111	-0.127
-654.872	145.047	-0.239	0.320
-653.857	-102.311	-0.289	0.069
-652.843	5.329	-0.312	-0.230
-651.828	-123.666	0.120	-0.019
-650.814	-29.840	0.284	-0.162
-649.799	297.636	-0.075	0.138
-648.784	-200.000	0.024	-0.212
-647.770	106.987	-0.052	0.062
-646.755	252.989	0.174	0.296
-645.741	54.999	0.148	-0.143
-644.726	-79.456	0.158	0.053
-643.711	-33.541	-0.342	-0.189
-642.697	-200.000	0.004	-0.138
-641.682	-6.599	-0.064	-0.043
-640.668	800.000	-0.116	-0.380
-639.653	-6.486	-0.326	-0.222
-638.638	-40.002	-0.141	-0.074
-637.624	203.795	0.120	-0.186
-636.609	800.000	-0.008	0.027
-635.595	-200.000	-0.005	-0.211
-634.580	800.000	-0.039	-0.118
-633.565	186.861	0.099	0.148
-632.551	800.000	0.028	-0.120
-631.536	-200.000	-0.033	-0.192
-630.522	59.455	0.156	-0.154
-629.507	635.797	0.028	-0.071
-628.492	-200.000	-0.050	-0.302
-627.478	47.098	-0.140	-0.130
-626.463	98.779	0.057	-0.065
-625.449	-200.000	-0.016	0.147
-624.434	17.351	-0.242	0.192
-623.419	-61.548	-0.193	-0.081
-622.405	13.085	-0.124	-0.096
-621.390	64.931	0.153	-0.155
-620.376	-200.000	0.006	0.204
-619.361	83.098	-0.050	0.054
-618.346	-69.031	0.320	-0.123
-617.332	319.578	-0.225	0.426
-616.317	-146.807	-0.129	0.011
-615.303	-26.620	-0.130	-0.076
-614.288	-126.524	0.130	0.019
-613.273	-27.575	-0.169	0.098
-612.259	800.000	0.052	0.159
-611.244	-200.000	-0.005	0.218
-610.230	-77.096	-0.382	-0.133
-609.215	-139.212	-0.149	-0.016
-608.201	-200.000	-0.051	-0.225
-607.186	-69.851	-0.100	-0.038
-606.171	122.438	-0.166	0.206
-605.157	-36.245	-0.233	0.125
-604.142	617.104	-0.202	-0.505
-603.128	800.000	0.017	0.060
-602.113	-7.150	0.268	-0.181
-601.098	-29.275	0.278	-0.159
-600.084	438.135	0.142	0.309
-599.069	45.867	-0.183	0.169
-598.055	613.183	-0.030	-0.074
-597.040	-200.000	0.006	-0.236
-596.025	77.875	0.130	-0.139
-595.011	71.567	0.082	-0.085
-593.996	177.363	-0.042	-0.061
-592.982	387.242	0.182	-0.375
-591.967	-58.973	0.423	0.182
-590.952	-81.533	0.170	-0.056
-589.938	-182.567	0.348	0.006
-588.923	489.907	-0.195	-0.444
-587.909	25.046	0.143	0.118
-586.894	800.000	-0.027	0.091
-585.879	-66.326	-0.192	-0.076
-584.865	-78.111	-0.081	-0.028
-583.850	-200.000	0.049	0.279
-582.836	-30.478	0.269	0.152
-581.821	-40.988	-0.246	0.127
-580.806	2.047	0.320	-0.230
-579.792	-200.000	-0.037	-0.252
-578.777	275.806	-0.049	-0.087
-577.763	170.190	0.074	-0.106
-576.748	636.741	-0.017	-0.043
-575.733	-92.741	-0.570	0.159
-574.719	101.307	-0.224	-0.260
-573.704	-200.000	-0.009	-0.092
-572.690	143.569	0.063	-0.084
-571.675	-102.181	0.615	0.147
-570.661	128.295	0.141	0.178
-569.646	800.000	-0.048	-0.162
-568.631	-96.653	0.305	-0.080
-567.617	132.719	-0.075	0.096
-566.602	44.787	-0.040	0.036
-565.588	53.345	-0.089	0.085
-564.573	-200.000	-0.006	0.055
-563.558	800.000	-0.062	0.194
-562.544	-200.000	0.014	0.094
-561.529	187.978	0.202	0.301
-560.515	167.615	-0.197	0.279
-559.500	-200.000	0.012	0.207
-558.485	84.372	0.169	0.184
-557.471	113.258	0.061	0.074
-556.456	-200.000	0.012	-0.143
-555.442	-25.239	0.132	-0.078
-554.427	-54.012	0.100	0.045
-553.412	-180.112	-0.196	0.004
-552.398	208.587	0.203	-0.316
-551.383	-200.000	-0.045	0.208
-550.369	64.018	-0.176	-0.176
-549.354	-63.478	0.294	-0.120
-548.339	-200.000	0.028	0.132
-547.325	-200.000	0.034	0.180
-546.310	-23.897	-0.159	-0.094
-545.296	371.508	0.122	-0.246
-544.281	800.000	-0.049	-0.141
-543.266	70.802	-0.230	-0.237
-542.252	-200.000	0.012	0.184
-541.237	328.571	0.188	-0.359
-540.223	-103.914	0.091	-0.021
-539.208	-145.519	0.480	0.043
-538.193	-32.564	-0.347	0.192
-537.179	800.000	0.063	-0.173
-536.164	-37.429	-0.322	-0.171
-535.150	-200.000	-0.008	-0.051
-534.135	-200.000	0.002	-0.018
-533.121	48.248	-0.088	0.082
-532.106	403.722	0.082	0.171
-531.091	319.405	0.159	-0.300
-530.077	800.000	-0.024	-0.099
-529.062	-200.000	0.008	-0.048
-528.048	-19.300	-0.246	0.152
-527.033	-47.033	0.091	0.044
-526.018	-132.780	0.220	-0.028
-525.004	-34.497	0.339	-0.185
-523.989	-104.839	-0.226	0.052
-522.975	800.000	-0.012	-0.051
-521.960	-155.905	-0.183	-0.012
-520.945	-149.934	0.305	-0.024
-519.931	-65.354	-0.108	-0.043
-518.916	450.187	-0.237	-0.519
-517.902	320.557	0.112	0.211
-516.887	-149.870	-0.083	0.006
-515.872	207.356	0.090	-0.140
-514.858	-70.050	-0.140	0.053
-513.843	17.958	-0.493	0.390
-512.829	-41.210	-0.349	0.179
-511.814	-3.404	0.194	0.134
-510.799	150.538	0.073	-0.098
-509.785	800.000	0.086	-0.274
-508.770	33.831	0.189	0.163
-507.756	199.641	0.148	0.225
-506.741	129.758	-0.100	0.127
-505.726	401.454	0.141	-0.294
-504.712	-116.317	-0.408	-0.075
-503.697	-11.701	-0.193	-0.126
-502.683	104.398	-0.168	-0.196
-501.668	-131.716	-0.079	-0.010
-500.653	-90.193	-0.105	-0.030
-499.639	-147.687	-0.435	0.036
-498.624	409.999	0.021	0.043
-497.610	-200.000	0.024	0.452
-496.595	-200.000	-0.010	-0.226
-495.581	-111.254	0.365	0.074
-494.566	-133.684	0.311	0.039
-493.551	351.034	-0.094	-0.186
-492.537	-200.000	0.015	0.169
-491.522	321.150	0.170	0.322
-490.508	-27.928	-0.212	0.122
-489.493	532.491	0.062	-0.146
-488.478	-52.442	-0.159	0.073
-487.464	-157.637	-0.208	-0.012
-486.449	-44.157	-0.063	-0.032
-485.435	800.000	-0.063	0.178
-484.420	-161.171	-0.294	-0.015
-483.405	152.555	-0.091	0.124
-482.391	475.650	0.163	-0.366
-481.376	-200.000	0.016	-0.105
-480.362	-200.000	-0.014	0.231
-479.347	38.064	-0.059	-0.052
-478.332	-200.000	0.009	0.052
-477.318	333.184	-0.185	-0.354
-476.303	552.686	-0.071	-0.170
-475.289	-60.605	0.077	-0.032
-474.274	-103.898	-0.233	0.054
-473.259	-200.000	0.006	0.253
-472.245	-199.220	0.345	-0.002
-471.230	-200.000	0.012	0.110
-470.216	793.875	-0.083	-0.225
-469.201	-167.189	-0.225	0.009
-468.186	-87.309	-0.317	-0.095
-467.172	93.207	0.196	-0.220
-466.157	-200.000	-0.002	0.302
-465.143	39.598	0.184	-0.163
-464.128	137.714	-0.209	-0.272
-463.113	31.557	0.123	0.105
-462.099	-67.866	-0.190	0.073
-461.084	299.830	0.052	0.096
-460.070	-152.849	0.364	-0.026
-459.055	-25.577	-0.192	-0.112
-458.040	-131.899	-0.231	0.030
-457.026	-43.989	-0.101	-0.050
-456.011	-97.417	0.327	-0.084
-454.997	-18.206	-0.208	-0.129
-453.982	226.771	-0.102	-0.163
-452.968	-60.998	0.177	0.074
-451.953	-186.635	-0.135	0.002
-450.938	-56.286	-0.088	-0.039
-449.924	800.000	-0.064	-0.188
-448.909	-200.000	0.003	-0.170
-447.895	55.323	0.028	0.027
-446.880	-200.000	0.003	0.327
-445.865	17.419	-0.167	-0.132
-444.851	-132.514	0.418	-0.053
-443.836	-147.237	0.133	-0.011
-442.822	-175.766	0.291	0.008
-441.807	51.389	-0.217	0.204
-440.792	-200.000	-0.023	0.230
-439.778	-200.000	0.049	0.377
-438.763	26.685	-0.086	0.072
-437.749	-128.562	-0.174	0.024
-436.734	-200.000	0.012	-0.107
-435.719	-93.356	0.022	-0.006
-434.705	-72.777	-0.237	0.086
-433.690	-106.547	0.218	0.048
-432.676	505.556	0.014	-0.031
-431.661	-125.743	-0.396	0.059
-430.646	800.000	-0.071	0.251
-429.632	-200.000	-0.002	0.052
-428.617	196.216	0.058	0.087
-427.603	-190.710	0.123	0.001
-426.588	40.063	-0.185	-0.164
-425.573	114.316	0.090	0.109
-424.559	225.748	-0.096	0.154
-423.544	-25.509	-0.197	0.115
-422.530	-200.000	0.034	-0.321
-421.515	-109.827	-0.350	-0.073
-420.500	3.866	0.111	-0.080
-419.486	37.038	0.250	-0.219
-418.471	-80.363	0.240	0.079
-417.457	-28.718	0.270	-0.154
-416.442	-120.448	0.141	0.024
-415.428	-200.000	0.007	-0.143
-414.413	115.338	0.065	0.079
-413.398	-53.176	-0.248	0.113
-412.384	-56.922	0.263	0.115
-411.369	-119.763	-0.260	-0.044
-410.355	707.856	0.132	-0.346
-409.340	-117.321	-0.263	0.047
-408.325	800.000	0.008	-0.028
-407.311	-98.652	-0.073	0.019
-406.296	800.000	0.053	-0.150
-405.282	-32.684	-0.017	-0.009
-404.267	-200.000	0.004	0.424
-403.252	-12.871	-0.162	0.105
-402.238	-96.713	-0.169	0.044
-401.223	119.619	-0.047	-0.057
-400.209	-200.000	-0.016	0.335
-399.194	-5.959	0.065	0.044
-398.179	800.000	-0.070	0.229
-397.165	131.108	-0.186	0.237
-396.150	-200.000	0.013	0.418
-395.136	218.119	0.036	-0.057
-394.121	51.864	-0.094	-0.089
-393.106	800.000	-0.078	0.310
-392.092	-85.663	0.188	-0.058
-391.077	55.377	-0.081	0.077
-390.063	9.698	0.105	-0.078
-389.048	14.379	0.209	0.161
-388.033	-154.306	-0.094	0.006
-387.019	-200.000	-0.030	-0.213
-386.004	800.000	0.031	0.119
-384.990	217.321	-0.050	0.079
-383.975	-200.000	-0.063	-0.299
-382.960	185.722	0.199	-0.292
-381.946	75.368	0.096	-0.100
-380.931	-89.073	0.318	-0.093
-379.917	-38.090	-0.133	0.070
-378.902	688.189	-0.051	-0.132
-377.888	-1.475	-0.162	0.113
-376.873	22.237	-0.086	-0.070
-375.858	733.586	-0.072	0.191
-374.844	-45.202	0.278	0.136
-373.829	-74.311	0.408	-0.146
-372.815	-200.000	-0.000	-0.004
-371.800	800.000	-0.015	-0.042
-370.785	60.402	-0.080	-0.078
-369.771	33.700	0.261	0.225
-368.756	800.000	0.087	0.251
-367.742	800.000	0.105	-0.360
-366.727	94.160	-0.296	-0.332
-365.712	-22.976	0.120	-0.072
-364.698	-200.000	-0.063	-0.338
-363.683	800.000	0.037	-0.125
-362.669	-83.506	0.156	0.049
-361.654	686.313	0.196	-0.507
-360.639	27.638	0.339	-0.281
-359.625	361.997	-0.076	0.150
-358.610	-28.952	-0.088	0.050
-357.596	-146.969	0.114	-0.010
-356.581	88.282	0.291	0.319
-355.566	70.154	0.234	-0.239
-354.552	800.000	0.062	0.261
-353.537	-44.326	-0.035	-0.017
-352.523	-35.187	-0.147	-0.079
-351.508	-137.852	-0.104	0.011
-350.493	-141.877	-0.381	-0.038
-349.479	-68.253	0.135	-0.052
-348.464	37.262	0.260	0.227
-347.450	430.613	-0.138	-0.295
-346.435	304.861	0.028	0.051
-345.420	599.252	0.021	0.051
-344.406	-21.456	0.210	-0.127
-343.391	-107.989	-0.091	0.019
-342.377	47.073	0.042	0.038
-341.362	-91.168	0.210	-0.060
-340.348	213.462	-0.107	0.167
-339.333	286.084	-0.125	-0.222
-338.318	800.000	-0.051	-0.185
-337.304	-62.723	-0.325	0.133
-336.289	-83.515	0.061	-0.019
-335.275	-200.000	-0.055	0.387
-334.260	-64.611	0.168	-0.067
-333.245	244.461	-0.180	-0.299
-332.231	-200.000	-0.023	0.188
-331.216	-150.617	-0.098	-0.007
-330.202	-53.335	-0.249	-0.113
-329.187	-89.862	0.072	-0.021
-328.172	-70.676	-0.170	0.063
-327.158	17.219	-0.161	0.126
-326.143	-200.000	-0.001	0.370
-325.129	-200.000	0.047	0.218
-324.114	-200.000	-0.045	0.534
-323.099	-200.000	0.055	0.280
-322.085	-153.658	-0.348	-0.024
-321.070	800.000	-0.193	-0.584
-320.056	113.768	-0.171	-0.205
-319.041	-151.320	-0.121	-0.009
-318.026	-7.281	-0.182	-0.121
-317.012	800.000	-0.067	-0.198
-315.997	85.974	-0.058	-0.063
-314.983	75.537	0.199	0.207
-313.968	-200.000	0.001	-0.173
-312.953	-159.056	0.181	-0.010
-311.939	597.593	0.077	0.188
-310.924	-147.390	0.238	-0.020
-309.910	-139.038	-0.415	-0.044
-308.895	-47.374	-0.157	0.075
-307.880	-168.245	0.227	-0.009
-306.866	552.807	-0.117	-0.276
-305.851	800.000	0.072	-0.226
-304.837	336.099	0.209	0.399
-303.822	-163.635	0.197	0.009
-302.807	800.000	0.056	0.233
-301.793	89.212	0.142	0.156
-300.778	172.276	0.149	-0.212
-299.764	-74.902	0.090	-0.032
-298.749	-4.680	0.242	0.165
-297.735	-113.448	0.192	0.037
-296.720	668.449	0.139	-0.353
-295.705	-200.000	-0.001	-0.040
-294.691	-200.000	0.036	-0.303
-293.676	-200.000	0.040	0.238
-292.662	314.209	-0.163	0.303
-291.647	101.896	-0.320	0.368
-290.632	-14.655	0.445	-0.282
-289.618	800.000	0.116	0.366
-288.603	193.221	0.049	0.073
-287.589	-200.000	0.080	-0.468
-286.574	800.000	0.029	0.103
-285.559	800.000	0.070	0.227
-284.545	198.941	-0.081	-0.123
-283.530	375.781	-0.020	0.040
-282.516	-11.014	-0.369	0.240
-281.501	-27.962	0.239	-0.136
-280.486	-78.752	-0.261	-0.088
-279.472	-95.832	-0.190	-0.050
-278.457	88.860	-0.101	0.110
-277.443	20.032	-0.248	0.197
-276.428	-47.242	-0.367	-0.176
-275.413	22.486	0.182	-0.147
-274.399	-46.413	-0.175	-0.085
-273.384	-113.663	0.087	-0.017
-272.370	-136.396	0.126	0.014
-271.355	40.388	0.112	0.099
-270.340	12.377	-0.106	0.081
-269.326	367.302	0.061	0.122
-268.311	-118.304	-0.245	0.043
-267.297	685.121	-0.176	-0.452
-266.282	438.116	0.063	-0.136
-265.267	-180.884	0.509	-0.010
-264.253	559.473	-0.076	-0.180
-263.238	-6.006	0.071	-0.048
-262.224	-63.240	0.183	-0.074
-261.209	388.608	0.229	0.465
-260.195	-200.000	0.033	0.170
-259.180	11.911	0.070	0.053
-258.165	-200.000	0.095	0.450
-257.151	442.379	-0.128	0.275
-256.136	-26.152	0.260	0.150
-255.122	577.280	0.079	-0.191
-254.107	239.188	0.144	0.236
-253.092	-190.695	0.202	-0.002
-252.078	111.500	-0.324	-0.384
-251.063	560.091	0.028	-0.066
-250.049	630.295	0.068	-0.168
-249.034	-174.127	0.180	0.005
-248.019	-106.083	0.151	0.033
-247.005	-46.794	-0.206	0.099
-245.990	-200.000	0.048	0.342
-244.976	-200.000	0.057	0.286
-243.961	13.762	0.036	-0.027
-242.946	312.235	-0.096	-0.177
-241.932	163.692	0.220	-0.304
-240.917	422.509	-0.190	0.401
-239.903	-64.371	0.138	0.055
-238.888	-145.233	-0.340	0.030
-237.873	104.503	-0.039	0.045
-236.859	800.000	0.069	0.264
-235.844	-200.000	-0.024	0.259
-234.830	511.098	0.107	0.246
-233.815	-19.796	0.067	-0.041
-232.800	800.000	0.048	0.149
-231.786	254.831	-0.107	-0.180
-230.771	215.509	0.028	0.044
-229.757	-112.854	0.179	-0.035
-228.742	-95.487	0.105	0.028
-227.727	-91.873	-0.194	0.054
-226.713	1.174	0.132	0.093
-225.698	-166.868	-0.460	0.019
-224.684	270.982	0.184	0.318
-223.669	57.808	0.063	-0.060
-222.655	-200.000	0.004	-0.269
-221.640	-72.665	-0.338	-0.122
-220.625	-0.352	-0.162	-0.113
-219.611	-42.222	-0.276	0.138
-218.596	-71.064	-0.144	-0.053
-217.582	14.459	0.131	-0.100
-216.567	-200.000	0.050	-0.260
-215.552	-89.074	0.289	0.084
-214.538	129.806	0.058	0.072
-213.523	83.312	0.016	-0.017
-212.509	311.981	-0.168	-0.309
-211.494	-64.000	0.173	0.069
-210.479	-31.981	0.352	0.193
-209.465	-89.644	0.205	-0.059
-208.450	-55.390	-0.316	-0.139
-207.436	129.739	0.177	0.223
-206.421	32.597	0.294	-0.250
-205.406	23.637	0.319	-0.258
-204.392	182.142	-0.164	-0.237
-203.377	-200.000	-0.018	0.306
-202.363	-85.224	-0.175	-0.054
-201.348	800.000	0.085	-0.288
-200.333	-113.730	0.113	-0.022
-199.319	205.450	-0.139	-0.211
-198.304	-110.919	-0.232	0.047
-197.290	-26.936	0.053	-0.031
-196.275	18.090	0.292	0.228
-195.260	-123.668	-0.173	0.027
-194.246	-21.964	0.133	0.080
-193.231	800.000	-0.039	-0.109
-192.217	-29.117	-0.092	-0.052
-191.202	-200.000	0.174	0.000
-190.187	-200.000	0.016	0.198
-189.173	163.146	-0.193	-0.265
-188.158	-95.864	-0.159	0.042
-187.144	293.624	0.113	0.202
-186.129	19.408	-0.178	0.140
-185.114	800.000	0.026	0.088
-184.100	-86.852	-0.050	0.015
-183.085	16.061	-0.067	0.052
-182.071	-200.000	-0.014	-0.302
-181.056	800.000	0.062	0.187
-180.042	-67.349	0.416	0.160
-179.027	439.459	-0.117	-0.250
-178.012	-200.000	-0.000	-0.080
-176.998	-89.210	0.245	-0.071
-175.983	-200.000	0.027	-0.218
-174.969	-146.984	0.221	0.019
-173.954	94.880	0.047	-0.053
-172.939	360.665	0.044	-0.087
-171.925	-178.748	0.250	0.006
-170.910	-66.182	0.185	-0.072
-169.896	-5.100	-0.228	0.154
-168.881	-145.626	-0.267	-0.023
-167.866	-200.000	0.003	-0.286
-166.852	800.000	0.172	0.541
-165.837	324.887	0.048	0.091
-164.823	-200.000	-0.016	0.192
-163.808	78.588	0.210	0.220
-162.793	-49.462	0.134	0.062
-161.779	-5.478	-0.208	-0.140
-160.764	321.264	-0.154	0.286
-159.750	97.005	0.294	-0.331
-158.735	-71.678	0.246	0.090
-157.720	-32.941	0.191	0.104
-156.706	460.393	0.153	0.334
-155.691	306.116	-0.291	0.529
-154.677	12.725	-0.170	-0.128
-153.662	-190.950	-0.097	0.001
-152.647	43.239	-0.351	0.314
-151.633	-108.357	-0.274	-0.058
-150.618	-121.468	0.358	0.058
-149.604	-81.783	0.134	0.043
-148.589	440.672	0.098	0.210
-147.574	304.344	0.105	-0.190
-146.560	-105.449	-0.068	0.015
-145.545	800.000	-0.105	0.319
-144.531	-36.700	0.078	0.041
-143.516	-200.000	-0.010	0.178
-142.502	-150.484	0.156	0.012
-141.487	149.345	0.159	-0.211
-140.472	-112.437	0.215	-0.042
-139.458	72.728	0.121	-0.124
-138.443	16.129	0.085	-0.065
-137.429	800.000	0.118	0.369
-136.414	-87.891	-0.177	0.052
-135.399	42.995	0.159	-0.142
-134.385	-127.411	-0.082	-0.012
-133.370	7.777	-0.298	-0.218
-132.356	-200.000	-0.035	0.378
-131.341	-110.783	0.061	-0.012
-130.326	216.007	-0.062	0.096
-129.312	25.566	0.219	0.178
-128.297	-50.051	0.232	0.107
-127.283	-44.370	-0.251	0.123
-126.268	259.253	0.068	-0.115
-125.253	800.000	0.043	0.149
-124.239	800.000	-0.024	-0.099
-123.224	-14.137	0.179	0.113
-122.210	-181.772	-0.245	0.005
-121.195	35.215	0.086	0.074
