DTS Sentinel unit serial number:	SN413079Multiplexer serial number:	ORYXHardware model number:	OX4-SRSoftware version number:	ORYX F/W v4.00 Oryx Data Collector v3.7.2.0data status	okinstallation	princeton_trtdifferential loss correction	single-endedforward channel	channel 1reverse channel	N/Adate	2019/09/12time	13:44:11forward acquisition time	60.00reverse acquisition time	0.00gamma	496.2192k internal	0.2292k external	0.2292temperature offset calibration	1.0053default loss term (dB/km)	0.3790temperature slope calibration	1.0000multiplexer offset coefficient	1.0000multiplexer slope coefficient	1.0000fibre end	0.00T internal ref (°C)	41.00T ext. ref 1 (°C)	2.16T ext. ref 2 (°C)	35.52length (m)	temperature (°C)	Stokes	anti-Stokes-747.200	139.227	0.094	-0.127
-746.185	63.194	0.259	0.266
-745.171	-117.453	-0.183	-0.034
-744.156	800.000	0.016	-0.070
-743.142	27.783	-0.140	0.121
-742.127	8.050	-0.089	-0.068
-741.112	-90.624	-0.111	-0.033
-740.098	87.698	0.222	0.252
-739.083	-123.993	-0.213	-0.034
-738.069	-12.820	0.281	0.188
-737.054	119.087	-0.177	-0.224
-736.039	-53.708	0.149	-0.070
-735.025	50.389	0.131	0.127
-734.010	-85.245	-0.291	-0.093
-732.996	-32.204	-0.161	-0.092
-731.981	-161.907	0.257	-0.013
-730.966	28.516	0.129	-0.111
-729.952	-17.632	-0.129	0.083
-728.937	800.000	-0.014	-0.062
-727.923	116.496	-0.086	0.108
-726.908	122.995	-0.070	0.089
-725.894	-104.673	0.191	0.045
-724.879	-42.671	-0.235	-0.123
-723.864	-58.018	-0.155	-0.069
-722.850	-75.039	-0.436	-0.160
-721.835	-151.717	-0.275	0.021
-720.821	236.618	-0.115	-0.196
-719.806	-134.197	-0.143	0.018
-718.791	-84.248	0.253	-0.082
-717.777	-133.219	0.114	-0.015
-716.762	800.000	0.021	-0.065
-715.748	41.382	-0.152	0.140
-714.733	-50.613	0.157	0.076
-713.718	110.289	-0.163	0.200
-712.704	-48.278	-0.181	0.089
-711.689	-88.281	-0.094	-0.029
-710.675	800.000	0.048	-0.142
-709.660	-200.000	-0.004	-0.036
-708.645	59.379	0.230	-0.231
-707.631	32.588	0.118	-0.104
-706.616	-200.000	-0.028	-0.207
-705.602	755.028	0.009	0.024
-704.587	-35.205	0.034	0.019
-703.572	579.534	-0.050	0.125
-702.558	120.343	-0.024	-0.031
-701.543	111.470	-0.128	0.158
-700.529	-200.000	0.017	0.247
-699.514	-111.365	-0.148	-0.031
-698.499	247.831	0.088	-0.152
-697.485	22.428	0.338	-0.283
-696.470	97.193	0.154	-0.181
-695.456	-200.000	-0.038	-0.321
-694.441	308.591	0.055	0.104
-693.426	-116.530	-0.471	-0.089
-692.412	91.056	-0.213	0.244
-691.397	215.926	-0.106	-0.173
-690.383	-200.000	-0.017	-0.117
-689.368	-37.094	0.178	0.097
-688.354	-88.493	-0.166	0.051
-687.339	-153.591	0.027	-0.002
-686.324	83.346	0.081	-0.090
-685.310	150.164	-0.175	-0.242
-684.295	-17.269	-0.240	0.155
-683.281	20.845	-0.228	0.189
-682.266	-168.501	0.177	0.007
-681.251	-200.000	-0.012	-0.118
-680.237	-133.563	-0.159	0.020
-679.222	0.788	-0.299	0.219
-678.208	-200.000	0.010	-0.127
-677.193	-200.000	-0.005	-0.366
-676.178	-67.001	-0.394	0.159
-675.164	32.728	0.127	0.112
-674.149	-155.786	0.181	0.012
-673.135	384.294	0.160	0.337
-672.120	195.697	-0.034	-0.052
-671.105	-53.717	-0.063	-0.029
-670.091	120.249	-0.079	-0.100
-669.076	245.593	0.212	-0.364
-668.062	800.000	-0.099	-0.297
-667.047	149.786	-0.181	-0.251
-666.032	32.602	-0.110	-0.097
-665.018	277.043	0.040	-0.073
-664.003	-191.302	0.449	-0.005
-662.989	-200.000	0.015	-0.118
-661.974	-5.606	-0.057	-0.040
-660.959	119.036	-0.078	0.099
-659.945	-112.274	0.390	0.080
-658.930	-200.000	0.030	-0.281
-657.916	-200.000	-0.025	0.140
-656.901	-86.453	0.364	-0.114
-655.886	338.128	0.100	0.199
-654.872	-200.000	0.024	0.217
-653.857	302.065	-0.135	0.254
-652.843	446.519	0.067	0.151
-651.828	-108.257	0.175	-0.038
-650.814	30.745	0.104	0.091
-649.799	-108.537	-0.236	-0.052
-648.784	-148.403	-0.191	-0.016
-647.770	-35.187	-0.334	-0.185
-646.755	800.000	0.075	-0.260
-645.741	-37.742	0.076	0.041
-644.726	-54.449	0.291	-0.135
-643.711	-67.486	-0.119	0.048
-642.697	-116.193	0.219	0.041
-641.682	-65.841	0.307	0.125
-640.668	-159.814	0.326	0.018
-639.653	359.559	-0.167	-0.340
-638.638	800.000	0.089	-0.265
-637.624	68.461	-0.180	0.188
-636.609	-86.085	-0.119	0.038
-635.595	-13.633	-0.194	-0.128
-634.580	800.000	-0.044	0.137
-633.565	115.859	0.097	-0.121
-632.551	-200.000	0.024	-0.183
-631.536	-84.376	-0.140	-0.045
-630.522	28.371	0.154	0.132
-629.507	-12.327	0.250	0.167
-628.492	-15.516	0.137	-0.089
-627.478	228.652	0.209	-0.347
-626.463	213.894	0.059	0.095
-625.449	-171.481	0.129	0.004
-624.434	-200.000	-0.030	-0.300
-623.419	321.808	0.019	-0.037
-622.405	163.154	-0.204	-0.292
-621.390	-200.000	-0.020	-0.153
-620.376	-84.747	0.135	0.043
-619.361	-80.016	0.193	-0.066
-618.346	-200.000	-0.013	-0.167
-617.332	-106.077	-0.346	0.079
-616.317	-98.793	-0.251	0.065
-615.303	-200.000	0.030	0.183
-614.288	-143.736	-0.194	0.019
-613.273	-155.062	0.321	0.021
-612.259	322.688	0.088	-0.171
-611.244	-200.000	-0.002	0.294
-610.230	19.271	-0.138	-0.113
-609.215	800.000	-0.044	0.146
-608.201	-200.000	0.018	0.297
-607.186	121.862	0.125	-0.159
-606.171	95.621	-0.209	0.242
-605.157	31.362	-0.214	0.187
-604.142	200.151	-0.102	-0.159
-603.128	-129.046	-0.445	0.063
-602.113	273.610	-0.054	0.097
-601.098	-200.000	0.012	0.130
-600.084	1.367	-0.133	-0.097
-599.069	-200.000	-0.006	0.088
-598.055	131.717	0.213	0.278
-597.040	7.707	-0.246	0.188
-596.025	469.986	0.203	0.464
-595.011	18.311	-0.216	0.176
-593.996	717.514	0.064	0.172
-592.982	364.972	-0.048	-0.099
-591.967	123.480	0.042	-0.053
-590.952	-92.178	-0.204	0.059
-589.938	-200.000	-0.014	-0.196
-588.923	-108.219	-0.416	0.092
-587.909	32.941	-0.153	0.135
-586.894	-200.000	0.003	0.254
-585.879	-61.822	-0.092	0.039
-584.865	201.238	0.136	0.213
-583.850	-75.670	-0.394	-0.142
-582.836	648.803	-0.020	0.051
-581.821	-17.609	0.156	-0.100
-580.806	-200.000	-0.005	0.283
-579.792	236.667	-0.114	-0.192
-578.777	-125.670	-0.068	-0.010
-577.763	-43.350	-0.128	0.066
-576.748	183.106	-0.257	-0.386
-575.733	298.925	-0.174	0.326
-574.719	61.284	-0.136	0.138
-573.704	-200.000	-0.024	0.257
-572.690	-87.312	0.235	0.072
-571.675	536.203	-0.085	-0.204
-570.661	-200.000	0.023	-0.130
-569.646	-164.388	-0.234	0.011
-568.631	800.000	-0.032	-0.110
-567.617	69.031	-0.125	-0.130
-566.602	144.702	-0.107	0.145
-565.588	757.081	-0.176	-0.484
-564.573	364.904	0.060	0.124
-563.558	348.157	-0.124	0.249
-562.544	44.567	0.376	0.351
-561.529	717.717	0.053	0.143
-560.515	153.825	-0.147	0.204
-559.500	-81.402	0.396	-0.133
-558.485	-121.450	0.344	0.058
-557.471	42.234	-0.107	-0.099
-556.456	-96.839	0.175	-0.047
-555.442	14.410	0.213	0.169
-554.427	-115.483	0.385	-0.074
-553.412	-200.000	0.072	-0.339
-552.398	163.532	-0.083	-0.118
-551.383	-2.678	-0.071	-0.051
-550.369	-200.000	-0.056	0.291
-549.354	-41.665	-0.396	0.207
-548.339	-134.190	0.260	-0.033
-547.325	421.409	0.060	-0.131
-546.310	617.390	-0.083	-0.211
-545.296	-126.911	-0.074	-0.011
-544.281	12.093	0.126	0.099
-543.266	-27.036	-0.157	0.093
-542.252	-158.579	0.186	-0.011
-541.237	-91.407	0.452	0.131
-540.223	-109.532	0.231	0.049
-539.208	41.040	0.083	-0.076
-538.193	82.231	-0.188	0.207
-537.179	-200.000	0.059	-0.376
-536.164	343.612	0.106	0.211
-535.150	53.365	0.109	0.106
-534.135	44.170	-0.448	-0.417
-533.121	-106.622	-0.084	0.019
-532.106	42.279	0.321	-0.297
-531.091	-200.000	-0.002	0.196
-530.077	735.197	0.031	0.085
-529.062	156.301	0.106	0.149
-528.048	473.087	-0.115	0.264
-527.033	13.487	0.230	0.181
-526.018	48.030	-0.400	-0.379
-525.004	-106.105	-0.271	-0.062
-523.989	-36.374	0.088	0.048
-522.975	-14.211	0.089	-0.058
-521.960	-104.975	0.312	0.073
-520.945	114.367	0.256	0.317
-519.931	-200.000	-0.021	0.171
-518.916	-71.802	0.204	-0.077
-517.902	332.228	0.140	-0.275
-516.887	-64.742	-0.171	0.070
-515.872	512.374	-0.114	0.269
-514.858	-23.728	0.073	0.045
-513.843	-50.681	-0.196	0.094
-512.829	-200.000	-0.050	0.328
-511.814	-66.789	-0.123	0.049
-510.799	800.000	-0.069	0.276
-509.785	265.190	-0.051	-0.089
-508.770	-112.090	-0.161	-0.033
-507.756	-103.425	-0.264	-0.063
-506.741	61.191	-0.107	0.108
-505.726	-200.000	-0.016	-0.520
-504.712	365.082	-0.094	-0.191
-503.697	3.554	-0.072	0.053
-502.683	-121.823	0.153	0.026
-501.668	333.049	0.048	-0.094
-500.653	133.245	0.073	0.096
-499.639	341.901	0.104	0.207
-498.624	-189.138	0.164	0.002
-497.610	-109.245	0.231	0.050
-496.595	-55.644	-0.100	0.045
-495.581	-98.046	-0.400	0.104
-494.566	-37.812	-0.119	-0.064
-493.551	-200.000	0.038	0.190
-492.537	-52.189	-0.337	-0.159
-491.522	-2.338	0.227	0.161
-490.508	-102.760	0.183	-0.044
-489.493	-200.000	0.040	-0.179
-488.478	-123.277	0.113	-0.018
-487.464	141.237	0.075	-0.101
-486.449	78.863	-0.333	-0.361
-485.435	-200.000	-0.014	-0.061
-484.420	-64.521	0.384	0.158
-483.405	-93.872	0.056	0.016
-482.391	-200.000	-0.021	-0.364
-481.376	762.661	-0.063	-0.174
-480.362	-200.000	-0.004	-0.045
-479.347	308.877	0.099	-0.188
-478.332	-101.565	0.182	-0.045
-477.318	233.299	-0.032	-0.053
-476.303	379.056	-0.258	0.536
-475.289	19.787	-0.217	-0.177
-474.274	-200.000	0.029	0.450
-473.259	-200.000	-0.044	0.383
-472.245	135.059	0.064	-0.084
-471.230	91.731	0.216	0.246
-470.216	800.000	0.096	-0.343
-469.201	204.573	-0.173	0.272
-468.186	-52.624	-0.058	0.027
-467.172	-123.409	-0.174	0.028
-466.157	4.249	-0.257	0.191
-465.143	800.000	0.023	-0.094
-464.128	131.298	0.185	-0.240
-463.113	52.152	0.160	-0.155
-462.099	100.263	0.067	-0.078
-461.084	-71.164	-0.331	-0.126
-460.070	777.107	-0.093	-0.258
-459.055	800.000	0.053	-0.172
-458.040	-200.000	-0.062	-0.280
-457.026	-180.824	-0.119	-0.002
-456.011	-146.580	0.202	-0.018
-454.997	0.515	-0.387	0.280
-453.982	800.000	0.063	-0.270
-452.968	56.697	-0.153	-0.151
-451.953	-200.000	-0.003	0.417
-450.938	226.596	0.210	0.345
-449.924	31.471	-0.077	0.067
-448.909	-72.437	0.356	0.133
-447.895	2.413	0.241	-0.177
-446.880	229.692	-0.087	0.143
-445.865	-87.449	0.159	0.049
-444.851	-108.856	0.099	-0.021
-443.836	9.192	0.232	0.177
-442.822	139.686	-0.181	0.242
-441.807	123.412	-0.140	0.178
-440.792	-200.000	-0.013	-0.252
-439.778	75.094	-0.109	-0.116
-438.763	-200.000	0.012	-0.156
-437.749	296.793	-0.051	-0.094
-436.734	409.382	0.100	-0.215
-435.719	-200.000	-0.005	-0.124
-434.705	-70.081	-0.093	0.036
-433.690	-200.000	0.008	-0.187
-432.676	-41.409	0.307	-0.160
-431.661	-58.418	0.221	0.097
-430.646	-200.000	-0.002	-0.027
-429.632	-36.040	-0.167	0.091
-428.617	-140.289	-0.064	0.007
-427.603	-47.455	0.170	0.084
-426.588	175.635	0.076	-0.112
-425.573	261.844	-0.172	0.302
-424.559	-200.000	-0.007	-0.152
-423.544	-74.660	-0.217	-0.079
-422.530	49.241	-0.132	-0.126
-421.515	-200.000	-0.023	-0.349
-420.500	-200.000	-0.022	0.159
-419.486	-200.000	-0.009	0.239
-418.471	15.498	-0.288	-0.228
-417.457	-151.140	-0.130	0.010
-416.442	-33.947	0.189	0.105
-415.428	55.877	0.100	-0.098
-414.413	-101.232	-0.135	0.033
-413.398	-200.000	0.047	0.408
-412.384	-200.000	-0.014	0.268
-411.369	-68.390	-0.322	-0.126
-410.355	-199.224	0.070	-0.000
-409.340	-200.000	0.024	0.144
-408.325	4.572	-0.266	0.197
-407.311	634.173	-0.189	-0.484
-406.296	-65.040	-0.211	-0.086
-405.282	-165.387	0.108	0.005
-404.267	-200.000	-0.038	0.333
-403.252	800.000	0.099	-0.320
-402.238	-200.000	0.030	-0.527
-401.223	-91.368	-0.292	0.084
-400.209	354.677	0.188	0.377
-399.194	87.624	0.248	0.278
-398.179	-95.852	-0.182	-0.049
-397.165	800.000	-0.079	0.346
-396.150	78.323	0.176	0.190
-395.136	-199.975	0.284	-0.001
-394.121	-190.041	0.073	-0.001
-393.106	533.031	0.121	0.290
-392.092	214.055	-0.185	0.296
-391.077	120.007	-0.190	-0.238
-390.063	-200.000	-0.084	-0.399
-389.048	85.328	0.135	-0.150
-388.033	-61.965	-0.120	0.050
-387.019	-20.437	0.081	-0.050
-386.004	196.342	0.126	0.194
-384.990	234.777	-0.259	-0.432
-383.975	33.881	0.044	-0.038
-382.960	800.000	0.067	0.236
-381.946	-132.694	0.155	0.020
-380.931	-28.933	-0.379	0.220
-379.917	-200.000	0.002	-0.341
-378.902	9.766	-0.242	-0.185
-377.888	-60.392	0.064	-0.028
-376.873	543.284	0.090	-0.217
-375.858	800.000	0.060	0.229
-374.844	232.665	-0.054	0.089
-373.829	-200.000	-0.006	-0.098
-372.815	-200.000	-0.012	-0.124
-371.800	229.638	-0.102	-0.169
-370.785	-45.792	-0.155	0.077
-369.771	800.000	-0.014	0.056
-368.756	58.196	0.044	-0.044
-367.742	-104.054	0.028	0.007
-366.727	307.838	-0.096	-0.180
-365.712	800.000	-0.075	-0.289
-364.698	-200.000	0.037	-0.286
-363.683	-50.159	0.129	0.062
-362.669	20.543	-0.235	0.192
-361.654	31.738	0.166	0.144
-360.639	72.304	0.218	-0.229
-359.625	-19.049	0.060	-0.037
-358.610	-120.603	-0.171	-0.029
-357.596	14.822	0.035	-0.028
-356.581	221.338	0.165	0.268
-355.566	-98.633	-0.128	0.033
-354.552	-129.603	-0.210	0.029
-353.537	-200.000	-0.004	0.316
-352.523	267.933	-0.056	0.099
-351.508	506.898	-0.031	0.073
-350.493	12.340	-0.198	-0.153
-349.479	800.000	-0.156	0.546
-348.464	-157.908	-0.305	0.018
-347.450	26.310	0.257	-0.217
-346.435	369.788	-0.085	-0.174
-345.420	470.493	-0.010	-0.023
-344.406	208.767	-0.189	-0.298
-343.391	214.365	0.058	-0.093
-342.377	18.140	0.152	0.123
-341.362	223.063	0.167	0.271
-340.348	68.267	0.085	0.087
-339.333	-200.000	-0.067	0.336
-338.318	14.107	-0.255	0.200
-337.304	-105.703	-0.145	0.033
-336.289	800.000	0.118	0.408
-335.275	800.000	-0.114	-0.377
-334.260	-9.286	0.165	-0.111
-333.245	257.305	0.197	0.341
-332.231	167.211	-0.161	0.230
-331.216	67.234	-0.091	-0.094
-330.202	-101.881	-0.351	-0.086
-329.187	-112.746	-0.151	0.030
-328.172	-200.000	0.008	0.076
-327.158	-8.818	-0.074	0.050
-326.143	420.972	-0.067	0.144
-325.129	-50.802	-0.121	0.057
-324.114	544.122	-0.047	0.114
-323.099	225.179	0.073	-0.118
-322.085	-177.908	-0.201	-0.005
-321.070	-200.000	0.021	0.110
-320.056	562.123	-0.171	-0.418
-319.041	-11.846	0.039	-0.026
-318.026	-46.409	0.306	-0.151
-317.012	79.067	0.065	0.070
-315.997	73.682	0.328	0.346
-314.983	800.000	0.098	0.355
-313.968	-117.324	0.319	-0.058
-312.953	-62.929	-0.191	0.080
-311.939	2.697	0.113	-0.083
-310.924	-200.000	0.040	0.385
-309.910	47.972	0.114	0.107
-308.895	-120.197	0.349	-0.060
-307.880	193.748	0.175	0.267
-306.866	108.362	-0.066	-0.079
-305.851	520.061	-0.157	-0.370
-304.837	6.426	0.079	-0.059
-303.822	43.514	0.049	-0.045
-302.807	-148.140	0.115	0.010
-301.793	800.000	-0.109	0.352
-300.778	800.000	-0.078	-0.239
-299.764	686.163	-0.038	0.100
-298.749	-200.000	-0.007	-0.068
-297.735	-66.619	0.081	0.032
-296.720	800.000	-0.046	-0.163
-295.705	80.296	-0.060	0.065
-294.691	293.101	0.127	0.232
-293.676	57.626	0.207	-0.204
-292.662	-63.783	0.209	-0.086
-291.647	-23.449	-0.256	-0.155
-290.632	17.124	0.202	-0.161
-289.618	7.575	-0.040	-0.030
-288.603	-127.183	-0.374	0.055
-287.589	200.187	-0.110	-0.171
-286.574	612.991	0.179	-0.451
-285.559	57.918	0.267	-0.263
-284.545	-76.704	-0.298	-0.105
-283.530	-26.275	-0.189	-0.112
-282.516	24.337	0.166	-0.138
-281.501	-96.127	0.577	-0.154
-280.486	56.042	0.273	0.266
-279.472	-30.472	0.087	-0.050
-278.457	205.486	0.132	-0.206
-277.443	-200.000	0.008	0.076
-276.428	498.326	0.130	-0.300
-275.413	92.654	-0.078	0.088
-274.399	-156.764	-0.250	-0.016
-273.384	85.470	-0.239	0.264
-272.370	104.415	-0.172	-0.204
-271.355	800.000	0.018	-0.065
-270.340	800.000	-0.117	-0.402
-269.326	-200.000	0.010	0.100
-268.311	-200.000	0.020	0.100
-267.297	-63.701	-0.296	0.122
-266.282	-200.000	-0.006	-0.052
-265.267	-120.878	0.109	0.018
-264.253	363.477	0.201	0.406
-263.238	-101.159	-0.326	-0.080
-262.224	-200.000	-0.006	0.225
-261.209	-200.000	0.001	-0.021
-260.195	-119.672	-0.199	-0.034
-259.180	159.748	0.137	0.191
-258.165	-26.370	0.210	-0.124
-257.151	-126.108	-0.110	-0.017
-256.136	800.000	-0.072	-0.218
-255.122	-124.792	-0.093	-0.014
-254.107	58.289	0.268	-0.264
-253.092	-7.485	0.174	-0.118
-252.078	-135.664	0.199	-0.024
-251.063	-200.000	0.004	0.408
-250.049	-200.000	-0.092	0.526
-249.034	-79.169	-0.300	0.102
-248.019	-200.000	-0.000	-0.210
-247.005	-79.078	0.157	-0.054
-245.990	124.471	-0.107	-0.135
-244.976	-108.621	0.218	-0.047
-243.961	156.728	-0.049	-0.067
-242.946	100.218	-0.102	-0.119
-241.932	800.000	0.075	-0.211
-240.917	610.338	-0.039	-0.099
-239.903	9.068	-0.111	-0.084
-238.888	139.431	-0.093	-0.122
-237.873	13.006	-0.116	0.090
-236.859	49.494	-0.074	0.070
-235.844	256.209	-0.207	-0.357
-234.830	366.704	-0.110	0.223
-233.815	-113.461	0.140	0.028
-232.800	-169.131	-0.121	0.005
-231.786	634.110	-0.031	-0.078
-230.771	-134.975	0.248	-0.030
-229.757	-97.070	-0.062	0.016
-228.742	-3.752	-0.202	0.141
-227.727	576.333	-0.050	-0.122
-226.713	800.000	-0.054	-0.177
-225.698	-200.000	-0.035	-0.168
-224.684	435.542	-0.040	0.088
-223.669	366.834	0.025	-0.050
-222.655	-52.758	0.023	-0.011
-221.640	-69.805	-0.254	-0.097
-220.625	215.685	0.187	0.298
-219.611	-47.133	-0.257	-0.126
-218.596	4.723	0.215	0.158
-217.582	-16.132	0.427	0.272
-216.567	-104.358	0.282	0.066
-215.552	-102.685	-0.198	0.047
-214.538	-78.547	0.237	-0.081
-213.523	-44.930	-0.122	0.061
-212.509	597.169	-0.043	0.107
-211.494	-35.917	0.178	0.096
-210.479	-200.000	0.044	0.279
-209.465	-62.176	0.063	-0.026
-208.450	4.203	0.169	-0.124
-207.436	346.450	-0.133	0.261
-206.421	-30.134	0.357	0.203
-205.406	-88.672	0.173	0.052
-204.392	58.023	0.076	-0.074
-203.377	800.000	0.067	0.188
-202.363	-200.000	0.013	0.297
-201.348	56.407	0.125	-0.122
-200.333	800.000	-0.020	-0.070
-199.319	-134.294	0.415	0.051
-198.304	-200.000	0.021	-0.270
-197.290	-26.663	-0.262	-0.154
-196.275	-200.000	-0.018	0.180
-195.260	800.000	0.053	-0.219
-194.246	2.998	0.403	-0.293
-193.231	-200.000	0.022	-0.251
-192.217	231.888	0.036	0.059
-191.202	748.102	-0.042	-0.113
-190.187	-67.130	0.115	0.045
-189.173	78.938	0.093	-0.100
-188.158	-16.706	-0.142	0.090
-187.144	-116.466	0.133	-0.025
-186.129	93.322	-0.071	0.080
-185.114	-180.903	0.194	-0.004
-184.100	66.215	-0.014	-0.015
-183.085	800.000	-0.031	-0.087
-182.071	-37.333	-0.326	-0.175
-181.056	-116.597	0.309	0.057
-180.042	-49.483	0.219	0.105
-179.027	159.797	0.222	-0.310
-178.012	546.230	0.075	-0.180
-176.998	-9.680	-0.178	0.119
-175.983	95.157	0.194	0.221
-174.969	-78.429	-0.089	0.031
-173.954	436.782	-0.113	-0.246
-172.939	-137.548	0.322	0.036
-171.925	-75.221	0.239	-0.085
-170.910	419.590	-0.195	-0.418
-169.896	-85.196	0.180	-0.056
-168.881	-0.998	-0.222	-0.157
-167.866	146.674	0.038	0.052
-166.852	-47.542	-0.128	0.062
-165.837	52.310	-0.198	0.189
-164.823	-67.870	0.287	0.112
-163.808	38.813	-0.206	0.184
-162.793	-14.907	0.148	0.095
-161.779	-29.061	0.118	-0.068
-160.764	542.347	-0.022	-0.052
-159.750	-25.253	0.116	-0.069
-158.735	-52.234	0.259	-0.120
-157.720	-124.596	-0.087	-0.014
-156.706	-200.000	-0.049	0.263
-155.691	5.848	-0.246	-0.182
-154.677	25.913	0.065	-0.054
-153.662	-200.000	0.052	-0.568
-152.647	-3.079	-0.079	-0.055
-151.633	-131.914	0.517	0.068
-150.618	78.687	0.160	0.171
-149.604	-142.893	-0.166	0.016
-148.589	-128.573	-0.111	0.016
-147.574	-52.904	0.231	0.107
-146.560	-26.643	0.022	-0.013
-145.545	143.801	-0.125	-0.167
-144.531	-145.679	-0.117	0.010
-143.516	-79.974	0.018	-0.006
-142.502	362.189	0.162	0.325
-141.487	-92.424	0.098	0.027
-140.472	-19.938	-0.245	0.151
-139.458	-3.264	-0.368	-0.257
-138.443	-131.203	0.292	0.039
-137.429	800.000	0.077	0.259
-136.414	-200.000	0.008	0.169
-135.399	-124.535	0.112	-0.017
-134.385	285.334	-0.063	-0.114
-133.370	-136.644	-0.102	0.012
-132.356	-143.359	-0.126	-0.012
-131.341	-107.373	-0.148	-0.032
-130.326	-48.467	0.358	-0.172
-129.312	221.826	-0.128	0.206
-128.297	-100.520	-0.261	0.065
-127.283	93.417	0.086	0.098
-126.268	-87.054	0.050	-0.015
-125.253	267.632	0.227	0.398
-124.239	-186.139	-0.269	0.004
-123.224	-157.857	-0.161	0.010
-122.210	112.493	0.216	0.261
-121.195	13.725	0.266	0.206
