DTS Sentinel unit serial number:	SN413079Multiplexer serial number:	ORYXHardware model number:	OX4-SRSoftware version number:	ORYX F/W v4.00 Oryx Data Collector v3.7.2.0data status	okinstallation	princeton_trtdifferential loss correction	single-endedforward channel	channel 1reverse channel	N/Adate	2019/09/13time	04:02:35forward acquisition time	60.00reverse acquisition time	0.00gamma	496.2192k internal	0.2334k external	0.2334temperature offset calibration	1.0165default loss term (dB/km)	0.3790temperature slope calibration	1.0000multiplexer offset coefficient	1.0000multiplexer slope coefficient	1.0000fibre end	0.00T internal ref (°C)	27.00T ext. ref 1 (°C)	4.07T ext. ref 2 (°C)	21.27length (m)	temperature (°C)	Stokes	anti-Stokes-747.200	69.986	0.100	-0.104
-746.185	-119.320	0.321	0.056
-745.171	-133.334	-0.309	0.039
-744.156	22.378	0.275	0.226
-743.142	-80.850	-0.091	0.030
-742.127	-200.000	-0.002	0.323
-741.112	-27.781	0.135	-0.079
-740.098	168.520	0.087	-0.125
-739.083	-92.599	0.229	0.064
-738.069	-200.000	0.010	-0.156
-737.054	-81.516	-0.332	-0.110
-736.039	351.585	-0.077	-0.153
-735.025	-1.263	0.139	-0.099
-734.010	56.413	-0.183	-0.178
-732.996	-111.304	-0.024	0.005
-731.981	800.000	0.067	0.206
-730.966	312.593	0.079	0.150
-729.952	360.180	0.071	0.144
-728.937	264.553	-0.208	0.363
-727.923	393.356	-0.140	-0.293
-726.908	-118.798	0.045	-0.008
-725.894	-102.914	-0.224	0.054
-724.879	-200.000	-0.032	-0.191
-723.864	544.650	-0.029	-0.069
-722.850	-90.680	-0.020	-0.006
-721.835	-65.672	-0.194	-0.078
-720.821	-138.482	-0.102	-0.011
-719.806	-91.993	0.166	-0.047
-718.791	800.000	-0.053	0.206
-717.777	5.713	-0.261	-0.194
-716.762	-200.000	-0.007	-0.041
-715.748	-158.746	-0.027	-0.002
-714.733	706.213	-0.024	0.065
-713.718	12.920	0.117	-0.091
-712.704	235.432	-0.130	-0.216
-711.689	558.806	0.144	0.349
-710.675	672.396	-0.023	-0.059
-709.660	800.000	0.072	0.226
-708.645	129.782	0.201	-0.258
-707.631	-200.000	0.044	-0.377
-706.616	-190.116	-0.324	0.004
-705.602	-26.702	0.363	-0.213
-704.587	18.696	0.201	-0.162
-703.572	-33.899	0.072	-0.040
-702.558	445.924	0.173	-0.380
-701.543	68.515	0.166	0.171
-700.529	-58.109	0.119	-0.052
-699.514	54.642	-0.231	-0.224
-698.499	800.000	0.106	-0.322
-697.485	-56.883	0.102	-0.045
-696.470	-144.567	-0.243	-0.023
-695.456	-200.000	0.025	0.143
-694.441	161.640	-0.146	0.206
-693.426	-12.673	-0.426	0.279
-692.412	183.782	0.073	-0.108
-691.397	-167.966	-0.369	0.015
-690.383	-129.586	0.175	0.024
-689.368	-200.000	-0.016	-0.129
-688.354	-110.951	0.090	-0.018
-687.339	-70.162	0.216	-0.082
-686.324	-163.104	-0.146	-0.007
-685.310	390.896	0.102	0.213
-684.295	-100.655	-0.342	0.085
-683.281	800.000	-0.089	0.324
-682.266	-28.488	0.243	-0.140
-681.251	-73.914	-0.496	-0.181
-680.237	65.525	0.071	-0.072
-679.222	767.064	-0.095	-0.258
-678.208	494.082	0.088	-0.203
-677.193	-26.387	-0.151	0.089
-676.178	-181.560	0.180	-0.004
-675.164	-65.021	-0.213	-0.086
-674.149	-52.406	0.334	-0.155
-673.135	-38.057	0.412	-0.219
-672.120	-109.001	-0.197	0.042
-671.105	-92.999	-0.358	0.100
-670.091	-200.000	-0.029	0.151
-669.076	-200.000	-0.006	-0.117
-668.062	-160.555	-0.115	-0.006
-667.047	-24.613	0.074	0.044
-666.032	308.504	0.041	0.076
-665.018	-63.956	-0.249	-0.102
-664.003	-116.716	0.582	0.107
-662.989	132.380	-0.170	0.220
-661.974	-200.000	0.020	0.141
-660.959	-192.451	-0.289	-0.003
-659.945	800.000	0.041	0.122
-658.930	-18.869	-0.204	-0.128
-657.916	400.727	-0.159	-0.334
-656.901	207.636	0.164	-0.256
-655.886	-103.840	-0.160	0.037
-654.872	-200.000	0.071	-0.413
-653.857	800.000	0.077	-0.226
-652.843	8.606	0.241	-0.182
-651.828	800.000	0.074	-0.228
-650.814	-94.977	0.234	0.063
-649.799	203.313	-0.070	0.108
-648.784	-73.055	0.146	0.054
-647.770	-18.428	0.075	0.047
-646.755	-52.077	-0.231	-0.108
-645.741	435.743	-0.139	-0.303
-644.726	40.032	-0.168	-0.151
-643.711	379.078	0.037	0.076
-642.697	-72.702	0.085	-0.032
-641.682	51.969	0.109	0.103
-640.668	269.036	0.137	-0.241
-639.653	-46.257	-0.316	-0.156
-638.638	800.000	0.123	-0.410
-637.624	794.415	0.028	-0.078
-636.609	-73.351	-0.177	-0.065
-635.595	32.560	0.093	0.080
-634.580	15.333	0.303	-0.238
-633.565	42.741	-0.323	0.294
-632.551	-148.206	-0.347	-0.029
-631.536	408.759	-0.141	0.298
-630.522	-148.715	-0.403	0.033
-629.507	-68.949	0.084	-0.032
-628.492	-60.406	0.309	-0.131
-627.478	494.746	0.127	0.292
-626.463	192.668	-0.170	-0.256
-625.449	294.241	-0.081	-0.148
-624.434	-96.014	-0.076	0.020
-623.419	322.602	-0.110	-0.209
-622.405	-125.786	0.107	0.016
-621.390	-80.217	-0.075	-0.025
-620.376	-88.704	-0.187	0.056
-619.361	-118.455	-0.132	0.023
-618.346	44.477	0.097	-0.089
-617.332	373.963	-0.146	0.297
-616.317	33.938	0.217	0.189
-615.303	800.000	-0.024	-0.066
-614.288	-32.229	-0.055	0.031
-613.273	-14.341	0.171	-0.110
-612.259	800.000	0.061	0.238
-611.244	85.258	-0.236	0.259
-610.230	-200.000	0.018	-0.419
-609.215	-27.539	0.059	-0.035
-608.201	800.000	-0.046	-0.171
-607.186	44.265	-0.292	-0.268
-606.171	-99.135	0.082	0.021
-605.157	329.293	-0.146	-0.281
-604.142	-200.000	0.002	-0.073
-603.128	163.739	0.080	-0.113
-602.113	-200.000	0.012	-0.063
-601.098	738.517	0.019	-0.051
-600.084	800.000	-0.059	-0.183
-599.069	-165.290	0.410	-0.018
-598.055	-35.790	0.157	-0.085
-597.040	-83.424	-0.233	0.075
-596.025	-200.000	-0.020	-0.167
-595.011	-61.237	0.085	-0.036
-593.996	-131.575	-0.120	-0.016
-592.982	-61.933	-0.179	-0.075
-591.967	305.502	-0.084	-0.155
-590.952	-70.868	-0.036	-0.013
-589.938	-200.000	0.030	-0.136
-588.923	-13.241	-0.216	0.140
-587.909	-190.190	0.130	0.001
-586.894	-200.000	0.018	0.110
-585.879	-44.865	-0.118	-0.059
-584.865	45.644	0.274	0.253
-583.850	272.712	-0.087	-0.153
-582.836	-172.654	0.252	0.008
-581.821	227.173	0.031	-0.051
-580.806	-33.626	-0.127	-0.070
-579.792	44.485	-0.291	-0.267
-578.777	-109.962	0.281	-0.059
-577.763	800.000	0.105	-0.341
-576.748	182.474	0.054	-0.079
-575.733	-143.727	-0.117	0.011
-574.719	108.699	-0.179	0.213
-573.704	-200.000	0.001	0.245
-572.690	-200.000	-0.027	0.130
-571.675	-200.000	0.030	0.196
-570.661	98.322	-0.072	-0.083
-569.646	-26.501	-0.101	0.059
-568.631	800.000	0.131	-0.362
-567.617	-116.677	0.212	0.039
-566.602	-128.544	-0.166	0.024
-565.588	313.990	-0.052	0.098
-564.573	344.762	-0.130	-0.254
-563.558	14.168	0.268	-0.208
-562.544	445.063	-0.135	0.296
-561.529	-53.110	-0.144	0.066
-560.515	6.206	0.162	-0.120
-559.500	-19.406	-0.256	0.158
-558.485	77.676	-0.165	-0.176
-557.471	-200.000	0.035	0.403
-556.456	-200.000	0.033	0.261
-555.442	-67.872	0.108	-0.042
-554.427	-91.341	-0.102	-0.029
-553.412	68.643	-0.035	-0.035
-552.398	-107.485	-0.138	-0.030
-551.383	800.000	0.013	-0.047
-550.369	108.152	-0.098	0.116
-549.354	-104.455	-0.244	-0.056
-548.339	-54.385	0.116	0.053
-547.325	-39.352	-0.203	-0.106
-546.310	23.449	0.159	0.130
-545.296	445.690	0.067	-0.146
-544.281	208.075	-0.063	-0.098
-543.266	-118.755	0.168	0.029
-542.252	408.664	0.123	0.259
-541.237	-162.760	0.193	-0.009
-540.223	3.410	0.099	0.072
-539.208	159.766	-0.156	-0.217
-538.193	-3.866	0.186	0.129
-537.179	-162.045	-0.242	0.012
-536.164	-135.010	0.255	-0.031
-535.150	129.279	0.233	0.296
-534.135	-65.451	0.051	0.020
-533.121	800.000	0.076	-0.214
-532.106	18.566	-0.109	-0.087
-531.091	732.628	0.148	-0.395
-530.077	-200.000	-0.012	0.135
-529.062	-16.820	0.127	-0.080
-528.048	-34.355	-0.161	-0.088
-527.033	-2.862	0.141	0.098
-526.018	299.088	-0.112	-0.205
-525.004	68.647	0.053	-0.054
-523.989	37.797	0.345	-0.306
-522.975	-22.817	0.360	0.217
-521.960	-3.807	-0.062	-0.043
-520.945	-34.081	-0.280	0.153
-519.931	-87.043	-0.193	-0.059
-518.916	2.569	0.075	0.054
-517.902	-131.023	-0.161	-0.021
-516.887	-200.000	-0.000	0.114
-515.872	-200.000	-0.006	0.086
-514.858	305.686	-0.061	0.113
-513.843	-72.488	0.166	-0.061
-512.829	198.033	0.072	-0.109
-511.814	55.020	0.110	0.106
-510.799	-136.028	-0.197	-0.023
-509.785	-200.000	-0.008	0.282
-508.770	-55.318	0.281	-0.126
-507.756	800.000	-0.037	-0.155
-506.741	256.925	-0.037	0.063
-505.726	-129.230	0.036	0.005
-504.712	25.746	-0.108	0.090
-503.697	554.245	0.098	-0.234
-502.683	51.983	0.234	0.222
-501.668	-200.000	0.006	0.123
-500.653	65.189	0.079	0.080
-499.639	675.174	-0.077	0.199
-498.624	-106.469	0.022	0.005
-497.610	-200.000	-0.053	0.269
-496.595	65.439	0.149	0.150
-495.581	67.824	-0.031	0.032
-494.566	800.000	-0.023	0.080
-493.551	-200.000	0.300	0.000
-492.537	-52.059	-0.309	-0.143
-491.522	-70.881	0.268	0.101
-490.508	-129.333	0.068	-0.009
-489.493	147.521	-0.146	-0.196
-488.478	5.064	0.040	-0.029
-487.464	-95.423	0.236	-0.063
-486.449	-19.211	-0.007	-0.004
-485.435	-200.000	0.039	-0.209
-484.420	37.662	-0.088	-0.078
-483.405	-136.329	0.186	0.022
-482.391	-200.000	-0.003	0.268
-481.376	-27.344	-0.158	-0.092
-480.362	110.747	-0.222	0.266
-479.347	21.658	-0.320	0.259
-478.332	92.735	-0.159	-0.178
-477.318	-192.353	-0.247	-0.002
-476.303	800.000	-0.034	-0.144
-475.289	800.000	-0.062	0.269
-474.274	325.288	0.095	0.181
-473.259	458.597	-0.065	-0.143
-472.245	-117.982	0.122	0.022
-471.230	-95.397	-0.054	0.014
-470.216	-70.307	-0.099	-0.037
-469.201	-200.000	-0.029	0.385
-468.186	55.156	0.048	0.046
-467.172	-171.931	0.182	-0.006
-466.157	-135.154	-0.326	0.039
-465.143	800.000	0.040	0.137
-464.128	-66.906	0.228	0.090
-463.113	-10.641	0.117	0.077
-462.099	-200.000	0.012	0.162
-461.084	800.000	0.038	0.122
-460.070	118.314	-0.123	0.151
-459.055	800.000	-0.145	-0.437
-458.040	-200.000	-0.007	-0.175
-457.026	-63.487	-0.181	0.074
-456.011	465.976	-0.093	0.207
-454.997	39.407	0.101	0.090
-453.982	-200.000	-0.026	0.133
-452.968	-121.015	-0.130	-0.022
-451.953	-200.000	0.002	0.068
-450.938	-61.371	-0.145	-0.061
-449.924	-38.458	-0.359	-0.189
-448.909	205.102	-0.101	-0.157
-447.895	-75.398	-0.093	-0.033
-446.880	55.613	-0.218	0.210
-445.865	297.567	0.065	0.119
-444.851	10.259	-0.221	-0.167
-443.836	-79.107	-0.390	0.131
-442.822	-186.277	0.357	-0.005
-441.807	-162.377	-0.165	0.008
-440.792	-158.349	-0.165	0.010
-439.778	212.564	0.328	0.514
-438.763	-200.000	0.020	-0.143
-437.749	-59.002	-0.104	-0.044
-436.734	121.761	-0.088	-0.109
-435.719	127.400	-0.172	0.217
-434.705	169.866	0.025	-0.035
-433.690	391.047	0.054	0.111
-432.676	-87.947	0.218	0.065
-431.661	39.266	0.220	0.195
-430.646	-85.383	-0.166	0.051
-429.632	90.408	-0.122	-0.136
-428.617	78.115	0.333	-0.353
-427.603	-200.000	0.003	-0.098
-426.588	245.408	0.060	-0.100
-425.573	-14.015	0.137	0.088
-424.559	-167.681	0.157	-0.006
-423.544	-120.560	0.151	0.025
-422.530	-46.651	-0.116	-0.057
-421.515	-200.000	0.081	0.406
-420.500	-200.000	0.013	0.174
-419.486	64.066	-0.291	0.290
-418.471	-200.000	-0.053	0.374
-417.457	168.478	0.142	0.201
-416.442	-53.072	-0.216	0.099
-415.428	-54.152	-0.179	-0.081
-414.413	-25.565	0.070	-0.041
-413.398	-94.009	0.386	0.105
-412.384	-56.452	-0.180	-0.079
-411.369	31.947	0.247	-0.212
-410.355	311.303	-0.063	0.118
-409.340	800.000	-0.073	-0.230
-408.325	-200.000	-0.027	-0.153
-407.311	489.592	0.062	-0.140
-406.296	-70.768	-0.177	-0.066
-405.282	-200.000	-0.065	0.344
-404.267	79.488	-0.264	-0.281
-403.252	159.217	-0.079	-0.109
-402.238	-49.954	0.315	-0.148
-401.223	800.000	0.067	-0.217
-400.209	196.680	0.203	-0.306
-399.194	800.000	0.057	-0.194
-398.179	-200.000	-0.005	0.198
-397.165	800.000	-0.052	0.196
-396.150	-98.320	0.364	-0.093
-395.136	57.846	-0.142	-0.138
-394.121	35.947	0.144	-0.126
-393.106	86.475	-0.158	0.172
-392.092	-46.147	0.054	0.026
-391.077	-200.000	-0.005	0.178
-390.063	16.808	-0.055	0.043
-389.048	-200.000	-0.011	0.098
-388.033	100.300	-0.096	-0.110
-387.019	-118.677	0.296	-0.052
-386.004	800.000	0.093	-0.336
-384.990	-110.764	0.313	0.064
-383.975	258.395	-0.069	-0.117
-382.960	14.413	0.292	-0.226
-381.946	-38.540	-0.158	-0.083
-380.931	128.256	-0.209	-0.263
-379.917	202.009	-0.071	0.108
-378.902	-98.091	-0.142	-0.036
-377.888	-200.000	0.001	-0.087
-376.873	-97.664	0.261	-0.067
-375.858	313.330	0.035	-0.065
-374.844	-200.000	0.002	0.019
-373.829	-111.479	0.169	0.034
-372.815	155.820	0.235	-0.321
-371.800	-55.268	0.067	0.030
-370.785	-62.155	-0.267	0.110
-369.771	-200.000	-0.087	0.515
-368.756	-45.904	0.159	0.078
-367.742	-46.272	-0.253	0.123
-366.727	-79.309	0.268	0.090
-365.712	-35.755	0.169	0.091
-364.698	77.974	-0.173	-0.183
-363.683	-200.000	0.004	-0.149
-362.669	-159.394	0.154	-0.009
-361.654	-6.240	-0.056	-0.038
-360.639	-42.145	-0.309	0.157
-359.625	102.713	-0.062	-0.071
-358.610	800.000	0.070	0.202
-357.596	-200.000	-0.018	0.397
-356.581	187.075	-0.107	-0.158
-355.566	-200.000	-0.028	-0.410
-354.552	-57.595	-0.123	-0.053
-353.537	-108.461	-0.073	0.015
-352.523	265.406	-0.049	0.085
-351.508	34.859	-0.165	0.143
-350.493	-101.551	0.184	0.044
-349.479	-121.242	0.140	0.023
-348.464	67.315	0.077	-0.078
-347.450	-101.905	0.304	-0.073
-346.435	-4.909	0.073	0.050
-345.420	538.917	0.095	-0.224
-344.406	-29.545	-0.264	-0.149
-343.391	137.369	0.086	0.112
-342.377	-10.220	-0.158	0.104
-341.362	800.000	0.051	0.177
-340.348	219.854	0.088	-0.139
-339.333	-100.690	-0.137	-0.033
-338.318	800.000	0.031	0.105
-337.304	270.994	0.133	-0.232
-336.289	-9.908	-0.114	-0.075
-335.275	-200.000	-0.018	-0.151
-334.260	330.202	-0.102	0.195
-333.245	27.298	-0.109	0.091
-332.231	160.978	-0.150	0.207
-331.216	-66.180	0.314	0.124
-330.202	800.000	-0.076	0.210
-329.187	46.850	-0.195	-0.179
-328.172	310.727	-0.172	-0.319
-327.158	237.366	-0.237	-0.388
-326.143	-26.916	-0.210	-0.121
-325.129	-105.981	-0.266	0.059
-324.114	-200.000	0.010	0.181
-323.099	172.122	0.116	-0.165
-322.085	-88.297	0.212	-0.063
-321.070	-177.079	0.302	0.007
-320.056	182.534	0.167	-0.243
-319.041	516.351	0.093	0.214
-318.026	-157.049	0.344	0.021
-317.012	67.929	-0.170	0.171
-315.997	-200.000	-0.014	-0.198
-314.983	-29.321	0.155	0.087
-313.968	-35.052	-0.248	0.133
-312.953	444.126	-0.031	0.067
-311.939	289.052	-0.093	0.167
-310.924	204.623	0.320	0.491
-309.910	325.738	-0.042	0.079
-308.895	-200.000	0.020	-0.092
-307.880	800.000	0.028	-0.119
-306.866	800.000	0.082	-0.223
-305.851	-200.000	0.033	0.150
-304.837	800.000	0.019	-0.080
-303.822	181.620	-0.124	0.180
-302.807	-131.161	-0.340	-0.045
-301.793	72.992	0.060	-0.062
-300.778	-200.000	0.028	-0.343
-299.764	-154.586	-0.425	0.028
-298.749	-200.000	0.051	0.245
-297.735	-200.000	0.014	-0.166
-296.720	276.561	-0.068	-0.120
-295.705	-6.983	0.170	-0.114
-294.691	-31.794	0.101	0.056
-293.676	800.000	-0.104	-0.418
-292.662	-200.000	-0.024	-0.181
-291.647	454.821	0.121	0.264
-290.632	320.339	0.114	0.213
-289.618	-35.808	0.216	0.115
-288.603	-94.232	-0.239	0.064
-287.589	-160.537	-0.309	0.016
-286.574	-50.015	0.174	0.081
-285.559	-45.578	-0.374	0.183
-284.545	-114.259	0.392	-0.075
-283.530	-12.546	0.154	0.099
-282.516	2.227	0.249	-0.177
-281.501	752.636	-0.020	0.053
-280.486	243.213	-0.078	-0.130
-279.472	-200.000	0.020	-0.177
-278.457	-114.330	0.217	-0.041
-277.443	-78.494	0.234	0.079
-276.428	-200.000	0.033	-0.189
-275.413	-78.118	0.299	0.102
-274.399	-76.103	-0.366	0.128
-273.384	88.088	-0.031	-0.033
-272.370	-182.346	0.108	0.002
-271.355	-85.295	-0.460	0.142
-270.340	800.000	0.006	-0.017
-269.326	-162.396	0.181	0.009
-268.311	412.574	0.075	0.156
-267.297	-200.000	-0.016	0.166
-266.282	-4.029	-0.145	-0.099
-265.267	161.127	-0.084	-0.116
-264.253	-78.466	-0.048	0.016
-263.238	-27.367	-0.089	-0.051
-262.224	35.604	-0.237	0.205
-261.209	-200.000	0.008	-0.082
-260.195	-200.000	0.006	0.217
-259.180	-19.220	0.252	0.155
-258.165	23.966	-0.167	-0.136
-257.151	74.751	0.244	0.253
-256.136	-200.000	0.022	-0.169
-255.122	-151.955	-0.219	-0.016
-254.107	-139.342	-0.536	0.057
-253.092	39.191	-0.417	0.368
-252.078	800.000	0.087	0.245
-251.063	-173.562	0.197	-0.006
-250.049	260.108	0.052	-0.089
-249.034	385.539	-0.012	-0.024
-248.019	276.705	-0.129	0.225
-247.005	-161.934	0.255	0.013
-245.990	-200.000	0.029	0.410
-244.976	-141.041	0.323	0.033
-243.961	75.414	0.188	0.196
-242.946	-113.019	0.272	0.053
-241.932	257.551	0.141	0.239
-240.917	112.416	0.125	-0.149
-239.903	-200.000	-0.000	-0.135
-238.888	-200.000	0.047	-0.317
-237.873	-200.000	-0.020	0.182
-236.859	-78.883	0.248	0.083
-235.844	-68.294	0.087	-0.033
-234.830	-98.856	-0.082	0.021
-233.815	-200.000	0.000	-0.362
-232.800	-79.713	0.347	-0.115
-231.786	13.261	0.073	0.056
-230.771	-27.423	0.108	0.062
-229.757	-68.355	-0.113	-0.043
-228.742	-16.225	-0.237	0.148
-227.727	-59.470	-0.221	-0.093
-226.713	168.603	0.024	0.034
-225.698	3.386	0.124	-0.089
-224.684	-200.000	-0.011	-0.096
-223.669	-76.158	-0.158	0.055
-222.655	-146.228	0.087	0.008
-221.640	227.990	-0.081	0.130
-220.625	-149.076	0.354	0.028
-219.611	-199.074	-0.066	0.000
-218.596	-78.342	-0.277	0.094
-217.582	-10.444	0.252	-0.165
-216.567	271.512	0.090	-0.156
-215.552	19.043	0.217	-0.171
-214.538	-31.946	-0.128	0.071
-213.523	-200.000	-0.014	0.097
-212.509	-86.004	-0.284	0.086
-211.494	53.988	-0.078	0.074
-210.479	40.313	0.157	-0.139
-209.465	98.065	0.147	0.167
-208.450	-200.000	-0.042	0.209
-207.436	-70.104	0.253	-0.095
-206.421	-137.504	-0.393	0.044
-205.406	-200.000	-0.369	0.000
-204.392	-200.000	0.029	-0.220
-203.377	395.862	-0.051	-0.104
-202.363	-200.000	0.015	-0.109
-201.348	125.905	-0.186	0.232
-200.333	-18.515	-0.365	-0.224
-199.319	-200.000	-0.001	0.073
-198.304	-149.602	0.032	0.002
-197.290	387.520	-0.054	-0.109
-196.275	229.521	0.085	-0.136
-195.260	-96.757	0.370	-0.096
-194.246	244.755	-0.034	-0.057
-193.231	81.446	0.149	0.159
-192.217	222.524	-0.109	0.172
-191.202	-191.068	0.096	-0.001
-190.187	800.000	-0.056	-0.190
-189.173	147.995	-0.256	0.339
-188.158	43.347	-0.147	-0.132
-187.144	-41.856	-0.131	-0.066
-186.129	800.000	-0.058	0.196
-185.114	7.890	0.243	-0.179
-184.100	-137.829	0.227	-0.025
-183.085	-200.000	0.043	-0.256
-182.071	800.000	0.012	-0.035
-181.056	-93.272	0.309	0.084
-180.042	-178.457	0.180	0.004
-179.027	89.889	-0.202	0.222
-178.012	-117.703	0.180	0.032
-176.998	-65.140	-0.263	-0.104
-175.983	-19.996	0.216	-0.131
-174.969	-200.000	-0.019	-0.275
-173.954	-166.705	0.074	-0.003
-172.939	-200.000	0.004	-0.047
-171.925	98.663	0.177	-0.201
-170.910	-57.357	0.229	-0.099
-169.896	94.525	0.055	-0.061
-168.881	179.789	0.070	-0.101
-167.866	-200.000	0.026	-0.143
-166.852	-97.958	0.425	-0.108
-165.837	-31.925	0.067	0.037
-164.823	-24.386	0.114	0.067
-163.808	-200.000	0.001	-0.182
-162.793	-74.278	0.136	0.048
-161.779	-161.236	-0.114	-0.006
-160.764	800.000	0.154	-0.454
-159.750	-200.000	0.008	0.199
-158.735	325.454	-0.098	0.184
-157.720	11.407	0.128	0.096
-156.706	31.400	-0.163	-0.137
-155.691	800.000	0.061	0.205
-154.677	43.954	-0.174	0.157
-153.662	-120.983	-0.278	-0.046
-152.647	-200.000	0.003	0.275
-151.633	105.560	-0.219	0.254
-150.618	-65.592	-0.130	-0.051
-149.604	800.000	-0.052	-0.200
-148.589	-142.372	-0.344	0.033
-147.574	-110.929	-0.508	0.103
-146.560	800.000	0.087	0.256
-145.545	-200.000	0.005	0.214
-144.531	404.157	0.098	-0.203
-143.516	183.839	0.138	-0.200
-142.502	-129.489	-0.233	-0.032
-141.487	-200.000	-0.009	0.076
-140.472	-200.000	-0.013	0.329
-139.458	800.000	0.075	0.240
-138.443	71.964	0.224	-0.229
-137.429	-107.484	0.369	0.079
-136.414	-200.000	0.024	-0.167
-135.399	-127.176	-0.252	-0.036
-134.385	800.000	0.116	0.428
-133.370	93.896	0.093	0.103
-132.356	-116.114	-0.059	0.011
-131.341	-112.390	-0.171	0.033
-130.326	-200.000	0.005	0.047
-129.312	-170.091	0.401	-0.014
-128.297	649.592	-0.060	-0.151
-127.283	-136.118	0.115	-0.013
-126.268	298.410	-0.063	-0.113
-125.253	-195.522	0.180	0.001
-124.239	114.457	0.085	-0.101
-123.224	-32.564	0.237	-0.129
-122.210	-200.000	-0.075	0.336
