DTS Sentinel unit serial number:	SN413079Multiplexer serial number:	ORYXHardware model number:	OX4-SRSoftware version number:	ORYX F/W v4.00 Oryx Data Collector v3.7.2.0data status	okinstallation	princeton_trtdifferential loss correction	single-endedforward channel	channel 1reverse channel	N/Adate	2019/09/17time	09:50:35forward acquisition time	60.00reverse acquisition time	0.00gamma	496.2192k internal	0.2323k external	0.2323temperature offset calibration	0.9961default loss term (dB/km)	0.3790temperature slope calibration	1.0000multiplexer offset coefficient	1.0000multiplexer slope coefficient	1.0000fibre end	0.00T internal ref (°C)	29.44T ext. ref 1 (°C)	0.17T ext. ref 2 (°C)	25.35length (m)	temperature (°C)	Stokes	anti-Stokes-747.200	800.000	0.048	0.209
-746.185	-177.748	-0.103	0.003
-745.171	14.583	0.074	-0.059
-744.156	-86.646	-0.288	0.089
-743.142	95.853	0.128	0.148
-742.127	64.614	-0.052	-0.053
-741.112	72.373	-0.056	0.059
-740.098	-103.182	-0.355	0.085
-739.083	-103.345	-0.070	-0.017
-738.069	432.521	0.082	0.181
-737.054	649.438	-0.059	-0.153
-736.039	-117.057	-0.281	0.052
-735.025	-77.495	0.415	-0.145
-734.010	-200.000	-0.069	-0.351
-732.996	155.040	-0.050	-0.069
-731.981	456.594	0.117	0.263
-730.966	303.467	0.121	0.226
-729.952	78.417	-0.233	-0.251
-728.937	-185.744	-0.205	-0.003
-727.923	-112.947	-0.240	-0.048
-726.908	-11.213	-0.323	-0.215
-725.894	-76.151	-0.175	-0.062
-724.879	307.904	0.040	0.075
-723.864	38.732	0.236	-0.213
-722.850	-102.070	-0.435	-0.106
-721.835	5.398	0.177	-0.132
-720.821	45.938	-0.126	-0.117
-719.806	-200.000	0.013	-0.365
-718.791	-95.256	0.095	0.026
-717.777	-127.990	0.088	-0.013
-716.762	-77.757	0.135	-0.047
-715.748	-117.696	0.290	-0.053
-714.733	89.504	0.065	0.073
-713.718	800.000	-0.083	-0.308
-712.704	-43.884	0.174	0.088
-711.689	-120.878	-0.356	-0.060
-710.675	-54.232	-0.168	0.077
-709.660	-200.000	0.007	-0.100
-708.645	-110.205	-0.371	0.078
-707.631	800.000	-0.073	-0.271
-706.616	-2.999	-0.128	-0.090
-705.602	-126.678	-0.215	-0.032
-704.587	592.583	0.059	0.147
-703.572	-72.189	-0.239	0.089
-702.558	-123.101	-0.045	0.007
-701.543	-43.254	0.384	-0.196
-700.529	-200.000	-0.015	-0.161
-699.514	-200.000	0.014	0.137
-698.499	-6.792	-0.190	-0.130
-697.485	-164.477	0.233	-0.011
-696.470	800.000	-0.115	0.397
-695.456	61.426	0.113	0.113
-694.441	-200.000	-0.012	0.173
-693.426	-113.413	0.360	0.071
-692.412	45.822	0.045	0.042
-691.397	106.521	-0.058	-0.069
-690.383	33.922	-0.095	0.083
-689.368	-79.885	-0.312	0.106
-688.354	-107.541	0.154	-0.034
-687.339	-108.574	0.115	-0.025
-686.324	193.441	-0.149	0.227
-685.310	800.000	0.047	-0.153
-684.295	-200.000	-0.033	0.171
-683.281	289.915	-0.118	0.216
-682.266	-128.415	0.464	-0.066
-681.251	-81.649	0.293	0.097
-680.237	568.079	-0.020	-0.049
-679.222	-37.906	-0.070	0.037
-678.208	-138.623	-0.083	-0.009
-677.193	242.241	-0.120	0.202
-676.178	-200.000	-0.006	-0.148
-675.164	114.450	0.137	-0.168
-674.149	-58.073	0.090	-0.040
-673.135	-33.549	0.203	0.113
-672.120	467.498	0.007	0.016
-671.105	399.222	0.081	0.170
-670.091	-163.870	-0.243	-0.011
-669.076	205.437	-0.074	0.115
-668.062	329.752	-0.034	0.066
-667.047	-200.000	-0.039	-0.359
-666.032	-71.649	-0.058	0.022
-665.018	-42.188	0.172	-0.089
-664.003	800.000	0.032	-0.133
-662.989	-9.233	0.081	0.055
-661.974	180.299	-0.128	0.189
-660.959	-129.053	-0.327	-0.046
-659.945	49.001	-0.120	-0.113
-658.930	-145.678	0.089	-0.008
-657.916	-200.000	-0.042	-0.202
-656.901	728.609	-0.011	-0.031
-655.886	181.942	-0.201	-0.297
-654.872	129.324	0.036	0.047
-653.857	800.000	-0.051	-0.145
-652.843	60.645	-0.279	-0.278
-651.828	416.614	0.173	0.372
-650.814	60.813	-0.358	-0.357
-649.799	106.231	-0.077	0.092
-648.784	22.491	0.278	0.228
-647.770	-87.582	0.293	0.089
-646.755	98.490	-0.142	0.165
-645.741	41.520	0.123	-0.112
-644.726	44.954	0.172	-0.159
-643.711	604.447	0.140	-0.349
-642.697	289.489	0.013	0.024
-641.682	9.468	-0.281	-0.214
-640.668	-79.315	-0.095	0.033
-639.653	-200.000	-0.010	-0.059
-638.638	-49.780	0.091	-0.044
-637.624	23.423	-0.078	-0.065
-636.609	750.479	-0.061	0.165
-635.595	150.796	0.062	0.085
-634.580	-14.613	-0.186	0.120
-633.565	124.095	-0.150	-0.189
-632.551	-132.047	-0.124	0.016
-631.536	97.770	0.117	-0.136
-630.522	382.610	0.088	-0.181
-629.507	399.119	-0.130	0.274
-628.492	90.100	0.170	0.191
-627.478	8.607	0.235	-0.178
-626.463	-119.876	0.064	-0.011
-625.449	-99.188	-0.230	-0.058
-624.434	-36.677	0.164	0.088
-623.419	800.000	-0.042	0.142
-622.405	-200.000	0.031	0.376
-621.390	783.122	-0.151	-0.416
-620.376	30.378	-0.095	-0.082
-619.361	-106.375	-0.282	-0.063
-618.346	433.763	0.060	-0.131
-617.332	-56.251	-0.488	-0.218
-616.317	38.569	-0.112	-0.101
-615.303	-111.304	-0.329	-0.068
-614.288	-92.882	-0.319	-0.090
-613.273	800.000	-0.033	-0.143
-612.259	-200.000	0.024	0.424
-611.244	31.265	0.228	0.197
-610.230	-120.124	-0.301	-0.052
-609.215	226.228	0.062	-0.102
-608.201	-177.169	-0.178	-0.004
-607.186	404.522	0.084	-0.177
-606.171	-87.563	0.163	-0.050
-605.157	800.000	-0.068	-0.193
-604.142	-26.834	-0.198	0.116
-603.128	152.407	-0.248	0.340
-602.113	176.579	-0.226	-0.331
-601.098	-123.911	0.074	-0.012
-600.084	4.928	-0.084	-0.062
-599.069	-94.070	-0.050	0.014
-598.055	152.765	0.084	-0.115
-597.040	-60.820	0.124	-0.053
-596.025	141.172	0.266	0.353
-595.011	-200.000	0.022	-0.349
-593.996	-72.519	0.144	0.054
-592.982	766.752	0.089	-0.243
-591.967	-200.000	-0.000	0.107
-590.952	-45.583	-0.219	0.109
-589.938	-118.999	-0.359	-0.063
-588.923	-200.000	-0.001	0.268
-587.909	-76.091	0.075	-0.026
-586.894	159.918	-0.101	-0.141
-585.879	-171.456	0.324	0.011
-584.865	21.519	0.232	-0.189
-583.850	628.497	-0.080	-0.203
-582.836	254.670	-0.133	-0.228
-581.821	-55.214	-0.089	-0.040
-580.806	800.000	0.019	0.069
-579.792	413.346	0.066	0.140
-578.777	124.786	0.056	-0.071
-577.763	124.583	-0.068	-0.086
-576.748	-24.742	-0.318	0.190
-575.733	37.332	-0.143	-0.127
-574.719	675.217	-0.054	-0.140
-573.704	3.294	0.020	-0.015
-572.690	-6.992	-0.151	-0.103
-571.675	-200.000	-0.036	-0.245
-570.661	589.306	-0.152	-0.376
-569.646	548.987	0.111	-0.266
-568.631	-2.305	0.166	-0.117
-567.617	-35.784	-0.063	-0.034
-566.602	153.393	-0.079	0.109
-565.588	343.168	-0.027	0.052
-564.573	171.812	0.075	-0.108
-563.558	-49.964	-0.151	0.072
-562.544	-59.456	0.077	0.033
-561.529	-25.381	0.103	-0.061
-560.515	-9.785	-0.210	0.140
-559.500	-11.406	-0.130	-0.086
-558.485	200.284	-0.088	0.135
-557.471	426.075	0.292	-0.632
-556.456	339.743	-0.093	-0.183
-555.442	-200.000	0.024	0.246
-554.427	122.264	-0.116	-0.145
-553.412	2.933	-0.133	0.097
-552.398	800.000	-0.018	-0.064
-551.383	206.535	0.224	-0.349
-550.369	205.159	-0.135	-0.210
-549.354	-85.104	0.057	0.018
-548.339	-59.129	-0.196	-0.085
-547.325	73.598	0.293	-0.307
-546.310	90.639	0.368	-0.413
-545.296	544.193	-0.146	0.349
-544.281	370.813	-0.049	-0.100
-543.266	260.339	-0.234	-0.405
-542.252	-132.834	-0.358	-0.046
-541.237	331.821	0.059	0.114
-540.223	800.000	0.084	-0.304
-539.208	32.539	-0.099	0.086
-538.193	-106.239	-0.036	0.008
-537.179	-1.800	-0.032	0.022
-536.164	-42.953	-0.132	0.067
-535.150	-183.285	-0.389	0.007
-534.135	-74.957	0.112	-0.040
-533.121	-109.315	-0.038	-0.008
-532.106	86.521	-0.075	0.083
-531.091	503.602	0.115	0.266
-530.077	-57.003	0.225	-0.100
-529.062	-200.000	0.026	-0.241
-528.048	20.668	-0.129	0.104
-527.033	255.299	-0.098	0.168
-526.018	-134.151	0.255	-0.031
-525.004	-124.647	-0.128	-0.020
-523.989	800.000	-0.059	0.235
-522.975	-104.146	-0.208	-0.048
-521.960	271.818	-0.212	0.374
-520.945	311.103	0.057	-0.107
-519.931	-200.000	0.034	-0.309
-518.916	77.986	-0.351	-0.375
-517.902	-143.739	0.097	0.009
-516.887	40.544	0.193	-0.174
-515.872	169.085	-0.201	-0.288
-514.858	-14.124	0.310	0.200
-513.843	-2.596	0.090	-0.063
-512.829	800.000	0.059	-0.179
-511.814	34.788	-0.207	-0.181
-510.799	44.978	0.135	-0.124
-509.785	231.112	0.136	0.223
-508.770	-25.959	0.127	0.075
-507.756	-28.198	-0.152	-0.088
-506.741	-90.960	0.167	-0.048
-505.726	101.013	0.108	0.126
-504.712	-26.532	0.086	0.050
-503.697	-200.000	0.013	0.387
-502.683	-12.919	-0.300	0.196
-501.668	-26.428	0.094	-0.055
-500.653	800.000	0.071	-0.209
-499.639	257.232	-0.235	0.404
-498.624	88.890	0.022	0.024
-497.610	-8.672	0.343	-0.230
-496.595	6.738	-0.306	-0.228
-495.581	-141.418	-0.360	-0.037
-494.566	800.000	0.032	-0.105
-493.551	-10.221	0.346	-0.230
-492.537	-29.909	-0.411	0.234
-491.522	-42.025	-0.174	0.089
-490.508	-98.286	-0.242	-0.062
-489.493	351.558	0.076	0.150
-488.478	800.000	0.116	-0.479
-487.464	78.253	0.217	-0.232
-486.449	-160.858	0.380	0.020
-485.435	79.845	-0.258	-0.278
-484.420	-170.997	0.227	0.008
-483.405	587.418	-0.125	-0.307
-482.391	800.000	-0.050	-0.162
-481.376	101.467	0.120	-0.140
-480.362	44.087	-0.033	-0.030
-479.347	55.354	-0.431	-0.417
-478.332	546.122	-0.070	0.166
-477.318	-61.150	-0.154	-0.065
-476.303	-200.000	0.001	-0.139
-475.289	800.000	0.037	-0.134
-474.274	427.500	-0.106	-0.229
-473.259	-23.395	-0.048	0.029
-472.245	213.492	0.280	-0.442
-471.230	87.551	0.276	-0.305
-470.216	-143.477	0.261	0.025
-469.201	-200.000	-0.026	0.159
-468.186	299.325	-0.173	0.318
-467.172	428.187	0.134	0.288
-466.157	3.470	-0.249	0.181
-465.143	257.621	0.098	-0.168
-464.128	561.225	-0.079	0.190
-463.113	57.466	0.285	-0.278
-462.099	-129.978	0.121	-0.016
-461.084	-19.185	0.096	-0.060
-460.070	-86.618	-0.222	-0.068
-459.055	-102.058	-0.131	0.032
-458.040	-70.243	-0.207	-0.079
-457.026	-77.926	0.326	-0.112
-456.011	35.934	0.135	0.118
-454.997	194.069	-0.184	-0.279
-453.982	246.104	-0.175	0.294
-452.968	297.804	0.138	-0.252
-451.953	284.504	-0.040	0.071
-450.938	58.083	0.119	-0.117
-449.924	22.752	-0.141	-0.115
-448.909	800.000	0.053	-0.219
-447.895	50.869	0.074	-0.070
-446.880	-126.265	0.150	0.022
-445.865	382.019	0.078	-0.159
-444.851	81.493	-0.241	-0.260
-443.836	298.244	0.243	0.447
-442.822	-48.261	-0.494	0.238
-441.807	256.206	0.108	-0.184
-440.792	-200.000	0.064	0.292
-439.778	100.323	-0.291	0.337
-438.763	28.614	-0.292	0.247
-437.749	407.829	-0.073	0.153
-436.734	103.645	0.163	0.191
-435.719	-200.000	0.002	0.149
-434.705	-167.659	0.198	-0.008
-433.690	-200.000	0.028	0.321
-432.676	582.788	-0.133	0.325
-431.661	-124.426	-0.177	-0.027
-430.646	206.656	0.055	0.086
-429.632	-200.000	0.007	0.130
-428.617	268.064	-0.058	0.101
-427.603	-106.518	-0.083	0.019
-426.588	-135.865	0.125	-0.015
-425.573	344.292	-0.110	-0.215
-424.559	31.967	0.070	-0.061
-423.544	-17.316	0.177	0.111
-422.530	-22.122	-0.096	-0.058
-421.515	-200.000	-0.059	0.297
-420.500	800.000	0.062	0.179
-419.486	-0.451	-0.174	-0.123
-418.471	-106.293	-0.259	0.058
-417.457	65.529	0.138	0.140
-416.442	-200.000	-0.030	0.291
-415.428	800.000	0.132	-0.473
-414.413	180.103	0.141	0.206
-413.398	-113.610	0.229	0.045
-412.384	54.455	0.186	0.178
-411.369	34.437	0.398	-0.346
-410.355	-200.000	0.000	0.276
-409.340	-89.735	0.175	0.051
-408.325	-9.417	-0.194	0.129
-407.311	547.564	-0.127	0.304
-406.296	-147.915	0.431	0.036
-405.282	-96.004	0.062	0.016
-404.267	-34.166	-0.199	0.109
-403.252	-200.000	-0.080	0.445
-402.238	-4.788	-0.203	0.139
-401.223	48.032	-0.127	-0.118
-400.209	800.000	0.032	-0.114
-399.194	127.592	0.039	0.049
-398.179	-41.345	0.197	-0.101
-397.165	152.561	-0.127	0.173
-396.150	242.618	0.194	-0.323
-395.136	187.853	0.060	0.089
-394.121	-93.663	-0.150	-0.041
-393.106	-116.686	-0.290	-0.053
-392.092	-3.424	-0.200	-0.138
-391.077	-200.000	0.032	-0.214
-390.063	-16.141	-0.123	-0.078
-389.048	-165.237	-0.125	0.005
-388.033	94.714	0.047	-0.054
-387.019	207.752	-0.070	0.109
-386.004	55.649	0.167	-0.161
-384.990	-195.149	-0.080	-0.001
-383.975	9.327	0.139	-0.105
-382.960	-162.890	0.364	0.018
-381.946	119.440	0.092	0.114
-380.931	153.838	-0.140	-0.191
-379.917	-200.000	-0.041	0.301
-378.902	25.408	0.244	-0.202
-377.888	415.848	0.078	0.166
-376.873	-81.791	-0.179	0.058
-375.858	800.000	-0.105	0.367
-374.844	-200.000	0.016	-0.136
-373.829	-75.238	-0.120	-0.043
-372.815	574.666	0.064	0.156
-371.800	-200.000	-0.068	0.419
-370.785	657.407	0.096	-0.247
-369.771	317.861	0.159	0.300
-368.756	205.415	-0.213	0.330
-367.742	800.000	-0.086	-0.278
-366.727	123.853	0.058	-0.072
-365.712	-115.782	-0.415	-0.077
-364.698	9.405	-0.248	-0.187
-363.683	-6.963	-0.018	-0.012
-362.669	-120.513	-0.280	-0.047
-361.654	59.334	-0.216	0.212
-360.639	737.820	-0.025	-0.067
-359.625	-63.563	0.162	0.066
-358.610	9.666	-0.249	-0.188
-357.596	-77.418	0.203	0.070
-356.581	1.536	0.269	-0.193
-355.566	66.911	-0.113	0.115
-354.552	-200.000	-0.030	0.240
-353.537	26.305	0.022	-0.018
-352.523	-148.504	-0.151	0.012
-351.508	-119.692	0.087	-0.015
-350.493	348.506	-0.070	-0.137
-349.479	58.736	0.248	0.242
-348.464	-196.639	-0.493	-0.003
-347.450	800.000	0.045	0.158
-346.435	0.368	-0.116	-0.083
-345.420	-37.322	0.089	0.047
-344.406	-115.169	0.155	-0.029
-343.391	26.631	0.224	-0.187
-342.377	41.154	-0.080	-0.072
-341.362	-74.949	-0.143	0.051
-340.348	-36.101	0.393	0.211
-339.333	-10.257	-0.442	-0.292
-338.318	-119.868	-0.148	0.025
-337.304	800.000	0.042	0.182
-336.289	-64.841	0.415	0.167
-335.275	258.502	-0.142	0.243
-334.260	-130.859	-0.020	0.003
-333.245	597.501	0.146	-0.359
-332.231	-134.365	-0.296	-0.036
-331.216	-115.574	-0.142	-0.027
-330.202	-200.000	-0.030	0.280
-329.187	-156.107	-0.104	0.007
-328.172	-76.489	0.075	-0.026
-327.158	235.911	0.042	0.068
-326.143	17.923	-0.141	0.112
-325.129	9.666	0.216	0.163
-324.114	-200.000	-0.018	-0.094
-323.099	446.495	-0.076	-0.166
-322.085	571.781	-0.067	-0.163
-321.070	800.000	-0.044	0.160
-320.056	-85.242	-0.150	0.047
-319.041	92.751	0.176	0.197
-318.026	23.640	-0.372	0.304
-317.012	114.761	0.092	-0.111
-315.997	-37.986	-0.109	0.057
-314.983	216.606	0.128	0.202
-313.968	462.646	-0.013	0.028
-312.953	800.000	0.047	-0.158
-311.939	378.728	0.201	-0.409
-310.924	-200.000	0.042	0.266
-309.910	9.626	-0.100	-0.076
-308.895	228.179	0.080	-0.129
-307.880	-80.400	0.237	-0.079
-306.866	218.684	0.127	-0.201
-305.851	-199.630	0.497	-0.003
-304.837	-119.610	0.381	-0.065
-303.822	-128.942	0.077	-0.011
-302.807	20.888	0.148	-0.119
-301.793	-132.217	-0.118	0.015
-300.778	-67.177	-0.199	0.078
-299.764	-29.252	-0.117	0.067
-298.749	-200.000	0.000	-0.059
-297.735	800.000	0.108	-0.299
-296.720	345.110	0.200	0.390
-295.705	-96.183	-0.114	0.030
-294.691	368.271	0.094	0.189
-293.676	-48.673	0.166	-0.079
-292.662	35.461	-0.123	0.107
-291.647	317.331	0.079	0.147
-290.632	-200.000	-0.015	-0.285
-289.618	-110.553	0.322	0.066
-288.603	-12.285	0.230	-0.149
-287.589	24.306	-0.216	0.177
-286.574	800.000	0.049	-0.173
-285.559	-200.000	0.005	-0.120
-284.545	-200.000	0.010	-0.054
-283.530	-73.064	-0.080	0.029
-282.516	11.034	-0.143	-0.109
-281.501	466.168	0.162	0.359
-280.486	116.277	0.084	0.103
-279.472	-200.000	0.032	-0.489
-278.457	328.509	-0.052	-0.099
-277.443	133.877	-0.018	0.023
-276.428	154.797	0.078	0.107
-275.413	13.668	-0.097	0.075
-274.399	-32.991	0.400	0.220
-273.384	-2.658	0.193	-0.134
-272.370	-78.591	-0.148	0.050
-271.355	-96.329	0.414	-0.109
-270.340	-41.737	0.321	-0.163
-269.326	74.167	0.181	0.189
-268.311	-181.166	0.210	-0.004
-267.297	-122.738	-0.176	0.028
-266.282	-103.275	-0.359	0.084
-265.267	-178.578	-0.163	-0.004
-264.253	4.775	0.071	-0.052
-263.238	58.669	0.146	-0.142
-262.224	37.975	0.022	-0.020
-261.209	420.029	0.069	-0.146
-260.195	-20.896	-0.227	-0.138
-259.180	181.883	0.198	-0.289
-258.165	491.834	0.081	-0.183
-257.151	-137.122	-0.378	0.043
-256.136	259.506	-0.307	0.526
-255.122	-200.000	0.006	0.057
-254.107	-148.741	-0.275	-0.022
-253.092	379.549	0.138	0.281
-252.078	103.777	0.225	0.261
-251.063	800.000	-0.134	-0.428
-250.049	-200.000	-0.014	-0.076
-249.034	128.941	-0.174	0.220
-248.019	1.114	-0.022	-0.015
-247.005	-200.000	0.026	-0.231
-245.990	-95.542	0.076	0.020
-244.976	-128.903	-0.160	-0.022
-243.961	31.177	-0.102	0.087
-242.946	-107.372	-0.180	-0.039
-241.932	206.530	0.138	0.213
-240.917	21.620	-0.167	-0.135
-239.903	-153.051	-0.352	-0.024
-238.888	773.090	0.100	-0.271
-237.873	17.980	-0.234	-0.184
-236.859	207.508	0.091	0.140
-235.844	-66.036	-0.084	-0.033
-234.830	-84.624	0.234	-0.073
-233.815	433.113	-0.060	-0.128
-232.800	-25.454	0.121	0.071
-231.786	-200.000	0.002	0.184
-230.771	800.000	0.086	0.284
-229.757	-133.197	0.306	-0.038
-228.742	75.067	-0.032	0.033
-227.727	-166.370	-0.193	-0.008
-226.713	230.131	0.084	-0.136
-225.698	207.532	-0.178	0.275
-224.684	-200.000	0.027	-0.188
-223.669	79.881	-0.042	-0.044
-222.655	800.000	0.079	0.327
-221.640	135.414	0.228	-0.293
-220.625	800.000	-0.047	-0.164
-219.611	-117.927	0.131	-0.023
-218.596	50.309	0.069	0.065
-217.582	98.296	-0.158	0.180
-216.567	-200.000	0.091	0.680
-215.552	-200.000	0.029	0.160
-214.538	-101.536	0.141	-0.034
-213.523	183.135	-0.141	0.206
-212.509	162.721	0.128	0.178
-211.494	-50.036	-0.497	-0.233
-210.479	-90.667	0.054	-0.015
-209.465	-173.220	0.294	-0.009
-208.450	-142.160	-0.154	-0.015
-207.436	800.000	0.119	0.403
-206.421	-7.777	-0.079	-0.053
-205.406	-40.200	0.379	0.195
-204.392	-31.479	-0.161	0.090
-203.377	788.444	0.038	0.102
-202.363	-87.931	0.209	0.062
-201.348	307.317	0.167	0.308
-200.333	119.521	-0.141	0.173
-199.319	263.194	0.078	0.134
-198.304	-28.016	0.237	0.136
-197.290	-200.000	0.006	0.313
-196.275	-102.057	-0.168	-0.040
-195.260	-200.000	-0.086	-0.375
-194.246	-200.000	-0.050	-0.314
-193.231	-165.573	-0.062	0.003
-192.217	-114.663	0.190	0.036
-191.202	-200.000	0.006	-0.188
-190.187	-200.000	-0.006	0.054
-189.173	-200.000	0.006	0.353
-188.158	-115.827	-0.213	-0.039
-187.144	26.616	0.184	0.152
-186.129	277.686	0.094	0.165
-185.114	109.720	-0.143	0.170
-184.100	59.389	0.280	-0.273
-183.085	-171.551	-0.145	-0.005
-182.071	26.140	-0.083	-0.068
-181.056	157.587	0.075	0.103
-180.042	-200.000	-0.028	0.144
-179.027	800.000	0.057	0.218
-178.012	800.000	0.081	0.338
-176.998	17.834	0.143	0.112
-175.983	462.808	0.165	0.365
-174.969	-129.645	0.236	-0.032
-173.954	-81.968	-0.106	-0.034
-172.939	-30.883	-0.253	0.141
-171.925	800.000	-0.022	0.087
-170.910	-200.000	-0.028	0.180
-169.896	-99.740	0.319	0.079
-168.881	-121.898	0.075	-0.012
-167.866	-20.870	-0.175	-0.106
-166.852	-84.439	0.145	0.045
-165.837	-89.602	0.149	-0.043
-164.823	39.876	0.084	0.075
-163.808	92.781	-0.106	-0.118
-162.793	-200.000	0.016	-0.231
-161.779	-120.898	0.324	0.054
-160.764	800.000	0.022	-0.093
-159.750	286.479	-0.014	0.025
-158.735	-147.539	0.346	0.029
-157.720	139.537	0.095	0.124
-156.706	-70.209	0.272	0.102
-155.691	394.712	0.064	0.131
-154.677	-137.548	0.289	0.032
-153.662	10.070	0.101	-0.076
-152.647	800.000	-0.039	-0.120
-151.633	48.781	0.152	0.141
-150.618	-200.000	-0.018	0.083
-149.604	3.117	0.182	-0.131
-148.589	368.715	-0.049	-0.098
-147.574	-80.609	0.157	0.052
-146.560	-163.289	0.412	0.019
-145.545	-62.405	0.215	-0.088
-144.531	193.988	0.066	-0.099
-143.516	17.508	0.042	-0.033
-142.502	-200.000	-0.010	-0.256
-141.487	-14.532	0.298	-0.189
-140.472	800.000	-0.061	0.235
-139.458	-200.000	-0.050	-0.238
-138.443	609.252	-0.053	0.132
-137.429	81.574	-0.112	-0.120
-136.414	-40.503	0.232	0.119
-135.399	-154.777	-0.391	-0.026
-134.385	-200.000	-0.000	0.222
-133.370	4.209	-0.089	0.064
-132.356	-119.090	-0.318	0.055
-131.341	154.245	0.060	0.081
-130.326	-200.000	0.003	0.243
-129.312	-133.436	0.127	-0.016
-128.297	-200.000	0.036	-0.329
-127.283	-200.000	0.029	0.347
-126.268	-53.743	0.170	0.076
-125.253	599.771	-0.093	0.228
-124.239	128.512	-0.102	0.128
-123.224	-117.157	-0.056	0.010
-122.210	114.549	0.117	0.141
-121.195	429.880	0.069	0.147
-120.180	228.742	0.131	-0.211
