DTS Sentinel unit serial number:	SN413079Multiplexer serial number:	ORYXHardware model number:	OX4-SRSoftware version number:	ORYX F/W v4.00 Oryx Data Collector v3.7.2.0data status	okinstallation	princeton_trtdifferential loss correction	single-endedforward channel	channel 1reverse channel	N/Adate	2019/09/14time	09:34:35forward acquisition time	60.00reverse acquisition time	0.00gamma	496.2192k internal	0.2320k external	0.2320temperature offset calibration	1.0070default loss term (dB/km)	0.3790temperature slope calibration	1.0000multiplexer offset coefficient	1.0000multiplexer slope coefficient	1.0000fibre end	0.00T internal ref (°C)	31.67T ext. ref 1 (°C)	3.88T ext. ref 2 (°C)	29.83length (m)	temperature (°C)	Stokes	anti-Stokes-747.200	11.290	-0.204	0.158
-746.185	-14.517	-0.211	0.138
-745.171	-200.000	-0.061	-0.465
-744.156	-200.000	-0.043	0.259
-743.142	-70.043	0.214	-0.082
-742.127	124.525	-0.084	-0.107
-741.112	-200.000	0.031	0.237
-740.098	107.159	-0.059	0.071
-739.083	-109.237	-0.329	0.071
-738.069	-105.496	0.170	-0.039
-737.054	554.409	0.096	-0.234
-736.039	-200.000	0.008	0.211
-735.025	-26.220	0.330	0.196
-734.010	-200.000	0.009	-0.118
-732.996	392.661	0.025	0.053
-731.981	-37.748	-0.355	-0.191
-730.966	-51.355	-0.183	0.087
-729.952	-59.794	-0.241	-0.104
-728.937	-200.000	-0.003	-0.245
-727.923	-68.983	0.076	0.030
-726.908	1.158	-0.204	0.148
-725.894	-51.348	-0.063	-0.030
-724.879	-170.934	0.156	0.005
-723.864	-78.849	0.091	0.031
-722.850	126.231	-0.199	-0.255
-721.835	-39.612	-0.348	-0.184
-720.821	102.168	0.137	-0.161
-719.806	-9.942	-0.305	0.205
-718.791	-63.673	0.318	-0.132
-717.777	-146.728	0.277	-0.024
-716.762	166.784	0.217	-0.310
-715.748	-200.000	-0.006	-0.050
-714.733	-86.639	0.070	0.022
-713.718	800.000	-0.123	0.369
-712.704	-200.000	0.002	-0.072
-711.689	197.439	-0.139	-0.215
-710.675	-116.078	0.197	-0.037
-709.660	-66.652	-0.266	-0.106
-708.645	-200.000	-0.016	-0.209
-707.631	-153.794	0.408	0.028
-706.616	472.747	-0.132	-0.301
-705.602	800.000	-0.051	0.157
-704.587	-165.061	0.405	0.018
-703.572	-200.000	-0.029	0.368
-702.558	-200.000	0.008	0.117
-701.543	-200.000	0.076	-0.363
-700.529	-43.418	-0.255	0.130
-699.514	800.000	0.043	-0.174
-698.499	26.825	0.181	-0.153
-697.485	-27.988	-0.170	0.099
-696.470	-200.000	0.053	-0.246
-695.456	33.509	-0.231	-0.202
-694.441	56.324	0.025	-0.025
-693.426	-200.000	-0.015	-0.382
-692.412	204.702	-0.064	-0.100
-691.397	469.210	0.046	0.104
-690.383	-44.999	-0.140	-0.070
-689.368	-81.500	-0.360	-0.119
-688.354	25.699	0.148	0.125
-687.339	-47.939	-0.266	-0.130
-686.324	14.674	-0.129	0.102
-685.310	-200.000	0.005	-0.182
-684.295	-11.744	0.324	0.215
-683.281	689.533	0.097	0.256
-682.266	-168.267	-0.391	-0.015
-681.251	151.601	0.051	-0.070
-680.237	-0.674	0.212	0.152
-679.222	-200.000	0.037	0.245
-678.208	170.460	-0.044	0.064
-677.193	121.574	-0.188	0.236
-676.178	-55.644	-0.259	-0.117
-675.164	-101.308	-0.165	-0.041
-674.149	-98.361	-0.231	0.060
-673.135	6.054	-0.290	0.217
-672.120	-200.000	-0.006	0.079
-671.105	-108.581	-0.245	-0.053
-670.091	-36.379	-0.287	-0.156
-669.076	554.998	0.084	-0.205
-668.062	-200.000	-0.073	-0.333
-667.047	800.000	0.051	-0.150
-666.032	12.040	0.091	-0.070
-665.018	-172.939	-0.471	-0.015
-664.003	-163.243	0.185	0.009
-662.989	-92.474	-0.146	0.041
-661.974	-1.759	-0.058	0.041
-660.959	-115.060	-0.550	0.105
-659.945	235.656	0.129	0.215
-658.930	-200.000	0.060	-0.411
-657.916	471.289	0.055	0.125
-656.901	-42.749	0.103	0.053
-655.886	-1.982	-0.163	0.115
-654.872	-90.727	-0.178	-0.052
-653.857	-83.314	0.253	0.082
-652.843	-151.638	0.132	-0.010
-651.828	-200.000	0.017	-0.148
-650.814	112.972	-0.297	-0.363
-649.799	309.840	-0.010	-0.018
-648.784	-119.595	-0.281	0.049
-647.770	-15.542	-0.115	-0.074
-646.755	-129.273	-0.065	-0.009
-645.741	-200.000	-0.003	0.168
-644.726	-69.737	-0.173	0.067
-643.711	102.775	0.217	-0.256
-642.697	-200.000	-0.030	0.243
-641.682	503.866	-0.004	0.010
-640.668	-87.787	0.251	-0.076
-639.653	60.083	-0.170	-0.169
-638.638	800.000	-0.020	0.073
-637.624	800.000	0.059	0.194
-636.609	745.019	0.118	0.320
-635.595	-37.018	-0.195	0.105
-634.580	-60.542	-0.360	0.154
-633.565	36.113	-0.263	-0.233
-632.551	-78.025	-0.172	-0.060
-631.536	-200.000	-0.010	-0.111
-630.522	-200.000	0.061	0.328
-629.507	-68.231	-0.182	0.071
-628.492	3.530	0.138	0.101
-627.478	800.000	0.029	0.103
-626.463	389.148	-0.061	0.128
-625.449	800.000	0.044	-0.128
-624.434	694.721	-0.073	0.192
-623.419	-11.648	0.187	0.124
-622.405	25.244	0.180	0.150
-621.390	-200.000	-0.008	0.234
-620.376	36.039	0.273	-0.241
-619.361	-118.792	-0.247	0.044
-618.346	-19.562	-0.228	-0.142
-617.332	-200.000	-0.009	-0.053
-616.317	-200.000	0.042	-0.316
-615.303	278.263	-0.176	-0.315
-614.288	24.846	0.090	-0.075
-613.273	332.926	-0.018	0.035
-612.259	511.486	-0.127	0.297
-611.244	-123.410	0.320	0.051
-610.230	187.935	0.315	0.474
-609.215	-118.783	0.055	0.010
-608.201	-74.438	-0.258	0.094
-607.186	-200.000	-0.021	0.201
-606.171	89.346	0.062	-0.070
-605.157	87.341	0.268	-0.298
-604.142	800.000	0.059	-0.209
-603.128	274.161	0.091	0.163
-602.113	-134.622	-0.069	0.008
-601.098	800.000	-0.031	0.109
-600.084	-200.000	0.034	0.160
-599.069	557.652	0.088	-0.213
-598.055	-22.912	0.175	-0.106
-597.040	-200.000	0.007	-0.168
-596.025	423.616	-0.100	-0.216
-595.011	-18.780	0.122	0.077
-593.996	33.026	-0.350	0.305
-592.982	-81.046	-0.243	0.081
-591.967	-150.764	-0.136	-0.010
-590.952	-64.995	-0.077	0.031
-589.938	356.480	-0.074	-0.148
-588.923	588.461	0.117	-0.291
-587.909	23.706	-0.398	-0.329
-586.894	-34.015	-0.352	0.195
-585.879	454.377	0.103	0.229
-584.865	195.485	0.195	-0.299
-583.850	23.487	0.210	0.174
-582.836	141.007	-0.094	0.125
-581.821	-100.479	0.247	0.061
-580.806	-114.075	-0.300	0.058
-579.792	-25.668	-0.274	-0.162
-578.777	800.000	0.013	0.041
-577.763	21.801	0.284	-0.233
-576.748	367.205	-0.078	-0.157
-575.733	541.971	-0.035	0.085
-574.719	-200.000	0.014	-0.073
-573.704	-168.101	-0.159	0.006
-572.690	-200.000	-0.057	-0.412
-571.675	800.000	0.037	-0.149
-570.661	800.000	-0.128	0.363
-569.646	-89.933	0.097	-0.028
-568.631	65.815	0.103	0.105
-567.617	-85.638	-0.083	0.026
-566.602	-194.868	0.293	0.002
-565.588	224.078	-0.099	-0.161
-564.573	699.582	-0.107	0.282
-563.558	46.890	-0.208	0.194
-562.544	80.703	0.214	-0.232
-561.529	-200.000	-0.017	0.241
-560.515	132.581	-0.142	-0.184
-559.500	47.451	0.064	0.060
-558.485	166.193	-0.061	0.087
-557.471	-200.000	-0.069	0.324
-556.456	341.698	-0.133	0.261
-555.442	-200.000	0.023	0.261
-554.427	456.061	0.085	-0.189
-553.412	-6.762	-0.103	-0.070
-552.398	148.853	0.057	-0.078
-551.383	272.862	-0.169	-0.299
-550.369	-26.235	0.110	-0.065
-549.354	-200.000	0.177	0.000
-548.339	-27.157	-0.134	0.079
-547.325	30.651	0.034	-0.029
-546.310	109.845	0.252	-0.303
-545.296	800.000	0.038	-0.128
-544.281	-50.404	-0.191	0.090
-543.266	-59.307	-0.154	-0.066
-542.252	800.000	-0.090	-0.308
-541.237	239.145	0.038	-0.064
-540.223	-178.565	-0.165	-0.004
-539.208	-44.332	-0.080	-0.040
-538.193	235.745	-0.023	0.038
-537.179	-86.182	-0.149	0.046
-536.164	800.000	0.104	0.386
-535.150	54.055	0.211	0.204
-534.135	-92.966	0.167	0.047
-533.121	224.383	0.199	-0.323
-532.106	47.821	0.171	-0.160
-531.091	-200.000	-0.080	-0.393
-530.077	146.322	0.012	0.016
-529.062	800.000	0.020	0.071
-528.048	-10.397	0.220	0.146
-527.033	-0.112	0.269	0.192
-526.018	-18.399	0.220	-0.138
-525.004	-34.517	0.281	-0.154
-523.989	-73.679	0.152	-0.055
-522.975	-43.588	0.098	-0.050
-521.960	800.000	-0.009	0.026
-520.945	-83.494	-0.090	0.029
-519.931	274.367	0.154	-0.274
-518.916	374.472	0.047	-0.096
-517.902	-116.987	-0.201	0.037
-516.887	160.915	0.113	0.159
-515.872	297.387	-0.233	-0.428
-514.858	-129.527	-0.387	-0.054
-513.843	27.181	0.078	-0.066
-512.829	800.000	-0.115	0.324
-511.814	-200.000	0.027	-0.309
-510.799	22.594	-0.288	-0.236
-509.785	-200.000	-0.029	-0.281
-508.770	300.090	-0.062	0.115
-507.756	-95.294	-0.137	0.037
-506.741	-94.472	-0.219	0.060
-505.726	-200.000	-0.041	-0.221
-504.712	-95.807	-0.032	-0.008
-503.697	48.893	-0.319	0.300
-502.683	-48.573	-0.264	-0.127
-501.668	800.000	-0.055	-0.158
-500.653	-200.000	0.051	0.243
-499.639	-38.263	-0.369	-0.196
-498.624	122.454	-0.178	0.223
-497.610	-200.000	-0.041	-0.315
-496.595	-23.735	-0.032	-0.019
-495.581	92.300	0.150	-0.169
-494.566	137.520	0.014	0.018
-493.551	-200.000	-0.029	-0.146
-492.537	-33.202	0.309	0.171
-491.522	128.814	0.086	0.110
-490.508	-200.000	-0.022	0.117
-489.493	-87.741	0.179	0.054
-488.478	-132.830	0.334	-0.043
-487.464	-200.000	0.039	0.232
-486.449	800.000	-0.023	0.088
-485.435	-85.327	-0.276	0.086
-484.420	-25.524	-0.088	-0.052
-483.405	-38.105	0.200	0.106
-482.391	-150.599	-0.315	-0.024
-481.376	-31.348	0.131	-0.074
-480.362	-13.706	0.321	0.208
-479.347	195.846	0.194	0.296
-478.332	-160.635	0.215	-0.011
-477.318	-84.381	0.281	-0.089
-476.303	-24.970	-0.056	-0.033
-475.289	-200.000	-0.031	-0.330
-474.274	-193.612	-0.172	0.001
-473.259	-200.000	-0.006	0.114
-472.245	7.769	0.134	-0.101
-471.230	-180.432	0.391	-0.008
-470.216	22.292	-0.289	0.236
-469.201	-200.000	0.003	0.202
-468.186	-103.162	0.138	0.033
-467.172	-154.302	-0.223	0.015
-466.157	373.266	0.078	0.158
-465.143	10.643	0.201	0.153
-464.128	-200.000	-0.025	0.295
-463.113	351.792	-0.096	-0.190
-462.099	-137.484	0.231	0.026
-461.084	118.747	-0.024	-0.029
-460.070	-157.094	0.151	0.009
-459.055	313.734	0.129	-0.243
-458.040	308.465	-0.085	0.158
-457.026	-200.000	-0.007	-0.073
-456.011	-17.999	0.378	-0.237
-454.997	800.000	0.063	0.210
-453.982	-126.957	-0.122	0.018
-452.968	685.414	0.096	0.251
-451.953	373.215	-0.155	-0.316
-450.938	138.873	-0.334	-0.439
-449.924	-60.482	-0.286	0.121
-448.909	205.390	-0.166	0.257
-447.895	116.882	0.149	0.183
-446.880	-200.000	0.001	-0.049
-445.865	726.312	-0.086	-0.230
-444.851	381.228	0.085	0.175
-443.836	800.000	0.061	0.256
-442.822	27.234	0.080	0.067
-441.807	-86.407	-0.073	0.022
-440.792	169.618	-0.051	-0.073
-439.778	-48.235	0.417	0.201
-438.763	63.134	0.056	0.057
-437.749	96.890	0.159	-0.182
-436.734	-200.000	0.033	0.189
-435.719	258.134	0.061	-0.104
-434.705	107.860	-0.277	0.330
-433.690	60.202	-0.298	-0.294
-432.676	800.000	-0.103	0.427
-431.661	-75.010	-0.474	-0.169
-430.646	22.028	-0.110	0.089
-429.632	-70.300	0.282	0.107
-428.617	-104.214	-0.437	-0.101
-427.603	42.717	-0.025	0.023
-426.588	-65.771	0.215	0.086
-425.573	-93.397	-0.046	0.013
-424.559	105.478	0.175	0.206
-423.544	-155.286	0.314	-0.020
-422.530	392.244	-0.036	0.075
-421.515	800.000	-0.131	-0.485
-420.500	-200.000	0.040	-0.326
-419.486	-138.350	-0.161	-0.018
-418.471	52.336	0.104	-0.099
-417.457	686.083	0.044	-0.114
-416.442	-159.056	-0.209	0.012
-415.428	60.635	0.144	0.143
-414.413	-200.000	-0.014	0.112
-413.398	-22.495	0.057	-0.034
-412.384	48.454	0.336	0.314
-411.369	-200.000	-0.031	-0.252
-410.355	152.360	-0.022	0.030
-409.340	800.000	-0.099	-0.403
-408.325	-101.279	-0.417	0.102
-407.311	-106.302	-0.025	-0.006
-406.296	-200.000	-0.006	-0.101
-405.282	-60.336	-0.037	-0.016
-404.267	137.771	0.035	-0.046
-403.252	-102.943	0.240	0.057
-402.238	-9.972	-0.183	-0.121
-401.223	98.969	0.244	-0.281
-400.209	-80.871	0.357	-0.118
-399.194	-200.000	-0.017	-0.189
-398.179	-24.173	-0.188	0.112
-397.165	79.764	-0.183	-0.196
-396.150	-95.771	0.160	-0.043
-395.136	638.389	-0.175	-0.443
-394.121	-3.209	0.101	-0.070
-393.106	-164.800	0.116	-0.005
-392.092	-123.307	0.370	0.059
-391.077	-152.369	-0.102	-0.007
-390.063	800.000	0.057	0.207
-389.048	-68.033	-0.105	-0.041
-388.033	-100.457	-0.175	0.043
-387.019	-92.916	0.336	-0.093
-386.004	57.241	0.194	-0.188
-384.990	-117.869	0.270	-0.048
-383.975	200.000	-0.154	-0.235
-382.960	-12.737	-0.103	0.067
-381.946	-48.167	0.144	0.069
-380.931	-116.775	-0.102	-0.019
-379.917	90.800	-0.081	-0.090
-378.902	172.484	0.018	0.026
-377.888	-95.371	0.111	0.030
-376.873	121.994	-0.067	-0.084
-375.858	-116.405	0.105	-0.019
-374.844	-26.306	-0.120	-0.070
-373.829	615.927	-0.038	0.095
-372.815	-17.013	-0.425	-0.267
-371.800	198.442	-0.161	-0.246
-370.785	-200.000	-0.036	-0.325
-369.771	79.177	0.059	-0.063
-368.756	-107.695	-0.181	-0.039
-367.742	183.816	0.168	0.248
-366.727	85.838	-0.111	0.122
-365.712	170.822	0.198	-0.282
-364.698	-200.000	-0.039	0.210
-363.683	800.000	0.128	0.389
-362.669	-89.227	0.210	-0.062
-361.654	-99.698	-0.195	-0.049
-360.639	-122.960	0.169	-0.027
-359.625	-87.636	0.236	0.071
-358.610	-109.948	0.456	-0.095
-357.596	-141.810	0.322	0.032
-356.581	-200.000	-0.008	0.148
-355.566	-11.668	-0.095	-0.062
-354.552	181.930	0.103	-0.151
-353.537	-74.766	-0.083	-0.030
-352.523	-120.609	0.223	0.038
-351.508	421.456	-0.188	0.401
-350.493	258.963	0.150	-0.258
-349.479	800.000	0.104	0.411
-348.464	-200.000	-0.090	0.396
-347.450	-200.000	0.008	-0.181
-346.435	513.955	-0.172	-0.400
-345.420	480.025	0.021	-0.048
-344.406	-191.795	0.226	0.002
-343.391	-78.447	-0.160	0.055
-342.377	95.465	-0.196	0.223
-341.362	527.141	-0.074	0.173
-340.348	396.769	0.090	-0.187
-339.333	-123.972	0.156	0.024
-338.318	-200.000	-0.012	-0.252
-337.304	407.351	-0.093	-0.196
-336.289	800.000	0.088	0.245
-335.275	-200.000	0.021	-0.114
-334.260	-66.341	0.347	0.137
-333.245	-24.048	0.099	-0.059
-332.231	-45.449	-0.384	-0.190
-331.216	-200.000	-0.029	0.196
-330.202	800.000	0.080	0.272
-329.187	-200.000	0.001	0.088
-328.172	21.377	0.166	0.134
-327.158	-200.000	0.017	0.255
-326.143	-11.702	0.051	-0.033
-325.129	-41.845	0.094	0.048
-324.114	-200.000	0.005	-0.255
-323.099	-191.353	-0.172	-0.002
-322.085	-118.264	-0.106	-0.019
-321.070	-149.529	-0.123	0.010
-320.056	655.254	0.130	-0.332
-319.041	35.142	-0.330	-0.287
-318.026	-51.657	0.173	-0.080
-317.012	33.856	-0.172	0.149
-315.997	-200.000	0.283	0.001
-314.983	-107.213	0.091	-0.020
-313.968	667.927	0.060	0.153
-312.953	-33.987	0.081	-0.044
-311.939	-138.511	0.214	-0.023
-310.924	800.000	-0.043	-0.172
-309.910	92.054	-0.206	0.231
-308.895	-7.463	0.321	-0.216
-307.880	42.205	-0.178	0.161
-306.866	421.728	-0.060	0.127
-305.851	-70.295	0.304	-0.115
-304.837	135.284	0.124	-0.160
-303.822	325.442	0.237	-0.450
-302.807	353.322	0.163	0.322
-301.793	46.153	-0.246	0.226
-300.778	800.000	-0.058	-0.223
-299.764	-49.244	-0.090	0.043
-298.749	-40.391	-0.137	-0.071
-297.735	-70.533	0.052	-0.019
-296.720	800.000	0.083	-0.302
-295.705	57.774	-0.208	-0.202
-294.691	-200.000	0.011	0.306
-293.676	-200.000	-0.035	-0.209
-292.662	20.037	0.139	-0.112
-291.647	765.514	0.076	0.205
-290.632	711.630	-0.078	-0.205
-289.618	-76.725	-0.266	-0.093
-288.603	-167.321	0.418	-0.017
-287.589	259.897	0.098	0.169
-286.574	14.350	-0.174	0.135
-285.559	-200.000	0.039	-0.214
-284.545	182.081	-0.179	0.263
-283.530	-84.990	-0.190	-0.059
-282.516	-3.069	-0.172	0.119
-281.501	93.291	-0.293	0.330
-280.486	240.369	0.100	-0.166
-279.472	-63.042	0.388	0.159
-278.457	-142.580	0.190	0.018
-277.443	702.537	-0.038	-0.100
-276.428	761.437	-0.013	-0.034
-275.413	-92.165	-0.316	0.089
-274.399	647.810	0.135	0.343
-273.384	-79.039	0.278	0.094
-272.370	800.000	0.077	-0.321
-271.355	-10.532	-0.176	0.116
-270.340	-200.000	-0.077	0.566
-269.326	-200.000	-0.016	-0.080
-268.311	-200.000	-0.022	0.131
-267.297	-200.000	0.045	0.000
-266.282	182.914	0.109	-0.160
-265.267	-200.000	-0.004	-0.274
-264.253	-37.620	-0.383	0.203
-263.238	185.676	0.216	0.319
-262.224	2.831	-0.225	-0.162
-261.209	-108.889	0.364	-0.077
-260.195	-200.000	-0.039	0.336
-259.180	417.472	-0.029	0.061
-258.165	800.000	-0.043	0.168
-257.151	619.653	-0.049	0.122
-256.136	-125.878	-0.216	0.032
-255.122	261.897	-0.085	0.146
-254.107	-20.637	-0.286	0.174
-253.092	403.790	-0.044	-0.092
-252.078	208.019	-0.043	0.066
-251.063	800.000	0.090	0.263
-250.049	800.000	-0.081	0.342
-249.034	-0.620	0.363	-0.255
-248.019	357.460	0.045	0.089
-247.005	6.858	0.097	0.072
-245.990	-19.913	-0.078	0.048
-244.976	-27.631	-0.211	0.122
-243.961	-134.437	0.211	-0.026
-242.946	-200.000	-0.018	0.103
-241.932	39.766	0.364	-0.324
-240.917	-200.000	-0.006	-0.105
-239.903	-200.000	-0.038	-0.181
-238.888	158.403	-0.272	0.374
-237.873	-57.588	-0.150	-0.065
-236.859	-1.950	0.163	0.114
-235.844	507.430	-0.054	-0.124
-234.830	-200.000	-0.022	0.163
-233.815	-85.633	0.299	0.092
-232.800	45.678	0.153	0.140
-231.786	174.541	0.104	0.149
-230.771	-96.083	0.204	-0.054
-229.757	-200.000	-0.001	0.096
-228.742	-200.000	0.015	-0.270
-227.727	160.064	0.061	0.085
-226.713	391.001	0.128	-0.264
-225.698	-184.959	-0.250	0.004
-224.684	-105.686	-0.104	-0.023
-223.669	140.957	0.113	-0.148
-222.655	35.581	-0.238	-0.207
-221.640	-39.271	0.227	0.118
-220.625	-118.468	0.442	0.078
-219.611	800.000	0.093	-0.339
-218.596	165.688	0.082	0.114
-217.582	-145.775	0.415	0.037
-216.567	310.575	-0.153	-0.284
-215.552	-20.996	0.090	-0.054
-214.538	-71.399	-0.077	0.029
-213.523	25.439	0.121	0.100
-212.509	20.054	-0.104	-0.083
-211.494	-41.831	-0.062	0.032
-210.479	-35.416	-0.036	0.019
-209.465	-200.000	-0.094	-0.412
-208.450	-28.748	0.136	-0.078
-207.436	142.051	0.066	0.086
-206.421	800.000	-0.097	0.319
-205.406	-67.052	0.249	0.097
-204.392	800.000	0.019	-0.053
-203.377	685.316	-0.052	0.135
-202.363	-200.000	-0.007	0.045
-201.348	-159.781	0.269	-0.015
-200.333	23.696	-0.114	0.093
-199.319	9.496	-0.156	-0.117
-198.304	800.000	-0.023	0.066
-197.290	47.645	0.195	0.180
-196.275	-21.757	-0.236	-0.142
-195.260	120.723	-0.047	0.057
-194.246	-66.849	0.316	-0.124
-193.231	268.447	-0.255	-0.443
-192.217	-200.000	0.018	0.138
-191.202	-102.138	-0.327	-0.078
-190.187	20.625	-0.115	-0.092
-189.173	-121.683	-0.137	0.022
-188.158	-60.126	-0.103	-0.044
-187.144	-137.287	0.091	-0.010
-186.129	-78.411	0.199	0.068
-185.114	595.388	0.064	-0.156
-184.100	-44.330	-0.144	0.072
-183.085	199.733	-0.078	0.118
-182.071	268.168	0.108	-0.187
-181.056	-21.124	-0.090	-0.054
-180.042	-200.000	0.005	-0.081
-179.027	75.831	-0.099	0.103
-178.012	-87.387	-0.165	0.049
-176.998	6.230	-0.151	0.111
-175.983	-200.000	-0.042	0.184
-174.969	-200.000	-0.041	0.368
-173.954	174.593	0.070	0.100
-172.939	-106.856	0.114	0.025
-171.925	6.505	-0.421	0.310
-170.910	38.976	0.293	-0.259
-169.896	86.043	-0.176	0.191
-168.881	-116.904	-0.151	0.027
-167.866	45.619	-0.105	-0.096
-166.852	800.000	0.031	0.084
-165.837	371.856	0.130	-0.261
-164.823	-29.974	-0.389	-0.219
-163.808	-34.526	-0.047	0.026
-162.793	-46.040	-0.177	-0.086
-161.779	-200.000	0.064	-0.291
-160.764	-163.434	-0.141	-0.007
-159.750	50.035	-0.162	-0.151
-158.735	-200.000	0.044	-0.191
-157.720	-177.410	0.183	0.004
-156.706	-71.508	-0.067	0.025
-155.691	800.000	-0.147	0.634
-154.677	-74.830	-0.121	0.043
-153.662	98.274	0.018	-0.020
-152.647	670.820	-0.010	-0.026
-151.633	-117.176	0.015	-0.003
-150.618	487.813	0.088	-0.199
-149.604	93.268	-0.150	0.168
-148.589	-200.000	-0.030	0.200
-147.574	-153.971	-0.223	0.015
-146.560	49.844	-0.244	0.227
-145.545	-41.612	0.287	0.145
-144.531	800.000	0.023	0.079
-143.516	-77.413	0.338	-0.116
-142.502	-200.000	-0.004	0.059
-141.487	17.563	-0.096	0.075
-140.472	409.027	-0.061	0.128
-139.458	-85.488	-0.240	-0.074
-138.443	-116.348	0.296	0.054
-137.429	376.902	-0.045	0.091
-136.414	-113.170	0.249	-0.048
-135.399	-107.980	-0.166	-0.036
-134.385	-70.650	-0.195	-0.073
-133.370	-98.287	-0.262	0.066
-132.356	108.819	-0.192	-0.227
-131.341	-15.941	0.256	0.161
-130.326	235.720	0.068	-0.111
-129.312	126.153	-0.282	0.352
-128.297	38.892	0.101	0.089
-127.283	-200.000	0.011	-0.242
-126.268	-122.444	0.124	0.020
-125.253	-69.241	-0.183	0.070
-124.239	134.830	0.090	0.116
-123.224	-75.711	-0.213	-0.075
-122.210	295.071	0.128	0.231
