DTS Sentinel unit serial number:	SN413079Multiplexer serial number:	ORYXHardware model number:	OX4-SRSoftware version number:	ORYX F/W v4.00 Oryx Data Collector v3.7.2.0data status	okinstallation	princeton_trtdifferential loss correction	single-endedforward channel	channel 1reverse channel	N/Adate	2019/09/18time	19:14:35forward acquisition time	60.00reverse acquisition time	0.00gamma	496.2192k internal	0.2317k external	0.2317temperature offset calibration	1.0034default loss term (dB/km)	0.3790temperature slope calibration	1.0000multiplexer offset coefficient	1.0000multiplexer slope coefficient	1.0000fibre end	0.00T internal ref (°C)	34.50T ext. ref 1 (°C)	1.17T ext. ref 2 (°C)	23.81length (m)	temperature (°C)	Stokes	anti-Stokes-747.200	52.220	0.528	0.510
-746.185	215.788	-0.325	0.522
-745.171	253.239	0.116	-0.201
-744.156	192.585	0.074	0.113
-743.142	-156.312	-0.156	-0.010
-742.127	-200.000	-0.005	0.312
-741.112	800.000	0.024	0.074
-740.098	269.699	0.113	0.202
-739.083	-28.549	0.100	-0.058
-738.069	68.720	-0.167	0.174
-737.054	13.495	0.066	-0.051
-736.039	65.745	-0.317	-0.325
-735.025	-128.760	0.546	-0.078
-734.010	23.575	-0.106	0.088
-732.996	-200.000	0.021	0.215
-731.981	800.000	-0.036	-0.152
-730.966	-200.000	-0.083	-0.381
-729.952	18.611	-0.164	0.133
-728.937	-130.995	-0.194	-0.026
-727.923	-157.590	-0.058	0.003
-726.908	-200.000	0.056	-0.345
-725.894	-200.000	-0.086	-0.410
-724.879	-60.338	0.209	-0.090
-723.864	364.412	0.195	-0.397
-722.850	15.010	0.201	-0.159
-721.835	-200.000	-0.009	-0.071
-720.821	-200.000	-0.014	-0.312
-719.806	-9.619	0.136	-0.091
-718.791	-40.306	-0.235	0.124
-717.777	800.000	0.050	-0.182
-716.762	220.524	0.028	-0.046
-715.748	-46.258	0.114	0.057
-714.733	71.486	0.217	-0.228
-713.718	365.644	0.051	-0.105
-712.704	-56.412	0.089	-0.040
-711.689	800.000	-0.055	-0.217
-710.675	-104.358	0.127	-0.030
-709.660	-123.315	-0.196	0.032
-708.645	-147.955	-0.156	0.013
-707.631	-79.372	-0.199	0.068
-706.616	768.172	-0.031	0.085
-705.602	326.468	0.164	0.318
-704.587	-134.519	0.044	0.005
-703.572	-129.300	0.134	0.019
-702.558	800.000	-0.041	-0.135
-701.543	-135.854	0.368	-0.044
-700.529	586.320	0.022	-0.056
-699.514	-87.967	-0.091	0.028
-698.499	-198.322	-0.187	0.001
-697.485	800.000	-0.049	0.147
-696.470	-19.027	-0.060	-0.038
-695.456	-3.696	0.445	-0.313
-694.441	-90.860	0.275	0.080
-693.426	-167.868	-0.147	0.006
-692.412	170.594	0.167	-0.242
-691.397	78.148	-0.055	-0.060
-690.383	-200.000	0.018	0.184
-689.368	413.815	-0.190	-0.408
-688.354	800.000	-0.093	-0.287
-687.339	86.730	-0.075	0.084
-686.324	-200.000	0.025	-0.276
-685.310	-36.985	-0.144	-0.078
-684.295	39.715	0.201	-0.182
-683.281	-200.000	-0.001	-0.151
-682.266	6.004	-0.060	-0.045
-681.251	-200.000	0.040	-0.242
-680.237	267.676	0.058	-0.103
-679.222	413.437	-0.166	0.356
-678.208	546.660	-0.080	0.193
-677.193	53.210	-0.155	-0.150
-676.178	23.967	0.086	0.072
-675.164	800.000	-0.069	0.201
-674.149	-151.729	0.323	0.024
-673.135	-57.891	-0.237	-0.105
-672.120	317.131	0.124	-0.237
-671.105	610.080	0.177	0.447
-670.091	199.018	0.176	0.272
-669.076	124.641	-0.116	-0.148
-668.062	-200.000	-0.001	0.135
-667.047	126.460	-0.263	-0.336
-666.032	66.279	0.082	0.085
-665.018	-200.000	0.021	-0.581
-664.003	-107.937	-0.280	-0.061
-662.989	800.000	0.043	0.156
-661.974	77.628	-0.051	0.055
-660.959	12.890	0.129	0.101
-659.945	800.000	0.078	-0.228
-658.930	-21.129	0.169	-0.104
-657.916	162.825	-0.070	-0.099
-656.901	-200.000	-0.006	0.082
-655.886	-37.627	-0.310	0.167
-654.872	-200.000	-0.038	0.236
-653.857	800.000	0.026	-0.074
-652.843	-200.000	0.013	0.210
-651.828	371.778	0.117	-0.240
-650.814	-85.466	-0.127	0.040
-649.799	-73.989	-0.252	0.092
-648.784	-9.314	0.181	0.122
-647.770	-182.750	0.192	-0.004
-646.755	800.000	-0.100	-0.358
-645.741	14.041	0.115	-0.091
-644.726	800.000	-0.037	0.117
-643.711	-9.383	0.310	-0.209
-642.697	230.440	0.092	0.151
-641.682	-154.359	-0.145	0.010
-640.668	83.954	-0.112	-0.123
-639.653	120.632	-0.138	0.173
-638.638	191.220	-0.094	0.143
-637.624	251.747	0.132	0.226
-636.609	-101.716	-0.132	0.032
-635.595	26.341	-0.194	-0.163
-634.580	23.890	0.117	0.098
-633.565	-176.119	0.317	-0.008
-632.551	-46.991	-0.142	0.070
-631.536	800.000	0.081	0.324
-630.522	-104.421	0.108	-0.025
-629.507	-106.164	-0.262	-0.059
-628.492	114.897	-0.139	-0.170
-627.478	32.758	0.165	0.144
-626.463	-199.826	-0.308	-0.002
-625.449	48.242	-0.105	-0.099
-624.434	-60.214	0.343	0.147
-623.419	15.282	0.170	0.134
-622.405	-200.000	0.053	0.254
-621.390	279.022	-0.141	0.254
-620.376	-15.149	0.208	0.134
-619.361	46.331	0.117	0.110
-618.346	800.000	-0.112	0.478
-617.332	3.886	-0.187	0.138
-616.317	-30.472	-0.161	0.092
-615.303	256.126	0.182	0.315
-614.288	-182.404	-0.116	-0.002
-613.273	397.740	-0.145	0.306
-612.259	126.944	0.012	0.015
-611.244	-150.752	-0.120	-0.009
-610.230	800.000	0.089	-0.280
-609.215	-47.239	-0.157	-0.077
-608.201	24.503	-0.156	0.130
-607.186	-123.062	-0.096	-0.016
-606.171	435.047	-0.049	-0.107
-605.157	44.497	-0.023	0.021
-604.142	196.566	-0.135	0.208
-603.128	-72.258	-0.333	0.124
-602.113	283.061	-0.138	-0.250
-601.098	-60.174	0.126	-0.054
-600.084	25.382	-0.256	-0.214
-599.069	-28.324	-0.234	-0.136
-598.055	107.763	-0.126	-0.151
-597.040	-200.000	-0.022	-0.266
-596.025	61.846	0.137	0.138
-595.011	232.514	-0.018	-0.030
-593.996	-29.662	-0.142	-0.081
-592.982	-175.295	-0.217	0.006
-591.967	92.539	-0.046	0.052
-590.952	-200.000	-0.038	0.278
-589.938	800.000	0.023	0.079
-588.923	181.487	-0.079	0.117
-587.909	-5.131	0.212	-0.147
-586.894	63.150	-0.068	-0.069
-585.879	209.510	0.212	0.334
-584.865	-200.000	-0.023	-0.136
-583.850	646.215	0.059	-0.151
-582.836	-200.000	0.043	-0.211
-581.821	722.585	-0.018	0.049
-580.806	-200.000	0.008	-0.108
-579.792	800.000	-0.108	0.414
-578.777	-87.131	-0.336	-0.103
-577.763	38.229	-0.158	0.142
-576.748	-112.597	0.232	0.047
-575.733	-52.744	0.177	0.082
-574.719	-38.264	-0.092	0.049
-573.704	800.000	0.091	0.293
-572.690	-200.000	-0.033	-0.214
-571.675	-46.501	0.064	-0.032
-570.661	-176.703	-0.343	0.009
-569.646	-140.065	-0.121	-0.013
-568.631	46.769	0.151	-0.141
-567.617	90.688	-0.130	-0.147
-566.602	159.996	-0.333	0.467
-565.588	572.789	-0.083	0.204
-564.573	-80.037	0.143	-0.048
-563.558	-90.643	-0.092	-0.027
-562.544	800.000	-0.148	0.423
-561.529	-64.460	-0.469	-0.192
-560.515	-123.256	0.406	0.065
-559.500	-200.000	0.016	0.099
-558.485	279.467	0.045	-0.082
-557.471	189.325	0.090	0.136
-556.456	405.334	-0.083	-0.176
-555.442	-110.973	-0.266	0.055
-554.427	-8.885	-0.217	0.146
-553.412	-200.000	0.019	-0.098
-552.398	-200.000	-0.044	-0.271
-551.383	-70.035	0.257	-0.098
-550.369	-200.000	0.018	-0.098
-549.354	-3.805	-0.221	0.154
-548.339	327.523	-0.136	0.262
-547.325	-60.767	-0.183	0.078
-546.310	800.000	-0.149	-0.495
-545.296	-145.161	0.068	-0.006
-544.281	-92.847	0.118	-0.033
-543.266	-200.000	0.007	0.146
-542.252	-200.000	-0.022	-0.352
-541.237	38.950	0.098	0.088
-540.223	253.044	-0.074	0.127
-539.208	-200.000	0.438	-0.001
-538.193	143.324	-0.182	0.243
-537.179	116.185	0.182	0.224
-536.164	191.524	0.043	-0.065
-535.150	-35.731	0.269	-0.146
-534.135	-25.826	-0.100	0.059
-533.121	-14.456	-0.218	-0.141
-532.106	-200.000	0.380	0.001
-531.091	-181.486	0.246	0.005
-530.077	-26.779	-0.149	-0.087
-529.062	-200.000	0.031	0.269
-528.048	49.199	-0.445	-0.420
-527.033	-200.000	-0.022	0.374
-526.018	-141.128	0.381	0.039
-525.004	-200.000	0.020	0.260
-523.989	-154.384	-0.504	-0.034
-522.975	-0.845	-0.250	-0.178
-521.960	-33.285	0.208	0.116
-520.945	-36.641	-0.275	-0.148
-519.931	-53.257	0.276	0.127
-518.916	321.433	0.045	-0.087
-517.902	85.407	-0.321	0.353
-516.887	75.639	0.281	-0.298
-515.872	22.671	-0.199	-0.164
-514.858	11.653	-0.145	0.112
-513.843	-106.960	-0.186	-0.041
-512.829	-79.818	-0.254	-0.086
-511.814	-193.827	0.293	-0.002
-510.799	102.119	-0.159	-0.187
-509.785	-63.015	0.347	0.144
-508.770	163.030	-0.099	0.140
-507.756	-30.437	-0.060	0.034
-506.741	-148.291	-0.170	-0.014
-505.726	135.543	-0.048	0.063
-504.712	1.629	0.070	-0.050
-503.697	-111.186	-0.069	-0.014
-502.683	-59.188	-0.254	0.110
-501.668	-99.913	-0.226	-0.057
-500.653	-110.815	0.328	0.068
-499.639	58.664	-0.492	-0.484
-498.624	-90.114	-0.071	0.021
-497.610	236.123	-0.136	0.225
-496.595	-200.000	0.001	-0.384
-495.581	-53.481	-0.351	-0.161
-494.566	37.365	0.286	-0.255
-493.551	185.746	-0.141	0.211
-492.537	-200.000	-0.036	-0.270
-491.522	-154.858	0.131	0.009
-490.508	800.000	0.039	0.161
-489.493	800.000	0.039	-0.154
-488.478	195.821	0.259	0.394
-487.464	215.088	0.171	-0.271
-486.449	-33.097	-0.188	-0.105
-485.435	-127.187	0.108	0.016
-484.420	-127.510	-0.109	0.016
-483.405	108.856	0.203	0.243
-482.391	17.230	0.047	0.037
-481.376	17.225	0.130	-0.104
-480.362	50.603	0.139	0.132
-479.347	96.891	0.119	-0.137
-478.332	-200.000	0.048	-0.230
-477.318	-145.811	0.219	-0.020
-476.303	242.591	-0.092	0.154
-475.289	-200.000	0.029	-0.201
-474.274	-81.364	-0.081	0.027
-473.259	-27.579	-0.336	-0.196
-472.245	28.504	0.243	-0.206
-471.230	202.248	0.115	0.178
-470.216	156.254	-0.232	0.321
-469.201	209.592	-0.089	0.140
-468.186	222.754	-0.059	0.095
-467.172	-168.155	0.163	-0.006
-466.157	-200.000	-0.004	-0.266
-465.143	17.499	0.084	0.067
-464.128	172.975	0.109	0.157
-463.113	800.000	0.032	0.121
-462.099	-160.281	-0.152	0.008
-461.084	-141.889	0.267	-0.027
-460.070	150.552	0.029	0.039
-459.055	-200.000	-0.019	0.206
-458.040	94.937	0.190	0.217
-457.026	524.199	-0.096	0.226
-456.011	63.292	-0.159	-0.160
-454.997	7.818	0.246	0.184
-453.982	-145.481	0.097	-0.009
-452.968	-121.146	0.173	0.029
-451.953	-200.000	0.019	-0.220
-450.938	224.655	0.204	-0.330
-449.924	21.881	0.190	-0.155
-448.909	189.341	-0.161	0.242
-447.895	-4.672	0.137	0.095
-446.880	206.251	-0.094	0.147
-445.865	-44.610	-0.261	0.131
-444.851	83.128	-0.157	0.171
-443.836	233.125	-0.130	-0.215
-442.822	501.225	-0.064	0.147
-441.807	-200.000	0.027	0.136
-440.792	-0.177	-0.268	-0.191
-439.778	-200.000	-0.069	-0.309
-438.763	800.000	0.033	-0.105
-437.749	-200.000	-0.019	0.253
-436.734	-4.414	-0.235	0.163
-435.719	119.494	-0.152	-0.189
-434.705	166.217	0.048	-0.068
-433.690	469.023	0.182	-0.409
-432.676	-8.811	0.065	-0.044
-431.661	800.000	-0.018	0.052
-430.646	-123.133	-0.224	0.036
-429.632	-172.735	-0.107	-0.003
-428.617	800.000	0.074	-0.235
-427.603	-200.000	-0.036	0.168
-426.588	-22.711	-0.236	-0.143
-425.573	7.587	0.157	0.118
-424.559	-170.052	0.153	-0.005
-423.544	96.170	-0.150	0.172
-422.530	-75.860	0.378	0.134
-421.515	-200.000	-0.027	0.209
-420.500	800.000	-0.055	0.157
-419.486	42.409	0.117	0.106
-418.471	63.970	-0.208	0.210
-417.457	87.579	-0.088	-0.097
-416.442	-16.382	-0.143	-0.091
-415.428	185.688	0.225	-0.334
-414.413	-200.000	-0.037	-0.182
-413.398	-200.000	-0.003	-0.083
-412.384	-114.247	0.192	-0.037
-411.369	-155.657	0.237	0.015
-410.355	-50.515	0.173	0.082
-409.340	-4.045	-0.058	0.040
-408.325	120.485	-0.189	-0.235
-407.311	627.694	-0.016	0.039
-406.296	-16.899	0.223	0.141
-405.282	-86.458	-0.114	0.035
-404.267	-127.346	0.085	-0.012
-403.252	-90.371	-0.318	-0.092
-402.238	123.687	0.107	0.134
-401.223	-200.000	0.007	0.121
-400.209	210.799	-0.111	-0.174
-399.194	800.000	0.019	-0.067
-398.179	-81.860	-0.085	0.028
-397.165	-66.444	0.129	-0.051
-396.150	-200.000	0.014	0.177
-395.136	-78.893	-0.095	-0.032
-394.121	243.447	0.212	0.355
-393.106	-200.000	0.025	0.208
-392.092	-47.763	0.164	-0.079
-391.077	800.000	-0.104	-0.328
-390.063	518.567	0.022	-0.050
-389.048	800.000	0.025	0.083
-388.033	-72.893	0.150	0.055
-387.019	144.519	-0.096	0.128
-386.004	54.843	0.221	0.213
-384.990	25.510	0.161	-0.133
-383.975	183.590	0.160	0.236
-382.960	-24.759	0.080	0.048
-381.946	800.000	0.018	0.056
-380.931	-155.942	0.214	0.014
-379.917	-186.921	-0.186	0.003
-378.902	401.026	0.075	0.157
-377.888	-20.455	0.253	0.155
-376.873	139.543	-0.124	-0.163
-375.858	302.354	-0.132	-0.243
-374.844	-152.342	0.166	-0.012
-373.829	-25.241	-0.355	-0.210
-372.815	541.431	0.064	0.151
-371.800	798.358	0.164	-0.452
-370.785	12.081	0.161	-0.124
-369.771	93.396	0.317	0.358
-368.756	353.978	-0.077	0.152
-367.742	288.632	-0.017	-0.031
-366.727	5.453	-0.278	-0.205
-365.712	51.043	-0.042	-0.039
-364.698	92.823	-0.055	-0.062
-363.683	-78.217	0.176	0.060
-362.669	-200.000	0.045	-0.199
-361.654	256.327	-0.112	-0.191
-360.639	-123.624	0.207	-0.033
-359.625	36.187	-0.324	-0.285
-358.610	-200.000	0.010	0.166
-357.596	-99.428	-0.361	-0.091
-356.581	37.014	-0.226	-0.200
-355.566	-49.461	-0.089	-0.042
-354.552	756.181	-0.079	-0.212
-353.537	-200.000	0.070	-0.515
-352.523	800.000	-0.023	0.076
-351.508	-200.000	-0.052	-0.369
-350.493	-144.858	0.235	-0.021
-349.479	-156.718	-0.149	-0.009
-348.464	317.001	0.138	0.259
-347.450	-75.451	-0.148	-0.053
-346.435	-200.000	-0.038	-0.349
-345.420	-90.692	0.068	-0.020
-344.406	-62.547	-0.053	-0.022
-343.391	92.890	0.130	0.146
-342.377	-97.567	0.098	0.025
-341.362	47.738	0.172	-0.160
-340.348	-64.224	0.438	0.178
-339.333	-27.760	0.264	0.152
-338.318	66.597	-0.066	0.067
-337.304	105.001	0.231	-0.272
-336.289	11.266	0.124	-0.095
-335.275	-86.275	-0.309	-0.095
-334.260	-34.427	-0.224	-0.122
-333.245	-200.000	-0.037	0.208
-332.231	493.714	-0.009	-0.021
-331.216	38.183	0.214	0.190
-330.202	13.499	-0.416	-0.322
-329.187	206.068	-0.240	0.373
-328.172	-200.000	0.006	0.181
-327.158	78.381	-0.132	-0.140
-326.143	-200.000	0.006	-0.120
-325.129	-8.991	-0.267	-0.178
-324.114	-200.000	-0.008	-0.354
-323.099	-200.000	0.016	-0.125
-322.085	-200.000	0.043	0.317
-321.070	20.010	-0.339	0.273
-320.056	189.170	0.280	-0.417
-319.041	-50.837	0.108	-0.050
-318.026	54.766	-0.254	-0.244
-317.012	800.000	0.119	0.383
-315.997	800.000	0.125	0.405
-314.983	21.568	0.296	-0.240
-313.968	-34.480	0.190	-0.103
-312.953	34.030	-0.171	0.148
-311.939	-25.354	0.081	-0.048
-310.924	800.000	0.110	-0.384
-309.910	63.481	0.030	0.030
-308.895	402.182	0.051	0.107
-307.880	800.000	0.059	-0.202
-306.866	-200.000	-0.027	-0.247
-305.851	-130.859	0.154	-0.021
-304.837	-81.949	0.179	-0.058
-303.822	-200.000	0.011	-0.076
-302.807	95.148	0.203	-0.230
-301.793	-119.025	-0.263	0.046
-300.778	-73.367	0.204	0.074
-299.764	-118.178	-0.161	-0.029
-298.749	526.143	-0.092	-0.215
-297.735	800.000	0.060	0.180
-296.720	-12.860	0.129	-0.084
-295.705	380.840	0.133	-0.271
-294.691	-12.671	-0.246	0.160
-293.676	800.000	-0.125	-0.355
-292.662	-27.748	-0.131	-0.076
-291.647	356.952	-0.001	-0.003
-290.632	66.659	0.063	0.063
-289.618	-26.452	-0.259	-0.151
-288.603	-200.000	0.006	0.068
-287.589	-200.000	0.013	-0.066
-286.574	-200.000	0.006	0.210
-285.559	-50.153	0.201	0.095
-284.545	-89.751	0.368	0.107
-283.530	-115.288	-0.169	0.032
-282.516	-200.000	0.020	0.177
-281.501	10.900	-0.127	0.096
-280.486	-200.000	0.014	0.221
-279.472	-44.713	0.364	-0.181
-278.457	351.111	-0.149	0.293
-277.443	800.000	-0.045	0.191
-276.428	-115.455	-0.237	0.044
-275.413	-165.651	0.295	0.013
-274.399	121.958	0.109	0.135
-273.384	156.485	-0.155	0.213
-272.370	800.000	-0.035	-0.124
-271.355	-118.718	-0.501	0.088
-270.340	-16.000	-0.274	0.173
-269.326	102.696	0.188	0.219
-268.311	-200.000	-0.023	0.234
-267.297	-90.355	-0.343	0.099
-266.282	46.894	0.166	0.153
-265.267	800.000	-0.075	-0.314
-264.253	-200.000	-0.042	-0.192
-263.238	-166.970	0.134	-0.005
-262.224	-41.522	0.307	-0.157
-261.209	-200.000	0.068	-0.417
-260.195	-79.400	0.237	0.080
-259.180	26.286	0.258	0.214
-258.165	-83.186	0.144	-0.046
-257.151	-200.000	0.039	-0.192
-256.136	1.584	-0.039	-0.028
-255.122	-131.894	0.159	-0.021
-254.107	-145.929	-0.347	-0.031
-253.092	-25.735	0.170	-0.100
-252.078	430.208	0.092	-0.199
-251.063	120.263	0.088	0.109
-250.049	464.277	0.108	0.239
-249.034	165.601	-0.220	0.308
-248.019	-13.117	0.093	-0.060
-247.005	40.842	0.172	-0.154
-245.990	800.000	-0.061	-0.207
-244.976	-52.759	-0.172	-0.079
-243.961	28.656	0.292	-0.246
-242.946	410.942	-0.081	-0.170
-241.932	86.417	-0.033	-0.036
-240.917	800.000	-0.048	-0.157
-239.903	-78.542	0.222	0.075
-238.888	-150.760	0.121	-0.009
-237.873	411.121	0.097	0.205
-236.859	49.275	0.298	0.278
-235.844	-118.261	0.281	-0.050
-234.830	-7.509	-0.094	0.063
-233.815	245.807	0.169	-0.283
-232.800	135.288	0.103	-0.133
-231.786	-200.000	-0.024	-0.124
-230.771	40.843	-0.065	-0.058
-229.757	-45.277	-0.444	0.219
-228.742	-100.426	0.340	0.084
-227.727	-200.000	0.023	0.190
-226.713	-112.667	0.274	0.054
-225.698	-200.000	0.032	0.163
-224.684	-124.239	-0.121	0.019
-223.669	235.122	0.092	0.150
-222.655	-200.000	0.006	0.058
-221.640	-38.733	0.194	0.102
-220.625	800.000	0.185	-0.549
-219.611	48.722	-0.110	0.102
-218.596	66.142	0.357	-0.360
-217.582	-59.687	-0.093	0.040
-216.567	-200.000	-0.003	-0.117
-215.552	160.137	-0.250	-0.345
-214.538	118.847	-0.020	0.024
-213.523	-109.939	-0.198	0.041
-212.509	-200.000	0.015	0.195
-211.494	63.422	0.164	-0.163
-210.479	25.735	0.181	-0.150
-209.465	-92.810	-0.267	0.074
-208.450	85.597	-0.095	0.103
-207.436	53.517	0.091	0.087
-206.421	129.489	-0.152	-0.193
-205.406	-200.000	-0.027	0.137
-204.392	800.000	-0.088	0.308
-203.377	-97.480	0.136	-0.035
-202.363	-131.601	0.136	0.018
-201.348	112.435	0.078	-0.093
-200.333	200.380	-0.096	-0.146
-199.319	-115.424	0.260	-0.049
-198.304	-112.785	0.129	-0.025
-197.290	-17.661	0.169	-0.105
-196.275	38.484	-0.227	0.201
-195.260	175.149	0.094	-0.135
-194.246	-28.248	0.160	0.092
-193.231	528.145	-0.030	0.071
-192.217	35.591	-0.163	0.142
-191.202	-2.493	0.121	0.084
-190.187	27.925	-0.115	0.096
-189.173	271.206	-0.089	0.156
-188.158	376.695	-0.113	0.229
-187.144	-200.000	0.026	-0.236
-186.129	-27.220	0.086	0.050
-185.114	381.015	-0.103	-0.210
-184.100	344.469	-0.059	-0.114
-183.085	-200.000	0.046	-0.384
-182.071	118.769	-0.252	0.309
-181.056	236.631	-0.085	-0.139
-180.042	-121.135	0.131	0.022
-179.027	-200.000	-0.020	-0.225
-178.012	242.658	0.167	-0.277
-176.998	-120.680	0.162	-0.027
-175.983	-111.009	-0.208	0.042
-174.969	-142.900	0.250	-0.024
-173.954	-13.755	-0.239	0.153
-172.939	800.000	0.028	0.090
-171.925	116.781	0.076	0.092
-170.910	-66.814	0.237	-0.093
-169.896	-200.000	-0.020	0.270
-168.881	69.686	-0.174	-0.178
-167.866	-79.738	-0.363	-0.121
-166.852	-177.001	-0.171	-0.004
-165.837	-164.842	0.179	-0.008
-164.823	161.748	-0.109	0.151
-163.808	800.000	0.051	-0.207
-162.793	41.374	0.287	0.257
-161.779	28.802	0.334	0.280
-160.764	-200.000	0.025	-0.215
-159.750	287.453	-0.201	-0.359
-158.735	-60.065	0.130	-0.055
-157.720	800.000	0.115	0.329
-156.706	-108.723	0.197	-0.042
-155.691	267.634	-0.172	0.297
-154.677	800.000	-0.102	0.279
-153.662	800.000	-0.033	0.114
-152.647	-0.623	-0.116	0.081
-151.633	303.304	0.206	-0.378
-150.618	-200.000	0.019	0.202
-149.604	800.000	0.059	0.166
-148.589	-126.907	0.047	0.007
-147.574	179.390	0.117	0.170
-146.560	77.039	0.079	0.083
-145.545	-62.779	-0.163	0.067
-144.531	-200.000	-0.008	-0.131
-143.516	739.191	-0.082	0.218
-142.502	-61.507	0.304	-0.127
-141.487	96.615	0.166	0.188
-140.472	158.203	-0.041	-0.056
-139.458	-120.214	-0.189	0.032
-138.443	5.212	0.136	-0.099
-137.429	74.145	0.132	-0.137
-136.414	-200.000	-0.027	0.290
-135.399	-200.000	-0.018	-0.225
-134.385	-36.014	-0.248	-0.133
-133.370	-57.240	-0.058	-0.025
-132.356	139.416	-0.178	0.231
-131.341	272.269	0.075	0.132
-130.326	115.204	0.146	0.176
-129.312	800.000	0.072	0.251
-128.297	-200.000	0.071	-0.484
-127.283	-44.618	0.070	0.035
-126.268	139.797	0.239	0.311
-125.253	741.293	0.031	0.082
-124.239	-200.000	-0.010	0.070
-123.224	228.640	-0.183	-0.294
-122.210	70.401	-0.376	0.384
-121.195	-200.000	0.023	-0.107
-120.180	471.023	0.103	-0.228
