DTS Sentinel unit serial number:	SN413079Multiplexer serial number:	ORYXHardware model number:	OX4-SRSoftware version number:	ORYX F/W v4.00 Oryx Data Collector v3.7.2.0data status	okinstallation	princeton_trtdifferential loss correction	single-endedforward channel	channel 1reverse channel	N/Adate	2019/09/19time	04:38:35forward acquisition time	60.00reverse acquisition time	0.00gamma	496.2192k internal	0.2342k external	0.2342temperature offset calibration	1.0019default loss term (dB/km)	0.3790temperature slope calibration	1.0000multiplexer offset coefficient	1.0000multiplexer slope coefficient	1.0000fibre end	0.00T internal ref (°C)	20.00T ext. ref 1 (°C)	0.62T ext. ref 2 (°C)	12.95length (m)	temperature (°C)	Stokes	anti-Stokes-747.200	-21.752	-0.121	-0.074
-746.185	37.691	-0.164	-0.146
-745.171	800.000	0.054	-0.161
-744.156	-200.000	-0.038	0.229
-743.142	700.430	0.094	0.248
-742.127	-74.104	0.090	0.033
-741.112	-10.559	-0.251	0.166
-740.098	-116.351	0.137	0.025
-739.083	800.000	-0.032	0.120
-738.069	-129.286	-0.190	0.027
-737.054	-99.339	-0.186	0.047
-736.039	-80.994	-0.409	0.136
-735.025	800.000	-0.072	0.235
-734.010	-200.000	-0.026	0.375
-732.996	-135.972	-0.133	0.016
-731.981	-200.000	-0.081	0.368
-730.966	-48.962	-0.248	-0.119
-729.952	-159.460	0.176	-0.010
-728.937	-200.000	-0.075	-0.335
-727.923	-40.629	0.119	0.062
-726.908	12.023	0.182	0.140
-725.894	-81.512	-0.557	-0.183
-724.879	-30.209	-0.306	-0.174
-723.864	120.277	-0.032	0.039
-722.850	659.539	0.016	-0.041
-721.835	-111.044	-0.502	-0.103
-720.821	-154.675	0.345	0.023
-719.806	-200.000	-0.002	-0.055
-718.791	-73.931	-0.416	-0.151
-717.777	19.909	-0.249	0.200
-716.762	691.422	0.113	-0.296
-715.748	-44.154	0.059	0.030
-714.733	-2.797	-0.078	-0.054
-713.718	-79.136	-0.049	-0.017
-712.704	-43.051	0.441	-0.224
-711.689	-189.759	-0.102	0.001
-710.675	345.264	-0.160	-0.314
-709.660	-144.393	0.273	0.025
-708.645	85.940	-0.182	-0.201
-707.631	14.736	-0.207	-0.162
-706.616	64.445	0.136	0.138
-705.602	-200.000	0.043	-0.244
-704.587	-43.133	-0.315	-0.160
-703.572	78.174	-0.048	0.051
-702.558	-200.000	-0.009	-0.040
-701.543	-74.414	0.330	0.119
-700.529	-170.133	-0.072	-0.003
-699.514	566.979	-0.070	-0.170
-698.499	-79.224	0.256	0.087
-697.485	-46.120	0.190	0.094
-696.470	-200.000	-0.023	-0.161
-695.456	31.715	0.089	-0.077
-694.441	753.510	-0.142	-0.384
-693.426	244.441	0.106	0.177
-692.412	-8.501	0.070	-0.047
-691.397	424.796	-0.317	-0.683
-690.383	-28.872	-0.209	-0.120
-689.368	66.632	-0.125	-0.127
-688.354	97.648	0.040	0.046
-687.339	-200.000	0.048	0.211
-686.324	-99.342	0.105	0.026
-685.310	-35.170	-0.138	-0.075
-684.295	100.024	-0.085	0.098
-683.281	-200.000	-0.030	0.246
-682.266	249.287	0.183	-0.310
-681.251	234.789	-0.066	0.109
-680.237	800.000	-0.075	0.325
-679.222	413.246	0.120	0.255
-678.208	-200.000	-0.026	-0.129
-677.193	132.964	-0.101	-0.131
-676.178	-52.231	-0.183	0.085
-675.164	217.234	-0.053	0.085
-674.149	-105.847	-0.272	0.061
-673.135	-140.914	-0.546	0.056
-672.120	-200.000	0.084	0.402
-671.105	-31.744	0.257	-0.144
-670.091	156.786	0.162	0.224
-669.076	-200.000	-0.038	0.217
-668.062	65.794	-0.069	-0.070
-667.047	251.537	-0.098	0.167
-666.032	9.097	0.186	0.141
-665.018	-110.845	-0.142	0.029
-664.003	-150.911	-0.372	-0.028
-662.989	-81.376	0.248	0.082
-661.974	-19.458	0.179	0.111
-660.959	11.276	-0.076	-0.058
-659.945	-47.018	0.263	-0.128
-658.930	-200.000	0.006	0.121
-657.916	57.866	0.199	0.194
-656.901	-131.605	-0.278	0.036
-655.886	-23.891	0.076	0.046
-654.872	-150.513	0.119	-0.009
-653.857	265.666	0.159	-0.277
-652.843	76.738	-0.163	0.173
-651.828	-144.077	0.287	-0.027
-650.814	-40.983	-0.225	-0.116
-649.799	213.920	0.205	-0.324
-648.784	-32.005	0.079	0.044
-647.770	-124.801	0.311	-0.048
-646.755	64.331	-0.121	-0.122
-645.741	590.151	-0.056	0.138
-644.726	800.000	-0.072	0.214
-643.711	583.494	-0.170	-0.416
-642.697	8.659	-0.272	0.205
-641.682	-1.371	-0.155	-0.109
-640.668	-200.000	0.007	0.030
-639.653	-128.611	0.254	0.036
-638.638	800.000	0.052	0.155
-637.624	-13.694	0.287	-0.185
-636.609	-200.000	0.006	-0.311
-635.595	719.249	0.067	-0.178
-634.580	-78.881	-0.173	0.059
-633.565	227.074	0.121	0.196
-632.551	800.000	0.075	0.232
-631.536	285.039	-0.018	-0.032
-630.522	-5.990	0.062	-0.042
-629.507	136.883	-0.372	0.484
-628.492	496.246	-0.166	-0.381
-627.478	-67.464	0.100	0.039
-626.463	62.964	-0.095	0.095
-625.449	-200.000	0.016	-0.226
-624.434	-35.553	-0.198	0.107
-623.419	-158.059	0.317	-0.019
-622.405	-38.115	-0.140	0.074
-621.390	-162.711	-0.304	-0.015
-620.376	73.230	0.083	0.087
-619.361	-120.108	0.243	-0.041
-618.346	-200.000	-0.015	0.116
-617.332	-161.639	0.178	-0.009
-616.317	-62.342	0.110	0.046
-615.303	105.076	-0.052	-0.061
-614.288	147.405	0.144	0.194
-613.273	87.529	-0.089	-0.098
-612.259	800.000	0.103	-0.330
-611.244	800.000	0.074	0.245
-610.230	-200.000	-0.003	-0.287
-609.215	55.538	0.103	-0.100
-608.201	-126.002	0.188	-0.028
-607.186	-3.940	0.043	-0.030
-606.171	-54.801	-0.213	-0.096
-605.157	401.270	0.131	-0.274
-604.142	81.676	0.167	0.180
-603.128	-148.929	0.037	-0.003
-602.113	-200.000	-0.315	-0.001
-601.098	-200.000	-0.062	-0.297
-600.084	-100.995	0.183	-0.045
-599.069	-41.671	-0.350	-0.179
-598.055	-82.370	0.023	0.007
-597.040	-200.000	-0.026	0.500
-596.025	-200.000	-0.041	0.315
-595.011	800.000	0.030	-0.110
-593.996	-23.223	-0.397	-0.238
-592.982	-200.000	0.023	-0.170
-591.967	-87.675	-0.265	0.080
-590.952	47.072	-0.063	-0.058
-589.938	-200.000	0.019	-0.264
-588.923	-200.000	0.037	-0.252
-587.909	-85.644	-0.129	-0.040
-586.894	106.214	-0.091	0.108
-585.879	83.147	-0.114	-0.123
-584.865	189.381	-0.047	-0.070
-583.850	457.543	0.101	-0.223
-582.836	-88.606	0.420	-0.124
-581.821	800.000	0.068	0.267
-580.806	-61.483	-0.139	-0.058
-579.792	167.485	-0.111	-0.158
-578.777	-84.550	-0.309	0.097
-577.763	800.000	-0.058	0.176
-576.748	-200.000	-0.031	0.266
-575.733	132.547	-0.082	-0.105
-574.719	769.724	-0.014	-0.038
-573.704	-184.398	0.147	-0.002
-572.690	305.483	0.105	-0.193
-571.675	-30.227	0.070	0.040
-570.661	-200.000	-0.055	0.346
-569.646	32.374	-0.396	0.341
-568.631	130.774	-0.053	0.068
-567.617	-153.654	0.080	0.005
-566.602	-127.505	-0.153	-0.022
-565.588	-15.376	0.500	-0.318
-564.573	153.971	0.112	-0.152
-563.558	-60.702	-0.071	-0.030
-562.544	250.854	0.152	0.257
-561.529	-30.570	0.283	-0.159
-560.515	800.000	0.035	-0.120
-559.500	-43.288	0.145	-0.073
-558.485	-21.124	0.208	0.126
-557.471	-40.604	0.312	0.161
-556.456	37.294	-0.272	0.239
-555.442	-77.359	0.086	-0.030
-554.427	92.199	0.372	0.416
-553.412	16.931	-0.093	-0.074
-552.398	-172.105	-0.110	0.004
-551.383	257.415	0.211	0.361
-550.369	53.678	-0.220	0.210
-549.354	-19.906	-0.035	0.022
-548.339	-200.000	-0.027	-0.119
-547.325	-86.437	-0.221	-0.067
-546.310	-200.000	-0.030	-0.308
-545.296	800.000	-0.071	-0.268
-544.281	418.993	0.177	0.376
-543.266	-200.000	0.050	0.225
-542.252	-86.462	0.283	0.087
-541.237	-15.464	0.334	-0.212
-540.223	-73.002	0.053	0.019
-539.208	-74.244	-0.505	-0.182
-538.193	-200.000	-0.020	0.123
-537.179	-200.000	-0.061	0.272
-536.164	136.221	0.133	-0.173
-535.150	400.403	0.200	-0.416
-534.135	-24.331	0.381	0.226
-533.121	-200.000	-0.012	0.098
-532.106	418.880	-0.219	0.466
-531.091	-200.000	0.004	0.206
-530.077	-200.000	0.033	0.286
-529.062	242.406	0.091	-0.152
-528.048	-113.187	0.221	0.043
-527.033	-115.229	-0.159	-0.030
-526.018	-198.316	-0.469	-0.003
-525.004	-47.758	-0.099	-0.048
-523.989	-58.529	0.247	0.107
-522.975	-77.085	-0.181	0.063
-521.960	116.023	0.095	0.116
-520.945	128.666	-0.137	-0.173
-519.931	-22.397	-0.387	-0.233
-518.916	-150.424	0.420	-0.032
-517.902	-87.536	-0.172	0.052
-516.887	-161.373	-0.315	-0.016
-515.872	23.578	-0.152	0.124
-514.858	-200.000	0.004	0.142
-513.843	-156.892	0.244	-0.015
-512.829	48.418	-0.187	-0.174
-511.814	27.786	-0.218	0.182
-510.799	-83.546	-0.284	0.090
-509.785	-20.562	0.281	0.171
-508.770	52.939	0.162	0.154
-507.756	800.000	-0.097	-0.380
-506.741	-77.245	0.064	0.022
-505.726	146.871	-0.087	0.116
-504.712	-112.257	0.019	0.004
-503.697	-200.000	-0.006	-0.033
-502.683	266.368	0.101	0.176
-501.668	800.000	-0.055	0.153
-500.653	-200.000	-0.028	-0.254
-499.639	-53.160	0.334	-0.152
-498.624	-103.088	-0.251	0.059
-497.610	21.258	0.237	-0.191
-496.595	-147.657	-0.267	-0.022
-495.581	-200.000	-0.042	0.294
-494.566	198.505	-0.164	0.250
-493.551	-194.430	-0.259	0.002
-492.537	800.000	0.038	-0.131
-491.522	115.643	-0.111	-0.134
-490.508	800.000	0.041	0.131
-489.493	-54.505	0.135	-0.061
-488.478	-150.513	-0.215	-0.016
-487.464	59.201	-0.109	-0.106
-486.449	264.880	0.024	-0.042
-485.435	38.683	-0.190	-0.168
-484.420	800.000	-0.040	-0.165
-483.405	706.152	-0.056	0.148
-482.391	800.000	0.051	0.192
-481.376	246.768	-0.124	0.207
-480.362	-200.000	-0.003	-0.245
-479.347	627.223	0.079	0.198
-478.332	544.839	-0.155	-0.367
-477.318	73.778	-0.198	0.206
-476.303	-117.440	0.122	-0.022
-475.289	800.000	0.060	0.180
-474.274	-84.035	0.217	0.068
-473.259	14.833	0.099	-0.077
-472.245	-129.243	-0.174	0.024
-471.230	-176.265	0.241	-0.006
-470.216	-5.768	-0.420	-0.285
-469.201	422.777	0.107	-0.229
-468.186	-107.171	0.258	0.056
-467.172	800.000	0.088	-0.316
-466.157	-65.447	0.342	-0.136
-465.143	118.699	-0.154	-0.188
-464.128	-25.700	0.245	-0.143
-463.113	-133.963	-0.011	-0.001
-462.099	800.000	0.102	0.332
-461.084	205.251	0.108	0.165
-460.070	42.692	0.091	-0.082
-459.055	44.661	0.206	-0.187
-458.040	168.689	-0.149	-0.210
-457.026	-11.412	-0.072	-0.047
-456.011	-41.338	-0.293	0.149
-454.997	-139.856	0.261	-0.027
-453.982	800.000	-0.030	-0.095
-452.968	-68.037	0.430	0.166
-451.953	-80.787	0.087	-0.029
-450.938	-39.826	-0.172	0.089
-449.924	-62.903	0.153	-0.062
-448.909	800.000	-0.090	-0.300
-447.895	-131.886	0.344	0.045
-446.880	-26.952	-0.187	0.108
-445.865	225.902	0.185	0.298
-444.851	-200.000	-0.069	0.369
-443.836	-200.000	0.004	0.029
-442.822	800.000	-0.061	0.196
-441.807	-138.783	-0.164	-0.018
-440.792	-137.659	-0.193	-0.022
-439.778	364.845	0.024	0.048
-438.763	-174.098	0.199	0.006
-437.749	-180.636	0.257	-0.005
-436.734	92.796	0.146	-0.163
-435.719	96.864	-0.050	-0.057
-434.705	-34.958	-0.347	0.188
-433.690	800.000	-0.033	0.112
-432.676	101.532	0.062	-0.071
-431.661	-88.433	0.134	0.039
-430.646	587.128	-0.107	-0.260
-429.632	733.927	-0.041	-0.107
-428.617	-97.841	0.090	0.023
-427.603	800.000	0.090	-0.310
-426.588	147.083	0.124	0.165
-425.573	523.692	0.107	0.249
-424.559	28.934	0.038	0.032
-423.544	-68.555	-0.077	-0.030
-422.530	-50.573	0.134	0.063
-421.515	-99.192	-0.204	-0.051
-420.500	-56.422	-0.060	-0.026
-419.486	-46.465	-0.206	0.100
-418.471	-59.513	-0.268	0.114
-417.457	-105.236	-0.418	0.094
-416.442	800.000	0.020	0.062
-415.428	-4.836	-0.297	0.202
-414.413	-92.998	-0.222	-0.061
-413.398	0.101	-0.167	0.117
-412.384	224.936	-0.130	0.208
-411.369	-184.714	0.486	0.008
-410.355	-200.000	-0.002	-0.058
-409.340	-46.984	-0.133	-0.064
-408.325	-78.146	0.241	-0.082
-407.311	115.069	-0.240	-0.290
-406.296	-200.000	0.051	0.224
-405.282	-24.813	-0.055	0.032
-404.267	-165.511	-0.461	0.020
-403.252	-200.000	-0.021	0.111
-402.238	-154.812	0.145	0.009
-401.223	-21.677	0.183	-0.110
-400.209	117.490	-0.103	-0.125
-399.194	208.685	-0.032	0.049
-398.179	-89.537	0.115	0.033
-397.165	800.000	0.071	0.276
-396.150	46.817	0.107	0.098
-395.136	-177.306	0.329	-0.008
-394.121	-127.959	0.180	-0.026
-393.106	-200.000	0.046	0.205
-392.092	7.480	-0.138	-0.102
-391.077	-200.000	-0.003	-0.110
-390.063	800.000	-0.043	-0.168
-389.048	-95.166	0.132	-0.035
-388.033	-200.000	0.049	-0.227
-387.019	-98.572	0.299	0.075
-386.004	-146.509	-0.133	0.011
-384.990	-111.132	0.117	0.024
-383.975	-74.448	-0.223	-0.079
-382.960	113.671	-0.131	-0.158
-381.946	95.195	0.156	-0.176
-380.931	-102.763	-0.295	0.069
-379.917	-107.128	0.508	0.111
-378.902	-106.646	-0.285	-0.063
-377.888	30.204	0.150	-0.126
-376.873	-30.604	-0.215	-0.121
-375.858	176.602	0.121	0.173
-374.844	709.380	0.136	0.354
-373.829	103.089	-0.133	0.154
-372.815	117.794	-0.189	-0.230
-371.800	-40.474	-0.282	0.144
-370.785	-132.053	0.097	0.012
-369.771	-50.840	0.261	0.121
-368.756	362.320	-0.069	-0.138
-367.742	-91.090	-0.258	0.073
-366.727	155.079	0.113	-0.153
-365.712	-121.443	0.187	0.031
-364.698	-94.483	-0.046	-0.012
-363.683	-200.000	-0.032	-0.259
-362.669	-82.068	0.162	0.052
-361.654	800.000	-0.077	-0.250
-360.639	112.240	0.081	-0.096
-359.625	-15.830	-0.065	0.041
-358.610	-139.153	-0.337	0.036
-357.596	516.224	0.077	0.176
-356.581	-115.760	0.162	-0.030
-355.566	-200.000	0.023	-0.272
-354.552	800.000	-0.063	-0.198
-353.537	-200.000	-0.021	-0.234
-352.523	800.000	-0.088	0.327
-351.508	-200.000	-0.026	0.520
-350.493	-62.088	-0.085	-0.035
-349.479	-200.000	0.014	-0.094
-348.464	82.096	0.133	0.142
-347.450	472.440	-0.102	0.226
-346.435	-2.788	-0.092	0.064
-345.420	-164.847	0.137	0.006
-344.406	-200.000	0.026	0.155
-343.391	-49.053	-0.136	-0.064
-342.377	800.000	-0.050	-0.178
-341.362	-200.000	-0.051	-0.290
-340.348	-91.695	0.147	-0.041
-339.333	56.515	0.183	-0.175
-338.318	-61.045	-0.191	-0.080
-337.304	-107.200	-0.325	-0.071
-336.289	-200.000	0.035	0.171
-335.275	800.000	-0.039	0.154
-334.260	254.970	0.008	0.014
-333.245	130.160	0.067	-0.084
-332.231	-114.425	0.178	0.034
-331.216	-167.965	-0.119	0.005
-330.202	-160.985	-0.175	0.009
-329.187	-6.295	0.300	-0.202
-328.172	534.377	-0.194	-0.452
-327.158	-110.609	-0.085	-0.017
-326.143	132.949	0.242	-0.308
-325.129	800.000	0.029	-0.084
-324.114	110.252	-0.077	0.091
-323.099	423.123	-0.118	-0.250
-322.085	158.092	-0.172	-0.235
-321.070	-174.363	-0.507	-0.014
-320.056	800.000	0.022	0.072
-319.041	800.000	0.052	0.170
-318.026	179.398	0.022	-0.031
-317.012	-200.000	0.048	-0.298
-315.997	-108.364	0.393	-0.084
-314.983	-200.000	-0.026	-0.112
-313.968	692.028	-0.070	-0.180
-312.953	73.641	0.234	0.241
-311.939	75.984	-0.078	0.081
-310.924	-9.161	-0.320	0.211
-309.910	99.309	-0.019	0.022
-308.895	723.430	0.062	0.163
-307.880	669.641	0.027	-0.070
-306.866	9.960	-0.280	-0.210
-305.851	-88.483	0.472	-0.139
-304.837	632.676	-0.041	-0.102
-303.822	800.000	0.039	-0.136
-302.807	-200.000	-0.025	0.242
-301.793	62.205	0.212	0.208
-300.778	310.932	-0.062	0.115
-299.764	-200.000	-0.017	0.136
-298.749	-160.426	-0.174	0.009
-297.735	23.755	0.180	0.146
-296.720	8.903	-0.099	0.074
-295.705	34.007	0.060	-0.052
-294.691	21.949	0.149	0.119
-293.676	185.279	0.281	0.410
-292.662	212.929	-0.114	0.177
-291.647	84.212	-0.185	-0.199
-290.632	-85.901	0.216	-0.066
-289.618	382.826	-0.081	0.163
-288.603	800.000	-0.081	-0.228
-287.589	105.227	0.190	0.221
-286.574	-73.430	-0.004	0.001
-285.559	-99.125	0.367	0.091
-284.545	197.295	0.079	-0.118
-283.530	479.297	0.181	0.404
-282.516	-200.000	0.016	0.072
-281.501	800.000	0.035	0.131
-280.486	-131.422	-0.199	-0.026
-279.472	-72.344	0.154	-0.056
-278.457	-119.533	-0.270	-0.046
-277.443	-147.060	-0.092	-0.008
-276.428	800.000	0.022	0.061
-275.413	437.222	-0.120	0.257
-274.399	-136.916	-0.130	-0.015
-273.384	-200.000	-0.014	-0.181
-272.370	36.490	-0.324	-0.281
-271.355	574.214	0.134	0.322
-270.340	23.088	-0.040	0.033
-269.326	-180.671	0.191	0.004
-268.311	-147.789	-0.258	0.021
-267.297	-200.000	0.034	-0.192
-266.282	-35.581	-0.082	-0.044
-265.267	-152.296	0.389	0.028
-264.253	25.855	0.174	0.143
-263.238	34.894	0.148	0.127
-262.224	-25.002	-0.044	0.026
-261.209	178.877	-0.119	0.171
-260.195	268.655	-0.145	-0.251
-259.180	-45.071	0.376	-0.184
-258.165	-151.969	0.317	-0.023
-257.151	-162.545	-0.358	-0.017
-256.136	-140.050	0.189	-0.020
-255.122	800.000	0.064	0.201
-254.107	563.732	-0.032	0.077
-253.092	-140.785	-0.105	0.011
-252.078	-27.604	0.151	-0.086
-251.063	-200.000	-0.041	-0.262
-250.049	-48.150	0.094	-0.045
-249.034	110.891	0.172	0.204
-248.019	-38.523	0.018	-0.009
-247.005	-35.338	-0.119	0.063
-245.990	-200.000	0.027	0.326
-244.976	-38.587	-0.222	0.115
-243.961	24.804	0.115	-0.094
-242.946	-167.085	0.160	-0.006
-241.932	383.651	0.020	-0.041
-240.917	-31.548	0.183	0.101
-239.903	332.947	-0.186	-0.352
-238.888	102.488	0.093	-0.107
-237.873	357.792	-0.092	-0.180
-236.859	-105.139	-0.192	0.043
-235.844	-108.643	0.311	0.066
-234.830	-130.258	-0.304	0.041
-233.815	70.867	0.037	0.038
-232.800	800.000	-0.070	-0.271
-231.786	-62.267	-0.244	0.100
-230.771	-29.317	-0.274	0.154
-229.757	-200.000	0.056	-0.301
-228.742	-99.879	0.288	-0.071
-227.727	-132.366	0.220	-0.028
-226.713	-55.356	-0.079	0.035
-225.698	-101.801	-0.246	0.058
-224.684	800.000	-0.040	0.152
-223.669	125.390	0.221	0.273
-222.655	160.051	0.069	0.095
-221.640	-114.317	-0.123	0.023
-220.625	-154.622	-0.168	-0.011
-219.611	48.382	-0.118	-0.108
-218.596	-200.000	-0.017	0.179
-217.582	133.425	0.113	-0.144
-216.567	-39.419	-0.193	0.099
-215.552	-200.000	0.020	-0.090
-214.538	-172.830	-0.291	0.009
-213.523	-200.000	0.074	-0.394
-212.509	287.693	-0.100	-0.178
-211.494	16.466	0.308	0.238
-210.479	-200.000	-0.038	-0.253
-209.465	-103.277	-0.121	-0.028
-208.450	-166.211	-0.264	0.011
-207.436	-7.974	0.046	-0.031
-206.421	-42.893	0.269	-0.134
-205.406	169.926	-0.053	0.074
-204.392	31.332	-0.309	-0.260
-203.377	-163.342	-0.013	-0.001
-202.363	183.186	-0.195	-0.282
-201.348	131.038	-0.043	0.054
-200.333	-0.646	0.194	-0.135
-199.319	191.474	0.136	-0.201
-198.304	-200.000	0.042	0.286
-197.290	79.143	0.118	0.124
-196.275	159.313	0.117	0.160
-195.260	-76.952	-0.151	-0.052
-194.246	-200.000	-0.025	0.270
-193.231	220.396	-0.173	-0.271
-192.217	-35.158	-0.144	0.077
-191.202	150.217	0.200	0.265
-190.187	-200.000	0.040	0.181
-189.173	-36.379	0.041	-0.022
-188.158	-200.000	-0.005	-0.142
-187.144	29.790	0.090	0.076
-186.129	562.083	0.138	0.326
-185.114	-102.363	-0.220	-0.052
-184.100	134.209	0.260	-0.330
-183.085	360.922	-0.150	0.294
-182.071	-38.338	-0.129	0.067
-181.056	-59.722	-0.159	0.067
-180.042	-161.621	0.266	0.013
-179.027	-161.220	0.215	0.011
-178.012	5.082	0.203	0.146
-176.998	-200.000	0.007	0.145
-175.983	-184.061	-0.183	-0.003
-174.969	-82.660	-0.080	-0.025
-173.954	800.000	-0.064	0.275
-172.939	-94.247	-0.196	0.053
-171.925	58.025	0.229	-0.220
-170.910	-51.047	0.143	0.066
-169.896	-200.000	-0.013	-0.364
-168.881	-118.088	-0.122	0.021
-167.866	151.304	-0.114	0.152
-166.852	-200.000	0.045	-0.288
-165.837	800.000	-0.018	0.058
-164.823	226.056	0.122	-0.193
-163.808	800.000	0.040	0.120
-162.793	-152.964	0.307	0.021
-161.779	219.669	0.222	-0.348
-160.764	800.000	-0.078	-0.263
-159.750	239.136	-0.151	-0.247
-158.735	-163.411	-0.268	-0.012
-157.720	-29.314	0.059	-0.033
-156.706	359.416	-0.133	0.261
-155.691	-97.286	-0.285	-0.073
-154.677	-171.481	0.374	-0.012
-153.662	-136.014	0.276	-0.032
-152.647	-200.000	-0.040	0.206
-151.633	-8.714	0.053	-0.035
-150.618	283.447	-0.089	0.157
-149.604	-200.000	-0.042	0.204
-148.589	65.548	0.153	-0.152
-147.574	276.992	0.069	0.120
-146.560	800.000	0.063	0.268
-145.545	-200.000	0.059	0.383
-144.531	225.711	0.146	0.232
-143.516	31.176	0.210	0.176
-142.502	262.447	-0.127	-0.216
-141.487	-58.620	-0.092	0.039
-140.472	-53.955	0.411	-0.183
-139.458	335.521	-0.068	-0.128
-138.443	28.012	0.039	-0.033
-137.429	38.734	-0.050	0.044
-136.414	-200.000	-0.005	0.021
-135.399	179.326	0.041	-0.059
-134.385	-200.000	-0.000	0.050
-133.370	-111.901	-0.185	0.036
-132.356	-32.391	0.350	0.191
-131.341	61.264	-0.074	0.072
-130.326	530.106	-0.126	0.292
-129.312	64.794	-0.114	0.113
-128.297	139.007	0.124	0.159
-127.283	-200.000	0.010	-0.231
-126.268	-116.970	-0.302	-0.054
-125.253	-55.744	-0.294	0.129
-124.239	-116.942	0.281	-0.050
-123.224	-200.000	-0.043	0.363
-122.210	235.610	0.192	-0.310
