DTS Sentinel unit serial number:	SN413079Multiplexer serial number:	ORYXHardware model number:	OX4-SRSoftware version number:	ORYX F/W v4.00 Oryx Data Collector v3.7.2.0data status	okinstallation	princeton_trtdifferential loss correction	single-endedforward channel	channel 1reverse channel	N/Adate	2019/09/16time	13:34:35forward acquisition time	60.00reverse acquisition time	0.00gamma	496.2192k internal	0.2294k external	0.2294temperature offset calibration	0.9944default loss term (dB/km)	0.3790temperature slope calibration	1.0000multiplexer offset coefficient	1.0000multiplexer slope coefficient	1.0000fibre end	0.00T internal ref (°C)	41.94T ext. ref 1 (°C)	13.85T ext. ref 2 (°C)	40.19length (m)	temperature (°C)	Stokes	anti-Stokes-747.200	271.495	0.071	0.127
-746.185	-117.760	0.147	-0.027
-745.171	28.274	0.058	-0.051
-744.156	-51.019	0.513	0.246
-743.142	-124.599	0.031	-0.005
-742.127	109.538	-0.144	0.177
-741.112	800.000	0.021	-0.092
-740.098	-200.000	0.004	0.288
-739.083	3.905	0.017	0.013
-738.069	-78.676	0.223	0.078
-737.054	-78.560	-0.039	-0.014
-736.039	-28.335	-0.171	0.101
-735.025	297.503	0.138	0.260
-734.010	-200.000	0.002	0.206
-732.996	-200.000	0.015	-0.249
-731.981	-28.290	-0.354	-0.209
-730.966	21.188	-0.242	-0.201
-729.952	-80.207	-0.087	0.030
-728.937	275.575	-0.024	0.044
-727.923	204.442	-0.067	0.106
-726.908	800.000	-0.066	-0.227
-725.894	-139.329	-0.284	0.031
-724.879	63.903	0.091	0.094
-723.864	-145.604	-0.168	0.015
-722.850	-200.000	0.007	0.301
-721.835	-117.765	-0.370	-0.068
-720.821	315.363	0.112	-0.216
-719.806	321.500	0.175	-0.341
-718.791	272.088	0.117	0.211
-717.777	133.181	0.093	0.123
-716.762	258.732	-0.130	0.229
-715.748	-132.747	0.150	0.020
-714.733	313.717	-0.005	-0.010
-713.718	-200.000	0.055	-0.289
-712.704	-36.671	-0.154	0.084
-711.689	-165.475	-0.169	-0.008
-710.675	-164.525	-0.126	-0.006
-709.660	372.592	-0.052	0.107
-708.645	-72.715	-0.315	0.119
-707.631	119.326	-0.193	0.245
-706.616	-200.000	0.009	0.056
-705.602	91.203	-0.115	0.131
-704.587	310.656	0.094	-0.180
-703.572	228.188	0.132	0.219
-702.558	800.000	-0.094	-0.383
-701.543	-200.000	-0.069	0.323
-700.529	-53.952	0.024	-0.011
-699.514	-200.000	0.015	0.278
-698.499	-98.604	-0.071	-0.019
-697.485	78.729	-0.055	0.060
-696.470	800.000	-0.034	0.146
-695.456	21.407	0.100	-0.083
-694.441	-200.000	-0.043	-0.198
-693.426	-200.000	0.025	0.136
-692.412	175.580	-0.039	0.058
-691.397	-200.000	-0.037	0.176
-690.383	511.926	-0.099	-0.235
-689.368	-200.000	-0.025	-0.117
-688.354	-60.777	-0.134	0.058
-687.339	-200.000	-0.011	-0.171
-686.324	800.000	0.068	-0.290
-685.310	-200.000	-0.047	-0.346
-684.295	-36.495	-0.294	-0.161
-683.281	175.928	0.083	-0.123
-682.266	800.000	0.075	-0.214
-681.251	800.000	-0.055	0.176
-680.237	-200.000	-0.013	-0.310
-679.222	-104.857	0.165	0.039
-678.208	28.800	-0.119	-0.102
-677.193	-200.000	0.036	0.296
-676.178	-200.000	-0.007	0.303
-675.164	181.534	0.116	0.174
-674.149	2.394	-0.115	0.085
-673.135	-156.312	-0.331	-0.021
-672.120	128.340	-0.082	-0.106
-671.105	-200.000	-0.051	-0.257
-670.091	-200.000	-0.006	-0.066
-669.076	-200.000	0.014	0.369
-668.062	-74.552	-0.156	0.057
-667.047	-200.000	-0.001	0.061
-666.032	-21.790	-0.270	-0.168
-665.018	800.000	-0.107	0.331
-664.003	-200.000	-0.029	0.252
-662.989	530.076	-0.047	-0.112
-661.974	39.817	-0.062	-0.057
-660.959	578.795	-0.038	-0.095
-659.945	619.015	-0.032	0.082
-658.930	1.202	0.156	-0.114
-657.916	341.336	-0.075	0.150
-656.901	216.842	0.046	-0.075
-655.886	52.963	0.040	-0.039
-654.872	228.493	-0.104	0.173
-653.857	800.000	-0.121	-0.444
-652.843	800.000	0.036	0.139
-651.828	49.119	-0.147	0.141
-650.814	615.606	0.074	-0.190
-649.799	-131.909	-0.099	-0.013
-648.784	-200.000	-0.014	-0.164
-647.770	213.783	0.121	0.195
-646.755	-94.289	-0.267	0.074
-645.741	800.000	0.012	-0.047
-644.726	-62.598	0.365	-0.154
-643.711	-42.910	-0.391	0.202
-642.697	223.590	-0.225	0.369
-641.682	7.975	-0.223	-0.170
-640.668	-38.508	0.069	-0.037
-639.653	-54.635	0.374	0.172
-638.638	-58.861	0.079	0.035
-637.624	23.876	0.170	0.143
-636.609	165.463	0.196	-0.282
-635.595	-20.076	0.376	0.236
-634.580	-108.841	-0.096	0.021
-633.565	-172.100	-0.084	0.003
-632.551	-200.000	-0.034	-0.230
-631.536	-103.412	-0.135	0.032
-630.522	-21.024	0.197	-0.123
-629.507	-101.197	-0.259	0.065
-628.492	-126.075	-0.247	-0.038
-627.478	-200.000	-0.015	-0.175
-626.463	-11.152	0.025	-0.017
-625.449	571.238	0.116	-0.287
-624.434	-80.993	-0.214	0.072
-623.419	225.594	0.159	0.262
-622.405	508.063	0.098	0.233
-621.390	-200.000	0.005	0.040
-620.376	73.103	0.091	0.097
-619.361	53.326	-0.166	-0.162
-618.346	800.000	0.115	-0.375
-617.332	-200.000	0.035	-0.296
-616.317	228.515	-0.075	0.124
-615.303	-129.698	-0.289	-0.041
-614.288	-135.006	-0.341	0.042
-613.273	-116.125	-0.190	0.036
-612.259	-200.000	-0.012	-0.399
-611.244	-142.899	0.099	0.010
-610.230	258.349	0.194	0.341
-609.215	-200.000	-0.012	0.120
-608.201	483.467	-0.013	-0.031
-607.186	-82.755	0.023	-0.007
-606.171	-94.525	0.238	0.066
-605.157	-146.934	-0.322	0.028
-604.142	-120.890	0.182	-0.031
-603.128	-9.029	0.431	-0.293
-602.113	0.582	-0.033	0.024
-601.098	29.895	-0.194	0.168
-600.084	-83.238	0.084	0.028
-599.069	-138.732	-0.018	-0.002
-598.055	253.687	-0.245	-0.426
-597.040	8.005	-0.291	-0.222
-596.025	83.410	0.188	-0.208
-595.011	800.000	-0.051	0.208
-593.996	-75.478	-0.028	0.010
-592.982	-200.000	-0.048	-0.422
-591.967	58.754	-0.034	0.034
-590.952	770.998	0.034	0.095
-589.938	-170.039	0.503	-0.018
-588.923	284.251	-0.192	-0.351
-587.909	800.000	0.031	0.131
-586.894	-200.000	-0.001	0.113
-585.879	-100.736	0.085	0.021
-584.865	-79.367	0.385	-0.133
-583.850	800.000	0.097	-0.324
-582.836	58.850	0.084	-0.084
-581.821	-200.000	0.001	-0.020
-580.806	51.968	-0.219	-0.212
-579.792	-200.000	0.005	-0.389
-578.777	-4.600	-0.084	0.059
-577.763	-105.814	-0.038	-0.009
-576.748	-200.000	0.016	0.096
-575.733	800.000	-0.057	0.249
-574.719	-143.082	-0.080	0.008
-573.704	170.384	0.172	0.250
-572.690	-84.182	0.278	-0.089
-571.675	-200.000	0.041	-0.218
-570.661	61.424	0.110	-0.111
-569.646	-200.000	0.489	0.002
-568.631	800.000	-0.075	-0.243
-567.617	136.733	-0.222	0.294
-566.602	0.398	-0.283	0.205
-565.588	585.097	0.027	-0.067
-564.573	-200.000	0.008	-0.197
-563.558	-130.059	0.148	-0.021
-562.544	-27.996	0.061	-0.036
-561.529	212.371	-0.101	-0.162
-560.515	233.542	0.232	0.388
-559.500	180.730	-0.061	-0.091
-558.485	-110.327	0.222	-0.047
-557.471	185.830	-0.029	-0.043
-556.456	262.401	-0.069	-0.121
-555.442	504.171	0.080	0.188
-554.427	533.200	0.094	0.227
-553.412	800.000	0.086	-0.244
-552.398	-200.000	-0.024	0.379
-551.383	431.147	-0.157	0.346
-550.369	800.000	-0.033	0.132
-549.354	-113.529	-0.154	-0.031
-548.339	383.753	-0.158	0.330
-547.325	158.913	-0.129	0.182
-546.310	51.524	-0.126	0.122
-545.296	-24.874	0.281	0.169
-544.281	125.819	0.178	-0.228
-543.266	174.016	0.162	0.238
-542.252	-200.000	-0.018	0.357
-541.237	428.232	0.211	0.463
-540.223	250.448	0.135	0.233
-539.208	331.095	-0.075	-0.147
-538.193	167.702	-0.107	-0.154
-537.179	-110.086	0.078	0.017
-536.164	-123.487	0.206	-0.033
-535.150	-121.530	-0.143	-0.024
-534.135	-188.460	0.086	-0.001
-533.121	192.514	0.065	-0.100
-532.106	85.890	-0.040	-0.045
-531.091	-49.218	0.053	-0.026
-530.077	-200.000	0.011	0.192
-529.062	-137.677	-0.269	-0.031
-528.048	-98.142	0.109	0.028
-527.033	800.000	-0.066	0.232
-526.018	-200.000	0.011	0.078
-525.004	-177.911	-0.198	0.005
-523.989	118.242	-0.053	-0.066
-522.975	97.118	-0.077	-0.089
-521.960	29.677	0.085	0.073
-520.945	-200.000	-0.008	0.196
-519.931	-44.647	0.161	-0.081
-518.916	693.061	0.070	-0.186
-517.902	-200.000	0.005	0.034
-516.887	-42.925	-0.184	0.095
-515.872	348.056	-0.045	-0.090
-514.858	-200.000	0.017	-0.082
-513.843	-99.689	0.249	0.063
-512.829	179.762	0.146	0.216
-511.814	-150.174	0.270	0.021
-510.799	-3.198	-0.136	-0.096
-509.785	-1.927	-0.068	-0.048
-508.770	-37.063	-0.058	0.031
-507.756	-120.278	-0.438	0.076
-506.741	-117.334	0.301	0.055
-505.726	800.000	0.035	-0.099
-504.712	800.000	-0.029	-0.107
-503.697	718.954	-0.116	-0.313
-502.683	-200.000	0.041	0.332
-501.668	-126.239	0.186	-0.028
-500.653	486.028	-0.101	-0.233
-499.639	-45.812	-0.083	0.042
-498.624	80.248	0.141	-0.154
-497.610	-200.000	-0.022	0.190
-496.595	32.979	-0.316	-0.277
-495.581	800.000	0.039	-0.111
-494.566	-1.551	-0.193	-0.138
-493.551	319.038	-0.144	0.277
-492.537	363.570	0.041	0.083
-491.522	242.921	-0.155	0.262
-490.508	-200.000	-0.014	0.275
-489.493	-200.000	-0.012	-0.213
-488.478	68.593	-0.065	0.067
-487.464	800.000	-0.041	-0.115
-486.449	-68.969	-0.111	-0.043
-485.435	-200.000	-0.014	-0.263
-484.420	-200.000	-0.010	0.195
-483.405	800.000	0.068	-0.205
-482.391	14.070	0.040	-0.032
-481.376	-200.000	-0.010	0.215
-480.362	-18.456	-0.305	-0.192
-479.347	800.000	-0.082	-0.272
-478.332	-65.177	0.219	-0.089
-477.318	800.000	0.025	0.088
-476.303	90.809	-0.089	0.101
-475.289	-200.000	0.015	0.337
-474.274	182.857	0.087	-0.130
-473.259	800.000	-0.050	-0.211
-472.245	-38.402	0.277	0.148
-471.230	-200.000	-0.037	0.289
-470.216	-33.191	0.233	0.131
-469.201	-186.567	0.348	0.005
-468.186	800.000	0.028	0.099
-467.172	73.221	0.209	0.221
-466.157	-132.174	-0.135	0.018
-465.143	-200.000	-0.026	-0.232
-464.128	-150.481	-0.152	-0.012
-463.113	800.000	0.126	0.486
-462.099	-139.783	-0.119	0.013
-461.084	171.700	-0.184	-0.268
-460.070	-3.817	-0.478	0.335
-459.055	166.126	-0.223	0.319
-458.040	-127.107	-0.214	-0.032
-457.026	676.328	0.065	-0.171
-456.011	-18.076	0.305	-0.193
-454.997	-20.169	0.045	0.028
-453.982	800.000	0.035	-0.146
-452.968	-88.413	0.349	-0.105
-451.953	143.442	0.064	-0.086
-450.938	17.414	0.168	-0.135
-449.924	173.393	-0.172	-0.251
-448.909	14.038	-0.191	-0.151
-447.895	-87.333	-0.132	0.041
-446.880	-163.520	-0.306	0.015
-445.865	-167.724	-0.098	0.004
-444.851	-25.153	0.058	-0.034
-443.836	61.499	-0.219	0.220
-442.822	-56.322	-0.324	-0.146
-441.807	274.507	-0.155	-0.277
-440.792	69.861	0.172	0.179
-439.778	-48.595	-0.146	0.071
-438.763	-23.567	0.171	0.104
-437.749	4.035	0.188	-0.139
-436.734	66.845	-0.028	-0.028
-435.719	-143.973	0.131	-0.012
-434.705	4.073	0.159	-0.118
-433.690	-127.533	-0.340	-0.050
-432.676	-57.407	0.192	0.085
-431.661	800.000	-0.108	0.399
-430.646	-200.000	0.320	-0.000
-429.632	8.863	-0.156	0.119
-428.617	314.663	0.064	-0.121
-427.603	191.729	-0.148	0.226
-426.588	-172.684	0.334	-0.011
-425.573	165.268	0.124	-0.176
-424.559	716.420	-0.100	0.269
-423.544	-63.176	0.305	0.127
-422.530	-54.405	-0.308	-0.141
-421.515	-38.419	0.098	0.052
-420.500	400.831	0.184	0.391
-419.486	66.543	-0.210	0.216
-418.471	44.646	-0.096	0.089
-417.457	74.637	-0.048	-0.051
-416.442	256.444	-0.065	0.112
-415.428	-184.033	0.029	0.000
-414.413	800.000	-0.034	-0.108
-413.398	-34.932	-0.259	-0.143
-412.384	314.951	-0.089	-0.169
-411.369	-90.773	0.173	-0.050
-410.355	-77.360	0.065	0.023
-409.340	-126.492	0.346	-0.052
-408.325	-200.000	-0.009	0.070
-407.311	343.181	-0.113	-0.223
-406.296	18.919	0.077	0.062
-405.282	235.247	0.071	-0.119
-404.267	-123.420	-0.050	0.008
-403.252	-34.971	0.168	0.093
-402.238	658.712	0.052	-0.134
-401.223	-200.000	0.010	-0.295
-400.209	351.631	0.047	-0.093
-399.194	194.741	-0.125	0.192
-398.179	-60.964	-0.169	0.072
-397.165	-200.000	0.026	-0.318
-396.150	116.595	0.075	-0.093
-395.136	-38.641	0.177	-0.094
-394.121	592.145	-0.067	-0.167
-393.106	27.371	-0.161	0.137
-392.092	-200.000	0.019	0.214
-391.077	-200.000	0.030	-0.197
-390.063	-200.000	-0.024	0.109
-389.048	623.009	0.101	-0.257
-388.033	44.043	0.213	-0.197
-387.019	461.568	0.053	-0.119
-386.004	800.000	-0.080	-0.289
-384.990	-134.688	-0.417	0.051
-383.975	-36.036	-0.308	0.168
-382.960	-167.238	0.152	-0.006
-381.946	800.000	0.127	0.386
-380.931	282.904	-0.132	0.238
-379.917	-63.568	-0.076	0.031
-378.902	214.067	-0.098	-0.156
-377.888	-200.000	0.001	0.110
-376.873	104.885	0.108	0.128
-375.858	-29.049	-0.288	0.167
-374.844	800.000	-0.058	0.219
-373.829	27.795	-0.151	0.128
-372.815	-34.123	0.399	-0.221
-371.800	-58.264	0.234	-0.103
-370.785	-65.694	0.365	0.147
-369.771	800.000	0.038	0.154
-368.756	525.415	0.040	-0.096
-367.742	-34.169	0.300	0.166
-366.727	39.139	0.122	0.110
-365.712	-44.321	-0.113	0.057
-364.698	800.000	-0.135	0.459
-363.683	256.384	0.091	-0.158
-362.669	481.824	0.080	-0.183
-361.654	479.293	0.080	-0.183
-360.639	-7.373	-0.236	-0.161
-359.625	292.027	-0.158	-0.291
-358.610	-39.952	0.278	-0.146
-357.596	133.754	-0.092	-0.119
-356.581	-39.057	-0.066	-0.035
-355.566	-200.000	0.018	-0.159
-354.552	463.110	0.125	0.281
-353.537	-57.882	-0.031	0.013
-352.523	-200.000	-0.003	-0.181
-351.508	-200.000	-0.032	-0.330
-350.493	-15.543	0.095	0.061
-349.479	-154.257	0.283	-0.019
-348.464	67.930	-0.168	0.173
-347.450	89.587	0.028	0.032
-346.435	41.021	-0.378	0.344
-345.420	-200.000	-0.031	0.311
-344.406	11.916	0.131	0.101
-343.391	-43.688	0.114	0.058
-342.377	287.776	0.099	-0.180
-341.362	-200.000	0.020	0.184
-340.348	-200.000	0.063	-0.337
-339.333	284.554	0.074	-0.134
-338.318	-200.000	-0.062	0.395
-337.304	618.395	0.122	0.308
-336.289	800.000	0.068	0.282
-335.275	-200.000	-0.001	-0.246
-334.260	-26.699	-0.128	-0.076
-333.245	588.701	0.059	0.147
-332.231	800.000	0.040	0.153
-331.216	-103.289	-0.214	0.051
-330.202	158.462	0.101	-0.141
-329.187	-35.513	0.071	0.039
-328.172	-49.007	0.171	-0.082
-327.158	-200.000	0.170	0.001
-326.143	-200.000	-0.001	0.310
-325.129	423.654	0.018	-0.038
-324.114	-129.276	-0.145	-0.020
-323.099	-130.698	0.369	0.050
-322.085	4.156	-0.109	0.080
-321.070	529.745	-0.073	-0.173
-320.056	-174.087	0.199	0.006
-319.041	800.000	-0.043	0.175
-318.026	800.000	0.040	0.113
-317.012	-188.087	-0.303	-0.004
-315.997	-76.320	-0.291	0.103
-314.983	-75.284	0.190	0.068
-313.968	168.978	0.128	-0.184
-312.953	-104.572	0.146	0.034
-311.939	75.151	-0.226	-0.239
-310.924	-76.938	0.149	-0.052
-309.910	-200.000	0.065	-0.335
-308.895	800.000	0.102	-0.337
-307.880	69.292	0.058	-0.060
-306.866	-119.658	0.312	0.054
-305.851	-46.319	0.097	0.048
-304.837	-101.749	-0.329	0.080
-303.822	-200.000	-0.084	-0.512
-302.807	-74.417	0.189	-0.069
-301.793	300.006	0.137	-0.254
-300.778	-172.118	-0.157	-0.005
-299.764	-43.061	0.166	0.085
-298.749	-39.490	-0.125	-0.066
-297.735	-200.000	-0.031	0.265
-296.720	468.191	-0.056	0.126
-295.705	3.933	0.190	0.140
-294.691	-22.260	-0.281	-0.171
-293.676	-200.000	-0.033	0.283
-292.662	-81.822	-0.058	-0.019
-291.647	67.654	0.264	0.271
-290.632	-125.627	-0.176	0.027
-289.618	-49.214	-0.260	0.125
-288.603	800.000	0.026	-0.093
-287.589	117.861	0.024	0.030
-286.574	-200.000	0.039	0.209
-285.559	-69.024	0.138	0.053
-284.545	-200.000	-0.027	-0.289
-283.530	157.664	0.316	-0.440
-282.516	-200.000	0.024	-0.156
-281.501	-200.000	0.016	0.168
-280.486	-88.024	0.204	-0.061
-279.472	-33.605	0.107	0.059
-278.457	355.100	0.068	0.136
-277.443	604.376	0.127	0.318
-276.428	-3.034	-0.231	0.162
-275.413	-200.000	-0.017	0.166
-274.399	71.930	0.290	0.303
-273.384	145.679	-0.069	0.092
-272.370	-159.488	0.272	-0.015
-271.355	140.670	0.063	0.084
-270.340	-51.441	0.203	0.095
-269.326	-151.763	-0.124	-0.009
-268.311	800.000	-0.098	0.283
-267.297	37.308	-0.105	0.093
-266.282	-33.975	0.249	-0.138
-265.267	3.443	-0.157	-0.115
-264.253	144.511	-0.142	0.190
-263.238	800.000	-0.069	-0.268
-262.224	185.911	-0.150	0.224
-261.209	144.654	0.186	0.249
-260.195	2.808	-0.190	0.138
-259.180	-200.000	0.011	0.264
-258.165	14.216	-0.301	-0.235
-257.151	234.087	-0.207	-0.342
-256.136	224.862	-0.061	0.099
-255.122	-101.707	0.109	0.027
-254.107	-200.000	0.015	-0.205
-253.092	-40.506	0.165	0.086
-252.078	800.000	0.092	-0.328
-251.063	-110.208	-0.330	0.069
-250.049	-200.000	-0.015	-0.388
-249.034	-144.275	0.170	0.016
-248.019	-103.066	-0.233	-0.055
-247.005	800.000	0.043	0.150
-245.990	-160.612	0.410	0.022
-244.976	15.723	-0.033	0.026
-243.961	36.471	-0.230	-0.204
-242.946	-99.792	0.111	0.028
-241.932	-109.908	0.080	0.017
-240.917	30.861	0.090	0.078
-239.903	800.000	-0.071	0.291
-238.888	-51.543	0.116	-0.054
-237.873	-200.000	-0.027	0.269
-236.859	-200.000	-0.088	0.420
-235.844	-200.000	-0.012	-0.216
-234.830	252.004	-0.064	-0.110
-233.815	433.986	-0.049	0.107
-232.800	800.000	0.133	-0.375
-231.786	-54.115	0.051	-0.023
-230.771	310.743	0.075	0.142
-229.757	-200.000	0.023	0.325
-228.742	194.608	0.234	-0.355
-227.727	-151.618	-0.293	-0.022
-226.713	-200.000	0.039	-0.292
-225.698	7.336	0.167	-0.125
-224.684	-13.748	-0.371	-0.241
-223.669	-200.000	-0.003	0.012
-222.655	-73.188	0.203	-0.075
-221.640	800.000	0.055	-0.204
-220.625	-25.169	-0.269	0.160
-219.611	800.000	0.115	0.429
-218.596	-13.212	0.314	-0.204
-217.582	53.755	0.034	-0.033
-216.567	-104.241	-0.319	0.074
-215.552	19.641	-0.091	0.074
-214.538	-105.136	0.287	0.066
-213.523	800.000	-0.037	-0.119
-212.509	-68.120	-0.059	0.023
-211.494	-200.000	0.009	-0.401
-210.479	-11.747	-0.162	-0.107
-209.465	800.000	-0.067	0.252
-208.450	3.052	-0.167	-0.122
-207.436	246.111	0.184	-0.311
-206.421	645.457	0.035	-0.089
-205.406	-26.240	0.233	-0.137
-204.392	-154.494	-0.130	-0.009
-203.377	-95.143	-0.131	0.035
-202.363	800.000	0.040	-0.129
-201.348	209.754	0.153	-0.240
-200.333	-59.691	-0.116	-0.050
-199.319	-110.657	-0.341	-0.071
-198.304	-14.590	0.166	-0.107
-197.290	-159.720	-0.174	0.010
-196.275	-142.783	-0.367	0.036
-195.260	-104.174	-0.201	0.047
-194.246	-136.408	-0.391	0.045
-193.231	709.043	-0.055	0.145
-192.217	-109.266	-0.192	-0.041
-191.202	-95.745	0.359	-0.096
-190.187	-200.000	-0.011	-0.356
-189.173	11.597	-0.436	0.335
-188.158	-200.000	-0.032	0.261
-187.144	180.046	-0.164	0.241
-186.129	138.650	0.085	0.111
-185.114	-116.478	0.252	-0.047
-184.100	31.013	-0.032	-0.028
-183.085	800.000	-0.044	-0.121
-182.071	800.000	0.034	0.145
-181.056	216.569	-0.092	-0.146
-180.042	-132.750	-0.220	0.028
-179.027	111.049	0.201	-0.242
-178.012	-16.990	0.266	-0.168
-176.998	-191.865	-0.308	-0.003
-175.983	-41.601	-0.316	-0.162
-174.969	167.522	0.167	-0.237
-173.954	-200.000	-0.000	0.063
-172.939	800.000	-0.105	-0.308
-171.925	68.307	-0.207	-0.212
-170.910	191.607	-0.031	-0.047
-169.896	-122.593	-0.182	0.030
-168.881	12.860	-0.173	-0.134
-167.866	-135.179	0.143	0.017
-166.852	-118.025	0.302	-0.054
-165.837	-173.626	-0.197	-0.006
-164.823	5.205	-0.088	-0.065
-163.808	-48.010	0.297	0.144
-162.793	800.000	0.064	-0.258
-161.779	-14.306	0.241	0.155
-160.764	800.000	-0.103	0.317
-159.750	140.587	-0.032	-0.042
-158.735	6.428	-0.157	-0.117
-157.720	-100.936	-0.174	0.043
-156.706	87.300	0.195	0.216
-155.691	29.724	0.175	0.149
-154.677	-170.070	-0.319	-0.011
-153.662	-145.630	0.154	-0.014
-152.647	-154.785	-0.295	-0.019
-151.633	-47.513	-0.073	-0.036
-150.618	73.325	-0.133	0.139
-149.604	381.796	0.064	0.132
-148.589	-116.576	0.144	0.027
-147.574	-188.878	-0.114	0.001
-146.560	-120.930	-0.198	0.033
-145.545	647.628	-0.095	0.243
-144.531	149.909	-0.204	0.277
-143.516	-200.000	-0.031	-0.328
-142.502	234.619	0.126	0.207
-141.487	43.832	0.055	-0.050
-140.472	345.088	-0.163	-0.319
-139.458	-200.000	0.016	0.240
-138.443	-200.000	0.004	0.054
-137.429	-12.507	0.070	-0.046
-136.414	674.214	-0.046	-0.119
-135.399	102.102	-0.242	-0.283
-134.385	559.970	-0.080	0.194
-133.370	-200.000	-0.036	0.274
-132.356	800.000	0.068	-0.249
-131.341	-73.589	-0.161	-0.058
-130.326	291.314	-0.129	0.233
-129.312	560.346	-0.129	0.311
-128.297	58.831	0.155	-0.152
-127.283	-200.000	-0.049	-0.281
-126.268	194.673	0.071	-0.108
-125.253	800.000	-0.074	-0.303
-124.239	-92.298	-0.259	-0.073
-123.224	114.065	0.402	-0.488
-122.210	-101.542	-0.160	-0.039
