DTS Sentinel unit serial number:	SN413079Multiplexer serial number:	ORYXHardware model number:	OX4-SRSoftware version number:	ORYX F/W v4.00 Oryx Data Collector v3.7.2.0data status	okinstallation	princeton_trtdifferential loss correction	single-endedforward channel	channel 1reverse channel	N/Adate	2019/09/14time	13:42:35forward acquisition time	60.00reverse acquisition time	0.00gamma	496.2192k internal	0.2295k external	0.2295temperature offset calibration	1.0082default loss term (dB/km)	0.3790temperature slope calibration	1.0000multiplexer offset coefficient	1.0000multiplexer slope coefficient	1.0000fibre end	0.00T internal ref (°C)	37.87T ext. ref 1 (°C)	4.92T ext. ref 2 (°C)	32.64length (m)	temperature (°C)	Stokes	anti-Stokes-747.200	163.569	-0.211	-0.304
-746.185	444.556	0.060	0.135
-745.171	618.222	0.087	-0.222
-744.156	93.926	-0.046	-0.054
-743.142	14.040	-0.264	0.210
-742.127	136.129	-0.176	0.235
-741.112	-32.111	-0.096	0.055
-740.098	-46.828	-0.313	-0.157
-739.083	800.000	-0.046	-0.173
-738.069	-200.000	-0.039	0.331
-737.054	14.359	0.071	-0.057
-736.039	-43.717	-0.445	0.229
-735.025	37.995	0.082	0.074
-734.010	-200.000	0.013	-0.299
-732.996	-200.000	-0.009	-0.223
-731.981	552.279	0.038	-0.092
-730.966	174.088	-0.108	0.160
-729.952	-200.000	0.038	-0.310
-728.937	800.000	0.082	-0.251
-727.923	73.413	-0.320	-0.342
-726.908	-95.649	-0.148	0.040
-725.894	-51.531	0.227	-0.108
-724.879	-200.000	-0.030	0.345
-723.864	-137.270	0.192	0.022
-722.850	-10.533	-0.470	-0.318
-721.835	-200.000	0.043	-0.335
-720.821	58.464	0.060	0.060
-719.806	495.971	0.052	-0.121
-718.791	-50.485	-0.227	-0.109
-717.777	-86.485	-0.291	0.091
-716.762	55.511	0.299	-0.296
-715.748	-16.222	-0.132	-0.086
-714.733	17.784	-0.138	-0.112
-713.718	392.607	0.067	-0.143
-712.704	-108.499	0.344	-0.076
-711.689	-92.758	-0.400	-0.114
-710.675	-123.968	-0.272	0.044
-709.660	21.821	0.174	0.145
-708.645	800.000	-0.042	-0.183
-707.631	117.432	0.071	-0.089
-706.616	38.720	-0.179	-0.163
-705.602	-96.955	0.084	0.023
-704.587	8.464	-0.460	-0.353
-703.572	800.000	0.119	-0.401
-702.558	-130.597	-0.272	-0.037
-701.543	69.790	-0.201	-0.211
-700.529	-172.342	-0.049	-0.002
-699.514	-200.000	-0.023	-0.197
-698.499	800.000	0.042	0.142
-697.485	-34.676	-0.107	-0.060
-696.470	291.786	-0.101	0.188
-695.456	89.071	-0.194	0.220
-694.441	-38.755	-0.356	-0.192
-693.426	470.358	-0.113	-0.259
-692.412	-200.000	-0.014	0.284
-691.397	448.203	0.124	0.278
-690.383	56.797	-0.195	0.194
-689.368	-61.583	0.453	-0.194
-688.354	47.197	-0.142	-0.134
-687.339	-149.493	-0.168	-0.014
-686.324	-112.580	-0.284	0.058
-685.310	-37.246	-0.435	-0.237
-684.295	-70.653	0.051	-0.020
-683.281	800.000	0.065	-0.186
-682.266	-26.965	0.080	-0.048
-681.251	-146.276	0.200	0.018
-680.237	-16.416	-0.245	-0.158
-679.222	-70.900	0.137	0.053
-678.208	-80.744	0.088	-0.030
-677.193	30.495	-0.107	0.093
-676.178	51.965	-0.231	-0.224
-675.164	-200.000	0.019	0.278
-674.149	16.879	-0.181	0.146
-673.135	-126.275	0.235	-0.036
-672.120	-38.652	0.312	-0.168
-671.105	-158.875	-0.060	0.003
-670.091	-55.976	-0.184	-0.084
-669.076	-200.000	-0.012	0.121
-668.062	-124.571	-0.146	-0.023
-667.047	182.708	-0.126	0.189
-666.032	-200.000	0.016	-0.103
-665.018	-26.199	0.174	-0.104
-664.003	-200.000	-0.023	0.256
-662.989	246.711	0.102	-0.175
-661.974	-200.000	-0.019	-0.540
-660.959	292.464	-0.087	0.162
-659.945	-4.510	-0.361	-0.254
-658.930	337.090	0.126	0.249
-657.916	133.398	-0.092	-0.121
-656.901	73.716	0.053	-0.057
-655.886	2.046	0.130	-0.095
-654.872	185.964	0.132	-0.200
-653.857	-84.024	-0.077	0.025
-652.843	-200.000	0.059	-0.284
-651.828	98.423	-0.260	-0.305
-650.814	262.497	-0.043	-0.076
-649.799	800.000	0.071	0.238
-648.784	800.000	0.021	0.090
-647.770	-73.264	-0.248	-0.092
-646.755	92.733	0.061	-0.070
-645.741	43.047	0.129	-0.120
-644.726	-200.000	-0.009	-0.286
-643.711	64.281	0.257	0.263
-642.697	-125.895	-0.185	0.028
-641.682	-200.000	-0.020	0.270
-640.668	-200.000	-0.034	-0.478
-639.653	800.000	0.088	-0.304
-638.638	6.218	0.038	-0.029
-637.624	-200.000	0.011	-0.054
-636.609	-65.091	-0.331	-0.136
-635.595	13.650	0.083	0.066
-634.580	7.877	0.225	-0.172
-633.565	-11.376	-0.265	0.178
-632.551	537.164	-0.103	0.249
-631.536	492.076	0.195	-0.456
-630.522	-124.700	-0.194	0.031
-629.507	147.550	0.231	0.317
-628.492	-159.846	0.254	0.014
-627.478	-200.000	-0.052	0.266
-626.463	45.149	0.318	0.298
-625.449	-50.363	-0.232	-0.112
-624.434	95.293	-0.222	-0.257
-623.419	94.037	0.143	0.165
-622.405	-133.167	-0.211	0.027
-621.390	-141.461	0.197	0.020
-620.376	-79.355	-0.226	0.078
-619.361	-124.252	-0.297	-0.047
-618.346	-200.000	-0.023	0.131
-617.332	70.112	0.105	-0.110
-616.317	-200.000	0.017	-0.483
-615.303	-103.581	0.205	-0.049
-614.288	129.980	0.025	0.033
-613.273	-112.127	0.270	0.055
-612.259	164.472	-0.048	0.069
-611.244	-200.000	-0.006	-0.092
-610.230	10.299	0.226	0.175
-609.215	318.244	-0.025	-0.049
-608.201	-164.278	-0.180	-0.008
-607.186	-79.909	-0.112	0.038
-606.171	118.018	0.059	-0.074
-605.157	-113.468	-0.189	-0.038
-604.142	800.000	0.020	-0.081
-603.128	25.844	0.123	0.104
-602.113	14.889	-0.106	-0.085
-601.098	-55.181	-0.084	-0.038
-600.084	-200.000	-0.010	0.162
-599.069	-5.291	0.176	-0.123
-598.055	156.865	-0.145	-0.203
-597.040	-200.000	0.011	0.183
-596.025	800.000	0.025	0.097
-595.011	-40.568	-0.051	-0.027
-593.996	39.093	-0.038	0.035
-592.982	-5.126	-0.043	0.030
-591.967	-200.000	-0.017	0.258
-590.952	-200.000	0.002	-0.131
-589.938	-107.567	0.201	0.045
-588.923	-82.570	-0.303	-0.100
-587.909	-200.000	-0.002	-0.272
-586.894	62.946	-0.096	-0.097
-585.879	800.000	0.029	0.090
-584.865	127.285	-0.403	-0.519
-583.850	-157.531	0.282	-0.017
-582.836	-7.887	-0.324	0.222
-581.821	-92.738	0.368	-0.105
-580.806	-27.147	-0.208	0.123
-579.792	-34.258	0.065	-0.036
-578.777	-134.921	-0.109	0.013
-577.763	-25.248	0.111	0.066
-576.748	800.000	-0.061	-0.227
-575.733	58.836	0.148	0.148
-574.719	-120.891	0.092	-0.016
-573.704	-79.352	-0.079	0.027
-572.690	240.859	0.102	-0.172
-571.675	800.000	0.033	-0.097
-570.661	-74.817	-0.066	-0.024
-569.646	-200.000	-0.057	-0.279
-568.631	-80.199	0.037	-0.012
-567.617	-200.000	0.041	-0.192
-566.602	81.199	-0.044	0.048
-565.588	139.692	0.035	0.047
-564.573	-74.192	-0.184	-0.068
-563.558	-200.000	0.019	-0.164
-562.544	800.000	0.049	0.210
-561.529	-117.230	0.243	0.045
-560.515	-139.534	0.062	0.007
-559.500	-145.997	-0.062	0.006
-558.485	-89.993	-0.130	-0.038
-557.471	-123.544	0.235	0.038
-556.456	-101.282	-0.202	-0.050
-555.442	-54.226	0.223	-0.103
-554.427	-109.677	0.237	-0.051
-553.412	70.705	-0.203	0.213
-552.398	-98.857	0.115	0.030
-551.383	-136.933	-0.170	-0.020
-550.369	-200.000	0.011	0.121
-549.354	-200.000	0.019	-0.184
-548.339	56.285	-0.224	0.220
-547.325	-33.882	-0.197	0.110
-546.310	-184.028	-0.186	0.003
-545.296	95.179	0.222	0.256
-544.281	145.755	-0.126	0.172
-543.266	193.848	-0.049	0.075
-542.252	611.933	0.066	-0.166
-541.237	490.000	0.127	-0.294
-540.223	-200.000	-0.008	-0.127
-539.208	-84.448	0.114	-0.037
-538.193	305.938	-0.111	-0.209
-537.179	-14.456	-0.248	0.162
-536.164	-200.000	-0.022	-0.318
-535.150	120.879	-0.152	-0.191
-534.135	-200.000	-0.014	0.090
-533.121	393.898	0.091	-0.191
-532.106	160.038	0.106	0.150
-531.091	-28.872	0.156	0.091
-530.077	220.568	0.067	0.109
-529.062	-142.933	0.242	-0.024
-528.048	-200.000	-0.092	-0.420
-527.033	-55.508	-0.203	-0.092
-526.018	-179.155	-0.162	-0.004
-525.004	-146.275	-0.360	0.032
-523.989	-93.106	0.065	0.018
-522.975	-200.000	-0.013	0.057
-521.960	-85.422	-0.237	-0.075
-520.945	55.845	0.083	0.082
-519.931	-34.690	0.184	0.102
-518.916	-26.763	-0.129	-0.077
-517.902	-91.421	0.228	0.066
-516.887	144.795	-0.101	0.137
-515.872	269.013	0.066	-0.118
-514.858	1.622	-0.139	-0.101
-513.843	98.637	-0.165	-0.192
-512.829	422.326	-0.113	-0.245
-511.814	798.685	0.041	-0.113
-510.799	-83.172	0.313	-0.102
-509.785	35.635	-0.247	-0.220
-508.770	-36.117	0.178	-0.097
-507.756	-40.840	0.153	0.080
-506.741	420.323	-0.062	0.134
-505.726	37.507	0.141	0.126
-504.712	65.666	0.064	-0.066
-503.697	-200.000	-0.008	0.099
-502.683	166.564	0.097	-0.139
-501.668	196.823	-0.072	0.111
-500.653	-108.572	0.201	-0.044
-499.639	-169.676	-0.428	-0.016
-498.624	-71.732	-0.256	-0.097
-497.610	54.678	0.203	0.199
-496.595	240.779	-0.086	-0.145
-495.581	88.900	-0.117	-0.132
-494.566	-11.247	0.239	-0.159
-493.551	20.306	-0.175	-0.143
-492.537	6.276	-0.020	0.015
-491.522	-200.000	0.015	-0.154
-490.508	165.298	-0.065	0.094
-489.493	66.841	0.080	-0.082
-488.478	134.855	0.233	0.307
-487.464	-67.973	0.197	0.078
-486.449	800.000	-0.053	0.198
-485.435	396.626	-0.043	-0.092
-484.420	286.559	-0.104	-0.190
-483.405	115.289	-0.059	0.074
-482.391	95.737	-0.064	-0.074
-481.376	197.261	0.189	-0.292
-480.362	-114.509	-0.506	0.098
-479.347	-36.320	0.216	-0.118
-478.332	-14.208	0.315	0.205
-477.318	-200.000	-0.035	-0.301
-476.303	-112.908	0.268	0.054
-475.289	34.594	-0.084	0.074
-474.274	-83.235	0.034	0.011
-473.259	20.547	-0.403	-0.330
-472.245	104.608	0.192	0.228
-471.230	606.202	0.095	0.240
-470.216	-56.152	0.194	0.088
-469.201	-27.809	0.163	-0.095
-468.186	-200.000	0.002	0.017
-467.172	-200.000	-0.033	0.231
-466.157	-12.387	0.144	-0.095
-465.143	-111.793	-0.231	-0.047
-464.128	36.408	-0.058	-0.052
-463.113	17.122	-0.098	-0.079
-462.099	346.761	0.086	0.172
-461.084	18.217	-0.258	-0.208
-460.070	10.978	-0.273	-0.211
-459.055	59.343	0.247	-0.246
-458.040	42.225	0.069	0.063
-457.026	4.535	0.127	0.094
-456.011	800.000	0.028	-0.120
-454.997	-43.847	-0.117	-0.059
-453.982	-200.000	0.024	-0.186
-452.968	374.225	-0.051	0.105
-451.953	-200.000	0.011	0.110
-450.938	-98.543	-0.334	0.086
-449.924	-78.525	-0.175	-0.061
-448.909	-12.567	-0.230	-0.152
-447.895	-200.000	0.009	-0.062
-446.880	-102.181	0.425	-0.103
-445.865	46.722	-0.085	0.080
-444.851	-66.718	-0.061	-0.024
-443.836	174.097	-0.095	0.139
-442.822	75.358	-0.113	-0.120
-441.807	554.748	-0.109	0.265
-440.792	-200.000	-0.047	0.306
-439.778	31.708	-0.069	-0.060
-438.763	98.042	-0.194	-0.226
-437.749	800.000	-0.108	-0.376
-436.734	-121.636	0.251	0.042
-435.719	-160.909	-0.364	0.019
-434.705	-78.066	-0.139	-0.048
-433.690	800.000	0.046	0.129
-432.676	-192.404	-0.145	0.001
-431.661	110.899	-0.087	0.105
-430.646	-200.000	0.022	-0.163
-429.632	-18.733	-0.124	-0.078
-428.617	-59.663	-0.380	0.165
-427.603	219.105	0.109	0.176
-426.588	-200.000	-0.000	-0.146
-425.573	-200.000	-0.054	-0.250
-424.559	-200.000	0.040	-0.212
-423.544	-200.000	-0.045	-0.225
-422.530	-200.000	-0.003	0.324
-421.515	37.520	-0.320	0.287
-420.500	800.000	0.108	-0.320
-419.486	800.000	0.123	-0.348
-418.471	2.496	0.168	-0.123
-417.457	109.129	-0.045	0.054
-416.442	-191.369	-0.511	0.005
-415.428	-2.992	-0.105	-0.074
-414.413	-150.318	0.078	-0.006
-413.398	-154.187	0.110	0.008
-412.384	-82.023	0.056	-0.018
-411.369	-4.516	0.093	0.065
-410.355	-9.625	-0.045	0.030
-409.340	800.000	-0.128	-0.496
-408.325	800.000	-0.063	-0.187
-407.311	-56.160	0.291	0.131
-406.296	800.000	-0.077	0.222
-405.282	-67.444	0.200	0.079
-404.267	-49.426	0.274	0.132
-403.252	-139.332	-0.068	0.007
-402.238	-200.000	-0.006	-0.043
-401.223	-200.000	-0.341	-0.001
-400.209	-123.283	0.195	0.031
-399.194	-152.528	0.124	-0.009
-398.179	656.707	-0.111	-0.289
-397.165	-39.313	-0.053	-0.028
-396.150	6.690	-0.212	-0.159
-395.136	139.660	0.031	0.042
-394.121	-119.283	-0.150	-0.026
-393.106	81.335	-0.109	-0.118
-392.092	424.604	0.071	-0.154
-391.077	-9.415	-0.287	0.193
-390.063	-200.000	-0.047	0.329
-389.048	-76.242	0.162	0.058
-388.033	23.988	0.241	-0.201
-387.019	-54.849	-0.259	0.118
-386.004	-200.000	0.002	0.267
-384.990	-150.010	0.237	0.019
-383.975	800.000	0.088	-0.297
-382.960	419.059	0.103	0.223
-381.946	3.906	-0.117	-0.086
-380.931	-117.365	-0.169	0.031
-379.917	-42.566	-0.298	-0.153
-378.902	-200.000	-0.022	-0.191
-377.888	655.665	0.075	-0.195
-376.873	181.881	-0.034	0.051
-375.858	-200.000	0.041	0.337
-374.844	-200.000	0.046	0.236
-373.829	-78.432	0.260	-0.090
-372.815	-93.644	0.048	-0.013
-371.800	-122.769	-0.059	0.010
-370.785	-34.868	-0.218	-0.120
-369.771	10.403	0.270	-0.207
-368.756	140.626	-0.108	-0.143
-367.742	800.000	-0.051	-0.166
-366.727	-71.437	0.145	0.055
-365.712	-200.000	-0.019	0.210
-364.698	-129.037	0.105	-0.015
-363.683	-200.000	0.026	-0.269
-362.669	-200.000	0.007	-0.175
-361.654	-65.513	-0.195	-0.079
-360.639	-48.756	0.257	0.124
-359.625	-80.971	0.250	-0.084
-358.610	11.814	0.261	0.202
-357.596	800.000	0.073	-0.278
-356.581	23.146	0.097	-0.081
-355.566	149.374	0.238	0.324
-354.552	-142.792	-0.069	-0.007
-353.537	-200.000	-0.038	-0.266
-352.523	-91.964	-0.266	0.076
-351.508	-200.000	0.001	0.242
-350.493	-114.545	0.145	0.028
-349.479	-42.615	0.208	0.107
-348.464	-35.916	-0.150	-0.082
-347.450	800.000	-0.082	-0.258
-346.435	-79.304	0.125	0.043
-345.420	171.350	0.138	0.199
-344.406	-14.174	-0.105	0.068
-343.391	72.302	-0.281	-0.295
-342.377	-200.000	0.001	0.297
-341.362	6.597	0.194	0.145
-340.348	-105.512	0.069	0.016
-339.333	89.011	-0.146	0.164
-338.318	82.996	0.228	-0.250
-337.304	-44.114	0.333	-0.168
-336.289	296.374	-0.115	0.212
-335.275	-106.297	0.241	0.054
-334.260	105.094	-0.162	-0.193
-333.245	-120.726	0.320	-0.054
-332.231	-200.000	0.005	-0.465
-331.216	-200.000	-0.016	0.187
-330.202	800.000	0.069	-0.197
-329.187	-200.000	0.023	-0.113
-328.172	2.757	-0.196	-0.143
-327.158	-18.098	0.081	-0.051
-326.143	85.920	0.152	-0.168
-325.129	-88.201	0.099	-0.030
-324.114	-101.293	-0.333	-0.082
-323.099	-200.000	0.002	-0.065
-322.085	86.356	-0.122	-0.135
-321.070	-76.139	0.255	0.090
-320.056	-200.000	-0.002	0.152
-319.041	-85.790	-0.254	0.079
-318.026	-200.000	-0.017	0.377
-317.012	-107.620	0.236	-0.052
-315.997	-104.221	-0.414	-0.097
-314.983	-132.704	0.296	0.038
-313.968	800.000	0.080	0.246
-312.953	-35.339	-0.197	-0.108
-311.939	102.252	0.179	0.210
-310.924	-200.000	0.053	0.504
-309.910	1.415	0.246	-0.178
-308.895	-200.000	-0.058	0.421
-307.880	-79.731	0.370	-0.125
-306.866	-110.615	-0.280	-0.058
-305.851	9.772	-0.116	-0.089
-304.837	-200.000	0.070	-0.311
-303.822	-200.000	-0.050	0.228
-302.807	-6.484	-0.026	0.018
-301.793	-200.000	-0.025	0.326
-300.778	28.212	-0.277	0.235
-299.764	84.967	-0.045	0.050
-298.749	-28.172	-0.130	-0.076
-297.735	-125.318	-0.121	-0.019
-296.720	-3.950	0.059	0.041
-295.705	392.751	-0.040	-0.083
-294.691	223.978	0.127	-0.205
-293.676	-166.404	-0.125	-0.005
-292.662	211.425	0.198	0.313
-291.647	361.148	0.070	-0.141
-290.632	-35.007	0.260	-0.142
-289.618	-103.823	-0.071	0.017
-288.603	-53.670	0.052	-0.024
-287.589	34.926	-0.275	0.242
-286.574	-157.744	-0.222	0.013
-285.559	-200.000	0.007	0.137
-284.545	-17.918	0.355	-0.224
-283.530	463.582	0.084	0.188
-282.516	-200.000	0.044	0.212
-281.501	-137.012	-0.211	0.024
-280.486	589.624	-0.104	0.258
-279.472	-106.747	0.177	0.040
-278.457	51.601	0.129	-0.123
-277.443	560.776	0.113	-0.273
-276.428	113.909	0.148	0.181
-275.413	-86.142	0.160	0.050
-274.399	-80.282	-0.202	-0.068
-273.384	-135.545	0.294	0.035
-272.370	-50.627	-0.083	0.039
-271.355	-55.435	-0.252	0.113
-270.340	160.515	0.305	0.427
-269.326	134.149	-0.138	-0.180
-268.311	294.667	0.112	-0.205
-267.297	-90.271	0.213	-0.062
-266.282	-138.564	0.298	-0.033
-265.267	-200.000	0.001	0.196
-264.253	-148.281	0.100	-0.008
-263.238	-113.119	-0.048	-0.010
-262.224	-200.000	-0.020	-0.201
-261.209	439.544	0.100	0.218
-260.195	114.516	-0.040	0.049
-259.180	-72.800	0.164	0.061
-258.165	-124.554	-0.131	0.020
-257.151	-85.876	-0.208	0.065
-256.136	103.329	-0.124	-0.146
-255.122	-144.430	-0.041	-0.004
-254.107	63.228	-0.158	0.158
-253.092	800.000	0.034	-0.134
-252.078	-150.101	0.317	0.025
-251.063	-46.510	-0.130	-0.064
-250.049	371.585	0.047	-0.095
-249.034	-142.785	-0.338	-0.033
-248.019	85.530	0.178	-0.196
-247.005	198.755	0.204	0.313
-245.990	-141.108	0.089	-0.009
-244.976	800.000	-0.080	0.278
-243.961	-200.000	0.006	0.124
-242.946	0.663	-0.067	0.048
-241.932	-200.000	0.030	0.135
-240.917	-69.823	0.122	-0.047
-239.903	-106.474	-0.055	0.012
-238.888	-139.370	0.199	0.021
-237.873	367.323	0.054	0.108
-236.859	-125.277	0.199	-0.031
-235.844	714.762	0.068	-0.180
-234.830	-60.127	0.120	0.051
-233.815	-99.891	0.126	-0.032
-232.800	-200.000	-0.082	0.424
-231.786	263.235	-0.130	0.227
-230.771	12.296	0.172	-0.133
-229.757	47.702	-0.070	0.065
-228.742	277.378	0.094	0.168
-227.727	800.000	-0.054	-0.207
-226.713	196.930	-0.157	-0.240
-225.698	-200.000	0.002	-0.020
-224.684	-127.983	0.224	0.032
-223.669	12.879	0.143	0.111
-222.655	-26.340	-0.112	0.066
-221.640	800.000	-0.088	0.273
-220.625	244.770	0.103	0.174
-219.611	46.883	-0.041	-0.038
-218.596	-78.527	-0.192	0.066
-217.582	-200.000	-0.021	0.182
-216.567	-25.462	0.249	0.147
-215.552	800.000	0.110	0.340
-214.538	3.357	0.202	-0.147
-213.523	800.000	0.084	0.351
-212.509	-27.306	0.255	-0.149
-211.494	147.266	0.152	0.205
-210.479	-200.000	-0.007	0.079
-209.465	-60.870	-0.198	0.084
-208.450	-64.408	0.067	0.027
-207.436	13.638	0.165	-0.128
-206.421	134.732	0.191	0.248
-205.406	96.862	-0.282	0.323
-204.392	-51.746	-0.402	-0.187
-203.377	54.687	-0.318	-0.307
-202.363	-109.811	0.332	-0.070
-201.348	800.000	0.023	-0.090
-200.333	73.578	-0.205	0.215
-199.319	-20.713	-0.066	-0.041
-198.304	-18.734	0.303	-0.189
-197.290	118.134	-0.103	0.127
-196.275	-17.552	-0.314	-0.197
-195.260	-3.183	0.375	0.262
-194.246	-14.503	-0.111	-0.071
-193.231	-39.810	0.134	0.070
-192.217	-200.000	0.040	-0.261
-191.202	94.809	-0.129	0.146
-190.187	-109.922	-0.229	0.048
-189.173	-111.769	0.240	-0.049
-188.158	-61.512	-0.284	0.119
-187.144	800.000	-0.061	0.244
-186.129	62.547	-0.123	-0.123
-185.114	-86.212	0.214	0.066
-184.100	79.259	0.198	0.213
-183.085	205.602	-0.029	-0.045
-182.071	-104.607	0.177	0.041
-181.056	384.284	0.162	0.334
-180.042	-76.290	0.308	-0.108
-179.027	304.297	-0.155	0.288
-178.012	-24.934	0.244	-0.145
-176.998	105.780	0.119	0.140
-175.983	-200.000	-0.024	0.328
-174.969	763.908	-0.074	0.201
-173.954	-1.833	-0.248	-0.175
-172.939	250.970	-0.053	0.090
-171.925	62.049	-0.016	-0.016
-170.910	-200.000	0.037	-0.308
-169.896	800.000	-0.024	-0.076
-168.881	-84.399	-0.151	0.048
-167.866	-68.595	-0.267	0.103
-166.852	155.330	-0.156	-0.215
-165.837	-12.074	0.193	-0.126
-164.823	800.000	-0.071	0.267
-163.808	-179.990	-0.206	-0.004
-162.793	104.282	0.136	0.160
-161.779	44.518	-0.190	-0.174
-160.764	-132.719	0.224	-0.029
-159.750	-102.693	-0.167	-0.040
-158.735	-88.032	-0.256	0.077
-157.720	-200.000	-0.034	0.399
-156.706	-76.329	-0.285	-0.100
-155.691	800.000	-0.078	0.254
-154.677	169.040	-0.128	0.182
-153.662	15.193	0.102	0.080
-152.647	47.971	0.142	-0.133
-151.633	-26.490	0.233	-0.137
-150.618	-8.653	0.105	0.070
-149.604	800.000	-0.091	-0.275
-148.589	800.000	0.009	-0.031
-147.574	-184.463	0.333	-0.005
-146.560	-200.000	0.001	-0.292
-145.545	-1.128	-0.125	0.089
-144.531	33.906	-0.337	-0.293
-143.516	730.267	-0.101	0.269
-142.502	768.141	0.100	0.270
-141.487	692.312	0.101	-0.264
-140.472	800.000	-0.027	0.111
-139.458	-200.000	0.007	-0.095
-138.443	-58.321	0.264	0.115
-137.429	237.770	-0.109	-0.180
-136.414	37.145	0.168	0.148
-135.399	364.552	-0.146	-0.293
-134.385	-114.282	-0.245	-0.047
-133.370	-29.516	-0.128	-0.073
-132.356	800.000	0.059	0.249
-131.341	-164.886	-0.075	0.003
-130.326	113.461	0.130	0.157
-129.312	471.463	-0.105	-0.236
-128.297	135.989	-0.246	-0.320
-127.283	-200.000	-0.016	-0.118
-126.268	-118.000	-0.506	0.090
-125.253	26.743	-0.359	0.300
-124.239	-200.000	0.005	-0.145
-123.224	-157.201	-0.062	-0.004
-122.210	-147.738	0.206	0.017
