DTS Sentinel unit serial number:	SN413079Multiplexer serial number:	ORYXHardware model number:	OX4-SRSoftware version number:	ORYX F/W v4.00 Oryx Data Collector v3.7.2.0data status	okinstallation	princeton_trtdifferential loss correction	single-endedforward channel	channel 1reverse channel	N/Adate	2019/09/12time	10:20:11forward acquisition time	60.00reverse acquisition time	0.00gamma	496.2192k internal	0.2298k external	0.2298temperature offset calibration	1.0044default loss term (dB/km)	0.3790temperature slope calibration	1.0000multiplexer offset coefficient	1.0000multiplexer slope coefficient	1.0000fibre end	0.00T internal ref (°C)	36.70T ext. ref 1 (°C)	1.86T ext. ref 2 (°C)	34.81length (m)	temperature (°C)	Stokes	anti-Stokes-747.200	121.914	-0.165	0.211
-746.185	198.816	0.055	0.087
-745.171	-87.721	0.201	-0.062
-744.156	-76.976	-0.237	0.084
-743.142	79.221	0.140	0.153
-742.127	-99.322	0.229	-0.059
-741.112	-139.061	0.122	0.013
-740.098	-6.732	-0.119	0.082
-739.083	-41.540	-0.319	-0.168
-738.069	-159.854	-0.143	-0.008
-737.054	82.179	0.115	-0.127
-736.039	-157.507	-0.427	0.026
-735.025	778.132	0.122	0.341
-734.010	5.733	-0.121	-0.091
-732.996	616.488	0.091	-0.233
-731.981	-7.087	0.102	0.070
-730.966	119.388	0.046	-0.058
-729.952	-21.321	-0.259	0.161
-728.937	-200.000	-0.045	-0.274
-727.923	-104.749	-0.081	-0.019
-726.908	-200.000	-0.010	-0.353
-725.894	-95.701	-0.107	-0.029
-724.879	0.628	0.283	0.207
-723.864	-200.000	-0.025	-0.129
-722.850	-116.085	-0.260	0.049
-721.835	-159.610	-0.257	-0.015
-720.821	-12.059	-0.415	-0.278
-719.806	-200.000	0.005	0.049
-718.791	240.912	0.085	0.145
-717.777	-200.000	-0.041	0.417
-716.762	-200.000	0.018	0.136
-715.748	800.000	-0.046	0.155
-714.733	524.315	-0.062	-0.148
-713.718	-103.572	0.154	-0.037
-712.704	553.763	-0.063	-0.154
-711.689	-106.310	0.257	-0.059
-710.675	97.220	0.283	0.332
-709.660	82.799	0.082	-0.091
-708.645	566.375	-0.064	-0.158
-707.631	309.294	-0.184	-0.350
-706.616	-124.446	-0.340	-0.054
-705.602	-96.493	-0.339	0.091
-704.587	800.000	0.049	0.208
-703.572	-200.000	0.001	-0.090
-702.558	158.296	-0.158	-0.224
-701.543	-98.474	0.354	-0.092
-700.529	8.665	-0.034	-0.026
-699.514	-200.000	-0.081	0.456
-698.499	94.761	-0.184	-0.213
-697.485	-126.617	-0.153	-0.023
-696.470	63.916	-0.176	-0.180
-695.456	-137.622	0.044	-0.005
-694.441	105.837	-0.081	0.098
-693.426	-118.229	0.412	-0.075
-692.412	-44.954	-0.151	0.077
-691.397	-111.512	0.234	0.049
-690.383	167.955	0.011	-0.017
-689.368	-104.360	-0.033	0.008
-688.354	-28.933	-0.241	-0.141
-687.339	16.056	-0.106	-0.085
-686.324	-200.000	0.039	0.179
-685.310	170.223	0.107	-0.156
-684.295	-73.724	-0.116	0.043
-683.281	-32.817	-0.116	-0.066
-682.266	113.206	-0.015	-0.019
-681.251	-200.000	-0.012	0.257
-680.237	-200.000	0.020	-0.286
-679.222	27.662	0.151	0.130
-678.208	641.216	0.083	0.215
-677.193	71.215	-0.256	0.270
-676.178	56.988	-0.237	-0.235
-675.164	400.411	0.111	0.238
-674.149	68.223	0.243	0.253
-673.135	-48.034	-0.410	0.202
-672.120	800.000	-0.058	-0.220
-671.105	728.331	-0.017	-0.046
-670.091	-155.066	-0.147	-0.010
-669.076	336.116	-0.151	-0.298
-668.062	-65.132	0.193	-0.079
-667.047	-97.170	0.300	-0.080
-666.032	-23.299	0.192	-0.117
-665.018	-186.975	0.072	-0.001
-664.003	-200.000	0.009	-0.134
-662.989	-200.000	-0.041	-0.263
-661.974	-103.533	-0.375	0.090
-660.959	-119.788	0.298	-0.052
-659.945	-51.841	-0.126	0.060
-658.930	798.339	0.112	0.315
-657.916	48.987	0.190	0.182
-656.901	70.023	-0.213	0.224
-655.886	-107.978	-0.218	-0.048
-654.872	124.275	-0.147	0.188
-653.857	800.000	-0.110	-0.453
-652.843	17.298	-0.196	0.158
-651.828	-9.817	0.195	0.132
-650.814	800.000	0.075	0.231
-649.799	25.902	-0.064	0.054
-648.784	-73.078	-0.341	-0.127
-647.770	-37.527	0.158	-0.086
-646.755	-131.965	-0.341	-0.045
-645.741	-40.987	0.224	-0.118
-644.726	-67.734	-0.275	-0.109
-643.711	404.319	0.120	-0.256
-642.697	-200.000	0.009	-0.135
-641.682	208.224	-0.138	-0.220
-640.668	-62.895	-0.107	0.045
-639.653	-130.072	-0.167	-0.023
-638.638	356.630	-0.082	0.166
-637.624	784.504	-0.064	-0.179
-636.609	73.363	-0.263	-0.280
-635.595	-68.819	0.287	0.113
-634.580	-179.904	-0.292	-0.006
-633.565	-177.068	-0.188	-0.005
-632.551	-200.000	-0.029	-0.225
-631.536	-41.821	-0.313	-0.163
-630.522	-56.617	0.209	0.094
-629.507	-154.010	-0.076	-0.005
-628.492	122.664	0.262	0.333
-627.478	329.242	-0.114	-0.222
-626.463	226.469	0.097	0.159
-625.449	214.283	0.114	-0.183
-624.434	-26.785	0.111	-0.066
-623.419	45.315	0.109	0.102
-622.405	-56.984	0.180	0.081
-621.390	-200.000	0.001	-0.054
-620.376	146.858	-0.059	-0.081
-619.361	-149.120	-0.058	0.005
-618.346	157.061	-0.109	-0.154
-617.332	800.000	0.119	0.337
-616.317	-200.000	-0.052	0.261
-615.303	-185.263	0.116	-0.002
-614.288	-90.900	-0.107	-0.031
-613.273	616.092	-0.110	-0.281
-612.259	-155.857	-0.094	0.006
-611.244	800.000	-0.088	-0.261
-610.230	-78.755	-0.295	-0.102
-609.215	-145.295	0.340	-0.031
-608.201	-28.178	-0.252	0.148
-607.186	-28.104	-0.434	0.255
-606.171	-6.708	0.083	-0.058
-605.157	-157.884	0.085	-0.005
-604.142	382.443	-0.166	0.346
-603.128	193.030	0.060	0.092
-602.113	79.109	-0.202	-0.220
-601.098	-108.838	0.235	-0.051
-600.084	-159.106	-0.161	0.009
-599.069	15.464	0.149	0.119
-598.055	64.053	-0.153	0.156
-597.040	-45.819	-0.230	-0.115
-596.025	-22.847	0.347	-0.212
-595.011	-93.893	0.129	-0.036
-593.996	-107.130	-0.295	0.066
-592.982	-168.317	-0.236	-0.009
-591.967	557.559	0.070	0.171
-590.952	-67.053	0.079	-0.032
-589.938	-41.624	-0.174	-0.090
-588.923	-98.192	-0.124	-0.032
-587.909	-78.684	-0.165	0.057
-586.894	165.288	-0.172	0.246
-585.879	-42.377	0.113	-0.058
-584.865	-200.000	-0.006	0.049
-583.850	-28.389	0.332	-0.194
-582.836	-38.322	-0.214	-0.115
-581.821	-134.268	-0.347	0.043
-580.806	358.866	0.113	-0.229
-579.792	-74.979	-0.217	-0.079
-578.777	18.956	0.117	-0.095
-577.763	99.937	0.209	0.246
-576.748	596.008	0.037	0.092
-575.733	95.537	-0.242	-0.280
-574.719	180.649	-0.137	0.204
-573.704	-200.000	-0.036	-0.281
-572.690	-114.873	0.138	-0.027
-571.675	240.323	0.098	0.165
-570.661	-200.000	-0.005	0.093
-569.646	-130.313	0.481	-0.066
-568.631	-75.133	0.116	0.042
-567.617	-91.330	0.327	0.095
-566.602	-200.000	-0.013	-0.154
-565.588	471.196	-0.188	0.428
-564.573	66.259	0.138	-0.142
-563.558	-200.000	-0.012	0.090
-562.544	-35.313	0.197	0.109
-561.529	262.499	0.047	0.082
-560.515	279.125	0.206	0.373
-559.500	-36.328	0.099	0.054
-558.485	-173.559	0.081	0.002
-557.471	-62.077	-0.229	-0.097
-556.456	-103.378	-0.200	-0.048
-555.442	-110.124	-0.249	-0.053
-554.427	-111.220	-0.286	0.059
-553.412	205.223	-0.126	-0.199
-552.398	41.832	-0.069	-0.064
-551.383	-3.020	-0.064	-0.045
-550.369	-27.736	-0.239	-0.141
-549.354	244.122	0.118	-0.201
-548.339	615.673	-0.122	-0.311
-547.325	800.000	0.034	0.106
-546.310	-12.134	-0.052	-0.034
-545.296	442.102	-0.155	0.345
-544.281	-114.012	0.109	-0.021
-543.266	-40.347	-0.223	-0.117
-542.252	800.000	-0.026	-0.112
-541.237	24.114	0.169	0.141
-540.223	450.765	-0.102	-0.227
-539.208	-43.971	-0.278	-0.141
-538.193	-200.000	-0.043	-0.341
-537.179	8.189	-0.030	0.023
-536.164	77.708	-0.181	-0.195
-535.150	312.373	0.108	-0.204
-534.135	29.705	-0.150	-0.130
-533.121	-127.338	-0.187	0.028
-532.106	364.627	-0.019	-0.039
-531.091	-9.972	-0.155	-0.104
-530.077	-132.772	0.151	-0.019
-529.062	-200.000	0.003	-0.070
-528.048	-1.853	-0.190	-0.136
-527.033	-185.962	-0.137	-0.002
-526.018	-200.000	0.044	0.326
-525.004	554.471	-0.092	0.225
-523.989	65.659	-0.243	0.249
-522.975	-10.746	-0.332	0.222
-521.960	198.199	-0.121	0.187
-520.945	-24.475	0.071	0.043
-519.931	-20.793	0.067	-0.042
-518.916	-157.019	0.146	-0.009
-517.902	800.000	-0.114	-0.410
-516.887	132.235	-0.191	-0.249
-515.872	-8.385	0.131	0.089
-514.858	199.531	-0.135	0.209
-513.843	-200.000	-0.006	-0.085
-512.829	-106.519	-0.407	-0.092
-511.814	2.288	0.207	0.152
-510.799	-73.643	-0.169	0.062
-509.785	107.092	-0.317	-0.381
-508.770	78.553	0.252	-0.273
-507.756	-200.000	-0.012	0.198
-506.741	31.298	0.249	-0.216
-505.726	500.022	0.140	0.328
-504.712	-113.270	0.266	0.053
-503.697	800.000	-0.117	0.410
-502.683	800.000	-0.080	-0.264
-501.668	-104.224	0.166	-0.039
-500.653	-81.607	0.099	-0.033
-499.639	-200.000	-0.009	0.374
-498.624	-58.434	0.142	0.062
-497.610	-7.926	0.126	0.086
-496.595	-82.116	-0.298	0.098
-495.581	8.447	-0.303	-0.230
-494.566	800.000	0.011	-0.040
-493.551	52.577	-0.198	-0.191
-492.537	-200.000	-0.018	0.261
-491.522	-200.000	-0.015	0.136
-490.508	188.023	-0.175	0.265
-489.493	-106.748	-0.166	-0.037
-488.478	-162.691	-0.056	-0.003
-487.464	-196.300	-0.348	-0.002
-486.449	-88.734	-0.219	-0.066
-485.435	-143.208	0.196	0.019
-484.420	800.000	-0.053	0.215
-483.405	-67.658	-0.206	0.081
-482.391	-156.555	0.456	-0.029
-481.376	-149.328	-0.273	-0.022
-480.362	50.211	0.307	0.293
-479.347	-200.000	-0.003	0.037
-478.332	800.000	0.074	-0.230
-477.318	283.395	-0.095	-0.172
-476.303	-54.560	0.053	0.024
-475.289	129.964	-0.030	-0.039
-474.274	153.732	0.094	-0.130
-473.259	-104.358	0.234	-0.055
-472.245	118.661	0.226	0.282
-471.230	-154.426	-0.084	-0.006
-470.216	-53.937	0.273	0.125
-469.201	800.000	-0.046	0.146
-468.186	-143.452	0.107	-0.010
-467.172	35.883	-0.073	-0.065
-466.157	-42.735	0.222	0.114
-465.143	-200.000	0.003	0.096
-464.128	-200.000	-0.023	0.121
-463.113	235.058	0.119	-0.198
-462.099	-200.000	0.033	-0.237
-461.084	-200.000	0.014	-0.134
-460.070	263.273	0.197	-0.346
-459.055	112.134	0.246	-0.300
-458.040	442.065	-0.105	0.231
-457.026	800.000	0.033	-0.141
-456.011	-200.000	0.063	0.304
-454.997	-136.130	-0.510	0.060
-453.982	8.343	0.156	-0.119
-452.968	60.622	-0.081	-0.081
-451.953	-129.426	0.128	-0.018
-450.938	71.520	-0.140	0.147
-449.924	-139.451	0.153	0.016
-448.909	354.573	0.190	-0.381
-447.895	18.379	0.050	0.040
-446.880	800.000	-0.048	0.202
-445.865	800.000	-0.067	0.230
-444.851	-200.000	0.004	0.066
-443.836	-110.586	0.295	-0.062
-442.822	-35.664	0.113	0.062
-441.807	-177.438	-0.319	0.008
-440.792	1.727	0.173	-0.125
-439.778	800.000	0.034	0.102
-438.763	-142.187	-0.117	0.012
-437.749	11.892	0.098	-0.076
-436.734	124.803	0.151	0.192
-435.719	-31.693	0.129	0.073
-434.705	-200.000	-0.033	-0.201
-433.690	800.000	-0.049	0.154
-432.676	800.000	-0.132	0.479
-431.661	335.486	-0.172	0.337
-430.646	-80.757	-0.384	0.129
-429.632	-71.992	0.303	0.114
-428.617	-23.775	-0.086	0.052
-427.603	17.992	-0.198	-0.159
-426.588	-0.532	0.244	0.175
-425.573	478.146	0.051	-0.116
-424.559	96.685	0.084	0.097
-423.544	697.555	0.075	-0.200
-422.530	54.980	0.212	-0.206
-421.515	315.901	-0.020	-0.037
-420.500	159.206	0.048	0.067
-419.486	-200.000	0.005	0.242
-418.471	54.423	0.185	0.180
-417.457	-20.450	0.235	-0.145
-416.442	-120.196	-0.353	-0.061
-415.428	125.444	0.046	-0.058
-414.413	258.288	-0.129	0.224
-413.398	179.172	-0.062	-0.092
-412.384	-12.580	0.124	-0.082
-411.369	76.300	0.053	-0.057
-410.355	140.487	-0.206	-0.274
-409.340	14.855	-0.054	-0.043
-408.325	-200.000	0.008	0.117
-407.311	-130.159	-0.227	0.031
-406.296	-200.000	0.037	-0.223
-405.282	-200.000	0.046	0.214
-404.267	-200.000	0.031	0.375
-403.252	-200.000	0.074	0.329
-402.238	-200.000	-0.045	0.330
-401.223	-108.320	0.328	0.071
-400.209	-73.182	-0.094	0.035
-399.194	328.949	-0.122	0.235
-398.179	-113.486	-0.061	0.012
-397.165	216.456	0.162	-0.259
-396.150	-184.059	-0.276	-0.005
-395.136	-16.984	0.101	-0.065
-394.121	-200.000	-0.000	0.285
-393.106	210.942	-0.114	0.181
-392.092	44.706	-0.083	0.077
-391.077	-200.000	0.005	-0.143
-390.063	538.157	0.094	0.226
-389.048	-124.618	-0.129	-0.020
-388.033	26.329	-0.127	-0.107
-387.019	-60.350	0.200	-0.086
-386.004	-92.528	-0.090	0.025
-384.990	384.394	0.060	0.124
-383.975	237.980	0.230	0.385
-382.960	-90.192	-0.110	-0.032
-381.946	-200.000	-0.008	0.199
-380.931	-87.605	-0.210	-0.064
-379.917	-100.816	-0.332	0.082
-378.902	141.040	0.248	0.330
-377.888	472.054	-0.175	-0.395
-376.873	32.485	-0.089	-0.078
-375.858	179.250	0.126	-0.186
-374.844	270.251	0.078	-0.138
-373.829	-200.000	0.026	0.193
-372.815	-96.978	-0.067	-0.018
-371.800	223.667	0.085	-0.137
-370.785	-97.001	-0.130	0.034
-369.771	-66.165	-0.182	0.073
-368.756	-184.378	0.065	0.001
-367.742	-200.000	0.029	-0.215
-366.727	7.949	0.015	0.012
-365.712	-200.000	-0.011	0.084
-364.698	279.257	-0.093	-0.166
-363.683	800.000	0.050	0.174
-362.669	415.733	0.055	0.119
-361.654	800.000	-0.067	-0.229
-360.639	800.000	-0.033	0.102
-359.625	359.233	-0.101	0.202
-358.610	-96.676	0.307	-0.081
-357.596	274.468	0.128	0.227
-356.581	-134.094	0.327	-0.041
-355.566	800.000	0.102	-0.343
-354.552	-200.000	0.080	-0.366
-353.537	290.176	0.036	-0.066
-352.523	-77.458	-0.165	-0.058
-351.508	-200.000	0.012	-0.238
-350.493	-56.207	0.079	-0.035
-349.479	-45.958	0.206	0.102
-348.464	-129.445	-0.097	-0.013
-347.450	-60.706	0.235	0.100
-346.435	-164.027	-0.121	0.006
-345.420	122.538	0.251	0.316
-344.406	800.000	-0.060	-0.212
-343.391	-200.000	0.029	0.247
-342.377	-200.000	-0.052	0.395
-341.362	531.539	-0.176	-0.419
-340.348	84.421	0.237	0.260
-339.333	169.029	0.065	-0.092
-338.318	-124.169	0.126	-0.020
-337.304	-128.461	0.199	0.028
-336.289	399.647	0.128	-0.270
-335.275	-189.512	0.098	0.001
-334.260	-169.973	0.050	0.002
-333.245	-125.145	-0.379	-0.058
-332.231	166.891	-0.181	0.257
-331.216	10.291	0.100	-0.076
-330.202	-1.846	0.075	-0.053
-329.187	448.000	-0.082	-0.181
-328.172	-124.632	-0.355	0.055
-327.158	-200.000	-0.084	0.374
-326.143	-139.212	0.166	-0.018
-325.129	281.523	-0.155	0.278
-324.114	-22.094	0.177	0.108
-323.099	94.790	0.184	0.211
-322.085	557.462	0.059	-0.143
-321.070	24.880	0.283	0.235
-320.056	-153.219	0.154	-0.011
-319.041	-200.000	-0.012	0.249
-318.026	-129.103	0.405	-0.057
-317.012	-86.151	0.071	-0.022
-315.997	-95.147	0.385	0.104
-314.983	-142.766	0.240	-0.023
-313.968	87.032	0.109	-0.121
-312.953	-121.012	0.167	-0.028
-311.939	536.514	0.116	-0.276
-310.924	-86.547	0.354	-0.109
-309.910	-200.000	-0.021	0.252
-308.895	-38.044	0.171	0.091
-307.880	20.999	-0.296	-0.241
-306.866	-124.271	-0.180	0.028
-305.851	509.549	-0.090	0.211
-304.837	-14.389	0.310	0.201
-303.822	-79.809	0.225	0.076
-302.807	-19.850	0.104	0.065
-301.793	-16.962	0.334	0.211
-300.778	-200.000	-0.044	0.285
-299.764	-200.000	-0.060	0.273
-298.749	92.779	0.115	0.130
-297.735	-73.020	-0.119	-0.044
-296.720	158.297	-0.072	0.100
-295.705	-50.596	-0.191	0.090
-294.691	192.777	0.214	-0.325
-293.676	-92.730	-0.229	-0.064
-292.662	-200.000	0.005	-0.116
-291.647	-200.000	-0.015	0.236
-290.632	800.000	0.072	-0.229
-289.618	206.700	-0.017	-0.027
-288.603	52.073	-0.249	0.238
-287.589	-200.000	0.044	-0.247
-286.574	-74.098	0.197	0.072
-285.559	89.861	-0.099	0.111
-284.545	-200.000	0.055	-0.277
-283.530	479.170	0.101	-0.229
-282.516	800.000	0.071	0.269
-281.501	-171.800	-0.112	-0.004
-280.486	800.000	0.114	-0.366
-279.472	22.007	0.131	-0.107
-278.457	-119.948	0.189	0.033
-277.443	579.212	0.092	-0.225
-276.428	-200.000	-0.022	0.110
-275.413	-153.366	0.046	-0.003
-274.399	153.371	-0.045	0.062
-273.384	-97.455	0.040	-0.011
-272.370	800.000	-0.098	0.321
-271.355	356.402	-0.069	0.137
-270.340	-17.404	-0.071	0.045
-269.326	90.870	0.117	0.132
-268.311	541.885	0.044	0.106
-267.297	-68.652	0.025	-0.010
-266.282	318.735	-0.178	0.338
-265.267	-66.321	0.291	0.116
-264.253	-135.846	0.169	0.020
-263.238	-113.836	-0.182	-0.035
-262.224	71.138	0.057	0.059
-261.209	-31.205	0.314	0.177
-260.195	116.825	0.119	0.147
-259.180	-83.225	0.118	-0.038
-258.165	35.587	-0.111	-0.098
-257.151	27.343	-0.167	0.141
-256.136	545.518	-0.111	-0.266
-255.122	-200.000	0.031	0.179
-254.107	-156.900	-0.255	0.016
-253.092	-34.670	-0.134	-0.073
-252.078	628.595	0.102	-0.257
-251.063	-200.000	-0.011	-0.056
-250.049	-189.222	-0.591	-0.007
-249.034	537.474	0.102	-0.242
-248.019	-184.931	0.204	0.003
-247.005	45.166	-0.111	-0.102
-245.990	-10.291	-0.219	-0.146
-244.976	133.292	-0.127	0.164
-243.961	254.705	-0.078	-0.133
-242.946	-200.000	0.007	0.060
-241.932	495.248	0.107	-0.246
-240.917	-200.000	-0.049	0.297
-239.903	-107.561	-0.285	-0.062
-238.888	800.000	-0.078	-0.234
-237.873	-93.225	-0.170	-0.047
-236.859	-55.698	-0.173	0.077
-235.844	-113.183	0.443	0.087
-234.830	566.355	0.118	-0.286
-233.815	172.145	0.062	0.089
-232.800	-44.221	0.234	-0.117
-231.786	-97.134	0.196	0.051
-230.771	-22.961	-0.282	0.170
-229.757	-200.000	-0.005	-0.077
-228.742	-200.000	0.015	-0.189
-227.727	-153.530	-0.329	0.023
-226.713	-72.484	-0.133	-0.049
-225.698	-169.902	0.371	0.013
-224.684	-200.000	-0.067	-0.314
-223.669	305.065	-0.167	0.311
-222.655	800.000	0.061	-0.186
-221.640	800.000	-0.084	0.333
-220.625	298.652	0.150	0.275
-219.611	-73.925	-0.078	0.028
-218.596	86.254	0.233	-0.257
-217.582	-76.245	0.309	-0.109
-216.567	-200.000	-0.036	-0.195
-215.552	63.560	0.098	-0.098
-214.538	49.188	-0.299	0.281
-213.523	114.948	-0.193	-0.235
-212.509	800.000	0.021	-0.088
-211.494	60.982	0.106	-0.105
-210.479	-200.000	-0.036	-0.170
-209.465	293.092	0.044	-0.080
-208.450	193.649	0.082	-0.125
-207.436	538.022	0.126	0.298
-206.421	-51.268	0.228	0.107
-205.406	-200.000	-0.057	-0.433
-204.392	-151.504	-0.191	0.014
-203.377	-74.694	0.349	-0.126
-202.363	-200.000	-0.017	0.107
-201.348	-200.000	-0.002	-0.022
-200.333	-59.600	-0.196	0.084
-199.319	-200.000	0.008	-0.382
-198.304	-69.994	0.158	0.060
-197.290	-65.859	0.219	-0.088
-196.275	46.467	-0.292	-0.271
-195.260	-172.353	0.376	0.012
-194.246	-85.859	0.119	0.037
-193.231	-97.151	0.431	0.112
-192.217	389.931	0.099	-0.204
-191.202	151.231	0.163	0.221
-190.187	28.222	-0.085	0.071
-189.173	-64.723	0.091	-0.037
-188.158	-200.000	0.048	-0.342
-187.144	-200.000	-0.037	-0.209
-186.129	-200.000	-0.007	0.034
-185.114	-200.000	-0.132	-0.000
-184.100	454.585	0.065	-0.144
-183.085	213.576	0.187	0.295
-182.071	-62.866	-0.105	0.044
-181.056	-200.000	0.028	-0.232
-180.042	-43.027	0.327	0.165
-179.027	231.053	0.173	0.282
-178.012	199.824	0.172	0.264
-176.998	-79.881	0.188	-0.063
-175.983	7.527	-0.323	-0.241
-174.969	-106.682	0.191	0.042
-173.954	-200.000	-0.038	-0.245
-172.939	73.462	-0.082	-0.086
-171.925	-166.437	0.184	-0.008
-170.910	466.766	0.057	-0.127
-169.896	-126.224	0.068	0.010
-168.881	-149.773	-0.161	-0.013
-167.866	194.105	0.142	-0.215
-166.852	-200.000	0.004	-0.211
-165.837	-0.069	0.094	0.067
-164.823	731.220	-0.059	-0.158
-163.808	-54.567	-0.075	0.034
-162.793	26.913	0.122	-0.102
-161.779	-154.172	-0.331	-0.022
-160.764	-99.417	-0.296	-0.074
-159.750	-18.050	-0.324	0.202
-158.735	16.828	-0.407	0.322
-157.720	-200.000	-0.014	-0.230
-156.706	-167.612	0.077	0.003
-155.691	-48.013	0.124	0.060
-154.677	-87.342	-0.153	0.046
-153.662	-124.310	-0.118	-0.018
-152.647	561.866	-0.103	-0.250
-151.633	-200.000	0.031	-0.177
-150.618	-200.000	0.060	-0.289
-149.604	123.108	0.293	0.366
-148.589	-74.773	0.302	0.108
-147.574	60.075	0.277	0.273
-146.560	-200.000	0.020	0.168
-145.545	12.523	-0.101	0.078
-144.531	-58.489	-0.323	-0.140
-143.516	-21.763	-0.135	-0.082
-142.502	31.657	-0.049	0.042
-141.487	235.483	0.068	-0.112
-140.472	-115.384	-0.104	-0.020
-139.458	45.803	-0.124	0.114
-138.443	83.613	-0.174	-0.189
-137.429	-59.380	0.171	-0.073
-136.414	-21.927	0.152	-0.092
-135.399	146.608	0.211	0.283
-134.385	800.000	-0.060	0.169
-133.370	-200.000	-0.033	0.183
-132.356	-200.000	0.001	-0.448
-131.341	17.539	0.157	0.124
-130.326	124.977	0.192	-0.241
-129.312	-7.911	-0.100	0.067
-128.297	122.378	-0.101	0.126
-127.283	269.099	0.025	0.044
-126.268	-178.409	0.635	-0.015
-125.253	86.869	0.213	-0.234
-124.239	-200.000	0.005	-0.183
-123.224	-124.799	0.292	-0.045
-122.210	-92.944	0.370	0.103
