DTS Sentinel unit serial number:	SN413079Multiplexer serial number:	ORYXHardware model number:	OX4-SRSoftware version number:	ORYX F/W v4.00 Oryx Data Collector v3.7.2.0data status	okinstallation	princeton_trtdifferential loss correction	single-endedforward channel	channel 1reverse channel	N/Adate	2019/09/18time	10:26:35forward acquisition time	60.00reverse acquisition time	0.00gamma	496.2192k internal	0.2328k external	0.2328temperature offset calibration	0.9974default loss term (dB/km)	0.3790temperature slope calibration	1.0000multiplexer offset coefficient	1.0000multiplexer slope coefficient	1.0000fibre end	0.00T internal ref (°C)	28.25T ext. ref 1 (°C)	0.35T ext. ref 2 (°C)	24.72length (m)	temperature (°C)	Stokes	anti-Stokes-747.200	-191.939	0.270	-0.003
-746.185	-200.000	0.019	-0.105
-745.171	0.640	0.257	-0.186
-744.156	-8.888	0.350	0.236
-743.142	-200.000	-0.025	0.396
-742.127	-13.170	-0.157	0.103
-741.112	-111.538	0.165	0.034
-740.098	800.000	-0.056	0.169
-739.083	-7.027	0.176	-0.121
-738.069	26.546	0.029	0.024
-737.054	-104.934	0.179	-0.041
-736.039	157.779	-0.277	-0.387
-735.025	-14.596	-0.188	-0.121
-734.010	194.957	-0.196	-0.299
-732.996	800.000	-0.046	-0.132
-731.981	744.340	-0.155	-0.421
-730.966	-200.000	0.050	-0.264
-729.952	514.328	-0.092	-0.217
-728.937	-159.515	-0.116	-0.007
-727.923	-135.239	-0.327	-0.039
-726.908	545.964	0.011	-0.025
-725.894	468.276	0.061	-0.138
-724.879	-200.000	0.008	0.421
-723.864	-200.000	0.000	0.137
-722.850	54.406	-0.112	0.109
-721.835	133.748	0.180	0.234
-720.821	-200.000	-0.015	-0.287
-719.806	768.642	-0.067	0.184
-718.791	-200.000	0.039	-0.348
-717.777	699.470	0.166	0.439
-716.762	-33.919	0.111	0.062
-715.748	57.040	0.129	-0.126
-714.733	-69.143	-0.232	0.090
-713.718	-133.801	0.459	-0.057
-712.704	-144.899	-0.408	0.038
-711.689	-31.635	0.111	0.063
-710.675	-200.000	0.044	-0.353
-709.660	800.000	-0.081	0.325
-708.645	57.823	-0.142	0.140
-707.631	-117.207	-0.156	-0.029
-706.616	-115.455	0.125	0.024
-705.602	28.740	-0.194	-0.165
-704.587	-118.661	-0.027	-0.005
-703.572	218.956	0.265	0.426
-702.558	-84.585	-0.158	0.050
-701.543	-30.762	-0.246	-0.140
-700.529	610.391	-0.095	0.238
-699.514	19.348	-0.163	-0.132
-698.499	-65.772	0.192	-0.077
-697.485	250.807	0.181	0.310
-696.470	-200.000	-0.024	0.113
-695.456	-95.761	-0.228	-0.061
-694.441	90.646	-0.145	0.163
-693.426	86.543	-0.363	-0.402
-692.412	-200.000	-0.011	-0.070
-691.397	256.941	-0.061	-0.105
-690.383	-68.873	-0.204	0.079
-689.368	-7.584	-0.255	0.173
-688.354	-7.988	0.064	-0.043
-687.339	15.380	-0.323	-0.255
-686.324	109.453	-0.166	-0.200
-685.310	-107.926	0.258	0.056
-684.295	-200.000	-0.046	0.424
-683.281	-51.201	0.162	0.076
-682.266	-200.000	-0.020	-0.100
-681.251	-200.000	0.104	0.000
-680.237	334.160	0.097	0.189
-679.222	-181.272	0.149	0.003
-678.208	-200.000	0.026	0.187
-677.193	-26.749	-0.070	0.041
-676.178	-200.000	-0.010	-0.058
-675.164	-35.605	-0.438	-0.239
-674.149	-117.494	0.126	-0.023
-673.135	156.534	-0.093	0.129
-672.120	-92.669	0.284	-0.080
-671.105	-140.560	-0.340	-0.035
-670.091	83.045	0.120	0.131
-669.076	-200.000	0.035	-0.169
-668.062	-200.000	-0.000	0.248
-667.047	252.400	-0.062	0.105
-666.032	140.264	0.126	0.166
-665.018	-200.000	-0.005	-0.277
-664.003	800.000	-0.098	0.274
-662.989	-56.193	0.301	0.135
-661.974	-200.000	-0.001	-0.247
-660.959	-113.598	-0.392	-0.077
-659.945	-153.434	-0.249	-0.017
-658.930	-200.000	-0.001	-0.023
-657.916	-155.532	-0.068	-0.004
-656.901	-200.000	-0.094	0.416
-655.886	-200.000	0.007	0.068
-654.872	-133.383	0.153	-0.019
-653.857	-135.410	-0.328	-0.039
-652.843	-60.614	0.556	-0.237
-651.828	-115.280	0.408	0.077
-650.814	-104.751	-0.382	-0.088
-649.799	-66.492	0.118	-0.047
-648.784	-54.244	0.295	-0.134
-647.770	-182.264	-0.271	0.005
-646.755	81.576	0.264	0.287
-645.741	495.984	-0.067	0.155
-644.726	-134.102	-0.079	-0.010
-643.711	-55.601	0.056	-0.025
-642.697	14.239	-0.204	-0.160
-641.682	64.445	0.215	0.218
-640.668	12.073	0.033	0.026
-639.653	19.728	-0.019	-0.016
-638.638	-147.156	-0.262	-0.022
-637.624	-200.000	0.023	-0.272
-636.609	-26.199	-0.171	-0.101
-635.595	-144.710	-0.132	0.012
-634.580	54.225	0.174	0.168
-633.565	472.069	0.106	0.240
-632.551	-200.000	-0.001	-0.172
-631.536	537.220	0.043	0.102
-630.522	92.757	-0.267	-0.303
-629.507	15.892	0.120	0.095
-628.492	-46.763	0.331	0.162
-627.478	-85.639	0.195	-0.061
-626.463	-200.000	-0.020	-0.379
-625.449	81.864	0.402	-0.436
-624.434	84.680	0.065	-0.071
-623.419	38.904	0.084	-0.076
-622.405	-200.000	-0.027	0.190
-621.390	605.957	0.112	-0.279
-620.376	388.922	-0.112	-0.233
-619.361	560.465	-0.020	-0.047
-618.346	415.355	-0.131	0.280
-617.332	-200.000	-0.023	-0.181
-616.317	159.365	-0.307	0.429
-615.303	105.009	-0.088	0.104
-614.288	800.000	-0.077	-0.223
-613.273	399.505	-0.127	0.267
-612.259	67.191	-0.204	0.209
-611.244	-200.000	-0.006	0.184
-610.230	390.363	-0.033	-0.069
-609.215	-69.286	0.342	0.132
-608.201	-60.348	-0.378	0.161
-607.186	-176.950	-0.128	-0.003
-606.171	14.410	-0.088	-0.068
-605.157	10.379	-0.214	-0.163
-604.142	51.398	-0.356	0.339
-603.128	-96.716	-0.150	-0.040
-602.113	53.500	0.360	0.346
-601.098	173.973	-0.123	0.178
-600.084	342.180	0.106	-0.208
-599.069	-174.518	-0.213	0.006
-598.055	86.092	0.151	0.166
-597.040	-181.007	0.163	0.003
-596.025	549.191	0.086	-0.206
-595.011	-9.283	0.229	0.154
-593.996	603.940	-0.022	-0.055
-592.982	25.480	-0.137	0.114
-591.967	187.899	0.021	0.031
-590.952	800.000	0.112	-0.366
-589.938	-26.630	-0.352	-0.207
-588.923	176.788	0.042	0.061
-587.909	11.290	-0.322	0.247
-586.894	-26.087	0.209	-0.123
-585.879	109.771	-0.267	-0.320
-584.865	-123.996	0.065	0.010
-583.850	-200.000	0.003	0.374
-582.836	-67.239	-0.054	-0.021
-581.821	7.832	0.136	0.102
-580.806	254.823	0.028	0.048
-579.792	78.665	-0.123	-0.132
-578.777	-90.194	0.193	-0.056
-577.763	-186.188	0.357	-0.005
-576.748	800.000	-0.073	0.278
-575.733	-200.000	-0.019	-0.167
-574.719	-56.002	-0.246	0.110
-573.704	800.000	-0.038	0.162
-572.690	800.000	0.085	-0.276
-571.675	-63.206	0.140	0.058
-570.661	132.740	0.062	-0.080
-569.646	121.389	0.061	-0.076
-568.631	44.769	0.058	-0.054
-567.617	33.498	0.081	-0.070
-566.602	-122.002	-0.271	-0.045
-565.588	188.321	-0.105	-0.157
-564.573	800.000	0.083	0.286
-563.558	329.679	-0.144	-0.278
-562.544	-56.069	0.284	0.127
-561.529	-4.486	-0.096	-0.066
-560.515	519.045	-0.177	-0.415
-559.500	-106.514	-0.057	-0.013
-558.485	-108.114	0.284	-0.062
-557.471	-200.000	-0.024	-0.178
-556.456	-121.095	-0.170	0.029
-555.442	-40.605	0.125	0.065
-554.427	-95.900	0.261	0.070
-553.412	294.981	0.047	0.086
-552.398	113.001	0.252	-0.305
-551.383	-200.000	0.020	-0.133
-550.369	800.000	0.078	-0.341
-549.354	-160.025	0.501	-0.027
-548.339	156.144	0.073	-0.101
-547.325	168.579	-0.069	0.098
-546.310	69.943	-0.142	0.147
-545.296	270.484	-0.126	-0.222
-544.281	82.852	-0.266	-0.289
-543.266	-9.413	0.165	-0.110
-542.252	-99.493	0.186	-0.047
-541.237	398.434	-0.098	-0.205
-540.223	-102.073	-0.307	-0.074
-539.208	28.575	-0.083	0.071
-538.193	-154.241	-0.196	-0.013
-537.179	70.363	0.080	-0.083
-536.164	359.994	0.148	-0.295
-535.150	-106.443	0.115	-0.026
-534.135	-53.195	-0.267	-0.122
-533.121	-56.311	-0.059	-0.026
-532.106	-142.042	-0.148	0.015
-531.091	-200.000	-0.010	-0.071
-530.077	172.437	-0.096	-0.137
-529.062	621.883	-0.175	0.441
-528.048	-200.000	0.022	-0.261
-527.033	221.720	-0.104	-0.167
-526.018	-125.820	0.064	-0.010
-525.004	-200.000	-0.003	0.126
-523.989	800.000	0.048	-0.203
-522.975	-124.556	-0.121	0.019
-521.960	51.358	-0.152	0.145
-520.945	-180.625	0.108	0.002
-519.931	-125.933	-0.279	0.042
-518.916	-200.000	0.035	-0.226
-517.902	-147.728	-0.153	0.013
-516.887	-2.362	0.162	-0.113
-515.872	329.108	-0.104	-0.199
-514.858	-45.783	-0.098	0.048
-513.843	35.488	0.172	-0.151
-512.829	-93.010	-0.365	-0.102
-511.814	-91.599	0.047	0.013
-510.799	-166.474	-0.221	-0.009
-509.785	697.500	-0.048	0.126
-508.770	605.387	-0.151	-0.376
-507.756	-84.804	0.247	0.078
-506.741	-144.164	-0.181	-0.017
-505.726	-72.248	-0.254	0.094
-504.712	-119.726	0.344	-0.059
-503.697	277.808	-0.121	-0.216
-502.683	-200.000	0.006	0.168
-501.668	27.525	-0.150	0.126
-500.653	-160.527	-0.314	0.017
-499.639	83.335	0.147	-0.159
-498.624	41.211	-0.204	-0.184
-497.610	-62.204	-0.140	0.058
-496.595	157.846	0.225	0.310
-495.581	385.174	0.082	-0.170
-494.566	800.000	0.010	-0.037
-493.551	606.077	0.098	-0.244
-492.537	-32.857	-0.220	-0.122
-491.522	31.035	-0.133	0.114
-490.508	-128.027	0.299	0.043
-489.493	800.000	-0.022	0.091
-488.478	73.357	0.185	-0.193
-487.464	140.876	-0.115	0.151
-486.449	-55.592	0.194	-0.087
-485.435	-200.000	0.001	0.283
-484.420	42.023	-0.280	-0.253
-483.405	800.000	0.109	0.413
-482.391	172.249	0.231	-0.332
-481.376	-200.000	-0.025	0.123
-480.362	-200.000	-0.076	0.441
-479.347	-200.000	0.012	-0.227
-478.332	-22.652	0.212	-0.128
-477.318	-65.011	0.266	-0.107
-476.303	-142.660	-0.306	-0.030
-475.289	-139.226	0.226	-0.024
-474.274	800.000	-0.064	0.192
-473.259	-93.347	0.134	0.037
-472.245	38.835	-0.106	-0.095
-471.230	-102.907	0.204	-0.048
-470.216	-200.000	0.021	0.364
-469.201	-10.677	0.113	-0.074
-468.186	-10.350	-0.282	0.187
-467.172	-91.952	-0.276	0.078
-466.157	124.955	0.082	-0.103
-465.143	-38.294	0.318	-0.168
-464.128	123.092	-0.153	0.191
-463.113	141.172	0.044	-0.058
-462.099	-200.000	-0.035	-0.315
-461.084	-200.000	0.004	-0.439
-460.070	392.875	-0.175	-0.363
-459.055	-10.851	-0.087	-0.057
-458.040	-168.295	-0.421	-0.016
-457.026	-61.363	-0.232	0.097
-456.011	-200.000	-0.068	0.312
-454.997	-11.956	0.107	-0.070
-453.982	-59.583	0.142	0.061
-452.968	-94.697	-0.049	-0.013
-451.953	52.399	0.163	-0.155
-450.938	30.448	-0.205	0.174
-449.924	161.911	0.108	-0.151
-448.909	-200.000	-0.046	0.211
-447.895	-37.359	0.085	0.045
-446.880	4.539	-0.071	0.052
-445.865	164.214	-0.236	0.331
-444.851	-13.305	-0.023	-0.015
-443.836	-41.866	-0.397	-0.203
-442.822	302.695	0.208	-0.384
-441.807	-78.457	0.265	0.090
-440.792	189.342	-0.148	0.221
-439.778	-12.460	-0.043	-0.028
-438.763	800.000	-0.007	0.027
-437.749	-101.993	-0.140	0.034
-436.734	129.496	-0.187	0.238
-435.719	-83.552	0.251	0.080
-434.705	113.923	-0.422	0.510
-433.690	-159.315	0.394	0.022
-432.676	302.954	0.087	-0.161
-431.661	156.778	-0.068	0.093
-430.646	-114.584	-0.334	-0.064
-429.632	-87.280	0.259	-0.078
-428.617	344.122	0.046	-0.091
-427.603	-200.000	0.010	-0.218
-426.588	152.401	0.019	0.025
-425.573	800.000	-0.026	0.094
-424.559	-200.000	0.034	-0.188
-423.544	-31.474	-0.044	0.025
-422.530	120.127	0.103	0.128
-421.515	-4.753	-0.181	0.124
-420.500	800.000	-0.014	0.060
-419.486	-200.000	-0.010	-0.264
-418.471	11.173	-0.307	0.234
-417.457	-26.516	0.217	-0.126
-416.442	76.847	0.048	-0.050
-415.428	-127.660	0.189	0.027
-414.413	154.054	-0.160	-0.218
-413.398	-200.000	-0.012	0.079
-412.384	-80.300	-0.394	0.131
-411.369	800.000	0.063	0.195
-410.355	-117.471	-0.039	-0.007
-409.340	178.088	0.112	-0.162
-408.325	423.491	0.059	-0.127
-407.311	31.281	0.060	-0.051
-406.296	186.894	-0.038	-0.056
-405.282	540.907	0.115	0.273
-404.267	-200.000	-0.008	0.087
-403.252	-200.000	-0.051	0.293
-402.238	-155.018	-0.084	0.006
-401.223	-146.230	-0.155	0.014
-400.209	149.601	-0.141	0.190
-399.194	382.732	0.082	0.167
-398.179	60.368	-0.291	0.286
-397.165	800.000	0.085	0.247
-396.150	800.000	0.027	0.099
-395.136	92.235	0.112	-0.126
-394.121	86.630	-0.103	-0.113
-393.106	-200.000	-0.016	-0.174
-392.092	-99.271	-0.184	0.046
-391.077	7.457	0.090	0.067
-390.063	438.797	-0.142	-0.309
-389.048	7.326	-0.023	-0.017
-388.033	800.000	-0.051	-0.181
-387.019	-23.604	0.394	-0.235
-386.004	800.000	-0.082	0.234
-384.990	-69.365	-0.107	-0.041
-383.975	-97.656	-0.275	0.071
-382.960	47.528	0.126	-0.116
-381.946	195.496	-0.126	-0.190
-380.931	76.485	-0.060	-0.063
-379.917	137.540	0.099	-0.129
-378.902	2.324	0.213	0.153
-377.888	183.938	0.158	0.232
-376.873	-58.475	0.040	-0.017
-375.858	-200.000	-0.019	-0.263
-374.844	-30.407	-0.183	0.103
-373.829	32.622	-0.150	0.129
-372.815	-12.396	0.130	0.084
-371.800	-200.000	0.054	0.355
-370.785	-200.000	-0.005	0.129
-369.771	-200.000	-0.003	-0.074
-368.756	800.000	0.013	0.053
-367.742	-101.731	0.429	0.103
-366.727	-58.807	0.155	0.067
-365.712	-97.914	0.376	-0.096
-364.698	-18.872	-0.247	-0.153
-363.683	-129.637	0.207	0.028
-362.669	-112.620	-0.467	-0.092
-361.654	17.549	0.162	0.128
-360.639	-199.866	-0.180	-0.001
-359.625	-45.093	-0.179	-0.088
-358.610	486.372	-0.071	-0.161
-357.596	41.587	-0.314	-0.282
-356.581	-124.606	0.266	-0.041
-355.566	-41.759	0.062	-0.031
-354.552	-22.323	-0.339	-0.204
-353.537	135.463	0.175	0.226
-352.523	800.000	-0.029	0.124
-351.508	-200.000	-0.016	0.163
-350.493	41.166	0.225	0.201
-349.479	-138.806	-0.105	0.011
-348.464	-85.372	0.087	-0.027
-347.450	-87.557	-0.109	-0.033
-346.435	21.508	-0.176	-0.142
-345.420	800.000	0.083	-0.262
-344.406	800.000	-0.018	-0.062
-343.391	-118.088	-0.428	0.076
-342.377	-200.000	-0.050	0.488
-341.362	-200.000	0.027	-0.261
-340.348	-60.529	0.158	-0.066
-339.333	-141.991	0.238	0.023
-338.318	-9.150	0.012	0.008
-337.304	-0.518	0.037	0.026
-336.289	800.000	-0.056	-0.171
-335.275	361.972	0.038	0.076
-334.260	-94.202	0.194	-0.053
-333.245	3.129	0.239	0.173
-332.231	-200.000	-0.017	0.639
-331.216	-149.256	0.261	0.021
-330.202	372.566	-0.070	-0.140
-329.187	-109.382	0.072	0.015
-328.172	142.805	-0.176	-0.233
-327.158	-164.454	0.207	0.009
-326.143	-4.364	0.074	0.051
-325.129	-200.000	0.045	0.290
-324.114	-200.000	-0.050	-0.234
-323.099	-200.000	0.011	0.155
-322.085	-46.959	-0.317	0.154
-321.070	-71.949	-0.417	-0.154
-320.056	-47.195	0.491	-0.237
-319.041	-200.000	-0.014	-0.232
-318.026	-200.000	0.011	0.053
-317.012	257.267	0.079	-0.134
-315.997	-200.000	0.003	-0.210
-314.983	800.000	-0.021	0.084
-313.968	343.107	-0.051	0.098
-312.953	-200.000	-0.016	0.339
-311.939	335.340	-0.086	-0.166
-310.924	-200.000	0.016	-0.131
-309.910	3.462	-0.203	0.147
-308.895	-74.198	-0.242	-0.087
-307.880	73.829	0.168	0.175
-306.866	-165.979	-0.155	0.007
-305.851	-200.000	-0.007	0.266
-304.837	-200.000	0.068	0.360
-303.822	-77.960	-0.117	0.040
-302.807	430.054	0.056	0.121
-301.793	375.268	0.154	0.311
-300.778	-200.000	0.042	0.302
-299.764	-200.000	-0.018	-0.246
-298.749	739.667	-0.050	-0.133
-297.735	-166.191	-0.152	0.006
-296.720	390.092	0.095	-0.195
-295.705	60.893	0.302	0.296
-294.691	251.686	0.217	0.366
-293.676	800.000	-0.043	0.143
-292.662	-168.650	-0.402	-0.015
-291.647	120.423	-0.212	-0.261
-290.632	156.053	-0.244	-0.333
-289.618	-5.977	0.073	0.049
-288.603	181.877	0.198	0.288
-287.589	-48.501	0.055	0.026
-286.574	22.873	-0.114	-0.093
-285.559	207.406	0.163	-0.252
-284.545	45.402	-0.124	-0.113
-283.530	800.000	0.053	0.150
-282.516	127.868	-0.146	0.184
-281.501	-186.190	-0.041	0.001
-280.486	-69.442	0.360	-0.137
-279.472	-123.190	0.133	-0.021
-278.457	-19.923	0.076	0.046
-277.443	-36.113	-0.197	0.105
-276.428	-200.000	-0.009	0.086
-275.413	152.180	-0.107	-0.144
-274.399	438.355	0.102	0.219
-273.384	304.236	-0.137	-0.252
-272.370	-57.166	0.052	0.022
-271.355	-200.000	0.056	-0.318
-270.340	140.254	0.201	-0.262
-269.326	519.944	-0.047	0.110
-268.311	-78.711	0.154	0.052
-267.297	299.874	-0.084	-0.153
-266.282	-200.000	0.015	-0.194
-265.267	-66.168	0.150	0.059
-264.253	-145.182	-0.184	-0.016
-263.238	171.130	-0.171	-0.242
-262.224	30.851	-0.274	-0.232
-261.209	-183.012	0.219	-0.004
-260.195	9.660	0.141	-0.106
-259.180	-200.000	0.041	0.191
-258.165	158.052	-0.170	0.232
-257.151	-137.386	0.073	-0.008
-256.136	800.000	0.064	0.228
-255.122	-51.767	0.170	0.078
-254.107	-117.846	-0.239	0.042
-253.092	191.604	0.120	-0.179
-252.078	-200.000	-0.011	0.626
-251.063	6.664	0.213	0.156
-250.049	-200.000	-0.000	-0.023
-249.034	-1.036	0.246	-0.172
-248.019	-160.223	0.278	0.015
-247.005	-200.000	-0.014	-0.222
-245.990	-140.435	0.199	-0.020
-244.976	16.561	0.280	0.219
-243.961	-30.898	-0.163	-0.091
-242.946	800.000	0.093	-0.269
-241.932	-140.478	0.341	0.035
-240.917	509.437	-0.115	0.264
-239.903	-25.855	-0.145	-0.084
-238.888	781.939	-0.094	0.254
-237.873	-137.117	0.206	0.023
-236.859	-121.293	-0.075	-0.012
-235.844	-54.283	-0.343	-0.154
-234.830	-16.948	-0.093	0.058
-233.815	432.798	0.127	-0.272
-232.800	-9.567	-0.353	0.232
-231.786	451.632	0.069	0.152
-230.771	672.425	-0.177	-0.454
-229.757	48.077	-0.062	0.057
-228.742	142.700	0.089	0.117
-227.727	-15.428	0.209	0.132
-226.713	-155.995	0.368	-0.023
-225.698	-200.000	0.020	-0.197
-224.684	-145.856	-0.039	-0.003
-223.669	112.810	0.187	-0.224
-222.655	-160.364	-0.207	-0.011
-221.640	-46.300	0.150	0.073
-220.625	682.467	-0.061	-0.156
-219.611	800.000	0.042	0.150
-218.596	-200.000	0.022	-0.234
-217.582	800.000	-0.142	0.443
-216.567	47.305	-0.058	0.054
-215.552	-7.964	-0.184	0.122
-214.538	552.093	-0.041	0.097
-213.523	-200.000	-0.065	0.460
-212.509	-200.000	0.002	0.275
-211.494	-200.000	-0.069	-0.329
-210.479	141.176	0.193	0.252
-209.465	-72.464	-0.381	-0.139
-208.450	-104.353	-0.040	0.009
-207.436	-116.761	0.494	0.089
-206.421	-200.000	0.044	-0.472
-205.406	800.000	-0.042	-0.173
-204.392	800.000	0.101	0.338
-203.377	-200.000	-0.030	0.210
-202.363	89.617	-0.029	-0.031
-201.348	800.000	0.042	-0.164
-200.333	-200.000	0.058	0.280
-199.319	-200.000	0.007	-0.517
-198.304	-4.408	0.365	-0.249
-197.290	13.437	0.190	0.145
-196.275	-200.000	-0.039	-0.229
-195.260	-136.993	0.130	0.015
-194.246	-87.968	0.438	0.130
-193.231	-73.720	-0.177	0.064
-192.217	28.964	-0.120	-0.100
-191.202	800.000	-0.059	-0.206
-190.187	-200.000	0.050	0.321
-189.173	78.899	-0.328	0.347
-188.158	-200.000	-0.002	-0.046
-187.144	39.057	0.085	0.075
-186.129	206.940	0.075	0.115
-185.114	42.945	0.182	0.163
-184.100	181.469	0.148	-0.215
-183.085	-84.033	0.304	0.095
-182.071	-13.593	-0.200	0.128
-181.056	4.683	0.133	0.096
-180.042	134.606	-0.029	-0.038
-179.027	36.272	-0.090	0.078
-178.012	-116.479	0.185	-0.034
-176.998	-200.000	-0.086	-0.519
-175.983	79.122	-0.319	0.336
-174.969	99.230	-0.094	0.107
-173.954	-28.831	-0.176	-0.100
-172.939	322.159	-0.072	-0.135
-171.925	506.097	-0.018	0.040
-170.910	141.344	0.189	0.247
-169.896	0.264	-0.049	-0.034
-168.881	-92.009	-0.165	-0.046
-167.866	-183.360	0.319	0.005
-166.852	183.878	0.042	-0.061
-165.837	75.960	0.272	0.283
-164.823	800.000	0.093	-0.330
-163.808	108.660	-0.180	0.212
-162.793	-98.117	0.158	-0.040
-161.779	196.000	0.099	-0.149
-160.764	-200.000	-0.027	0.205
-159.750	-200.000	0.004	-0.107
-158.735	-11.416	0.261	0.169
-157.720	-200.000	-0.007	0.106
-156.706	49.778	0.140	0.130
-155.691	-6.915	0.315	0.211
-154.677	-200.000	0.012	-0.284
-153.662	-68.905	-0.233	-0.088
-152.647	-163.805	0.213	0.010
-151.633	-1.759	0.188	0.130
-150.618	-38.807	0.178	-0.092
-149.604	48.067	0.230	0.211
-148.589	35.526	0.126	-0.109
-147.574	98.896	-0.140	0.159
-146.560	-92.527	-0.078	0.022
-145.545	47.085	0.073	0.067
-144.531	-4.457	-0.155	-0.105
-143.516	800.000	-0.047	-0.160
-142.502	82.043	-0.074	0.079
-141.487	221.386	0.092	0.145
-140.472	118.349	-0.161	0.196
-139.458	50.470	-0.149	-0.138
-138.443	365.522	0.144	-0.286
-137.429	-80.193	-0.123	0.041
-136.414	172.436	-0.027	-0.038
-135.399	-200.000	-0.015	0.126
-134.385	90.812	0.350	-0.386
-133.370	-27.368	-0.163	-0.094
-132.356	-164.255	-0.196	-0.009
-131.341	-154.425	-0.128	-0.008
-130.326	-10.788	0.222	0.144
-129.312	296.022	-0.081	-0.145
-128.297	-18.525	0.211	0.130
-127.283	165.211	-0.139	0.193
-126.268	35.639	-0.167	0.144
-125.253	-200.000	-0.021	-0.202
-124.239	-200.000	0.008	0.209
-123.224	330.485	0.012	0.023
-122.210	488.837	0.056	0.126
