DTS Sentinel unit serial number:	SN413079Multiplexer serial number:	ORYXHardware model number:	OX4-SRSoftware version number:	ORYX F/W v4.00 Oryx Data Collector v3.7.2.0data status	okinstallation	princeton_trtdifferential loss correction	single-endedforward channel	channel 1reverse channel	N/Adate	2019/09/17time	23:14:35forward acquisition time	60.00reverse acquisition time	0.00gamma	496.2192k internal	0.2340k external	0.2340temperature offset calibration	0.9978default loss term (dB/km)	0.3790temperature slope calibration	1.0000multiplexer offset coefficient	1.0000multiplexer slope coefficient	1.0000fibre end	0.00T internal ref (°C)	24.52T ext. ref 1 (°C)	0.17T ext. ref 2 (°C)	17.71length (m)	temperature (°C)	Stokes	anti-Stokes-747.200	333.085	0.127	0.246
-746.185	-78.043	-0.372	0.128
-745.171	224.789	-0.058	0.095
-744.156	102.558	-0.250	0.293
-743.142	117.530	0.138	0.171
-742.127	800.000	-0.047	0.180
-741.112	-80.835	0.288	0.096
-740.098	-115.793	0.023	0.004
-739.083	-6.245	-0.196	0.134
-738.069	-80.472	0.228	-0.076
-737.054	-53.486	0.095	-0.044
-736.039	-63.747	-0.195	0.080
-735.025	182.291	0.167	0.247
-734.010	-68.431	-0.404	-0.157
-732.996	-200.000	0.030	-0.243
-731.981	-200.000	-0.058	-0.346
-730.966	800.000	0.084	0.234
-729.952	-123.675	0.049	-0.008
-728.937	-200.000	0.004	-0.342
-727.923	-200.000	0.053	-0.274
-726.908	6.264	0.338	0.252
-725.894	86.877	-0.252	-0.279
-724.879	-51.708	-0.112	0.053
-723.864	-200.000	-0.064	0.443
-722.850	277.141	0.064	0.114
-721.835	370.854	-0.036	-0.073
-720.821	24.968	-0.119	-0.099
-719.806	7.595	-0.151	0.113
-718.791	68.550	-0.327	0.336
-717.777	290.604	0.156	-0.284
-716.762	242.655	-0.099	-0.166
-715.748	51.555	-0.057	0.055
-714.733	-84.551	-0.134	0.042
-713.718	618.670	0.073	-0.184
-712.704	-74.120	-0.224	0.081
-711.689	-139.219	-0.394	0.043
-710.675	-34.361	-0.146	0.080
-709.660	-200.000	0.054	-0.375
-708.645	3.458	0.297	0.217
-707.631	-171.396	-0.073	-0.002
-706.616	117.299	0.100	-0.123
-705.602	37.411	-0.113	-0.100
-704.587	800.000	0.084	-0.256
-703.572	-200.000	0.012	-0.078
-702.558	146.017	0.273	-0.367
-701.543	57.351	-0.186	0.182
-700.529	307.584	-0.100	-0.186
-699.514	-15.376	0.021	-0.013
-698.499	32.660	-0.312	-0.270
-697.485	-122.544	0.451	-0.073
-696.470	-200.000	0.023	0.142
-695.456	-110.425	0.345	0.072
-694.441	-200.000	0.010	-0.068
-693.426	-76.069	0.263	0.093
-692.412	140.843	0.081	-0.107
-691.397	800.000	-0.050	0.159
-690.383	-5.922	0.129	0.088
-689.368	800.000	-0.036	-0.114
-688.354	800.000	0.088	0.330
-687.339	48.854	-0.142	0.133
-686.324	-52.395	-0.192	-0.089
-685.310	-200.000	-0.026	0.197
-684.295	55.229	-0.126	-0.122
-683.281	79.599	-0.288	-0.309
-682.266	6.929	0.189	0.141
-681.251	-200.000	0.015	0.274
-680.237	-113.429	0.095	-0.019
-679.222	225.690	-0.177	-0.287
-678.208	-4.807	-0.068	-0.047
-677.193	75.110	-0.100	-0.106
-676.178	-135.821	-0.229	0.027
-675.164	461.911	0.095	-0.212
-674.149	451.274	-0.084	0.185
-673.135	-200.000	0.027	0.153
-672.120	-200.000	-0.089	-0.414
-671.105	-79.024	0.402	-0.137
-670.091	242.663	-0.131	0.219
-669.076	634.063	0.071	-0.179
-668.062	93.634	0.207	-0.234
-667.047	233.974	0.071	-0.117
-666.032	-200.000	0.007	0.153
-665.018	71.546	0.201	0.208
-664.003	-200.000	0.014	0.162
-662.989	-51.594	0.110	-0.051
-661.974	-200.000	0.013	0.149
-660.959	760.646	-0.118	-0.320
-659.945	-148.161	-0.176	0.015
-658.930	-111.867	-0.285	0.057
-657.916	-43.853	-0.359	0.180
-656.901	201.108	0.175	0.269
-655.886	-113.753	-0.141	0.027
-654.872	90.823	0.189	0.211
-653.857	260.687	-0.089	0.155
-652.843	-86.015	-0.087	-0.027
-651.828	-200.000	-0.024	-0.174
-650.814	-104.686	-0.261	-0.060
-649.799	-105.088	0.125	-0.029
-648.784	174.315	0.116	0.168
-647.770	-167.730	-0.211	-0.008
-646.755	251.732	-0.053	0.091
-645.741	-122.600	-0.201	-0.033
-644.726	307.665	-0.210	-0.390
-643.711	-142.902	-0.112	-0.011
-642.697	330.900	-0.117	-0.224
-641.682	-93.386	-0.158	-0.044
-640.668	376.420	-0.068	0.138
-639.653	297.255	-0.105	-0.192
-638.638	-200.000	0.011	0.109
-637.624	358.160	-0.109	-0.217
-636.609	-35.736	0.241	-0.130
-635.595	634.226	-0.080	0.201
-634.580	-25.178	-0.186	-0.110
-633.565	220.814	-0.061	-0.098
-632.551	800.000	0.012	0.044
-631.536	-143.164	-0.178	-0.017
-630.522	-89.894	-0.147	0.043
-629.507	-60.299	-0.303	0.129
-628.492	-200.000	0.018	0.194
-627.478	161.035	0.119	0.166
-626.463	-138.291	-0.194	0.021
-625.449	575.051	0.091	-0.221
-624.434	-52.922	-0.217	-0.100
-623.419	85.058	-0.104	-0.114
-622.405	649.111	-0.101	-0.258
-621.390	633.744	-0.179	-0.452
-620.376	-103.095	0.094	-0.022
-619.361	-200.000	-0.009	0.179
-618.346	-200.000	-0.023	-0.207
-617.332	800.000	0.136	0.449
-616.317	110.904	0.199	0.239
-615.303	-200.000	-0.027	0.211
-614.288	-200.000	0.021	0.109
-613.273	-120.998	0.234	0.039
-612.259	34.744	0.134	-0.117
-611.244	-200.000	-0.089	-0.473
-610.230	271.515	-0.039	0.069
-609.215	-200.000	-0.043	-0.192
-608.201	21.198	-0.103	-0.084
-607.186	-110.526	-0.426	0.088
-606.171	-81.925	0.127	-0.041
-605.157	-66.307	0.289	0.115
-604.142	-76.916	-0.270	-0.094
-603.128	-24.939	-0.221	0.131
-602.113	-197.830	-0.112	-0.001
-601.098	-143.499	0.236	0.022
-600.084	99.848	-0.184	0.213
-599.069	27.986	-0.149	0.125
-598.055	-172.664	0.106	0.003
-597.040	-67.868	0.131	-0.051
-596.025	31.021	-0.140	0.120
-595.011	293.197	-0.150	-0.273
-593.996	116.355	0.107	0.131
-592.982	-47.468	0.202	0.098
-591.967	140.647	0.126	-0.166
-590.952	126.555	0.064	0.081
-589.938	136.404	0.234	0.304
-588.923	103.667	0.131	0.153
-587.909	316.547	0.059	0.110
-586.894	483.216	-0.092	-0.209
-585.879	-20.232	-0.049	-0.030
-584.865	28.888	-0.182	0.154
-583.850	-200.000	0.009	-0.124
-582.836	-183.829	0.036	-0.001
-581.821	-200.000	-0.058	-0.371
-580.806	20.402	0.331	-0.267
-579.792	-200.000	0.002	-0.116
-578.777	-200.000	-0.002	0.226
-577.763	-200.000	0.009	0.149
-576.748	223.981	-0.090	0.145
-575.733	580.182	-0.066	0.160
-574.719	98.863	0.176	-0.203
-573.704	92.473	-0.038	-0.043
-572.690	556.897	-0.035	0.084
-571.675	314.760	-0.176	0.330
-570.661	84.275	0.045	-0.049
-569.646	800.000	-0.045	-0.139
-568.631	41.311	0.085	0.077
-567.617	227.172	-0.205	-0.331
-566.602	-123.845	-0.134	0.021
-565.588	116.648	0.124	0.151
-564.573	120.603	0.132	-0.163
-563.558	342.868	-0.083	-0.162
-562.544	159.855	0.170	-0.235
-561.529	274.885	-0.127	-0.224
-560.515	97.778	-0.096	-0.109
-559.500	66.321	0.273	0.276
-558.485	-35.658	0.157	-0.085
-557.471	564.959	-0.094	-0.227
-556.456	800.000	-0.068	0.188
-555.442	27.587	-0.200	0.168
-554.427	91.069	-0.240	-0.268
-553.412	-43.261	-0.351	-0.177
-552.398	800.000	-0.047	-0.177
-551.383	54.365	0.058	-0.056
-550.369	39.070	-0.409	-0.364
-549.354	150.682	0.168	0.227
-548.339	313.484	0.044	0.082
-547.325	-161.333	0.111	0.006
-546.310	12.358	-0.135	0.104
-545.296	-64.106	-0.103	-0.042
-544.281	-152.236	-0.165	-0.012
-543.266	54.031	0.152	0.145
-542.252	79.647	0.416	0.444
-541.237	-2.781	0.014	0.010
-540.223	-200.000	-0.030	0.193
-539.208	124.914	-0.203	0.255
-538.193	80.867	0.057	-0.061
-537.179	156.023	0.160	-0.220
-536.164	-66.863	-0.292	-0.115
-535.150	53.777	-0.084	0.081
-534.135	-200.000	0.019	-0.111
-533.121	120.853	0.066	-0.081
-532.106	324.028	0.081	-0.155
-531.091	244.382	0.111	-0.186
-530.077	-14.654	0.162	-0.103
-529.062	704.117	-0.125	0.329
-528.048	800.000	-0.034	0.144
-527.033	147.932	-0.148	-0.198
-526.018	-129.487	0.328	-0.045
-525.004	-0.730	-0.203	-0.143
-523.989	-87.590	-0.202	-0.061
-522.975	118.835	0.216	-0.266
-521.960	63.323	-0.385	-0.384
-520.945	452.925	-0.160	0.352
-519.931	278.865	-0.198	-0.351
-518.916	800.000	0.019	-0.076
-517.902	397.366	-0.048	0.100
-516.887	800.000	-0.034	-0.103
-515.872	-200.000	-0.017	-0.209
-514.858	100.674	0.097	-0.112
-513.843	-15.247	0.187	0.119
-512.829	-170.300	-0.206	-0.007
-511.814	800.000	-0.026	-0.098
-510.799	-86.216	0.069	0.021
-509.785	91.210	0.161	-0.180
-508.770	83.782	-0.114	-0.124
-507.756	193.355	-0.060	0.090
-506.741	-115.648	-0.121	-0.022
-505.726	-182.953	-0.059	-0.001
-504.712	384.911	0.098	0.201
-503.697	800.000	-0.010	0.037
-502.683	-108.471	-0.163	-0.035
-501.668	88.554	-0.107	0.118
-500.653	-117.496	-0.258	-0.046
-499.639	26.333	0.178	0.148
-498.624	187.149	0.049	-0.073
-497.610	31.139	0.242	-0.206
-496.595	-60.352	-0.301	0.127
-495.581	-117.963	0.237	0.042
-494.566	426.348	0.303	0.649
-493.551	-99.207	-0.173	-0.043
-492.537	103.747	-0.054	0.063
-491.522	183.115	-0.045	-0.066
-490.508	480.998	0.164	0.370
-489.493	29.461	0.186	0.157
-488.478	45.190	0.408	-0.373
-487.464	80.505	-0.178	-0.191
-486.449	800.000	0.003	-0.009
-485.435	486.851	0.125	0.284
-484.420	800.000	-0.075	0.246
-483.405	-200.000	0.033	-0.287
-482.391	-105.632	-0.290	-0.065
-481.376	214.402	-0.182	0.286
-480.362	481.733	-0.116	-0.261
-479.347	800.000	-0.062	-0.235
-478.332	-200.000	-0.010	0.171
-477.318	-4.494	0.162	-0.111
-476.303	-10.442	0.106	0.070
-475.289	800.000	0.062	0.194
-474.274	800.000	-0.019	0.072
-473.259	-82.786	0.211	-0.068
-472.245	41.258	-0.045	0.041
-471.230	102.223	-0.168	0.195
-470.216	800.000	0.031	0.116
-469.201	-200.000	0.039	-0.412
-468.186	140.401	0.171	0.223
-467.172	-68.104	-0.267	0.103
-466.157	530.467	0.115	-0.269
-465.143	-84.396	0.152	-0.048
-464.128	-200.000	0.004	-0.293
-463.113	-10.880	0.151	0.099
-462.099	-123.675	0.237	0.037
-461.084	-90.924	-0.189	0.054
-460.070	-160.629	-0.066	-0.003
-459.055	-2.006	0.007	-0.005
-458.040	-200.000	-0.037	-0.179
-457.026	-46.994	-0.150	0.073
-456.011	-131.658	-0.062	0.008
-454.997	-200.000	0.068	0.390
-453.982	55.527	0.039	0.037
-452.968	652.401	-0.073	0.185
-451.953	293.211	-0.159	0.288
-450.938	-107.825	-0.229	0.049
-449.924	-79.547	0.305	0.102
-448.909	204.454	0.185	-0.284
-447.895	789.633	-0.015	0.042
-446.880	57.427	-0.244	-0.236
-445.865	800.000	-0.107	-0.297
-444.851	217.686	0.035	-0.056
-443.836	43.703	-0.192	0.174
-442.822	43.012	0.196	0.177
-441.807	102.374	0.164	-0.190
-440.792	-95.653	0.175	-0.046
-439.778	-163.030	-0.218	-0.010
-438.763	-49.545	-0.234	-0.110
-437.749	15.224	0.228	-0.177
-436.734	-111.137	-0.227	-0.046
-435.719	-200.000	-0.007	0.060
-434.705	-200.000	-0.006	0.154
-433.690	-178.729	-0.521	-0.012
-432.676	-56.251	-0.147	0.065
-431.661	359.950	-0.102	-0.202
-430.646	800.000	0.014	-0.048
-429.632	608.071	-0.044	0.109
-428.617	-161.786	-0.221	0.011
-427.603	-200.000	0.069	0.347
-426.588	-80.887	0.160	-0.053
-425.573	114.740	0.043	0.051
-424.559	-111.304	-0.291	0.059
-423.544	-103.411	-0.214	-0.050
-422.530	-71.536	0.188	0.069
-421.515	-100.414	0.093	-0.023
-420.500	495.875	0.078	-0.177
-419.486	11.036	-0.156	-0.118
-418.471	-66.489	-0.398	0.157
-417.457	-200.000	0.019	-0.240
-416.442	-182.525	0.408	0.007
-415.428	-55.216	0.190	0.085
-414.413	354.061	-0.243	-0.478
-413.398	18.431	0.088	-0.069
-412.384	-118.229	0.413	-0.073
-411.369	800.000	-0.037	-0.132
-410.355	263.301	0.049	0.085
-409.340	-24.564	0.218	-0.128
-408.325	-85.465	0.083	0.026
-407.311	-200.000	-0.017	0.130
-406.296	-70.815	0.128	-0.048
-405.282	800.000	0.087	-0.268
-404.267	800.000	-0.004	0.013
-403.252	-64.990	-0.155	0.062
-402.238	800.000	0.087	-0.304
-401.223	12.512	-0.184	0.141
-400.209	180.427	0.107	0.156
-399.194	123.255	-0.046	-0.056
-398.179	-200.000	-0.024	-0.320
-397.165	368.704	0.169	0.338
-396.150	117.384	0.188	-0.229
-395.136	527.572	-0.058	0.136
-394.121	-113.188	0.135	-0.026
-393.106	81.380	-0.141	-0.151
-392.092	-92.075	-0.099	-0.028
-391.077	179.627	-0.227	-0.329
-390.063	-16.436	0.087	-0.055
-389.048	-200.000	-0.015	0.166
-388.033	26.955	0.251	-0.208
-387.019	52.893	-0.272	-0.257
-386.004	-128.283	0.085	0.012
-384.990	42.087	0.216	-0.194
-383.975	-103.533	0.226	-0.053
-382.960	12.866	-0.368	-0.281
-381.946	37.048	0.192	-0.168
-380.931	-83.975	0.100	-0.031
-379.917	161.353	0.226	0.312
-378.902	768.775	-0.076	-0.204
-377.888	197.313	0.141	0.213
-376.873	-200.000	0.002	-0.241
-375.858	606.037	0.102	0.251
-374.844	152.101	0.085	0.115
-373.829	-200.000	-0.016	0.078
-372.815	800.000	-0.085	-0.233
-371.800	-200.000	0.012	0.114
-370.785	-107.076	0.187	0.041
-369.771	75.197	0.074	0.077
-368.756	-200.000	0.013	0.161
-367.742	120.738	0.169	0.208
-366.727	-107.156	0.348	-0.076
-365.712	16.705	0.143	0.111
-364.698	23.671	-0.087	0.071
-363.683	26.255	-0.103	-0.085
-362.669	-200.000	0.027	-0.181
-361.654	-3.675	-0.106	-0.073
-360.639	32.939	-0.077	-0.066
-359.625	-64.307	-0.120	-0.048
-358.610	-6.063	-0.045	-0.030
-357.596	181.024	-0.206	-0.299
-356.581	133.702	0.016	-0.021
-355.566	0.290	-0.319	-0.225
-354.552	-78.262	0.347	-0.118
-353.537	118.386	-0.159	-0.194
-352.523	-63.426	-0.223	0.090
-351.508	-130.021	-0.212	-0.029
-350.493	149.173	-0.068	-0.091
-349.479	-200.000	0.061	0.287
-348.464	278.588	-0.042	-0.074
-347.450	-200.000	0.034	0.194
-346.435	-200.000	-0.025	0.159
-345.420	67.812	0.180	-0.181
-344.406	-109.602	0.279	0.058
-343.391	507.090	0.102	0.234
-342.377	106.843	0.160	-0.187
-341.362	138.296	0.141	-0.182
-340.348	431.429	0.077	-0.164
-339.333	-200.000	0.002	-0.067
-338.318	-200.000	0.022	0.208
-337.304	800.000	0.121	0.330
-336.289	-200.000	0.064	0.342
-335.275	-67.575	0.263	-0.102
-334.260	-200.000	-0.015	-0.105
-333.245	1.620	0.150	0.107
-332.231	800.000	0.050	0.209
-331.216	-42.323	0.185	-0.093
-330.202	-102.904	0.559	-0.131
-329.187	-124.269	0.137	0.021
-328.172	-61.628	0.189	0.078
-327.158	-67.411	-0.093	0.036
-326.143	-200.000	-0.025	-0.413
-325.129	222.011	-0.158	0.250
-324.114	-200.000	-0.022	0.176
-323.099	653.249	-0.026	0.065
-322.085	-157.573	-0.026	0.002
-321.070	576.282	-0.081	0.195
-320.056	-200.000	0.031	-0.260
-319.041	-65.030	0.286	-0.114
-318.026	-200.000	0.004	-0.155
-317.012	133.546	0.106	-0.135
-315.997	-192.170	0.243	0.002
-314.983	103.747	0.096	-0.111
-313.968	-90.805	-0.123	0.035
-312.953	-200.000	0.020	0.239
-311.939	-51.922	-0.138	0.063
-310.924	54.122	0.247	0.234
-309.910	681.898	-0.102	-0.263
-308.895	75.222	0.105	0.109
-307.880	-88.957	0.162	-0.047
-306.866	238.815	-0.040	0.066
-305.851	-200.000	-0.020	0.230
-304.837	154.967	-0.050	0.068
-303.822	-74.644	0.151	-0.054
-302.807	163.568	-0.037	-0.051
-301.793	-60.090	-0.182	-0.077
-300.778	-7.155	-0.192	0.129
-299.764	-200.000	-0.006	0.286
-298.749	-200.000	-0.001	0.057
-297.735	-69.659	0.066	-0.025
-296.720	-102.521	-0.048	-0.011
-295.705	502.949	0.062	-0.142
-294.691	10.787	0.248	0.187
-293.676	273.872	-0.090	0.156
-292.662	496.981	-0.099	-0.224
-291.647	181.192	0.057	0.083
-290.632	70.716	-0.076	0.078
-289.618	-89.182	0.292	0.085
-288.603	545.997	0.047	0.111
-287.589	383.218	-0.065	0.131
-286.574	215.596	0.113	0.177
-285.559	44.522	-0.074	0.067
-284.545	233.281	0.206	0.333
-283.530	147.748	-0.239	0.317
-282.516	66.036	-0.154	0.154
-281.501	-65.404	0.121	0.048
-280.486	-200.000	-0.034	0.230
-279.472	-200.000	-0.010	0.064
-278.457	210.647	0.057	0.088
-277.443	-102.879	0.150	-0.035
-276.428	59.050	0.208	0.201
-275.413	-93.688	-0.060	-0.016
-274.399	-140.380	0.235	0.024
-273.384	-150.803	-0.261	-0.020
-272.370	37.382	0.200	0.175
-271.355	-70.628	-0.074	-0.027
-270.340	112.258	0.062	0.073
-269.326	0.583	0.038	0.027
-268.311	-200.000	0.014	-0.152
-267.297	-121.152	0.307	-0.051
-266.282	-48.262	-0.251	-0.119
-265.267	319.851	0.046	0.087
-264.253	-200.000	-0.003	-0.175
-263.238	346.922	-0.060	-0.116
-262.224	-200.000	-0.053	-0.319
-261.209	-100.418	-0.268	0.065
-260.195	-19.574	0.252	-0.154
-259.180	338.531	0.171	0.327
-258.165	-200.000	-0.001	0.113
-257.151	-121.719	0.353	-0.057
-256.136	362.981	-0.146	0.288
-255.122	800.000	-0.068	-0.237
-254.107	37.437	-0.106	0.092
-253.092	-39.883	-0.252	0.129
-252.078	152.249	0.190	-0.256
-251.063	-59.663	-0.126	-0.053
-250.049	17.213	0.163	-0.127
-249.034	623.777	0.074	0.183
-248.019	-133.607	-0.246	-0.030
-247.005	5.722	-0.063	0.046
-245.990	-200.000	0.003	-0.296
-244.976	-2.647	-0.048	-0.033
-243.961	-66.695	0.381	-0.148
-242.946	-6.499	-0.248	-0.166
-241.932	-200.000	-0.006	-0.349
-240.917	789.007	0.072	0.196
-239.903	-200.000	-0.015	0.183
-238.888	283.074	0.181	-0.320
-237.873	122.521	-0.206	-0.253
-236.859	82.428	-0.412	-0.440
-235.844	-11.398	-0.364	-0.235
-234.830	75.891	-0.278	0.289
-233.815	800.000	-0.122	0.463
-232.800	-161.154	-0.175	0.009
-231.786	-95.032	-0.246	-0.065
-230.771	-200.000	-0.002	0.072
-229.757	213.236	0.190	0.295
-228.742	5.242	-0.176	0.128
-227.727	139.601	-0.136	-0.176
-226.713	-75.363	0.200	0.070
-225.698	-88.956	0.486	0.141
-224.684	-99.989	0.181	-0.044
-223.669	43.967	-0.104	0.094
-222.655	-151.274	-0.268	-0.020
-221.640	-95.193	-0.027	0.007
-220.625	-200.000	-0.013	-0.105
-219.611	-28.562	0.149	0.085
-218.596	92.738	-0.143	-0.158
-217.582	-190.489	-0.392	-0.004
-216.567	-200.000	0.031	0.273
-215.552	-168.004	-0.058	-0.002
-214.538	214.755	0.077	-0.119
-213.523	-168.764	-0.244	-0.009
-212.509	547.414	0.061	-0.143
-211.494	-8.342	-0.207	-0.137
-210.479	332.014	-0.090	-0.170
-209.465	-27.789	0.018	0.010
-208.450	22.380	0.275	0.221
-207.436	-156.667	0.147	-0.009
-206.421	-200.000	-0.027	0.218
-205.406	-200.000	0.012	0.165
-204.392	-35.725	0.076	0.041
-203.377	-7.455	-0.252	0.168
-202.363	114.022	-0.086	0.103
-201.348	-93.208	-0.373	-0.102
-200.333	-82.856	0.187	0.059
-199.319	88.386	-0.081	0.088
-198.304	-200.000	-0.037	-0.216
-197.290	-68.596	0.273	-0.104
-196.275	800.000	0.088	0.256
-195.260	-96.931	0.145	0.037
-194.246	-92.618	0.291	-0.080
-193.231	191.564	-0.128	0.190
-192.217	-200.000	0.037	0.324
-191.202	800.000	0.122	0.334
-190.187	-108.630	0.060	0.013
-189.173	800.000	0.058	-0.177
-188.158	511.505	0.114	-0.261
-187.144	-144.585	0.083	0.008
-186.129	-92.697	0.142	0.039
-185.114	54.073	0.071	-0.067
-184.100	-44.347	0.230	-0.113
-183.085	141.734	-0.089	-0.115
-182.071	-149.203	0.122	-0.010
-181.056	-167.165	-0.082	-0.003
-180.042	371.478	0.128	0.254
-179.027	-56.240	0.087	0.038
-178.012	179.297	0.100	0.144
-176.998	50.387	-0.174	-0.162
-175.983	-96.770	0.260	0.067
-174.969	116.202	-0.018	-0.021
-173.954	750.070	-0.053	0.139
-172.939	-100.441	-0.203	0.049
-171.925	-117.232	0.282	-0.050
-170.910	-200.000	0.001	0.051
-169.896	-145.091	0.246	-0.022
-168.881	-5.634	-0.159	-0.107
-167.866	800.000	0.088	0.326
-166.852	-200.000	-0.028	-0.130
-165.837	22.961	0.092	-0.074
-164.823	-20.297	0.107	0.065
-163.808	-133.660	-0.121	-0.015
-162.793	31.700	0.053	-0.045
-161.779	-180.744	-0.286	-0.006
-160.764	-77.410	0.076	0.026
-159.750	57.686	-0.225	-0.216
-158.735	-7.752	-0.451	0.298
-157.720	80.221	0.195	0.206
-156.706	-157.768	0.237	0.014
-155.691	-200.000	-0.331	-0.001
-154.677	50.761	-0.277	0.257
-153.662	-152.149	0.398	-0.028
-152.647	-200.000	0.048	0.294
-151.633	153.431	0.084	0.112
-150.618	-200.000	0.009	-0.130
-149.604	121.637	-0.084	-0.102
-148.589	-137.009	0.126	-0.014
-147.574	-11.308	0.159	-0.102
-146.560	800.000	0.087	-0.362
-145.545	-19.611	0.318	0.193
-144.531	589.018	-0.182	-0.439
-143.516	27.130	-0.326	0.268
-142.502	-23.908	0.262	-0.154
-141.487	800.000	-0.065	0.209
-140.472	-200.000	-0.014	-0.093
-139.458	-75.841	-0.173	-0.060
-138.443	265.037	-0.129	-0.221
-137.429	32.071	-0.013	0.011
-136.414	-2.895	0.029	-0.020
-135.399	-132.061	0.171	0.022
-134.385	-149.371	0.312	0.024
-133.370	800.000	-0.030	-0.105
-132.356	648.648	-0.161	0.403
-131.341	-10.390	0.213	-0.138
-130.326	-84.780	0.182	-0.056
-129.312	-200.000	-0.009	-0.179
-128.297	-200.000	-0.028	-0.277
-127.283	-200.000	-0.054	0.270
-126.268	-62.008	-0.082	0.034
-125.253	-29.862	0.270	0.150
-124.239	-146.858	0.435	-0.037
-123.224	362.030	-0.171	-0.335
-122.210	9.340	0.361	-0.267
-121.195	-68.134	-0.124	0.047
