DTS Sentinel unit serial number:	SN413079Multiplexer serial number:	ORYXHardware model number:	OX4-SRSoftware version number:	ORYX F/W v4.00 Oryx Data Collector v3.7.2.0data status	okinstallation	princeton_trtdifferential loss correction	single-endedforward channel	channel 1reverse channel	N/Adate	2019/09/17time	22:54:35forward acquisition time	60.00reverse acquisition time	0.00gamma	496.2192k internal	0.2340k external	0.2340temperature offset calibration	0.9977default loss term (dB/km)	0.3790temperature slope calibration	1.0000multiplexer offset coefficient	1.0000multiplexer slope coefficient	1.0000fibre end	0.00T internal ref (°C)	24.89T ext. ref 1 (°C)	0.17T ext. ref 2 (°C)	17.98length (m)	temperature (°C)	Stokes	anti-Stokes-747.200	-33.584	0.241	0.134
-746.185	800.000	-0.125	0.452
-745.171	-200.000	0.028	-0.243
-744.156	-200.000	0.071	0.363
-743.142	800.000	0.037	-0.159
-742.127	166.261	-0.201	-0.285
-741.112	-92.340	-0.358	-0.101
-740.098	19.821	-0.268	0.216
-739.083	800.000	-0.167	0.472
-738.069	-31.622	-0.328	0.185
-737.054	-146.137	-0.087	0.008
-736.039	164.314	-0.053	0.076
-735.025	-92.183	0.298	-0.084
-734.010	-200.000	-0.103	-0.551
-732.996	-107.884	-0.075	0.016
-731.981	-161.794	-0.173	-0.009
-730.966	200.469	0.139	0.214
-729.952	-26.443	-0.238	-0.140
-728.937	210.751	-0.115	-0.181
-727.923	45.031	-0.144	-0.133
-726.908	455.887	0.099	-0.220
-725.894	-57.468	0.147	0.065
-724.879	800.000	-0.022	0.087
-723.864	-200.000	-0.011	0.059
-722.850	-168.958	0.427	0.016
-721.835	-142.163	-0.042	-0.004
-720.821	800.000	0.012	-0.037
-719.806	-23.686	-0.050	0.030
-718.791	-166.282	-0.402	-0.017
-717.777	-50.127	0.186	0.088
-716.762	63.436	0.192	-0.192
-715.748	715.904	-0.093	0.247
-714.733	32.286	0.023	-0.020
-713.718	800.000	0.017	-0.063
-712.704	126.624	-0.261	-0.331
-711.689	23.231	-0.192	-0.158
-710.675	21.849	0.111	0.091
-709.660	129.054	0.082	0.104
-708.645	64.002	-0.208	0.209
-707.631	-148.703	0.286	-0.023
-706.616	800.000	0.062	-0.182
-705.602	-22.194	0.097	0.059
-704.587	-7.915	0.067	-0.045
-703.572	-200.000	-0.008	0.050
-702.558	800.000	0.047	0.162
-701.543	-18.125	-0.139	0.087
-700.529	28.371	-0.247	-0.209
-699.514	8.520	0.197	-0.149
-698.499	25.588	-0.444	0.369
-697.485	-76.010	-0.033	0.012
-696.470	414.705	0.095	0.203
-695.456	-99.145	-0.323	0.082
-694.441	-200.000	0.039	0.322
-693.426	272.466	-0.282	0.498
-692.412	-71.628	0.096	0.036
-691.397	35.338	-0.249	0.218
-690.383	-65.235	0.231	0.093
-689.368	-105.717	-0.177	-0.040
-688.354	64.472	-0.183	-0.184
-687.339	-184.266	0.302	0.005
-686.324	-200.000	0.007	-0.104
-685.310	800.000	-0.101	-0.379
-684.295	-47.464	-0.257	0.125
-683.281	-75.697	-0.053	-0.019
-682.266	620.249	-0.078	-0.196
-681.251	-11.121	-0.184	-0.121
-680.237	302.003	0.154	-0.285
-679.222	-169.982	-0.331	0.012
-678.208	-141.138	0.463	-0.047
-677.193	800.000	-0.086	0.250
-676.178	-89.548	0.238	0.070
-675.164	38.868	0.243	0.217
-674.149	83.138	0.056	0.061
-673.135	276.161	0.191	-0.340
-672.120	-200.000	-0.016	-0.141
-671.105	800.000	-0.084	0.280
-670.091	372.768	0.125	-0.254
-669.076	-156.527	-0.120	-0.007
-668.062	-92.377	0.168	0.047
-667.047	192.091	-0.343	0.517
-666.032	-135.757	-0.045	0.005
-665.018	38.268	0.226	-0.201
-664.003	645.330	-0.120	0.306
-662.989	16.343	-0.135	0.106
-661.974	51.385	-0.158	-0.150
-660.959	-200.000	0.013	-0.074
-659.945	-200.000	-0.063	0.324
-658.930	638.078	0.024	-0.060
-657.916	-173.851	-0.260	0.008
-656.901	373.767	0.085	-0.173
-655.886	-136.934	-0.446	0.051
-654.872	-64.495	-0.096	-0.039
-653.857	-200.000	0.005	-0.027
-652.843	-98.903	-0.196	-0.050
-651.828	-69.476	0.297	-0.114
-650.814	-38.837	-0.112	-0.059
-649.799	800.000	-0.050	0.212
-648.784	77.002	0.200	0.212
-647.770	-53.147	-0.422	-0.194
-646.755	367.898	-0.163	0.329
-645.741	800.000	0.049	0.192
-644.726	-200.000	-0.060	-0.275
-643.711	272.307	0.054	0.096
-642.697	-128.297	-0.083	-0.012
-641.682	-22.261	-0.114	0.069
-640.668	800.000	-0.023	-0.065
-639.653	-46.250	0.124	0.061
-638.638	14.812	-0.033	-0.026
-637.624	141.511	-0.140	0.184
-636.609	-200.000	0.012	-0.102
-635.595	-200.000	-0.022	-0.273
-634.580	-93.330	-0.261	0.072
-633.565	-172.867	0.229	0.007
-632.551	-118.023	0.295	0.053
-631.536	351.282	-0.101	-0.199
-630.522	-3.810	-0.219	0.152
-629.507	682.393	-0.075	0.194
-628.492	20.268	0.110	0.088
-627.478	-107.482	0.107	-0.023
-626.463	-200.000	-0.057	0.274
-625.449	45.402	0.067	0.062
-624.434	800.000	-0.121	-0.363
-623.419	-200.000	-0.000	0.328
-622.405	-200.000	0.047	-0.332
-621.390	12.365	0.160	0.123
-620.376	-16.759	-0.087	0.055
-619.361	-200.000	0.023	0.151
-618.346	800.000	0.123	-0.367
-617.332	-169.972	-0.201	-0.007
-616.317	29.298	0.208	-0.176
-615.303	-153.957	0.217	-0.015
-614.288	40.789	0.255	-0.229
-613.273	-200.000	0.086	-0.438
-612.259	35.032	-0.081	-0.070
-611.244	-24.193	-0.277	-0.165
-610.230	-92.329	0.074	-0.021
-609.215	800.000	0.123	-0.425
-608.201	-200.000	-0.037	-0.238
-607.186	164.496	-0.126	-0.177
-606.171	38.315	0.206	-0.183
-605.157	118.202	0.138	0.170
-604.142	13.217	-0.104	-0.080
-603.128	603.002	0.043	-0.105
-602.113	12.337	0.078	0.060
-601.098	-64.874	-0.091	0.037
-600.084	-30.188	-0.171	0.097
-599.069	-123.705	-0.394	0.062
-598.055	-64.039	0.149	0.061
-597.040	112.768	0.092	0.111
-596.025	-4.943	-0.206	0.141
-595.011	458.832	-0.070	-0.155
-593.996	25.861	-0.109	-0.091
-592.982	-200.000	0.040	-0.316
-591.967	800.000	0.084	0.242
-590.952	-31.394	-0.238	-0.133
-589.938	-94.040	0.212	-0.058
-588.923	162.377	0.063	-0.088
-587.909	-22.890	-0.162	0.098
-586.894	-200.000	0.050	0.367
-585.879	-32.174	0.231	0.128
-584.865	386.485	-0.081	-0.167
-583.850	-96.502	-0.083	0.022
-582.836	233.897	0.069	0.114
-581.821	-89.687	-0.153	0.045
-580.806	-40.834	0.186	-0.096
-579.792	-76.936	0.241	-0.084
-578.777	28.570	-0.306	0.258
-577.763	800.000	0.079	-0.247
-576.748	108.892	-0.098	0.116
-575.733	-54.831	0.320	-0.144
-574.719	14.388	0.105	-0.081
-573.704	-12.916	-0.129	0.084
-572.690	-47.832	-0.092	-0.045
-571.675	-6.963	-0.134	-0.090
-570.661	-148.536	-0.104	-0.008
-569.646	11.179	0.047	0.036
-568.631	292.470	0.128	-0.232
-567.617	-8.892	-0.265	-0.177
-566.602	-117.243	0.279	0.050
-565.588	-200.000	0.025	-0.255
-564.573	800.000	-0.026	-0.082
-563.558	154.524	-0.176	-0.240
-562.544	-182.761	0.320	0.006
-561.529	-72.205	0.206	0.076
-560.515	95.937	-0.171	-0.195
-559.500	-166.603	0.221	0.009
-558.485	-32.384	0.144	-0.080
-557.471	-14.925	-0.230	0.147
-556.456	-160.195	0.092	-0.005
-555.442	89.005	0.108	-0.120
-554.427	800.000	0.052	0.182
-553.412	388.123	0.129	0.266
-552.398	-66.764	-0.123	-0.048
-551.383	640.826	0.131	0.332
-550.369	-200.000	0.052	0.455
-549.354	260.770	0.202	0.347
-548.339	-36.329	-0.070	-0.037
-547.325	-35.748	-0.059	-0.032
-546.310	619.716	-0.121	0.302
-545.296	21.137	-0.232	0.187
-544.281	557.987	-0.167	0.401
-543.266	-84.163	0.305	0.096
-542.252	391.954	-0.094	-0.195
-541.237	145.818	-0.129	0.172
-540.223	-43.449	0.161	0.081
-539.208	-153.535	0.083	0.006
-538.193	678.326	0.040	0.103
-537.179	-131.006	-0.332	0.044
-536.164	738.506	-0.033	-0.087
-535.150	-200.000	0.027	-0.130
-534.135	-71.884	0.153	0.057
-533.121	-99.182	-0.114	0.029
-532.106	19.111	0.124	-0.099
-531.091	-18.597	-0.275	0.170
-530.077	-81.737	0.142	0.046
-529.062	-79.649	0.144	-0.048
-528.048	101.730	-0.118	0.137
-527.033	18.334	-0.331	0.262
-526.018	140.746	0.059	-0.078
-525.004	-137.808	0.139	-0.016
-523.989	-75.818	-0.346	-0.122
-522.975	-101.671	0.294	0.071
-521.960	-200.000	-0.041	0.331
-520.945	-145.184	0.279	0.025
-519.931	-151.544	-0.111	0.008
-518.916	-200.000	-0.021	0.138
-517.902	-93.183	-0.338	-0.093
-516.887	63.987	-0.084	0.084
-515.872	-155.294	-0.058	-0.004
-514.858	35.292	0.212	0.185
-513.843	41.016	-0.248	-0.223
-512.829	-70.695	-0.114	0.043
-511.814	283.014	-0.083	-0.148
-510.799	-57.972	-0.123	0.053
-509.785	-113.320	0.187	0.036
-508.770	-200.000	0.018	-0.404
-507.756	36.206	0.383	-0.335
-506.741	731.883	0.115	0.306
-505.726	-200.000	0.003	0.192
-504.712	-67.584	0.054	-0.021
-503.697	44.921	0.290	0.265
-502.683	-64.363	-0.207	-0.084
-501.668	-184.121	0.146	-0.002
-500.653	90.215	-0.214	-0.238
-499.639	143.846	-0.044	0.058
-498.624	87.209	-0.247	-0.271
-497.610	-110.292	0.127	0.026
-496.595	307.401	-0.037	-0.068
-495.581	-200.000	-0.336	-0.001
-494.566	-200.000	0.001	-0.162
-493.551	-200.000	-0.014	-0.201
-492.537	-63.445	-0.184	-0.075
-491.522	-76.936	0.253	0.088
-490.508	-3.172	-0.348	-0.240
-489.493	-134.997	0.147	0.018
-488.478	322.042	0.163	0.309
-487.464	800.000	0.099	0.353
-486.449	73.630	-0.186	0.193
-485.435	647.216	-0.141	0.358
-484.420	-96.062	-0.098	-0.026
-483.405	197.099	-0.049	-0.075
-482.391	-12.577	-0.511	-0.331
-481.376	283.272	0.148	-0.264
-480.362	-132.841	0.298	0.038
-479.347	63.270	0.179	0.178
-478.332	-77.231	-0.243	0.084
-477.318	-56.412	0.048	0.021
-476.303	-200.000	-0.097	0.000
-475.289	379.826	0.072	0.146
-474.274	-200.000	-0.004	-0.161
-473.259	800.000	-0.032	-0.092
-472.245	-200.000	0.008	-0.198
-471.230	-162.164	0.217	0.011
-470.216	-25.454	-0.108	0.063
-469.201	311.191	0.161	0.299
-468.186	-48.007	-0.163	0.078
-467.172	-200.000	-0.023	0.137
-466.157	-23.757	-0.395	-0.235
-465.143	-126.849	-0.350	0.051
-464.128	59.832	-0.054	-0.053
-463.113	-123.937	0.187	-0.029
-462.099	108.062	0.260	0.308
-461.084	-138.614	-0.131	0.014
-460.070	-150.634	-0.617	0.047
-459.055	-160.603	-0.115	0.006
-458.040	800.000	-0.079	-0.335
-457.026	800.000	0.074	-0.212
-456.011	31.036	0.133	0.113
-454.997	-48.661	0.277	0.132
-453.982	221.911	-0.062	0.099
-452.968	-200.000	0.005	-0.108
-451.953	-200.000	0.018	0.132
-450.938	163.240	0.160	0.222
-449.924	201.377	-0.116	-0.177
-448.909	43.545	0.252	-0.228
-447.895	75.638	-0.125	-0.131
-446.880	-199.742	0.243	-0.001
-445.865	-149.996	0.374	-0.029
-444.851	-200.000	-0.078	-0.386
-443.836	522.554	-0.163	0.379
-442.822	5.904	0.321	0.235
-441.807	800.000	-0.093	0.259
-440.792	-155.613	-0.298	0.019
-439.778	-146.961	-0.071	0.006
-438.763	-200.000	-0.002	0.076
-437.749	-17.265	0.560	-0.349
-436.734	-107.656	-0.325	-0.070
-435.719	33.433	0.162	-0.139
-434.705	-82.426	-0.167	0.054
-433.690	187.715	0.146	0.215
-432.676	192.869	0.220	0.330
-431.661	-200.000	0.026	0.121
-430.646	329.483	-0.035	0.066
-429.632	615.700	-0.176	-0.437
-428.617	46.754	0.286	0.263
-427.603	-16.209	-0.173	0.109
-426.588	-50.883	-0.246	-0.114
-425.573	19.169	-0.013	-0.010
-424.559	-25.497	-0.178	0.104
-423.544	-200.000	0.001	0.124
-422.530	-200.000	0.002	0.066
-421.515	-109.434	-0.088	0.019
-420.500	-200.000	0.012	0.110
-419.486	81.580	-0.331	-0.354
-418.471	27.705	0.235	-0.196
-417.457	97.165	0.069	-0.078
-416.442	582.938	0.084	0.204
-415.428	-119.073	0.190	-0.033
-414.413	800.000	0.082	-0.282
-413.398	800.000	0.107	-0.301
-412.384	-75.681	-0.448	0.158
-411.369	223.531	0.137	0.219
-410.355	84.486	0.265	0.287
-409.340	-200.000	-0.014	-0.079
-408.325	715.844	0.013	-0.034
-407.311	531.426	-0.053	-0.123
-406.296	800.000	0.042	0.135
-405.282	800.000	0.089	0.293
-404.267	305.889	0.096	-0.177
-403.252	583.760	-0.106	-0.258
-402.238	520.936	-0.099	-0.230
-401.223	-200.000	0.014	0.122
-400.209	-89.215	0.351	-0.102
-399.194	-200.000	0.018	-0.113
-398.179	-3.334	0.149	-0.103
-397.165	-200.000	0.034	0.341
-396.150	178.171	0.079	-0.115
-395.136	-38.648	-0.148	0.077
-394.121	282.256	0.091	-0.162
-393.106	-86.324	0.227	-0.069
-392.092	-187.093	0.090	-0.001
-391.077	800.000	-0.055	0.234
-390.063	12.473	-0.113	-0.086
-389.048	229.992	0.211	-0.341
-388.033	-200.000	-0.060	0.267
-387.019	179.374	-0.146	0.212
-386.004	-95.622	0.237	-0.063
-384.990	800.000	-0.081	-0.300
-383.975	800.000	-0.031	0.125
-382.960	222.177	0.191	0.303
-381.946	-71.735	0.042	-0.016
-380.931	-147.191	0.163	0.014
-379.917	800.000	-0.006	-0.025
-378.902	-36.763	-0.019	0.010
-377.888	-44.236	-0.296	-0.146
-376.873	-45.745	0.192	-0.094
-375.858	118.644	-0.175	0.214
-374.844	-102.550	0.183	-0.043
-373.829	-113.365	0.463	0.090
-372.815	336.894	-0.036	0.069
-371.800	-84.705	0.347	-0.108
-370.785	99.635	-0.067	-0.076
-369.771	-29.330	-0.210	0.119
-368.756	-92.134	-0.068	0.019
-367.742	-200.000	0.018	-0.172
-366.727	-160.820	0.146	-0.008
-365.712	-115.069	0.058	0.011
-364.698	-60.423	0.197	0.083
-363.683	431.195	-0.192	-0.412
-362.669	20.719	-0.104	0.083
-361.654	285.440	-0.007	-0.012
-360.639	-108.899	0.215	0.045
-359.625	800.000	0.092	-0.267
-358.610	-200.000	0.012	0.095
-357.596	800.000	0.043	0.154
-356.581	-65.152	-0.205	-0.082
-355.566	151.311	0.093	-0.125
-354.552	800.000	0.134	-0.394
-353.537	-52.305	-0.259	-0.119
-352.523	237.731	-0.037	0.061
-351.508	138.046	-0.119	0.154
-350.493	-200.000	-0.012	-0.461
-349.479	-200.000	0.086	-0.421
-348.464	86.541	-0.023	0.025
-347.450	71.560	0.123	-0.126
-346.435	800.000	-0.037	-0.135
-345.420	-25.740	0.117	-0.068
-344.406	-2.597	-0.153	0.106
-343.391	140.224	-0.178	-0.231
-342.377	66.984	0.250	0.251
-341.362	244.415	-0.108	0.180
-340.348	22.898	0.153	-0.124
-339.333	-5.562	-0.097	-0.065
-338.318	-90.861	-0.355	0.101
-337.304	-200.000	-0.006	0.294
-336.289	291.782	-0.129	0.232
-335.275	261.126	0.060	-0.102
-334.260	199.003	-0.145	-0.219
-333.245	-125.849	0.213	0.032
-332.231	800.000	-0.057	-0.246
-331.216	-200.000	-0.001	0.212
-330.202	-97.099	0.116	-0.030
-329.187	-200.000	0.027	0.222
-328.172	19.693	-0.159	-0.126
-327.158	558.779	0.082	0.195
-326.143	17.637	0.118	0.092
-325.129	323.311	-0.183	0.344
-324.114	800.000	0.073	-0.241
-323.099	89.619	0.254	0.279
-322.085	-111.797	-0.225	-0.045
-321.070	-62.017	-0.183	-0.075
-320.056	468.112	0.103	-0.228
-319.041	-145.457	-0.108	0.010
-318.026	-200.000	-0.013	0.183
-317.012	314.350	-0.082	0.152
-315.997	-64.655	0.285	-0.114
-314.983	-54.251	-0.221	-0.099
-313.968	-80.638	0.323	-0.106
-312.953	38.252	-0.091	0.080
-311.939	-72.642	-0.314	-0.114
-310.924	-91.118	-0.062	0.017
-309.910	-200.000	0.043	0.201
-308.895	-200.000	-0.029	0.178
-307.880	-200.000	0.004	0.172
-306.866	156.680	-0.088	0.120
-305.851	208.989	0.113	0.174
-304.837	196.959	-0.184	-0.277
-303.822	77.851	0.079	0.083
-302.807	-132.711	-0.057	-0.007
-301.793	14.043	-0.213	0.163
-300.778	81.710	0.127	-0.136
-299.764	493.811	0.072	0.162
-298.749	-200.000	0.048	0.393
-297.735	-109.015	0.314	-0.066
-296.720	800.000	-0.057	-0.192
-295.705	713.922	0.125	-0.326
-294.691	-158.027	0.174	0.010
-293.676	-45.718	0.123	0.060
-292.662	99.230	0.048	-0.055
-291.647	-2.068	-0.221	0.153
-290.632	800.000	0.040	0.112
-289.618	-79.229	-0.182	-0.061
-288.603	232.806	-0.166	0.269
-287.589	-85.302	0.362	-0.111
-286.574	68.327	0.267	-0.269
-285.559	800.000	0.031	-0.107
-284.545	-119.591	-0.180	0.031
-283.530	164.497	0.125	-0.173
-282.516	203.082	-0.072	-0.109
-281.501	167.002	-0.125	-0.175
-280.486	405.541	-0.111	0.230
-279.472	153.842	-0.062	-0.083
-278.457	-200.000	0.023	-0.462
-277.443	544.043	-0.019	-0.045
-276.428	-76.423	-0.395	-0.137
-275.413	84.519	-0.099	-0.107
-274.399	-73.778	0.119	0.042
-273.384	429.133	0.077	0.164
-272.370	800.000	-0.057	0.163
-271.355	218.538	0.062	-0.098
-270.340	225.038	-0.182	-0.289
-269.326	25.112	0.184	0.150
-268.311	-55.884	-0.341	-0.150
-267.297	-27.301	-0.230	0.132
-266.282	543.981	0.143	0.335
-265.267	159.069	0.121	0.165
-264.253	521.663	0.120	-0.277
-263.238	-106.797	0.232	0.051
-262.224	244.672	-0.165	0.273
-261.209	135.825	0.105	0.134
-260.195	108.154	-0.303	0.355
-259.180	-200.000	-0.020	0.391
-258.165	-19.651	0.246	-0.150
-257.151	278.934	0.085	0.149
-256.136	180.328	0.037	-0.054
-255.122	-164.054	-0.168	0.008
-254.107	-200.000	0.012	0.225
-253.092	32.235	0.103	-0.088
-252.078	-200.000	-0.043	0.206
-251.063	-45.849	0.193	0.094
-250.049	800.000	0.056	0.210
-249.034	779.144	-0.055	0.147
-248.019	-200.000	0.049	-0.224
-247.005	-156.501	-0.220	0.013
-245.990	-39.215	-0.235	-0.122
-244.976	-11.813	0.175	-0.113
-243.961	-200.000	0.035	-0.313
-242.946	-200.000	0.038	-0.257
-241.932	-56.865	0.090	-0.039
-240.917	94.412	0.065	0.072
-239.903	-124.930	0.318	-0.048
-238.888	800.000	0.051	0.157
-237.873	307.944	-0.165	-0.303
-236.859	800.000	-0.034	-0.136
-235.844	-32.533	-0.069	-0.038
-234.830	800.000	-0.033	0.116
-233.815	83.291	0.008	-0.008
-232.800	-195.651	-0.050	-0.000
-231.786	66.099	-0.115	-0.114
-230.771	-119.980	-0.117	-0.020
-229.757	119.328	0.191	0.232
-228.742	297.254	0.193	0.349
-227.727	-32.825	-0.333	0.182
-226.713	205.547	-0.165	0.252
-225.698	45.897	0.326	0.296
-224.684	37.924	-0.228	-0.199
-223.669	800.000	-0.068	-0.263
-222.655	-64.800	0.271	0.108
-221.640	-88.583	-0.130	-0.038
-220.625	-156.451	-0.140	0.009
-219.611	800.000	-0.066	0.219
-218.596	342.071	0.163	0.313
-217.582	-89.219	0.244	-0.071
-216.567	-200.000	0.092	-0.490
-215.552	-83.454	0.307	-0.097
-214.538	-200.000	-0.015	-0.122
-213.523	17.038	-0.148	0.115
-212.509	145.796	-0.051	0.066
-211.494	-200.000	-0.034	-0.349
-210.479	-79.178	-0.297	0.099
-209.465	2.746	-0.423	0.301
-208.450	591.983	0.143	0.347
-207.436	-56.043	0.266	-0.116
-206.421	-69.450	-0.059	0.022
-205.406	-200.000	-0.001	-0.006
-204.392	-56.001	0.145	0.063
-203.377	-36.799	-0.307	-0.162
-202.363	653.546	-0.049	-0.122
-201.348	672.980	-0.065	0.164
-200.333	800.000	0.028	-0.116
-199.319	286.655	-0.194	-0.344
-198.304	-86.481	0.248	-0.075
-197.290	125.694	0.122	-0.152
-196.275	120.097	0.192	0.234
-195.260	382.662	-0.115	-0.231
-194.246	-165.382	-0.371	0.016
-193.231	130.174	0.090	-0.113
-192.217	170.439	-0.174	-0.245
-191.202	-12.799	0.067	-0.043
-190.187	800.000	-0.042	-0.157
-189.173	5.758	-0.230	-0.167
-188.158	-200.000	-0.038	0.206
-187.144	-144.960	0.099	0.009
-186.129	-27.188	0.183	-0.104
-185.114	800.000	0.069	-0.229
-184.100	-123.475	0.148	0.023
-183.085	-200.000	0.006	0.041
-182.071	-30.611	-0.357	0.198
-181.056	182.245	0.175	-0.254
-180.042	278.809	0.109	0.191
-179.027	-129.276	-0.469	0.064
-178.012	800.000	-0.079	0.233
-176.998	-151.605	-0.249	-0.018
-175.983	117.473	-0.197	0.238
-174.969	-200.000	-0.014	-0.251
-173.954	800.000	-0.056	-0.181
-172.939	13.755	0.024	0.018
-171.925	-19.962	0.240	-0.145
-170.910	-165.656	0.223	0.009
-169.896	-53.997	-0.072	0.032
-168.881	369.629	0.083	-0.164
-167.866	305.362	0.073	-0.134
-166.852	-117.816	0.119	-0.021
-165.837	145.665	0.132	-0.174
-164.823	-30.390	0.095	-0.053
-163.808	204.584	-0.110	0.167
-162.793	800.000	0.086	0.361
-161.779	-47.392	0.269	0.128
-160.764	-200.000	0.031	-0.360
-159.750	-48.653	0.225	0.106
-158.735	46.241	0.074	-0.068
-157.720	800.000	0.097	0.271
-156.706	-50.529	-0.023	0.011
-155.691	-111.446	-0.121	-0.024
-154.677	800.000	0.097	0.301
-153.662	-16.880	-0.307	-0.190
-152.647	22.633	-0.031	0.025
-151.633	439.231	0.104	-0.222
-150.618	-68.358	0.279	-0.106
-149.604	510.579	-0.070	0.160
-148.589	83.099	-0.170	0.181
-147.574	-117.902	0.155	-0.027
-146.560	800.000	-0.079	-0.224
-145.545	800.000	-0.161	0.538
-144.531	-152.927	0.189	-0.013
-143.516	82.036	-0.108	-0.114
-142.502	136.437	-0.126	-0.161
-141.487	240.824	-0.108	-0.177
-140.472	-200.000	-0.035	0.369
-139.458	-160.579	0.376	-0.020
-138.443	-200.000	0.029	-0.126
-137.429	180.782	-0.068	-0.098
-136.414	-166.377	0.234	0.010
-135.399	-30.605	-0.242	0.134
-134.385	-52.439	-0.123	-0.056
-133.370	-23.915	-0.131	-0.077
-132.356	-20.361	0.113	0.068
-131.341	-124.587	0.258	0.039
-130.326	-144.031	-0.210	0.019
-129.312	266.937	-0.075	0.129
-128.297	197.333	-0.077	0.116
-127.283	182.793	-0.148	0.214
-126.268	104.865	0.264	-0.304
-125.253	-107.837	-0.493	-0.105
-124.239	-173.064	-0.152	0.005
-123.224	-158.985	-0.149	0.008
-122.210	-50.963	0.163	0.075
-121.195	234.998	0.048	0.077
