DTS Sentinel unit serial number:	SN413079Multiplexer serial number:	ORYXHardware model number:	OX4-SRSoftware version number:	ORYX F/W v4.00 Oryx Data Collector v3.7.2.0data status	okinstallation	princeton_trtdifferential loss correction	single-endedforward channel	channel 1reverse channel	N/Adate	2019/09/19time	04:50:35forward acquisition time	60.00reverse acquisition time	0.00gamma	496.2192k internal	0.2343k external	0.2343temperature offset calibration	1.0023default loss term (dB/km)	0.3790temperature slope calibration	1.0000multiplexer offset coefficient	1.0000multiplexer slope coefficient	1.0000fibre end	0.00T internal ref (°C)	19.87T ext. ref 1 (°C)	0.61T ext. ref 2 (°C)	12.88length (m)	temperature (°C)	Stokes	anti-Stokes-747.200	-200.000	0.022	0.348
-746.185	162.964	-0.183	0.257
-745.171	800.000	-0.031	-0.102
-744.156	-54.906	-0.271	-0.123
-743.142	98.765	-0.252	0.291
-742.127	800.000	0.081	-0.281
-741.112	-200.000	0.002	0.066
-740.098	496.213	-0.062	0.143
-739.083	-154.064	-0.389	0.026
-738.069	-108.252	-0.102	0.022
-737.054	19.593	0.284	0.228
-736.039	-123.986	-0.189	-0.030
-735.025	-179.275	-0.180	-0.004
-734.010	-200.000	-0.058	-0.278
-732.996	-134.895	-0.132	-0.016
-731.981	-117.017	-0.271	-0.050
-730.966	-46.513	0.342	-0.168
-729.952	71.570	-0.132	0.138
-728.937	-56.516	-0.241	-0.107
-727.923	-200.000	-0.028	0.125
-726.908	-124.216	-0.058	-0.009
-725.894	-138.253	-0.162	0.018
-724.879	-98.830	-0.124	0.032
-723.864	-200.000	-0.024	-0.252
-722.850	-57.399	-0.208	0.091
-721.835	179.319	0.133	0.195
-720.821	-109.980	-0.079	0.016
-719.806	-44.855	0.145	-0.072
-718.791	-200.000	-0.015	-0.233
-717.777	-200.000	0.045	-0.229
-716.762	-82.600	0.201	-0.065
-715.748	80.647	-0.023	-0.025
-714.733	184.377	0.020	-0.029
-713.718	-151.379	-0.094	-0.007
-712.704	800.000	0.069	0.192
-711.689	786.117	-0.119	-0.327
-710.675	54.807	0.187	0.180
-709.660	-200.000	0.017	0.202
-708.645	-83.186	-0.060	-0.019
-707.631	403.930	0.121	0.255
-706.616	-77.185	-0.314	0.110
-705.602	28.087	0.059	-0.050
-704.587	-100.453	0.294	-0.073
-703.572	-61.865	-0.059	-0.025
-702.558	-91.187	0.267	-0.076
-701.543	-192.366	-0.409	-0.004
-700.529	33.839	0.191	-0.166
-699.514	-88.189	-0.242	-0.073
-698.499	-81.797	0.189	-0.062
-697.485	-4.297	-0.140	0.097
-696.470	-77.970	-0.047	-0.016
-695.456	629.143	0.121	0.307
-694.441	800.000	0.070	-0.213
-693.426	-45.163	-0.406	0.202
-692.412	-148.604	0.444	0.036
-691.397	-200.000	0.026	0.126
-690.383	-96.887	-0.281	-0.074
-689.368	-112.540	-0.109	0.022
-688.354	800.000	-0.067	-0.200
-687.339	-200.000	-0.018	-0.226
-686.324	800.000	0.087	-0.349
-685.310	-123.165	0.187	-0.030
-684.295	560.668	0.035	0.085
-683.281	-159.785	-0.380	-0.021
-682.266	-168.541	0.183	-0.007
-681.251	182.110	0.113	0.167
-680.237	800.000	0.044	-0.128
-679.222	-65.377	-0.234	0.094
-678.208	-200.000	0.016	0.157
-677.193	-129.407	0.033	-0.005
-676.178	-153.483	-0.358	0.025
-675.164	-200.000	-0.022	0.189
-674.149	211.808	-0.145	0.229
-673.135	12.220	-0.245	-0.188
-672.120	151.084	-0.182	-0.247
-671.105	-109.335	0.294	0.062
-670.091	-44.216	0.089	-0.045
-669.076	-69.584	-0.265	-0.101
-668.062	97.370	0.160	-0.184
-667.047	724.377	-0.174	-0.463
-666.032	-54.161	0.329	0.149
-665.018	-200.000	0.021	0.234
-664.003	-81.881	-0.263	0.086
-662.989	108.125	-0.033	0.039
-661.974	430.220	-0.131	-0.284
-660.959	-26.651	-0.118	0.069
-659.945	800.000	0.003	0.013
-658.930	168.979	0.077	-0.110
-657.916	-170.130	-0.402	-0.014
-656.901	-72.334	-0.147	-0.054
-655.886	-56.566	-0.147	-0.065
-654.872	800.000	-0.098	-0.291
-653.857	-200.000	-0.008	0.216
-652.843	-16.450	0.215	0.136
-651.828	-200.000	0.023	-0.135
-650.814	-151.748	-0.303	0.022
-649.799	323.331	0.111	0.211
-648.784	-200.000	0.089	0.000
-647.770	-63.723	0.230	-0.094
-646.755	-122.043	-0.338	0.055
-645.741	32.313	-0.424	-0.365
-644.726	-112.650	0.401	-0.080
-643.711	108.973	0.338	-0.404
-642.697	37.866	-0.209	0.185
-641.682	-37.573	-0.187	0.099
-640.668	-132.446	-0.186	-0.024
-639.653	-17.796	-0.226	0.142
-638.638	28.974	0.238	0.201
-637.624	-60.949	0.125	-0.053
-636.609	258.861	-0.122	0.209
-635.595	-116.143	0.282	0.052
-634.580	800.000	0.047	-0.181
-633.565	-103.953	-0.316	0.074
-632.551	156.988	-0.178	-0.246
-631.536	-200.000	0.026	-0.362
-630.522	800.000	0.034	-0.140
-629.507	-169.527	-0.326	-0.012
-628.492	-58.503	0.254	0.110
-627.478	193.711	0.159	0.239
-626.463	27.781	0.081	-0.068
-625.449	-22.082	0.173	0.105
-624.434	-37.840	-0.099	-0.053
-623.419	-200.000	0.019	0.260
-622.405	-200.000	-0.307	-0.001
-621.390	67.673	0.130	0.133
-620.376	800.000	0.107	-0.347
-619.361	-25.887	0.065	0.038
-618.346	-130.651	0.332	0.045
-617.332	-41.654	-0.187	0.096
-616.317	14.680	0.090	-0.070
-615.303	258.174	-0.128	-0.220
-614.288	174.911	0.124	-0.179
-613.273	147.316	0.152	0.204
-612.259	-187.195	0.131	-0.002
-611.244	391.934	0.077	0.158
-610.230	17.320	-0.135	-0.107
-609.215	800.000	0.053	-0.148
-608.201	-34.793	0.312	-0.170
-607.186	35.836	-0.109	0.095
-606.171	-113.099	-0.107	0.021
-605.157	37.604	-0.058	0.051
-604.142	-107.950	0.284	-0.061
-603.128	-144.019	-0.176	0.016
-602.113	189.934	-0.120	0.180
-601.098	800.000	-0.080	0.329
-600.084	419.887	0.065	0.139
-599.069	-200.000	0.044	-0.198
-598.055	800.000	-0.061	0.182
-597.040	-139.360	-0.069	0.007
-596.025	-13.112	0.192	-0.125
-595.011	800.000	-0.039	-0.159
-593.996	-200.000	-0.012	-0.239
-592.982	-43.238	-0.302	0.152
-591.967	-200.000	-0.086	-0.459
-590.952	-43.740	-0.341	0.171
-589.938	170.917	0.148	0.211
-588.923	414.868	0.041	-0.087
-587.909	88.549	0.081	0.089
-586.894	135.009	-0.168	-0.217
-585.879	6.468	0.017	0.013
-584.865	208.491	0.116	0.181
-583.850	754.323	0.017	-0.045
-582.836	-5.699	0.268	-0.183
-581.821	26.010	-0.140	0.117
-580.806	-105.965	-0.568	-0.127
-579.792	-200.000	0.017	0.261
-578.777	-27.557	0.318	0.184
-577.763	-143.890	0.079	0.007
-576.748	-200.000	0.018	0.275
-575.733	-53.600	-0.198	0.090
-574.719	800.000	-0.053	0.169
-573.704	-71.339	-0.549	0.205
-572.690	55.704	0.095	-0.091
-571.675	504.878	0.146	0.336
-570.661	-200.000	0.002	0.059
-569.646	77.765	-0.306	-0.325
-568.631	800.000	0.038	0.111
-567.617	125.721	0.075	-0.094
-566.602	-29.753	0.276	-0.157
-565.588	175.235	0.092	-0.132
-564.573	-200.000	-0.021	0.361
-563.558	5.402	0.176	0.129
-562.544	-85.538	-0.095	0.029
-561.529	-106.546	-0.161	-0.036
-560.515	-18.050	0.363	0.226
-559.500	100.308	-0.165	-0.191
-558.485	558.017	0.043	0.104
-557.471	-200.000	0.004	0.309
-556.456	-200.000	-0.004	0.389
-555.442	800.000	0.075	0.213
-554.427	-48.064	-0.171	0.082
-553.412	412.166	0.047	-0.099
-552.398	-85.152	-0.175	-0.054
-551.383	-61.401	0.146	-0.061
-550.369	223.751	0.088	0.141
-549.354	0.738	0.011	0.008
-548.339	-44.018	0.101	0.050
-547.325	-20.542	-0.111	-0.068
-546.310	-200.000	0.021	-0.538
-545.296	-200.000	0.016	0.140
-544.281	-200.000	0.013	0.071
-543.266	93.599	-0.126	-0.142
-542.252	-200.000	0.036	0.499
-541.237	-200.000	0.024	-0.308
-540.223	-200.000	-0.017	-0.111
-539.208	158.176	-0.133	-0.183
-538.193	119.052	-0.208	-0.255
-537.179	57.046	-0.262	0.254
-536.164	-93.105	0.098	-0.027
-535.150	267.414	0.126	-0.219
-534.135	27.616	0.296	0.247
-533.121	469.534	-0.147	-0.329
-532.106	-132.443	-0.139	0.018
-531.091	-200.000	-0.076	-0.348
-530.077	602.979	0.127	-0.314
-529.062	-85.060	0.172	0.053
-528.048	-200.000	-0.038	0.174
-527.033	-200.000	0.031	-0.359
-526.018	-200.000	0.046	-0.209
-525.004	-41.129	-0.097	0.050
-523.989	-127.068	-0.126	-0.018
-522.975	151.089	0.144	-0.195
-521.960	-92.707	-0.179	-0.050
-520.945	-75.617	-0.247	-0.087
-519.931	800.000	0.046	-0.170
-518.916	290.754	0.126	0.228
-517.902	800.000	0.034	-0.117
-516.887	-62.698	0.346	0.142
-515.872	800.000	0.127	-0.365
-514.858	-98.689	-0.179	0.045
-513.843	-200.000	-0.019	-0.103
-512.829	-139.640	-0.139	0.015
-511.814	53.483	-0.367	0.349
-510.799	55.678	-0.157	0.150
-509.785	-76.623	0.298	-0.104
-508.770	-200.000	-0.027	-0.167
-507.756	-138.659	-0.578	-0.063
-506.741	-200.000	-0.015	-0.277
-505.726	-157.913	0.327	0.019
-504.712	-200.000	0.052	-0.292
-503.697	800.000	0.071	-0.229
-502.683	120.819	-0.174	0.215
-501.668	-138.858	0.044	-0.005
-500.653	49.161	-0.299	-0.279
-499.639	78.416	0.112	0.119
-498.624	194.608	-0.233	0.350
-497.610	-114.060	-0.263	-0.051
-496.595	447.137	0.088	-0.192
-495.581	75.359	-0.166	0.174
-494.566	-43.985	-0.132	-0.066
-493.551	68.159	0.223	-0.226
-492.537	160.541	0.061	0.085
-491.522	-43.718	0.196	0.098
-490.508	-91.152	0.296	-0.084
-489.493	-49.938	-0.271	-0.128
-488.478	-200.000	-0.025	0.153
-487.464	-140.432	0.316	0.033
-486.449	-200.000	0.007	-0.066
-485.435	123.778	-0.215	-0.267
-484.420	-110.224	-0.517	-0.107
-483.405	-52.318	-0.342	0.157
-482.391	-200.000	0.052	-0.260
-481.376	-36.742	0.234	-0.124
-480.362	800.000	0.043	0.144
-479.347	483.378	0.208	-0.468
-478.332	-123.463	0.309	0.049
-477.318	-200.000	0.022	0.217
-476.303	-200.000	0.000	-0.311
-475.289	-111.036	-0.332	0.068
-474.274	44.072	-0.126	0.114
-473.259	-38.256	0.139	-0.073
-472.245	42.014	-0.139	-0.125
-471.230	-40.554	-0.172	-0.088
-470.216	25.370	0.305	-0.251
-469.201	-200.000	0.025	0.154
-468.186	-92.446	0.242	-0.067
-467.172	-170.834	0.328	0.011
-466.157	-200.000	0.015	0.249
-465.143	-200.000	0.019	0.268
-464.128	324.801	0.121	0.230
-463.113	41.601	0.277	-0.248
-462.099	-200.000	0.012	-0.144
-461.084	-24.214	0.097	0.057
-460.070	-77.439	-0.309	0.106
-459.055	-52.020	0.348	-0.160
-458.040	-37.752	-0.020	0.011
-457.026	128.120	0.232	-0.293
-456.011	-152.644	0.172	-0.012
-454.997	-91.837	-0.329	-0.093
-453.982	-43.213	-0.136	0.068
-452.968	-5.431	0.181	-0.123
-451.953	352.948	0.122	-0.240
-450.938	-200.000	-0.023	-0.170
-449.924	800.000	-0.029	-0.089
-448.909	125.089	0.029	-0.037
-447.895	223.609	-0.082	0.130
-446.880	-167.142	0.314	-0.013
-445.865	2.423	-0.103	-0.074
-444.851	-63.557	-0.423	-0.172
-443.836	-160.209	0.125	0.007
-442.822	278.221	-0.234	0.413
-441.807	-193.943	0.109	0.001
-440.792	-150.579	-0.196	0.015
-439.778	800.000	0.029	0.085
-438.763	-41.846	0.080	-0.040
-437.749	116.852	0.030	0.037
-436.734	246.995	0.065	0.108
-435.719	284.511	0.188	0.335
-434.705	-114.004	0.275	0.053
-433.690	-27.043	0.138	0.080
-432.676	-113.667	-0.102	0.020
-431.661	-200.000	-0.036	0.276
-430.646	280.663	-0.124	0.219
-429.632	-35.019	0.287	0.155
-428.617	-116.615	-0.420	0.076
-427.603	163.051	0.052	0.072
-426.588	130.239	0.065	-0.083
-425.573	-153.383	-0.349	-0.024
-424.559	-168.693	-0.111	-0.004
-423.544	-200.000	-0.055	0.280
-422.530	-124.633	-0.260	0.040
-421.515	-109.073	-0.245	-0.052
-420.500	-45.463	0.345	-0.169
-419.486	-200.000	-0.002	0.107
-418.471	249.817	-0.022	0.036
-417.457	162.153	0.183	0.254
-416.442	30.408	-0.355	-0.300
-415.428	-77.052	-0.180	-0.062
-414.413	-200.000	-0.019	-0.201
-413.398	-33.847	0.091	-0.049
-412.384	-160.886	0.256	-0.013
-411.369	800.000	0.047	0.152
-410.355	-82.676	-0.260	0.083
-409.340	-200.000	-0.010	-0.072
-408.325	-5.580	-0.119	0.081
-407.311	-139.392	-0.165	-0.018
-406.296	-75.291	-0.189	-0.067
-405.282	-7.549	0.141	0.094
-404.267	300.776	-0.021	-0.039
-403.252	-154.998	0.206	-0.013
-402.238	196.014	0.315	0.473
-401.223	489.041	-0.122	-0.275
-400.209	-200.000	-0.065	-0.399
-399.194	-79.487	0.148	0.049
-398.179	90.898	0.252	-0.279
-397.165	516.857	-0.175	-0.403
-396.150	260.229	0.039	0.067
-395.136	237.615	-0.044	0.072
-394.121	800.000	0.066	-0.260
-393.106	-134.109	0.128	-0.016
-392.092	-176.484	-0.308	-0.008
-391.077	-200.000	-0.047	0.218
-390.063	-119.866	-0.118	-0.020
-389.048	-16.386	0.140	0.088
-388.033	16.133	0.086	0.067
-387.019	34.472	-0.041	-0.035
-386.004	-63.183	-0.110	-0.045
-384.990	242.650	-0.191	-0.316
-383.975	-1.815	0.274	0.190
-382.960	102.970	-0.112	-0.130
-381.946	800.000	0.085	-0.263
-380.931	322.033	-0.144	0.271
-379.917	-135.566	0.135	-0.016
-378.902	-200.000	-0.046	-0.385
-377.888	-173.860	0.228	-0.007
-376.873	-26.988	0.332	0.191
-375.858	336.359	0.085	0.162
-374.844	-99.551	-0.170	-0.042
-373.829	200.289	-0.071	-0.108
-372.815	-83.041	-0.295	-0.094
-371.800	-154.422	0.175	0.012
-370.785	115.979	0.193	0.233
-369.771	-139.558	-0.137	-0.014
-368.756	-9.519	0.017	-0.011
-367.742	800.000	-0.035	-0.144
-366.727	88.085	-0.066	0.073
-365.712	314.257	-0.088	0.163
-364.698	800.000	0.046	0.157
-363.683	-200.000	-0.050	0.248
-362.669	13.138	-0.142	0.108
-361.654	27.038	-0.196	-0.163
-360.639	276.590	0.060	0.105
-359.625	240.055	0.112	-0.183
-358.610	85.607	0.074	-0.080
-357.596	-200.000	0.013	-0.190
-356.581	-130.158	-0.178	0.024
-355.566	227.422	-0.025	-0.040
-354.552	90.732	-0.085	-0.094
-353.537	26.981	0.084	-0.070
-352.523	79.255	0.103	0.109
-351.508	800.000	-0.097	0.405
-350.493	-200.000	-0.043	0.217
-349.479	-37.183	-0.234	0.123
-348.464	-78.718	0.205	0.069
-347.450	333.127	-0.125	0.238
-346.435	800.000	-0.058	-0.190
-345.420	581.131	-0.120	-0.290
-344.406	-102.848	0.271	-0.064
-343.391	800.000	-0.045	0.195
-342.377	46.596	0.146	0.133
-341.362	-91.985	0.206	0.058
-340.348	269.464	-0.121	0.209
-339.333	-139.428	-0.107	-0.011
-338.318	138.884	-0.185	0.240
-337.304	260.360	-0.028	0.047
-336.289	-200.000	-0.038	-0.220
-335.275	-200.000	0.006	-0.224
-334.260	-41.637	0.137	0.069
-333.245	2.432	0.314	-0.224
-332.231	100.734	0.040	0.045
-331.216	176.704	-0.086	0.124
-330.202	228.643	0.244	0.392
-329.187	61.020	-0.088	0.086
-328.172	278.600	0.147	-0.258
-327.158	34.565	-0.079	-0.068
-326.143	-200.000	-0.011	-0.257
-325.129	-200.000	-0.012	0.199
-324.114	-11.037	-0.230	0.150
-323.099	64.137	-0.104	-0.103
-322.085	6.351	-0.252	-0.184
-321.070	-21.765	-0.027	-0.016
-320.056	800.000	0.024	0.093
-319.041	-42.744	-0.170	0.085
-318.026	-71.282	0.323	0.119
-317.012	-117.655	0.202	0.036
-315.997	70.129	-0.136	-0.138
-314.983	451.297	-0.120	-0.261
-313.968	323.066	-0.133	-0.250
-312.953	31.982	-0.287	0.244
-311.939	-86.619	0.091	-0.028
-310.924	92.970	0.249	0.278
-309.910	-97.905	-0.385	0.098
-308.895	188.580	0.084	0.123
-307.880	49.005	-0.060	0.056
-306.866	800.000	0.108	-0.415
-305.851	565.202	0.114	-0.271
-304.837	98.687	-0.256	-0.291
-303.822	-135.310	-0.429	0.051
-302.807	800.000	-0.044	-0.152
-301.793	239.205	-0.169	0.277
-300.778	645.904	-0.086	-0.216
-299.764	-200.000	0.068	-0.329
-298.749	-77.617	0.074	0.025
-297.735	800.000	0.032	-0.126
-296.720	155.117	0.128	-0.173
-295.705	800.000	0.097	0.311
-294.691	-200.000	0.095	0.481
-293.676	150.530	-0.225	0.301
-292.662	-155.184	-0.194	-0.012
-291.647	800.000	-0.060	0.204
-290.632	115.782	-0.015	0.018
-289.618	-22.096	-0.141	-0.084
-288.603	82.846	-0.113	0.121
-287.589	-117.639	0.336	-0.060
-286.574	192.391	0.220	-0.327
-285.559	99.876	0.228	0.260
-284.545	209.433	-0.118	-0.182
-283.530	-135.203	-0.199	-0.023
-282.516	-69.688	-0.408	0.153
-281.501	-200.000	-0.001	-0.265
-280.486	110.672	0.214	0.253
-279.472	-200.000	0.025	0.202
-278.457	18.790	0.059	-0.046
-277.443	702.333	-0.059	0.152
-276.428	-200.000	0.033	0.143
-275.413	99.121	0.197	0.224
-274.399	-36.192	-0.048	0.026
-273.384	-109.980	0.307	-0.063
-272.370	800.000	0.067	0.195
-271.355	-59.131	-0.179	-0.076
-270.340	-28.734	-0.100	-0.057
-269.326	600.641	-0.068	0.167
-268.311	18.653	-0.038	-0.030
-267.297	-200.000	-0.012	0.064
-266.282	800.000	-0.081	0.270
-265.267	-200.000	0.006	-0.215
-264.253	-32.100	0.233	0.128
-263.238	800.000	0.029	0.122
-262.224	800.000	-0.066	0.180
-261.209	-92.355	-0.224	-0.062
-260.195	-83.830	-0.176	0.055
-259.180	-53.676	-0.245	0.110
-258.165	-3.741	-0.118	-0.080
-257.151	22.452	0.295	-0.237
-256.136	800.000	-0.051	-0.147
-255.122	-18.920	-0.218	0.133
-254.107	618.517	-0.074	-0.183
-253.092	-182.037	0.112	-0.002
-252.078	-200.000	-0.035	0.223
-251.063	416.125	0.170	-0.356
-250.049	147.673	-0.099	-0.132
-249.034	162.446	-0.058	0.079
-248.019	800.000	0.038	0.111
-247.005	800.000	-0.090	0.355
-245.990	-14.955	-0.248	-0.156
-244.976	101.477	-0.255	-0.292
-243.961	-114.790	-0.170	0.032
-242.946	374.750	0.092	0.184
-241.932	-63.677	0.332	-0.134
-240.917	-200.000	0.042	0.186
-239.903	-119.370	-0.110	0.019
-238.888	-130.125	-0.294	0.039
-237.873	169.844	-0.088	-0.123
-236.859	-157.748	-0.041	0.002
-235.844	385.957	0.057	-0.116
-234.830	800.000	0.039	0.115
-233.815	-15.857	-0.174	0.109
-232.800	-104.544	0.290	0.066
-231.786	-149.365	0.376	0.029
-230.771	98.110	0.229	0.259
-229.757	230.371	0.076	-0.121
-228.742	454.157	0.051	0.110
-227.727	-41.447	-0.070	-0.035
-226.713	68.693	0.180	-0.182
-225.698	-20.527	-0.133	0.080
-224.684	420.198	0.149	-0.313
-223.669	-86.213	-0.223	-0.067
-222.655	168.501	0.079	-0.110
-221.640	-57.843	-0.096	0.041
-220.625	800.000	0.081	0.262
-219.611	-200.000	0.029	-0.216
-218.596	473.566	0.070	-0.155
-217.582	-51.359	-0.144	0.066
-216.567	251.637	0.113	-0.188
-215.552	1.629	-0.084	-0.060
-214.538	77.973	0.144	-0.151
-213.523	800.000	0.026	0.070
-212.509	44.801	-0.209	0.189
-211.494	-22.944	-0.198	0.117
-210.479	-68.657	0.145	0.055
-209.465	121.316	0.167	0.204
-208.450	563.433	-0.060	-0.144
-207.436	-168.223	0.113	-0.004
-206.421	236.920	-0.027	0.044
-205.406	-48.759	0.180	-0.085
-204.392	-78.032	-0.295	0.100
-203.377	-24.789	0.258	-0.150
-202.363	800.000	0.126	0.397
-201.348	-30.756	-0.065	-0.036
-200.333	-62.226	-0.222	-0.091
-199.319	-200.000	-0.001	-0.032
-198.304	-131.370	0.351	-0.046
-197.290	110.788	0.227	0.268
-196.275	-200.000	-0.007	-0.118
-195.260	800.000	0.065	-0.201
-194.246	-200.000	-0.034	-0.264
-193.231	800.000	-0.129	-0.489
-192.217	-0.122	0.172	0.120
-191.202	304.225	-0.043	0.079
-190.187	-111.295	0.084	-0.017
-189.173	-200.000	0.017	0.107
-188.158	-134.449	-0.192	-0.023
-187.144	40.919	0.164	-0.145
-186.129	-200.000	-0.034	0.258
-185.114	9.772	0.474	0.352
-184.100	-50.540	0.192	-0.089
-183.085	-95.996	-0.234	0.061
-182.071	-61.088	0.080	0.033
-181.056	-99.491	0.134	0.033
-180.042	156.135	-0.087	-0.118
-179.027	-87.057	0.453	0.135
-178.012	-200.000	0.042	0.219
-176.998	11.738	0.045	0.034
-175.983	-172.690	0.232	-0.007
-174.969	-200.000	0.011	0.193
-173.954	272.880	0.218	0.376
-172.939	-95.284	0.453	0.119
-171.925	-200.000	-0.063	-0.286
-170.910	-54.496	-0.146	0.065
-169.896	800.000	0.079	-0.240
-168.881	-8.368	-0.106	-0.070
-167.866	-31.766	-0.130	-0.072
-166.852	386.647	0.174	-0.351
-165.837	156.714	0.048	-0.065
-164.823	-110.846	0.210	-0.042
-163.808	-143.946	-0.295	-0.027
-162.793	36.532	0.268	0.232
-161.779	494.486	0.018	-0.039
-160.764	102.892	-0.192	0.220
-159.750	99.760	0.102	0.115
-158.735	-61.426	0.376	-0.155
-157.720	129.232	-0.105	-0.132
-156.706	122.168	0.206	0.252
-155.691	34.867	0.149	0.128
-154.677	-200.000	0.004	-0.052
-153.662	-70.691	-0.314	-0.116
-152.647	-48.363	-0.321	0.151
-151.633	-200.000	0.218	0.000
-150.618	-200.000	-0.011	-0.107
-149.604	214.300	-0.091	0.141
-148.589	-200.000	-0.001	0.223
-147.574	322.243	-0.136	0.253
-146.560	-112.457	-0.165	-0.032
-145.545	292.336	-0.135	0.240
-144.531	-200.000	0.039	0.363
-143.516	-119.586	-0.262	-0.044
-142.502	54.459	-0.057	-0.054
-141.487	-174.208	0.600	-0.017
-140.472	-146.186	-0.126	-0.011
-139.458	-78.865	0.175	0.058
-138.443	-125.960	-0.417	0.061
-137.429	-150.126	0.244	0.019
-136.414	589.233	-0.084	-0.202
-135.399	-111.206	0.317	0.064
-134.385	-45.382	0.301	0.146
-133.370	-7.008	0.418	0.278
-132.356	225.307	-0.093	-0.148
-131.341	-200.000	0.006	0.113
-130.326	-200.000	-0.061	0.320
-129.312	-122.643	0.369	0.058
-128.297	800.000	-0.034	-0.115
-127.283	82.936	-0.323	-0.343
-126.268	363.522	0.168	-0.329
-125.253	16.572	0.209	0.161
-124.239	-45.205	-0.181	0.088
-123.224	120.152	-0.126	0.153
-122.210	800.000	0.058	0.185
