DTS Sentinel unit serial number:	SN413079Multiplexer serial number:	ORYXHardware model number:	OX4-SRSoftware version number:	ORYX F/W v4.00 Oryx Data Collector v3.7.2.0data status	okinstallation	princeton_trtdifferential loss correction	single-endedforward channel	channel 1reverse channel	N/Adate	2019/09/14time	10:30:35forward acquisition time	60.00reverse acquisition time	0.00gamma	496.2192k internal	0.2305k external	0.2305temperature offset calibration	1.0073default loss term (dB/km)	0.3790temperature slope calibration	1.0000multiplexer offset coefficient	1.0000multiplexer slope coefficient	1.0000fibre end	0.00T internal ref (°C)	34.78T ext. ref 1 (°C)	4.18T ext. ref 2 (°C)	32.78length (m)	temperature (°C)	Stokes	anti-Stokes-747.200	-62.937	0.237	-0.100
-746.185	-92.461	0.364	-0.104
-745.171	150.134	-0.276	-0.381
-744.156	296.594	-0.081	-0.152
-743.142	29.726	-0.226	0.196
-742.127	-51.379	-0.333	0.159
-741.112	165.253	0.131	-0.188
-740.098	43.163	-0.033	0.031
-739.083	-159.243	0.489	0.028
-738.069	-72.765	-0.253	0.095
-737.054	-200.000	-0.039	0.296
-736.039	-55.938	-0.484	0.220
-735.025	86.195	-0.087	0.097
-734.010	-200.000	-0.045	-0.253
-732.996	-168.803	-0.253	-0.010
-731.981	-39.875	-0.159	-0.084
-730.966	-200.000	-0.062	-0.502
-729.952	-50.599	0.412	0.198
-728.937	-39.695	-0.108	-0.057
-727.923	350.297	-0.026	-0.051
-726.908	800.000	-0.088	-0.258
-725.894	-106.211	0.066	0.015
-724.879	-18.695	-0.271	-0.172
-723.864	514.078	-0.117	-0.279
-722.850	800.000	0.015	-0.064
-721.835	800.000	-0.017	-0.054
-720.821	-35.529	0.140	-0.077
-719.806	-47.792	0.112	0.055
-718.791	-141.599	-0.079	0.008
-717.777	-68.794	-0.189	0.074
-716.762	127.721	-0.167	0.216
-715.748	629.831	-0.062	0.160
-714.733	15.980	-0.200	0.160
-713.718	-5.102	-0.335	-0.234
-712.704	25.848	-0.162	-0.137
-711.689	616.183	-0.130	0.331
-710.675	-200.000	0.024	-0.225
-709.660	237.744	-0.037	-0.062
-708.645	-200.000	-0.041	-0.253
-707.631	800.000	0.041	-0.116
-706.616	666.642	-0.111	-0.292
-705.602	-23.252	-0.180	0.110
-704.587	-84.960	-0.244	0.078
-703.572	241.750	0.084	0.142
-702.558	-16.239	-0.335	-0.216
-701.543	-200.000	-0.070	0.332
-700.529	238.079	-0.144	-0.242
-699.514	-200.000	-0.028	-0.396
-698.499	-128.360	0.230	0.033
-697.485	-29.688	0.272	0.158
-696.470	10.256	-0.109	-0.084
-695.456	-200.000	0.023	0.210
-694.441	-57.339	-0.163	-0.073
-693.426	-70.236	-0.067	0.026
-692.412	242.460	0.242	0.412
-691.397	111.421	-0.177	-0.217
-690.383	97.104	0.026	0.030
-689.368	85.858	-0.071	-0.079
-688.354	-38.650	0.422	0.226
-687.339	24.581	-0.259	-0.218
-686.324	157.272	0.108	-0.152
-685.310	-200.000	0.019	-0.470
-684.295	664.192	0.048	-0.125
-683.281	-136.058	-0.146	-0.017
-682.266	503.542	-0.119	-0.280
-681.251	-200.000	0.004	0.054
-680.237	800.000	-0.031	0.117
-679.222	-84.060	-0.160	0.052
-678.208	-107.391	-0.207	0.046
-677.193	-200.000	-0.012	0.375
-676.178	112.108	0.052	-0.064
-675.164	-160.450	0.158	0.009
-674.149	-200.000	0.019	-0.129
-673.135	-34.355	0.227	-0.127
-672.120	-200.000	0.143	0.001
-671.105	338.328	-0.055	-0.109
-670.091	-200.000	-0.034	-0.329
-669.076	-200.000	0.014	-0.068
-668.062	405.090	0.188	-0.402
-667.047	39.894	-0.095	0.087
-666.032	66.193	0.258	0.266
-665.018	1.222	-0.225	0.164
-664.003	418.646	0.061	0.132
-662.989	272.456	0.084	0.150
-661.974	-105.462	-0.193	0.044
-660.959	-164.732	-0.240	0.011
-659.945	56.255	0.168	0.165
-658.930	-200.000	0.018	0.118
-657.916	-105.789	0.202	-0.046
-656.901	63.380	0.136	-0.139
-655.886	-61.948	-0.146	0.062
-654.872	-200.000	-0.084	-0.544
-653.857	46.979	0.037	0.035
-652.843	10.402	-0.276	0.213
-651.828	-200.000	-0.041	-0.230
-650.814	-200.000	0.065	0.392
-649.799	215.782	-0.075	-0.121
-648.784	-83.493	0.263	-0.085
-647.770	60.720	-0.180	-0.181
-646.755	44.970	-0.182	0.170
-645.741	206.739	0.058	-0.092
-644.726	-162.068	-0.117	0.006
-643.711	61.645	0.286	-0.288
-642.697	-61.611	0.354	0.151
-641.682	325.136	0.048	0.094
-640.668	38.952	-0.055	0.050
-639.653	-200.000	-0.006	-0.402
-638.638	182.064	0.098	0.146
-637.624	-138.318	0.206	0.023
-636.609	338.714	-0.108	0.213
-635.595	40.265	0.142	0.129
-634.580	-104.957	0.337	-0.078
-633.565	61.167	-0.076	0.076
-632.551	-200.000	-0.025	-0.295
-631.536	203.055	0.148	0.232
-630.522	311.129	-0.021	-0.039
-629.507	-108.231	0.210	-0.046
-628.492	800.000	-0.026	0.112
-627.478	-138.484	-0.282	0.031
-626.463	-151.407	0.209	0.016
-625.449	181.744	-0.210	0.314
-624.434	626.326	-0.064	0.163
-623.419	105.880	-0.307	-0.368
-622.405	-200.000	-0.038	-0.299
-621.390	9.566	0.052	-0.040
-620.376	800.000	-0.060	0.202
-619.361	800.000	0.075	-0.296
-618.346	-5.066	-0.225	0.157
-617.332	-26.015	0.125	-0.075
-616.317	800.000	0.044	-0.194
-615.303	-26.618	-0.033	0.019
-614.288	-6.749	-0.331	0.228
-613.273	800.000	-0.034	0.133
-612.259	-200.000	-0.014	0.116
-611.244	68.655	0.064	0.066
-610.230	-71.188	-0.204	0.077
-609.215	-200.000	0.008	-0.044
-608.201	148.687	0.020	0.028
-607.186	277.612	0.065	0.116
-606.171	-127.225	-0.260	-0.038
-605.157	-117.686	0.206	0.038
-604.142	-200.000	-0.051	0.235
-603.128	-114.747	-0.135	-0.026
-602.113	-36.135	-0.186	0.102
-601.098	-140.030	-0.268	-0.029
-600.084	-6.755	0.131	0.091
-599.069	-113.407	-0.210	0.042
-598.055	72.069	-0.100	-0.105
-597.040	-200.000	0.020	-0.286
-596.025	68.138	-0.218	-0.226
-595.011	51.306	0.270	0.259
-593.996	185.268	0.112	0.169
-592.982	5.066	0.260	-0.194
-591.967	-200.000	-0.009	-0.074
-590.952	50.433	-0.129	-0.124
-589.938	138.564	-0.141	-0.187
-588.923	63.706	0.107	-0.108
-587.909	115.898	0.099	0.123
-586.894	-135.415	-0.264	0.032
-585.879	16.836	0.151	-0.121
-584.865	103.283	-0.188	0.223
-583.850	-77.469	-0.285	-0.100
-582.836	463.820	0.122	-0.275
-581.821	48.085	0.033	-0.031
-580.806	800.000	-0.117	-0.351
-579.792	-98.158	0.352	0.091
-578.777	6.555	-0.049	-0.037
-577.763	800.000	0.093	-0.354
-576.748	114.510	-0.212	-0.261
-575.733	25.923	0.276	-0.233
-574.719	190.543	0.203	0.309
-573.704	104.883	-0.108	0.129
-572.690	-200.000	0.020	-0.368
-571.675	30.041	-0.056	-0.048
-570.661	21.787	-0.096	0.079
-569.646	-30.433	0.458	-0.262
-568.631	800.000	-0.055	0.158
-567.617	162.380	-0.081	0.115
-566.602	-193.804	-0.428	0.004
-565.588	-85.808	0.133	0.042
-564.573	-107.655	0.166	0.037
-563.558	800.000	0.054	0.209
-562.544	83.858	-0.136	0.150
-561.529	-200.000	0.009	0.272
-560.515	499.394	0.099	-0.231
-559.500	-35.506	-0.418	-0.230
-558.485	-200.000	0.001	0.135
-557.471	-76.833	-0.306	-0.108
-556.456	68.233	-0.287	0.297
-555.442	800.000	0.097	0.283
-554.427	85.816	0.162	0.181
-553.412	56.849	0.037	0.036
-552.398	465.711	0.017	-0.038
-551.383	671.159	-0.152	0.397
-550.369	141.967	-0.113	0.152
-549.354	-123.566	-0.182	0.029
-548.339	-83.979	0.051	-0.016
-547.325	800.000	-0.069	0.231
-546.310	-200.000	-0.050	0.230
-545.296	-100.613	-0.270	-0.067
-544.281	20.006	-0.113	-0.092
-543.266	-13.066	0.202	0.133
-542.252	-18.844	0.119	0.075
-541.237	-200.000	-0.006	-0.101
-540.223	-200.000	-0.007	0.051
-539.208	0.038	0.085	-0.061
-538.193	287.268	-0.159	-0.290
-537.179	222.343	-0.023	-0.037
-536.164	554.735	-0.147	-0.358
-535.150	-34.146	-0.246	-0.137
-534.135	288.560	0.184	0.336
-533.121	557.350	-0.109	0.265
-532.106	314.600	0.077	-0.147
-531.091	-200.000	0.004	0.229
-530.077	-104.997	-0.260	-0.060
-529.062	356.819	-0.160	-0.323
-528.048	-200.000	-0.054	0.289
-527.033	3.318	0.139	-0.102
-526.018	254.625	-0.103	-0.177
-525.004	153.720	-0.060	-0.083
-523.989	111.832	0.473	-0.576
-522.975	177.244	-0.271	-0.399
-521.960	-47.489	0.386	0.189
-520.945	-23.112	0.283	0.172
-519.931	-200.000	0.017	0.104
-518.916	-133.013	0.299	-0.038
-517.902	-200.000	-0.018	0.087
-516.887	-200.000	-0.030	0.289
-515.872	-131.229	-0.179	-0.024
-514.858	614.216	-0.038	0.097
-513.843	-200.000	0.014	-0.174
-512.829	71.315	-0.194	-0.203
-511.814	472.687	-0.037	-0.084
-510.799	67.756	0.192	0.198
-509.785	164.384	0.207	0.295
-508.770	-33.063	-0.222	0.124
-507.756	-70.740	0.145	0.055
-506.741	59.680	-0.119	0.118
-505.726	-17.096	0.393	0.250
-504.712	-200.000	0.015	0.122
-503.697	-200.000	0.080	0.398
-502.683	-66.053	-0.183	-0.073
-501.668	800.000	-0.049	0.173
-500.653	-13.598	-0.443	-0.289
-499.639	248.213	0.079	-0.135
-498.624	-89.267	0.229	0.068
-497.610	25.511	-0.208	-0.174
-496.595	-200.000	0.034	-0.242
-495.581	359.121	-0.179	0.362
-494.566	-109.149	-0.139	0.030
-493.551	-200.000	0.029	-0.304
-492.537	142.714	-0.156	-0.209
-491.522	-9.434	-0.130	-0.087
-490.508	-64.753	0.298	-0.122
-489.493	-200.000	0.032	-0.145
-488.478	132.479	-0.178	-0.231
-487.464	195.575	0.071	-0.108
-486.449	-200.000	0.027	-0.161
-485.435	116.038	0.137	0.169
-484.420	-77.937	0.275	-0.096
-483.405	18.757	-0.322	-0.260
-482.391	121.583	-0.369	-0.463
-481.376	-45.752	-0.264	-0.131
-480.362	-112.595	0.373	0.075
-479.347	4.661	-0.061	-0.045
-478.332	-200.000	-0.058	-0.295
-477.318	-73.153	-0.199	0.074
-476.303	-200.000	0.037	0.230
-475.289	-200.000	-0.001	0.103
-474.274	-73.340	-0.033	0.012
-473.259	-200.000	-0.005	0.101
-472.245	-79.578	0.106	0.036
-471.230	26.523	0.095	0.080
-470.216	-200.000	0.025	-0.337
-469.201	158.191	0.144	-0.201
-468.186	-55.206	-0.126	0.057
-467.172	-200.000	0.002	-0.019
-466.157	60.071	0.092	-0.092
-465.143	9.241	0.167	-0.127
-464.128	-200.000	-0.006	0.214
-463.113	210.054	-0.161	0.254
-462.099	10.922	0.268	0.206
-461.084	14.908	0.303	0.239
-460.070	258.375	-0.122	0.211
-459.055	151.359	0.039	-0.053
-458.040	-97.822	0.156	-0.041
-457.026	39.594	-0.148	0.134
-456.011	-200.000	-0.078	-0.550
-454.997	-200.000	0.010	0.106
-453.982	800.000	0.057	0.184
-452.968	274.391	0.059	-0.104
-451.953	32.958	-0.076	-0.067
-450.938	220.991	0.081	-0.130
-449.924	-55.885	-0.288	0.129
-448.909	92.630	-0.144	-0.163
-447.895	-129.226	0.112	0.016
-446.880	-89.565	-0.172	0.051
-445.865	252.099	0.202	0.347
-444.851	-200.000	-0.006	0.120
-443.836	-200.000	-0.023	0.321
-442.822	-200.000	0.011	0.114
-441.807	800.000	-0.041	-0.119
-440.792	-121.999	0.314	0.052
-439.778	179.732	-0.254	0.375
-438.763	-148.473	-0.534	0.044
-437.749	-163.690	-0.316	-0.015
-436.734	229.209	-0.093	0.153
-435.719	-32.649	-0.175	0.098
-434.705	59.354	-0.188	-0.186
-433.690	-74.292	-0.143	0.052
-432.676	599.539	0.048	0.120
-431.661	-63.613	0.237	-0.098
-430.646	291.670	-0.101	-0.185
-429.632	219.515	0.036	-0.058
-428.617	272.522	0.169	0.300
-427.603	5.027	-0.210	-0.156
-426.588	201.382	-0.170	0.264
-425.573	-69.059	0.196	-0.076
-424.559	-42.537	0.061	-0.031
-423.544	-102.649	-0.220	-0.053
-422.530	41.194	0.075	-0.068
-421.515	27.085	0.181	0.153
-420.500	107.513	0.146	-0.174
-419.486	-200.000	0.060	-0.527
-418.471	-44.305	0.148	0.075
-417.457	18.516	0.174	-0.140
-416.442	-130.802	-0.319	0.043
-415.428	717.853	-0.157	-0.420
-414.413	-99.637	0.337	-0.085
-413.398	-154.046	-0.130	-0.009
-412.384	167.929	-0.098	-0.140
-411.369	97.386	-0.165	-0.190
-410.355	-3.582	-0.179	0.125
-409.340	66.794	-0.066	0.067
-408.325	-200.000	0.011	0.249
-407.311	-200.000	-0.008	-0.135
-406.296	427.027	-0.077	-0.166
-405.282	534.049	0.199	0.473
-404.267	-127.769	0.236	-0.034
-403.252	-200.000	-0.036	-0.510
-402.238	-200.000	0.059	0.267
-401.223	13.377	0.099	-0.077
-400.209	-80.622	0.126	-0.042
-399.194	800.000	-0.042	-0.174
-398.179	-99.700	0.230	-0.058
-397.165	208.535	0.023	-0.036
-396.150	197.301	0.070	0.108
-395.136	-31.653	0.113	-0.064
-394.121	800.000	0.028	-0.080
-393.106	168.655	0.106	0.152
-392.092	-5.182	-0.190	0.131
-391.077	144.311	0.141	0.190
-390.063	272.195	-0.096	-0.170
-389.048	-57.020	0.153	-0.068
-388.033	159.800	-0.109	-0.152
-387.019	-61.065	-0.132	0.056
-386.004	541.048	0.128	-0.307
-384.990	461.422	0.214	-0.480
-383.975	20.249	-0.036	-0.029
-382.960	68.650	0.180	0.186
-381.946	-200.000	-0.000	0.018
-380.931	175.619	0.083	0.121
-379.917	-103.003	-0.180	-0.043
-378.902	33.291	-0.126	0.110
-377.888	-108.639	0.196	-0.042
-376.873	-18.464	0.154	-0.097
-375.858	-200.000	0.093	0.419
-374.844	-200.000	0.002	0.075
-373.829	105.526	0.141	0.167
-372.815	-46.978	0.067	-0.033
-371.800	-94.188	0.176	-0.048
-370.785	-9.249	-0.027	0.018
-369.771	559.021	-0.125	-0.303
-368.756	95.753	0.145	0.167
-367.742	173.897	0.175	0.253
-366.727	548.798	-0.107	0.257
-365.712	-194.842	-0.218	-0.002
-364.698	-200.000	-0.007	-0.277
-363.683	47.082	-0.104	-0.097
-362.669	-200.000	0.047	-0.478
-361.654	800.000	-0.069	0.273
-360.639	-141.949	-0.086	0.009
-359.625	-200.000	0.003	0.215
-358.610	221.308	0.086	0.139
-357.596	-200.000	0.013	0.207
-356.581	153.648	-0.126	0.172
-355.566	-97.939	0.064	-0.017
-354.552	-143.594	0.560	0.053
-353.537	88.253	-0.317	-0.353
-352.523	-89.084	0.105	-0.031
-351.508	-46.656	0.056	0.028
-350.493	12.531	-0.075	-0.058
-349.479	288.119	-0.103	0.187
-348.464	53.298	-0.094	0.090
-347.450	84.163	0.082	0.090
-346.435	-105.970	0.321	-0.072
-345.420	-175.933	-0.281	0.008
-344.406	28.119	-0.106	0.089
-343.391	-200.000	-0.002	-0.033
-342.377	-113.547	-0.214	0.042
-341.362	179.745	0.038	-0.056
-340.348	800.000	-0.033	0.113
-339.333	-32.222	-0.087	0.049
-338.318	-163.122	-0.178	0.009
-337.304	-173.284	0.279	-0.009
-336.289	-175.808	-0.188	-0.005
-335.275	111.803	-0.145	-0.176
-334.260	-56.085	-0.066	0.030
-333.245	164.565	0.067	-0.094
-332.231	-61.677	-0.342	0.144
-331.216	-165.058	-0.161	-0.007
-330.202	-200.000	-0.005	0.265
-329.187	20.435	0.051	0.041
-328.172	364.536	0.050	0.100
-327.158	-200.000	0.020	0.176
-326.143	-107.989	-0.260	0.057
-325.129	-41.658	0.356	-0.183
-324.114	-154.384	0.143	-0.010
-323.099	-43.989	-0.181	0.091
-322.085	-200.000	0.009	0.171
-321.070	-200.000	-0.014	0.199
-320.056	800.000	-0.109	0.339
-319.041	78.370	-0.181	0.193
-318.026	62.708	0.151	0.151
-317.012	-200.000	0.010	0.162
-315.997	-2.519	-0.468	-0.328
-314.983	24.793	-0.226	-0.187
-313.968	363.647	-0.048	-0.097
-312.953	-200.000	-0.015	0.286
-311.939	-40.975	-0.051	-0.026
-310.924	-95.811	0.236	0.063
-309.910	-67.386	0.193	-0.076
-308.895	227.028	0.016	-0.025
-307.880	37.848	0.090	0.080
-306.866	-160.197	0.491	-0.027
-305.851	-200.000	0.013	-0.071
-304.837	-200.000	0.006	0.101
-303.822	91.152	0.180	-0.202
-302.807	342.008	0.100	0.195
-301.793	140.331	0.090	-0.119
-300.778	-200.000	-0.003	0.170
-299.764	-40.698	-0.028	0.015
-298.749	-15.154	0.106	-0.068
-297.735	551.796	-0.057	-0.137
-296.720	-200.000	0.017	-0.209
-295.705	237.068	0.119	-0.197
-294.691	800.000	0.066	0.195
-293.676	-200.000	-0.015	-0.168
-292.662	-42.906	0.238	-0.121
-291.647	16.048	0.153	-0.120
-290.632	-5.101	0.089	-0.061
-289.618	-200.000	-0.007	0.146
-288.603	12.986	0.130	-0.101
-287.589	-23.401	0.150	-0.090
-286.574	-181.174	0.138	0.003
-285.559	-152.912	-0.134	-0.009
-284.545	168.968	0.212	-0.302
-283.530	-89.788	-0.355	-0.104
-282.516	-95.414	-0.259	-0.070
-281.501	415.017	-0.046	0.097
-280.486	-88.421	-0.125	-0.037
-279.472	-89.380	0.180	-0.053
-278.457	-32.614	-0.485	-0.270
-277.443	-2.021	-0.199	0.140
-276.428	-72.073	0.237	0.088
-275.413	-105.945	-0.277	-0.062
-274.399	32.011	-0.182	0.156
-273.384	-200.000	-0.011	0.051
-272.370	-200.000	0.002	-0.051
-271.355	87.222	0.191	0.211
-270.340	-82.034	0.258	-0.084
-269.326	84.663	-0.147	-0.161
-268.311	-183.081	0.314	-0.006
-267.297	-56.006	-0.238	-0.106
-266.282	-48.437	0.148	0.071
-265.267	-200.000	0.028	0.275
-264.253	-200.000	0.021	-0.140
-263.238	-113.578	-0.144	0.028
-262.224	52.672	0.203	0.194
-261.209	133.211	0.250	0.323
-260.195	264.361	-0.196	-0.341
-259.180	75.047	-0.017	-0.018
-258.165	-200.000	-0.030	-0.315
-257.151	-35.185	0.053	0.029
-256.136	-96.062	-0.130	-0.035
-255.122	-36.128	0.382	0.206
-254.107	-111.639	-0.310	0.063
-253.092	172.504	-0.134	0.193
-252.078	325.886	-0.153	0.292
-251.063	385.199	-0.022	-0.046
-250.049	-24.041	0.382	0.228
-249.034	29.604	0.111	0.095
-248.019	-135.680	-0.279	-0.033
-247.005	-116.421	0.428	-0.079
-245.990	800.000	0.075	0.222
-244.976	-24.456	-0.165	-0.098
-243.961	-200.000	-0.022	-0.143
-242.946	-200.000	-0.005	-0.310
-241.932	12.468	-0.086	-0.066
-240.917	-200.000	0.018	-0.115
-239.903	-200.000	0.028	-0.197
-238.888	374.029	0.062	-0.125
-237.873	-200.000	-0.005	0.031
-236.859	-16.500	0.192	0.122
-235.844	-200.000	-0.018	-0.384
-234.830	-51.362	0.279	-0.130
-233.815	656.175	-0.088	0.226
-232.800	800.000	0.041	0.174
-231.786	327.768	-0.071	0.135
-230.771	-55.101	0.482	-0.217
-229.757	-40.126	0.293	-0.152
-228.742	-111.765	0.369	0.075
-227.727	800.000	0.015	-0.048
-226.713	18.527	0.071	-0.057
-225.698	180.952	0.106	0.155
-224.684	-200.000	0.026	0.258
-223.669	68.832	-0.260	-0.267
-222.655	-200.000	0.016	0.232
-221.640	-107.808	0.691	0.150
-220.625	800.000	-0.123	0.344
-219.611	-133.249	0.325	-0.041
-218.596	334.715	-0.176	-0.339
-217.582	-41.110	-0.205	0.105
-216.567	-19.921	0.142	0.088
-215.552	-51.297	0.027	-0.012
-214.538	-154.685	0.224	0.015
-213.523	800.000	-0.043	0.120
-212.509	-172.236	0.088	-0.003
-211.494	-144.765	0.189	-0.017
-210.479	-200.000	0.055	0.285
-209.465	800.000	0.112	0.380
-208.450	355.437	-0.099	0.195
-207.436	-200.000	0.002	-0.066
-206.421	283.671	0.034	-0.061
-205.406	-200.000	0.040	0.205
-204.392	13.304	-0.286	-0.221
-203.377	-200.000	-0.044	0.206
-202.363	-145.582	0.180	0.016
-201.348	-101.968	-0.155	-0.037
-200.333	-200.000	0.002	0.025
-199.319	-129.651	-0.293	-0.040
-198.304	11.666	0.222	0.170
-197.290	-200.000	-0.017	-0.097
-196.275	65.863	0.191	-0.193
-195.260	-129.380	0.246	0.034
-194.246	-131.555	-0.252	-0.033
-193.231	516.792	-0.102	-0.238
-192.217	-111.447	-0.347	-0.070
-191.202	800.000	0.050	-0.170
-190.187	800.000	0.068	0.189
-189.173	-15.198	0.170	0.108
-188.158	43.923	0.110	-0.101
-187.144	155.258	0.254	0.348
-186.129	230.646	0.192	0.313
-185.114	-45.194	-0.191	-0.095
-184.100	-35.692	-0.108	0.058
-183.085	211.666	-0.213	-0.333
-182.071	-6.924	-0.025	0.017
-181.056	-200.000	0.035	0.219
-180.042	-103.748	0.306	-0.071
-179.027	11.726	-0.138	-0.106
-178.012	66.520	0.364	-0.368
-176.998	174.197	-0.122	0.175
-175.983	-121.001	-0.233	0.039
-174.969	-114.538	-0.418	-0.080
-173.954	-143.320	-0.061	0.006
-172.939	-140.449	-0.078	0.008
-171.925	-29.229	-0.027	-0.016
-170.910	244.975	-0.041	0.068
-169.896	264.284	-0.092	0.159
-168.881	-90.108	0.311	0.090
-167.866	231.786	0.144	0.236
-166.852	-200.000	-0.009	-0.308
-165.837	38.664	-0.152	-0.135
-164.823	-200.000	-0.009	-0.171
-163.808	119.892	0.242	0.299
-162.793	256.940	0.065	-0.110
-161.779	-186.565	-0.293	-0.004
-160.764	101.603	-0.131	-0.152
-159.750	-200.000	0.035	-0.301
-158.735	35.840	-0.096	-0.084
-157.720	360.097	-0.084	-0.168
-156.706	-23.017	-0.425	0.255
-155.691	4.049	-0.158	-0.115
-154.677	50.463	-0.209	-0.197
-153.662	-200.000	0.023	0.170
-152.647	-73.202	0.306	0.112
-151.633	56.285	-0.256	-0.247
-150.618	365.306	0.129	-0.258
-149.604	800.000	-0.067	-0.276
-148.589	277.418	0.219	0.388
-147.574	800.000	0.011	0.046
-146.560	117.478	0.096	-0.118
-145.545	-135.574	-0.218	0.026
-144.531	-200.000	0.049	0.300
-143.516	103.557	-0.076	0.088
-142.502	-50.711	-0.061	-0.029
-141.487	280.738	0.023	0.040
-140.472	106.096	0.350	-0.412
-139.458	-200.000	0.070	0.398
-138.443	416.269	-0.143	0.303
-137.429	170.651	0.033	0.047
-136.414	-113.097	-0.253	-0.050
-135.399	-98.594	0.111	0.028
-134.385	27.860	0.087	0.073
-133.370	512.739	0.043	-0.099
-132.356	12.514	0.088	-0.067
-131.341	-132.429	-0.146	0.019
-130.326	581.802	0.032	0.078
-129.312	243.462	-0.142	0.236
-128.297	-80.911	-0.149	0.049
-127.283	-200.000	0.029	0.130
-126.268	-80.318	-0.153	-0.051
-125.253	-97.881	0.366	0.094
-124.239	-200.000	-0.017	0.170
-123.224	-200.000	0.058	-0.512
-122.210	800.000	0.063	0.208
-121.195	-155.350	-0.232	-0.015
