DTS Sentinel unit serial number:	SN413079Multiplexer serial number:	ORYXHardware model number:	OX4-SRSoftware version number:	ORYX F/W v4.00 Oryx Data Collector v3.7.2.0data status	okinstallation	princeton_trtdifferential loss correction	single-endedforward channel	channel 1reverse channel	N/Adate	2019/09/13time	02:54:35forward acquisition time	60.00reverse acquisition time	0.00gamma	496.2192k internal	0.2331k external	0.2331temperature offset calibration	1.0157default loss term (dB/km)	0.3790temperature slope calibration	1.0000multiplexer offset coefficient	1.0000multiplexer slope coefficient	1.0000fibre end	0.00T internal ref (°C)	27.44T ext. ref 1 (°C)	4.05T ext. ref 2 (°C)	22.28length (m)	temperature (°C)	Stokes	anti-Stokes-747.200	-160.429	-0.233	-0.013
-746.185	43.646	-0.253	0.233
-745.171	-200.000	-0.007	0.157
-744.156	-200.000	0.052	0.256
-743.142	-200.000	0.004	0.392
-742.127	11.270	0.267	0.206
-741.112	161.010	0.120	0.168
-740.098	-56.879	0.203	0.090
-739.083	-25.668	-0.250	0.149
-738.069	-74.279	0.272	-0.099
-737.054	258.094	-0.090	0.155
-736.039	800.000	-0.087	0.321
-735.025	92.103	0.272	0.309
-734.010	38.118	0.237	-0.212
-732.996	-95.689	-0.312	-0.084
-731.981	470.782	0.124	0.280
-730.966	-158.798	-0.447	-0.026
-729.952	448.346	-0.086	0.191
-728.937	193.311	0.188	-0.286
-727.923	12.541	-0.139	0.108
-726.908	239.096	0.080	-0.134
-725.894	332.817	-0.081	-0.157
-724.879	-157.406	0.294	-0.018
-723.864	800.000	-0.039	-0.159
-722.850	48.653	-0.191	0.180
-721.835	49.732	-0.135	0.128
-720.821	-99.065	-0.417	-0.106
-719.806	-155.410	0.209	0.014
-718.791	-72.206	0.262	0.098
-717.777	-200.000	-0.034	0.154
-716.762	183.780	-0.042	-0.063
-715.748	-200.000	0.019	0.123
-714.733	-39.523	0.106	0.056
-713.718	-103.066	-0.179	-0.043
-712.704	-99.546	-0.404	0.102
-711.689	742.537	-0.186	-0.503
-710.675	-71.641	0.239	-0.090
-709.660	139.364	-0.382	0.505
-708.645	-137.086	-0.199	-0.023
-707.631	55.499	-0.048	-0.047
-706.616	-161.251	-0.352	-0.018
-705.602	-58.148	0.050	-0.022
-704.587	333.793	0.025	-0.049
-703.572	-39.440	-0.079	0.042
-702.558	-128.416	0.189	0.027
-701.543	153.245	-0.035	-0.048
-700.529	-171.919	-0.500	0.016
-699.514	-91.325	-0.151	0.043
-698.499	186.486	-0.183	-0.273
-697.485	32.492	0.090	-0.078
-696.470	-39.043	0.128	0.067
-695.456	77.143	-0.188	0.200
-694.441	246.437	-0.224	-0.379
-693.426	34.681	0.095	-0.083
-692.412	87.153	0.282	0.313
-691.397	-200.000	-0.029	-0.381
-690.383	-89.039	0.155	0.046
-689.368	125.648	-0.088	0.111
-688.354	-70.301	-0.138	0.053
-687.339	-13.955	-0.108	0.070
-686.324	38.110	-0.140	-0.126
-685.310	-200.000	0.007	-0.107
-684.295	-59.241	0.110	0.048
-683.281	800.000	0.090	0.348
-682.266	163.301	0.216	-0.305
-681.251	615.031	-0.104	0.263
-680.237	-16.249	0.080	0.051
-679.222	219.833	0.110	-0.177
-678.208	800.000	0.076	0.212
-677.193	-22.800	-0.171	0.104
-676.178	198.013	-0.214	0.328
-675.164	-85.590	-0.181	-0.056
-674.149	-40.909	-0.132	-0.069
-673.135	-7.559	-0.126	-0.086
-672.120	103.759	0.103	-0.121
-671.105	-200.000	-0.012	-0.119
-670.091	-200.000	0.021	0.111
-669.076	714.421	-0.025	0.067
-668.062	-200.000	0.018	-0.091
-667.047	386.421	0.044	0.091
-666.032	800.000	0.032	-0.111
-665.018	625.293	-0.020	0.051
-664.003	370.311	-0.238	0.484
-662.989	-11.480	0.180	0.119
-661.974	359.883	-0.076	0.152
-660.959	-200.000	-0.035	0.203
-659.945	-74.983	-0.224	0.081
-658.930	-99.268	0.177	-0.045
-657.916	-200.000	-0.021	-0.101
-656.901	320.523	-0.089	0.170
-655.886	100.651	-0.245	0.286
-654.872	-132.690	0.310	-0.040
-653.857	-18.956	0.178	0.111
-652.843	25.389	-0.053	-0.044
-651.828	-75.925	0.200	0.071
-650.814	-200.000	0.063	-0.301
-649.799	-24.463	0.068	-0.041
-648.784	-200.000	0.027	-0.236
-647.770	800.000	-0.047	-0.157
-646.755	-83.797	-0.327	-0.105
-645.741	-145.418	-0.332	-0.030
-644.726	-83.697	-0.197	0.063
-643.711	179.849	-0.077	-0.113
-642.697	414.787	-0.054	0.115
-641.682	-115.468	-0.331	-0.063
-640.668	509.342	0.099	0.231
-639.653	800.000	0.071	-0.214
-638.638	-200.000	-0.014	0.072
-637.624	-200.000	-0.031	-0.148
-636.609	-17.851	-0.160	-0.101
-635.595	800.000	-0.058	0.218
-634.580	-91.723	0.366	0.104
-633.565	-110.014	-0.021	0.004
-632.551	-31.415	-0.072	-0.041
-631.536	-11.796	0.393	-0.258
-630.522	-127.236	0.405	0.059
-629.507	191.215	-0.037	0.056
-628.492	-87.787	-0.212	-0.064
-627.478	158.180	0.119	0.165
-626.463	181.442	-0.204	0.301
-625.449	487.859	-0.014	0.032
-624.434	280.721	0.068	-0.122
-623.419	-151.748	-0.377	-0.028
-622.405	356.357	-0.068	0.136
-621.390	128.044	0.123	0.157
-620.376	-200.000	0.002	-0.119
-619.361	-18.501	-0.070	-0.044
-618.346	800.000	-0.016	-0.064
-617.332	800.000	0.036	0.131
-616.317	-132.577	0.301	0.039
-615.303	207.828	0.011	0.017
-614.288	450.306	0.185	0.409
-613.273	-39.895	0.359	-0.187
-612.259	-40.878	0.287	-0.148
-611.244	285.387	0.137	0.247
-610.230	-112.677	-0.159	-0.032
-609.215	-99.113	0.048	-0.012
-608.201	342.879	-0.101	0.198
-607.186	273.182	-0.168	-0.297
-606.171	-150.361	0.161	0.012
-605.157	-200.000	-0.002	-0.267
-604.142	-171.176	0.275	-0.009
-603.128	-92.703	-0.170	0.048
-602.113	6.406	-0.433	-0.322
-601.098	800.000	-0.027	-0.101
-600.084	208.866	-0.035	0.054
-599.069	-71.269	0.138	-0.052
-598.055	-37.036	-0.115	0.061
-597.040	170.671	0.087	-0.124
-596.025	-200.000	0.033	-0.212
-595.011	441.586	-0.103	-0.226
-593.996	-57.541	-0.093	-0.041
-592.982	-200.000	-0.064	0.303
-591.967	75.103	-0.156	0.165
-590.952	188.691	0.150	0.225
-589.938	-200.000	0.008	-0.156
-588.923	-200.000	-0.025	-0.350
-587.909	-112.560	0.378	0.075
-586.894	-118.579	-0.139	0.025
-585.879	12.040	-0.078	-0.060
-584.865	176.907	-0.154	-0.224
-583.850	-85.141	-0.072	-0.023
-582.836	-27.079	0.247	-0.144
-581.821	-200.000	-0.057	0.264
-580.806	5.388	0.130	-0.096
-579.792	-125.358	-0.157	0.024
-578.777	378.144	-0.091	0.186
-577.763	-76.651	-0.250	-0.088
-576.748	-88.523	-0.328	-0.098
-575.733	-200.000	0.033	-0.234
-574.719	800.000	-0.130	0.381
-573.704	800.000	0.128	0.455
-572.690	800.000	0.049	0.137
-571.675	167.398	-0.245	-0.348
-570.661	-63.653	-0.194	-0.079
-569.646	314.561	-0.115	-0.217
-568.631	368.839	0.133	-0.269
-567.617	-41.488	-0.166	-0.085
-566.602	425.683	0.099	-0.212
-565.588	800.000	0.080	-0.338
-564.573	38.849	0.165	0.147
-563.558	-119.991	0.291	-0.050
-562.544	-200.000	0.041	-0.198
-561.529	253.453	-0.138	-0.235
-560.515	-3.186	0.117	0.082
-559.500	-200.000	0.019	0.286
-558.485	-83.004	0.162	0.052
-557.471	-79.095	-0.419	0.142
-556.456	-200.000	0.009	0.281
-555.442	112.412	0.085	0.103
-554.427	-135.246	0.171	-0.020
-553.412	5.868	0.302	-0.223
-552.398	-200.000	-0.004	-0.047
-551.383	193.156	-0.119	0.180
-550.369	-57.789	-0.341	0.149
-549.354	237.435	0.031	0.052
-548.339	-196.829	0.156	-0.001
-547.325	-100.942	0.132	0.032
-546.310	32.290	-0.255	0.219
-545.296	90.551	-0.089	0.100
-544.281	-132.394	-0.452	-0.058
-543.266	600.224	0.070	-0.174
-542.252	-200.000	0.009	-0.059
-541.237	-105.181	-0.190	0.043
-540.223	-200.000	-0.009	-0.217
-539.208	-53.280	-0.269	0.123
-538.193	245.463	-0.087	0.145
-537.179	82.812	-0.182	0.197
-536.164	50.822	0.052	0.049
-535.150	173.346	-0.060	-0.086
-534.135	-52.038	0.070	0.032
-533.121	-200.000	-0.012	0.413
-532.106	-200.000	-0.020	0.266
-531.091	-200.000	-0.024	0.302
-530.077	-82.931	0.172	-0.055
-529.062	800.000	-0.037	-0.119
-528.048	-28.320	0.203	-0.117
-527.033	-95.281	-0.215	-0.058
-526.018	-200.000	-0.013	0.140
-525.004	5.004	-0.363	0.266
-523.989	-57.260	0.190	0.083
-522.975	-45.005	0.236	0.117
-521.960	800.000	0.040	-0.135
-520.945	-200.000	-0.011	-0.170
-519.931	-68.928	-0.047	-0.018
-518.916	7.099	-0.117	-0.087
-517.902	-40.722	-0.256	-0.132
-516.887	-147.313	0.267	0.023
-515.872	-2.092	-0.208	-0.146
-514.858	4.698	-0.079	0.058
-513.843	176.085	0.098	0.142
-512.829	800.000	0.076	-0.324
-511.814	184.561	-0.132	-0.194
-510.799	37.378	-0.298	0.263
-509.785	139.110	0.218	0.286
-508.770	-61.667	-0.014	0.006
-507.756	78.707	-0.209	0.223
-506.741	800.000	-0.152	0.458
-505.726	-145.686	0.190	0.017
-504.712	-55.519	0.066	-0.030
-503.697	-65.805	-0.088	0.035
-502.683	97.518	0.114	-0.131
-501.668	-31.573	-0.186	0.104
-500.653	800.000	-0.099	0.317
-499.639	91.324	-0.117	0.131
-498.624	-145.206	0.622	0.056
-497.610	-50.307	0.281	-0.132
-496.595	-200.000	0.004	0.095
-495.581	-200.000	-0.039	0.213
-494.566	161.077	0.026	0.036
-493.551	-41.692	-0.051	-0.026
-492.537	800.000	-0.050	-0.208
-491.522	121.807	-0.111	-0.138
-490.508	-200.000	0.043	0.218
-489.493	-200.000	-0.000	-0.091
-488.478	-56.129	-0.268	0.119
-487.464	800.000	0.065	-0.245
-486.449	-87.007	-0.039	-0.012
-485.435	108.877	0.170	0.202
-484.420	193.352	-0.111	0.167
-483.405	51.571	-0.187	-0.177
-482.391	800.000	0.046	0.147
-481.376	800.000	0.055	-0.153
-480.362	-147.691	-0.396	-0.033
-479.347	-97.927	-0.184	-0.047
-478.332	-154.062	-0.177	0.012
-477.318	202.320	0.105	-0.162
-476.303	-200.000	0.008	0.158
-475.289	-64.850	-0.112	-0.045
-474.274	-104.838	0.400	0.092
-473.259	-48.108	0.090	0.043
-472.245	134.530	-0.107	-0.138
-471.230	120.991	-0.038	0.047
-470.216	366.413	0.116	-0.232
-469.201	37.440	0.272	-0.240
-468.186	-82.711	-0.128	0.041
-467.172	69.605	0.167	-0.171
-466.157	2.953	-0.235	0.170
-465.143	520.873	0.038	-0.089
-464.128	181.974	0.096	-0.140
-463.113	-67.317	-0.245	0.096
-462.099	467.842	0.036	0.080
-461.084	-200.000	-0.039	0.245
-460.070	-135.011	-0.192	-0.023
-459.055	110.297	0.032	-0.038
-458.040	-70.261	-0.321	-0.121
-457.026	322.137	0.205	0.388
-456.011	618.371	-0.042	-0.105
-454.997	571.756	0.043	-0.104
-453.982	-115.970	-0.169	-0.031
-452.968	690.267	-0.049	0.128
-451.953	67.520	-0.115	-0.116
-450.938	294.091	-0.042	-0.076
-449.924	51.883	-0.204	0.193
-448.909	-95.231	-0.231	-0.062
-447.895	-41.257	-0.269	0.138
-446.880	-140.079	-0.230	-0.024
-445.865	-200.000	0.044	-0.445
-444.851	-200.000	-0.021	-0.302
-443.836	434.958	-0.036	-0.077
-442.822	-200.000	-0.000	-0.008
-441.807	-200.000	0.014	0.064
-440.792	418.725	0.105	0.223
-439.778	111.187	-0.190	-0.228
-438.763	-37.972	-0.153	-0.081
-437.749	800.000	0.039	0.115
-436.734	4.647	0.219	0.160
-435.719	534.984	-0.060	-0.141
-434.705	-162.068	0.419	0.021
-433.690	-177.345	0.100	-0.002
-432.676	-115.021	-0.260	-0.049
-431.661	-200.000	-0.088	0.552
-430.646	-171.264	-0.187	0.006
-429.632	-6.157	-0.099	0.067
-428.617	-104.213	0.171	0.039
-427.603	-200.000	0.015	-0.066
-426.588	614.049	-0.027	-0.068
-425.573	121.772	-0.151	-0.188
-424.559	-48.362	0.227	-0.109
-423.544	800.000	0.157	0.553
-422.530	-72.226	0.014	0.005
-421.515	567.486	0.034	-0.083
-420.500	645.935	-0.134	0.339
-419.486	257.174	0.156	-0.267
-418.471	-92.332	-0.154	-0.043
-417.457	-4.467	0.223	0.153
-416.442	-200.000	0.005	-0.064
-415.428	136.158	0.203	0.263
-414.413	-47.405	-0.181	-0.087
-413.398	5.651	-0.103	-0.075
-412.384	414.571	0.103	0.217
-411.369	-20.603	0.316	0.193
-410.355	255.807	0.167	-0.284
-409.340	800.000	0.093	-0.296
-408.325	49.989	-0.136	-0.128
-407.311	12.550	-0.252	0.193
-406.296	-200.000	0.005	-0.244
-405.282	265.390	0.169	0.293
-404.267	173.602	0.207	0.296
-403.252	-64.653	-0.216	0.087
-402.238	-200.000	0.005	0.109
-401.223	56.726	0.072	-0.069
-400.209	-85.480	-0.037	-0.011
-399.194	-200.000	0.028	0.225
-398.179	-114.223	0.223	0.043
-397.165	-53.241	0.106	0.048
-396.150	-11.499	-0.182	-0.119
-395.136	52.087	0.338	-0.320
-394.121	-200.000	-0.018	0.175
-393.106	619.370	0.042	-0.104
-392.092	-112.807	0.182	-0.036
-391.077	-33.568	0.213	0.117
-390.063	-126.239	0.249	-0.037
-389.048	163.984	-0.084	0.118
-388.033	555.334	-0.018	0.042
-387.019	-48.764	0.243	-0.116
-386.004	199.615	0.108	-0.164
-384.990	-20.717	0.099	-0.060
-383.975	68.987	-0.169	-0.172
-382.960	-138.425	0.153	-0.017
-381.946	-200.000	0.038	0.214
-380.931	24.009	-0.422	0.345
-379.917	-200.000	-0.012	0.072
-378.902	-87.124	-0.237	0.072
-377.888	-86.363	-0.184	-0.056
-376.873	166.305	0.229	-0.321
-375.858	36.548	0.166	-0.146
-374.844	225.928	0.094	-0.152
-373.829	-88.235	0.048	0.014
-372.815	61.112	0.196	-0.193
-371.800	310.317	-0.114	-0.213
-370.785	-70.853	-0.190	0.071
-369.771	-144.215	-0.098	0.009
-368.756	-41.579	0.184	0.094
-367.742	-86.337	0.147	0.045
-366.727	90.332	-0.041	0.045
-365.712	448.403	-0.099	0.216
-364.698	-136.443	0.423	0.049
-363.683	-108.230	-0.167	-0.036
-362.669	-142.416	0.590	-0.058
-361.654	800.000	-0.028	-0.106
-360.639	-81.952	0.205	-0.066
-359.625	103.273	0.133	0.154
-358.610	64.874	-0.256	0.256
-357.596	66.542	-0.215	0.216
-356.581	-200.000	0.023	-0.210
-355.566	-80.543	0.349	-0.115
-354.552	524.028	0.132	-0.307
-353.537	31.984	0.244	0.209
-352.523	113.568	0.036	0.044
-351.508	265.856	-0.075	0.130
-350.493	36.269	0.151	-0.132
-349.479	-170.094	-0.178	0.006
-348.464	-28.625	0.148	-0.084
-347.450	-138.162	-0.183	0.020
-346.435	272.913	0.101	0.176
-345.420	-14.611	-0.045	0.029
-344.406	-35.906	-0.131	0.070
-343.391	-86.033	-0.173	-0.053
-342.377	296.282	-0.046	-0.084
-341.362	123.995	-0.048	0.059
-340.348	659.757	0.023	0.059
-339.333	-85.237	0.151	-0.047
-338.318	-33.595	0.145	0.079
-337.304	-139.822	-0.308	-0.032
-336.289	-200.000	-0.014	-0.106
-335.275	-124.354	0.155	0.024
-334.260	363.227	0.127	0.252
-333.245	800.000	0.106	0.353
-332.231	-41.655	-0.169	-0.086
-331.216	262.913	0.067	0.115
-330.202	-61.058	0.196	0.082
-329.187	-123.760	-0.195	0.030
-328.172	371.560	0.116	-0.233
-327.158	-145.886	-0.240	0.021
-326.143	-110.017	-0.335	-0.069
-325.129	-200.000	0.010	-0.232
-324.114	395.943	0.099	0.205
-323.099	800.000	0.059	0.245
-322.085	800.000	0.035	-0.096
-321.070	-132.291	-0.182	-0.023
-320.056	-72.455	-0.087	-0.032
-319.041	-34.317	0.109	0.059
-318.026	-114.485	-0.253	-0.048
-317.012	800.000	-0.044	0.173
-315.997	-136.118	-0.087	-0.010
-314.983	-112.613	-0.371	-0.073
-313.968	-200.000	-0.058	-0.299
-312.953	-18.566	-0.079	-0.049
-311.939	-65.803	0.082	0.032
-310.924	-0.589	-0.117	-0.082
-309.910	-200.000	-0.047	0.328
-308.895	15.622	0.052	0.041
-307.880	721.718	-0.104	-0.274
-306.866	198.787	0.163	-0.247
-305.851	-200.000	0.068	0.000
-304.837	-200.000	-0.003	-0.290
-303.822	198.608	0.096	0.146
-302.807	800.000	-0.061	0.183
-301.793	-119.600	0.078	0.013
-300.778	266.039	0.144	0.249
-299.764	-151.012	0.089	-0.007
-298.749	-25.335	0.046	0.027
-297.735	-200.000	-0.051	-0.326
-296.720	23.232	0.226	0.183
-295.705	278.409	-0.364	-0.642
-294.691	-33.468	-0.183	0.100
-293.676	-74.433	-0.051	0.018
-292.662	94.981	0.172	0.193
-291.647	800.000	-0.083	-0.227
-290.632	95.823	-0.057	-0.064
-289.618	-200.000	0.004	-0.269
-288.603	-49.571	-0.111	-0.052
-287.589	-61.679	0.142	-0.059
-286.574	119.479	-0.132	-0.162
-285.559	-98.297	0.193	-0.049
-284.545	26.757	-0.079	-0.066
-283.530	-171.961	-0.225	-0.007
-282.516	-200.000	0.013	0.211
-281.501	204.286	0.063	0.097
-280.486	-24.440	0.128	-0.076
-279.472	-123.684	-0.263	0.041
-278.457	-0.450	0.043	0.030
-277.443	800.000	0.030	0.101
-276.428	25.319	-0.140	0.115
-275.413	-142.968	0.077	-0.007
-274.399	-200.000	0.023	0.281
-273.384	-200.000	0.017	0.264
-272.370	-79.606	0.197	0.066
-271.355	161.790	0.221	0.305
-270.340	152.432	0.190	0.256
-269.326	195.159	-0.043	-0.064
-268.311	-200.000	-0.052	-0.318
-267.297	693.516	-0.130	-0.336
-266.282	-160.358	-0.352	0.019
-265.267	104.318	0.352	-0.409
-264.253	169.659	0.053	-0.075
-263.238	10.198	0.181	0.136
-262.224	1.287	0.481	0.341
-261.209	99.183	0.240	-0.274
-260.195	-84.561	-0.176	0.055
-259.180	-95.457	-0.041	0.011
-258.165	-57.159	0.521	0.227
-257.151	-103.237	0.274	0.064
-256.136	800.000	0.066	0.190
-255.122	-200.000	-0.025	0.135
-254.107	-46.581	-0.083	-0.040
-253.092	-52.032	0.100	-0.046
-252.078	-79.664	0.191	0.063
-251.063	23.542	0.206	-0.167
-250.049	800.000	0.053	-0.223
-249.034	-200.000	-0.016	-0.068
-248.019	146.087	0.220	-0.291
-247.005	-200.000	0.019	0.150
-245.990	9.172	0.253	-0.188
-244.976	207.709	0.332	0.511
-243.961	-149.835	-0.263	-0.020
-242.946	116.064	0.224	0.270
-241.932	-35.370	-0.148	0.079
-240.917	-38.858	0.224	-0.117
-239.903	800.000	0.080	-0.343
-238.888	90.849	0.108	-0.119
-237.873	-200.000	0.048	-0.207
-236.859	-200.000	0.004	-0.175
-235.844	-106.364	0.024	-0.005
-234.830	-200.000	-0.020	-0.106
-233.815	800.000	0.037	-0.135
-232.800	101.709	0.180	-0.207
-231.786	-15.236	-0.078	-0.049
-230.771	-36.205	0.355	-0.189
-229.757	-102.482	0.265	0.063
-228.742	22.696	-0.157	0.126
-227.727	-200.000	0.026	-0.308
-226.713	87.791	-0.250	-0.273
-225.698	82.493	0.119	-0.128
-224.684	-52.909	-0.310	-0.141
-223.669	765.629	0.135	0.362
-222.655	171.056	-0.085	-0.120
-221.640	-132.471	0.234	0.030
-220.625	-40.346	-0.187	-0.096
-219.611	283.570	-0.133	-0.236
-218.596	782.939	-0.152	0.410
-217.582	-25.486	0.195	0.114
-216.567	162.028	-0.188	0.260
-215.552	223.204	0.015	-0.024
-214.538	211.827	-0.264	-0.409
-213.523	800.000	0.068	-0.248
-212.509	800.000	-0.058	-0.226
-211.494	-200.000	-0.012	-0.137
-210.479	-43.599	-0.168	0.084
-209.465	-134.917	-0.078	-0.009
-208.450	81.654	0.116	-0.124
-207.436	-200.000	0.004	0.068
-206.421	800.000	0.051	0.148
-205.406	-164.172	0.366	0.017
-204.392	-56.685	-0.269	0.117
-203.377	-128.902	-0.140	-0.019
-202.363	-200.000	-0.008	-0.057
-201.348	-89.819	0.319	-0.092
-200.333	109.881	-0.142	-0.167
-199.319	72.977	0.050	0.052
-198.304	-200.000	-0.004	0.041
-197.290	-200.000	-0.006	0.140
-196.275	48.225	0.267	0.246
-195.260	160.246	-0.117	-0.161
-194.246	-5.655	0.090	-0.061
-193.231	-9.326	0.171	0.112
-192.217	-200.000	-0.017	0.245
-191.202	800.000	0.053	-0.151
-190.187	-47.918	-0.230	0.110
-189.173	274.571	-0.071	0.124
-188.158	4.041	-0.137	0.099
-187.144	-200.000	0.010	-0.097
-186.129	-125.892	0.177	-0.026
-185.114	-85.510	-0.535	0.164
-184.100	-59.575	-0.216	0.091
-183.085	128.382	-0.220	-0.276
-182.071	64.515	-0.206	-0.204
-181.056	46.774	-0.128	0.117
-180.042	-200.000	-0.048	0.228
-179.027	-76.816	-0.296	0.102
-178.012	-104.395	0.171	0.039
-176.998	-18.324	-0.067	0.041
-175.983	-68.118	-0.342	0.131
-174.969	494.526	-0.026	0.059
-173.954	-200.000	-0.035	0.189
-172.939	87.311	0.060	-0.065
-171.925	-164.295	0.232	-0.010
-170.910	-177.664	0.237	0.006
-169.896	-3.096	-0.265	-0.182
-168.881	35.914	-0.226	0.196
-167.866	-66.080	-0.111	-0.043
-166.852	800.000	-0.017	-0.059
-165.837	-67.209	0.133	-0.051
-164.823	-25.332	0.264	0.154
-163.808	-59.431	0.276	0.117
-162.793	800.000	0.069	0.225
-161.779	45.174	0.158	0.143
-160.764	-154.590	-0.159	0.010
-159.750	800.000	0.055	-0.154
-158.735	1.803	-0.089	0.063
-157.720	-200.000	-0.003	-0.511
-156.706	525.444	-0.113	0.262
-155.691	-116.845	0.277	-0.050
-154.677	102.623	-0.259	-0.298
-153.662	-41.157	0.372	-0.189
-152.647	-44.747	0.155	-0.076
-151.633	-103.333	-0.187	-0.043
-150.618	-4.429	0.121	0.082
-149.604	-147.738	-0.181	-0.015
-148.589	22.971	0.177	-0.143
-147.574	87.190	0.217	0.236
-146.560	395.341	0.049	0.100
-145.545	-40.768	0.026	0.013
-144.531	-107.218	0.386	-0.084
-143.516	-101.228	-0.341	0.082
-142.502	-6.906	-0.167	-0.112
-141.487	-136.677	0.223	0.025
-140.472	-129.763	-0.185	0.025
-139.458	29.042	0.314	0.262
-138.443	412.415	-0.114	0.238
-137.429	-71.327	0.261	0.096
-136.414	-200.000	0.046	-0.406
-135.399	-91.642	0.104	-0.029
-134.385	22.781	-0.062	0.050
-133.370	800.000	-0.078	-0.335
-132.356	82.792	0.168	-0.179
-131.341	-74.979	0.074	0.026
-130.326	58.921	-0.147	0.142
-129.312	-29.025	-0.029	0.016
-128.297	-167.375	0.305	0.012
-127.283	-156.959	-0.142	0.009
-126.268	800.000	-0.020	0.061
-125.253	-72.363	0.237	0.086
-124.239	800.000	0.049	0.177
-123.224	236.415	-0.117	0.191
-122.210	-44.021	0.130	-0.064
-121.195	-81.476	0.114	0.037
