DTS Sentinel unit serial number:	SN413079Multiplexer serial number:	ORYXHardware model number:	OX4-SRSoftware version number:	ORYX F/W v4.00 Oryx Data Collector v3.7.2.0data status	okinstallation	princeton_trtdifferential loss correction	single-endedforward channel	channel 1reverse channel	N/Adate	2019/09/18time	20:26:35forward acquisition time	60.00reverse acquisition time	0.00gamma	496.2192k internal	0.2334k external	0.2334temperature offset calibration	1.0026default loss term (dB/km)	0.3790temperature slope calibration	1.0000multiplexer offset coefficient	1.0000multiplexer slope coefficient	1.0000fibre end	0.00T internal ref (°C)	28.50T ext. ref 1 (°C)	0.93T ext. ref 2 (°C)	19.30length (m)	temperature (°C)	Stokes	anti-Stokes-747.200	-26.169	0.138	-0.082
-746.185	-54.409	0.211	-0.096
-745.171	372.362	0.073	-0.149
-744.156	135.956	-0.184	0.241
-743.142	67.995	0.143	-0.147
-742.127	487.629	-0.067	0.154
-741.112	-13.742	0.393	0.256
-740.098	-200.000	0.055	0.335
-739.083	212.738	0.164	0.261
-738.069	0.921	-0.201	-0.145
-737.054	-138.410	0.473	0.052
-736.039	-138.388	-0.165	-0.018
-735.025	800.000	0.069	0.203
-734.010	-31.048	0.078	0.044
-732.996	20.179	-0.180	-0.146
-731.981	-200.000	-0.020	0.129
-730.966	-126.581	0.253	-0.038
-729.952	144.606	0.207	0.278
-728.937	-200.000	-0.023	-0.151
-727.923	-88.887	0.094	0.028
-726.908	-17.839	0.220	-0.138
-725.894	75.252	-0.169	-0.179
-724.879	-155.785	0.157	-0.010
-723.864	-35.394	0.085	0.046
-722.850	135.876	0.194	-0.254
-721.835	-48.113	-0.331	0.161
-720.821	329.285	0.132	-0.255
-719.806	-121.176	-0.419	-0.070
-718.791	-40.076	-0.100	0.053
-717.777	-52.864	-0.083	-0.038
-716.762	208.311	-0.251	0.394
-715.748	459.380	0.056	0.124
-714.733	800.000	-0.025	0.079
-713.718	-200.000	0.078	-0.406
-712.704	265.590	-0.122	0.213
-711.689	-132.186	-0.429	0.056
-710.675	-157.778	0.212	0.013
-709.660	-52.649	0.232	0.108
-708.645	-65.273	0.194	-0.078
-707.631	-100.451	0.076	0.019
-706.616	217.919	-0.129	0.207
-705.602	-104.979	0.077	-0.018
-704.587	-26.378	0.162	-0.095
-703.572	-2.820	0.208	-0.146
-702.558	433.657	-0.024	-0.053
-701.543	7.279	0.150	-0.113
-700.529	190.031	-0.129	0.194
-699.514	40.711	0.312	0.283
-698.499	602.249	-0.055	-0.138
-697.485	139.677	-0.161	-0.213
-696.470	-70.871	0.323	0.122
-695.456	133.036	0.082	0.106
-694.441	68.369	0.182	0.187
-693.426	-74.711	0.252	-0.091
-692.412	107.536	0.170	0.203
-691.397	-56.113	-0.525	-0.235
-690.383	-29.863	-0.131	-0.075
-689.368	109.026	0.101	0.122
-688.354	-200.000	0.007	0.155
-687.339	-200.000	0.029	0.373
-686.324	150.564	0.153	0.208
-685.310	800.000	-0.072	-0.209
-684.295	800.000	0.024	-0.079
-683.281	-85.839	0.247	-0.077
-682.266	-38.042	-0.240	0.128
-681.251	36.445	-0.142	-0.126
-680.237	237.519	0.027	-0.045
-679.222	800.000	-0.124	-0.363
-678.208	-88.090	0.218	0.066
-677.193	-200.000	-0.020	-0.266
-676.178	312.717	-0.016	-0.031
-675.164	-147.553	-0.343	0.029
-674.149	-148.257	0.221	-0.018
-673.135	-36.643	-0.079	-0.042
-672.120	-200.000	0.009	0.113
-671.105	-200.000	-0.005	0.051
-670.091	-200.000	-0.069	0.451
-669.076	-200.000	-0.055	-0.270
-668.062	89.720	-0.033	0.037
-667.047	39.724	-0.118	0.106
-666.032	146.146	-0.124	0.167
-665.018	-80.058	0.087	0.029
-664.003	94.214	0.029	0.033
-662.989	10.476	-0.153	-0.117
-661.974	-4.386	0.035	-0.024
-660.959	716.983	0.045	-0.121
-659.945	507.717	-0.117	0.273
-658.930	29.225	-0.087	-0.074
-657.916	-65.369	-0.268	-0.108
-656.901	-26.840	-0.181	0.106
-655.886	-34.259	-0.154	0.085
-654.872	-36.933	0.166	-0.089
-653.857	189.928	-0.202	-0.304
-652.843	563.296	0.079	0.191
-651.828	-69.474	0.116	-0.044
-650.814	-84.100	-0.174	0.055
-649.799	179.610	0.078	-0.114
-648.784	-5.190	0.283	-0.195
-647.770	-200.000	-0.008	0.451
-646.755	134.488	-0.112	-0.146
-645.741	-90.634	0.100	-0.029
-644.726	107.714	-0.153	0.183
-643.711	141.364	0.077	-0.102
-642.697	12.350	-0.030	0.023
-641.682	-58.771	-0.306	0.133
-640.668	800.000	0.033	0.110
-639.653	800.000	0.063	-0.206
-638.638	75.742	0.165	-0.174
-637.624	-4.204	-0.105	-0.073
-636.609	-192.742	-0.375	0.003
-635.595	800.000	0.022	0.068
-634.580	290.146	-0.087	0.158
-633.565	231.189	-0.139	0.227
-632.551	-41.575	-0.377	0.194
-631.536	-6.671	-0.307	0.209
-630.522	-69.246	-0.019	0.007
-629.507	-200.000	-0.016	-0.152
-628.492	-139.445	-0.244	-0.026
-627.478	-167.497	-0.052	0.002
-626.463	800.000	0.102	0.347
-625.449	-115.199	-0.188	-0.036
-624.434	-20.096	-0.351	0.216
-623.419	-93.415	0.287	0.080
-622.405	-200.000	-0.005	-0.158
-621.390	7.940	0.106	0.080
-620.376	21.632	0.148	-0.120
-619.361	800.000	-0.040	-0.148
-618.346	620.382	-0.095	-0.239
-617.332	14.586	-0.272	-0.213
-616.317	47.024	0.191	0.177
-615.303	-178.189	0.207	-0.005
-614.288	50.136	0.065	0.061
-613.273	-164.999	0.040	0.002
-612.259	800.000	-0.105	0.389
-611.244	75.069	0.098	0.103
-610.230	-182.726	0.130	-0.002
-609.215	-164.951	-0.336	-0.015
-608.201	-23.465	0.186	0.112
-607.186	800.000	-0.109	-0.366
-606.171	-126.804	-0.363	0.054
-605.157	-86.348	-0.365	0.112
-604.142	-73.477	-0.286	0.105
-603.128	-122.464	0.230	-0.037
-602.113	188.892	0.139	0.207
-601.098	121.490	0.174	-0.216
-600.084	800.000	0.025	0.085
-599.069	220.345	-0.243	-0.390
-598.055	-200.000	0.002	0.057
-597.040	-200.000	0.046	0.349
-596.025	-61.580	0.388	0.163
-595.011	347.536	0.124	0.244
-593.996	102.623	-0.032	-0.037
-592.982	-155.741	-0.381	0.024
-591.967	120.805	0.136	0.169
-590.952	-170.578	0.466	-0.016
-589.938	-200.000	-0.021	0.493
-588.923	204.859	0.028	-0.044
-587.909	39.833	-0.239	0.215
-586.894	-111.648	-0.354	-0.072
-585.879	-174.020	0.158	0.005
-584.865	453.790	0.207	0.459
-583.850	800.000	-0.031	0.086
-582.836	491.807	0.037	0.085
-581.821	800.000	0.040	-0.140
-580.806	517.964	0.117	-0.274
-579.792	-200.000	-0.020	0.366
-578.777	-88.388	0.118	0.035
-577.763	800.000	-0.061	0.208
-576.748	452.666	0.105	-0.232
-575.733	-200.000	-0.022	-0.260
-574.719	348.003	-0.064	0.127
-573.704	800.000	-0.038	-0.114
-572.690	-200.000	-0.021	0.127
-571.675	-49.417	-0.209	0.099
-570.661	-167.044	-0.350	0.014
-569.646	-81.222	-0.230	-0.076
-568.631	270.938	0.021	0.037
-567.617	180.475	-0.014	-0.020
-566.602	138.850	-0.099	0.130
-565.588	569.466	0.085	0.207
-564.573	-200.000	-0.017	0.111
-563.558	-77.172	0.027	-0.009
-562.544	-55.904	0.393	-0.175
-561.529	-105.190	0.167	-0.038
-560.515	-94.831	0.233	-0.063
-559.500	-33.470	0.149	0.082
-558.485	800.000	-0.043	-0.133
-557.471	-200.000	-0.011	-0.108
-556.456	143.216	0.032	-0.042
-555.442	673.751	-0.173	0.448
-554.427	-200.000	0.021	0.231
-553.412	-73.179	0.279	0.102
-552.398	-79.584	0.104	-0.035
-551.383	-200.000	0.005	-0.070
-550.369	800.000	-0.134	-0.459
-549.354	41.850	-0.212	0.192
-548.339	-19.788	-0.322	0.198
-547.325	509.511	-0.196	0.454
-546.310	-56.851	-0.136	-0.060
-545.296	800.000	-0.016	-0.045
-544.281	-200.000	0.050	0.293
-543.266	-200.000	0.197	-0.001
-542.252	-18.332	0.167	-0.104
-541.237	-46.063	-0.183	0.090
-540.223	20.202	-0.206	-0.166
-539.208	-200.000	0.030	0.362
-538.193	185.967	0.092	0.137
-537.179	145.611	0.233	-0.311
-536.164	-22.685	-0.112	-0.067
-535.150	-65.781	0.104	-0.042
-534.135	-200.000	0.013	0.439
-533.121	69.203	0.148	-0.152
-532.106	-38.722	0.397	-0.209
-531.091	-25.623	0.071	-0.042
-530.077	58.956	0.246	0.241
-529.062	-96.070	0.101	-0.027
-528.048	-59.890	0.181	0.077
-527.033	-200.000	-0.048	0.302
-526.018	800.000	-0.067	-0.245
-525.004	651.656	0.038	0.097
-523.989	199.895	-0.100	0.152
-522.975	800.000	-0.069	-0.270
-521.960	800.000	-0.010	0.037
-520.945	-124.603	0.178	-0.028
-519.931	800.000	-0.041	-0.138
-518.916	-200.000	0.048	-0.297
-517.902	-73.520	-0.323	-0.118
-516.887	-102.099	0.171	-0.041
-515.872	-200.000	0.016	0.178
-514.858	-62.961	-0.228	0.094
-513.843	800.000	0.056	0.219
-512.829	-200.000	0.025	0.192
-511.814	-0.400	-0.034	-0.024
-510.799	800.000	0.069	0.215
-509.785	-200.000	0.019	0.150
-508.770	213.887	-0.125	-0.197
-507.756	-107.803	0.267	-0.058
-506.741	555.901	-0.053	-0.127
-505.726	-108.862	0.306	0.065
-504.712	135.795	0.271	-0.351
-503.697	-200.000	-0.010	0.044
-502.683	662.435	-0.128	0.329
-501.668	-57.276	-0.175	0.077
-500.653	-81.332	0.169	0.055
-499.639	800.000	0.060	0.225
-498.624	-9.201	-0.068	0.045
-497.610	20.804	-0.168	0.135
-496.595	-128.585	0.140	-0.020
-495.581	45.436	-0.167	-0.154
-494.566	-161.438	0.168	0.009
-493.551	-200.000	0.037	-0.224
-492.537	-152.716	0.104	-0.007
-491.522	-67.834	0.105	0.041
-490.508	800.000	-0.018	0.056
-489.493	-23.330	0.360	-0.215
-488.478	94.665	-0.222	-0.251
-487.464	800.000	-0.074	-0.242
-486.449	-148.104	-0.144	0.012
-485.435	32.032	0.167	0.143
-484.420	126.671	0.080	-0.101
-483.405	-76.565	-0.369	-0.129
-482.391	-63.642	-0.296	-0.121
-481.376	164.696	0.062	-0.086
-480.362	617.306	-0.058	-0.145
-479.347	83.710	-0.022	0.024
-478.332	28.236	0.102	0.085
-477.318	-53.743	-0.421	0.191
-476.303	-78.464	-0.101	0.034
-475.289	-85.055	-0.159	-0.049
-474.274	-135.362	0.310	0.037
-473.259	-200.000	0.047	-0.231
-472.245	81.848	0.307	-0.330
-471.230	-152.850	0.211	-0.015
-470.216	800.000	-0.086	0.302
-469.201	-200.000	-0.028	-0.348
-468.186	-200.000	-0.016	-0.222
-467.172	20.935	0.029	0.023
-466.157	764.281	-0.018	0.048
-465.143	684.095	-0.064	0.167
-464.128	46.455	-0.058	-0.054
-463.113	214.577	-0.107	-0.168
-462.099	-200.000	-0.023	-0.319
-461.084	800.000	0.063	0.273
-460.070	-125.691	0.341	0.051
-459.055	-137.314	-0.301	-0.034
-458.040	-2.737	-0.159	-0.111
-457.026	-32.356	-0.165	0.092
-456.011	98.007	0.385	-0.440
-454.997	322.296	0.089	0.168
-453.982	800.000	0.121	0.334
-452.968	-103.968	-0.334	-0.077
-451.953	-128.022	-0.334	-0.048
-450.938	800.000	0.053	0.171
-449.924	-200.000	0.031	0.281
-448.909	229.505	0.103	0.167
-447.895	-36.201	-0.186	0.100
-446.880	-200.000	0.035	0.468
-445.865	246.234	-0.059	0.098
-444.851	800.000	-0.081	-0.227
-443.836	800.000	-0.041	0.150
-442.822	-200.000	0.036	0.295
-441.807	-107.339	-0.208	0.045
-440.792	527.013	-0.012	-0.029
-439.778	34.966	-0.244	-0.212
-438.763	322.542	-0.008	0.015
-437.749	-200.000	0.024	0.280
-436.734	-26.163	0.158	-0.092
-435.719	-129.829	-0.148	-0.020
-434.705	-200.000	-0.021	-0.299
-433.690	-71.515	0.352	-0.131
-432.676	800.000	-0.077	-0.240
-431.661	-27.757	-0.104	-0.060
-430.646	644.808	-0.095	-0.242
-429.632	-91.507	-0.068	-0.019
-428.617	187.361	0.121	-0.180
-427.603	-200.000	-0.075	-0.453
-426.588	-200.000	0.007	-0.177
-425.573	800.000	0.050	0.139
-424.559	-134.121	-0.176	0.022
-423.544	-62.058	0.210	0.087
-422.530	-200.000	0.031	-0.148
-421.515	-54.700	0.360	0.162
-420.500	-12.349	0.048	-0.031
-419.486	774.375	-0.107	-0.288
-418.471	-200.000	-0.033	0.180
-417.457	-165.028	-0.063	-0.003
-416.442	190.183	-0.086	-0.128
-415.428	-38.537	-0.128	-0.067
-414.413	-90.111	-0.125	0.036
-413.398	-152.449	-0.325	0.023
-412.384	19.701	-0.068	-0.054
-411.369	-44.082	0.356	0.178
-410.355	42.254	0.069	-0.062
-409.340	-94.927	0.288	0.077
-408.325	-200.000	0.061	0.319
-407.311	188.216	0.113	-0.167
-406.296	-67.854	0.222	-0.086
-405.282	46.218	-0.285	0.262
-404.267	614.152	0.077	0.190
-403.252	521.946	0.059	0.137
-402.238	138.837	-0.120	-0.156
-401.223	-200.000	-0.092	-0.426
-400.209	-200.000	-0.048	-0.434
-399.194	-200.000	-0.021	-0.140
-398.179	428.667	0.083	0.178
-397.165	327.500	-0.132	-0.251
-396.150	208.401	0.049	-0.075
-395.136	-200.000	-0.002	0.030
-394.121	214.108	-0.030	0.047
-393.106	17.169	0.171	-0.134
-392.092	116.043	-0.110	0.134
-391.077	-98.129	0.145	-0.037
-390.063	-68.818	0.191	-0.073
-389.048	197.118	-0.094	-0.142
-388.033	619.640	-0.152	-0.379
-387.019	-192.586	0.143	-0.001
-386.004	-86.871	0.117	0.035
-384.990	-40.939	0.087	0.045
-383.975	-23.803	-0.233	0.138
-382.960	274.749	-0.194	0.341
-381.946	186.861	0.079	-0.117
-380.931	124.140	0.342	0.425
-379.917	505.991	-0.108	0.248
-378.902	67.074	0.093	-0.094
-377.888	-143.829	-0.095	-0.009
-376.873	503.567	0.055	-0.125
-375.858	-36.918	-0.376	0.200
-374.844	410.080	0.114	0.240
-373.829	-61.265	0.160	-0.067
-372.815	84.354	0.273	-0.295
-371.800	78.584	0.263	-0.278
-370.785	-200.000	-0.020	0.133
-369.771	-8.418	0.190	-0.126
-368.756	800.000	0.038	-0.121
-367.742	184.254	0.136	0.199
-366.727	310.228	0.196	0.364
-365.712	-0.742	0.160	-0.113
-364.698	-171.570	-0.180	-0.006
-363.683	-56.370	0.148	0.065
-362.669	-200.000	0.027	0.244
-361.654	45.188	0.282	0.258
-360.639	635.877	0.050	0.126
-359.625	-86.186	0.070	0.021
-358.610	800.000	-0.070	-0.266
-357.596	-200.000	-0.003	0.082
-356.581	800.000	0.026	0.085
-355.566	-126.413	-0.273	-0.040
-354.552	-27.701	-0.066	0.038
-353.537	-81.380	0.082	-0.027
-352.523	392.293	-0.047	0.097
-351.508	-156.515	0.140	0.009
-350.493	-93.087	0.137	0.038
-349.479	-89.765	0.133	-0.038
-348.464	800.000	-0.028	0.094
-347.450	-93.233	-0.318	-0.087
-346.435	800.000	-0.102	0.346
-345.420	98.712	-0.167	0.191
-344.406	800.000	0.066	-0.217
-343.391	-24.367	-0.122	0.072
-342.377	800.000	-0.104	-0.390
-341.362	-87.263	-0.180	-0.054
-340.348	95.170	-0.108	-0.122
-339.333	800.000	0.130	0.439
-338.318	310.739	-0.029	-0.054
-337.304	-20.489	-0.018	0.011
-336.289	-200.000	0.029	-0.155
-335.275	303.317	0.153	-0.280
-334.260	30.922	0.095	0.080
-333.245	-18.288	-0.409	0.253
-332.231	42.946	0.042	0.037
-331.216	-168.218	0.171	0.007
-330.202	80.202	-0.191	-0.203
-329.187	97.314	-0.144	-0.164
-328.172	113.097	-0.125	-0.150
-327.158	-81.495	-0.325	0.106
-326.143	396.617	-0.173	0.357
-325.129	144.942	-0.191	0.253
-324.114	1.462	0.238	-0.169
-323.099	383.927	-0.239	-0.487
-322.085	-200.000	-0.019	0.209
-321.070	-200.000	0.047	0.333
-320.056	27.979	0.167	-0.139
-319.041	-43.316	0.282	-0.141
-318.026	32.626	-0.061	-0.052
-317.012	800.000	0.110	-0.313
-315.997	6.197	0.146	-0.107
-314.983	-156.317	-0.227	-0.014
-313.968	765.567	-0.026	0.070
-312.953	9.424	-0.096	0.072
-311.939	800.000	-0.041	-0.163
-310.924	554.905	0.087	0.206
-309.910	531.681	0.050	-0.117
-308.895	800.000	-0.085	-0.242
-307.880	-71.493	-0.150	0.055
-306.866	-174.134	0.036	-0.001
-305.851	-45.317	0.193	-0.095
-304.837	-200.000	0.014	-0.176
-303.822	530.139	-0.034	0.080
-302.807	800.000	-0.161	-0.443
-301.793	183.162	0.076	0.110
-300.778	-53.806	0.148	0.067
-299.764	-40.677	-0.431	-0.221
-298.749	-53.848	-0.216	0.097
-297.735	797.792	0.057	-0.156
-296.720	299.379	-0.062	-0.112
-295.705	271.562	0.190	-0.331
-294.691	-49.464	0.236	-0.111
-293.676	800.000	-0.073	-0.283
-292.662	-169.154	0.223	0.008
-291.647	-9.217	0.152	-0.100
-290.632	-200.000	-0.003	-0.076
-289.618	76.120	0.162	-0.169
-288.603	411.861	0.066	0.138
-287.589	-46.540	0.199	-0.096
-286.574	28.975	-0.124	-0.104
-285.559	-73.764	-0.228	0.082
-284.545	-182.293	0.404	0.007
-283.530	-8.025	-0.258	-0.172
-282.516	800.000	0.047	0.167
-281.501	651.846	0.028	0.072
-280.486	-169.167	-0.166	-0.006
-279.472	91.613	0.290	0.322
-278.457	49.418	0.062	0.057
-277.443	-36.747	-0.377	0.200
-276.428	192.163	-0.140	0.208
-275.413	-49.721	-0.125	-0.059
-274.399	137.370	0.082	0.106
-273.384	-45.621	-0.375	-0.183
-272.370	-143.215	0.427	-0.041
-271.355	-14.710	-0.156	-0.099
-270.340	-20.250	0.075	0.045
-269.326	-200.000	-0.023	0.185
-268.311	800.000	0.083	-0.281
-267.297	-200.000	0.033	0.157
-266.282	-37.965	0.237	-0.124
-265.267	-146.703	-0.147	-0.013
-264.253	-3.760	0.203	0.139
-263.238	-39.390	-0.170	0.088
-262.224	800.000	0.016	0.044
-261.209	26.705	0.272	-0.225
-260.195	-110.816	-0.164	-0.033
-259.180	-200.000	0.027	0.217
-258.165	274.110	0.244	0.425
-257.151	206.545	0.271	0.417
-256.136	-200.000	-0.012	-0.098
-255.122	325.150	-0.049	-0.093
-254.107	-9.492	0.225	-0.148
-253.092	-19.892	-0.193	0.117
-252.078	800.000	-0.048	0.157
-251.063	-200.000	-0.012	-0.063
-250.049	-113.480	-0.171	-0.033
-249.034	-124.996	-0.105	-0.016
-248.019	-90.039	0.222	0.064
-247.005	-19.848	0.354	-0.216
-245.990	118.901	-0.111	-0.135
-244.976	183.957	0.030	0.043
-243.961	-157.747	0.023	0.001
-242.946	800.000	0.150	-0.494
-241.932	-162.482	-0.241	0.012
-240.917	-200.000	-0.185	0.000
-239.903	-200.000	0.016	-0.251
-238.888	-20.069	-0.041	-0.025
-237.873	800.000	0.094	0.267
-236.859	-200.000	-0.015	0.297
-235.844	83.022	0.155	-0.166
-234.830	3.014	0.275	0.197
-233.815	10.287	-0.296	0.222
-232.800	80.933	0.034	0.036
-231.786	35.906	0.126	-0.109
-230.771	138.941	0.223	-0.288
-229.757	302.114	-0.086	0.156
-228.742	-126.308	-0.283	-0.042
-227.727	-68.639	-0.047	0.018
-226.713	-10.364	-0.159	-0.104
-225.698	-97.499	-0.042	0.011
-224.684	444.748	-0.051	-0.111
-223.669	-95.013	-0.139	0.037
-222.655	-109.541	-0.073	0.015
-221.640	-200.000	-0.005	0.279
-220.625	-31.600	0.223	0.123
-219.611	-121.250	-0.335	-0.055
-218.596	-162.764	0.219	0.011
-217.582	-99.243	-0.258	-0.064
-216.567	52.213	-0.202	0.190
-215.552	23.467	0.158	-0.128
-214.538	727.131	0.073	-0.191
-213.523	-11.853	0.137	-0.088
-212.509	-52.818	-0.380	0.173
-211.494	800.000	-0.064	-0.220
-210.479	74.072	-0.105	-0.108
-209.465	189.358	-0.100	0.147
-208.450	-15.217	0.284	-0.179
-207.436	154.709	0.178	0.241
-206.421	-9.881	0.260	0.171
-205.406	-168.278	0.027	-0.001
-204.392	-127.333	-0.149	-0.021
-203.377	101.826	-0.164	0.188
-202.363	-130.407	0.257	0.034
-201.348	-46.916	0.064	0.031
-200.333	218.835	0.172	-0.271
-199.319	800.000	-0.120	0.414
-198.304	-186.681	-0.344	0.005
-197.290	-70.116	0.394	-0.148
-196.275	800.000	0.020	-0.063
-195.260	27.092	0.076	-0.062
-194.246	-21.553	0.271	-0.163
-193.231	-200.000	-0.005	0.095
-192.217	-200.000	-0.014	-0.341
-191.202	70.600	-0.173	-0.176
-190.187	-52.764	-0.527	-0.239
-189.173	243.983	0.192	0.318
-188.158	-32.473	-0.226	0.124
-187.144	373.646	0.105	-0.211
-186.129	-200.000	0.030	-0.351
-185.114	-56.012	0.229	-0.100
-184.100	-177.582	0.111	-0.003
-183.085	83.879	-0.143	-0.153
-182.071	-200.000	-0.095	-0.422
-181.056	-146.450	-0.107	0.009
-180.042	-26.388	0.245	0.142
-179.027	99.736	-0.024	0.028
-178.012	-26.782	-0.219	0.126
-176.998	101.148	-0.109	0.124
-175.983	644.771	0.103	0.258
-174.969	584.916	-0.029	-0.071
-173.954	125.253	-0.256	0.318
-172.939	-200.000	0.172	-0.000
-171.925	43.146	-0.249	-0.223
-170.910	-200.000	-0.004	-0.043
-169.896	-120.655	-0.247	-0.041
-168.881	-142.327	0.363	0.035
-167.866	-200.000	0.001	-0.042
-166.852	23.238	0.112	-0.091
-165.837	-200.000	-0.003	-0.318
-164.823	-13.262	0.133	0.085
-163.808	-127.877	-0.053	-0.008
-162.793	-28.277	-0.244	-0.138
-161.779	5.135	-0.167	-0.121
-160.764	-200.000	0.017	-0.259
-159.750	-127.537	0.268	-0.038
-158.735	-94.114	-0.363	0.098
-157.720	-93.674	-0.196	-0.053
-156.706	-164.804	0.242	-0.011
-155.691	-146.021	0.262	0.023
-154.677	-123.695	0.138	-0.022
-153.662	59.624	0.236	0.229
-152.647	165.863	0.133	-0.185
-151.633	15.195	0.237	-0.183
-150.618	800.000	0.026	0.104
-149.604	82.199	-0.202	-0.215
-148.589	515.282	0.140	0.320
-147.574	49.724	-0.065	-0.060
-146.560	-45.803	0.208	-0.101
-145.545	800.000	-0.127	-0.352
-144.531	-200.000	0.009	-0.060
-143.516	-200.000	0.023	0.129
-142.502	-200.000	-0.013	-0.188
-141.487	-120.722	-0.207	-0.034
-140.472	-66.313	-0.116	0.045
-139.458	341.603	-0.014	0.027
-138.443	-45.502	-0.188	-0.091
-137.429	-200.000	0.010	0.221
-136.414	-90.896	0.107	0.030
-135.399	3.761	0.433	-0.310
-134.385	-200.000	-0.012	-0.144
-133.370	333.856	0.051	0.098
-132.356	800.000	-0.081	0.242
-131.341	-35.472	0.126	-0.067
-130.326	-200.000	-0.017	-0.289
-129.312	-78.806	0.110	-0.037
-128.297	-146.203	0.315	-0.027
-127.283	-17.575	-0.135	0.083
-126.268	94.768	-0.042	0.047
-125.253	800.000	-0.055	0.223
-124.239	-200.000	0.035	0.249
-123.224	-65.839	0.223	0.088
-122.210	-200.000	0.011	-0.419
-121.195	-171.975	0.288	-0.009
