DTS Sentinel unit serial number:	SN413079Multiplexer serial number:	ORYXHardware model number:	OX4-SRSoftware version number:	ORYX F/W v4.00 Oryx Data Collector v3.7.2.0data status	okinstallation	princeton_trtdifferential loss correction	single-endedforward channel	channel 1reverse channel	N/Adate	2019/09/18time	21:38:35forward acquisition time	60.00reverse acquisition time	0.00gamma	496.2192k internal	0.2341k external	0.2341temperature offset calibration	1.0019default loss term (dB/km)	0.3790temperature slope calibration	1.0000multiplexer offset coefficient	1.0000multiplexer slope coefficient	1.0000fibre end	0.00T internal ref (°C)	25.03T ext. ref 1 (°C)	0.82T ext. ref 2 (°C)	18.31length (m)	temperature (°C)	Stokes	anti-Stokes-747.200	800.000	0.104	-0.351
-746.185	49.932	-0.099	0.093
-745.171	-113.823	-0.138	0.027
-744.156	-112.893	-0.092	0.018
-743.142	800.000	-0.068	0.190
-742.127	-200.000	0.053	0.350
-741.112	-190.248	0.292	0.003
-740.098	25.181	0.018	-0.015
-739.083	-117.675	0.324	0.058
-738.069	2.165	-0.365	0.265
-737.054	523.706	0.166	0.391
-736.039	-50.025	-0.488	-0.232
-735.025	89.216	0.195	-0.218
-734.010	-200.000	0.057	-0.470
-732.996	-92.201	-0.205	-0.058
-731.981	800.000	0.027	0.079
-730.966	751.823	0.046	-0.125
-729.952	-200.000	-0.002	-0.246
-728.937	-200.000	-0.013	0.103
-727.923	649.167	-0.096	-0.246
-726.908	-200.000	0.084	-0.515
-725.894	800.000	-0.096	-0.270
-724.879	-73.154	-0.238	0.087
-723.864	-134.956	-0.105	-0.013
-722.850	-147.028	0.122	-0.010
-721.835	-200.000	0.018	-0.146
-720.821	19.211	-0.195	0.157
-719.806	-106.009	-0.272	0.061
-718.791	36.972	0.084	0.074
-717.777	-105.765	-0.057	-0.013
-716.762	-2.417	0.310	0.217
-715.748	-82.370	-0.127	-0.041
-714.733	-58.051	-0.087	0.038
-713.718	800.000	0.127	0.446
-712.704	-99.434	-0.099	-0.025
-711.689	237.882	-0.134	-0.223
-710.675	-81.194	0.359	-0.119
-709.660	207.464	0.060	0.094
-708.645	-169.997	0.240	0.009
-707.631	800.000	-0.056	0.243
-706.616	-73.839	0.260	-0.095
-705.602	282.484	-0.023	0.042
-704.587	-5.195	0.038	-0.026
-703.572	-129.439	-0.381	-0.053
-702.558	288.629	0.101	0.182
-701.543	208.269	-0.150	-0.235
-700.529	632.912	-0.035	0.089
-699.514	800.000	-0.058	-0.242
-698.499	-127.526	-0.149	-0.022
-697.485	-8.512	-0.240	0.161
-696.470	-158.790	-0.139	0.008
-695.456	167.374	-0.028	-0.040
-694.441	-114.105	-0.443	0.086
-693.426	-200.000	-0.009	-0.173
-692.412	-153.659	-0.199	-0.014
-691.397	-64.584	0.241	-0.098
-690.383	-200.000	-0.012	0.220
-689.368	285.730	-0.201	0.362
-688.354	-145.112	-0.117	0.011
-687.339	261.144	-0.077	-0.134
-686.324	-103.439	-0.113	-0.027
-685.310	-62.870	-0.183	-0.076
-684.295	-189.364	-0.059	0.001
-683.281	-126.757	-0.358	0.053
-682.266	-65.894	0.348	-0.139
-681.251	400.928	0.136	0.285
-680.237	800.000	0.026	-0.098
-679.222	53.412	0.146	-0.140
-678.208	-111.565	-0.092	0.019
-677.193	-89.903	-0.101	-0.029
-676.178	-61.059	0.245	0.103
-675.164	-142.413	-0.032	-0.003
-674.149	-200.000	-0.017	0.076
-673.135	-4.851	0.095	0.066
-672.120	17.392	-0.168	0.133
-671.105	5.813	-0.061	0.045
-670.091	125.871	-0.292	-0.369
-669.076	65.375	-0.023	0.023
-668.062	-143.271	-0.050	-0.005
-667.047	-200.000	-0.014	0.238
-666.032	738.650	0.136	-0.364
-665.018	51.208	0.091	-0.086
-664.003	800.000	0.055	0.177
-662.989	-200.000	-0.001	-0.265
-661.974	33.576	0.188	-0.163
-660.959	800.000	-0.074	0.229
-659.945	800.000	0.013	0.054
-658.930	260.297	0.104	0.180
-657.916	-57.337	0.222	-0.097
-656.901	800.000	0.067	0.186
-655.886	3.342	0.068	-0.049
-654.872	-149.785	-0.181	-0.014
-653.857	-105.602	0.329	-0.074
-652.843	800.000	-0.114	-0.389
-651.828	800.000	-0.089	-0.327
-650.814	-146.279	0.245	-0.021
-649.799	-189.022	-0.268	0.003
-648.784	-200.000	0.009	0.221
-647.770	-39.041	-0.139	0.073
-646.755	121.107	0.042	0.052
-645.741	-95.827	0.318	-0.085
-644.726	1.881	0.354	-0.255
-643.711	-82.916	0.005	0.002
-642.697	-200.000	-0.013	0.063
-641.682	7.803	-0.042	0.031
-640.668	-77.045	-0.082	-0.029
-639.653	-64.167	0.147	0.060
-638.638	-24.026	-0.079	-0.047
-637.624	113.485	-0.209	-0.254
-636.609	31.741	-0.081	-0.070
-635.595	575.738	0.022	-0.054
-634.580	-44.220	-0.332	-0.166
-633.565	-200.000	0.013	-0.434
-632.551	-200.000	0.005	0.028
-631.536	800.000	0.080	-0.227
-630.522	161.841	0.067	0.094
-629.507	800.000	-0.061	-0.236
-628.492	-169.737	0.064	0.002
-627.478	-102.545	-0.160	-0.038
-626.463	-200.000	0.007	-0.140
-625.449	373.079	0.077	-0.157
-624.434	124.699	-0.140	0.176
-623.419	-5.908	-0.148	0.101
-622.405	800.000	0.080	-0.291
-621.390	-43.224	0.076	0.038
-620.376	111.770	-0.179	0.215
-619.361	-180.916	0.352	0.007
-618.346	67.829	-0.254	0.259
-617.332	-99.088	0.267	0.067
-616.317	336.049	-0.034	-0.067
-615.303	-19.472	0.125	0.077
-614.288	430.912	-0.100	0.217
-613.273	-15.397	0.126	-0.080
-612.259	0.770	0.078	-0.055
-611.244	-200.000	-0.017	-0.193
-610.230	-200.000	-0.021	0.225
-609.215	62.023	-0.148	0.147
-608.201	-200.000	0.049	-0.223
-607.186	-87.888	0.285	-0.086
-606.171	-200.000	0.007	0.093
-605.157	-13.777	0.087	-0.056
-604.142	15.140	0.247	-0.193
-603.128	-20.197	-0.202	0.124
-602.113	218.517	-0.098	0.156
-601.098	122.655	-0.249	0.311
-600.084	-53.605	0.179	0.082
-599.069	357.273	-0.176	0.350
-598.055	-112.302	0.177	0.035
-597.040	-200.000	-0.039	0.174
-596.025	141.129	-0.212	-0.279
-595.011	800.000	0.050	0.193
-593.996	-79.452	-0.203	0.068
-592.982	23.801	0.125	0.103
-591.967	-72.443	0.125	-0.046
-590.952	40.431	-0.155	-0.139
-589.938	30.791	-0.236	0.201
-588.923	186.479	-0.221	0.328
-587.909	797.778	-0.035	-0.096
-586.894	73.977	-0.135	0.141
-585.879	800.000	-0.072	-0.216
-584.865	16.290	0.143	0.112
-583.850	-111.928	-0.311	0.063
-582.836	29.345	-0.064	-0.054
-581.821	-200.000	-0.056	-0.257
-580.806	-54.419	0.104	0.047
-579.792	-11.937	-0.158	0.103
-578.777	-200.000	0.010	-0.119
-577.763	-78.367	0.286	-0.098
-576.748	-116.150	0.106	0.020
-575.733	-55.275	-0.114	0.051
-574.719	9.995	0.152	-0.115
-573.704	25.508	0.111	-0.092
-572.690	-200.000	0.000	-0.361
-571.675	120.097	0.132	0.163
-570.661	24.851	0.197	0.162
-569.646	-200.000	0.028	0.191
-568.631	-44.493	0.132	-0.066
-567.617	800.000	0.070	-0.193
-566.602	800.000	-0.018	-0.076
-565.588	800.000	0.013	0.047
-564.573	-103.385	0.159	0.037
-563.558	-200.000	-0.010	-0.067
-562.544	108.096	0.256	-0.304
-561.529	-52.973	0.157	-0.072
-560.515	70.206	0.204	-0.209
-559.500	25.817	0.181	0.150
-558.485	124.821	-0.166	-0.208
-557.471	-200.000	-0.007	0.201
-556.456	-20.063	-0.405	-0.248
-555.442	-167.072	0.156	-0.006
-554.427	285.856	-0.051	-0.092
-553.412	-133.048	0.121	-0.015
-552.398	474.698	0.006	0.014
-551.383	-200.000	0.015	0.183
-550.369	8.969	-0.195	0.147
-549.354	-200.000	-0.026	0.275
-548.339	-149.921	-0.192	0.015
-547.325	756.453	-0.030	0.081
-546.310	-67.070	0.340	-0.133
-545.296	800.000	-0.029	0.103
-544.281	-200.000	-0.007	0.217
-543.266	-200.000	0.046	-0.297
-542.252	-78.868	0.231	-0.078
-541.237	-7.685	-0.230	0.154
-540.223	363.649	-0.013	-0.026
-539.208	-15.709	-0.287	-0.182
-538.193	-200.000	-0.032	0.248
-537.179	800.000	0.121	-0.406
-536.164	94.332	0.184	-0.208
-535.150	-122.455	-0.217	-0.035
-534.135	66.859	-0.232	0.235
-533.121	-133.161	-0.047	0.006
-532.106	15.841	0.048	-0.037
-531.091	-200.000	0.001	-0.227
-530.077	250.605	0.051	-0.086
-529.062	525.686	-0.112	0.261
-528.048	27.705	0.129	-0.108
-527.033	-118.092	0.373	0.066
-526.018	-48.506	-0.075	-0.036
-525.004	-42.742	0.373	-0.188
-523.989	-110.168	0.102	0.021
-522.975	-200.000	0.028	-0.161
-521.960	-26.017	-0.384	0.225
-520.945	-76.926	0.201	-0.070
-519.931	-200.000	-0.029	0.154
-518.916	800.000	0.046	0.189
-517.902	-14.693	-0.497	-0.317
-516.887	-30.880	0.175	-0.098
-515.872	150.152	-0.259	0.350
-514.858	-131.079	0.288	0.038
-513.843	-114.626	-0.320	0.061
-512.829	10.644	-0.269	-0.204
-511.814	-122.529	0.043	0.007
-510.799	-129.897	-0.417	-0.057
-509.785	324.574	-0.098	0.185
-508.770	168.548	0.149	0.211
-507.756	-12.339	0.115	-0.074
-506.741	-170.164	0.268	0.009
-505.726	130.362	-0.052	-0.066
-504.712	276.476	-0.143	-0.253
-503.697	-200.000	0.057	-0.373
-502.683	-43.990	-0.290	0.145
-501.668	-38.068	-0.341	-0.180
-500.653	-52.466	-0.114	-0.052
-499.639	-38.401	-0.301	0.158
-498.624	554.611	0.070	0.167
-497.610	-200.000	0.019	0.339
-496.595	209.210	-0.055	0.086
-495.581	-2.164	-0.104	0.073
-494.566	111.048	-0.170	-0.203
-493.551	138.622	0.112	0.146
-492.537	-200.000	0.034	-0.147
-491.522	-99.125	-0.285	0.072
-490.508	143.880	0.178	-0.236
-489.493	73.440	-0.071	-0.074
-488.478	193.532	-0.030	0.045
-487.464	-74.358	0.313	-0.112
-486.449	-67.959	-0.321	-0.124
-485.435	-121.823	-0.435	0.071
-484.420	-63.547	-0.366	0.149
-483.405	24.162	-0.099	-0.081
-482.391	17.484	-0.156	-0.123
-481.376	194.863	-0.083	0.126
-480.362	-34.446	0.102	-0.055
-479.347	800.000	-0.044	-0.174
-478.332	70.937	0.168	0.173
-477.318	-200.000	-0.005	0.086
-476.303	-61.186	0.100	-0.042
-475.289	800.000	0.062	-0.182
-474.274	70.208	-0.127	0.130
-473.259	734.048	0.065	0.172
-472.245	-17.643	-0.110	0.069
-471.230	17.611	-0.205	-0.162
-470.216	21.523	-0.079	-0.064
-469.201	180.673	-0.132	-0.192
-468.186	800.000	0.031	-0.113
-467.172	289.579	-0.137	0.246
-466.157	90.626	-0.065	0.073
-465.143	-200.000	-0.056	-0.490
-464.128	800.000	-0.087	-0.290
-463.113	255.277	0.080	-0.136
-462.099	800.000	-0.043	0.118
-461.084	-70.304	0.150	0.056
-460.070	378.914	0.057	-0.115
-459.055	115.330	0.207	0.250
-458.040	-200.000	0.004	-0.045
-457.026	259.451	-0.126	-0.215
-456.011	123.063	0.093	0.116
-454.997	800.000	0.056	0.207
-453.982	-26.670	-0.276	-0.160
-452.968	-38.982	0.101	-0.052
-451.953	-200.000	-0.013	-0.272
-450.938	162.740	0.050	0.069
-449.924	143.885	0.053	-0.070
-448.909	-109.851	-0.232	-0.048
-447.895	-127.652	0.189	-0.027
-446.880	-20.853	0.186	-0.113
-445.865	-47.277	0.200	-0.096
-444.851	-21.257	0.287	-0.174
-443.836	-19.764	0.098	-0.060
-442.822	-200.000	0.036	-0.186
-441.807	800.000	-0.074	-0.226
-440.792	-77.941	0.178	0.061
-439.778	-80.694	0.158	-0.052
-438.763	-200.000	-0.015	-0.450
-437.749	483.328	-0.055	0.125
-436.734	59.317	0.076	0.074
-435.719	246.141	-0.059	0.098
-434.705	-162.948	0.384	-0.018
-433.690	-7.202	-0.225	0.151
-432.676	-39.205	-0.143	-0.074
-431.661	-144.356	0.043	-0.004
-430.646	-200.000	-0.059	-0.293
-429.632	-107.234	-0.325	-0.071
-428.617	-2.770	0.338	-0.234
-427.603	-200.000	-0.010	-0.254
-426.588	-79.288	-0.245	0.082
-425.573	238.007	-0.089	0.146
-424.559	309.464	0.245	0.454
-423.544	513.843	0.082	0.190
-422.530	-100.280	0.009	-0.002
-421.515	-20.051	-0.110	0.067
-420.500	-166.682	-0.154	0.006
-419.486	-46.972	-0.204	-0.099
-418.471	-96.246	-0.111	0.029
-417.457	-200.000	-0.004	0.066
-416.442	1.888	0.082	-0.059
-415.428	-82.629	0.127	0.041
-414.413	221.831	0.062	0.098
-413.398	2.594	0.045	-0.033
-412.384	266.512	-0.114	0.197
-411.369	-29.399	-0.213	0.120
-410.355	-200.000	-0.016	-0.150
-409.340	-136.662	-0.153	0.017
-408.325	-200.000	-0.009	-0.209
-407.311	800.000	-0.020	-0.074
-406.296	-200.000	-0.031	0.160
-405.282	800.000	0.058	-0.198
-404.267	635.352	-0.082	0.205
-403.252	-200.000	0.011	0.062
-402.238	-114.322	-0.434	0.083
-401.223	83.724	0.428	-0.462
-400.209	-200.000	0.006	-0.189
-399.194	-73.560	0.350	0.126
-398.179	800.000	0.043	-0.139
-397.165	253.909	-0.119	-0.201
-396.150	0.852	-0.213	-0.151
-395.136	-124.243	-0.154	-0.024
-394.121	24.960	-0.117	0.096
-393.106	-200.000	-0.073	-0.430
-392.092	186.454	0.131	0.193
-391.077	116.429	-0.109	0.132
-390.063	-200.000	0.014	0.185
-389.048	-118.406	0.053	0.009
-388.033	1.960	-0.442	0.315
-387.019	231.084	0.098	0.158
-386.004	800.000	-0.048	-0.205
-384.990	-200.000	-0.037	0.179
-383.975	800.000	0.018	-0.075
-382.960	-139.739	-0.070	-0.007
-381.946	-104.339	0.358	0.082
-380.931	-200.000	0.023	0.154
-379.917	-126.514	0.126	0.019
-378.902	-37.394	0.155	-0.082
-377.888	-82.996	-0.139	0.044
-376.873	-200.000	0.005	-0.051
-375.858	-114.671	0.037	0.007
-374.844	-200.000	0.062	0.283
-373.829	-200.000	0.029	0.277
-372.815	15.856	-0.074	-0.058
-371.800	-75.079	0.120	-0.042
-370.785	12.592	-0.132	0.101
-369.771	-200.000	0.198	-0.000
-368.756	-18.589	0.079	-0.049
-367.742	301.305	-0.103	0.188
-366.727	-200.000	0.013	0.174
-365.712	738.964	0.022	0.058
-364.698	-200.000	0.019	0.178
-363.683	184.761	0.077	-0.112
-362.669	65.551	-0.135	-0.135
-361.654	-5.855	-0.356	-0.241
-360.639	-87.573	-0.243	0.073
-359.625	128.630	0.102	0.128
-358.610	537.525	0.076	0.179
-357.596	155.062	-0.043	0.059
-356.581	11.988	0.075	0.057
-355.566	-66.359	0.143	-0.056
-354.552	-17.378	0.463	0.288
-353.537	-200.000	-0.061	0.329
-352.523	-151.933	-0.176	-0.013
-351.508	-25.393	0.156	-0.091
-350.493	300.925	-0.048	0.087
-349.479	800.000	-0.076	0.225
-348.464	51.095	-0.131	0.122
-347.450	-6.287	0.227	-0.153
-346.435	-96.594	0.360	0.094
-345.420	-159.655	-0.282	0.015
-344.406	-130.599	-0.351	-0.047
-343.391	125.786	0.152	-0.190
-342.377	-86.725	-0.198	-0.060
-341.362	-200.000	-0.021	0.140
-340.348	-6.431	0.165	0.111
-339.333	-200.000	0.082	0.435
-338.318	-185.501	0.044	0.001
-337.304	-200.000	-0.010	0.130
-336.289	-114.813	-0.328	-0.062
-335.275	-72.757	0.193	-0.070
-334.260	-124.467	0.242	0.037
-333.245	-47.414	-0.045	0.022
-332.231	303.597	0.075	-0.137
-331.216	-194.098	0.031	0.000
-330.202	-200.000	-0.036	0.273
-329.187	-92.594	0.260	-0.072
-328.172	657.922	-0.100	0.253
-327.158	-200.000	0.033	0.143
-326.143	-200.000	-0.009	0.251
-325.129	800.000	-0.021	-0.086
-324.114	186.252	-0.265	0.389
-323.099	-60.166	0.248	-0.104
-322.085	-3.526	0.037	-0.025
-321.070	316.987	0.033	-0.061
-320.056	111.546	0.116	-0.138
-319.041	-200.000	0.011	0.160
-318.026	-123.619	0.142	-0.022
-317.012	-45.194	0.099	-0.049
-315.997	3.803	0.186	-0.134
-314.983	-48.378	0.241	-0.114
-313.968	-47.435	0.426	-0.204
-312.953	-24.214	-0.019	-0.011
-311.939	-200.000	-0.015	-0.108
-310.924	-200.000	0.029	-0.171
-309.910	-9.730	-0.135	0.089
-308.895	1.608	0.218	-0.155
-307.880	13.308	-0.121	0.092
-306.866	189.237	0.075	-0.111
-305.851	115.211	-0.098	-0.118
-304.837	-200.000	0.012	-0.283
-303.822	-200.000	-0.048	-0.220
-302.807	183.280	0.222	-0.323
-301.793	47.198	-0.090	-0.082
-300.778	-48.329	-0.325	-0.154
-299.764	60.482	0.142	-0.139
-298.749	279.612	-0.163	-0.287
-297.735	67.911	0.227	0.229
-296.720	-130.125	0.165	-0.022
-295.705	20.769	-0.185	0.148
-294.691	-141.211	-0.365	0.037
-293.676	186.122	-0.036	-0.053
-292.662	-200.000	-0.001	-0.118
-291.647	-158.649	0.287	-0.016
-290.632	-154.465	-0.206	-0.014
-289.618	800.000	-0.044	0.155
-288.603	38.672	0.273	0.240
-287.589	-17.019	0.161	-0.100
-286.574	55.256	-0.147	-0.140
-285.559	-70.873	-0.285	0.106
-284.545	-27.082	0.203	-0.116
-283.530	-200.000	0.011	-0.175
-282.516	79.366	0.124	0.131
-281.501	319.661	-0.067	-0.126
-280.486	-147.493	0.093	-0.008
-279.472	-200.000	-0.038	-0.276
-278.457	0.377	0.032	-0.022
-277.443	165.425	0.106	0.147
-276.428	21.396	-0.081	-0.065
-275.413	-36.760	-0.212	-0.112
-274.399	-55.612	0.034	0.015
-273.384	28.594	0.076	0.063
-272.370	-107.268	0.382	0.083
-271.355	-83.703	0.272	-0.085
-270.340	121.883	0.152	0.186
-269.326	-55.223	-0.191	-0.085
-268.311	600.445	-0.058	0.143
-267.297	209.699	0.074	0.114
-266.282	-200.000	-0.060	0.359
-265.267	-200.000	0.035	-0.191
-264.253	75.232	0.056	-0.058
-263.238	-5.230	-0.113	0.076
-262.224	-66.902	-0.188	-0.073
-261.209	800.000	0.142	-0.415
-260.195	-151.265	-0.133	0.010
-259.180	-200.000	0.009	0.307
-258.165	-122.789	-0.062	0.010
-257.151	45.877	-0.161	-0.147
-256.136	-97.210	-0.343	0.088
-255.122	263.528	0.140	0.240
-254.107	-200.000	0.030	0.191
-253.092	-200.000	-0.046	0.000
-252.078	18.257	0.227	0.178
-251.063	522.243	-0.071	-0.164
-250.049	-200.000	0.011	-0.052
-249.034	50.298	-0.205	-0.190
-248.019	800.000	-0.051	-0.197
-247.005	-57.875	-0.215	0.092
-245.990	-200.000	0.044	0.290
-244.976	-24.484	0.278	-0.163
-243.961	568.918	-0.124	-0.295
-242.946	-200.000	-0.033	-0.170
-241.932	-200.000	-0.013	-0.131
-240.917	102.353	-0.163	0.187
-239.903	-200.000	0.018	-0.141
-238.888	-200.000	-0.024	-0.198
-237.873	481.518	-0.077	0.171
-236.859	94.371	-0.212	-0.237
-235.844	96.253	0.054	-0.061
-234.830	-98.224	0.394	-0.099
-233.815	-128.948	-0.361	0.050
-232.800	-181.618	0.152	-0.003
-231.786	-1.570	-0.042	0.029
-230.771	800.000	0.112	0.362
-229.757	28.529	0.157	-0.131
-228.742	-100.027	-0.115	-0.028
-227.727	256.252	0.149	-0.252
-226.713	172.982	0.089	-0.126
-225.698	-40.314	-0.412	-0.210
-224.684	-70.062	0.289	-0.108
-223.669	-200.000	-0.008	0.238
-222.655	-200.000	0.014	-0.380
-221.640	119.604	0.134	0.163
-220.625	800.000	0.050	-0.157
-219.611	106.761	0.137	-0.160
-218.596	-89.693	0.343	0.099
-217.582	-85.630	-0.497	-0.152
-216.567	-47.120	0.493	0.236
-215.552	-79.749	-0.177	0.059
-214.538	-112.253	-0.339	0.067
-213.523	-200.000	-0.014	0.206
-212.509	800.000	-0.027	-0.098
-211.494	65.231	0.307	0.304
-210.479	800.000	-0.066	-0.210
-209.465	-200.000	-0.002	-0.230
-208.450	800.000	-0.077	0.228
-207.436	-87.835	0.212	0.063
-206.421	-38.431	0.254	-0.132
-205.406	-8.941	-0.231	0.152
-204.392	-200.000	0.009	0.247
-203.377	148.942	-0.116	0.154
-202.363	243.325	-0.152	0.250
-201.348	-14.797	0.240	0.151
-200.333	-66.412	-0.198	0.077
-199.319	60.369	0.192	0.187
-198.304	-138.765	0.647	0.069
-197.290	515.601	0.046	-0.106
-196.275	184.941	-0.229	0.333
-195.260	-200.000	-0.013	-0.099
-194.246	357.918	0.028	0.055
-193.231	-200.000	-0.034	0.370
-192.217	-200.000	0.036	0.333
-191.202	65.060	-0.278	0.276
-190.187	205.740	0.031	-0.048
-189.173	-148.326	-0.025	0.002
-188.158	-133.227	0.274	0.034
-187.144	423.570	0.122	-0.257
-186.129	187.413	-0.113	-0.165
-185.114	-105.150	-0.070	0.016
-184.100	-200.000	-0.024	0.154
-183.085	-200.000	-0.023	-0.117
-182.071	-155.257	-0.150	0.010
-181.056	-151.061	0.023	-0.002
-180.042	-100.594	0.230	0.056
-179.027	-200.000	-0.019	0.381
-178.012	-91.543	0.147	0.041
-176.998	160.468	-0.128	0.176
-175.983	144.917	-0.056	-0.073
-174.969	449.479	0.228	0.493
-173.954	-90.684	-0.270	-0.076
-172.939	4.017	0.234	-0.168
-171.925	-118.876	0.175	-0.030
-170.910	119.810	-0.055	-0.067
-169.896	466.555	0.152	0.333
-168.881	47.310	0.122	-0.112
-167.866	-59.088	-0.135	0.057
-166.852	517.795	0.095	-0.218
-165.837	-78.366	-0.337	0.113
-164.823	-146.868	-0.224	-0.019
-163.808	-71.461	0.330	-0.121
-162.793	-200.000	-0.026	-0.195
-161.779	-200.000	-0.081	-0.374
-160.764	-117.498	0.197	0.035
-159.750	123.770	-0.129	0.159
-158.735	800.000	0.023	-0.076
-157.720	292.120	0.025	0.045
-156.706	800.000	0.030	0.092
-155.691	246.266	0.128	0.211
-154.677	29.152	0.229	0.191
-153.662	0.185	-0.404	0.282
-152.647	-193.102	0.131	0.001
-151.633	-40.479	0.190	-0.096
-150.618	-200.000	0.025	-0.186
-149.604	230.317	-0.134	0.214
-148.589	-200.000	-0.030	-0.334
-147.574	-200.000	0.020	-0.132
-146.560	-200.000	-0.075	0.331
-145.545	-24.186	0.048	-0.028
-144.531	-82.563	0.369	-0.117
-143.516	-200.000	0.040	0.340
-142.502	-150.205	-0.336	0.025
-141.487	-75.087	0.352	0.123
-140.472	-140.858	0.226	-0.023
-139.458	135.400	0.170	-0.217
-138.443	-68.786	0.280	0.106
-137.429	-87.814	-0.332	-0.098
-136.414	-102.971	0.287	-0.067
-135.399	33.458	0.031	-0.027
-134.385	245.143	-0.132	-0.217
-133.370	-89.769	-0.076	0.022
-132.356	800.000	-0.104	0.287
-131.341	-33.211	-0.135	-0.073
-130.326	4.103	-0.045	-0.032
-129.312	225.071	0.072	-0.115
-128.297	615.570	-0.176	-0.432
-127.283	-160.118	-0.641	0.034
-126.268	20.390	-0.118	0.094
-125.253	206.250	-0.215	0.328
-124.239	-101.459	0.256	0.061
-123.224	-200.000	0.112	-0.538
-122.210	-200.000	-0.001	0.232
