DTS Sentinel unit serial number:	SN413079Multiplexer serial number:	ORYXHardware model number:	OX4-SRSoftware version number:	ORYX F/W v4.00 Oryx Data Collector v3.7.2.0data status	okinstallation	princeton_trtdifferential loss correction	single-endedforward channel	channel 1reverse channel	N/Adate	2019/09/19time	04:54:35forward acquisition time	60.00reverse acquisition time	0.00gamma	496.2192k internal	0.2343k external	0.2343temperature offset calibration	1.0016default loss term (dB/km)	0.3790temperature slope calibration	1.0000multiplexer offset coefficient	1.0000multiplexer slope coefficient	1.0000fibre end	0.00T internal ref (°C)	19.80T ext. ref 1 (°C)	0.60T ext. ref 2 (°C)	13.07length (m)	temperature (°C)	Stokes	anti-Stokes-747.200	264.218	0.133	-0.231
-746.185	-200.000	-0.019	0.229
-745.171	4.896	-0.388	0.286
-744.156	17.024	-0.104	0.082
-743.142	800.000	0.151	0.435
-742.127	144.284	-0.098	0.131
-741.112	-50.685	0.073	0.034
-740.098	-75.352	-0.158	0.056
-739.083	-200.000	0.039	0.262
-738.069	556.510	-0.045	-0.108
-737.054	136.005	-0.246	0.321
-736.039	-52.876	-0.134	0.062
-735.025	800.000	0.206	0.708
-734.010	800.000	0.101	-0.297
-732.996	-171.664	-0.255	-0.008
-731.981	-141.478	-0.167	0.017
-730.966	151.100	-0.216	-0.294
-729.952	-8.578	-0.331	-0.222
-728.937	-52.956	-0.134	-0.062
-727.923	-52.783	-0.224	0.103
-726.908	-21.308	-0.348	-0.213
-725.894	1.354	0.159	-0.114
-724.879	800.000	0.079	-0.271
-723.864	-200.000	-0.020	-0.241
-722.850	-126.242	-0.124	-0.019
-721.835	-106.493	-0.141	-0.031
-720.821	3.563	0.027	-0.020
-719.806	-57.255	0.229	-0.101
-718.791	800.000	-0.103	-0.301
-717.777	505.780	-0.123	-0.286
-716.762	-15.544	0.178	-0.114
-715.748	113.678	-0.207	0.251
-714.733	-200.000	-0.061	-0.394
-713.718	800.000	-0.084	-0.364
-712.704	470.874	-0.192	0.432
-711.689	-51.227	0.293	-0.137
-710.675	-19.491	-0.070	-0.043
-709.660	235.124	-0.160	0.264
-708.645	-61.534	0.051	0.021
-707.631	-200.000	-0.009	-0.151
-706.616	-112.898	0.215	0.043
-705.602	3.405	0.231	-0.168
-704.587	44.199	-0.032	0.030
-703.572	-75.828	-0.060	-0.021
-702.558	800.000	-0.094	0.305
-701.543	-200.000	-0.034	-0.193
-700.529	-70.275	-0.047	0.018
-699.514	800.000	-0.081	0.329
-698.499	153.637	-0.180	0.247
-697.485	-53.807	-0.289	0.132
-696.470	-88.221	0.398	-0.119
-695.456	59.786	-0.093	-0.091
-694.441	800.000	0.090	-0.265
-693.426	740.996	-0.078	-0.210
-692.412	-117.542	0.089	-0.016
-691.397	-200.000	-0.015	0.068
-690.383	108.972	-0.129	0.154
-689.368	39.568	0.108	0.096
-688.354	-200.000	-0.024	-0.136
-687.339	800.000	0.026	0.086
-686.324	-88.982	-0.336	-0.099
-685.310	800.000	-0.139	0.527
-684.295	-200.000	0.003	-0.049
-683.281	-69.315	-0.050	-0.019
-682.266	-89.582	0.104	0.031
-681.251	138.574	0.068	-0.089
-680.237	169.004	-0.111	0.158
-679.222	-64.743	0.445	0.180
-678.208	354.678	0.118	-0.235
-677.193	503.777	-0.102	-0.236
-676.178	-91.111	-0.414	-0.119
-675.164	-100.740	0.199	-0.049
-674.149	-82.579	-0.131	-0.042
-673.135	-81.299	0.092	0.030
-672.120	-200.000	-0.009	0.224
-671.105	87.374	0.206	-0.227
-670.091	-69.402	0.031	-0.012
-669.076	98.208	0.086	0.098
-668.062	-13.663	-0.080	-0.051
-667.047	800.000	-0.071	0.257
-666.032	-200.000	0.002	-0.019
-665.018	5.335	0.106	0.078
-664.003	-200.000	0.016	-0.077
-662.989	-31.091	-0.084	0.047
-661.974	32.373	-0.090	-0.078
-660.959	-96.005	0.127	0.034
-659.945	-84.361	-0.161	-0.051
-658.930	-90.884	0.181	0.052
-657.916	-200.000	-0.045	0.264
-656.901	-19.674	0.165	-0.102
-655.886	800.000	-0.077	0.221
-654.872	364.664	-0.158	-0.317
-653.857	-99.018	-0.160	0.040
-652.843	345.901	-0.073	-0.144
-651.828	-200.000	-0.018	-0.120
-650.814	93.368	-0.220	0.248
-649.799	-200.000	-0.035	-0.276
-648.784	-200.000	0.030	-0.192
-647.770	-182.735	-0.044	0.001
-646.755	-79.043	-0.199	-0.068
-645.741	-105.643	0.119	-0.027
-644.726	-200.000	-0.016	-0.116
-643.711	-128.701	0.474	-0.067
-642.697	311.594	0.124	-0.232
-641.682	9.645	0.091	0.069
-640.668	90.943	-0.056	0.063
-639.653	-162.919	0.223	-0.011
-638.638	800.000	-0.036	-0.109
-637.624	-200.000	-0.019	0.100
-636.609	-68.449	0.029	-0.011
-635.595	557.706	0.014	-0.033
-634.580	87.682	0.340	0.376
-633.565	143.676	-0.016	-0.021
-632.551	-126.929	-0.239	-0.035
-631.536	800.000	-0.137	0.451
-630.522	800.000	-0.060	-0.195
-629.507	-111.765	-0.151	0.030
-628.492	270.581	-0.168	-0.295
-627.478	32.860	0.038	0.033
-626.463	-77.769	-0.187	-0.064
-625.449	-200.000	-0.045	-0.322
-624.434	-200.000	0.028	-0.252
-623.419	800.000	-0.111	0.318
-622.405	164.731	0.128	0.180
-621.390	-200.000	0.005	0.037
-620.376	-89.705	0.054	0.016
-619.361	-60.368	-0.223	-0.094
-618.346	33.821	0.144	-0.125
-617.332	115.117	0.142	0.173
-616.317	43.116	0.152	0.138
-615.303	5.194	-0.223	0.164
-614.288	800.000	-0.069	0.190
-613.273	58.123	-0.203	-0.198
-612.259	-74.005	0.433	-0.157
-611.244	-164.785	-0.117	0.005
-610.230	-200.000	-0.000	-0.000
-609.215	-27.474	-0.190	0.110
-608.201	-200.000	0.012	-0.072
-607.186	-6.996	0.161	-0.109
-606.171	-43.385	-0.249	0.126
-605.157	-167.641	0.119	-0.005
-604.142	-169.727	0.100	-0.004
-603.128	8.769	0.204	0.153
-602.113	-16.804	-0.105	0.066
-601.098	56.350	-0.183	-0.177
-600.084	800.000	-0.086	-0.317
-599.069	-81.494	0.239	0.078
-598.055	135.604	-0.151	-0.196
-597.040	-74.870	0.204	-0.073
-596.025	-200.000	-0.041	0.191
-595.011	82.617	-0.206	0.223
-593.996	99.777	-0.186	-0.214
-592.982	800.000	0.031	-0.136
-591.967	109.275	0.018	-0.021
-590.952	86.012	0.147	0.161
-589.938	-200.000	-0.041	0.322
-588.923	129.528	0.283	0.360
-587.909	-32.900	-0.100	-0.055
-586.894	434.311	-0.036	-0.077
-585.879	-39.740	0.261	-0.136
-584.865	-91.910	0.187	-0.053
-583.850	-46.091	-0.175	-0.086
-582.836	-55.654	0.278	0.124
-581.821	800.000	-0.055	-0.201
-580.806	45.868	-0.165	-0.152
-579.792	251.236	0.159	0.269
-578.777	-108.505	0.154	0.033
-577.763	406.627	-0.047	0.100
-576.748	78.146	0.152	-0.162
-575.733	138.350	-0.095	-0.124
-574.719	797.440	-0.116	0.319
-573.704	-87.996	0.294	0.088
-572.690	800.000	-0.029	-0.092
-571.675	139.872	-0.149	0.195
-570.661	13.649	-0.118	0.091
-569.646	-147.967	-0.246	-0.020
-568.631	114.229	0.088	0.107
-567.617	-126.298	-0.248	0.037
-566.602	-200.000	-0.006	0.292
-565.588	-54.950	-0.357	0.160
-564.573	-41.563	0.271	0.138
-563.558	188.413	0.060	0.089
-562.544	-87.050	0.124	0.038
-561.529	-200.000	0.005	0.025
-560.515	-118.468	0.205	-0.036
-559.500	8.717	-0.198	-0.148
-558.485	-200.000	-0.015	-0.215
-557.471	-200.000	0.003	-0.166
-556.456	-44.787	0.273	-0.136
-555.442	-174.798	-0.161	-0.005
-554.427	-48.450	-0.023	0.011
-553.412	-129.362	-0.179	0.025
-552.398	-82.984	-0.301	-0.096
-551.383	800.000	-0.126	-0.356
-550.369	631.123	-0.094	0.237
-549.354	-200.000	-0.021	0.236
-548.339	602.738	0.040	-0.099
-547.325	531.374	-0.084	0.198
-546.310	459.731	-0.039	-0.087
-545.296	537.875	0.115	0.272
-544.281	-87.811	0.220	0.066
-543.266	151.670	0.128	-0.173
-542.252	-133.257	0.221	-0.028
-541.237	195.286	0.157	0.237
-540.223	-101.740	0.272	-0.065
-539.208	-97.722	0.249	0.064
-538.193	-102.956	0.090	0.021
-537.179	800.000	0.068	0.212
-536.164	680.985	0.104	-0.269
-535.150	-200.000	-0.067	-0.329
-534.135	149.012	-0.091	0.122
-533.121	101.304	0.131	0.152
-532.106	297.313	-0.072	-0.132
-531.091	-200.000	0.000	-0.069
-530.077	80.883	0.156	0.167
-529.062	-172.791	0.045	-0.001
-528.048	-200.000	0.032	0.237
-527.033	220.552	-0.238	-0.378
-526.018	-33.307	0.121	0.067
-525.004	-45.897	0.198	-0.097
-523.989	-84.443	-0.135	0.042
-522.975	379.880	-0.156	0.317
-521.960	800.000	-0.144	0.411
-520.945	-60.385	-0.076	-0.032
-519.931	-164.545	-0.197	-0.009
-518.916	-52.956	-0.339	-0.155
-517.902	336.153	0.054	0.104
-516.887	-141.015	-0.126	-0.013
-515.872	-91.005	-0.114	0.032
-514.858	55.311	0.206	0.198
-513.843	444.903	-0.070	-0.152
-512.829	-0.137	-0.211	0.149
-511.814	61.824	-0.253	-0.250
-510.799	216.039	0.231	-0.365
-509.785	416.569	-0.061	0.130
-508.770	440.567	0.169	0.368
-507.756	-56.736	-0.219	0.096
-506.741	-68.971	-0.294	0.112
-505.726	-200.000	0.001	0.241
-504.712	47.097	-0.268	0.248
-503.697	711.713	-0.049	0.129
-502.683	-170.829	0.116	0.004
-501.668	-19.591	0.186	0.114
-500.653	800.000	-0.083	-0.297
-499.639	-30.152	-0.093	-0.052
-498.624	-92.119	0.432	-0.121
-497.610	-76.837	0.085	-0.030
-496.595	-140.648	-0.318	0.033
-495.581	-151.680	0.235	-0.017
-494.566	-123.445	-0.311	0.049
-493.551	-74.409	-0.074	-0.027
-492.537	258.914	0.088	0.150
-491.522	-136.338	0.194	0.022
-490.508	4.075	0.379	0.275
-489.493	599.944	-0.156	0.384
-488.478	-90.320	0.496	0.143
-487.464	-2.223	-0.341	-0.237
-486.449	-200.000	0.010	-0.098
-485.435	-75.318	-0.268	0.095
-484.420	58.786	0.215	0.210
-483.405	49.031	-0.110	0.102
-482.391	-200.000	-0.082	-0.609
-481.376	-200.000	0.040	-0.484
-480.362	-180.250	0.352	-0.007
-479.347	-144.964	-0.153	0.014
-478.332	-129.502	-0.202	-0.028
-477.318	58.359	0.139	0.135
-476.303	-44.183	0.155	0.077
-475.289	800.000	0.102	-0.383
-474.274	-111.108	-0.340	0.069
-473.259	-118.409	0.129	-0.023
-472.245	289.922	0.017	-0.031
-471.230	-82.052	-0.042	-0.014
-470.216	257.607	-0.194	0.330
-469.201	244.745	0.035	0.059
-468.186	58.942	0.107	0.104
-467.172	800.000	-0.031	0.132
-466.157	-13.205	0.033	0.021
-465.143	214.358	-0.187	0.294
-464.128	23.410	0.241	-0.197
-463.113	800.000	-0.084	-0.326
-462.099	144.735	0.056	-0.075
-461.084	-200.000	-0.005	0.031
-460.070	-200.000	0.011	-0.242
-459.055	-47.243	-0.067	0.032
-458.040	-180.011	-0.174	0.004
-457.026	1.335	0.347	0.247
-456.011	288.337	0.128	-0.229
-454.997	328.831	-0.121	0.230
-453.982	74.608	-0.197	0.205
-452.968	2.506	0.140	-0.100
-451.953	-200.000	-0.017	0.133
-450.938	176.448	-0.233	-0.335
-449.924	-200.000	-0.037	0.252
-448.909	350.072	0.107	-0.210
-447.895	-200.000	-0.001	-0.111
-446.880	541.613	-0.074	-0.176
-445.865	272.639	-0.159	0.278
-444.851	175.761	-0.054	0.077
-443.836	800.000	-0.017	-0.051
-442.822	-45.124	-0.222	0.109
-441.807	145.189	-0.206	0.272
-440.792	-200.000	0.061	-0.320
-439.778	-200.000	-0.045	-0.529
-438.763	-79.056	-0.194	-0.065
-437.749	800.000	0.015	0.059
-436.734	-200.000	0.033	-0.271
-435.719	11.524	0.098	-0.074
-434.705	-135.835	0.394	-0.046
-433.690	-37.667	-0.154	-0.081
-432.676	-200.000	0.012	0.155
-431.661	-200.000	0.026	-0.131
-430.646	-9.707	0.053	0.035
-429.632	-200.000	-0.014	-0.230
-428.617	-200.000	-0.002	-0.069
-427.603	-200.000	-0.025	-0.149
-426.588	-141.765	0.216	0.021
-425.573	-164.995	-0.203	-0.009
-424.559	61.077	0.059	0.058
-423.544	-110.636	-0.059	-0.012
-422.530	-85.506	0.125	-0.039
-421.515	141.803	0.082	0.108
-420.500	-200.000	0.013	-0.275
-419.486	-75.837	-0.408	0.143
-418.471	-200.000	0.022	0.411
-417.457	-127.084	-0.097	-0.014
-416.442	29.890	-0.090	-0.076
-415.428	800.000	-0.030	0.094
-414.413	146.756	-0.112	-0.148
-413.398	-80.893	0.184	-0.060
-412.384	149.328	-0.118	-0.158
-411.369	-56.915	0.276	0.120
-410.355	593.787	0.039	0.094
-409.340	-96.279	-0.414	-0.108
-408.325	-125.865	0.208	0.031
-407.311	94.477	0.045	0.051
-406.296	-200.000	-0.025	-0.386
-405.282	27.702	0.326	0.271
-404.267	24.228	-0.235	0.192
-403.252	-67.664	0.334	0.129
-402.238	465.193	0.115	0.254
-401.223	688.216	0.090	0.233
-400.209	-200.000	-0.003	0.105
-399.194	186.303	-0.229	-0.337
-398.179	-17.770	-0.186	-0.115
-397.165	43.184	-0.070	0.063
-396.150	-3.214	-0.348	-0.240
-395.136	-131.095	0.129	0.017
-394.121	-200.000	0.009	-0.098
-393.106	-200.000	-0.037	0.391
-392.092	-76.960	0.206	-0.071
-391.077	-200.000	-0.023	-0.123
-390.063	-102.565	0.177	-0.042
-389.048	-86.349	-0.406	-0.123
-388.033	-200.000	0.024	0.127
-387.019	6.614	-0.170	-0.124
-386.004	-200.000	0.050	-0.231
-384.990	-71.189	0.136	-0.050
-383.975	84.105	-0.261	-0.281
-382.960	543.919	-0.042	-0.099
-381.946	800.000	0.078	-0.219
-380.931	-200.000	-0.005	0.065
-379.917	-196.360	0.081	-0.001
-378.902	-59.993	-0.070	0.029
-377.888	-113.325	0.269	0.052
-376.873	188.008	-0.152	0.224
-375.858	-97.538	-0.078	-0.020
-374.844	-82.099	0.138	0.044
-373.829	-123.725	0.236	0.037
-372.815	-42.745	0.199	0.100
-371.800	-128.351	-0.095	-0.013
-370.785	800.000	0.075	0.320
-369.771	206.338	-0.176	0.270
-368.756	-200.000	0.009	0.209
-367.742	-180.816	-0.272	-0.005
-366.727	-94.194	-0.302	0.082
-365.712	369.991	0.058	-0.116
-364.698	63.669	0.224	-0.222
-363.683	-18.576	0.189	0.116
-362.669	800.000	-0.000	0.001
-361.654	-40.754	-0.346	0.177
-360.639	-200.000	0.017	-0.133
-359.625	-200.000	0.000	0.055
-358.610	-76.761	0.089	0.031
-357.596	54.033	-0.198	-0.188
-356.581	800.000	0.100	-0.282
-355.566	-72.541	-0.179	0.065
-354.552	262.174	-0.052	0.088
-353.537	55.797	0.101	-0.097
-352.523	-200.000	0.001	0.221
-351.508	-200.000	-0.104	-0.000
-350.493	-200.000	-0.026	0.144
-349.479	507.823	-0.106	0.243
-348.464	-57.712	-0.096	-0.041
-347.450	10.912	-0.187	-0.141
-346.435	-23.916	-0.146	-0.086
-345.420	800.000	0.092	-0.309
-344.406	-63.493	-0.093	0.038
-343.391	-200.000	0.006	0.047
-342.377	-165.183	-0.435	0.019
-341.362	-87.808	0.129	0.038
-340.348	-62.029	0.202	0.083
-339.333	186.219	0.294	-0.431
-338.318	-132.556	-0.224	0.028
-337.304	-200.000	0.022	-0.123
-336.289	319.798	-0.081	0.151
-335.275	-200.000	0.010	0.218
-334.260	252.261	-0.057	0.095
-333.245	-67.650	0.118	0.045
-332.231	-182.833	-0.237	-0.004
-331.216	800.000	-0.123	0.345
-330.202	-200.000	-0.009	-0.178
-329.187	-148.908	0.423	-0.034
-328.172	800.000	0.082	-0.259
-327.158	-200.000	0.030	0.227
-326.143	-90.112	0.225	-0.065
-325.129	-37.499	-0.201	0.106
-324.114	343.221	0.102	-0.196
-323.099	-127.951	-0.099	0.014
-322.085	-130.481	-0.029	-0.004
-321.070	-200.000	-0.011	-0.446
-320.056	-31.941	0.155	-0.085
-319.041	-200.000	-0.022	0.196
-318.026	-200.000	-0.042	-0.362
-317.012	-200.000	-0.007	-0.359
-315.997	453.546	0.044	0.096
-314.983	-200.000	0.008	0.166
-313.968	-200.000	0.063	-0.275
-312.953	80.283	0.203	0.216
-311.939	292.948	-0.187	-0.337
-310.924	149.887	0.172	0.229
-309.910	800.000	-0.030	-0.090
-308.895	265.467	-0.062	0.107
-307.880	-136.736	0.170	0.019
-306.866	-10.194	0.227	-0.148
-305.851	800.000	-0.020	0.056
-304.837	-86.883	0.355	0.107
-303.822	25.909	-0.065	0.054
-302.807	-113.835	-0.042	-0.008
-301.793	-200.000	0.006	0.068
-300.778	59.200	-0.113	-0.110
-299.764	-147.977	0.211	-0.017
-298.749	14.418	0.138	0.106
-297.735	-200.000	-0.054	0.306
-296.720	49.090	-0.175	0.162
-295.705	-200.000	0.066	-0.303
-294.691	-48.856	-0.382	-0.180
-293.676	800.000	-0.034	-0.125
-292.662	555.680	0.007	-0.016
-291.647	-45.039	-0.192	-0.094
-290.632	205.086	0.102	-0.156
-289.618	5.133	-0.195	0.141
-288.603	534.138	0.027	-0.062
-287.589	-92.833	0.341	0.094
-286.574	-200.000	0.011	-0.293
-285.559	-84.959	-0.429	0.132
-284.545	-135.055	-0.213	-0.025
-283.530	800.000	-0.091	0.254
-282.516	503.367	0.122	-0.277
-281.501	151.523	-0.147	0.197
-280.486	266.706	-0.168	-0.288
-279.472	93.774	0.226	-0.252
-278.457	-79.121	-0.387	0.129
-277.443	65.331	0.126	0.125
-276.428	611.710	-0.148	-0.363
-275.413	657.619	-0.102	-0.257
-274.399	85.691	0.289	-0.312
-273.384	-6.802	-0.174	-0.116
-272.370	192.687	0.073	0.109
-271.355	-117.618	0.315	0.056
-270.340	-90.062	0.175	-0.050
-269.326	-130.367	0.193	-0.026
-268.311	-200.000	0.002	-0.036
-267.297	-86.838	-0.148	-0.044
-266.282	236.626	0.025	0.041
-265.267	-56.486	-0.167	-0.073
-264.253	285.032	0.015	0.026
-263.238	173.602	0.092	-0.130
-262.224	-0.821	-0.484	-0.337
-261.209	-200.000	0.035	0.275
-260.195	73.494	0.200	0.205
-259.180	-197.159	-0.008	0.000
-258.165	-32.075	0.341	0.188
-257.151	630.334	-0.067	-0.166
-256.136	229.930	-0.014	0.022
-255.122	-104.038	0.190	-0.043
-254.107	69.954	0.067	-0.068
-253.092	-200.000	-0.012	0.152
-252.078	-200.000	-0.016	0.212
-251.063	-28.190	0.428	0.243
-250.049	-200.000	-0.090	0.523
-249.034	-16.795	0.185	-0.115
-248.019	58.322	0.082	0.079
-247.005	-116.404	0.149	0.027
-245.990	-200.000	0.089	-0.457
-244.976	364.659	-0.030	0.059
-243.961	163.528	0.130	0.180
-242.946	601.207	-0.037	0.090
-241.932	-134.391	-0.117	-0.014
-240.917	144.640	0.205	0.269
-239.903	369.393	-0.166	-0.329
-238.888	-146.857	0.355	-0.030
-237.873	-200.000	-0.030	0.396
-236.859	-50.099	-0.166	0.077
-235.844	767.193	-0.032	-0.085
-234.830	-110.521	-0.246	0.050
-233.815	280.475	0.126	-0.222
-232.800	800.000	-0.015	-0.063
-231.786	-129.543	-0.215	-0.029
-230.771	165.151	0.193	-0.267
-229.757	-14.161	0.187	0.118
-228.742	346.578	-0.133	0.256
-227.727	378.246	0.123	0.246
-226.713	-21.861	0.108	0.065
-225.698	-200.000	-0.034	0.162
-224.684	-2.013	0.046	0.032
-223.669	355.279	-0.062	-0.121
-222.655	313.406	0.141	-0.260
-221.640	548.628	-0.059	-0.139
-220.625	-200.000	0.052	0.473
-219.611	63.897	0.149	-0.147
-218.596	10.557	0.146	0.109
-217.582	-200.000	0.000	-0.251
-216.567	110.041	0.054	-0.063
-215.552	124.178	0.159	0.196
-214.538	19.134	0.240	0.189
-213.523	312.736	0.085	0.156
-212.509	37.771	0.133	0.116
-211.494	-124.635	-0.167	0.025
-210.479	111.267	-0.119	-0.141
-209.465	800.000	-0.029	0.095
-208.450	-200.000	-0.009	-0.127
-207.436	37.601	-0.117	0.102
-206.421	34.215	0.100	0.085
-205.406	-180.124	-0.368	0.008
-204.392	-82.131	-0.335	-0.107
-203.377	-96.417	-0.297	0.077
-202.363	532.978	-0.085	0.198
-201.348	52.660	0.122	-0.114
-200.333	519.048	0.130	-0.298
-199.319	235.350	0.137	0.222
-198.304	-91.028	-0.123	0.035
-197.290	16.131	-0.205	0.158
-196.275	800.000	-0.054	-0.146
-195.260	204.601	0.166	-0.252
-194.246	57.723	0.013	0.012
-193.231	-85.608	-0.218	0.066
-192.217	-60.090	0.279	0.117
-191.202	-200.000	0.029	0.158
-190.187	-200.000	0.009	-0.159
-189.173	144.243	-0.211	0.276
-188.158	-25.068	0.296	-0.172
-187.144	39.937	-0.059	-0.052
-186.129	19.448	-0.051	0.040
-185.114	295.584	0.044	0.079
-184.100	-200.000	-0.024	0.308
-183.085	-125.925	-0.045	0.007
-182.071	-200.000	0.120	0.617
-181.056	-200.000	0.012	-0.140
-180.042	-12.198	0.217	0.139
-179.027	800.000	-0.020	0.077
-178.012	-35.444	0.372	0.198
-176.998	-89.796	-0.352	0.101
-175.983	-200.000	-0.016	-0.302
-174.969	-51.889	0.262	0.120
-173.954	800.000	0.170	-0.593
-172.939	-200.000	0.014	-0.422
-171.925	800.000	0.036	0.151
-170.910	277.828	-0.100	-0.174
-169.896	-200.000	0.004	0.064
-168.881	-90.329	-0.051	0.014
-167.866	-110.627	-0.177	-0.036
-166.852	-134.969	-0.182	-0.021
-165.837	-200.000	0.014	-0.234
-164.823	8.254	-0.071	0.052
-163.808	-54.193	-0.206	-0.092
-162.793	800.000	0.120	0.346
-161.779	-155.744	-0.063	0.004
-160.764	-43.927	-0.105	-0.052
-159.750	290.927	0.204	-0.363
-158.735	-43.752	-0.064	-0.032
-157.720	12.718	-0.086	0.065
-156.706	43.619	-0.083	-0.074
-155.691	-200.000	-0.007	0.373
-154.677	-24.142	-0.080	-0.047
-153.662	-200.000	0.018	-0.292
-152.647	-31.653	0.346	-0.190
-151.633	212.805	0.067	-0.103
-150.618	109.266	0.158	0.185
-149.604	50.613	-0.396	0.367
-148.589	242.237	-0.053	-0.086
-147.574	62.086	0.289	0.282
-146.560	-200.000	-0.031	0.243
-145.545	-200.000	0.020	-0.206
-144.531	303.660	0.133	0.242
-143.516	800.000	-0.093	0.274
-142.502	-50.595	0.122	-0.056
-141.487	186.538	0.191	-0.279
-140.472	-129.246	-0.162	0.022
-139.458	-109.170	-0.123	0.026
-138.443	383.424	-0.030	0.061
-137.429	152.858	-0.175	-0.234
-136.414	-24.519	-0.139	-0.081
-135.399	273.896	-0.081	-0.141
-134.385	-200.000	-0.018	0.226
-133.370	27.435	0.041	0.033
-132.356	31.621	0.229	0.192
-131.341	-92.697	0.311	-0.085
-130.326	-200.000	-0.009	0.048
-129.312	-200.000	0.052	0.305
-128.297	0.832	-0.206	0.144
-127.283	-200.000	0.008	0.256
-126.268	-200.000	-0.047	0.253
-125.253	-108.039	-0.108	-0.023
-124.239	587.031	0.051	-0.122
-123.224	-200.000	-0.011	0.074
-122.210	556.894	0.117	-0.275
