DTS Sentinel unit serial number:	SN413079Multiplexer serial number:	ORYXHardware model number:	OX4-SRSoftware version number:	ORYX F/W v4.00 Oryx Data Collector v3.7.2.0data status	okinstallation	princeton_trtdifferential loss correction	single-endedforward channel	channel 1reverse channel	N/Adate	2019/09/12time	14:44:11forward acquisition time	60.00reverse acquisition time	0.00gamma	496.2192k internal	0.2294k external	0.2294temperature offset calibration	1.0051default loss term (dB/km)	0.3790temperature slope calibration	1.0000multiplexer offset coefficient	1.0000multiplexer slope coefficient	1.0000fibre end	0.00T internal ref (°C)	40.19T ext. ref 1 (°C)	2.31T ext. ref 2 (°C)	37.01length (m)	temperature (°C)	Stokes	anti-Stokes-747.200	103.503	-0.073	0.087
-746.185	302.770	-0.145	0.274
-745.171	-16.680	0.146	0.095
-744.156	219.417	-0.262	0.429
-743.142	-85.669	-0.303	0.096
-742.127	-102.720	-0.273	-0.067
-741.112	-124.572	0.220	0.035
-740.098	800.000	0.082	0.290
-739.083	129.316	-0.075	0.098
-738.069	-27.305	-0.232	-0.138
-737.054	800.000	-0.040	0.127
-736.039	-98.873	-0.469	0.122
-735.025	-200.000	0.036	0.255
-734.010	542.384	-0.186	-0.453
-732.996	-73.723	-0.419	-0.156
-731.981	-175.736	-0.300	-0.008
-730.966	-200.000	-0.019	-0.147
-729.952	61.628	-0.246	0.250
-728.937	800.000	-0.137	-0.458
-727.923	-170.166	-0.334	0.012
-726.908	-200.000	0.013	0.090
-725.894	-38.756	-0.138	-0.074
-724.879	800.000	-0.066	-0.291
-723.864	-150.136	-0.435	0.034
-722.850	4.019	0.194	-0.145
-721.835	-31.414	0.125	0.072
-720.821	336.733	-0.073	-0.145
-719.806	233.311	-0.161	-0.271
-718.791	-172.595	-0.254	-0.008
-717.777	-200.000	-0.010	-0.251
-716.762	-200.000	-0.008	0.328
-715.748	-101.049	0.153	-0.038
-714.733	477.053	0.055	0.126
-713.718	201.564	-0.071	0.111
-712.704	-151.965	0.131	0.010
-711.689	-123.312	0.246	-0.040
-710.675	19.126	0.241	0.197
-709.660	-200.000	-0.008	-0.098
-708.645	46.482	0.186	-0.176
-707.631	-25.003	-0.037	0.023
-706.616	-200.000	0.001	-0.123
-705.602	-117.299	-0.251	0.046
-704.587	-75.797	-0.184	0.067
-703.572	98.134	-0.136	-0.160
-702.558	61.845	-0.124	0.127
-701.543	-117.947	-0.162	-0.030
-700.529	-18.338	0.238	-0.152
-699.514	800.000	-0.055	-0.188
-698.499	-59.119	-0.370	0.163
-697.485	-200.000	-0.026	-0.168
-696.470	-106.479	0.328	-0.075
-695.456	-200.000	-0.079	-0.452
-694.441	-200.000	0.018	0.183
-693.426	-59.002	-0.208	0.092
-692.412	-21.632	0.035	0.022
-691.397	161.584	0.098	-0.140
-690.383	-76.884	-0.082	0.029
-689.368	181.573	0.215	0.323
-688.354	153.467	-0.123	0.171
-687.339	-200.000	-0.024	-0.163
-686.324	68.600	0.080	0.083
-685.310	104.219	0.256	-0.307
-684.295	-200.000	-0.008	-0.050
-683.281	-115.777	-0.052	0.010
-682.266	-55.738	0.060	-0.027
-681.251	-157.498	-0.127	-0.008
-680.237	800.000	0.084	0.325
-679.222	800.000	-0.018	0.070
-678.208	-90.030	-0.227	-0.068
-677.193	-200.000	-0.013	0.070
-676.178	284.055	0.067	-0.124
-675.164	-23.534	0.040	-0.025
-674.149	-61.611	0.097	0.042
-673.135	239.719	-0.045	0.076
-672.120	-200.000	-0.001	0.036
-671.105	-121.341	0.198	-0.034
-670.091	800.000	-0.031	0.120
-669.076	-60.229	-0.128	0.056
-668.062	-200.000	-0.027	-0.224
-667.047	81.160	-0.167	-0.184
-666.032	151.099	0.083	0.115
-665.018	-88.461	-0.164	0.050
-664.003	-126.847	0.266	0.040
-662.989	-145.947	-0.201	0.018
-661.974	122.317	-0.181	0.231
-660.959	-126.043	-0.149	0.023
-659.945	8.161	-0.092	-0.071
-658.930	53.325	-0.104	0.102
-657.916	-56.273	0.281	0.127
-656.901	-96.551	0.149	-0.040
-655.886	-71.070	0.169	0.065
-654.872	800.000	-0.052	-0.146
-653.857	175.888	0.030	0.044
-652.843	166.127	0.132	-0.191
-651.828	286.284	-0.145	-0.266
-650.814	-42.324	-0.284	-0.148
-649.799	-85.480	0.288	0.091
-648.784	-80.155	0.275	0.094
-647.770	-51.072	-0.036	0.017
-646.755	-200.000	0.005	-0.145
-645.741	638.726	-0.105	0.273
-644.726	-48.180	0.258	-0.127
-643.711	-115.737	-0.130	0.025
-642.697	29.986	-0.129	0.112
-641.682	14.990	0.208	0.166
-640.668	-5.356	0.091	-0.064
-639.653	625.501	0.098	-0.251
-638.638	162.309	0.307	-0.438
-637.624	-27.829	-0.211	0.125
-636.609	-92.885	0.264	-0.075
-635.595	-61.522	0.125	0.054
-634.580	193.830	0.080	0.123
-633.565	406.076	0.234	0.503
-632.551	-29.662	0.215	0.125
-631.536	79.167	0.062	0.068
-630.522	-9.163	0.103	0.070
-629.507	-200.000	0.066	-0.572
-628.492	-22.096	0.202	-0.125
-627.478	-57.227	0.306	0.137
-626.463	86.131	0.188	0.211
-625.449	-200.000	-0.002	-0.016
-624.434	800.000	0.058	0.228
-623.419	-137.092	0.130	-0.015
-622.405	-39.646	-0.098	0.052
-621.390	800.000	0.060	0.244
-620.376	200.061	0.179	-0.279
-619.361	-40.351	-0.123	0.065
-618.346	-8.971	-0.198	-0.135
-617.332	-91.456	0.170	-0.049
-616.317	-3.158	-0.130	0.092
-615.303	50.383	-0.165	-0.158
-614.288	417.033	0.059	0.127
-613.273	-200.000	0.006	-0.051
-612.259	152.768	-0.149	0.207
-611.244	-141.917	0.260	0.026
-610.230	-200.000	-0.006	-0.032
-609.215	-170.480	-0.302	-0.011
-608.201	440.862	0.067	-0.149
-607.186	-113.598	0.063	0.013
-606.171	116.719	-0.161	-0.201
-605.157	794.604	-0.066	0.184
-604.142	126.922	0.268	-0.345
-603.128	-200.000	0.055	0.298
-602.113	-33.854	-0.097	-0.054
-601.098	-118.566	-0.052	0.009
-600.084	800.000	0.046	0.130
-599.069	-200.000	0.000	0.218
-598.055	106.159	-0.177	-0.213
-597.040	220.980	0.189	0.309
-596.025	800.000	0.054	0.192
-595.011	-24.776	-0.111	0.067
-593.996	-103.614	-0.144	0.034
-592.982	-62.942	0.179	-0.075
-591.967	-106.938	0.065	0.015
-590.952	800.000	0.055	-0.178
-589.938	800.000	0.044	0.131
-588.923	-36.134	-0.348	-0.191
-587.909	77.171	-0.190	-0.205
-586.894	-124.677	0.118	-0.019
-585.879	79.512	-0.280	-0.305
-584.865	410.204	0.130	-0.281
-583.850	44.627	-0.176	-0.165
-582.836	-7.026	-0.179	0.123
-581.821	800.000	0.024	0.100
-580.806	105.188	0.023	-0.028
-579.792	-115.198	-0.170	-0.033
-578.777	260.856	0.262	0.460
-577.763	-8.342	0.117	0.080
-576.748	800.000	-0.062	0.198
-575.733	506.105	-0.071	-0.167
-574.719	42.767	0.284	-0.263
-573.704	800.000	0.078	0.254
-572.690	-200.000	-0.033	0.330
-571.675	165.827	0.124	0.179
-570.661	-87.518	0.151	0.046
-569.646	94.738	-0.167	-0.193
-568.631	6.232	0.194	-0.146
-567.617	-33.303	-0.353	-0.199
-566.602	5.446	-0.368	0.276
-565.588	-170.541	-0.459	0.016
-564.573	6.657	-0.052	-0.039
-563.558	-200.000	-0.033	-0.151
-562.544	-200.000	0.016	0.117
-561.529	12.100	0.168	0.131
-560.515	800.000	0.022	-0.065
-559.500	800.000	0.043	0.174
-558.485	-172.269	-0.063	0.002
-557.471	-200.000	-0.078	-0.584
-556.456	-200.000	-0.033	-0.200
-555.442	-200.000	-0.039	0.216
-554.427	-200.000	-0.022	0.372
-553.412	800.000	-0.053	0.171
-552.398	118.119	0.058	-0.072
-551.383	800.000	0.069	0.272
-550.369	800.000	-0.017	0.062
-549.354	-114.158	-0.307	-0.060
-548.339	53.290	-0.176	0.172
-547.325	800.000	-0.029	0.092
-546.310	-200.000	0.003	-0.206
-545.296	299.795	0.138	-0.258
-544.281	35.413	0.410	-0.365
-543.266	58.636	-0.267	0.266
-542.252	434.649	-0.099	-0.219
-541.237	-200.000	0.005	0.048
-540.223	555.356	0.074	-0.181
-539.208	26.743	0.213	0.181
-538.193	-80.453	-0.306	0.104
-537.179	-200.000	-0.017	0.184
-536.164	-51.991	-0.229	-0.108
-535.150	184.202	-0.045	0.067
-534.135	60.685	0.068	-0.068
-533.121	800.000	-0.047	-0.149
-532.106	-118.166	0.049	-0.009
-531.091	145.614	-0.208	-0.283
-530.077	170.139	0.134	-0.195
-529.062	345.903	-0.135	0.269
-528.048	800.000	0.043	0.121
-527.033	-91.377	0.161	0.047
-526.018	51.819	0.249	-0.240
-525.004	-0.299	-0.111	-0.080
-523.989	67.981	0.005	0.005
-522.975	-28.008	-0.038	0.022
-521.960	37.947	0.180	0.163
-520.945	-109.263	0.183	0.039
-519.931	-64.859	-0.268	-0.110
-518.916	380.120	-0.063	0.131
-517.902	-149.723	-0.173	0.014
-516.887	307.964	-0.127	-0.241
-515.872	-200.000	0.526	-0.002
-514.858	800.000	0.071	-0.277
-513.843	267.691	0.058	0.103
-512.829	89.812	-0.085	0.097
-511.814	628.088	0.083	-0.212
-510.799	-61.353	-0.297	-0.127
-509.785	800.000	-0.050	-0.196
-508.770	800.000	-0.086	-0.340
-507.756	-200.000	0.004	0.047
-506.741	-76.143	0.358	-0.128
-505.726	-200.000	0.005	-0.045
-504.712	800.000	-0.044	0.136
-503.697	800.000	-0.057	-0.169
-502.683	-200.000	-0.006	-0.177
-501.668	225.710	0.126	-0.206
-500.653	-181.556	-0.208	-0.004
-499.639	-142.705	-0.123	0.012
-498.624	-73.418	-0.179	-0.066
-497.610	-65.784	0.099	-0.040
-496.595	572.771	0.153	-0.379
-495.581	-157.267	-0.317	-0.019
-494.566	23.939	0.015	-0.013
-493.551	103.690	-0.149	-0.177
-492.537	-200.000	0.070	0.317
-491.522	-68.664	0.223	0.087
-490.508	254.242	0.105	0.182
-489.493	29.063	-0.230	-0.197
-488.478	-170.505	-0.447	0.016
-487.464	104.797	-0.023	0.027
-486.449	278.334	0.189	-0.341
-485.435	596.825	0.027	-0.067
-484.420	800.000	-0.071	-0.273
-483.405	121.810	0.089	-0.113
-482.391	-152.123	0.354	0.026
-481.376	424.486	0.035	-0.076
-480.362	800.000	-0.048	-0.160
-479.347	-132.559	0.268	0.035
-478.332	558.118	0.122	0.298
-477.318	154.108	0.202	0.281
-476.303	59.413	0.169	-0.169
-475.289	-149.780	-0.427	0.034
-474.274	131.614	-0.312	0.407
-473.259	46.721	-0.077	-0.072
-472.245	800.000	0.037	0.133
-471.230	7.826	0.110	-0.084
-470.216	72.123	0.230	0.242
-469.201	-200.000	0.048	-0.418
-468.186	-49.149	0.185	-0.089
-467.172	260.264	-0.081	-0.142
-466.157	199.034	0.101	0.157
-465.143	-101.497	-0.239	-0.059
-464.128	136.983	0.062	-0.082
-463.113	-74.031	-0.524	0.192
-462.099	-200.000	0.005	0.088
-461.084	252.480	0.058	-0.100
-460.070	59.858	0.145	0.145
-459.055	-5.669	-0.089	0.062
-458.040	-5.217	-0.256	-0.178
-457.026	540.739	0.135	0.325
-456.011	583.946	-0.079	-0.196
-454.997	-98.328	0.163	-0.042
-453.982	-24.764	0.214	-0.129
-452.968	-115.482	-0.388	-0.074
-451.953	-200.000	0.023	-0.409
-450.938	-108.952	0.230	-0.050
-449.924	-200.000	0.003	0.122
-448.909	25.446	-0.261	-0.220
-447.895	127.589	-0.278	0.357
-446.880	-47.070	-0.232	0.114
-445.865	356.554	-0.171	-0.344
-444.851	-127.481	0.222	0.033
-443.836	-84.279	0.215	0.069
-442.822	800.000	0.043	-0.142
-441.807	-93.094	-0.158	-0.044
-440.792	-141.645	0.081	0.008
-439.778	-200.000	-0.038	-0.188
-438.763	290.499	0.055	0.101
-437.749	-97.168	0.145	0.038
-436.734	800.000	-0.091	0.388
-435.719	-107.002	-0.276	0.062
-434.705	160.447	-0.111	0.156
-433.690	-127.734	-0.529	0.077
-432.676	-200.000	0.009	-0.177
-431.661	-200.000	0.079	-0.442
-430.646	-200.000	0.011	-0.163
-429.632	-141.521	-0.281	0.029
-428.617	33.218	0.104	-0.091
-427.603	-40.905	0.078	-0.041
-426.588	-120.051	0.401	-0.069
-425.573	-111.748	-0.126	0.026
-424.559	-111.279	-0.193	-0.040
-423.544	-200.000	-0.071	-0.393
-422.530	-115.388	-0.365	-0.070
-421.515	-200.000	0.002	-0.168
-420.500	-200.000	0.017	0.082
-419.486	17.570	-0.325	0.261
-418.471	-200.000	-0.047	-0.242
-417.457	-191.046	-0.132	0.001
-416.442	52.694	0.249	0.241
-415.428	87.079	0.132	-0.147
-414.413	800.000	0.056	-0.244
-413.398	-63.283	0.413	-0.172
-412.384	-123.835	0.330	-0.053
-411.369	800.000	-0.049	-0.152
-410.355	154.842	0.057	-0.079
-409.340	91.099	-0.198	-0.224
-408.325	-38.373	-0.208	0.111
-407.311	142.839	0.129	0.173
-406.296	800.000	-0.077	0.312
-405.282	-72.765	0.442	-0.164
-404.267	-87.424	-0.277	0.085
-403.252	-16.250	-0.094	0.060
-402.238	399.451	-0.126	0.266
-401.223	-67.422	0.051	0.020
-400.209	-77.405	-0.125	-0.044
-399.194	63.941	0.070	0.071
-398.179	-93.759	0.214	0.060
-397.165	-20.658	-0.052	0.032
-396.150	-133.099	-0.045	-0.006
-395.136	800.000	-0.064	0.213
-394.121	14.903	0.130	-0.103
-393.106	228.593	0.152	-0.250
-392.092	83.272	-0.149	-0.163
-391.077	-73.267	0.195	-0.072
-390.063	159.866	0.053	0.074
-389.048	-54.271	0.375	-0.172
-388.033	-168.514	-0.089	-0.003
-387.019	33.168	-0.401	0.351
-386.004	325.435	0.066	0.127
-384.990	-200.000	-0.004	0.096
-383.975	-189.136	-0.569	-0.007
-382.960	58.176	0.189	-0.187
-381.946	-24.807	0.206	0.124
-380.931	-153.074	0.084	0.006
-379.917	182.788	-0.153	-0.227
-378.902	-200.000	0.045	0.351
-377.888	221.752	0.048	0.077
-376.873	22.378	-0.142	-0.117
-375.858	-132.165	-0.224	-0.029
-374.844	130.772	0.136	-0.175
-373.829	-21.753	-0.156	-0.096
-372.815	-136.682	0.139	0.016
-371.800	381.673	-0.168	-0.347
-370.785	-90.281	0.319	0.094
-369.771	-200.000	-0.033	0.186
-368.756	101.220	-0.150	0.177
-367.742	-200.000	0.002	-0.416
-366.727	-200.000	0.033	-0.308
-365.712	9.250	0.220	-0.167
-364.698	-50.882	0.105	-0.050
-363.683	-61.002	0.085	0.036
-362.669	296.509	-0.096	-0.177
-361.654	-82.226	0.401	0.132
-360.639	-200.000	0.027	0.128
-359.625	-200.000	-0.029	-0.204
-358.610	460.441	0.056	-0.126
-357.596	92.412	0.152	-0.173
-356.581	-200.000	0.026	-0.198
-355.566	604.524	0.124	0.310
-354.552	356.296	0.192	-0.385
-353.537	200.976	0.151	-0.234
-352.523	-92.319	0.185	0.053
-351.508	-102.336	0.006	0.001
-350.493	69.150	0.129	0.133
-349.479	-200.000	0.004	0.404
-348.464	312.708	-0.138	0.261
-347.450	136.895	-0.117	0.154
-346.435	-200.000	0.015	0.157
-345.420	-64.072	0.143	-0.059
-344.406	800.000	-0.026	-0.085
-343.391	800.000	0.048	-0.153
-342.377	-142.623	-0.119	0.012
-341.362	-124.952	-0.235	-0.036
-340.348	403.911	-0.123	-0.261
-339.333	-172.982	0.156	0.005
-338.318	-200.000	-0.018	0.243
-337.304	344.735	-0.034	-0.067
-336.289	595.964	-0.077	-0.192
-335.275	283.569	0.120	0.217
-334.260	13.045	0.182	0.142
-333.245	-200.000	-0.013	0.149
-332.231	10.341	0.189	-0.145
-331.216	403.436	0.083	-0.175
-330.202	-97.477	0.325	0.085
-329.187	-33.735	-0.175	-0.097
-328.172	-87.691	0.216	0.065
-327.158	-200.000	0.009	0.110
-326.143	-110.312	0.252	-0.053
-325.129	-200.000	0.007	0.344
-324.114	-112.841	-0.040	0.008
-323.099	-50.179	-0.114	0.054
-322.085	-200.000	-0.023	0.249
-321.070	10.096	0.235	-0.180
-320.056	-200.000	0.018	0.431
-319.041	509.232	0.087	0.204
-318.026	274.001	0.127	0.226
-317.012	-200.000	0.027	0.369
-315.997	-99.516	0.188	0.048
-314.983	139.841	-0.111	-0.147
-313.968	85.325	-0.090	0.099
-312.953	-147.209	-0.270	-0.023
-311.939	337.751	-0.133	0.261
-310.924	-115.209	0.249	-0.047
-309.910	-200.000	-0.040	0.398
-308.895	609.435	-0.051	-0.128
-307.880	83.057	-0.073	-0.080
-306.866	-56.061	0.063	0.028
-305.851	94.648	-0.241	0.276
-304.837	433.012	-0.220	-0.480
-303.822	36.798	-0.261	-0.232
-302.807	26.642	-0.103	0.086
-301.793	-200.000	-0.008	0.325
-300.778	-106.512	-0.304	0.068
-299.764	223.151	0.071	0.116
-298.749	-122.853	0.302	-0.049
-297.735	2.138	0.381	0.277
-296.720	-11.087	0.133	-0.088
-295.705	-200.000	-0.017	-0.215
-294.691	-1.721	-0.096	0.068
-293.676	47.294	0.111	-0.104
-292.662	-200.000	-0.057	0.362
-291.647	-103.069	0.215	0.051
-290.632	-116.159	-0.210	-0.039
-289.618	212.752	0.196	0.310
-288.603	-200.000	-0.018	-0.181
-287.589	-154.306	-0.268	0.018
-286.574	792.069	0.061	-0.167
-285.559	-101.628	0.165	-0.040
-284.545	27.254	0.053	0.045
-283.530	50.238	0.352	0.334
-282.516	-102.648	-0.184	0.044
-281.501	149.652	0.304	-0.414
-280.486	7.402	-0.041	-0.031
-279.472	8.486	-0.033	-0.025
-278.457	800.000	-0.000	0.002
-277.443	352.369	0.230	-0.458
-276.428	180.958	0.113	0.167
-275.413	-200.000	-0.000	0.349
-274.399	61.222	0.367	0.367
-273.384	-109.837	-0.254	-0.054
-272.370	126.634	-0.183	-0.232
-271.355	183.174	-0.132	-0.196
-270.340	219.375	0.017	0.028
-269.326	116.043	0.203	0.250
-268.311	-91.024	0.296	0.085
-267.297	-101.841	-0.556	-0.135
-266.282	-200.000	0.018	-0.295
-265.267	800.000	0.055	0.155
-264.253	-79.717	-0.275	-0.093
-263.238	162.979	0.159	-0.224
-262.224	-154.051	-0.393	0.027
-261.209	-112.081	0.141	0.028
-260.195	-200.000	-0.009	0.502
-259.180	20.819	0.369	0.300
-258.165	-183.090	-0.424	0.008
-257.151	-148.391	0.531	-0.044
-256.136	-200.000	-0.017	-0.249
-255.122	165.353	-0.152	0.215
-254.107	29.090	-0.132	0.113
-253.092	800.000	0.044	0.176
-252.078	-200.000	0.028	0.449
-251.063	-200.000	-0.010	-0.157
-250.049	800.000	-0.020	-0.087
-249.034	423.341	0.064	-0.139
-248.019	718.239	-0.079	-0.210
-247.005	-48.038	0.459	-0.223
-245.990	164.849	-0.135	-0.191
-244.976	-73.337	-0.225	0.083
-243.961	781.438	-0.072	-0.198
-242.946	459.602	0.093	-0.207
-241.932	359.701	0.129	0.258
-240.917	551.128	0.030	-0.072
-239.903	-16.905	0.013	0.008
-238.888	-200.000	0.016	0.101
-237.873	800.000	0.044	0.134
-236.859	89.904	-0.080	-0.090
-235.844	187.442	0.069	-0.103
-234.830	-200.000	0.023	0.173
-233.815	-13.186	-0.146	0.095
-232.800	-37.829	-0.165	0.088
-231.786	290.254	-0.119	0.217
-230.771	-89.189	0.055	0.016
-229.757	116.654	0.073	-0.090
-228.742	-136.242	-0.274	0.032
-227.727	-50.245	0.229	0.109
-226.713	470.691	0.055	-0.123
-225.698	-90.512	0.108	-0.031
-224.684	-80.673	-0.221	-0.074
-223.669	-200.000	0.107	0.479
-222.655	800.000	0.140	0.396
-221.640	800.000	0.069	0.229
-220.625	32.151	-0.063	-0.055
-219.611	43.050	0.070	-0.064
-218.596	-200.000	-0.013	-0.158
-217.582	-187.520	-0.065	0.001
-216.567	800.000	-0.077	-0.279
-215.552	-7.165	-0.183	0.124
-214.538	-200.000	0.009	0.097
-213.523	78.101	-0.157	-0.168
-212.509	24.897	0.173	0.143
-211.494	-200.000	-0.006	-0.215
-210.479	-200.000	0.002	0.392
-209.465	-97.828	-0.159	-0.041
-208.450	-112.951	0.094	0.019
-207.436	-200.000	0.005	0.225
-206.421	-200.000	-0.037	-0.300
-205.406	-160.150	-0.186	-0.010
-204.392	215.553	-0.061	0.096
-203.377	-23.545	-0.151	0.091
-202.363	25.623	-0.169	0.141
-201.348	190.468	-0.137	-0.206
-200.333	-200.000	-0.034	0.257
-199.319	27.758	0.110	0.093
-198.304	272.367	0.022	0.039
-197.290	-82.499	-0.064	0.021
-196.275	-75.236	0.128	-0.046
-195.260	-95.239	0.194	0.052
-194.246	7.694	-0.145	0.109
-193.231	-163.172	-0.095	0.005
-192.217	-135.195	0.358	0.043
-191.202	-73.362	0.232	0.085
-190.187	9.784	-0.145	0.110
-189.173	-200.000	-0.000	-0.316
-188.158	-66.688	0.378	-0.150
-187.144	569.561	-0.084	0.204
-186.129	-8.410	-0.247	0.166
-185.114	-200.000	-0.010	0.138
-184.100	-200.000	0.002	0.116
-183.085	-154.114	-0.204	-0.014
-182.071	-138.269	-0.318	-0.035
-181.056	-200.000	-0.005	-0.391
-180.042	399.685	-0.128	0.268
-179.027	-62.772	0.486	0.201
-178.012	714.316	-0.061	0.161
-176.998	273.856	0.170	0.301
-175.983	-157.240	-0.189	0.011
-174.969	-200.000	0.110	-0.000
-173.954	-28.357	-0.251	0.145
-172.939	45.554	0.100	-0.093
-171.925	64.282	0.060	0.060
-170.910	-200.000	-0.021	-0.101
-169.896	-92.642	-0.178	0.050
-168.881	-200.000	0.017	-0.200
-167.866	-77.636	-0.247	0.085
-166.852	-96.935	0.355	-0.093
-165.837	68.649	-0.201	-0.206
-164.823	108.710	-0.129	-0.155
-163.808	-100.288	-0.085	-0.021
-162.793	-47.265	0.379	-0.184
-161.779	-3.965	-0.124	-0.086
-160.764	119.911	0.103	0.128
-159.750	-166.943	-0.259	-0.011
-158.735	25.537	-0.231	-0.192
-157.720	576.271	-0.055	0.134
-156.706	-112.723	-0.213	-0.042
-155.691	128.777	-0.220	-0.280
-154.677	433.198	-0.052	-0.113
-153.662	85.524	-0.205	-0.225
-152.647	54.112	-0.062	-0.060
-151.633	-127.004	-0.278	0.041
-150.618	108.676	-0.145	0.173
-149.604	640.645	0.129	-0.329
-148.589	-30.633	-0.153	-0.087
-147.574	666.989	0.040	0.102
-146.560	-15.449	-0.128	-0.081
-145.545	-57.189	0.104	-0.046
-144.531	-127.844	-0.246	0.035
-143.516	-149.705	0.113	-0.009
-142.502	81.575	0.136	0.147
-141.487	675.948	0.247	-0.641
-140.472	-200.000	-0.043	0.367
-139.458	46.643	-0.167	-0.155
-138.443	-149.735	0.097	-0.008
-137.429	-64.844	-0.261	0.105
-136.414	62.657	0.297	0.297
-135.399	800.000	0.109	-0.400
-134.385	18.416	-0.179	-0.143
-133.370	-200.000	0.000	-0.042
-132.356	395.662	-0.089	-0.186
-131.341	800.000	-0.075	-0.233
-130.326	-38.081	0.197	-0.104
-129.312	-44.464	0.253	-0.126
-128.297	310.447	0.138	-0.258
-127.283	142.665	-0.151	0.200
-126.268	68.974	0.030	0.030
-125.253	-77.170	-0.402	-0.140
-124.239	48.163	0.122	-0.114
-123.224	800.000	-0.036	-0.109
-122.210	-38.000	0.478	-0.254
-121.195	-36.690	0.066	0.035
