DTS Sentinel unit serial number:	SN413079Multiplexer serial number:	ORYXHardware model number:	OX4-SRSoftware version number:	ORYX F/W v4.00 Oryx Data Collector v3.7.2.0data status	okinstallation	princeton_trtdifferential loss correction	single-endedforward channel	channel 1reverse channel	N/Adate	2019/09/18time	15:46:35forward acquisition time	60.00reverse acquisition time	0.00gamma	496.2192k internal	0.2298k external	0.2298temperature offset calibration	0.9993default loss term (dB/km)	0.3790temperature slope calibration	1.0000multiplexer offset coefficient	1.0000multiplexer slope coefficient	1.0000fibre end	0.00T internal ref (°C)	36.50T ext. ref 1 (°C)	0.80T ext. ref 2 (°C)	33.62length (m)	temperature (°C)	Stokes	anti-Stokes-747.200	-55.076	0.319	-0.146
-746.185	-27.342	-0.319	0.190
-745.171	-71.524	0.490	0.187
-744.156	87.097	-0.042	0.048
-743.142	180.334	-0.053	-0.080
-742.127	265.766	-0.083	0.148
-741.112	482.855	-0.191	0.444
-740.098	800.000	-0.084	0.235
-739.083	19.189	0.078	-0.064
-738.069	-200.000	0.020	0.204
-737.054	-123.855	-0.500	0.081
-736.039	-33.730	-0.238	-0.134
-735.025	83.341	-0.127	0.142
-734.010	35.360	-0.261	0.234
-732.996	249.586	-0.080	-0.138
-731.981	21.395	-0.265	-0.220
-730.966	-200.000	0.028	0.149
-729.952	184.257	-0.144	0.218
-728.937	800.000	-0.153	-0.613
-727.923	-4.676	0.065	-0.045
-726.908	-45.772	-0.265	0.133
-725.894	-141.369	0.475	-0.049
-724.879	10.728	-0.116	0.090
-723.864	-47.839	-0.173	0.085
-722.850	-104.717	0.070	0.016
-721.835	426.530	0.125	-0.275
-720.821	146.846	-0.038	-0.052
-719.806	259.194	0.053	0.094
-718.791	205.754	-0.413	0.655
-717.777	-200.000	0.007	-0.035
-716.762	800.000	-0.075	-0.289
-715.748	146.314	0.124	-0.170
-714.733	-200.000	-0.033	-0.230
-713.718	-46.335	0.289	-0.145
-712.704	-60.795	-0.077	0.033
-711.689	35.429	0.074	-0.067
-710.675	63.232	-0.430	-0.440
-709.660	-133.984	-0.445	0.056
-708.645	800.000	-0.005	0.017
-707.631	164.961	-0.031	-0.044
-706.616	800.000	-0.111	-0.349
-705.602	-200.000	-0.026	-0.184
-704.587	-150.129	-0.231	-0.018
-703.572	309.812	-0.050	0.095
-702.558	-53.903	-0.291	0.135
-701.543	-200.000	-0.026	-0.334
-700.529	-108.378	-0.258	0.057
-699.514	-135.568	-0.195	0.024
-698.499	-39.909	-0.289	-0.154
-697.485	267.585	-0.061	0.108
-696.470	553.223	-0.123	-0.302
-695.456	343.191	0.183	-0.365
-694.441	622.992	0.082	-0.211
-693.426	-200.000	-0.005	-0.051
-692.412	79.949	-0.312	-0.341
-691.397	10.352	0.254	-0.197
-690.383	800.000	-0.029	-0.110
-689.368	371.352	-0.096	-0.199
-688.354	-104.253	0.334	-0.079
-687.339	-145.222	0.423	-0.039
-686.324	800.000	0.054	-0.202
-685.310	-4.710	-0.085	-0.060
-684.295	800.000	0.035	0.121
-683.281	-170.734	0.163	0.006
-682.266	800.000	-0.054	-0.223
-681.251	-200.000	0.058	0.357
-680.237	-11.367	0.212	-0.142
-679.222	1.981	0.160	-0.118
-678.208	37.248	-0.041	-0.037
-677.193	800.000	0.118	-0.342
-676.178	-71.125	-0.442	-0.169
-675.164	635.650	-0.103	0.265
-674.149	62.999	0.200	0.204
-673.135	54.846	-0.271	-0.266
-672.120	394.128	-0.136	-0.288
-671.105	-81.682	-0.125	0.042
-670.091	-118.900	-0.203	0.036
-669.076	-200.000	-0.008	0.205
-668.062	800.000	-0.098	-0.359
-667.047	-70.582	-0.180	0.069
-666.032	158.910	0.120	-0.170
-665.018	-200.000	0.043	0.203
-664.003	7.111	0.188	0.143
-662.989	-200.000	0.028	-0.294
-661.974	18.390	-0.129	0.105
-660.959	-200.000	0.019	-0.147
-659.945	-200.000	0.016	0.201
-658.930	-200.000	0.009	0.111
-657.916	14.925	-0.319	-0.254
-656.901	607.920	-0.082	0.208
-655.886	-67.149	-0.295	0.118
-654.872	160.028	-0.097	0.138
-653.857	800.000	0.094	-0.275
-652.843	-36.731	-0.227	0.124
-651.828	48.040	-0.119	-0.113
-650.814	-200.000	0.049	-0.226
-649.799	283.639	-0.037	0.067
-648.784	-182.256	-0.464	-0.009
-647.770	-200.000	-0.008	-0.261
-646.755	672.615	0.075	-0.197
-645.741	-75.283	-0.145	-0.053
-644.726	-200.000	0.003	0.153
-643.711	-200.000	-0.039	0.179
-642.697	-83.265	0.227	-0.074
-641.682	38.692	0.204	-0.185
-640.668	-200.000	-0.025	0.400
-639.653	-48.573	0.092	0.045
-638.638	13.835	-0.229	-0.181
-637.624	-108.497	0.240	-0.053
-636.609	-30.474	-0.266	0.153
-635.595	193.968	0.133	-0.205
-634.580	800.000	-0.061	-0.209
-633.565	380.983	-0.089	-0.185
-632.551	-66.548	0.388	-0.156
-631.536	-200.000	-0.004	0.024
-630.522	93.723	-0.019	0.022
-629.507	-142.572	-0.220	-0.022
-628.492	82.664	0.276	0.304
-627.478	327.901	0.017	0.033
-626.463	7.519	0.127	-0.096
-625.449	771.649	-0.134	-0.370
-624.434	748.873	-0.025	-0.068
-623.419	-40.198	-0.063	-0.033
-622.405	800.000	-0.032	-0.132
-621.390	-10.729	0.271	-0.182
-620.376	527.357	-0.088	-0.212
-619.361	41.987	-0.114	0.105
-618.346	-111.406	0.204	-0.042
-617.332	53.359	-0.171	0.166
-616.317	528.118	-0.161	-0.385
-615.303	-64.361	0.117	0.048
-614.288	117.571	-0.124	-0.155
-613.273	84.715	0.110	-0.122
-612.259	-200.000	0.025	-0.487
-611.244	-200.000	-0.002	-0.100
-610.230	22.058	0.200	0.165
-609.215	-98.126	-0.132	0.034
-608.201	-142.024	-0.288	-0.029
-607.186	-47.637	-0.179	-0.088
-606.171	-200.000	0.032	-0.192
-605.157	58.117	0.227	-0.226
-604.142	68.666	0.061	-0.064
-603.128	-76.272	0.168	0.060
-602.113	242.886	0.159	0.270
-601.098	-84.731	-0.420	-0.134
-600.084	-18.178	-0.281	-0.178
-599.069	609.992	0.002	0.005
-598.055	44.146	0.180	0.167
-597.040	800.000	-0.069	0.276
-596.025	7.010	-0.214	0.162
-595.011	386.862	-0.012	-0.024
-593.996	279.113	-0.171	-0.309
-592.982	95.481	-0.144	0.167
-591.967	240.319	0.132	0.224
-590.952	775.910	-0.090	-0.249
-589.938	333.242	-0.071	0.139
-588.923	613.583	-0.031	0.079
-587.909	634.701	-0.032	-0.083
-586.894	-28.019	0.121	-0.071
-585.879	312.705	-0.040	-0.077
-584.865	68.211	-0.098	0.102
-583.850	-200.000	0.026	0.192
-582.836	126.293	-0.158	0.203
-581.821	141.813	-0.223	-0.300
-580.806	192.014	0.082	0.125
-579.792	-79.119	0.141	0.048
-578.777	575.395	0.039	-0.097
-577.763	26.636	0.085	0.072
-576.748	-100.436	-0.183	0.046
-575.733	66.520	0.077	-0.080
-574.719	-200.000	0.012	-0.296
-573.704	452.971	-0.088	-0.197
-572.690	-149.148	-0.082	-0.007
-571.675	-183.809	0.195	0.003
-570.661	502.076	-0.078	0.183
-569.646	-91.686	0.239	0.069
-568.631	-17.571	0.162	-0.104
-567.617	-29.601	-0.193	0.112
-566.602	1.827	0.202	0.147
-565.588	95.635	-0.066	-0.076
-564.573	-200.000	-0.060	-0.335
-563.558	73.571	0.164	-0.174
-562.544	-20.912	0.157	-0.098
-561.529	-200.000	0.027	0.456
-560.515	-47.640	-0.231	0.114
-559.500	306.775	0.039	-0.074
-558.485	-19.155	0.338	-0.213
-557.471	190.058	-0.149	-0.227
-556.456	-200.000	-0.006	0.125
-555.442	-101.236	0.073	0.018
-554.427	-141.964	-0.128	0.013
-553.412	54.551	0.220	0.215
-552.398	59.328	0.073	-0.073
-551.383	-200.000	0.076	0.672
-550.369	-200.000	-0.073	0.331
-549.354	-134.217	0.193	0.024
-548.339	-19.987	-0.042	-0.027
-547.325	-89.357	-0.036	-0.011
-546.310	-200.000	0.012	0.087
-545.296	282.543	0.146	-0.266
-544.281	11.999	-0.103	-0.080
-543.266	-74.041	0.267	0.098
-542.252	77.412	-0.057	-0.061
-541.237	61.745	-0.064	0.064
-540.223	-200.000	0.015	-0.299
-539.208	271.315	0.055	0.097
-538.193	-200.000	0.009	0.160
-537.179	-68.774	0.199	-0.078
-536.164	-130.027	0.400	0.055
-535.150	-14.287	-0.104	-0.068
-534.135	-65.200	-0.234	0.096
-533.121	-200.000	0.060	0.285
-532.106	-3.138	-0.371	0.262
-531.091	-79.245	-0.298	0.102
-530.077	-38.777	-0.262	0.140
-529.062	800.000	0.043	-0.152
-528.048	172.688	-0.102	0.149
-527.033	-200.000	-0.059	-0.347
-526.018	-128.918	-0.210	0.030
-525.004	-200.000	-0.004	-0.047
-523.989	721.536	-0.129	-0.349
-522.975	249.380	0.063	-0.108
-521.960	-34.677	0.115	0.064
-520.945	-71.948	-0.260	0.098
-519.931	-142.310	0.079	0.008
-518.916	391.022	0.022	-0.047
-517.902	-70.007	0.268	0.103
-516.887	309.983	-0.109	-0.207
-515.872	-84.420	0.168	-0.054
-514.858	-25.369	0.252	0.151
-513.843	-200.000	0.006	-0.166
-512.829	-200.000	0.001	-0.394
-511.814	-93.640	-0.073	-0.020
-510.799	39.927	0.068	-0.061
-509.785	654.467	-0.094	-0.244
-508.770	144.241	0.176	0.238
-507.756	-157.858	-0.186	-0.011
-506.741	800.000	-0.062	-0.248
-505.726	7.476	-0.120	-0.091
-504.712	-111.459	-0.160	0.033
-503.697	295.059	0.045	-0.084
-502.683	629.471	0.076	0.194
-501.668	110.014	-0.032	-0.039
-500.653	-17.174	-0.206	-0.132
-499.639	71.618	-0.287	-0.301
-498.624	576.597	-0.053	-0.132
-497.610	170.607	0.121	-0.176
-496.595	-200.000	-0.021	-0.184
-495.581	-200.000	-0.313	-0.001
-494.566	139.363	0.124	-0.165
-493.551	599.170	0.054	0.137
-492.537	-200.000	0.069	0.417
-491.522	622.772	-0.020	0.050
-490.508	-55.321	-0.173	-0.078
-489.493	-154.459	0.151	0.010
-488.478	-46.163	-0.052	0.026
-487.464	444.961	0.077	-0.170
-486.449	-200.000	0.012	-0.150
-485.435	-40.488	0.153	-0.080
-484.420	-200.000	0.009	0.253
-483.405	-6.001	0.144	-0.100
-482.391	4.573	-0.320	0.237
-481.376	152.484	-0.061	0.084
-480.362	305.539	-0.100	0.188
-479.347	-27.560	-0.187	-0.110
-478.332	-19.084	-0.172	0.108
-477.318	-84.002	0.139	-0.045
-476.303	64.219	0.046	-0.047
-475.289	-66.533	0.178	0.071
-474.274	224.756	-0.222	0.363
-473.259	-107.402	0.076	0.017
-472.245	280.139	0.102	-0.184
-471.230	464.877	-0.047	-0.107
-470.216	800.000	-0.042	-0.164
-469.201	-3.725	0.223	0.156
-468.186	189.988	0.154	0.234
-467.172	648.948	0.163	0.421
-466.157	-109.113	0.327	-0.070
-465.143	294.220	-0.070	0.130
-464.128	609.593	-0.124	-0.314
-463.113	460.928	-0.192	0.433
-462.099	-200.000	0.004	0.290
-461.084	-200.000	0.038	-0.208
-460.070	-200.000	-0.021	0.091
-459.055	-200.000	0.002	-0.233
-458.040	-200.000	-0.046	0.347
-457.026	344.642	-0.090	0.178
-456.011	321.387	-0.107	-0.205
-454.997	454.568	0.096	0.214
-453.982	173.292	0.314	0.456
-452.968	176.623	-0.184	-0.270
-451.953	30.781	0.167	0.144
-450.938	43.438	0.183	0.169
-449.924	-132.282	-0.223	0.029
-448.909	-200.000	-0.004	-0.057
-447.895	-35.511	0.211	-0.116
-446.880	-200.000	0.037	-0.208
-445.865	87.842	-0.131	-0.146
-444.851	181.176	-0.132	-0.196
-443.836	90.950	0.204	-0.231
-442.822	408.067	0.045	-0.095
-441.807	-48.168	-0.151	-0.074
-440.792	800.000	-0.084	-0.288
-439.778	667.852	0.050	0.129
-438.763	-127.351	0.208	-0.031
-437.749	100.830	0.194	-0.227
-436.734	475.609	0.129	0.294
-435.719	-200.000	-0.003	-0.313
-434.705	-200.000	-0.067	-0.334
-433.690	105.575	-0.101	0.120
-432.676	133.274	-0.093	-0.121
-431.661	-119.018	0.008	-0.001
-430.646	-109.459	0.203	0.043
-429.632	-166.385	0.244	0.010
-428.617	-10.096	-0.311	0.208
-427.603	43.149	-0.213	0.196
-426.588	-95.893	0.118	-0.032
-425.573	-200.000	0.026	-0.210
-424.559	177.104	-0.100	-0.147
-423.544	-59.272	-0.174	0.076
-422.530	-104.159	-0.308	-0.072
-421.515	-95.840	-0.239	0.064
-420.500	-98.639	-0.220	-0.057
-419.486	-200.000	-0.001	0.218
-418.471	-138.135	-0.406	0.045
-417.457	169.082	-0.101	-0.145
-416.442	-200.000	-0.004	-0.162
-415.428	-53.793	0.278	-0.128
-414.413	800.000	-0.114	0.428
-413.398	800.000	-0.094	0.358
-412.384	-200.000	-0.024	-0.393
-411.369	-187.012	0.292	-0.004
-410.355	1.376	0.137	0.099
-409.340	138.581	-0.119	0.157
-408.325	245.180	0.324	0.549
-407.311	71.814	0.042	0.044
-406.296	-166.349	0.091	0.004
-405.282	10.868	0.108	0.083
-404.267	99.067	0.027	-0.032
-403.252	317.241	-0.192	-0.367
-402.238	10.718	-0.259	0.199
-401.223	-5.161	-0.068	-0.047
-400.209	-21.404	-0.299	0.184
-399.194	800.000	0.079	-0.328
-398.179	800.000	-0.035	-0.146
-397.165	-38.507	-0.020	-0.011
-396.150	146.605	0.302	0.408
-395.136	4.475	0.197	0.145
-394.121	181.011	0.142	-0.210
-393.106	625.051	0.073	0.185
-392.092	32.777	-0.183	0.159
-391.077	59.614	0.141	0.140
-390.063	45.421	0.264	0.245
-389.048	-2.058	-0.100	0.070
-388.033	-200.000	-0.049	-0.533
-387.019	-146.412	0.304	-0.027
-386.004	-200.000	0.009	-0.083
-384.990	-36.799	-0.158	0.086
-383.975	-124.524	-0.031	0.005
-382.960	-125.849	-0.122	-0.018
-381.946	-7.544	0.053	-0.036
-380.931	-200.000	-0.004	0.198
-379.917	19.226	-0.222	0.179
-378.902	800.000	0.074	0.280
-377.888	-87.842	-0.142	0.043
-376.873	-200.000	-0.008	-0.126
-375.858	285.782	0.057	-0.103
-374.844	-200.000	0.004	-0.060
-373.829	243.689	-0.094	-0.159
-372.815	-200.000	-0.071	-0.444
-371.800	-200.000	-0.015	-0.135
-370.785	346.595	0.033	0.066
-369.771	800.000	-0.036	-0.126
-368.756	-50.459	0.088	0.042
-367.742	-83.254	-0.172	-0.055
-366.727	-175.200	0.242	-0.007
-365.712	-200.000	-0.030	0.331
-364.698	112.037	-0.230	0.279
-363.683	23.372	-0.101	0.084
-362.669	-200.000	0.066	-0.390
-361.654	-188.761	0.458	0.006
-360.639	-159.811	0.029	0.002
-359.625	59.334	0.157	0.155
-358.610	-169.793	-0.182	-0.007
-357.596	-75.346	-0.166	0.060
-356.581	-160.744	0.088	0.005
-355.566	478.945	-0.114	-0.259
-354.552	-54.880	-0.260	-0.118
-353.537	531.132	0.121	0.287
-352.523	-176.148	0.228	0.006
-351.508	221.210	-0.233	0.377
-350.493	-95.550	-0.458	0.123
-349.479	-200.000	0.013	0.313
-348.464	107.869	-0.133	0.159
-347.450	73.289	-0.169	0.178
-346.435	-67.911	0.374	0.147
-345.420	-200.000	0.002	0.148
-344.406	71.903	-0.162	0.170
-343.391	-200.000	0.012	0.081
-342.377	605.064	-0.080	-0.201
-341.362	776.261	-0.059	0.162
-340.348	-112.890	-0.134	-0.027
-339.333	-168.327	-0.122	-0.005
-338.318	503.860	0.138	-0.322
-337.304	-200.000	0.014	0.068
-336.289	-200.000	0.052	0.346
-335.275	800.000	-0.094	-0.355
-334.260	-139.584	0.273	-0.029
-333.245	9.823	0.332	0.253
-332.231	-74.737	0.187	0.068
-331.216	149.358	0.057	0.077
-330.202	-96.462	-0.273	0.073
-329.187	312.514	0.098	-0.184
-328.172	-139.367	-0.198	0.021
-327.158	161.009	0.120	-0.168
-326.143	170.835	-0.212	0.306
-325.129	-169.730	0.339	-0.012
-324.114	-125.941	0.339	-0.051
-323.099	-139.762	0.413	-0.044
-322.085	44.168	-0.157	-0.145
-321.070	-73.447	0.110	-0.040
-320.056	-125.416	0.274	0.042
-319.041	-160.133	-0.193	-0.011
-318.026	-60.590	-0.161	0.069
-317.012	591.854	0.047	-0.115
-315.997	384.954	-0.219	0.452
-314.983	-30.949	0.239	0.136
-313.968	-97.934	0.079	0.021
-312.953	800.000	-0.140	-0.400
-311.939	189.417	0.048	0.072
-310.924	-135.759	-0.121	-0.014
-309.910	-76.798	0.072	-0.025
-308.895	-171.113	0.166	0.006
-307.880	-45.911	-0.042	0.021
-306.866	-75.022	0.324	0.116
-305.851	-67.963	0.114	0.045
-304.837	288.774	0.133	-0.242
-303.822	-59.005	0.246	-0.107
-302.807	447.836	0.088	-0.195
-301.793	1.620	0.295	-0.213
-300.778	-200.000	-0.013	0.285
-299.764	199.272	0.105	-0.161
-298.749	14.575	0.177	0.139
-297.735	-6.497	-0.212	-0.145
-296.720	-26.443	0.111	0.065
-295.705	-134.691	0.323	0.039
-294.691	121.981	-0.359	-0.449
-293.676	328.244	-0.161	-0.311
-292.662	578.521	-0.034	0.083
-291.647	34.304	0.134	-0.117
-290.632	-57.960	0.043	-0.019
-289.618	228.042	-0.160	-0.262
-288.603	-200.000	-0.001	0.210
-287.589	-200.000	-0.002	-0.033
-286.574	-52.882	-0.292	-0.135
-285.559	-18.510	0.107	-0.067
-284.545	86.865	-0.293	0.325
-283.530	-135.087	-0.170	0.021
-282.516	-200.000	-0.056	0.368
-281.501	721.880	0.135	0.360
-280.486	240.551	-0.066	0.110
-279.472	800.000	-0.100	0.312
-278.457	-73.593	0.194	-0.071
-277.443	-200.000	0.006	0.092
-276.428	64.988	0.251	-0.254
-275.413	800.000	-0.047	0.142
-274.399	-200.000	0.015	0.207
-273.384	-92.846	-0.105	0.029
-272.370	65.020	-0.033	-0.033
-271.355	-68.257	0.321	-0.125
-270.340	-200.000	0.018	0.142
-269.326	-51.212	0.213	0.100
-268.311	-89.121	-0.341	0.101
-267.297	-200.000	0.005	-0.323
-266.282	-62.873	-0.302	0.125
-265.267	279.246	-0.170	0.305
-264.253	-200.000	-0.036	0.207
-263.238	-200.000	-0.015	0.077
-262.224	225.697	0.078	-0.127
-261.209	59.232	0.085	-0.083
-260.195	119.948	0.160	-0.199
-259.180	-124.393	0.279	-0.044
-258.165	34.308	0.093	0.081
-257.151	800.000	-0.019	-0.074
-256.136	13.783	-0.066	0.051
-255.122	800.000	0.037	-0.110
-254.107	-200.000	0.060	-0.401
-253.092	384.136	0.046	0.095
-252.078	-53.233	0.334	0.153
-251.063	-55.241	0.195	-0.088
-250.049	800.000	0.062	0.213
-249.034	-200.000	0.003	-0.281
-248.019	566.591	0.052	0.126
-247.005	74.365	-0.087	-0.091
-245.990	211.444	0.136	-0.214
-244.976	111.060	-0.192	0.232
-243.961	-87.554	-0.307	-0.093
-242.946	69.455	-0.250	0.258
-241.932	120.159	0.157	0.195
-240.917	-200.000	0.034	0.421
-239.903	-83.931	-0.274	0.087
-238.888	-18.021	0.014	-0.009
-237.873	154.915	0.137	0.188
-236.859	47.861	0.250	-0.233
-235.844	-140.619	0.106	0.011
-234.830	-89.448	0.107	-0.031
-233.815	142.039	0.082	0.108
-232.800	14.823	-0.312	0.244
-231.786	82.153	-0.295	-0.320
-230.771	800.000	-0.081	-0.344
-229.757	-51.445	-0.282	-0.132
-228.742	159.138	-0.086	-0.120
-227.727	532.080	0.077	-0.183
-226.713	182.766	0.226	0.333
-225.698	-80.759	-0.129	-0.043
-224.684	-43.069	0.203	-0.103
-223.669	-24.082	0.153	0.091
-222.655	-93.281	0.125	0.035
-221.640	-130.677	0.171	-0.023
-220.625	127.199	-0.247	-0.314
-219.611	19.117	-0.111	-0.089
-218.596	800.000	0.062	0.218
-217.582	-78.527	0.310	0.106
-216.567	-200.000	-0.044	-0.263
-215.552	-20.083	0.244	0.151
-214.538	413.386	-0.145	0.308
-213.523	-200.000	-0.006	-0.219
-212.509	23.608	-0.174	-0.143
-211.494	-122.737	0.430	0.070
-210.479	-78.508	-0.272	-0.093
-209.465	-58.675	-0.283	0.122
-208.450	183.594	-0.143	-0.211
-207.436	-121.276	0.434	-0.072
-206.421	-70.865	-0.233	-0.088
-205.406	-200.000	-0.038	0.215
-204.392	-41.435	-0.233	-0.120
-203.377	505.973	-0.043	-0.099
-202.363	-200.000	0.029	-0.203
-201.348	-200.000	0.010	-0.079
-200.333	-200.000	0.002	0.129
-199.319	-23.786	0.194	-0.116
-198.304	59.676	-0.069	-0.068
-197.290	-158.280	-0.232	0.014
-196.275	-123.213	-0.268	-0.043
-195.260	-106.656	0.347	-0.077
-194.246	-189.772	0.151	0.002
-193.231	-200.000	0.023	0.148
-192.217	-27.099	-0.056	0.033
-191.202	-133.180	0.106	-0.013
-190.187	-200.000	-0.011	-0.060
-189.173	-200.000	-0.015	-0.149
-188.158	-137.488	0.280	-0.032
-187.144	-151.225	0.304	-0.023
-186.129	88.830	-0.126	0.140
-185.114	-118.131	-0.161	0.029
-184.100	79.970	-0.211	0.227
-183.085	74.302	-0.129	-0.135
-182.071	-200.000	0.038	-0.231
-181.056	141.064	0.092	-0.122
-180.042	-200.000	-0.018	0.118
-179.027	43.190	0.097	-0.089
-178.012	-200.000	-0.038	0.308
-176.998	-132.647	-0.336	-0.043
-175.983	22.480	0.076	-0.062
-174.969	28.371	0.120	0.102
-173.954	119.291	0.084	-0.104
-172.939	-46.215	-0.417	0.205
-171.925	800.000	-0.019	0.078
-170.910	145.491	-0.165	0.221
-169.896	29.275	0.047	-0.040
-168.881	-14.465	0.225	0.145
-167.866	634.395	-0.058	0.146
-166.852	-200.000	0.021	0.180
-165.837	95.358	-0.099	0.112
-164.823	28.933	0.146	-0.124
-163.808	-32.579	0.154	0.086
-162.793	-159.952	-0.228	-0.012
-161.779	-29.355	-0.107	-0.061
-160.764	223.199	-0.076	-0.123
-159.750	462.033	0.058	-0.130
-158.735	-57.534	0.310	-0.136
-157.720	-200.000	0.029	-0.186
-156.706	-127.818	-0.383	-0.055
-155.691	-86.947	-0.218	-0.066
-154.677	122.720	0.197	0.246
-153.662	396.610	0.084	0.175
-152.647	-68.550	0.069	-0.027
-151.633	-200.000	0.041	-0.198
-150.618	18.635	0.030	0.024
-149.604	-154.787	-0.233	0.015
-148.589	-49.142	0.125	0.060
-147.574	-126.225	-0.132	0.020
-146.560	-154.383	0.339	0.023
-145.545	213.287	0.174	-0.274
-144.531	131.100	-0.049	-0.062
-143.516	-57.244	-0.142	0.062
-142.502	800.000	0.139	0.424
-141.487	-200.000	-0.009	0.139
-140.472	-114.543	0.058	-0.011
-139.458	-33.143	-0.081	-0.045
-138.443	50.427	0.158	-0.149
-137.429	46.860	0.076	-0.071
-136.414	-167.813	0.053	-0.002
-135.399	-56.626	-0.106	-0.047
-134.385	-50.585	0.335	0.157
-133.370	800.000	-0.063	-0.177
-132.356	122.735	0.165	0.206
-131.341	116.411	0.075	0.092
-130.326	51.185	0.057	-0.054
-129.312	-106.130	-0.182	0.041
-128.297	404.214	-0.074	0.156
-127.283	800.000	-0.005	-0.022
-126.268	-160.799	-0.152	-0.008
-125.253	49.416	0.151	0.142
-124.239	675.585	0.060	-0.154
-123.224	338.360	-0.189	0.367
-122.210	-200.000	-0.049	-0.282
