DTS Sentinel unit serial number:	SN413079Multiplexer serial number:	ORYXHardware model number:	OX4-SRSoftware version number:	ORYX F/W v4.00 Oryx Data Collector v3.7.2.0data status	okinstallation	princeton_trtdifferential loss correction	single-endedforward channel	channel 1reverse channel	N/Adate	2019/09/12time	17:40:11forward acquisition time	60.00reverse acquisition time	0.00gamma	496.2192k internal	0.2317k external	0.2317temperature offset calibration	1.0106default loss term (dB/km)	0.3790temperature slope calibration	1.0000multiplexer offset coefficient	1.0000multiplexer slope coefficient	1.0000fibre end	0.00T internal ref (°C)	34.31T ext. ref 1 (°C)	2.89T ext. ref 2 (°C)	28.38length (m)	temperature (°C)	Stokes	anti-Stokes-747.200	-38.092	0.258	-0.139
-746.185	-23.180	-0.269	0.164
-745.171	-18.458	-0.256	0.162
-744.156	-176.619	-0.279	0.007
-743.142	800.000	0.057	-0.183
-742.127	-14.582	-0.125	-0.081
-741.112	355.708	-0.080	0.161
-740.098	-200.000	-0.025	0.326
-739.083	-93.624	-0.294	0.082
-738.069	378.666	-0.076	0.158
-737.054	-61.014	-0.047	-0.020
-736.039	56.202	-0.197	-0.194
-735.025	121.148	0.212	0.267
-734.010	-200.000	-0.034	-0.269
-732.996	-174.604	-0.202	0.006
-731.981	-34.054	-0.275	0.153
-730.966	-119.094	0.185	0.033
-729.952	262.630	0.121	-0.213
-728.937	143.557	-0.135	-0.182
-727.923	-200.000	0.016	-0.097
-726.908	-34.033	-0.293	-0.163
-725.894	-113.789	0.551	0.109
-724.879	-200.000	-0.005	-0.025
-723.864	-147.219	-0.146	0.013
-722.850	138.216	-0.109	-0.144
-721.835	-200.000	-0.061	-0.372
-720.821	365.135	0.125	-0.255
-719.806	-200.000	0.021	-0.097
-718.791	-200.000	0.049	0.346
-717.777	-66.802	0.204	-0.082
-716.762	-60.229	-0.265	-0.114
-715.748	21.705	-0.241	0.199
-714.733	191.960	0.167	-0.254
-713.718	292.620	0.247	-0.455
-712.704	103.859	0.107	0.127
-711.689	268.630	-0.096	-0.170
-710.675	96.701	-0.056	-0.065
-709.660	800.000	0.028	0.119
-708.645	-40.767	0.120	0.063
-707.631	433.467	-0.022	0.048
-706.616	-105.300	-0.169	-0.039
-705.602	-86.922	-0.257	0.079
-704.587	13.953	0.158	-0.124
-703.572	-147.598	0.533	0.045
-702.558	406.381	-0.118	-0.251
-701.543	-29.863	0.100	-0.058
-700.529	43.527	-0.258	-0.238
-699.514	-19.977	0.139	-0.087
-698.499	36.527	0.251	0.224
-697.485	-157.920	0.223	0.013
-696.470	-200.000	-0.015	0.138
-695.456	800.000	0.066	-0.282
-694.441	800.000	0.015	-0.052
-693.426	230.083	-0.040	-0.065
-692.412	-156.835	-0.118	0.007
-691.397	-200.000	0.009	0.087
-690.383	-46.290	-0.061	-0.030
-689.368	-19.864	-0.124	-0.077
-688.354	185.336	0.178	0.267
-687.339	155.075	0.145	-0.201
-686.324	-26.207	0.375	-0.223
-685.310	-200.000	0.023	0.110
-684.295	-124.760	0.127	0.020
-683.281	-200.000	0.000	0.165
-682.266	-200.000	-0.014	-0.362
-681.251	-98.294	-0.065	-0.017
-680.237	56.513	-0.108	0.106
-679.222	286.490	-0.127	0.232
-678.208	205.315	0.079	0.124
-677.193	-108.189	-0.227	0.050
-676.178	800.000	-0.084	-0.323
-675.164	-41.470	0.290	0.151
-674.149	-119.922	-0.103	0.018
-673.135	211.247	0.115	-0.183
-672.120	49.504	-0.196	-0.186
-671.105	-79.490	-0.162	-0.055
-670.091	612.807	-0.027	0.067
-669.076	29.674	-0.218	0.187
-668.062	800.000	-0.100	0.316
-667.047	800.000	0.196	-0.560
-666.032	622.559	0.187	-0.475
-665.018	-102.548	0.145	-0.035
-664.003	-74.780	0.105	-0.038
-662.989	71.473	-0.187	-0.196
-661.974	800.000	0.051	-0.197
-660.959	571.138	-0.163	0.399
-659.945	42.675	-0.256	0.235
-658.930	379.240	0.117	0.241
-657.916	637.290	-0.076	-0.194
-656.901	86.386	0.226	-0.252
-655.886	-200.000	-0.017	-0.269
-654.872	172.738	-0.116	0.169
-653.857	29.952	-0.098	-0.084
-652.843	-103.223	-0.105	-0.025
-651.828	75.121	-0.284	-0.302
-650.814	800.000	-0.075	-0.240
-649.799	-12.461	0.104	0.068
-648.784	-65.671	0.195	0.079
-647.770	-79.648	-0.322	0.109
-646.755	69.611	-0.037	-0.038
-645.741	-9.707	0.292	-0.197
-644.726	295.893	0.058	-0.107
-643.711	-72.342	0.334	0.125
-642.697	-200.000	0.012	-0.294
-641.682	-70.150	-0.064	0.025
-640.668	-200.000	0.026	-0.235
-639.653	-200.000	-0.045	-0.276
-638.638	-200.000	0.039	-0.363
-637.624	98.402	-0.062	0.073
-636.609	3.853	0.115	-0.085
-635.595	-200.000	-0.008	0.177
-634.580	496.633	-0.095	-0.221
-633.565	164.926	0.103	-0.147
-632.551	757.775	0.169	0.461
-631.536	-1.929	-0.180	0.127
-630.522	-67.579	-0.316	0.125
-629.507	800.000	0.095	-0.301
-628.492	-200.000	0.041	-0.381
-627.478	-80.815	0.279	0.094
-626.463	126.637	0.066	-0.085
-625.449	51.991	0.202	-0.194
-624.434	-200.000	-0.032	-0.200
-623.419	-63.215	0.215	0.090
-622.405	-109.150	0.221	0.047
-621.390	68.704	0.206	-0.213
-620.376	-117.360	-0.119	-0.022
-619.361	-22.203	0.346	-0.211
-618.346	94.329	0.048	0.054
-617.332	222.107	0.231	0.375
-616.317	-94.511	-0.405	0.111
-615.303	-19.878	0.223	-0.139
-614.288	-118.819	-0.277	-0.049
-613.273	1.331	0.147	0.107
-612.259	-6.968	0.093	0.064
-611.244	-5.657	0.117	0.081
-610.230	160.213	0.287	0.403
-609.215	-50.082	-0.109	0.052
-608.201	337.688	-0.039	-0.076
-607.186	-156.665	-0.090	-0.006
-606.171	706.773	0.111	0.295
-605.157	-137.124	0.162	0.019
-604.142	122.045	-0.119	-0.150
-603.128	-103.544	-0.098	-0.023
-602.113	374.333	0.167	-0.342
-601.098	800.000	0.077	0.229
-600.084	-117.282	-0.195	-0.036
-599.069	800.000	-0.141	-0.449
-598.055	-67.813	0.140	0.055
-597.040	-200.000	-0.011	-0.300
-596.025	6.030	-0.188	-0.140
-595.011	-163.840	-0.264	-0.012
-593.996	138.428	-0.041	0.055
-592.982	-138.730	-0.404	-0.044
-591.967	55.730	-0.154	-0.150
-590.952	800.000	-0.066	-0.191
-589.938	-97.479	0.248	-0.065
-588.923	-71.291	0.338	0.128
-587.909	-31.485	0.211	-0.120
-586.894	-200.000	0.069	0.318
-585.879	-200.000	0.050	-0.368
-584.865	-200.000	0.008	-0.066
-583.850	19.283	0.239	-0.193
-582.836	88.517	0.207	-0.231
-581.821	-75.749	-0.148	-0.053
-580.806	196.997	-0.049	0.075
-579.792	5.484	0.006	-0.004
-578.777	-26.330	0.319	-0.189
-577.763	-200.000	-0.038	-0.399
-576.748	-95.125	0.250	0.068
-575.733	65.039	0.048	0.049
-574.719	278.158	-0.121	0.217
-573.704	86.604	0.227	-0.252
-572.690	92.766	-0.276	0.313
-571.675	138.319	0.165	0.218
-570.661	800.000	-0.097	-0.279
-569.646	-18.815	-0.278	0.174
-568.631	-40.589	-0.097	-0.051
-567.617	800.000	-0.052	0.166
-566.602	-65.351	-0.217	-0.088
-565.588	-152.012	0.263	0.019
-564.573	800.000	-0.062	0.245
-563.558	81.228	-0.135	-0.147
-562.544	-97.149	-0.424	0.111
-561.529	53.101	-0.287	-0.277
-560.515	-136.183	-0.190	-0.022
-559.500	-140.879	-0.357	-0.037
-558.485	-70.888	-0.303	0.115
-557.471	800.000	-0.005	-0.020
-556.456	-116.354	0.196	-0.036
-555.442	-33.910	-0.047	-0.026
-554.427	-200.000	-0.021	-0.273
-553.412	-26.940	-0.093	0.055
-552.398	-123.580	0.208	0.033
-551.383	-88.075	-0.196	-0.059
-550.369	-16.671	-0.250	-0.159
-549.354	173.492	-0.061	-0.088
-548.339	-131.320	0.201	0.027
-547.325	12.565	-0.233	-0.180
-546.310	15.811	0.141	-0.112
-545.296	193.022	0.101	-0.154
-544.281	75.542	0.019	-0.020
-543.266	-67.498	0.199	-0.079
-542.252	114.757	0.159	-0.195
-541.237	383.353	-0.111	-0.229
-540.223	109.572	-0.143	-0.172
-539.208	-31.049	-0.153	-0.087
-538.193	78.345	-0.057	-0.061
-537.179	-85.569	-0.056	0.018
-536.164	419.510	-0.085	0.183
-535.150	249.907	-0.140	0.238
-534.135	-200.000	-0.025	-0.247
-533.121	35.331	0.193	0.170
-532.106	25.975	-0.150	-0.126
-531.091	-122.655	-0.128	0.021
-530.077	800.000	0.051	0.163
-529.062	-200.000	0.049	0.261
-528.048	-200.000	0.050	0.261
-527.033	2.714	-0.151	-0.110
-526.018	54.056	0.180	0.174
-525.004	-100.502	0.285	0.071
-523.989	800.000	-0.045	0.135
-522.975	-120.781	-0.531	-0.090
-521.960	265.459	-0.091	-0.160
-520.945	-2.531	0.113	0.080
-519.931	526.293	-0.084	0.199
-518.916	54.098	0.243	-0.235
-517.902	800.000	0.069	0.291
-516.887	737.559	0.086	-0.231
-515.872	90.245	-0.239	-0.269
-514.858	193.241	0.092	0.140
-513.843	800.000	0.090	-0.301
-512.829	800.000	-0.034	0.131
-511.814	350.124	-0.131	0.261
-510.799	-200.000	-0.035	0.377
-509.785	-41.365	-0.042	-0.021
-508.770	64.264	-0.136	0.138
-507.756	261.598	0.196	0.341
-506.741	123.451	-0.111	0.140
-505.726	320.667	-0.045	-0.085
-504.712	-62.614	0.124	-0.052
-503.697	-142.320	0.204	0.020
-502.683	-52.397	0.097	0.045
-501.668	93.871	-0.168	0.191
-500.653	520.543	-0.062	0.146
-499.639	-71.990	-0.206	0.077
-498.624	-200.000	0.074	0.358
-497.610	-200.000	0.005	-0.267
-496.595	-95.413	-0.244	0.066
-495.581	800.000	-0.095	-0.278
-494.566	-200.000	-0.010	-0.283
-493.551	-118.720	0.085	0.015
-492.537	38.638	-0.118	0.105
-491.522	30.501	-0.169	0.145
-490.508	800.000	-0.039	-0.113
-489.493	-31.697	0.209	0.118
-488.478	-200.000	-0.059	0.295
-487.464	82.827	-0.090	-0.098
-486.449	6.755	0.089	-0.066
-485.435	60.954	0.191	0.190
-484.420	-200.000	-0.021	-0.162
-483.405	-74.021	-0.084	-0.031
-482.391	-200.000	0.028	0.155
-481.376	-200.000	-0.026	0.166
-480.362	4.523	-0.182	-0.134
-479.347	486.990	-0.095	0.216
-478.332	108.031	-0.130	0.155
-477.318	-200.000	0.030	-0.312
-476.303	400.576	-0.098	-0.205
-475.289	-45.480	0.057	-0.028
-474.274	-85.733	0.128	-0.040
-473.259	-76.651	0.177	0.062
-472.245	-110.845	0.098	-0.020
-471.230	118.417	-0.117	-0.144
-470.216	139.529	0.121	0.159
-469.201	-116.350	0.159	0.030
-468.186	-3.349	0.050	-0.035
-467.172	800.000	0.117	-0.365
-466.157	-200.000	0.028	-0.154
-465.143	-124.201	-0.317	-0.050
-464.128	-200.000	0.026	-0.220
-463.113	-200.000	-0.005	0.171
-462.099	-142.905	0.149	0.015
-461.084	317.923	-0.107	0.204
-460.070	-200.000	0.028	0.210
-459.055	387.561	0.144	-0.298
-458.040	-179.145	-0.171	0.004
-457.026	-65.745	0.152	0.061
-456.011	-93.975	-0.235	0.065
-454.997	112.741	-0.368	0.446
-453.982	-26.913	-0.352	-0.206
-452.968	-78.504	0.297	0.102
-451.953	-200.000	-0.002	0.255
-450.938	652.256	-0.022	-0.056
-449.924	97.154	-0.099	-0.113
-448.909	-64.822	-0.346	-0.140
-447.895	-21.372	-0.384	-0.234
-446.880	244.502	-0.057	-0.095
-445.865	523.620	-0.105	-0.248
-444.851	-200.000	-0.022	0.213
-443.836	-174.744	-0.193	0.005
-442.822	-200.000	0.056	-0.361
-441.807	-17.865	-0.084	0.053
-440.792	71.119	0.038	-0.040
-439.778	-51.563	-0.327	-0.153
-438.763	667.861	-0.093	-0.240
-437.749	-200.000	0.002	-0.031
-436.734	532.050	0.074	0.174
-435.719	-200.000	0.031	-0.220
-434.705	136.869	-0.187	-0.245
-433.690	-38.517	-0.143	-0.076
-432.676	-200.000	-0.041	-0.233
-431.661	-117.145	0.295	0.054
-430.646	800.000	-0.086	-0.279
-429.632	-100.066	0.208	-0.052
-428.617	133.989	-0.143	0.185
-427.603	-105.437	-0.167	-0.038
-426.588	-37.236	-0.203	0.109
-425.573	101.362	0.280	0.326
-424.559	437.275	-0.067	-0.146
-423.544	-164.515	0.118	-0.005
-422.530	-45.134	0.278	0.138
-421.515	527.681	0.033	0.078
-420.500	-178.375	0.072	0.002
-419.486	543.350	0.103	-0.245
-418.471	-200.000	-0.044	-0.250
-417.457	-63.248	0.287	0.118
-416.442	-115.577	0.408	-0.077
-415.428	21.441	0.083	0.067
-414.413	-71.049	-0.179	-0.067
-413.398	-45.279	0.188	-0.093
-412.384	197.297	0.307	0.468
-411.369	104.903	-0.165	0.195
-410.355	-116.653	0.193	-0.036
-409.340	232.012	0.138	0.226
-408.325	-98.995	0.188	-0.048
-407.311	800.000	0.071	0.223
-406.296	9.232	-0.365	-0.276
-405.282	-176.145	0.326	0.009
-404.267	-187.059	0.046	0.001
-403.252	203.415	0.024	0.038
-402.238	-103.297	-0.175	-0.041
-401.223	-104.363	0.226	-0.052
-400.209	800.000	-0.056	-0.193
-399.194	638.477	0.083	0.210
-398.179	-87.574	0.128	-0.039
-397.165	-87.860	0.180	0.054
-396.150	-41.792	0.026	-0.013
-395.136	-16.822	0.187	0.118
-394.121	16.570	0.050	-0.039
-393.106	183.659	-0.214	-0.315
-392.092	-135.004	-0.219	0.026
-391.077	40.074	-0.166	0.149
-390.063	726.921	0.120	-0.320
-389.048	13.355	0.279	-0.216
-388.033	-166.301	0.147	-0.006
-387.019	-126.279	-0.473	-0.071
-386.004	-185.686	0.273	-0.004
-384.990	-129.819	-0.262	-0.036
-383.975	-45.245	-0.281	0.139
-382.960	-200.000	0.028	-0.143
-381.946	-178.892	-0.349	0.008
-380.931	70.457	-0.168	0.173
-379.917	-143.206	0.199	-0.019
-378.902	-159.787	-0.454	-0.025
-377.888	630.398	-0.094	0.238
-376.873	371.629	0.061	0.123
-375.858	-200.000	-0.013	0.270
-374.844	481.994	-0.056	0.126
-373.829	-40.902	-0.406	-0.210
-372.815	16.647	0.191	-0.151
-371.800	371.605	0.053	0.108
-370.785	-37.852	-0.114	0.061
-369.771	-107.176	0.289	-0.064
-368.756	-77.926	0.430	0.148
-367.742	-65.041	0.188	0.076
-366.727	-122.231	-0.232	0.038
-365.712	-111.115	-0.129	-0.026
-364.698	800.000	-0.056	-0.175
-363.683	-200.000	0.313	-0.001
-362.669	252.672	-0.046	-0.078
-361.654	-144.598	-0.344	0.032
-360.639	800.000	-0.037	0.148
-359.625	-176.668	-0.089	0.002
-358.610	-50.485	0.158	-0.074
-357.596	-200.000	0.011	-0.112
-356.581	353.483	-0.123	-0.244
-355.566	791.236	-0.067	0.184
-354.552	23.768	-0.172	0.141
-353.537	202.262	-0.070	0.108
-352.523	-19.453	0.306	-0.189
-351.508	208.627	0.047	-0.074
-350.493	166.520	0.043	-0.061
-349.479	-200.000	0.063	0.416
-348.464	647.516	0.090	-0.230
-347.450	800.000	0.025	-0.093
-346.435	800.000	0.086	0.292
-345.420	15.386	0.219	0.172
-344.406	-200.000	0.003	0.113
-343.391	83.711	-0.121	0.131
-342.377	639.163	0.097	0.247
-341.362	-30.900	0.316	-0.178
-340.348	82.966	0.205	0.222
-339.333	7.675	-0.401	-0.299
-338.318	-137.401	-0.085	0.010
-337.304	-83.383	-0.258	-0.083
-336.289	-15.981	0.097	0.061
-335.275	-200.000	0.061	-0.470
-334.260	732.889	0.060	0.159
-333.245	-103.568	0.128	-0.030
-332.231	-98.536	-0.151	0.039
-331.216	-200.000	0.025	-0.143
-330.202	48.488	0.207	0.193
-329.187	-200.000	-0.059	0.368
-328.172	-129.496	-0.356	0.049
-327.158	156.473	-0.208	0.286
-326.143	-129.389	0.139	0.019
-325.129	-200.000	-0.049	-0.263
-324.114	99.775	0.117	-0.135
-323.099	-93.968	0.164	-0.045
-322.085	-200.000	-0.042	-0.237
-321.070	-44.681	-0.039	0.020
-320.056	800.000	0.067	-0.202
-319.041	162.269	-0.098	-0.136
-318.026	-200.000	0.048	-0.221
-317.012	-8.980	-0.207	-0.138
-315.997	165.045	-0.032	-0.046
-314.983	650.339	-0.080	0.205
-313.968	425.158	0.122	0.262
-312.953	-8.738	-0.296	0.198
-311.939	-107.883	0.218	0.047
-310.924	-81.005	-0.250	0.083
-309.910	-9.228	0.125	-0.083
-308.895	330.492	0.091	-0.174
-307.880	-81.509	0.196	-0.064
-306.866	-200.000	0.046	0.262
-305.851	-200.000	0.012	-0.279
-304.837	-66.898	0.245	0.096
-303.822	-43.045	0.313	0.158
-302.807	110.852	-0.103	-0.124
-301.793	-200.000	-0.027	-0.280
-300.778	-200.000	-0.023	-0.312
-299.764	3.624	-0.180	-0.131
-298.749	39.450	0.172	-0.153
-297.735	42.808	-0.169	-0.153
-296.720	-13.680	0.040	0.026
-295.705	186.439	-0.031	-0.046
-294.691	-67.395	-0.247	0.097
-293.676	-22.130	0.248	0.150
-292.662	-22.402	0.027	0.016
-291.647	-136.168	-0.321	0.037
-290.632	-200.000	0.025	0.201
-289.618	-34.447	0.135	0.073
-288.603	800.000	-0.033	-0.098
-287.589	-10.985	0.196	0.129
-286.574	349.607	-0.131	-0.258
-285.559	-200.000	-0.045	-0.388
-284.545	-186.870	-0.132	0.002
-283.530	291.396	-0.202	-0.365
-282.516	67.132	0.078	0.079
-281.501	-200.000	-0.010	0.266
-280.486	169.767	0.077	-0.109
-279.472	-188.613	-0.279	-0.003
-278.457	-146.880	0.160	0.014
-277.443	-142.398	-0.180	0.018
-276.428	228.213	-0.110	0.178
-275.413	2.070	0.279	-0.200
-274.399	-46.129	0.191	-0.093
-273.384	409.945	-0.044	0.094
-272.370	-80.968	-0.162	-0.054
-271.355	88.589	-0.176	0.194
-270.340	800.000	-0.096	-0.268
-269.326	245.021	0.132	-0.221
-268.311	-113.142	0.543	0.106
-267.297	53.910	0.142	0.135
-266.282	-6.564	-0.096	-0.065
-265.267	-200.000	0.045	0.212
-264.253	-49.473	-0.213	0.101
-263.238	800.000	0.079	0.258
-262.224	-120.957	0.158	0.026
-261.209	-139.612	-0.242	0.026
-260.195	1.373	-0.099	0.070
-259.180	569.139	-0.090	-0.218
-258.165	-89.480	0.222	-0.065
-257.151	-200.000	-0.056	0.416
-256.136	86.312	0.171	0.187
-255.122	-87.837	0.391	0.117
-254.107	124.406	0.071	0.089
-253.092	-200.000	0.031	0.140
-252.078	-64.211	-0.094	0.038
-251.063	-148.895	-0.071	-0.006
-250.049	365.115	0.116	0.233
-249.034	-200.000	0.032	0.208
-248.019	-200.000	0.062	-0.298
-247.005	128.898	0.144	-0.182
-245.990	127.984	-0.251	0.317
-244.976	5.982	0.085	-0.062
-243.961	188.552	0.141	0.209
-242.946	225.474	-0.064	-0.103
-241.932	-26.074	-0.313	0.183
-240.917	-200.000	0.060	0.377
-239.903	61.846	0.141	-0.139
-238.888	-200.000	-0.061	-0.341
-237.873	-155.432	-0.195	0.013
-236.859	72.454	-0.218	0.225
-235.844	800.000	0.085	0.323
-234.830	-17.872	-0.115	0.072
-233.815	-98.103	-0.062	0.016
-232.800	-114.532	-0.327	0.062
-231.786	158.459	0.117	-0.162
-230.771	-33.546	-0.135	-0.074
-229.757	-29.137	0.112	0.064
-228.742	-62.861	0.388	-0.160
-227.727	471.033	-0.145	0.323
-226.713	-89.583	-0.402	0.117
-225.698	531.213	-0.167	0.391
-224.684	395.705	0.106	0.220
-223.669	258.403	0.107	0.183
-222.655	634.495	0.088	0.221
-221.640	129.562	0.229	0.290
-220.625	379.423	0.159	0.323
-219.611	-77.470	0.239	0.082
-218.596	309.028	-0.106	0.197
-217.582	800.000	0.061	-0.177
-216.567	-200.000	-0.012	-0.132
-215.552	6.374	0.091	-0.067
-214.538	107.772	0.247	0.292
-213.523	150.892	0.184	-0.248
-212.509	-9.544	0.162	-0.107
-211.494	-200.000	0.019	0.193
-210.479	-200.000	-0.029	0.356
-209.465	627.283	0.021	-0.054
-208.450	107.788	-0.179	-0.212
-207.436	80.573	0.138	-0.147
-206.421	246.208	-0.025	-0.042
-205.406	-200.000	0.017	0.198
-204.392	-200.000	0.020	-0.096
-203.377	28.800	-0.270	0.227
-202.363	-69.781	0.276	-0.104
-201.348	-200.000	0.023	0.231
-200.333	276.928	0.031	0.054
-199.319	738.773	-0.043	-0.114
-198.304	11.419	0.174	-0.132
-197.290	-68.405	-0.320	-0.123
-196.275	152.589	0.239	0.324
-195.260	56.287	0.254	-0.245
-194.246	-200.000	-0.056	0.389
-193.231	-9.668	-0.134	-0.089
-192.217	3.177	0.087	0.063
-191.202	-26.377	-0.365	0.212
-190.187	-30.611	0.090	-0.051
-189.173	-93.980	0.137	-0.037
-188.158	-26.676	0.253	0.147
-187.144	-110.999	0.248	-0.051
-186.129	511.559	-0.104	-0.239
-185.114	-200.000	0.016	-0.349
-184.100	145.132	-0.211	0.279
-183.085	-200.000	0.065	0.282
-182.071	-200.000	-0.011	0.052
-181.056	104.282	0.177	-0.206
-180.042	83.329	0.144	-0.155
-179.027	18.827	0.069	0.055
-178.012	103.993	-0.261	-0.303
-176.998	271.211	-0.096	-0.168
-175.983	-74.202	-0.246	-0.088
-174.969	774.975	0.010	0.028
-173.954	84.216	0.116	0.125
-172.939	254.622	-0.052	-0.087
-171.925	800.000	-0.039	0.117
-170.910	-14.050	-0.371	0.237
-169.896	213.729	-0.222	0.348
-168.881	211.279	-0.097	-0.151
-167.866	-29.035	-0.111	0.063
-166.852	91.816	-0.201	0.224
-165.837	-174.060	0.338	-0.010
-164.823	274.149	-0.139	0.243
-163.808	170.827	-0.160	-0.228
-162.793	308.534	0.228	-0.422
-161.779	197.626	0.219	-0.331
-160.764	130.266	-0.088	-0.112
-159.750	800.000	-0.028	0.091
-158.735	138.238	0.100	-0.130
-157.720	66.859	-0.124	0.124
-156.706	-200.000	-0.009	0.215
-155.691	111.505	0.190	-0.227
-154.677	-85.193	0.153	-0.047
-153.662	70.901	-0.020	0.021
-152.647	265.442	0.128	0.221
-151.633	-200.000	0.015	0.260
-150.618	-107.809	-0.113	-0.024
-149.604	124.865	0.044	0.054
-148.589	800.000	0.035	-0.149
-147.574	130.614	-0.263	0.333
-146.560	-183.509	0.480	0.008
-145.545	193.109	-0.080	-0.120
-144.531	-111.901	0.399	-0.080
-143.516	33.396	0.256	-0.220
-142.502	-200.000	0.038	-0.337
-141.487	4.416	-0.265	0.192
-140.472	140.291	-0.057	-0.075
-139.458	-107.131	-0.144	-0.031
-138.443	-122.342	0.219	-0.035
-137.429	18.713	-0.254	-0.201
-136.414	59.037	0.097	0.094
-135.399	275.630	-0.074	0.130
-134.385	-45.527	0.251	-0.123
-133.370	-46.646	-0.053	-0.026
-132.356	-0.457	0.154	0.108
-131.341	493.294	0.049	0.112
-130.326	-26.290	-0.211	0.122
-129.312	-28.423	0.135	-0.077
-128.297	326.724	0.223	0.422
-127.283	181.297	-0.070	-0.102
-126.268	187.310	0.086	-0.127
-125.253	0.080	0.047	-0.033
-124.239	-2.334	-0.140	-0.097
-123.224	-200.000	0.003	0.149
-122.210	436.870	0.041	0.088
-121.195	-141.302	0.216	-0.022
