DTS Sentinel unit serial number:	SN413079Multiplexer serial number:	ORYXHardware model number:	OX4-SRSoftware version number:	ORYX F/W v4.00 Oryx Data Collector v3.7.2.0data status	okinstallation	princeton_trtdifferential loss correction	single-endedforward channel	channel 1reverse channel	N/Adate	2019/09/12time	02:28:11forward acquisition time	60.00reverse acquisition time	0.00gamma	496.2192k internal	0.2321k external	0.2321temperature offset calibration	1.0080default loss term (dB/km)	0.3790temperature slope calibration	1.0000multiplexer offset coefficient	1.0000multiplexer slope coefficient	1.0000fibre end	0.00T internal ref (°C)	32.50T ext. ref 1 (°C)	2.07T ext. ref 2 (°C)	27.11length (m)	temperature (°C)	Stokes	anti-Stokes-747.200	-34.838	-0.187	0.103
-746.185	-65.244	-0.191	0.078
-745.171	-47.378	0.253	-0.124
-744.156	340.412	-0.150	0.295
-743.142	104.473	0.314	-0.374
-742.127	800.000	-0.080	0.251
-741.112	-50.430	-0.397	0.189
-740.098	-100.890	-0.289	0.072
-739.083	31.449	0.167	0.145
-738.069	205.852	0.334	0.525
-737.054	-43.551	-0.039	0.020
-736.039	-200.000	-0.055	-0.254
-735.025	76.269	0.153	-0.164
-734.010	-45.671	0.090	0.045
-732.996	79.128	0.146	-0.158
-731.981	65.313	-0.097	-0.099
-730.966	-114.174	0.263	-0.051
-729.952	-200.000	-0.031	-0.458
-728.937	372.387	0.124	-0.254
-727.923	740.730	-0.063	0.171
-726.908	150.986	-0.135	-0.186
-725.894	-200.000	0.024	-0.455
-724.879	-200.000	-0.011	-0.399
-723.864	246.581	-0.169	0.288
-722.850	-110.729	-0.593	0.124
-721.835	398.886	0.055	0.116
-720.821	-98.907	-0.193	0.050
-719.806	24.577	0.165	-0.137
-718.791	-47.641	-0.065	0.032
-717.777	118.841	-0.055	0.068
-716.762	800.000	-0.082	0.241
-715.748	-200.000	0.009	-0.093
-714.733	18.125	0.266	0.214
-713.718	800.000	0.028	0.121
-712.704	800.000	0.104	-0.341
-711.689	691.314	0.025	0.067
-710.675	800.000	-0.075	0.209
-709.660	-200.000	-0.032	-0.205
-708.645	-200.000	0.107	-0.515
-707.631	480.946	0.042	-0.096
-706.616	167.605	-0.082	-0.118
-705.602	-31.539	-0.032	0.018
-704.587	161.112	0.134	0.189
-703.572	-20.293	-0.234	-0.145
-702.558	6.599	0.061	0.046
-701.543	86.003	0.102	-0.113
-700.529	-174.694	0.201	-0.006
-699.514	-82.400	-0.193	0.063
-698.499	44.859	-0.177	-0.164
-697.485	127.812	-0.151	-0.194
-696.470	-17.372	-0.328	-0.208
-695.456	-155.091	0.221	-0.015
-694.441	-200.000	0.013	-0.352
-693.426	-128.308	0.269	0.039
-692.412	598.172	0.080	-0.199
-691.397	-200.000	0.020	-0.219
-690.383	-200.000	-0.046	0.224
-689.368	224.342	-0.077	0.125
-688.354	-200.000	0.023	0.106
-687.339	492.187	-0.082	0.189
-686.324	-62.710	0.266	-0.111
-685.310	-29.343	-0.009	0.005
-684.295	-139.091	-0.075	0.008
-683.281	30.690	-0.205	-0.177
-682.266	-134.453	0.378	0.047
-681.251	-58.873	-0.385	-0.168
-680.237	142.954	0.100	0.135
-679.222	-141.816	0.255	0.026
-678.208	-200.000	0.014	-0.207
-677.193	800.000	0.102	-0.327
-676.178	105.943	0.257	-0.307
-675.164	15.763	-0.034	-0.027
-674.149	373.570	-0.146	-0.300
-673.135	36.227	-0.164	0.146
-672.120	-136.621	-0.223	0.026
-671.105	-142.257	0.230	-0.023
-670.091	-80.988	-0.350	-0.117
-669.076	800.000	0.080	-0.243
-668.062	700.412	0.055	-0.146
-667.047	-200.000	-0.026	0.321
-666.032	-93.578	0.050	-0.014
-665.018	800.000	-0.079	-0.262
-664.003	-78.406	0.068	-0.024
-662.989	-60.432	-0.250	-0.107
-661.974	-200.000	0.042	-0.227
-660.959	65.989	-0.185	-0.189
-659.945	-7.000	-0.169	0.116
-658.930	132.962	-0.079	0.102
-657.916	355.369	0.096	0.193
-656.901	800.000	-0.026	-0.094
-655.886	14.306	-0.058	-0.045
-654.872	589.684	0.064	-0.158
-653.857	74.201	-0.108	-0.114
-652.843	29.519	0.203	-0.174
-651.828	-200.000	-0.035	-0.295
-650.814	-200.000	0.041	0.181
-649.799	696.450	-0.077	0.205
-648.784	-200.000	-0.073	-0.367
-647.770	124.958	0.161	-0.205
-646.755	-96.363	-0.057	0.015
-645.741	-200.000	-0.025	0.146
-644.726	-28.763	-0.193	0.112
-643.711	148.943	0.048	0.066
-642.697	800.000	0.061	-0.200
-641.682	135.277	-0.153	-0.200
-640.668	-172.380	0.179	0.006
-639.653	536.169	-0.039	0.093
-638.638	-200.000	-0.004	-0.201
-637.624	125.143	0.025	0.032
-636.609	800.000	0.047	-0.207
-635.595	379.734	0.066	0.136
-634.580	47.250	0.126	-0.118
-633.565	-155.604	-0.370	0.024
-632.551	36.449	0.011	0.009
-631.536	-26.785	0.153	-0.090
-630.522	-200.000	0.008	0.286
-629.507	-200.000	0.020	-0.125
-628.492	101.567	0.051	-0.060
-627.478	190.060	0.023	-0.034
-626.463	-61.936	-0.201	0.085
-625.449	127.960	-0.181	0.231
-624.434	284.915	0.181	-0.328
-623.419	645.711	0.095	-0.244
-622.405	145.601	0.190	0.256
-621.390	233.517	-0.178	0.295
-620.376	-138.410	-0.151	0.017
-619.361	98.308	-0.515	-0.597
-618.346	392.764	0.072	0.150
-617.332	614.613	0.173	-0.436
-616.317	-200.000	-0.011	0.079
-615.303	408.239	0.022	0.046
-614.288	221.839	0.068	-0.110
-613.273	-123.360	0.317	-0.051
-612.259	520.605	0.067	0.159
-611.244	215.801	0.156	-0.249
-610.230	-33.223	-0.087	-0.048
-609.215	27.593	0.200	0.169
-608.201	-111.256	0.179	-0.037
-607.186	307.999	-0.099	0.185
-606.171	168.230	-0.186	0.267
-605.157	-41.372	-0.278	0.144
-604.142	-94.543	-0.116	0.032
-603.128	-45.557	0.235	0.117
-602.113	800.000	-0.125	-0.449
-601.098	800.000	0.074	-0.227
-600.084	111.618	0.157	0.191
-599.069	-112.400	-0.149	0.030
-598.055	-200.000	0.034	0.275
-597.040	-115.648	0.225	0.042
-596.025	800.000	-0.061	-0.172
-595.011	-200.000	-0.056	0.367
-593.996	-200.000	0.039	-0.186
-592.982	16.158	0.054	-0.042
-591.967	96.785	-0.328	-0.378
-590.952	178.073	0.248	-0.363
-589.938	-22.887	0.112	-0.068
-588.923	800.000	-0.083	-0.363
-587.909	-40.955	0.211	-0.110
-586.894	102.378	-0.178	-0.209
-585.879	711.057	-0.048	-0.126
-584.865	800.000	0.078	0.269
-583.850	82.854	0.102	0.111
-582.836	-200.000	0.007	-0.295
-581.821	-7.234	-0.089	0.060
-580.806	-140.474	-0.098	0.010
-579.792	331.913	-0.055	0.106
-578.777	-150.423	-0.105	-0.008
-577.763	-58.632	0.225	0.098
-576.748	-200.000	0.014	0.088
-575.733	-200.000	-0.082	0.694
-574.719	-59.362	-0.235	0.101
-573.704	230.602	-0.192	-0.315
-572.690	-200.000	0.051	-0.333
-571.675	-69.670	0.170	0.065
-570.661	-200.000	0.031	-0.161
-569.646	111.057	-0.433	0.523
-568.631	34.031	0.204	-0.179
-567.617	68.732	0.077	-0.080
-566.602	800.000	-0.087	-0.309
-565.588	255.041	-0.054	-0.093
-564.573	-53.254	-0.323	-0.149
-563.558	43.939	-0.208	-0.191
-562.544	-17.575	0.154	-0.097
-561.529	-200.000	0.000	-0.032
-560.515	6.148	-0.185	0.138
-559.500	800.000	-0.074	-0.208
-558.485	-172.274	0.292	0.009
-557.471	-102.200	-0.152	-0.037
-556.456	26.650	-0.009	0.008
-555.442	86.148	0.089	0.099
-554.427	261.705	0.115	0.200
-553.412	27.980	-0.072	-0.061
-552.398	-6.913	0.216	0.147
-551.383	195.373	-0.169	0.257
-550.369	18.117	-0.159	0.127
-549.354	-72.796	-0.282	-0.104
-548.339	800.000	-0.046	0.184
-547.325	-200.000	-0.014	-0.188
-546.310	-97.951	0.228	-0.059
-545.296	-40.335	-0.185	-0.097
-544.281	46.893	0.179	-0.167
-543.266	-152.076	0.052	0.004
-542.252	239.262	-0.244	0.407
-541.237	800.000	-0.055	0.186
-540.223	-22.552	-0.164	0.099
-539.208	-159.219	-0.112	0.006
-538.193	800.000	-0.155	-0.433
-537.179	311.667	-0.244	0.459
-536.164	86.259	-0.095	0.105
-535.150	-57.577	-0.333	0.146
-534.135	8.469	-0.016	-0.012
-533.121	-200.000	0.006	-0.159
-532.106	-167.666	0.128	0.005
-531.091	229.852	0.175	-0.286
-530.077	-72.008	-0.142	0.053
-529.062	197.665	-0.043	-0.066
-528.048	258.555	-0.105	-0.181
-527.033	3.795	0.371	0.272
-526.018	92.454	-0.369	-0.416
-525.004	-150.594	-0.191	0.015
-523.989	800.000	0.058	-0.186
-522.975	100.823	-0.170	-0.199
-521.960	-119.091	0.218	0.038
-520.945	-200.000	0.012	-0.085
-519.931	280.628	-0.051	-0.091
-518.916	-200.000	0.005	-0.205
-517.902	-160.439	0.444	-0.024
-516.887	-109.077	-0.071	-0.015
-515.872	-93.151	-0.137	-0.038
-514.858	7.383	0.129	-0.097
-513.843	404.513	0.109	0.229
-512.829	268.493	-0.049	-0.087
-511.814	662.045	-0.084	0.216
-510.799	125.075	-0.077	0.097
-509.785	800.000	0.057	-0.206
-508.770	314.829	0.060	0.113
-507.756	221.937	0.142	-0.229
-506.741	-45.245	0.162	-0.081
-505.726	-105.526	0.198	-0.045
-504.712	800.000	0.023	-0.079
-503.697	175.220	-0.186	0.269
-502.683	297.857	0.081	0.149
-501.668	254.175	0.149	-0.255
-500.653	-200.000	0.040	-0.188
-499.639	-101.513	-0.287	0.070
-498.624	39.979	0.161	-0.145
-497.610	-140.764	-0.143	0.015
-496.595	-172.648	-0.211	0.007
-495.581	-200.000	0.327	0.001
-494.566	-101.435	-0.397	-0.097
-493.551	-179.899	-0.535	0.011
-492.537	22.184	0.142	0.116
-491.522	326.527	-0.122	-0.234
-490.508	16.182	0.232	-0.183
-489.493	98.039	-0.193	-0.222
-488.478	800.000	0.061	-0.210
-487.464	-39.950	-0.014	0.007
-486.449	67.185	-0.045	-0.046
-485.435	800.000	-0.117	0.383
-484.420	569.011	0.073	-0.176
-483.405	-200.000	0.012	-0.248
-482.391	-101.878	-0.381	-0.092
-481.376	-58.169	0.243	-0.106
-480.362	-77.873	-0.111	-0.038
-479.347	496.066	-0.180	0.413
-478.332	98.373	0.200	-0.231
-477.318	-112.372	0.291	-0.058
-476.303	-76.017	-0.117	-0.041
-475.289	2.069	-0.113	0.081
-474.274	182.729	-0.116	0.172
-473.259	2.625	-0.295	-0.214
-472.245	800.000	0.090	-0.313
-471.230	-127.470	-0.056	-0.008
-470.216	12.159	0.145	-0.112
-469.201	180.886	0.111	0.163
-468.186	372.541	0.152	-0.308
-467.172	-200.000	0.041	-0.249
-466.157	-78.801	0.479	0.163
-465.143	-58.711	0.244	-0.106
-464.128	-80.529	-0.099	0.033
-463.113	-200.000	0.057	-0.283
-462.099	-200.000	0.015	0.150
-461.084	-24.875	-0.306	-0.182
-460.070	399.069	-0.075	0.157
-459.055	800.000	-0.036	-0.159
-458.040	-200.000	-0.028	-0.142
-457.026	-200.000	0.034	0.153
-456.011	46.819	0.245	0.228
-454.997	-50.030	0.313	0.148
-453.982	-27.963	0.252	-0.146
-452.968	800.000	-0.049	-0.204
-451.953	-15.864	0.240	0.153
-450.938	341.360	-0.153	0.298
-449.924	341.539	-0.072	0.140
-448.909	-45.554	-0.147	-0.073
-447.895	-200.000	0.013	-0.312
-446.880	-57.672	-0.184	0.080
-445.865	-33.725	-0.220	0.121
-444.851	82.823	0.147	-0.160
-443.836	76.709	-0.090	-0.095
-442.822	-200.000	0.022	-0.538
-441.807	-200.000	-0.187	0.000
-440.792	-129.989	-0.356	0.049
-439.778	392.386	0.105	-0.219
-438.763	-45.601	-0.098	-0.048
-437.749	441.833	0.140	0.306
-436.734	105.662	-0.159	0.187
-435.719	247.515	-0.124	-0.210
-434.705	-200.000	-0.003	-0.324
-433.690	17.327	0.070	0.056
-432.676	-170.468	0.154	0.005
-431.661	69.514	0.094	-0.096
-430.646	-188.730	-0.208	0.003
-429.632	800.000	0.092	-0.316
-428.617	191.920	0.092	0.138
-427.603	117.124	-0.161	-0.197
-426.588	24.455	-0.162	0.133
-425.573	-200.000	-0.012	0.182
-424.559	-172.910	0.073	0.002
-423.544	-200.000	-0.060	0.292
-422.530	263.451	0.109	0.189
-421.515	89.060	0.346	0.384
-420.500	-200.000	0.030	0.278
-419.486	-27.725	0.229	0.133
-418.471	98.451	0.178	-0.205
-417.457	-200.000	0.012	-0.229
-416.442	-200.000	-0.009	0.586
-415.428	492.631	-0.038	-0.087
-414.413	800.000	0.043	-0.139
-413.398	8.693	0.226	0.170
-412.384	53.599	-0.222	0.213
-411.369	743.820	-0.095	0.254
-410.355	-92.579	-0.219	-0.061
-409.340	132.036	0.055	0.071
-408.325	800.000	-0.186	-0.542
-407.311	97.751	-0.182	0.209
-406.296	455.684	0.039	0.086
-405.282	36.719	0.055	-0.049
-404.267	-105.916	-0.170	0.038
-403.252	283.742	-0.031	-0.055
-402.238	1.326	0.050	-0.036
-401.223	2.632	0.093	-0.067
-400.209	-17.610	-0.334	0.209
-399.194	-18.401	-0.168	0.105
-398.179	-149.929	0.321	0.025
-397.165	-18.294	-0.318	-0.198
-396.150	240.153	-0.029	0.049
-395.136	45.060	0.149	0.137
-394.121	-187.968	-0.037	0.000
-393.106	161.213	0.208	0.290
-392.092	800.000	0.026	0.094
-391.077	170.694	0.043	-0.061
-390.063	471.242	-0.108	0.243
-389.048	-200.000	-0.019	-0.152
-388.033	60.436	0.122	-0.120
-387.019	502.975	-0.089	-0.206
-386.004	-200.000	0.014	0.237
-384.990	-200.000	-0.019	0.172
-383.975	50.520	0.054	-0.051
-382.960	-171.516	-0.194	-0.006
-381.946	800.000	-0.072	-0.256
-380.931	-35.580	-0.111	0.060
-379.917	-58.063	0.198	-0.086
-378.902	116.410	-0.102	-0.125
-377.888	-200.000	-0.009	0.560
-376.873	602.620	-0.116	0.287
-375.858	207.093	-0.143	-0.222
-374.844	-61.125	-0.159	0.067
-373.829	-38.889	0.098	-0.051
-372.815	-200.000	-0.021	0.195
-371.800	543.816	0.097	-0.231
-370.785	-118.842	-0.190	0.033
-369.771	26.934	0.293	0.245
-368.756	-32.220	0.150	0.083
-367.742	227.412	-0.183	-0.296
-366.727	16.741	-0.195	-0.154
-365.712	-8.668	0.237	-0.158
-364.698	800.000	0.019	-0.059
-363.683	196.297	0.098	-0.149
-362.669	10.226	0.160	-0.121
-361.654	375.716	-0.097	0.197
-360.639	324.776	-0.157	-0.298
-359.625	38.803	0.196	0.174
-358.610	-16.898	-0.204	-0.129
-357.596	-120.466	0.235	0.040
-356.581	-65.010	-0.113	0.045
-355.566	-83.377	0.493	0.157
-354.552	800.000	0.065	0.278
-353.537	-37.043	0.223	0.119
-352.523	326.666	-0.134	-0.255
-351.508	371.309	-0.116	0.235
-350.493	21.556	0.280	0.227
-349.479	-200.000	0.013	0.383
-348.464	-75.327	0.026	0.009
-347.450	-200.000	0.056	-0.338
-346.435	-200.000	0.042	-0.327
-345.420	-70.285	0.180	0.068
-344.406	800.000	0.038	-0.104
-343.391	-200.000	-0.008	0.090
-342.377	123.587	0.127	-0.158
-341.362	357.084	0.125	-0.247
-340.348	293.169	0.117	0.212
-339.333	-31.931	-0.176	-0.098
-338.318	-4.494	-0.142	0.098
-337.304	83.152	-0.087	-0.095
-336.289	266.456	0.158	-0.274
-335.275	21.224	-0.237	0.191
-334.260	-46.932	-0.146	-0.071
-333.245	800.000	-0.018	0.050
-332.231	19.745	0.186	-0.149
-331.216	-76.193	-0.174	-0.061
-330.202	194.942	0.105	0.158
-329.187	-71.160	-0.194	-0.072
-328.172	-62.919	0.168	-0.069
-327.158	660.380	0.119	0.304
-326.143	96.220	0.091	-0.103
-325.129	47.283	0.124	-0.115
-324.114	-200.000	-0.023	0.220
-323.099	-200.000	-0.004	0.047
-322.085	32.145	0.154	0.132
-321.070	-171.870	-0.292	-0.009
-320.056	-73.024	0.336	-0.123
-319.041	-200.000	0.039	0.695
-318.026	-134.881	-0.089	-0.011
-317.012	31.685	0.177	-0.152
-315.997	522.205	0.128	0.299
-314.983	800.000	-0.044	0.132
-313.968	-200.000	0.031	0.460
-312.953	265.639	0.134	0.233
-311.939	-183.402	0.407	-0.007
-310.924	589.696	-0.140	0.344
-309.910	-200.000	-0.018	-0.232
-308.895	-76.317	0.071	0.025
-307.880	-198.004	0.142	0.001
-306.866	145.155	-0.120	0.159
-305.851	-40.931	0.214	0.110
-304.837	508.891	-0.036	0.082
-303.822	172.141	0.161	0.230
-302.807	50.270	-0.116	0.108
-301.793	-38.073	-0.076	0.040
-300.778	3.666	0.257	-0.186
-299.764	-99.644	-0.090	-0.022
-298.749	-200.000	0.086	-0.559
-297.735	397.032	0.156	0.325
-296.720	67.697	0.131	-0.133
-295.705	-81.059	0.250	0.082
-294.691	303.056	0.104	-0.191
-293.676	-200.000	-0.023	-0.173
-292.662	-123.520	0.082	-0.013
-291.647	800.000	-0.036	-0.121
-290.632	4.299	-0.237	0.173
-289.618	800.000	-0.023	0.079
-288.603	-200.000	-0.042	-0.293
-287.589	-123.151	0.061	-0.010
-286.574	-52.947	0.334	0.153
-285.559	156.569	-0.154	-0.211
-284.545	-136.941	-0.244	-0.028
-283.530	-96.908	-0.273	0.071
-282.516	-43.264	0.091	-0.046
-281.501	-50.921	0.278	0.130
-280.486	-200.000	-0.017	0.231
-279.472	-10.930	-0.020	-0.013
-278.457	57.805	0.107	-0.104
-277.443	-200.000	0.014	0.280
-276.428	800.000	-0.064	0.211
-275.413	-200.000	-0.052	-0.258
-274.399	387.988	0.063	-0.129
-273.384	-200.000	0.033	0.234
-272.370	-16.901	0.151	0.094
-271.355	140.504	-0.288	0.377
-270.340	-18.507	0.302	-0.187
-269.326	132.595	-0.121	0.155
-268.311	19.908	-0.174	0.139
-267.297	67.109	0.144	-0.145
-266.282	800.000	0.025	0.100
-265.267	-44.618	0.332	-0.165
-264.253	800.000	0.059	0.247
-263.238	800.000	-0.033	0.139
-262.224	-116.950	-0.227	0.041
-261.209	452.606	0.188	0.412
-260.195	-200.000	-0.044	-0.209
-259.180	207.828	0.181	-0.281
-258.165	-97.657	-0.302	-0.078
-257.151	-119.305	0.050	0.009
-256.136	56.569	-0.073	-0.070
-255.122	-96.912	-0.295	-0.077
-254.107	426.746	-0.016	-0.033
-253.092	-175.703	-0.243	0.006
-252.078	800.000	-0.033	-0.107
-251.063	62.553	0.111	0.110
-250.049	-200.000	-0.004	0.376
-249.034	787.492	0.008	0.021
-248.019	-74.397	-0.167	-0.060
-247.005	-5.392	0.087	0.059
-245.990	-200.000	-0.058	-0.590
-244.976	37.501	-0.106	0.093
-243.961	671.599	0.029	-0.074
-242.946	-99.542	0.249	0.062
-241.932	-144.669	-0.247	-0.023
-240.917	800.000	0.053	0.213
-239.903	114.356	-0.286	0.345
-238.888	-35.720	-0.090	0.048
-237.873	325.860	0.030	-0.057
-236.859	-200.000	0.001	-0.128
-235.844	530.663	0.108	-0.253
-234.830	-56.675	0.056	0.025
-233.815	-31.778	0.223	0.124
-232.800	-37.827	-0.110	0.058
-231.786	-149.811	0.346	-0.027
-230.771	-83.208	-0.196	-0.062
-229.757	274.287	0.035	0.061
-228.742	218.379	0.258	0.407
-227.727	370.952	-0.051	0.103
-226.713	-91.743	0.230	0.065
-225.698	-200.000	-0.011	-0.259
-224.684	220.795	0.112	-0.177
-223.669	1.779	0.127	-0.091
-222.655	-60.166	-0.284	-0.120
-221.640	-30.886	0.112	0.063
-220.625	-90.526	-0.143	0.041
-219.611	298.138	-0.016	0.029
-218.596	-200.000	0.004	-0.358
-217.582	-71.110	0.208	0.077
-216.567	-41.284	-0.137	0.070
-215.552	64.894	-0.218	0.218
-214.538	388.945	0.077	-0.158
-213.523	-39.148	0.042	0.022
-212.509	-200.000	0.072	-0.354
-211.494	316.111	0.033	0.062
-210.479	-39.660	0.233	-0.121
-209.465	-135.488	0.387	-0.046
-208.450	32.150	-0.214	-0.182
-207.436	293.899	0.058	0.105
-206.421	15.843	-0.270	0.210
-205.406	-52.195	0.409	0.188
-204.392	-200.000	-0.011	0.064
-203.377	-0.431	-0.113	-0.079
-202.363	54.209	0.224	-0.213
-201.348	-13.628	-0.465	0.298
-200.333	-139.266	0.082	0.009
-199.319	-90.168	0.144	0.041
-198.304	-68.653	0.061	0.023
-197.290	161.166	0.068	0.095
-196.275	-167.396	-0.207	-0.008
-195.260	-102.061	0.074	0.018
-194.246	800.000	-0.029	-0.104
-193.231	-11.229	-0.151	0.099
-192.217	174.742	0.196	0.280
-191.202	-200.000	-0.037	0.257
-190.187	-7.321	-0.051	-0.034
-189.173	-57.435	-0.336	-0.146
-188.158	-107.809	-0.155	0.033
-187.144	-70.046	0.442	0.166
-186.129	-28.293	-0.162	0.093
-185.114	-47.735	-0.168	0.081
-184.100	-37.868	-0.235	-0.124
-183.085	-59.720	-0.171	0.072
-182.071	800.000	-0.091	-0.296
-181.056	280.092	0.099	0.175
-180.042	-87.087	0.092	-0.028
-179.027	121.547	0.067	0.082
-178.012	800.000	-0.042	0.126
-176.998	273.958	-0.107	0.188
-175.983	-172.971	-0.405	-0.012
-174.969	-156.640	-0.238	0.015
-173.954	-97.235	-0.043	-0.011
-172.939	800.000	0.079	0.253
-171.925	-200.000	-0.076	0.348
-170.910	39.724	0.306	-0.271
-169.896	-200.000	0.012	-0.287
-168.881	174.918	-0.090	0.128
-167.866	90.888	0.225	0.249
-166.852	-119.524	-0.312	-0.053
-165.837	-123.652	-0.102	0.016
-164.823	-42.500	0.201	0.101
-163.808	311.189	-0.070	0.130
-162.793	233.581	-0.167	-0.272
-161.779	-200.000	-0.010	-0.157
-160.764	221.596	0.163	-0.259
-159.750	128.376	-0.077	-0.097
-158.735	684.428	-0.071	0.184
-157.720	-96.083	-0.205	-0.054
-156.706	138.177	0.127	-0.164
-155.691	-48.645	0.275	0.131
-154.677	23.336	-0.032	-0.026
-153.662	800.000	0.078	0.275
-152.647	-139.435	0.430	-0.046
-151.633	126.793	0.096	-0.120
-150.618	-18.572	0.068	0.042
-149.604	12.418	0.061	-0.047
-148.589	-200.000	-0.004	-0.073
-147.574	-44.006	0.364	-0.180
-146.560	-154.801	0.132	0.009
-145.545	288.232	-0.110	-0.197
-144.531	-91.090	0.164	0.046
-143.516	-175.865	0.081	-0.002
-142.502	118.449	0.127	-0.154
-141.487	-129.150	-0.435	-0.060
-140.472	-93.065	0.189	-0.052
-139.458	142.118	-0.156	0.204
-138.443	-200.000	0.032	0.213
-137.429	-80.187	-0.142	0.047
-136.414	-64.968	0.112	-0.044
-135.399	30.073	0.128	0.108
-134.385	-33.136	-0.190	0.104
-133.370	75.517	-0.011	-0.011
-132.356	228.325	0.055	0.088
-131.341	119.069	-0.221	0.269
-130.326	-200.000	-0.026	0.264
-129.312	-200.000	0.010	-0.170
-128.297	-200.000	0.069	0.356
-127.283	-133.459	0.158	0.020
-126.268	800.000	-0.091	0.337
-125.253	499.547	0.088	-0.201
-124.239	64.239	0.191	-0.189
-123.224	386.751	-0.114	-0.232
-122.210	-200.000	-0.019	0.234
-121.195	800.000	-0.018	-0.076
-120.180	800.000	0.024	-0.084
