DTS Sentinel unit serial number:	SN413079Multiplexer serial number:	ORYXHardware model number:	OX4-SRSoftware version number:	ORYX F/W v4.00 Oryx Data Collector v3.7.2.0data status	okinstallation	princeton_trtdifferential loss correction	single-endedforward channel	channel 1reverse channel	N/Adate	2019/09/14time	12:50:35forward acquisition time	60.00reverse acquisition time	0.00gamma	496.2192k internal	0.2294k external	0.2294temperature offset calibration	1.0089default loss term (dB/km)	0.3790temperature slope calibration	1.0000multiplexer offset coefficient	1.0000multiplexer slope coefficient	1.0000fibre end	0.00T internal ref (°C)	37.98T ext. ref 1 (°C)	4.86T ext. ref 2 (°C)	34.22length (m)	temperature (°C)	Stokes	anti-Stokes-747.200	-23.071	0.289	0.178
-746.185	800.000	-0.048	0.140
-745.171	-29.804	-0.058	-0.034
-744.156	1.774	0.253	0.187
-743.142	-54.774	-0.249	0.115
-742.127	-200.000	0.012	0.154
-741.112	800.000	-0.101	-0.302
-740.098	800.000	-0.036	0.120
-739.083	800.000	-0.076	0.312
-738.069	448.776	0.046	0.103
-737.054	-179.809	-0.379	-0.008
-736.039	-200.000	-0.013	0.076
-735.025	29.273	0.136	0.118
-734.010	-76.215	0.094	-0.034
-732.996	70.428	0.050	0.053
-731.981	363.541	0.086	-0.176
-730.966	-46.943	0.168	0.084
-729.952	-12.487	-0.282	0.188
-728.937	-15.241	-0.097	-0.064
-727.923	800.000	0.043	-0.147
-726.908	676.861	-0.103	-0.273
-725.894	-200.000	0.014	-0.192
-724.879	145.269	-0.034	0.046
-723.864	58.756	0.107	-0.107
-722.850	36.375	-0.229	-0.206
-721.835	-200.000	-0.032	0.253
-720.821	-200.000	-0.006	-0.222
-719.806	-200.000	-0.016	-0.327
-718.791	394.448	0.140	-0.298
-717.777	140.675	-0.075	-0.101
-716.762	-188.060	-0.239	-0.003
-715.748	-200.000	0.006	0.218
-714.733	213.054	-0.097	-0.156
-713.718	800.000	-0.017	-0.058
-712.704	-16.478	0.088	0.057
-711.689	-82.798	0.321	0.106
-710.675	-45.307	-0.280	0.142
-709.660	-63.510	0.128	0.054
-708.645	-113.280	0.261	0.052
-707.631	-48.695	0.154	-0.076
-706.616	11.039	0.159	-0.124
-705.602	-200.000	0.000	-0.196
-704.587	-83.279	0.167	0.055
-703.572	94.679	0.199	0.231
-702.558	48.647	0.033	-0.032
-701.543	76.675	0.143	0.155
-700.529	27.693	-0.200	0.172
-699.514	75.976	0.013	-0.014
-698.499	-28.225	-0.187	0.110
-697.485	-200.000	-0.023	-0.158
-696.470	-99.417	-0.374	0.096
-695.456	-200.000	0.009	-0.163
-694.441	-78.172	0.058	0.020
-693.426	-45.430	-0.295	-0.149
-692.412	422.780	-0.106	-0.231
-691.397	-200.000	0.036	0.186
-690.383	-50.878	-0.339	0.162
-689.368	350.175	0.194	-0.391
-688.354	118.261	-0.140	-0.176
-687.339	76.909	-0.316	0.343
-686.324	-45.614	-0.315	0.159
-685.310	-200.000	0.042	-0.196
-684.295	108.453	-0.169	0.205
-683.281	-105.464	-0.041	-0.010
-682.266	29.884	-0.140	-0.122
-681.251	12.412	0.089	0.070
-680.237	-87.914	-0.117	-0.036
-679.222	-179.970	0.127	0.003
-678.208	94.481	-0.037	-0.043
-677.193	-63.633	0.303	-0.127
-676.178	199.427	-0.149	0.234
-675.164	800.000	-0.077	-0.234
-674.149	-90.687	0.161	0.047
-673.135	249.270	0.159	-0.275
-672.120	84.203	-0.021	-0.023
-671.105	-200.000	0.014	0.294
-670.091	331.372	0.081	-0.160
-669.076	422.425	0.088	0.192
-668.062	93.088	0.194	-0.223
-667.047	59.010	0.109	0.109
-666.032	91.724	-0.149	-0.170
-665.018	-200.000	-0.009	-0.087
-664.003	800.000	-0.103	-0.424
-662.989	-200.000	0.022	-0.361
-661.974	196.535	-0.174	-0.271
-660.959	-69.173	0.266	-0.104
-659.945	19.472	-0.165	0.135
-658.930	282.850	0.120	0.220
-657.916	-39.453	-0.452	-0.242
-656.901	45.919	-0.118	-0.111
-655.886	-163.140	0.270	-0.013
-654.872	800.000	-0.039	-0.133
-653.857	-56.728	0.143	-0.064
-652.843	75.303	0.256	0.275
-651.828	-86.321	-0.393	-0.123
-650.814	216.878	-0.133	0.216
-649.799	-200.000	0.014	0.129
-648.784	158.145	0.133	-0.187
-647.770	-200.000	-0.015	-0.136
-646.755	-151.639	-0.218	-0.016
-645.741	0.814	-0.112	0.082
-644.726	-54.949	0.238	-0.109
-643.711	-104.464	0.419	0.099
-642.697	384.749	-0.057	-0.119
-641.682	-200.000	-0.066	-0.318
-640.668	-4.226	-0.249	-0.176
-639.653	800.000	-0.076	-0.251
-638.638	54.669	0.267	0.262
-637.624	-31.851	0.274	0.157
-636.609	-200.000	0.020	0.191
-635.595	800.000	0.097	-0.290
-634.580	270.980	0.145	0.260
-633.565	195.274	0.057	0.089
-632.551	-106.392	-0.269	-0.061
-631.536	-200.000	-0.027	0.204
-630.522	-138.016	-0.048	-0.005
-629.507	-132.564	-0.100	-0.013
-628.492	-110.012	-0.197	0.042
-627.478	-60.086	-0.175	0.076
-626.463	354.221	0.084	0.170
-625.449	343.686	-0.053	0.106
-624.434	-10.274	-0.151	-0.102
-623.419	-16.883	-0.182	0.117
-622.405	-54.116	0.328	0.152
-621.390	-200.000	0.001	0.055
-620.376	-19.140	-0.233	-0.148
-619.361	-14.419	0.043	-0.028
-618.346	168.660	0.121	0.176
-617.332	714.187	-0.046	0.123
-616.317	5.175	-0.333	0.250
-615.303	-113.750	0.136	-0.027
-614.288	-200.000	-0.006	0.353
-613.273	800.000	0.069	-0.209
-612.259	177.479	-0.055	-0.082
-611.244	-83.764	-0.049	0.016
-610.230	800.000	0.049	-0.162
-609.215	-69.786	-0.102	-0.040
-608.201	-131.414	-0.149	-0.020
-607.186	67.160	-0.160	-0.166
-606.171	64.888	-0.055	0.057
-605.157	-200.000	0.041	-0.301
-604.142	800.000	0.043	-0.184
-603.128	-45.451	0.245	0.124
-602.113	-146.850	0.204	-0.018
-601.098	23.896	-0.238	0.199
-600.084	-77.509	0.089	-0.031
-599.069	-200.000	0.004	-0.027
-598.055	78.376	-0.455	0.494
-597.040	-200.000	0.034	0.524
-596.025	-200.000	0.005	0.060
-595.011	148.538	0.144	0.198
-593.996	423.115	0.203	0.442
-592.982	-7.179	0.216	-0.149
-591.967	-126.866	0.137	-0.021
-590.952	609.984	0.012	-0.030
-589.938	800.000	0.027	-0.085
-588.923	-112.099	-0.203	-0.041
-587.909	40.127	0.249	0.228
-586.894	10.359	0.211	-0.163
-585.879	-46.106	-0.069	0.034
-584.865	83.391	0.280	-0.310
-583.850	15.840	-0.107	-0.086
-582.836	-137.774	0.172	-0.020
-581.821	-74.832	-0.232	0.085
-580.806	-70.674	0.114	0.044
-579.792	-200.000	-0.020	0.318
-578.777	-39.401	0.403	0.215
-577.763	-45.761	0.181	-0.091
-576.748	583.941	-0.040	0.100
-575.733	90.867	0.200	-0.227
-574.719	-200.000	0.010	-0.429
-573.704	-22.406	0.350	0.215
-572.690	-53.053	0.175	-0.082
-571.675	800.000	-0.026	-0.080
-570.661	267.891	-0.124	-0.221
-569.646	-59.969	-0.080	-0.035
-568.631	-200.000	-0.048	-0.289
-567.617	-200.000	-0.025	0.137
-566.602	-200.000	0.048	-0.336
-565.588	-22.165	-0.327	0.202
-564.573	238.893	-0.055	0.093
-563.558	130.476	-0.164	-0.213
-562.544	27.161	0.109	-0.093
-561.529	800.000	-0.078	0.278
-560.515	-200.000	0.023	0.122
-559.500	59.054	-0.311	0.310
-558.485	800.000	-0.018	0.080
-557.471	33.308	-0.270	-0.238
-556.456	800.000	-0.111	-0.368
-555.442	133.860	0.127	-0.167
-554.427	-200.000	-0.074	0.338
-553.412	800.000	0.028	-0.080
-552.398	-200.000	0.077	0.384
-551.383	135.734	-0.209	-0.276
-550.369	-98.338	0.466	0.121
-549.354	3.137	-0.051	0.038
-548.339	40.582	-0.158	-0.145
-547.325	191.749	0.052	-0.079
-546.310	-200.000	-0.076	0.389
-545.296	-53.526	0.072	-0.033
-544.281	-200.000	-0.034	0.314
-543.266	-200.000	0.001	-0.079
-542.252	-85.779	0.218	-0.069
-541.237	190.428	-0.059	0.090
-540.223	171.567	0.101	0.147
-539.208	-38.221	0.222	0.119
-538.193	-200.000	-0.022	-0.201
-537.179	-67.138	0.090	0.036
-536.164	53.688	0.114	0.111
-535.150	292.879	-0.051	-0.095
-534.135	-200.000	0.034	-0.181
-533.121	-200.000	-0.023	-0.194
-532.106	191.225	0.014	-0.021
-531.091	-143.201	-0.138	0.013
-530.077	-200.000	-0.008	-0.353
-529.062	-182.002	-0.214	0.004
-528.048	171.115	-0.228	0.331
-527.033	-145.129	-0.136	0.013
-526.018	-107.767	0.095	0.021
-525.004	548.649	-0.180	-0.437
-523.989	-112.080	-0.115	-0.023
-522.975	-73.556	0.343	-0.127
-521.960	62.581	0.071	-0.072
-520.945	-200.000	-0.004	0.365
-519.931	800.000	0.019	0.060
-518.916	6.783	-0.187	-0.141
-517.902	800.000	-0.066	0.202
-516.887	-129.430	-0.327	0.046
-515.872	18.825	-0.316	-0.257
-514.858	-143.976	0.161	-0.015
-513.843	432.660	0.070	-0.154
-512.829	82.612	0.230	0.253
-511.814	-85.851	0.044	-0.014
-510.799	-92.451	-0.175	0.050
-509.785	-200.000	0.040	0.178
-508.770	-25.053	0.285	-0.171
-507.756	1.128	-0.298	0.217
-506.741	374.521	-0.047	-0.097
-505.726	-3.226	0.055	-0.039
-504.712	-200.000	0.051	-0.324
-503.697	-200.000	0.056	0.372
-502.683	-200.000	-0.055	-0.247
-501.668	37.095	-0.221	0.198
-500.653	244.497	-0.101	-0.171
-499.639	257.372	-0.053	0.092
-498.624	150.264	0.230	-0.316
-497.610	800.000	-0.045	-0.180
-496.595	-41.569	-0.286	-0.149
-495.581	-124.526	-0.133	0.021
-494.566	-27.772	0.163	-0.096
-493.551	3.297	0.248	0.183
-492.537	395.884	0.063	-0.134
-491.522	176.729	-0.052	-0.077
-490.508	-11.533	-0.206	0.137
-489.493	-54.779	0.460	0.210
-488.478	-195.690	-0.392	-0.003
-487.464	-115.798	-0.178	0.034
-486.449	60.696	-0.115	-0.116
-485.435	21.931	-0.288	0.238
-484.420	-200.000	-0.028	-0.270
-483.405	310.822	0.140	-0.265
-482.391	-200.000	-0.067	0.314
-481.376	-200.000	0.036	-0.224
-480.362	-200.000	0.012	-0.378
-479.347	-14.139	0.177	-0.116
-478.332	271.876	0.112	0.199
-477.318	-80.837	-0.062	-0.021
-476.303	-200.000	0.056	-0.292
-475.289	137.564	0.161	-0.213
-474.274	-200.000	-0.008	0.144
-473.259	366.068	-0.123	0.251
-472.245	2.306	0.221	-0.162
-471.230	-69.505	0.297	0.115
-470.216	-200.000	0.011	-0.260
-469.201	-200.000	0.001	-0.022
-468.186	-80.870	0.161	-0.054
-467.172	251.172	-0.147	-0.253
-466.157	744.543	0.066	0.178
-465.143	-104.255	0.334	0.078
-464.128	-89.520	0.117	0.035
-463.113	-11.376	0.197	-0.131
-462.099	239.727	0.159	-0.268
-461.084	-200.000	0.027	-0.132
-460.070	319.503	-0.118	0.226
-459.055	6.653	0.209	0.157
-458.040	-182.939	0.331	-0.006
-457.026	447.260	-0.176	-0.391
-456.011	-200.000	-0.022	0.120
-454.997	-200.000	0.006	0.068
-453.982	-24.082	0.253	-0.153
-452.968	-82.040	-0.381	0.126
-451.953	-109.253	0.419	0.090
-450.938	179.858	0.193	0.285
-449.924	-175.103	-0.135	0.004
-448.909	-92.094	-0.267	-0.076
-447.895	-2.143	-0.288	-0.205
-446.880	-180.732	-0.268	-0.006
-445.865	-200.000	0.013	-0.088
-444.851	-137.702	-0.308	0.035
-443.836	132.726	0.095	0.124
-442.822	176.084	0.103	-0.151
-441.807	380.297	-0.113	0.235
-440.792	14.366	-0.013	-0.010
-439.778	233.645	0.108	-0.179
-438.763	21.834	-0.126	-0.104
-437.749	88.011	0.170	0.190
-436.734	257.366	-0.069	-0.120
-435.719	-103.906	0.507	0.120
-434.705	-200.000	0.049	-0.271
-433.690	-119.196	0.265	-0.047
-432.676	-76.289	0.207	0.074
-431.661	-200.000	0.034	-0.191
-430.646	-113.794	-0.137	-0.027
-429.632	800.000	-0.084	-0.235
-428.617	-110.604	-0.321	0.067
-427.603	31.598	-0.191	0.166
-426.588	72.067	-0.182	-0.191
-425.573	-39.830	0.166	0.088
-424.559	27.211	-0.149	0.126
-423.544	-34.620	0.148	0.082
-422.530	-19.953	-0.167	0.104
-421.515	-139.407	-0.218	-0.024
-420.500	-118.320	-0.131	0.023
-419.486	-200.000	-0.018	-0.116
-418.471	122.468	-0.167	-0.211
-417.457	-147.014	-0.179	-0.015
-416.442	-91.471	-0.050	-0.014
-415.428	-56.508	-0.405	-0.181
-414.413	697.621	0.132	0.351
-413.398	800.000	0.039	-0.135
-412.384	5.448	-0.169	-0.126
-411.369	486.547	0.055	0.127
-410.355	-20.788	-0.168	-0.104
-409.340	209.986	0.172	-0.273
-408.325	200.718	0.135	-0.210
-407.311	493.500	-0.072	-0.167
-406.296	35.499	0.106	0.093
-405.282	769.336	0.027	-0.074
-404.267	42.496	-0.053	0.049
-403.252	-48.903	-0.205	-0.099
-402.238	-73.593	-0.058	0.021
-401.223	224.739	-0.010	0.017
-400.209	301.228	-0.145	-0.271
-399.194	-200.000	0.023	0.362
-398.179	-15.912	-0.120	-0.077
-397.165	-153.699	0.087	0.006
-396.150	84.190	-0.108	-0.120
-395.136	800.000	-0.024	-0.104
-394.121	635.560	0.025	-0.064
-393.106	157.505	0.111	-0.155
-392.092	-83.158	-0.149	-0.048
-391.077	21.655	-0.097	-0.080
-390.063	-200.000	0.066	0.474
-389.048	231.448	0.153	-0.254
-388.033	712.101	-0.045	-0.120
-387.019	767.383	-0.165	0.454
-386.004	82.500	0.211	0.231
-384.990	261.672	0.186	0.326
-383.975	800.000	0.062	0.217
-382.960	-122.069	0.352	-0.058
-381.946	96.988	-0.158	0.183
-380.931	153.567	0.084	0.116
-379.917	-200.000	-0.063	0.485
-378.902	-200.000	0.013	0.281
-377.888	-200.000	-0.041	-0.211
-376.873	-102.081	-0.226	-0.055
-375.858	-58.413	-0.155	0.068
-374.844	530.821	0.027	-0.065
-373.829	-18.394	-0.094	-0.059
-372.815	-69.058	0.193	-0.075
-371.800	-176.218	-0.190	0.005
-370.785	800.000	0.014	0.049
-369.771	800.000	-0.019	0.078
-368.756	27.664	-0.148	0.126
-367.742	-112.784	0.110	0.022
-366.727	-200.000	-0.032	0.250
-365.712	23.406	0.021	0.017
-364.698	29.862	-0.146	-0.125
-363.683	800.000	0.020	0.063
-362.669	591.611	-0.091	-0.225
-361.654	268.011	-0.148	-0.261
-360.639	-200.000	-0.021	-0.156
-359.625	-141.262	0.362	-0.037
-358.610	-200.000	-0.002	0.194
-357.596	-111.902	0.123	-0.025
-356.581	-188.333	0.343	-0.004
-355.566	-12.433	0.178	-0.117
-354.552	-173.143	-0.479	0.015
-353.537	10.413	0.158	-0.121
-352.523	-200.000	0.009	0.058
-351.508	120.316	-0.106	0.132
-350.493	35.965	0.189	-0.168
-349.479	162.234	0.214	-0.302
-348.464	-141.059	-0.397	0.041
-347.450	308.220	-0.146	-0.273
-346.435	-132.612	0.410	0.053
-345.420	800.000	0.079	0.295
-344.406	-133.782	0.344	0.043
-343.391	-110.030	0.130	0.027
-342.377	49.579	-0.149	-0.142
-341.362	800.000	-0.044	0.144
-340.348	-188.008	-0.187	-0.002
-339.333	-55.804	0.145	0.065
-338.318	-131.761	-0.223	-0.029
-337.304	-87.421	-0.283	-0.086
-336.289	657.261	-0.072	-0.186
-335.275	-11.727	0.060	-0.040
-334.260	-200.000	-0.002	0.199
-333.245	-200.000	-0.052	0.254
-332.231	-112.564	0.112	-0.022
-331.216	300.711	-0.060	-0.111
-330.202	-46.438	-0.207	0.102
-329.187	-200.000	-0.014	0.072
-328.172	-78.814	-0.240	-0.082
-327.158	569.850	0.118	-0.289
-326.143	-3.609	0.189	-0.132
-325.129	243.053	-0.099	-0.167
-324.114	-200.000	-0.007	-0.095
-323.099	63.420	0.242	0.244
-322.085	292.386	-0.232	-0.426
-321.070	386.118	-0.049	0.102
-320.056	800.000	-0.027	-0.106
-319.041	45.383	-0.295	0.273
-318.026	57.085	0.138	0.135
-317.012	-200.000	-0.010	-0.247
-315.997	-200.000	0.015	-0.122
-314.983	234.332	-0.053	0.087
-313.968	168.858	0.100	-0.143
-312.953	137.264	-0.029	0.038
-311.939	14.397	-0.238	-0.187
-310.924	-200.000	-0.033	-0.190
-309.910	14.079	-0.215	0.169
-308.895	-16.994	-0.176	-0.112
-307.880	501.001	0.011	0.026
-306.866	800.000	0.124	0.402
-305.851	154.279	0.117	0.161
-304.837	240.357	-0.128	-0.215
-303.822	-18.676	-0.138	0.086
-302.807	77.175	-0.079	0.085
-301.793	-161.962	-0.104	0.005
-300.778	18.435	0.046	0.037
-299.764	11.423	0.185	0.142
-298.749	-67.390	0.179	-0.071
-297.735	99.171	0.241	0.280
-296.720	-77.097	0.132	0.046
-295.705	-48.521	-0.448	0.217
-294.691	-87.031	-0.265	0.081
-293.676	20.780	0.295	0.240
-292.662	91.249	0.115	0.129
-291.647	-12.310	-0.135	0.088
-290.632	-119.840	0.172	0.030
-289.618	-58.905	0.019	0.008
-288.603	-200.000	-0.003	0.145
-287.589	72.318	0.143	0.150
-286.574	-42.333	0.240	-0.123
-285.559	150.825	-0.077	0.105
-284.545	9.276	-0.413	0.314
-283.530	-27.471	-0.040	0.024
-282.516	169.167	-0.186	0.267
-281.501	265.919	0.131	0.229
-280.486	800.000	0.028	-0.104
-279.472	-200.000	0.033	-0.272
-278.457	-20.575	-0.224	0.138
-277.443	326.600	0.065	0.124
-276.428	-135.709	-0.107	0.013
-275.413	74.276	0.154	-0.163
-274.399	800.000	0.064	-0.260
-273.384	171.900	-0.179	-0.259
-272.370	-105.216	-0.164	0.038
-271.355	-83.991	-0.182	0.058
-270.340	438.720	-0.108	-0.236
-269.326	800.000	0.081	-0.242
-268.311	319.801	0.142	0.270
-267.297	-12.680	-0.194	0.127
-266.282	-137.250	-0.195	0.022
-265.267	-136.565	-0.165	-0.019
-264.253	-3.439	-0.180	0.125
-263.238	-200.000	0.013	0.120
-262.224	140.387	-0.220	-0.291
-261.209	408.285	-0.174	0.370
-260.195	18.479	0.265	0.212
-259.180	40.320	-0.217	0.196
-258.165	-70.090	0.052	-0.020
-257.151	-77.236	0.105	-0.037
-256.136	-63.059	0.102	0.042
-255.122	-200.000	-0.008	-0.266
-254.107	-16.650	0.233	-0.148
-253.092	270.799	-0.038	0.068
-252.078	65.938	0.212	0.216
-251.063	-72.453	0.123	-0.046
-250.049	-200.000	-0.019	0.263
-249.034	48.654	-0.230	-0.216
-248.019	40.325	0.187	-0.169
-247.005	-168.841	-0.187	0.007
-245.990	-200.000	0.062	-0.289
-244.976	155.870	0.052	-0.072
-243.961	-200.000	0.002	0.048
-242.946	800.000	-0.017	-0.066
-241.932	794.840	-0.093	-0.257
-240.917	30.070	0.204	0.175
-239.903	62.171	0.139	-0.139
-238.888	800.000	0.025	0.072
-237.873	-200.000	0.005	-0.281
-236.859	-200.000	0.021	0.231
-235.844	-156.850	0.371	-0.023
-234.830	190.890	-0.187	-0.282
-233.815	-44.599	0.190	-0.095
-232.800	69.636	-0.243	-0.250
-231.786	-143.884	0.295	0.028
-230.771	44.957	0.087	-0.080
-229.757	-29.621	0.322	-0.184
-228.742	-104.193	0.123	0.029
-227.727	-112.301	-0.522	0.105
-226.713	-68.165	-0.019	0.007
-225.698	232.721	-0.106	0.174
-224.684	95.360	0.152	-0.174
-223.669	-119.347	0.297	-0.052
-222.655	17.163	0.265	0.210
-221.640	800.000	-0.124	0.354
-220.625	-41.779	0.073	0.037
-219.611	800.000	0.123	-0.439
-218.596	-66.979	0.067	-0.026
-217.582	-200.000	0.022	-0.179
-216.567	59.076	0.084	-0.083
-215.552	-5.509	0.157	0.108
-214.538	-11.482	0.346	0.228
-213.523	-43.984	-0.150	-0.076
-212.509	358.942	-0.104	0.208
-211.494	-25.901	0.028	-0.016
-210.479	800.000	-0.077	0.254
-209.465	-79.770	-0.220	-0.074
-208.450	-134.354	0.156	-0.019
-207.436	800.000	0.069	0.213
-206.421	-41.073	0.193	0.100
-205.406	14.123	0.075	-0.058
-204.392	100.398	0.051	0.060
-203.377	-81.876	0.153	-0.050
-202.363	-200.000	-0.038	0.262
-201.348	-44.129	-0.061	-0.031
-200.333	-85.547	0.112	-0.035
-199.319	-101.615	-0.319	0.077
-198.304	107.488	-0.083	0.099
-197.290	14.939	0.236	-0.185
-196.275	-61.212	-0.152	-0.064
-195.260	218.222	-0.159	0.255
-194.246	560.320	0.031	-0.075
-193.231	-124.235	-0.188	-0.029
-192.217	-200.000	-0.011	-0.181
-191.202	-200.000	0.015	-0.188
-190.187	-200.000	-0.005	0.088
-189.173	54.856	-0.177	0.171
-188.158	-153.195	0.202	-0.014
-187.144	93.086	0.142	-0.161
-186.129	-200.000	-0.009	0.118
-185.114	-38.316	0.207	-0.110
-184.100	-40.762	-0.390	-0.202
-183.085	-76.193	-0.336	-0.119
-182.071	800.000	0.080	0.269
-181.056	132.649	-0.210	0.271
-180.042	-200.000	-0.013	-0.276
-179.027	-200.000	-0.015	0.083
-178.012	-200.000	0.051	-0.403
-176.998	-64.487	0.205	0.083
-175.983	130.119	0.012	-0.015
-174.969	165.395	-0.027	-0.038
-173.954	38.526	0.114	0.101
-172.939	754.822	0.032	-0.086
-171.925	800.000	0.011	-0.040
-170.910	800.000	0.011	0.041
-169.896	1.913	0.197	0.142
-168.881	800.000	-0.030	0.092
-167.866	-86.734	0.185	-0.056
-166.852	-169.785	-0.325	0.012
-165.837	-39.623	0.149	0.078
-164.823	-88.991	-0.224	0.066
-163.808	51.536	0.119	-0.113
-162.793	15.766	-0.369	-0.290
-161.779	208.170	0.209	0.327
-160.764	-134.224	0.179	0.022
-159.750	-26.208	-0.321	-0.188
-158.735	-141.304	0.349	-0.036
-157.720	-179.331	0.103	-0.002
-156.706	-131.999	0.276	-0.036
-155.691	672.743	-0.051	-0.133
-154.677	35.537	0.029	-0.025
-153.662	-124.198	0.104	0.016
-152.647	76.178	0.236	0.249
-151.633	291.725	-0.125	0.228
-150.618	-35.352	0.244	-0.133
-149.604	300.442	0.160	-0.294
-148.589	-200.000	0.011	0.259
-147.574	120.672	0.244	0.304
-146.560	-200.000	-0.005	-0.290
-145.545	222.700	0.095	-0.153
-144.531	-73.597	0.197	0.072
-143.516	-14.868	-0.104	-0.067
-142.502	-200.000	0.030	0.291
-141.487	104.098	0.072	-0.085
-140.472	-17.739	0.466	0.292
-139.458	-177.826	0.126	-0.003
-138.443	643.674	0.029	-0.074
-137.429	-62.132	0.440	-0.183
-136.414	-4.826	0.158	0.109
-135.399	290.054	-0.142	-0.258
-134.385	-86.211	0.347	-0.107
-133.370	-152.965	-0.180	-0.013
-132.356	-128.724	0.433	0.061
-131.341	-91.164	0.208	-0.059
-130.326	-157.077	0.164	-0.010
-129.312	771.311	0.089	-0.242
-128.297	-200.000	0.062	-0.421
-127.283	-71.215	0.168	-0.063
-126.268	800.000	0.035	0.148
-125.253	562.258	0.106	0.257
-124.239	800.000	0.062	0.228
-123.224	368.765	-0.094	-0.190
-122.210	-84.586	0.376	-0.118
-121.195	680.558	0.063	-0.163
