DTS Sentinel unit serial number:	SN413079Multiplexer serial number:	ORYXHardware model number:	OX4-SRSoftware version number:	ORYX F/W v4.00 Oryx Data Collector v3.7.2.0data status	okinstallation	princeton_trtdifferential loss correction	single-endedforward channel	channel 1reverse channel	N/Adate	2019/09/17time	08:26:35forward acquisition time	60.00reverse acquisition time	0.00gamma	496.2192k internal	0.2328k external	0.2328temperature offset calibration	0.9966default loss term (dB/km)	0.3790temperature slope calibration	1.0000multiplexer offset coefficient	1.0000multiplexer slope coefficient	1.0000fibre end	0.00T internal ref (°C)	27.50T ext. ref 1 (°C)	0.12T ext. ref 2 (°C)	22.89length (m)	temperature (°C)	Stokes	anti-Stokes-747.200	-74.294	0.131	0.048
-746.185	391.541	-0.031	-0.065
-745.171	72.085	-0.189	0.198
-744.156	-200.000	-0.014	0.112
-743.142	-200.000	-0.003	0.297
-742.127	211.578	0.160	0.254
-741.112	-200.000	0.030	-0.292
-740.098	-50.732	0.279	0.132
-739.083	-57.866	-0.197	0.087
-738.069	251.499	-0.201	0.345
-737.054	-200.000	0.010	-0.056
-736.039	-173.762	-0.300	-0.009
-735.025	-169.863	0.128	-0.005
-734.010	304.073	-0.112	0.210
-732.996	128.698	0.104	-0.134
-731.981	-113.131	-0.163	-0.032
-730.966	-105.479	-0.311	-0.071
-729.952	-75.195	-0.292	-0.105
-728.937	-5.505	-0.066	-0.046
-727.923	99.957	-0.158	-0.184
-726.908	800.000	0.036	0.154
-725.894	-79.682	-0.207	0.070
-724.879	36.531	-0.054	-0.048
-723.864	-192.714	-0.153	0.001
-722.850	204.149	0.197	-0.307
-721.835	83.413	0.143	0.157
-720.821	478.723	0.076	-0.174
-719.806	-66.113	-0.111	0.044
-718.791	-27.865	0.203	-0.118
-717.777	-62.457	0.028	0.012
-716.762	123.346	-0.131	0.165
-715.748	4.132	0.128	0.094
-714.733	-13.934	-0.318	-0.207
-713.718	225.360	0.057	0.093
-712.704	617.597	0.128	0.324
-711.689	-51.415	-0.271	-0.128
-710.675	-62.858	0.228	-0.095
-709.660	-200.000	0.003	0.314
-708.645	81.213	0.125	0.136
-707.631	64.441	-0.229	-0.232
-706.616	-7.588	-0.035	-0.024
-705.602	248.328	0.117	0.199
-704.587	-44.755	-0.472	0.237
-703.572	-95.417	-0.249	-0.067
-702.558	-106.978	-0.156	0.035
-701.543	-200.000	-0.055	-0.286
-700.529	87.399	0.106	-0.118
-699.514	-61.751	0.100	0.042
-698.499	-65.062	-0.031	-0.012
-697.485	130.962	-0.127	-0.164
-696.470	-57.074	0.182	0.081
-695.456	-181.694	0.096	0.002
-694.441	531.368	-0.013	0.032
-693.426	219.486	-0.105	-0.169
-692.412	496.972	-0.047	0.109
-691.397	1.302	0.122	-0.088
-690.383	-59.080	-0.137	-0.059
-689.368	203.587	0.090	-0.140
-688.354	-101.028	-0.212	0.052
-687.339	-131.594	-0.251	-0.033
-686.324	-86.667	0.246	-0.076
-685.310	-138.702	0.172	0.019
-684.295	-67.322	0.298	-0.118
-683.281	-200.000	-0.004	-0.055
-682.266	800.000	0.080	-0.240
-681.251	13.276	0.116	-0.091
-680.237	-153.857	0.160	-0.011
-679.222	-119.633	-0.193	-0.034
-678.208	-131.663	-0.065	0.009
-677.193	-75.813	-0.294	-0.105
-676.178	647.814	0.046	0.118
-675.164	157.895	-0.030	0.042
-674.149	-90.780	0.024	-0.007
-673.135	63.414	-0.101	-0.102
-672.120	-76.724	-0.328	-0.115
-671.105	-118.523	0.263	-0.047
-670.091	-4.825	-0.097	0.067
-669.076	-200.000	-0.040	0.188
-668.062	-19.186	-0.178	-0.111
-667.047	293.622	0.092	0.168
-666.032	12.094	0.146	0.113
-665.018	649.151	-0.051	-0.130
-664.003	521.304	-0.153	-0.362
-662.989	25.094	0.369	-0.308
-661.974	70.047	-0.236	0.244
-660.959	456.010	-0.066	-0.147
-659.945	-81.955	0.149	-0.049
-658.930	-132.720	-0.301	-0.039
-657.916	3.222	-0.116	0.085
-656.901	57.963	-0.235	-0.231
-655.886	-11.757	0.089	-0.059
-654.872	-134.951	-0.092	-0.011
-653.857	-35.375	-0.204	0.111
-652.843	-131.440	0.291	0.039
-651.828	-21.359	0.151	-0.092
-650.814	65.525	-0.013	-0.014
-649.799	5.826	-0.184	-0.136
-648.784	-134.066	0.342	0.043
-647.770	-16.402	0.187	0.119
-646.755	86.571	0.146	0.162
-645.741	800.000	-0.051	0.216
-644.726	-32.895	0.272	-0.152
-643.711	-192.235	-0.190	-0.002
-642.697	120.792	-0.074	0.092
-641.682	-83.991	-0.296	0.095
-640.668	184.855	0.031	0.047
-639.653	137.246	-0.300	0.394
-638.638	50.711	-0.046	-0.044
-637.624	21.921	-0.159	-0.130
-636.609	119.617	-0.276	-0.343
-635.595	150.119	-0.192	-0.261
-634.580	317.892	-0.055	0.105
-633.565	-32.768	-0.198	-0.111
-632.551	-125.845	-0.398	-0.060
-631.536	-149.053	0.171	0.014
-630.522	123.474	0.092	0.116
-629.507	-118.879	0.100	-0.018
-628.492	99.688	-0.124	0.144
-627.478	257.981	0.253	0.436
-626.463	259.822	-0.128	0.222
-625.449	-62.784	-0.063	0.026
-624.434	-142.048	-0.085	-0.009
-623.419	53.476	-0.124	0.119
-622.405	106.167	-0.158	-0.188
-621.390	-200.000	0.006	-0.508
-620.376	49.681	-0.122	0.116
-619.361	800.000	0.064	-0.202
-618.346	11.577	-0.192	-0.148
-617.332	-122.897	0.069	0.011
-616.317	-95.287	0.509	0.137
-615.303	111.057	0.121	0.146
-614.288	780.954	0.070	0.191
-613.273	800.000	0.033	-0.112
-612.259	297.590	-0.070	-0.128
-611.244	139.898	-0.242	-0.320
-610.230	153.414	-0.176	-0.242
-609.215	-13.844	-0.079	0.051
-608.201	-200.000	-0.002	-0.070
-607.186	-7.021	0.365	-0.248
-606.171	421.914	0.120	-0.257
-605.157	42.085	0.272	-0.248
-604.142	-24.030	-0.162	-0.097
-603.128	800.000	0.036	-0.116
-602.113	800.000	0.063	-0.244
-601.098	372.960	0.057	-0.115
-600.084	-200.000	-0.011	-0.208
-599.069	15.703	-0.171	0.135
-598.055	125.758	-0.098	0.124
-597.040	237.637	0.065	0.108
-596.025	-155.302	-0.131	0.009
-595.011	-112.892	-0.051	0.010
-593.996	156.831	0.097	-0.135
-592.982	355.307	0.049	0.098
-591.967	-200.000	0.037	0.279
-590.952	133.857	0.188	-0.243
-589.938	-63.966	0.456	-0.187
-588.923	580.999	-0.098	0.242
-587.909	-174.035	-0.316	-0.009
-586.894	-3.234	-0.152	-0.106
-585.879	340.791	-0.139	-0.271
-584.865	-200.000	0.001	-0.229
-583.850	91.489	-0.146	0.165
-582.836	324.944	-0.111	-0.213
-581.821	-200.000	-0.002	0.117
-580.806	761.905	-0.116	-0.316
-579.792	250.863	0.102	-0.173
-578.777	-200.000	0.034	0.283
-577.763	1.985	0.214	0.154
-576.748	-200.000	0.042	-0.207
-575.733	-44.658	0.114	-0.057
-574.719	-200.000	0.002	-0.103
-573.704	61.810	-0.175	0.175
-572.690	26.263	0.032	-0.027
-571.675	-9.055	-0.022	-0.015
-570.661	-200.000	0.012	-0.214
-569.646	800.000	-0.087	0.362
-568.631	-200.000	0.044	0.564
-567.617	-26.578	-0.484	-0.284
-566.602	-137.342	-0.195	-0.022
-565.588	366.732	-0.159	0.321
-564.573	0.633	0.190	0.136
-563.558	-200.000	-0.053	-0.318
-562.544	19.549	-0.152	0.122
-561.529	800.000	0.112	0.411
-560.515	800.000	0.053	0.188
-559.500	-87.964	-0.104	-0.031
-558.485	-127.616	0.154	0.022
-557.471	174.928	0.042	0.060
-556.456	198.772	-0.165	0.252
-555.442	-78.450	0.277	0.095
-554.427	380.414	0.135	0.277
-553.412	4.883	-0.134	0.098
-552.398	-58.242	-0.209	0.091
-551.383	103.462	0.275	0.323
-550.369	-148.231	-0.383	0.032
-549.354	-20.281	0.290	-0.179
-548.339	99.544	0.017	-0.019
-547.325	25.518	0.229	-0.191
-546.310	-131.513	-0.110	0.015
-545.296	-49.777	-0.158	0.075
-544.281	-104.624	-0.261	-0.060
-543.266	382.982	-0.067	-0.138
-542.252	258.933	-0.103	-0.178
-541.237	800.000	0.081	-0.274
-540.223	-8.075	0.245	0.165
-539.208	-86.319	0.055	0.017
-538.193	-200.000	0.047	0.359
-537.179	331.837	-0.082	-0.159
-536.164	-140.229	-0.172	0.018
-535.150	-36.322	0.109	0.059
-534.135	-200.000	0.045	-0.363
-533.121	-1.014	-0.061	0.043
-532.106	-67.154	-0.257	0.101
-531.091	-200.000	-0.029	0.239
-530.077	344.570	-0.086	-0.169
-529.062	-57.133	0.242	-0.107
-528.048	157.333	0.044	-0.060
-527.033	398.280	0.127	0.265
-526.018	-200.000	-0.011	0.217
-525.004	800.000	-0.081	0.237
-523.989	387.750	0.103	-0.214
-522.975	77.739	0.184	0.195
-521.960	800.000	0.049	-0.158
-520.945	278.991	0.063	0.112
-519.931	-87.698	0.247	0.074
-518.916	-143.972	0.176	0.017
-517.902	28.304	-0.128	-0.108
-516.887	-118.876	-0.384	-0.067
-515.872	50.947	-0.231	-0.219
-514.858	-90.644	0.217	-0.063
-513.843	-78.086	0.242	-0.083
-512.829	-200.000	-0.012	0.079
-511.814	-200.000	-0.041	-0.357
-510.799	8.133	-0.222	0.166
-509.785	74.010	0.092	-0.097
-508.770	-200.000	0.034	0.314
-507.756	800.000	-0.083	-0.291
-506.741	-37.533	0.073	0.039
-505.726	800.000	0.048	0.164
-504.712	-200.000	-0.033	-0.161
-503.697	462.212	-0.106	0.236
-502.683	69.734	-0.110	0.114
-501.668	162.165	0.143	0.200
-500.653	-200.000	0.026	0.183
-499.639	-200.000	-0.064	-0.330
-498.624	-62.746	0.418	-0.173
-497.610	-116.958	-0.198	-0.036
-496.595	800.000	-0.054	-0.195
-495.581	800.000	0.070	-0.261
-494.566	-90.810	-0.226	0.065
-493.551	-79.998	-0.268	0.090
-492.537	-200.000	-0.009	0.164
-491.522	-103.428	0.100	-0.023
-490.508	30.593	0.198	-0.169
-489.493	-26.679	0.082	0.048
-488.478	-95.169	0.123	-0.033
-487.464	800.000	0.074	0.263
-486.449	343.688	0.048	-0.094
-485.435	-200.000	-0.041	0.291
-484.420	800.000	-0.039	0.148
-483.405	72.813	-0.062	0.065
-482.391	-175.344	0.133	-0.004
-481.376	116.600	0.216	-0.265
-480.362	800.000	-0.037	-0.141
-479.347	336.180	-0.041	-0.079
-478.332	96.896	-0.107	-0.123
-477.318	-28.212	-0.231	0.133
-476.303	-156.238	0.423	0.026
-475.289	21.219	-0.126	-0.102
-474.274	444.235	0.161	-0.352
-473.259	294.014	-0.163	0.297
-472.245	800.000	0.034	-0.134
-471.230	-90.861	-0.343	0.098
-470.216	337.098	0.110	-0.213
-469.201	470.643	0.129	-0.289
-468.186	-121.093	-0.104	-0.017
-467.172	108.697	-0.207	0.246
-466.157	-193.101	0.159	0.001
-465.143	800.000	0.071	-0.285
-464.128	-200.000	0.065	-0.535
-463.113	695.513	-0.032	0.084
-462.099	425.727	0.064	-0.138
-461.084	800.000	0.111	-0.346
-460.070	160.812	0.214	-0.298
-459.055	-200.000	-0.003	0.370
-458.040	-99.813	-0.122	-0.030
-457.026	117.231	0.078	-0.095
-456.011	6.927	-0.020	-0.015
-454.997	-44.058	-0.160	-0.080
-453.982	-54.743	0.158	-0.071
-452.968	22.775	0.214	0.174
-451.953	159.106	-0.096	0.133
-450.938	-50.638	-0.145	0.068
-449.924	191.139	-0.084	-0.126
-448.909	75.569	-0.061	0.064
-447.895	-200.000	0.294	-0.000
-446.880	77.254	0.169	0.179
-445.865	-53.275	0.304	-0.139
-444.851	86.756	-0.100	-0.110
-443.836	-79.548	-0.374	0.126
-442.822	156.597	-0.323	0.445
-441.807	209.391	-0.069	-0.107
-440.792	509.616	0.075	-0.174
-439.778	202.743	-0.041	0.063
-438.763	19.406	0.139	0.111
-437.749	-200.000	0.005	0.146
-436.734	800.000	-0.026	0.092
-435.719	-50.466	-0.278	-0.131
-434.705	70.129	0.062	-0.064
-433.690	50.423	0.367	0.346
-432.676	-95.099	-0.332	0.089
-431.661	-200.000	-0.066	0.337
-430.646	-110.553	0.118	-0.024
-429.632	369.475	0.143	-0.288
-428.617	-200.000	-0.011	-0.087
-427.603	-74.369	0.216	0.078
-426.588	260.325	-0.069	0.119
-425.573	33.132	-0.238	-0.205
-424.559	-122.293	0.296	-0.048
-423.544	-66.582	-0.311	0.123
-422.530	-200.000	0.041	0.341
-421.515	411.628	0.078	-0.166
-420.500	-14.503	-0.147	0.094
-419.486	-72.175	0.031	0.011
-418.471	174.993	-0.065	-0.094
-417.457	76.317	-0.175	0.184
-416.442	-23.898	0.437	0.260
-415.428	-34.475	0.136	-0.074
-414.413	-200.000	0.004	0.122
-413.398	228.343	0.146	0.237
-412.384	155.584	-0.103	-0.141
-411.369	-4.194	-0.131	-0.090
-410.355	-178.654	-0.261	-0.006
-409.340	-99.234	0.259	-0.065
-408.325	-91.871	0.175	-0.049
-407.311	-200.000	0.003	0.105
-406.296	800.000	0.101	0.306
-405.282	442.218	-0.117	-0.256
-404.267	-138.805	0.407	0.044
-403.252	-109.239	0.069	0.014
-402.238	-64.006	-0.359	-0.146
-401.223	-108.313	0.189	-0.041
-400.209	-76.718	-0.175	-0.061
-399.194	-45.396	0.246	0.121
-398.179	800.000	-0.064	0.222
-397.165	-133.312	0.307	0.039
-396.150	794.399	-0.036	-0.099
-395.136	529.096	-0.058	0.136
-394.121	-200.000	0.002	-0.227
-393.106	71.635	-0.125	0.129
-392.092	76.226	0.103	0.108
-391.077	-200.000	0.017	0.097
-390.063	-70.694	0.146	-0.055
-389.048	-74.278	0.114	-0.041
-388.033	75.162	0.212	0.223
-387.019	14.165	-0.127	-0.098
-386.004	6.146	0.177	0.131
-384.990	-0.875	-0.149	0.105
-383.975	-200.000	0.040	0.309
-382.960	-84.438	0.101	-0.032
-381.946	-75.497	0.303	-0.107
-380.931	-111.643	0.253	0.051
-379.917	100.473	0.118	0.136
-378.902	800.000	-0.077	-0.231
-377.888	146.970	-0.065	0.086
-376.873	-200.000	-0.008	0.043
-375.858	300.219	0.055	-0.102
-374.844	33.310	-0.208	0.179
-373.829	-153.113	0.113	-0.008
-372.815	226.545	0.065	-0.105
-371.800	-72.708	0.092	0.034
-370.785	-51.587	0.422	0.195
-369.771	-34.471	-0.240	0.131
-368.756	-200.000	-0.045	0.256
-367.742	47.347	-0.020	-0.019
-366.727	800.000	-0.026	-0.098
-365.712	-54.714	0.255	-0.114
-364.698	-200.000	0.018	0.147
-363.683	50.610	-0.110	0.103
-362.669	-35.335	-0.258	0.140
-361.654	800.000	-0.072	0.243
-360.639	22.031	-0.430	-0.348
-359.625	643.260	-0.013	0.032
-358.610	-131.432	-0.178	0.023
-357.596	800.000	0.024	0.086
-356.581	70.140	0.177	-0.181
-355.566	527.338	0.131	-0.307
-354.552	-200.000	-0.015	0.000
-353.537	800.000	-0.081	0.269
-352.523	92.545	-0.125	0.140
-351.508	800.000	0.035	-0.132
-350.493	178.408	0.245	0.356
-349.479	-89.023	0.209	-0.061
-348.464	85.935	-0.360	0.393
-347.450	181.534	-0.291	0.425
-346.435	-139.091	0.050	-0.005
-345.420	-100.648	-0.148	-0.036
-344.406	106.872	-0.249	0.293
-343.391	-17.842	0.111	0.069
-342.377	-102.247	-0.416	0.099
-341.362	35.195	-0.206	0.179
-340.348	-109.260	-0.103	-0.022
-339.333	335.662	0.089	-0.171
-338.318	-63.747	0.114	0.046
-337.304	-200.000	0.045	0.310
-336.289	800.000	-0.068	0.287
-335.275	-113.407	-0.301	0.059
-334.260	-200.000	0.065	0.284
-333.245	20.306	-0.278	-0.222
-332.231	-59.499	-0.328	0.140
-331.216	116.738	0.110	0.134
-330.202	-123.277	-0.700	-0.111
-329.187	239.578	-0.144	0.238
-328.172	-200.000	0.027	-0.312
-327.158	-200.000	-0.016	-0.198
-326.143	-35.003	-0.149	-0.081
-325.129	800.000	0.102	0.378
-324.114	-105.809	0.274	0.061
-323.099	193.880	-0.078	-0.118
-322.085	27.420	-0.129	0.107
-321.070	-129.714	-0.213	0.029
-320.056	-166.504	0.335	-0.014
-319.041	-200.000	-0.042	0.230
-318.026	800.000	0.026	-0.072
-317.012	-50.992	0.237	0.110
-315.997	659.984	-0.056	0.144
-314.983	-150.606	0.090	0.007
-313.968	-200.000	0.071	-0.352
-312.953	73.407	0.183	-0.190
-311.939	47.914	-0.306	-0.283
-310.924	-200.000	0.032	-0.192
-309.910	55.557	0.082	-0.079
-308.895	-141.895	0.093	-0.009
-307.880	-55.282	-0.036	-0.016
-306.866	216.802	0.103	-0.162
-305.851	329.177	-0.071	-0.134
-304.837	-200.000	-0.017	-0.111
-303.822	-200.000	-0.019	-0.190
-302.807	-200.000	-0.005	-0.241
-301.793	-178.965	-0.176	0.004
-300.778	-9.268	0.091	0.060
-299.764	20.493	-0.088	-0.071
-298.749	-128.984	0.307	-0.043
-297.735	-31.893	-0.080	-0.044
-296.720	-200.000	-0.027	-0.189
-295.705	-200.000	0.124	0.562
-294.691	-58.598	0.244	-0.105
-293.676	-63.502	0.181	-0.074
-292.662	-94.946	0.241	-0.065
-291.647	-70.000	0.124	0.047
-290.632	-105.676	0.216	0.048
-289.618	-164.563	-0.193	0.009
-288.603	-88.052	-0.270	-0.080
-287.589	-165.082	-0.150	-0.007
-286.574	42.163	-0.241	-0.217
-285.559	-94.254	0.043	0.012
-284.545	36.759	0.241	0.211
-283.530	-200.000	-0.025	-0.142
-282.516	-86.745	-0.259	0.078
-281.501	546.314	0.127	-0.300
-280.486	228.560	0.209	0.336
-279.472	29.894	0.123	0.103
-278.457	180.053	-0.203	0.294
-277.443	-197.433	-0.349	0.002
-276.428	-93.345	-0.219	-0.060
-275.413	-60.536	-0.438	-0.184
-274.399	800.000	-0.050	-0.158
-273.384	-64.101	0.401	-0.162
-272.370	-200.000	-0.010	0.162
-271.355	-76.614	0.171	-0.059
-270.340	127.223	0.039	0.049
-269.326	-42.243	0.097	0.049
-268.311	177.746	-0.111	-0.160
-267.297	-28.187	-0.238	0.136
-266.282	-97.347	0.192	0.049
-265.267	800.000	-0.024	0.078
-264.253	-200.000	0.011	-0.468
-263.238	-125.086	-0.431	-0.065
-262.224	119.099	0.179	-0.219
-261.209	-165.751	0.485	0.021
-260.195	18.564	0.428	0.338
-259.180	800.000	-0.080	0.342
-258.165	43.199	-0.202	0.182
-257.151	-139.002	0.352	0.038
-256.136	800.000	-0.074	0.245
-255.122	800.000	-0.147	0.411
-254.107	458.844	0.126	-0.277
-253.092	186.834	0.182	-0.269
-252.078	763.776	0.051	0.137
-251.063	120.527	-0.179	-0.219
-250.049	423.459	0.009	-0.018
-249.034	-37.032	0.171	0.091
-248.019	-200.000	0.031	-0.258
-247.005	-26.165	-0.221	-0.129
-245.990	1.678	0.227	0.162
-244.976	-200.000	0.018	0.301
-243.961	27.613	-0.264	0.220
-242.946	142.070	-0.142	0.186
-241.932	800.000	0.018	-0.051
-240.917	-163.723	-0.244	0.011
-239.903	13.962	0.361	-0.278
-238.888	-19.627	-0.128	0.079
-237.873	284.027	0.138	-0.245
-236.859	-104.829	0.271	0.061
-235.844	-200.000	0.028	0.213
-234.830	-36.110	0.170	0.091
-233.815	93.862	-0.167	-0.187
-232.800	43.937	-0.174	-0.158
-231.786	-200.000	0.023	-0.249
-230.771	107.293	0.064	-0.075
-229.757	-200.000	0.019	0.149
-228.742	-200.000	-0.061	-0.417
-227.727	800.000	-0.142	0.445
-226.713	-26.022	0.288	-0.167
-225.698	75.611	-0.137	-0.143
-224.684	94.729	-0.028	-0.032
-223.669	-14.713	0.161	-0.102
-222.655	143.353	0.040	-0.053
-221.640	-166.751	-0.426	-0.017
-220.625	183.977	0.032	-0.047
-219.611	154.574	-0.063	-0.086
-218.596	552.226	-0.130	-0.309
-217.582	-84.532	0.226	-0.071
-216.567	86.615	0.099	-0.108
-215.552	265.320	-0.126	0.216
-214.538	-141.931	-0.081	0.008
-213.523	303.847	-0.163	0.299
-212.509	-30.979	0.325	0.181
-211.494	-106.810	0.151	-0.033
-210.479	-200.000	-0.007	0.215
-209.465	800.000	0.027	0.116
-208.450	-122.073	-0.263	-0.043
-207.436	-44.575	-0.109	-0.054
-206.421	-22.853	0.127	0.075
-205.406	-200.000	0.000	-0.062
-204.392	-26.559	-0.083	-0.048
-203.377	-17.722	0.337	0.209
-202.363	97.336	0.238	-0.269
-201.348	744.742	-0.042	-0.111
-200.333	163.255	-0.140	-0.194
-199.319	628.437	-0.039	0.097
-198.304	-30.773	-0.227	0.126
-197.290	-200.000	-0.037	-0.308
-196.275	-159.834	-0.188	-0.010
-195.260	3.753	-0.190	0.137
-194.246	403.937	-0.094	0.195
-193.231	221.421	0.061	-0.097
-192.217	-200.000	0.019	-0.120
-191.202	72.401	0.142	-0.146
-190.187	-23.295	0.082	0.049
-189.173	290.657	-0.133	0.239
-188.158	66.466	0.166	0.166
-187.144	110.369	0.229	-0.271
-186.129	201.962	-0.194	-0.295
-185.114	-200.000	-0.005	0.179
-184.100	563.884	-0.048	0.114
-183.085	580.332	-0.103	-0.249
-182.071	-78.183	0.058	0.020
-181.056	132.991	-0.307	-0.391
-180.042	-48.510	-0.153	-0.073
-179.027	800.000	0.058	0.243
-178.012	-35.312	0.177	0.095
-176.998	35.421	0.036	0.031
-175.983	-200.000	0.021	-0.104
-174.969	-153.377	0.252	-0.017
-173.954	-136.838	-0.429	0.049
-172.939	800.000	0.131	-0.453
-171.925	-76.039	0.081	0.028
-170.910	-109.442	0.394	0.082
-169.896	-109.842	0.355	0.073
-168.881	36.312	0.156	-0.136
-167.866	560.075	-0.072	-0.171
-166.852	139.663	-0.328	-0.426
-165.837	800.000	0.102	-0.420
-164.823	244.798	0.158	-0.261
-163.808	-200.000	-0.056	-0.314
-162.793	-200.000	0.021	-0.159
-161.779	-145.826	0.202	-0.018
-160.764	-43.351	-0.341	-0.170
-159.750	-58.881	0.176	0.075
-158.735	-46.503	-0.106	0.051
-157.720	66.688	0.332	0.333
-156.706	-200.000	0.009	0.043
-155.691	-200.000	-0.086	0.409
-154.677	-41.458	0.153	0.077
-153.662	86.122	-0.096	-0.104
-152.647	-54.285	0.358	-0.160
-151.633	800.000	-0.029	0.122
-150.618	10.114	0.147	0.110
-149.604	148.790	-0.150	0.199
-148.589	167.811	0.020	0.028
-147.574	-152.360	0.208	-0.015
-146.560	-30.119	-0.342	0.191
-145.545	22.580	0.308	-0.248
-144.531	-104.791	0.071	0.016
-143.516	-4.352	0.124	-0.084
-142.502	800.000	-0.037	0.135
-141.487	199.944	-0.068	-0.103
-140.472	345.159	-0.032	-0.063
-139.458	27.233	-0.146	0.121
-138.443	274.711	-0.071	0.124
-137.429	22.357	0.164	0.132
-136.414	345.602	0.106	0.204
-135.399	800.000	0.069	0.199
-134.385	800.000	0.063	0.260
-133.370	332.908	0.055	0.104
-132.356	-63.311	-0.289	0.117
-131.341	-136.023	0.170	-0.020
-130.326	-44.772	0.162	0.079
-129.312	75.760	-0.211	-0.220
-128.297	800.000	-0.066	-0.251
-127.283	-165.515	-0.161	-0.007
-126.268	-120.340	0.269	-0.045
-125.253	469.531	0.102	-0.225
-124.239	-71.014	0.335	-0.124
-123.224	-122.160	-0.232	0.037
-122.210	406.188	0.240	0.498
-121.195	-200.000	-0.011	0.140
