DTS Sentinel unit serial number:	SN413079Multiplexer serial number:	ORYXHardware model number:	OX4-SRSoftware version number:	ORYX F/W v4.00 Oryx Data Collector v3.7.2.0data status	okinstallation	princeton_trtdifferential loss correction	single-endedforward channel	channel 1reverse channel	N/Adate	2019/09/17time	15:46:35forward acquisition time	60.00reverse acquisition time	0.00gamma	496.2192k internal	0.2292k external	0.2292temperature offset calibration	0.9963default loss term (dB/km)	0.3790temperature slope calibration	1.0000multiplexer offset coefficient	1.0000multiplexer slope coefficient	1.0000fibre end	0.00T internal ref (°C)	39.02T ext. ref 1 (°C)	0.38T ext. ref 2 (°C)	37.13length (m)	temperature (°C)	Stokes	anti-Stokes-747.200	172.980	-0.013	-0.019
-746.185	663.890	-0.068	0.180
-745.171	800.000	0.110	0.366
-744.156	61.650	-0.192	0.196
-743.142	-200.000	-0.056	0.278
-742.127	-200.000	0.027	0.309
-741.112	-41.403	0.201	0.106
-740.098	97.335	-0.287	0.337
-739.083	23.614	0.053	0.045
-738.069	-72.954	0.246	-0.092
-737.054	37.500	-0.159	0.144
-736.039	-101.930	-0.305	0.075
-735.025	-120.439	0.004	0.001
-734.010	-23.348	-0.290	-0.179
-732.996	39.748	-0.088	-0.080
-731.981	-116.889	-0.238	-0.045
-730.966	312.220	-0.076	0.145
-729.952	33.016	0.189	-0.168
-728.937	-99.135	0.111	-0.029
-727.923	332.801	-0.078	-0.154
-726.908	-89.961	-0.227	0.068
-725.894	800.000	-0.070	0.200
-724.879	800.000	-0.096	0.412
-723.864	-115.074	-0.391	0.076
-722.850	-52.697	-0.090	-0.043
-721.835	224.661	-0.069	0.114
-720.821	-1.883	-0.263	-0.189
-719.806	555.337	-0.040	-0.098
-718.791	-200.000	-0.090	-0.442
-717.777	800.000	0.076	-0.315
-716.762	-96.278	0.060	0.016
-715.748	-162.867	0.107	-0.005
-714.733	-40.077	0.117	-0.063
-713.718	9.412	-0.294	-0.228
-712.704	53.250	-0.093	0.091
-711.689	357.411	0.125	-0.255
-710.675	-109.866	0.155	-0.033
-709.660	125.212	0.159	0.204
-708.645	-94.163	0.075	-0.021
-707.631	143.711	-0.044	0.061
-706.616	55.879	-0.211	-0.209
-705.602	41.196	0.285	-0.264
-704.587	-57.828	0.218	-0.098
-703.572	-95.634	-0.471	0.129
-702.558	160.240	-0.109	0.156
-701.543	-27.558	0.103	-0.061
-700.529	315.659	0.313	0.603
-699.514	608.182	0.125	0.320
-698.499	-25.008	-0.036	-0.022
-697.485	-65.743	-0.029	-0.012
-696.470	-77.276	0.298	-0.106
-695.456	252.595	-0.032	0.056
-694.441	-110.180	0.248	0.053
-693.426	800.000	-0.191	-0.587
-692.412	-47.446	-0.139	-0.069
-691.397	-106.355	-0.197	0.045
-690.383	-129.885	0.079	0.011
-689.368	-200.000	0.031	-0.254
-688.354	-56.132	0.174	0.079
-687.339	-2.573	-0.101	-0.073
-686.324	-200.000	0.030	-0.583
-685.310	14.142	-0.196	-0.156
-684.295	-74.099	0.096	-0.036
-683.281	102.834	-0.198	0.237
-682.266	461.756	-0.114	0.260
-681.251	-17.127	-0.162	0.105
-680.237	61.634	0.117	-0.119
-679.222	77.033	-0.123	-0.134
-678.208	123.445	-0.155	-0.199
-677.193	800.000	-0.049	0.139
-676.178	-200.000	-0.064	0.294
-675.164	56.596	-0.217	-0.215
-674.149	800.000	-0.020	0.060
-673.135	59.037	-0.182	-0.182
-672.120	-200.000	0.014	-0.211
-671.105	-29.855	0.239	0.139
-670.091	-163.047	0.268	-0.013
-669.076	-108.665	0.144	0.032
-668.062	566.746	0.082	0.203
-667.047	-21.641	-0.186	0.116
-666.032	46.224	0.069	-0.065
-665.018	-132.934	-0.318	-0.041
-664.003	295.184	-0.063	-0.117
-662.989	-54.919	-0.068	0.031
-661.974	800.000	0.096	-0.293
-660.959	-200.000	-0.005	-0.234
-659.945	-136.852	0.189	-0.022
-658.930	200.258	-0.046	0.072
-657.916	142.867	0.137	-0.185
-656.901	-200.000	0.009	-0.328
-655.886	-200.000	-0.033	-0.354
-654.872	800.000	0.032	-0.117
-653.857	-200.000	-0.035	0.213
-652.843	-200.000	0.036	0.228
-651.828	433.879	0.064	-0.141
-650.814	-133.809	-0.061	-0.008
-649.799	-86.925	0.167	-0.052
-648.784	41.031	-0.238	-0.219
-647.770	-62.590	0.193	-0.082
-646.755	-73.913	-0.031	-0.011
-645.741	299.655	-0.262	-0.493
-644.726	486.671	-0.104	-0.242
-643.711	-131.228	-0.555	0.075
-642.697	384.425	0.029	0.060
-641.682	-38.299	-0.218	0.118
-640.668	83.047	-0.090	0.100
-639.653	800.000	-0.055	-0.188
-638.638	313.712	-0.078	-0.150
-637.624	-2.774	0.212	-0.151
-636.609	484.795	-0.079	0.184
-635.595	-53.023	-0.067	-0.031
-634.580	-51.389	-0.144	0.069
-633.565	-200.000	-0.003	-0.274
-632.551	231.364	-0.106	-0.177
-631.536	113.146	0.072	-0.088
-630.522	-71.187	-0.375	-0.143
-629.507	-81.239	-0.065	-0.022
-628.492	-109.695	-0.201	0.043
-627.478	-132.067	0.164	-0.022
-626.463	55.468	-0.258	-0.254
-625.449	44.757	0.172	0.161
-624.434	-97.437	0.180	0.048
-623.419	-171.976	0.255	0.008
-622.405	-200.000	0.013	-0.060
-621.390	-49.241	-0.062	0.030
-620.376	6.040	-0.145	0.109
-619.361	398.591	0.053	-0.113
-618.346	-200.000	0.020	-0.189
-617.332	-135.380	-0.281	0.034
-616.317	37.340	0.211	0.190
-615.303	33.687	-0.036	0.032
-614.288	36.564	0.253	0.228
-613.273	323.017	-0.089	-0.172
-612.259	28.384	-0.167	-0.144
-611.244	13.716	0.249	-0.197
-610.230	12.822	-0.089	-0.070
-609.215	-200.000	0.011	0.089
-608.201	540.534	-0.080	0.193
-607.186	691.255	0.029	0.077
-606.171	-30.897	0.229	-0.132
-605.157	52.831	-0.047	-0.046
-604.142	162.554	-0.086	-0.123
-603.128	255.182	0.071	0.123
-602.113	-29.493	0.255	-0.149
-601.098	260.236	0.037	-0.065
-600.084	176.617	-0.109	0.161
-599.069	41.570	0.080	-0.074
-598.055	24.006	-0.245	0.206
-597.040	398.008	-0.266	-0.567
-596.025	-101.877	0.347	-0.085
-595.011	-3.426	0.073	-0.052
-593.996	22.093	0.145	-0.120
-592.982	-85.895	0.336	0.106
-591.967	-60.978	0.140	0.060
-590.952	117.364	0.061	0.076
-589.938	-28.628	-0.195	0.114
-588.923	49.301	0.080	-0.076
-587.909	-83.450	0.239	-0.078
-586.894	-71.750	-0.219	-0.083
-585.879	-200.000	0.051	-0.280
-584.865	-52.682	0.189	-0.089
-583.850	-45.842	0.028	0.014
-582.836	201.803	-0.086	-0.135
-581.821	189.644	-0.130	0.198
-580.806	-103.828	0.108	0.026
-579.792	-109.564	-0.079	-0.017
-578.777	-46.392	-0.203	0.101
-577.763	-200.000	-0.008	0.118
-576.748	-14.468	-0.267	0.175
-575.733	-40.365	-0.180	0.095
-574.719	217.135	-0.048	-0.077
-573.704	-47.826	0.187	-0.092
-572.690	800.000	-0.071	-0.244
-571.675	800.000	0.069	-0.227
-570.661	212.745	-0.157	0.253
-569.646	-110.852	-0.085	0.018
-568.631	-200.000	-0.005	-0.187
-567.617	-94.506	0.371	-0.103
-566.602	-34.421	-0.039	-0.022
-565.588	-58.930	-0.111	0.049
-564.573	-47.565	-0.189	-0.094
-563.558	-200.000	-0.020	0.217
-562.544	46.441	0.108	0.102
-561.529	395.183	-0.074	0.157
-560.515	614.869	0.128	0.325
-559.500	-200.000	-0.058	0.417
-558.485	597.940	-0.071	-0.179
-557.471	7.461	0.284	-0.216
-556.456	800.000	-0.042	0.147
-555.442	-200.000	-0.025	0.225
-554.427	-119.520	0.416	0.073
-553.412	45.252	-0.098	0.092
-552.398	-200.000	0.010	0.185
-551.383	-60.070	0.154	-0.067
-550.369	-99.783	-0.190	-0.048
-549.354	-140.151	0.221	0.024
-548.339	-200.000	0.008	0.365
-547.325	-27.389	0.282	-0.167
-546.310	-116.589	-0.207	-0.039
-545.296	331.475	0.154	0.301
-544.281	-45.289	-0.033	0.017
-543.266	257.117	-0.078	-0.136
-542.252	-200.000	0.051	-0.242
-541.237	-200.000	-0.020	-0.246
-540.223	6.148	0.162	-0.122
-539.208	-76.753	-0.117	0.042
-538.193	33.202	-0.193	0.170
-537.179	-200.000	-0.005	0.040
-536.164	-200.000	0.007	0.287
-535.150	800.000	0.110	0.337
-534.135	556.622	0.096	0.235
-533.121	-110.416	0.198	0.042
-532.106	-113.676	0.112	-0.022
-531.091	-72.762	0.154	0.057
-530.077	721.555	0.033	0.090
-529.062	290.990	0.016	-0.030
-528.048	71.691	-0.095	0.100
-527.033	-200.000	0.018	-0.186
-526.018	-200.000	-0.020	-0.223
-525.004	-57.006	-0.057	-0.025
-523.989	24.353	-0.198	-0.166
-522.975	-107.226	0.198	-0.044
-521.960	169.633	-0.122	-0.177
-520.945	506.610	-0.093	-0.219
-519.931	-200.000	-0.049	0.404
-518.916	7.434	-0.187	-0.142
-517.902	9.557	0.438	0.336
-516.887	-200.000	-0.001	-0.122
-515.872	82.825	-0.127	0.140
-514.858	-146.526	-0.457	0.040
-513.843	800.000	-0.078	-0.277
-512.829	53.605	-0.160	0.156
-511.814	-32.850	-0.299	0.169
-510.799	15.369	0.275	-0.219
-509.785	-175.877	-0.191	0.005
-508.770	398.257	0.083	0.176
-507.756	104.723	-0.086	-0.102
-506.741	584.736	0.143	-0.356
-505.726	-102.182	0.125	-0.030
-504.712	-106.025	-0.099	-0.023
-503.697	15.689	-0.182	0.145
-502.683	-200.000	-0.019	-0.089
-501.668	-18.693	0.107	-0.068
-500.653	-156.755	-0.302	0.019
-499.639	-39.481	0.379	-0.201
-498.624	74.535	0.114	0.121
-497.610	-96.806	-0.114	0.030
-496.595	302.542	-0.142	-0.266
-495.581	-134.970	0.427	-0.052
-494.566	-61.719	0.238	-0.101
-493.551	-123.619	-0.055	0.009
-492.537	800.000	-0.011	0.032
-491.522	72.466	-0.123	0.130
-490.508	-200.000	0.013	-0.143
-489.493	95.676	-0.302	0.349
-488.478	-63.638	-0.189	0.079
-487.464	47.018	0.112	-0.105
-486.449	30.470	-0.293	0.254
-485.435	-200.000	-0.020	-0.180
-484.420	-200.000	0.004	-0.073
-483.405	-33.759	0.010	0.006
-482.391	-179.868	-0.197	-0.004
-481.376	-42.638	0.307	0.158
-480.362	277.386	-0.012	0.022
-479.347	-21.684	0.124	-0.076
-478.332	-134.993	-0.155	0.019
-477.318	-53.851	-0.152	0.070
-476.303	-10.593	0.187	-0.125
-475.289	800.000	-0.040	-0.121
-474.274	-69.120	-0.214	0.083
-473.259	-153.046	-0.191	0.014
-472.245	6.876	0.130	-0.098
-471.230	-39.398	-0.116	0.062
-470.216	-200.000	0.005	-0.093
-469.201	-103.311	-0.290	0.069
-468.186	-89.801	0.208	0.062
-467.172	-130.063	-0.320	-0.044
-466.157	-122.493	-0.235	0.039
-465.143	-200.000	0.116	0.561
-464.128	-95.685	-0.139	0.038
-463.113	73.760	-0.046	0.049
-462.099	-22.269	0.111	0.068
-461.084	-57.351	-0.101	0.045
-460.070	-7.776	0.144	-0.099
-459.055	-39.635	-0.107	0.057
-458.040	416.161	0.213	-0.461
-457.026	587.912	0.105	-0.262
-456.011	-16.639	0.271	0.174
-454.997	77.521	-0.297	-0.320
-453.982	-131.179	0.067	-0.009
-452.968	-0.649	0.260	0.186
-451.953	-200.000	-0.075	-0.392
-450.938	12.716	0.057	0.045
-449.924	60.281	-0.166	-0.166
-448.909	372.222	-0.132	-0.270
-447.895	179.522	0.060	0.088
-446.880	-200.000	0.046	0.212
-445.865	-160.431	-0.432	0.023
-444.851	138.831	-0.083	-0.111
-443.836	84.036	0.048	0.053
-442.822	-40.793	-0.177	0.093
-441.807	171.764	0.156	0.227
-440.792	63.316	-0.064	0.065
-439.778	112.691	0.066	-0.080
-438.763	-93.255	-0.186	-0.052
-437.749	416.414	0.066	-0.142
-436.734	-200.000	-0.033	0.169
-435.719	775.358	-0.037	-0.101
-434.705	800.000	0.101	0.364
-433.690	74.743	0.225	0.240
-432.676	151.141	-0.062	-0.085
-431.661	219.218	-0.134	-0.217
-430.646	-20.509	-0.076	-0.047
-429.632	-92.193	-0.343	-0.098
-428.617	-200.000	0.038	-0.462
-427.603	-150.390	0.118	-0.009
-426.588	800.000	0.029	0.124
-425.573	322.532	0.191	0.369
-424.559	-200.000	-0.035	-0.170
-423.544	-140.098	-0.361	-0.038
-422.530	-117.810	0.127	0.023
-421.515	-200.000	0.044	0.249
-420.500	342.620	-0.097	-0.191
-419.486	-200.000	0.007	-0.068
-418.471	62.272	0.023	0.024
-417.457	-171.741	-0.312	-0.010
-416.442	96.327	-0.223	0.257
-415.428	137.098	-0.105	0.139
-414.413	516.707	-0.065	0.152
-413.398	-200.000	0.023	0.119
-412.384	-200.000	0.046	0.403
-411.369	-200.000	0.014	0.067
-410.355	56.973	0.201	0.198
-409.340	-200.000	0.054	0.242
-408.325	119.113	0.065	-0.082
-407.311	-44.924	0.121	-0.061
-406.296	74.811	-0.125	-0.133
-405.282	241.321	0.158	0.266
-404.267	244.143	0.026	0.044
-403.252	-200.000	-0.018	-0.101
-402.238	-97.191	0.131	-0.034
-401.223	-33.135	-0.098	-0.055
-400.209	-200.000	0.009	0.129
-399.194	-53.968	-0.262	0.121
-398.179	-200.000	0.038	0.288
-397.165	118.676	0.238	0.296
-396.150	192.127	-0.102	0.155
-395.136	-200.000	-0.044	-0.343
-394.121	66.540	0.049	-0.050
-393.106	-119.849	0.152	-0.026
-392.092	465.757	-0.116	-0.263
-391.077	-200.000	0.044	-0.314
-390.063	568.353	-0.124	0.304
-389.048	-2.954	0.095	-0.067
-388.033	-90.934	0.147	-0.043
-387.019	108.678	-0.197	-0.237
-386.004	102.276	0.217	-0.256
-384.990	-14.924	-0.173	-0.112
-383.975	800.000	-0.108	0.323
-382.960	37.752	0.162	0.145
-381.946	-72.598	-0.145	0.054
-380.931	-104.342	0.147	-0.034
-379.917	800.000	0.020	-0.067
-378.902	-11.227	0.093	-0.062
-377.888	-200.000	-0.034	-0.214
-376.873	-3.268	0.137	-0.096
-375.858	72.629	0.185	-0.195
-374.844	-200.000	0.022	-0.133
-373.829	-1.487	-0.180	0.128
-372.815	33.600	0.207	-0.181
-371.800	25.058	-0.396	0.332
-370.785	86.369	-0.135	0.150
-369.771	-104.105	0.186	-0.044
-368.756	-60.793	-0.228	0.097
-367.742	800.000	-0.042	0.149
-366.727	-104.725	-0.357	0.083
-365.712	143.241	0.107	-0.143
-364.698	82.899	0.244	0.267
-363.683	-113.179	-0.238	-0.047
-362.669	-99.208	0.349	0.089
-361.654	-161.419	-0.193	0.010
-360.639	-157.128	-0.240	0.015
-359.625	-128.284	0.170	-0.024
-358.610	-134.376	-0.405	-0.050
-357.596	-200.000	-0.002	0.152
-356.581	-200.000	-0.031	0.149
-355.566	-83.247	-0.151	-0.049
-354.552	-63.382	0.294	-0.122
-353.537	-15.984	0.100	-0.064
-352.523	57.942	0.232	-0.229
-351.508	-71.758	0.265	-0.100
-350.493	0.340	-0.278	0.200
-349.479	534.660	-0.153	0.365
-348.464	800.000	0.033	0.131
-347.450	-21.897	0.238	-0.146
-346.435	12.571	-0.211	0.164
-345.420	34.488	0.214	0.188
-344.406	-200.000	0.017	0.077
-343.391	409.446	0.028	-0.060
-342.377	509.267	-0.094	0.220
-341.362	-128.971	-0.307	-0.043
-340.348	-19.963	-0.167	-0.104
-339.333	-80.669	-0.440	0.147
-338.318	-200.000	0.010	0.080
-337.304	-51.060	-0.350	0.166
-336.289	-92.370	0.336	-0.095
-335.275	-200.000	0.048	0.309
-334.260	110.926	0.130	0.157
-333.245	-190.091	0.069	-0.001
-332.231	-140.023	-0.362	0.038
-331.216	80.456	-0.041	-0.045
-330.202	-167.371	0.278	-0.011
-329.187	221.800	0.162	-0.263
-328.172	123.530	-0.159	-0.200
-327.158	-105.137	0.100	0.023
-326.143	-200.000	-0.015	0.338
-325.129	100.844	-0.184	0.215
-324.114	-18.447	-0.081	-0.051
-323.099	110.519	-0.126	-0.152
-322.085	-200.000	-0.018	-0.153
-321.070	-93.400	-0.231	-0.065
-320.056	800.000	0.034	-0.125
-319.041	83.981	0.136	0.150
-318.026	-200.000	-0.003	0.104
-317.012	292.397	0.142	-0.261
-315.997	-106.105	0.297	-0.067
-314.983	110.404	0.126	-0.152
-313.968	800.000	0.012	0.039
-312.953	-200.000	0.063	-0.305
-311.939	-200.000	-0.004	-0.049
-310.924	-178.454	-0.224	-0.005
-309.910	-10.092	-0.259	-0.173
-308.895	-200.000	-0.011	-0.081
-307.880	11.359	-0.133	-0.103
-306.866	-200.000	0.006	0.116
-305.851	13.933	0.199	0.156
-304.837	-97.973	-0.357	0.093
-303.822	766.735	-0.061	0.167
-302.807	322.334	0.084	-0.161
-301.793	762.672	0.085	-0.232
-300.778	48.815	-0.080	-0.076
-299.764	-200.000	0.002	0.296
-298.749	21.382	-0.047	-0.038
-297.735	-133.024	-0.064	-0.008
-296.720	159.173	0.058	-0.081
-295.705	-18.390	0.366	0.230
-294.691	-200.000	-0.021	0.243
-293.676	-24.636	0.248	0.148
-292.662	186.704	0.207	-0.310
-291.647	800.000	0.058	-0.230
-290.632	181.424	0.052	0.077
-289.618	-200.000	-0.017	-0.156
-288.603	115.480	-0.025	0.030
-287.589	548.961	-0.133	0.320
-286.574	-98.923	0.282	-0.072
-285.559	-102.646	-0.133	0.032
-284.545	-51.506	0.129	0.061
-283.530	163.782	0.119	0.168
-282.516	-72.422	-0.197	0.073
-281.501	28.878	0.186	0.158
-280.486	220.752	0.145	-0.235
-279.472	-200.000	-0.013	-0.335
-278.457	567.170	0.074	0.180
-277.443	-68.263	0.239	-0.093
-276.428	-6.440	-0.155	0.106
-275.413	367.214	-0.049	-0.100
-274.399	104.787	-0.081	0.096
-273.384	-65.364	-0.163	0.066
-272.370	-200.000	-0.009	0.069
-271.355	9.280	0.148	-0.112
-270.340	482.917	-0.070	-0.160
-269.326	30.150	-0.168	-0.144
-268.311	-120.872	-0.451	0.076
-267.297	606.186	0.091	-0.227
-266.282	-41.483	0.232	-0.120
-265.267	-104.164	-0.303	0.071
-264.253	-200.000	0.032	0.197
-263.238	55.640	-0.181	-0.176
-262.224	293.532	0.147	-0.269
-261.209	-29.311	0.235	-0.135
-260.195	-84.717	0.337	0.107
-259.180	-200.000	0.012	0.130
-258.165	-24.845	0.106	0.063
-257.151	97.015	0.098	-0.113
-256.136	10.295	0.018	0.014
-255.122	-157.745	0.241	0.014
-254.107	7.543	0.159	0.119
-253.092	-159.777	0.156	0.009
-252.078	625.745	-0.021	0.053
-251.063	-164.510	0.259	-0.012
-250.049	-37.909	0.038	-0.020
-249.034	800.000	0.140	0.434
-248.019	-5.851	0.163	-0.112
-247.005	280.299	-0.023	-0.042
-245.990	197.792	0.153	-0.234
-244.976	-47.692	0.157	-0.076
-243.961	158.843	0.093	0.129
-242.946	756.228	0.020	0.055
-241.932	-122.646	0.366	0.060
-240.917	-30.094	-0.063	-0.036
-239.903	128.592	-0.228	-0.291
-238.888	800.000	0.036	-0.126
-237.873	412.662	0.113	-0.242
-236.859	-69.032	0.123	0.048
-235.844	-19.922	-0.059	-0.037
-234.830	-82.561	0.148	-0.048
-233.815	14.424	0.062	-0.048
-232.800	-200.000	0.019	-0.160
-231.786	53.541	0.247	-0.237
-230.771	-193.822	-0.301	0.003
-229.757	85.081	0.150	0.165
-228.742	-126.660	-0.080	-0.012
-227.727	-16.705	-0.177	-0.112
-226.713	800.000	0.024	-0.072
-225.698	-125.613	-0.043	0.006
-224.684	-200.000	-0.004	-0.042
-223.669	215.724	0.245	-0.390
-222.655	384.740	-0.148	0.305
-221.640	-53.321	-0.213	0.098
-220.625	800.000	0.013	0.046
-219.611	-100.170	-0.195	-0.049
-218.596	-132.348	0.339	0.044
-217.582	485.790	-0.086	0.197
-216.567	350.709	-0.197	0.392
-215.552	-70.021	0.298	0.114
-214.538	-95.190	0.307	-0.083
-213.523	-100.249	-0.189	0.047
-212.509	-105.497	-0.291	-0.066
-211.494	-62.734	0.097	-0.040
-210.479	16.854	-0.234	-0.186
-209.465	-128.942	0.273	-0.038
-208.450	-104.429	-0.074	0.017
-207.436	80.464	-0.174	0.188
-206.421	128.302	-0.117	0.150
-205.406	-197.647	0.236	0.001
-204.392	271.756	0.040	0.070
-203.377	-49.549	0.327	0.156
-202.363	137.067	0.036	0.048
-201.348	11.756	0.219	0.169
-200.333	-35.073	0.159	0.087
-199.319	-21.084	0.297	-0.182
-198.304	399.201	0.025	0.052
-197.290	406.582	-0.047	-0.100
-196.275	80.825	-0.141	0.152
-195.260	-76.005	0.108	0.038
-194.246	571.078	-0.097	0.237
-193.231	-200.000	0.024	-0.270
-192.217	-200.000	-0.017	0.326
-191.202	155.137	-0.178	0.246
-190.187	82.892	-0.158	-0.173
-189.173	-79.526	-0.129	-0.044
-188.158	784.679	-0.113	-0.309
-187.144	-200.000	-0.005	-0.117
-186.129	125.072	-0.086	0.108
-185.114	-101.412	0.152	-0.037
-184.100	171.062	0.078	-0.112
-183.085	-200.000	-0.005	0.083
-182.071	800.000	-0.078	-0.242
-181.056	-142.091	-0.193	-0.019
-180.042	134.339	-0.203	0.264
-179.027	800.000	-0.076	0.303
-178.012	-200.000	0.005	0.134
-176.998	-122.643	-0.092	-0.015
-175.983	-200.000	0.023	-0.108
-174.969	-71.455	0.237	0.089
-173.954	338.342	-0.116	0.225
-172.939	2.834	0.062	-0.045
-171.925	-47.310	-0.172	0.084
-170.910	800.000	-0.039	-0.148
-169.896	47.496	-0.146	-0.136
-168.881	419.344	-0.148	-0.318
-167.866	800.000	-0.062	-0.196
-166.852	147.944	0.090	0.122
-165.837	-72.799	0.420	-0.155
-164.823	-130.331	0.184	0.025
-163.808	-38.667	0.144	0.076
-162.793	-200.000	0.049	-0.445
-161.779	-200.000	0.024	-0.412
-160.764	-133.097	0.243	0.031
-159.750	386.270	-0.025	0.051
-158.735	549.823	0.122	0.293
-157.720	232.127	-0.101	0.166
-156.706	-28.583	-0.066	-0.038
-155.691	-42.266	0.151	-0.077
-154.677	-60.655	0.164	-0.070
-153.662	-119.761	0.247	0.043
-152.647	-200.000	0.018	0.080
-151.633	-200.000	0.040	0.230
-150.618	800.000	-0.061	0.185
-149.604	-200.000	0.031	-0.200
-148.589	800.000	-0.079	-0.258
-147.574	-140.572	-0.159	0.016
-146.560	29.762	0.095	0.081
-145.545	174.900	0.064	0.092
-144.531	-120.897	0.178	-0.030
-143.516	-92.978	-0.317	0.088
-142.502	452.118	0.022	0.048
-141.487	-200.000	-0.022	-0.362
-140.472	-200.000	0.030	-0.304
-139.458	-200.000	0.005	-0.067
-138.443	134.033	0.119	0.154
-137.429	-181.540	-0.136	-0.003
-136.414	-38.911	0.260	-0.137
-135.399	-200.000	-0.058	0.437
-134.385	-58.446	0.271	0.118
-133.370	450.017	-0.074	0.164
-132.356	15.879	-0.021	0.017
-131.341	574.294	-0.107	0.261
-130.326	-123.536	0.167	-0.027
-129.312	-28.265	0.210	0.121
-128.297	10.324	0.186	-0.141
-127.283	149.960	0.120	0.162
-126.268	800.000	0.082	0.286
-125.253	-200.000	0.074	0.333
-124.239	-114.057	0.267	0.052
-123.224	-128.078	0.340	0.049
-122.210	-72.682	0.098	-0.036
-121.195	800.000	-0.037	0.124
