DTS Sentinel unit serial number:	SN413079Multiplexer serial number:	ORYXHardware model number:	OX4-SRSoftware version number:	ORYX F/W v4.00 Oryx Data Collector v3.7.2.0data status	okinstallation	princeton_trtdifferential loss correction	single-endedforward channel	channel 1reverse channel	N/Adate	2019/09/17time	04:30:35forward acquisition time	60.00reverse acquisition time	0.00gamma	496.2192k internal	0.2323k external	0.2323temperature offset calibration	0.9962default loss term (dB/km)	0.3790temperature slope calibration	1.0000multiplexer offset coefficient	1.0000multiplexer slope coefficient	1.0000fibre end	0.00T internal ref (°C)	29.69T ext. ref 1 (°C)	0.12T ext. ref 2 (°C)	24.17length (m)	temperature (°C)	Stokes	anti-Stokes-747.200	-200.000	0.024	0.222
-746.185	37.455	-0.151	0.136
-745.171	350.864	-0.043	0.087
-744.156	739.279	-0.037	0.100
-743.142	5.622	-0.304	-0.227
-742.127	-129.375	0.160	0.022
-741.112	-114.310	-0.196	0.038
-740.098	-73.038	0.179	0.066
-739.083	-69.746	0.125	-0.048
-738.069	147.746	-0.131	-0.179
-737.054	11.374	0.248	-0.192
-736.039	429.644	0.197	-0.430
-735.025	-111.953	0.130	-0.026
-734.010	37.328	-0.240	-0.215
-732.996	111.205	0.153	-0.186
-731.981	-136.396	-0.293	-0.034
-730.966	-87.383	-0.082	-0.025
-729.952	800.000	0.069	-0.243
-728.937	342.556	-0.047	-0.093
-727.923	-119.739	-0.353	0.061
-726.908	-1.043	0.241	-0.172
-725.894	-200.000	0.028	-0.421
-724.879	-102.873	0.165	0.040
-723.864	-87.069	-0.171	0.053
-722.850	-141.496	-0.278	-0.028
-721.835	-50.147	0.413	-0.197
-720.821	20.389	-0.381	-0.311
-719.806	-55.769	-0.134	0.060
-718.791	140.835	-0.066	0.088
-717.777	-87.988	-0.447	0.136
-716.762	180.633	-0.163	0.241
-715.748	-191.115	0.128	0.001
-714.733	-200.000	0.013	-0.057
-713.718	-68.084	0.213	-0.084
-712.704	487.760	-0.072	0.165
-711.689	29.292	-0.140	0.120
-710.675	184.412	-0.097	0.145
-709.660	-200.000	0.036	0.295
-708.645	-22.361	0.407	-0.248
-707.631	134.492	0.087	0.114
-706.616	-200.000	-0.029	0.142
-705.602	49.063	-0.204	0.193
-704.587	-51.345	-0.240	-0.113
-703.572	-100.781	-0.335	-0.083
-702.558	246.259	0.124	0.211
-701.543	540.235	-0.145	0.347
-700.529	-200.000	0.017	-0.240
-699.514	37.170	-0.174	0.155
-698.499	62.607	-0.093	0.094
-697.485	-118.032	0.169	0.030
-696.470	296.533	-0.106	-0.195
-695.456	105.906	-0.177	0.211
-694.441	118.024	-0.099	-0.123
-693.426	254.211	-0.138	0.238
-692.412	-72.689	-0.495	0.184
-691.397	-200.000	0.017	0.260
-690.383	182.968	-0.126	0.187
-689.368	-200.000	0.023	0.416
-688.354	-200.000	0.047	-0.348
-687.339	-200.000	0.042	-0.284
-686.324	-110.988	0.423	-0.088
-685.310	-81.444	-0.230	0.076
-684.295	-119.962	0.057	-0.010
-683.281	133.512	0.057	0.074
-682.266	13.749	0.106	-0.083
-681.251	94.922	-0.274	0.314
-680.237	789.206	0.026	-0.072
-679.222	-200.000	-0.017	-0.112
-678.208	-138.470	0.095	0.011
-677.193	611.138	-0.067	-0.169
-676.178	2.493	0.178	-0.130
-675.164	221.990	-0.235	-0.381
-674.149	-5.718	0.287	-0.198
-673.135	8.560	-0.177	-0.134
-672.120	-12.757	0.269	0.177
-671.105	642.640	-0.073	0.187
-670.091	-89.289	-0.131	0.039
-669.076	800.000	0.004	0.018
-668.062	-200.000	0.041	0.336
-667.047	-80.002	0.168	-0.057
-666.032	405.111	-0.061	0.130
-665.018	-124.526	-0.282	0.044
-664.003	43.819	0.028	0.025
-662.989	-200.000	-0.012	-0.301
-661.974	19.192	0.064	0.052
-660.959	150.456	-0.238	-0.326
-659.945	-174.880	-0.047	-0.001
-658.930	800.000	-0.105	-0.322
-657.916	800.000	0.112	-0.355
-656.901	-65.353	-0.396	-0.160
-655.886	-200.000	-0.015	0.194
-654.872	249.439	0.024	-0.040
-653.857	48.898	-0.298	-0.281
-652.843	391.046	-0.042	-0.087
-651.828	81.962	0.206	-0.225
-650.814	800.000	-0.083	-0.344
-649.799	-85.498	-0.344	0.108
-648.784	-64.984	-0.321	0.130
-647.770	-64.926	0.125	0.051
-646.755	800.000	-0.024	-0.083
-645.741	800.000	-0.059	0.179
-644.726	800.000	0.031	-0.128
-643.711	-200.000	0.006	-0.202
-642.697	-33.043	-0.164	-0.092
-641.682	-29.190	0.098	0.056
-640.668	122.778	-0.049	0.062
-639.653	12.008	-0.207	0.160
-638.638	800.000	-0.015	-0.045
-637.624	800.000	0.036	0.107
-636.609	136.077	-0.226	0.296
-635.595	357.657	0.085	-0.170
-634.580	321.645	-0.101	0.193
-633.565	-19.867	-0.075	-0.047
-632.551	0.251	-0.234	-0.168
-631.536	-45.158	0.116	0.058
-630.522	-200.000	-0.020	0.195
-629.507	575.912	-0.072	-0.176
-628.492	134.772	0.131	-0.170
-627.478	392.446	-0.142	0.298
-626.463	156.084	-0.109	-0.151
-625.449	-11.229	0.079	0.053
-624.434	800.000	0.051	-0.191
-623.419	-200.000	-0.003	-0.101
-622.405	-200.000	0.036	-0.276
-621.390	112.735	-0.243	-0.296
-620.376	-172.624	0.272	-0.009
-619.361	-38.573	-0.064	0.034
-618.346	-115.404	0.083	-0.016
-617.332	318.595	0.085	-0.162
-616.317	-200.000	0.003	0.052
-615.303	-200.000	-0.001	-0.046
-614.288	-200.000	0.001	-0.068
-613.273	762.151	-0.118	0.322
-612.259	-200.000	-0.024	-0.302
-611.244	-42.305	0.215	0.110
-610.230	439.143	0.051	-0.111
-609.215	800.000	0.046	-0.140
-608.201	289.392	-0.067	0.121
-607.186	102.408	0.086	0.101
-606.171	407.840	0.089	-0.189
-605.157	-200.000	0.019	-0.466
-604.142	-73.214	-0.270	-0.099
-603.128	-200.000	-0.049	0.303
-602.113	193.300	0.285	-0.432
-601.098	800.000	-0.083	-0.322
-600.084	-200.000	0.010	-0.207
-599.069	-137.927	0.216	0.024
-598.055	-200.000	0.000	0.125
-597.040	-200.000	0.025	0.304
-596.025	-200.000	-0.020	-0.171
-595.011	138.575	0.211	0.278
-593.996	-200.000	-0.009	-0.240
-592.982	-70.123	-0.201	-0.077
-591.967	16.617	-0.038	-0.030
-590.952	279.733	0.045	-0.081
-589.938	-73.704	-0.146	-0.053
-588.923	-169.832	0.231	0.008
-587.909	-120.797	0.200	0.034
-586.894	-77.513	-0.258	0.090
-585.879	-83.172	0.235	-0.076
-584.865	800.000	-0.073	-0.219
-583.850	80.677	0.094	-0.101
-582.836	141.839	-0.248	-0.330
-581.821	27.880	0.083	0.070
-580.806	14.330	0.041	0.032
-579.792	481.270	0.072	0.163
-578.777	-7.368	-0.282	0.191
-577.763	-200.000	-0.008	0.229
-576.748	800.000	0.118	0.408
-575.733	193.184	-0.099	-0.150
-574.719	-43.135	0.149	0.076
-573.704	-97.651	0.216	0.056
-572.690	698.364	-0.156	0.411
-571.675	175.977	-0.179	0.261
-570.661	-152.727	0.152	-0.011
-569.646	453.457	0.163	0.361
-568.631	-28.720	-0.147	0.085
-567.617	-99.886	-0.083	-0.021
-566.602	100.584	0.079	-0.093
-565.588	168.454	-0.088	0.125
-564.573	-51.104	0.190	0.089
-563.558	30.711	-0.246	0.212
-562.544	60.487	-0.072	-0.072
-561.529	-200.000	-0.039	0.232
-560.515	511.477	0.065	0.152
-559.500	-200.000	-0.035	-0.370
-558.485	-154.865	0.271	0.018
-557.471	-200.000	0.062	-0.332
-556.456	-103.075	-0.216	0.051
-555.442	-200.000	-0.049	0.359
-554.427	244.139	0.175	-0.295
-553.412	-88.848	0.065	0.019
-552.398	16.694	-0.061	-0.048
-551.383	461.836	-0.070	-0.156
-550.369	-130.198	0.212	0.029
-549.354	-200.000	-0.012	-0.159
-548.339	719.257	-0.038	0.102
-547.325	85.649	0.179	0.198
-546.310	77.357	-0.087	0.093
-545.296	-28.969	0.185	-0.106
-544.281	-122.031	-0.427	0.070
-543.266	112.728	-0.043	0.053
-542.252	109.714	0.208	0.250
-541.237	44.460	0.075	0.069
-540.223	-200.000	-0.043	-0.284
-539.208	-139.089	-0.345	-0.037
-538.193	-39.263	0.106	-0.056
-537.179	332.563	0.072	0.140
-536.164	800.000	-0.046	-0.177
-535.150	-102.818	0.103	-0.024
-534.135	-200.000	0.001	-0.181
-533.121	119.661	-0.175	-0.217
-532.106	-129.094	-0.152	-0.021
-531.091	1.780	0.231	0.166
-530.077	-185.223	0.171	-0.003
-529.062	35.837	-0.093	0.082
-528.048	-8.645	-0.041	0.028
-527.033	800.000	-0.135	0.467
-526.018	-76.011	0.269	0.095
-525.004	593.438	0.114	-0.282
-523.989	-138.444	0.238	-0.026
-522.975	-200.000	-0.027	-0.304
-521.960	146.724	-0.038	-0.051
-520.945	-109.406	-0.129	0.027
-519.931	-200.000	-0.025	0.179
-518.916	-48.658	0.072	0.035
-517.902	-112.720	0.314	0.062
-516.887	-122.486	-0.183	0.030
-515.872	800.000	0.073	0.311
-514.858	33.617	0.095	-0.083
-513.843	-193.187	-0.320	0.003
-512.829	169.297	0.164	0.235
-511.814	-140.449	0.121	0.013
-510.799	146.541	-0.214	-0.288
-509.785	-200.000	-0.024	-0.183
-508.770	206.617	0.011	-0.017
-507.756	-80.268	0.304	-0.102
-506.741	800.000	0.020	0.084
-505.726	800.000	-0.059	-0.231
-504.712	-140.971	0.181	0.019
-503.697	134.017	-0.164	-0.213
-502.683	215.552	-0.045	-0.072
-501.668	374.031	0.098	0.200
-500.653	308.380	-0.137	0.257
-499.639	-108.238	-0.159	0.034
-498.624	-200.000	0.048	0.221
-497.610	104.855	0.020	0.024
-496.595	315.419	-0.042	-0.079
-495.581	-200.000	0.005	0.204
-494.566	340.868	-0.155	0.302
-493.551	160.142	-0.144	-0.201
-492.537	9.739	0.331	0.251
-491.522	51.054	-0.224	0.212
-490.508	-200.000	0.096	-0.556
-489.493	-49.988	-0.255	0.121
-488.478	159.705	0.271	-0.377
-487.464	55.334	0.165	0.159
-486.449	77.542	-0.253	-0.269
-485.435	126.647	0.174	-0.220
-484.420	-164.688	0.325	-0.015
-483.405	-81.130	0.196	0.065
-482.391	-160.940	0.121	0.006
-481.376	783.353	0.060	0.166
-480.362	192.821	-0.199	0.300
-479.347	480.132	0.102	0.232
-478.332	746.212	-0.121	0.327
-477.318	42.244	0.137	-0.124
-476.303	124.509	0.308	-0.388
-475.289	-172.418	-0.434	-0.014
-474.274	-6.944	0.062	-0.042
-473.259	-200.000	-0.000	-0.058
-472.245	199.367	0.083	0.128
-471.230	-108.507	-0.167	0.036
-470.216	4.241	0.495	-0.362
-469.201	-30.161	-0.243	0.138
-468.186	-95.404	0.364	-0.098
-467.172	10.866	-0.181	-0.138
-466.157	304.139	0.064	0.119
-465.143	800.000	0.128	-0.407
-464.128	320.791	0.077	0.146
-463.113	28.054	-0.089	-0.075
-462.099	800.000	0.027	-0.104
-461.084	-187.144	0.281	-0.004
-460.070	163.588	-0.093	0.130
-459.055	-54.264	0.130	0.059
-458.040	-13.502	-0.039	0.025
-457.026	-200.000	-0.016	0.157
-456.011	-118.414	0.120	-0.021
-454.997	-127.595	-0.080	-0.012
-453.982	15.688	0.009	-0.007
-452.968	-200.000	0.019	0.241
-451.953	-200.000	-0.054	0.239
-450.938	800.000	0.040	-0.141
-449.924	316.109	0.163	0.307
-448.909	-111.676	-0.284	0.057
-447.895	379.071	0.122	0.250
-446.880	800.000	-0.067	-0.196
-445.865	-200.000	0.008	0.235
-444.851	-200.000	0.027	0.232
-443.836	167.732	-0.178	-0.253
-442.822	42.353	0.177	-0.161
-441.807	-200.000	-0.040	-0.232
-440.792	-25.418	-0.259	0.153
-439.778	-145.724	-0.253	-0.023
-438.763	-97.444	0.295	0.077
-437.749	501.765	-0.036	0.083
-436.734	37.263	-0.036	-0.032
-435.719	99.752	0.296	-0.343
-434.705	-142.947	-0.511	0.049
-433.690	-122.057	-0.366	-0.060
-432.676	-94.245	0.068	-0.019
-431.661	52.085	-0.149	-0.141
-430.646	-124.877	0.257	-0.040
-429.632	-48.941	0.186	-0.089
-428.617	90.163	-0.093	-0.104
-427.603	-28.969	-0.275	-0.157
-426.588	66.001	0.193	-0.195
-425.573	-200.000	0.020	-0.314
-424.559	-200.000	-0.027	0.121
-423.544	231.219	0.060	0.099
-422.530	243.524	-0.030	0.050
-421.515	589.267	0.079	-0.194
-420.500	-14.528	-0.284	-0.182
-419.486	-144.842	0.169	-0.015
-418.471	51.092	-0.096	0.091
-417.457	15.924	-0.196	0.154
-416.442	-200.000	0.049	-0.277
-415.428	154.812	0.089	-0.122
-414.413	34.955	0.404	0.352
-413.398	-16.367	-0.227	0.144
-412.384	-82.112	0.172	0.056
-411.369	-132.737	-0.436	0.056
-410.355	-200.000	-0.009	0.185
-409.340	200.229	-0.164	0.251
-408.325	-27.179	-0.129	0.075
-407.311	-21.950	0.384	-0.232
-406.296	-96.491	-0.079	0.021
-405.282	800.000	0.050	0.161
-404.267	-200.000	0.014	0.268
-403.252	-52.921	-0.211	-0.097
-402.238	43.969	0.063	-0.057
-401.223	-169.687	0.222	-0.008
-400.209	77.737	0.016	0.017
-399.194	-50.592	0.155	0.073
-398.179	292.786	0.087	0.157
-397.165	7.495	-0.180	0.134
-396.150	-114.625	0.065	0.012
-395.136	90.312	0.099	-0.111
-394.121	23.953	0.126	0.103
-393.106	-34.160	0.094	-0.051
-392.092	-142.034	0.221	-0.022
-391.077	800.000	-0.141	-0.427
-390.063	96.283	-0.054	-0.061
-389.048	314.139	0.165	0.310
-388.033	-114.188	-0.186	0.036
-387.019	124.583	0.166	-0.208
-386.004	197.071	-0.137	-0.208
-384.990	4.251	-0.342	-0.249
-383.975	183.459	0.071	-0.104
-382.960	-9.283	-0.190	0.126
-381.946	-111.131	-0.268	-0.055
-380.931	-9.151	0.182	-0.121
-379.917	743.273	0.011	0.029
-378.902	-189.974	0.318	-0.004
-377.888	-200.000	-0.009	-0.357
-376.873	-125.842	-0.145	0.022
-375.858	-115.999	0.293	-0.054
-374.844	-117.191	-0.123	-0.022
-373.829	-140.452	-0.222	-0.023
-372.815	3.118	0.009	-0.006
-371.800	-200.000	-0.032	0.201
-370.785	1.490	-0.160	-0.114
-369.771	118.410	-0.096	-0.118
-368.756	-87.178	0.297	-0.090
-367.742	-0.484	-0.185	-0.131
-366.727	-200.000	0.002	0.036
-365.712	-200.000	-0.001	-0.025
-364.698	59.129	-0.168	0.165
-363.683	-200.000	0.044	-0.317
-362.669	-8.753	0.316	0.211
-361.654	-200.000	0.180	0.000
-360.639	-127.968	-0.248	0.035
-359.625	1.208	-0.198	0.141
-358.610	-81.877	0.308	-0.100
-357.596	-163.753	0.247	-0.012
-356.581	-59.185	-0.109	-0.047
-355.566	37.599	-0.137	-0.121
-354.552	27.502	-0.103	-0.086
-353.537	280.947	0.154	-0.275
-352.523	712.233	0.060	0.159
-351.508	630.595	-0.134	0.336
-350.493	-82.897	0.206	-0.066
-349.479	80.301	0.172	-0.184
-348.464	362.261	0.153	-0.306
-347.450	682.932	0.115	0.299
-346.435	410.448	0.109	-0.229
-345.420	221.868	-0.058	-0.092
-344.406	-55.064	0.274	0.123
-343.391	-99.298	-0.211	0.053
-342.377	-178.990	-0.106	0.002
-341.362	-165.547	0.325	-0.014
-340.348	-48.817	0.133	0.063
-339.333	761.919	-0.009	-0.025
-338.318	13.215	0.327	0.252
-337.304	-76.494	0.080	0.028
-336.289	411.588	-0.034	0.071
-335.275	800.000	0.035	-0.128
-334.260	173.782	0.107	0.154
-333.245	-200.000	0.003	0.033
-332.231	591.392	0.088	0.216
-331.216	-115.938	0.268	0.050
-330.202	144.493	0.014	0.018
-329.187	800.000	-0.052	-0.195
-328.172	186.014	0.115	-0.171
-327.158	2.728	0.179	0.129
-326.143	800.000	0.059	0.171
-325.129	129.798	-0.090	-0.115
-324.114	-23.380	-0.084	-0.050
-323.099	-44.229	-0.125	0.062
-322.085	178.972	-0.171	0.248
-321.070	43.151	-0.159	0.144
-320.056	-47.270	0.230	-0.111
-319.041	-200.000	0.000	-0.248
-318.026	-149.422	-0.243	0.019
-317.012	97.232	-0.102	0.116
-315.997	45.633	-0.197	0.181
-314.983	-7.240	0.154	-0.104
-313.968	-92.747	-0.186	-0.052
-312.953	113.018	0.096	0.115
-311.939	800.000	0.076	0.300
-310.924	-96.412	-0.211	-0.055
-309.910	799.351	-0.027	-0.074
-308.895	123.187	0.225	0.280
-307.880	-200.000	0.021	0.339
-306.866	107.026	0.289	-0.341
-305.851	-33.821	0.282	0.154
-304.837	-200.000	0.045	0.206
-303.822	-23.183	-0.134	0.080
-302.807	49.115	0.193	-0.180
-301.793	-4.592	0.085	-0.058
-300.778	101.264	0.261	0.301
-299.764	-38.133	-0.066	0.035
-298.749	-200.000	0.044	-0.266
-297.735	256.863	0.062	0.105
-296.720	118.968	-0.151	0.185
-295.705	-139.020	-0.372	0.040
-294.691	-175.933	-0.123	-0.003
-293.676	355.143	0.083	0.164
-292.662	-200.000	0.023	0.199
-291.647	148.903	-0.223	0.299
-290.632	246.292	-0.060	-0.101
-289.618	316.003	0.018	0.035
-288.603	3.775	0.155	0.112
-287.589	-104.052	-0.189	-0.044
-286.574	800.000	0.080	-0.266
-285.559	-10.045	0.131	-0.086
-284.545	-106.904	-0.322	0.071
-283.530	-26.314	-0.290	0.169
-282.516	-130.049	0.226	0.031
-281.501	-200.000	-0.070	-0.339
-280.486	-110.821	0.087	-0.018
-279.472	3.722	-0.256	-0.185
-278.457	-200.000	-0.005	-0.417
-277.443	368.767	-0.157	-0.315
-276.428	-143.178	-0.017	0.002
-275.413	158.895	-0.113	0.155
-274.399	468.540	0.118	0.262
-273.384	800.000	-0.056	0.205
-272.370	89.369	-0.252	-0.278
-271.355	-51.696	-0.249	-0.115
-270.340	-32.287	0.201	-0.111
-269.326	65.165	0.121	0.121
-268.311	-62.745	-0.259	-0.106
-267.297	-76.780	0.219	0.076
-266.282	-181.008	0.157	0.003
-265.267	-144.022	0.265	0.025
-264.253	-108.657	0.449	0.095
-263.238	-200.000	0.005	0.183
-262.224	-134.306	0.240	0.029
-261.209	-200.000	-0.024	-0.174
-260.195	89.047	-0.142	0.157
-259.180	-124.778	-0.327	0.050
-258.165	153.929	0.132	0.179
-257.151	272.733	0.050	0.087
-256.136	187.826	0.111	0.164
-255.122	-157.556	-0.160	0.009
-254.107	104.835	0.122	0.143
-253.092	-16.790	0.209	0.131
-252.078	-200.000	0.009	-0.184
-251.063	164.219	0.158	0.221
-250.049	-102.181	-0.337	0.080
-249.034	-200.000	0.032	0.323
-248.019	-200.000	-0.008	0.231
-247.005	102.311	0.265	-0.307
-245.990	630.808	0.032	-0.079
-244.976	95.745	-0.024	-0.028
-243.961	-200.000	0.003	0.120
-242.946	-4.808	-0.163	-0.111
-241.932	15.652	0.176	-0.137
-240.917	135.320	0.073	-0.094
-239.903	-126.652	-0.229	-0.034
-238.888	-158.895	0.363	0.020
-237.873	-200.000	-0.006	0.190
-236.859	670.278	0.016	0.041
-235.844	-70.784	-0.239	-0.089
-234.830	91.721	0.036	-0.040
-233.815	800.000	0.013	-0.044
-232.800	81.562	-0.131	0.140
-231.786	-59.154	0.319	0.136
-230.771	416.245	-0.093	-0.197
-229.757	-169.012	0.325	-0.012
-228.742	417.096	0.038	0.081
-227.727	-132.562	0.188	-0.024
-226.713	68.246	-0.038	-0.038
-225.698	318.173	-0.288	0.539
-224.684	343.035	0.138	0.268
-223.669	423.590	-0.155	0.329
-222.655	-62.330	-0.112	0.046
-221.640	-200.000	-0.014	-0.128
-220.625	-8.554	0.138	0.092
-219.611	-92.739	-0.216	0.060
-218.596	-200.000	0.040	0.455
-217.582	-11.177	-0.190	-0.124
-216.567	-51.327	0.220	-0.102
-215.552	-67.363	-0.288	-0.112
-214.538	347.782	0.131	-0.255
-213.523	79.037	-0.230	0.244
-212.509	619.303	-0.125	0.311
-211.494	-132.085	-0.476	0.061
-210.479	800.000	0.059	0.245
-209.465	800.000	-0.094	-0.335
-208.450	170.207	0.018	0.025
-207.436	0.011	-0.098	-0.069
-206.421	341.496	0.127	0.246
-205.406	256.376	0.174	-0.295
-204.392	800.000	0.023	-0.085
-203.377	17.661	-0.415	-0.326
-202.363	-110.948	-0.285	0.058
-201.348	274.781	0.175	0.306
-200.333	-33.501	0.291	0.159
-199.319	-200.000	-0.008	0.103
-198.304	3.920	0.145	0.104
-197.290	-65.451	0.177	0.070
-196.275	401.225	-0.018	-0.036
-195.260	-200.000	-0.003	-0.337
-194.246	113.392	0.182	0.218
-193.231	-125.741	0.180	0.027
-192.217	-200.000	0.056	-0.358
-191.202	-200.000	-0.005	-0.129
-190.187	115.088	0.177	-0.213
-189.173	56.365	-0.170	-0.164
-188.158	162.999	-0.178	0.247
-187.144	-200.000	0.008	-0.062
-186.129	-200.000	0.056	-0.245
-185.114	-200.000	0.002	-0.299
-184.100	-75.995	-0.319	-0.111
-183.085	-60.006	-0.179	-0.076
-182.071	-119.803	-0.457	-0.078
-181.056	283.368	0.076	-0.135
-180.042	-70.422	-0.022	0.008
-179.027	-95.350	-0.100	0.027
-178.012	-39.088	-0.333	0.173
-176.998	150.176	-0.131	-0.175
-175.983	193.916	-0.080	0.120
-174.969	-32.054	0.132	-0.073
-173.954	37.534	-0.118	0.103
-172.939	800.000	-0.103	0.370
-171.925	-200.000	-0.037	-0.281
-170.910	-166.887	-0.099	0.004
-169.896	52.506	-0.183	0.172
-168.881	-3.251	0.179	-0.123
-167.866	94.527	-0.308	-0.346
-166.852	-179.487	0.150	-0.003
-165.837	-69.609	-0.357	0.135
-164.823	-138.494	0.287	0.031
-163.808	-200.000	0.002	-0.034
-162.793	-33.492	-0.206	-0.112
-161.779	468.371	-0.107	-0.237
-160.764	-200.000	0.011	-0.316
-159.750	-200.000	0.037	-0.207
-158.735	-200.000	0.103	0.472
-157.720	397.090	-0.102	-0.210
-156.706	-54.414	0.166	0.074
-155.691	351.010	-0.069	-0.135
-154.677	800.000	-0.108	-0.433
-153.662	-9.612	0.279	-0.184
-152.647	-85.721	-0.302	-0.093
-151.633	320.774	-0.043	-0.080
-150.618	-106.306	0.040	-0.009
-149.604	264.199	0.138	0.236
-148.589	125.340	-0.075	-0.093
-147.574	636.802	0.090	-0.225
-146.560	-16.568	-0.226	0.141
-145.545	800.000	-0.024	-0.068
-144.531	-116.191	0.048	-0.009
-143.516	-85.845	-0.044	-0.013
-142.502	-39.079	-0.231	-0.120
-141.487	-27.965	0.162	-0.093
-140.472	84.535	-0.181	0.195
-139.458	-40.984	-0.269	0.137
-138.443	-200.000	-0.013	-0.086
-137.429	-173.388	-0.129	-0.004
-136.414	116.535	0.136	0.165
-135.399	190.721	-0.201	0.298
-134.385	-102.067	0.159	0.038
-133.370	-160.026	0.061	-0.003
-132.356	-145.766	-0.172	0.015
-131.341	-168.485	-0.090	0.003
-130.326	800.000	0.055	-0.198
-129.312	-200.000	0.020	0.230
-128.297	-108.061	0.232	0.050
-127.283	-134.563	0.149	0.018
-126.268	282.253	-0.027	-0.048
-125.253	-200.000	0.018	-0.333
-124.239	-12.816	0.282	-0.181
-123.224	-32.034	0.184	-0.101
-122.210	56.266	0.152	0.145
-121.195	80.526	-0.078	-0.083
