DTS Sentinel unit serial number:	SN413079Multiplexer serial number:	ORYXHardware model number:	OX4-SRSoftware version number:	ORYX F/W v4.00 Oryx Data Collector v3.7.2.0data status	okinstallation	princeton_trtdifferential loss correction	single-endedforward channel	channel 1reverse channel	N/Adate	2019/09/16time	08:14:35forward acquisition time	60.00reverse acquisition time	0.00gamma	496.2192k internal	0.2325k external	0.2325temperature offset calibration	0.9979default loss term (dB/km)	0.3790temperature slope calibration	1.0000multiplexer offset coefficient	1.0000multiplexer slope coefficient	1.0000fibre end	0.00T internal ref (°C)	28.84T ext. ref 1 (°C)	11.82T ext. ref 2 (°C)	25.15length (m)	temperature (°C)	Stokes	anti-Stokes-747.200	-17.751	-0.137	-0.087
-746.185	-120.510	-0.433	-0.074
-745.171	56.044	0.043	-0.042
-744.156	-27.269	-0.228	0.134
-743.142	309.584	-0.080	-0.151
-742.127	198.801	0.142	0.219
-741.112	327.850	-0.038	-0.073
-740.098	142.240	0.118	-0.157
-739.083	29.407	0.258	0.221
-738.069	800.000	-0.073	0.289
-737.054	-64.859	-0.104	-0.042
-736.039	12.072	-0.451	-0.350
-735.025	19.109	0.294	0.238
-734.010	357.251	0.283	-0.570
-732.996	-156.083	-0.285	0.018
-731.981	309.499	-0.179	0.338
-730.966	25.780	0.399	0.335
-729.952	63.013	-0.386	-0.390
-728.937	115.248	-0.290	-0.357
-727.923	-200.000	-0.010	0.044
-726.908	-116.565	-0.090	0.017
-725.894	-13.048	-0.132	-0.086
-724.879	17.816	-0.194	-0.155
-723.864	211.742	0.097	-0.154
-722.850	-200.000	-0.021	-0.212
-721.835	447.029	-0.086	-0.190
-720.821	484.323	0.030	-0.068
-719.806	-200.000	0.020	0.094
-718.791	194.539	-0.092	-0.141
-717.777	-18.654	-0.354	0.222
-716.762	-74.448	0.384	0.140
-715.748	-97.408	0.359	0.094
-714.733	-200.000	0.016	0.200
-713.718	353.734	0.073	-0.146
-712.704	30.626	-0.197	-0.170
-711.689	88.426	0.171	-0.191
-710.675	-130.066	-0.530	-0.073
-709.660	79.560	0.192	-0.208
-708.645	-159.316	-0.332	0.019
-707.631	-71.531	-0.107	0.040
-706.616	-76.178	0.196	0.070
-705.602	30.141	0.205	0.176
-704.587	-167.939	0.286	0.011
-703.572	-41.361	0.085	0.044
-702.558	9.887	-0.141	-0.108
-701.543	181.212	0.156	0.231
-700.529	-87.379	-0.248	0.076
-699.514	-200.000	0.042	0.290
-698.499	90.371	0.067	-0.075
-697.485	60.609	-0.124	0.124
-696.470	-200.000	-0.015	-0.359
-695.456	-200.000	0.047	-0.416
-694.441	-137.193	-0.312	-0.036
-693.426	51.597	0.101	-0.097
-692.412	89.001	-0.044	-0.049
-691.397	-145.338	0.112	-0.010
-690.383	69.477	-0.048	-0.050
-689.368	-97.845	-0.177	-0.046
-688.354	0.360	0.223	0.160
-687.339	3.130	-0.229	-0.168
-686.324	-39.689	0.217	0.114
-685.310	162.505	-0.166	0.234
-684.295	800.000	-0.146	-0.562
-683.281	-200.000	-0.016	0.116
-682.266	-12.456	-0.130	-0.086
-681.251	58.171	0.259	0.255
-680.237	800.000	-0.056	-0.205
-679.222	204.105	-0.079	-0.123
-678.208	-200.000	-0.005	0.250
-677.193	-86.128	-0.355	0.110
-676.178	-31.502	0.235	-0.133
-675.164	139.850	-0.075	-0.100
-674.149	-200.000	-0.021	-0.153
-673.135	302.482	0.048	-0.089
-672.120	77.079	-0.368	-0.394
-671.105	-120.391	0.007	-0.001
-670.091	-96.415	0.255	0.068
-669.076	97.609	-0.228	-0.263
-668.062	-200.000	0.080	-0.449
-667.047	-94.732	0.287	-0.078
-666.032	800.000	0.049	-0.176
-665.018	-200.000	-0.029	-0.151
-664.003	404.241	0.114	-0.242
-662.989	187.002	-0.157	-0.236
-661.974	-35.910	-0.123	0.067
-660.959	459.791	0.034	-0.076
-659.945	478.192	0.091	-0.207
-658.930	-200.000	-0.018	-0.192
-657.916	-22.270	-0.072	-0.044
-656.901	431.276	0.067	0.146
-655.886	-133.168	0.093	-0.012
-654.872	152.284	-0.270	-0.370
-653.857	14.772	0.469	0.369
-652.843	-101.117	-0.053	-0.013
-651.828	245.009	-0.142	-0.240
-650.814	-108.491	0.180	0.039
-649.799	-26.732	0.242	-0.142
-648.784	-200.000	-0.032	0.159
-647.770	35.285	0.213	-0.188
-646.755	133.907	-0.044	-0.057
-645.741	-97.946	0.182	-0.047
-644.726	30.091	0.205	0.176
-643.711	30.194	-0.056	-0.048
-642.697	108.677	-0.121	0.145
-641.682	-182.440	0.234	0.004
-640.668	-200.000	0.019	0.180
-639.653	-200.000	-0.003	0.250
-638.638	-140.806	0.118	0.012
-637.624	450.042	-0.201	-0.447
-636.609	-108.719	-0.099	-0.021
-635.595	-140.766	-0.163	-0.017
-634.580	-81.944	-0.091	0.030
-633.565	412.361	-0.140	-0.299
-632.551	-200.000	-0.018	-0.188
-631.536	-200.000	-0.052	-0.276
-630.522	55.909	0.064	0.062
-629.507	-133.530	0.228	-0.029
-628.492	-200.000	0.005	-0.135
-627.478	-7.292	-0.331	0.225
-626.463	-26.727	-0.205	-0.121
-625.449	33.464	0.121	0.105
-624.434	-2.127	-0.190	0.134
-623.419	383.483	-0.105	0.217
-622.405	-127.518	0.396	0.058
-621.390	-92.483	0.240	-0.068
-620.376	73.920	0.019	-0.020
-619.361	161.285	-0.259	0.363
-618.346	800.000	0.022	0.094
-617.332	350.987	-0.047	-0.093
-616.317	42.856	0.124	-0.113
-615.303	154.434	-0.226	-0.311
-614.288	800.000	-0.077	-0.224
-613.273	47.259	0.090	0.085
-612.259	22.414	0.214	0.176
-611.244	257.040	-0.058	0.100
-610.230	215.677	0.032	-0.051
-609.215	-200.000	0.032	-0.322
-608.201	-127.909	0.126	-0.018
-607.186	-64.659	-0.121	-0.049
-606.171	-200.000	0.071	-0.405
-605.157	-200.000	-0.034	0.338
-604.142	-200.000	0.038	0.222
-603.128	134.543	-0.095	-0.124
-602.113	-200.000	-0.038	-0.209
-601.098	-118.853	0.166	0.029
-600.084	-146.920	-0.037	0.003
-599.069	-111.900	-0.274	0.055
-598.055	-153.658	0.448	0.031
-597.040	-161.520	0.285	-0.015
-596.025	-179.234	0.136	-0.003
-595.011	-23.918	0.174	0.104
-593.996	-64.990	-0.101	-0.041
-592.982	-183.711	-0.149	0.003
-591.967	-80.941	0.109	0.036
-590.952	800.000	-0.030	-0.086
-589.938	-19.136	-0.158	-0.098
-588.923	800.000	0.075	0.214
-587.909	-113.873	-0.204	-0.040
-586.894	-200.000	-0.017	-0.124
-585.879	-200.000	-0.051	-0.462
-584.865	-60.703	-0.079	0.034
-583.850	17.585	-0.166	0.132
-582.836	-114.053	-0.104	0.020
-581.821	-59.279	0.208	-0.090
-580.806	58.367	0.255	0.250
-579.792	-200.000	0.018	0.287
-578.777	-200.000	-0.026	0.388
-577.763	292.652	0.196	-0.359
-576.748	347.119	0.044	-0.087
-575.733	231.105	0.056	-0.092
-574.719	329.325	-0.098	0.189
-573.704	71.325	-0.209	-0.217
-572.690	800.000	-0.049	-0.157
-571.675	170.185	-0.312	-0.447
-570.661	-88.521	-0.067	-0.020
-569.646	-140.395	0.097	0.010
-568.631	68.459	0.067	0.069
-567.617	-79.315	0.073	-0.025
-566.602	316.583	0.116	-0.220
-565.588	800.000	0.117	-0.498
-564.573	-146.468	0.328	-0.029
-563.558	-200.000	-0.033	-0.176
-562.544	144.289	-0.097	-0.130
-561.529	11.189	-0.187	-0.143
-560.515	394.230	-0.050	0.104
-559.500	-200.000	-0.023	-0.223
-558.485	407.325	0.087	-0.184
-557.471	634.249	-0.033	0.084
-556.456	309.749	-0.137	-0.257
-555.442	-200.000	0.012	0.200
-554.427	89.703	0.105	0.117
-553.412	-200.000	-0.006	0.042
-552.398	404.548	-0.012	-0.025
-551.383	-13.115	0.167	0.109
-550.369	-50.820	0.049	-0.023
-549.354	-141.562	-0.299	0.030
-548.339	800.000	0.062	-0.179
-547.325	-165.767	-0.501	-0.022
-546.310	-81.938	-0.439	0.144
-545.296	800.000	-0.034	0.118
-544.281	69.061	0.238	0.245
-543.266	57.737	0.311	0.305
-542.252	800.000	-0.236	-0.785
-541.237	800.000	-0.046	-0.146
-540.223	800.000	-0.099	-0.289
-539.208	-94.013	-0.224	-0.062
-538.193	800.000	0.023	0.064
-537.179	792.422	0.073	-0.200
-536.164	-200.000	0.025	0.171
-535.150	-43.270	-0.380	-0.192
-534.135	-127.150	-0.133	0.019
-533.121	-156.575	-0.202	0.013
-532.106	-72.806	-0.073	0.027
-531.091	-200.000	0.003	0.076
-530.077	-200.000	-0.016	0.131
-529.062	-25.842	-0.191	-0.112
-528.048	6.109	-0.248	0.184
-527.033	-200.000	0.010	-0.235
-526.018	115.319	-0.011	-0.013
-525.004	83.299	-0.087	-0.094
-523.989	-200.000	-0.018	0.446
-522.975	-168.895	-0.144	0.005
-521.960	46.427	0.075	0.070
-520.945	-184.309	-0.104	-0.002
-519.931	-200.000	0.058	-0.277
-518.916	18.347	0.101	0.081
-517.902	-62.835	-0.329	0.136
-516.887	4.606	-0.052	0.038
-515.872	275.424	-0.035	-0.062
-514.858	-48.626	0.224	-0.108
-513.843	-131.773	0.063	0.008
-512.829	-25.422	0.292	0.173
-511.814	231.034	0.069	-0.113
-510.799	-38.010	-0.244	0.130
-509.785	-87.133	-0.175	0.053
-508.770	-89.963	0.131	0.038
-507.756	-130.851	0.174	-0.023
-506.741	-134.936	-0.095	0.012
-505.726	4.760	0.156	0.115
-504.712	-9.228	-0.120	-0.080
-503.697	78.334	-0.230	0.245
-502.683	-172.698	-0.111	-0.003
-501.668	-84.067	0.299	-0.095
-500.653	-102.932	-0.100	0.024
-499.639	-200.000	-0.009	-0.077
-498.624	46.501	0.086	0.079
-497.610	-79.275	0.108	0.036
-496.595	-200.000	-0.002	-0.135
-495.581	122.747	0.082	0.103
-494.566	-200.000	0.003	-0.186
-493.551	-141.731	-0.349	-0.035
-492.537	55.042	-0.212	-0.205
-491.522	800.000	0.125	-0.380
-490.508	-104.938	0.321	0.073
-489.493	800.000	-0.023	0.094
-488.478	-127.855	0.382	-0.055
-487.464	-142.099	-0.229	0.023
-486.449	103.909	0.028	-0.033
-485.435	-5.841	-0.190	-0.130
-484.420	-145.266	0.221	-0.020
-483.405	144.971	0.277	-0.370
-482.391	-144.521	-0.290	-0.027
-481.376	37.059	-0.148	0.131
-480.362	-43.662	0.226	-0.114
-479.347	800.000	-0.063	0.183
-478.332	-130.348	0.302	-0.041
-477.318	800.000	-0.065	0.181
-476.303	800.000	-0.021	0.062
-475.289	123.680	0.124	0.156
-474.274	649.050	-0.249	0.636
-473.259	198.440	-0.128	0.196
-472.245	800.000	0.043	-0.139
-471.230	800.000	0.041	-0.118
-470.216	800.000	0.141	0.490
-469.201	254.067	0.246	0.420
-468.186	-200.000	0.025	0.216
-467.172	-144.628	0.246	0.023
-466.157	-152.719	0.160	0.011
-465.143	-73.626	0.073	-0.027
-464.128	-95.873	0.082	0.022
-463.113	136.070	0.164	0.214
-462.099	26.587	-0.085	0.071
-461.084	200.939	0.049	-0.075
-460.070	-200.000	-0.023	0.218
-459.055	-90.604	0.334	0.096
-458.040	-76.405	-0.309	0.109
-457.026	130.341	0.098	0.126
-456.011	291.194	-0.043	0.077
-454.997	800.000	0.085	-0.291
-453.982	-39.555	0.144	-0.075
-452.968	434.030	0.059	0.128
-451.953	104.834	-0.094	0.110
-450.938	15.021	0.079	-0.061
-449.924	-54.681	0.037	0.017
-448.909	-97.021	-0.371	-0.097
-447.895	145.767	0.035	0.047
-446.880	-200.000	0.004	0.189
-445.865	-200.000	-0.061	0.321
-444.851	-86.467	0.121	0.037
-443.836	-119.787	0.184	0.032
-442.822	800.000	-0.073	-0.235
-441.807	27.368	0.257	-0.215
-440.792	311.857	-0.067	0.125
-439.778	251.924	0.189	0.321
-438.763	734.999	-0.154	0.410
-437.749	-200.000	0.017	-0.106
-436.734	26.283	-0.155	-0.129
-435.719	-5.168	-0.088	-0.060
-434.705	163.929	0.189	0.266
-433.690	473.263	0.102	0.229
-432.676	72.076	0.235	0.244
-431.661	-136.458	-0.135	0.016
-430.646	2.462	0.119	0.086
-429.632	240.813	-0.136	0.226
-428.617	-16.727	-0.194	0.122
-427.603	-200.000	0.003	-0.032
-426.588	-4.439	-0.171	-0.118
-425.573	366.065	0.109	0.218
-424.559	355.234	-0.077	-0.152
-423.544	81.550	0.015	0.016
-422.530	283.598	0.285	0.510
-421.515	800.000	-0.106	0.346
-420.500	164.994	0.245	-0.344
-419.486	140.293	0.072	0.095
-418.471	72.564	-0.087	-0.090
-417.457	336.259	-0.030	0.058
-416.442	179.250	0.166	0.242
-415.428	-97.933	0.394	0.101
-414.413	-21.876	-0.049	0.030
-413.398	-200.000	-0.019	0.116
-412.384	-200.000	0.020	-0.205
-411.369	355.928	0.125	-0.249
-410.355	-79.712	0.241	-0.081
-409.340	-46.735	-0.115	0.056
-408.325	16.481	-0.121	-0.095
-407.311	-115.941	0.255	-0.047
-406.296	122.253	-0.141	0.175
-405.282	61.024	-0.200	0.198
-404.267	-133.619	-0.266	0.033
-403.252	-200.000	0.007	-0.162
-402.238	43.611	0.209	0.190
-401.223	-191.645	-0.173	0.002
-400.209	-200.000	-0.026	0.122
-399.194	-144.983	0.588	0.053
-398.179	800.000	-0.121	0.406
-397.165	-64.395	-0.252	0.102
-396.150	-94.462	-0.272	0.074
-395.136	201.896	0.187	-0.287
-394.121	800.000	0.060	-0.198
-393.106	-200.000	-0.023	-0.251
-392.092	128.112	-0.070	-0.088
-391.077	-71.734	-0.055	-0.020
-390.063	0.956	-0.133	-0.095
-389.048	-79.626	0.106	-0.035
-388.033	365.949	0.055	-0.111
-387.019	-166.960	0.108	0.004
-386.004	435.021	-0.094	0.203
-384.990	21.140	-0.111	-0.090
-383.975	3.416	-0.193	-0.140
-382.960	88.863	-0.148	-0.163
-381.946	-18.859	0.295	-0.182
-380.931	-38.536	0.273	0.143
-379.917	-64.644	0.113	0.045
-378.902	-200.000	-0.038	0.311
-377.888	-57.251	0.257	0.112
-376.873	-66.208	0.075	-0.030
-375.858	-149.530	0.228	-0.018
-374.844	719.687	0.040	0.106
-373.829	-101.693	-0.296	-0.071
-372.815	-18.313	0.158	-0.098
-371.800	800.000	-0.078	-0.267
-370.785	-24.152	-0.172	-0.102
-369.771	119.017	-0.126	-0.155
-368.756	-22.009	-0.070	0.042
-367.742	-6.446	0.065	0.044
-366.727	-134.618	-0.256	-0.031
-365.712	-81.261	0.071	0.023
-364.698	439.026	-0.026	0.056
-363.683	800.000	-0.082	-0.246
-362.669	150.033	-0.129	0.174
-361.654	187.127	-0.187	0.277
-360.639	90.262	-0.222	-0.247
-359.625	26.439	-0.135	0.112
-358.610	-58.689	0.063	0.027
-357.596	67.723	-0.172	0.175
-356.581	-41.973	0.103	-0.052
-355.566	28.152	0.168	-0.141
-354.552	-97.659	-0.244	-0.063
-353.537	27.560	-0.229	0.192
-352.523	-144.067	0.147	-0.014
-351.508	800.000	-0.037	-0.116
-350.493	617.700	0.169	-0.420
-349.479	-67.227	-0.182	-0.071
-348.464	-22.452	0.148	-0.089
-347.450	-200.000	0.004	-0.043
-346.435	800.000	-0.030	0.102
-345.420	-2.654	0.202	-0.141
-344.406	-155.113	-0.374	0.024
-343.391	115.158	0.200	0.243
-342.377	27.662	0.202	0.169
-341.362	-60.317	0.251	0.106
-340.348	576.172	0.033	-0.080
-339.333	800.000	0.072	0.205
-338.318	355.669	0.067	0.132
-337.304	800.000	-0.078	0.274
-336.289	235.653	0.063	0.103
-335.275	-85.201	-0.321	-0.100
-334.260	-200.000	0.013	-0.170
-333.245	15.182	-0.314	0.244
-332.231	45.110	-0.099	0.091
-331.216	-200.000	0.020	0.299
-330.202	-129.668	-0.100	-0.014
-329.187	-200.000	-0.004	0.235
-328.172	-52.445	-0.354	-0.162
-327.158	-131.192	0.145	0.019
-326.143	4.281	0.158	-0.115
-325.129	511.893	-0.108	-0.249
-324.114	182.316	-0.125	-0.182
-323.099	-200.000	-0.098	-0.480
-322.085	360.135	0.103	0.204
-321.070	-200.000	0.037	-0.171
-320.056	466.143	-0.101	-0.225
-319.041	-130.619	0.126	0.017
-318.026	-9.149	-0.220	-0.146
-317.012	0.076	0.530	0.375
-315.997	800.000	0.110	0.411
-314.983	-200.000	-0.049	0.239
-313.968	-63.808	-0.176	0.072
-312.953	-92.486	0.008	-0.002
-311.939	-129.107	0.162	0.023
-310.924	79.772	0.093	-0.099
-309.910	-200.000	-0.016	0.275
-308.895	-174.028	-0.193	-0.006
-307.880	91.395	-0.078	-0.087
-306.866	-104.625	0.130	-0.030
-305.851	-200.000	0.030	-0.167
-304.837	99.539	-0.214	-0.246
-303.822	-78.455	-0.358	0.122
-302.807	579.180	-0.223	-0.541
-301.793	-141.111	-0.206	0.021
-300.778	-25.687	0.104	0.061
-299.764	-200.000	0.018	-0.223
-298.749	363.022	-0.144	-0.286
-297.735	800.000	-0.081	-0.254
-296.720	-52.824	0.331	-0.151
-295.705	612.057	0.061	0.152
-294.691	74.246	0.239	0.249
-293.676	-31.483	0.180	0.100
-292.662	55.433	0.160	0.153
-291.647	9.300	-0.202	-0.151
-290.632	-106.420	-0.340	-0.075
-289.618	-50.620	0.389	-0.181
-288.603	-48.529	0.200	0.096
-287.589	138.200	-0.149	0.193
-286.574	486.295	0.107	-0.242
-285.559	-200.000	-0.028	0.215
-284.545	-200.000	0.023	-0.295
-283.530	-28.681	-0.197	0.112
-282.516	-187.859	0.355	-0.005
-281.501	-200.000	-0.043	-0.312
-280.486	156.028	0.201	-0.275
-279.472	-200.000	0.013	0.072
-278.457	-200.000	-0.044	0.363
-277.443	-200.000	-0.002	-0.238
-276.428	38.555	0.076	-0.068
-275.413	800.000	-0.029	0.105
-274.399	-200.000	-0.045	-0.200
-273.384	149.004	-0.139	-0.186
-272.370	740.674	0.074	0.197
-271.355	59.522	-0.321	0.314
-270.340	-134.372	-0.276	-0.034
-269.326	800.000	-0.121	-0.393
-268.311	-166.079	0.130	-0.005
-267.297	-83.181	-0.208	0.066
-266.282	800.000	0.023	-0.067
-265.267	-71.470	-0.151	-0.056
-264.253	15.322	-0.202	-0.157
-263.238	-42.292	0.111	-0.056
-262.224	80.313	0.208	-0.222
-261.209	-159.983	0.433	-0.023
-260.195	-47.549	-0.137	-0.066
-259.180	104.073	0.109	0.126
-258.165	-16.525	0.193	0.121
-257.151	0.438	0.280	0.198
-256.136	257.913	-0.132	0.226
-255.122	215.705	-0.116	0.182
-254.107	800.000	0.051	-0.173
-253.092	757.090	-0.105	-0.281
-252.078	800.000	0.103	-0.368
-251.063	-140.395	0.172	-0.018
-250.049	46.999	-0.076	0.070
-249.034	91.360	-0.162	0.180
-248.019	283.495	-0.057	-0.101
-247.005	56.193	-0.140	-0.135
-245.990	-200.000	-0.009	-0.143
-244.976	38.840	-0.166	-0.147
-243.961	410.550	-0.217	-0.454
-242.946	-60.168	0.142	-0.060
-241.932	800.000	0.044	-0.138
-240.917	336.047	-0.036	0.069
-239.903	-12.427	-0.212	0.137
-238.888	-140.912	0.378	0.038
-237.873	800.000	-0.056	0.177
-236.859	-14.921	0.156	-0.099
-235.844	-200.000	-0.017	0.301
-234.830	-86.138	0.128	-0.039
-233.815	-24.304	-0.280	-0.165
-232.800	-45.955	0.174	-0.085
-231.786	13.180	-0.176	-0.135
-230.771	12.422	0.113	0.086
-229.757	-200.000	-0.029	0.160
-228.742	-10.840	-0.258	-0.169
-227.727	-21.182	0.201	-0.121
-226.713	-170.473	0.140	-0.005
-225.698	-200.000	-0.106	0.533
-224.684	800.000	0.075	-0.319
-223.669	52.086	-0.043	0.041
-222.655	100.997	0.019	0.022
-221.640	-200.000	0.012	0.115
-220.625	-200.000	-0.016	0.238
-219.611	-176.072	0.524	0.014
-218.596	-86.517	-0.280	0.085
-217.582	800.000	0.228	0.631
-216.567	-97.759	0.230	0.059
-215.552	783.179	-0.019	-0.053
-214.538	21.548	-0.081	-0.065
-213.523	-150.680	0.244	-0.018
-212.509	81.843	0.286	0.307
-211.494	684.226	-0.069	0.178
-210.479	-0.085	-0.403	0.283
-209.465	775.448	0.141	-0.381
-208.450	-92.640	0.282	-0.078
-207.436	593.907	-0.054	0.133
-206.421	-200.000	-0.105	0.486
-205.406	-200.000	0.022	-0.221
-204.392	-63.969	0.084	0.034
-203.377	800.000	-0.068	0.223
-202.363	-94.652	-0.262	-0.070
-201.348	-153.186	-0.051	-0.004
-200.333	800.000	0.064	0.208
-199.319	-62.504	-0.286	0.117
-198.304	499.297	-0.084	0.191
-197.290	800.000	-0.059	0.193
-196.275	241.498	0.136	0.224
-195.260	-47.659	-0.144	-0.069
-194.246	367.309	0.037	0.075
-193.231	14.102	0.257	-0.197
-192.217	359.448	0.120	-0.236
-191.202	68.008	0.043	-0.044
-190.187	297.562	-0.023	-0.042
-189.173	-12.410	-0.339	-0.219
-188.158	-113.907	0.165	0.032
-187.144	345.861	0.182	-0.352
-186.129	57.373	0.123	-0.119
-185.114	-158.219	-0.217	0.012
-184.100	-44.425	-0.080	0.039
-183.085	-200.000	-0.030	0.132
-182.071	21.799	-0.161	0.129
-181.056	80.637	0.124	-0.132
-180.042	-85.164	-0.092	0.028
-179.027	349.860	0.097	-0.190
-178.012	-64.658	0.095	0.038
-176.998	-200.000	-0.004	-0.052
-175.983	196.663	0.091	0.137
-174.969	-120.258	-0.199	0.033
-173.954	-34.932	0.078	0.042
-172.939	-127.081	-0.126	0.018
-171.925	-13.222	0.060	-0.039
-170.910	-125.110	0.205	-0.031
-169.896	214.044	-0.161	-0.251
-168.881	50.460	-0.173	-0.161
-167.866	800.000	0.009	0.034
-166.852	-112.373	0.160	0.032
-165.837	-200.000	0.041	-0.214
-164.823	800.000	-0.071	-0.201
-163.808	-69.240	-0.266	0.101
-162.793	25.248	0.044	-0.036
-161.779	286.842	-0.066	-0.118
-160.764	269.616	-0.064	0.110
-159.750	124.575	0.160	0.199
-158.735	106.819	-0.189	0.221
-157.720	-200.000	0.020	-0.207
-156.706	-109.578	-0.278	0.058
-155.691	16.099	-0.118	0.092
-154.677	-156.242	0.206	-0.013
-153.662	48.471	0.095	-0.088
-152.647	-34.299	0.283	-0.153
-151.633	-200.000	0.018	-0.143
-150.618	-79.776	0.385	0.128
-149.604	-200.000	-0.051	0.272
-148.589	-200.000	-0.032	0.210
-147.574	-145.525	-0.194	-0.017
-146.560	-200.000	-0.006	-0.035
-145.545	-200.000	-0.047	-0.254
-144.531	-169.478	0.462	0.017
-143.516	148.398	-0.058	0.078
-142.502	800.000	-0.039	0.125
-141.487	157.250	-0.159	-0.217
-140.472	-25.492	-0.067	-0.039
-139.458	-5.844	0.242	-0.163
-138.443	-29.626	0.163	-0.092
-137.429	90.516	0.183	0.202
-136.414	-181.751	0.213	0.004
-135.399	9.520	0.145	0.108
-134.385	-11.265	-0.153	0.099
-133.370	-72.452	0.273	-0.099
-132.356	800.000	0.076	-0.272
-131.341	-200.000	-0.005	-0.037
-130.326	-67.222	0.372	-0.144
-129.312	-200.000	-0.049	0.228
-128.297	-15.366	0.124	-0.078
-127.283	-200.000	0.009	-0.256
-126.268	-160.101	0.272	-0.015
-125.253	-50.174	0.225	0.105
-124.239	25.884	-0.300	-0.247
-123.224	-159.777	-0.311	-0.017
-122.210	-98.663	0.325	-0.082
-121.195	-77.276	0.275	-0.094
