DTS Sentinel unit serial number:	SN413079Multiplexer serial number:	ORYXHardware model number:	OX4-SRSoftware version number:	ORYX F/W v4.00 Oryx Data Collector v3.7.2.0data status	okinstallation	princeton_trtdifferential loss correction	single-endedforward channel	channel 1reverse channel	N/Adate	2019/09/15time	05:46:35forward acquisition time	60.00reverse acquisition time	0.00gamma	496.2192k internal	0.2324k external	0.2324temperature offset calibration	0.9995default loss term (dB/km)	0.3790temperature slope calibration	1.0000multiplexer offset coefficient	1.0000multiplexer slope coefficient	1.0000fibre end	0.00T internal ref (°C)	30.62T ext. ref 1 (°C)	4.83T ext. ref 2 (°C)	25.69length (m)	temperature (°C)	Stokes	anti-Stokes-747.200	-200.000	0.012	-0.148
-746.185	-7.293	-0.178	-0.122
-745.171	-125.579	-0.146	-0.022
-744.156	-57.440	-0.458	0.203
-743.142	435.276	-0.027	0.059
-742.127	-91.485	-0.168	-0.048
-741.112	216.416	-0.111	-0.179
-740.098	168.423	0.132	0.190
-739.083	79.067	-0.075	0.081
-738.069	-200.000	-0.052	0.263
-737.054	178.682	0.096	-0.142
-736.039	47.843	-0.124	-0.117
-735.025	800.000	0.036	-0.117
-734.010	442.622	0.029	-0.063
-732.996	-34.367	-0.288	-0.159
-731.981	-172.950	0.041	0.001
-730.966	-108.609	-0.226	-0.049
-729.952	284.700	0.045	-0.083
-728.937	400.127	-0.072	-0.151
-727.923	324.611	0.058	-0.111
-726.908	-200.000	0.025	0.295
-725.894	-86.087	-0.168	0.052
-724.879	-11.001	-0.179	-0.119
-723.864	-22.443	-0.069	-0.042
-722.850	82.719	-0.107	0.117
-721.835	554.873	0.121	-0.293
-720.821	800.000	0.014	-0.060
-719.806	800.000	-0.158	0.567
-718.791	-71.214	-0.126	0.048
-717.777	175.174	0.099	0.145
-716.762	136.597	-0.111	0.146
-715.748	-79.842	-0.209	0.071
-714.733	-49.199	-0.340	-0.164
-713.718	45.466	-0.172	-0.160
-712.704	-108.438	0.068	-0.015
-711.689	234.771	-0.155	-0.257
-710.675	-159.339	0.353	-0.020
-709.660	166.658	-0.098	-0.140
-708.645	-200.000	-0.017	0.136
-707.631	193.016	-0.133	0.202
-706.616	43.657	0.123	0.114
-705.602	-146.381	0.333	-0.029
-704.587	262.620	0.036	0.063
-703.572	24.022	-0.051	0.042
-702.558	-39.717	0.169	0.089
-701.543	150.600	0.277	0.379
-700.529	-144.398	-0.240	0.022
-699.514	-58.148	-0.188	-0.082
-698.499	186.009	-0.070	-0.105
-697.485	532.515	0.083	0.198
-696.470	54.633	-0.079	0.077
-695.456	271.801	-0.077	-0.138
-694.441	-67.156	-0.211	0.084
-693.426	-31.984	-0.266	-0.150
-692.412	800.000	0.023	-0.091
-691.397	229.226	-0.144	0.237
-690.383	-124.135	-0.195	-0.031
-689.368	-8.230	-0.138	-0.093
-688.354	93.770	-0.101	0.115
-687.339	35.477	-0.293	0.259
-686.324	-19.226	-0.142	0.089
-685.310	82.393	0.082	-0.089
-684.295	302.764	-0.168	0.312
-683.281	103.979	0.095	0.112
-682.266	800.000	0.098	-0.414
-681.251	-150.857	-0.046	0.004
-680.237	724.676	-0.080	0.214
-679.222	25.170	-0.073	-0.061
-678.208	74.620	0.192	-0.203
-677.193	109.571	0.030	0.037
-676.178	4.076	-0.034	0.025
-675.164	-74.602	-0.277	-0.100
-674.149	16.396	0.299	0.238
-673.135	800.000	0.018	-0.068
-672.120	228.160	0.053	0.087
-671.105	401.836	-0.147	-0.311
-670.091	33.420	0.188	-0.164
-669.076	800.000	-0.055	-0.156
-668.062	16.120	0.060	0.048
-667.047	-7.606	-0.268	-0.183
-666.032	211.422	-0.124	-0.196
-665.018	-200.000	-0.022	0.292
-664.003	383.087	0.080	-0.165
-662.989	-151.954	-0.115	0.008
-661.974	800.000	-0.025	0.102
-660.959	-61.301	-0.338	-0.143
-659.945	-13.752	0.223	-0.145
-658.930	-85.860	0.078	-0.024
-657.916	800.000	0.021	0.079
-656.901	-101.495	-0.056	0.014
-655.886	-200.000	0.004	-0.095
-654.872	325.819	-0.071	-0.137
-653.857	76.622	0.052	0.055
-652.843	-21.971	-0.164	-0.100
-651.828	66.227	-0.293	-0.299
-650.814	-200.000	-0.030	0.146
-649.799	800.000	-0.097	0.300
-648.784	257.006	0.071	-0.123
-647.770	800.000	-0.086	0.256
-646.755	20.393	-0.267	-0.217
-645.741	800.000	0.041	0.140
-644.726	-104.138	-0.319	0.075
-643.711	-200.000	0.005	0.323
-642.697	28.398	-0.076	-0.065
-641.682	45.355	-0.181	0.168
-640.668	197.839	0.189	0.291
-639.653	-45.916	-0.155	-0.077
-638.638	-200.000	0.034	-0.398
-637.624	66.289	0.343	-0.351
-636.609	-200.000	-0.079	-0.435
-635.595	137.783	-0.409	-0.539
-634.580	-190.163	-0.204	-0.002
-633.565	-142.995	-0.070	0.007
-632.551	-57.627	-0.482	0.212
-631.536	-199.795	-0.176	0.001
-630.522	67.300	-0.196	0.201
-629.507	-200.000	-0.346	0.001
-628.492	-200.000	-0.040	0.428
-627.478	-200.000	-0.028	-0.418
-626.463	39.443	-0.177	0.159
-625.449	11.894	-0.239	-0.184
-624.434	415.203	-0.113	-0.242
-623.419	41.875	0.213	-0.194
-622.405	-2.988	0.341	-0.239
-621.390	0.160	0.285	0.204
-620.376	-30.386	0.133	-0.076
-619.361	-112.124	-0.368	0.074
-618.346	-200.000	0.169	-0.001
-617.332	0.980	0.074	-0.053
-616.317	525.476	0.156	0.369
-615.303	-25.974	0.321	0.190
-614.288	574.031	-0.016	0.039
-613.273	28.873	-0.153	-0.130
-612.259	-200.000	0.023	-0.159
-611.244	800.000	-0.058	0.208
-610.230	256.182	-0.141	-0.244
-609.215	30.002	-0.070	-0.060
-608.201	-94.324	0.131	-0.036
-607.186	-110.720	0.047	0.010
-606.171	-70.083	0.195	0.075
-605.157	-96.191	-0.111	0.030
-604.142	-200.000	-0.023	0.170
-603.128	-109.673	0.183	-0.039
-602.113	507.786	0.140	-0.326
-601.098	-200.000	0.479	0.002
-600.084	16.009	-0.182	-0.144
-599.069	482.680	-0.041	0.094
-598.055	-200.000	0.054	0.546
-597.040	114.519	0.059	0.072
-596.025	-28.336	-0.096	-0.056
-595.011	78.667	0.235	0.252
-593.996	98.164	-0.099	0.115
-592.982	130.334	-0.277	-0.356
-591.967	292.163	-0.103	-0.189
-590.952	-45.102	0.118	0.059
-589.938	0.585	-0.238	-0.171
-588.923	30.967	0.078	0.067
-587.909	-75.151	0.270	-0.097
-586.894	-108.764	-0.416	0.089
-585.879	83.463	0.139	0.152
-584.865	317.352	0.062	0.119
-583.850	-87.054	-0.159	0.049
-582.836	-200.000	-0.021	-0.174
-581.821	9.014	0.140	0.106
-580.806	-200.000	-0.008	-0.110
-579.792	-95.883	0.231	0.062
-578.777	-52.600	0.078	-0.036
-577.763	-86.483	-0.250	0.077
-576.748	-84.026	0.093	0.030
-575.733	-200.000	-0.001	0.222
-574.719	-99.684	0.054	-0.014
-573.704	616.690	0.097	-0.244
-572.690	261.945	-0.140	-0.243
-571.675	12.337	-0.131	0.101
-570.661	174.480	-0.126	0.183
-569.646	23.349	-0.121	0.099
-568.631	66.853	0.161	0.164
-567.617	-58.576	-0.513	-0.223
-566.602	-140.663	0.342	0.036
-565.588	-174.845	0.196	-0.006
-564.573	518.649	0.100	-0.234
-563.558	-89.666	0.271	-0.080
-562.544	-133.522	0.419	0.053
-561.529	-58.543	-0.101	0.044
-560.515	-200.000	0.394	-0.002
-559.500	97.369	-0.030	-0.035
-558.485	118.489	-0.317	-0.393
-557.471	-187.431	0.103	-0.001
-556.456	-108.378	-0.184	-0.040
-555.442	74.330	0.017	-0.018
-554.427	800.000	0.073	0.292
-553.412	-200.000	0.038	0.329
-552.398	119.614	0.091	0.113
-551.383	260.269	-0.017	0.030
-550.369	-75.768	-0.173	-0.061
-549.354	141.985	0.202	-0.269
-548.339	-47.323	-0.115	0.056
-547.325	102.346	0.239	-0.279
-546.310	800.000	0.038	-0.130
-545.296	-200.000	0.002	-0.365
-544.281	417.396	-0.077	0.164
-543.266	58.627	0.095	0.093
-542.252	112.493	0.208	-0.253
-541.237	-14.929	-0.327	0.210
-540.223	-200.000	0.007	0.147
-539.208	-13.011	-0.419	-0.273
-538.193	-200.000	-0.004	-0.284
-537.179	-34.917	0.045	-0.025
-536.164	-200.000	-0.023	0.133
-535.150	-86.199	0.085	-0.026
-534.135	-69.259	0.510	-0.196
-533.121	-6.998	-0.221	-0.150
-532.106	331.703	-0.109	-0.210
-531.091	79.693	0.074	0.080
-530.077	-200.000	0.004	-0.041
-529.062	244.145	-0.303	0.510
-528.048	800.000	0.063	-0.239
-527.033	49.580	-0.085	0.080
-526.018	-76.411	-0.208	-0.073
-525.004	-200.000	-0.042	-0.272
-523.989	-83.873	0.330	-0.105
-522.975	-30.341	0.113	-0.064
-521.960	-109.619	-0.307	-0.065
-520.945	20.257	0.143	0.115
-519.931	28.130	-0.144	-0.122
-518.916	800.000	-0.044	0.148
-517.902	-117.445	0.156	0.028
-516.887	194.624	0.109	-0.166
-515.872	53.594	0.214	-0.205
-514.858	800.000	0.058	0.234
-513.843	800.000	0.046	0.144
-512.829	-200.000	-0.003	-0.072
-511.814	248.059	-0.313	0.529
-510.799	-27.603	0.180	-0.105
-509.785	12.547	0.114	0.088
-508.770	-200.000	0.012	0.130
-507.756	89.670	-0.192	0.214
-506.741	100.627	0.226	0.263
-505.726	-10.642	-0.292	0.194
-504.712	-200.000	-0.017	-0.153
-503.697	-110.097	-0.351	0.073
-502.683	-80.242	0.318	-0.106
-501.668	-24.413	-0.233	0.139
-500.653	-91.504	-0.057	0.016
-499.639	-79.670	0.286	0.097
-498.624	141.945	-0.090	0.119
-497.610	800.000	-0.049	0.148
-496.595	160.348	-0.016	0.022
-495.581	16.156	-0.064	0.050
-494.566	127.259	-0.102	-0.129
-493.551	-191.371	-0.367	0.004
-492.537	-21.272	0.040	-0.025
-491.522	55.442	-0.395	-0.382
-490.508	-33.123	0.238	0.132
-489.493	-177.133	-0.107	0.003
-488.478	46.144	-0.039	-0.036
-487.464	-200.000	-0.011	-0.167
-486.449	-128.152	-0.119	0.017
-485.435	176.056	0.300	-0.436
-484.420	-33.478	0.202	0.112
-483.405	675.700	-0.059	-0.154
-482.391	208.120	0.089	-0.140
-481.376	86.180	0.144	-0.159
-480.362	97.122	-0.096	-0.110
-479.347	-165.941	0.399	-0.017
-478.332	123.029	0.242	0.303
-477.318	139.272	-0.090	-0.118
-476.303	14.651	-0.147	-0.115
-475.289	78.724	0.262	0.280
-474.274	-19.666	-0.403	-0.249
-473.259	475.211	0.017	-0.037
-472.245	-62.624	0.221	-0.092
-471.230	-70.001	0.146	0.055
-470.216	-103.618	-0.116	0.027
-469.201	-28.802	-0.049	0.028
-468.186	-109.036	-0.256	-0.055
-467.172	213.569	0.048	-0.076
-466.157	-1.989	-0.182	0.128
-465.143	800.000	0.035	0.120
-464.128	48.322	0.129	-0.121
-463.113	-153.489	0.241	0.017
-462.099	171.524	0.120	-0.172
-461.084	-15.952	0.166	-0.106
-460.070	218.761	0.060	0.095
-459.055	800.000	0.033	-0.127
-458.040	31.275	0.013	0.011
-457.026	-200.000	0.036	-0.265
-456.011	800.000	-0.072	-0.280
-454.997	57.640	-0.190	-0.185
-453.982	33.246	-0.042	0.036
-452.968	276.358	-0.202	0.359
-451.953	50.799	-0.090	-0.085
-450.938	-42.334	0.185	0.094
-449.924	-34.034	0.290	-0.159
-448.909	113.814	0.078	-0.095
-447.895	800.000	-0.021	0.076
-446.880	478.644	0.115	0.260
-445.865	-121.454	-0.300	-0.050
-444.851	74.747	-0.214	-0.224
-443.836	800.000	0.101	-0.323
-442.822	276.216	-0.046	0.082
-441.807	690.825	-0.070	0.182
-440.792	-126.205	-0.065	-0.010
-439.778	-64.398	0.099	0.040
-438.763	-66.967	-0.237	-0.093
-437.749	2.683	0.183	-0.132
-436.734	-10.036	-0.426	0.282
-435.719	-47.275	0.278	-0.135
-434.705	-200.000	-0.014	-0.125
-433.690	398.133	-0.035	0.073
-432.676	800.000	0.067	-0.264
-431.661	-179.967	0.159	0.003
-430.646	169.971	0.055	-0.079
-429.632	-50.421	0.165	0.077
-428.617	-197.674	0.316	-0.002
-427.603	-29.958	0.157	0.089
-426.588	157.484	-0.224	-0.308
-425.573	-149.460	0.084	0.007
-424.559	-159.686	0.092	-0.005
-423.544	190.905	0.033	-0.049
-422.530	800.000	0.116	0.340
-421.515	119.104	0.200	-0.246
-420.500	800.000	-0.103	0.382
-419.486	-16.580	-0.227	-0.143
-418.471	-8.756	-0.104	0.070
-417.457	-200.000	0.040	0.228
-416.442	-101.111	0.060	0.015
-415.428	224.210	0.066	-0.106
-414.413	-45.885	-0.428	0.210
-413.398	-94.008	-0.136	-0.037
-412.384	-200.000	-0.060	-0.393
-411.369	800.000	-0.063	-0.244
-410.355	-58.077	-0.050	-0.022
-409.340	26.400	0.131	-0.110
-408.325	-200.000	-0.042	0.231
-407.311	800.000	-0.101	0.409
-406.296	317.504	-0.072	0.136
-405.282	-88.404	0.180	-0.054
-404.267	-200.000	-0.011	0.145
-403.252	-200.000	0.042	0.409
-402.238	19.072	0.041	0.033
-401.223	-200.000	-0.032	0.179
-400.209	-57.791	-0.131	0.057
-399.194	-141.504	0.062	-0.006
-398.179	254.045	0.073	0.124
-397.165	-200.000	0.015	-0.142
-396.150	54.782	-0.035	0.033
-395.136	-200.000	-0.001	-0.120
-394.121	244.333	0.047	-0.078
-393.106	-160.631	0.201	0.011
-392.092	-66.452	0.030	-0.012
-391.077	10.881	-0.398	-0.303
-390.063	-200.000	-0.055	0.242
-389.048	206.065	-0.117	0.181
-388.033	-200.000	0.018	0.106
-387.019	-200.000	0.007	0.468
-386.004	-200.000	0.013	0.101
-384.990	-200.000	-0.025	0.197
-383.975	-76.752	-0.254	0.088
-382.960	800.000	0.069	-0.207
-381.946	52.346	0.155	-0.147
-380.931	-102.199	0.164	0.039
-379.917	307.605	0.195	-0.363
-378.902	52.226	0.071	0.068
-377.888	81.867	-0.107	-0.115
-376.873	84.362	-0.118	-0.128
-375.858	422.609	0.171	0.364
-374.844	39.751	0.116	-0.104
-373.829	178.276	0.093	-0.136
-372.815	-15.089	0.071	0.046
-371.800	205.254	-0.132	0.203
-370.785	-91.593	-0.462	0.131
-369.771	-200.000	0.009	0.230
-368.756	-11.432	0.233	-0.153
-367.742	-200.000	0.006	0.040
-366.727	-89.160	0.126	-0.037
-365.712	-200.000	-0.015	-0.112
-364.698	575.578	-0.016	0.040
-363.683	81.390	0.209	-0.224
-362.669	241.894	0.149	0.247
-361.654	62.615	-0.174	0.173
-360.639	41.294	0.266	-0.239
-359.625	53.451	0.136	0.130
-358.610	-57.299	-0.393	-0.172
-357.596	-31.667	0.403	0.225
-356.581	120.278	-0.237	0.293
-355.566	-200.000	-0.015	-0.236
-354.552	-121.834	-0.211	-0.035
-353.537	-21.611	0.155	0.094
-352.523	800.000	-0.055	0.181
-351.508	-19.788	-0.200	0.123
-350.493	369.880	0.180	-0.362
-349.479	800.000	0.065	0.277
-348.464	15.278	0.264	0.206
-347.450	800.000	0.061	0.263
-346.435	30.563	-0.167	-0.142
-345.420	-73.831	-0.187	0.067
-344.406	-200.000	-0.092	-0.507
-343.391	-87.142	0.382	0.116
-342.377	65.647	-0.212	0.214
-341.362	-70.068	0.110	-0.041
-340.348	4.652	0.177	-0.129
-339.333	800.000	-0.065	0.202
-338.318	-51.761	-0.058	0.027
-337.304	431.173	0.121	0.260
-336.289	-14.222	-0.100	-0.064
-335.275	-108.005	-0.083	0.018
-334.260	-164.402	-0.150	0.007
-333.245	800.000	0.060	-0.210
-332.231	4.985	-0.303	0.221
-331.216	-78.559	0.118	0.040
-330.202	-79.510	0.267	0.090
-329.187	186.610	-0.173	-0.256
-328.172	108.923	-0.125	0.148
-327.158	73.724	0.158	0.165
-326.143	-186.088	-0.227	-0.003
-325.129	51.644	-0.038	0.036
-324.114	-0.699	0.198	0.140
-323.099	-137.583	0.158	0.018
-322.085	-13.395	0.156	0.100
-321.070	-33.370	0.076	0.042
-320.056	-200.000	0.031	-0.169
-319.041	178.621	-0.062	-0.090
-318.026	-133.700	0.331	-0.041
-317.012	-200.000	-0.028	-0.253
-315.997	-76.782	-0.352	0.122
-314.983	80.150	-0.120	0.129
-313.968	523.797	0.066	0.154
-312.953	-167.928	-0.317	0.012
-311.939	600.092	0.057	-0.140
-310.924	80.965	-0.197	-0.210
-309.910	346.916	-0.167	0.325
-308.895	-1.924	-0.047	-0.033
-307.880	-200.000	-0.002	0.138
-306.866	-200.000	-0.007	0.352
-305.851	91.824	0.185	0.206
-304.837	623.682	0.187	0.467
-303.822	231.634	0.063	-0.102
-302.807	-32.173	-0.245	-0.136
-301.793	-122.251	-0.082	-0.013
-300.778	-200.000	0.037	-0.352
-299.764	-200.000	0.059	-0.328
-298.749	-200.000	0.012	0.190
-297.735	245.214	-0.319	0.532
-296.720	-200.000	-0.027	-0.272
-295.705	-200.000	0.007	0.043
-294.691	404.908	0.052	-0.108
-293.676	-57.576	-0.213	0.093
-292.662	800.000	-0.073	-0.267
-291.647	155.495	-0.024	0.033
-290.632	-10.794	0.235	0.154
-289.618	163.172	0.061	-0.085
-288.603	-95.181	-0.165	0.044
-287.589	-23.007	-0.103	0.061
-286.574	-39.352	0.481	0.250
-285.559	-123.430	-0.170	-0.027
-284.545	-54.906	0.085	-0.038
-283.530	-200.000	-0.043	-0.218
-282.516	-62.370	0.101	-0.042
-281.501	800.000	-0.057	0.176
-280.486	-190.965	0.158	0.002
-279.472	-83.785	0.259	-0.082
-278.457	-100.633	-0.260	-0.064
-277.443	800.000	-0.011	-0.046
-276.428	657.917	0.011	0.029
-275.413	-57.821	0.371	-0.161
-274.399	-200.000	0.010	0.253
-273.384	-200.000	0.004	0.475
-272.370	-200.000	-0.017	0.076
-271.355	325.753	-0.111	0.210
-270.340	22.252	0.168	0.136
-269.326	800.000	0.089	0.252
-268.311	-12.032	-0.075	-0.048
-267.297	-156.466	0.352	-0.022
-266.282	-68.832	0.266	-0.102
-265.267	76.041	0.316	-0.331
-264.253	-200.000	-0.008	-0.360
-263.238	87.626	0.131	0.144
-262.224	-200.000	-0.015	-0.231
-261.209	67.686	-0.025	0.026
-260.195	-200.000	0.022	-0.175
-259.180	123.469	-0.184	0.228
-258.165	-25.272	0.333	-0.195
-257.151	220.667	-0.092	0.146
-256.136	-45.445	0.127	0.062
-255.122	486.366	-0.085	0.192
-254.107	-99.714	-0.145	0.036
-253.092	7.268	0.210	-0.155
-252.078	76.736	0.151	-0.158
-251.063	-200.000	-0.042	0.186
-250.049	-39.586	0.160	0.083
-249.034	-18.949	-0.095	-0.058
-248.019	-7.228	0.162	0.108
-247.005	800.000	0.031	0.098
-245.990	-133.072	-0.321	0.040
-244.976	-200.000	0.017	-0.127
-243.961	-99.885	0.122	0.030
-242.946	800.000	-0.032	0.131
-241.932	-43.175	0.252	-0.126
-240.917	541.286	0.113	0.266
-239.903	800.000	-0.122	0.345
-238.888	168.850	0.093	-0.131
-237.873	654.659	0.101	-0.258
-236.859	140.681	0.065	-0.085
-235.844	-27.594	-0.432	0.248
-234.830	111.022	-0.197	0.235
-233.815	-72.187	-0.107	0.039
-232.800	3.022	0.193	-0.139
-231.786	-67.831	0.076	0.030
-230.771	-42.422	-0.146	-0.074
-229.757	-46.177	-0.257	-0.125
-228.742	800.000	0.012	0.037
-227.727	202.017	0.141	0.214
-226.713	0.147	-0.249	0.176
-225.698	108.446	0.277	0.327
-224.684	222.775	-0.192	0.305
-223.669	-200.000	0.031	-0.246
-222.655	-184.270	0.125	0.002
-221.640	-97.625	-0.189	0.049
-220.625	800.000	0.081	-0.270
-219.611	6.107	-0.136	-0.100
-218.596	193.089	0.277	-0.414
-217.582	800.000	-0.074	-0.314
-216.567	800.000	-0.163	-0.467
-215.552	136.800	0.202	-0.261
-214.538	460.002	0.096	-0.212
-213.523	758.345	0.042	0.112
-212.509	26.917	-0.076	0.063
-211.494	-200.000	-0.016	-0.145
-210.479	105.898	0.045	-0.053
-209.465	-200.000	0.029	0.138
-208.450	-23.194	0.163	-0.097
-207.436	-58.979	-0.131	0.056
-206.421	376.174	0.107	0.216
-205.406	8.420	0.253	0.188
-204.392	-200.000	0.005	0.289
-203.377	-200.000	0.017	0.131
-202.363	800.000	0.027	-0.084
-201.348	-180.737	0.177	-0.004
-200.333	-27.913	-0.177	-0.101
-199.319	-15.511	0.243	0.153
-198.304	-119.263	0.357	-0.062
-197.290	115.036	0.092	-0.111
-196.275	-200.000	-0.027	-0.192
-195.260	-75.960	-0.464	-0.162
-194.246	387.371	-0.028	-0.058
-193.231	-200.000	0.007	0.060
-192.217	-47.566	-0.195	0.093
-191.202	-200.000	-0.018	-0.412
-190.187	-149.761	0.118	0.009
-189.173	50.058	-0.016	-0.015
-188.158	548.252	-0.174	-0.411
-187.144	-200.000	0.020	-0.351
-186.129	23.405	-0.165	-0.134
-185.114	-200.000	-0.062	0.280
-184.100	765.117	0.025	-0.067
-183.085	-56.585	-0.217	0.095
-182.071	530.345	-0.072	-0.169
-181.056	-56.549	-0.264	-0.115
-180.042	-55.094	0.339	0.151
-179.027	20.563	-0.185	0.148
-178.012	-65.091	-0.175	0.070
-176.998	-63.305	-0.278	0.113
-175.983	160.716	-0.096	-0.133
-174.969	-124.483	-0.281	-0.043
-173.954	-200.000	-0.049	-0.272
-172.939	83.497	-0.094	0.101
-171.925	71.163	0.117	0.119
-170.910	279.287	0.072	0.128
-169.896	63.483	0.091	-0.090
-168.881	-133.851	-0.237	-0.029
-167.866	-87.339	-0.081	0.024
-166.852	482.503	0.059	0.133
-165.837	-63.084	0.223	-0.091
-164.823	-200.000	0.005	-0.031
-163.808	800.000	0.027	-0.078
-162.793	357.565	0.087	-0.171
-161.779	-200.000	-0.021	0.202
-160.764	-74.239	-0.288	0.103
-159.750	-30.353	0.036	0.020
-158.735	-46.426	0.128	-0.062
-157.720	-161.972	-0.575	0.029
-156.706	40.323	0.128	-0.113
-155.691	800.000	-0.069	0.233
-154.677	800.000	0.143	-0.418
-153.662	63.235	0.163	0.161
-152.647	90.222	0.192	-0.212
-151.633	-52.724	0.114	0.052
-150.618	-122.427	-0.227	-0.036
-149.604	112.513	0.091	-0.109
-148.589	-167.409	0.267	0.011
-147.574	229.267	0.104	-0.167
-146.560	206.413	0.129	-0.197
-145.545	-31.488	-0.224	-0.124
-144.531	-3.792	-0.123	-0.084
-143.516	15.036	0.245	0.189
-142.502	91.051	-0.158	0.175
-141.487	238.006	0.029	0.047
-140.472	-159.274	0.051	-0.003
-139.458	800.000	-0.057	0.218
-138.443	-110.828	0.176	0.036
-137.429	-119.161	-0.165	0.028
-136.414	32.364	-0.190	-0.161
-135.399	356.323	0.094	-0.185
-134.385	2.472	0.097	0.069
-133.370	-33.865	-0.075	-0.040
-132.356	-14.995	-0.046	-0.029
-131.341	800.000	0.087	0.241
-130.326	800.000	0.051	-0.146
-129.312	-43.268	0.156	0.078
-128.297	-169.964	0.460	0.016
-127.283	23.030	0.126	-0.102
-126.268	-200.000	0.024	0.295
-125.253	368.670	0.233	0.463
-124.239	-77.126	0.213	-0.073
-123.224	-181.289	0.349	0.007
-122.210	800.000	0.086	-0.282
-121.195	465.057	-0.077	-0.169
-120.180	-15.519	0.209	0.131
-119.166	-200.000	-0.070	-0.311
