DTS Sentinel unit serial number:	SN413079Multiplexer serial number:	ORYXHardware model number:	OX4-SRSoftware version number:	ORYX F/W v4.00 Oryx Data Collector v3.7.2.0data status	okinstallation	princeton_trtdifferential loss correction	single-endedforward channel	channel 1reverse channel	N/Adate	2019/09/11time	23:56:11forward acquisition time	60.00reverse acquisition time	0.00gamma	496.2192k internal	0.2319k external	0.2319temperature offset calibration	1.0072default loss term (dB/km)	0.3790temperature slope calibration	1.0000multiplexer offset coefficient	1.0000multiplexer slope coefficient	1.0000fibre end	0.00T internal ref (°C)	33.81T ext. ref 1 (°C)	2.00T ext. ref 2 (°C)	28.13length (m)	temperature (°C)	Stokes	anti-Stokes-747.200	143.057	-0.141	0.190
-746.185	-124.341	-0.297	0.047
-745.171	45.051	0.114	0.106
-744.156	-47.651	0.140	0.069
-743.142	118.558	-0.043	0.054
-742.127	-93.594	0.123	0.034
-741.112	189.400	0.048	0.073
-740.098	-108.604	-0.146	0.032
-739.083	-177.860	0.211	-0.005
-738.069	-34.022	-0.067	0.037
-737.054	421.539	-0.147	-0.318
-736.039	569.257	-0.126	-0.309
-735.025	800.000	0.125	0.370
-734.010	-200.000	-0.006	-0.092
-732.996	76.288	0.148	-0.158
-731.981	-0.524	0.157	0.113
-730.966	537.507	-0.189	0.454
-729.952	81.626	-0.224	0.245
-728.937	638.984	-0.130	-0.333
-727.923	-78.270	-0.202	0.070
-726.908	300.910	-0.162	-0.302
-725.894	358.410	0.119	0.240
-724.879	57.341	-0.165	0.162
-723.864	31.749	0.125	-0.109
-722.850	800.000	-0.079	-0.231
-721.835	131.551	0.120	0.156
-720.821	-169.533	0.115	-0.004
-719.806	160.122	-0.036	-0.051
-718.791	-200.000	-0.005	-0.200
-717.777	121.039	-0.182	0.229
-716.762	-114.597	-0.334	-0.065
-715.748	114.766	0.051	0.063
-714.733	-56.845	-0.157	-0.070
-713.718	48.888	0.019	0.018
-712.704	115.648	-0.193	-0.239
-711.689	-200.000	-0.062	0.397
-710.675	522.497	0.153	0.363
-709.660	800.000	0.170	-0.507
-708.645	-200.000	0.087	-0.395
-707.631	-200.000	-0.009	-0.123
-706.616	245.931	-0.203	0.345
-705.602	-182.883	0.094	0.002
-704.587	800.000	-0.101	0.337
-703.572	800.000	0.088	-0.300
-702.558	516.970	-0.079	0.185
-701.543	144.773	0.186	-0.251
-700.529	508.916	-0.088	-0.205
-699.514	-200.000	-0.039	-0.298
-698.499	765.244	-0.144	-0.394
-697.485	248.749	-0.240	-0.411
-696.470	-5.598	-0.275	0.191
-695.456	50.122	0.205	0.195
-694.441	-19.606	-0.112	0.070
-693.426	-200.000	-0.014	-0.134
-692.412	-20.310	0.302	0.188
-691.397	69.303	0.155	0.161
-690.383	-27.621	-0.122	-0.072
-689.368	-84.352	0.183	0.058
-688.354	331.950	-0.244	-0.475
-687.339	-200.000	0.030	-0.185
-686.324	137.015	0.211	-0.279
-685.310	-132.911	-0.392	-0.050
-684.295	-41.832	-0.291	0.150
-683.281	-52.453	-0.234	0.109
-682.266	800.000	-0.082	-0.283
-681.251	-200.000	0.027	-0.143
-680.237	32.239	0.144	0.125
-679.222	76.722	0.165	-0.177
-678.208	90.365	-0.112	0.126
-677.193	-200.000	-0.038	-0.272
-676.178	-200.000	-0.051	-0.259
-675.164	25.249	-0.072	0.060
-674.149	111.341	0.084	0.102
-673.135	-200.000	-0.029	-0.370
-672.120	65.275	0.263	-0.268
-671.105	-200.000	0.009	0.372
-670.091	9.302	0.180	-0.138
-669.076	277.744	0.078	-0.140
-668.062	108.228	-0.075	-0.090
-667.047	-128.646	0.126	0.018
-666.032	800.000	-0.085	0.320
-665.018	800.000	0.163	-0.470
-664.003	-116.684	0.169	0.031
-662.989	-119.911	0.137	-0.024
-661.974	800.000	-0.108	-0.422
-660.959	652.351	0.093	-0.241
-659.945	-59.243	0.208	-0.090
-658.930	-10.665	0.262	-0.175
-657.916	39.760	0.161	0.145
-656.901	-1.957	0.468	0.331
-655.886	-189.711	0.199	-0.002
-654.872	-78.121	-0.156	0.054
-653.857	-200.000	-0.003	-0.360
-652.843	110.850	0.224	-0.271
-651.828	-96.406	-0.220	0.059
-650.814	-61.537	0.182	0.077
-649.799	800.000	-0.099	0.299
-648.784	-77.339	0.109	0.038
-647.770	38.363	-0.280	-0.251
-646.755	800.000	-0.123	-0.386
-645.741	-156.930	0.044	0.003
-644.726	-71.556	0.261	0.098
-643.711	-108.318	-0.298	-0.065
-642.697	-200.000	0.052	-0.254
-641.682	65.646	-0.083	0.084
-640.668	-123.818	0.464	0.074
-639.653	7.620	-0.204	-0.154
-638.638	51.440	0.168	-0.161
-637.624	-104.250	-0.361	-0.084
-636.609	11.603	0.025	0.020
-635.595	800.000	0.126	-0.370
-634.580	49.388	-0.035	0.033
-633.565	-142.191	-0.103	-0.010
-632.551	-200.000	0.048	0.266
-631.536	506.122	0.097	-0.225
-630.522	-167.089	0.136	0.006
-629.507	3.887	-0.240	-0.177
-628.492	-86.380	-0.272	0.084
-627.478	-95.086	-0.374	-0.102
-626.463	222.167	-0.319	-0.517
-625.449	-21.314	-0.166	0.102
-624.434	29.829	0.055	0.047
-623.419	458.893	0.080	0.178
-622.405	154.386	-0.215	0.298
-621.390	48.087	-0.130	0.123
-620.376	-109.960	-0.109	-0.023
-619.361	-78.878	0.204	0.070
-618.346	-200.000	0.044	-0.249
-617.332	-69.748	-0.119	-0.046
-616.317	9.876	0.092	-0.070
-615.303	-74.057	0.186	-0.068
-614.288	-69.589	-0.184	-0.071
-613.273	81.280	0.055	-0.060
-612.259	-105.655	-0.223	-0.051
-611.244	148.300	-0.100	-0.136
-610.230	112.201	-0.112	-0.136
-609.215	73.524	-0.136	-0.144
-608.201	-200.000	-0.032	-0.247
-607.186	6.960	0.350	0.263
-606.171	-83.693	-0.079	0.025
-605.157	-200.000	0.018	0.296
-604.142	-200.000	0.005	0.119
-603.128	800.000	-0.014	-0.043
-602.113	36.055	-0.268	0.237
-601.098	396.351	0.116	-0.244
-600.084	-160.912	0.304	-0.016
-599.069	-200.000	-0.084	-0.413
-598.055	-200.000	-0.079	-0.452
-597.040	512.754	0.029	-0.068
-596.025	693.835	-0.059	0.156
-595.011	-160.951	0.060	0.003
-593.996	-56.074	-0.161	-0.072
-592.982	800.000	0.026	0.105
-591.967	320.712	-0.053	-0.102
-590.952	-91.056	-0.056	-0.016
-589.938	800.000	0.034	-0.112
-588.923	35.722	-0.165	0.146
-587.909	332.978	-0.094	0.183
-586.894	-56.956	-0.176	-0.078
-585.879	66.909	0.151	0.155
-584.865	-200.000	-0.096	-0.427
-583.850	-200.000	0.009	-0.258
-582.836	25.408	-0.236	-0.198
-581.821	800.000	0.048	-0.168
-580.806	-43.472	0.320	-0.162
-579.792	-39.510	0.072	0.038
-578.777	-156.413	-0.190	-0.012
-577.763	50.830	0.293	-0.279
-576.748	60.236	-0.164	-0.163
-575.733	-71.918	-0.159	0.059
-574.719	-200.000	-0.008	0.192
-573.704	-102.868	0.127	-0.030
-572.690	738.045	0.109	-0.294
-571.675	-200.000	-0.042	-0.364
-570.661	-200.000	0.026	-0.155
-569.646	481.395	0.166	-0.379
-568.631	-68.482	-0.016	0.006
-567.617	800.000	0.101	-0.329
-566.602	679.318	-0.066	-0.172
-565.588	-48.926	0.264	-0.127
-564.573	800.000	-0.037	-0.153
-563.558	-130.856	-0.261	0.035
-562.544	-127.735	-0.523	0.076
-561.529	28.590	-0.121	0.103
-560.515	61.422	0.149	0.149
-559.500	-200.000	-0.014	-0.303
-558.485	-137.546	-0.211	-0.024
-557.471	97.724	-0.079	0.092
-556.456	-200.000	0.047	0.329
-555.442	-200.000	0.035	0.280
-554.427	800.000	0.145	0.516
-553.412	-183.383	0.208	0.004
-552.398	-156.269	0.510	0.032
-551.383	256.353	-0.146	-0.252
-550.369	132.708	-0.182	-0.236
-549.354	386.379	0.015	0.030
-548.339	-200.000	-0.041	0.186
-547.325	-132.600	-0.170	0.022
-546.310	-200.000	-0.015	-0.169
-545.296	-200.000	0.030	-0.141
-544.281	-23.755	-0.114	0.069
-543.266	-125.602	0.117	0.018
-542.252	-200.000	0.056	0.259
-541.237	-72.546	0.146	0.054
-540.223	98.209	0.211	0.244
-539.208	466.313	0.152	0.341
-538.193	800.000	-0.057	0.247
-537.179	-138.317	0.124	0.014
-536.164	395.057	0.056	0.117
-535.150	404.204	-0.059	0.124
-534.135	196.794	-0.222	-0.339
-533.121	800.000	0.043	0.142
-532.106	151.953	-0.140	-0.191
-531.091	-167.025	0.190	-0.008
-530.077	800.000	-0.043	-0.159
-529.062	-123.497	-0.146	-0.023
-528.048	70.292	0.354	0.367
-527.033	-200.000	0.034	0.284
-526.018	600.740	0.019	0.048
-525.004	507.374	0.085	0.199
-523.989	-41.072	-0.161	0.083
-522.975	348.576	-0.062	-0.123
-521.960	-84.270	-0.147	-0.047
-520.945	-78.925	-0.231	-0.079
-519.931	-125.975	-0.269	0.041
-518.916	-127.178	-0.059	-0.009
-517.902	-84.699	0.242	0.076
-516.887	800.000	0.081	0.278
-515.872	-54.755	-0.114	0.051
-514.858	178.032	0.231	0.337
-513.843	-186.707	0.268	0.004
-512.829	-200.000	0.064	0.408
-511.814	490.598	0.155	0.357
-510.799	341.744	-0.082	0.160
-509.785	-6.064	0.095	-0.065
-508.770	-169.222	0.122	-0.005
-507.756	-90.212	-0.206	-0.060
-506.741	-123.946	-0.241	0.038
-505.726	-200.000	0.000	0.337
-504.712	-103.135	0.191	0.045
-503.697	-4.523	-0.091	-0.063
-502.683	472.193	0.043	0.098
-501.668	14.619	-0.207	0.162
-500.653	494.766	0.059	0.135
-499.639	-97.785	0.356	0.092
-498.624	800.000	0.019	-0.071
-497.610	-33.362	-0.089	0.049
-496.595	800.000	-0.038	-0.134
-495.581	-49.552	-0.130	-0.062
-494.566	0.895	-0.145	0.104
-493.551	601.340	0.068	0.168
-492.537	-200.000	0.008	0.222
-491.522	96.173	-0.089	-0.102
-490.508	-107.201	-0.340	0.075
-489.493	37.579	0.194	-0.172
-488.478	15.227	-0.245	-0.192
-487.464	196.145	0.120	-0.183
-486.449	-90.195	-0.288	-0.084
-485.435	19.456	-0.055	0.044
-484.420	221.435	-0.275	0.443
-483.405	80.994	0.238	0.258
-482.391	-15.349	-0.418	0.267
-481.376	-200.000	-0.021	0.136
-480.362	144.632	0.182	0.244
-479.347	-78.466	-0.579	-0.199
-478.332	93.226	0.127	0.144
-477.318	380.589	-0.115	-0.236
-476.303	-3.727	0.321	-0.223
-475.289	-185.445	0.169	-0.003
-474.274	89.395	0.091	0.102
-473.259	53.395	0.108	0.103
-472.245	-166.005	0.054	-0.002
-471.230	199.103	0.236	0.362
-470.216	-38.417	-0.078	-0.041
-469.201	24.858	0.288	-0.239
-468.186	-151.078	0.360	-0.027
-467.172	800.000	0.111	0.408
-466.157	237.324	-0.110	0.182
-465.143	-200.000	0.065	-0.304
-464.128	118.161	0.216	-0.267
-463.113	79.530	0.155	0.166
-462.099	91.358	0.160	0.180
-461.084	800.000	0.035	0.130
-460.070	800.000	-0.035	-0.097
-459.055	128.121	-0.242	-0.308
-458.040	-200.000	0.044	0.249
-457.026	-95.497	0.186	-0.050
-456.011	800.000	0.081	-0.257
-454.997	-40.536	-0.197	-0.102
-453.982	-200.000	-0.008	0.080
-452.968	-147.225	-0.138	-0.012
-451.953	-43.600	0.327	-0.165
-450.938	-101.345	0.177	0.043
-449.924	-200.000	-0.038	-0.387
-448.909	-105.323	0.310	0.071
-447.895	113.426	-0.053	0.064
-446.880	-6.404	-0.135	0.092
-445.865	-200.000	0.034	0.242
-444.851	65.349	0.256	0.259
-443.836	-200.000	-0.041	-0.212
-442.822	-92.811	0.296	-0.083
-441.807	-143.768	-0.533	0.050
-440.792	557.663	0.017	0.041
-439.778	-117.582	0.119	-0.021
-438.763	119.163	-0.186	0.230
-437.749	159.804	-0.115	-0.159
-436.734	365.803	0.224	0.451
-435.719	415.895	-0.094	-0.199
-434.705	-68.334	-0.065	0.025
-433.690	-200.000	0.413	0.002
-432.676	30.401	0.109	0.093
-431.661	-200.000	0.048	-0.296
-430.646	561.809	0.055	-0.132
-429.632	-96.780	0.251	0.066
-428.617	-121.520	0.240	0.040
-427.603	-132.963	-0.406	0.052
-426.588	-61.724	-0.220	-0.092
-425.573	-35.930	0.251	0.136
-424.559	459.048	-0.043	0.097
-423.544	58.648	-0.034	0.033
-422.530	7.433	-0.236	0.176
-421.515	-200.000	-0.010	-0.160
-420.500	-19.025	-0.200	-0.124
-419.486	-130.537	-0.193	0.026
-418.471	-70.469	-0.128	0.048
-417.457	800.000	0.057	0.238
-416.442	800.000	0.077	-0.259
-415.428	-119.868	0.239	-0.041
-414.413	-200.000	0.038	-0.292
-413.398	800.000	-0.122	-0.347
-412.384	-200.000	-0.004	-0.330
-411.369	-68.652	0.273	0.105
-410.355	328.459	-0.158	-0.303
-409.340	-115.238	0.494	-0.093
-408.325	110.755	0.112	0.134
-407.311	-74.344	-0.350	0.126
-406.296	158.462	-0.119	-0.166
-405.282	75.503	0.067	-0.071
-404.267	-93.992	0.105	0.029
-403.252	274.375	-0.037	0.066
-402.238	800.000	0.036	0.137
-401.223	-200.000	0.015	0.178
-400.209	-200.000	-0.024	0.516
-399.194	26.957	0.076	0.064
-398.179	35.012	-0.043	0.038
-397.165	449.772	-0.190	-0.419
-396.150	36.153	-0.164	0.144
-395.136	18.162	-0.081	-0.064
-394.121	241.481	-0.134	0.224
-393.106	800.000	-0.105	-0.387
-392.092	-146.613	-0.097	-0.008
-391.077	-200.000	0.052	0.237
-390.063	-105.041	0.582	0.133
-389.048	-62.480	-0.128	-0.053
-388.033	800.000	0.062	0.177
-387.019	-2.425	-0.096	-0.067
-386.004	187.520	-0.358	-0.533
-384.990	-200.000	-0.076	-0.449
-383.975	-15.318	-0.130	0.083
-382.960	-118.347	-0.116	-0.021
-381.946	800.000	0.033	0.101
-380.931	108.453	-0.124	-0.147
-379.917	-124.863	0.193	-0.030
-378.902	-90.752	-0.158	0.045
-377.888	800.000	0.048	-0.147
-376.873	106.691	0.025	-0.030
-375.858	800.000	0.096	0.362
-374.844	-200.000	0.016	-0.157
-373.829	-118.422	0.061	-0.011
-372.815	457.478	-0.032	-0.072
-371.800	-71.837	-0.156	-0.058
-370.785	50.404	0.172	0.162
-369.771	-73.368	0.259	-0.094
-368.756	-48.647	0.061	-0.029
-367.742	335.070	-0.038	0.074
-366.727	800.000	-0.099	-0.295
-365.712	-10.242	0.097	0.064
-364.698	25.592	0.024	-0.020
-363.683	-70.202	0.142	0.054
-362.669	-200.000	0.015	0.092
-361.654	87.936	-0.076	0.083
-360.639	93.603	-0.200	-0.226
-359.625	709.934	-0.055	0.145
-358.610	800.000	0.081	0.255
-357.596	138.045	-0.140	0.183
-356.581	312.632	-0.112	0.210
-355.566	-200.000	-0.010	0.261
-354.552	696.762	-0.039	-0.102
-353.537	50.340	0.232	0.218
-352.523	-120.764	-0.262	0.044
-351.508	-200.000	0.008	0.069
-350.493	121.108	0.090	-0.112
-349.479	-200.000	-0.147	0.000
-348.464	-120.950	-0.368	-0.062
-347.450	172.758	0.137	-0.197
-346.435	612.923	0.070	0.174
-345.420	368.945	0.227	0.458
-344.406	-193.340	0.043	-0.000
-343.391	800.000	0.048	0.163
-342.377	45.044	-0.193	-0.177
-341.362	48.094	-0.044	-0.041
-340.348	-46.099	0.189	0.093
-339.333	111.939	-0.264	-0.317
-338.318	-200.000	0.026	-0.270
-337.304	327.418	0.174	0.332
-336.289	-200.000	0.011	-0.058
-335.275	37.148	-0.110	-0.097
-334.260	-140.705	0.491	-0.051
-333.245	-153.901	0.141	0.010
-332.231	340.821	-0.069	0.134
-331.216	-200.000	0.026	0.205
-330.202	35.547	-0.013	-0.012
-329.187	-178.314	0.169	-0.004
-328.172	2.994	0.224	0.162
-327.158	-200.000	-0.030	0.295
-326.143	411.562	-0.085	0.181
-325.129	-200.000	0.003	0.162
-324.114	-114.718	0.220	-0.042
-323.099	153.053	-0.158	0.214
-322.085	149.998	0.308	-0.416
-321.070	-200.000	-0.018	-0.358
-320.056	-88.156	-0.168	-0.050
-319.041	23.850	-0.165	-0.135
-318.026	-115.456	0.296	0.056
-317.012	166.637	-0.183	0.259
-315.997	-87.734	0.235	-0.071
-314.983	-58.573	0.183	-0.079
-313.968	275.168	0.148	-0.262
-312.953	-200.000	0.040	-0.235
-311.939	-200.000	-0.015	-0.336
-310.924	-200.000	0.008	0.355
-309.910	202.604	-0.134	-0.206
-308.895	3.911	0.190	0.138
-307.880	800.000	-0.045	-0.135
-306.866	-200.000	0.003	-0.142
-305.851	638.730	-0.132	-0.334
-304.837	-200.000	-0.045	0.246
-303.822	37.176	-0.108	0.095
-302.807	800.000	-0.149	-0.555
-301.793	290.273	0.172	0.311
-300.778	389.232	-0.090	-0.186
-299.764	-14.775	-0.335	-0.214
-298.749	149.364	-0.196	-0.264
-297.735	-200.000	0.021	-0.161
-296.720	-153.873	0.136	0.009
-295.705	-13.625	-0.273	0.176
-294.691	-141.756	0.266	0.026
-293.676	-200.000	-0.014	0.341
-292.662	800.000	0.096	-0.265
-291.647	446.330	-0.062	0.136
-290.632	-46.660	-0.171	-0.083
-289.618	-186.697	0.397	0.006
-288.603	413.266	0.089	-0.187
-287.589	-75.167	-0.160	0.057
-286.574	162.146	0.106	-0.148
-285.559	-88.056	0.215	0.064
-284.545	-200.000	0.012	0.099
-283.530	138.493	0.215	0.280
-282.516	514.263	-0.094	0.219
-281.501	-99.549	-0.092	-0.023
-280.486	-32.068	0.185	-0.103
-279.472	77.772	0.130	0.138
-278.457	-200.000	-0.020	-0.390
-277.443	-40.918	-0.039	-0.020
-276.428	-200.000	-0.009	0.127
-275.413	8.505	0.150	0.112
-274.399	60.406	-0.233	0.229
-273.384	-126.600	0.444	-0.065
-272.370	-46.453	0.416	-0.203
-271.355	305.895	-0.175	0.323
-270.340	224.222	0.152	0.244
-269.326	800.000	-0.033	-0.129
-268.311	-200.000	0.026	-0.180
-267.297	-49.945	-0.151	0.071
-266.282	800.000	0.085	-0.305
-265.267	-53.130	0.208	0.095
-264.253	143.553	0.036	0.047
-263.238	-69.455	0.176	0.067
-262.224	-6.406	0.027	-0.018
-261.209	-43.397	-0.269	-0.135
-260.195	-200.000	0.042	-0.238
-259.180	64.764	-0.165	-0.166
-258.165	8.549	-0.158	-0.118
-257.151	-122.177	-0.088	-0.014
-256.136	800.000	-0.035	0.100
-255.122	133.918	-0.138	0.178
-254.107	767.953	0.186	-0.502
-253.092	-78.849	0.512	-0.173
-252.078	472.847	-0.013	0.029
-251.063	-200.000	0.000	0.123
-250.049	564.012	-0.139	-0.335
-249.034	-47.834	-0.221	0.106
-248.019	-200.000	0.010	0.063
-247.005	336.493	-0.101	-0.194
-245.990	-59.756	0.071	-0.030
-244.976	173.268	-0.114	-0.164
-243.961	-129.715	-0.373	-0.051
-242.946	800.000	-0.033	-0.098
-241.932	132.860	-0.163	0.209
-240.917	239.211	-0.204	0.337
-239.903	112.470	0.070	0.084
-238.888	-157.838	0.239	-0.014
-237.873	-200.000	0.039	-0.354
-236.859	800.000	0.043	0.177
-235.844	-200.000	0.060	-0.291
-234.830	74.071	-0.166	0.173
-233.815	-56.504	0.132	-0.058
-232.800	-133.403	-0.242	0.030
-231.786	-200.000	0.007	0.226
-230.771	-200.000	0.014	-0.082
-229.757	-37.692	0.326	0.172
-228.742	83.865	0.039	-0.042
-227.727	800.000	-0.045	0.180
-226.713	300.215	0.098	0.180
-225.698	47.544	-0.235	0.217
-224.684	-97.593	-0.253	0.065
-223.669	128.109	0.157	0.198
-222.655	-200.000	-0.014	0.098
-221.640	-19.417	0.060	0.037
-220.625	-137.183	-0.308	-0.035
-219.611	216.159	-0.025	0.040
-218.596	36.432	0.113	-0.099
-217.582	-28.028	0.245	-0.141
-216.567	248.787	0.073	0.122
-215.552	-200.000	0.057	0.278
-214.538	0.659	0.218	0.155
-213.523	795.545	-0.037	0.101
-212.509	-200.000	0.005	-0.136
-211.494	-200.000	0.008	0.436
-210.479	666.972	0.109	0.279
-209.465	26.724	-0.113	-0.094
-208.450	250.202	-0.080	-0.134
-207.436	638.961	0.049	-0.122
-206.421	800.000	0.096	0.298
-205.406	-30.849	-0.410	0.230
-204.392	800.000	-0.064	0.217
-203.377	141.103	-0.036	0.047
-202.363	80.341	0.176	0.187
-201.348	-200.000	0.075	-0.334
-200.333	64.850	-0.124	0.124
-199.319	-200.000	-0.060	-0.309
-198.304	-46.886	0.257	-0.124
-197.290	-116.881	0.192	0.035
-196.275	800.000	-0.043	0.178
-195.260	-5.801	-0.149	-0.101
-194.246	402.583	-0.032	-0.068
-193.231	48.048	-0.220	0.204
-192.217	778.269	0.265	0.718
-191.202	115.464	0.232	0.280
-190.187	791.670	0.160	0.435
-189.173	-200.000	-0.075	-0.334
-188.158	-166.996	-0.310	0.013
-187.144	-33.485	0.169	0.093
-186.129	-60.032	-0.136	0.057
-185.114	-99.686	0.201	0.050
-184.100	-137.126	-0.189	-0.021
-183.085	-200.000	0.070	-0.330
-182.071	791.616	0.115	-0.314
-181.056	-12.037	0.251	-0.163
-180.042	399.923	-0.185	-0.384
-179.027	-193.752	-0.204	0.002
-178.012	-18.463	-0.238	-0.147
-176.998	165.036	0.266	-0.371
-175.983	130.665	-0.115	0.146
-174.969	2.873	-0.142	0.102
-173.954	-93.762	-0.039	0.011
-172.939	-200.000	0.020	-0.367
-171.925	123.539	-0.053	0.066
-170.910	-189.162	-0.170	0.002
-169.896	702.408	0.075	0.195
-168.881	-10.740	-0.097	0.063
-167.866	-200.000	-0.024	0.247
-166.852	54.460	-0.247	0.236
-165.837	-83.163	0.135	0.043
-164.823	-187.246	0.304	0.004
-163.808	-200.000	-0.014	-0.105
-162.793	185.304	-0.006	-0.008
-161.779	-120.059	0.370	0.063
-160.764	-113.526	0.189	-0.037
-159.750	800.000	-0.076	-0.243
-158.735	-200.000	-0.006	-0.210
-157.720	211.183	0.195	-0.303
-156.706	-200.000	0.007	0.105
-155.691	-70.368	-0.272	0.102
-154.677	800.000	-0.129	-0.353
-153.662	-178.391	-0.390	0.009
-152.647	195.770	-0.086	0.129
-151.633	174.332	-0.081	0.116
-150.618	3.279	0.247	0.177
-149.604	52.073	0.037	-0.035
-148.589	-200.000	0.003	-0.081
-147.574	800.000	0.038	-0.113
-146.560	-166.106	-0.118	-0.005
-145.545	-200.000	0.016	0.310
-144.531	-7.269	-0.229	0.153
-143.516	55.220	-0.230	-0.220
-142.502	15.283	0.179	-0.139
-141.487	-86.130	0.114	0.035
-140.472	99.039	-0.184	0.210
-139.458	118.395	0.061	-0.074
-138.443	-200.000	-0.001	0.140
-137.429	318.742	0.092	-0.173
-136.414	-116.793	0.251	-0.045
-135.399	-40.230	0.157	-0.081
-134.385	-104.264	0.327	-0.075
-133.370	130.173	-0.048	-0.061
-132.356	-78.157	0.099	0.034
-131.341	-4.506	0.268	-0.183
-130.326	22.517	0.162	0.131
-129.312	544.926	0.134	0.317
-128.297	544.374	0.046	-0.109
-127.283	-200.000	-0.027	0.131
-126.268	-200.000	-0.017	-0.074
-125.253	-99.670	-0.302	0.075
-124.239	37.983	-0.362	0.318
-123.224	-127.565	0.242	-0.035
-122.210	-42.675	-0.122	0.062
-121.195	-200.000	-0.027	-0.318
