DTS Sentinel unit serial number:	SN413079Multiplexer serial number:	ORYXHardware model number:	OX4-SRSoftware version number:	ORYX F/W v4.00 Oryx Data Collector v3.7.2.0data status	okinstallation	princeton_trtdifferential loss correction	single-endedforward channel	channel 1reverse channel	N/Adate	2019/09/11time	10:28:11forward acquisition time	60.00reverse acquisition time	0.00gamma	496.2192k internal	0.2299k external	0.2299temperature offset calibration	0.9955default loss term (dB/km)	0.3790temperature slope calibration	1.0000multiplexer offset coefficient	1.0000multiplexer slope coefficient	1.0000fibre end	0.00T internal ref (°C)	36.31T ext. ref 1 (°C)	0.16T ext. ref 2 (°C)	32.56length (m)	temperature (°C)	Stokes	anti-Stokes-747.200	10.642	0.183	-0.143
-746.185	800.000	0.033	0.110
-745.171	397.641	-0.109	0.233
-744.156	-1.057	0.277	-0.200
-743.142	-160.069	-0.135	-0.007
-742.127	161.040	0.260	0.370
-741.112	-141.566	0.201	0.021
-740.098	121.915	-0.115	-0.146
-739.083	-12.939	-0.415	-0.276
-738.069	66.162	0.170	0.176
-737.054	89.703	0.166	0.189
-736.039	800.000	0.076	-0.258
-735.025	35.098	0.181	-0.162
-734.010	-69.981	-0.341	0.133
-732.996	-200.000	-0.025	0.211
-731.981	-127.523	-0.265	0.039
-730.966	-140.324	0.380	-0.040
-729.952	-51.801	0.097	0.046
-728.937	-200.000	-0.006	0.141
-727.923	561.102	-0.074	0.182
-726.908	-115.722	-0.248	-0.047
-725.894	142.647	-0.031	0.041
-724.879	449.640	-0.098	-0.220
-723.864	-53.482	0.184	-0.086
-722.850	800.000	0.042	-0.161
-721.835	-125.405	0.092	0.014
-720.821	-99.664	0.211	-0.054
-719.806	132.391	0.110	0.144
-718.791	359.694	-0.150	0.306
-717.777	-106.610	-0.244	-0.055
-716.762	120.504	-0.277	0.351
-715.748	-159.899	-0.302	0.017
-714.733	92.052	-0.210	0.241
-713.718	69.758	-0.203	-0.213
-712.704	10.170	-0.139	-0.108
-711.689	-200.000	0.014	-0.222
-710.675	83.561	-0.126	-0.141
-709.660	-200.000	-0.019	0.089
-708.645	800.000	0.081	0.335
-707.631	-167.777	-0.253	-0.010
-706.616	-200.000	-0.017	-0.382
-705.602	-200.000	0.001	0.103
-704.587	800.000	0.021	0.066
-703.572	262.478	0.105	-0.185
-702.558	-62.073	0.370	0.157
-701.543	800.000	0.050	-0.213
-700.529	-200.000	0.016	0.099
-699.514	-1.319	-0.215	0.155
-698.499	35.864	0.261	0.233
-697.485	-17.241	0.074	-0.047
-696.470	800.000	-0.079	-0.288
-695.456	-155.255	0.191	-0.013
-694.441	56.100	0.140	-0.139
-693.426	-200.000	-0.019	-0.344
-692.412	-33.511	-0.277	0.156
-691.397	-144.200	-0.283	-0.027
-690.383	-41.663	0.225	0.118
-689.368	-200.000	-0.011	-0.201
-688.354	-10.790	-0.067	0.045
-687.339	-200.000	-0.002	0.022
-686.324	-47.778	-0.271	-0.134
-685.310	145.397	-0.175	-0.238
-684.295	-143.779	-0.120	0.012
-683.281	-138.642	-0.242	-0.027
-682.266	-47.131	-0.125	-0.062
-681.251	670.606	0.013	-0.035
-680.237	185.057	-0.119	-0.179
-679.222	-64.510	-0.066	0.027
-678.208	-127.262	0.096	-0.014
-677.193	-200.000	0.001	-0.433
-676.178	149.654	-0.210	-0.289
-675.164	137.048	0.209	-0.277
-674.149	-105.406	0.345	-0.080
-673.135	78.241	-0.281	-0.305
-672.120	-200.000	-0.044	-0.349
-671.105	150.252	-0.092	-0.127
-670.091	-52.372	-0.208	-0.098
-669.076	112.841	0.115	-0.141
-668.062	-173.152	-0.288	0.009
-667.047	-55.592	0.083	0.038
-666.032	243.780	-0.113	0.193
-665.018	-26.301	0.333	0.199
-664.003	36.559	-0.210	0.189
-662.989	-51.720	0.162	-0.077
-661.974	-70.962	0.324	0.124
-660.959	-4.866	-0.239	-0.167
-659.945	-200.000	-0.028	-0.491
-658.930	-200.000	-0.010	-0.255
-657.916	254.778	0.139	0.241
-656.901	104.293	-0.059	0.071
-655.886	324.688	-0.068	-0.133
-654.872	-147.057	0.371	0.032
-653.857	189.063	-0.186	-0.283
-652.843	-37.451	0.115	0.062
-651.828	295.405	-0.105	0.196
-650.814	61.253	-0.149	-0.150
-649.799	168.534	-0.085	-0.123
-648.784	388.330	-0.166	-0.348
-647.770	-124.631	0.042	-0.007
-646.755	73.680	0.182	-0.194
-645.741	246.876	0.109	-0.188
-644.726	-33.154	0.342	0.193
-643.711	-158.356	-0.474	0.028
-642.697	-200.000	0.013	0.135
-641.682	-33.989	-0.049	-0.027
-640.668	189.220	0.160	-0.244
-639.653	-200.000	0.094	-0.473
-638.638	-200.000	-0.025	0.161
-637.624	3.688	0.130	0.097
-636.609	29.052	0.135	0.116
-635.595	-200.000	-0.056	-0.256
-634.580	800.000	-0.046	0.203
-633.565	378.882	-0.111	-0.231
-632.551	800.000	-0.116	-0.382
-631.536	-73.979	-0.276	0.102
-630.522	-55.141	-0.236	0.108
-629.507	192.825	0.147	-0.225
-628.492	-124.192	-0.120	0.019
-627.478	-43.473	-0.194	0.100
-626.463	298.262	-0.086	-0.161
-625.449	15.277	-0.026	0.021
-624.434	573.487	-0.126	-0.311
-623.419	800.000	0.086	-0.324
-622.405	-200.000	-0.031	-0.160
-621.390	2.480	-0.098	0.072
-620.376	-152.470	-0.074	0.005
-619.361	186.503	0.161	-0.244
-618.346	676.523	0.082	-0.215
-617.332	326.272	-0.073	-0.141
-616.317	800.000	-0.013	-0.056
-615.303	342.637	0.080	0.159
-614.288	-200.000	0.255	0.000
-613.273	34.699	-0.106	-0.094
-612.259	-29.194	-0.166	0.097
-611.244	40.874	-0.091	0.083
-610.230	28.116	-0.100	-0.086
-609.215	-97.367	-0.091	-0.024
-608.201	-163.666	-0.228	-0.011
-607.186	-40.709	-0.200	0.105
-606.171	800.000	0.109	0.381
-605.157	-5.561	-0.321	-0.224
-604.142	-117.670	-0.142	0.026
-603.128	-100.153	-0.118	-0.030
-602.113	-151.617	0.324	0.024
-601.098	-125.549	0.440	-0.068
-600.084	-78.500	0.102	-0.035
-599.069	-200.000	-0.013	0.179
-598.055	390.019	0.176	-0.370
-597.040	-200.000	-0.010	-0.187
-596.025	-200.000	-0.080	-0.465
-595.011	-200.000	-0.053	-0.339
-593.996	800.000	0.066	-0.204
-592.982	-200.000	0.033	-0.301
-591.967	682.016	0.081	-0.213
-590.952	-109.473	-0.575	0.123
-589.938	222.955	0.154	0.251
-588.923	-200.000	0.035	-0.247
-587.909	-79.365	-0.264	-0.091
-586.894	492.191	-0.086	0.200
-585.879	87.687	0.185	-0.208
-584.865	-111.471	0.384	0.079
-583.850	-58.336	0.048	0.021
-582.836	-65.550	0.187	0.076
-581.821	13.158	-0.122	0.096
-580.806	172.978	0.075	-0.109
-579.792	-5.685	-0.313	0.218
-578.777	800.000	0.039	0.109
-577.763	703.606	0.068	0.182
-576.748	-164.453	-0.197	-0.009
-575.733	-200.000	-0.020	-0.176
-574.719	65.282	-0.263	-0.270
-573.704	-200.000	-0.041	-0.385
-572.690	-8.499	0.233	-0.159
-571.675	169.536	0.037	-0.054
-570.661	449.245	0.053	-0.119
-569.646	-200.000	-0.057	0.527
-568.631	138.985	-0.086	0.114
-567.617	800.000	-0.060	0.194
-566.602	-58.890	-0.281	-0.123
-565.588	-194.368	-0.355	-0.003
-564.573	-169.832	0.128	-0.005
-563.558	19.734	0.246	-0.201
-562.544	337.358	-0.060	-0.118
-561.529	-47.783	0.270	-0.133
-560.515	-113.894	0.184	0.036
-559.500	80.608	0.118	0.128
-558.485	83.315	-0.146	0.161
-557.471	349.973	-0.150	0.301
-556.456	401.762	0.107	0.228
-555.442	-91.179	-0.326	0.095
-554.427	-113.666	-0.068	0.013
-553.412	274.658	-0.192	-0.344
-552.398	-17.450	0.248	-0.158
-551.383	-102.994	-0.233	-0.056
-550.369	107.837	-0.112	0.135
-549.354	-139.445	0.142	0.015
-548.339	-200.000	-0.043	-0.398
-547.325	76.042	0.102	-0.109
-546.310	337.296	0.087	0.172
-545.296	-200.000	-0.007	0.347
-544.281	-41.347	0.082	-0.043
-543.266	800.000	0.098	-0.323
-542.252	-117.804	-0.158	-0.029
-541.237	-175.433	-0.395	0.011
-540.223	458.229	-0.058	0.130
-539.208	-75.707	0.247	0.089
-538.193	-178.160	0.102	-0.002
-537.179	39.505	-0.217	0.197
-536.164	10.879	-0.012	0.009
-535.150	-73.701	0.121	0.044
-534.135	10.133	-0.343	-0.264
-533.121	-101.637	0.185	-0.046
-532.106	-149.502	-0.264	0.021
-531.091	-188.196	0.178	0.002
-530.077	-10.870	0.033	0.022
-529.062	784.983	-0.069	0.190
-528.048	-200.000	0.018	-0.372
-527.033	-20.313	0.096	0.060
-526.018	-174.416	-0.135	-0.004
-525.004	800.000	0.089	-0.296
-523.989	49.593	0.049	-0.047
-522.975	-125.987	-0.227	-0.035
-521.960	-200.000	0.019	-0.224
-520.945	800.000	-0.053	0.171
-519.931	414.545	0.082	0.177
-518.916	-111.009	-0.159	-0.033
-517.902	-58.967	-0.260	-0.114
-516.887	159.480	-0.105	-0.148
-515.872	169.773	-0.094	-0.135
-514.858	-134.899	0.100	0.012
-513.843	-149.964	0.182	0.014
-512.829	-163.212	0.433	-0.021
-511.814	83.925	0.132	0.146
-510.799	31.707	0.265	-0.231
-509.785	-90.193	0.161	-0.047
-508.770	-200.000	-0.039	-0.388
-507.756	-200.000	0.010	0.281
-506.741	-38.416	0.157	0.084
-505.726	262.601	-0.040	-0.070
-504.712	4.334	0.053	-0.039
-503.697	-200.000	0.016	0.280
-502.683	-200.000	0.021	0.164
-501.668	-200.000	0.029	-0.181
-500.653	800.000	-0.087	-0.255
-499.639	-122.343	0.230	-0.038
-498.624	63.735	-0.206	0.209
-497.610	444.382	-0.085	0.189
-496.595	179.119	-0.174	0.257
-495.581	94.289	-0.184	0.211
-494.566	-138.525	-0.084	-0.009
-493.551	-142.388	0.490	-0.049
-492.537	-2.080	-0.087	0.062
-491.522	322.107	0.231	0.444
-490.508	-200.000	0.055	-0.272
-489.493	-123.751	0.113	-0.018
-488.478	-185.001	0.116	0.002
-487.464	110.587	0.273	-0.331
-486.449	-200.000	-0.004	0.044
-485.435	246.004	-0.048	0.082
-484.420	800.000	-0.038	-0.118
-483.405	800.000	-0.059	-0.165
-482.391	-200.000	0.010	-0.182
-481.376	-121.878	0.027	-0.005
-480.362	800.000	0.028	-0.105
-479.347	13.777	0.099	-0.078
-478.332	-49.075	0.118	-0.057
-477.318	-200.000	0.040	0.435
-476.303	5.422	0.335	-0.250
-475.289	-67.819	-0.069	0.027
-474.274	42.002	0.052	-0.047
-473.259	516.369	-0.090	0.213
-472.245	42.078	0.077	0.071
-471.230	296.243	-0.092	-0.170
-470.216	-94.510	-0.203	-0.056
-469.201	545.839	-0.185	-0.446
-468.186	197.986	0.173	-0.267
-467.172	800.000	-0.016	0.055
-466.157	405.632	-0.032	-0.068
-465.143	70.382	0.114	-0.119
-464.128	-36.824	0.435	-0.235
-463.113	208.655	0.257	0.406
-462.099	29.306	-0.127	-0.109
-461.084	800.000	-0.038	0.126
-460.070	1.512	0.171	0.124
-459.055	-141.185	-0.263	-0.027
-458.040	19.381	0.267	-0.216
-457.026	-109.852	0.258	0.055
-456.011	258.110	-0.228	0.396
-454.997	-139.752	0.087	-0.009
-453.982	-123.796	0.142	-0.023
-452.968	-200.000	0.003	0.121
-451.953	215.441	-0.028	0.045
-450.938	132.852	-0.168	0.219
-449.924	171.778	0.048	-0.070
-448.909	48.728	0.142	-0.134
-447.895	800.000	0.054	0.154
-446.880	800.000	0.031	0.103
-445.865	-181.126	0.262	0.005
-444.851	-200.000	0.013	-0.132
-443.836	-200.000	0.026	-0.144
-442.822	-46.085	-0.401	-0.199
-441.807	-52.209	0.231	0.108
-440.792	-200.000	-0.017	0.260
-439.778	-71.650	-0.133	0.050
-438.763	-200.000	-0.006	0.067
-437.749	52.275	-0.045	-0.044
-436.734	-126.969	0.344	0.051
-435.719	-200.000	0.015	-0.110
-434.705	-200.000	0.039	-0.219
-433.690	21.904	-0.497	0.408
-432.676	-57.593	0.074	-0.033
-431.661	46.927	-0.167	-0.157
-430.646	-200.000	0.003	-0.050
-429.632	433.681	-0.038	-0.084
-428.617	-200.000	-0.003	-0.027
-427.603	-44.686	0.077	-0.039
-426.588	-86.772	0.045	-0.014
-425.573	-103.533	-0.178	-0.042
-424.559	87.077	-0.036	-0.040
-423.544	-129.796	-0.506	0.070
-422.530	126.022	0.155	-0.197
-421.515	-114.499	-0.268	0.052
-420.500	377.847	-0.170	0.349
-419.486	-56.268	0.075	0.034
-418.471	-184.711	0.014	-0.000
-417.457	72.272	0.368	-0.386
-416.442	-140.636	0.234	0.024
-415.428	-44.047	-0.059	-0.030
-414.413	-16.431	0.286	-0.183
-413.398	213.748	0.083	0.132
-412.384	367.279	-0.082	0.168
-411.369	23.448	0.049	0.040
-410.355	781.103	0.026	0.072
-409.340	-64.523	0.095	0.039
-408.325	-200.000	-0.018	0.181
-407.311	-200.000	0.015	-0.117
-406.296	-9.835	-0.118	-0.079
-405.282	85.339	0.048	-0.053
-404.267	-127.105	-0.320	-0.047
-403.252	-21.799	-0.118	0.072
-402.238	-153.594	-0.050	-0.003
-401.223	-115.438	-0.365	0.069
-400.209	188.751	0.072	-0.109
-399.194	-200.000	-0.000	0.074
-398.179	-7.263	0.041	-0.028
-397.165	215.540	-0.264	0.423
-396.150	55.964	0.048	0.047
-395.136	184.885	-0.123	-0.183
-394.121	203.467	0.164	-0.256
-393.106	-105.641	0.158	-0.036
-392.092	-3.149	-0.158	-0.111
-391.077	420.672	-0.098	-0.212
-390.063	-200.000	0.003	0.282
-389.048	100.801	0.388	0.454
-388.033	-148.250	-0.237	0.020
-387.019	711.126	0.123	-0.327
-386.004	-200.000	0.033	0.318
-384.990	185.216	0.295	-0.441
-383.975	28.967	-0.237	-0.202
-382.960	56.442	-0.293	0.286
-381.946	-95.412	0.373	0.101
-380.931	125.361	-0.131	-0.167
-379.917	213.440	-0.131	0.208
-378.902	-200.000	0.054	-0.274
-377.888	201.107	0.106	0.164
-376.873	-200.000	-0.012	-0.262
-375.858	55.440	0.228	-0.222
-374.844	145.941	-0.184	-0.248
-373.829	800.000	0.064	-0.229
-372.815	511.556	-0.152	0.356
-371.800	-200.000	-0.335	-0.001
-370.785	44.339	-0.211	0.194
-369.771	-83.111	-0.196	0.063
-368.756	35.670	0.123	0.108
-367.742	-7.566	0.228	0.155
-366.727	-44.243	-0.384	0.194
-365.712	462.730	-0.013	0.028
-364.698	-133.374	-0.065	0.008
-363.683	451.544	-0.037	-0.083
-362.669	-22.960	0.318	0.192
-361.654	204.361	-0.068	-0.106
-360.639	166.159	0.119	0.169
-359.625	-12.544	0.149	0.098
-358.610	43.452	0.242	-0.222
-357.596	-63.214	-0.120	-0.050
-356.581	-34.787	-0.247	-0.136
-355.566	-111.055	-0.246	-0.051
-354.552	-33.816	0.392	0.217
-353.537	-41.274	-0.226	-0.117
-352.523	-76.712	-0.287	0.101
-351.508	58.743	0.195	-0.192
-350.493	-200.000	0.036	-0.207
-349.479	109.637	-0.139	0.167
-348.464	-200.000	0.023	-0.194
-347.450	101.508	0.130	-0.152
-346.435	-174.032	0.114	-0.003
-345.420	-25.234	0.294	-0.175
-344.406	-6.835	-0.120	0.082
-343.391	10.499	-0.382	-0.292
-342.377	-200.000	-0.008	0.245
-341.362	200.045	-0.041	-0.063
-340.348	800.000	0.035	-0.148
-339.333	31.221	0.123	-0.106
-338.318	-200.000	0.023	0.303
-337.304	88.811	-0.203	0.227
-336.289	800.000	-0.019	0.085
-335.275	800.000	0.079	0.265
-334.260	-156.105	0.177	0.011
-333.245	-200.000	-0.025	0.142
-332.231	-126.711	0.282	0.042
-331.216	800.000	0.033	0.142
-330.202	-125.064	0.107	0.017
-329.187	109.986	0.090	-0.109
-328.172	-147.687	-0.055	0.005
-327.158	330.260	-0.040	0.078
-326.143	-26.483	-0.213	-0.125
-325.129	-49.949	0.188	-0.089
-324.114	-200.000	0.020	-0.136
-323.099	-41.388	0.293	0.152
-322.085	-200.000	-0.032	-0.317
-321.070	-84.714	-0.252	-0.080
-320.056	51.004	0.280	0.266
-319.041	679.986	0.094	-0.244
-318.026	-103.106	-0.117	-0.028
-317.012	-200.000	-0.017	0.387
-315.997	-25.375	-0.267	0.159
-314.983	-200.000	-0.030	0.271
-313.968	-123.400	-0.327	0.052
-312.953	131.876	-0.167	-0.216
-311.939	800.000	0.067	-0.257
-310.924	762.739	-0.063	-0.171
-309.910	-4.858	-0.084	-0.058
-308.895	-108.722	-0.199	-0.043
-307.880	115.095	-0.048	-0.059
-306.866	-77.839	-0.089	0.031
-305.851	-200.000	0.008	0.103
-304.837	-162.466	-0.142	0.007
-303.822	-179.292	-0.223	0.005
-302.807	54.187	0.220	0.212
-301.793	-200.000	-0.012	0.074
-300.778	-66.879	0.032	-0.013
-299.764	31.793	-0.206	0.178
-298.749	-200.000	0.013	0.312
-297.735	516.668	0.178	0.417
-296.720	-129.377	-0.229	-0.032
-295.705	800.000	0.034	0.118
-294.691	-200.000	0.000	-0.128
-293.676	-50.983	-0.165	-0.078
-292.662	-35.923	-0.124	-0.067
-291.647	800.000	-0.033	-0.122
-290.632	345.363	-0.108	-0.212
-289.618	-200.000	-0.003	0.062
-288.603	-200.000	0.017	0.236
-287.589	604.694	0.046	0.116
-286.574	-115.967	0.208	0.039
-285.559	-200.000	-0.067	0.298
-284.545	-157.956	-0.220	0.013
-283.530	-200.000	-0.005	0.257
-282.516	616.209	-0.118	0.298
-281.501	-130.063	0.275	-0.038
-280.486	40.148	0.106	0.095
-279.472	69.153	-0.128	-0.132
-278.457	189.133	-0.108	-0.162
-277.443	-126.014	-0.260	0.039
-276.428	-47.438	-0.226	-0.110
-275.413	-89.681	0.095	0.028
-274.399	-107.691	0.257	0.056
-273.384	532.622	-0.062	-0.147
-272.370	145.262	-0.165	0.221
-271.355	288.223	-0.127	-0.231
-270.340	53.818	0.290	-0.279
-269.326	550.004	-0.121	-0.290
-268.311	-87.933	0.221	0.067
-267.297	-49.668	0.309	0.147
-266.282	-96.897	0.339	-0.089
-265.267	-200.000	0.073	0.396
-264.253	-167.504	-0.165	0.007
-263.238	-91.001	0.173	-0.050
-262.224	-132.839	0.338	0.043
-261.209	-200.000	0.061	0.291
-260.195	67.368	0.228	0.233
-259.180	800.000	-0.066	0.285
-258.165	51.684	0.195	0.186
-257.151	800.000	0.102	0.308
-256.136	800.000	-0.075	0.233
-255.122	116.513	-0.072	0.089
-254.107	-21.992	0.151	-0.092
-253.092	-88.001	-0.179	-0.054
-252.078	-16.293	-0.243	0.154
-251.063	498.370	-0.088	0.203
-250.049	-200.000	0.014	0.226
-249.034	-54.682	0.181	-0.082
-248.019	-65.306	0.126	-0.051
-247.005	209.449	0.046	0.073
-245.990	-133.070	-0.164	-0.021
-244.976	800.000	-0.102	0.330
-243.961	-8.413	-0.287	0.193
-242.946	-101.550	0.308	0.075
-241.932	401.655	-0.134	0.282
-240.917	-143.612	-0.054	0.005
-239.903	-37.433	0.169	-0.090
-238.888	110.577	0.174	-0.209
-237.873	-113.288	0.400	0.079
-236.859	-88.614	-0.343	-0.102
-235.844	-200.000	-0.037	-0.195
-234.830	-200.000	0.017	0.209
-233.815	-1.112	0.182	0.129
-232.800	110.902	-0.130	0.157
-231.786	-47.853	0.405	0.196
-230.771	-200.000	-0.015	0.093
-229.757	-4.885	-0.162	0.111
-228.742	429.406	0.089	-0.192
-227.727	-200.000	-0.028	-0.172
-226.713	-200.000	-0.011	-0.368
-225.698	-25.200	0.328	0.194
-224.684	800.000	0.115	0.335
-223.669	246.227	-0.075	-0.126
-222.655	800.000	-0.112	-0.388
-221.640	-131.400	-0.044	0.006
-220.625	46.676	0.243	0.226
-219.611	-141.078	0.252	-0.026
-218.596	436.099	-0.037	0.081
-217.582	-93.827	-0.159	-0.044
-216.567	264.028	0.068	0.119
-215.552	-43.528	0.175	-0.088
-214.538	-200.000	-0.019	-0.152
-213.523	-200.000	-0.031	0.153
-212.509	-153.741	0.241	-0.017
-211.494	-85.968	-0.048	-0.015
-210.479	499.618	0.079	-0.181
-209.465	-38.800	-0.157	0.083
-208.450	96.456	-0.082	0.094
-207.436	190.309	-0.205	-0.308
-206.421	-40.055	-0.031	0.016
-205.406	800.000	-0.055	-0.223
-204.392	-200.000	-0.044	0.279
-203.377	31.737	-0.126	-0.109
-202.363	-200.000	-0.027	-0.222
-201.348	119.933	0.154	0.191
-200.333	-130.269	0.271	-0.037
-199.319	-145.981	0.308	-0.027
-198.304	163.716	-0.180	0.253
-197.290	625.276	-0.098	-0.248
-196.275	-0.170	-0.196	0.140
-195.260	-41.221	-0.206	-0.106
-194.246	-200.000	0.047	0.301
-193.231	-57.758	0.128	0.056
-192.217	31.870	0.165	0.142
-191.202	210.420	0.098	0.153
-190.187	112.959	-0.166	0.201
-189.173	-5.656	-0.249	0.171
-188.158	271.305	0.108	-0.189
-187.144	800.000	-0.105	-0.428
-186.129	160.757	-0.149	-0.207
-185.114	14.086	0.332	0.258
-184.100	-200.000	-0.020	-0.205
-183.085	82.689	-0.136	-0.148
-182.071	-50.047	0.333	0.158
-181.056	-106.187	-0.216	-0.048
-180.042	-200.000	-0.024	0.246
-179.027	39.336	0.046	-0.041
-178.012	617.767	0.006	-0.016
-176.998	-200.000	-0.098	0.517
-175.983	283.490	0.144	-0.259
-174.969	98.281	-0.111	0.127
-173.954	-200.000	0.040	-0.184
-172.939	210.857	0.160	0.251
-171.925	-10.796	-0.100	0.066
-170.910	-93.841	0.179	-0.049
-169.896	-151.723	0.068	-0.005
-168.881	-200.000	0.011	0.326
-167.866	-61.113	-0.367	0.154
-166.852	-4.054	0.196	-0.135
-165.837	3.019	-0.081	0.059
-164.823	251.855	0.083	0.141
-163.808	-1.832	0.119	0.084
-162.793	90.209	0.180	0.201
-161.779	-147.852	0.063	0.005
-160.764	-103.023	-0.313	-0.074
-159.750	-200.000	0.033	0.196
-158.735	-94.762	-0.054	-0.015
-157.720	-0.833	0.051	-0.036
-156.706	-79.343	0.084	0.028
-155.691	800.000	0.066	-0.221
-154.677	-200.000	-0.019	0.168
-153.662	85.517	0.043	-0.047
-152.647	373.935	-0.145	-0.295
-151.633	170.149	-0.030	-0.043
-150.618	205.153	0.114	0.176
-149.604	58.887	-0.126	0.124
-148.589	-198.788	-0.202	0.001
-147.574	-85.460	-0.212	-0.066
-146.560	-23.032	-0.159	0.096
-145.545	-200.000	-0.005	0.083
-144.531	276.703	0.142	0.252
-143.516	248.092	0.129	0.217
-142.502	-93.255	0.268	0.074
-141.487	-65.595	0.155	-0.062
-140.472	122.600	0.079	-0.098
-139.458	-200.000	-0.043	-0.316
-138.443	91.553	-0.097	0.109
-137.429	68.381	0.138	-0.141
-136.414	151.980	-0.050	0.068
-135.399	-200.000	0.044	0.212
-134.385	800.000	0.117	0.375
-133.370	800.000	-0.106	0.364
-132.356	-105.417	0.232	0.052
-131.341	41.437	-0.114	0.103
-130.326	-82.545	0.022	0.007
-129.312	-85.546	-0.228	-0.071
-128.297	-111.665	0.540	-0.109
-127.283	-147.000	0.187	-0.016
-126.268	-135.485	0.346	0.041
-125.253	-122.774	-0.085	0.014
-124.239	203.180	-0.176	-0.270
-123.224	800.000	0.110	0.332
-122.210	800.000	0.069	0.231
