DTS Sentinel unit serial number:	SN413079Multiplexer serial number:	ORYXHardware model number:	OX4-SRSoftware version number:	ORYX F/W v4.00 Oryx Data Collector v3.7.2.0data status	okinstallation	princeton_trtdifferential loss correction	single-endedforward channel	channel 1reverse channel	N/Adate	2019/09/16time	14:58:35forward acquisition time	60.00reverse acquisition time	0.00gamma	496.2192k internal	0.2293k external	0.2293temperature offset calibration	0.9953default loss term (dB/km)	0.3790temperature slope calibration	1.0000multiplexer offset coefficient	1.0000multiplexer slope coefficient	1.0000fibre end	0.00T internal ref (°C)	41.23T ext. ref 1 (°C)	14.44T ext. ref 2 (°C)	36.03length (m)	temperature (°C)	Stokes	anti-Stokes-747.200	-149.124	0.169	0.014
-746.185	-83.194	0.007	0.002
-745.171	347.776	0.115	0.231
-744.156	146.684	-0.160	0.221
-743.142	8.205	-0.197	0.151
-742.127	-200.000	-0.081	0.466
-741.112	-115.112	0.007	-0.001
-740.098	-200.000	-0.013	0.264
-739.083	409.160	0.047	0.102
-738.069	486.464	-0.147	0.342
-737.054	800.000	-0.099	-0.326
-736.039	-106.421	0.126	-0.029
-735.025	-45.752	0.140	0.071
-734.010	-88.449	0.039	-0.012
-732.996	-200.000	0.019	-0.243
-731.981	-96.662	-0.269	0.072
-730.966	299.882	-0.079	-0.149
-729.952	-200.000	-0.005	0.110
-728.937	191.904	-0.169	-0.261
-727.923	-70.730	-0.129	-0.050
-726.908	-171.431	-0.102	0.003
-725.894	10.799	-0.296	0.231
-724.879	-200.000	-0.303	0.001
-723.864	-200.000	0.015	-0.179
-722.850	-5.535	-0.249	-0.175
-721.835	-35.917	-0.056	0.031
-720.821	-171.668	-0.328	-0.011
-719.806	78.616	-0.109	-0.119
-718.791	51.184	0.099	0.096
-717.777	-113.236	0.230	0.046
-716.762	95.539	0.068	-0.079
-715.748	-104.527	0.150	0.035
-714.733	100.997	0.168	-0.200
-713.718	-140.167	-0.279	-0.030
-712.704	-200.000	-0.027	-0.184
-711.689	761.470	0.040	0.111
-710.675	-136.501	-0.122	0.014
-709.660	-106.701	-0.060	0.014
-708.645	-200.000	0.008	-0.071
-707.631	-200.000	-0.011	0.293
-706.616	-128.158	0.077	-0.011
-705.602	19.477	0.121	0.100
-704.587	-120.732	-0.355	0.061
-703.572	-64.305	-0.059	0.025
-702.558	-80.906	0.217	0.074
-701.543	-200.000	0.017	0.116
-700.529	-128.741	0.279	-0.040
-699.514	-200.000	0.013	0.142
-698.499	200.354	0.122	-0.191
-697.485	118.784	-0.062	-0.079
-696.470	800.000	0.104	-0.347
-695.456	151.665	-0.194	-0.271
-694.441	-83.184	0.184	-0.060
-693.426	-200.000	-0.057	-0.409
-692.412	134.474	-0.064	-0.084
-691.397	-56.600	0.201	0.091
-690.383	-76.692	0.080	0.029
-689.368	-190.662	-0.275	0.003
-688.354	-200.000	-0.013	-0.102
-687.339	-30.635	-0.330	0.191
-686.324	-46.529	0.129	0.064
-685.310	-200.000	0.034	-0.181
-684.295	-200.000	0.017	0.234
-683.281	-200.000	0.096	0.568
-682.266	-200.000	-0.008	0.163
-681.251	655.726	0.103	-0.269
-680.237	57.946	0.144	-0.143
-679.222	104.409	-0.159	-0.191
-678.208	326.012	-0.107	-0.209
-677.193	-200.000	-0.053	-0.406
-676.178	-64.110	-0.304	-0.126
-675.164	-200.000	-0.009	-0.119
-674.149	-147.685	0.249	-0.021
-673.135	800.000	0.026	0.091
-672.120	800.000	-0.078	-0.287
-671.105	124.457	0.094	-0.121
-670.091	120.091	-0.141	-0.179
-669.076	-200.000	-0.032	-0.229
-668.062	-165.081	0.198	-0.009
-667.047	201.607	-0.186	-0.292
-666.032	108.948	-0.082	0.100
-665.018	129.909	0.119	0.156
-664.003	222.970	-0.077	0.126
-662.989	113.391	-0.219	0.271
-661.974	594.527	0.098	0.247
-660.959	-0.614	-0.329	-0.238
-659.945	-58.311	-0.055	0.024
-658.930	12.292	0.042	-0.033
-657.916	800.000	-0.056	-0.200
-656.901	-145.518	-0.058	-0.005
-655.886	-200.000	-0.061	0.368
-654.872	150.979	-0.123	0.171
-653.857	-109.311	-0.109	0.024
-652.843	-32.157	-0.144	-0.082
-651.828	232.262	0.185	-0.310
-650.814	-38.127	0.115	-0.062
-649.799	-66.877	-0.211	-0.085
-648.784	0.758	-0.070	-0.051
-647.770	-18.484	0.203	-0.129
-646.755	322.740	0.157	0.306
-645.741	-200.000	-0.041	-0.273
-644.726	-82.793	-0.089	0.029
-643.711	-200.000	0.028	-0.525
-642.697	95.266	-0.137	-0.159
-641.682	-138.799	0.318	0.035
-640.668	57.252	-0.225	0.224
-639.653	-200.000	-0.012	0.213
-638.638	-99.754	-0.088	-0.022
-637.624	0.744	0.210	0.153
-636.609	-64.400	0.242	0.100
-635.595	-37.183	-0.430	0.234
-634.580	223.738	-0.267	-0.440
-633.565	800.000	-0.147	-0.446
-632.551	-200.000	0.050	-0.285
-631.536	375.097	0.091	-0.189
-630.522	365.928	0.038	0.078
-629.507	647.620	-0.134	0.348
-628.492	-91.961	0.015	0.004
-627.478	-168.152	-0.089	-0.004
-626.463	297.288	-0.129	-0.242
-625.449	-175.844	-0.198	0.005
-624.434	-102.019	0.071	0.017
-623.419	800.000	0.091	-0.283
-622.405	240.520	0.098	0.166
-621.390	800.000	-0.142	0.425
-620.376	-200.000	0.014	0.085
-619.361	213.862	0.075	0.121
-618.346	334.728	-0.112	0.222
-617.332	-35.676	-0.358	0.198
-616.317	142.530	-0.016	0.021
-615.303	115.834	0.241	0.300
-614.288	-85.832	-0.078	-0.025
-613.273	-200.000	0.008	-0.083
-612.259	-197.923	0.116	-0.001
-611.244	-41.628	-0.121	-0.063
-610.230	412.075	0.053	-0.115
-609.215	800.000	-0.092	-0.307
-608.201	279.548	0.272	-0.493
-607.186	206.693	-0.109	-0.173
-606.171	-102.383	-0.114	0.028
-605.157	-81.536	-0.025	0.009
-604.142	-78.847	-0.362	-0.125
-603.128	-12.736	-0.184	0.122
-602.113	-57.995	-0.172	-0.076
-601.098	-0.115	-0.176	-0.127
-600.084	-200.000	0.034	0.177
-599.069	-200.000	-0.052	0.347
-598.055	49.541	0.192	-0.184
-597.040	411.816	0.173	-0.374
-596.025	44.725	-0.161	-0.151
-595.011	-200.000	-0.016	0.098
-593.996	-23.721	0.287	-0.175
-592.982	9.830	-0.206	-0.159
-591.967	-49.659	-0.249	-0.121
-590.952	292.824	-0.122	0.226
-589.938	150.533	-0.204	0.281
-588.923	800.000	-0.045	-0.182
-587.909	-67.806	-0.230	-0.091
-586.894	-200.000	0.004	0.234
-585.879	-12.943	0.029	0.019
-584.865	-11.723	0.272	0.182
-583.850	-200.000	0.027	-0.146
-582.836	1.584	-0.123	-0.090
-581.821	250.378	0.152	-0.263
-580.806	-10.440	0.223	-0.150
-579.792	-57.448	-0.137	-0.061
-578.777	-200.000	0.054	-0.325
-577.763	-16.813	-0.208	0.134
-576.748	-42.844	-0.215	-0.111
-575.733	-1.833	0.154	-0.110
-574.719	800.000	-0.102	-0.294
-573.704	714.452	-0.062	-0.167
-572.690	130.829	-0.138	-0.180
-571.675	41.595	-0.039	-0.036
-570.661	178.133	0.156	-0.232
-569.646	-33.148	0.243	-0.137
-568.631	383.447	-0.080	-0.168
-567.617	338.801	-0.054	-0.106
-566.602	-44.520	-0.124	-0.063
-565.588	-70.363	0.196	-0.075
-564.573	131.155	-0.028	0.036
-563.558	166.043	-0.080	-0.115
-562.544	89.991	0.106	0.121
-561.529	800.000	-0.028	0.108
-560.515	-119.909	-0.142	0.025
-559.500	-92.941	-0.123	0.035
-558.485	-66.073	-0.174	0.071
-557.471	-39.426	-0.280	0.149
-556.456	-200.000	-0.011	-0.131
-555.442	102.911	-0.208	-0.247
-554.427	217.070	-0.089	-0.144
-553.412	800.000	0.065	-0.239
-552.398	-74.377	0.284	0.104
-551.383	-86.987	-0.108	0.033
-550.369	-200.000	-0.064	-0.447
-549.354	50.478	-0.071	-0.068
-548.339	800.000	-0.079	-0.295
-547.325	20.576	-0.300	0.247
-546.310	120.650	0.033	0.041
-545.296	-86.002	-0.471	0.148
-544.281	-51.032	0.246	-0.117
-543.266	-200.000	0.002	-0.120
-542.252	-0.853	0.112	-0.081
-541.237	657.359	0.076	0.198
-540.223	-200.000	-0.005	-0.087
-539.208	23.593	-0.183	0.153
-538.193	-46.661	0.071	0.035
-537.179	206.915	-0.159	0.252
-536.164	215.066	-0.269	-0.433
-535.150	-200.000	0.034	-0.350
-534.135	452.818	-0.075	-0.169
-533.121	800.000	0.096	-0.292
-532.106	-154.407	-0.439	-0.030
-531.091	-200.000	-0.064	0.419
-530.077	-200.000	0.038	-0.295
-529.062	91.242	-0.131	0.149
-528.048	-22.692	-0.165	0.101
-527.033	800.000	-0.028	-0.117
-526.018	-200.000	-0.000	0.155
-525.004	263.885	0.103	-0.182
-523.989	800.000	-0.111	-0.364
-522.975	67.689	-0.224	-0.232
-521.960	-200.000	-0.049	-0.369
-520.945	-200.000	-0.031	0.145
-519.931	358.053	-0.057	-0.115
-518.916	-112.834	0.039	-0.008
-517.902	-153.141	-0.237	0.017
-516.887	-174.686	-0.177	0.005
-515.872	142.850	-0.076	-0.103
-514.858	-200.000	-0.016	0.081
-513.843	40.785	0.151	-0.138
-512.829	-124.120	0.129	-0.021
-511.814	-82.437	-0.171	-0.056
-510.799	22.583	-0.128	0.107
-509.785	-200.000	0.033	-0.172
-508.770	96.336	0.108	-0.125
-507.756	-98.798	-0.088	-0.023
-506.741	-6.184	-0.306	-0.212
-505.726	800.000	-0.056	-0.195
-504.712	30.533	-0.270	-0.234
-503.697	25.787	0.132	-0.111
-502.683	525.464	0.135	0.323
-501.668	-64.948	0.201	0.082
-500.653	414.780	0.036	-0.077
-499.639	58.162	-0.192	-0.190
-498.624	-200.000	0.004	0.177
-497.610	-143.954	0.213	-0.020
-496.595	18.146	-0.027	0.022
-495.581	89.575	0.286	0.323
-494.566	170.629	-0.030	0.043
-493.551	-200.000	0.062	0.291
-492.537	8.655	-0.054	-0.041
-491.522	-89.562	-0.180	-0.054
-490.508	-147.919	-0.314	-0.027
-489.493	800.000	0.108	0.395
-488.478	154.838	0.195	0.272
-487.464	-121.172	-0.363	0.061
-486.449	-48.477	0.065	0.031
-485.435	-88.391	0.045	0.014
-484.420	0.464	-0.286	-0.207
-483.405	-200.000	-0.033	-0.163
-482.391	-200.000	-0.010	-0.071
-481.376	-16.047	0.211	0.136
-480.362	540.564	0.090	0.216
-479.347	-200.000	-0.010	-0.077
-478.332	-200.000	-0.003	-0.393
-477.318	378.065	0.146	-0.303
-476.303	210.911	0.094	-0.150
-475.289	219.146	0.178	-0.288
-474.274	391.159	-0.113	0.238
-473.259	-92.212	-0.180	-0.052
-472.245	156.769	0.223	-0.313
-471.230	-82.298	0.199	-0.066
-470.216	121.968	-0.099	0.125
-469.201	98.414	0.184	-0.215
-468.186	800.000	-0.089	0.393
-467.172	-123.298	-0.340	-0.055
-466.157	205.631	0.113	-0.178
-465.143	-200.000	-0.022	0.204
-464.128	-113.060	-0.277	0.055
-463.113	-200.000	-0.013	-0.069
-462.099	800.000	0.022	-0.092
-461.084	-128.316	0.207	-0.030
-460.070	62.796	0.084	0.085
-459.055	-118.545	-0.433	0.078
-458.040	-200.000	0.019	-0.550
-457.026	800.000	-0.099	-0.369
-456.011	-200.000	0.027	0.200
-454.997	747.582	0.044	0.119
-453.982	-169.694	0.179	0.007
-452.968	519.521	0.129	0.306
-451.953	-66.043	0.268	0.108
-450.938	-37.268	-0.174	-0.094
-449.924	30.154	0.218	-0.189
-448.909	160.389	0.134	0.188
-447.895	-200.000	0.015	0.162
-446.880	-76.153	-0.174	-0.062
-445.865	6.319	0.327	-0.246
-444.851	38.228	-0.313	-0.281
-443.836	-94.444	-0.170	0.047
-442.822	800.000	-0.073	0.284
-441.807	-200.000	-0.012	0.144
-440.792	-200.000	0.005	-0.087
-439.778	16.217	0.198	-0.158
-438.763	-94.047	-0.263	-0.073
-437.749	-200.000	-0.011	-0.232
-436.734	-157.737	0.231	-0.014
-435.719	-7.346	0.221	0.151
-434.705	94.054	-0.085	0.097
-433.690	281.151	0.089	-0.160
-432.676	-145.666	-0.095	-0.009
-431.661	800.000	0.048	-0.189
-430.646	-195.527	-0.132	-0.001
-429.632	-77.851	-0.154	-0.054
-428.617	-69.492	0.348	0.135
-427.603	800.000	-0.035	-0.129
-426.588	195.206	-0.239	0.367
-425.573	-12.491	-0.292	0.193
-424.559	202.372	0.103	-0.161
-423.544	-78.555	0.474	0.164
-422.530	800.000	-0.031	0.126
-421.515	-48.482	0.167	-0.081
-420.500	-164.900	-0.356	0.016
-419.486	-200.000	-0.053	0.322
-418.471	-200.000	0.053	0.292
-417.457	-134.944	0.073	0.009
-416.442	665.100	-0.094	-0.244
-415.428	-149.435	0.143	0.011
-414.413	57.956	-0.146	-0.144
-413.398	122.590	0.007	0.008
-412.384	-106.452	-0.121	-0.027
-411.369	-67.568	0.301	-0.119
-410.355	160.060	0.114	-0.160
-409.340	-71.167	-0.187	-0.071
-408.325	-133.377	-0.154	-0.020
-407.311	-91.591	-0.144	0.041
-406.296	230.064	0.049	0.080
-405.282	19.258	-0.275	0.223
-404.267	57.941	-0.346	0.342
-403.252	-200.000	-0.035	0.252
-402.238	-100.192	0.391	0.098
-401.223	58.035	0.198	0.195
-400.209	237.748	-0.086	-0.145
-399.194	-200.000	0.056	-0.311
-398.179	-77.249	-0.298	-0.105
-397.165	-20.694	0.131	0.081
-396.150	-200.000	0.025	-0.215
-395.136	8.007	0.177	0.134
-394.121	741.470	-0.070	-0.189
-393.106	320.015	-0.089	-0.170
-392.092	-55.603	0.234	0.106
-391.077	-44.304	-0.350	-0.177
-390.063	800.000	0.143	0.446
-389.048	-137.029	0.220	0.025
-388.033	-200.000	0.001	-0.116
-387.019	800.000	-0.118	-0.348
-386.004	-73.640	0.085	0.031
-384.990	-200.000	0.012	0.310
-383.975	-128.705	-0.065	-0.009
-382.960	364.547	-0.162	0.329
-381.946	158.469	-0.091	0.128
-380.931	620.881	0.061	0.156
-379.917	-29.610	0.348	0.201
-378.902	-148.258	-0.233	-0.019
-377.888	-200.000	-0.027	0.421
-376.873	74.302	-0.163	0.173
-375.858	373.665	0.107	0.220
-374.844	-139.690	-0.201	0.022
-373.829	-200.000	-0.036	-0.274
-372.815	-200.000	-0.001	0.010
-371.800	247.323	-0.073	0.124
-370.785	115.611	-0.062	0.076
-369.771	-50.173	0.035	0.017
-368.756	800.000	0.118	0.421
-367.742	800.000	0.130	0.392
-366.727	244.031	0.083	0.141
-365.712	-200.000	0.032	-0.177
-364.698	93.042	-0.268	-0.306
-363.683	-91.961	-0.044	0.013
-362.669	-200.000	0.000	-0.281
-361.654	-200.000	-0.019	0.134
-360.639	-120.002	-0.094	-0.016
-359.625	-79.126	-0.279	-0.095
-358.610	36.088	-0.142	0.126
-357.596	-155.487	0.546	0.036
-356.581	213.159	0.044	0.070
-355.566	285.787	0.095	0.172
-354.552	-64.810	0.184	-0.075
-353.537	667.377	0.137	0.356
-352.523	13.050	0.124	-0.096
-351.508	-123.912	0.183	0.029
-350.493	-111.359	-0.151	-0.031
-349.479	47.784	-0.282	-0.265
-348.464	800.000	0.068	0.230
-347.450	-39.556	-0.267	0.141
-346.435	219.630	0.194	0.312
-345.420	344.368	0.115	0.227
-344.406	800.000	0.013	0.042
-343.391	-13.456	0.314	0.205
-342.377	522.925	-0.089	0.210
-341.362	-43.395	-0.005	-0.003
-340.348	419.893	-0.070	0.151
-339.333	-95.850	0.046	0.012
-338.318	-200.000	0.005	0.187
-337.304	90.998	0.060	0.067
-336.289	-149.681	0.181	-0.014
-335.275	-91.962	-0.091	-0.026
-334.260	199.990	0.139	0.214
-333.245	70.502	0.065	-0.068
-332.231	-76.412	-0.107	0.038
-331.216	457.313	-0.061	0.137
-330.202	262.067	-0.080	0.139
-329.187	-173.836	-0.171	0.005
-328.172	-200.000	-0.037	0.180
-327.158	1.530	0.082	-0.060
-326.143	116.211	0.166	0.205
-325.129	389.357	-0.103	0.215
-324.114	-180.383	0.034	-0.001
-323.099	50.859	-0.226	-0.216
-322.085	529.548	-0.048	0.114
-321.070	-200.000	0.114	0.001
-320.056	-200.000	-0.060	-0.333
-319.041	800.000	0.091	-0.263
-318.026	-49.443	0.300	0.144
-317.012	9.112	0.214	-0.163
-315.997	337.754	0.094	0.184
-314.983	658.385	0.122	0.316
-313.968	-59.017	0.089	-0.039
-312.953	494.740	-0.105	0.244
-311.939	271.835	0.054	-0.095
-310.924	-78.350	0.191	-0.066
-309.910	-28.732	-0.126	-0.073
-308.895	-200.000	0.028	0.130
-307.880	643.588	0.050	0.128
-306.866	697.834	-0.133	-0.351
-305.851	-185.713	-0.071	0.001
-304.837	-70.507	0.256	-0.097
-303.822	-200.000	-0.018	0.580
-302.807	29.085	-0.164	0.140
-301.793	-129.947	-0.263	0.036
-300.778	170.097	0.151	0.217
-299.764	-74.861	0.275	0.099
-298.749	639.208	-0.064	-0.163
-297.735	-123.127	-0.157	0.025
-296.720	-200.000	0.080	0.459
-295.705	115.942	0.165	-0.203
-294.691	191.930	0.121	0.184
-293.676	-200.000	0.052	-0.331
-292.662	-111.618	0.091	-0.019
-291.647	19.356	-0.044	-0.035
-290.632	-88.478	0.354	-0.106
-289.618	-200.000	-0.024	-0.157
-288.603	-174.017	-0.164	-0.005
-287.589	-100.694	0.299	-0.074
-286.574	229.639	-0.077	0.127
-285.559	-146.724	0.070	0.006
-284.545	-200.000	-0.024	0.282
-283.530	800.000	-0.092	0.284
-282.516	-103.895	-0.160	-0.038
-281.501	45.637	-0.121	0.112
-280.486	800.000	0.098	0.297
-279.472	732.840	-0.129	0.346
-278.457	-200.000	0.032	0.165
-277.443	800.000	-0.073	0.241
-276.428	-200.000	0.034	0.217
-275.413	-117.303	0.161	0.029
-274.399	-21.314	0.150	-0.092
-273.384	80.022	-0.036	0.039
-272.370	800.000	0.041	0.120
-271.355	-186.406	0.198	0.003
-270.340	-111.143	-0.266	-0.055
-269.326	18.451	-0.128	-0.103
-268.311	-3.930	0.053	0.037
-267.297	710.422	0.113	-0.300
-266.282	-44.962	0.307	0.154
-265.267	-102.179	-0.069	0.017
-264.253	-81.947	0.175	-0.058
-263.238	800.000	-0.078	0.294
-262.224	138.124	0.170	-0.224
-261.209	-200.000	0.048	-0.271
-260.195	65.330	-0.153	-0.156
-259.180	-79.101	0.122	-0.042
-258.165	214.975	0.055	0.087
-257.151	-78.978	-0.178	-0.061
-256.136	-119.106	0.386	0.068
-255.122	132.714	0.217	0.281
-254.107	-200.000	0.008	0.242
-253.092	-4.850	0.150	-0.104
-252.078	121.429	0.123	0.153
-251.063	75.156	0.092	0.097
-250.049	-200.000	0.074	0.353
-249.034	800.000	0.056	0.160
-248.019	-88.713	-0.123	-0.037
-247.005	-200.000	0.016	0.215
-245.990	71.443	0.189	-0.197
-244.976	-150.337	0.188	0.015
-243.961	-4.592	0.038	-0.026
-242.946	-20.176	-0.475	-0.294
-241.932	605.379	-0.068	0.169
-240.917	274.935	-0.217	-0.385
-239.903	203.988	0.146	-0.227
-238.888	-95.745	0.406	0.109
-237.873	-200.000	-0.010	0.316
-236.859	130.388	0.007	0.009
-235.844	-131.563	-0.279	0.037
-234.830	128.613	0.230	-0.294
-233.815	37.769	-0.212	-0.189
-232.800	109.526	-0.109	-0.131
-231.786	127.893	-0.098	0.124
-230.771	-103.562	0.317	-0.075
-229.757	800.000	0.048	-0.135
-228.742	77.854	-0.283	-0.302
-227.727	-110.267	0.164	0.034
-226.713	41.826	-0.197	0.179
-225.698	-127.568	0.090	-0.013
-224.684	-200.000	0.007	-0.050
-223.669	128.125	0.285	0.364
-222.655	34.912	0.094	-0.082
-221.640	248.385	-0.134	-0.227
-220.625	800.000	0.058	-0.191
-219.611	-145.196	0.363	0.033
-218.596	-127.008	-0.061	-0.009
-217.582	-33.433	-0.160	-0.089
-216.567	-200.000	-0.004	0.145
-215.552	166.419	0.125	0.178
-214.538	-86.535	0.248	0.076
-213.523	66.709	-0.324	-0.331
-212.509	800.000	0.060	0.260
-211.494	518.622	0.136	0.318
-210.479	800.000	-0.057	0.192
-209.465	-200.000	-0.069	0.326
-208.450	-11.203	0.324	-0.214
-207.436	-200.000	0.001	0.067
-206.421	156.835	0.082	0.113
-205.406	550.124	-0.097	-0.233
-204.392	445.891	0.111	-0.245
-203.377	-61.695	-0.234	0.098
-202.363	516.518	0.111	-0.260
-201.348	-48.328	0.102	0.049
-200.333	-200.000	-0.006	0.091
-199.319	69.111	0.280	0.289
-198.304	-112.655	-0.082	-0.016
-197.290	-147.761	-0.307	0.026
-196.275	-103.102	0.263	-0.062
-195.260	442.786	-0.106	-0.232
-194.246	269.754	-0.115	0.202
-193.231	-55.467	0.261	0.117
-192.217	-142.480	0.175	0.017
-191.202	191.525	-0.088	-0.132
-190.187	-200.000	0.036	-0.209
-189.173	-5.957	0.079	-0.054
-188.158	-200.000	0.018	-0.109
-187.144	185.361	0.073	0.109
-186.129	63.700	-0.085	-0.085
-185.114	232.575	0.154	0.253
-184.100	-23.248	0.218	-0.131
-183.085	-85.758	0.264	0.082
-182.071	-200.000	0.034	0.216
-181.056	-24.700	0.142	0.085
-180.042	-112.787	0.138	0.027
-179.027	186.544	-0.226	-0.337
-178.012	-200.000	0.096	-0.485
-176.998	86.582	-0.196	-0.216
-175.983	800.000	0.141	-0.411
-174.969	225.305	0.206	0.334
-173.954	-78.689	-0.206	0.071
-172.939	-114.527	-0.150	-0.029
-171.925	-49.854	0.440	0.209
-170.910	-200.000	-0.010	0.204
-169.896	4.023	-0.203	0.148
-168.881	5.371	-0.103	-0.076
-167.866	384.697	-0.079	0.163
-166.852	42.099	0.192	0.175
-165.837	384.892	0.268	0.552
-164.823	677.392	-0.164	-0.426
-163.808	25.340	-0.237	-0.197
-162.793	9.575	0.301	-0.228
-161.779	144.386	-0.025	0.034
-160.764	-36.394	0.073	0.040
-159.750	-13.842	0.311	0.201
-158.735	73.292	0.138	0.145
-157.720	-62.313	-0.135	-0.056
-156.706	-11.566	0.061	0.040
-155.691	295.682	-0.080	-0.146
-154.677	13.367	0.113	-0.088
-153.662	16.931	-0.189	-0.150
-152.647	192.952	0.179	-0.271
-151.633	-116.947	0.100	0.018
-150.618	10.290	-0.299	0.228
-149.604	-27.728	0.048	-0.028
-148.589	800.000	0.175	0.522
-147.574	-102.124	0.406	0.098
-146.560	-122.719	0.171	0.028
-145.545	143.252	-0.061	0.081
-144.531	-89.973	0.277	0.081
-143.516	184.450	-0.201	-0.297
-142.502	-119.795	0.161	-0.028
-141.487	800.000	-0.075	-0.241
-140.472	-89.955	0.088	0.026
-139.458	-59.935	0.142	-0.061
-138.443	-87.665	-0.076	-0.023
-137.429	163.370	0.056	0.079
-136.414	299.671	-0.121	0.223
-135.399	800.000	0.031	0.115
-134.385	-92.579	0.150	-0.042
-133.370	122.429	0.226	-0.282
-132.356	-200.000	0.029	0.314
-131.341	800.000	0.050	-0.143
-130.326	77.732	0.141	0.150
-129.312	-64.023	0.162	0.066
-128.297	-200.000	-0.009	-0.265
-127.283	183.502	0.067	-0.099
-126.268	35.811	0.257	-0.225
-125.253	-200.000	-0.006	0.191
-124.239	59.234	-0.142	-0.140
-123.224	-200.000	-0.012	-0.069
-122.210	8.917	0.266	-0.201
-121.195	18.725	0.224	0.179
