DTS Sentinel unit serial number:	SN413079Multiplexer serial number:	ORYXHardware model number:	OX4-SRSoftware version number:	ORYX F/W v4.00 Oryx Data Collector v3.7.2.0data status	okinstallation	princeton_trtdifferential loss correction	single-endedforward channel	channel 1reverse channel	N/Adate	2019/09/12time	03:36:11forward acquisition time	60.00reverse acquisition time	0.00gamma	496.2192k internal	0.2322k external	0.2322temperature offset calibration	1.0077default loss term (dB/km)	0.3790temperature slope calibration	1.0000multiplexer offset coefficient	1.0000multiplexer slope coefficient	1.0000fibre end	0.00T internal ref (°C)	32.19T ext. ref 1 (°C)	2.12T ext. ref 2 (°C)	27.15length (m)	temperature (°C)	Stokes	anti-Stokes-747.200	800.000	0.020	0.058
-746.185	-200.000	-0.017	0.477
-745.171	-156.518	0.119	-0.007
-744.156	27.093	-0.438	0.371
-743.142	82.297	-0.126	0.138
-742.127	-23.558	0.076	0.046
-741.112	147.877	-0.056	-0.076
-740.098	45.085	-0.143	-0.133
-739.083	-122.141	0.276	0.046
-738.069	-89.225	-0.208	0.062
-737.054	79.080	0.161	0.174
-736.039	800.000	0.104	-0.304
-735.025	-111.856	0.243	-0.050
-734.010	69.790	0.139	-0.145
-732.996	126.968	-0.253	-0.324
-731.981	-167.058	0.096	0.004
-730.966	-78.305	0.127	0.044
-729.952	99.706	-0.199	-0.232
-728.937	17.158	-0.114	-0.092
-727.923	182.003	-0.379	-0.563
-726.908	61.787	-0.263	-0.264
-725.894	62.335	0.182	-0.183
-724.879	-200.000	0.015	-0.243
-723.864	15.900	-0.099	0.079
-722.850	156.095	0.136	-0.190
-721.835	-92.130	-0.181	0.051
-720.821	-40.373	-0.216	-0.114
-719.806	-45.356	-0.051	-0.026
-718.791	239.124	0.059	-0.098
-717.777	800.000	0.089	0.356
-716.762	-177.603	0.192	0.005
-715.748	209.784	0.111	0.175
-714.733	62.287	0.283	-0.285
-713.718	-200.000	0.054	-0.369
-712.704	800.000	-0.107	-0.331
-711.689	800.000	0.056	-0.227
-710.675	800.000	0.100	-0.364
-709.660	-63.327	0.388	0.161
-708.645	-128.376	0.284	-0.041
-707.631	-124.949	0.154	-0.024
-706.616	58.216	-0.168	0.166
-705.602	-149.562	-0.133	0.011
-704.587	464.700	0.183	-0.413
-703.572	800.000	-0.050	-0.142
-702.558	51.921	0.128	-0.123
-701.543	7.320	-0.120	-0.091
-700.529	-125.625	0.348	0.053
-699.514	-199.775	-0.127	-0.001
-698.499	-93.464	-0.146	-0.041
-697.485	-15.833	-0.321	-0.206
-696.470	170.017	-0.164	0.237
-695.456	73.420	-0.081	0.086
-694.441	800.000	0.058	-0.178
-693.426	-14.918	0.061	0.039
-692.412	788.103	-0.117	-0.323
-691.397	306.636	0.058	0.109
-690.383	-31.519	-0.219	-0.124
-689.368	297.066	0.050	0.093
-688.354	714.115	-0.075	0.201
-687.339	-200.000	0.025	0.135
-686.324	349.794	0.133	-0.266
-685.310	800.000	-0.092	0.367
-684.295	16.928	-0.018	0.015
-683.281	82.877	-0.234	-0.257
-682.266	-47.437	-0.313	0.154
-681.251	-106.134	0.098	0.022
-680.237	97.860	0.178	-0.206
-679.222	8.793	0.051	0.039
-678.208	118.164	0.260	-0.323
-677.193	-28.354	-0.351	-0.204
-676.178	-137.440	0.417	-0.048
-675.164	39.751	-0.211	0.191
-674.149	-57.375	0.330	-0.146
-673.135	-86.766	0.127	0.039
-672.120	-123.157	-0.169	-0.027
-671.105	6.859	0.183	-0.138
-670.091	-74.635	0.043	-0.015
-669.076	800.000	-0.080	-0.237
-668.062	109.817	-0.070	0.085
-667.047	-0.828	0.068	0.049
-666.032	-200.000	-0.018	-0.098
-665.018	-64.522	0.173	0.071
-664.003	-146.793	-0.128	0.011
-662.989	-27.448	-0.212	-0.124
-661.974	180.290	0.139	0.205
-660.959	-119.520	-0.374	-0.065
-659.945	454.265	0.175	0.389
-658.930	-200.000	0.039	-0.251
-657.916	-84.840	0.359	-0.114
-656.901	-78.905	0.142	-0.049
-655.886	10.619	-0.210	0.161
-654.872	2.093	0.019	0.014
-653.857	-200.000	-0.042	-0.309
-652.843	-200.000	0.000	-0.314
-651.828	-27.707	-0.300	-0.175
-650.814	43.689	-0.141	-0.130
-649.799	243.536	0.239	-0.403
-648.784	252.308	-0.168	-0.288
-647.770	-147.715	-0.182	-0.015
-646.755	-145.767	0.105	-0.009
-645.741	800.000	-0.031	-0.089
-644.726	-134.393	-0.152	0.019
-643.711	-200.000	-0.009	-0.049
-642.697	-46.942	-0.040	-0.020
-641.682	197.042	-0.197	0.303
-640.668	-200.000	-0.006	0.081
-639.653	225.069	0.090	-0.147
-638.638	-200.000	0.020	0.232
-637.624	-100.532	-0.237	-0.059
-636.609	-160.657	-0.199	0.011
-635.595	-200.000	0.046	-0.339
-634.580	-200.000	0.016	-0.259
-633.565	33.304	-0.173	0.151
-632.551	50.893	0.159	0.151
-631.536	234.733	0.109	0.182
-630.522	327.689	0.095	-0.184
-629.507	-200.000	-0.006	-0.360
-628.492	-200.000	-0.028	0.137
-627.478	99.390	0.087	0.101
-626.463	800.000	-0.091	-0.316
-625.449	-107.290	0.288	-0.064
-624.434	55.785	0.277	0.270
-623.419	-200.000	-0.042	0.306
-622.405	6.173	-0.362	0.270
-621.390	-65.457	0.074	-0.030
-620.376	-200.000	0.085	-0.431
-619.361	-200.000	0.044	0.289
-618.346	83.743	0.101	0.111
-617.332	-65.508	-0.353	0.143
-616.317	-35.114	0.170	-0.093
-615.303	20.936	-0.125	-0.102
-614.288	-44.093	-0.276	-0.140
-613.273	-200.000	0.029	-0.323
-612.259	-200.000	-0.001	0.097
-611.244	800.000	-0.019	0.055
-610.230	-68.063	0.434	-0.170
-609.215	-76.015	-0.394	0.140
-608.201	78.189	0.038	-0.041
-607.186	-1.288	0.170	-0.121
-606.171	-200.000	0.058	-0.279
-605.157	-200.000	-0.009	0.419
-604.142	459.740	-0.201	0.449
-603.128	-200.000	0.023	-0.299
-602.113	-124.138	0.356	0.056
-601.098	125.614	0.209	0.265
-600.084	-200.000	0.005	0.215
-599.069	41.435	0.141	0.129
-598.055	-145.871	0.212	-0.019
-597.040	800.000	-0.048	0.207
-596.025	107.983	0.189	0.226
-595.011	755.138	0.062	0.167
-593.996	332.089	-0.082	0.158
-592.982	104.210	-0.039	0.046
-591.967	1.939	0.302	-0.219
-590.952	-97.415	-0.349	-0.091
-589.938	-142.928	0.623	-0.061
-588.923	-53.602	-0.196	0.090
-587.909	507.311	0.153	-0.357
-586.894	-54.670	0.170	-0.077
-585.879	-200.000	-0.035	0.308
-584.865	-113.913	-0.418	-0.082
-583.850	125.724	0.249	-0.315
-582.836	-200.000	0.011	-0.129
-581.821	-44.833	-0.071	-0.036
-580.806	-200.000	-0.006	-0.291
-579.792	-12.672	-0.055	-0.036
-578.777	401.964	0.092	-0.193
-577.763	298.884	-0.292	-0.539
-576.748	800.000	0.034	0.107
-575.733	-178.464	-0.438	0.010
-574.719	107.925	0.157	0.187
-573.704	281.462	-0.196	0.353
-572.690	-172.314	-0.157	0.005
-571.675	254.641	-0.183	0.314
-570.661	32.003	-0.222	-0.192
-569.646	-166.250	-0.128	0.005
-568.631	-49.386	0.226	-0.108
-567.617	-98.889	0.383	0.098
-566.602	-200.000	-0.007	0.090
-565.588	74.070	-0.411	0.433
-564.573	56.313	0.208	-0.203
-563.558	-112.929	-0.219	-0.043
-562.544	-147.598	0.193	0.016
-561.529	132.921	0.134	-0.174
-560.515	8.873	-0.232	0.175
-559.500	-117.490	-0.323	0.059
-558.485	-200.000	0.001	0.050
-557.471	-110.190	-0.142	-0.030
-556.456	-87.150	-0.276	-0.084
-555.442	-200.000	-0.007	0.040
-554.427	-31.397	0.174	0.098
-553.412	-185.293	-0.236	0.004
-552.398	-58.267	0.310	-0.135
-551.383	5.597	0.160	-0.119
-550.369	-11.618	-0.212	-0.140
-549.354	-200.000	-0.034	0.388
-548.339	41.136	-0.143	0.130
-547.325	-44.898	-0.330	0.165
-546.310	-20.879	0.261	-0.160
-545.296	-108.283	0.157	0.034
-544.281	-133.058	0.197	0.025
-543.266	-98.790	-0.250	-0.064
-542.252	-200.000	0.001	0.205
-541.237	72.326	0.053	0.056
-540.223	-80.863	0.195	0.065
-539.208	-200.000	0.040	0.280
-538.193	85.636	-0.143	-0.158
-537.179	-81.642	0.287	0.095
-536.164	-92.762	-0.329	0.092
-535.150	295.186	0.048	-0.089
-534.135	-200.000	-0.012	-0.146
-533.121	0.588	0.141	-0.101
-532.106	800.000	-0.038	-0.152
-531.091	-46.371	0.096	-0.047
-530.077	35.278	-0.165	-0.145
-529.062	504.839	-0.006	-0.013
-528.048	29.096	-0.137	0.117
-527.033	194.227	0.107	0.162
-526.018	576.173	0.012	0.030
-525.004	101.765	0.167	-0.196
-523.989	-18.496	-0.460	-0.288
-522.975	108.487	0.235	-0.281
-521.960	65.867	0.210	-0.213
-520.945	181.176	-0.138	-0.204
-519.931	-121.017	-0.355	0.060
-518.916	109.439	-0.387	-0.465
-517.902	-135.084	-0.254	0.031
-516.887	-200.000	-0.032	-0.145
-515.872	30.094	0.252	-0.215
-514.858	451.916	-0.093	-0.205
-513.843	97.235	-0.018	-0.020
-512.829	77.058	-0.050	0.053
-511.814	-200.000	0.023	0.145
-510.799	383.203	0.077	-0.158
-509.785	136.487	0.096	0.125
-508.770	-8.851	0.180	-0.121
-507.756	-85.700	-0.151	0.047
-506.741	-89.981	-0.154	-0.045
-505.726	800.000	-0.146	0.434
-504.712	76.090	-0.162	0.171
-503.697	-200.000	-0.019	-0.114
-502.683	800.000	-0.022	-0.089
-501.668	271.920	0.151	-0.267
-500.653	-200.000	-0.037	-0.218
-499.639	165.970	0.255	0.361
-498.624	-27.748	0.148	-0.086
-497.610	-123.452	0.191	0.030
-496.595	-200.000	-0.019	-0.118
-495.581	-100.279	-0.281	-0.070
-494.566	-200.000	0.033	-0.302
-493.551	-86.608	-0.224	-0.069
-492.537	-171.352	0.034	0.001
-491.522	43.042	0.097	-0.089
-490.508	-139.262	0.031	-0.003
-489.493	337.792	-0.061	0.118
-488.478	-129.324	-0.175	0.024
-487.464	53.305	-0.189	0.181
-486.449	-104.009	-0.244	-0.057
-485.435	-73.478	0.374	0.137
-484.420	-31.106	0.278	0.157
-483.405	213.508	-0.314	0.497
-482.391	-200.000	0.059	0.330
-481.376	-200.000	0.062	-0.435
-480.362	-200.000	0.015	0.138
-479.347	-101.328	0.251	-0.061
-478.332	-98.292	-0.230	0.059
-477.318	663.160	0.081	0.208
-476.303	470.645	-0.140	0.314
-475.289	194.379	0.172	-0.261
-474.274	-200.000	-0.021	-0.122
-473.259	281.551	-0.184	-0.329
-472.245	-14.856	-0.132	0.085
-471.230	-123.557	-0.285	0.045
-470.216	-87.445	-0.227	0.069
-469.201	-90.494	-0.332	-0.096
-468.186	-73.439	0.069	-0.025
-467.172	-200.000	-0.023	-0.154
-466.157	149.607	0.098	0.133
-465.143	-200.000	0.003	-0.290
-464.128	-15.175	-0.305	-0.195
-463.113	215.868	-0.128	-0.203
-462.099	9.674	0.288	-0.218
-461.084	800.000	-0.070	0.216
-460.070	4.330	-0.100	-0.073
-459.055	-27.959	0.227	0.131
-458.040	215.605	0.288	0.456
-457.026	70.182	-0.088	-0.090
-456.011	-200.000	0.013	-0.106
-454.997	-28.782	0.228	0.131
-453.982	-200.000	0.021	-0.141
-452.968	-36.531	0.091	-0.049
-451.953	-200.000	-0.002	0.280
-450.938	-110.656	-0.176	-0.036
-449.924	142.248	-0.109	-0.144
-448.909	96.808	-0.122	0.139
-447.895	-200.000	0.030	-0.162
-446.880	-200.000	0.010	-0.141
-445.865	-143.766	0.325	0.031
-444.851	-200.000	0.005	-0.267
-443.836	169.086	-0.042	0.060
-442.822	-141.580	0.355	0.036
-441.807	-126.397	-0.155	0.023
-440.792	-10.263	0.475	-0.315
-439.778	-200.000	-0.048	-0.325
-438.763	-200.000	-0.030	0.175
-437.749	77.853	-0.033	-0.035
-436.734	800.000	0.041	-0.116
-435.719	197.758	0.117	0.178
-434.705	-140.375	-0.212	0.022
-433.690	93.015	0.092	0.103
-432.676	293.627	0.055	-0.100
-431.661	-200.000	-0.006	0.289
-430.646	-68.379	-0.101	-0.039
-429.632	184.423	-0.116	-0.172
-428.617	-176.265	-0.335	0.009
-427.603	53.006	-0.138	-0.132
-426.588	-200.000	-0.034	-0.393
-425.573	-121.294	-0.094	0.016
-424.559	200.262	-0.209	-0.320
-423.544	-137.038	0.245	-0.028
-422.530	-200.000	-0.018	-0.430
-421.515	-139.590	-0.172	-0.018
-420.500	20.033	0.225	0.181
-419.486	-77.397	-0.177	-0.061
-418.471	42.354	0.085	-0.077
-417.457	-200.000	-0.024	-0.125
-416.442	327.253	-0.106	0.202
-415.428	149.791	-0.231	0.313
-414.413	-200.000	0.026	0.254
-413.398	39.052	-0.352	-0.314
-412.384	-200.000	0.019	-0.220
-411.369	405.508	0.115	-0.242
-410.355	14.520	-0.270	-0.210
-409.340	247.959	0.116	0.195
-408.325	28.710	-0.189	0.160
-407.311	69.566	-0.112	0.116
-406.296	-200.000	0.022	0.259
-405.282	152.466	-0.130	0.178
-404.267	96.391	-0.194	0.221
-403.252	-200.000	-0.042	0.462
-402.238	637.526	0.098	0.247
-401.223	466.208	-0.168	0.375
-400.209	370.962	0.068	0.138
-399.194	-200.000	-0.008	0.138
-398.179	464.291	-0.054	0.120
-397.165	-65.679	0.411	-0.164
-396.150	-54.966	-0.130	-0.059
-395.136	-49.665	0.358	-0.170
-394.121	-86.446	0.255	0.078
-393.106	-107.645	-0.289	0.063
-392.092	-44.252	0.192	-0.096
-391.077	-200.000	0.008	0.169
-390.063	732.176	0.126	-0.335
-389.048	20.814	0.207	-0.167
-388.033	-129.368	0.195	0.027
-387.019	21.500	-0.099	0.080
-386.004	431.795	0.031	0.066
-384.990	-200.000	0.003	0.073
-383.975	-39.740	0.146	-0.076
-382.960	63.808	0.103	-0.103
-381.946	-138.499	-0.266	-0.029
-380.931	88.674	0.040	0.044
-379.917	-52.699	-0.199	-0.091
-378.902	10.640	0.233	-0.177
-377.888	-89.472	0.307	-0.090
-376.873	87.749	0.194	-0.214
-375.858	-53.035	-0.118	0.054
-374.844	62.823	0.055	-0.055
-373.829	800.000	-0.039	0.144
-372.815	120.994	0.130	-0.162
-371.800	-200.000	-0.038	0.203
-370.785	-200.000	0.039	-0.273
-369.771	-23.170	0.224	-0.134
-368.756	-200.000	0.011	-0.223
-367.742	-200.000	0.009	0.199
-366.727	146.245	0.075	-0.100
-365.712	-53.458	-0.176	-0.080
-364.698	150.776	-0.051	-0.069
-363.683	-200.000	-0.006	0.311
-362.669	293.178	0.127	0.230
-361.654	262.195	0.102	0.176
-360.639	51.104	-0.224	0.212
-359.625	-200.000	-0.002	-0.062
-358.610	-106.899	-0.430	0.095
-357.596	107.824	-0.361	0.428
-356.581	800.000	0.099	0.287
-355.566	219.334	0.086	0.137
-354.552	481.153	-0.047	-0.106
-353.537	224.549	-0.107	-0.171
-352.523	800.000	0.120	-0.349
-351.508	301.786	0.057	-0.105
-350.493	-9.890	-0.284	-0.188
-349.479	-132.735	-0.282	0.036
-348.464	-115.063	0.093	-0.018
-347.450	-200.000	-0.068	0.318
-346.435	-200.000	-0.011	0.176
-345.420	-84.400	-0.202	-0.063
-344.406	-169.589	0.278	0.010
-343.391	-149.225	-0.312	-0.025
-342.377	-141.614	-0.184	-0.018
-341.362	-200.000	0.090	-0.432
-340.348	-200.000	0.021	0.357
-339.333	-65.330	0.223	0.089
-338.318	-105.775	-0.246	0.055
-337.304	258.631	0.063	0.109
-336.289	183.580	-0.073	0.107
-335.275	-50.212	0.073	-0.034
-334.260	-165.542	0.427	-0.018
-333.245	386.062	-0.211	0.432
-332.231	800.000	0.023	0.095
-331.216	800.000	0.099	-0.327
-330.202	50.528	-0.231	-0.217
-329.187	-200.000	-0.012	0.194
-328.172	-121.544	-0.345	-0.057
-327.158	26.746	0.076	0.063
-326.143	-111.065	0.125	0.025
-325.129	800.000	0.043	0.133
-324.114	-200.000	-0.018	0.291
-323.099	-171.594	0.073	-0.002
-322.085	392.885	0.078	0.161
-321.070	337.369	0.113	0.218
-320.056	-37.276	-0.261	-0.139
-319.041	238.050	0.133	0.220
-318.026	-55.344	0.169	0.075
-317.012	-200.000	-0.053	-0.279
-315.997	-200.000	-0.008	0.347
-314.983	457.394	0.115	0.253
-313.968	-146.977	-0.092	0.008
-312.953	-8.334	0.046	0.030
-311.939	140.037	0.162	0.212
-310.924	-87.652	0.064	-0.019
-309.910	260.863	-0.116	-0.199
-308.895	-16.979	-0.049	0.030
-307.880	369.992	-0.166	0.333
-306.866	-20.808	0.223	0.136
-305.851	124.379	-0.155	-0.193
-304.837	-200.000	0.043	-0.579
-303.822	-31.277	-0.229	0.128
-302.807	800.000	-0.044	-0.161
-301.793	-130.854	-0.257	-0.034
-300.778	28.201	-0.249	0.209
-299.764	29.778	0.112	0.094
-298.749	479.510	-0.020	-0.046
-297.735	491.099	0.138	-0.313
-296.720	455.297	0.132	-0.291
-295.705	-9.641	0.132	-0.088
-294.691	-102.169	0.307	-0.073
-293.676	800.000	-0.117	0.364
-292.662	-200.000	0.039	0.216
-291.647	229.306	-0.066	-0.106
-290.632	-26.993	-0.111	-0.065
-289.618	-111.432	-0.348	-0.070
-288.603	-200.000	0.013	-0.156
-287.589	102.140	-0.134	-0.155
-286.574	-54.479	0.222	-0.100
-285.559	-200.000	-0.020	0.115
-284.545	1.198	-0.257	-0.183
-283.530	45.548	0.283	-0.259
-282.516	-138.088	-0.295	0.033
-281.501	-164.522	-0.120	-0.005
-280.486	-197.181	-0.207	0.001
-279.472	800.000	-0.055	0.200
-278.457	-122.023	0.483	0.079
-277.443	449.271	0.096	0.210
-276.428	116.679	-0.139	0.169
-275.413	-188.908	0.119	0.001
-274.399	369.580	-0.032	0.064
-273.384	-38.684	0.342	0.179
-272.370	298.158	0.060	0.109
-271.355	637.159	0.030	-0.076
-270.340	298.180	0.083	-0.151
-269.326	47.940	-0.167	-0.155
-268.311	-104.695	0.197	-0.045
-267.297	40.465	0.039	0.035
-266.282	-48.532	0.201	-0.096
-265.267	-122.989	-0.201	-0.032
-264.253	282.413	0.106	0.188
-263.238	-50.509	-0.143	0.067
-262.224	800.000	-0.094	0.286
-261.209	-200.000	0.010	0.113
-260.195	659.493	-0.084	0.214
-259.180	-200.000	-0.001	-0.203
-258.165	-200.000	0.058	0.305
-257.151	-200.000	0.084	0.000
-256.136	-57.915	-0.122	-0.053
-255.122	-54.453	0.316	0.142
-254.107	-42.903	0.250	-0.126
-253.092	42.406	-0.060	-0.054
-252.078	-200.000	-0.027	0.220
-251.063	-200.000	0.001	-0.015
-250.049	-200.000	0.005	-0.316
-249.034	-200.000	-0.056	0.309
-248.019	202.970	-0.138	-0.211
-247.005	-47.658	0.083	0.040
-245.990	-43.154	-0.003	0.002
-244.976	-63.822	0.147	0.060
-243.961	-150.968	0.330	-0.025
-242.946	-200.000	0.012	-0.129
-241.932	48.439	-0.153	-0.142
-240.917	148.490	0.151	0.202
-239.903	20.588	0.196	0.157
-238.888	-63.941	-0.339	-0.137
-237.873	103.859	-0.117	0.136
-236.859	29.467	0.205	0.173
-235.844	-106.100	0.206	-0.046
-234.830	-68.660	0.325	-0.125
-233.815	-78.596	0.029	-0.010
-232.800	-200.000	0.008	-0.057
-231.786	-112.285	-0.165	0.033
-230.771	61.205	-0.207	-0.204
-229.757	-93.375	0.020	-0.006
-228.742	52.597	0.091	-0.086
-227.727	-128.016	-0.241	-0.034
-226.713	-200.000	-0.003	0.120
-225.698	-200.000	0.012	-0.100
-224.684	435.505	-0.050	0.107
-223.669	511.982	0.064	0.147
-222.655	43.599	0.219	-0.198
-221.640	-131.388	0.185	-0.024
-220.625	93.727	0.046	0.052
-219.611	-84.852	0.632	0.197
-218.596	36.386	-0.142	-0.124
-217.582	-174.664	0.020	0.001
-216.567	73.281	0.175	-0.182
-215.552	164.035	0.152	-0.211
-214.538	226.652	0.236	0.378
-213.523	252.138	-0.077	0.130
-212.509	583.984	-0.065	-0.159
-211.494	-95.407	0.393	-0.104
-210.479	169.680	0.060	0.085
-209.465	168.418	-0.206	-0.290
-208.450	252.415	0.089	0.149
-207.436	-200.000	-0.043	0.246
-206.421	800.000	-0.098	-0.353
-205.406	800.000	-0.023	0.074
-204.392	23.991	0.142	-0.115
-203.377	-94.451	0.100	-0.027
-202.363	86.794	0.147	-0.160
-201.348	-23.492	0.295	-0.175
-200.333	69.288	0.133	-0.135
-199.319	800.000	-0.100	0.369
-198.304	-22.871	0.129	-0.077
-197.290	143.170	0.083	0.109
-196.275	-76.477	-0.103	0.036
-195.260	20.185	-0.242	-0.193
-194.246	800.000	-0.075	-0.221
-193.231	130.348	-0.167	0.212
-192.217	73.991	0.211	0.218
-191.202	-114.548	-0.268	-0.051
-190.187	96.828	-0.144	0.163
-189.173	501.814	0.011	-0.024
-188.158	-55.920	0.221	0.098
-187.144	-200.000	0.001	0.316
-186.129	800.000	0.104	-0.348
-185.114	114.135	0.048	0.058
-184.100	484.117	-0.057	0.128
-183.085	-144.737	0.353	0.032
-182.071	-200.000	0.001	-0.030
-181.056	368.877	-0.218	0.436
-180.042	800.000	-0.036	-0.126
-179.027	-200.000	-0.032	0.210
-178.012	89.392	-0.107	0.118
-176.998	800.000	0.069	-0.234
-175.983	800.000	0.033	-0.104
-174.969	73.036	-0.058	-0.060
-173.954	-43.780	0.046	0.023
-172.939	-97.089	-0.091	0.024
-171.925	800.000	-0.053	0.156
-170.910	-99.186	0.202	0.050
-169.896	-37.111	-0.071	-0.037
-168.881	-26.140	-0.149	-0.087
-167.866	284.736	-0.088	-0.156
-166.852	12.134	-0.150	0.114
-165.837	-200.000	-0.008	0.080
-164.823	800.000	0.114	-0.363
-163.808	-64.605	-0.181	-0.073
-162.793	-53.598	0.225	-0.102
-161.779	-38.796	0.265	-0.138
-160.764	800.000	0.050	0.215
-159.750	-200.000	-0.000	0.334
-158.735	-99.435	-0.320	-0.080
-157.720	782.128	0.108	-0.292
-156.706	760.843	0.098	-0.263
-155.691	-200.000	-0.007	0.280
-154.677	-49.170	0.170	-0.080
-153.662	454.512	-0.092	-0.201
-152.647	-55.839	0.289	-0.127
-151.633	-200.000	0.013	0.242
-150.618	170.733	-0.028	-0.039
-149.604	44.741	0.344	-0.313
-148.589	165.338	0.035	0.049
-147.574	105.859	-0.026	0.030
-146.560	95.088	0.104	-0.117
-145.545	-107.887	0.059	0.013
-144.531	150.469	0.244	-0.326
-143.516	-200.000	0.024	-0.344
-142.502	109.073	-0.075	-0.088
-141.487	481.838	0.218	0.490
-140.472	-7.562	0.433	0.289
-139.458	-147.069	0.277	0.023
-138.443	-95.976	0.194	-0.051
-137.429	-161.090	-0.275	0.014
-136.414	304.299	-0.150	-0.274
-135.399	-200.000	-0.030	0.359
-134.385	27.492	0.203	-0.169
-133.370	30.099	-0.300	0.252
-132.356	6.934	-0.217	-0.159
-131.341	161.659	-0.045	-0.063
-130.326	327.627	-0.071	-0.135
-129.312	735.438	0.046	-0.123
-128.297	572.172	0.144	0.346
-127.283	-119.507	-0.186	0.032
-126.268	70.748	0.053	0.054
-125.253	65.749	0.410	0.410
-124.239	-25.464	0.267	-0.156
-123.224	194.995	0.239	0.358
-122.210	-200.000	0.066	0.391
-121.195	64.193	-0.206	0.204
