DTS Sentinel unit serial number:	SN413079Multiplexer serial number:	ORYXHardware model number:	OX4-SRSoftware version number:	ORYX F/W v4.00 Oryx Data Collector v3.7.2.0data status	okinstallation	princeton_trtdifferential loss correction	single-endedforward channel	channel 1reverse channel	N/Adate	2019/09/17time	11:10:35forward acquisition time	60.00reverse acquisition time	0.00gamma	496.2192k internal	0.2323k external	0.2323temperature offset calibration	0.9960default loss term (dB/km)	0.3790temperature slope calibration	1.0000multiplexer offset coefficient	1.0000multiplexer slope coefficient	1.0000fibre end	0.00T internal ref (°C)	30.44T ext. ref 1 (°C)	0.25T ext. ref 2 (°C)	26.09length (m)	temperature (°C)	Stokes	anti-Stokes-747.200	-2.567	-0.150	0.106
-746.185	105.358	-0.282	0.336
-745.171	-114.740	-0.084	-0.016
-744.156	-62.505	-0.191	0.080
-743.142	2.719	-0.224	-0.164
-742.127	-25.872	-0.050	-0.030
-741.112	-200.000	-0.022	0.358
-740.098	20.013	-0.220	-0.179
-739.083	-161.913	0.297	0.015
-738.069	-53.283	-0.122	-0.056
-737.054	-200.000	0.014	-0.127
-736.039	429.642	0.175	0.383
-735.025	-61.646	0.368	0.156
-734.010	-200.000	0.003	0.169
-732.996	-72.370	-0.142	0.053
-731.981	-41.905	-0.720	0.372
-730.966	319.744	-0.086	0.164
-729.952	97.863	-0.182	0.211
-728.937	-56.931	0.303	-0.135
-727.923	145.715	-0.213	0.288
-726.908	-29.521	-0.232	0.134
-725.894	-98.066	-0.392	-0.102
-724.879	201.657	-0.205	-0.319
-723.864	800.000	0.066	0.233
-722.850	-26.763	-0.253	0.149
-721.835	79.133	-0.105	-0.114
-720.821	-42.562	0.170	0.087
-719.806	-36.406	-0.236	-0.128
-718.791	31.888	0.103	-0.089
-717.777	23.539	-0.135	-0.112
-716.762	-200.000	-0.039	0.347
-715.748	-133.187	-0.366	0.047
-714.733	77.081	-0.175	0.188
-713.718	141.320	-0.152	0.203
-712.704	-200.000	0.001	-0.239
-711.689	800.000	0.073	-0.280
-710.675	304.953	-0.075	0.140
-709.660	800.000	-0.079	-0.239
-708.645	800.000	-0.073	-0.253
-707.631	800.000	0.050	0.139
-706.616	-22.467	-0.030	0.018
-705.602	283.556	-0.124	0.225
-704.587	-200.000	0.049	-0.395
-703.572	-200.000	0.033	-0.275
-702.558	-20.647	0.161	0.100
-701.543	-57.169	0.153	0.068
-700.529	-7.132	0.362	-0.248
-699.514	-184.714	0.110	-0.002
-698.499	36.892	-0.160	-0.142
-697.485	501.603	-0.015	-0.036
-696.470	-19.841	-0.152	0.094
-695.456	-129.596	0.263	0.037
-694.441	-115.019	-0.217	-0.042
-693.426	22.631	0.073	-0.061
-692.412	-164.887	0.374	-0.017
-691.397	26.350	-0.476	0.401
-690.383	-88.279	0.226	-0.068
-689.368	-84.778	0.092	0.029
-688.354	800.000	-0.047	0.139
-687.339	-13.557	0.204	0.133
-686.324	800.000	0.026	-0.099
-685.310	138.926	0.033	-0.043
-684.295	-200.000	0.017	-0.190
-683.281	-132.579	-0.122	0.016
-682.266	-1.814	0.085	-0.060
-681.251	-106.401	-0.465	-0.105
-680.237	402.939	-0.154	-0.327
-679.222	-84.107	0.341	0.109
-678.208	-182.529	-0.468	0.009
-677.193	53.548	-0.245	0.237
-676.178	628.510	-0.127	0.323
-675.164	33.529	-0.206	-0.180
-674.149	512.796	-0.132	0.309
-673.135	-119.277	0.210	0.037
-672.120	-200.000	-0.180	-0.001
-671.105	34.413	-0.212	-0.186
-670.091	-8.791	-0.168	-0.113
-669.076	229.523	0.181	-0.298
-668.062	-78.554	0.203	-0.070
-667.047	421.212	-0.104	-0.223
-666.032	624.310	0.057	-0.145
-665.018	-200.000	0.009	0.166
-664.003	256.904	0.115	0.198
-662.989	800.000	-0.020	-0.058
-661.974	194.480	0.129	0.197
-660.959	72.777	0.104	0.109
-659.945	-34.756	0.220	-0.121
-658.930	800.000	0.032	-0.120
-657.916	-38.188	-0.123	0.066
-656.901	-21.502	-0.238	-0.146
-655.886	-135.901	0.072	0.008
-654.872	-135.527	0.224	-0.027
-653.857	-31.970	-0.291	0.164
-652.843	-86.995	0.216	0.066
-651.828	-34.287	0.116	0.064
-650.814	59.021	0.095	-0.094
-649.799	-98.888	0.220	0.056
-648.784	25.469	0.052	-0.044
-647.770	-200.000	-0.020	-0.215
-646.755	-200.000	-0.048	-0.569
-645.741	242.722	-0.150	-0.252
-644.726	-71.513	-0.064	-0.024
-643.711	-39.190	0.148	0.078
-642.697	-86.858	0.164	-0.050
-641.682	-200.000	0.008	-0.407
-640.668	22.900	-0.158	-0.130
-639.653	-50.035	0.134	-0.064
-638.638	659.693	-0.142	-0.368
-637.624	79.327	-0.366	-0.395
-636.609	4.821	-0.193	-0.143
-635.595	129.901	-0.104	0.134
-634.580	-200.000	0.017	0.275
-633.565	-200.000	-0.022	0.000
-632.551	-200.000	-0.031	0.143
-631.536	118.851	-0.111	0.138
-630.522	-63.769	0.078	0.032
-629.507	197.312	0.292	-0.448
-628.492	-200.000	0.010	-0.118
-627.478	-41.941	-0.201	0.104
-626.463	800.000	-0.094	0.324
-625.449	42.173	0.041	0.038
-624.434	-117.105	0.347	-0.064
-623.419	-200.000	-0.010	0.046
-622.405	-107.823	0.243	-0.053
-621.390	10.063	0.281	-0.214
-620.376	60.389	0.213	-0.212
-619.361	-134.205	-0.229	-0.028
-618.346	125.850	-0.138	-0.176
-617.332	-11.563	-0.178	-0.118
-616.317	283.824	0.166	-0.299
-615.303	51.959	0.101	0.096
-614.288	92.583	-0.112	-0.126
-613.273	-120.299	0.128	0.022
-612.259	615.080	-0.116	-0.293
-611.244	9.840	0.329	0.251
-610.230	-110.180	-0.166	0.035
-609.215	800.000	-0.040	-0.153
-608.201	104.139	-0.082	-0.097
-607.186	45.521	-0.143	-0.133
-606.171	-200.000	-0.054	-0.363
-605.157	-200.000	-0.050	-0.257
-604.142	116.544	-0.038	-0.047
-603.128	-103.200	-0.396	0.094
-602.113	-200.000	0.026	0.206
-601.098	314.691	-0.139	-0.263
-600.084	-50.201	-0.283	-0.134
-599.069	800.000	0.079	-0.288
-598.055	-200.000	0.018	0.236
-597.040	-86.451	-0.229	-0.071
-596.025	63.232	0.151	-0.152
-595.011	-56.282	-0.155	0.069
-593.996	-7.966	0.159	-0.108
-592.982	-15.828	-0.101	0.065
-591.967	68.852	-0.103	0.106
-590.952	800.000	-0.013	0.057
-589.938	-34.247	-0.085	-0.047
-588.923	108.057	-0.090	0.107
-587.909	-153.662	-0.195	0.014
-586.894	-200.000	0.086	0.436
-585.879	-200.000	0.012	0.152
-584.865	-141.343	0.311	-0.032
-583.850	186.063	0.253	0.377
-582.836	37.517	0.025	-0.023
-581.821	-200.000	-0.083	-0.403
-580.806	-78.250	0.184	0.063
-579.792	-31.466	-0.266	-0.150
-578.777	-46.407	0.093	0.046
-577.763	-102.684	0.347	0.083
-576.748	51.922	-0.114	0.109
-575.733	-90.697	-0.085	-0.024
-574.719	-73.293	-0.282	-0.104
-573.704	113.813	-0.227	0.277
-572.690	345.686	0.120	-0.237
-571.675	800.000	-0.028	-0.095
-570.661	-200.000	0.016	0.094
-569.646	-200.000	0.052	-0.510
-568.631	17.759	0.184	0.147
-567.617	98.341	0.075	0.087
-566.602	316.084	-0.138	-0.261
-565.588	2.521	-0.222	0.161
-564.573	525.753	0.120	0.283
-563.558	80.887	0.117	0.127
-562.544	-128.613	-0.217	-0.031
-561.529	333.888	-0.141	-0.274
-560.515	-200.000	0.057	0.349
-559.500	-68.974	-0.313	0.121
-558.485	-91.308	-0.216	0.062
-557.471	-45.804	-0.180	0.089
-556.456	-43.859	-0.114	0.058
-555.442	240.328	0.125	-0.208
-554.427	356.330	0.033	0.066
-553.412	-101.911	0.173	0.042
-552.398	-98.337	-0.274	-0.070
-551.383	68.070	0.169	0.174
-550.369	247.330	0.124	0.210
-549.354	800.000	0.112	0.405
-548.339	-2.398	0.249	-0.175
-547.325	195.392	0.200	0.305
-546.310	-52.076	0.190	0.089
-545.296	-45.160	0.138	-0.069
-544.281	-200.000	-0.001	-0.154
-543.266	342.397	0.075	0.148
-542.252	186.602	0.147	0.220
-541.237	633.859	0.095	-0.241
-540.223	167.630	0.203	-0.290
-539.208	-143.280	-0.305	-0.029
-538.193	-200.000	0.017	-0.162
-537.179	-81.910	0.262	-0.086
-536.164	-59.363	0.222	0.096
-535.150	7.057	-0.093	-0.069
-534.135	349.753	-0.139	0.275
-533.121	-83.635	0.080	0.026
-532.106	800.000	-0.049	-0.160
-531.091	-34.246	-0.356	-0.196
-530.077	21.101	-0.217	-0.176
-529.062	38.988	0.285	0.255
-528.048	-58.274	0.445	-0.194
-527.033	-110.097	0.186	0.039
-526.018	332.266	-0.057	0.111
-525.004	2.388	-0.100	0.072
-523.989	125.209	-0.162	-0.204
-522.975	96.388	-0.349	0.400
-521.960	-200.000	-0.011	0.284
-520.945	-99.684	0.396	-0.099
-519.931	-47.548	-0.341	0.166
-518.916	-108.872	-0.327	-0.070
-517.902	253.054	-0.057	-0.097
-516.887	-83.783	-0.327	0.104
-515.872	-200.000	0.035	-0.243
-514.858	-105.427	0.171	-0.039
-513.843	346.339	0.036	0.071
-512.829	-119.213	-0.303	-0.053
-511.814	223.483	0.183	-0.296
-510.799	-78.130	0.147	0.051
-509.785	117.846	-0.320	0.394
-508.770	101.992	0.030	0.035
-507.756	-25.369	-0.331	0.196
-506.741	-200.000	0.015	-0.129
-505.726	-129.817	-0.063	0.009
-504.712	-174.513	0.130	0.004
-503.697	-72.962	-0.169	-0.062
-502.683	123.741	-0.108	-0.136
-501.668	58.835	0.193	-0.189
-500.653	-170.064	0.038	0.001
-499.639	-200.000	0.037	0.242
-498.624	-133.573	-0.344	0.043
-497.610	263.989	-0.240	0.417
-496.595	-17.593	0.102	-0.064
-495.581	172.447	-0.233	0.335
-494.566	-200.000	-0.060	0.407
-493.551	59.900	-0.365	0.360
-492.537	-10.018	-0.313	-0.208
-491.522	14.788	0.010	-0.008
-490.508	-200.000	0.063	0.377
-489.493	64.977	-0.086	0.087
-488.478	28.350	0.187	0.158
-487.464	420.746	-0.084	-0.180
-486.449	403.152	-0.178	-0.374
-485.435	123.659	0.207	-0.259
-484.420	-91.963	0.168	0.048
-483.405	34.972	0.076	0.067
-482.391	252.666	0.057	0.097
-481.376	32.857	-0.179	-0.155
-480.362	67.556	-0.232	-0.237
-479.347	-200.000	0.016	0.183
-478.332	55.949	-0.120	0.116
-477.318	249.165	-0.124	-0.210
-476.303	83.606	0.173	-0.188
-475.289	62.412	0.205	-0.205
-474.274	-200.000	-0.010	-0.082
-473.259	364.450	0.129	0.260
-472.245	-90.340	-0.268	-0.078
-471.230	47.355	0.323	0.300
-470.216	-166.296	0.370	-0.016
-469.201	-107.585	-0.278	-0.061
-468.186	88.826	0.346	0.384
-467.172	-9.929	0.212	0.141
-466.157	198.507	-0.234	-0.358
-465.143	202.972	-0.302	0.466
-464.128	-38.795	0.170	-0.090
-463.113	273.862	0.147	-0.260
-462.099	-89.866	0.261	0.076
-461.084	-137.604	-0.167	-0.019
-460.070	12.627	-0.109	0.084
-459.055	309.035	0.106	0.198
-458.040	-149.836	-0.286	-0.022
-457.026	-5.692	0.057	-0.039
-456.011	169.118	-0.188	0.268
-454.997	48.232	0.172	0.161
-453.982	185.312	-0.044	-0.066
-452.968	154.196	0.177	0.242
-451.953	-14.294	-0.110	-0.071
-450.938	-200.000	0.051	0.360
-449.924	-135.229	0.250	0.030
-448.909	800.000	-0.053	0.224
-447.895	189.581	0.154	-0.230
-446.880	2.038	-0.152	0.109
-445.865	-40.341	0.091	-0.047
-444.851	-122.808	-0.078	0.013
-443.836	130.738	0.276	-0.354
-442.822	233.745	-0.120	0.197
-441.807	-20.809	-0.167	0.102
-440.792	222.919	0.023	0.038
-439.778	-36.180	-0.340	-0.183
-438.763	145.549	0.027	0.036
-437.749	137.275	0.065	-0.085
-436.734	109.542	0.213	0.255
-435.719	800.000	-0.058	0.169
-434.705	-149.430	-0.530	-0.042
-433.690	-85.431	-0.072	0.022
-432.676	7.571	-0.191	-0.142
-431.661	-200.000	0.038	0.211
-430.646	141.507	-0.082	0.108
-429.632	106.178	-0.153	0.181
-428.617	297.879	-0.035	-0.064
-427.603	-200.000	0.041	0.220
-426.588	10.168	-0.179	-0.135
-425.573	84.093	0.102	0.111
-424.559	800.000	-0.030	-0.100
-423.544	-26.631	0.369	-0.215
-422.530	18.769	-0.348	-0.278
-421.515	241.141	-0.197	0.328
-420.500	44.125	0.164	0.150
-419.486	800.000	-0.109	0.300
-418.471	29.523	-0.168	0.143
-417.457	-146.185	-0.279	0.024
-416.442	800.000	0.042	0.179
-415.428	21.049	0.105	0.085
-414.413	-58.900	-0.276	-0.119
-413.398	-200.000	-0.010	0.234
-412.384	265.442	0.082	0.142
-411.369	-182.512	0.373	-0.007
-410.355	95.499	0.229	-0.261
-409.340	754.632	0.042	0.113
-408.325	-94.702	-0.239	0.065
-407.311	71.994	0.062	-0.064
-406.296	547.424	0.093	0.221
-405.282	800.000	0.031	-0.109
-404.267	616.009	0.071	-0.178
-403.252	311.025	0.079	-0.148
-402.238	-119.096	-0.292	0.051
-401.223	135.403	-0.158	-0.205
-400.209	72.852	-0.158	-0.165
-399.194	453.811	0.178	0.392
-398.179	-132.179	0.165	-0.021
-397.165	-32.610	-0.156	0.087
-396.150	-88.628	-0.169	-0.050
-395.136	141.476	-0.093	0.123
-394.121	-200.000	-0.002	0.123
-393.106	800.000	0.014	-0.056
-392.092	-200.000	0.001	-0.138
-391.077	45.583	0.164	0.151
-390.063	16.875	-0.068	0.053
-389.048	142.163	-0.120	-0.158
-388.033	-111.311	-0.006	0.001
-387.019	34.531	-0.198	-0.172
-386.004	13.214	0.153	0.118
-384.990	192.781	-0.078	-0.117
-383.975	-200.000	-0.005	-0.232
-382.960	458.751	-0.007	0.015
-381.946	317.447	-0.063	0.119
-380.931	83.200	-0.211	0.229
-379.917	-115.137	-0.313	-0.059
-378.902	20.156	0.160	-0.129
-377.888	247.928	0.151	0.254
-376.873	-71.430	-0.062	-0.023
-375.858	147.209	0.092	0.123
-374.844	-42.799	-0.443	0.224
-373.829	-93.164	0.201	-0.056
-372.815	189.668	0.025	0.037
-371.800	331.447	0.042	0.080
-370.785	10.170	-0.046	-0.035
-369.771	2.551	0.108	-0.078
-368.756	-20.175	-0.139	-0.085
-367.742	11.556	-0.156	-0.119
-366.727	-200.000	-0.021	-0.125
-365.712	161.399	0.096	-0.134
-364.698	-24.678	-0.121	0.072
-363.683	-200.000	-0.001	-0.018
-362.669	800.000	-0.081	-0.343
-361.654	800.000	0.067	0.201
-360.639	297.569	0.093	-0.170
-359.625	-172.319	0.130	-0.004
-358.610	-21.758	-0.057	0.034
-357.596	-78.147	-0.085	0.029
-356.581	800.000	0.158	0.484
-355.566	-99.718	-0.350	-0.087
-354.552	353.534	0.093	0.183
-353.537	-73.392	0.339	0.123
-352.523	800.000	0.018	0.071
-351.508	440.407	0.029	-0.063
-350.493	-15.069	0.221	-0.141
-349.479	74.188	0.065	-0.068
-348.464	68.383	0.090	0.091
-347.450	-10.175	-0.219	0.144
-346.435	42.623	-0.146	0.132
-345.420	13.522	-0.061	0.047
-344.406	195.207	0.231	-0.348
-343.391	-64.655	0.576	-0.232
-342.377	274.466	-0.088	-0.155
-341.362	-26.673	0.311	0.181
-340.348	236.709	-0.239	0.394
-339.333	-200.000	-0.003	-0.171
-338.318	657.708	-0.125	-0.321
-337.304	93.381	0.178	-0.200
-336.289	89.036	-0.115	-0.127
-335.275	-58.252	0.187	0.081
-334.260	-200.000	0.028	0.121
-333.245	-61.470	0.382	0.160
-332.231	-200.000	0.033	-0.390
-331.216	-14.130	-0.063	0.040
-330.202	125.849	0.189	0.237
-329.187	94.897	0.227	0.256
-328.172	79.846	-0.208	-0.222
-327.158	-164.447	-0.269	0.012
-326.143	13.387	0.108	0.083
-325.129	-200.000	-0.020	-0.126
-324.114	95.271	-0.175	-0.198
-323.099	-200.000	0.009	-0.255
-322.085	23.121	0.081	-0.066
-321.070	656.176	-0.054	0.138
-320.056	-105.013	0.171	-0.039
-319.041	-179.464	-0.362	0.008
-318.026	-148.932	0.115	-0.009
-317.012	-60.216	0.268	-0.113
-315.997	-200.000	0.056	0.256
-314.983	-103.592	-0.177	-0.041
-313.968	14.586	0.174	-0.135
-312.953	-112.702	-0.149	-0.029
-311.939	-200.000	0.014	0.198
-310.924	236.095	0.138	0.226
-309.910	112.471	-0.082	0.099
-308.895	209.299	0.237	-0.369
-307.880	-134.216	-0.231	-0.028
-306.866	80.384	-0.040	0.043
-305.851	-200.000	-0.031	-0.280
-304.837	-128.313	-0.251	0.036
-303.822	-193.589	0.035	0.000
-302.807	-89.304	-0.014	0.004
-301.793	45.898	-0.052	0.047
-300.778	-83.817	0.331	0.105
-299.764	-117.217	-0.248	-0.045
-298.749	-102.092	0.423	-0.101
-297.735	800.000	-0.019	-0.069
-296.720	-75.244	0.071	0.025
-295.705	-80.601	0.110	0.036
-294.691	-46.411	-0.159	0.077
-293.676	30.704	-0.224	-0.190
-292.662	-200.000	-0.011	-0.234
-291.647	-200.000	0.009	-0.075
-290.632	-179.119	0.075	0.002
-289.618	-176.185	-0.177	-0.005
-288.603	249.804	0.093	-0.157
-287.589	-200.000	-0.027	0.187
-286.574	-51.195	0.093	-0.043
-285.559	-28.625	0.095	0.054
-284.545	-169.660	-0.102	-0.004
-283.530	-115.248	0.061	0.011
-282.516	800.000	0.036	0.136
-281.501	-146.699	-0.145	0.012
-280.486	-137.134	0.459	0.052
-279.472	328.456	0.106	-0.202
-278.457	-200.000	0.023	0.165
-277.443	-200.000	-0.011	0.404
-276.428	-152.358	-0.255	-0.018
-275.413	-200.000	0.104	0.470
-274.399	319.022	-0.045	0.085
-273.384	-132.750	0.392	-0.050
-272.370	285.190	0.054	0.096
-271.355	243.549	-0.134	-0.222
-270.340	16.444	-0.417	0.327
-269.326	-124.621	0.268	-0.041
-268.311	-30.213	-0.056	0.032
-267.297	14.690	-0.122	-0.095
-266.282	-89.557	0.187	-0.055
-265.267	684.900	0.100	-0.258
-264.253	800.000	-0.038	-0.112
-263.238	800.000	-0.124	0.362
-262.224	-119.193	-0.223	0.039
-261.209	-153.697	-0.250	-0.017
-260.195	-200.000	-0.028	-0.495
-259.180	-200.000	-0.062	-0.281
-258.165	-200.000	0.025	-0.134
-257.151	-150.320	-0.151	-0.012
-256.136	43.413	0.052	0.047
-255.122	-77.849	0.121	0.042
-254.107	99.309	0.103	0.118
-253.092	82.149	-0.105	0.113
-252.078	72.975	-0.026	-0.027
-251.063	800.000	0.041	0.153
-250.049	800.000	0.067	-0.195
-249.034	189.655	0.085	-0.126
-248.019	45.865	-0.123	0.112
-247.005	-76.735	0.223	0.077
-245.990	176.444	0.208	-0.299
-244.976	-107.518	-0.116	-0.025
-243.961	60.026	0.161	0.158
-242.946	-2.319	0.101	0.070
-241.932	-200.000	-0.001	-0.120
-240.917	-200.000	0.016	-0.154
-239.903	-92.541	0.121	-0.034
-238.888	14.017	-0.116	0.089
-237.873	-67.180	0.335	-0.131
-236.859	-152.402	0.108	0.008
-235.844	-146.902	-0.158	-0.013
-234.830	135.633	0.206	-0.266
-233.815	278.747	0.151	-0.267
-232.800	-5.001	0.122	-0.083
-231.786	-36.907	0.156	-0.083
-230.771	800.000	0.071	0.199
-229.757	-200.000	0.047	-0.274
-228.742	540.256	0.018	-0.043
-227.727	-70.549	-0.140	0.052
-226.713	-101.274	0.324	0.078
-225.698	172.511	0.132	-0.188
-224.684	177.227	0.057	-0.082
-223.669	-128.797	0.446	-0.062
-222.655	-35.061	0.353	0.190
-221.640	-100.602	0.454	0.111
-220.625	800.000	-0.106	0.299
-219.611	-149.376	-0.539	-0.042
-218.596	-200.000	-0.053	0.340
-217.582	-68.895	0.274	0.105
-216.567	272.189	0.136	0.238
-215.552	425.444	-0.034	-0.072
-214.538	-200.000	0.003	-0.374
-213.523	-28.177	-0.331	-0.189
-212.509	-34.611	-0.040	-0.022
-211.494	-29.578	0.121	0.068
-210.479	-34.165	0.290	-0.157
-209.465	692.615	-0.070	0.181
-208.450	73.178	0.180	-0.187
-207.436	43.277	0.289	-0.261
-206.421	-101.598	-0.324	-0.078
-205.406	144.459	-0.038	-0.050
-204.392	-200.000	-0.011	0.266
-203.377	-200.000	-0.030	-0.203
-202.363	-109.069	-0.331	0.070
-201.348	420.496	0.134	-0.283
-200.333	-200.000	-0.063	-0.275
-199.319	-55.258	-0.205	-0.091
-198.304	-86.698	-0.274	0.083
-197.290	800.000	-0.050	0.192
-196.275	-94.409	-0.213	0.058
-195.260	-19.829	-0.219	0.134
-194.246	-2.994	0.161	-0.111
-193.231	-190.532	-0.080	-0.001
-192.217	-122.024	-0.038	-0.006
-191.202	44.500	-0.086	0.078
-190.187	-200.000	-0.001	-0.193
-189.173	800.000	-0.052	-0.223
-188.158	-200.000	-0.010	0.330
-187.144	-200.000	-0.006	-0.044
-186.129	8.129	-0.278	0.207
-185.114	135.294	-0.055	-0.070
-184.100	360.089	-0.053	0.104
-183.085	-200.000	-0.004	0.063
-182.071	-140.999	0.360	0.037
-181.056	-200.000	0.271	0.000
-180.042	-73.362	-0.232	0.084
-179.027	-10.856	-0.139	0.091
-178.012	314.980	-0.059	0.110
-176.998	-131.897	0.372	-0.048
-175.983	118.606	0.076	-0.093
-174.969	-200.000	0.000	0.014
-173.954	105.433	-0.234	0.272
-172.939	568.555	0.134	0.322
-171.925	-110.073	0.253	0.052
-170.910	74.417	0.307	-0.318
-169.896	-200.000	-0.055	-0.340
-168.881	-44.228	-0.263	0.130
-167.866	-166.179	0.149	-0.006
-166.852	18.554	-0.243	0.192
-165.837	-64.017	0.342	0.138
-164.823	11.418	-0.369	0.279
-163.808	78.642	0.111	0.117
-162.793	118.042	0.029	0.036
-161.779	-23.386	0.338	0.200
-160.764	800.000	-0.077	0.234
-159.750	626.056	0.028	0.069
-158.735	-52.710	-0.097	0.044
-157.720	131.971	0.136	-0.172
-156.706	56.901	0.123	-0.118
-155.691	376.781	0.097	-0.195
-154.677	800.000	-0.086	-0.302
-153.662	-88.250	0.380	0.112
-152.647	-113.488	0.346	-0.067
-151.633	46.097	-0.190	-0.174
-150.618	144.663	0.112	-0.147
-149.604	29.280	-0.292	-0.245
-148.589	-64.737	-0.272	-0.109
-147.574	-159.905	-0.286	0.015
-146.560	11.087	-0.130	-0.098
-145.545	-43.398	-0.246	-0.123
-144.531	110.429	-0.320	0.380
-143.516	-26.728	0.126	0.073
-142.502	-6.721	-0.221	-0.148
-141.487	-35.715	-0.138	0.074
-140.472	-138.695	-0.151	-0.016
-139.458	-85.806	-0.209	0.064
-138.443	251.700	-0.067	-0.112
-137.429	-108.143	0.187	0.040
-136.414	411.558	-0.091	0.190
-135.399	0.382	-0.116	-0.081
-134.385	-42.242	0.059	-0.030
-133.370	800.000	-0.035	-0.109
-132.356	5.976	0.027	0.020
-131.341	800.000	-0.032	0.124
-130.326	-16.496	-0.204	0.128
-129.312	64.145	-0.104	0.103
-128.297	22.667	0.113	0.091
-127.283	-115.899	-0.100	-0.018
-126.268	-200.000	-0.005	-0.135
-125.253	800.000	-0.069	-0.230
-124.239	19.303	-0.290	0.230
-123.224	800.000	-0.028	-0.105
-122.210	-17.019	0.063	-0.039
-121.195	498.394	0.068	-0.153
-120.180	800.000	0.074	0.311
