DTS Sentinel unit serial number:	SN413079Multiplexer serial number:	ORYXHardware model number:	OX4-SRSoftware version number:	ORYX F/W v4.00 Oryx Data Collector v3.7.2.0data status	okinstallation	princeton_trtdifferential loss correction	single-endedforward channel	channel 1reverse channel	N/Adate	2019/09/13time	15:38:35forward acquisition time	60.00reverse acquisition time	0.00gamma	496.2192k internal	0.2307k external	0.2307temperature offset calibration	1.0162default loss term (dB/km)	0.3790temperature slope calibration	1.0000multiplexer offset coefficient	1.0000multiplexer slope coefficient	1.0000fibre end	0.00T internal ref (°C)	34.92T ext. ref 1 (°C)	4.76T ext. ref 2 (°C)	29.28length (m)	temperature (°C)	Stokes	anti-Stokes-747.200	-10.453	0.104	-0.070
-746.185	-182.500	-0.192	-0.004
-745.171	-95.980	0.339	-0.092
-744.156	0.804	0.098	-0.072
-743.142	-146.480	-0.342	-0.030
-742.127	145.841	0.013	0.017
-741.112	-200.000	0.003	-0.038
-740.098	681.384	0.095	0.251
-739.083	357.041	-0.079	0.160
-738.069	59.804	-0.181	0.181
-737.054	-48.202	0.461	-0.226
-736.039	12.910	0.039	0.031
-735.025	-3.510	-0.247	0.174
-734.010	800.000	-0.010	0.031
-732.996	-82.947	0.016	0.005
-731.981	-73.760	-0.294	0.109
-730.966	638.093	-0.078	0.201
-729.952	-200.000	-0.029	0.162
-728.937	346.682	-0.020	-0.039
-727.923	-200.000	0.003	-0.129
-726.908	-120.535	-0.190	0.033
-725.894	285.399	0.085	0.155
-724.879	-64.908	0.093	-0.038
-723.864	542.971	-0.049	-0.119
-722.850	-33.636	-0.126	-0.071
-721.835	800.000	-0.073	-0.230
-720.821	-33.586	-0.111	0.062
-719.806	-200.000	0.013	0.095
-718.791	202.628	0.077	0.120
-717.777	-200.000	0.000	-0.359
-716.762	88.594	-0.088	-0.099
-715.748	71.960	0.011	0.012
-714.733	-200.000	0.023	-0.274
-713.718	-131.440	0.133	-0.018
-712.704	175.537	0.087	0.128
-711.689	37.161	0.243	-0.219
-710.675	-31.889	-0.099	-0.057
-709.660	-59.106	-0.189	-0.083
-708.645	-200.000	-0.109	-0.489
-707.631	216.541	0.112	-0.181
-706.616	-71.929	-0.382	-0.144
-705.602	800.000	-0.162	0.464
-704.587	-200.000	-0.069	-0.441
-703.572	-33.982	0.005	-0.003
-702.558	264.062	0.154	0.271
-701.543	-74.069	-0.087	0.032
-700.529	-76.922	-0.231	0.082
-699.514	164.340	0.124	0.177
-698.499	-142.669	0.107	-0.011
-697.485	-49.335	-0.139	-0.068
-696.470	-14.626	0.088	0.058
-695.456	-55.808	0.206	-0.093
-694.441	-187.425	-0.291	0.004
-693.426	-38.712	-0.151	0.081
-692.412	-116.553	0.099	0.019
-691.397	12.294	-0.125	-0.098
-690.383	-169.228	0.084	-0.003
-689.368	800.000	-0.104	-0.296
-688.354	-200.000	0.026	-0.151
-687.339	290.552	-0.028	0.051
-686.324	-93.162	0.179	-0.051
-685.310	49.705	-0.197	0.189
-684.295	-127.208	-0.212	0.031
-683.281	-150.289	0.212	0.017
-682.266	-200.000	0.004	-0.407
-681.251	164.611	-0.289	-0.414
-680.237	-0.460	-0.120	0.086
-679.222	270.094	0.042	-0.075
-678.208	-114.291	-0.137	-0.027
-677.193	148.650	0.189	-0.259
-676.178	43.218	-0.166	-0.154
-675.164	81.591	-0.073	-0.080
-674.149	800.000	0.020	0.082
-673.135	83.935	-0.213	-0.236
-672.120	-17.799	-0.306	0.195
-671.105	-52.842	-0.352	0.164
-670.091	-200.000	0.012	-0.309
-669.076	5.650	-0.211	-0.158
-668.062	800.000	0.029	-0.112
-667.047	-200.000	0.019	-0.130
-666.032	-200.000	-0.059	-0.332
-665.018	-146.605	0.200	0.018
-664.003	512.920	-0.061	0.143
-662.989	185.852	-0.046	0.069
-661.974	800.000	-0.011	-0.033
-660.959	-200.000	-0.001	0.120
-659.945	-26.598	0.190	-0.113
-658.930	-200.000	0.020	0.178
-657.916	156.112	0.067	0.093
-656.901	92.174	0.064	-0.073
-655.886	800.000	0.096	0.304
-654.872	-60.705	0.260	-0.112
-653.857	-81.150	-0.179	-0.060
-652.843	-173.746	-0.335	-0.010
-651.828	131.687	-0.078	-0.102
-650.814	-200.000	-0.269	-0.001
-649.799	93.104	0.137	0.157
-648.784	-200.000	0.065	-0.421
-647.770	-3.251	0.202	-0.142
-646.755	145.244	0.028	0.038
-645.741	629.019	0.125	-0.321
-644.726	800.000	0.116	-0.449
-643.711	-144.718	-0.163	-0.015
-642.697	148.659	0.130	-0.178
-641.682	-160.948	0.135	-0.007
-640.668	-200.000	0.002	0.275
-639.653	-101.253	-0.279	0.069
-638.638	-79.503	-0.213	0.073
-637.624	-200.000	-0.017	0.134
-636.609	-11.108	-0.108	0.072
-635.595	521.466	-0.079	0.187
-634.580	-59.821	-0.090	-0.039
-633.565	-45.000	0.103	0.052
-632.551	-200.000	0.020	0.118
-631.536	-6.735	0.153	0.105
-630.522	188.439	-0.159	-0.240
-629.507	633.860	0.060	-0.153
-628.492	-200.000	-0.021	0.177
-627.478	-168.182	-0.332	0.013
-626.463	-113.667	-0.130	-0.026
-625.449	10.974	0.049	-0.038
-624.434	286.001	-0.074	0.136
-623.419	-200.000	0.020	0.140
-622.405	-200.000	-0.048	0.341
-621.390	-46.161	-0.115	0.057
-620.376	-200.000	-0.028	-0.159
-619.361	800.000	0.065	0.195
-618.346	49.476	0.063	-0.060
-617.332	-200.000	-0.023	0.166
-616.317	559.901	0.128	0.314
-615.303	-145.345	-0.074	-0.007
-614.288	72.968	-0.132	-0.139
-613.273	-24.347	0.227	0.137
-612.259	-76.205	0.164	-0.059
-611.244	228.265	0.086	-0.142
-610.230	-131.749	0.135	0.018
-609.215	81.092	0.079	0.086
-608.201	-200.000	0.050	-0.242
-607.186	25.107	0.249	0.209
-606.171	-84.291	0.276	-0.088
-605.157	768.008	-0.023	0.064
-604.142	-200.000	-0.060	-0.370
-603.128	214.954	-0.196	-0.315
-602.113	402.144	0.063	0.134
-601.098	164.721	0.058	0.082
-600.084	-82.837	-0.371	-0.121
-599.069	-126.526	0.255	-0.038
-598.055	-200.000	0.010	0.147
-597.040	144.436	-0.140	-0.190
-596.025	-35.105	0.163	-0.090
-595.011	-17.408	0.136	0.087
-593.996	357.300	0.174	0.351
-592.982	65.449	-0.220	-0.225
-591.967	-83.714	-0.148	0.048
-590.952	0.252	0.172	-0.124
-589.938	46.829	-0.182	-0.171
-588.923	-92.634	-0.214	-0.061
-587.909	800.000	-0.067	0.258
-586.894	-2.601	-0.160	-0.113
-585.879	274.015	-0.104	-0.185
-584.865	800.000	-0.015	0.065
-583.850	-114.378	-0.049	0.010
-582.836	11.753	-0.037	-0.029
-581.821	-153.800	-0.086	-0.006
-580.806	67.603	-0.040	0.041
-579.792	104.357	-0.045	-0.054
-578.777	25.476	0.066	-0.056
-577.763	-69.111	0.240	0.093
-576.748	800.000	0.057	-0.216
-575.733	64.561	0.240	-0.244
-574.719	-20.170	-0.182	0.113
-573.704	-93.077	0.320	-0.090
-572.690	460.810	-0.105	-0.236
-571.675	800.000	0.028	-0.117
-570.661	-112.028	0.239	0.049
-569.646	770.757	-0.059	0.162
-568.631	-108.185	-0.207	0.045
-567.617	-84.083	0.043	0.014
-566.602	21.376	-0.054	0.044
-565.588	-158.271	0.152	-0.009
-564.573	-73.682	-0.174	0.064
-563.558	-37.747	0.070	0.038
-562.544	-13.649	-0.028	0.018
-561.529	-44.340	-0.273	0.138
-560.515	216.377	-0.052	-0.083
-559.500	-13.889	-0.082	-0.054
-558.485	134.605	-0.069	0.090
-557.471	800.000	0.192	-0.673
-556.456	255.850	-0.084	-0.146
-555.442	-139.789	0.234	-0.025
-554.427	120.987	-0.093	-0.117
-553.412	800.000	-0.092	-0.272
-552.398	-38.580	0.375	-0.200
-551.383	-62.831	-0.522	0.218
-550.369	61.637	-0.119	0.120
-549.354	76.333	-0.191	-0.204
-548.339	-68.616	0.226	-0.088
-547.325	-200.000	0.009	-0.178
-546.310	-152.630	-0.347	-0.025
-545.296	-93.781	-0.102	-0.028
-544.281	800.000	-0.025	0.080
-543.266	-54.309	0.070	0.032
-542.252	-24.255	-0.029	0.017
-541.237	-69.622	-0.290	0.112
-540.223	297.420	-0.042	0.078
-539.208	-106.208	-0.412	0.093
-538.193	43.278	-0.145	-0.133
-537.179	-200.000	-0.012	0.151
-536.164	-54.473	-0.199	-0.091
-535.150	27.438	0.025	0.021
-534.135	15.643	0.247	-0.195
-533.121	-107.350	0.285	0.063
-532.106	-87.062	-0.279	0.086
-531.091	-67.980	0.166	0.065
-530.077	55.688	-0.229	0.224
-529.062	-92.648	0.154	-0.044
-528.048	-200.000	0.006	-0.347
-527.033	558.237	0.083	0.201
-526.018	-136.298	-0.577	-0.068
-525.004	800.000	0.085	0.238
-523.989	-88.146	-0.064	0.019
-522.975	-90.366	0.257	0.075
-521.960	-7.652	0.132	-0.090
-520.945	489.959	-0.248	-0.572
-519.931	623.316	0.092	-0.233
-518.916	606.158	0.132	-0.331
-517.902	-120.744	0.412	0.070
-516.887	644.593	-0.040	0.104
-515.872	-10.079	-0.180	0.120
-514.858	30.229	-0.307	-0.264
-513.843	-15.472	-0.250	-0.161
-512.829	32.455	-0.373	-0.325
-511.814	-200.000	-0.004	-0.233
-510.799	-117.321	0.338	0.062
-509.785	148.065	-0.110	0.149
-508.770	-152.764	0.114	0.008
-507.756	800.000	0.110	-0.331
-506.741	-54.669	-0.225	-0.103
-505.726	800.000	0.058	0.215
-504.712	310.512	-0.096	0.180
-503.697	-179.906	-0.305	-0.007
-502.683	-34.571	0.287	0.158
-501.668	-66.677	-0.339	-0.135
-500.653	-145.549	-0.284	0.026
-499.639	0.894	0.097	0.070
-498.624	168.152	-0.038	0.054
-497.610	-91.747	0.226	-0.065
-496.595	784.649	-0.031	-0.086
-495.581	-88.019	0.163	0.049
-494.566	-24.761	-0.258	0.154
-493.551	-199.475	0.150	-0.001
-492.537	-128.984	-0.096	-0.014
-491.522	670.862	-0.086	-0.223
-490.508	-29.117	-0.368	-0.212
-489.493	-20.314	0.218	-0.135
-488.478	-200.000	0.023	0.219
-487.464	38.399	-0.264	-0.236
-486.449	36.508	-0.219	0.194
-485.435	108.093	0.115	0.138
-484.420	-100.136	0.141	-0.035
-483.405	-79.408	0.111	-0.038
-482.391	-200.000	-0.064	-0.347
-481.376	605.004	0.077	-0.193
-480.362	763.273	0.075	-0.206
-479.347	336.259	0.060	0.118
-478.332	-200.000	0.016	-0.200
-477.318	800.000	-0.062	-0.206
-476.303	-128.660	0.297	0.042
-475.289	-34.754	0.068	0.037
-474.274	-149.665	-0.298	-0.024
-473.259	-33.794	0.121	-0.067
-472.245	63.262	-0.163	0.164
-471.230	-200.000	-0.003	0.060
-470.216	-117.165	-0.227	0.042
-469.201	464.298	-0.051	-0.115
-468.186	37.396	-0.046	-0.041
-467.172	800.000	-0.007	-0.020
-466.157	-29.982	0.251	0.144
-465.143	-166.913	-0.179	0.007
-464.128	191.538	0.047	0.070
-463.113	-2.697	-0.037	-0.026
-462.099	-60.024	0.342	0.147
-461.084	116.288	0.225	0.277
-460.070	93.193	0.117	0.133
-459.055	-90.981	0.122	-0.035
-458.040	-108.305	0.208	0.045
-457.026	-106.739	-0.310	-0.069
-456.011	-31.179	0.071	0.040
-454.997	-67.992	-0.301	-0.118
-453.982	-200.000	0.062	0.312
-452.968	83.778	-0.201	0.221
-451.953	-134.729	0.374	0.046
-450.938	313.456	-0.083	0.158
-449.924	-200.000	0.004	-0.149
-448.909	-88.602	-0.271	-0.081
-447.895	-106.928	0.182	-0.041
-446.880	244.250	0.128	-0.216
-445.865	-52.822	0.181	0.084
-444.851	128.834	0.053	0.067
-443.836	1.502	-0.246	-0.178
-442.822	-75.951	0.060	-0.021
-441.807	173.120	-0.270	0.390
-440.792	-24.968	-0.032	0.019
-439.778	-79.060	-0.230	-0.078
-438.763	-101.480	0.232	0.057
-437.749	723.784	0.160	0.428
-436.734	-14.243	-0.258	0.167
-435.719	-114.294	-0.257	-0.050
-434.705	-129.212	-0.062	-0.009
-433.690	-137.298	-0.233	0.027
-432.676	603.166	-0.124	0.310
-431.661	382.747	0.012	-0.024
-430.646	180.258	0.158	-0.232
-429.632	147.654	-0.156	-0.211
-428.617	527.931	-0.058	0.139
-427.603	800.000	0.021	0.069
-426.588	-134.744	-0.372	0.045
-425.573	-129.996	0.131	-0.018
-424.559	546.039	-0.101	-0.242
-423.544	-111.498	-0.249	-0.051
-422.530	800.000	0.030	0.099
-421.515	-200.000	-0.063	-0.311
-420.500	-132.834	0.142	0.018
-419.486	118.637	-0.105	-0.130
-418.471	47.402	0.044	0.041
-417.457	-200.000	-0.055	0.360
-416.442	-33.504	-0.216	-0.120
-415.428	160.471	0.212	-0.297
-414.413	-91.134	0.307	0.088
-413.398	129.797	0.303	-0.389
-412.384	-140.668	0.054	0.006
-411.369	591.809	-0.070	0.174
-410.355	-5.467	-0.242	0.167
-409.340	-200.000	-0.029	-0.166
-408.325	-32.841	0.039	0.022
-407.311	-112.344	-0.297	-0.060
-406.296	25.568	-0.118	0.099
-405.282	-100.692	-0.236	0.058
-404.267	800.000	-0.191	0.555
-403.252	-21.651	-0.037	-0.023
-402.238	279.740	0.116	-0.209
-401.223	-200.000	-0.007	-0.041
-400.209	-200.000	-0.010	0.168
-399.194	-51.800	-0.007	-0.003
-398.179	-43.635	-0.103	0.052
-397.165	-126.528	0.105	0.016
-396.150	800.000	-0.096	-0.390
-395.136	-115.191	0.067	-0.013
-394.121	-49.999	-0.115	0.055
-393.106	-112.032	-0.292	0.059
-392.092	800.000	-0.010	0.035
-391.077	-121.901	0.045	-0.007
-390.063	-77.715	-0.331	-0.115
-389.048	800.000	-0.053	0.149
-388.033	83.751	0.042	0.046
-387.019	-200.000	-0.021	-0.250
-386.004	-58.518	-0.017	0.007
-384.990	800.000	-0.056	-0.169
-383.975	133.590	-0.149	-0.194
-382.960	-200.000	-0.032	0.142
-381.946	800.000	0.072	0.222
-380.931	-129.057	-0.122	-0.017
-379.917	133.983	-0.188	-0.244
-378.902	-101.937	0.197	0.048
-377.888	-78.054	-0.057	-0.020
-376.873	-54.195	0.219	0.100
-375.858	315.791	0.098	0.185
-374.844	800.000	-0.073	-0.311
-373.829	132.676	-0.137	-0.177
-372.815	800.000	-0.091	-0.256
-371.800	-110.707	0.122	-0.025
-370.785	75.796	0.109	0.115
-369.771	680.379	0.047	-0.123
-368.756	395.141	0.089	0.187
-367.742	-200.000	0.005	0.069
-366.727	78.476	0.155	-0.166
-365.712	-92.936	-0.191	0.053
-364.698	800.000	0.079	0.307
-363.683	-65.854	-0.091	-0.036
-362.669	86.816	-0.164	0.182
-361.654	-188.207	-0.085	-0.001
-360.639	346.635	0.070	-0.139
-359.625	-181.921	0.262	0.005
-358.610	235.821	-0.161	-0.266
-357.596	-200.000	0.032	-0.182
-356.581	97.706	-0.132	0.152
-355.566	75.962	-0.014	0.015
-354.552	800.000	0.068	0.205
-353.537	-200.000	0.013	0.309
-352.523	-90.275	-0.146	0.042
-351.508	298.411	0.169	0.312
-350.493	-95.935	-0.168	0.045
-349.479	-82.449	-0.268	-0.087
-348.464	-200.000	-0.030	0.226
-347.450	800.000	-0.057	0.196
-346.435	16.300	-0.300	-0.237
-345.420	125.239	0.179	0.226
-344.406	313.026	0.126	0.238
-343.391	46.956	-0.055	0.051
-342.377	-94.942	0.226	-0.061
-341.362	325.059	-0.025	0.048
-340.348	-111.016	0.204	0.042
-339.333	-200.000	0.007	-0.112
-338.318	307.830	0.022	-0.041
-337.304	-137.965	0.121	-0.014
-336.289	-20.649	-0.182	0.112
-335.275	693.345	0.037	-0.097
-334.260	-140.724	-0.225	-0.023
-333.245	-139.592	0.317	-0.034
-332.231	176.970	-0.223	0.325
-331.216	-20.151	-0.162	0.100
-330.202	334.552	-0.161	-0.312
-329.187	800.000	-0.024	-0.091
-328.172	-52.332	0.134	-0.062
-327.158	-200.000	0.081	-0.378
-326.143	635.986	0.020	0.050
-325.129	800.000	-0.026	0.078
-324.114	-200.000	0.027	0.300
-323.099	-175.513	0.304	0.008
-322.085	-200.000	-0.041	0.325
-321.070	449.649	0.064	0.142
-320.056	-200.000	-0.013	0.177
-319.041	37.142	0.286	0.254
-318.026	70.773	0.073	0.076
-317.012	-126.994	0.171	0.025
-315.997	87.146	-0.066	-0.073
-314.983	-90.229	-0.071	-0.021
-313.968	-43.474	0.116	-0.059
-312.953	79.378	0.116	-0.125
-311.939	-23.126	0.087	0.052
-310.924	42.879	0.198	-0.180
-309.910	93.614	0.089	0.101
-308.895	-6.876	0.172	0.117
-307.880	-51.328	0.134	-0.062
-306.866	-29.582	0.309	0.176
-305.851	-58.314	0.232	0.101
-304.837	124.233	-0.145	0.182
-303.822	176.387	0.176	0.256
-302.807	59.554	0.323	-0.318
-301.793	800.000	-0.051	-0.187
-300.778	-148.741	0.131	0.011
-299.764	-45.948	-0.273	0.134
-298.749	199.006	0.104	-0.159
-297.735	800.000	-0.058	-0.207
-296.720	-198.614	-0.388	0.002
-295.705	130.761	0.122	0.157
-294.691	54.467	0.294	0.283
-293.676	476.534	0.055	-0.125
-292.662	136.617	0.136	0.177
-291.647	572.627	-0.083	0.201
-290.632	72.016	0.223	-0.232
-289.618	-123.638	0.091	0.014
-288.603	86.038	0.081	-0.089
-287.589	66.796	-0.272	-0.276
-286.574	-111.611	0.230	0.047
-285.559	424.034	-0.034	-0.073
-284.545	-70.122	-0.091	-0.035
-283.530	231.165	-0.055	-0.090
-282.516	0.293	-0.151	0.108
-281.501	186.742	0.087	0.129
-280.486	-200.000	0.063	-0.329
-279.472	-118.954	-0.230	0.040
-278.457	543.262	-0.018	-0.042
-277.443	26.092	0.087	0.072
-276.428	344.946	-0.118	0.231
-275.413	-200.000	0.006	0.064
-274.399	-130.529	0.193	0.026
-273.384	-162.757	0.161	0.008
-272.370	800.000	0.054	-0.210
-271.355	800.000	0.139	0.437
-270.340	-44.642	0.181	0.090
-269.326	179.645	0.185	-0.270
-268.311	-82.576	-0.056	0.018
-267.297	416.477	-0.129	-0.276
-266.282	83.509	-0.200	0.218
-265.267	-75.043	0.491	-0.175
-264.253	-200.000	-0.061	-0.328
-263.238	325.170	0.153	-0.291
-262.224	-106.792	0.435	0.096
-261.209	-55.068	0.253	0.114
-260.195	-200.000	-0.004	0.262
-259.180	-35.697	-0.078	0.042
-258.165	-79.581	0.334	-0.113
-257.151	295.364	0.212	0.387
-256.136	-98.056	0.366	-0.094
-255.122	555.640	-0.029	0.071
-254.107	-41.280	0.207	0.106
-253.092	-200.000	-0.033	-0.177
-252.078	-42.719	0.107	0.054
-251.063	-85.701	-0.063	-0.019
-250.049	-200.000	0.022	0.164
-249.034	140.466	0.122	0.161
-248.019	-49.375	-0.308	-0.147
-247.005	-112.205	-0.180	-0.036
-245.990	112.888	-0.134	0.161
-244.976	266.931	0.172	0.300
-243.961	-75.621	-0.177	0.063
-242.946	800.000	0.108	-0.426
-241.932	800.000	0.029	-0.122
-240.917	493.796	-0.054	-0.124
-239.903	-69.670	0.222	-0.085
-238.888	331.708	0.013	-0.025
-237.873	-159.743	0.169	0.009
-236.859	378.383	0.200	-0.408
-235.844	725.041	-0.077	0.204
-234.830	-16.377	-0.317	-0.200
-233.815	64.917	0.160	0.161
-232.800	-105.102	0.129	0.030
-231.786	-129.999	0.360	0.049
-230.771	658.545	0.031	-0.080
-229.757	83.121	-0.110	0.119
-228.742	318.301	0.141	0.265
-227.727	-200.000	-0.058	0.312
-226.713	-167.091	0.147	-0.006
-225.698	615.222	0.080	0.200
-224.684	-200.000	-0.025	0.167
-223.669	-47.188	0.194	0.094
-222.655	-130.360	-0.191	0.026
-221.640	31.870	-0.317	0.272
-220.625	-27.942	0.189	-0.109
-219.611	-4.318	0.211	-0.146
-218.596	-1.717	0.024	0.017
-217.582	21.365	-0.178	-0.144
-216.567	-155.942	0.253	0.016
-215.552	800.000	0.069	0.243
-214.538	41.474	0.180	0.162
-213.523	-200.000	-0.036	-0.179
-212.509	319.663	0.131	-0.248
-211.494	424.103	-0.104	-0.222
-210.479	-76.860	-0.400	0.139
-209.465	772.918	0.005	0.012
-208.450	513.808	-0.038	-0.088
-207.436	718.855	-0.081	0.214
-206.421	142.290	-0.119	-0.157
-205.406	-200.000	-0.012	-0.155
-204.392	-135.223	-0.260	-0.031
-203.377	-174.786	0.202	-0.006
-202.363	22.992	0.162	0.133
-201.348	366.579	0.103	-0.206
-200.333	-186.441	-0.227	0.003
-199.319	28.426	-0.229	0.193
-198.304	-200.000	-0.017	0.234
-197.290	104.680	0.054	0.063
-196.275	-183.069	0.158	0.003
-195.260	800.000	0.094	0.287
-194.246	-102.786	0.062	-0.015
-193.231	-200.000	-0.001	0.125
-192.217	-84.907	0.210	0.066
-191.202	-145.538	0.310	-0.028
-190.187	800.000	-0.107	0.405
-189.173	398.533	0.148	-0.309
-188.158	1.284	0.112	-0.080
-187.144	-60.421	-0.136	-0.057
-186.129	800.000	-0.029	0.126
-185.114	-144.835	-0.123	0.011
-184.100	-179.961	-0.237	0.005
-183.085	-119.206	-0.479	-0.083
-182.071	235.474	0.089	0.147
-181.056	537.185	-0.023	0.055
-180.042	-49.336	-0.164	0.078
-179.027	-200.000	-0.003	-0.052
-178.012	-27.236	0.105	0.061
-176.998	163.428	-0.125	-0.175
-175.983	91.774	0.077	0.086
-174.969	-24.268	0.067	0.040
-173.954	-71.813	-0.194	0.072
-172.939	48.684	-0.405	-0.378
-171.925	-46.808	-0.073	-0.035
-170.910	-200.000	0.001	0.155
-169.896	-153.011	-0.057	0.004
-168.881	37.564	-0.157	0.138
-167.866	-97.552	0.151	0.039
-166.852	-200.000	-0.029	0.251
-165.837	277.250	-0.097	0.172
-164.823	-200.000	-0.008	0.048
-163.808	-17.643	-0.124	0.077
-162.793	279.656	0.141	-0.250
-161.779	183.021	0.249	-0.366
-160.764	-135.058	0.164	0.020
-159.750	-74.938	0.223	-0.079
-158.735	-58.408	0.245	-0.106
-157.720	-163.403	0.241	0.011
-156.706	-25.188	-0.239	-0.141
-155.691	71.293	-0.059	0.061
-154.677	-200.000	0.100	0.441
-153.662	-139.775	0.180	0.019
-152.647	206.075	-0.182	-0.281
-151.633	-87.138	0.075	-0.023
-150.618	-96.976	0.222	0.058
-149.604	-200.000	-0.004	-0.066
-148.589	-200.000	-0.072	0.391
-147.574	-120.777	-0.306	-0.051
-146.560	-105.957	0.124	0.028
-145.545	479.000	0.120	-0.270
-144.531	800.000	-0.077	0.279
-143.516	-119.689	0.363	0.062
-142.502	24.405	0.065	0.053
-141.487	-132.613	-0.289	-0.037
-140.472	-43.908	-0.123	0.061
-139.458	-176.082	-0.454	-0.012
-138.443	-62.710	0.308	0.127
-137.429	-20.876	0.305	-0.185
-136.414	65.266	-0.114	-0.115
-135.399	-144.825	-0.111	-0.010
-134.385	-200.000	0.013	-0.326
-133.370	-86.870	-0.232	0.070
-132.356	-196.005	0.121	0.001
-131.341	800.000	-0.068	0.200
-130.326	-133.867	-0.075	0.009
-129.312	132.935	0.171	0.220
-128.297	-50.215	-0.175	-0.082
-127.283	-108.486	0.249	-0.053
-126.268	-73.170	-0.286	-0.104
-125.253	68.187	0.188	-0.191
-124.239	-23.205	-0.065	0.039
-123.224	213.699	0.070	-0.109
-122.210	-82.942	0.180	-0.057
-121.195	-101.512	-0.086	-0.021
