DTS Sentinel unit serial number:	SN413079Multiplexer serial number:	ORYXHardware model number:	OX4-SRSoftware version number:	ORYX F/W v4.00 Oryx Data Collector v3.7.2.0data status	okinstallation	princeton_trtdifferential loss correction	single-endedforward channel	channel 1reverse channel	N/Adate	2019/09/12time	12:12:11forward acquisition time	60.00reverse acquisition time	0.00gamma	496.2192k internal	0.2292k external	0.2292temperature offset calibration	1.0048default loss term (dB/km)	0.3790temperature slope calibration	1.0000multiplexer offset coefficient	1.0000multiplexer slope coefficient	1.0000fibre end	0.00T internal ref (°C)	40.61T ext. ref 1 (°C)	2.05T ext. ref 2 (°C)	35.89length (m)	temperature (°C)	Stokes	anti-Stokes-747.200	-156.960	0.338	-0.021
-746.185	800.000	-0.083	-0.308
-745.171	-130.506	0.248	0.034
-744.156	33.160	-0.242	0.215
-743.142	-33.092	-0.060	-0.034
-742.127	-29.900	-0.113	0.066
-741.112	55.993	-0.052	0.052
-740.098	-65.571	-0.203	-0.083
-739.083	-4.625	-0.053	-0.037
-738.069	800.000	0.188	0.534
-737.054	-112.679	-0.225	0.046
-736.039	-96.173	-0.208	0.056
-735.025	-200.000	0.054	-0.292
-734.010	-47.694	-0.439	-0.218
-732.996	249.455	-0.107	0.185
-731.981	800.000	-0.111	-0.372
-730.966	41.139	-0.201	-0.186
-729.952	62.435	-0.388	-0.396
-728.937	49.187	0.024	0.023
-727.923	-99.777	-0.256	-0.065
-726.908	101.727	-0.256	0.305
-725.894	-200.000	-0.003	-0.442
-724.879	-124.108	-0.240	0.039
-723.864	-89.744	-0.167	-0.050
-722.850	800.000	0.011	-0.036
-721.835	542.248	-0.169	0.413
-720.821	343.792	-0.128	0.257
-719.806	-176.729	0.073	0.002
-718.791	-41.770	-0.289	-0.152
-717.777	-66.094	0.319	0.130
-716.762	-200.000	-0.008	0.045
-715.748	-35.963	-0.196	0.109
-714.733	-92.455	-0.200	0.057
-713.718	-51.612	-0.228	0.109
-712.704	-19.760	-0.102	-0.064
-711.689	-200.000	-0.024	-0.166
-710.675	-200.000	-0.271	-0.001
-709.660	107.117	-0.154	-0.187
-708.645	-200.000	-0.004	0.095
-707.631	-167.057	-0.142	0.006
-706.616	-136.860	-0.357	-0.042
-705.602	-200.000	-0.004	-0.225
-704.587	-115.276	-0.188	-0.036
-703.572	-200.000	-0.023	-0.212
-702.558	-74.289	-0.371	0.137
-701.543	-200.000	-0.028	-0.295
-700.529	214.525	0.150	0.242
-699.514	800.000	0.090	-0.336
-698.499	-56.338	0.223	0.101
-697.485	1.301	0.174	-0.127
-696.470	177.928	-0.040	0.060
-695.456	-43.302	-0.176	-0.091
-694.441	-109.088	0.213	-0.046
-693.426	84.622	-0.326	-0.364
-692.412	-144.552	-0.302	0.029
-691.397	454.961	-0.108	0.244
-690.383	-122.277	0.107	-0.018
-689.368	-15.434	-0.135	-0.088
-688.354	-68.168	-0.070	0.028
-687.339	-200.000	-0.034	0.379
-686.324	800.000	-0.155	-0.447
-685.310	1.032	-0.265	-0.194
-684.295	-77.226	0.048	-0.017
-683.281	-114.185	-0.048	0.009
-682.266	-107.520	-0.208	-0.047
-681.251	-157.961	-0.214	0.013
-680.237	86.530	0.047	-0.052
-679.222	-33.803	-0.067	-0.038
-678.208	-109.607	-0.290	0.062
-677.193	73.372	-0.090	0.096
-676.178	-139.376	-0.071	0.008
-675.164	-21.984	0.244	-0.152
-674.149	162.080	-0.049	-0.070
-673.135	41.731	-0.272	0.252
-672.120	73.626	-0.104	-0.111
-671.105	800.000	-0.074	0.238
-670.091	658.162	0.098	0.258
-669.076	-66.190	0.166	-0.068
-668.062	267.272	0.051	0.091
-667.047	-200.000	-0.021	0.123
-666.032	23.838	-0.141	-0.119
-665.018	-200.000	-0.017	0.128
-664.003	-86.022	-0.375	-0.118
-662.989	-137.691	-0.106	0.012
-661.974	132.440	0.089	0.117
-660.959	302.519	0.027	0.050
-659.945	72.213	0.255	-0.271
-658.930	-200.000	0.022	-0.448
-657.916	800.000	0.070	-0.219
-656.901	-5.942	-0.067	-0.047
-655.886	-200.000	0.008	-0.334
-654.872	-100.590	0.043	-0.011
-653.857	-200.000	0.000	-0.063
-652.843	21.262	-0.245	-0.203
-651.828	-200.000	-0.035	-0.327
-650.814	-92.950	0.107	-0.031
-649.799	-74.638	0.449	0.165
-648.784	135.077	-0.176	0.233
-647.770	-200.000	-0.001	0.060
-646.755	797.965	0.086	-0.241
-645.741	101.946	-0.372	-0.443
-644.726	-159.333	0.143	-0.008
-643.711	-200.000	0.021	-0.355
-642.697	-66.902	-0.270	-0.109
-641.682	88.184	-0.024	-0.027
-640.668	-200.000	-0.006	-0.134
-639.653	-175.886	0.256	-0.007
-638.638	-200.000	0.047	-0.210
-637.624	67.880	0.311	0.324
-636.609	-36.652	-0.340	0.186
-635.595	-124.160	-0.139	0.022
-634.580	-29.349	-0.199	-0.116
-633.565	-149.600	-0.480	0.039
-632.551	-100.359	0.126	-0.032
-631.536	-200.000	-0.010	-0.200
-630.522	800.000	0.061	-0.178
-629.507	-96.780	0.081	-0.022
-628.492	-36.440	-0.222	-0.122
-627.478	-99.655	-0.322	0.082
-626.463	158.930	0.181	-0.256
-625.449	-57.713	-0.293	-0.131
-624.434	-125.771	0.038	-0.006
-623.419	90.193	-0.191	0.218
-622.405	43.105	0.308	-0.286
-621.390	177.541	0.256	-0.380
-620.376	42.602	-0.075	0.069
-619.361	186.564	-0.038	0.058
-618.346	-97.761	0.061	-0.016
-617.332	192.881	-0.027	-0.042
-616.317	-200.000	0.028	0.182
-615.303	-23.874	0.279	0.170
-614.288	418.024	0.060	0.132
-613.273	-41.376	0.144	-0.075
-612.259	-60.413	0.289	0.125
-611.244	-14.736	-0.155	0.101
-610.230	-119.202	0.390	0.069
-609.215	249.604	-0.155	0.267
-608.201	-121.546	0.238	-0.040
-607.186	266.553	0.070	-0.125
-606.171	-114.132	0.128	-0.025
-605.157	-8.290	0.172	-0.118
-604.142	-48.256	-0.216	-0.106
-603.128	800.000	0.108	-0.358
-602.113	-126.796	0.240	-0.036
-601.098	-14.514	-0.184	-0.121
-600.084	41.412	-0.050	0.046
-599.069	167.597	0.059	-0.085
-598.055	367.108	-0.144	0.296
-597.040	515.726	-0.091	-0.217
-596.025	-200.000	0.032	-0.189
-595.011	-200.000	0.008	-0.143
-593.996	-28.176	-0.036	0.021
-592.982	-40.976	0.121	-0.064
-591.967	-124.160	0.143	0.023
-590.952	738.011	0.112	-0.306
-589.938	-86.900	-0.197	-0.061
-588.923	10.753	-0.141	-0.109
-587.909	86.811	-0.097	-0.109
-586.894	131.217	0.057	-0.075
-585.879	-106.876	-0.443	-0.100
-584.865	800.000	-0.041	0.174
-583.850	-200.000	0.235	0.000
-582.836	-65.087	-0.263	-0.108
-581.821	80.879	-0.036	-0.040
-580.806	-0.071	0.015	-0.011
-579.792	800.000	-0.060	0.188
-578.777	397.571	0.095	-0.202
-577.763	31.437	-0.237	0.207
-576.748	79.855	-0.236	-0.258
-575.733	-148.560	0.259	0.021
-574.719	-66.952	-0.259	0.104
-573.704	800.000	0.100	0.423
-572.690	-177.296	-0.454	-0.011
-571.675	-50.430	0.162	0.078
-570.661	77.191	-0.235	0.254
-569.646	91.731	0.292	0.334
-568.631	25.391	0.203	-0.171
-567.617	152.757	-0.048	0.067
-566.602	-200.000	-0.028	0.201
-565.588	197.465	-0.200	-0.310
-564.573	-151.189	0.240	0.018
-563.558	43.054	-0.263	-0.244
-562.544	162.700	0.118	0.168
-561.529	45.332	-0.191	-0.179
-560.515	800.000	-0.058	-0.190
-559.500	-37.940	0.123	0.066
-558.485	221.276	-0.129	0.211
-557.471	115.395	0.037	-0.046
-556.456	47.639	0.218	-0.207
-555.442	-19.663	-0.144	-0.090
-554.427	410.958	0.039	0.085
-553.412	-32.024	0.099	-0.057
-552.398	-132.956	0.171	-0.022
-551.383	-200.000	-0.026	0.188
-550.369	542.450	0.064	-0.156
-549.354	-24.457	-0.375	-0.227
-548.339	-200.000	-0.050	-0.232
-547.325	-179.697	-0.136	-0.003
-546.310	-45.664	-0.101	-0.051
-545.296	-200.000	0.003	-0.178
-544.281	-48.780	-0.190	0.093
-543.266	-84.285	0.264	-0.085
-542.252	-29.214	-0.140	-0.081
-541.237	-200.000	-0.052	0.283
-540.223	-129.279	0.311	0.044
-539.208	357.685	0.064	-0.130
-538.193	-200.000	0.012	0.343
-537.179	-42.284	-0.324	-0.168
-536.164	-200.000	0.032	-0.176
-535.150	-26.144	-0.093	0.055
-534.135	-200.000	-0.031	0.244
-533.121	-200.000	0.041	-0.216
-532.106	800.000	-0.004	0.015
-531.091	-73.677	0.323	0.119
-530.077	209.119	0.053	-0.085
-529.062	-108.611	-0.049	0.011
-528.048	-130.333	0.286	0.039
-527.033	-200.000	-0.001	0.055
-526.018	388.176	0.073	0.154
-525.004	89.029	0.156	-0.177
-523.989	86.912	0.226	-0.253
-522.975	60.303	-0.087	0.087
-521.960	-150.911	-0.110	-0.008
-520.945	-37.676	0.169	0.091
-519.931	744.239	0.066	-0.180
-518.916	-72.869	0.170	0.063
-517.902	-8.145	-0.296	0.202
-516.887	580.886	0.129	-0.321
-515.872	-73.427	0.125	-0.046
-514.858	800.000	-0.156	-0.551
-513.843	-28.046	-0.280	0.164
-512.829	-18.428	-0.165	0.105
-511.814	-140.420	-0.206	-0.022
-510.799	29.389	-0.128	0.110
-509.785	800.000	-0.063	-0.201
-508.770	-147.911	-0.204	-0.017
-507.756	-25.435	-0.224	0.134
-506.741	-200.000	0.035	0.181
-505.726	-78.065	0.245	-0.085
-504.712	485.444	0.139	-0.320
-503.697	99.638	0.103	-0.121
-502.683	-166.319	0.121	0.005
-501.668	12.221	0.128	-0.100
-500.653	140.101	0.023	-0.030
-499.639	-23.518	-0.152	0.093
-498.624	-32.515	0.281	0.159
-497.610	-75.605	0.100	-0.036
-496.595	-73.164	-0.153	0.057
-495.581	-121.579	0.066	-0.011
-494.566	86.701	-0.086	-0.096
-493.551	800.000	-0.036	-0.146
-492.537	-147.923	0.149	0.013
-491.522	50.131	-0.067	0.064
-490.508	800.000	0.105	-0.326
-489.493	-188.640	0.402	-0.005
-488.478	-200.000	0.024	-0.158
-487.464	57.091	-0.058	-0.057
-486.449	-118.650	0.145	-0.026
-485.435	-20.447	-0.231	0.144
-484.420	-200.000	0.002	-0.088
-483.405	-200.000	0.015	0.079
-482.391	800.000	0.033	0.103
-481.376	-26.044	0.236	-0.141
-480.362	106.565	-0.096	-0.116
-479.347	-143.670	0.032	-0.003
-478.332	75.047	0.230	0.245
-477.318	-200.000	-0.022	0.641
-476.303	-138.482	0.216	0.024
-475.289	-41.311	0.155	0.081
-474.274	773.945	0.089	-0.246
-473.259	184.517	-0.147	-0.220
-472.245	-122.452	0.048	0.008
-471.230	278.546	0.270	0.487
-470.216	-200.000	0.007	0.114
-469.201	-8.289	0.109	0.074
-468.186	-88.573	-0.205	0.062
-467.172	-200.000	0.011	-0.141
-466.157	-59.143	-0.235	0.103
-465.143	-80.322	-0.267	-0.090
-464.128	12.633	-0.048	0.038
-463.113	-123.716	0.154	0.025
-462.099	-5.132	-0.381	-0.266
-461.084	185.430	-0.013	0.019
-460.070	-92.695	-0.321	0.091
-459.055	29.705	-0.360	-0.310
-458.040	-38.736	-0.067	-0.036
-457.026	26.169	0.413	0.349
-456.011	520.659	-0.139	0.331
-454.997	800.000	-0.066	-0.279
-453.982	800.000	0.066	-0.218
-452.968	-52.821	0.104	0.049
-451.953	36.736	-0.240	-0.214
-450.938	-73.576	0.333	-0.123
-449.924	-11.056	0.083	0.055
-448.909	-136.176	0.100	0.012
-447.895	253.216	0.085	-0.146
-446.880	800.000	-0.042	0.167
-445.865	507.020	0.094	0.220
-444.851	-200.000	0.039	-0.304
-443.836	54.870	-0.153	-0.150
-442.822	-88.432	-0.283	0.085
-441.807	58.449	-0.144	-0.143
-440.792	-129.012	-0.297	0.042
-439.778	800.000	-0.019	-0.053
-438.763	-127.040	-0.133	0.020
-437.749	62.231	0.157	-0.159
-436.734	9.126	-0.098	0.075
-435.719	800.000	-0.082	-0.261
-434.705	30.832	-0.121	-0.105
-433.690	800.000	0.045	-0.179
-432.676	-44.424	-0.311	0.157
-431.661	-37.138	-0.051	0.027
-430.646	179.882	0.054	-0.081
-429.632	-0.690	-0.108	0.077
-428.617	-200.000	-0.048	-0.243
-427.603	44.802	0.299	0.278
-426.588	-132.164	0.156	-0.020
-425.573	16.331	-0.358	0.285
-424.559	339.747	-0.102	0.202
-423.544	-169.506	-0.377	0.014
-422.530	-200.000	-0.001	-0.050
-421.515	-159.823	-0.158	-0.009
-420.500	-8.552	0.119	0.081
-419.486	-6.022	-0.192	0.133
-418.471	183.681	-0.139	0.207
-417.457	-200.000	-0.018	0.259
-416.442	96.714	0.193	-0.223
-415.428	-200.000	0.046	0.291
-414.413	48.811	-0.093	0.088
-413.398	-200.000	0.004	-0.154
-412.384	-78.453	0.386	0.134
-411.369	-123.201	0.174	-0.028
-410.355	66.269	-0.065	-0.066
-409.340	74.705	0.155	-0.165
-408.325	49.231	-0.208	-0.198
-407.311	12.113	-0.123	-0.095
-406.296	-144.075	0.038	0.004
-405.282	-61.197	-0.256	-0.109
-404.267	-170.538	0.089	0.003
-403.252	-128.691	0.231	0.033
-402.238	-27.183	-0.264	0.156
-401.223	169.463	0.018	-0.026
-400.209	800.000	-0.025	0.089
-399.194	9.172	0.148	0.113
-398.179	-200.000	-0.065	-0.320
-397.165	-166.469	-0.463	0.020
-396.150	-200.000	-0.004	0.337
-395.136	-150.696	-0.407	0.031
-394.121	-128.145	-0.188	-0.027
-393.106	-25.659	0.229	0.136
-392.092	-44.845	0.130	0.065
-391.077	800.000	-0.057	-0.238
-390.063	-200.000	-0.048	-0.378
-389.048	211.075	-0.112	0.178
-388.033	-48.366	0.156	-0.076
-387.019	-200.000	-0.004	0.076
-386.004	-45.036	-0.317	0.159
-384.990	-157.259	-0.117	-0.007
-383.975	218.414	-0.148	0.239
-382.960	-111.053	-0.103	0.021
-381.946	358.655	-0.111	0.224
-380.931	377.008	-0.110	-0.226
-379.917	-35.626	0.111	0.061
-378.902	-200.000	0.035	0.213
-377.888	-200.000	0.018	-0.087
-376.873	-92.817	-0.194	-0.055
-375.858	-170.614	0.255	0.009
-374.844	-53.993	0.281	-0.129
-373.829	21.633	-0.178	0.146
-372.815	-111.718	-0.104	-0.021
-371.800	-143.419	0.089	0.009
-370.785	0.367	-0.254	-0.183
-369.771	-93.008	-0.234	0.066
-368.756	-101.314	0.365	-0.090
-367.742	800.000	0.121	0.371
-366.727	-161.349	0.221	0.012
-365.712	-200.000	-0.083	0.536
-364.698	-90.803	-0.020	0.006
-363.683	-60.545	0.328	-0.141
-362.669	39.687	0.040	0.036
-361.654	-74.107	-0.041	-0.015
-360.639	-25.991	0.193	0.114
-359.625	-79.103	-0.318	0.109
-358.610	-200.000	-0.023	-0.208
-357.596	-49.784	0.041	-0.020
-356.581	237.279	0.155	-0.258
-355.566	31.362	0.237	0.205
-354.552	720.030	0.007	-0.018
-353.537	-9.402	0.335	-0.225
-352.523	-200.000	-0.036	-0.212
-351.508	-101.934	-0.012	0.003
-350.493	145.260	0.065	0.088
-349.479	800.000	0.053	-0.154
-348.464	-82.456	-0.343	0.112
-347.450	-153.069	-0.168	0.012
-346.435	35.354	0.044	-0.039
-345.420	-200.000	-0.023	0.124
-344.406	-168.001	0.176	0.007
-343.391	-200.000	-0.010	0.123
-342.377	-200.000	0.037	0.271
-341.362	38.169	0.009	0.008
-340.348	-200.000	-0.052	-0.292
-339.333	111.569	-0.062	-0.076
-338.318	-67.837	-0.341	0.134
-337.304	-200.000	-0.029	-0.152
-336.289	48.932	0.084	0.079
-335.275	800.000	-0.077	0.254
-334.260	-36.420	0.415	0.225
-333.245	-200.000	-0.026	0.146
-332.231	235.658	-0.080	-0.133
-331.216	-200.000	0.034	-0.378
-330.202	94.611	0.163	-0.186
-329.187	72.072	-0.060	-0.062
-328.172	-38.490	-0.246	-0.131
-327.158	13.238	0.290	-0.226
-326.143	-131.755	-0.327	0.043
-325.129	207.621	0.145	0.227
-324.114	-4.074	-0.128	0.089
-323.099	-200.000	0.094	-0.472
-322.085	-39.262	0.194	-0.103
-321.070	-200.000	0.018	0.367
-320.056	402.999	0.221	-0.469
-319.041	-149.605	0.424	-0.034
-318.026	800.000	0.055	0.212
-317.012	-200.000	-0.023	0.372
-315.997	-35.260	0.191	0.105
-314.983	-158.670	-0.085	0.005
-313.968	-5.767	-0.110	-0.076
-312.953	67.183	-0.111	0.114
-311.939	-42.690	0.229	0.117
-310.924	-200.000	0.013	-0.126
-309.910	466.291	0.088	0.199
-308.895	-178.528	-0.377	0.009
-307.880	-159.237	0.336	-0.019
-306.866	-66.401	-0.181	-0.073
-305.851	6.720	-0.172	0.128
-304.837	800.000	0.114	-0.490
-303.822	376.796	0.036	-0.074
-302.807	-51.532	-0.204	0.096
-301.793	800.000	-0.074	-0.284
-300.778	321.708	-0.102	0.195
-299.764	119.464	-0.143	-0.177
-298.749	-17.421	0.243	-0.154
-297.735	-31.276	0.154	0.087
-296.720	268.519	0.115	-0.202
-295.705	800.000	0.057	-0.230
-294.691	-81.785	-0.077	-0.025
-293.676	88.933	0.085	0.095
-292.662	-102.498	-0.138	0.033
-291.647	-6.627	0.078	0.054
-290.632	-200.000	-0.002	0.163
-289.618	800.000	0.068	0.229
-288.603	26.559	0.060	0.051
-287.589	228.855	0.121	0.199
-286.574	-200.000	0.010	0.207
-285.559	-200.000	-0.004	0.090
-284.545	800.000	-0.052	0.162
-283.530	-79.115	0.423	0.144
-282.516	-27.309	0.146	-0.085
-281.501	253.333	0.140	0.241
-280.486	-24.628	-0.107	-0.064
-279.472	-17.290	0.122	-0.077
-278.457	84.049	0.078	0.086
-277.443	2.085	-0.140	0.102
-276.428	81.800	0.152	-0.166
-275.413	157.452	0.069	0.096
-274.399	199.483	-0.217	0.334
-273.384	-200.000	0.006	0.084
-272.370	-71.900	0.198	0.074
-271.355	-200.000	0.028	-0.399
-270.340	-86.166	-0.270	0.084
-269.326	5.386	-0.135	-0.100
-268.311	-200.000	-0.006	-0.158
-267.297	-24.476	-0.066	0.040
-266.282	0.918	-0.060	0.043
-265.267	-200.000	0.022	-0.113
-264.253	-173.866	0.285	0.008
-263.238	-142.000	0.237	-0.024
-262.224	117.025	0.070	0.087
-261.209	267.440	-0.127	0.224
-260.195	27.138	0.158	-0.134
-259.180	-200.000	0.006	0.169
-258.165	-200.000	0.055	0.269
-257.151	-131.254	-0.182	-0.024
-256.136	-162.839	-0.140	0.007
-255.122	800.000	0.058	0.197
-254.107	235.767	0.092	-0.153
-253.092	-27.244	0.137	0.080
-252.078	635.788	-0.118	0.302
-251.063	800.000	0.061	0.214
-250.049	126.265	0.172	-0.218
-249.034	-200.000	0.016	-0.115
-248.019	-10.819	-0.120	0.080
-247.005	-200.000	0.041	0.275
-245.990	529.834	-0.037	-0.087
-244.976	-116.558	0.100	-0.018
-243.961	800.000	-0.009	0.032
-242.946	800.000	-0.063	0.182
-241.932	93.002	-0.096	0.109
-240.917	143.667	0.035	-0.047
-239.903	590.413	0.037	-0.092
-238.888	106.106	-0.165	-0.196
-237.873	-99.930	0.235	0.059
-236.859	145.071	-0.230	0.309
-235.844	-32.674	-0.340	-0.190
-234.830	800.000	-0.103	0.392
-233.815	-13.116	-0.191	-0.125
-232.800	-200.000	-0.046	0.211
-231.786	-200.000	-0.016	-0.351
-230.771	800.000	0.056	-0.191
-229.757	-116.660	0.313	-0.058
-228.742	87.921	-0.128	-0.142
-227.727	-200.000	-0.005	0.096
-226.713	247.512	-0.035	-0.060
-225.698	278.269	-0.076	-0.136
-224.684	-200.000	0.063	0.368
-223.669	20.570	0.133	0.108
-222.655	-200.000	-0.025	0.220
-221.640	204.507	0.140	-0.218
-220.625	45.834	0.110	0.102
-219.611	353.162	-0.144	-0.286
-218.596	99.988	0.383	-0.445
-217.582	-200.000	0.000	0.211
-216.567	-200.000	-0.010	-0.119
-215.552	467.737	0.222	-0.498
-214.538	-112.738	-0.091	0.018
-213.523	-52.087	0.205	-0.096
-212.509	800.000	-0.079	-0.246
-211.494	-98.206	-0.158	-0.041
-210.479	-200.000	-0.016	-0.161
-209.465	421.675	0.165	-0.355
-208.450	107.128	-0.173	0.206
-207.436	168.115	0.104	0.148
-206.421	-200.000	0.029	0.239
-205.406	800.000	0.075	-0.277
-204.392	40.130	0.118	0.106
-203.377	-200.000	0.063	0.359
-202.363	618.750	-0.039	0.098
-201.348	334.907	0.065	0.127
-200.333	621.271	0.053	-0.134
-199.319	241.200	0.020	-0.033
-198.304	2.608	-0.232	-0.168
-197.290	523.354	-0.158	0.373
-196.275	53.241	-0.123	-0.118
-195.260	552.196	0.026	-0.062
-194.246	800.000	0.032	0.129
-193.231	800.000	-0.041	0.158
-192.217	-1.890	-0.234	0.165
-191.202	-19.783	-0.264	-0.163
-190.187	21.755	0.324	0.265
-189.173	161.358	-0.163	0.229
-188.158	-200.000	0.010	-0.435
-187.144	-120.453	0.021	-0.004
-186.129	52.830	-0.058	0.056
-185.114	-68.179	0.155	-0.061
-184.100	589.266	0.006	0.016
-183.085	-200.000	-0.085	0.409
-182.071	37.305	0.298	0.265
-181.056	-200.000	-0.005	-0.116
-180.042	-27.983	0.156	-0.091
-179.027	53.229	0.176	-0.169
-178.012	-200.000	-0.030	0.229
-176.998	-79.388	0.501	0.170
-175.983	426.496	-0.198	0.427
-174.969	-102.695	-0.180	0.043
-173.954	374.977	0.052	0.106
-172.939	800.000	0.032	0.092
-171.925	-53.603	-0.218	0.100
-170.910	-200.000	-0.016	0.173
-169.896	-62.729	0.410	0.170
-168.881	-6.169	-0.142	-0.097
-167.866	-127.016	-0.122	-0.018
-166.852	91.417	-0.057	-0.064
-165.837	179.450	0.080	-0.117
-164.823	-200.000	0.075	0.383
-163.808	-200.000	0.035	0.180
-162.793	685.374	-0.058	0.153
-161.779	65.174	-0.281	0.284
-160.764	9.888	0.199	0.151
-159.750	-22.360	0.087	0.053
-158.735	-114.466	0.209	0.040
-157.720	800.000	-0.100	-0.305
-156.706	-157.034	-0.304	0.019
-155.691	-118.342	0.019	-0.003
-154.677	573.436	-0.067	-0.162
-153.662	-182.049	0.289	0.005
-152.647	791.535	-0.050	-0.138
-151.633	-200.000	-0.086	-0.464
-150.618	-200.000	-0.009	0.242
-149.604	800.000	0.048	-0.198
-148.589	-11.830	0.215	-0.141
-147.574	105.585	-0.161	-0.191
-146.560	-200.000	-0.028	0.181
-145.545	-200.000	0.043	-0.189
-144.531	329.177	-0.105	0.201
-143.516	318.115	-0.123	0.233
-142.502	-200.000	0.001	0.021
-141.487	16.286	0.121	0.095
-140.472	800.000	-0.030	0.094
-139.458	-109.195	0.256	-0.054
-138.443	-18.858	-0.264	0.164
-137.429	-200.000	-0.018	0.129
-136.414	71.209	0.100	0.104
-135.399	-38.113	-0.147	-0.078
-134.385	-102.036	-0.390	-0.094
-133.370	235.594	0.167	-0.276
-132.356	800.000	0.034	0.101
-131.341	553.346	-0.126	-0.302
-130.326	-200.000	0.029	-0.171
-129.312	-30.415	0.230	-0.130
-128.297	-43.446	-0.222	-0.112
-127.283	84.259	0.057	-0.063
-126.268	436.551	-0.181	0.393
-125.253	240.409	-0.202	-0.337
-124.239	135.042	0.077	-0.100
-123.224	-25.939	-0.078	0.046
-122.210	800.000	0.060	0.244
