DTS Sentinel unit serial number:	SN413079Multiplexer serial number:	ORYXHardware model number:	OX4-SRSoftware version number:	ORYX F/W v4.00 Oryx Data Collector v3.7.2.0data status	okinstallation	princeton_trtdifferential loss correction	single-endedforward channel	channel 1reverse channel	N/Adate	2019/09/12time	10:28:11forward acquisition time	60.00reverse acquisition time	0.00gamma	496.2192k internal	0.2298k external	0.2298temperature offset calibration	1.0049default loss term (dB/km)	0.3790temperature slope calibration	1.0000multiplexer offset coefficient	1.0000multiplexer slope coefficient	1.0000fibre end	0.00T internal ref (°C)	37.00T ext. ref 1 (°C)	1.89T ext. ref 2 (°C)	34.67length (m)	temperature (°C)	Stokes	anti-Stokes-747.200	-200.000	0.015	0.095
-746.185	-114.347	0.421	0.083
-745.171	230.650	-0.110	0.184
-744.156	-200.000	-0.000	0.354
-743.142	-200.000	0.016	0.265
-742.127	800.000	-0.089	0.281
-741.112	455.112	-0.056	-0.127
-740.098	-42.185	-0.152	0.079
-739.083	-200.000	0.048	-0.256
-738.069	-200.000	0.009	0.317
-737.054	800.000	-0.111	0.407
-736.039	-3.215	-0.183	-0.130
-735.025	-200.000	0.044	0.256
-734.010	231.376	0.077	0.129
-732.996	-200.000	-0.027	-0.256
-731.981	-6.566	0.260	0.181
-730.966	168.799	0.046	0.068
-729.952	14.579	0.161	0.128
-728.937	-72.784	-0.273	-0.102
-727.923	124.811	-0.251	-0.323
-726.908	-89.640	-0.120	0.036
-725.894	-25.786	0.090	-0.054
-724.879	-36.232	-0.230	-0.126
-723.864	14.502	0.185	0.147
-722.850	113.181	-0.085	0.105
-721.835	11.607	0.213	0.166
-720.821	324.611	-0.097	-0.189
-719.806	-98.272	-0.031	0.008
-718.791	800.000	0.066	0.221
-717.777	-200.000	-0.048	0.265
-716.762	12.830	-0.079	-0.063
-715.748	-200.000	-0.002	-0.056
-714.733	704.613	-0.070	-0.188
-713.718	7.391	-0.078	-0.059
-712.704	-9.240	0.156	-0.106
-711.689	-72.549	-0.225	-0.085
-710.675	800.000	-0.031	0.111
-709.660	800.000	0.098	0.401
-708.645	273.003	-0.097	0.174
-707.631	-42.803	0.127	0.066
-706.616	484.424	0.103	0.238
-705.602	456.131	-0.063	-0.143
-704.587	-200.000	-0.015	0.328
-703.572	181.454	-0.072	-0.108
-702.558	-200.000	0.011	0.132
-701.543	19.637	0.281	0.231
-700.529	800.000	0.041	-0.183
-699.514	-85.118	0.194	-0.062
-698.499	800.000	0.153	-0.518
-697.485	-135.757	-0.295	-0.036
-696.470	-147.910	-0.319	-0.027
-695.456	-101.718	-0.251	0.062
-694.441	112.466	-0.159	0.196
-693.426	-97.972	0.393	-0.103
-692.412	-80.788	-0.303	-0.102
-691.397	-131.857	0.281	0.037
-690.383	-88.567	-0.121	0.037
-689.368	800.000	0.083	-0.273
-688.354	-200.000	0.008	-0.074
-687.339	800.000	-0.042	0.134
-686.324	-41.919	-0.226	-0.118
-685.310	-126.920	-0.383	-0.057
-684.295	-113.648	-0.197	-0.039
-683.281	-151.742	0.453	0.034
-682.266	-49.280	-0.112	0.055
-681.251	220.963	-0.110	0.179
-680.237	392.771	0.041	-0.087
-679.222	-130.821	-0.244	0.033
-678.208	-119.202	-0.102	-0.018
-677.193	51.413	0.184	0.178
-676.178	29.090	0.242	0.209
-675.164	-13.445	0.133	-0.088
-674.149	121.302	0.265	-0.336
-673.135	-81.284	-0.197	-0.066
-672.120	-36.772	-0.208	0.113
-671.105	37.975	0.090	0.082
-670.091	40.927	-0.200	0.184
-669.076	69.238	0.260	-0.272
-668.062	-200.000	0.049	0.261
-667.047	-40.499	0.235	0.124
-666.032	22.093	-0.067	0.056
-665.018	-98.508	0.168	-0.044
-664.003	-148.579	0.265	0.022
-662.989	-200.000	0.015	-0.253
-661.974	-200.000	0.019	0.319
-660.959	800.000	0.081	0.249
-659.945	9.641	-0.115	-0.089
-658.930	-35.751	0.103	0.057
-657.916	-5.353	-0.211	-0.148
-656.901	-56.146	0.250	-0.113
-655.886	-196.928	0.221	0.001
-654.872	-2.817	0.239	-0.170
-653.857	400.230	0.187	-0.399
-652.843	-112.256	-0.458	-0.093
-651.828	207.342	0.214	0.340
-650.814	-49.696	0.108	-0.052
-649.799	243.854	-0.169	0.288
-648.784	-117.256	0.116	-0.021
-647.770	68.899	0.061	0.063
-646.755	-60.721	-0.227	0.098
-645.741	-200.000	0.020	-0.146
-644.726	-73.738	-0.122	-0.045
-643.711	800.000	-0.080	0.283
-642.697	-34.323	0.068	0.038
-641.682	206.571	-0.082	-0.130
-640.668	800.000	0.043	-0.122
-639.653	49.443	-0.108	0.104
-638.638	-88.205	-0.254	0.077
-637.624	800.000	-0.029	-0.104
-636.609	-177.193	0.061	-0.002
-635.595	-152.635	-0.252	-0.018
-634.580	-197.868	-0.495	-0.003
-633.565	181.649	-0.352	0.527
-632.551	126.525	0.133	-0.171
-631.536	149.029	-0.094	-0.130
-630.522	638.807	0.087	-0.226
-629.507	40.185	-0.327	-0.298
-628.492	800.000	0.049	0.139
-627.478	-200.000	-0.014	0.090
-626.463	484.440	-0.065	0.149
-625.449	660.938	-0.139	-0.363
-624.434	-128.900	0.428	-0.061
-623.419	-35.500	-0.436	-0.241
-622.405	-200.000	-0.006	0.179
-621.390	-120.176	0.375	0.065
-620.376	110.450	-0.111	0.135
-619.361	-88.176	0.127	0.039
-618.346	800.000	0.039	-0.159
-617.332	288.956	0.061	-0.112
-616.317	800.000	-0.119	0.376
-615.303	382.312	0.161	-0.335
-614.288	117.732	-0.365	-0.456
-613.273	-50.299	0.353	-0.170
-612.259	-59.252	-0.185	-0.081
-611.244	-56.190	-0.120	0.054
-610.230	221.923	0.070	0.114
-609.215	-87.430	0.158	0.049
-608.201	-200.000	-0.037	-0.381
-607.186	254.223	0.111	-0.192
-606.171	-150.672	-0.326	0.025
-605.157	331.919	-0.090	-0.176
-604.142	295.455	0.055	-0.102
-603.128	-43.080	-0.048	0.024
-602.113	-46.726	0.193	-0.096
-601.098	399.507	-0.108	0.229
-600.084	-71.909	0.415	0.157
-599.069	86.792	-0.055	0.061
-598.055	-200.000	-0.008	-0.162
-597.040	-200.000	-0.002	0.349
-596.025	87.826	-0.165	0.186
-595.011	662.911	-0.064	-0.167
-593.996	-200.000	-0.026	-0.122
-592.982	379.301	0.129	0.269
-591.967	20.422	-0.190	-0.156
-590.952	-158.232	-0.090	0.005
-589.938	-91.915	-0.300	0.086
-588.923	-65.143	0.110	0.045
-587.909	-31.471	0.058	-0.033
-586.894	281.804	0.082	0.149
-585.879	-80.391	0.142	0.048
-584.865	429.277	-0.082	-0.179
-583.850	-87.283	-0.298	0.092
-582.836	318.262	0.189	0.363
-581.821	-200.000	-0.006	-0.087
-580.806	800.000	0.052	0.194
-579.792	153.515	0.222	-0.308
-578.777	-200.000	-0.009	-0.326
-577.763	-22.242	0.149	0.092
-576.748	800.000	0.019	-0.084
-575.733	800.000	-0.117	-0.349
-574.719	-118.071	0.104	-0.019
-573.704	-91.833	0.227	-0.065
-572.690	103.069	-0.194	0.230
-571.675	125.406	-0.072	0.092
-570.661	-78.087	0.150	-0.052
-569.646	-60.478	-0.084	-0.036
-568.631	606.633	-0.042	-0.106
-567.617	-185.696	0.451	-0.007
-566.602	800.000	-0.029	0.109
-565.588	-200.000	0.008	0.038
-564.573	-117.325	-0.413	0.076
-563.558	-21.801	0.224	-0.138
-562.544	-154.017	0.131	0.009
-561.529	-54.202	-0.354	-0.163
-560.515	-200.000	-0.007	-0.139
-559.500	-33.876	-0.304	0.170
-558.485	642.485	0.018	0.047
-557.471	-139.134	-0.201	-0.022
-556.456	165.397	0.109	0.156
-555.442	-200.000	-0.026	0.474
-554.427	69.819	-0.042	-0.044
-553.412	-162.549	0.207	0.010
-552.398	-62.850	0.232	-0.097
-551.383	256.253	-0.047	0.081
-550.369	-34.725	-0.215	0.119
-549.354	-53.393	-0.372	0.173
-548.339	-200.000	0.006	0.078
-547.325	-180.899	0.133	-0.003
-546.310	101.154	0.060	-0.071
-545.296	-173.774	0.155	-0.005
-544.281	-200.000	-0.044	-0.202
-543.266	468.448	0.047	0.108
-542.252	39.915	0.103	-0.093
-541.237	216.568	0.205	-0.331
-540.223	0.933	0.141	-0.103
-539.208	-49.793	-0.251	0.121
-538.193	-169.715	0.224	-0.008
-537.179	-19.060	0.117	0.073
-536.164	50.584	-0.040	-0.038
-535.150	-176.892	-0.014	-0.000
-534.135	-10.123	0.186	0.125
-533.121	-46.411	0.326	0.162
-532.106	-115.044	0.386	-0.074
-531.091	-200.000	-0.043	-0.236
-530.077	-200.000	-0.024	-0.206
-529.062	699.234	0.103	-0.274
-528.048	-116.977	-0.357	-0.066
-527.033	176.466	0.023	-0.034
-526.018	162.583	0.119	0.168
-525.004	9.469	-0.171	-0.131
-523.989	322.508	-0.166	-0.320
-522.975	-19.158	-0.330	-0.208
-521.960	222.696	-0.124	0.202
-520.945	424.149	0.075	-0.163
-519.931	-118.379	-0.112	0.020
-518.916	144.533	0.195	0.263
-517.902	-200.000	-0.046	-0.268
-516.887	486.434	0.156	-0.359
-515.872	-120.507	0.423	-0.073
-514.858	-200.000	-0.012	-0.186
-513.843	163.748	-0.164	-0.233
-512.829	-130.631	0.279	0.038
-511.814	152.709	-0.228	0.316
-510.799	-87.066	0.268	0.083
-509.785	-112.844	-0.301	0.060
-508.770	800.000	-0.022	-0.073
-507.756	229.586	-0.201	-0.332
-506.741	-150.165	-0.122	-0.010
-505.726	800.000	0.049	-0.170
-504.712	-82.092	0.246	-0.081
-503.697	-200.000	-0.026	0.168
-502.683	119.892	-0.191	0.240
-501.668	162.660	-0.170	-0.241
-500.653	-200.000	-0.012	0.066
-499.639	31.414	-0.060	-0.052
-498.624	-153.721	0.178	-0.012
-497.610	382.744	0.110	-0.229
-496.595	-140.140	0.187	0.020
-495.581	-79.206	-0.145	0.050
-494.566	-101.779	0.170	0.042
-493.551	800.000	0.057	-0.188
-492.537	-116.360	0.275	0.051
-491.522	-139.891	0.233	0.025
-490.508	-200.000	-0.021	0.139
-489.493	543.250	-0.153	-0.368
-488.478	246.531	-0.181	-0.308
-487.464	239.361	0.130	-0.219
-486.449	38.726	-0.291	-0.262
-485.435	-75.447	-0.082	0.030
-484.420	26.101	0.129	0.109
-483.405	-82.292	-0.187	0.061
-482.391	-200.000	0.055	0.429
-481.376	46.912	-0.084	-0.079
-480.362	-16.092	0.230	0.147
-479.347	-200.000	0.007	-0.193
-478.332	10.327	-0.306	-0.235
-477.318	-145.636	0.079	0.007
-476.303	800.000	-0.073	-0.263
-475.289	-144.761	-0.445	0.041
-474.274	-200.000	-0.030	-0.177
-473.259	146.875	0.155	0.211
-472.245	245.238	-0.068	0.116
-471.230	137.357	0.043	-0.056
-470.216	-197.151	0.337	0.002
-469.201	187.818	-0.138	-0.208
-468.186	-200.000	-0.005	0.112
-467.172	-102.066	0.079	-0.019
-466.157	-200.000	-0.011	0.232
-465.143	-110.406	-0.159	0.033
-464.128	800.000	0.034	-0.119
-463.113	306.882	0.074	0.139
-462.099	188.296	-0.089	-0.134
-461.084	578.373	0.017	0.041
-460.070	-200.000	0.005	-0.226
-459.055	157.222	0.052	-0.073
-458.040	-94.739	0.206	0.056
-457.026	-200.000	-0.008	0.303
-456.011	-36.333	-0.142	0.077
-454.997	74.188	0.241	0.255
-453.982	-34.922	-0.188	-0.104
-452.968	4.619	-0.035	-0.026
-451.953	-200.000	0.015	0.246
-450.938	-200.000	0.036	-0.439
-449.924	-83.062	-0.106	0.035
-448.909	491.261	-0.097	0.224
-447.895	-39.491	-0.043	0.023
-446.880	-125.624	-0.231	0.035
-445.865	-44.431	-0.066	0.034
-444.851	435.157	-0.141	-0.309
-443.836	96.601	-0.186	-0.215
-442.822	-83.345	-0.399	0.129
-441.807	73.288	-0.187	0.198
-440.792	126.367	0.138	0.176
-439.778	-150.961	0.176	-0.013
-438.763	225.759	0.081	0.132
-437.749	800.000	-0.089	0.352
-436.734	28.687	0.120	0.102
-435.719	-72.650	-0.150	0.056
-434.705	498.587	-0.074	0.171
-433.690	800.000	-0.062	0.177
-432.676	-97.140	-0.295	0.078
-431.661	800.000	0.178	0.545
-430.646	-200.000	-0.070	0.388
-429.632	39.083	0.317	0.286
-428.617	172.271	0.052	-0.075
-427.603	25.031	-0.258	-0.216
-426.588	800.000	-0.088	0.306
-425.573	-6.133	0.295	0.203
-424.559	800.000	-0.018	0.076
-423.544	71.087	0.334	0.349
-422.530	75.281	0.161	-0.171
-421.515	297.398	-0.066	-0.122
-420.500	-111.660	0.185	-0.038
-419.486	-39.286	-0.256	0.135
-418.471	-120.897	-0.118	-0.020
-417.457	-200.000	0.025	0.132
-416.442	49.248	-0.285	0.270
-415.428	-68.229	-0.097	-0.038
-414.413	-98.851	0.249	0.064
-413.398	-123.256	0.055	-0.009
-412.384	-10.820	0.137	0.091
-411.369	-12.285	0.144	-0.095
-410.355	800.000	-0.014	0.048
-409.340	-200.000	-0.030	0.345
-408.325	13.821	0.269	0.210
-407.311	-200.000	0.015	-0.157
-406.296	800.000	-0.070	-0.302
-405.282	-50.688	0.071	-0.034
-404.267	49.028	-0.034	0.033
-403.252	551.125	-0.101	0.243
-402.238	667.802	0.075	0.196
-401.223	-66.889	-0.412	0.164
-400.209	114.917	0.236	0.290
-399.194	287.644	0.044	0.080
-398.179	-117.569	-0.069	0.012
-397.165	-120.099	-0.254	-0.044
-396.150	8.696	-0.180	0.137
-395.136	125.651	0.135	0.172
-394.121	160.787	-0.100	0.141
-393.106	441.350	0.072	0.158
-392.092	83.803	-0.261	0.287
-391.077	-85.055	-0.273	0.086
-390.063	191.908	0.059	-0.090
-389.048	16.060	-0.229	-0.182
-388.033	-84.259	0.300	-0.096
-387.019	-170.293	0.149	0.005
-386.004	148.437	-0.063	0.086
-384.990	36.592	-0.127	-0.113
-383.975	-157.033	0.524	0.032
-382.960	110.861	-0.132	-0.160
-381.946	477.660	0.141	0.321
-380.931	-200.000	0.046	-0.219
-379.917	490.027	-0.080	-0.184
-378.902	10.035	0.147	-0.112
-377.888	42.573	0.252	0.231
-376.873	-178.660	-0.178	0.004
-375.858	-120.832	-0.066	0.011
-374.844	800.000	0.073	0.304
-373.829	800.000	0.080	0.286
-372.815	11.257	-0.272	-0.210
-371.800	279.170	-0.123	0.221
-370.785	451.938	-0.080	0.177
-369.771	-120.990	-0.151	-0.026
-368.756	-49.972	-0.089	0.043
-367.742	800.000	-0.049	0.198
-366.727	-89.071	0.067	0.020
-365.712	-38.642	-0.177	0.094
-364.698	-13.918	-0.250	-0.163
-363.683	77.057	0.172	0.183
-362.669	-200.000	0.009	-0.148
-361.654	-85.770	0.023	0.007
-360.639	112.941	0.198	-0.241
-359.625	-200.000	-0.030	-0.133
-358.610	101.259	-0.122	-0.143
-357.596	-200.000	-0.051	-0.372
-356.581	45.916	-0.084	-0.078
-355.566	7.615	-0.069	-0.052
-354.552	800.000	-0.038	-0.108
-353.537	-200.000	0.012	-0.287
-352.523	661.521	0.068	-0.175
-351.508	-15.543	-0.122	-0.078
-350.493	131.616	0.118	0.153
-349.479	224.533	0.178	-0.289
-348.464	-50.913	-0.148	-0.070
-347.450	-98.744	0.296	-0.076
-346.435	718.075	-0.013	-0.036
-345.420	-200.000	0.044	-0.000
-344.406	-200.000	0.003	0.026
-343.391	800.000	-0.076	-0.231
-342.377	800.000	-0.068	-0.295
-341.362	143.234	0.233	-0.311
-340.348	-0.460	-0.111	0.079
-339.333	397.517	0.132	-0.277
-338.318	-107.284	-0.163	0.036
-337.304	461.479	-0.073	-0.164
-336.289	-140.548	-0.248	-0.026
-335.275	800.000	-0.125	0.351
-334.260	800.000	-0.045	-0.182
-333.245	-159.364	0.021	-0.001
-332.231	-57.943	-0.050	0.022
-331.216	-137.616	-0.176	0.020
-330.202	77.892	0.191	-0.205
-329.187	102.555	0.148	-0.174
-328.172	-188.791	0.174	-0.002
-327.158	-61.260	0.157	-0.066
-326.143	275.661	-0.080	0.142
-325.129	-23.806	-0.073	-0.044
-324.114	163.026	-0.149	-0.210
-323.099	167.247	-0.035	0.050
-322.085	781.954	0.044	0.121
-321.070	-33.939	-0.385	0.213
-320.056	242.272	-0.175	-0.293
-319.041	-66.729	0.179	-0.071
-318.026	309.741	0.018	0.034
-317.012	27.196	0.161	-0.136
-315.997	2.149	-0.145	-0.105
-314.983	-200.000	-0.034	0.211
-313.968	-104.885	0.220	-0.051
-312.953	-133.201	-0.144	0.018
-311.939	60.310	0.187	0.185
-310.924	-200.000	-0.003	-0.052
-309.910	-200.000	-0.017	-0.231
-308.895	373.995	0.058	-0.119
-307.880	-137.599	-0.196	-0.022
-306.866	-200.000	-0.013	0.138
-305.851	800.000	0.047	0.142
-304.837	3.558	0.227	-0.166
-303.822	-200.000	-0.039	-0.175
-302.807	-136.353	0.336	-0.039
-301.793	448.264	0.090	-0.198
-300.778	616.529	-0.112	-0.282
-299.764	-200.000	0.050	-0.447
-298.749	-74.114	0.196	0.071
-297.735	-16.603	0.160	-0.102
-296.720	-200.000	-0.061	-0.306
-295.705	37.637	0.161	0.143
-294.691	87.937	-0.193	0.214
-293.676	-66.943	0.196	0.078
-292.662	-121.008	-0.172	-0.029
-291.647	31.123	0.165	-0.142
-290.632	799.634	0.110	0.304
-289.618	213.463	-0.157	0.249
-288.603	586.147	-0.036	-0.090
-287.589	-51.289	0.050	-0.023
-286.574	-200.000	0.035	-0.191
-285.559	-179.413	-0.314	0.007
-284.545	800.000	-0.117	-0.421
-283.530	800.000	-0.018	-0.074
-282.516	-155.731	-0.461	-0.030
-281.501	479.408	0.151	-0.342
-280.486	-200.000	-0.003	0.177
-279.472	88.228	-0.114	-0.127
-278.457	12.384	-0.285	0.220
-277.443	-92.998	0.145	-0.040
-276.428	449.375	0.105	0.232
-275.413	-200.000	-0.001	-0.072
-274.399	154.788	0.028	-0.038
-273.384	357.263	0.149	-0.298
-272.370	-42.369	-0.097	-0.049
-271.355	69.264	-0.287	0.296
-270.340	-45.906	-0.083	-0.041
-269.326	47.339	0.089	-0.083
-268.311	-67.749	-0.069	0.027
-267.297	-102.391	-0.099	0.024
-266.282	-24.434	0.448	0.267
-265.267	-38.819	0.158	0.083
-264.253	-40.032	-0.056	-0.029
-263.238	-200.000	-0.033	0.170
-262.224	-36.385	-0.020	-0.011
-261.209	-9.648	0.311	0.208
-260.195	-76.796	-0.047	0.016
-259.180	264.242	-0.049	0.086
-258.165	800.000	0.119	-0.380
-257.151	115.754	-0.056	0.069
-256.136	175.911	-0.040	-0.058
-255.122	479.638	0.124	-0.282
-254.107	-123.553	-0.302	0.048
-253.092	800.000	0.022	0.089
-252.078	800.000	-0.016	-0.056
-251.063	800.000	-0.081	0.235
-250.049	-96.661	-0.200	0.053
-249.034	51.339	-0.151	0.144
-248.019	-200.000	-0.026	-0.231
-247.005	-121.183	-0.067	-0.011
-245.990	702.431	-0.099	-0.261
-244.976	-109.773	0.337	0.071
-243.961	604.243	-0.108	0.270
-242.946	-2.317	-0.288	0.202
-241.932	-200.000	-0.011	-0.083
-240.917	-106.014	-0.213	0.048
-239.903	800.000	0.039	-0.154
-238.888	358.141	-0.084	0.167
-237.873	-62.505	0.234	0.097
-236.859	800.000	0.085	0.351
-235.844	717.767	0.083	0.219
-234.830	495.443	0.098	0.226
-233.815	-42.905	0.270	-0.137
-232.800	-68.735	0.301	-0.116
-231.786	117.496	-0.223	0.275
-230.771	19.800	0.272	-0.219
-229.757	111.996	-0.268	0.324
-228.742	-149.659	-0.153	-0.012
-227.727	102.749	0.111	0.130
-226.713	742.979	0.068	0.183
-225.698	96.689	0.260	0.298
-224.684	-132.067	0.291	0.038
-223.669	-117.822	-0.131	-0.023
-222.655	-200.000	0.082	0.372
-221.640	-31.872	-0.162	-0.091
-220.625	-49.408	0.162	0.077
-219.611	-73.894	0.405	-0.147
-218.596	84.063	0.199	-0.218
-217.582	800.000	-0.055	-0.225
-216.567	34.531	0.274	0.240
-215.552	-4.831	0.196	-0.135
-214.538	-200.000	0.001	-0.109
-213.523	85.815	0.151	-0.166
-212.509	-144.712	-0.177	-0.016
-211.494	124.649	0.031	0.039
-210.479	26.108	0.041	-0.034
-209.465	-90.129	0.235	0.068
-208.450	-87.094	0.048	0.015
-207.436	-200.000	-0.036	0.263
-206.421	800.000	-0.035	-0.138
-205.406	-114.234	-0.185	0.036
-204.392	1.447	-0.210	-0.151
-203.377	-165.926	0.191	-0.008
-202.363	164.357	0.159	-0.224
-201.348	-102.367	0.388	-0.093
-200.333	-119.225	0.371	0.065
-199.319	720.518	0.022	-0.059
-198.304	800.000	0.020	-0.058
-197.290	23.451	-0.148	-0.121
-196.275	-101.337	-0.362	-0.088
-195.260	-200.000	-0.003	-0.060
-194.246	50.626	0.128	-0.121
-193.231	-145.280	0.439	0.040
-192.217	24.020	-0.287	0.236
-191.202	117.557	0.127	-0.156
-190.187	-197.200	-0.132	0.001
-189.173	29.858	0.307	-0.261
-188.158	-193.321	0.278	-0.002
-187.144	-50.012	0.166	0.078
-186.129	-164.366	-0.251	-0.011
-185.114	-200.000	0.035	0.173
-184.100	35.365	0.244	0.214
-183.085	240.264	-0.137	-0.228
-182.071	-139.103	0.106	-0.011
-181.056	158.073	-0.167	0.232
-180.042	-200.000	-0.031	0.179
-179.027	106.750	-0.103	0.122
-178.012	-66.460	0.107	0.042
-176.998	-1.026	-0.387	0.274
-175.983	173.483	0.011	-0.016
-174.969	800.000	-0.116	-0.391
-173.954	-152.188	0.291	0.021
-172.939	1.093	0.192	-0.138
-171.925	800.000	0.016	0.061
-170.910	-200.000	0.034	0.216
-169.896	33.029	0.200	0.173
-168.881	-72.395	0.209	-0.077
-167.866	-123.894	-0.135	-0.021
-166.852	422.599	0.236	0.506
-165.837	258.942	-0.169	-0.292
-164.823	-200.000	-0.049	-0.391
-163.808	-29.235	0.427	0.244
-162.793	800.000	-0.104	0.354
-161.779	-187.128	-0.406	-0.006
-160.764	143.329	0.118	0.156
-159.750	169.943	0.146	0.209
-158.735	30.803	-0.134	-0.114
-157.720	-138.449	-0.064	0.007
-156.706	800.000	-0.032	0.114
-155.691	36.120	0.140	0.123
-154.677	31.424	0.086	0.074
-153.662	-124.114	-0.374	0.058
-152.647	56.089	0.101	-0.098
-151.633	-200.000	-0.005	-0.219
-150.618	245.681	-0.162	0.272
-149.604	-10.573	0.248	-0.164
-148.589	74.587	-0.175	-0.184
-147.574	132.558	-0.019	-0.024
-146.560	174.321	-0.260	-0.374
-145.545	-200.000	0.050	-0.222
-144.531	529.659	0.049	-0.116
-143.516	800.000	0.020	0.080
-142.502	-112.401	0.363	-0.072
-141.487	537.662	0.101	-0.240
-140.472	324.762	0.171	-0.326
-139.458	257.105	0.087	-0.150
-138.443	339.032	0.112	0.217
-137.429	463.610	-0.067	-0.150
-136.414	275.467	-0.099	0.175
-135.399	-83.948	0.151	-0.048
-134.385	-103.317	0.466	-0.110
-133.370	-200.000	-0.017	-0.077
-132.356	-16.683	0.144	0.091
-131.341	-7.205	-0.115	0.077
-130.326	-109.276	0.208	-0.044
-129.312	800.000	0.077	0.273
-128.297	-121.986	0.132	-0.022
-127.283	206.289	0.152	0.236
-126.268	-200.000	-0.048	0.268
-125.253	-22.804	0.039	-0.024
-124.239	-200.000	0.000	-0.132
-123.224	-62.235	-0.204	0.085
-122.210	392.310	-0.082	-0.171
