DTS Sentinel unit serial number:	SN413079Multiplexer serial number:	ORYXHardware model number:	OX4-SRSoftware version number:	ORYX F/W v4.00 Oryx Data Collector v3.7.2.0data status	okinstallation	princeton_trtdifferential loss correction	single-endedforward channel	channel 1reverse channel	N/Adate	2019/09/15time	22:14:36forward acquisition time	60.00reverse acquisition time	0.00gamma	496.2192k internal	0.2330k external	0.2330temperature offset calibration	0.9966default loss term (dB/km)	0.3790temperature slope calibration	1.0000multiplexer offset coefficient	1.0000multiplexer slope coefficient	1.0000fibre end	0.00T internal ref (°C)	29.50T ext. ref 1 (°C)	8.64T ext. ref 2 (°C)	22.88length (m)	temperature (°C)	Stokes	anti-Stokes-747.200	800.000	-0.073	0.230
-746.185	-200.000	-0.008	0.391
-745.171	33.699	0.044	-0.039
-744.156	-132.738	0.289	-0.037
-743.142	53.502	0.178	-0.172
-742.127	800.000	0.065	0.187
-741.112	357.886	-0.102	0.206
-740.098	-114.812	0.179	0.034
-739.083	-200.000	-0.025	0.223
-738.069	-200.000	0.059	0.274
-737.054	-93.769	0.138	0.038
-736.039	164.407	-0.086	-0.122
-735.025	-200.000	-0.020	0.172
-734.010	177.408	-0.106	0.155
-732.996	127.578	-0.138	0.177
-731.981	134.108	0.140	-0.182
-730.966	-162.676	-0.335	0.017
-729.952	-157.525	-0.309	0.019
-728.937	165.684	-0.284	0.404
-727.923	-182.216	-0.263	-0.005
-726.908	-200.000	0.003	-0.132
-725.894	800.000	-0.117	-0.326
-724.879	-33.579	-0.220	-0.122
-723.864	-75.093	-0.239	-0.086
-722.850	-132.764	0.115	-0.015
-721.835	67.405	-0.180	-0.185
-720.821	167.115	-0.276	-0.394
-719.806	-24.835	-0.113	0.068
-718.791	179.894	0.170	-0.250
-717.777	228.882	-0.166	-0.273
-716.762	-167.750	-0.338	-0.013
-715.748	-200.000	-0.065	0.430
-714.733	-45.151	0.380	0.190
-713.718	-200.000	0.000	0.366
-712.704	-200.000	-0.011	0.081
-711.689	-165.579	-0.205	-0.009
-710.675	163.248	-0.261	-0.369
-709.660	273.979	-0.176	-0.312
-708.645	-150.708	0.142	-0.011
-707.631	137.104	-0.234	0.307
-706.616	-200.000	0.005	-0.447
-705.602	-200.000	-0.002	-0.098
-704.587	139.327	-0.177	-0.234
-703.572	-91.056	0.232	0.067
-702.558	-200.000	-0.060	0.354
-701.543	78.564	0.118	-0.127
-700.529	-32.894	0.094	0.052
-699.514	-69.797	-0.048	-0.018
-698.499	-54.144	-0.133	0.061
-697.485	-166.133	-0.248	-0.011
-696.470	-200.000	0.050	-0.383
-695.456	9.635	-0.069	-0.052
-694.441	-49.736	0.102	-0.049
-693.426	-21.753	-0.284	-0.174
-692.412	-200.000	0.041	0.274
-691.397	800.000	-0.051	-0.198
-690.383	-200.000	0.052	-0.242
-689.368	-34.432	-0.197	0.108
-688.354	-94.834	-0.130	-0.035
-687.339	103.282	-0.136	0.160
-686.324	440.338	-0.119	-0.260
-685.310	25.173	-0.165	0.138
-684.295	-200.000	-0.011	-0.128
-683.281	-162.737	-0.150	0.007
-682.266	0.211	0.250	-0.179
-681.251	-115.048	-0.056	-0.011
-680.237	-200.000	-0.005	0.326
-679.222	81.842	-0.184	0.201
-678.208	-177.620	0.204	0.005
-677.193	28.007	0.137	0.116
-676.178	292.028	0.095	0.173
-675.164	800.000	0.031	-0.101
-674.149	27.902	-0.046	0.039
-673.135	645.309	-0.035	0.089
-672.120	-7.134	-0.113	-0.077
-671.105	326.823	0.046	-0.089
-670.091	-200.000	0.208	0.000
-669.076	390.274	0.060	-0.125
-668.062	-200.000	-0.005	0.220
-667.047	-200.000	0.010	-0.196
-666.032	-37.398	0.088	0.047
-665.018	257.095	0.049	0.084
-664.003	-200.000	-0.038	0.324
-662.989	-61.507	0.029	0.012
-661.974	674.209	-0.029	0.076
-660.959	6.947	0.116	-0.087
-659.945	-88.338	-0.238	-0.071
-658.930	475.217	-0.066	0.150
-657.916	588.375	0.013	0.033
-656.901	-49.366	0.100	0.048
-655.886	-200.000	-0.018	0.209
-654.872	402.977	-0.074	0.155
-653.857	800.000	0.032	-0.142
-652.843	-200.000	-0.016	-0.125
-651.828	-6.391	0.146	0.100
-650.814	72.206	-0.164	-0.171
-649.799	172.677	0.050	-0.072
-648.784	-49.481	0.107	0.051
-647.770	-111.466	-0.318	0.065
-646.755	-200.000	0.040	0.291
-645.741	6.759	0.256	0.191
-644.726	-79.050	0.032	-0.011
-643.711	-200.000	0.020	0.200
-642.697	-151.632	-0.291	-0.022
-641.682	206.410	-0.032	0.050
-640.668	-143.214	-0.210	0.020
-639.653	184.076	0.086	0.127
-638.638	800.000	-0.035	0.102
-637.624	-121.813	0.292	-0.048
-636.609	-154.623	0.090	0.006
-635.595	35.220	-0.215	0.189
-634.580	7.257	-0.241	-0.180
-633.565	-184.033	-0.128	-0.002
-632.551	11.025	0.138	-0.105
-631.536	269.866	0.035	-0.062
-630.522	9.910	-0.328	-0.249
-629.507	-200.000	0.015	0.234
-628.492	-38.135	0.177	-0.094
-627.478	18.956	0.118	0.095
-626.463	110.388	0.170	-0.204
-625.449	-137.797	0.228	-0.026
-624.434	311.327	-0.039	0.074
-623.419	200.291	0.089	-0.138
-622.405	-135.117	-0.049	0.006
-621.390	-94.051	-0.075	0.021
-620.376	247.390	0.150	-0.253
-619.361	32.934	-0.122	0.106
-618.346	-107.742	0.258	-0.056
-617.332	-200.000	-0.080	-0.425
-616.317	-115.361	0.179	0.034
-615.303	2.934	0.083	0.060
-614.288	233.703	0.043	-0.070
-613.273	800.000	-0.046	-0.127
-612.259	-4.405	-0.229	-0.159
-611.244	517.820	0.103	0.242
-610.230	125.753	-0.121	0.153
-609.215	-200.000	0.039	-0.206
-608.201	-200.000	-0.004	0.162
-607.186	105.025	0.118	-0.139
-606.171	66.545	-0.063	0.064
-605.157	-200.000	0.009	-0.058
-604.142	-114.874	0.293	-0.056
-603.128	-126.094	0.149	-0.022
-602.113	238.377	0.153	-0.254
-601.098	-60.912	-0.259	0.110
-600.084	-200.000	0.023	0.350
-599.069	456.638	-0.098	-0.217
-598.055	22.010	0.059	0.049
-597.040	21.354	-0.089	0.073
-596.025	-200.000	-0.058	0.307
-595.011	-163.053	-0.131	0.006
-593.996	-168.926	-0.124	-0.005
-592.982	16.763	-0.240	-0.190
-591.967	149.584	0.188	0.255
-590.952	-82.981	0.251	-0.081
-589.938	-200.000	0.019	-0.371
-588.923	90.267	0.127	-0.142
-587.909	-107.787	-0.117	0.025
-586.894	800.000	-0.130	-0.368
-585.879	45.101	-0.273	0.252
-584.865	-116.661	0.344	0.063
-583.850	-92.529	0.058	-0.016
-582.836	-159.003	-0.336	0.019
-581.821	-40.349	0.131	-0.068
-580.806	-200.000	-0.003	0.024
-579.792	99.343	-0.168	-0.194
-578.777	465.258	-0.157	0.352
-577.763	-119.308	-0.192	0.033
-576.748	-200.000	-0.024	0.230
-575.733	17.821	-0.116	-0.092
-574.719	-15.644	0.121	0.077
-573.704	-200.000	-0.047	0.000
-572.690	6.160	-0.204	0.151
-571.675	-98.785	0.207	-0.053
-570.661	-119.532	-0.042	-0.007
-569.646	-99.543	0.252	-0.063
-568.631	-200.000	-0.004	-0.206
-567.617	800.000	0.081	-0.330
-566.602	198.429	-0.171	0.262
-565.588	-120.749	-0.317	0.054
-564.573	-14.182	-0.225	-0.145
-563.558	210.300	0.024	-0.038
-562.544	-50.551	-0.183	-0.086
-561.529	800.000	0.116	-0.322
-560.515	373.037	-0.162	-0.330
-559.500	800.000	0.072	0.306
-558.485	-200.000	0.006	0.173
-557.471	150.515	0.136	-0.185
-556.456	-200.000	-0.038	0.195
-555.442	-66.042	-0.285	0.114
-554.427	800.000	0.088	-0.256
-553.412	-200.000	-0.054	-0.240
-552.398	-2.806	0.027	-0.019
-551.383	494.207	-0.038	-0.088
-550.369	-80.849	0.284	0.094
-549.354	-17.826	0.201	-0.126
-548.339	-200.000	-0.019	0.165
-547.325	800.000	0.147	-0.554
-546.310	-5.053	-0.149	0.103
-545.296	-86.414	-0.173	0.053
-544.281	-200.000	-0.056	0.553
-543.266	-34.758	0.220	0.120
-542.252	125.569	-0.370	-0.467
-541.237	228.046	-0.183	-0.298
-540.223	-165.271	0.052	0.002
-539.208	-19.095	0.032	-0.020
-538.193	153.152	-0.114	0.156
-537.179	174.806	-0.057	0.082
-536.164	19.754	-0.119	0.096
-535.150	-200.000	0.034	-0.212
-534.135	386.237	-0.136	-0.280
-533.121	377.426	0.037	-0.076
-532.106	110.420	-0.099	-0.119
-531.091	719.186	0.061	0.163
-530.077	800.000	-0.124	-0.368
-529.062	-97.391	0.432	-0.112
-528.048	505.026	0.080	0.186
-527.033	-200.000	0.008	-0.292
-526.018	-200.000	0.008	0.147
-525.004	-138.174	-0.476	0.053
-523.989	-200.000	0.036	-0.205
-522.975	413.999	-0.079	-0.168
-521.960	199.341	-0.168	-0.257
-520.945	400.600	-0.028	0.059
-519.931	-55.605	-0.223	-0.100
-518.916	-200.000	0.028	-0.298
-517.902	-200.000	-0.039	0.296
-516.887	145.767	-0.200	0.268
-515.872	-35.037	-0.132	0.072
-514.858	-200.000	0.010	0.268
-513.843	-77.420	-0.061	0.021
-512.829	-112.532	-0.206	0.041
-511.814	-200.000	-0.055	-0.274
-510.799	-173.643	-0.207	0.006
-509.785	-75.040	-0.418	-0.149
-508.770	-117.368	0.369	-0.067
-507.756	99.072	-0.046	-0.053
-506.741	-56.347	0.183	0.081
-505.726	800.000	0.059	0.164
-504.712	-129.540	-0.239	-0.033
-503.697	35.752	-0.133	0.116
-502.683	-16.162	0.187	0.118
-501.668	41.682	-0.129	0.117
-500.653	27.993	0.276	-0.232
-499.639	-50.815	0.183	0.086
-498.624	-51.992	-0.245	0.114
-497.610	800.000	-0.178	-0.544
-496.595	10.886	0.252	-0.192
-495.581	-200.000	-0.008	0.295
-494.566	-163.016	0.054	0.003
-493.551	-200.000	-0.040	-0.209
-492.537	-200.000	-0.013	0.063
-491.522	-200.000	-0.001	0.324
-490.508	168.182	0.111	0.157
-489.493	800.000	0.095	0.370
-488.478	65.651	0.163	0.164
-487.464	75.627	0.175	0.184
-486.449	77.947	-0.077	-0.081
-485.435	55.407	0.112	0.108
-484.420	-95.174	0.252	-0.068
-483.405	-200.000	-0.073	0.329
-482.391	479.402	0.066	-0.150
-481.376	-161.278	-0.288	-0.015
-480.362	-94.607	-0.491	0.133
-479.347	-175.079	-0.410	-0.011
-478.332	705.492	-0.014	-0.037
-477.318	44.419	0.091	-0.083
-476.303	190.906	-0.162	-0.243
-475.289	-122.675	0.177	-0.029
-474.274	69.632	0.217	0.223
-473.259	-47.780	0.161	0.078
-472.245	-200.000	-0.003	0.105
-471.230	800.000	-0.033	-0.096
-470.216	-56.220	-0.110	0.049
-469.201	24.542	-0.187	-0.154
-468.186	800.000	0.034	0.096
-467.172	137.822	-0.154	-0.201
-466.157	-98.097	-0.319	-0.082
-465.143	54.542	-0.249	-0.239
-464.128	-27.867	-0.196	-0.113
-463.113	-200.000	0.017	0.152
-462.099	603.786	0.090	0.223
-461.084	45.911	0.124	0.114
-460.070	-49.800	0.355	0.168
-459.055	-77.841	-0.076	0.026
-458.040	800.000	0.018	0.068
-457.026	-136.403	-0.065	-0.007
-456.011	152.684	0.170	-0.232
-454.997	59.431	-0.056	-0.055
-453.982	-63.894	0.125	0.051
-452.968	109.972	-0.215	-0.256
-451.953	82.602	-0.254	0.275
-450.938	-200.000	0.005	-0.107
-449.924	-53.681	-0.073	0.033
-448.909	-47.186	0.158	-0.077
-447.895	433.780	0.134	-0.289
-446.880	800.000	-0.070	0.211
-445.865	50.119	-0.245	-0.230
-444.851	1.958	0.055	-0.040
-443.836	-22.519	0.150	-0.090
-442.822	519.661	-0.076	-0.178
-441.807	224.102	-0.335	0.538
-440.792	-200.000	-0.040	-0.334
-439.778	-4.420	0.287	0.197
-438.763	-200.000	0.028	-0.242
-437.749	-82.890	0.195	-0.063
-436.734	-115.939	-0.224	0.042
-435.719	-200.000	-0.037	-0.202
-434.705	-70.734	0.298	0.112
-433.690	-88.959	0.119	-0.035
-432.676	-109.580	-0.137	0.029
-431.661	-124.065	0.188	-0.029
-430.646	161.027	0.018	0.025
-429.632	-200.000	0.033	-0.556
-428.617	-8.456	0.076	0.051
-427.603	237.423	-0.113	0.186
-426.588	800.000	-0.045	-0.153
-425.573	-159.120	0.322	0.018
-424.559	800.000	0.049	-0.156
-423.544	416.891	0.078	0.166
-422.530	-85.340	0.434	0.135
-421.515	-200.000	0.019	0.110
-420.500	-73.550	-0.030	-0.011
-419.486	-89.807	0.048	0.014
-418.471	-114.820	-0.213	-0.040
-417.457	-78.534	0.137	-0.047
-416.442	-105.669	0.367	-0.083
-415.428	-200.000	0.008	-0.153
-414.413	78.001	-0.178	-0.189
-413.398	-200.000	0.038	-0.426
-412.384	57.722	-0.217	0.211
-411.369	66.070	-0.112	-0.113
-410.355	2.958	0.242	-0.175
-409.340	53.526	-0.106	0.101
-408.325	126.966	0.061	0.076
-407.311	-200.000	0.007	0.198
-406.296	415.634	-0.056	0.118
-405.282	13.026	-0.108	-0.083
-404.267	157.662	0.126	0.174
-403.252	800.000	0.051	0.151
-402.238	225.382	0.176	-0.284
-401.223	32.730	-0.050	-0.043
-400.209	-84.121	-0.168	-0.053
-399.194	150.986	-0.087	0.118
-398.179	-2.975	-0.199	-0.138
-397.165	261.686	-0.038	0.066
-396.150	-137.388	0.052	0.006
-395.136	130.876	0.118	-0.150
-394.121	127.830	0.237	-0.299
-393.106	-50.127	-0.253	-0.119
-392.092	25.070	-0.246	0.202
-391.077	-200.000	0.042	-0.212
-390.063	23.161	0.051	0.041
-389.048	96.127	-0.190	-0.215
-388.033	260.431	-0.095	-0.163
-387.019	-92.534	0.098	-0.027
-386.004	152.254	0.070	-0.095
-384.990	20.362	-0.241	-0.194
-383.975	677.918	0.158	-0.408
-382.960	51.392	-0.111	-0.104
-381.946	-79.037	0.182	0.061
-380.931	-200.000	-0.006	0.325
-379.917	125.064	-0.194	-0.243
-378.902	495.728	-0.157	-0.357
-377.888	6.539	0.254	0.187
-376.873	800.000	0.012	-0.036
-375.858	-89.140	-0.119	-0.035
-374.844	-15.393	0.240	-0.152
-373.829	-200.000	-0.067	0.313
-372.815	49.874	-0.151	0.141
-371.800	538.762	0.025	0.060
-370.785	-95.788	0.112	-0.030
-369.771	800.000	0.020	0.079
-368.756	247.116	0.130	-0.217
-367.742	-62.585	-0.222	0.091
-366.727	-64.958	-0.300	0.120
-365.712	-32.602	0.341	0.188
-364.698	800.000	0.059	0.205
-363.683	114.417	0.092	0.111
-362.669	159.526	-0.086	0.119
-361.654	-149.252	0.164	0.013
-360.639	-200.000	0.002	-0.224
-359.625	-72.407	-0.309	-0.114
-358.610	5.555	-0.093	-0.068
-357.596	-200.000	0.021	-0.148
-356.581	-41.625	-0.119	0.061
-355.566	4.482	0.145	0.105
-354.552	365.717	-0.230	-0.460
-353.537	-0.121	-0.233	-0.165
-352.523	-78.935	0.046	0.016
-351.508	117.150	-0.091	0.111
-350.493	75.352	-0.193	0.201
-349.479	-200.000	-0.037	-0.189
-348.464	130.556	-0.091	0.115
-347.450	719.301	-0.128	0.337
-346.435	38.499	-0.171	-0.151
-345.420	-87.328	-0.394	0.118
-344.406	800.000	0.038	-0.124
-343.391	117.952	-0.082	0.100
-342.377	-200.000	-0.077	-0.389
-341.362	-200.000	0.006	0.315
-340.348	-55.848	0.244	-0.108
-339.333	265.149	-0.187	0.322
-338.318	226.899	-0.128	-0.207
-337.304	107.227	0.211	-0.249
-336.289	310.926	-0.143	0.266
-335.275	202.203	0.090	-0.137
-334.260	-66.819	0.196	-0.077
-333.245	-95.165	0.376	-0.101
-332.231	800.000	-0.089	0.351
-331.216	-53.752	0.417	-0.189
-330.202	-200.000	0.025	-0.228
-329.187	-125.313	0.261	-0.039
-328.172	353.109	-0.147	0.288
-327.158	203.249	-0.113	-0.173
-326.143	-70.670	-0.140	0.053
-325.129	-200.000	0.011	-0.211
-324.114	357.229	-0.157	0.310
-323.099	603.407	0.117	0.288
-322.085	175.204	-0.127	0.182
-321.070	-149.993	-0.095	-0.007
-320.056	699.902	-0.035	0.092
-319.041	55.029	-0.058	0.056
-318.026	-200.000	-0.015	0.100
-317.012	-97.294	0.226	0.058
-315.997	-152.157	0.146	0.010
-314.983	-99.234	0.356	-0.089
-313.968	795.874	0.109	0.296
-312.953	-154.392	0.289	-0.019
-311.939	200.059	-0.133	-0.202
-310.924	-200.000	0.032	0.302
-309.910	800.000	0.084	0.303
-308.895	709.223	-0.051	0.133
-307.880	263.929	0.047	0.080
-306.866	-63.318	-0.151	-0.061
-305.851	327.602	-0.135	0.257
-304.837	148.017	0.079	-0.106
-303.822	278.807	-0.105	-0.184
-302.807	-200.000	-0.006	0.570
-301.793	-200.000	-0.036	0.286
-300.778	-197.054	-0.243	-0.002
-299.764	-125.868	0.209	0.031
-298.749	800.000	-0.070	-0.205
-297.735	1.524	-0.049	-0.035
-296.720	516.818	0.193	-0.447
-295.705	-126.221	-0.105	-0.015
-294.691	-55.985	0.100	0.044
-293.676	-86.437	-0.180	-0.055
-292.662	134.052	0.114	-0.146
-291.647	-88.898	-0.153	0.045
-290.632	667.139	-0.027	0.068
-289.618	151.701	-0.253	0.341
-288.603	121.333	0.069	-0.084
-287.589	13.020	0.082	0.063
-286.574	-200.000	-0.001	0.204
-285.559	-103.695	-0.370	-0.086
-284.545	278.677	0.128	0.226
-283.530	-34.722	0.151	-0.082
-282.516	-19.406	0.436	-0.267
-281.501	800.000	0.014	-0.043
-280.486	-117.894	-0.042	-0.007
-279.472	154.813	0.455	-0.618
-278.457	17.851	0.161	0.127
-277.443	-11.788	0.275	0.178
-276.428	800.000	0.068	0.284
-275.413	249.008	0.141	0.236
-274.399	-200.000	0.012	0.217
-273.384	217.098	0.151	-0.237
-272.370	26.207	0.263	-0.217
-271.355	-140.049	0.259	0.027
-270.340	80.583	0.195	0.207
-269.326	190.047	0.067	0.099
-268.311	121.026	0.218	-0.269
-267.297	275.808	0.147	0.258
-266.282	184.856	0.072	-0.105
-265.267	-182.176	-0.342	0.006
-264.253	102.617	0.103	-0.119
-263.238	69.016	0.216	-0.219
-262.224	-200.000	-0.001	-0.135
-261.209	-87.185	-0.022	-0.007
-260.195	508.131	0.095	-0.217
-259.180	-200.000	-0.002	0.030
-258.165	-126.681	-0.338	-0.049
-257.151	17.100	0.192	0.150
-256.136	-23.913	-0.140	0.083
-255.122	-30.250	0.055	-0.031
-254.107	-115.595	0.206	-0.038
-253.092	-50.703	-0.209	-0.097
-252.078	-50.999	0.178	0.083
-251.063	-200.000	-0.018	0.086
-250.049	-200.000	-0.028	-0.320
-249.034	-86.410	-0.300	0.091
-248.019	-200.000	0.007	-0.050
-247.005	-200.000	-0.059	0.266
-245.990	-200.000	-0.020	-0.095
-244.976	150.386	-0.130	0.175
-243.961	-83.790	-0.141	0.044
-242.946	800.000	-0.169	-0.500
-241.932	-9.314	-0.208	-0.137
-240.917	-124.110	0.358	0.055
-239.903	151.319	-0.144	0.193
-238.888	432.211	-0.067	0.144
-237.873	-200.000	-0.005	0.581
-236.859	-22.284	0.222	-0.133
-235.844	66.965	0.167	0.168
-234.830	377.214	0.095	0.192
-233.815	-113.881	-0.253	0.048
-232.800	-119.606	0.272	0.046
-231.786	67.029	-0.107	0.108
-230.771	-23.170	0.237	0.141
-229.757	-1.266	-0.348	0.243
-228.742	-130.013	-0.259	0.035
-227.727	-39.425	0.153	0.079
-226.713	20.873	-0.227	-0.182
-225.698	800.000	0.115	0.419
-224.684	64.761	0.023	-0.023
-223.669	83.652	-0.119	0.128
-222.655	84.488	0.233	-0.251
-221.640	370.465	-0.161	-0.322
-220.625	800.000	-0.010	-0.034
-219.611	85.566	0.085	0.092
-218.596	412.335	0.097	0.204
-217.582	-190.490	0.215	-0.002
-216.567	-200.000	0.004	0.091
-215.552	-112.306	-0.115	-0.023
-214.538	472.484	0.110	0.245
-213.523	-65.599	0.126	-0.050
-212.509	800.000	-0.099	0.307
-211.494	74.484	0.171	0.177
-210.479	762.422	-0.073	0.195
-209.465	-200.000	-0.030	0.214
-208.450	-163.850	-0.141	0.006
-207.436	90.001	0.172	-0.190
-206.421	139.143	0.199	0.258
-205.406	-108.165	0.352	0.075
-204.392	-51.206	-0.290	-0.134
-203.377	-25.656	0.183	-0.107
-202.363	-148.636	0.158	0.013
-201.348	-126.977	-0.512	0.074
-200.333	-40.196	-0.250	0.128
-199.319	560.357	0.116	0.277
-198.304	800.000	0.059	-0.181
-197.290	27.129	0.327	-0.271
-196.275	-70.939	-0.136	-0.051
-195.260	-200.000	-0.026	0.114
-194.246	-193.243	0.177	-0.002
-193.231	-200.000	-0.025	-0.235
-192.217	57.942	-0.156	0.151
-191.202	-200.000	0.010	-0.152
-190.187	-200.000	0.022	0.352
-189.173	272.631	0.183	0.319
-188.158	-176.991	-0.242	-0.006
-187.144	-77.645	-0.352	0.120
-186.129	-118.691	0.318	-0.055
-185.114	-89.917	-0.271	0.078
-184.100	73.728	0.141	0.145
-183.085	-34.457	0.161	-0.087
-182.071	791.715	-0.017	-0.046
-181.056	-138.714	0.054	-0.006
-180.042	58.187	0.296	0.286
-179.027	-106.685	-0.367	-0.080
-178.012	-200.000	-0.021	-0.094
-176.998	-15.974	0.140	0.088
-175.983	3.786	0.227	0.164
-174.969	299.911	0.063	0.114
-173.954	590.310	0.105	-0.256
-172.939	-200.000	0.057	-0.273
-171.925	108.973	0.237	-0.279
-170.910	-57.435	0.244	0.106
-169.896	-90.748	-0.066	0.019
-168.881	-172.613	-0.180	0.006
-167.866	137.937	-0.209	0.269
-166.852	-200.000	-0.011	-0.261
-165.837	-97.414	0.020	-0.005
-164.823	-119.310	0.280	-0.048
-163.808	800.000	-0.066	0.194
-162.793	-102.655	0.155	0.036
-161.779	-130.972	-0.184	-0.024
-160.764	-200.000	-0.017	-0.122
-159.750	179.164	-0.039	0.056
-158.735	176.552	0.112	0.160
-157.720	-175.837	0.188	-0.005
-156.706	-54.169	0.337	-0.151
-155.691	-102.051	0.163	0.039
-154.677	461.104	-0.017	-0.038
-153.662	-161.313	0.056	-0.003
-152.647	38.745	-0.298	-0.261
-151.633	-65.184	-0.117	0.046
-150.618	1.383	0.034	0.024
-149.604	-102.234	-0.094	-0.022
-148.589	30.912	-0.137	0.115
-147.574	20.203	0.401	-0.319
-146.560	-200.000	-0.043	0.192
-145.545	-105.753	0.236	0.052
-144.531	-126.210	-0.101	-0.015
-143.516	-123.558	-0.356	-0.056
-142.502	-49.273	-0.207	0.097
-141.487	-200.000	0.044	0.302
-140.472	193.521	-0.211	0.314
-139.458	130.065	0.148	-0.187
-138.443	277.989	0.145	0.253
-137.429	619.968	0.155	0.382
-136.414	-88.771	-0.124	-0.036
-135.399	-13.956	-0.105	-0.067
-134.385	-200.000	0.040	-0.286
-133.370	-3.394	-0.125	-0.086
-132.356	15.206	0.248	0.191
-131.341	-120.773	-0.032	0.005
-130.326	682.553	-0.145	0.372
-129.312	-13.579	-0.208	-0.132
-128.297	-38.297	0.114	0.059
-127.283	-200.000	0.054	0.257
-126.268	-79.755	-0.207	0.069
-125.253	414.465	-0.198	-0.414
-124.239	309.906	-0.149	0.275
-123.224	134.820	-0.084	0.108
-122.210	800.000	0.074	-0.238
-121.195	-196.723	-0.121	-0.001
