DTS Sentinel unit serial number:	SN413079Multiplexer serial number:	ORYXHardware model number:	OX4-SRSoftware version number:	ORYX F/W v4.00 Oryx Data Collector v3.7.2.0data status	okinstallation	princeton_trtdifferential loss correction	single-endedforward channel	channel 1reverse channel	N/Adate	2019/09/16time	08:34:36forward acquisition time	60.00reverse acquisition time	0.00gamma	496.2192k internal	0.2325k external	0.2325temperature offset calibration	0.9980default loss term (dB/km)	0.3790temperature slope calibration	1.0000multiplexer offset coefficient	1.0000multiplexer slope coefficient	1.0000fibre end	0.00T internal ref (°C)	29.44T ext. ref 1 (°C)	11.92T ext. ref 2 (°C)	26.09length (m)	temperature (°C)	Stokes	anti-Stokes-747.200	246.724	-0.057	0.098
-746.185	36.420	0.075	0.067
-745.171	-200.000	0.006	-0.318
-744.156	800.000	0.124	0.347
-743.142	-200.000	0.483	0.002
-742.127	-200.000	-0.065	0.399
-741.112	-200.000	-0.006	0.091
-740.098	457.597	-0.047	0.106
-739.083	-161.960	0.192	-0.010
-738.069	800.000	0.154	-0.435
-737.054	-35.042	-0.360	-0.198
-736.039	-175.308	0.083	0.002
-735.025	-121.071	0.223	-0.038
-734.010	-65.861	-0.425	-0.172
-732.996	115.054	-0.045	-0.056
-731.981	-182.324	0.234	0.004
-730.966	-112.962	-0.342	-0.068
-729.952	60.318	-0.168	0.168
-728.937	-137.183	0.128	-0.015
-727.923	-200.000	0.033	-0.203
-726.908	-150.526	-0.282	-0.022
-725.894	-48.101	-0.098	-0.048
-724.879	188.991	-0.269	-0.406
-723.864	613.522	0.081	-0.204
-722.850	-200.000	0.006	0.110
-721.835	-11.397	-0.281	-0.186
-720.821	158.805	-0.137	-0.192
-719.806	-200.000	0.043	0.195
-718.791	158.348	-0.277	-0.388
-717.777	800.000	0.095	-0.307
-716.762	-2.580	0.086	0.061
-715.748	-70.273	-0.394	-0.151
-714.733	588.859	0.033	0.082
-713.718	-43.620	0.192	-0.098
-712.704	-143.021	-0.257	0.025
-711.689	169.316	-0.315	0.453
-710.675	800.000	0.064	-0.258
-709.660	245.949	0.025	-0.042
-708.645	800.000	-0.022	0.068
-707.631	-96.588	0.082	-0.022
-706.616	-149.348	0.281	-0.023
-705.602	438.161	-0.076	-0.168
-704.587	339.927	-0.065	-0.127
-703.572	-116.432	0.062	-0.011
-702.558	-50.769	-0.115	0.055
-701.543	53.851	-0.131	-0.127
-700.529	-74.133	-0.173	-0.063
-699.514	-11.897	0.229	0.151
-698.499	81.626	0.030	-0.033
-697.485	145.660	-0.118	-0.159
-696.470	-100.170	-0.245	0.061
-695.456	-27.030	0.248	-0.146
-694.441	364.571	-0.181	-0.367
-693.426	207.120	-0.154	-0.242
-692.412	-127.602	0.310	-0.045
-691.397	19.454	-0.195	0.158
-690.383	-13.060	0.085	-0.056
-689.368	-200.000	0.031	-0.317
-688.354	-87.376	-0.188	-0.057
-687.339	-135.843	-0.143	-0.017
-686.324	129.876	0.123	0.158
-685.310	800.000	-0.147	-0.423
-684.295	122.085	0.064	-0.080
-683.281	-200.000	0.000	0.050
-682.266	21.510	-0.267	-0.218
-681.251	-56.786	-0.582	0.259
-680.237	384.689	0.074	0.153
-679.222	88.287	-0.039	-0.043
-678.208	-200.000	-0.001	-0.153
-677.193	-102.306	0.178	-0.043
-676.178	96.731	0.177	0.204
-675.164	36.173	0.116	0.103
-674.149	26.357	0.274	0.231
-673.135	800.000	-0.041	-0.123
-672.120	135.633	-0.117	0.153
-671.105	173.490	0.087	0.126
-670.091	-106.952	-0.250	0.056
-669.076	-200.000	-0.064	-0.438
-668.062	86.238	-0.302	-0.335
-667.047	800.000	0.099	-0.374
-666.032	800.000	-0.045	-0.184
-665.018	-63.700	-0.107	0.044
-664.003	-63.813	-0.220	-0.091
-662.989	277.703	-0.131	-0.234
-661.974	354.900	-0.050	0.100
-660.959	800.000	-0.054	-0.197
-659.945	397.229	-0.068	-0.143
-658.930	800.000	0.121	0.393
-657.916	-200.000	0.086	0.408
-656.901	36.956	-0.214	0.191
-655.886	-68.206	-0.260	-0.102
-654.872	800.000	-0.135	0.390
-653.857	-200.000	-0.026	-0.632
-652.843	-2.877	0.190	-0.134
-651.828	-200.000	-0.009	-0.050
-650.814	82.719	0.076	0.083
-649.799	161.234	0.130	0.183
-648.784	-129.287	0.153	-0.021
-647.770	130.147	0.056	-0.072
-646.755	800.000	-0.061	-0.226
-645.741	158.108	0.083	-0.116
-644.726	97.945	-0.138	-0.160
-643.711	57.375	-0.182	-0.179
-642.697	-95.860	0.333	-0.089
-641.682	196.838	0.055	0.084
-640.668	424.755	-0.025	-0.055
-639.653	-97.956	0.268	-0.070
-638.638	77.448	-0.072	0.077
-637.624	-147.489	0.192	-0.016
-636.609	-110.417	0.135	0.028
-635.595	-200.000	-0.025	-0.263
-634.580	-116.489	0.134	-0.025
-633.565	-89.254	0.310	-0.092
-632.551	-73.232	0.145	0.053
-631.536	21.509	-0.208	-0.170
-630.522	348.391	0.063	-0.125
-629.507	-116.152	0.300	0.056
-628.492	136.804	-0.060	-0.079
-627.478	175.159	0.174	-0.253
-626.463	11.789	-0.248	-0.192
-625.449	14.449	-0.132	-0.104
-624.434	18.185	0.224	0.180
-623.419	263.860	0.215	0.375
-622.405	13.802	-0.227	-0.177
-621.390	357.814	-0.037	0.074
-620.376	19.047	-0.112	-0.090
-619.361	-200.000	-0.036	0.209
-618.346	-200.000	0.013	-0.197
-617.332	-102.277	0.100	-0.024
-616.317	-137.087	-0.215	0.025
-615.303	473.580	0.221	-0.500
-614.288	-200.000	0.005	0.136
-613.273	487.735	-0.051	0.118
-612.259	-64.129	-0.172	-0.071
-611.244	41.218	0.179	-0.163
-610.230	4.537	0.074	0.054
-609.215	67.211	-0.153	-0.156
-608.201	-107.935	-0.374	-0.082
-607.186	469.804	0.096	-0.217
-606.171	13.921	0.238	0.185
-605.157	-200.000	-0.014	-0.173
-604.142	438.828	-0.055	-0.121
-603.128	438.961	0.071	-0.155
-602.113	-200.000	-0.008	0.177
-601.098	800.000	-0.103	-0.357
-600.084	-200.000	0.047	-0.254
-599.069	748.521	0.140	-0.380
-598.055	30.555	0.195	-0.168
-597.040	20.103	-0.191	0.155
-596.025	261.487	-0.131	-0.227
-595.011	-46.076	0.220	-0.109
-593.996	-200.000	-0.021	0.186
-592.982	800.000	0.026	-0.083
-591.967	-10.983	-0.347	0.230
-590.952	-66.671	0.218	-0.087
-589.938	223.862	-0.011	0.018
-588.923	-200.000	0.006	-0.098
-587.909	-114.041	0.182	-0.035
-586.894	30.718	0.330	-0.283
-585.879	177.685	-0.055	-0.081
-584.865	-147.812	0.211	0.018
-583.850	-143.358	-0.622	0.060
-582.836	-4.442	-0.074	-0.051
-581.821	-200.000	-0.069	-0.345
-580.806	-102.241	0.241	-0.058
-579.792	605.132	-0.136	-0.341
-578.777	-163.771	-0.533	-0.025
-577.763	281.506	-0.068	0.121
-576.748	800.000	0.138	-0.401
-575.733	275.187	0.162	0.288
-574.719	-77.362	-0.267	-0.093
-573.704	-131.032	-0.377	-0.050
-572.690	-83.915	-0.288	0.092
-571.675	-83.170	0.351	-0.113
-570.661	50.355	0.072	-0.068
-569.646	751.817	-0.089	-0.242
-568.631	246.576	-0.082	-0.138
-567.617	-200.000	0.029	-0.143
-566.602	-200.000	-0.025	-0.235
-565.588	800.000	0.030	-0.127
-564.573	686.541	-0.048	-0.127
-563.558	-103.376	-0.437	-0.103
-562.544	-66.020	-0.315	-0.126
-561.529	800.000	-0.086	0.252
-560.515	-86.405	0.065	0.020
-559.500	-31.322	0.258	-0.146
-558.485	321.736	-0.071	0.136
-557.471	-122.137	0.211	0.035
-556.456	-200.000	-0.014	0.358
-555.442	11.160	-0.206	0.158
-554.427	-200.000	-0.008	0.229
-553.412	-101.292	0.023	-0.006
-552.398	800.000	-0.069	-0.260
-551.383	-200.000	-0.057	-0.341
-550.369	116.166	-0.152	-0.187
-549.354	-60.285	0.125	-0.054
-548.339	58.093	0.162	-0.159
-547.325	593.683	0.115	0.284
-546.310	-136.650	-0.365	-0.042
-545.296	-21.538	0.197	0.120
-544.281	-42.582	-0.303	0.154
-543.266	800.000	-0.076	0.311
-542.252	36.479	0.060	0.053
-541.237	-200.000	-0.002	-0.377
-540.223	-200.000	-0.030	0.252
-539.208	479.034	-0.128	0.290
-538.193	800.000	0.146	-0.549
-537.179	673.681	0.103	0.268
-536.164	800.000	0.080	0.251
-535.150	-200.000	-0.060	-0.381
-534.135	605.059	0.138	-0.345
-533.121	56.827	-0.084	0.082
-532.106	-118.616	-0.122	-0.022
-531.091	-54.411	-0.242	-0.110
-530.077	101.253	0.144	0.168
-529.062	-200.000	0.001	0.281
-528.048	-49.139	-0.115	0.055
-527.033	800.000	-0.036	-0.100
-526.018	131.675	0.106	0.137
-525.004	7.631	-0.229	0.171
-523.989	-200.000	0.012	-0.222
-522.975	-175.959	0.142	-0.004
-521.960	551.808	-0.033	0.079
-520.945	-111.334	-0.216	-0.044
-519.931	-47.407	0.051	0.025
-518.916	161.731	0.155	-0.218
-517.902	-1.078	0.163	0.115
-516.887	-35.218	-0.315	-0.172
-515.872	204.556	0.069	-0.107
-514.858	206.582	0.126	0.197
-513.843	95.966	-0.212	0.242
-512.829	800.000	-0.036	0.138
-511.814	800.000	0.100	0.356
-510.799	-137.112	-0.354	-0.040
-509.785	58.947	-0.148	-0.146
-508.770	145.805	0.039	-0.053
-507.756	-70.690	0.147	-0.056
-506.741	134.815	0.134	0.174
-505.726	29.080	0.093	0.079
-504.712	62.541	-0.195	0.194
-503.697	103.609	0.244	-0.286
-502.683	-200.000	-0.053	0.329
-501.668	-97.302	-0.157	0.041
-500.653	-200.000	0.039	-0.186
-499.639	100.941	0.262	-0.304
-498.624	800.000	0.046	-0.189
-497.610	42.667	0.147	0.134
-496.595	41.696	0.077	-0.069
-495.581	-200.000	0.012	0.151
-494.566	-148.581	-0.043	-0.003
-493.551	45.562	-0.068	0.063
-492.537	47.788	-0.191	0.178
-491.522	-87.673	-0.098	0.030
-490.508	276.025	0.092	0.163
-489.493	800.000	0.023	0.068
-488.478	-38.494	0.220	0.116
-487.464	44.147	-0.050	0.046
-486.449	-200.000	-0.039	-0.238
-485.435	346.472	0.059	0.117
-484.420	126.314	-0.178	-0.225
-483.405	-12.144	-0.286	0.187
-482.391	12.314	0.238	0.183
-481.376	-200.000	0.019	-0.249
-480.362	-150.176	-0.392	0.030
-479.347	-200.000	-0.036	-0.306
-478.332	63.224	0.338	-0.339
-477.318	286.494	0.117	0.212
-476.303	148.709	0.281	-0.379
-475.289	-126.550	0.248	0.037
-474.274	-157.730	0.294	0.017
-473.259	800.000	0.052	0.157
-472.245	38.777	-0.009	0.008
-471.230	-200.000	0.017	-0.130
-470.216	800.000	0.052	0.196
-469.201	-89.005	0.270	-0.080
-468.186	85.540	-0.079	-0.087
-467.172	88.950	0.119	-0.133
-466.157	-200.000	-0.031	-0.205
-465.143	-128.237	0.184	-0.026
-464.128	21.104	0.293	0.238
-463.113	32.759	0.178	-0.154
-462.099	-125.812	0.042	0.006
-461.084	-200.000	0.001	0.201
-460.070	258.231	-0.084	0.144
-459.055	-167.383	0.314	-0.013
-458.040	-92.999	0.105	0.029
-457.026	800.000	-0.017	-0.057
-456.011	224.641	0.091	-0.147
-454.997	-1.519	-0.216	0.152
-453.982	32.849	-0.089	0.077
-452.968	-22.889	0.122	-0.073
-451.953	-119.111	0.148	-0.026
-450.938	18.155	-0.176	0.140
-449.924	-136.044	0.245	-0.029
-448.909	-7.735	0.120	-0.081
-447.895	-200.000	0.060	-0.279
-446.880	-91.503	-0.188	0.053
-445.865	-29.758	0.163	-0.093
-444.851	-149.448	0.185	-0.015
-443.836	-120.134	-0.427	-0.073
-442.822	-78.567	-0.195	0.066
-441.807	-56.529	-0.499	0.221
-440.792	93.917	0.196	-0.221
-439.778	-19.850	0.276	-0.170
-438.763	64.243	-0.175	0.175
-437.749	-200.000	-0.012	0.071
-436.734	-1.820	0.197	-0.138
-435.719	253.710	0.065	-0.111
-434.705	-200.000	0.053	0.243
-433.690	186.906	-0.012	0.018
-432.676	800.000	0.057	0.180
-431.661	722.217	-0.082	-0.218
-430.646	-115.497	0.046	-0.009
-429.632	-15.111	0.199	0.127
-428.617	320.718	0.109	0.206
-427.603	324.039	0.058	0.110
-426.588	-0.602	-0.320	-0.226
-425.573	-200.000	0.042	-0.269
-424.559	205.114	0.038	-0.059
-423.544	-70.592	0.079	-0.030
-422.530	-183.747	-0.218	-0.004
-421.515	-35.998	-0.255	0.137
-420.500	554.636	-0.146	-0.351
-419.486	420.815	-0.141	-0.301
-418.471	-200.000	0.030	0.167
-417.457	800.000	0.097	-0.294
-416.442	-46.583	0.140	-0.069
-415.428	-93.197	0.059	-0.016
-414.413	-200.000	-0.036	0.369
-413.398	-200.000	-0.044	0.333
-412.384	14.954	-0.284	0.221
-411.369	-146.671	0.092	0.008
-410.355	135.423	0.115	-0.149
-409.340	-18.331	-0.134	-0.083
-408.325	-170.585	-0.267	0.009
-407.311	228.377	-0.131	0.212
-406.296	-200.000	0.033	0.204
-405.282	-200.000	0.021	-0.096
-404.267	-78.844	0.405	0.137
-403.252	-183.579	-0.022	0.000
-402.238	800.000	0.057	0.206
-401.223	57.996	-0.139	-0.135
-400.209	301.293	0.046	-0.085
-399.194	193.368	0.116	-0.175
-398.179	356.500	-0.118	0.233
-397.165	-115.179	0.085	0.016
-396.150	-173.641	0.229	-0.007
-395.136	6.131	-0.304	-0.225
-394.121	-32.925	-0.154	-0.085
-393.106	-43.463	0.072	-0.036
-392.092	-200.000	0.019	0.086
-391.077	378.566	-0.113	0.229
-390.063	-94.159	-0.311	-0.085
-389.048	-50.625	-0.291	-0.137
-388.033	222.745	-0.151	-0.242
-387.019	-116.596	0.243	0.045
-386.004	419.661	-0.120	0.255
-384.990	394.863	0.128	-0.265
-383.975	-62.842	0.428	0.176
-382.960	-146.725	-0.247	-0.021
-381.946	109.563	0.224	0.267
-380.931	73.906	0.206	-0.215
-379.917	442.992	0.048	0.104
-378.902	-134.295	0.253	0.031
-377.888	-69.750	-0.177	0.067
-376.873	-159.577	0.287	0.016
-375.858	-124.693	0.226	0.035
-374.844	-34.096	-0.059	0.032
-373.829	-77.176	-0.332	-0.115
-372.815	-44.286	-0.037	0.018
-371.800	800.000	0.042	0.153
-370.785	-105.040	0.125	0.028
-369.771	-9.239	-0.096	0.064
-368.756	-90.453	0.128	-0.037
-367.742	572.539	-0.067	0.162
-366.727	-145.436	0.137	0.012
-365.712	-120.021	-0.024	-0.004
-364.698	-106.053	0.345	-0.077
-363.683	-89.794	-0.167	-0.049
-362.669	-178.112	0.085	0.002
-361.654	-134.353	0.010	0.001
-360.639	98.757	0.098	0.113
-359.625	85.940	0.248	0.271
-358.610	8.873	-0.088	-0.066
-357.596	96.250	-0.356	-0.405
-356.581	-21.151	-0.252	0.153
-355.566	-113.365	-0.285	0.056
-354.552	-156.001	0.241	-0.015
-353.537	464.340	0.141	0.314
-352.523	-200.000	-0.055	0.365
-351.508	-43.536	-0.193	-0.097
-350.493	-107.256	-0.213	-0.047
-349.479	-55.953	0.305	-0.135
-348.464	268.335	0.106	-0.185
-347.450	-200.000	-0.003	0.142
-346.435	800.000	-0.065	-0.238
-345.420	-133.272	-0.233	-0.029
-344.406	-200.000	0.012	0.214
-343.391	327.730	0.095	-0.181
-342.377	5.261	-0.395	0.289
-341.362	800.000	0.088	-0.321
-340.348	-17.503	0.223	0.140
-339.333	-115.985	-0.094	0.017
-338.318	-83.413	0.267	-0.085
-337.304	7.542	0.078	-0.058
-336.289	48.210	0.146	-0.136
-335.275	-134.916	0.143	0.017
-334.260	-135.226	-0.158	0.019
-333.245	325.026	0.066	-0.125
-332.231	-137.172	-0.159	0.018
-331.216	-139.245	-0.125	0.013
-330.202	191.913	-0.081	0.121
-329.187	-29.815	0.194	0.110
-328.172	800.000	0.036	0.121
-327.158	800.000	0.083	-0.236
-326.143	-161.987	-0.132	0.007
-325.129	371.887	0.056	-0.113
-324.114	800.000	0.048	-0.173
-323.099	-100.586	-0.063	0.015
-322.085	-200.000	0.035	-0.158
-321.070	97.299	-0.107	0.122
-320.056	617.788	0.109	0.272
-319.041	14.249	-0.158	-0.123
-318.026	108.209	0.126	-0.149
-317.012	-200.000	0.048	-0.216
-315.997	250.469	0.132	0.222
-314.983	-87.782	0.068	0.020
-313.968	-200.000	-0.014	0.125
-312.953	-200.000	-0.003	0.155
-311.939	800.000	0.094	0.377
-310.924	485.082	-0.030	0.069
-309.910	341.077	0.064	0.125
-308.895	68.429	-0.206	0.210
-307.880	800.000	-0.054	-0.167
-306.866	-13.108	0.266	-0.172
-305.851	-58.955	-0.215	0.092
-304.837	-16.193	-0.366	0.231
-303.822	800.000	-0.058	-0.168
-302.807	-38.134	0.250	-0.132
-301.793	-58.432	0.228	-0.098
-300.778	-200.000	0.012	0.229
-299.764	-74.028	0.651	0.234
-298.749	360.973	-0.113	0.225
-297.735	110.494	-0.124	0.148
-296.720	-84.597	-0.153	-0.048
-295.705	-182.261	0.133	0.002
-294.691	-59.515	-0.211	-0.090
-293.676	82.412	0.272	-0.292
-292.662	6.019	0.261	-0.192
-291.647	-119.145	0.335	-0.058
-290.632	-200.000	-0.003	-0.061
-289.618	164.490	-0.186	-0.261
-288.603	-200.000	-0.065	-0.358
-287.589	800.000	-0.095	0.390
-286.574	-200.000	-0.056	0.377
-285.559	800.000	0.068	0.231
-284.545	-124.322	-0.112	0.017
-283.530	120.796	-0.168	0.208
-282.516	800.000	0.051	-0.188
-281.501	-29.994	0.062	0.035
-280.486	-162.503	0.342	-0.017
-279.472	142.681	-0.133	-0.175
-278.457	69.672	-0.276	-0.282
-277.443	-96.493	0.266	-0.070
-276.428	-142.948	-0.411	0.039
-275.413	-35.927	-0.235	0.126
-274.399	49.733	-0.075	0.070
-273.384	800.000	-0.034	-0.145
-272.370	-85.489	0.167	-0.051
-271.355	420.837	-0.092	0.196
-270.340	800.000	0.060	0.187
-269.326	-78.543	-0.156	0.053
-268.311	32.968	-0.193	0.166
-267.297	-177.726	0.201	-0.005
-266.282	145.168	0.134	0.178
-265.267	536.298	-0.107	0.250
-264.253	166.444	0.126	0.177
-263.238	-200.000	0.011	-0.288
-262.224	800.000	0.099	0.389
-261.209	-200.000	0.034	0.328
-260.195	139.101	-0.131	0.171
-259.180	-1.951	0.226	-0.157
-258.165	-24.429	-0.090	-0.053
-257.151	211.592	-0.107	0.167
-256.136	-200.000	-0.033	-0.316
-255.122	516.246	0.063	-0.146
-254.107	209.164	0.163	-0.254
-253.092	-5.641	-0.201	-0.136
-252.078	248.643	0.117	0.196
-251.063	-200.000	-0.016	-0.083
-250.049	243.108	-0.150	-0.248
-249.034	-200.000	0.031	0.177
-248.019	-80.151	-0.305	-0.101
-247.005	-200.000	-0.031	0.162
-245.990	-200.000	-0.033	0.198
-244.976	352.443	0.062	0.121
-243.961	-41.514	0.183	-0.093
-242.946	-34.260	0.293	-0.159
-241.932	61.894	0.131	0.129
-240.917	475.738	-0.028	0.062
-239.903	549.764	-0.081	0.192
-238.888	502.683	-0.098	0.225
-237.873	-200.000	-0.002	-0.020
-236.859	-84.229	0.499	-0.157
-235.844	-40.240	0.044	0.022
-234.830	-200.000	0.006	-0.500
-233.815	-87.758	-0.078	0.023
-232.800	-200.000	0.007	0.190
-231.786	105.481	0.130	0.152
-230.771	620.016	0.044	0.109
-229.757	-37.791	0.049	-0.026
-228.742	-200.000	-0.010	0.187
-227.727	-70.110	-0.157	0.059
-226.713	36.876	0.278	0.244
-225.698	-186.179	-0.184	-0.003
-224.684	136.202	-0.218	0.282
-223.669	-200.000	0.046	0.392
-222.655	-200.000	-0.019	0.461
-221.640	-198.502	-0.214	0.001
-220.625	-89.659	0.106	-0.031
-219.611	-29.130	-0.080	-0.045
-218.596	3.218	-0.297	-0.214
-217.582	-63.498	-0.256	0.104
-216.567	-71.912	0.243	-0.090
-215.552	-104.262	0.370	0.085
-214.538	-169.019	-0.384	0.014
-213.523	-134.647	0.269	0.032
-212.509	800.000	0.070	0.258
-211.494	-45.800	0.416	-0.203
-210.479	-200.000	0.011	0.136
-209.465	-177.532	-0.319	-0.008
-208.450	590.747	0.084	-0.205
-207.436	195.228	-0.090	-0.134
-206.421	-133.612	-0.268	-0.033
-205.406	-118.399	-0.365	-0.064
-204.392	-200.000	0.010	0.313
-203.377	177.324	0.076	0.109
-202.363	356.417	-0.057	0.112
-201.348	-200.000	-0.022	0.141
-200.333	-200.000	-0.058	-0.512
-199.319	290.267	0.087	-0.155
-198.304	800.000	-0.055	0.210
-197.290	65.143	-0.238	-0.238
-196.275	-173.319	-0.037	0.001
-195.260	7.201	0.165	-0.122
-194.246	0.906	0.030	0.021
-193.231	800.000	0.072	0.240
-192.217	-44.362	0.031	-0.016
-191.202	181.452	-0.137	0.199
-190.187	-200.000	0.240	-0.001
-189.173	56.980	0.117	-0.113
-188.158	693.146	-0.177	0.457
-187.144	-200.000	-0.001	0.272
-186.129	-19.306	0.141	-0.086
-185.114	-56.291	0.062	0.027
-184.100	800.000	-0.034	0.101
-183.085	-149.258	0.024	-0.002
-182.071	-128.485	0.320	-0.045
-181.056	-17.941	-0.306	0.190
-180.042	197.886	-0.207	-0.313
-179.027	800.000	0.111	0.396
-178.012	-84.006	-0.105	-0.033
-176.998	51.224	0.241	-0.225
-175.983	800.000	-0.085	-0.316
-174.969	24.327	0.302	-0.247
-173.954	-52.067	-0.021	0.010
-172.939	-185.686	0.161	0.002
-171.925	22.587	-0.111	0.090
-170.910	200.646	-0.124	0.188
-169.896	766.391	0.024	-0.065
-168.881	-200.000	-0.012	0.212
-167.866	-47.192	0.254	0.122
-166.852	-26.981	-0.432	0.249
-165.837	108.257	0.108	0.127
-164.823	-9.261	-0.316	0.208
-163.808	118.147	-0.076	-0.092
-162.793	-113.947	0.362	-0.069
-161.779	111.875	-0.164	0.195
-160.764	-4.108	-0.175	0.120
-159.750	-200.000	0.015	0.075
-158.735	-72.434	-0.453	0.165
-157.720	400.809	-0.100	0.207
-156.706	-19.130	-0.434	-0.266
-155.691	-200.000	-0.019	-0.142
-154.677	137.763	-0.019	0.024
-153.662	77.306	-0.188	-0.197
-152.647	-153.362	0.072	0.005
-151.633	-19.515	-0.328	0.201
-150.618	31.672	0.059	-0.050
-149.604	-168.963	0.529	0.020
-148.589	20.958	0.213	0.170
-147.574	-131.098	0.101	-0.013
-146.560	8.982	-0.176	0.131
-145.545	-120.612	-0.192	0.032
-144.531	279.405	-0.093	-0.163
-143.516	-39.177	0.069	0.036
-142.502	21.304	0.245	-0.196
-141.487	-39.432	0.216	0.112
-140.472	-200.000	0.048	-0.259
-139.458	658.203	-0.113	-0.286
-138.443	-200.000	-0.032	0.275
-137.429	413.472	-0.149	0.313
-136.414	342.585	-0.027	-0.053
-135.399	-200.000	-0.050	0.312
-134.385	444.086	0.093	0.201
-133.370	-129.607	-0.168	-0.023
-132.356	-200.000	-0.024	0.261
-131.341	118.290	0.213	0.259
-130.326	393.557	-0.099	0.204
-129.312	-14.024	0.293	-0.186
-128.297	75.737	0.198	0.206
-127.283	88.679	0.167	0.183
-126.268	121.714	-0.349	-0.429
-125.253	-73.803	0.070	-0.025
-124.239	-87.491	-0.537	-0.160
-123.224	277.775	0.040	0.071
-122.210	81.438	-0.155	0.165
