DTS Sentinel unit serial number:	SN413079Multiplexer serial number:	ORYXHardware model number:	OX4-SRSoftware version number:	ORYX F/W v4.00 Oryx Data Collector v3.7.2.0data status	okinstallation	princeton_trtdifferential loss correction	single-endedforward channel	channel 1reverse channel	N/Adate	2019/09/17time	06:30:35forward acquisition time	60.00reverse acquisition time	0.00gamma	496.2192k internal	0.2328k external	0.2328temperature offset calibration	0.9968default loss term (dB/km)	0.3790temperature slope calibration	1.0000multiplexer offset coefficient	1.0000multiplexer slope coefficient	1.0000fibre end	0.00T internal ref (°C)	28.14T ext. ref 1 (°C)	0.12T ext. ref 2 (°C)	21.49length (m)	temperature (°C)	Stokes	anti-Stokes-747.200	421.215	0.105	-0.226
-746.185	800.000	0.095	0.344
-745.171	-63.954	-0.322	-0.132
-744.156	-89.638	0.276	0.082
-743.142	800.000	0.100	0.439
-742.127	60.342	-0.185	0.185
-741.112	-46.784	-0.085	0.042
-740.098	-101.410	-0.341	0.084
-739.083	457.296	0.154	0.346
-738.069	800.000	0.068	0.258
-737.054	-200.000	-0.019	-0.213
-736.039	-182.858	-0.045	-0.001
-735.025	163.008	0.340	0.481
-734.010	638.026	-0.067	-0.173
-732.996	677.465	0.063	-0.166
-731.981	-28.665	-0.219	0.127
-730.966	-52.551	-0.254	-0.118
-729.952	-200.000	0.002	-0.295
-728.937	224.521	-0.107	0.174
-727.923	-153.761	-0.265	-0.018
-726.908	-56.537	-0.360	0.161
-725.894	-81.637	-0.237	-0.078
-724.879	184.142	0.116	0.172
-723.864	-200.000	-0.065	-0.348
-722.850	-200.000	-0.099	-0.444
-721.835	26.189	-0.267	0.225
-720.821	800.000	-0.021	-0.083
-719.806	-8.207	-0.343	-0.233
-718.791	-96.126	-0.179	0.048
-717.777	-183.093	0.429	0.008
-716.762	788.112	-0.134	0.372
-715.748	-80.178	-0.073	0.025
-714.733	-7.385	0.107	-0.073
-713.718	-129.305	0.132	0.018
-712.704	29.788	-0.326	-0.279
-711.689	261.160	-0.097	0.168
-710.675	-89.209	-0.393	0.117
-709.660	-158.196	0.317	-0.019
-708.645	-151.678	0.074	-0.005
-707.631	-57.700	-0.362	-0.160
-706.616	55.285	-0.161	-0.157
-705.602	-128.422	-0.048	-0.007
-704.587	7.724	-0.288	0.217
-703.572	-24.023	-0.032	0.019
-702.558	-137.928	-0.312	-0.035
-701.543	-200.000	-0.019	-0.230
-700.529	-200.000	0.000	-0.016
-699.514	-130.806	0.101	0.014
-698.499	-200.000	-0.029	-0.304
-697.485	800.000	0.038	-0.109
-696.470	137.232	0.118	-0.155
-695.456	-35.092	-0.193	-0.106
-694.441	-22.346	0.108	-0.066
-693.426	45.153	0.189	-0.175
-692.412	800.000	-0.064	-0.225
-691.397	58.844	-0.254	-0.251
-690.383	353.407	-0.034	-0.067
-689.368	87.381	0.078	0.087
-688.354	-59.431	-0.259	-0.112
-687.339	120.358	0.108	0.135
-686.324	-69.076	-0.319	0.124
-685.310	572.671	-0.121	0.297
-684.295	-36.904	0.177	-0.096
-683.281	-59.713	0.207	-0.089
-682.266	-58.158	0.274	-0.120
-681.251	-147.602	-0.052	0.004
-680.237	642.195	0.045	-0.116
-679.222	30.249	0.057	-0.049
-678.208	18.545	-0.120	-0.096
-677.193	152.533	0.175	-0.241
-676.178	157.807	0.078	0.108
-675.164	234.449	0.009	-0.015
-674.149	-156.204	-0.399	-0.025
-673.135	509.531	0.113	0.265
-672.120	800.000	0.149	-0.511
-671.105	-143.775	-0.435	-0.041
-670.091	699.185	0.197	-0.520
-669.076	64.807	0.204	-0.207
-668.062	43.807	-0.110	-0.101
-667.047	-200.000	-0.049	-0.267
-666.032	21.508	0.116	-0.095
-665.018	-67.317	-0.198	-0.078
-664.003	302.706	0.167	0.311
-662.989	-95.898	-0.240	0.064
-661.974	-200.000	-0.005	0.203
-660.959	15.233	-0.223	-0.175
-659.945	-200.000	-0.004	0.087
-658.930	48.346	0.178	0.167
-657.916	-180.758	-0.239	-0.005
-656.901	119.635	-0.199	-0.248
-655.886	645.587	0.012	0.032
-654.872	-62.677	-0.113	0.047
-653.857	-88.052	-0.099	0.030
-652.843	120.721	0.143	-0.179
-651.828	800.000	-0.098	-0.288
-650.814	59.331	-0.241	-0.238
-649.799	-58.658	0.179	0.078
-648.784	-106.613	-0.202	-0.045
-647.770	-74.989	-0.085	0.031
-646.755	-46.420	0.225	-0.111
-645.741	93.859	-0.036	0.041
-644.726	800.000	-0.040	0.133
-643.711	-80.056	-0.218	-0.074
-642.697	52.190	0.133	-0.128
-641.682	-200.000	0.090	-0.398
-640.668	-105.737	-0.326	-0.074
-639.653	-149.692	0.116	-0.009
-638.638	-200.000	0.041	0.293
-637.624	799.254	-0.081	-0.224
-636.609	-81.477	0.156	-0.051
-635.595	-77.470	0.316	0.110
-634.580	664.862	-0.093	0.242
-633.565	-200.000	-0.030	0.477
-632.551	800.000	-0.069	-0.200
-631.536	79.348	-0.235	-0.253
-630.522	-137.823	-0.083	-0.009
-629.507	116.911	-0.122	0.151
-628.492	-164.282	-0.443	-0.020
-627.478	-41.808	-0.209	0.107
-626.463	-200.000	-0.016	0.260
-625.449	80.427	0.155	-0.168
-624.434	-37.009	0.269	-0.145
-623.419	15.836	0.121	-0.096
-622.405	117.105	-0.086	0.106
-621.390	59.295	0.123	0.122
-620.376	167.069	0.103	-0.147
-619.361	-105.778	-0.454	0.103
-618.346	800.000	-0.026	-0.082
-617.332	-94.432	0.296	-0.081
-616.317	219.771	0.068	-0.109
-615.303	-53.582	-0.224	-0.103
-614.288	-200.000	0.032	-0.276
-613.273	-18.246	0.163	0.102
-612.259	-4.768	0.273	-0.189
-611.244	92.248	-0.152	-0.172
-610.230	-155.470	0.148	0.010
-609.215	-111.589	-0.379	0.077
-608.201	-39.811	-0.228	0.120
-607.186	-178.810	-0.280	-0.006
-606.171	703.511	-0.122	-0.323
-605.157	254.367	0.105	0.180
-604.142	-127.449	0.083	-0.012
-603.128	-30.416	-0.040	0.023
-602.113	156.699	0.101	-0.140
-601.098	-112.789	0.108	0.022
-600.084	-200.000	0.026	0.157
-599.069	-74.666	-0.173	-0.063
-598.055	28.411	-0.288	-0.244
-597.040	505.193	-0.078	-0.182
-596.025	107.409	-0.283	0.337
-595.011	-90.267	0.119	-0.035
-593.996	-36.108	0.074	0.040
-592.982	616.958	-0.049	-0.124
-591.967	104.266	0.034	0.041
-590.952	54.161	-0.489	0.471
-589.938	-37.966	-0.184	-0.098
-588.923	-174.083	-0.157	-0.005
-587.909	-200.000	0.027	0.394
-586.894	-8.617	-0.245	-0.165
-585.879	-22.020	0.473	-0.288
-584.865	-73.807	-0.212	-0.077
-583.850	-147.651	-0.278	-0.023
-582.836	-200.000	0.020	0.135
-581.821	-124.205	-0.254	-0.040
-580.806	800.000	0.011	-0.048
-579.792	33.043	-0.218	0.190
-578.777	-149.945	0.477	-0.037
-577.763	254.596	0.027	-0.046
-576.748	192.562	-0.128	-0.194
-575.733	-52.732	-0.167	0.077
-574.719	-127.126	-0.149	-0.022
-573.704	-8.530	0.280	0.188
-572.690	-200.000	0.029	0.170
-571.675	-200.000	0.055	-0.373
-570.661	171.412	-0.205	-0.294
-569.646	234.272	-0.181	-0.298
-568.631	-73.968	-0.237	-0.086
-567.617	-55.307	-0.445	-0.200
-566.602	-57.841	0.179	-0.078
-565.588	-100.009	-0.114	-0.028
-564.573	-200.000	-0.067	-0.369
-563.558	-89.425	0.130	0.038
-562.544	63.073	-0.196	-0.197
-561.529	-83.030	0.056	0.018
-560.515	800.000	0.044	-0.175
-559.500	-21.691	0.118	-0.072
-558.485	490.388	0.054	-0.124
-557.471	184.676	0.140	0.208
-556.456	-67.160	-0.145	0.057
-555.442	9.161	-0.026	0.020
-554.427	206.443	0.224	0.349
-553.412	800.000	0.034	0.143
-552.398	-111.089	0.274	0.056
-551.383	-94.688	-0.193	-0.052
-550.369	180.888	-0.055	0.081
-549.354	800.000	0.015	0.051
-548.339	64.791	0.175	0.177
-547.325	-200.000	0.034	-0.175
-546.310	140.180	-0.115	-0.151
-545.296	131.349	-0.097	-0.124
-544.281	-129.014	0.050	-0.007
-543.266	800.000	0.036	-0.103
-542.252	274.932	0.167	-0.297
-541.237	58.108	0.120	0.117
-540.223	-8.658	0.454	-0.305
-539.208	82.556	-0.256	0.278
-538.193	274.132	-0.132	-0.234
-537.179	-118.758	-0.219	0.039
-536.164	129.834	0.171	0.219
-535.150	-10.946	-0.109	-0.072
-534.135	6.486	-0.110	0.081
-533.121	-200.000	-0.042	0.544
-532.106	3.712	-0.286	0.209
-531.091	-181.414	0.027	0.001
-530.077	-67.835	-0.254	-0.099
-529.062	-145.482	-0.337	0.030
-528.048	110.275	0.262	-0.314
-527.033	323.026	-0.010	-0.019
-526.018	-4.064	-0.096	-0.066
-525.004	338.905	-0.239	0.465
-523.989	-113.635	-0.244	-0.048
-522.975	-167.393	-0.317	0.013
-521.960	-12.390	0.104	0.068
-520.945	-8.603	0.158	-0.106
-519.931	800.000	-0.082	0.267
-518.916	-97.349	-0.355	-0.092
-517.902	-96.273	-0.235	0.062
-516.887	800.000	0.046	-0.143
-515.872	-60.177	-0.220	-0.094
-514.858	97.302	0.059	0.068
-513.843	-46.613	0.121	0.059
-512.829	-181.839	-0.268	-0.005
-511.814	11.019	-0.153	-0.117
-510.799	-17.749	0.455	-0.286
-509.785	283.446	0.149	-0.267
-508.770	-138.323	-0.224	-0.025
-507.756	-170.396	-0.059	-0.002
-506.741	-143.203	0.160	-0.015
-505.726	222.529	-0.248	0.399
-504.712	-81.162	0.183	0.061
-503.697	-28.813	-0.352	0.202
-502.683	-83.775	0.111	0.035
-501.668	232.170	0.076	0.125
-500.653	800.000	-0.042	-0.174
-499.639	123.099	0.160	-0.200
-498.624	26.344	-0.159	-0.133
-497.610	-200.000	0.016	0.252
-496.595	132.979	-0.027	0.035
-495.581	-200.000	-0.025	0.202
-494.566	-126.950	-0.192	0.028
-493.551	-127.833	-0.084	-0.012
-492.537	-200.000	0.009	-0.137
-491.522	142.344	0.116	-0.153
-490.508	800.000	0.051	-0.164
-489.493	-200.000	-0.014	0.177
-488.478	800.000	-0.113	0.354
-487.464	-65.336	-0.248	0.100
-486.449	472.963	-0.097	-0.217
-485.435	-17.669	0.179	-0.112
-484.420	362.773	-0.160	-0.321
-483.405	-98.521	-0.076	0.019
-482.391	-64.956	0.109	0.044
-481.376	6.679	0.128	-0.095
-480.362	800.000	0.064	-0.238
-479.347	78.922	0.202	0.216
-478.332	-200.000	0.015	-0.248
-477.318	800.000	0.091	0.269
-476.303	296.886	0.023	0.042
-475.289	-28.998	-0.166	0.095
-474.274	130.539	0.240	0.307
-473.259	-0.807	0.216	-0.152
-472.245	-68.893	-0.280	0.108
-471.230	695.458	0.028	-0.074
-470.216	-200.000	0.056	0.405
-469.201	-116.410	0.256	-0.047
-468.186	-88.326	-0.352	-0.105
-467.172	530.610	0.181	0.426
-466.157	-51.556	-0.227	0.106
-465.143	45.587	0.115	-0.106
-464.128	92.396	-0.155	-0.174
-463.113	-42.659	-0.154	0.078
-462.099	-200.000	-0.002	0.112
-461.084	421.239	-0.141	0.301
-460.070	70.104	-0.116	0.119
-459.055	5.825	0.218	0.161
-458.040	528.442	-0.207	-0.487
-457.026	182.359	0.178	0.262
-456.011	-162.067	0.144	0.007
-454.997	-109.064	0.306	-0.065
-453.982	-18.978	-0.100	-0.062
-452.968	-104.473	0.261	0.060
-451.953	185.184	0.202	0.299
-450.938	-200.000	0.006	0.231
-449.924	-200.000	-0.017	-0.298
-448.909	-36.691	-0.191	-0.102
-447.895	328.034	0.113	0.215
-446.880	-200.000	-0.014	-0.150
-445.865	134.261	0.173	-0.223
-444.851	395.621	0.229	-0.476
-443.836	284.641	0.075	0.135
-442.822	-104.176	0.022	0.005
-441.807	121.111	0.155	-0.192
-440.792	-28.290	-0.441	-0.254
-439.778	-166.665	-0.289	-0.012
-438.763	-200.000	-0.030	-0.404
-437.749	-96.379	0.180	0.047
-436.734	246.591	0.096	0.160
-435.719	15.440	-0.220	-0.172
-434.705	671.432	-0.068	0.176
-433.690	235.039	0.018	0.030
-432.676	-176.994	-0.231	-0.006
-431.661	111.464	0.205	0.246
-430.646	-81.197	-0.097	0.032
-429.632	-185.887	0.146	0.002
-428.617	800.000	0.073	-0.228
-427.603	-124.330	0.380	-0.059
-426.588	-110.672	-0.191	-0.039
-425.573	-200.000	-0.088	0.437
-424.559	-38.776	0.205	0.108
-423.544	650.836	0.077	0.197
-422.530	-200.000	-0.003	0.267
-421.515	800.000	0.060	-0.246
-420.500	24.643	0.246	-0.202
-419.486	173.888	0.112	0.161
-418.471	87.545	0.088	0.097
-417.457	23.620	-0.281	-0.230
-416.442	473.584	-0.030	-0.067
-415.428	435.887	0.064	-0.139
-414.413	108.131	-0.093	-0.111
-413.398	800.000	-0.043	0.140
-412.384	-93.423	0.141	0.039
-411.369	800.000	-0.054	-0.194
-410.355	800.000	0.036	0.151
-409.340	-21.647	0.100	-0.061
-408.325	-200.000	0.004	0.114
-407.311	161.887	0.126	-0.176
-406.296	81.221	-0.256	-0.275
-405.282	44.275	0.207	0.189
-404.267	-200.000	-0.019	-0.198
-403.252	638.438	-0.013	-0.034
-402.238	800.000	-0.092	0.265
-401.223	116.948	0.197	0.241
-400.209	800.000	0.015	0.047
-399.194	800.000	0.108	-0.351
-398.179	-112.545	0.180	-0.036
-397.165	374.323	-0.107	0.217
-396.150	-9.049	0.250	0.166
-395.136	144.408	-0.094	0.125
-394.121	91.735	0.179	0.200
-393.106	376.887	0.046	-0.094
-392.092	-43.933	0.127	-0.063
-391.077	800.000	0.110	-0.348
-390.063	-192.423	-0.096	0.001
-389.048	-33.836	-0.108	-0.059
-388.033	-119.933	-0.107	-0.018
-387.019	-38.762	-0.089	0.047
-386.004	-200.000	-0.010	0.157
-384.990	-19.596	0.130	0.080
-383.975	14.610	0.197	-0.153
-382.960	600.975	-0.112	-0.275
-381.946	143.667	0.155	-0.205
-380.931	719.715	0.019	0.050
-379.917	800.000	-0.047	-0.135
-378.902	-114.945	-0.044	0.008
-377.888	143.318	0.192	-0.254
-376.873	564.084	0.064	0.155
-375.858	-37.494	0.136	-0.072
-374.844	-24.167	-0.433	-0.257
-373.829	67.045	-0.075	0.075
-372.815	-200.000	0.049	0.264
-371.800	-200.000	0.010	-0.088
-370.785	44.740	-0.257	-0.235
-369.771	-98.605	-0.108	0.027
-368.756	412.132	0.181	-0.382
-367.742	249.517	-0.038	-0.064
-366.727	40.516	-0.262	0.235
-365.712	-200.000	-0.001	-0.098
-364.698	84.393	0.237	-0.258
-363.683	-200.000	-0.028	-0.188
-362.669	-44.943	0.233	-0.115
-361.654	137.108	-0.225	-0.292
-360.639	548.912	0.046	0.110
-359.625	-200.000	0.009	0.105
-358.610	200.723	-0.123	-0.188
-357.596	-84.877	-0.263	0.082
-356.581	-98.515	-0.088	-0.022
-355.566	541.960	0.045	0.105
-354.552	280.418	0.227	0.403
-353.537	800.000	0.049	0.154
-352.523	338.399	0.128	0.247
-351.508	-35.384	-0.329	-0.177
-350.493	-14.905	0.310	-0.198
-349.479	-200.000	0.022	-0.126
-348.464	171.936	-0.078	-0.112
-347.450	-200.000	0.044	0.270
-346.435	439.437	-0.125	0.271
-345.420	169.367	-0.060	0.085
-344.406	800.000	-0.083	0.285
-343.391	31.355	0.263	0.224
-342.377	181.314	-0.190	-0.277
-341.362	800.000	-0.058	0.169
-340.348	-200.000	-0.004	0.099
-339.333	-146.241	0.244	-0.021
-338.318	148.412	0.108	0.145
-337.304	800.000	-0.116	-0.323
-336.289	146.900	0.059	0.079
-335.275	-200.000	0.015	-0.189
-334.260	-200.000	-0.007	-0.244
-333.245	75.451	0.244	-0.255
-332.231	218.524	-0.170	0.269
-331.216	-75.364	0.417	0.147
-330.202	743.320	0.052	-0.139
-329.187	181.146	0.028	0.041
-328.172	335.102	0.092	-0.177
-327.158	800.000	0.061	-0.260
-326.143	-195.453	-0.092	0.001
-325.129	498.979	0.071	-0.162
-324.114	116.787	0.128	0.155
-323.099	-200.000	-0.016	0.284
-322.085	129.763	0.115	-0.146
-321.070	-200.000	0.038	-0.225
-320.056	577.564	0.076	0.185
-319.041	-98.808	0.234	-0.059
-318.026	400.867	0.042	-0.087
-317.012	44.565	-0.208	0.190
-315.997	-68.914	-0.180	0.069
-314.983	140.297	-0.055	0.072
-313.968	260.913	-0.072	-0.123
-312.953	-130.942	0.256	-0.034
-311.939	169.748	0.022	-0.032
-310.924	-200.000	-0.042	-0.236
-309.910	305.661	0.311	-0.573
-308.895	-71.954	-0.235	0.087
-307.880	48.970	0.050	0.047
-306.866	156.807	-0.093	-0.128
-305.851	-13.426	0.124	-0.080
-304.837	-123.997	0.617	-0.096
-303.822	436.933	-0.106	-0.228
-302.807	775.595	-0.044	-0.119
-301.793	195.197	-0.069	0.104
-300.778	747.216	-0.116	0.310
-299.764	-108.267	-0.257	-0.055
-298.749	286.836	0.155	-0.277
-297.735	79.610	-0.161	-0.172
-296.720	430.729	0.132	-0.282
-295.705	30.099	0.088	-0.074
-294.691	156.215	-0.064	-0.087
-293.676	-200.000	0.019	0.366
-292.662	800.000	0.082	-0.281
-291.647	800.000	-0.044	-0.124
-290.632	-200.000	0.003	0.091
-289.618	-24.275	-0.210	-0.124
-288.603	-200.000	-0.005	-0.212
-287.589	-84.562	0.241	-0.075
-286.574	-3.389	0.136	0.094
-285.559	23.703	-0.231	-0.188
-284.545	-62.051	-0.069	-0.028
-283.530	-162.148	0.133	-0.007
-282.516	594.310	0.104	-0.256
-281.501	191.662	-0.142	0.212
-280.486	371.156	0.017	0.035
-279.472	70.474	0.335	0.343
-278.457	800.000	0.091	0.282
-277.443	-37.652	0.286	-0.151
-276.428	364.324	0.117	-0.232
-275.413	105.084	-0.231	-0.270
-274.399	168.846	0.124	-0.174
-273.384	470.667	-0.049	-0.108
-272.370	113.294	-0.255	-0.306
-271.355	-40.124	-0.221	-0.114
-270.340	-39.883	-0.095	0.049
-269.326	175.186	0.238	0.341
-268.311	800.000	-0.071	0.270
-267.297	-63.387	0.164	0.067
-266.282	140.724	0.260	0.340
-265.267	-20.926	0.116	0.070
-264.253	516.932	-0.184	-0.425
-263.238	-118.776	0.351	-0.061
-262.224	-106.553	0.319	-0.070
-261.209	430.757	-0.071	-0.152
-260.195	-4.313	-0.135	-0.093
-259.180	65.805	0.032	0.032
-258.165	400.885	-0.093	0.194
-257.151	-116.053	-0.126	0.023
-256.136	241.222	-0.117	-0.193
-255.122	-2.096	0.282	-0.196
-254.107	800.000	-0.055	-0.166
-253.092	800.000	-0.106	0.291
-252.078	281.536	-0.123	0.218
-251.063	-200.000	0.007	-0.091
-250.049	274.595	-0.043	0.075
-249.034	201.316	0.155	-0.235
-248.019	-89.613	0.193	0.056
-247.005	210.530	0.181	-0.281
-245.990	-106.982	-0.257	-0.056
-244.976	-200.000	0.034	0.162
-243.961	-200.000	0.018	-0.098
-242.946	315.511	0.187	-0.349
-241.932	-200.000	0.011	0.263
-240.917	800.000	0.117	0.359
-239.903	-200.000	0.013	-0.242
-238.888	-138.116	-0.052	0.006
-237.873	-79.249	-0.067	0.022
-236.859	-14.951	0.326	0.207
-235.844	213.542	0.124	0.193
-234.830	-200.000	-0.014	0.427
-233.815	22.529	-0.073	-0.059
-232.800	-200.000	-0.009	-0.272
-231.786	-85.764	0.175	-0.054
-230.771	487.833	0.073	-0.165
-229.757	800.000	-0.115	-0.333
-228.742	-38.224	0.142	-0.074
-227.727	-51.775	0.074	0.034
-226.713	800.000	-0.068	-0.247
-225.698	105.183	-0.169	0.197
-224.684	-61.473	-0.040	-0.017
-223.669	-200.000	0.008	-0.359
-222.655	-44.441	0.206	-0.102
-221.640	-127.682	0.135	-0.019
-220.625	-117.538	0.172	0.031
-219.611	-2.178	0.297	-0.206
-218.596	-156.266	0.121	0.008
-217.582	-23.024	-0.110	0.065
-216.567	-104.717	-0.134	-0.031
-215.552	-200.000	-0.021	-0.107
-214.538	0.834	-0.154	0.109
-213.523	-108.713	0.051	-0.011
-212.509	-22.286	-0.166	0.099
-211.494	-63.396	0.214	-0.087
-210.479	736.143	0.016	-0.042
-209.465	-48.115	0.176	0.084
-208.450	-187.621	0.108	0.001
-207.436	-30.926	-0.068	-0.038
-206.421	-82.854	0.124	-0.040
-205.406	-83.907	0.088	0.027
-204.392	146.156	0.142	0.188
-203.377	-81.033	0.156	0.051
-202.363	24.833	-0.090	0.074
-201.348	-200.000	-0.001	0.416
-200.333	39.792	-0.367	0.325
-199.319	800.000	0.031	0.111
-198.304	800.000	-0.059	0.225
-197.290	318.277	-0.077	0.145
-196.275	92.458	0.139	0.155
-195.260	164.501	-0.151	0.210
-194.246	62.414	-0.085	-0.083
-193.231	800.000	-0.055	-0.167
-192.217	-200.000	0.000	0.137
-191.202	-131.422	-0.343	-0.045
-190.187	167.582	0.125	-0.175
-189.173	-95.290	-0.393	0.104
-188.158	-200.000	-0.010	0.171
-187.144	800.000	-0.047	0.199
-186.129	-200.000	0.077	0.340
-185.114	25.958	-0.066	0.054
-184.100	-34.220	0.179	-0.097
-183.085	0.926	-0.156	0.111
-182.071	-75.375	0.059	0.021
-181.056	-91.132	0.773	0.219
-180.042	-200.000	0.028	-0.403
-179.027	800.000	-0.034	0.127
-178.012	800.000	-0.056	0.180
-176.998	800.000	-0.170	0.500
-175.983	-79.766	-0.087	-0.029
-174.969	-179.670	-0.473	0.010
-173.954	16.394	0.182	-0.141
-172.939	478.254	0.098	0.218
-171.925	37.983	0.168	0.147
-170.910	374.431	0.084	0.169
-169.896	38.288	-0.088	0.077
-168.881	61.850	-0.088	0.086
-167.866	-75.418	-0.105	0.037
-166.852	97.110	0.196	-0.221
-165.837	-11.528	-0.188	0.122
-164.823	-200.000	-0.135	0.635
-163.808	-74.059	0.410	-0.146
-162.793	166.568	-0.136	-0.189
-161.779	-200.000	-0.017	0.176
-160.764	800.000	0.101	0.333
-159.750	433.876	0.142	0.304
-158.735	354.029	-0.174	-0.340
-157.720	508.557	-0.222	0.509
-156.706	-200.000	0.128	0.572
-155.691	-78.766	0.172	-0.058
-154.677	4.245	0.223	0.161
-153.662	800.000	-0.144	0.502
-152.647	-84.690	-0.291	0.090
-151.633	-200.000	0.010	0.216
-150.618	-45.140	0.165	-0.081
-149.604	242.079	0.152	-0.251
-148.589	-200.000	-0.015	0.281
-147.574	32.037	-0.208	-0.176
-146.560	-70.219	-0.318	0.119
-145.545	80.431	0.302	-0.320
-144.531	-41.201	0.206	-0.105
-143.516	-200.000	-0.001	-0.083
-142.502	329.643	0.066	0.125
-141.487	-40.192	0.208	0.106
-140.472	-81.921	-0.310	-0.100
-139.458	351.450	-0.111	0.217
-138.443	174.997	0.140	0.200
-137.429	-112.250	0.134	-0.026
-136.414	-200.000	0.004	-0.202
-135.399	-67.693	0.203	-0.078
-134.385	800.000	-0.015	0.042
-133.370	800.000	-0.134	0.461
-132.356	112.721	-0.042	-0.050
-131.341	-103.319	-0.274	0.064
-130.326	26.220	-0.099	0.081
-129.312	-1.432	0.303	0.211
-128.297	-113.931	-0.057	-0.011
-127.283	-86.636	0.114	-0.034
-126.268	800.000	0.023	0.090
-125.253	66.203	-0.054	0.054
-124.239	-200.000	0.003	0.112
-123.224	-87.910	-0.110	0.033
-122.210	247.819	-0.220	-0.366
-121.195	-36.767	-0.111	-0.058
