DTS Sentinel unit serial number:	SN413079Multiplexer serial number:	ORYXHardware model number:	OX4-SRSoftware version number:	ORYX F/W v4.00 Oryx Data Collector v3.7.2.0data status	okinstallation	princeton_trtdifferential loss correction	single-endedforward channel	channel 1reverse channel	N/Adate	2019/09/13time	18:54:35forward acquisition time	60.00reverse acquisition time	0.00gamma	496.2192k internal	0.2322k external	0.2322temperature offset calibration	1.0123default loss term (dB/km)	0.3790temperature slope calibration	1.0000multiplexer offset coefficient	1.0000multiplexer slope coefficient	1.0000fibre end	0.00T internal ref (°C)	32.20T ext. ref 1 (°C)	3.98T ext. ref 2 (°C)	25.49length (m)	temperature (°C)	Stokes	anti-Stokes-747.200	50.308	-0.176	0.168
-746.185	70.415	-0.124	-0.130
-745.171	800.000	0.038	-0.108
-744.156	266.888	0.103	0.181
-743.142	-74.495	-0.218	0.080
-742.127	-200.000	-0.010	-0.086
-741.112	108.071	-0.139	0.168
-740.098	-121.338	0.091	-0.015
-739.083	-56.373	0.238	-0.107
-738.069	580.310	-0.178	0.440
-737.054	33.569	-0.176	-0.154
-736.039	-163.571	-0.355	-0.017
-735.025	-44.114	0.087	-0.044
-734.010	122.151	0.066	0.084
-732.996	-23.562	0.088	-0.053
-731.981	-59.077	-0.053	-0.023
-730.966	-200.000	0.012	0.174
-729.952	-30.820	0.345	-0.197
-728.937	-132.904	-0.178	0.023
-727.923	32.630	-0.232	0.203
-726.908	800.000	0.042	0.165
-725.894	33.615	0.226	0.198
-724.879	116.160	-0.164	-0.203
-723.864	-105.964	-0.212	-0.048
-722.850	-131.652	-0.089	0.012
-721.835	104.623	0.161	0.192
-720.821	-79.037	-0.356	0.122
-719.806	-64.387	0.085	-0.035
-718.791	112.870	0.140	0.172
-717.777	478.892	-0.098	-0.225
-716.762	79.375	-0.167	-0.181
-715.748	119.407	0.152	-0.189
-714.733	-200.000	-0.022	0.104
-713.718	87.943	-0.226	-0.253
-712.704	800.000	0.110	-0.335
-711.689	719.736	-0.156	-0.418
-710.675	-200.000	-0.012	-0.201
-709.660	579.308	0.063	0.157
-708.645	-200.000	-0.010	-0.129
-707.631	-40.191	-0.168	0.089
-706.616	-60.137	-0.333	0.143
-705.602	-52.414	0.176	-0.082
-704.587	-36.342	-0.260	-0.141
-703.572	-66.583	-0.078	-0.031
-702.558	-200.000	-0.039	-0.263
-701.543	524.751	-0.013	-0.031
-700.529	-200.000	-0.064	0.000
-699.514	-112.820	-0.202	0.040
-698.499	-55.731	-0.159	-0.072
-697.485	-184.257	0.244	-0.004
-696.470	114.327	-0.010	-0.012
-695.456	-0.801	0.110	0.079
-694.441	-148.398	-0.149	0.012
-693.426	253.042	0.119	-0.205
-692.412	-200.000	-0.063	-0.281
-691.397	800.000	0.038	0.118
-690.383	14.980	0.141	0.111
-689.368	24.426	0.123	-0.103
-688.354	-200.000	0.022	0.250
-687.339	-70.893	-0.091	-0.035
-686.324	-200.000	-0.036	-0.164
-685.310	198.706	-0.020	0.030
-684.295	-184.591	-0.309	-0.005
-683.281	415.714	-0.080	-0.172
-682.266	-89.513	-0.108	-0.032
-681.251	548.445	0.061	0.147
-680.237	-153.642	-0.182	0.013
-679.222	-200.000	-0.014	-0.198
-678.208	109.751	0.201	-0.242
-677.193	502.527	0.103	-0.239
-676.178	-200.000	-0.026	0.479
-675.164	213.332	-0.115	0.183
-674.149	278.962	-0.052	0.093
-673.135	-19.249	-0.134	0.084
-672.120	133.998	-0.105	-0.138
-671.105	-74.265	-0.290	-0.106
-670.091	-100.864	0.066	-0.016
-669.076	24.249	-0.210	0.175
-668.062	-23.301	0.211	-0.128
-667.047	249.533	0.127	-0.216
-666.032	-164.922	-0.217	-0.010
-665.018	-65.080	-0.079	-0.032
-664.003	-95.687	-0.199	0.054
-662.989	-183.571	-0.088	-0.002
-661.974	-97.371	-0.061	-0.016
-660.959	-105.985	-0.133	-0.030
-659.945	102.401	-0.114	-0.135
-658.930	-37.674	-0.187	0.100
-657.916	404.182	0.078	0.165
-656.901	-130.935	0.133	-0.018
-655.886	-122.863	-0.241	-0.039
-654.872	-82.398	0.415	-0.136
-653.857	-5.076	-0.059	0.041
-652.843	-131.431	0.128	-0.017
-651.828	800.000	-0.033	-0.120
-650.814	726.191	0.082	-0.221
-649.799	-64.097	-0.333	-0.137
-648.784	136.264	0.062	-0.082
-647.770	42.437	-0.129	-0.118
-646.755	-179.600	-0.086	0.002
-645.741	-59.824	-0.236	0.102
-644.726	-75.038	-0.194	-0.070
-643.711	-138.385	0.192	0.021
-642.697	-200.000	-0.008	-0.064
-641.682	101.041	0.153	0.179
-640.668	-25.769	-0.179	-0.106
-639.653	730.565	0.031	0.084
-638.638	60.417	-0.086	0.085
-637.624	-125.967	-0.377	-0.057
-636.609	266.195	-0.178	-0.313
-635.595	-129.836	-0.166	-0.023
-634.580	167.586	0.082	-0.117
-633.565	800.000	0.024	0.102
-632.551	-90.179	0.249	-0.073
-631.536	36.118	-0.154	0.137
-630.522	162.629	-0.061	0.086
-629.507	-54.656	-0.414	-0.188
-628.492	109.231	0.314	0.378
-627.478	-40.331	0.101	-0.053
-626.463	-125.694	0.309	0.047
-625.449	-60.439	-0.419	-0.179
-624.434	-56.719	-0.532	-0.237
-623.419	800.000	0.098	0.321
-622.405	-200.000	0.028	0.134
-621.390	8.963	-0.189	0.144
-620.376	-84.984	0.451	-0.142
-619.361	-200.000	0.085	-0.602
-618.346	329.204	-0.124	-0.239
-617.332	-130.623	-0.256	0.035
-616.317	263.387	0.136	0.237
-615.303	-4.971	0.399	0.276
-614.288	-200.000	-0.002	-0.193
-613.273	4.011	-0.152	0.112
-612.259	172.056	0.177	-0.256
-611.244	-200.000	-0.044	-0.443
-610.230	1.565	-0.260	-0.188
-609.215	-200.000	0.023	0.117
-608.201	-200.000	0.026	0.132
-607.186	-90.950	-0.151	0.044
-606.171	126.438	0.044	0.056
-605.157	76.570	0.269	-0.286
-604.142	-41.470	0.272	-0.141
-603.128	586.906	0.116	-0.287
-602.113	69.145	-0.181	-0.187
-601.098	-11.138	0.163	0.108
-600.084	138.146	0.130	0.171
-599.069	517.008	0.121	0.284
-598.055	-105.485	-0.153	0.035
-597.040	-100.987	-0.118	-0.029
-596.025	363.736	-0.116	-0.234
-595.011	-171.820	-0.114	0.004
-593.996	152.071	0.156	-0.214
-592.982	-117.479	-0.113	0.021
-591.967	-179.280	-0.189	-0.004
-590.952	66.650	-0.119	-0.122
-589.938	-73.238	-0.311	-0.114
-588.923	43.732	-0.191	-0.175
-587.909	716.044	0.059	0.158
-586.894	-5.420	0.320	-0.221
-585.879	-91.943	0.423	-0.120
-584.865	0.340	-0.276	-0.198
-583.850	-63.267	-0.193	0.080
-582.836	71.205	-0.307	-0.320
-581.821	-154.093	0.232	-0.016
-580.806	162.159	0.196	0.276
-579.792	800.000	0.045	-0.186
-578.777	-200.000	-0.015	-0.097
-577.763	-173.914	0.062	-0.002
-576.748	-54.315	0.348	0.158
-575.733	-100.083	0.044	-0.011
-574.719	36.639	-0.063	0.056
-573.704	-200.000	-0.020	0.195
-572.690	-200.000	-0.014	0.099
-571.675	-200.000	0.028	0.272
-570.661	-85.990	-0.301	0.093
-569.646	-110.320	-0.178	0.037
-568.631	-33.188	0.162	-0.090
-567.617	-200.000	0.009	0.160
-566.602	210.786	-0.057	-0.090
-565.588	11.885	-0.147	-0.113
-564.573	3.897	-0.024	-0.018
-563.558	-58.402	-0.329	0.144
-562.544	-84.249	0.269	0.085
-561.529	-106.414	-0.251	-0.056
-560.515	-200.000	-0.023	-0.188
-559.500	-200.000	0.052	-0.241
-558.485	120.647	-0.076	0.094
-557.471	-128.715	0.159	0.023
-556.456	221.265	0.107	-0.173
-555.442	-200.000	-0.012	0.265
-554.427	-33.670	0.298	0.165
-553.412	-200.000	0.013	-0.194
-552.398	-200.000	-0.092	-0.464
-551.383	126.799	-0.236	-0.299
-550.369	-141.559	0.122	0.012
-549.354	784.651	0.065	-0.178
-548.339	-100.672	0.070	0.017
-547.325	-83.390	0.216	0.069
-546.310	-9.898	0.190	0.127
-545.296	-143.594	-0.085	0.008
-544.281	-74.561	0.179	-0.065
-543.266	6.538	-0.136	-0.101
-542.252	59.764	0.121	-0.120
-541.237	-200.000	0.024	-0.133
-540.223	-40.312	-0.060	-0.031
-539.208	246.343	0.097	-0.163
-538.193	103.030	0.047	0.055
-537.179	3.602	0.113	0.083
-536.164	-135.332	-0.320	0.038
-535.150	-132.925	-0.189	-0.024
-534.135	800.000	0.125	-0.391
-533.121	-120.123	0.147	-0.025
-532.106	-37.650	0.279	-0.149
-531.091	-86.547	-0.148	0.046
-530.077	499.024	0.077	-0.178
-529.062	-200.000	0.003	-0.179
-528.048	-106.257	0.381	0.086
-527.033	-20.396	-0.270	0.167
-526.018	67.944	0.104	-0.107
-525.004	-7.492	0.353	0.239
-523.989	-44.060	-0.148	-0.074
-522.975	-200.000	-0.013	-0.169
-521.960	800.000	0.157	-0.456
-520.945	-200.000	-0.005	-0.218
-519.931	558.393	0.006	0.016
-518.916	416.188	-0.066	0.141
-517.902	-33.145	0.204	-0.113
-516.887	430.332	-0.151	0.327
-515.872	-142.429	-0.142	-0.014
-514.858	-122.568	0.482	-0.078
-513.843	-88.203	-0.196	0.059
-512.829	-101.049	0.156	0.038
-511.814	-200.000	0.014	0.158
-510.799	94.064	0.215	0.245
-509.785	800.000	-0.042	-0.143
-508.770	800.000	-0.011	-0.046
-507.756	-169.815	0.310	0.011
-506.741	-200.000	0.018	0.106
-505.726	-96.710	-0.172	0.045
-504.712	148.164	0.189	0.256
-503.697	-200.000	0.025	-0.381
-502.683	16.075	-0.085	0.067
-501.668	14.441	-0.146	0.114
-500.653	-141.966	-0.115	-0.011
-499.639	8.649	0.247	-0.186
-498.624	-200.000	0.478	0.001
-497.610	575.620	0.089	-0.218
-496.595	73.983	-0.256	0.268
-495.581	-20.067	-0.145	-0.090
-494.566	145.851	0.257	-0.345
-493.551	48.218	0.173	0.162
-492.537	-12.339	-0.103	-0.067
-491.522	-95.820	-0.190	0.051
-490.508	-79.718	0.136	0.046
-489.493	-96.552	0.213	-0.056
-488.478	-44.513	-0.115	0.057
-487.464	663.690	-0.101	0.261
-486.449	-115.575	-0.206	0.039
-485.435	311.686	-0.135	0.254
-484.420	-159.378	0.407	-0.023
-483.405	636.984	-0.063	-0.160
-482.391	-70.916	-0.392	-0.148
-481.376	800.000	0.062	0.174
-480.362	-200.000	-0.007	0.166
-479.347	800.000	-0.050	0.142
-478.332	-67.281	0.119	-0.047
-477.318	-200.000	0.024	-0.206
-476.303	800.000	-0.040	-0.149
-475.289	140.181	0.127	-0.168
-474.274	-57.824	0.125	-0.055
-473.259	-200.000	0.035	0.175
-472.245	-53.454	0.099	0.045
-471.230	333.513	-0.260	0.502
-470.216	-131.661	-0.109	-0.014
-469.201	-200.000	-0.027	-0.160
-468.186	37.384	-0.166	0.147
-467.172	192.999	0.236	-0.356
-466.157	-58.164	-0.251	-0.109
-465.143	-20.727	0.316	-0.194
-464.128	203.110	-0.180	-0.278
-463.113	361.431	-0.040	-0.079
-462.099	-96.798	0.215	0.056
-461.084	-200.000	-0.029	0.188
-460.070	-77.390	-0.177	0.061
-459.055	-200.000	-0.018	-0.091
-458.040	326.818	0.122	0.234
-457.026	-200.000	-0.016	0.215
-456.011	800.000	-0.120	0.497
-454.997	-200.000	-0.021	-0.148
-453.982	49.005	0.117	-0.110
-452.968	-101.225	0.236	-0.058
-451.953	-146.776	-0.180	0.016
-450.938	18.888	-0.090	0.072
-449.924	-200.000	0.005	-0.292
-448.909	36.162	-0.110	0.097
-447.895	-56.598	-0.058	-0.025
-446.880	-129.911	-0.131	0.018
-445.865	110.439	-0.190	-0.228
-444.851	622.154	0.135	-0.340
-443.836	-200.000	0.004	0.177
-442.822	-23.168	-0.283	0.170
-441.807	-19.653	0.318	-0.196
-440.792	-159.693	0.078	-0.004
-439.778	-20.716	-0.195	-0.119
-438.763	126.547	-0.119	-0.150
-437.749	70.102	0.047	0.049
-436.734	-200.000	0.025	-0.159
-435.719	800.000	-0.055	0.196
-434.705	-200.000	0.030	0.289
-433.690	-50.096	0.034	-0.016
-432.676	-78.899	-0.239	0.081
-431.661	232.401	0.144	0.235
-430.646	150.846	-0.231	0.313
-429.632	-200.000	-0.014	-0.181
-428.617	82.457	0.054	-0.059
-427.603	-200.000	-0.023	-0.105
-426.588	-139.958	0.315	0.033
-425.573	542.909	-0.120	0.286
-424.559	-64.013	-0.190	0.077
-423.544	-118.836	0.464	-0.081
-422.530	48.812	0.154	0.144
-421.515	-36.358	0.245	0.132
-420.500	-52.006	0.108	-0.050
-419.486	-200.000	-0.007	-0.099
-418.471	-42.488	-0.111	0.057
-417.457	-200.000	-0.002	0.209
-416.442	400.059	-0.106	0.221
-415.428	43.736	0.225	-0.205
-414.413	-200.000	0.010	-0.109
-413.398	-39.999	-0.185	0.096
-412.384	305.930	-0.074	0.137
-411.369	10.135	0.256	0.194
-410.355	-45.719	-0.168	-0.083
-409.340	-117.219	0.151	0.027
-408.325	-50.320	0.236	0.111
-407.311	-19.905	-0.093	-0.057
-406.296	89.144	-0.150	0.167
-405.282	-200.000	0.034	0.219
-404.267	400.378	0.196	0.409
-403.252	307.071	0.081	-0.150
-402.238	-200.000	-0.004	0.085
-401.223	-200.000	-0.040	0.402
-400.209	-99.255	0.104	-0.026
-399.194	-81.979	0.130	0.042
-398.179	-200.000	-0.013	0.364
-397.165	57.208	0.177	-0.172
-396.150	487.627	0.277	0.630
-395.136	300.618	-0.049	-0.090
-394.121	463.939	-0.117	-0.260
-393.106	-10.294	-0.119	-0.079
-392.092	-95.160	0.051	0.014
-391.077	109.283	-0.037	-0.044
-390.063	42.026	-0.076	-0.068
-389.048	-134.111	0.327	0.040
-388.033	800.000	-0.071	-0.242
-387.019	-163.946	-0.337	-0.016
-386.004	102.028	0.213	-0.248
-384.990	800.000	0.047	0.161
-383.975	24.875	0.201	0.166
-382.960	-88.238	-0.171	-0.051
-381.946	-12.778	-0.286	0.186
-380.931	81.753	-0.177	-0.191
-379.917	-200.000	-0.014	-0.143
-378.902	-137.141	0.036	-0.004
-377.888	800.000	0.084	0.248
-376.873	137.840	-0.081	0.106
-375.858	-70.095	0.144	0.055
-374.844	-200.000	0.020	-0.126
-373.829	800.000	0.031	0.108
-372.815	-71.082	0.243	0.091
-371.800	-152.719	-0.172	-0.012
-370.785	-79.910	-0.220	-0.074
-369.771	-177.741	-0.061	-0.001
-368.756	33.820	-0.324	0.281
-367.742	-136.163	0.380	-0.044
-366.727	-200.000	0.014	0.104
-365.712	-16.018	-0.183	0.116
-364.698	14.422	-0.110	-0.085
-363.683	-178.333	-0.263	0.006
-362.669	261.839	0.086	-0.149
-361.654	-71.305	0.243	0.091
-360.639	-171.308	-0.184	-0.006
-359.625	677.935	-0.111	-0.288
-358.610	-2.016	0.118	0.083
-357.596	-67.421	0.129	-0.050
-356.581	-200.000	0.000	0.027
-355.566	-200.000	-0.024	0.322
-354.552	-200.000	0.008	0.189
-353.537	-200.000	0.001	-0.281
-352.523	-200.000	0.051	0.335
-351.508	-24.363	0.062	-0.037
-350.493	-0.952	0.224	-0.158
-349.479	259.954	-0.123	0.211
-348.464	-127.461	0.144	-0.021
-347.450	232.126	0.114	0.185
-346.435	-144.826	-0.276	-0.025
-345.420	-128.767	-0.059	-0.008
-344.406	-125.131	-0.164	-0.025
-343.391	-101.928	0.072	0.017
-342.377	-126.296	0.057	0.008
-341.362	14.667	-0.288	0.224
-340.348	-32.431	-0.067	-0.037
-339.333	112.162	0.050	0.061
-338.318	-34.367	-0.287	0.157
-337.304	-200.000	-0.061	0.404
-336.289	6.437	-0.313	0.231
-335.275	-139.333	-0.225	0.024
-334.260	424.075	-0.076	0.162
-333.245	459.593	0.074	0.164
-332.231	21.188	-0.015	0.012
-331.216	800.000	-0.057	0.193
-330.202	415.022	0.092	-0.195
-329.187	800.000	0.038	0.148
-328.172	-92.139	0.281	-0.079
-327.158	-81.330	0.295	0.097
-326.143	62.474	-0.142	-0.141
-325.129	111.098	0.165	-0.198
-324.114	-200.000	0.081	0.372
-323.099	30.083	0.181	-0.154
-322.085	466.000	-0.058	-0.128
-321.070	800.000	-0.041	-0.134
-320.056	211.892	-0.323	0.506
-319.041	612.495	0.105	0.262
-318.026	-129.228	0.082	0.011
-317.012	67.149	-0.073	-0.074
-315.997	620.098	0.089	0.223
-314.983	-125.728	-0.050	0.007
-313.968	800.000	0.062	0.176
-312.953	-200.000	-0.034	-0.317
-311.939	36.748	-0.215	-0.189
-310.924	13.802	-0.100	-0.077
-309.910	800.000	0.074	-0.233
-308.895	-29.126	0.272	-0.155
-307.880	-104.055	-0.187	-0.043
-306.866	-22.773	0.144	-0.086
-305.851	513.261	0.052	0.120
-304.837	14.769	0.185	-0.143
-303.822	-4.854	-0.016	-0.011
-302.807	-108.049	-0.144	-0.031
-301.793	303.059	0.149	0.274
-300.778	53.955	0.165	-0.158
-299.764	82.742	-0.119	-0.128
-298.749	-133.720	0.335	0.041
-297.735	-200.000	0.031	0.211
-296.720	800.000	0.063	-0.255
-295.705	-112.214	0.310	-0.062
-294.691	-200.000	0.005	0.023
-293.676	-140.210	0.100	0.010
-292.662	-65.178	-0.125	0.050
-291.647	67.335	-0.148	0.150
-290.632	111.054	0.243	-0.290
-289.618	800.000	0.087	-0.306
-288.603	800.000	0.082	-0.259
-287.589	-200.000	0.013	-0.199
-286.574	-200.000	0.014	-0.178
-285.559	-148.362	0.095	-0.008
-284.545	199.468	-0.105	0.160
-283.530	-162.894	-0.178	0.009
-282.516	96.713	0.079	0.090
-281.501	-200.000	-0.028	-0.511
-280.486	64.734	0.346	-0.346
-279.472	436.187	0.073	-0.157
-278.457	800.000	0.021	0.068
-277.443	-47.718	-0.088	-0.043
-276.428	-200.000	-0.001	0.077
-275.413	-117.520	-0.345	0.062
-274.399	-200.000	-0.010	0.216
-273.384	601.114	-0.065	-0.160
-272.370	-53.088	-0.207	0.095
-271.355	-100.237	-0.338	0.083
-270.340	-80.292	-0.055	-0.018
-269.326	800.000	0.019	-0.054
-268.311	177.275	0.082	-0.119
-267.297	-100.683	-0.186	-0.046
-266.282	23.367	-0.268	-0.219
-265.267	800.000	0.048	-0.178
-264.253	-177.614	0.258	-0.006
-263.238	800.000	0.045	-0.141
-262.224	147.843	-0.225	0.301
-261.209	86.586	0.077	0.085
-260.195	-87.939	0.223	-0.067
-259.180	-200.000	-0.003	-0.103
-258.165	-168.106	0.157	-0.006
-257.151	605.587	-0.028	-0.070
-256.136	-113.766	0.364	0.070
-255.122	82.714	-0.113	0.122
-254.107	800.000	-0.088	0.318
-253.092	1.054	0.032	-0.023
-252.078	-200.000	0.030	-0.151
-251.063	800.000	0.052	0.161
-250.049	-200.000	0.013	0.377
-249.034	-200.000	-0.002	-0.266
-248.019	-151.450	-0.440	0.032
-247.005	800.000	-0.005	-0.016
-245.990	-200.000	-0.011	-0.077
-244.976	89.036	0.127	-0.140
-243.961	451.311	0.115	-0.252
-242.946	-8.430	0.146	0.097
-241.932	291.319	0.134	0.242
-240.917	-26.782	0.063	0.037
-239.903	-22.779	-0.373	-0.223
-238.888	5.794	0.170	0.125
-237.873	668.341	-0.046	0.119
-236.859	710.096	-0.052	-0.135
-235.844	-7.359	-0.376	0.252
-234.830	-200.000	0.024	-0.162
-233.815	315.190	0.163	0.304
-232.800	313.202	-0.124	-0.232
-231.786	-7.893	0.131	0.088
-230.771	800.000	0.096	0.366
-229.757	16.538	-0.082	-0.064
-228.742	222.499	0.063	0.101
-227.727	-155.520	0.186	-0.012
-226.713	-72.611	0.205	-0.075
-225.698	243.753	-0.124	-0.205
-224.684	-200.000	-0.053	0.278
-223.669	-136.897	0.386	0.044
-222.655	-200.000	0.009	0.169
-221.640	76.405	-0.181	0.190
-220.625	-200.000	-0.001	-0.007
-219.611	26.295	-0.159	-0.131
-218.596	-200.000	0.054	-0.399
-217.582	-200.000	0.040	0.233
-216.567	-200.000	-0.002	-0.166
-215.552	298.776	-0.095	0.172
-214.538	800.000	-0.056	0.179
-213.523	-200.000	-0.030	0.181
-212.509	-200.000	-0.027	0.156
-211.494	23.705	-0.347	-0.283
-210.479	800.000	-0.021	-0.075
-209.465	126.232	0.023	-0.028
-208.450	518.777	-0.066	0.153
-207.436	-85.811	0.429	-0.131
-206.421	800.000	0.037	-0.105
-205.406	-140.890	-0.438	0.045
-204.392	-148.815	0.077	0.006
-203.377	-200.000	0.028	-0.352
-202.363	474.859	-0.067	0.149
-201.348	-200.000	-0.006	0.203
-200.333	-54.130	-0.255	-0.115
-199.319	-24.071	0.187	0.110
-198.304	-154.238	-0.104	0.007
-197.290	800.000	-0.067	-0.186
-196.275	-140.799	0.155	-0.016
-195.260	-78.336	0.133	-0.045
-194.246	-138.229	0.297	-0.033
-193.231	-68.761	-0.170	0.065
-192.217	111.274	0.048	-0.058
-191.202	304.739	-0.024	0.045
-190.187	230.993	0.215	-0.348
-189.173	-79.558	-0.299	0.100
-188.158	-44.241	-0.426	0.211
-187.144	-69.122	0.269	0.103
-186.129	713.827	0.060	-0.158
-185.114	-148.227	-0.113	-0.009
-184.100	122.389	0.015	-0.018
-183.085	-74.978	-0.288	0.102
-182.071	-105.560	0.254	0.057
-181.056	-200.000	-0.019	0.149
-180.042	19.339	-0.215	0.171
-179.027	-63.575	-0.251	-0.102
-178.012	-74.437	0.310	-0.111
-176.998	315.429	-0.098	-0.183
-175.983	57.832	-0.160	-0.155
-174.969	-122.045	-0.202	0.033
-173.954	740.774	0.031	-0.083
-172.939	-70.784	-0.447	-0.167
-171.925	690.423	0.119	0.307
-170.910	55.796	-0.245	-0.234
-169.896	800.000	-0.015	0.044
-168.881	-73.314	0.116	0.042
-167.866	190.789	-0.099	-0.147
-166.852	-156.827	0.271	-0.016
-165.837	-88.091	0.318	0.094
-164.823	466.438	0.012	0.026
-163.808	-11.358	0.249	0.162
-162.793	-105.034	0.022	0.005
-161.779	-123.079	-0.384	0.061
-160.764	-96.240	0.072	0.019
-159.750	683.644	-0.044	0.114
-158.735	-100.606	-0.073	-0.018
-157.720	-181.804	-0.265	0.005
-156.706	333.492	0.159	-0.304
-155.691	800.000	0.049	0.179
-154.677	383.015	0.116	0.236
-153.662	-62.869	-0.043	-0.017
-152.647	800.000	-0.093	0.292
-151.633	-34.872	0.111	0.060
-150.618	-200.000	0.003	0.174
-149.604	-200.000	0.020	0.161
-148.589	-99.333	0.147	-0.037
-147.574	-53.175	-0.155	-0.070
-146.560	349.362	0.076	-0.148
-145.545	-132.997	0.052	-0.007
-144.531	-200.000	-0.033	-0.230
-143.516	-200.000	-0.018	-0.085
-142.502	-184.399	0.266	-0.004
-141.487	201.900	-0.126	0.192
-140.472	800.000	-0.083	-0.250
-139.458	595.707	-0.156	-0.380
-138.443	-111.281	-0.152	0.031
-137.429	-36.109	0.193	-0.103
-136.414	159.894	-0.055	-0.075
-135.399	-81.103	0.245	0.080
-134.385	800.000	0.059	0.226
-133.370	-125.108	-0.058	0.009
-132.356	800.000	0.047	0.201
-131.341	-102.673	0.209	-0.049
-130.326	10.964	0.233	0.176
-129.312	223.941	0.140	0.223
-128.297	1.551	-0.069	0.049
-127.283	-200.000	-0.001	0.019
-126.268	-94.757	0.566	0.151
-125.253	403.912	0.043	-0.090
-124.239	-74.587	-0.187	-0.067
-123.224	85.209	-0.261	-0.283
