DTS Sentinel unit serial number:	SN413079Multiplexer serial number:	ORYXHardware model number:	OX4-SRSoftware version number:	ORYX F/W v4.00 Oryx Data Collector v3.7.2.0data status	okinstallation	princeton_trtdifferential loss correction	single-endedforward channel	channel 1reverse channel	N/Adate	2019/09/18time	15:58:35forward acquisition time	60.00reverse acquisition time	0.00gamma	496.2192k internal	0.2294k external	0.2294temperature offset calibration	0.9996default loss term (dB/km)	0.3790temperature slope calibration	1.0000multiplexer offset coefficient	1.0000multiplexer slope coefficient	1.0000fibre end	0.00T internal ref (°C)	37.17T ext. ref 1 (°C)	0.81T ext. ref 2 (°C)	36.59length (m)	temperature (°C)	Stokes	anti-Stokes-747.200	28.329	0.102	0.088
-746.185	289.257	-0.075	0.138
-745.171	-38.369	-0.100	-0.054
-744.156	-183.504	0.117	-0.002
-743.142	6.147	0.191	-0.145
-742.127	-200.000	-0.033	0.224
-741.112	111.778	0.095	-0.117
-740.098	-200.000	-0.026	0.190
-739.083	-197.986	0.279	-0.002
-738.069	-107.813	0.068	-0.015
-737.054	200.706	0.214	-0.337
-736.039	-83.219	-0.253	0.083
-735.025	-79.085	0.199	0.069
-734.010	20.445	-0.182	0.150
-732.996	443.334	-0.014	0.031
-731.981	83.448	-0.288	-0.321
-730.966	240.170	0.079	-0.135
-729.952	148.393	-0.286	-0.395
-728.937	-81.222	0.089	0.030
-727.923	-76.275	-0.317	-0.114
-726.908	-200.000	-0.032	-0.517
-725.894	118.078	0.133	0.167
-724.879	-9.369	-0.373	0.255
-723.864	130.287	-0.137	-0.179
-722.850	-1.471	-0.117	0.084
-721.835	192.166	0.060	-0.092
-720.821	-8.738	-0.196	-0.134
-719.806	110.274	-0.156	-0.191
-718.791	117.550	-0.100	0.125
-717.777	59.839	0.145	0.146
-716.762	116.066	0.066	0.083
-715.748	152.469	0.139	-0.194
-714.733	-97.240	0.194	-0.052
-713.718	-125.103	-0.452	0.071
-712.704	150.651	0.060	-0.083
-711.689	800.000	0.042	0.160
-710.675	480.870	-0.080	-0.186
-709.660	283.962	0.047	-0.087
-708.645	46.539	-0.058	0.055
-707.631	-80.173	-0.285	-0.098
-706.616	-200.000	-0.026	-0.213
-705.602	800.000	-0.039	-0.159
-704.587	-200.000	0.067	0.381
-703.572	40.085	0.302	-0.278
-702.558	-127.285	-0.277	0.041
-701.543	800.000	-0.141	0.498
-700.529	-92.866	-0.165	0.047
-699.514	-200.000	0.030	-0.378
-698.499	121.855	-0.154	0.196
-697.485	-124.281	-0.297	-0.047
-696.470	-200.000	0.019	-0.104
-695.456	-95.716	0.253	-0.069
-694.441	429.369	-0.063	0.140
-693.426	-200.000	-0.034	-0.274
-692.412	-83.073	-0.070	-0.023
-691.397	-200.000	-0.002	-0.132
-690.383	-117.036	-0.052	0.010
-689.368	-200.000	-0.037	-0.191
-688.354	-92.639	0.325	-0.093
-687.339	725.474	-0.111	-0.303
-686.324	2.990	0.053	-0.039
-685.310	110.869	0.068	0.084
-684.295	-73.816	0.221	-0.082
-683.281	179.667	0.218	0.325
-682.266	-200.000	-0.010	0.047
-681.251	-30.009	0.270	-0.157
-680.237	-200.000	-0.042	0.333
-679.222	-200.000	-0.027	-0.170
-678.208	-59.476	-0.264	0.116
-677.193	-200.000	0.027	-0.161
-676.178	-58.673	0.105	-0.047
-675.164	-79.160	-0.102	0.035
-674.149	-200.000	0.010	0.064
-673.135	72.304	-0.145	-0.154
-672.120	-200.000	-0.007	-0.038
-671.105	334.820	-0.141	0.278
-670.091	-200.000	0.072	-0.480
-669.076	-188.452	-0.106	0.001
-668.062	-25.001	-0.153	-0.093
-667.047	330.782	-0.064	-0.125
-666.032	-11.110	0.047	0.032
-665.018	450.987	-0.045	-0.101
-664.003	513.341	0.112	0.266
-662.989	-200.000	0.007	0.266
-661.974	-127.248	-0.242	-0.036
-660.959	-63.259	-0.181	0.076
-659.945	-200.000	-0.068	0.317
-658.930	-107.834	-0.112	0.025
-657.916	146.587	0.070	-0.096
-656.901	-98.583	0.144	0.037
-655.886	350.686	0.078	0.158
-654.872	55.386	-0.179	-0.176
-653.857	800.000	0.067	0.263
-652.843	-23.161	-0.369	-0.226
-651.828	87.082	0.073	0.083
-650.814	-43.594	-0.171	0.088
-649.799	-173.047	-0.134	-0.004
-648.784	241.545	0.149	-0.254
-647.770	-200.000	-0.016	0.280
-646.755	411.456	-0.115	0.249
-645.741	57.529	0.020	-0.020
-644.726	-137.763	0.266	0.030
-643.711	361.103	-0.113	-0.230
-642.697	800.000	0.074	-0.266
-641.682	-156.386	-0.236	-0.015
-640.668	-200.000	-0.012	-0.115
-639.653	651.602	-0.057	-0.148
-638.638	-200.000	-0.006	0.368
-637.624	-120.642	0.106	-0.018
-636.609	508.620	0.078	0.184
-635.595	-36.947	0.248	0.136
-634.580	800.000	-0.039	0.140
-633.565	-200.000	-0.041	-0.295
-632.551	-30.793	-0.154	-0.089
-631.536	-98.358	0.386	0.101
-630.522	369.840	0.033	-0.069
-629.507	187.355	0.231	-0.351
-628.492	34.801	-0.147	-0.131
-627.478	-56.622	0.092	0.042
-626.463	800.000	-0.073	-0.276
-625.449	110.516	-0.109	-0.133
-624.434	762.596	0.158	0.436
-623.419	-92.103	0.236	-0.068
-622.405	-105.588	-0.133	-0.031
-621.390	-200.000	-0.185	0.001
-620.376	-200.000	-0.016	0.129
-619.361	136.967	-0.080	-0.107
-618.346	454.205	-0.039	0.088
-617.332	800.000	-0.009	0.029
-616.317	489.247	0.087	0.203
-615.303	-141.080	0.052	0.005
-614.288	760.788	-0.022	0.060
-613.273	82.835	-0.284	0.315
-612.259	-21.785	-0.056	-0.034
-611.244	-15.376	-0.156	-0.102
-610.230	147.981	-0.097	-0.134
-609.215	4.497	0.061	0.046
-608.201	-135.294	0.101	-0.012
-607.186	207.148	0.218	0.346
-606.171	-77.718	-0.241	-0.085
-605.157	-200.000	0.011	0.177
-604.142	-33.325	-0.261	0.147
-603.128	247.246	0.103	0.177
-602.113	2.471	0.060	0.045
-601.098	-200.000	0.014	-0.466
-600.084	-156.864	-0.159	0.010
-599.069	-99.869	-0.228	0.058
-598.055	688.204	0.093	0.246
-597.040	-91.323	-0.149	-0.043
-596.025	129.633	-0.290	-0.377
-595.011	-110.675	0.258	-0.054
-593.996	260.629	0.275	-0.484
-592.982	86.487	0.252	0.282
-591.967	94.582	0.161	-0.186
-590.952	-116.511	-0.273	-0.051
-589.938	-113.510	0.145	-0.029
-588.923	178.863	-0.133	-0.197
-587.909	-171.336	-0.187	-0.006
-586.894	-101.674	0.363	-0.090
-585.879	438.376	-0.077	0.171
-584.865	-23.657	0.180	0.110
-583.850	99.207	-0.149	-0.175
-582.836	-71.650	-0.284	0.108
-581.821	800.000	-0.037	-0.134
-580.806	-71.400	-0.396	-0.151
-579.792	800.000	0.088	-0.381
-578.777	288.295	-0.111	-0.204
-577.763	800.000	-0.048	0.188
-576.748	-123.241	0.240	0.039
-575.733	-62.812	-0.141	-0.059
-574.719	800.000	0.040	0.143
-573.704	280.270	0.060	-0.108
-572.690	0.153	0.183	-0.133
-571.675	800.000	0.069	-0.206
-570.661	114.260	-0.163	-0.201
-569.646	20.579	-0.060	-0.050
-568.631	-83.915	0.295	-0.095
-567.617	232.948	-0.102	-0.170
-566.602	784.287	0.035	-0.099
-565.588	800.000	0.004	0.018
-564.573	48.490	-0.163	-0.155
-563.558	-22.283	0.451	0.278
-562.544	-103.387	-0.094	-0.022
-561.529	-179.381	-0.232	0.005
-560.515	11.962	-0.226	-0.177
-559.500	461.872	-0.133	0.302
-558.485	-1.215	0.200	-0.143
-557.471	-200.000	-0.028	0.297
-556.456	-140.739	0.096	0.010
-555.442	249.278	-0.086	0.147
-554.427	800.000	-0.016	-0.051
-553.412	101.646	-0.214	-0.254
-552.398	48.372	0.160	-0.152
-551.383	6.868	-0.164	0.124
-550.369	218.694	-0.165	-0.267
-549.354	512.846	-0.057	-0.134
-548.339	1.125	-0.240	0.175
-547.325	496.502	0.038	-0.088
-546.310	-29.385	0.077	-0.045
-545.296	-94.344	-0.325	0.090
-544.281	-68.264	-0.201	0.079
-543.266	108.202	-0.079	-0.095
-542.252	800.000	-0.086	0.347
-541.237	741.072	0.078	-0.212
-540.223	-4.988	0.131	-0.092
-539.208	116.188	-0.148	0.184
-538.193	5.510	-0.250	0.188
-537.179	-114.740	0.315	0.061
-536.164	161.289	-0.211	0.300
-535.150	-61.338	-0.110	0.047
-534.135	-80.215	-0.157	0.053
-533.121	283.889	-0.206	-0.375
-532.106	37.660	-0.126	-0.113
-531.091	12.128	-0.129	-0.101
-530.077	116.604	-0.276	0.344
-529.062	275.510	-0.114	0.206
-528.048	117.895	0.215	0.268
-527.033	-162.952	0.266	0.013
-526.018	650.822	-0.037	0.096
-525.004	-155.069	0.067	0.004
-523.989	489.044	0.070	-0.163
-522.975	-62.114	-0.286	-0.121
-521.960	-177.510	-0.380	0.009
-520.945	48.450	0.213	0.202
-519.931	1.897	-0.158	0.116
-518.916	270.148	-0.132	0.235
-517.902	-15.797	0.302	0.195
-516.887	106.689	0.101	-0.122
-515.872	-200.000	-0.026	-0.216
-514.858	114.009	0.063	0.077
-513.843	-200.000	-0.010	-0.105
-512.829	70.327	0.068	0.071
-511.814	185.730	0.121	0.182
-510.799	37.104	0.361	0.324
-509.785	-82.819	0.105	0.034
-508.770	-4.186	-0.063	-0.044
-507.756	436.762	-0.128	0.282
-506.741	459.194	-0.139	0.314
-505.726	800.000	-0.067	-0.255
-504.712	142.680	0.122	-0.165
-503.697	-11.749	-0.272	0.181
-502.683	-6.919	0.364	0.251
-501.668	190.283	0.154	-0.234
-500.653	-163.805	-0.197	-0.009
-499.639	363.177	0.040	0.081
-498.624	-8.256	0.254	0.173
-497.610	0.388	-0.213	0.154
-496.595	-70.103	-0.036	0.014
-495.581	-200.000	-0.030	0.255
-494.566	-67.928	0.356	0.141
-493.551	-113.423	-0.068	0.013
-492.537	800.000	-0.032	-0.123
-491.522	118.009	-0.365	-0.455
-490.508	-200.000	0.032	-0.158
-489.493	-200.000	0.029	-0.207
-488.478	-17.852	-0.097	0.062
-487.464	-200.000	-0.024	-0.191
-486.449	800.000	0.094	-0.277
-485.435	-200.000	0.008	0.333
-484.420	198.279	0.180	0.279
-483.405	-37.408	0.089	-0.048
-482.391	-200.000	-0.003	-0.053
-481.376	800.000	-0.109	-0.323
-480.362	287.279	-0.116	-0.212
-479.347	-200.000	0.008	-0.060
-478.332	-34.154	0.212	-0.118
-477.318	-180.253	0.220	-0.005
-476.303	144.858	-0.182	-0.246
-475.289	800.000	0.129	-0.360
-474.274	382.336	-0.042	-0.088
-473.259	324.684	0.030	0.059
-472.245	-56.029	-0.135	-0.061
-471.230	773.361	0.062	-0.170
-470.216	95.298	0.115	-0.132
-469.201	110.931	-0.105	0.128
-468.186	-200.000	-0.017	0.130
-467.172	335.827	0.217	0.426
-466.157	80.863	-0.016	0.017
-465.143	-45.091	0.159	-0.080
-464.128	-41.160	0.314	-0.164
-463.113	-200.000	-0.039	0.540
-462.099	191.536	0.108	-0.165
-461.084	-24.164	0.146	-0.088
-460.070	-156.225	-0.056	0.004
-459.055	9.933	-0.161	-0.124
-458.040	-108.686	0.427	0.093
-457.026	59.585	0.381	-0.380
-456.011	-80.699	0.270	-0.091
-454.997	-148.941	0.332	0.027
-453.982	127.808	0.175	-0.226
-452.968	231.775	0.071	-0.118
-451.953	-126.587	-0.089	0.013
-450.938	800.000	0.068	-0.220
-449.924	-131.728	0.217	0.029
-448.909	36.216	0.278	0.248
-447.895	237.098	-0.042	-0.070
-446.880	-200.000	0.011	0.176
-445.865	56.723	-0.221	-0.218
-444.851	-96.268	0.087	0.023
-443.836	-88.138	0.155	-0.047
-442.822	312.325	0.088	0.167
-441.807	-115.198	0.127	-0.024
-440.792	15.697	0.145	-0.115
-439.778	-137.380	-0.351	0.040
-438.763	-7.160	-0.156	0.107
-437.749	177.425	-0.086	0.127
-436.734	80.193	0.060	0.066
-435.719	-200.000	-0.004	-0.237
-434.705	800.000	-0.023	-0.089
-433.690	-157.846	0.347	-0.021
-432.676	-5.426	-0.069	0.048
-431.661	11.676	0.107	0.083
-430.646	-66.958	0.155	0.062
-429.632	202.589	-0.041	-0.064
-428.617	-200.000	0.030	0.305
-427.603	83.321	0.235	0.258
-426.588	651.614	-0.083	-0.216
-425.573	-81.624	0.211	-0.070
-424.559	-70.596	-0.100	-0.038
-423.544	-200.000	-0.041	0.366
-422.530	64.031	0.350	-0.355
-421.515	-56.026	-0.245	0.110
-420.500	388.436	0.065	0.136
-419.486	-93.269	-0.232	0.065
-418.471	-200.000	-0.046	0.221
-417.457	126.892	-0.125	-0.160
-416.442	-105.604	-0.235	0.054
-415.428	478.979	0.092	-0.210
-414.413	800.000	0.051	0.162
-413.398	101.696	-0.169	0.199
-412.384	193.296	-0.033	-0.051
-411.369	138.513	0.308	0.409
-410.355	-76.236	-0.524	-0.187
-409.340	-52.071	0.295	0.138
-408.325	-200.000	0.011	0.078
-407.311	-22.490	-0.016	0.010
-406.296	245.184	0.098	-0.167
-405.282	-39.564	0.181	0.096
-404.267	288.284	0.147	-0.270
-403.252	-200.000	-0.022	-0.407
-402.238	74.442	0.118	-0.125
-401.223	279.124	0.124	0.223
-400.209	-5.308	-0.212	0.147
-399.194	476.921	0.069	0.158
-398.179	-57.896	-0.155	-0.068
-397.165	415.892	-0.073	-0.158
-396.150	-97.562	0.056	0.015
-395.136	-75.168	-0.137	-0.049
-394.121	210.422	0.135	0.215
-393.106	-200.000	0.051	-0.242
-392.092	316.534	-0.140	-0.267
-391.077	-80.611	0.280	-0.094
-390.063	87.517	-0.104	-0.116
-389.048	18.479	-0.223	-0.180
-388.033	-200.000	-0.017	0.141
-387.019	503.813	-0.027	-0.063
-386.004	-130.175	0.184	0.025
-384.990	-119.831	0.396	-0.069
-383.975	800.000	0.080	-0.324
-382.960	800.000	-0.065	0.284
-381.946	-146.950	0.092	-0.008
-380.931	-86.091	0.243	0.076
-379.917	-52.148	0.028	-0.013
-378.902	-25.019	0.057	-0.034
-377.888	-19.519	0.321	-0.201
-376.873	65.208	-0.134	-0.137
-375.858	457.169	0.070	0.156
-374.844	800.000	0.056	-0.172
-373.829	-44.206	-0.105	-0.053
-372.815	42.920	-0.162	0.149
-371.800	232.376	0.109	0.181
-370.785	-168.853	-0.309	0.012
-369.771	229.006	-0.079	0.130
-368.756	70.976	0.076	0.079
-367.742	-102.798	0.144	-0.034
-366.727	130.006	-0.240	0.310
-365.712	159.685	-0.076	0.106
-364.698	20.122	0.275	-0.224
-363.683	800.000	0.048	0.141
-362.669	-18.198	-0.070	-0.044
-361.654	-52.020	0.184	-0.086
-360.639	-26.151	-0.273	0.161
-359.625	-181.170	0.167	0.003
-358.610	-37.838	-0.100	-0.054
-357.596	27.527	0.139	-0.118
-356.581	-177.984	-0.013	0.000
-355.566	39.507	-0.114	0.102
-354.552	23.899	-0.131	-0.109
-353.537	83.687	0.180	-0.197
-352.523	-200.000	0.018	0.138
-351.508	103.127	-0.118	0.139
-350.493	-200.000	-0.002	0.530
-349.479	-185.454	-0.110	-0.002
-348.464	-200.000	-0.037	-0.254
-347.450	-200.000	0.013	0.097
-346.435	34.802	-0.136	-0.120
-345.420	-200.000	0.002	-0.146
-344.406	405.336	-0.126	0.268
-343.391	-116.524	0.429	0.080
-342.377	182.654	0.047	0.069
-341.362	131.708	-0.114	0.148
-340.348	-143.317	-0.209	0.020
-339.333	53.274	-0.048	-0.047
-338.318	391.156	-0.056	-0.117
-337.304	800.000	-0.047	-0.151
-336.289	-200.000	-0.003	0.016
-335.275	49.705	-0.208	-0.198
-334.260	-70.677	-0.176	0.067
-333.245	544.497	-0.158	-0.379
-332.231	-94.332	-0.088	-0.024
-331.216	-83.029	-0.123	-0.040
-330.202	243.037	-0.057	0.096
-329.187	-21.801	0.051	-0.031
-328.172	94.803	-0.178	-0.204
-327.158	266.676	0.098	-0.172
-326.143	37.290	-0.121	0.108
-325.129	-182.997	0.021	0.000
-324.114	-54.046	0.439	0.201
-323.099	393.254	0.069	0.144
-322.085	263.927	0.196	-0.343
-321.070	359.157	0.179	-0.360
-320.056	-94.837	-0.123	-0.034
-319.041	-89.918	-0.217	0.064
-318.026	113.381	0.082	-0.100
-317.012	-123.819	0.099	-0.016
-315.997	-52.088	-0.109	0.051
-314.983	-93.031	-0.193	0.054
-313.968	800.000	-0.067	0.287
-312.953	-174.341	-0.293	-0.009
-311.939	-7.106	-0.164	0.112
-310.924	-200.000	-0.024	-0.235
-309.910	147.955	-0.084	-0.114
-308.895	150.223	0.056	-0.076
-307.880	426.283	-0.113	-0.244
-306.866	-154.392	-0.239	0.016
-305.851	32.231	-0.033	-0.029
-304.837	-37.858	0.240	0.128
-303.822	-145.620	0.163	-0.015
-302.807	-83.438	0.103	0.033
-301.793	-200.000	-0.073	-0.493
-300.778	58.194	-0.125	-0.123
-299.764	5.019	-0.224	0.166
-298.749	53.487	0.134	0.129
-297.735	-200.000	0.081	-0.470
-296.720	-154.337	-0.124	-0.008
-295.705	-133.720	-0.104	0.013
-294.691	212.503	-0.095	0.151
-293.676	445.645	-0.048	-0.107
-292.662	83.324	-0.003	0.003
-291.647	800.000	0.072	0.206
-290.632	-87.906	-0.268	0.081
-289.618	-66.067	0.145	0.058
-288.603	778.854	0.077	0.210
-287.589	-200.000	0.002	0.091
-286.574	-200.000	-0.042	0.221
-285.559	119.190	0.208	0.259
-284.545	179.791	0.085	-0.125
-283.530	217.976	-0.141	0.227
-282.516	-34.808	0.120	-0.066
-281.501	-38.599	-0.404	0.214
-280.486	107.403	0.054	0.064
-279.472	146.398	-0.088	0.119
-278.457	-200.000	-0.020	-0.502
-277.443	-37.820	-0.189	-0.101
-276.428	-26.539	-0.265	0.156
-275.413	-87.385	-0.175	0.053
-274.399	23.721	0.051	0.042
-273.384	16.603	-0.184	0.146
-272.370	-200.000	-0.039	0.275
-271.355	-45.619	-0.159	-0.079
-270.340	-187.460	-0.205	0.003
-269.326	-66.393	0.107	-0.043
-268.311	-166.030	0.026	-0.001
-267.297	-68.122	0.267	0.104
-266.282	-200.000	-0.012	0.093
-265.267	-200.000	-0.011	-0.120
-264.253	-40.583	0.128	-0.067
-263.238	334.712	-0.186	0.362
-262.224	-110.447	-0.262	-0.055
-261.209	15.285	-0.240	0.189
-260.195	67.616	0.186	0.190
-259.180	513.076	0.065	0.153
-258.165	91.554	-0.312	0.351
-257.151	-200.000	0.063	-0.307
-256.136	-200.000	0.015	-0.275
-255.122	-35.461	0.131	-0.071
-254.107	784.969	0.033	0.091
-253.092	-38.764	0.243	0.129
-252.078	11.823	-0.251	0.193
-251.063	22.624	-0.163	-0.134
-250.049	-200.000	0.006	0.063
-249.034	-88.376	0.137	0.041
-248.019	-1.262	-0.081	0.058
-247.005	113.430	-0.199	0.242
-245.990	-110.458	0.159	0.033
-244.976	35.638	0.107	0.094
-243.961	138.644	0.069	-0.091
-242.946	720.962	0.069	0.185
-241.932	-61.558	-0.319	0.134
-240.917	-30.596	-0.080	-0.045
-239.903	800.000	0.098	0.360
-238.888	696.680	-0.033	0.088
-237.873	90.492	0.203	-0.228
-236.859	573.456	0.046	0.113
-235.844	-106.015	0.223	-0.050
-234.830	303.130	-0.072	0.133
-233.815	266.820	0.125	-0.219
-232.800	-144.345	-0.488	-0.046
-231.786	324.642	0.164	0.314
-230.771	-109.442	-0.109	-0.023
-229.757	-200.000	0.005	0.077
-228.742	279.751	0.141	-0.253
-227.727	581.714	0.074	0.183
-226.713	-200.000	-0.005	0.152
-225.698	625.385	0.089	0.226
-224.684	-96.291	-0.364	-0.097
-223.669	800.000	0.040	0.121
-222.655	-200.000	0.002	-0.011
-221.640	800.000	-0.077	-0.280
-220.625	-48.737	0.158	0.076
-219.611	77.253	-0.038	0.040
-218.596	-79.518	0.142	0.048
-217.582	-94.581	0.273	0.075
-216.567	-78.216	0.170	0.059
-215.552	-83.472	0.370	0.119
-214.538	-9.145	-0.082	-0.055
-213.523	20.965	0.035	0.029
-212.509	-60.773	0.218	-0.093
-211.494	234.564	0.094	0.156
-210.479	-200.000	0.065	-0.317
-209.465	-3.642	-0.183	-0.128
-208.450	-49.330	0.286	-0.137
-207.436	51.932	0.047	-0.045
-206.421	752.861	0.064	0.174
-205.406	-200.000	0.012	-0.099
-204.392	-48.482	-0.085	-0.041
-203.377	594.125	-0.095	0.235
-202.363	394.820	-0.088	-0.184
-201.348	38.348	0.087	-0.078
-200.333	-107.843	-0.086	-0.019
-199.319	800.000	-0.046	0.168
-198.304	51.588	0.232	-0.221
-197.290	-78.862	-0.237	-0.081
-196.275	-138.018	0.170	0.019
-195.260	-31.408	0.032	0.018
-194.246	-200.000	-0.010	-0.165
-193.231	-141.162	0.140	-0.014
-192.217	-106.576	-0.154	-0.034
-191.202	800.000	0.074	0.254
-190.187	-200.000	0.060	-0.340
-189.173	271.529	0.173	-0.305
-188.158	20.650	0.112	-0.091
-187.144	2.729	-0.324	0.235
-186.129	-200.000	0.055	0.252
-185.114	16.652	-0.244	0.193
-184.100	-134.947	0.394	-0.048
-183.085	560.097	-0.090	0.217
-182.071	4.816	0.271	-0.199
-181.056	-95.167	-0.161	-0.043
-180.042	-104.575	-0.189	0.044
-179.027	-132.346	-0.086	0.011
-178.012	275.064	-0.120	0.213
-176.998	-61.823	-0.119	-0.050
-175.983	800.000	0.062	0.239
-174.969	-67.047	0.312	-0.123
-173.954	-61.669	-0.243	-0.102
-172.939	-89.263	-0.081	-0.024
-171.925	62.792	0.180	0.180
-170.910	111.819	0.189	-0.228
-169.896	-60.669	0.216	0.092
-168.881	151.490	0.102	-0.139
-167.866	800.000	-0.051	-0.196
-166.852	303.302	-0.029	-0.053
-165.837	800.000	0.062	0.206
-164.823	-200.000	0.013	-0.161
-163.808	40.865	0.034	-0.031
-162.793	-123.043	-0.282	0.045
-161.779	-83.365	0.077	-0.025
-160.764	95.147	0.046	-0.053
-159.750	447.011	-0.079	-0.173
-158.735	752.820	-0.223	0.601
-157.720	-2.307	0.066	-0.046
-156.706	312.599	-0.027	-0.051
-155.691	-57.189	0.236	0.104
-154.677	-200.000	0.026	-0.346
-153.662	-52.584	-0.296	-0.137
-152.647	800.000	0.059	-0.242
-151.633	153.664	-0.029	0.040
-150.618	305.683	-0.115	0.214
-149.604	-200.000	-0.012	0.182
-148.589	52.045	0.178	0.169
-147.574	-131.063	-0.295	-0.039
-146.560	-200.000	0.019	-0.213
-145.545	42.020	-0.066	0.060
-144.531	114.927	-0.151	-0.184
-143.516	158.607	-0.040	0.055
-142.502	173.365	-0.230	-0.332
-141.487	-108.439	-0.370	-0.080
-140.472	800.000	0.038	0.149
-139.458	-67.331	0.230	-0.090
-138.443	272.989	-0.165	-0.291
-137.429	64.222	-0.066	-0.066
-136.414	12.715	-0.155	-0.119
-135.399	-47.481	0.253	-0.123
-134.385	-102.531	-0.080	-0.019
-133.370	37.906	-0.316	-0.281
-132.356	418.872	0.071	-0.152
-131.341	-14.458	0.303	-0.195
-130.326	800.000	0.032	0.121
-129.312	82.314	-0.102	-0.111
-128.297	-48.603	-0.171	-0.082
-127.283	309.292	0.067	-0.124
-126.268	539.581	0.049	-0.117
-125.253	31.969	-0.091	-0.078
-124.239	-98.547	-0.160	-0.041
-123.224	-100.675	0.415	-0.102
-122.210	131.491	0.177	-0.228
-121.195	-93.116	0.104	0.029
