DTS Sentinel unit serial number:	SN413079Multiplexer serial number:	ORYXHardware model number:	OX4-SRSoftware version number:	ORYX F/W v4.00 Oryx Data Collector v3.7.2.0data status	okinstallation	princeton_trtdifferential loss correction	single-endedforward channel	channel 1reverse channel	N/Adate	2019/09/15time	09:10:35forward acquisition time	60.00reverse acquisition time	0.00gamma	496.2192k internal	0.2313k external	0.2313temperature offset calibration	0.9984default loss term (dB/km)	0.3790temperature slope calibration	1.0000multiplexer offset coefficient	1.0000multiplexer slope coefficient	1.0000fibre end	0.00T internal ref (°C)	33.12T ext. ref 1 (°C)	4.97T ext. ref 2 (°C)	30.13length (m)	temperature (°C)	Stokes	anti-Stokes-747.200	-22.995	-0.240	-0.147
-746.185	431.270	-0.031	-0.068
-745.171	-24.832	-0.228	0.137
-744.156	-116.272	-0.200	0.038
-743.142	553.195	-0.046	0.112
-742.127	553.237	-0.108	-0.263
-741.112	91.969	0.416	-0.475
-740.098	11.353	0.253	0.196
-739.083	5.001	0.175	0.131
-738.069	-23.517	-0.230	0.140
-737.054	-200.000	0.019	-0.285
-736.039	-130.903	-0.355	0.048
-735.025	-140.704	-0.122	0.013
-734.010	-200.000	0.210	-0.001
-732.996	88.860	-0.039	0.044
-731.981	154.006	-0.096	-0.133
-730.966	-43.736	-0.171	0.088
-729.952	28.922	0.110	-0.094
-728.937	10.966	0.145	0.112
-727.923	62.476	-0.254	-0.257
-726.908	-200.000	-0.044	-0.217
-725.894	59.029	-0.126	-0.125
-724.879	800.000	-0.107	-0.303
-723.864	156.550	0.021	-0.029
-722.850	800.000	0.050	-0.194
-721.835	-90.063	0.428	0.126
-720.821	24.482	-0.053	0.044
-719.806	-36.186	-0.151	-0.083
-718.791	-70.823	-0.127	-0.049
-717.777	-32.087	0.144	-0.082
-716.762	800.000	-0.033	-0.095
-715.748	9.384	-0.209	-0.160
-714.733	436.545	-0.113	-0.250
-713.718	-200.000	-0.020	0.113
-712.704	-102.561	-0.448	-0.109
-711.689	-0.112	0.096	-0.069
-710.675	334.113	0.015	-0.029
-709.660	420.370	0.058	-0.125
-708.645	-200.000	-0.006	-0.056
-707.631	-34.446	0.196	0.109
-706.616	-200.000	-0.010	0.132
-705.602	-200.000	-0.006	-0.080
-704.587	-200.000	0.002	-0.032
-703.572	4.141	-0.183	-0.135
-702.558	-86.012	0.364	0.114
-701.543	-145.108	0.426	-0.039
-700.529	-108.222	-0.270	0.059
-699.514	119.433	0.078	-0.098
-698.499	175.731	-0.150	-0.221
-697.485	3.832	0.163	0.120
-696.470	336.161	-0.019	-0.037
-695.456	-146.494	0.584	-0.051
-694.441	800.000	-0.072	0.239
-693.426	-38.791	0.267	-0.143
-692.412	-98.039	0.257	-0.067
-691.397	188.510	0.255	-0.386
-690.383	-149.254	-0.793	0.064
-689.368	-59.234	-0.193	0.084
-688.354	800.000	-0.090	-0.252
-687.339	100.020	-0.148	-0.173
-686.324	227.242	0.159	-0.261
-685.310	300.113	-0.144	-0.268
-684.295	-90.334	-0.070	0.021
-683.281	-200.000	0.003	0.102
-682.266	-200.000	-0.003	0.059
-681.251	-122.139	-0.068	0.011
-680.237	573.600	-0.051	-0.126
-679.222	-200.000	0.015	0.082
-678.208	228.504	0.183	0.302
-677.193	-51.684	0.123	-0.058
-676.178	574.847	-0.114	-0.281
-675.164	440.384	0.132	0.292
-674.149	-14.973	-0.133	-0.086
-673.135	-53.688	-0.129	-0.060
-672.120	18.967	-0.119	0.096
-671.105	-93.881	-0.041	-0.011
-670.091	-200.000	-0.025	0.164
-669.076	-114.852	0.123	-0.024
-668.062	-2.096	0.052	-0.037
-667.047	-38.961	0.324	-0.173
-666.032	-200.000	0.013	0.111
-665.018	-131.057	-0.005	-0.001
-664.003	-84.400	-0.105	0.033
-662.989	-110.347	0.194	0.041
-661.974	369.349	0.057	-0.118
-660.959	655.439	-0.037	-0.095
-659.945	-32.548	-0.092	0.052
-658.930	172.463	-0.090	0.131
-657.916	-17.478	0.014	-0.009
-656.901	88.146	-0.073	-0.081
-655.886	-182.686	0.147	0.003
-654.872	14.958	-0.205	-0.162
-653.857	158.526	0.130	-0.183
-652.843	-185.379	0.240	-0.004
-651.828	35.005	0.124	0.110
-650.814	131.586	0.212	-0.276
-649.799	-61.331	-0.239	-0.102
-648.784	-200.000	0.000	0.071
-647.770	-128.098	-0.398	-0.058
-646.755	-87.465	0.110	0.034
-645.741	58.221	-0.121	-0.120
-644.726	-28.380	-0.139	0.081
-643.711	-78.561	-0.234	0.081
-642.697	213.652	-0.180	0.287
-641.682	-73.108	-0.188	-0.070
-640.668	136.804	0.160	0.211
-639.653	359.572	-0.200	-0.404
-638.638	1.305	-0.320	-0.233
-637.624	-67.664	-0.124	-0.049
-636.609	-176.844	0.163	-0.004
-635.595	-33.669	-0.219	0.122
-634.580	43.788	0.024	-0.022
-633.565	87.853	0.064	-0.071
-632.551	70.464	-0.052	-0.055
-631.536	-175.411	0.297	0.008
-630.522	-64.888	0.146	0.060
-629.507	-5.161	0.120	0.084
-628.492	-114.176	0.199	-0.039
-627.478	225.743	-0.124	0.204
-626.463	-200.000	0.019	0.090
-625.449	182.026	-0.042	-0.063
-624.434	-40.760	-0.094	0.049
-623.419	-200.000	0.060	0.353
-622.405	202.238	-0.059	0.093
-621.390	158.068	-0.093	-0.130
-620.376	48.491	0.123	-0.117
-619.361	35.046	0.193	-0.170
-618.346	-200.000	0.040	0.374
-617.332	800.000	-0.066	-0.201
-616.317	-169.461	0.128	0.005
-615.303	22.195	-0.220	-0.181
-614.288	-200.000	-0.069	-0.413
-613.273	-200.000	0.007	0.098
-612.259	-56.061	-0.224	-0.101
-611.244	4.725	0.458	-0.339
-610.230	-4.114	0.028	-0.020
-609.215	282.887	0.074	0.134
-608.201	3.626	-0.281	0.207
-607.186	-38.187	0.208	0.111
-606.171	-64.146	0.228	0.094
-605.157	445.596	0.144	0.320
-604.142	-141.783	-0.223	0.023
-603.128	620.694	-0.107	-0.272
-602.113	-42.271	-0.089	0.046
-601.098	188.261	0.090	0.135
-600.084	58.923	-0.116	-0.115
-599.069	-182.824	-0.120	-0.002
-598.055	129.302	-0.078	-0.101
-597.040	160.403	0.256	-0.360
-596.025	182.458	0.114	-0.169
-595.011	-200.000	-0.008	0.166
-593.996	232.520	0.121	-0.200
-592.982	-63.503	0.457	-0.189
-591.967	213.469	-0.050	-0.080
-590.952	-123.190	0.095	0.015
-589.938	279.659	0.145	-0.260
-588.923	-110.043	-0.488	-0.103
-587.909	-94.624	-0.127	-0.035
-586.894	333.076	-0.106	0.207
-585.879	-100.413	-0.167	0.042
-584.865	101.822	0.170	0.200
-583.850	-21.336	0.179	0.110
-582.836	800.000	0.095	-0.367
-581.821	-86.083	0.208	-0.065
-580.806	800.000	-0.095	0.344
-579.792	-200.000	-0.009	0.182
-578.777	-83.131	0.297	0.096
-577.763	342.008	-0.158	-0.311
-576.748	65.465	0.141	0.144
-575.733	36.336	0.162	0.144
-574.719	-33.890	-0.225	0.125
-573.704	62.782	-0.274	-0.276
-572.690	347.616	0.039	-0.078
-571.675	21.238	0.146	0.120
-570.661	17.691	-0.125	-0.101
-569.646	-200.000	0.022	-0.097
-568.631	-135.525	-0.335	0.040
-567.617	285.784	0.161	-0.292
-566.602	-79.203	-0.341	-0.116
-565.588	114.642	-0.150	-0.184
-564.573	-151.802	0.174	-0.013
-563.558	161.451	0.335	0.472
-562.544	-200.000	0.129	0.000
-561.529	-102.464	0.137	-0.033
-560.515	72.145	-0.315	-0.331
-559.500	-67.745	0.151	0.059
-558.485	800.000	-0.048	-0.208
-557.471	-105.063	-0.110	0.025
-556.456	-200.000	-0.058	0.348
-555.442	-49.641	-0.038	0.018
-554.427	789.038	0.138	0.380
-553.412	368.220	-0.068	-0.138
-552.398	83.868	-0.042	-0.046
-551.383	-200.000	-0.057	-0.254
-550.369	-134.447	0.079	0.010
-549.354	-55.798	-0.224	0.101
-548.339	-53.616	0.067	-0.031
-547.325	-113.355	-0.299	-0.059
-546.310	800.000	0.090	0.320
-545.296	-41.881	-0.310	-0.160
-544.281	148.409	-0.132	0.179
-543.266	800.000	0.077	0.234
-542.252	-104.910	0.088	0.020
-541.237	-200.000	-0.010	0.079
-540.223	-146.533	-0.100	0.009
-539.208	258.620	-0.122	0.212
-538.193	-134.692	-0.450	0.055
-537.179	-60.924	-0.216	-0.092
-536.164	392.078	0.103	-0.215
-535.150	-54.250	-0.255	-0.116
-534.135	-200.000	0.008	0.059
-533.121	106.356	-0.357	0.425
-532.106	800.000	0.068	0.264
-531.091	11.614	0.244	-0.188
-530.077	-127.933	-0.586	0.085
-529.062	77.545	0.203	-0.217
-528.048	-90.703	0.132	0.038
-527.033	-200.000	-0.015	0.317
-526.018	33.640	-0.061	-0.054
-525.004	-122.604	-0.150	0.024
-523.989	-200.000	0.003	0.099
-522.975	28.601	0.209	-0.178
-521.960	263.004	-0.101	-0.176
-520.945	-195.255	-0.214	0.002
-519.931	419.399	0.130	-0.279
-518.916	109.555	0.131	0.158
-517.902	-95.872	-0.036	0.010
-516.887	99.447	0.105	0.122
-515.872	-74.975	0.287	-0.103
-514.858	-200.000	-0.005	0.357
-513.843	-200.000	0.029	0.169
-512.829	-112.992	-0.265	0.053
-511.814	-177.581	0.068	0.002
-510.799	156.103	0.262	0.363
-509.785	44.801	-0.270	-0.250
-508.770	-200.000	-0.028	-0.161
-507.756	671.203	0.050	0.131
-506.741	-92.208	0.122	-0.035
-505.726	-76.246	-0.185	0.065
-504.712	-200.000	-0.034	-0.412
-503.697	81.364	-0.050	-0.055
-502.683	-16.707	0.113	0.072
-501.668	82.840	0.271	0.297
-500.653	137.079	0.136	0.178
-499.639	-133.331	-0.440	-0.056
-498.624	66.780	0.029	0.030
-497.610	153.281	-0.102	-0.140
-496.595	122.826	-0.129	0.162
-495.581	83.425	-0.138	-0.151
-494.566	14.032	0.191	0.149
-493.551	66.416	-0.123	-0.125
-492.537	141.020	-0.155	0.206
-491.522	-134.542	-0.212	0.026
-490.508	-37.942	-0.225	0.120
-489.493	-98.635	-0.134	-0.034
-488.478	-19.719	0.188	-0.117
-487.464	-51.147	0.174	-0.082
-486.449	-107.597	-0.026	-0.006
-485.435	-110.662	0.317	0.066
-484.420	-71.703	0.480	-0.180
-483.405	622.285	0.090	-0.228
-482.391	-200.000	0.031	0.143
-481.376	-186.862	0.172	0.002
-480.362	340.000	-0.092	-0.181
-479.347	-200.000	0.003	-0.181
-478.332	136.916	-0.208	-0.273
-477.318	38.280	-0.154	-0.137
-476.303	-200.000	0.075	-0.347
-475.289	-200.000	-0.013	-0.145
-474.274	52.951	-0.114	-0.109
-473.259	-73.621	-0.209	0.077
-472.245	-200.000	0.014	-0.302
-471.230	-52.574	0.167	-0.077
-470.216	-138.318	-0.173	-0.019
-469.201	402.806	-0.066	0.139
-468.186	-200.000	0.026	0.120
-467.172	-200.000	0.020	0.377
-466.157	17.421	-0.191	-0.152
-465.143	119.979	-0.052	0.065
-464.128	-95.611	-0.240	-0.065
-463.113	131.141	0.150	-0.194
-462.099	-149.804	0.228	-0.018
-461.084	-8.514	-0.044	0.030
-460.070	800.000	0.078	-0.284
-459.055	-23.736	-0.260	0.157
-458.040	200.327	-0.127	0.195
-457.026	152.553	-0.157	0.215
-456.011	208.825	0.068	-0.107
-454.997	-137.912	-0.393	-0.044
-453.982	-200.000	0.015	-0.351
-452.968	-74.379	0.291	0.105
-451.953	-29.283	-0.146	0.084
-450.938	-47.722	-0.103	-0.050
-449.924	-88.028	0.225	0.068
-448.909	165.506	-0.162	-0.230
-447.895	-200.000	-0.009	0.179
-446.880	-200.000	-0.068	0.414
-445.865	-200.000	0.081	-0.450
-444.851	-172.120	0.276	0.009
-443.836	131.638	0.154	0.198
-442.822	800.000	-0.023	0.070
-441.807	-200.000	0.075	-0.338
-440.792	379.542	0.126	0.259
-439.778	-88.462	0.153	0.046
-438.763	207.048	0.316	-0.493
-437.749	123.364	-0.179	-0.225
-436.734	-200.000	0.039	-0.440
-435.719	-70.091	-0.118	-0.045
-434.705	258.693	0.156	0.269
-433.690	-55.776	0.147	-0.066
-432.676	-1.618	0.314	-0.222
-431.661	60.177	-0.120	-0.119
-430.646	-1.338	-0.226	-0.160
-429.632	123.686	-0.096	0.121
-428.617	16.487	0.217	-0.171
-427.603	-91.236	0.330	-0.095
-426.588	-139.788	0.106	0.011
-425.573	20.459	-0.121	-0.098
-424.559	-2.486	-0.155	-0.109
-423.544	-200.000	0.026	0.597
-422.530	-51.215	0.060	0.028
-421.515	229.218	0.157	0.257
-420.500	-26.254	0.275	-0.162
-419.486	227.402	0.046	0.075
-418.471	-16.147	0.140	-0.089
-417.457	29.190	0.008	-0.007
-416.442	800.000	0.092	0.259
-415.428	800.000	-0.078	-0.237
-414.413	800.000	0.104	-0.381
-413.398	-200.000	0.038	-0.324
-412.384	-119.441	-0.151	0.026
-411.369	800.000	-0.095	0.278
-410.355	485.678	0.052	0.119
-409.340	-34.623	0.103	0.056
-408.325	669.827	0.066	0.171
-407.311	-65.747	0.225	-0.090
-406.296	-33.496	0.158	-0.087
-405.282	-38.172	0.178	-0.094
-404.267	-26.994	0.192	-0.112
-403.252	117.948	-0.198	0.244
-402.238	-152.430	0.241	-0.017
-401.223	-200.000	0.048	0.295
-400.209	-23.346	0.318	-0.191
-399.194	-124.267	-0.183	0.029
-398.179	51.850	0.066	0.063
-397.165	-200.000	0.011	-0.169
-396.150	-108.285	0.150	0.033
-395.136	-62.655	0.134	-0.055
-394.121	-15.177	-0.278	0.178
-393.106	-200.000	0.031	0.184
-392.092	-37.579	-0.242	-0.129
-391.077	348.296	-0.153	0.302
-390.063	6.902	0.132	-0.099
-389.048	-110.104	0.361	0.075
-388.033	-121.504	-0.223	-0.037
-387.019	800.000	-0.058	0.162
-386.004	510.187	0.128	0.298
-384.990	280.895	-0.098	-0.175
-383.975	-141.490	-0.157	-0.016
-382.960	-141.833	0.268	0.027
-381.946	48.473	-0.273	0.255
-380.931	-10.854	0.088	-0.058
-379.917	432.623	0.036	0.079
-378.902	-80.616	0.230	-0.077
-377.888	-93.529	-0.250	-0.069
-376.873	683.213	0.177	-0.460
-375.858	-115.103	-0.257	0.049
-374.844	-200.000	0.002	-0.120
-373.829	800.000	0.073	0.271
-372.815	403.523	-0.087	0.182
-371.800	-99.541	-0.155	0.039
-370.785	367.579	0.080	-0.162
-369.771	3.533	0.267	0.194
-368.756	-92.636	-0.044	-0.012
-367.742	-135.580	-0.308	-0.037
-366.727	-200.000	0.019	0.124
-365.712	34.890	0.271	0.237
-364.698	75.158	0.093	-0.098
-363.683	78.933	-0.097	0.104
-362.669	-124.955	0.429	0.066
-361.654	-200.000	-0.022	-0.196
-360.639	-16.291	0.231	0.147
-359.625	-105.929	-0.192	-0.043
-358.610	648.689	0.057	0.145
-357.596	-172.925	-0.130	0.004
-356.581	177.997	-0.213	-0.310
-355.566	-112.851	0.110	0.022
-354.552	131.206	0.155	0.199
-353.537	-200.000	0.012	-0.253
-352.523	286.715	-0.197	-0.355
-351.508	-185.204	-0.198	-0.003
-350.493	422.159	0.038	0.082
-349.479	200.036	-0.110	0.169
-348.464	-70.687	0.233	0.088
-347.450	-138.190	0.372	-0.041
-346.435	-124.727	-0.421	0.065
-345.420	-105.858	-0.058	0.013
-344.406	31.110	0.090	-0.077
-343.391	0.816	0.258	-0.184
-342.377	69.696	-0.018	-0.019
-341.362	63.854	0.231	-0.232
-340.348	122.316	0.110	-0.137
-339.333	-98.563	0.426	-0.109
-338.318	-72.335	0.367	0.136
-337.304	-200.000	0.010	-0.427
-336.289	-79.334	0.157	-0.053
-335.275	-102.419	0.158	-0.038
-334.260	-68.193	-0.337	0.131
-333.245	43.871	0.213	0.195
-332.231	299.525	0.030	0.056
-331.216	800.000	-0.127	-0.401
-330.202	1.359	0.151	-0.108
-329.187	-200.000	0.035	-0.208
-328.172	-135.385	-0.124	0.015
-327.158	-44.103	0.229	-0.115
-326.143	384.618	-0.071	-0.146
-325.129	-200.000	-0.006	-0.133
-324.114	-200.000	0.025	-0.150
-323.099	-190.847	-0.060	0.001
-322.085	230.457	0.094	-0.153
-321.070	67.669	-0.139	-0.142
-320.056	128.941	-0.084	-0.106
-319.041	-200.000	0.029	0.163
-318.026	-34.909	0.184	0.100
-317.012	-200.000	0.016	0.446
-315.997	800.000	0.093	-0.275
-314.983	-6.720	0.208	-0.141
-313.968	800.000	-0.043	0.120
-312.953	-200.000	0.042	-0.261
-311.939	800.000	-0.048	0.163
-310.924	-96.419	0.243	0.064
-309.910	800.000	0.102	0.364
-308.895	-200.000	0.050	0.368
-307.880	-199.009	0.305	-0.002
-306.866	-200.000	0.029	0.219
-305.851	-159.541	0.265	-0.015
-304.837	112.259	-0.216	0.261
-303.822	68.511	0.178	-0.182
-302.807	-200.000	0.036	0.199
-301.793	196.877	0.052	-0.079
-300.778	-152.977	-0.246	-0.017
-299.764	-154.482	-0.249	-0.017
-298.749	258.841	-0.142	0.244
-297.735	-200.000	-0.037	-0.161
-296.720	-129.653	0.170	0.023
-295.705	-200.000	0.007	0.164
-294.691	-35.143	0.266	0.145
-293.676	-61.973	-0.440	0.183
-292.662	288.440	-0.270	0.488
-291.647	-200.000	0.011	0.057
-290.632	-59.125	0.205	-0.088
-289.618	-15.614	-0.148	-0.094
-288.603	-200.000	0.047	-0.273
-287.589	-52.256	-0.089	0.041
-286.574	-56.891	-0.331	-0.145
-285.559	441.960	0.165	0.359
-284.545	-106.302	0.232	0.052
-283.530	-95.040	-0.315	0.085
-282.516	-200.000	0.076	0.422
-281.501	-196.515	0.085	0.001
-280.486	-27.142	-0.261	-0.152
-279.472	-200.000	0.031	0.193
-278.457	-4.059	-0.189	0.131
-277.443	303.753	0.147	-0.272
-276.428	-134.283	-0.158	0.019
-275.413	-86.470	0.314	-0.096
-274.399	-17.331	0.427	0.268
-273.384	49.382	0.205	-0.192
-272.370	-200.000	0.003	0.068
-271.355	15.490	-0.124	-0.097
-270.340	-1.555	-0.187	0.131
-269.326	77.854	0.132	0.140
-268.311	-200.000	0.000	0.035
-267.297	386.994	0.042	0.086
-266.282	55.716	0.175	-0.169
-265.267	-99.523	-0.113	0.028
-264.253	-176.398	-0.214	0.006
-263.238	80.267	-0.212	-0.227
-262.224	800.000	-0.125	-0.475
-261.209	126.345	-0.014	0.018
-260.195	-153.229	-0.156	0.011
-259.180	-86.497	-0.279	0.085
-258.165	130.469	0.209	0.267
-257.151	-139.987	-0.131	0.014
-256.136	-46.707	0.462	-0.225
-255.122	-200.000	0.029	-0.245
-254.107	-200.000	-0.035	-0.179
-253.092	-200.000	0.000	0.085
-252.078	56.721	-0.311	-0.301
-251.063	1.643	0.137	0.098
-250.049	644.684	0.070	0.178
-249.034	54.933	-0.195	0.187
-248.019	-200.000	-0.012	0.461
-247.005	-84.642	0.405	0.127
-245.990	-65.115	0.327	-0.131
-244.976	18.265	-0.054	0.043
-243.961	106.913	-0.072	-0.085
-242.946	800.000	-0.021	-0.080
-241.932	-154.003	0.028	-0.002
-240.917	79.875	-0.282	-0.302
-239.903	-135.872	-0.275	0.032
-238.888	-55.937	0.324	-0.144
-237.873	-150.627	0.142	-0.011
-236.859	562.058	-0.072	-0.173
-235.844	132.660	0.174	0.223
-234.830	-50.451	-0.270	0.127
-233.815	-123.268	-0.090	-0.014
-232.800	219.637	-0.109	0.173
-231.786	66.588	0.099	-0.100
-230.771	-48.650	-0.337	-0.161
-229.757	-9.008	-0.205	0.136
-228.742	-117.987	0.115	-0.020
-227.727	-200.000	0.018	0.105
-226.713	-13.483	-0.118	0.076
-225.698	88.590	-0.240	0.265
-224.684	216.720	-0.088	0.140
-223.669	-171.374	0.139	0.005
-222.655	359.810	0.085	-0.170
-221.640	796.673	-0.073	0.200
-220.625	-91.028	-0.200	0.057
-219.611	-112.245	-0.194	0.039
-218.596	-51.104	-0.236	-0.110
-217.582	155.707	-0.168	-0.230
-216.567	-170.043	0.252	-0.009
-215.552	32.932	0.120	-0.103
-214.538	-200.000	0.014	0.313
-213.523	-71.869	-0.201	-0.074
-212.509	-7.127	0.198	-0.133
-211.494	-200.000	-0.025	0.163
-210.479	399.852	0.081	0.169
-209.465	-98.115	0.197	-0.050
-208.450	57.314	0.172	-0.167
-207.436	-7.770	0.165	0.111
-206.421	554.601	-0.016	0.037
-205.406	306.300	-0.061	-0.113
-204.392	-32.152	0.044	-0.024
-203.377	72.265	0.167	0.173
-202.363	239.865	-0.072	-0.119
-201.348	-140.463	0.097	-0.010
-200.333	164.575	0.111	0.156
-199.319	397.580	-0.037	0.077
-198.304	36.355	-0.232	0.203
-197.290	800.000	-0.044	0.181
-196.275	-36.282	-0.144	-0.077
-195.260	-200.000	-0.044	-0.227
-194.246	783.093	-0.092	0.251
-193.231	-112.145	0.216	-0.043
-192.217	800.000	-0.062	-0.204
-191.202	-124.364	-0.220	0.034
-190.187	94.588	0.182	-0.206
-189.173	-90.218	-0.270	-0.078
-188.158	-93.251	-0.353	0.097
-187.144	-200.000	-0.009	-0.339
-186.129	378.747	0.190	0.387
-185.114	202.592	-0.045	-0.069
-184.100	49.796	-0.098	0.092
-183.085	800.000	-0.045	0.136
-182.071	-20.854	0.173	0.105
-181.056	-100.282	0.280	0.069
-180.042	-51.277	0.172	0.080
-179.027	-134.091	0.180	-0.022
-178.012	-105.089	-0.325	0.074
-176.998	800.000	0.150	-0.438
-175.983	35.809	-0.114	-0.100
-174.969	-139.212	-0.444	0.047
-173.954	-200.000	0.013	-0.085
-172.939	110.518	-0.017	0.021
-171.925	295.213	-0.057	0.104
-170.910	-94.273	0.150	-0.041
-169.896	-120.467	-0.185	0.031
-168.881	-34.985	-0.235	0.127
-167.866	246.159	0.114	0.190
-166.852	-63.077	0.245	0.100
-165.837	242.248	-0.055	-0.091
-164.823	-118.458	-0.131	-0.023
-163.808	800.000	-0.076	0.218
-162.793	-34.762	0.078	0.042
-161.779	-95.316	-0.131	0.035
-160.764	-3.379	0.262	-0.181
-159.750	31.886	-0.241	0.206
-158.735	-200.000	0.046	-0.286
-157.720	-143.433	0.116	-0.011
-156.706	-200.000	-0.012	0.166
-155.691	-102.690	-0.196	0.046
-154.677	236.449	-0.124	0.204
-153.662	800.000	0.043	-0.119
-152.647	-16.600	0.193	-0.121
-151.633	-200.000	0.018	-0.146
-150.618	-200.000	-0.012	-0.271
-149.604	-187.258	0.418	0.006
-148.589	169.309	-0.235	-0.332
-147.574	-129.640	0.461	0.063
-146.560	87.469	0.135	0.148
-145.545	-66.976	0.425	-0.166
-144.531	-95.642	-0.079	0.021
-143.516	20.997	-0.121	0.097
-142.502	438.659	0.100	0.217
-141.487	138.765	-0.081	0.106
-140.472	163.045	-0.146	-0.203
-139.458	-59.161	0.280	-0.119
-138.443	-180.625	-0.337	0.007
-137.429	800.000	-0.018	0.056
-136.414	-150.280	0.145	-0.011
-135.399	-12.306	0.280	0.181
-134.385	111.412	0.058	-0.070
-133.370	280.453	-0.087	-0.154
-132.356	180.656	-0.055	-0.080
-131.341	155.106	-0.143	-0.195
-130.326	267.156	0.184	-0.318
-129.312	800.000	-0.063	-0.197
-128.297	8.455	0.044	0.033
-127.283	-200.000	-0.100	-0.511
-126.268	-84.973	-0.136	0.042
-125.253	-42.090	-0.178	-0.090
-124.239	-16.077	0.025	0.016
-123.224	66.205	-0.096	0.096
-122.210	-76.514	-0.230	0.080
-121.195	20.144	0.337	0.269
