DTS Sentinel unit serial number:	SN413079Multiplexer serial number:	ORYXHardware model number:	OX4-SRSoftware version number:	ORYX F/W v4.00 Oryx Data Collector v3.7.2.0data status	okinstallation	princeton_trtdifferential loss correction	single-endedforward channel	channel 1reverse channel	N/Adate	2019/09/14time	12:38:35forward acquisition time	60.00reverse acquisition time	0.00gamma	496.2192k internal	0.2294k external	0.2294temperature offset calibration	1.0092default loss term (dB/km)	0.3790temperature slope calibration	1.0000multiplexer offset coefficient	1.0000multiplexer slope coefficient	1.0000fibre end	0.00T internal ref (°C)	38.00T ext. ref 1 (°C)	4.80T ext. ref 2 (°C)	33.69length (m)	temperature (°C)	Stokes	anti-Stokes-747.200	-14.765	0.105	0.069
-746.185	-200.000	0.010	0.297
-745.171	-33.252	-0.092	-0.052
-744.156	-200.000	-0.002	0.098
-743.142	-74.028	0.230	0.085
-742.127	-149.538	-0.266	-0.022
-741.112	82.726	-0.140	-0.156
-740.098	-149.027	0.033	-0.003
-739.083	-200.000	-0.030	-0.236
-738.069	-49.175	0.187	0.092
-737.054	-86.523	-0.209	0.066
-736.039	71.634	0.098	-0.104
-735.025	-200.000	0.003	0.189
-734.010	-84.102	0.194	0.063
-732.996	-140.083	0.237	-0.025
-731.981	128.036	0.018	0.024
-730.966	372.354	-0.141	0.292
-729.952	284.161	0.049	0.090
-728.937	58.226	-0.155	0.156
-727.923	800.000	-0.070	0.227
-726.908	-4.810	-0.043	0.031
-725.894	800.000	0.085	-0.332
-724.879	-123.930	-0.238	0.038
-723.864	-85.508	0.115	0.037
-722.850	31.627	-0.185	-0.163
-721.835	-127.115	-0.241	-0.036
-720.821	-121.602	-0.166	0.028
-719.806	-160.463	0.065	0.004
-718.791	800.000	0.055	0.165
-717.777	-141.160	-0.383	-0.040
-716.762	-12.946	-0.180	-0.120
-715.748	63.215	0.131	-0.134
-714.733	-54.702	-0.292	-0.135
-713.718	-200.000	0.030	0.173
-712.704	-7.256	-0.147	0.102
-711.689	800.000	0.107	-0.368
-710.675	42.434	0.217	-0.201
-709.660	-200.000	-0.011	0.063
-708.645	170.109	0.026	0.039
-707.631	410.509	0.134	0.291
-706.616	85.820	-0.054	0.061
-705.602	108.765	0.141	0.172
-704.587	-200.000	0.053	-0.372
-703.572	-15.119	-0.256	-0.167
-702.558	-111.953	0.155	-0.032
-701.543	37.393	0.318	-0.287
-700.529	-159.352	0.207	-0.012
-699.514	-84.848	0.151	0.049
-698.499	800.000	-0.030	0.119
-697.485	-22.176	0.306	-0.190
-696.470	-97.395	0.496	0.132
-695.456	19.066	0.300	-0.246
-694.441	10.039	-0.104	0.081
-693.426	-190.309	0.502	0.006
-692.412	-200.000	0.025	-0.210
-691.397	-108.401	-0.343	-0.075
-690.383	91.156	0.043	0.049
-689.368	23.274	-0.037	0.031
-688.354	25.750	0.260	-0.221
-687.339	-16.474	0.058	-0.037
-686.324	166.253	-0.218	0.315
-685.310	342.599	0.075	0.150
-684.295	-9.187	-0.048	-0.033
-683.281	800.000	-0.044	0.128
-682.266	320.595	-0.103	-0.199
-681.251	0.193	-0.338	-0.246
-680.237	445.117	0.052	0.116
-679.222	-68.697	0.082	-0.033
-678.208	800.000	0.153	0.447
-677.193	-151.435	0.241	-0.018
-676.178	65.588	0.186	-0.192
-675.164	-165.716	-0.243	-0.011
-674.149	416.721	0.054	0.117
-673.135	95.430	0.181	0.211
-672.120	7.583	-0.098	0.075
-671.105	-200.000	0.058	0.297
-670.091	800.000	0.020	0.064
-669.076	22.983	-0.115	-0.096
-668.062	48.792	-0.045	-0.043
-667.047	50.366	-0.093	-0.089
-666.032	333.742	-0.111	-0.219
-665.018	-200.000	-0.035	0.197
-664.003	-198.612	0.245	-0.001
-662.989	120.476	-0.251	-0.318
-661.974	-47.621	-0.066	0.033
-660.959	-200.000	0.025	0.238
-659.945	31.972	-0.228	0.201
-658.930	216.095	-0.095	-0.155
-657.916	32.537	0.087	-0.077
-656.901	-200.000	-0.012	-0.165
-655.886	800.000	0.021	-0.087
-654.872	-6.395	0.084	0.059
-653.857	7.738	-0.235	-0.179
-652.843	-118.269	-0.035	-0.006
-651.828	-91.714	0.184	0.053
-650.814	-184.207	0.159	-0.003
-649.799	-71.665	-0.296	0.112
-648.784	-55.056	0.206	0.095
-647.770	-98.804	-0.251	-0.065
-646.755	63.364	-0.146	-0.149
-645.741	-64.558	-0.136	0.056
-644.726	-200.000	0.026	0.290
-643.711	-200.000	0.008	-0.069
-642.697	800.000	0.047	-0.190
-641.682	-125.579	-0.299	0.046
-640.668	166.612	-0.043	-0.061
-639.653	-120.664	-0.261	0.045
-638.638	243.932	0.154	-0.263
-637.624	-4.402	0.300	0.211
-636.609	-74.021	-0.052	0.019
-635.595	-200.000	-0.019	-0.195
-634.580	7.743	0.171	0.130
-633.565	-80.835	-0.243	-0.082
-632.551	800.000	0.007	-0.026
-631.536	-55.354	0.208	-0.095
-630.522	-34.433	-0.113	-0.063
-629.507	12.677	0.178	0.140
-628.492	800.000	0.032	-0.131
-627.478	-7.085	-0.211	0.146
-626.463	-36.205	0.210	0.115
-625.449	12.325	-0.115	0.090
-624.434	216.191	0.043	0.069
-623.419	64.781	-0.180	0.185
-622.405	-130.809	0.028	-0.004
-621.390	-59.000	0.116	0.051
-620.376	-1.093	-0.277	0.200
-619.361	-131.241	-0.216	0.029
-618.346	41.798	-0.117	0.108
-617.332	-200.000	0.050	0.468
-616.317	209.406	-0.031	-0.049
-615.303	-200.000	0.010	-0.237
-614.288	397.259	-0.096	0.205
-613.273	566.283	0.114	-0.282
-612.259	-94.475	-0.290	-0.080
-611.244	13.179	-0.118	0.093
-610.230	-63.364	0.381	-0.160
-609.215	38.221	0.152	-0.138
-608.201	107.878	-0.114	-0.139
-607.186	204.389	0.035	-0.055
-606.171	-200.000	0.044	-0.236
-605.157	-95.947	0.377	0.102
-604.142	-155.914	-0.236	0.015
-603.128	-41.171	0.355	0.187
-602.113	-78.495	0.373	-0.130
-601.098	-78.416	0.098	0.034
-600.084	-40.613	0.311	-0.164
-599.069	-200.000	0.044	-0.364
-598.055	-60.552	-0.208	0.090
-597.040	-41.573	-0.155	-0.081
-596.025	-101.328	-0.084	-0.021
-595.011	-18.451	0.201	0.128
-593.996	800.000	0.062	0.222
-592.982	800.000	-0.094	0.379
-591.967	755.874	0.088	0.241
-590.952	800.000	0.017	0.050
-589.938	529.919	-0.121	0.290
-588.923	-79.045	-0.174	-0.060
-587.909	183.275	-0.276	-0.414
-586.894	-143.642	-0.213	-0.021
-585.879	276.258	-0.096	0.172
-584.865	-57.007	-0.211	-0.094
-583.850	233.346	0.082	-0.136
-582.836	267.663	0.077	-0.136
-581.821	-50.810	-0.076	-0.036
-580.806	63.205	0.066	0.067
-579.792	-200.000	-0.005	0.112
-578.777	800.000	0.117	0.375
-577.763	506.111	-0.042	0.098
-576.748	800.000	0.116	-0.330
-575.733	-96.663	0.098	-0.026
-574.719	179.362	-0.129	0.191
-573.704	-58.369	-0.137	0.061
-572.690	-57.216	0.137	0.061
-571.675	-172.506	0.332	0.011
-570.661	-105.987	0.128	0.029
-569.646	-20.582	-0.297	-0.185
-568.631	-7.075	0.111	-0.076
-567.617	12.323	0.253	0.198
-566.602	39.466	0.102	-0.093
-565.588	171.525	-0.144	-0.211
-564.573	100.924	0.145	-0.172
-563.558	271.092	0.062	0.111
-562.544	-56.732	0.117	0.053
-561.529	-24.107	-0.202	0.122
-560.515	456.929	-0.123	-0.276
-559.500	-68.980	-0.202	0.079
-558.485	-156.977	0.267	0.017
-557.471	16.842	0.236	-0.190
-556.456	3.410	-0.116	0.086
-555.442	800.000	0.028	-0.086
-554.427	-116.858	-0.169	-0.031
-553.412	135.511	0.032	0.042
-552.398	-24.916	-0.101	-0.061
-551.383	-90.024	0.083	-0.025
-550.369	172.556	0.121	-0.177
-549.354	-96.209	-0.254	-0.068
-548.339	-200.000	-0.029	0.172
-547.325	-49.727	0.053	0.025
-546.310	-200.000	0.011	-0.209
-545.296	238.939	0.170	-0.287
-544.281	151.355	-0.263	0.363
-543.266	-89.217	-0.561	0.168
-542.252	-157.186	-0.271	0.017
-541.237	-45.467	-0.026	0.013
-540.223	-114.189	-0.170	0.033
-539.208	380.564	0.128	-0.267
-538.193	-200.000	0.006	0.090
-537.179	-200.000	-0.026	0.190
-536.164	800.000	0.074	0.268
-535.150	115.371	0.098	-0.121
-534.135	23.215	0.043	0.036
-533.121	-200.000	0.007	0.279
-532.106	-68.374	-0.106	-0.042
-531.091	-154.082	-0.328	-0.023
-530.077	372.832	0.196	0.404
-529.062	-136.247	-0.362	0.043
-528.048	214.433	-0.159	-0.255
-527.033	-128.817	-0.104	0.015
-526.018	238.650	-0.166	-0.279
-525.004	96.793	-0.279	-0.325
-523.989	68.193	0.032	-0.033
-522.975	-200.000	0.038	-0.216
-521.960	71.561	-0.100	-0.106
-520.945	800.000	0.027	-0.089
-519.931	-18.916	0.460	0.290
-518.916	27.749	0.131	0.112
-517.902	-200.000	0.019	0.172
-516.887	168.550	0.086	-0.124
-515.872	800.000	-0.033	-0.099
-514.858	333.934	0.108	-0.211
-513.843	-14.008	0.226	0.148
-512.829	-200.000	-0.021	0.113
-511.814	-87.634	0.224	0.069
-510.799	-147.320	-0.135	-0.012
-509.785	-68.020	0.039	-0.015
-508.770	-179.939	-0.335	0.007
-507.756	185.531	0.061	0.091
-506.741	-200.000	-0.005	0.284
-505.726	-200.000	-0.017	-0.210
-504.712	-200.000	-0.009	-0.301
-503.697	-200.000	0.003	0.049
-502.683	-78.447	0.376	0.131
-501.668	160.206	0.022	0.031
-500.653	790.082	0.048	0.135
-499.639	-95.250	-0.152	0.041
-498.624	336.525	0.167	0.328
-497.610	-85.811	0.066	-0.021
-496.595	66.799	-0.212	0.218
-495.581	31.313	0.231	0.201
-494.566	193.936	0.097	0.149
-493.551	800.000	0.002	-0.006
-492.537	-51.759	0.346	-0.163
-491.522	350.235	-0.112	-0.225
-490.508	-200.000	0.001	-0.304
-489.493	-90.673	-0.222	0.065
-488.478	800.000	-0.037	0.125
-487.464	73.237	0.089	0.094
-486.449	-87.541	-0.166	-0.051
-485.435	-100.198	0.142	-0.036
-484.420	-134.880	0.222	0.027
-483.405	784.466	0.067	0.187
-482.391	91.039	0.222	0.252
-481.376	-72.362	-0.202	-0.076
-480.362	800.000	-0.102	0.310
-479.347	-143.660	0.424	0.041
-478.332	-125.480	0.083	-0.013
-477.318	-12.434	-0.298	-0.197
-476.303	473.515	0.148	-0.337
-475.289	-37.688	-0.227	-0.123
-474.274	-71.019	-0.183	-0.070
-473.259	-58.373	-0.070	-0.031
-472.245	10.743	0.116	0.090
-471.230	381.689	-0.111	-0.230
-470.216	-88.298	0.134	-0.040
-469.201	31.726	0.193	-0.168
-468.186	-200.000	-0.020	0.126
-467.172	55.502	0.164	0.161
-466.157	-4.477	0.042	0.029
-465.143	14.234	0.500	0.394
-464.128	78.347	-0.100	0.108
-463.113	56.667	0.017	0.017
-462.099	176.051	0.139	-0.204
-461.084	-20.317	0.136	-0.085
-460.070	-200.000	0.003	0.261
-459.055	117.404	0.146	-0.182
-458.040	-69.927	0.193	0.074
-457.026	-106.006	-0.195	0.044
-456.011	755.303	0.012	0.032
-454.997	200.744	0.128	-0.200
-453.982	-112.891	-0.161	0.032
-452.968	800.000	0.093	-0.290
-451.953	-200.000	0.045	0.203
-450.938	-13.398	-0.198	0.130
-449.924	-164.642	0.267	-0.012
-448.909	324.781	0.083	0.160
-447.895	800.000	-0.048	-0.184
-446.880	-99.676	0.333	-0.084
-445.865	103.614	-0.038	0.045
-444.851	371.874	0.071	-0.145
-443.836	-200.000	-0.014	-0.218
-442.822	-41.044	0.291	0.152
-441.807	12.162	0.144	0.112
-440.792	800.000	0.020	0.070
-439.778	129.294	-0.123	-0.159
-438.763	352.713	-0.166	-0.333
-437.749	10.976	-0.170	-0.131
-436.734	-113.155	0.172	-0.034
-435.719	-129.007	-0.211	0.030
-434.705	-200.000	0.010	0.206
-433.690	-56.410	0.280	-0.125
-432.676	-78.656	0.159	-0.055
-431.661	4.488	-0.302	0.223
-430.646	-22.259	-0.135	0.083
-429.632	127.559	0.055	-0.070
-428.617	-200.000	0.019	0.413
-427.603	-200.000	-0.031	-0.159
-426.588	-200.000	-0.014	-0.231
-425.573	800.000	0.042	-0.144
-424.559	150.522	0.135	-0.186
-423.544	-82.203	-0.145	-0.048
-422.530	800.000	-0.027	-0.107
-421.515	190.081	0.078	-0.118
-420.500	-200.000	0.050	-0.324
-419.486	118.445	-0.291	0.363
-418.471	800.000	-0.069	-0.245
-417.457	-48.227	-0.264	-0.128
-416.442	-200.000	-0.005	0.070
-415.428	-200.000	-0.007	0.291
-414.413	-89.185	0.085	-0.025
-413.398	-127.020	0.286	-0.042
-412.384	46.384	-0.170	-0.159
-411.369	-155.639	-0.272	0.018
-410.355	627.634	-0.072	0.183
-409.340	-24.111	0.097	0.058
-408.325	-109.863	-0.237	-0.050
-407.311	169.633	-0.060	0.086
-406.296	-120.510	0.302	-0.052
-405.282	800.000	-0.056	-0.163
-404.267	82.220	-0.248	-0.272
-403.252	178.786	0.031	-0.045
-402.238	3.234	0.108	-0.080
-401.223	-31.789	0.109	-0.062
-400.209	-200.000	0.030	-0.254
-399.194	28.806	0.150	-0.128
-398.179	-116.623	0.567	-0.105
-397.165	800.000	0.025	-0.070
-396.150	-96.466	0.179	0.048
-395.136	-88.022	0.200	-0.061
-394.121	-95.571	-0.240	0.065
-393.106	-120.781	0.036	0.006
-392.092	117.650	0.038	0.047
-391.077	-37.851	-0.337	0.181
-390.063	-200.000	-0.033	0.198
-389.048	-119.502	-0.217	-0.038
-388.033	249.310	0.041	-0.071
-387.019	231.261	-0.118	-0.195
-386.004	161.624	0.082	-0.116
-384.990	774.609	-0.094	0.259
-383.975	-55.751	0.094	-0.042
-382.960	-47.370	-0.055	0.027
-381.946	-22.667	0.272	-0.166
-380.931	513.261	-0.051	-0.121
-379.917	800.000	-0.011	0.042
-378.902	-61.999	-0.191	0.081
-377.888	111.291	-0.086	-0.105
-376.873	-1.543	-0.177	-0.126
-375.858	-62.269	0.073	-0.031
-374.844	54.954	-0.249	-0.242
-373.829	34.943	-0.119	-0.105
-372.815	-22.061	0.313	-0.192
-371.800	209.385	-0.099	-0.157
-370.785	404.129	-0.110	-0.233
-369.771	474.430	-0.099	-0.225
-368.756	-101.260	-0.400	0.098
-367.742	-39.701	0.136	0.072
-366.727	116.574	0.170	-0.210
-365.712	766.144	-0.067	0.184
-364.698	1.648	-0.044	0.032
-363.683	2.007	0.068	0.050
-362.669	184.568	0.104	0.155
-361.654	800.000	0.044	0.138
-360.639	86.250	-0.130	0.144
-359.625	-200.000	-0.049	0.217
-358.610	591.903	0.082	0.204
-357.596	800.000	0.144	0.410
-356.581	213.067	-0.166	0.264
-355.566	800.000	-0.098	0.399
-354.552	219.221	-0.116	-0.186
-353.537	-118.050	-0.273	-0.049
-352.523	-144.363	-0.276	-0.026
-351.508	83.736	0.219	0.240
-350.493	343.993	0.026	0.052
-349.479	-200.000	0.040	-0.363
-348.464	-152.615	-0.196	-0.014
-347.450	367.387	0.075	0.153
-346.435	611.094	0.114	-0.287
-345.420	-200.000	0.025	-0.233
-344.406	209.211	0.152	0.239
-343.391	125.959	-0.229	0.292
-342.377	-103.175	-0.038	0.009
-341.362	-86.048	0.150	-0.047
-340.348	493.422	0.070	0.162
-339.333	-200.000	0.057	0.353
-338.318	431.456	0.055	0.121
-337.304	-134.707	0.073	0.009
-336.289	-200.000	-0.050	0.225
-335.275	-141.356	-0.181	-0.018
-334.260	-73.767	-0.278	0.102
-333.245	-181.338	-0.071	-0.001
-332.231	138.256	0.204	-0.269
-331.216	452.933	-0.126	-0.279
-330.202	-55.427	0.170	0.077
-329.187	-183.824	0.170	0.003
-328.172	-150.257	-0.411	-0.032
-327.158	-11.279	0.203	-0.135
-326.143	-200.000	-0.019	0.119
-325.129	113.084	0.175	0.214
-324.114	171.875	0.060	-0.087
-323.099	-200.000	0.003	0.130
-322.085	-82.806	0.245	-0.080
-321.070	-22.627	-0.208	0.127
-320.056	-138.619	-0.365	-0.040
-319.041	503.069	0.087	0.201
-318.026	159.370	-0.037	0.052
-317.012	-107.021	-0.346	-0.077
-315.997	-18.251	0.130	-0.082
-314.983	162.789	-0.133	0.187
-313.968	-200.000	0.023	0.102
-312.953	-31.517	-0.308	-0.174
-311.939	-200.000	0.002	-0.157
-310.924	-97.878	0.340	0.088
-309.910	17.422	0.281	0.224
-308.895	-153.244	0.176	-0.012
-307.880	800.000	-0.102	-0.318
-306.866	-164.554	-0.242	-0.011
-305.851	-107.034	-0.436	-0.097
-304.837	-200.000	-0.131	-0.613
-303.822	-200.000	0.026	-0.247
-302.807	136.117	-0.092	-0.120
-301.793	-200.000	-0.046	-0.264
-300.778	-75.188	0.171	0.062
-299.764	-2.862	0.057	-0.040
-298.749	-200.000	-0.006	-0.223
-297.735	800.000	0.037	-0.144
-296.720	-44.260	-0.420	0.212
-295.705	-34.229	-0.034	0.019
-294.691	72.129	0.104	-0.108
-293.676	800.000	-0.065	0.241
-292.662	800.000	0.014	0.041
-291.647	9.540	0.142	-0.108
-290.632	-84.328	-0.351	-0.112
-289.618	601.970	0.075	0.188
-288.603	-200.000	-0.010	-0.166
-287.589	13.933	0.286	-0.224
-286.574	-200.000	0.018	0.127
-285.559	-71.445	0.236	-0.089
-284.545	800.000	0.076	0.314
-283.530	800.000	-0.025	-0.084
-282.516	800.000	-0.022	-0.087
-281.501	19.262	0.102	-0.082
-280.486	-62.061	-0.086	-0.036
-279.472	-200.000	-0.030	0.144
-278.457	-18.035	-0.162	-0.102
-277.443	96.851	-0.104	0.120
-276.428	141.813	-0.058	0.077
-275.413	45.492	-0.085	0.079
-274.399	800.000	0.066	0.262
-273.384	281.505	0.085	-0.152
-272.370	-163.558	0.305	-0.014
-271.355	800.000	-0.095	0.299
-270.340	-48.765	0.357	-0.172
-269.326	800.000	0.086	0.246
-268.311	407.689	0.109	0.232
-267.297	2.687	-0.170	-0.124
-266.282	184.624	-0.215	-0.319
-265.267	253.139	-0.136	-0.233
-264.253	126.533	0.245	-0.312
-263.238	307.960	0.071	0.134
-262.224	360.865	0.026	0.053
-261.209	-12.119	-0.194	0.127
-260.195	-120.619	0.187	0.032
-259.180	-49.063	0.408	-0.196
-258.165	-72.785	-0.244	-0.090
-257.151	67.958	0.190	0.195
-256.136	-150.613	0.268	-0.021
-255.122	-200.000	0.009	-0.049
-254.107	800.000	0.074	0.226
-253.092	-52.402	-0.263	-0.122
-252.078	66.545	-0.133	-0.135
-251.063	145.956	-0.061	0.082
-250.049	-57.909	-0.384	0.168
-249.034	121.213	0.165	0.206
-248.019	-6.410	0.235	0.161
-247.005	407.816	0.053	-0.112
-245.990	-200.000	-0.026	-0.142
-244.976	-68.455	0.174	0.068
-243.961	-30.204	-0.057	0.032
-242.946	-88.200	0.095	0.029
-241.932	-81.640	0.132	-0.043
-240.917	-200.000	-0.007	-0.065
-239.903	-90.329	0.233	0.068
-238.888	-200.000	0.041	-0.223
-237.873	-93.969	-0.246	-0.068
-236.859	332.043	0.069	-0.134
-235.844	-121.758	-0.681	0.113
-234.830	-5.864	0.196	0.134
-233.815	-200.000	-0.065	0.382
-232.800	-135.690	-0.210	-0.025
-231.786	312.131	-0.202	-0.381
-230.771	246.035	0.070	-0.119
-229.757	16.578	-0.148	-0.117
-228.742	-103.719	0.238	-0.056
-227.727	182.292	0.065	0.096
-226.713	800.000	0.012	0.039
-225.698	216.313	0.140	-0.223
-224.684	-200.000	0.013	-0.226
-223.669	39.659	0.132	-0.118
-222.655	77.989	0.056	-0.060
-221.640	16.000	-0.082	0.065
-220.625	-27.299	0.064	-0.037
-219.611	76.251	-0.187	0.199
-218.596	-161.608	-0.287	-0.015
-217.582	-200.000	0.033	-0.385
-216.567	175.858	-0.177	0.257
-215.552	800.000	-0.045	0.132
-214.538	577.600	0.035	-0.086
-213.523	-17.943	0.155	0.097
-212.509	-32.660	0.121	0.067
-211.494	-118.589	-0.328	-0.058
-210.479	-200.000	0.026	0.186
-209.465	168.229	0.095	-0.135
-208.450	800.000	0.047	0.177
-207.436	115.121	-0.043	0.053
-206.421	-118.078	0.126	0.023
-205.406	-191.490	-0.125	-0.001
-204.392	39.009	-0.240	-0.215
-203.377	8.594	-0.077	-0.058
-202.363	115.263	0.130	0.159
-201.348	25.913	0.112	-0.094
-200.333	564.951	0.035	0.084
-199.319	-200.000	-0.016	0.208
-198.304	800.000	-0.107	0.332
-197.290	-111.003	-0.249	-0.051
-196.275	-200.000	0.016	0.140
-195.260	-84.137	-0.268	0.085
-194.246	43.433	0.303	0.278
-193.231	800.000	0.051	0.169
-192.217	-200.000	-0.012	0.210
-191.202	682.946	-0.209	-0.544
-190.187	10.009	0.161	-0.122
-189.173	159.058	-0.079	0.110
-188.158	-200.000	0.032	0.151
-187.144	209.319	-0.053	0.083
-186.129	-126.057	-0.108	0.016
-185.114	-200.000	0.012	0.082
-184.100	-117.367	-0.177	-0.032
-183.085	-67.130	0.219	-0.086
-182.071	33.916	0.171	0.149
-181.056	59.212	-0.090	-0.089
-180.042	-200.000	-0.014	0.074
-179.027	-169.732	0.491	0.018
-178.012	609.716	0.079	-0.198
-176.998	-200.000	-0.006	-0.109
-175.983	505.792	-0.126	-0.293
-174.969	56.828	-0.196	0.191
-173.954	800.000	0.039	0.154
-172.939	-14.711	-0.358	0.230
-171.925	24.367	0.135	0.111
-170.910	-200.000	-0.006	0.044
-169.896	-102.112	0.413	0.099
-168.881	-89.367	-0.197	-0.058
-167.866	591.979	0.073	-0.180
-166.852	39.881	0.075	0.067
-165.837	-200.000	0.013	0.149
-164.823	-200.000	-0.018	0.161
-163.808	-92.761	0.160	-0.045
-162.793	54.006	-0.046	-0.045
-161.779	287.707	0.061	0.110
-160.764	800.000	0.037	0.115
-159.750	-49.725	0.160	0.076
-158.735	141.081	0.047	-0.062
-157.720	-71.785	0.096	-0.036
-156.706	-53.278	0.213	-0.098
-155.691	800.000	0.136	-0.449
-154.677	26.291	0.066	-0.055
-153.662	178.448	0.135	-0.198
-152.647	800.000	-0.036	0.105
-151.633	83.090	-0.092	0.100
-150.618	800.000	-0.129	-0.481
-149.604	-135.565	0.151	-0.018
-148.589	800.000	-0.059	-0.185
-147.574	-55.554	-0.181	-0.081
-146.560	43.299	-0.088	-0.081
-145.545	-120.955	0.270	0.045
-144.531	-200.000	-0.030	0.195
-143.516	69.059	-0.229	0.235
-142.502	800.000	-0.044	-0.158
-141.487	-200.000	-0.048	-0.212
-140.472	25.475	0.148	-0.123
-139.458	800.000	-0.095	0.324
-138.443	784.316	0.113	0.310
-137.429	-200.000	0.025	0.432
-136.414	146.072	-0.070	-0.094
-135.399	34.949	-0.227	0.199
-134.385	671.053	-0.078	0.203
-133.370	153.446	0.218	-0.297
-132.356	27.884	-0.307	0.258
-131.341	-21.049	0.168	-0.103
-130.326	-32.125	-0.130	-0.073
-129.312	800.000	0.070	-0.196
-128.297	134.517	-0.171	-0.221
-127.283	-75.918	0.305	0.108
-126.268	-113.228	0.302	-0.059
-125.253	-63.974	-0.172	-0.070
-124.239	167.319	-0.194	0.275
-123.224	-170.184	-0.050	0.002
-122.210	-41.344	0.155	-0.080
-121.195	637.408	-0.031	0.078
-120.180	783.458	0.041	0.112
