DTS Sentinel unit serial number:	SN413079Multiplexer serial number:	ORYXHardware model number:	OX4-SRSoftware version number:	ORYX F/W v4.00 Oryx Data Collector v3.7.2.0data status	okinstallation	princeton_trtdifferential loss correction	single-endedforward channel	channel 1reverse channel	N/Adate	2019/09/16time	09:50:35forward acquisition time	60.00reverse acquisition time	0.00gamma	496.2192k internal	0.2318k external	0.2318temperature offset calibration	0.9962default loss term (dB/km)	0.3790temperature slope calibration	1.0000multiplexer offset coefficient	1.0000multiplexer slope coefficient	1.0000fibre end	0.00T internal ref (°C)	32.89T ext. ref 1 (°C)	12.33T ext. ref 2 (°C)	30.77length (m)	temperature (°C)	Stokes	anti-Stokes-747.200	-118.399	0.107	-0.019
-746.185	52.119	-0.265	0.255
-745.171	800.000	-0.022	0.090
-744.156	14.630	0.251	0.199
-743.142	396.344	0.107	0.226
-742.127	-49.023	-0.297	0.144
-741.112	-62.985	0.045	-0.019
-740.098	-113.950	-0.064	0.013
-739.083	-46.593	-0.131	-0.065
-738.069	-200.000	0.004	-0.109
-737.054	800.000	0.051	-0.189
-736.039	130.392	-0.220	-0.285
-735.025	205.749	-0.034	0.053
-734.010	38.944	-0.138	-0.125
-732.996	-173.481	0.315	-0.010
-731.981	7.162	0.080	0.060
-730.966	-78.835	-0.236	-0.081
-729.952	-139.747	-0.336	0.036
-728.937	282.042	-0.029	0.053
-727.923	-153.939	0.123	0.008
-726.908	291.049	-0.111	0.204
-725.894	-108.136	-0.376	0.082
-724.879	245.414	-0.076	-0.129
-723.864	-200.000	0.000	-0.262
-722.850	-64.296	0.130	-0.054
-721.835	-169.679	-0.498	-0.018
-720.821	-149.656	0.114	0.009
-719.806	-200.000	0.010	0.138
-718.791	233.315	0.201	-0.335
-717.777	7.169	-0.265	0.200
-716.762	-200.000	-0.012	-0.086
-715.748	376.134	-0.198	-0.408
-714.733	800.000	0.031	-0.088
-713.718	428.602	-0.116	-0.253
-712.704	77.875	0.219	0.236
-711.689	-96.676	-0.103	-0.027
-710.675	-200.000	0.008	0.151
-709.660	-120.282	0.141	-0.024
-708.645	-200.000	0.017	-0.361
-707.631	-35.509	-0.080	-0.044
-706.616	-200.000	0.015	-0.137
-705.602	185.977	0.152	0.229
-704.587	-135.885	0.241	-0.029
-703.572	800.000	-0.090	-0.335
-702.558	452.544	-0.092	-0.205
-701.543	16.500	0.346	0.276
-700.529	-200.000	-0.006	0.025
-699.514	-81.988	-0.272	-0.090
-698.499	-4.588	-0.127	-0.089
-697.485	-62.378	0.060	0.025
-696.470	324.121	0.092	0.178
-695.456	309.014	-0.124	0.234
-694.441	12.453	-0.039	-0.030
-693.426	-200.000	0.002	-0.345
-692.412	-200.000	0.039	-0.245
-691.397	29.724	0.262	-0.225
-690.383	86.620	0.100	-0.111
-689.368	31.710	-0.141	-0.122
-688.354	800.000	-0.063	-0.217
-687.339	423.059	-0.028	0.061
-686.324	-77.172	0.089	0.031
-685.310	-200.000	-0.037	-0.205
-684.295	-200.000	-0.003	0.069
-683.281	-143.833	-0.213	-0.020
-682.266	48.231	-0.313	-0.295
-681.251	70.734	-0.131	-0.137
-680.237	-10.536	0.137	0.092
-679.222	800.000	-0.128	0.418
-678.208	-105.279	0.092	-0.021
-677.193	-100.989	-0.406	0.101
-676.178	30.702	0.174	-0.150
-675.164	-191.764	-0.283	-0.003
-674.149	-9.415	-0.074	0.050
-673.135	800.000	0.032	-0.118
-672.120	183.306	-0.175	0.262
-671.105	221.386	-0.300	-0.486
-670.091	-121.710	0.269	-0.045
-669.076	-157.838	0.278	-0.017
-668.062	-149.807	0.230	-0.018
-667.047	-200.000	0.008	0.114
-666.032	-105.193	0.120	-0.028
-665.018	800.000	0.112	0.455
-664.003	137.091	-0.102	0.134
-662.989	355.045	0.139	-0.278
-661.974	65.433	-0.287	-0.293
-660.959	633.485	-0.036	-0.091
-659.945	-72.141	0.408	-0.153
-658.930	-108.270	0.187	0.041
-657.916	-200.000	0.042	-0.224
-656.901	270.940	0.102	0.181
-655.886	-47.433	-0.139	-0.068
-654.872	-134.357	-0.206	-0.026
-653.857	800.000	0.058	-0.235
-652.843	-95.941	-0.235	0.063
-651.828	-200.000	-0.030	-0.150
-650.814	124.147	-0.093	-0.118
-649.799	800.000	-0.018	0.069
-648.784	-178.201	0.287	-0.007
-647.770	-200.000	0.009	-0.114
-646.755	-60.901	-0.087	-0.037
-645.741	20.334	-0.224	-0.182
-644.726	-156.563	0.161	-0.010
-643.711	-34.083	-0.049	0.027
-642.697	-29.248	-0.344	-0.199
-641.682	-200.000	-0.024	-0.109
-640.668	800.000	-0.008	-0.036
-639.653	153.020	-0.194	-0.267
-638.638	-200.000	-0.024	-0.203
-637.624	-78.541	0.381	-0.131
-636.609	-112.728	0.134	0.027
-635.595	-28.435	-0.161	-0.093
-634.580	-52.880	-0.277	0.129
-633.565	-200.000	0.020	0.204
-632.551	114.181	-0.216	0.265
-631.536	55.389	-0.146	-0.142
-630.522	102.726	0.234	0.276
-629.507	-100.556	-0.268	0.067
-628.492	-147.881	-0.420	0.035
-627.478	-22.927	0.260	-0.158
-626.463	99.821	-0.366	-0.427
-625.449	218.863	0.075	-0.121
-624.434	29.727	-0.118	0.101
-623.419	273.656	0.095	-0.169
-622.405	-78.209	0.177	-0.061
-621.390	-79.820	-0.158	-0.053
-620.376	-200.000	0.006	-0.130
-619.361	-200.000	-0.013	-0.326
-618.346	-90.558	-0.535	0.156
-617.332	-200.000	-0.018	0.530
-616.317	151.594	-0.111	-0.152
-615.303	800.000	-0.069	-0.232
-614.288	-136.842	0.337	0.039
-613.273	21.537	-0.164	-0.134
-612.259	-149.496	-0.223	0.018
-611.244	-200.000	0.010	0.068
-610.230	800.000	0.059	-0.233
-609.215	113.421	-0.156	-0.191
-608.201	127.174	-0.211	-0.269
-607.186	91.007	0.104	0.117
-606.171	-164.160	-0.173	0.008
-605.157	-99.938	0.261	-0.066
-604.142	186.832	-0.079	-0.118
-603.128	-139.987	-0.286	0.030
-602.113	278.429	0.142	0.255
-601.098	-200.000	0.074	-0.372
-600.084	-19.376	-0.097	-0.060
-599.069	-82.936	-0.212	0.069
-598.055	-31.668	0.166	-0.094
-597.040	236.169	-0.193	0.321
-596.025	-109.088	-0.051	0.011
-595.011	24.375	-0.145	-0.121
-593.996	-113.365	-0.304	-0.060
-592.982	-66.974	-0.131	-0.052
-591.967	248.128	-0.107	-0.181
-590.952	-12.335	-0.046	-0.030
-589.938	-200.000	0.034	0.192
-588.923	74.196	0.260	-0.275
-587.909	-54.652	0.104	-0.047
-586.894	-152.802	-0.236	0.017
-585.879	5.094	0.056	-0.042
-584.865	-105.955	0.224	-0.051
-583.850	-200.000	0.006	-0.259
-582.836	6.951	-0.207	-0.155
-581.821	122.440	0.156	0.196
-580.806	-4.217	-0.086	-0.060
-579.792	-21.297	-0.131	0.080
-578.777	117.580	0.174	0.215
-577.763	-170.853	-0.129	0.004
-576.748	-200.000	-0.002	-0.118
-575.733	92.638	-0.011	0.012
-574.719	147.569	0.149	-0.202
-573.704	249.093	-0.073	-0.125
-572.690	281.670	0.102	-0.184
-571.675	181.416	-0.185	0.273
-570.661	-34.551	-0.164	0.090
-569.646	-161.541	-0.460	-0.024
-568.631	-55.625	-0.366	0.165
-567.617	88.622	0.189	0.211
-566.602	-133.606	0.123	0.015
-565.588	322.155	-0.048	0.092
-564.573	-200.000	-0.073	0.335
-563.558	-52.706	0.170	-0.079
-562.544	-92.268	0.274	-0.078
-561.529	-200.000	0.035	-0.185
-560.515	-35.189	-0.108	0.059
-559.500	1.666	-0.099	-0.072
-558.485	-81.717	0.117	-0.039
-557.471	53.838	-0.142	-0.137
-556.456	79.825	0.166	-0.179
-555.442	-200.000	0.048	0.324
-554.427	-73.006	0.048	0.018
-553.412	121.696	-0.149	0.187
-552.398	-52.687	0.116	0.054
-551.383	-116.185	0.219	0.041
-550.369	-61.140	0.018	0.007
-549.354	-163.759	-0.227	0.011
-548.339	-15.930	0.293	-0.187
-547.325	-30.988	-0.144	-0.082
-546.310	-72.662	-0.095	0.035
-545.296	-200.000	-0.004	0.132
-544.281	140.579	0.078	0.103
-543.266	-84.298	-0.144	0.046
-542.252	-200.000	0.006	0.145
-541.237	29.744	0.116	-0.099
-540.223	133.847	0.029	-0.037
-539.208	800.000	0.031	-0.096
-538.193	-34.276	0.276	0.152
-537.179	-90.342	0.267	0.078
-536.164	-7.653	0.320	0.217
-535.150	14.046	0.141	0.110
-534.135	-97.168	-0.149	0.039
-533.121	-74.170	-0.141	0.051
-532.106	72.221	0.051	0.053
-531.091	276.811	-0.087	-0.156
-530.077	-200.000	-0.041	0.285
-529.062	-112.741	0.162	-0.032
-528.048	742.066	0.081	-0.219
-527.033	-30.018	0.237	-0.135
-526.018	-141.880	-0.014	0.001
-525.004	165.037	0.102	0.144
-523.989	-200.000	0.024	-0.124
-522.975	-29.021	0.168	0.097
-521.960	68.235	0.225	-0.231
-520.945	800.000	-0.087	-0.376
-519.931	501.720	0.036	-0.084
-518.916	-23.567	0.059	-0.035
-517.902	-93.177	0.339	0.094
-516.887	-200.000	0.015	0.201
-515.872	-200.000	0.024	0.155
-514.858	112.846	0.120	0.146
-513.843	226.022	-0.172	0.280
-512.829	-145.885	-0.350	0.031
-511.814	504.779	-0.166	-0.387
-510.799	75.835	0.116	-0.123
-509.785	-10.135	-0.206	-0.137
-508.770	245.890	0.072	0.121
-507.756	-200.000	-0.006	0.109
-506.741	-5.140	0.190	-0.131
-505.726	2.835	0.243	0.177
-504.712	-130.491	-0.043	0.006
-503.697	-37.092	0.152	-0.082
-502.683	-120.347	-0.329	-0.056
-501.668	-21.288	-0.087	-0.053
-500.653	800.000	0.081	0.274
-499.639	-89.505	-0.091	0.027
-498.624	-63.475	-0.234	-0.096
-497.610	158.195	0.042	0.059
-496.595	800.000	-0.082	0.239
-495.581	-200.000	0.022	-0.345
-494.566	-36.891	0.146	0.079
-493.551	19.379	0.136	-0.109
-492.537	-200.000	0.022	-0.441
-491.522	7.860	0.073	-0.055
-490.508	-200.000	0.014	0.134
-489.493	448.615	0.120	0.264
-488.478	461.815	0.090	0.202
-487.464	448.125	0.030	0.066
-486.449	-200.000	0.039	-0.182
-485.435	19.195	-0.213	-0.171
-484.420	-65.046	0.460	0.186
-483.405	800.000	0.118	-0.341
-482.391	59.423	0.033	0.033
-481.376	82.976	-0.231	-0.252
-480.362	-34.544	0.261	-0.143
-479.347	-20.099	0.145	0.090
-478.332	415.239	0.161	-0.344
-477.318	18.537	0.186	-0.149
-476.303	-64.401	0.315	-0.128
-475.289	-20.354	-0.168	0.103
-474.274	-125.336	-0.105	-0.016
-473.259	72.190	0.107	-0.111
-472.245	1.200	-0.055	-0.039
-471.230	-200.000	-0.018	0.275
-470.216	217.921	0.207	0.331
-469.201	161.930	-0.091	0.128
-468.186	48.120	-0.168	0.157
-467.172	98.515	-0.042	0.049
-466.157	581.695	-0.060	-0.148
-465.143	-154.463	-0.351	-0.024
-464.128	-83.975	0.116	-0.037
-463.113	-32.025	0.198	0.111
-462.099	-64.352	-0.389	0.158
-461.084	-34.554	-0.077	-0.042
-460.070	3.660	0.182	0.133
-459.055	334.665	-0.203	0.394
-458.040	76.331	-0.296	0.314
-457.026	28.187	0.159	-0.134
-456.011	-6.241	-0.346	0.237
-454.997	-200.000	-0.037	0.207
-453.982	43.130	0.239	-0.219
-452.968	207.873	-0.105	-0.164
-451.953	-200.000	0.038	0.182
-450.938	172.127	0.088	0.126
-449.924	235.168	-0.259	-0.428
-448.909	35.958	0.318	-0.280
-447.895	159.160	0.129	-0.179
-446.880	114.134	-0.086	-0.105
-445.865	23.115	-0.109	-0.089
-444.851	-158.065	-0.238	0.014
-443.836	-6.176	0.204	0.140
-442.822	77.148	0.176	-0.187
-441.807	800.000	-0.113	-0.391
-440.792	-58.560	-0.134	-0.058
-439.778	-133.635	-0.252	-0.031
-438.763	-1.053	-0.079	0.056
-437.749	100.616	0.230	0.267
-436.734	-200.000	-0.004	0.225
-435.719	31.032	0.279	0.239
-434.705	116.705	-0.128	-0.157
-433.690	-200.000	0.036	-0.338
-432.676	-200.000	-0.045	-0.224
-431.661	-154.213	-0.154	0.010
-430.646	-55.124	-0.043	-0.019
-429.632	0.301	0.090	-0.064
-428.617	-2.450	-0.269	0.188
-427.603	16.452	-0.377	0.297
-426.588	-200.000	0.032	-0.300
-425.573	800.000	-0.046	-0.184
-424.559	151.744	-0.072	-0.099
-423.544	159.403	-0.061	0.085
-422.530	91.705	0.021	-0.024
-421.515	800.000	0.039	0.131
-420.500	475.522	0.101	0.228
-419.486	98.714	-0.158	0.182
-418.471	-137.565	0.149	0.017
-417.457	-200.000	-0.022	-0.358
-416.442	228.400	0.211	0.343
-415.428	-128.373	-0.376	-0.053
-414.413	-200.000	-0.011	0.156
-413.398	-24.577	-0.145	0.086
-412.384	-200.000	-0.040	0.197
-411.369	800.000	0.057	0.175
-410.355	112.117	0.130	-0.157
-409.340	457.803	0.075	-0.166
-408.325	575.268	0.072	0.176
-407.311	800.000	-0.041	-0.143
-406.296	-200.000	0.017	0.447
-405.282	-200.000	0.001	-0.026
-404.267	177.009	0.102	-0.148
-403.252	434.211	-0.096	0.208
-402.238	-100.851	0.053	-0.013
-401.223	-50.158	-0.370	0.175
-400.209	-143.052	0.112	-0.011
-399.194	418.180	-0.169	-0.360
-398.179	125.745	0.185	0.233
-397.165	800.000	-0.037	-0.136
-396.150	39.891	-0.106	0.095
-395.136	-200.000	0.008	0.042
-394.121	3.321	0.087	0.063
-393.106	-99.788	0.078	-0.019
-392.092	-150.523	0.186	-0.014
-391.077	-200.000	-0.009	-0.070
-390.063	233.629	-0.162	-0.267
-389.048	149.637	-0.121	0.164
-388.033	521.527	0.167	0.392
-387.019	102.444	-0.109	-0.128
-386.004	289.799	-0.028	-0.051
-384.990	-111.425	-0.091	0.018
-383.975	118.176	0.120	-0.148
-382.960	664.301	0.099	0.255
-381.946	494.164	-0.079	-0.182
-380.931	800.000	-0.032	0.131
-379.917	-143.529	0.182	-0.017
-378.902	102.498	0.057	-0.067
-377.888	627.048	-0.061	0.154
-376.873	-200.000	-0.075	0.338
-375.858	800.000	-0.113	0.333
-374.844	-200.000	0.014	0.147
-373.829	-153.518	0.205	0.014
-372.815	28.341	0.113	0.095
-371.800	-200.000	0.001	0.180
-370.785	-120.810	0.133	0.022
-369.771	4.721	0.134	0.098
-368.756	-72.795	0.098	-0.036
-367.742	-7.498	-0.177	-0.120
-366.727	-200.000	-0.024	-0.189
-365.712	-200.000	-0.014	0.359
-364.698	388.097	-0.094	0.194
-363.683	-142.740	-0.204	0.020
-362.669	-71.915	0.467	0.173
-361.654	-200.000	0.003	0.040
-360.639	-94.045	0.458	0.125
-359.625	-27.733	0.077	0.044
-358.610	800.000	-0.080	-0.224
-357.596	309.197	-0.124	-0.232
-356.581	66.465	-0.121	-0.123
-355.566	-9.559	-0.252	-0.167
-354.552	37.157	-0.200	-0.177
-353.537	108.543	0.151	-0.180
-352.523	318.370	-0.172	-0.325
-351.508	19.456	-0.093	-0.074
-350.493	-3.726	-0.240	-0.166
-349.479	-85.433	-0.055	-0.017
-348.464	-91.909	-0.098	-0.028
-347.450	619.879	0.091	-0.228
-346.435	-146.307	0.209	-0.018
-345.420	461.757	0.019	-0.042
-344.406	205.912	0.102	-0.158
-343.391	-136.024	-0.112	-0.013
-342.377	-89.618	-0.368	-0.108
-341.362	-83.408	-0.408	-0.130
-340.348	100.982	0.147	-0.170
-339.333	62.942	-0.028	-0.028
-338.318	-83.334	0.268	-0.086
-337.304	-6.899	0.117	0.079
-336.289	-200.000	-0.003	0.223
-335.275	768.045	-0.048	-0.129
-334.260	-117.177	0.034	-0.006
-333.245	139.786	0.167	-0.220
-332.231	-200.000	-0.006	0.035
-331.216	-200.000	0.063	-0.286
-330.202	-200.000	0.017	-0.111
-329.187	388.135	-0.061	0.127
-328.172	-200.000	0.015	-0.267
-327.158	-200.000	-0.037	0.273
-326.143	-200.000	0.007	-0.191
-325.129	800.000	0.014	0.060
-324.114	800.000	0.093	-0.273
-323.099	-200.000	-0.020	-0.150
-322.085	54.186	0.074	-0.071
-321.070	-87.823	-0.164	0.049
-320.056	91.947	0.258	0.289
-319.041	665.928	0.150	-0.386
-318.026	-72.571	0.316	-0.116
-317.012	-156.255	0.305	0.019
-315.997	-200.000	0.004	0.154
-314.983	-29.618	-0.340	-0.193
-313.968	-109.505	-0.280	0.059
-312.953	13.541	-0.225	0.174
-311.939	-22.434	-0.212	0.128
-310.924	-123.968	0.093	0.015
-309.910	-60.341	0.134	-0.057
-308.895	-55.277	-0.225	0.101
-307.880	56.289	-0.210	-0.203
-306.866	-200.000	-0.031	0.245
-305.851	-159.575	0.277	0.015
-304.837	121.365	0.136	-0.169
-303.822	-13.171	0.343	-0.222
-302.807	177.875	0.147	0.213
-301.793	-103.551	0.225	0.053
-300.778	-6.305	0.075	0.051
-299.764	-104.022	0.216	-0.050
-298.749	-200.000	-0.055	-0.281
-297.735	-200.000	-0.016	0.254
-296.720	115.699	-0.113	-0.137
-295.705	570.814	0.032	0.078
-294.691	662.617	0.106	-0.271
-293.676	133.611	-0.155	-0.199
-292.662	20.686	0.360	0.290
-291.647	800.000	-0.120	0.354
-290.632	35.139	0.072	-0.062
-289.618	800.000	0.130	-0.428
-288.603	800.000	0.077	-0.288
-287.589	-102.798	0.134	-0.032
-286.574	-103.221	-0.400	-0.094
-285.559	-4.841	0.042	-0.029
-284.545	-69.514	-0.157	-0.060
-283.530	-29.385	-0.081	0.046
-282.516	-22.076	-0.258	-0.156
-281.501	304.778	-0.050	-0.093
-280.486	131.238	0.230	0.294
-279.472	131.366	0.128	0.164
-278.457	130.316	-0.032	-0.040
-277.443	112.604	-0.070	-0.084
-276.428	800.000	-0.065	0.187
-275.413	177.795	-0.197	0.286
-274.399	25.565	-0.226	0.187
-273.384	10.344	0.279	0.211
-272.370	-41.792	0.148	-0.075
-271.355	-82.891	0.106	-0.034
-270.340	-200.000	-0.019	0.151
-269.326	-67.135	-0.344	-0.135
-268.311	800.000	-0.045	-0.177
-267.297	-12.628	-0.188	0.122
-266.282	-200.000	-0.012	-0.241
-265.267	33.006	0.078	0.067
-264.253	21.629	0.126	-0.102
-263.238	69.597	0.154	-0.158
-262.224	-14.340	-0.255	-0.163
-261.209	800.000	0.023	-0.072
-260.195	-56.767	-0.278	0.122
-259.180	-43.870	0.262	-0.131
-258.165	1.930	-0.093	0.067
-257.151	-200.000	0.026	-0.147
-256.136	-196.223	0.137	0.001
-255.122	516.228	-0.086	0.199
-254.107	-34.672	0.184	0.100
-253.092	-200.000	-0.012	-0.320
-252.078	222.999	0.136	-0.217
-251.063	449.450	-0.147	-0.323
-250.049	148.765	-0.118	0.159
-249.034	-51.161	0.271	-0.126
-248.019	-64.110	-0.137	0.056
-247.005	609.736	0.023	0.058
-245.990	-34.986	0.145	0.078
-244.976	-21.405	0.198	-0.120
-243.961	-200.000	0.002	0.338
-242.946	156.316	0.066	0.091
-241.932	800.000	0.038	0.107
-240.917	135.356	-0.221	0.286
-239.903	-94.504	-0.108	0.029
-238.888	800.000	0.037	-0.142
-237.873	533.612	0.105	0.247
-236.859	49.299	0.157	0.147
-235.844	-200.000	-0.025	0.238
-234.830	39.571	-0.093	-0.083
-233.815	178.648	0.168	-0.243
-232.800	93.009	-0.091	-0.102
-231.786	-49.428	0.219	-0.104
-230.771	-20.913	-0.406	0.247
-229.757	-150.866	-0.271	0.020
-228.742	-149.067	-0.158	-0.013
-227.727	-200.000	0.070	0.493
-226.713	128.097	0.093	0.117
-225.698	160.797	-0.245	0.339
-224.684	-99.044	-0.115	0.029
-223.669	-129.350	-0.092	0.013
-222.655	-90.425	0.281	0.081
-221.640	181.519	-0.188	-0.274
-220.625	-200.000	0.015	-0.137
-219.611	-148.819	-0.412	-0.033
-218.596	800.000	0.064	0.219
-217.582	-200.000	0.024	-0.379
-216.567	22.323	0.192	0.156
-215.552	-26.776	0.049	0.029
-214.538	-200.000	-0.055	0.423
-213.523	169.012	-0.120	-0.170
-212.509	82.882	0.151	0.163
-211.494	-200.000	-0.252	0.000
-210.479	123.623	-0.234	-0.291
-209.465	-64.471	-0.153	0.062
-208.450	691.387	-0.030	0.078
-207.436	193.216	0.239	0.358
-206.421	-64.390	0.333	-0.134
-205.406	800.000	0.106	0.371
-204.392	800.000	-0.064	0.206
-203.377	-117.531	0.301	0.054
-202.363	42.925	-0.154	-0.139
-201.348	35.738	0.195	0.170
-200.333	287.342	-0.015	0.027
-199.319	-200.000	0.023	-0.325
-198.304	-80.754	0.398	-0.131
-197.290	-28.687	-0.127	0.073
-196.275	800.000	0.148	-0.448
-195.260	15.741	-0.084	-0.066
-194.246	71.375	-0.116	0.120
-193.231	9.006	-0.165	0.123
-192.217	42.000	0.150	0.134
-191.202	232.708	0.086	-0.139
-190.187	-112.521	-0.204	-0.040
-189.173	-23.876	-0.193	0.115
-188.158	800.000	0.034	0.143
-187.144	11.845	-0.142	-0.108
-186.129	800.000	0.096	0.402
-185.114	800.000	-0.079	-0.234
-184.100	61.997	-0.218	0.215
-183.085	-87.083	0.214	-0.064
-182.071	647.967	-0.067	-0.170
-181.056	428.564	-0.066	-0.140
-180.042	-14.739	0.166	0.106
-179.027	-54.678	0.056	-0.025
-178.012	-200.000	0.008	-0.050
-176.998	-200.000	0.018	-0.294
-175.983	157.781	-0.092	-0.126
-174.969	-64.860	0.263	0.105
-173.954	-80.599	0.328	0.108
-172.939	471.038	0.237	0.527
-171.925	-150.334	0.300	-0.023
-170.910	-160.995	0.190	-0.010
-169.896	-1.838	0.230	-0.160
-168.881	-144.818	0.081	0.007
-167.866	800.000	0.114	0.318
-166.852	-146.791	-0.300	-0.026
-165.837	-69.205	-0.199	0.076
-164.823	800.000	-0.145	0.424
-163.808	-200.000	0.054	0.280
-162.793	-15.340	0.271	-0.171
-161.779	-200.000	0.013	0.086
-160.764	-39.270	-0.085	-0.044
-159.750	96.348	0.104	0.118
-158.735	-16.674	0.222	0.139
-157.720	-200.000	0.012	0.137
-156.706	158.391	0.187	0.256
-155.691	-145.090	0.330	0.030
-154.677	343.617	0.121	0.235
-153.662	167.969	-0.081	-0.114
-152.647	-91.314	0.077	0.022
-151.633	-46.863	-0.204	-0.099
-150.618	102.223	-0.159	-0.184
-149.604	-200.000	-0.010	-0.070
-148.589	-131.956	-0.322	0.041
-147.574	735.836	-0.082	0.217
-146.560	83.330	0.161	0.174
-145.545	104.788	-0.161	-0.187
-144.531	-129.069	-0.163	-0.023
-143.516	286.413	0.096	0.172
-142.502	661.894	-0.077	0.197
-141.487	38.487	0.062	-0.055
-140.472	-48.410	0.081	0.039
-139.458	82.878	-0.246	0.265
-138.443	-200.000	-0.068	0.297
-137.429	-65.069	-0.079	0.032
-136.414	-83.361	-0.373	0.118
-135.399	800.000	-0.023	0.092
-134.385	-200.000	-0.008	0.049
-133.370	722.115	-0.058	-0.152
-132.356	-150.665	-0.200	-0.015
-131.341	87.577	-0.121	-0.133
-130.326	800.000	-0.067	-0.288
-129.312	44.016	0.190	0.172
-128.297	3.296	-0.067	-0.048
-127.283	-80.541	-0.205	0.067
-126.268	249.813	0.062	-0.104
-125.253	-53.368	0.441	0.200
-124.239	-200.000	-0.017	-0.176
-123.224	128.925	0.027	-0.034
-122.210	800.000	-0.058	0.213
-121.195	37.175	-0.112	-0.098
