DTS Sentinel unit serial number:	SN413079Multiplexer serial number:	ORYXHardware model number:	OX4-SRSoftware version number:	ORYX F/W v4.00 Oryx Data Collector v3.7.2.0data status	okinstallation	princeton_trtdifferential loss correction	single-endedforward channel	channel 1reverse channel	N/Adate	2019/09/14time	16:30:35forward acquisition time	60.00reverse acquisition time	0.00gamma	496.2192k internal	0.2295k external	0.2295temperature offset calibration	1.0058default loss term (dB/km)	0.3790temperature slope calibration	1.0000multiplexer offset coefficient	1.0000multiplexer slope coefficient	1.0000fibre end	0.00T internal ref (°C)	38.00T ext. ref 1 (°C)	5.06T ext. ref 2 (°C)	33.78length (m)	temperature (°C)	Stokes	anti-Stokes-747.200	-171.544	0.227	-0.008
-746.185	152.626	-0.023	-0.032
-745.171	-52.870	-0.084	-0.040
-744.156	1.923	-0.287	0.211
-743.142	527.529	-0.066	-0.158
-742.127	143.934	0.129	0.176
-741.112	-46.445	0.208	0.104
-740.098	-93.975	-0.164	0.046
-739.083	-79.135	-0.345	0.120
-738.069	-200.000	0.065	-0.000
-737.054	-35.592	-0.443	0.246
-736.039	-44.886	-0.083	-0.042
-735.025	276.586	-0.049	-0.089
-734.010	-95.683	-0.263	-0.072
-732.996	-170.019	-0.237	0.009
-731.981	-98.804	-0.042	-0.011
-730.966	-43.137	-0.169	0.088
-729.952	-100.774	-0.164	-0.041
-728.937	-5.083	0.096	0.068
-727.923	800.000	-0.013	-0.039
-726.908	-139.476	-0.357	-0.039
-725.894	-145.181	-0.330	-0.031
-724.879	1.275	0.210	-0.154
-723.864	206.193	0.039	0.063
-722.850	-128.494	-0.331	0.048
-721.835	800.000	-0.016	-0.064
-720.821	56.227	-0.240	-0.238
-719.806	-19.258	0.312	-0.198
-718.791	249.542	0.126	-0.218
-717.777	72.382	-0.085	0.090
-716.762	168.064	0.100	0.145
-715.748	109.344	-0.223	0.273
-714.733	-5.349	-0.255	-0.179
-713.718	-180.681	0.199	0.004
-712.704	-200.000	0.017	-0.174
-711.689	48.622	0.243	0.232
-710.675	64.108	0.119	-0.122
-709.660	245.437	-0.315	-0.541
-708.645	-107.178	-0.374	-0.084
-707.631	-200.000	0.025	0.287
-706.616	15.717	0.080	-0.064
-705.602	-200.000	0.011	0.157
-704.587	-100.505	0.345	0.087
-703.572	62.738	-0.032	-0.033
-702.558	-60.187	-0.365	-0.159
-701.543	-139.794	-0.407	0.044
-700.529	-82.890	0.131	-0.043
-699.514	268.934	0.136	0.244
-698.499	-200.000	-0.012	0.079
-697.485	152.036	-0.252	0.351
-696.470	800.000	-0.136	0.388
-695.456	6.703	0.098	-0.074
-694.441	-31.173	-0.132	-0.076
-693.426	214.323	-0.123	-0.198
-692.412	-41.048	-0.552	-0.291
-691.397	28.281	0.081	0.070
-690.383	44.445	0.259	-0.243
-689.368	800.000	0.085	-0.258
-688.354	415.242	-0.079	-0.171
-687.339	-79.719	0.135	-0.046
-686.324	-132.044	0.058	-0.008
-685.310	-90.980	-0.106	-0.031
-684.295	12.590	0.061	-0.048
-683.281	-200.000	-0.018	0.138
-682.266	-200.000	0.006	-0.043
-681.251	43.052	0.205	-0.191
-680.237	-61.471	-0.172	0.074
-679.222	-200.000	-0.045	-0.250
-678.208	-96.245	-0.177	-0.048
-677.193	262.850	-0.043	0.076
-676.178	-22.573	-0.268	0.165
-675.164	-159.528	-0.154	-0.009
-674.149	-30.770	0.127	-0.073
-673.135	-79.285	0.269	0.093
-672.120	-62.598	0.456	-0.193
-671.105	-200.000	-0.011	-0.315
-670.091	-104.925	-0.365	0.085
-669.076	224.302	0.119	0.197
-668.062	-42.707	0.284	-0.147
-667.047	83.395	0.056	0.062
-666.032	-146.295	-0.299	0.027
-665.018	238.893	0.165	-0.280
-664.003	582.965	-0.037	-0.092
-662.989	35.545	-0.185	-0.166
-661.974	-130.776	-0.215	0.029
-660.959	-105.343	-0.113	-0.026
-659.945	211.819	0.112	-0.179
-658.930	-151.294	0.178	0.014
-657.916	-119.449	-0.431	-0.076
-656.901	-88.643	-0.134	-0.041
-655.886	-34.716	0.312	0.174
-654.872	-0.854	-0.213	0.154
-653.857	370.220	-0.051	-0.106
-652.843	800.000	0.053	0.170
-651.828	-200.000	-0.041	-0.231
-650.814	394.200	0.145	-0.307
-649.799	-115.125	-0.204	-0.039
-648.784	313.704	-0.060	-0.115
-647.770	1.099	-0.122	0.089
-646.755	-126.001	-0.133	0.020
-645.741	66.059	-0.036	-0.037
-644.726	-6.373	-0.236	-0.164
-643.711	139.153	0.141	-0.189
-642.697	-126.202	-0.452	-0.069
-641.682	-29.050	0.274	-0.160
-640.668	-200.000	-0.230	0.001
-639.653	590.706	0.106	0.267
-638.638	21.468	-0.244	-0.202
-637.624	77.351	-0.069	0.074
-636.609	61.353	0.331	-0.335
-635.595	498.941	0.104	0.244
-634.580	148.648	-0.289	0.398
-633.565	672.345	0.110	-0.290
-632.551	187.791	-0.273	-0.415
-631.536	-200.000	-0.023	-0.117
-630.522	800.000	-0.067	0.294
-629.507	-200.000	-0.025	-0.225
-628.492	-111.497	-0.038	0.008
-627.478	154.621	-0.112	0.157
-626.463	74.113	-0.017	0.018
-625.449	-200.000	-0.018	-0.131
-624.434	-200.000	0.013	-0.201
-623.419	59.055	0.120	-0.120
-622.405	-79.737	-0.142	0.049
-621.390	-170.205	0.165	0.006
-620.376	800.000	0.048	-0.184
-619.361	-61.281	0.131	0.056
-618.346	637.984	-0.112	0.290
-617.332	586.079	0.119	0.297
-616.317	-200.000	-0.003	-0.176
-615.303	-116.526	-0.327	0.061
-614.288	-20.650	0.166	0.104
-613.273	781.621	-0.104	-0.290
-612.259	-52.111	0.246	-0.116
-611.244	-61.754	0.187	-0.080
-610.230	-200.000	-0.026	0.323
-609.215	81.609	-0.055	0.061
-608.201	154.237	0.126	-0.176
-607.186	-40.224	-0.167	-0.089
-606.171	437.376	0.126	-0.280
-605.157	-71.968	-0.244	0.092
-604.142	-133.548	0.267	0.034
-603.128	455.616	-0.054	-0.122
-602.113	-87.709	-0.258	0.079
-601.098	-200.000	-0.033	-0.176
-600.084	12.078	0.092	-0.072
-599.069	100.910	0.153	0.181
-598.055	123.938	-0.033	0.042
-597.040	-153.739	-0.631	-0.044
-596.025	429.481	-0.055	0.121
-595.011	19.076	0.083	0.067
-593.996	-118.825	-0.070	-0.012
-592.982	-200.000	0.020	0.391
-591.967	-21.140	-0.218	-0.136
-590.952	-86.559	-0.187	-0.058
-589.938	-43.313	-0.057	0.029
-588.923	6.551	0.178	0.135
-587.909	-200.000	0.053	-0.255
-586.894	547.351	0.108	0.262
-585.879	-200.000	0.037	0.271
-584.865	-200.000	0.008	0.272
-583.850	-121.332	0.223	-0.038
-582.836	-200.000	0.026	-0.296
-581.821	116.247	-0.253	-0.315
-580.806	118.269	0.024	0.030
-579.792	-5.674	-0.250	-0.174
-578.777	380.995	-0.062	-0.129
-577.763	-59.608	0.124	-0.054
-576.748	800.000	-0.111	0.331
-575.733	67.314	-0.225	0.233
-574.719	-200.000	-0.006	-0.167
-573.704	-117.059	-0.327	-0.061
-572.690	178.041	-0.144	0.214
-571.675	0.028	0.297	-0.215
-570.661	-43.181	-0.230	-0.118
-569.646	-89.889	0.279	-0.083
-568.631	66.466	-0.321	-0.331
-567.617	203.672	0.116	0.183
-566.602	-193.472	0.117	-0.001
-565.588	-109.319	-0.361	-0.078
-564.573	625.400	-0.069	-0.178
-563.558	-102.841	-0.284	-0.069
-562.544	-137.730	0.068	0.008
-561.529	-48.623	0.169	-0.082
-560.515	-56.029	-0.183	0.083
-559.500	133.041	0.078	-0.102
-558.485	-139.410	-0.305	-0.033
-557.471	-200.000	0.017	0.157
-556.456	162.127	-0.152	0.216
-555.442	124.422	-0.242	-0.309
-554.427	570.131	0.154	-0.380
-553.412	-120.395	0.053	-0.009
-552.398	103.127	0.206	-0.245
-551.383	800.000	0.023	-0.078
-550.369	301.133	0.088	-0.165
-549.354	-12.409	-0.218	-0.144
-548.339	-64.946	0.175	0.072
-547.325	800.000	-0.021	-0.091
-546.310	87.080	-0.148	-0.166
-545.296	-88.018	-0.237	-0.072
-544.281	285.833	0.112	0.205
-543.266	-200.000	-0.138	0.000
-542.252	800.000	0.077	0.304
-541.237	-88.479	0.325	0.098
-540.223	-49.710	-0.017	-0.008
-539.208	-139.829	-0.264	-0.028
-538.193	-20.416	0.193	-0.120
-537.179	-10.049	-0.250	0.169
-536.164	94.475	-0.068	-0.079
-535.150	-200.000	-0.052	0.260
-534.135	-200.000	-0.018	0.112
-533.121	51.876	-0.222	0.215
-532.106	-198.584	0.413	-0.002
-531.091	93.962	-0.002	-0.003
-530.077	34.925	-0.100	0.088
-529.062	30.193	0.247	0.214
-528.048	-200.000	-0.023	-0.188
-527.033	167.457	0.201	0.290
-526.018	-19.130	-0.149	0.094
-525.004	-200.000	-0.047	-0.249
-523.989	19.836	-0.089	-0.073
-522.975	56.180	-0.293	0.288
-521.960	-200.000	-0.037	-0.271
-520.945	31.337	-0.114	0.099
-519.931	-200.000	0.035	0.256
-518.916	-54.746	0.443	0.203
-517.902	800.000	-0.079	-0.236
-516.887	800.000	0.040	-0.131
-515.872	469.927	-0.150	-0.342
-514.858	-96.109	-0.145	0.039
-513.843	-70.673	-0.243	-0.093
-512.829	249.880	0.075	0.130
-511.814	-4.710	-0.193	-0.135
-510.799	-3.071	0.055	-0.039
-509.785	800.000	-0.071	0.297
-508.770	-200.000	-0.001	-0.213
-507.756	64.252	0.173	0.177
-506.741	81.823	-0.108	-0.119
-505.726	800.000	-0.088	-0.301
-504.712	-156.208	-0.252	0.016
-503.697	-108.619	-0.201	-0.044
-502.683	-94.606	-0.151	0.042
-501.668	-31.487	0.271	0.154
-500.653	7.536	-0.143	0.108
-499.639	-116.653	0.212	-0.039
-498.624	428.403	0.185	-0.404
-497.610	-200.000	0.011	0.192
-496.595	58.291	0.269	0.267
-495.581	-33.345	0.045	-0.025
-494.566	21.285	-0.158	-0.130
-493.551	800.000	0.091	-0.302
-492.537	338.860	0.119	0.236
-491.522	382.981	0.009	0.018
-490.508	-65.293	-0.090	0.037
-489.493	-2.637	-0.314	-0.222
-488.478	31.078	-0.214	-0.186
-487.464	-200.000	-0.008	0.135
-486.449	-7.410	0.035	0.024
-485.435	66.311	0.254	-0.261
-484.420	81.188	0.090	-0.098
-483.405	800.000	0.013	-0.044
-482.391	-200.000	-0.025	-0.262
-481.376	23.692	-0.125	-0.104
-480.362	366.977	-0.156	0.319
-479.347	-96.154	0.220	-0.059
-478.332	-200.000	0.001	0.085
-477.318	-200.000	-0.002	0.013
-476.303	2.772	0.127	0.093
-475.289	800.000	0.072	-0.278
-474.274	-42.254	-0.203	0.105
-473.259	52.351	-0.190	0.183
-472.245	-150.577	-0.119	-0.009
-471.230	-200.000	-0.072	-0.353
-470.216	-18.182	0.099	0.063
-469.201	168.616	-0.074	-0.107
-468.186	339.597	-0.104	-0.205
-467.172	152.778	-0.051	0.070
-466.157	253.686	-0.052	0.090
-465.143	-109.285	-0.285	-0.061
-464.128	537.454	0.103	0.246
-463.113	-71.387	0.310	-0.117
-462.099	2.775	-0.056	0.041
-461.084	-130.052	0.134	-0.019
-460.070	-200.000	-0.053	0.480
-459.055	-25.281	-0.087	-0.052
-458.040	94.316	-0.121	0.139
-457.026	-200.000	0.032	-0.149
-456.011	-62.495	0.107	-0.045
-454.997	-48.185	-0.188	0.092
-453.982	-81.237	0.254	0.085
-452.968	-145.612	0.249	-0.023
-451.953	55.822	0.157	0.154
-450.938	500.349	0.062	0.145
-449.924	-200.000	0.003	-0.101
-448.909	105.793	0.152	-0.181
-447.895	-9.155	-0.278	0.188
-446.880	-40.438	-0.203	0.107
-445.865	-200.000	-0.017	-0.119
-444.851	38.516	0.087	0.078
-443.836	-86.683	-0.198	0.061
-442.822	-19.011	-0.175	-0.110
-441.807	88.622	0.213	-0.239
-440.792	-193.137	0.167	0.001
-439.778	-119.824	0.112	0.019
-438.763	462.797	-0.115	-0.259
-437.749	742.999	-0.074	0.202
-436.734	56.584	0.299	0.294
-435.719	-146.614	-0.472	-0.041
-434.705	-137.677	-0.088	0.010
-433.690	-101.496	0.112	-0.028
-432.676	800.000	-0.091	-0.335
-431.661	168.355	-0.194	0.279
-430.646	-200.000	0.032	-0.330
-429.632	79.360	0.130	0.141
-428.617	-77.997	-0.431	0.150
-427.603	800.000	-0.063	-0.266
-426.588	247.631	-0.015	0.026
-425.573	245.175	0.189	0.321
-424.559	441.720	-0.128	0.282
-423.544	800.000	-0.040	-0.175
-422.530	-48.577	0.123	-0.060
-421.515	-12.886	0.163	-0.107
-420.500	-200.000	0.030	-0.268
-419.486	156.103	0.270	0.376
-418.471	246.046	-0.098	-0.167
-417.457	-83.511	0.297	-0.096
-416.442	208.739	0.030	-0.048
-415.428	-94.986	-0.285	0.078
-414.413	44.048	-0.112	0.104
-413.398	109.382	0.114	-0.138
-412.384	800.000	-0.043	-0.175
-411.369	-106.281	0.201	0.045
-410.355	-82.541	0.113	0.037
-409.340	-29.080	-0.142	-0.082
-408.325	520.698	-0.100	0.237
-407.311	-170.152	0.390	-0.014
-406.296	-116.223	0.075	0.014
-405.282	-200.000	0.009	-0.429
-404.267	800.000	0.131	-0.444
-403.252	-200.000	0.057	-0.621
-402.238	31.604	0.181	0.157
-401.223	161.711	0.167	0.236
-400.209	-200.000	0.009	-0.046
-399.194	215.164	0.061	-0.098
-398.179	-129.980	0.285	0.039
-397.165	-112.880	-0.162	0.032
-396.150	-200.000	0.004	-0.022
-395.136	-112.525	-0.127	-0.026
-394.121	16.297	0.343	-0.273
-393.106	112.981	0.124	-0.151
-392.092	60.226	-0.155	-0.155
-391.077	12.829	0.112	-0.087
-390.063	-67.802	-0.139	-0.055
-389.048	-200.000	-0.026	0.183
-388.033	307.923	0.129	0.243
-387.019	410.447	0.034	-0.073
-386.004	742.873	-0.036	0.096
-384.990	-42.600	0.093	0.048
-383.975	-200.000	-0.048	-0.222
-382.960	564.776	0.030	0.074
-381.946	235.753	0.084	-0.140
-380.931	-200.000	-0.011	0.381
-379.917	222.949	0.151	0.246
-378.902	162.314	0.191	0.270
-377.888	-136.226	0.084	-0.010
-376.873	41.069	0.136	-0.124
-375.858	-7.424	0.207	0.141
-374.844	-128.514	0.496	0.071
-373.829	-200.000	-0.045	-0.342
-372.815	-90.544	-0.352	0.103
-371.800	-73.668	0.164	0.060
-370.785	-61.951	0.270	-0.114
-369.771	779.379	-0.133	0.366
-368.756	800.000	-0.033	0.100
-367.742	800.000	-0.109	-0.460
-366.727	-78.745	-0.341	0.117
-365.712	-200.000	-0.019	0.099
-364.698	-30.565	-0.137	0.078
-363.683	28.544	0.054	-0.046
-362.669	248.915	0.180	0.308
-361.654	-105.498	0.173	-0.040
-360.639	278.684	-0.111	0.199
-359.625	-200.000	-0.025	-0.185
-358.610	-158.025	0.043	0.003
-357.596	212.653	-0.178	-0.282
-356.581	-200.000	0.003	-0.206
-355.566	800.000	0.074	-0.277
-354.552	800.000	0.035	0.121
-353.537	-200.000	-0.025	0.117
-352.523	522.117	0.102	-0.240
-351.508	44.989	-0.093	0.086
-350.493	238.216	-0.079	-0.133
-349.479	-6.985	-0.079	-0.054
-348.464	32.284	0.135	-0.117
-347.450	-200.000	0.001	-0.126
-346.435	460.996	0.063	-0.141
-345.420	800.000	0.064	0.258
-344.406	800.000	0.031	0.090
-343.391	311.142	-0.097	0.183
-342.377	-116.989	0.203	-0.037
-341.362	171.145	0.138	-0.198
-340.348	210.130	0.152	0.239
-339.333	800.000	0.028	0.121
-338.318	214.736	-0.079	0.125
-337.304	255.962	0.187	0.323
-336.289	37.960	0.096	0.086
-335.275	-18.093	0.197	-0.124
-334.260	66.062	-0.162	0.166
-333.245	85.371	-0.192	0.212
-332.231	-200.000	0.001	-0.090
-331.216	142.804	0.168	0.224
-330.202	800.000	-0.078	0.275
-329.187	-126.667	-0.446	-0.066
-328.172	678.861	-0.051	-0.134
-327.158	54.094	-0.189	0.183
-326.143	-128.366	0.101	0.014
-325.129	-102.699	0.147	0.035
-324.114	800.000	-0.138	0.385
-323.099	128.085	-0.075	0.096
-322.085	-200.000	-0.010	0.086
-321.070	-97.614	-0.098	0.026
-320.056	-144.125	0.166	0.016
-319.041	68.559	-0.130	0.134
-318.026	788.541	0.076	0.211
-317.012	-187.535	0.090	0.001
-315.997	-200.000	0.001	0.194
-314.983	79.901	0.246	0.266
-313.968	-66.947	-0.082	0.033
-312.953	-200.000	0.023	-0.163
-311.939	-27.138	0.121	0.071
-310.924	16.815	0.123	-0.098
-309.910	40.026	-0.140	-0.126
-308.895	358.182	-0.122	0.245
-307.880	-33.437	-0.307	0.170
-306.866	71.679	-0.115	0.120
-305.851	800.000	0.103	-0.326
-304.837	234.951	0.079	-0.131
-303.822	-200.000	0.001	0.096
-302.807	-47.221	-0.114	-0.056
-301.793	-100.643	0.292	-0.073
-300.778	-94.046	-0.244	-0.067
-299.764	114.385	0.166	-0.203
-298.749	70.918	-0.110	0.115
-297.735	-200.000	0.083	-0.548
-296.720	177.627	-0.120	0.176
-295.705	661.842	0.088	0.228
-294.691	-150.925	0.182	0.014
-293.676	105.222	-0.168	-0.199
-292.662	-11.208	0.124	0.082
-291.647	-159.642	-0.301	-0.017
-290.632	-109.775	0.315	0.066
-289.618	27.055	0.179	-0.151
-288.603	-110.978	-0.316	0.065
-287.589	85.809	0.098	0.108
-286.574	8.105	-0.273	-0.206
-285.559	-22.646	0.154	0.094
-284.545	322.169	-0.060	0.114
-283.530	239.610	-0.300	-0.502
-282.516	-97.507	0.192	0.050
-281.501	371.119	-0.148	-0.300
-280.486	394.152	-0.145	-0.304
-279.472	-200.000	0.005	0.150
-278.457	-111.471	0.214	0.044
-277.443	-49.298	-0.237	0.113
-276.428	173.754	0.104	-0.150
-275.413	-200.000	0.008	0.233
-274.399	275.807	0.154	0.275
-273.384	-3.719	-0.235	-0.164
-272.370	800.000	-0.073	-0.213
-271.355	-139.871	-0.362	-0.038
-270.340	-14.312	-0.045	0.029
-269.326	-200.000	0.005	0.281
-268.311	95.213	0.309	0.353
-267.297	56.143	-0.261	-0.255
-266.282	-93.303	-0.224	-0.062
-265.267	-73.418	0.149	-0.055
-264.253	348.067	0.101	-0.200
-263.238	-200.000	0.004	0.160
-262.224	5.598	-0.296	-0.219
-261.209	800.000	0.066	-0.201
-260.195	283.605	-0.124	0.223
-259.180	106.874	0.207	-0.247
-258.165	800.000	-0.042	-0.120
-257.151	-53.909	-0.064	0.029
-256.136	46.718	-0.097	-0.091
-255.122	-200.000	-0.072	-0.341
-254.107	394.252	-0.089	-0.185
-253.092	-200.000	0.026	-0.476
-252.078	-7.430	0.172	-0.117
-251.063	-71.533	0.166	0.062
-250.049	145.823	-0.038	-0.051
-249.034	-94.226	-0.270	-0.074
-248.019	-156.383	0.274	-0.017
-247.005	-200.000	0.012	-0.229
-245.990	-147.419	0.290	-0.025
-244.976	110.886	0.364	0.439
-243.961	340.612	-0.071	0.139
-242.946	317.846	-0.145	0.275
-241.932	-200.000	0.010	0.194
-240.917	5.913	0.472	0.350
-239.903	621.514	-0.141	0.356
-238.888	119.367	0.210	0.261
-237.873	-200.000	0.030	-0.262
-236.859	-191.336	0.246	-0.003
-235.844	674.708	0.090	0.233
-234.830	45.539	0.212	-0.196
-233.815	-200.000	0.029	0.184
-232.800	95.306	0.065	-0.074
-231.786	-200.000	0.046	-0.238
-230.771	-200.000	-0.014	-0.121
-229.757	236.129	0.118	0.195
-228.742	800.000	0.028	0.112
-227.727	-40.570	0.203	0.105
-226.713	222.554	-0.255	-0.411
-225.698	642.439	-0.042	0.107
-224.684	12.979	-0.198	-0.153
-223.669	41.253	0.174	0.158
-222.655	33.904	0.223	0.194
-221.640	418.422	0.102	0.218
-220.625	-200.000	0.010	0.199
-219.611	30.930	0.211	0.181
-218.596	-150.869	0.569	0.043
-217.582	144.781	0.076	0.101
-216.567	189.119	-0.044	0.066
-215.552	115.394	-0.032	0.039
-214.538	14.438	0.266	-0.208
-213.523	-34.731	0.179	0.098
-212.509	301.642	0.088	-0.163
-211.494	-97.374	-0.249	-0.065
-210.479	143.162	-0.171	-0.227
-209.465	254.266	-0.125	0.215
-208.450	-91.587	0.274	-0.078
-207.436	239.977	0.092	0.154
-206.421	-41.735	-0.351	-0.181
-205.406	-3.010	0.156	0.109
-204.392	-110.947	0.390	0.080
-203.377	35.461	-0.294	0.258
-202.363	-162.634	-0.181	0.009
-201.348	47.890	0.018	0.017
-200.333	243.742	-0.053	0.089
-199.319	800.000	-0.069	0.291
-198.304	-200.000	0.039	0.257
-197.290	-96.500	-0.085	0.022
-196.275	-200.000	0.018	0.306
-195.260	800.000	0.050	0.144
-194.246	-200.000	-0.030	0.277
-193.231	-79.559	0.046	0.016
-192.217	-160.351	-0.093	-0.005
-191.202	-121.587	-0.445	-0.074
-190.187	5.290	0.334	-0.246
-189.173	-200.000	0.021	0.190
-188.158	-200.000	-0.053	-0.337
-187.144	-140.148	0.167	0.018
-186.129	-35.815	-0.184	-0.100
-185.114	-80.876	0.109	-0.036
-184.100	-60.448	0.298	0.127
-183.085	-53.968	0.433	0.197
-182.071	-67.116	-0.235	-0.093
-181.056	-117.301	0.491	-0.089
-180.042	-150.830	-0.121	-0.009
-179.027	93.920	-0.236	-0.268
-178.012	89.255	0.316	-0.353
-176.998	800.000	-0.042	0.178
-175.983	219.535	-0.144	0.230
-174.969	-77.760	0.115	-0.040
-173.954	163.505	-0.077	0.109
-172.939	81.872	-0.214	0.232
-171.925	-200.000	-0.045	0.341
-170.910	-45.394	-0.289	0.143
-169.896	254.648	0.052	-0.089
-168.881	-72.413	-0.059	0.022
-167.866	336.487	0.113	-0.218
-166.852	-179.541	0.198	0.004
-165.837	-42.753	0.206	0.105
-164.823	-49.704	-0.395	-0.188
-163.808	135.275	0.059	0.077
-162.793	-13.094	-0.234	-0.152
-161.779	-141.249	0.184	0.019
-160.764	-4.906	0.235	-0.162
-159.750	-200.000	-0.034	-0.170
-158.735	-200.000	0.006	-0.136
-157.720	161.263	0.216	-0.302
-156.706	121.099	-0.150	0.186
-155.691	79.576	-0.104	-0.111
-154.677	-200.000	-0.063	0.365
-153.662	-200.000	0.023	0.517
-152.647	-98.245	0.492	-0.126
-151.633	-88.948	-0.288	0.085
-150.618	-55.811	-0.138	-0.062
-149.604	54.031	0.186	-0.178
-148.589	132.128	0.179	-0.231
-147.574	-176.880	-0.077	0.002
-146.560	-126.860	0.340	0.050
-145.545	-200.000	-0.021	-0.160
-144.531	-200.000	-0.002	-0.215
-143.516	-46.830	0.187	0.092
-142.502	-200.000	0.008	-0.166
-141.487	53.741	0.031	-0.030
-140.472	68.194	0.092	-0.094
-139.458	-93.394	-0.208	-0.058
-138.443	-72.309	-0.205	-0.076
-137.429	135.372	0.068	-0.089
-136.414	-197.169	-0.165	0.001
-135.399	295.722	-0.134	0.246
-134.385	-13.781	0.377	0.243
-133.370	6.655	-0.139	-0.103
-132.356	-62.511	-0.413	0.171
-131.341	19.678	-0.285	-0.229
-130.326	-19.206	0.154	0.096
-129.312	-127.108	0.251	0.037
-128.297	397.895	0.073	-0.151
-127.283	-82.269	-0.182	0.059
-126.268	126.684	-0.155	0.196
-125.253	-156.423	-0.217	0.014
-124.239	-0.035	0.154	-0.109
-123.224	96.570	0.262	-0.299
-122.210	-173.702	-0.254	-0.008
-121.195	29.013	0.036	-0.031
