DTS Sentinel unit serial number:	SN413079Multiplexer serial number:	ORYXHardware model number:	OX4-SRSoftware version number:	ORYX F/W v4.00 Oryx Data Collector v3.7.2.0data status	okinstallation	princeton_trtdifferential loss correction	single-endedforward channel	channel 1reverse channel	N/Adate	2019/09/18time	00:02:35forward acquisition time	60.00reverse acquisition time	0.00gamma	496.2192k internal	0.2340k external	0.2340temperature offset calibration	0.9976default loss term (dB/km)	0.3790temperature slope calibration	1.0000multiplexer offset coefficient	1.0000multiplexer slope coefficient	1.0000fibre end	0.00T internal ref (°C)	23.81T ext. ref 1 (°C)	0.17T ext. ref 2 (°C)	17.26length (m)	temperature (°C)	Stokes	anti-Stokes-747.200	382.542	-0.109	0.224
-746.185	-200.000	-0.037	0.518
-745.171	800.000	0.072	0.210
-744.156	181.171	-0.105	0.155
-743.142	79.454	-0.090	0.097
-742.127	-200.000	0.082	0.405
-741.112	-63.033	0.245	-0.101
-740.098	23.256	-0.316	0.260
-739.083	-107.108	0.542	-0.120
-738.069	351.683	0.107	0.212
-737.054	40.133	-0.180	-0.162
-736.039	-165.350	-0.199	0.009
-735.025	-200.000	-0.063	-0.298
-734.010	-200.000	-0.017	0.093
-732.996	547.944	-0.047	0.113
-731.981	286.399	0.112	-0.203
-730.966	220.371	-0.156	0.251
-729.952	753.586	0.100	-0.272
-728.937	13.135	-0.317	-0.246
-727.923	-151.493	0.040	-0.003
-726.908	-117.494	-0.261	-0.047
-725.894	-99.387	-0.194	0.049
-724.879	144.704	0.128	-0.172
-723.864	-200.000	-0.036	-0.281
-722.850	-102.917	0.362	-0.086
-721.835	-155.607	-0.214	0.014
-720.821	800.000	-0.022	-0.091
-719.806	-99.713	-0.133	-0.033
-718.791	-18.222	0.155	-0.097
-717.777	139.268	-0.045	-0.060
-716.762	-103.523	-0.168	0.040
-715.748	202.203	0.035	0.054
-714.733	800.000	-0.112	0.314
-713.718	-174.908	0.084	-0.002
-712.704	-85.966	-0.159	-0.049
-711.689	35.982	0.184	-0.162
-710.675	-125.465	-0.514	-0.078
-709.660	58.848	-0.122	0.120
-708.645	105.330	0.326	0.386
-707.631	71.423	0.117	-0.122
-706.616	32.330	0.197	0.170
-705.602	190.406	-0.147	-0.221
-704.587	450.953	-0.130	-0.287
-703.572	-55.034	0.193	-0.087
-702.558	27.088	0.461	-0.387
-701.543	512.981	0.052	-0.121
-700.529	54.610	0.220	-0.212
-699.514	12.990	-0.059	-0.046
-698.499	408.907	0.094	0.199
-697.485	-33.939	-0.179	-0.099
-696.470	-19.399	-0.179	0.111
-695.456	800.000	0.031	-0.094
-694.441	258.504	0.057	0.097
-693.426	50.054	0.274	-0.259
-692.412	800.000	0.067	0.283
-691.397	477.631	-0.084	0.191
-690.383	9.991	-0.204	-0.155
-689.368	107.228	0.297	-0.353
-688.354	-19.849	0.210	0.130
-687.339	50.306	-0.049	0.046
-686.324	-91.900	-0.088	-0.025
-685.310	-135.358	0.155	-0.019
-684.295	-167.088	-0.321	-0.013
-683.281	26.964	0.057	0.048
-682.266	546.454	0.051	0.122
-681.251	800.000	-0.007	-0.024
-680.237	-200.000	-0.005	0.083
-679.222	-133.063	-0.101	0.013
-678.208	115.984	0.130	0.159
-677.193	27.200	-0.084	0.071
-676.178	-77.799	0.208	-0.072
-675.164	415.536	0.045	0.097
-674.149	246.142	-0.212	-0.358
-673.135	-91.836	-0.485	-0.138
-672.120	-67.671	-0.293	-0.115
-671.105	-27.426	0.056	-0.032
-670.091	2.585	0.233	0.169
-669.076	-16.886	-0.075	-0.048
-668.062	379.137	-0.108	0.220
-667.047	-200.000	-0.026	-0.212
-666.032	94.769	-0.142	-0.162
-665.018	800.000	0.070	0.202
-664.003	-7.858	0.234	0.158
-662.989	447.850	-0.081	-0.177
-661.974	-200.000	0.019	-0.127
-660.959	800.000	-0.022	0.094
-659.945	133.984	0.115	0.149
-658.930	362.888	0.114	-0.228
-657.916	-25.535	-0.124	0.073
-656.901	-57.567	0.199	-0.087
-655.886	-85.023	-0.203	-0.064
-654.872	800.000	-0.007	-0.028
-653.857	90.589	0.293	-0.328
-652.843	-113.249	-0.284	0.056
-651.828	-200.000	0.004	-0.205
-650.814	-59.986	-0.367	0.157
-649.799	-51.159	0.198	-0.093
-648.784	-164.961	0.206	0.009
-647.770	800.000	-0.063	-0.187
-646.755	82.181	-0.152	-0.164
-645.741	800.000	-0.027	0.096
-644.726	-47.037	-0.369	-0.180
-643.711	-162.266	0.048	-0.002
-642.697	109.561	-0.144	-0.172
-641.682	-200.000	0.003	0.101
-640.668	335.338	0.129	0.249
-639.653	218.262	0.145	-0.231
-638.638	670.861	-0.103	-0.266
-637.624	-72.065	-0.182	0.067
-636.609	41.803	0.111	0.100
-635.595	302.062	0.170	-0.313
-634.580	-128.500	0.152	-0.022
-633.565	771.593	0.061	0.165
-632.551	-200.000	0.018	0.145
-631.536	-60.500	-0.242	-0.103
-630.522	-131.006	-0.303	0.040
-629.507	106.010	0.130	-0.154
-628.492	-200.000	-0.021	-0.153
-627.478	800.000	-0.001	-0.002
-626.463	-66.060	0.182	-0.073
-625.449	-44.572	-0.067	0.033
-624.434	-142.405	-0.300	0.030
-623.419	346.805	-0.094	0.185
-622.405	800.000	0.054	0.190
-621.390	375.506	0.038	0.078
-620.376	-62.829	-0.436	0.180
-619.361	-83.212	0.196	0.063
-618.346	-95.161	-0.074	0.020
-617.332	8.013	-0.178	-0.133
-616.317	138.079	-0.022	-0.029
-615.303	38.280	-0.165	-0.146
-614.288	151.052	0.163	-0.221
-613.273	268.851	0.121	0.212
-612.259	-200.000	0.026	0.209
-611.244	800.000	-0.036	0.107
-610.230	-36.555	0.166	-0.089
-609.215	32.719	-0.201	-0.173
-608.201	-27.983	0.091	0.053
-607.186	-200.000	-0.043	-0.353
-606.171	-106.970	-0.135	-0.030
-605.157	684.752	0.042	-0.109
-604.142	-200.000	0.044	-0.245
-603.128	48.443	0.202	-0.188
-602.113	-77.915	-0.195	-0.067
-601.098	-136.515	0.373	0.043
-600.084	-97.703	-0.293	0.076
-599.069	-58.187	0.032	0.014
-598.055	379.068	0.105	-0.215
-597.040	269.366	0.042	-0.073
-596.025	14.615	0.157	-0.122
-595.011	45.411	0.028	-0.026
-593.996	-78.185	-0.227	-0.078
-592.982	-200.000	0.035	-0.227
-591.967	-200.000	-0.015	0.081
-590.952	113.110	-0.251	-0.303
-589.938	-200.000	0.026	0.177
-588.923	61.547	0.174	0.172
-587.909	-158.693	-0.148	0.008
-586.894	-11.465	-0.199	0.131
-585.879	89.660	0.277	0.308
-584.865	-26.879	-0.120	-0.070
-583.850	-188.061	0.186	0.002
-582.836	413.548	-0.039	0.082
-581.821	728.855	0.065	-0.172
-580.806	-79.127	-0.112	-0.038
-579.792	-200.000	-0.019	0.237
-578.777	416.061	-0.087	-0.185
-577.763	-148.397	0.250	-0.020
-576.748	-200.000	-0.019	-0.270
-575.733	26.739	0.203	-0.169
-574.719	-31.100	-0.387	-0.217
-573.704	64.454	0.089	0.089
-572.690	-127.363	0.307	-0.045
-571.675	-111.050	0.110	0.023
-570.661	800.000	-0.055	0.176
-569.646	-108.486	-0.217	-0.047
-568.631	189.601	0.085	-0.128
-567.617	582.101	-0.066	0.161
-566.602	-67.967	-0.261	-0.101
-565.588	-141.565	-0.155	-0.016
-564.573	6.656	-0.022	-0.016
-563.558	-148.423	0.438	-0.036
-562.544	-33.299	-0.089	0.049
-561.529	188.135	0.166	-0.246
-560.515	-73.971	-0.169	-0.061
-559.500	-68.925	-0.034	-0.013
-558.485	-116.236	0.328	0.061
-557.471	194.963	-0.121	0.183
-556.456	101.204	0.181	0.209
-555.442	-200.000	0.010	0.418
-554.427	-200.000	0.018	0.385
-553.412	-120.200	0.279	-0.047
-552.398	31.311	-0.192	-0.164
-551.383	342.614	0.121	-0.236
-550.369	-94.454	0.178	-0.048
-549.354	61.954	0.176	-0.175
-548.339	23.834	-0.196	0.161
-547.325	-170.552	0.219	0.008
-546.310	28.059	0.120	-0.101
-545.296	13.207	0.152	-0.117
-544.281	99.332	0.061	0.070
-543.266	32.282	0.129	0.111
-542.252	596.415	0.023	0.056
-541.237	-41.552	-0.109	-0.056
-540.223	-200.000	-0.064	0.305
-539.208	-200.000	-0.035	-0.217
-538.193	800.000	0.050	-0.159
-537.179	-200.000	-0.009	0.276
-536.164	285.315	-0.130	0.233
-535.150	-54.223	-0.131	-0.059
-534.135	-97.590	0.212	0.055
-533.121	-101.341	0.155	-0.038
-532.106	230.667	-0.124	0.201
-531.091	22.014	0.025	-0.020
-530.077	-157.586	-0.092	-0.005
-529.062	-200.000	-0.094	0.460
-528.048	-200.000	0.054	0.254
-527.033	41.845	0.113	-0.102
-526.018	-122.370	0.091	-0.015
-525.004	363.625	0.063	-0.126
-523.989	46.986	-0.253	-0.234
-522.975	684.497	0.063	0.163
-521.960	151.147	-0.070	0.095
-520.945	8.291	0.140	-0.105
-519.931	-23.324	0.229	0.137
-518.916	-34.082	0.107	-0.059
-517.902	614.402	0.072	0.180
-516.887	800.000	-0.096	0.295
-515.872	-90.979	-0.306	0.088
-514.858	-200.000	0.037	-0.355
-513.843	-103.324	-0.270	-0.063
-512.829	193.729	-0.106	-0.159
-511.814	137.495	-0.196	0.254
-510.799	-83.266	0.401	0.128
-509.785	-10.102	-0.104	0.069
-508.770	-200.000	0.012	0.264
-507.756	800.000	-0.077	0.239
-506.741	-55.661	-0.246	-0.109
-505.726	-200.000	-0.035	0.397
-504.712	-200.000	-0.003	0.173
-503.697	-163.690	0.222	-0.010
-502.683	-200.000	-0.026	0.295
-501.668	-43.720	0.328	0.164
-500.653	-15.772	-0.461	0.292
-499.639	195.625	-0.078	-0.118
-498.624	-200.000	-0.048	-0.395
-497.610	-104.383	0.174	-0.040
-496.595	9.539	0.192	0.144
-495.581	-32.230	-0.282	0.157
-494.566	114.660	0.134	-0.162
-493.551	215.513	-0.067	-0.105
-492.537	229.004	0.081	-0.131
-491.522	-47.256	0.176	-0.085
-490.508	116.143	-0.194	-0.236
-489.493	280.541	-0.098	0.173
-488.478	-36.103	0.345	-0.185
-487.464	-200.000	-0.007	-0.084
-486.449	33.313	-0.164	0.141
-485.435	239.872	0.084	-0.139
-484.420	-168.647	0.252	-0.009
-483.405	-158.300	0.144	0.008
-482.391	-103.801	-0.360	-0.084
-481.376	138.112	0.130	-0.169
-480.362	413.320	0.028	-0.060
-479.347	258.723	-0.118	0.201
-478.332	220.018	0.292	0.464
-477.318	-87.473	-0.120	-0.036
-476.303	-108.078	0.171	0.037
-475.289	246.818	0.073	0.122
-474.274	376.561	-0.111	0.224
-473.259	-119.579	0.021	-0.004
-472.245	-68.151	-0.189	-0.073
-471.230	-140.434	-0.281	0.029
-470.216	-200.000	-0.006	0.133
-469.201	-200.000	-0.017	-0.272
-468.186	-93.893	-0.306	0.083
-467.172	56.661	0.099	0.095
-466.157	-1.590	0.276	0.193
-465.143	-171.919	0.179	-0.006
-464.128	272.204	-0.079	-0.139
-463.113	574.434	-0.145	-0.352
-462.099	201.879	0.182	0.278
-461.084	-94.772	-0.254	-0.068
-460.070	-200.000	-0.023	-0.219
-459.055	92.517	0.160	0.179
-458.040	271.384	-0.078	0.136
-457.026	-158.569	-0.104	0.006
-456.011	21.327	0.242	0.195
-454.997	265.726	0.064	0.111
-453.982	800.000	-0.044	0.153
-452.968	144.012	0.045	0.059
-451.953	277.572	0.044	0.078
-450.938	-188.110	0.094	-0.001
-449.924	-200.000	0.031	0.236
-448.909	-69.843	0.262	0.099
-447.895	-149.210	0.197	-0.016
-446.880	-55.812	0.151	-0.067
-445.865	-200.000	0.011	0.140
-444.851	190.181	-0.110	0.163
-443.836	-200.000	-0.017	-0.178
-442.822	-200.000	-0.009	0.285
-441.807	-200.000	-0.010	-0.139
-440.792	188.480	0.115	0.170
-439.778	-200.000	-0.019	-0.118
-438.763	-95.268	0.188	0.050
-437.749	50.050	0.282	-0.264
-436.734	35.538	0.170	-0.148
-435.719	19.982	-0.117	-0.094
-434.705	39.307	-0.132	-0.117
-433.690	800.000	0.069	0.212
-432.676	2.537	0.132	0.095
-431.661	42.478	-0.056	0.050
-430.646	472.222	-0.099	-0.222
-429.632	51.372	0.109	-0.103
-428.617	-49.195	0.128	-0.060
-427.603	-68.551	-0.172	-0.066
-426.588	-6.424	0.127	0.086
-425.573	-200.000	-0.011	-0.284
-424.559	24.664	-0.182	-0.149
-423.544	113.670	0.121	-0.146
-422.530	-200.000	-0.043	-0.260
-421.515	-75.529	0.136	-0.048
-420.500	143.995	0.173	-0.229
-419.486	-200.000	0.010	0.091
-418.471	243.144	-0.132	-0.219
-417.457	-7.542	0.286	0.192
-416.442	-200.000	-0.038	0.281
-415.428	800.000	-0.127	-0.412
-414.413	150.924	-0.156	-0.210
-413.398	113.569	-0.008	0.010
-412.384	-42.551	-0.145	-0.073
-411.369	18.122	-0.244	0.193
-410.355	133.456	0.309	-0.396
-409.340	317.843	0.102	-0.191
-408.325	66.556	0.094	0.095
-407.311	800.000	-0.122	-0.493
-406.296	-116.026	-0.201	-0.037
-405.282	800.000	0.142	-0.479
-404.267	-145.852	-0.250	-0.022
-403.252	-200.000	0.019	0.122
-402.238	-10.471	-0.300	0.197
-401.223	800.000	-0.073	-0.264
-400.209	91.416	-0.156	-0.174
-399.194	-143.932	-0.454	0.042
-398.179	301.942	-0.086	0.157
-397.165	-16.725	0.305	-0.191
-396.150	27.328	0.108	-0.090
-395.136	-121.695	-0.190	-0.031
-394.121	-148.457	0.289	-0.023
-393.106	345.450	0.059	-0.115
-392.092	52.691	-0.161	-0.153
-391.077	-200.000	-0.027	0.177
-390.063	48.128	0.104	-0.096
-389.048	-128.981	0.120	0.017
-388.033	800.000	0.178	0.586
-387.019	-144.003	0.165	0.015
-386.004	-200.000	0.002	-0.410
-384.990	174.648	0.152	-0.217
-383.975	48.635	0.162	0.150
-382.960	-64.963	-0.400	-0.160
-381.946	146.701	-0.159	0.212
-380.931	-49.100	0.033	-0.015
-379.917	-200.000	-0.047	-0.251
-378.902	-200.000	-0.048	0.255
-377.888	-200.000	0.041	-0.220
-376.873	-104.479	-0.397	-0.091
-375.858	-123.162	-0.276	-0.044
-374.844	-48.286	-0.127	0.060
-373.829	-200.000	-0.022	-0.183
-372.815	11.012	0.309	0.233
-371.800	800.000	-0.070	-0.293
-370.785	-150.336	-0.532	0.041
-369.771	-59.125	0.309	0.132
-368.756	-172.012	0.241	-0.008
-367.742	29.362	-0.124	-0.104
-366.727	409.104	0.039	-0.082
-365.712	353.315	0.075	0.147
-364.698	-110.538	-0.069	-0.014
-363.683	87.566	0.081	-0.088
-362.669	800.000	-0.080	-0.329
-361.654	-46.906	-0.150	-0.072
-360.639	567.803	-0.122	-0.293
-359.625	-200.000	-0.012	-0.076
-358.610	-107.719	0.140	0.030
-357.596	-19.927	0.177	-0.108
-356.581	-200.000	0.016	-0.223
-355.566	-200.000	0.062	0.292
-354.552	-63.623	0.307	0.124
-353.537	-9.428	-0.158	0.104
-352.523	493.739	-0.155	0.351
-351.508	-77.714	0.277	0.095
-350.493	800.000	0.040	-0.130
-349.479	58.370	-0.163	-0.158
-348.464	-87.537	-0.095	-0.028
-347.450	-200.000	0.006	-0.274
-346.435	571.818	-0.072	0.172
-345.420	-25.203	-0.158	0.092
-344.406	6.675	0.215	0.158
-343.391	-107.495	0.263	-0.057
-342.377	-151.969	-0.159	0.011
-341.362	-56.562	0.065	-0.028
-340.348	-26.957	-0.302	-0.174
-339.333	-17.285	-0.173	0.108
-338.318	-200.000	-0.036	0.347
-337.304	6.671	0.169	-0.124
-336.289	-117.489	0.329	0.059
-335.275	294.556	-0.096	-0.173
-334.260	-61.706	0.317	0.131
-333.245	800.000	-0.042	-0.122
-332.231	-18.110	0.121	-0.075
-331.216	118.842	-0.180	0.220
-330.202	296.641	0.159	0.288
-329.187	-12.961	-0.301	-0.193
-328.172	-200.000	0.011	0.127
-327.158	-105.388	-0.175	-0.039
-326.143	-2.808	0.139	0.096
-325.129	-97.076	0.179	0.046
-324.114	347.601	-0.068	-0.132
-323.099	-58.877	0.246	-0.105
-322.085	-200.000	-0.023	-0.203
-321.070	113.577	-0.044	-0.053
-320.056	46.333	-0.045	-0.041
-319.041	22.746	0.274	0.221
-318.026	115.356	-0.160	-0.192
-317.012	558.743	-0.096	0.228
-315.997	16.966	-0.196	0.153
-314.983	165.058	0.100	0.139
-313.968	18.568	0.050	0.039
-312.953	-134.767	0.170	0.020
-311.939	2.103	0.127	-0.090
-310.924	-200.000	0.002	-0.011
-309.910	193.707	0.165	-0.246
-308.895	800.000	0.056	0.210
-307.880	-7.234	-0.123	0.082
-306.866	-91.494	-0.090	0.025
-305.851	800.000	-0.099	-0.402
-304.837	800.000	0.051	0.180
-303.822	82.726	0.111	0.119
-302.807	800.000	-0.058	0.224
-301.793	-20.488	-0.189	0.115
-300.778	-200.000	0.003	-0.040
-299.764	-200.000	0.040	-0.178
-298.749	204.631	-0.246	-0.377
-297.735	-10.080	-0.120	-0.078
-296.720	-32.734	0.145	-0.080
-295.705	647.941	-0.101	0.256
-294.691	72.060	-0.152	0.156
-293.676	-12.977	0.216	0.139
-292.662	-84.628	-0.056	0.018
-291.647	-200.000	-0.021	0.353
-290.632	-41.632	0.145	0.073
-289.618	-10.608	-0.148	-0.097
-288.603	126.010	0.159	-0.198
-287.589	800.000	0.029	-0.115
-286.574	-200.000	0.058	0.298
-285.559	-200.000	0.002	-0.195
-284.545	-117.078	-0.250	-0.045
-283.530	233.600	-0.152	-0.246
-282.516	-200.000	0.003	0.226
-281.501	800.000	-0.042	0.123
-280.486	800.000	0.094	0.268
-279.472	-200.000	-0.024	0.232
-278.457	-200.000	-0.008	0.074
-277.443	800.000	0.027	-0.106
-276.428	413.697	-0.094	0.198
-275.413	-85.833	-0.251	0.077
-274.399	22.461	0.055	-0.044
-273.384	-110.796	0.535	0.109
-272.370	-200.000	-0.041	-0.239
-271.355	-162.140	-0.102	0.005
-270.340	-129.623	-0.215	-0.029
-269.326	47.697	-0.311	-0.286
-268.311	-200.000	0.023	-0.103
-267.297	-70.291	0.271	0.101
-266.282	-6.694	0.183	-0.122
-265.267	-89.750	-0.088	0.025
-264.253	-130.542	0.338	0.045
-263.238	-72.990	0.081	-0.029
-262.224	-21.085	-0.210	-0.127
-261.209	-200.000	-0.018	-0.096
-260.195	79.242	0.265	0.279
-259.180	203.689	-0.173	0.264
-258.165	-160.817	0.037	0.002
-257.151	-200.000	0.027	-0.193
-256.136	528.473	-0.093	-0.216
-255.122	93.397	-0.118	-0.131
-254.107	-171.809	-0.041	0.001
-253.092	-200.000	-0.053	-0.413
-252.078	119.861	-0.232	-0.282
-251.063	16.579	-0.089	-0.069
-250.049	551.729	-0.093	0.219
-249.034	-83.064	0.291	-0.092
-248.019	-79.970	-0.233	-0.077
-247.005	-200.000	0.046	0.336
-245.990	111.012	-0.257	0.304
-244.976	-74.107	0.180	-0.064
-243.961	133.553	-0.207	0.263
-242.946	137.775	0.140	0.181
-241.932	81.325	-0.081	0.086
-240.917	800.000	-0.094	0.303
-239.903	74.656	0.083	-0.085
-238.888	-105.979	0.309	0.068
-237.873	77.555	-0.067	0.070
-236.859	-80.105	-0.154	0.051
-235.844	102.530	-0.134	-0.154
-234.830	234.877	-0.074	0.120
-233.815	-130.806	-0.277	-0.037
-232.800	202.650	-0.007	-0.011
-231.786	-200.000	0.048	-0.214
-230.771	-172.818	0.174	0.005
-229.757	-122.101	-0.096	0.015
-228.742	2.951	0.078	0.056
-227.727	-72.651	0.027	-0.010
-226.713	-82.539	-0.142	0.045
-225.698	286.575	0.106	0.189
-224.684	-200.000	-0.088	0.467
-223.669	507.241	-0.083	0.189
-222.655	-91.994	0.331	-0.092
-221.640	-200.000	0.004	-0.141
-220.625	-60.582	-0.264	-0.110
-219.611	800.000	-0.041	-0.115
-218.596	354.463	0.086	0.167
-217.582	-69.703	0.189	0.071
-216.567	112.352	-0.246	-0.293
-215.552	-114.499	0.183	-0.035
-214.538	-140.313	-0.418	0.043
-213.523	800.000	-0.049	-0.208
-212.509	800.000	0.075	0.235
-211.494	-146.788	0.159	-0.014
-210.479	-10.892	0.065	0.042
-209.465	172.378	0.097	0.137
-208.450	95.628	-0.210	0.235
-207.436	-200.000	0.082	0.451
-206.421	7.246	0.145	-0.106
-205.406	-59.401	-0.093	-0.039
-204.392	157.330	-0.176	-0.239
-203.377	-93.085	0.156	-0.043
-202.363	-200.000	-0.005	-0.060
-201.348	-87.065	0.250	0.075
-200.333	-200.000	0.029	0.265
-199.319	-41.033	-0.127	-0.065
-198.304	-200.000	0.004	0.180
-197.290	-200.000	0.000	-0.401
-196.275	-13.275	-0.137	-0.088
-195.260	-107.068	0.467	0.101
-194.246	-200.000	0.031	0.282
-193.231	-155.608	0.388	-0.024
-192.217	-27.693	-0.023	0.013
-191.202	-200.000	-0.050	-0.336
-190.187	800.000	0.036	0.118
-189.173	630.394	0.108	-0.268
-188.158	346.594	-0.081	0.156
-187.144	-78.981	0.134	-0.045
-186.129	49.642	0.142	-0.131
-185.114	148.649	0.031	-0.041
-184.100	-158.969	0.218	-0.012
-183.085	-200.000	0.044	0.201
-182.071	-147.304	-0.320	-0.027
-181.056	-71.031	0.174	-0.064
-180.042	-200.000	-0.030	-0.203
-179.027	240.847	-0.039	0.064
-178.012	-138.299	0.272	0.030
-176.998	-99.103	0.241	0.060
-175.983	-23.954	-0.224	-0.131
-174.969	125.921	-0.022	-0.028
-173.954	195.046	-0.061	-0.090
-172.939	800.000	-0.102	0.320
-171.925	-150.555	-0.014	-0.001
-170.910	-2.241	0.100	-0.069
-169.896	-63.658	-0.283	-0.114
-168.881	173.206	-0.069	-0.097
-167.866	82.237	0.123	0.130
-166.852	233.665	-0.102	0.165
-165.837	203.840	-0.122	0.185
-164.823	114.177	-0.140	-0.167
-163.808	129.719	0.150	-0.188
-162.793	307.524	0.050	0.091
-161.779	-85.425	-0.408	-0.124
-160.764	450.528	-0.134	0.289
-159.750	-200.000	0.038	0.322
-158.735	800.000	-0.040	-0.120
-157.720	62.584	-0.287	-0.281
-156.706	-81.020	-0.127	-0.041
-155.691	-45.751	0.037	0.018
-154.677	712.833	0.147	0.382
-153.662	68.792	-0.049	-0.049
-152.647	-147.443	-0.220	-0.018
-151.633	196.444	0.062	0.093
-150.618	-26.632	0.278	-0.159
-149.604	800.000	-0.068	-0.259
-148.589	55.530	0.107	0.101
-147.574	152.012	0.146	-0.195
-146.560	714.327	0.104	0.269
-145.545	788.971	0.017	-0.045
-144.531	-185.958	0.205	-0.003
-143.516	-91.998	-0.118	0.033
-142.502	766.695	0.037	-0.098
-141.487	-104.582	-0.272	0.061
-140.472	-97.739	-0.212	0.054
-139.458	-200.000	-0.060	0.312
-138.443	40.583	-0.175	0.154
-137.429	-44.459	0.190	-0.093
-136.414	193.502	-0.130	0.193
-135.399	-143.246	-0.118	-0.011
-134.385	800.000	-0.079	0.217
-133.370	59.217	-0.119	-0.115
-132.356	-123.637	0.414	0.064
-131.341	91.318	0.038	-0.041
-130.326	-200.000	0.033	-0.141
-129.312	12.403	-0.183	0.138
-128.297	-1.867	0.134	-0.092
-127.283	263.705	0.097	-0.165
-126.268	98.776	-0.114	-0.128
-125.253	149.040	0.152	0.201
-124.239	468.824	0.110	-0.242
-123.224	800.000	0.034	-0.137
-122.210	800.000	-0.103	-0.290
