DTS Sentinel unit serial number:	SN413079Multiplexer serial number:	ORYXHardware model number:	OX4-SRSoftware version number:	ORYX F/W v4.00 Oryx Data Collector v3.7.2.0data status	okinstallation	princeton_trtdifferential loss correction	single-endedforward channel	channel 1reverse channel	N/Adate	2019/09/18time	03:10:35forward acquisition time	60.00reverse acquisition time	0.00gamma	496.2192k internal	0.2340k external	0.2340temperature offset calibration	0.9976default loss term (dB/km)	0.3790temperature slope calibration	1.0000multiplexer offset coefficient	1.0000multiplexer slope coefficient	1.0000fibre end	0.00T internal ref (°C)	22.75T ext. ref 1 (°C)	0.17T ext. ref 2 (°C)	16.89length (m)	temperature (°C)	Stokes	anti-Stokes-747.200	-24.724	0.250	0.149
-746.185	53.967	-0.149	-0.144
-745.171	-97.808	-0.151	-0.039
-744.156	-101.377	-0.388	-0.095
-743.142	-46.977	0.127	-0.062
-742.127	-83.951	-0.415	0.132
-741.112	-35.240	0.249	0.136
-740.098	-200.000	0.015	-0.111
-739.083	-198.427	0.383	-0.002
-738.069	-43.396	-0.119	0.060
-737.054	-79.043	0.089	0.030
-736.039	-34.026	-0.294	-0.162
-735.025	-38.509	-0.084	0.044
-734.010	-20.879	-0.333	-0.204
-732.996	23.462	-0.170	-0.140
-731.981	-99.797	-0.278	0.070
-730.966	-200.000	-0.042	-0.188
-729.952	-200.000	0.004	-0.070
-728.937	800.000	0.037	-0.137
-727.923	-200.000	0.011	-0.398
-726.908	311.031	-0.178	0.334
-725.894	-14.901	0.055	0.035
-724.879	134.801	0.122	0.159
-723.864	120.674	0.142	0.177
-722.850	-200.000	-0.007	-0.357
-721.835	274.836	-0.019	-0.035
-720.821	-200.000	-0.019	0.192
-719.806	800.000	-0.081	-0.235
-718.791	47.534	-0.039	0.037
-717.777	17.633	-0.202	-0.161
-716.762	706.901	-0.081	-0.215
-715.748	-200.000	0.021	-0.341
-714.733	-47.411	-0.082	0.040
-713.718	-32.229	0.176	-0.098
-712.704	-83.122	-0.241	0.077
-711.689	108.492	0.197	-0.236
-710.675	-23.184	0.094	-0.056
-709.660	-6.148	-0.014	0.009
-708.645	662.913	0.173	0.448
-707.631	22.896	-0.253	-0.207
-706.616	-33.633	0.146	0.080
-705.602	56.762	0.077	-0.075
-704.587	-100.196	0.121	0.030
-703.572	-14.562	0.115	-0.074
-702.558	-200.000	0.012	-0.251
-701.543	166.872	-0.159	-0.226
-700.529	493.408	0.049	0.113
-699.514	31.715	0.209	-0.180
-698.499	20.624	0.357	-0.289
-697.485	-47.956	-0.265	-0.128
-696.470	-22.357	-0.186	0.113
-695.456	186.167	-0.134	-0.200
-694.441	-44.222	0.169	0.085
-693.426	203.248	0.200	0.310
-692.412	-37.591	0.112	-0.060
-691.397	238.039	-0.110	-0.183
-690.383	800.000	0.030	-0.090
-689.368	-89.935	-0.171	-0.050
-688.354	107.919	-0.033	-0.040
-687.339	-200.000	-0.007	-0.058
-686.324	-87.637	-0.150	0.045
-685.310	69.503	0.037	0.038
-684.295	-4.570	-0.195	-0.135
-683.281	-119.923	-0.019	-0.003
-682.266	-44.755	-0.155	-0.077
-681.251	-157.484	-0.110	0.007
-680.237	59.621	-0.140	-0.138
-679.222	-144.252	0.233	0.022
-678.208	800.000	0.034	0.124
-677.193	-200.000	-0.032	-0.362
-676.178	78.237	-0.102	-0.109
-675.164	-108.258	0.236	0.051
-674.149	-86.428	-0.297	0.091
-673.135	-200.000	0.026	-0.191
-672.120	81.251	-0.186	-0.201
-671.105	800.000	0.030	0.086
-670.091	1.062	0.268	-0.192
-669.076	-7.817	-0.209	-0.141
-668.062	-122.381	-0.170	0.028
-667.047	4.182	-0.168	-0.123
-666.032	-48.829	-0.375	-0.180
-665.018	225.850	-0.118	0.192
-664.003	-43.780	0.340	0.171
-662.989	74.526	0.156	0.164
-661.974	41.505	0.131	-0.119
-660.959	39.583	0.213	-0.190
-659.945	-200.000	0.008	0.149
-658.930	-3.062	-0.014	0.010
-657.916	800.000	0.052	0.158
-656.901	24.802	0.236	-0.196
-655.886	800.000	-0.133	-0.502
-654.872	14.456	0.394	-0.307
-653.857	-200.000	-0.002	-0.089
-652.843	531.553	0.227	-0.537
-651.828	-200.000	-0.036	-0.286
-650.814	112.742	0.089	-0.108
-649.799	800.000	0.069	-0.218
-648.784	81.613	-0.126	-0.136
-647.770	800.000	-0.021	-0.078
-646.755	-100.489	-0.425	0.105
-645.741	-39.229	0.267	-0.140
-644.726	15.637	-0.298	0.234
-643.711	-47.536	-0.330	0.160
-642.697	-97.307	0.151	-0.039
-641.682	-87.096	-0.192	-0.058
-640.668	-175.373	-0.398	0.011
-639.653	-110.120	-0.127	-0.027
-638.638	-104.063	0.087	-0.020
-637.624	-38.358	0.136	-0.072
-636.609	-2.190	-0.019	-0.013
-635.595	-51.431	0.131	0.061
-634.580	-178.888	-0.549	-0.012
-633.565	-98.393	0.006	-0.002
-632.551	7.779	-0.330	-0.247
-631.536	133.978	0.125	-0.162
-630.522	53.460	0.087	-0.084
-629.507	-161.822	0.149	-0.008
-628.492	-143.205	-0.146	-0.014
-627.478	-200.000	-0.006	-0.047
-626.463	129.675	0.092	0.118
-625.449	148.234	-0.110	0.148
-624.434	-26.468	0.270	-0.158
-623.419	228.304	0.201	-0.326
-622.405	62.287	-0.315	0.314
-621.390	-148.303	-0.087	0.007
-620.376	-29.508	-0.203	-0.116
-619.361	116.668	-0.271	-0.332
-618.346	661.499	0.160	-0.411
-617.332	-33.227	0.218	-0.120
-616.317	-13.960	-0.178	-0.114
-615.303	-174.902	0.293	0.008
-614.288	374.557	0.111	0.226
-613.273	396.627	-0.237	0.493
-612.259	-64.361	0.059	-0.024
-611.244	-200.000	0.040	0.424
-610.230	290.532	0.056	-0.102
-609.215	17.161	0.222	-0.175
-608.201	120.805	0.138	-0.172
-607.186	140.667	-0.089	0.117
-606.171	50.104	0.054	-0.050
-605.157	-37.329	-0.212	0.113
-604.142	207.364	0.072	0.112
-603.128	105.441	0.141	-0.166
-602.113	-200.000	0.020	0.096
-601.098	679.389	-0.048	-0.125
-600.084	-200.000	0.020	0.117
-599.069	729.510	0.051	-0.135
-598.055	-1.051	-0.162	0.114
-597.040	-92.116	0.389	0.110
-596.025	-200.000	0.028	0.414
-595.011	90.365	0.103	0.115
-593.996	800.000	0.140	0.486
-592.982	72.955	0.072	0.075
-591.967	-200.000	0.024	-0.199
-590.952	800.000	-0.061	-0.184
-589.938	800.000	0.071	0.309
-588.923	536.688	-0.050	0.118
-587.909	201.957	0.108	0.166
-586.894	-7.047	-0.260	0.176
-585.879	-25.435	-0.166	-0.098
-584.865	311.738	-0.150	0.279
-583.850	56.998	-0.182	-0.177
-582.836	-1.698	0.297	-0.208
-581.821	148.411	-0.027	0.037
-580.806	354.925	0.080	0.159
-579.792	800.000	-0.050	0.170
-578.777	81.625	0.116	-0.125
-577.763	-15.412	0.065	0.041
-576.748	150.382	-0.075	-0.101
-575.733	-34.107	-0.142	0.078
-574.719	-31.251	0.072	-0.040
-573.704	214.433	0.031	-0.048
-572.690	800.000	-0.113	-0.377
-571.675	-200.000	-0.023	0.102
-570.661	103.589	-0.195	-0.228
-569.646	675.294	-0.117	-0.302
-568.631	5.893	0.147	-0.108
-567.617	-200.000	-0.024	0.116
-566.602	97.370	0.022	-0.026
-565.588	800.000	-0.069	0.210
-564.573	9.152	-0.126	-0.095
-563.558	651.055	-0.097	-0.247
-562.544	-73.561	0.172	0.063
-561.529	-200.000	0.031	-0.170
-560.515	-170.860	-0.243	-0.008
-559.500	22.704	0.190	0.155
-558.485	163.702	-0.147	0.206
-557.471	-143.708	0.317	-0.030
-556.456	-2.437	-0.055	-0.038
-555.442	48.917	-0.242	-0.226
-554.427	-45.103	-0.150	0.074
-553.412	91.175	-0.069	0.077
-552.398	-48.801	-0.036	-0.017
-551.383	-200.000	-0.014	0.300
-550.369	-117.685	-0.103	-0.019
-549.354	3.177	-0.206	-0.149
-548.339	28.611	0.176	0.148
-547.325	-26.426	0.118	-0.069
-546.310	-163.308	0.253	0.012
-545.296	-87.278	-0.478	-0.144
-544.281	-102.520	-0.380	-0.091
-543.266	30.240	-0.040	-0.034
-542.252	-200.000	0.021	0.099
-541.237	165.482	-0.222	-0.313
-540.223	-31.271	0.133	0.075
-539.208	53.910	0.078	-0.074
-538.193	117.409	-0.183	0.223
-537.179	163.177	0.198	-0.277
-536.164	183.803	-0.047	-0.069
-535.150	-110.888	0.226	-0.046
-534.135	-32.738	0.185	-0.102
-533.121	-135.065	0.262	-0.031
-532.106	-200.000	0.040	0.230
-531.091	92.573	-0.053	-0.060
-530.077	124.396	0.169	0.211
-529.062	-200.000	-0.075	-0.531
-528.048	-135.631	0.244	0.029
-527.033	127.634	0.129	-0.162
-526.018	-158.861	0.029	0.002
-525.004	200.463	-0.135	-0.206
-523.989	-147.362	-0.301	-0.025
-522.975	90.487	-0.134	-0.149
-521.960	-48.623	0.305	-0.146
-520.945	-175.987	-0.229	-0.006
-519.931	46.408	0.239	0.220
-518.916	93.632	-0.125	-0.141
-517.902	-189.120	0.561	-0.007
-516.887	-21.060	0.211	-0.128
-515.872	67.890	-0.139	-0.142
-514.858	18.260	0.102	0.081
-513.843	-13.992	0.103	-0.066
-512.829	-200.000	0.011	-0.206
-511.814	139.977	0.231	-0.302
-510.799	62.085	-0.165	-0.164
-509.785	-119.316	0.078	0.014
-508.770	721.304	-0.065	-0.173
-507.756	-200.000	-0.021	0.194
-506.741	81.550	0.097	-0.105
-505.726	-29.237	0.209	-0.119
-504.712	-4.991	0.259	0.177
-503.697	800.000	-0.043	-0.162
-502.683	-103.073	-0.183	0.043
-501.668	-200.000	0.011	-0.116
-500.653	-90.535	-0.164	0.047
-499.639	-200.000	0.035	0.159
-498.624	472.423	0.020	0.046
-497.610	-34.999	-0.348	-0.189
-496.595	-10.216	-0.189	-0.125
-495.581	556.705	0.015	0.035
-494.566	800.000	-0.066	0.282
-493.551	202.867	-0.075	0.116
-492.537	-200.000	-0.006	0.222
-491.522	-200.000	0.000	-0.178
-490.508	-145.027	0.332	0.030
-489.493	-79.860	0.345	-0.115
-488.478	70.051	-0.046	-0.047
-487.464	346.710	-0.033	-0.065
-486.449	436.353	-0.128	-0.276
-485.435	314.836	0.069	-0.130
-484.420	86.568	0.067	-0.074
-483.405	116.987	0.231	0.282
-482.391	800.000	-0.116	-0.349
-481.376	266.519	0.132	0.228
-480.362	36.523	0.069	0.060
-479.347	-7.160	-0.032	0.022
-478.332	703.085	-0.024	0.063
-477.318	-179.907	0.120	0.003
-476.303	367.980	-0.130	0.260
-475.289	-88.685	0.107	-0.032
-474.274	167.782	0.041	0.057
-473.259	92.609	0.259	0.290
-472.245	800.000	0.088	0.249
-471.230	132.074	0.098	-0.125
-470.216	-200.000	-0.009	0.469
-469.201	606.530	-0.147	0.363
-468.186	-52.381	0.385	0.177
-467.172	-23.605	-0.094	0.056
-466.157	11.982	-0.279	-0.213
-465.143	42.616	-0.227	-0.205
-464.128	800.000	-0.124	-0.374
-463.113	320.142	-0.116	-0.218
-462.099	-200.000	-0.040	-0.390
-461.084	-73.896	0.102	0.037
-460.070	-200.000	-0.010	-0.241
-459.055	-193.603	-0.510	0.004
-458.040	-133.504	-0.187	0.023
-457.026	60.642	0.096	-0.094
-456.011	624.978	0.007	-0.018
-454.997	-200.000	0.053	-0.395
-453.982	364.350	0.178	-0.355
-452.968	-96.215	0.211	0.056
-451.953	-100.259	0.152	0.037
-450.938	-141.741	-0.425	-0.042
-449.924	-108.915	-0.155	0.033
-448.909	-81.763	0.034	-0.011
-447.895	-135.979	0.329	-0.038
-446.880	5.737	-0.184	-0.135
-445.865	800.000	0.065	-0.281
-444.851	335.995	-0.165	0.317
-443.836	170.822	0.151	0.214
-442.822	-200.000	-0.015	0.077
-441.807	34.093	0.333	0.287
-440.792	104.398	0.055	0.064
-439.778	54.242	0.034	0.032
-438.763	58.747	-0.210	-0.204
-437.749	-200.000	-0.026	-0.122
-436.734	-200.000	-0.012	0.207
-435.719	-200.000	-0.029	0.156
-434.705	77.531	-0.263	-0.277
-433.690	-200.000	-0.005	0.109
-432.676	183.550	-0.169	0.247
-431.661	735.762	0.019	0.050
-430.646	142.051	-0.087	0.114
-429.632	116.978	-0.077	-0.093
-428.617	82.253	-0.180	0.193
-427.603	-200.000	-0.007	-0.216
-426.588	32.081	0.199	0.170
-425.573	614.701	-0.096	0.239
-424.559	-200.000	-0.024	0.221
-423.544	37.023	0.217	-0.190
-422.530	-19.489	-0.006	0.004
-421.515	-200.000	0.018	0.132
-420.500	84.749	0.165	-0.179
-419.486	-23.380	0.161	0.096
-418.471	40.228	0.206	-0.184
-417.457	-200.000	0.027	-0.172
-416.442	-53.904	0.148	0.067
-415.428	595.887	0.080	-0.196
-414.413	-200.000	-0.012	0.104
-413.398	476.714	0.112	0.251
-412.384	-56.467	0.190	-0.083
-411.369	-133.989	-0.075	-0.009
-410.355	37.787	-0.228	-0.200
-409.340	222.476	0.186	-0.296
-408.325	-164.046	0.178	0.008
-407.311	192.455	0.203	-0.303
-406.296	-11.452	0.376	-0.245
-405.282	-97.754	-0.315	0.081
-404.267	-200.000	0.058	0.304
-403.252	-99.186	0.266	-0.066
-402.238	84.628	0.204	0.221
-401.223	-40.815	-0.302	-0.155
-400.209	103.656	0.070	0.081
-399.194	-200.000	0.023	-0.172
-398.179	163.514	0.211	0.294
-397.165	-54.062	-0.156	0.070
-396.150	67.767	0.267	-0.270
-395.136	170.761	-0.116	0.164
-394.121	-200.000	0.030	-0.168
-393.106	47.745	-0.131	0.121
-392.092	-1.128	0.099	0.069
-391.077	-200.000	-0.027	0.434
-390.063	389.467	-0.179	0.367
-389.048	-13.200	0.087	0.056
-388.033	800.000	0.159	-0.473
-387.019	-200.000	0.044	0.296
-386.004	-109.682	0.083	-0.017
-384.990	28.299	0.064	0.054
-383.975	80.027	-0.138	0.147
-382.960	-23.346	0.214	-0.127
-381.946	58.664	-0.192	-0.186
-380.931	-138.364	-0.316	0.034
-379.917	-200.000	0.051	0.285
-378.902	800.000	0.090	0.323
-377.888	-111.932	0.114	-0.023
-376.873	-27.413	-0.065	-0.037
-375.858	-200.000	0.055	-0.432
-374.844	-60.900	0.073	0.030
-373.829	-72.554	-0.114	-0.042
-372.815	55.315	0.186	0.178
-371.800	-45.796	-0.044	-0.021
-370.785	2.412	0.138	0.099
-369.771	-140.911	0.377	0.038
-368.756	348.297	-0.195	-0.380
-367.742	-105.911	-0.389	0.087
-366.727	79.002	0.145	0.154
-365.712	318.971	0.046	-0.086
-364.698	-65.764	-0.149	0.059
-363.683	397.484	0.134	0.276
-362.669	-200.000	-0.023	-0.112
-361.654	117.562	0.273	-0.332
-360.639	-200.000	-0.028	0.217
-359.625	605.312	-0.099	-0.243
-358.610	-144.105	-0.138	0.013
-357.596	172.250	-0.249	0.353
-356.581	-21.148	-0.222	0.134
-355.566	-109.522	0.317	0.066
-354.552	-200.000	-0.015	-0.067
-353.537	800.000	-0.084	-0.238
-352.523	356.875	-0.109	-0.215
-351.508	-200.000	0.018	-0.176
-350.493	-64.903	0.079	0.032
-349.479	178.549	0.110	0.159
-348.464	48.751	0.065	0.060
-347.450	800.000	-0.046	-0.157
-346.435	-200.000	-0.026	0.327
-345.420	-83.392	0.230	0.073
-344.406	-116.902	-0.096	-0.017
-343.391	-70.994	-0.289	0.107
-342.377	6.353	-0.075	0.055
-341.362	188.453	0.007	-0.010
-340.348	625.977	0.138	0.343
-339.333	17.842	-0.172	-0.135
-338.318	405.989	-0.177	0.369
-337.304	800.000	0.056	0.152
-336.289	-200.000	0.105	-0.454
-335.275	2.129	-0.172	-0.123
-334.260	800.000	0.005	-0.016
-333.245	116.892	-0.174	-0.211
-332.231	800.000	-0.079	-0.288
-331.216	50.706	0.174	-0.162
-330.202	-200.000	-0.001	0.075
-329.187	124.053	0.124	-0.153
-328.172	-96.254	-0.172	0.045
-327.158	-51.525	0.366	0.169
-326.143	104.304	0.237	0.275
-325.129	242.242	-0.133	0.219
-324.114	-139.730	-0.170	0.018
-323.099	800.000	-0.028	0.112
-322.085	-123.735	0.133	0.021
-321.070	-21.696	-0.176	0.105
-320.056	-36.612	-0.160	-0.085
-319.041	-88.253	0.336	0.099
-318.026	-133.095	-0.308	-0.039
-317.012	-200.000	0.021	-0.139
-315.997	-136.823	0.108	0.012
-314.983	-167.498	-0.033	-0.001
-313.968	210.598	-0.033	0.050
-312.953	69.526	0.251	-0.255
-311.939	-46.618	-0.204	0.099
-310.924	496.133	0.185	0.419
-309.910	-200.000	0.006	0.053
-308.895	-145.908	-0.550	-0.048
-307.880	800.000	-0.081	-0.345
-306.866	180.600	-0.026	-0.037
-305.851	45.998	-0.178	-0.162
-304.837	800.000	-0.080	0.227
-303.822	-117.815	-0.266	0.047
-302.807	-25.748	0.232	-0.135
-301.793	-200.000	-0.014	-0.089
-300.778	62.166	-0.134	0.132
-299.764	561.433	-0.124	0.295
-298.749	336.998	0.118	0.226
-297.735	49.224	-0.085	-0.079
-296.720	-121.514	-0.530	0.087
-295.705	800.000	0.049	0.201
-294.691	-29.149	-0.249	-0.140
-293.676	-200.000	-0.025	-0.482
-292.662	-110.845	-0.311	-0.063
-291.647	135.139	-0.128	-0.163
-290.632	-18.646	-0.227	0.139
-289.618	-32.226	-0.130	-0.072
-288.603	-69.907	0.122	0.046
-287.589	288.187	-0.185	-0.330
-286.574	306.966	0.071	0.130
-285.559	800.000	-0.086	0.336
-284.545	-21.764	0.249	-0.149
-283.530	-15.020	-0.102	-0.064
-282.516	-75.581	0.179	0.063
-281.501	-114.553	-0.238	0.045
-280.486	-193.271	-0.186	-0.002
-279.472	84.061	0.067	-0.072
-278.457	800.000	0.018	-0.077
-277.443	800.000	-0.015	0.056
-276.428	86.577	0.110	-0.119
-275.413	2.153	0.031	-0.022
-274.399	47.733	-0.272	-0.249
-273.384	-200.000	-0.036	0.209
-272.370	-200.000	-0.031	-0.133
-271.355	-49.806	0.024	-0.011
-270.340	-98.637	0.260	0.065
-269.326	102.182	0.194	0.223
-268.311	-38.605	-0.094	-0.049
-267.297	800.000	0.037	0.105
-266.282	-135.421	0.364	-0.043
-265.267	-35.177	-0.137	-0.074
-264.253	96.829	0.250	-0.282
-263.238	-200.000	0.040	-0.314
-262.224	-132.726	-0.454	-0.057
-261.209	-70.945	0.152	-0.056
-260.195	38.948	-0.156	-0.137
-259.180	-62.836	0.423	-0.172
-258.165	-98.042	-0.154	0.039
-257.151	-58.442	0.199	-0.085
-256.136	-200.000	0.033	0.204
-255.122	800.000	0.076	-0.291
-254.107	-200.000	0.008	0.099
-253.092	-69.758	0.160	0.060
-252.078	0.793	-0.402	-0.283
-251.063	75.679	0.189	0.196
-250.049	-191.923	-0.137	-0.001
-249.034	407.303	-0.111	-0.232
-248.019	-144.200	-0.235	0.022
-247.005	155.079	0.267	0.360
-245.990	800.000	-0.026	0.099
-244.976	-114.646	0.139	0.026
-243.961	-200.000	-0.083	-0.439
-242.946	-144.144	0.309	-0.028
-241.932	299.228	0.179	-0.324
-240.917	-87.935	0.123	-0.036
-239.903	322.225	0.075	-0.140
-238.888	30.146	0.285	0.239
-237.873	-81.051	-0.167	0.054
-236.859	-30.789	0.243	0.135
-235.844	435.104	-0.208	0.444
-234.830	-200.000	0.001	0.298
-233.815	543.394	0.138	-0.323
-232.800	-58.903	0.153	0.065
-231.786	-200.000	0.034	-0.203
-230.771	216.016	0.184	0.288
-229.757	358.744	0.122	0.240
-228.742	54.061	0.061	0.057
-227.727	800.000	0.104	0.314
-226.713	-35.772	0.252	-0.134
-225.698	800.000	-0.027	0.102
-224.684	83.945	-0.095	0.101
-223.669	6.253	0.179	-0.131
-222.655	-61.867	0.319	-0.131
-221.640	12.486	-0.110	-0.083
-220.625	-200.000	0.012	0.226
-219.611	62.028	-0.156	-0.153
-218.596	-68.036	-0.210	-0.081
-217.582	-45.436	-0.423	-0.206
-216.567	-86.330	-0.435	0.131
-215.552	-131.156	-0.224	-0.029
-214.538	15.703	0.171	0.132
-213.523	289.207	-0.089	0.159
-212.509	-200.000	-0.023	-0.197
-211.494	-200.000	-0.017	0.156
-210.479	-165.886	0.322	0.014
-209.465	153.887	-0.162	0.217
-208.450	56.872	0.342	0.327
-207.436	-116.073	0.071	-0.013
-206.421	19.533	-0.212	-0.168
-205.406	271.379	0.184	-0.318
-204.392	-83.105	-0.242	-0.076
-203.377	-111.001	-0.172	0.035
-202.363	423.056	-0.053	0.113
-201.348	-101.391	0.209	0.050
-200.333	-87.164	0.191	-0.057
-199.319	45.793	0.016	0.015
-198.304	793.109	-0.179	0.483
-197.290	-113.281	0.169	-0.033
-196.275	79.809	0.115	-0.121
-195.260	119.960	0.192	-0.234
-194.246	-200.000	0.003	-0.054
-193.231	77.945	-0.182	0.190
-192.217	-14.132	0.115	0.073
-191.202	-39.787	0.059	0.030
-190.187	-11.001	-0.101	0.066
-189.173	800.000	-0.013	-0.054
-188.158	338.654	0.285	-0.545
-187.144	-111.982	-0.116	0.023
-186.129	0.297	0.248	0.173
-185.114	800.000	0.051	0.183
-184.100	-200.000	-0.045	-0.359
-183.085	-159.773	-0.124	0.007
-182.071	34.093	0.150	0.128
-181.056	-32.123	-0.187	0.102
-180.042	-74.575	0.196	0.069
-179.027	-72.584	0.121	-0.044
-178.012	243.043	0.059	-0.097
-176.998	-36.419	-0.097	0.051
-175.983	-101.264	-0.268	0.064
-174.969	-200.000	0.003	0.155
-173.954	21.491	0.208	0.166
-172.939	377.532	0.105	0.210
-171.925	680.191	-0.051	-0.129
-170.910	-171.415	-0.049	-0.002
-169.896	63.156	-0.090	0.088
-168.881	46.649	-0.168	0.152
-167.866	-31.632	-0.173	0.095
-166.852	-200.000	-0.016	-0.139
-165.837	-108.973	-0.178	-0.037
-164.823	-200.000	-0.048	0.346
-163.808	32.976	0.074	-0.063
-162.793	617.601	0.037	0.092
-161.779	-200.000	0.090	0.425
-160.764	-124.012	-0.279	-0.043
-159.750	-91.144	0.145	-0.041
-158.735	-92.995	0.105	-0.029
-157.720	-200.000	0.034	-0.183
-156.706	325.911	-0.189	0.354
-155.691	-79.889	0.381	0.126
-154.677	-163.074	-0.132	0.006
-153.662	-67.608	-0.140	-0.054
-152.647	800.000	0.049	0.139
-151.633	225.989	0.046	0.074
-150.618	376.073	-0.054	-0.109
-149.604	51.664	-0.070	-0.065
-148.589	-112.770	0.125	-0.024
-147.574	774.885	-0.073	0.195
-146.560	-200.000	0.026	-0.153
-145.545	-147.024	0.207	0.017
-144.531	-60.156	-0.234	-0.098
-143.516	-200.000	0.033	-0.208
-142.502	-0.770	0.111	0.077
-141.487	-200.000	0.023	0.194
-140.472	-200.000	-0.049	0.229
-139.458	-157.145	-0.128	0.008
-138.443	83.693	0.128	-0.137
-137.429	-153.956	0.123	0.008
-136.414	27.345	-0.200	0.165
-135.399	-22.010	0.323	0.192
-134.385	97.936	0.072	0.081
-133.370	293.530	0.081	-0.146
-132.356	-54.137	-0.425	0.189
-131.341	-200.000	-0.056	-0.280
-130.326	-121.769	-0.128	-0.021
-129.312	460.150	-0.103	0.225
-128.297	-28.659	0.458	-0.258
-127.283	12.741	0.061	0.046
-126.268	-53.308	-0.322	0.144
-125.253	138.745	0.134	0.173
-124.239	-167.934	0.189	-0.007
-123.224	532.219	-0.095	0.220
-122.210	-200.000	0.186	-0.001
-121.195	11.606	0.051	0.039
-120.180	159.286	0.281	0.382
