DTS Sentinel unit serial number:	SN413079Multiplexer serial number:	ORYXHardware model number:	OX4-SRSoftware version number:	ORYX F/W v4.00 Oryx Data Collector v3.7.2.0data status	okinstallation	princeton_trtdifferential loss correction	single-endedforward channel	channel 1reverse channel	N/Adate	2019/09/12time	06:56:11forward acquisition time	60.00reverse acquisition time	0.00gamma	496.2192k internal	0.2320k external	0.2320temperature offset calibration	1.0050default loss term (dB/km)	0.3790temperature slope calibration	1.0000multiplexer offset coefficient	1.0000multiplexer slope coefficient	1.0000fibre end	0.00T internal ref (°C)	32.12T ext. ref 1 (°C)	1.58T ext. ref 2 (°C)	27.25length (m)	temperature (°C)	Stokes	anti-Stokes-747.200	-102.057	-0.310	0.076
-746.185	-200.000	0.048	-0.381
-745.171	-34.281	0.064	-0.035
-744.156	-107.169	0.215	0.048
-743.142	117.601	-0.081	0.100
-742.127	-200.000	0.005	0.096
-741.112	104.732	0.087	0.103
-740.098	-77.345	-0.446	-0.157
-739.083	-200.000	-0.089	0.413
-738.069	-200.000	0.003	0.165
-737.054	-200.000	-0.015	-0.163
-736.039	26.231	-0.261	0.221
-735.025	82.888	0.253	0.278
-734.010	-118.360	-0.291	-0.052
-732.996	-130.349	-0.312	-0.043
-731.981	800.000	-0.108	-0.396
-730.966	-200.000	-0.012	-0.150
-729.952	285.337	0.051	0.093
-728.937	800.000	-0.054	-0.204
-727.923	-32.534	-0.179	-0.101
-726.908	62.955	0.301	-0.304
-725.894	17.583	-0.307	0.246
-724.879	14.425	-0.224	-0.177
-723.864	8.685	0.140	0.107
-722.850	99.945	0.101	0.119
-721.835	154.082	-0.154	0.213
-720.821	-140.946	0.065	0.007
-719.806	25.260	-0.191	-0.160
-718.791	-48.178	0.281	-0.137
-717.777	-149.700	0.074	0.006
-716.762	-200.000	-0.040	-0.256
-715.748	800.000	0.054	-0.203
-714.733	-96.747	0.176	-0.047
-713.718	-113.766	0.084	0.017
-712.704	-200.000	-0.016	-0.080
-711.689	-78.566	0.047	0.016
-710.675	-15.077	0.062	0.040
-709.660	733.329	-0.127	0.344
-708.645	800.000	-0.027	-0.091
-707.631	65.164	-0.251	-0.256
-706.616	85.217	-0.083	0.092
-705.602	147.492	0.120	0.163
-704.587	-188.894	0.387	-0.005
-703.572	-5.714	0.190	-0.131
-702.558	46.460	0.090	0.084
-701.543	-168.972	-0.163	-0.006
-700.529	-83.804	0.100	0.032
-699.514	17.029	0.249	0.199
-698.499	-154.195	-0.281	0.019
-697.485	-200.000	0.024	-0.125
-696.470	-112.984	0.229	0.046
-695.456	45.179	-0.190	0.177
-694.441	30.040	-0.442	0.380
-693.426	253.387	0.068	-0.118
-692.412	800.000	-0.121	-0.481
-691.397	-200.000	-0.052	-0.271
-690.383	306.313	-0.025	0.048
-689.368	-6.910	0.219	0.150
-688.354	430.842	-0.154	-0.337
-687.339	168.788	0.174	-0.251
-686.324	403.283	-0.194	-0.411
-685.310	171.352	0.151	-0.219
-684.295	-151.640	0.146	0.011
-683.281	315.987	0.177	0.336
-682.266	-151.630	-0.413	0.031
-681.251	-128.864	0.163	-0.023
-680.237	764.734	-0.119	-0.325
-679.222	-75.325	-0.181	-0.065
-678.208	800.000	-0.060	0.230
-677.193	-174.216	0.145	0.004
-676.178	-200.000	0.012	-0.114
-675.164	124.156	0.224	-0.284
-674.149	-200.000	-0.024	0.337
-673.135	-4.518	0.254	0.177
-672.120	800.000	-0.035	-0.154
-671.105	755.713	-0.124	0.338
-670.091	-200.000	0.033	-0.270
-669.076	-61.642	0.237	-0.100
-668.062	2.002	-0.186	-0.136
-667.047	-96.913	-0.092	-0.024
-666.032	-32.367	-0.254	-0.143
-665.018	-34.983	-0.267	-0.147
-664.003	-200.000	-0.040	0.285
-662.989	-200.000	0.021	-0.143
-661.974	-82.294	-0.316	-0.104
-660.959	35.946	-0.146	0.129
-659.945	313.680	0.154	-0.292
-658.930	351.098	0.223	-0.444
-657.916	-82.798	-0.243	0.079
-656.901	46.152	-0.203	0.189
-655.886	-193.205	0.302	0.003
-654.872	-124.456	-0.313	-0.049
-653.857	129.483	0.118	-0.151
-652.843	-166.557	0.107	-0.005
-651.828	-124.391	0.070	0.011
-650.814	800.000	0.051	-0.143
-649.799	-90.592	0.236	0.069
-648.784	195.931	0.056	-0.085
-647.770	-114.595	0.090	0.017
-646.755	-37.331	-0.139	0.075
-645.741	126.654	0.121	-0.155
-644.726	137.176	0.166	0.219
-643.711	3.834	-0.083	-0.061
-642.697	-27.977	0.256	-0.149
-641.682	-56.206	-0.164	-0.074
-640.668	-71.852	-0.050	0.019
-639.653	538.155	-0.060	0.145
-638.638	-37.675	0.282	-0.151
-637.624	21.431	-0.130	-0.106
-636.609	19.407	0.057	0.046
-635.595	-119.132	-0.288	-0.051
-634.580	624.722	-0.075	-0.190
-633.565	-74.471	-0.104	-0.038
-632.551	-95.519	-0.202	0.055
-631.536	-156.093	-0.219	-0.014
-630.522	-200.000	0.010	-0.200
-629.507	245.052	0.158	0.267
-628.492	-55.286	-0.183	-0.083
-627.478	53.994	-0.109	-0.105
-626.463	-138.833	-0.056	0.006
-625.449	-200.000	0.081	-0.362
-624.434	82.070	0.040	0.043
-623.419	-57.730	-0.412	0.181
-622.405	-200.000	-0.025	0.317
-621.390	764.613	-0.050	0.138
-620.376	6.001	-0.114	-0.085
-619.361	268.404	0.043	0.076
-618.346	-200.000	-0.028	-0.239
-617.332	-119.568	-0.157	0.027
-616.317	-33.256	0.221	-0.123
-615.303	-42.349	-0.211	-0.108
-614.288	135.682	0.189	-0.248
-613.273	100.292	0.127	0.148
-612.259	22.901	-0.062	-0.051
-611.244	169.788	-0.274	-0.394
-610.230	334.587	0.038	0.074
-609.215	-115.482	0.171	0.032
-608.201	-148.788	-0.267	0.022
-607.186	-63.152	0.412	0.171
-606.171	-200.000	-0.003	0.082
-605.157	88.317	-0.109	0.122
-604.142	-150.456	-0.457	-0.035
-603.128	-32.359	-0.332	-0.186
-602.113	225.975	0.112	-0.182
-601.098	-99.682	-0.071	-0.018
-600.084	-200.000	-0.022	-0.234
-599.069	25.180	0.048	0.040
-598.055	-12.668	-0.113	0.074
-597.040	312.566	0.057	0.108
-596.025	-142.230	-0.132	0.013
-595.011	-57.177	0.191	0.085
-593.996	-200.000	0.021	0.206
-592.982	-48.489	0.099	-0.048
-591.967	-200.000	-0.035	-0.183
-590.952	-95.218	-0.112	0.030
-589.938	800.000	-0.064	-0.239
-588.923	-103.778	0.128	-0.030
-587.909	-65.961	0.065	0.026
-586.894	-200.000	0.011	0.051
-585.879	134.615	0.158	0.207
-584.865	5.965	0.087	-0.065
-583.850	-200.000	-0.061	-0.311
-582.836	-200.000	-0.011	-0.465
-581.821	218.325	0.091	-0.146
-580.806	-73.877	0.194	0.071
-579.792	34.771	0.169	0.148
-578.777	105.032	0.170	0.202
-577.763	-116.507	0.229	0.042
-576.748	245.466	-0.115	-0.195
-575.733	57.203	0.088	0.086
-574.719	172.679	0.194	-0.280
-573.704	-177.588	-0.101	0.002
-572.690	112.477	-0.098	-0.119
-571.675	50.742	0.212	-0.202
-570.661	418.398	0.068	-0.145
-569.646	73.997	-0.210	-0.221
-568.631	-157.873	0.332	-0.020
-567.617	70.930	-0.269	0.280
-566.602	-81.339	-0.148	-0.049
-565.588	800.000	-0.054	-0.194
-564.573	800.000	-0.005	-0.017
-563.558	-200.000	0.010	0.227
-562.544	707.317	0.095	-0.253
-561.529	79.128	-0.246	0.265
-560.515	251.920	-0.045	-0.077
-559.500	800.000	-0.057	0.203
-558.485	142.382	-0.282	-0.375
-557.471	-13.257	0.295	-0.192
-556.456	-64.198	-0.367	0.150
-555.442	-72.871	0.410	0.151
-554.427	-0.104	-0.337	0.241
-553.412	57.548	-0.256	-0.251
-552.398	-91.324	-0.305	0.088
-551.383	-55.720	0.242	-0.109
-550.369	164.782	-0.096	-0.136
-549.354	-200.000	0.012	-0.171
-548.339	79.174	-0.106	0.114
-547.325	800.000	0.039	0.111
-546.310	8.303	0.353	0.266
-545.296	182.709	0.079	0.117
-544.281	476.623	0.121	0.275
-543.266	-120.000	-0.193	-0.033
-542.252	-200.000	0.033	0.234
-541.237	87.675	0.110	-0.122
-540.223	22.022	0.311	0.255
-539.208	-168.391	0.060	0.002
-538.193	-81.711	-0.315	0.104
-537.179	-200.000	0.011	-0.118
-536.164	-200.000	0.011	-0.278
-535.150	800.000	-0.032	-0.092
-534.135	-97.215	0.116	0.030
-533.121	3.520	0.115	0.084
-532.106	800.000	0.049	-0.142
-531.091	233.115	0.300	0.495
-530.077	-20.969	-0.157	0.097
-529.062	-136.053	-0.329	-0.039
-528.048	40.242	-0.199	0.179
-527.033	617.458	-0.159	0.399
-526.018	-79.775	-0.180	-0.061
-525.004	800.000	0.068	-0.232
-523.989	800.000	-0.025	-0.076
-522.975	213.217	-0.039	-0.062
-521.960	-71.444	-0.158	-0.059
-520.945	-200.000	0.002	-0.052
-519.931	-91.701	0.081	0.023
-518.916	197.809	0.147	0.225
-517.902	418.456	-0.104	0.223
-516.887	59.918	0.100	0.099
-515.872	-101.231	0.266	0.065
-514.858	-200.000	0.043	0.466
-513.843	22.676	0.069	-0.057
-512.829	410.227	-0.084	-0.178
-511.814	-103.907	0.194	-0.045
-510.799	-112.833	0.456	-0.091
-509.785	-200.000	0.019	-0.346
-508.770	-55.734	-0.183	-0.082
-507.756	-38.954	0.163	-0.086
-506.741	-200.000	0.031	-0.224
-505.726	-39.618	0.017	0.009
-504.712	278.850	0.030	0.054
-503.697	-152.334	-0.086	-0.006
-502.683	-93.645	0.048	0.013
-501.668	448.869	-0.105	-0.231
-500.653	18.646	0.144	-0.115
-499.639	-111.468	-0.090	0.018
-498.624	-173.819	-0.268	0.008
-497.610	150.785	-0.045	0.061
-496.595	-200.000	-0.056	-0.248
-495.581	-98.220	-0.241	0.062
-494.566	-18.560	0.114	0.071
-493.551	-33.256	0.072	0.040
-492.537	-137.238	-0.229	-0.026
-491.522	-29.977	0.120	-0.068
-490.508	-114.551	0.120	0.023
-489.493	800.000	0.072	0.268
-488.478	-200.000	0.013	0.128
-487.464	85.057	-0.087	-0.096
-486.449	-68.740	0.253	-0.098
-485.435	197.240	-0.196	-0.300
-484.420	-200.000	0.026	0.150
-483.405	-200.000	0.005	0.060
-482.391	47.848	0.123	-0.115
-481.376	-60.303	-0.182	-0.077
-480.362	480.453	-0.120	-0.271
-479.347	5.188	-0.125	0.092
-478.332	166.281	-0.193	0.274
-477.318	-89.835	0.054	0.016
-476.303	-113.416	-0.114	0.022
-475.289	-200.000	-0.014	-0.068
-474.274	-115.096	0.141	0.027
-473.259	-200.000	0.006	0.088
-472.245	-11.252	0.099	0.065
-471.230	24.091	-0.049	0.040
-470.216	-200.000	-0.050	0.264
-469.201	764.564	0.039	0.105
-468.186	-200.000	0.005	0.046
-467.172	-119.802	0.061	-0.011
-466.157	14.252	0.110	0.086
-465.143	800.000	-0.088	-0.267
-464.128	53.855	-0.153	-0.147
-463.113	30.734	0.397	-0.340
-462.099	-109.420	-0.281	0.060
-461.084	-200.000	-0.001	-0.020
-460.070	-200.000	0.020	0.286
-459.055	10.471	-0.181	-0.138
-458.040	136.750	0.231	-0.301
-457.026	193.541	0.117	-0.177
-456.011	-77.287	-0.251	0.087
-454.997	363.900	0.114	-0.230
-453.982	800.000	-0.036	0.122
-452.968	-105.870	-0.132	0.030
-451.953	-200.000	0.001	0.554
-450.938	399.269	-0.106	0.222
-449.924	-200.000	0.024	0.306
-448.909	800.000	0.050	0.201
-447.895	262.347	-0.100	-0.173
-446.880	-106.146	-0.345	-0.077
-445.865	800.000	-0.110	0.356
-444.851	136.853	0.073	-0.096
-443.836	68.073	0.228	-0.233
-442.822	41.983	-0.211	0.191
-441.807	-109.794	-0.309	-0.065
-440.792	193.700	-0.132	-0.200
-439.778	800.000	0.059	0.247
-438.763	39.816	-0.060	0.053
-437.749	800.000	-0.074	-0.229
-436.734	-82.910	0.171	-0.055
-435.719	669.572	-0.063	-0.163
-434.705	43.153	-0.151	-0.138
-433.690	-33.425	-0.292	-0.162
-432.676	-200.000	0.017	-0.145
-431.661	20.521	0.123	0.099
-430.646	408.675	0.039	0.083
-429.632	-30.156	-0.077	0.044
-428.617	18.046	-0.059	-0.047
-427.603	-200.000	0.029	-0.163
-426.588	-76.540	-0.193	0.068
-425.573	197.528	0.042	0.064
-424.559	141.313	0.148	-0.195
-423.544	182.120	0.086	-0.127
-422.530	-163.136	-0.179	0.009
-421.515	92.076	0.091	0.102
-420.500	350.178	-0.039	0.077
-419.486	-200.000	-0.021	0.364
-418.471	-200.000	0.001	-0.017
-417.457	441.821	-0.092	-0.200
-416.442	-95.756	0.154	-0.041
-415.428	-200.000	-0.035	0.176
-414.413	-84.539	-0.160	0.050
-413.398	-77.534	0.348	0.120
-412.384	-34.402	-0.209	0.114
-411.369	-22.015	-0.350	-0.212
-410.355	-171.236	-0.177	-0.006
-409.340	-200.000	-0.023	0.207
-408.325	202.017	-0.128	-0.197
-407.311	-200.000	0.038	-0.323
-406.296	338.689	0.130	0.253
-405.282	3.274	0.234	0.170
-404.267	800.000	-0.049	0.172
-403.252	55.719	-0.176	-0.170
-402.238	534.772	-0.069	0.163
-401.223	-200.000	0.059	-0.284
-400.209	83.773	-0.081	0.089
-399.194	-87.734	-0.286	-0.086
-398.179	-200.000	0.053	-0.278
-397.165	-113.921	0.266	0.051
-396.150	-71.086	-0.176	0.066
-395.136	-139.596	0.034	0.004
-394.121	-35.707	0.055	-0.030
-393.106	-59.242	0.303	-0.130
-392.092	14.821	-0.135	-0.105
-391.077	-32.848	0.152	0.084
-390.063	352.328	0.088	0.174
-389.048	127.403	-0.106	0.134
-388.033	-200.000	-0.018	-0.149
-387.019	425.185	-0.117	-0.250
-386.004	-122.483	0.233	0.038
-384.990	247.714	-0.083	0.140
-383.975	740.015	-0.082	0.220
-382.960	-200.000	0.020	-0.231
-381.946	-165.687	-0.169	0.007
-380.931	66.153	-0.072	-0.073
-379.917	-99.975	-0.192	0.048
-378.902	800.000	-0.052	0.145
-377.888	-0.129	0.079	-0.056
-376.873	-100.381	0.140	-0.035
-375.858	4.521	-0.024	-0.017
-374.844	523.863	-0.146	-0.343
-373.829	19.216	0.274	-0.220
-372.815	-106.604	-0.259	-0.058
-371.800	-200.000	0.016	0.122
-370.785	-200.000	-0.012	0.089
-369.771	-200.000	-0.010	-0.413
-368.756	198.811	-0.113	-0.172
-367.742	-76.667	-0.208	-0.073
-366.727	259.017	0.128	0.220
-365.712	381.998	-0.028	-0.058
-364.698	-200.000	0.003	-0.110
-363.683	800.000	0.027	-0.091
-362.669	680.110	0.082	0.212
-361.654	-17.094	0.163	0.103
-360.639	325.683	0.082	0.157
-359.625	-200.000	-0.003	0.209
-358.610	-200.000	-0.021	0.165
-357.596	-113.444	0.286	0.056
-356.581	114.434	-0.129	-0.156
-355.566	-128.472	0.339	0.048
-354.552	-48.390	-0.060	0.029
-353.537	-200.000	-0.020	-0.264
-352.523	800.000	-0.086	-0.245
-351.508	-22.096	-0.025	0.015
-350.493	261.433	-0.034	0.059
-349.479	-70.285	0.212	-0.080
-348.464	-5.188	-0.221	0.152
-347.450	-200.000	0.085	0.402
-346.435	-71.035	-0.066	0.025
-345.420	-111.136	0.375	0.077
-344.406	-35.536	0.288	0.156
-343.391	-159.712	0.173	-0.009
-342.377	347.242	0.054	-0.106
-341.362	-79.707	0.221	-0.074
-340.348	84.200	-0.259	-0.281
-339.333	141.916	-0.062	-0.081
-338.318	-200.000	-0.008	0.079
-337.304	6.998	0.032	0.024
-336.289	-200.000	0.020	-0.117
-335.275	85.955	-0.115	0.126
-334.260	-38.119	0.067	-0.036
-333.245	-142.919	0.138	-0.013
-332.231	77.566	0.200	-0.212
-331.216	-41.216	-0.206	0.106
-330.202	-33.975	-0.161	-0.088
-329.187	153.162	0.182	0.248
-328.172	-198.963	-0.209	0.001
-327.158	132.397	0.148	0.190
-326.143	160.172	-0.095	0.132
-325.129	57.101	0.111	0.108
-324.114	-68.564	-0.306	0.118
-323.099	170.792	0.040	-0.057
-322.085	-200.000	-0.014	0.094
-321.070	-61.233	-0.243	0.102
-320.056	-67.487	0.150	-0.059
-319.041	-35.072	0.084	0.046
-318.026	-56.679	0.292	-0.128
-317.012	113.881	0.129	-0.156
-315.997	-123.812	0.072	0.011
-314.983	13.723	0.241	0.186
-313.968	800.000	-0.050	0.205
-312.953	-200.000	-0.024	0.262
-311.939	800.000	0.089	-0.348
-310.924	754.495	0.056	-0.150
-309.910	-79.343	0.267	-0.090
-308.895	-200.000	0.002	-0.134
-307.880	-200.000	-0.020	-0.129
-306.866	-200.000	-0.032	-0.301
-305.851	243.974	0.141	0.235
-304.837	-76.916	0.340	-0.118
-303.822	-200.000	-0.034	0.180
-302.807	224.460	0.189	0.303
-301.793	-200.000	-0.016	0.132
-300.778	468.820	0.068	-0.151
-299.764	-14.316	-0.152	-0.097
-298.749	-200.000	-0.005	0.033
-297.735	793.376	0.089	-0.244
-296.720	-200.000	-0.009	0.097
-295.705	800.000	-0.052	-0.149
-294.691	198.149	0.053	0.081
-293.676	-125.641	0.247	-0.037
-292.662	-89.484	0.096	-0.028
-291.647	181.471	-0.103	0.150
-290.632	99.663	0.067	-0.077
-289.618	-42.350	-0.102	0.052
-288.603	21.506	-0.153	-0.123
-287.589	269.743	-0.069	-0.120
-286.574	-141.846	-0.335	-0.033
-285.559	-53.571	0.085	0.038
-284.545	-200.000	0.004	0.028
-283.530	33.447	0.142	0.123
-282.516	-200.000	-0.047	-0.240
-281.501	121.996	0.146	-0.181
-280.486	-111.773	-0.236	0.047
-279.472	-200.000	-0.015	-0.239
-278.457	-200.000	-0.015	0.253
-277.443	740.229	-0.068	0.182
-276.428	-200.000	-0.018	0.355
-275.413	-200.000	0.008	-0.217
-274.399	-83.628	0.084	0.027
-273.384	315.415	-0.168	0.314
-272.370	-12.743	0.154	-0.100
-271.355	-101.715	0.361	-0.087
-270.340	173.629	-0.074	0.106
-269.326	-200.000	0.025	0.281
-268.311	-128.077	0.385	0.055
-267.297	468.253	-0.061	0.135
-266.282	-33.626	-0.194	0.106
-265.267	51.340	-0.018	0.017
-264.253	73.620	0.104	0.108
-263.238	-25.134	0.261	-0.154
-262.224	-116.106	-0.420	0.078
-261.209	-83.469	0.269	0.086
-260.195	-200.000	0.016	0.278
-259.180	-200.000	-0.002	-0.085
-258.165	-48.217	0.260	0.125
-257.151	10.910	-0.147	0.112
-256.136	52.842	-0.057	-0.054
-255.122	227.162	-0.208	0.336
-254.107	315.135	0.170	-0.318
-253.092	-31.963	-0.156	-0.087
-252.078	315.757	0.169	0.315
-251.063	-191.078	-0.338	-0.003
-250.049	-78.965	-0.092	0.031
-249.034	-69.193	0.368	0.140
-248.019	-143.264	-0.279	-0.027
-247.005	570.206	0.033	0.080
-245.990	-157.641	0.113	0.007
-244.976	-17.382	0.249	-0.155
-243.961	539.585	-0.101	-0.238
-242.946	170.944	0.057	-0.081
-241.932	29.440	-0.167	0.141
-240.917	800.000	0.041	0.141
-239.903	38.381	-0.100	0.088
-238.888	153.338	0.212	-0.288
-237.873	151.531	-0.134	-0.181
-236.859	218.810	-0.068	0.108
-235.844	-93.290	0.292	0.080
-234.830	7.004	0.076	0.056
-233.815	-96.287	-0.158	0.042
-232.800	-200.000	-0.013	0.075
-231.786	8.969	-0.235	-0.176
-230.771	-80.631	0.237	0.078
-229.757	800.000	-0.021	-0.066
-228.742	201.711	-0.122	0.186
-227.727	-133.820	0.132	-0.016
-226.713	-133.055	-0.243	0.031
-225.698	800.000	0.062	-0.231
-224.684	-200.000	-0.026	-0.463
-223.669	217.024	0.165	0.260
-222.655	61.939	-0.141	0.139
-221.640	459.212	0.084	0.186
-220.625	208.229	0.050	-0.077
-219.611	-37.967	-0.228	0.120
-218.596	138.327	0.061	-0.079
-217.582	-200.000	-0.016	0.098
-216.567	100.505	-0.008	0.009
-215.552	122.845	-0.029	0.037
-214.538	-100.738	0.131	-0.032
-213.523	-200.000	0.097	-0.000
-212.509	-185.645	-0.242	-0.004
-211.494	83.046	0.133	-0.144
-210.479	284.555	-0.099	0.177
-209.465	58.990	0.140	-0.137
-208.450	-135.166	-0.299	0.036
-207.436	7.859	0.207	0.154
-206.421	30.860	-0.155	0.132
-205.406	-200.000	0.029	-0.221
-204.392	-126.724	-0.204	-0.030
-203.377	-170.649	0.086	-0.003
-202.363	800.000	-0.067	0.183
-201.348	-200.000	0.014	-0.178
-200.333	-29.835	0.088	0.049
-199.319	-85.827	0.227	-0.070
-198.304	-200.000	0.009	0.400
-197.290	-139.696	-0.224	-0.024
-196.275	95.772	-0.173	-0.195
-195.260	129.956	-0.120	0.152
-194.246	74.145	0.260	0.270
-193.231	-162.359	0.305	0.015
-192.217	-200.000	0.040	-0.353
-191.202	55.378	-0.100	-0.096
-190.187	90.306	0.070	0.077
-189.173	154.186	-0.063	-0.085
-188.158	55.413	0.062	0.060
-187.144	-74.431	0.308	0.110
-186.129	-137.484	-0.236	0.026
-185.114	344.745	-0.138	0.267
-184.100	97.611	0.179	-0.204
-183.085	-139.911	-0.274	-0.029
-182.071	-68.551	-0.265	-0.102
-181.056	-123.822	-0.318	-0.050
-180.042	-200.000	0.048	-0.263
-179.027	800.000	0.166	-0.540
-178.012	-92.088	0.060	-0.017
-176.998	-134.747	-0.391	0.047
-175.983	285.542	-0.095	0.169
-174.969	800.000	-0.058	0.200
-173.954	26.291	0.145	-0.120
-172.939	-148.862	0.379	-0.030
-171.925	459.835	0.102	0.225
-170.910	-200.000	0.004	-0.188
-169.896	-200.000	0.021	-0.146
-168.881	-101.805	0.303	0.073
-167.866	-200.000	0.026	-0.158
-166.852	-130.938	-0.070	0.009
-165.837	612.017	-0.094	0.233
-164.823	-47.354	-0.010	-0.005
-163.808	-185.566	-0.214	0.003
-162.793	-200.000	0.008	0.117
-161.779	-86.052	0.224	0.068
-160.764	-22.351	0.273	0.164
-159.750	-200.000	-0.013	-0.283
-158.735	116.288	0.169	0.204
-157.720	37.553	0.280	-0.245
-156.706	68.454	0.210	-0.213
-155.691	740.672	-0.081	0.216
-154.677	153.814	-0.170	0.231
-153.662	769.641	-0.096	-0.258
-152.647	629.625	0.069	0.173
-151.633	-200.000	-0.021	0.473
-150.618	-113.807	0.243	0.047
-149.604	209.877	0.095	-0.147
-148.589	-39.483	-0.329	-0.170
-147.574	662.948	0.074	-0.190
-146.560	732.058	-0.024	0.063
-145.545	-31.370	-0.196	0.109
-144.531	-108.220	0.419	-0.090
-143.516	800.000	-0.072	-0.201
-142.502	565.149	-0.122	-0.292
-141.487	602.936	0.030	0.074
-140.472	-70.579	0.181	-0.068
-139.458	-62.171	0.048	-0.020
-138.443	543.032	-0.040	-0.094
-137.429	348.979	-0.031	0.060
-136.414	-101.536	-0.113	0.027
-135.399	-31.366	-0.079	-0.044
-134.385	-200.000	-0.007	-0.234
-133.370	-46.683	-0.108	-0.052
-132.356	111.082	-0.161	-0.192
-131.341	800.000	-0.111	-0.354
-130.326	652.366	0.069	-0.176
-129.312	599.749	-0.033	-0.080
-128.297	-81.176	-0.126	0.041
-127.283	-200.000	-0.018	-0.183
-126.268	148.256	-0.037	0.049
-125.253	-123.382	0.055	0.009
-124.239	-200.000	-0.022	0.124
-123.224	-110.807	-0.149	-0.030
-122.210	-47.695	0.120	0.057
