DTS Sentinel unit serial number:	SN413079Multiplexer serial number:	ORYXHardware model number:	OX4-SRSoftware version number:	ORYX F/W v4.00 Oryx Data Collector v3.7.2.0data status	okinstallation	princeton_trtdifferential loss correction	single-endedforward channel	channel 1reverse channel	N/Adate	2019/09/13time	16:50:35forward acquisition time	60.00reverse acquisition time	0.00gamma	496.2192k internal	0.2306k external	0.2306temperature offset calibration	1.0156default loss term (dB/km)	0.3790temperature slope calibration	1.0000multiplexer offset coefficient	1.0000multiplexer slope coefficient	1.0000fibre end	0.00T internal ref (°C)	34.92T ext. ref 1 (°C)	4.93T ext. ref 2 (°C)	30.09length (m)	temperature (°C)	Stokes	anti-Stokes-747.200	-79.196	0.165	-0.057
-746.185	-52.231	0.203	0.096
-745.171	-59.728	0.156	-0.068
-744.156	800.000	-0.072	0.290
-743.142	11.300	-0.133	0.103
-742.127	-5.820	-0.249	0.173
-741.112	223.714	-0.092	-0.150
-740.098	199.226	0.096	0.149
-739.083	554.440	0.066	0.161
-738.069	9.479	0.211	0.162
-737.054	800.000	0.045	0.133
-736.039	-146.220	-0.104	0.009
-735.025	351.037	0.038	0.077
-734.010	-139.710	-0.186	0.020
-732.996	800.000	-0.035	0.098
-731.981	96.430	0.180	-0.209
-730.966	47.582	-0.174	-0.165
-729.952	166.679	-0.195	0.281
-728.937	37.725	-0.102	0.092
-727.923	40.363	0.283	0.259
-726.908	8.751	0.262	-0.201
-725.894	-200.000	0.017	-0.126
-724.879	-181.343	-0.171	0.003
-723.864	-16.953	-0.019	0.012
-722.850	80.927	0.209	-0.230
-721.835	-200.000	-0.066	-0.453
-720.821	-57.212	0.294	-0.132
-719.806	453.599	0.021	-0.047
-718.791	-43.817	0.284	0.145
-717.777	244.545	0.186	0.318
-716.762	237.562	-0.212	-0.358
-715.748	164.807	-0.051	0.074
-714.733	187.939	-0.096	-0.146
-713.718	76.284	0.219	0.235
-712.704	19.058	-0.131	-0.107
-711.689	-79.235	0.498	-0.172
-710.675	-200.000	0.027	-0.123
-709.660	-153.276	-0.245	0.017
-708.645	-200.000	0.013	-0.124
-707.631	9.447	-0.251	-0.193
-706.616	-200.000	-0.012	-0.190
-705.602	-23.736	0.239	0.146
-704.587	343.028	-0.030	-0.060
-703.572	-124.965	-0.182	0.028
-702.558	-35.223	0.173	0.096
-701.543	332.346	-0.106	-0.209
-700.529	71.234	-0.098	-0.104
-699.514	210.209	0.148	0.237
-698.499	9.339	-0.411	-0.315
-697.485	67.118	0.166	0.171
-696.470	800.000	0.093	0.266
-695.456	7.259	-0.269	-0.204
-694.441	-173.300	-0.374	0.012
-693.426	311.152	0.131	0.250
-692.412	88.134	0.161	-0.182
-691.397	-141.057	-0.097	-0.010
-690.383	0.575	-0.117	0.085
-689.368	-59.478	-0.138	-0.060
-688.354	-102.439	-0.234	0.057
-687.339	733.106	0.135	0.367
-686.324	-105.089	0.134	-0.031
-685.310	-200.000	-0.014	0.091
-684.295	-200.000	0.066	-0.443
-683.281	-70.218	0.181	-0.070
-682.266	-156.487	0.322	0.020
-681.251	25.872	0.190	0.161
-680.237	288.447	0.025	-0.045
-679.222	50.782	-0.124	0.119
-678.208	-112.234	0.195	-0.040
-677.193	261.331	0.091	0.160
-676.178	800.000	-0.065	-0.258
-675.164	-99.132	0.035	-0.009
-674.149	-146.285	-0.135	0.012
-673.135	26.003	0.292	0.247
-672.120	412.795	-0.035	0.075
-671.105	1.043	0.057	0.041
-670.091	800.000	0.042	-0.155
-669.076	800.000	0.044	-0.191
-668.062	800.000	-0.037	-0.154
-667.047	-200.000	0.069	-0.337
-666.032	129.882	-0.045	-0.058
-665.018	582.378	0.082	0.205
-664.003	-129.618	-0.066	-0.009
-662.989	330.713	0.172	-0.336
-661.974	171.316	-0.171	-0.249
-660.959	200.158	-0.163	0.254
-659.945	258.166	-0.146	-0.254
-658.930	-95.500	-0.119	-0.032
-657.916	59.506	-0.213	-0.213
-656.901	247.175	0.109	0.186
-655.886	179.923	0.142	-0.212
-654.872	-93.019	-0.324	-0.091
-653.857	-200.000	0.040	-0.229
-652.843	172.377	-0.149	0.217
-651.828	800.000	0.031	0.097
-650.814	-147.048	-0.167	-0.014
-649.799	428.729	-0.143	0.312
-648.784	-31.190	-0.340	-0.194
-647.770	-22.007	-0.325	0.200
-646.755	-83.355	0.235	-0.076
-645.741	-39.447	0.255	-0.136
-644.726	800.000	-0.100	-0.331
-643.711	164.718	0.095	0.136
-642.697	-30.413	-0.130	-0.075
-641.682	-200.000	-0.011	0.228
-640.668	170.456	-0.048	-0.070
-639.653	111.079	-0.107	-0.131
-638.638	322.597	-0.129	-0.250
-637.624	175.095	0.121	0.177
-636.609	-151.071	-0.417	0.032
-635.595	-200.000	0.004	0.093
-634.580	176.051	0.127	-0.187
-633.565	143.504	0.109	0.147
-632.551	64.582	-0.083	-0.084
-631.536	115.057	0.225	-0.278
-630.522	-41.881	-0.442	-0.229
-629.507	-200.000	-0.037	-0.280
-628.492	-200.000	0.025	-0.302
-627.478	-151.378	-0.236	0.018
-626.463	32.047	-0.078	-0.068
-625.449	52.126	-0.275	-0.265
-624.434	382.881	-0.106	0.220
-623.419	23.266	-0.063	0.053
-622.405	-114.225	0.081	0.016
-621.390	110.649	-0.167	0.204
-620.376	-17.419	0.269	0.172
-619.361	-99.561	0.181	-0.046
-618.346	340.473	-0.105	-0.207
-617.332	203.529	-0.109	-0.170
-616.317	-51.336	-0.282	-0.134
-615.303	-143.143	-0.198	0.019
-614.288	97.388	0.276	0.321
-613.273	-200.000	0.001	0.147
-612.259	106.245	-0.121	-0.145
-611.244	208.734	0.065	0.104
-610.230	-92.770	0.338	-0.096
-609.215	115.218	-0.057	0.070
-608.201	800.000	-0.039	-0.134
-607.186	-200.000	0.032	-0.259
-606.171	-129.963	-0.567	-0.079
-605.157	-200.000	-0.060	-0.318
-604.142	162.748	0.228	-0.324
-603.128	-103.344	0.387	0.092
-602.113	262.076	0.174	-0.306
-601.098	195.476	0.108	0.167
-600.084	800.000	-0.038	-0.145
-599.069	-123.462	-0.144	-0.023
-598.055	-36.501	0.152	-0.083
-597.040	93.686	-0.204	-0.233
-596.025	-158.662	-0.021	0.001
-595.011	-108.726	0.294	-0.064
-593.996	800.000	-0.098	0.285
-592.982	800.000	0.026	0.113
-591.967	-83.631	-0.256	0.083
-590.952	60.954	-0.234	0.235
-589.938	-200.000	0.047	0.273
-588.923	-12.289	-0.175	-0.115
-587.909	-16.222	-0.205	0.132
-586.894	23.458	-0.340	0.283
-585.879	-111.738	0.239	0.049
-584.865	-30.017	-0.352	-0.203
-583.850	190.437	0.089	-0.136
-582.836	-200.000	0.047	-0.356
-581.821	800.000	-0.072	-0.237
-580.806	800.000	0.045	0.186
-579.792	143.705	-0.123	0.166
-578.777	508.074	-0.107	0.252
-577.763	-46.461	-0.176	0.087
-576.748	86.111	-0.169	0.188
-575.733	800.000	0.068	0.236
-574.719	-61.263	0.204	0.087
-573.704	-93.825	0.076	0.021
-572.690	-200.000	-0.026	-0.226
-571.675	16.846	-0.203	0.163
-570.661	99.392	0.347	0.406
-569.646	739.760	0.011	0.031
-568.631	46.229	-0.164	-0.154
-567.617	459.991	0.082	0.184
-566.602	800.000	-0.076	0.274
-565.588	609.116	-0.091	0.230
-564.573	-2.847	-0.012	0.009
-563.558	-200.000	0.010	0.334
-562.544	800.000	-0.044	-0.135
-561.529	-200.000	0.048	-0.250
-560.515	-152.275	0.451	-0.033
-559.500	800.000	-0.031	-0.132
-558.485	453.147	-0.113	0.252
-557.471	-56.655	0.244	-0.109
-556.456	-1.907	-0.078	0.055
-555.442	-43.571	0.280	-0.143
-554.427	-200.000	0.038	-0.224
-553.412	-79.918	0.138	-0.047
-552.398	-126.162	-0.301	-0.046
-551.383	-75.549	-0.069	-0.025
-550.369	374.106	-0.088	-0.181
-549.354	100.261	-0.133	-0.156
-548.339	-200.000	0.005	-0.122
-547.325	161.036	0.139	-0.196
-546.310	-160.804	0.253	0.014
-545.296	-200.000	0.019	0.293
-544.281	5.113	-0.044	0.032
-543.266	103.480	-0.048	0.057
-542.252	-25.499	0.010	-0.006
-541.237	-200.000	0.007	-0.329
-540.223	-39.050	-0.288	0.153
-539.208	146.703	-0.176	-0.239
-538.193	192.989	0.020	-0.030
-537.179	-200.000	0.028	-0.283
-536.164	-200.000	-0.011	-0.198
-535.150	255.410	0.160	-0.276
-534.135	117.897	-0.073	0.091
-533.121	-200.000	-0.030	-0.209
-532.106	-200.000	0.030	0.158
-531.091	5.497	0.101	-0.076
-530.077	88.273	0.249	0.279
-529.062	389.510	-0.062	0.129
-528.048	105.546	0.159	0.189
-527.033	-200.000	-0.067	0.420
-526.018	-100.824	-0.136	0.034
-525.004	-31.526	-0.101	-0.058
-523.989	17.972	-0.060	-0.048
-522.975	-172.311	0.528	-0.017
-521.960	392.058	0.039	-0.082
-520.945	-117.326	0.187	0.034
-519.931	-200.000	-0.025	0.202
-518.916	104.066	0.113	0.134
-517.902	-91.542	-0.273	0.079
-516.887	-1.450	-0.271	0.192
-515.872	-124.699	-0.302	0.047
-514.858	-72.424	0.182	0.068
-513.843	-117.393	-0.081	0.015
-512.829	240.228	-0.122	-0.205
-511.814	379.930	-0.074	0.152
-510.799	116.766	-0.187	-0.232
-509.785	-30.221	0.308	-0.177
-508.770	-50.441	0.147	-0.070
-507.756	-142.364	-0.234	-0.023
-506.741	-200.000	0.027	0.124
-505.726	800.000	0.095	-0.410
-504.712	419.672	0.045	-0.098
-503.697	-200.000	0.431	-0.001
-502.683	66.495	-0.132	-0.135
-501.668	-200.000	-0.014	-0.075
-500.653	-200.000	0.006	0.095
-499.639	-107.565	0.271	0.060
-498.624	-198.796	0.256	-0.001
-497.610	-66.222	-0.315	0.127
-496.595	-41.551	-0.451	0.234
-495.581	800.000	0.021	0.081
-494.566	-77.919	0.183	-0.064
-493.551	-73.632	0.143	-0.053
-492.537	-128.990	0.230	0.033
-491.522	-200.000	0.013	0.069
-490.508	19.162	0.332	-0.268
-489.493	-200.000	0.002	0.090
-488.478	-147.087	-0.243	0.021
-487.464	-6.213	-0.244	-0.167
-486.449	98.879	-0.166	0.192
-485.435	160.757	-0.185	-0.260
-484.420	45.421	-0.185	-0.172
-483.405	115.712	0.249	-0.306
-482.391	800.000	0.093	-0.265
-481.376	2.402	-0.057	-0.042
-480.362	800.000	-0.016	-0.070
-479.347	60.848	-0.063	-0.063
-478.332	19.791	0.356	0.289
-477.318	-200.000	-0.045	-0.288
-476.303	126.592	-0.272	0.347
-475.289	9.783	0.158	0.120
-474.274	31.628	-0.184	0.159
-473.259	-17.536	-0.155	-0.098
-472.245	-3.645	0.142	0.099
-471.230	239.670	0.064	-0.107
-470.216	800.000	-0.054	-0.192
-469.201	206.003	0.137	-0.214
-468.186	-158.344	0.118	0.007
-467.172	621.061	-0.098	-0.249
-466.157	72.994	-0.025	0.026
-465.143	197.057	-0.062	-0.096
-464.128	-200.000	-0.030	0.240
-463.113	-63.984	0.218	0.090
-462.099	-36.448	0.183	-0.099
-461.084	197.769	-0.123	0.189
-460.070	70.612	-0.089	0.093
-459.055	-200.000	0.038	0.322
-458.040	87.486	-0.139	0.155
-457.026	-24.518	-0.247	-0.148
-456.011	-46.408	0.417	0.206
-454.997	34.546	0.010	-0.009
-453.982	-72.083	0.048	0.018
-452.968	-158.600	0.254	0.015
-451.953	-200.000	-0.057	-0.356
-450.938	-60.402	0.509	0.218
-449.924	-57.337	-0.067	-0.030
-448.909	447.496	0.136	-0.302
-447.895	-46.468	-0.117	0.058
-446.880	-115.331	-0.181	-0.034
-445.865	292.391	0.139	-0.256
-444.851	210.698	-0.181	-0.286
-443.836	-32.687	-0.053	-0.030
-442.822	-4.000	0.278	-0.194
-441.807	-28.858	-0.120	-0.069
-440.792	-99.724	0.295	-0.074
-439.778	-105.313	0.107	-0.025
-438.763	-42.427	-0.236	-0.121
-437.749	-18.981	0.086	0.054
-436.734	19.190	-0.091	-0.073
-435.719	575.159	0.032	0.079
-434.705	800.000	0.059	0.181
-433.690	285.920	0.052	-0.094
-432.676	276.024	0.167	-0.298
-431.661	-33.875	0.258	0.143
-430.646	83.243	0.160	0.175
-429.632	-200.000	0.036	0.184
-428.617	-200.000	0.036	-0.238
-427.603	772.623	0.062	0.169
-426.588	2.494	-0.253	-0.184
-425.573	-200.000	0.114	0.000
-424.559	-109.372	0.274	0.058
-423.544	-200.000	-0.054	0.259
-422.530	14.412	0.122	-0.096
-421.515	-101.545	-0.143	-0.035
-420.500	116.852	-0.305	-0.376
-419.486	-87.465	-0.297	-0.090
-418.471	-200.000	0.040	-0.193
-417.457	432.073	0.081	0.176
-416.442	-200.000	0.031	-0.236
-415.428	-115.970	-0.266	0.050
-414.413	-200.000	0.004	0.169
-413.398	40.201	-0.052	-0.047
-412.384	-192.111	0.416	0.004
-411.369	244.241	0.136	-0.229
-410.355	179.306	0.224	-0.329
-409.340	51.987	-0.045	-0.043
-408.325	-155.022	-0.140	0.009
-407.311	96.994	-0.126	0.145
-406.296	107.798	-0.237	0.284
-405.282	131.664	0.150	0.193
-404.267	-200.000	-0.018	-0.095
-403.252	-166.104	0.255	0.011
-402.238	-160.584	-0.086	-0.005
-401.223	-6.699	0.107	-0.073
-400.209	-200.000	-0.001	0.141
-399.194	38.600	-0.098	-0.088
-398.179	328.654	-0.042	0.080
-397.165	-190.915	0.343	0.004
-396.150	61.629	0.295	0.295
-395.136	315.255	0.048	0.091
-394.121	237.102	0.113	0.187
-393.106	-200.000	0.009	0.316
-392.092	800.000	-0.086	0.371
-391.077	-200.000	0.009	-0.135
-390.063	346.779	0.098	0.193
-389.048	-200.000	0.029	-0.331
-388.033	-200.000	-0.038	-0.245
-387.019	-200.000	-0.016	-0.121
-386.004	130.299	0.151	-0.194
-384.990	559.922	0.013	-0.032
-383.975	800.000	-0.078	-0.245
-382.960	800.000	0.025	0.103
-381.946	192.173	0.142	-0.214
-380.931	800.000	-0.062	-0.177
-379.917	88.415	0.175	-0.195
-378.902	-109.713	-0.310	0.065
-377.888	-84.147	0.158	-0.050
-376.873	-92.650	-0.228	0.064
-375.858	68.838	-0.132	-0.136
-374.844	-12.237	-0.165	-0.108
-373.829	611.816	-0.039	0.097
-372.815	800.000	0.014	-0.048
-371.800	224.640	-0.219	-0.355
-370.785	292.888	-0.030	-0.055
-369.771	-118.544	0.069	0.012
-368.756	-79.223	-0.017	0.006
-367.742	800.000	0.007	0.024
-366.727	47.156	0.128	0.119
-365.712	-143.096	-0.195	-0.019
-364.698	-25.674	0.518	0.306
-363.683	-75.395	-0.063	0.023
-362.669	-84.734	-0.333	-0.105
-361.654	-148.770	0.208	-0.017
-360.639	12.992	-0.188	0.146
-359.625	800.000	-0.048	0.136
-358.610	29.627	0.074	0.063
-357.596	14.189	0.120	-0.094
-356.581	-137.782	0.142	-0.016
-355.566	435.972	-0.164	0.358
-354.552	566.912	0.059	0.144
-353.537	-48.089	0.319	0.154
-352.523	283.632	-0.022	0.039
-351.508	-4.818	0.456	-0.315
-350.493	-20.133	-0.419	0.259
-349.479	800.000	-0.102	0.364
-348.464	496.530	-0.074	0.171
-347.450	97.802	0.212	0.245
-346.435	-16.850	-0.244	0.155
-345.420	40.462	0.143	0.129
-344.406	-152.195	-0.210	-0.015
-343.391	-200.000	0.044	0.260
-342.377	58.911	0.199	-0.196
-341.362	-103.175	-0.246	0.058
-340.348	77.860	-0.083	-0.089
-339.333	-120.720	-0.092	0.016
-338.318	53.389	0.150	-0.144
-337.304	-200.000	0.007	-0.174
-336.289	-95.989	0.382	0.102
-335.275	102.108	0.140	0.164
-334.260	-70.406	-0.073	-0.028
-333.245	220.871	0.049	0.078
-332.231	-200.000	-0.000	0.050
-331.216	-73.462	0.284	-0.104
-330.202	-4.536	0.216	-0.149
-329.187	33.534	-0.325	0.283
-328.172	-163.090	0.189	-0.009
-327.158	-200.000	-0.026	-0.165
-326.143	-107.824	0.245	-0.053
-325.129	-200.000	0.019	-0.334
-324.114	225.609	0.028	0.046
-323.099	-90.291	0.052	-0.015
-322.085	371.211	0.228	0.462
-321.070	-200.000	-0.014	0.263
-320.056	800.000	-0.031	0.122
-319.041	757.128	-0.026	-0.071
-318.026	800.000	0.055	0.168
-317.012	-200.000	0.028	0.391
-315.997	-88.530	-0.350	0.104
-314.983	-151.024	-0.167	-0.013
-313.968	-17.114	0.198	-0.125
-312.953	-135.515	-0.377	0.045
-311.939	-3.137	0.113	-0.079
-310.924	-28.469	-0.086	0.050
-309.910	-59.270	0.203	0.087
-308.895	21.985	-0.266	0.217
-307.880	122.039	-0.065	0.081
-306.866	800.000	0.044	-0.183
-305.851	800.000	-0.095	0.371
-304.837	-148.008	0.116	0.010
-303.822	-96.390	-0.273	-0.072
-302.807	-43.249	-0.139	0.070
-301.793	183.342	0.080	-0.118
-300.778	-109.478	-0.319	-0.067
-299.764	-57.270	0.147	-0.064
-298.749	-132.705	0.247	-0.032
-297.735	-141.538	-0.262	0.026
-296.720	-27.779	-0.063	-0.036
-295.705	800.000	-0.089	-0.323
-294.691	431.715	-0.052	0.112
-293.676	85.733	-0.214	0.235
-292.662	19.651	-0.025	0.020
-291.647	709.562	-0.086	-0.226
-290.632	-52.861	-0.542	-0.250
-289.618	158.477	-0.151	-0.209
-288.603	65.664	-0.186	0.188
-287.589	60.262	-0.278	0.274
-286.574	-153.153	-0.265	0.019
-285.559	-86.597	0.408	-0.125
-284.545	88.295	-0.188	-0.208
-283.530	374.414	-0.034	-0.070
-282.516	124.479	0.167	-0.209
-281.501	153.582	0.213	-0.291
-280.486	620.970	0.045	0.113
-279.472	166.031	-0.079	0.112
-278.457	143.549	0.134	0.179
-277.443	62.402	0.172	0.171
-276.428	-148.218	0.148	-0.012
-275.413	38.033	0.178	0.158
-274.399	179.161	-0.186	-0.272
-273.384	-104.300	-0.055	0.013
-272.370	-200.000	0.012	0.159
-271.355	-137.794	0.153	-0.017
-270.340	-141.026	-0.220	0.023
-269.326	11.639	-0.151	0.116
-268.311	-22.933	0.117	-0.070
-267.297	85.294	0.155	-0.170
-266.282	113.409	0.096	0.116
-265.267	63.757	0.204	0.205
-264.253	636.906	0.072	0.183
-263.238	509.070	0.070	-0.163
-262.224	83.368	-0.129	-0.141
-261.209	-99.728	0.295	-0.074
-260.195	544.323	0.093	-0.222
-259.180	-62.154	-0.108	-0.045
-258.165	120.152	-0.191	-0.237
-257.151	-31.396	0.205	-0.115
-256.136	800.000	0.163	0.468
-255.122	-35.524	0.283	0.153
-254.107	135.327	0.088	0.115
-253.092	-179.127	-0.075	0.002
-252.078	-200.000	-0.070	0.321
-251.063	54.947	-0.173	0.167
-250.049	-200.000	-0.178	0.000
-249.034	-200.000	-0.006	0.205
-248.019	-53.179	0.242	0.111
-247.005	-171.870	-0.017	-0.001
-245.990	32.297	0.165	0.142
-244.976	-67.056	0.289	-0.114
-243.961	800.000	0.075	0.282
-242.946	133.970	-0.159	-0.206
-241.932	-129.699	-0.492	0.068
-240.917	588.926	-0.066	0.162
-239.903	-42.356	0.234	0.119
-238.888	445.911	0.036	-0.078
-237.873	-181.743	0.217	0.004
-236.859	-200.000	-0.035	-0.210
-235.844	-29.117	0.282	-0.161
-234.830	-161.184	-0.364	0.019
-233.815	-129.486	0.273	-0.038
-232.800	740.416	0.020	0.054
-231.786	139.649	-0.084	0.111
-230.771	285.955	-0.047	-0.085
-229.757	800.000	0.070	-0.244
-228.742	800.000	-0.051	0.207
-227.727	800.000	0.101	0.419
-226.713	-8.659	-0.045	-0.030
-225.698	-200.000	-0.006	-0.063
-224.684	57.655	0.081	0.079
-223.669	120.576	0.114	0.141
-222.655	580.167	0.072	0.175
-221.640	-200.000	0.106	-0.567
-220.625	-51.549	0.358	0.166
-219.611	67.966	0.035	-0.035
-218.596	160.375	-0.142	0.198
-217.582	105.812	-0.219	-0.258
-216.567	-36.034	-0.063	0.034
-215.552	-200.000	0.011	-0.185
-214.538	-76.013	0.281	0.099
-213.523	800.000	0.055	0.157
-212.509	-80.384	0.190	-0.063
-211.494	-168.315	0.378	-0.015
-210.479	406.463	-0.116	0.243
-209.465	-200.000	0.009	-0.209
-208.450	510.823	0.046	-0.107
-207.436	151.907	-0.239	-0.325
-206.421	-200.000	-0.034	-0.154
-205.406	-51.953	-0.118	-0.055
-204.392	-200.000	-0.004	0.076
-203.377	-112.031	-0.166	0.033
-202.363	114.894	-0.206	-0.250
-201.348	63.317	0.045	-0.045
-200.333	64.180	-0.179	-0.179
-199.319	240.184	-0.071	0.117
-198.304	-200.000	0.008	-0.101
-197.290	100.589	0.064	-0.074
-196.275	-19.428	0.278	0.172
-195.260	461.599	-0.041	-0.091
-194.246	-128.907	-0.428	-0.060
-193.231	88.262	-0.247	0.273
-192.217	126.319	-0.102	-0.128
-191.202	800.000	0.056	0.240
-190.187	27.441	-0.219	0.183
-189.173	-58.329	0.152	0.066
-188.158	-200.000	0.099	-0.440
-187.144	442.018	0.148	-0.323
-186.129	3.308	-0.155	-0.112
-185.114	-106.733	-0.377	0.083
-184.100	-164.868	-0.174	0.008
-183.085	-116.782	0.116	0.021
-182.071	-46.728	0.302	-0.147
-181.056	6.405	-0.279	0.206
-180.042	800.000	-0.100	0.383
-179.027	-80.247	0.413	-0.137
-178.012	442.695	-0.054	-0.119
-176.998	-136.661	0.075	-0.009
-175.983	503.956	-0.046	0.105
-174.969	16.894	0.092	-0.072
-173.954	-200.000	0.047	-0.324
-172.939	800.000	-0.074	-0.245
-171.925	-200.000	0.088	0.397
-170.910	-200.000	-0.020	0.135
-169.896	-200.000	-0.137	0.676
-168.881	-123.871	0.153	0.024
-167.866	405.073	-0.098	0.205
-166.852	28.449	-0.127	0.107
-165.837	-200.000	0.062	-0.407
-164.823	-41.898	-0.224	0.114
-163.808	5.197	-0.173	-0.127
-162.793	-200.000	0.002	-0.066
-161.779	-37.269	0.108	-0.058
-160.764	-54.662	0.186	0.084
-159.750	259.336	-0.051	-0.088
-158.735	-200.000	0.011	0.384
-157.720	-116.276	0.120	-0.022
-156.706	294.622	0.049	0.089
-155.691	-68.274	0.166	-0.064
-154.677	567.595	-0.046	-0.111
-153.662	-140.087	-0.121	-0.013
-152.647	-0.676	0.052	0.037
-151.633	31.830	-0.245	0.210
-150.618	-72.212	0.194	-0.072
-149.604	800.000	0.036	-0.112
-148.589	271.940	0.078	-0.137
-147.574	800.000	-0.008	0.024
-146.560	-154.588	-0.291	-0.019
-145.545	-200.000	0.019	0.411
-144.531	171.337	-0.173	-0.247
-143.516	-92.810	0.092	0.026
-142.502	-200.000	0.015	-0.168
-141.487	-131.354	0.203	0.027
-140.472	800.000	-0.070	0.233
-139.458	-41.084	0.348	0.179
-138.443	-200.000	-0.046	0.265
-137.429	135.488	0.097	-0.125
-136.414	-200.000	0.041	0.202
-135.399	-124.513	0.232	-0.036
-134.385	669.615	-0.144	0.369
-133.370	629.359	-0.106	0.267
-132.356	-200.000	0.069	0.313
-131.341	-37.219	-0.071	0.038
-130.326	-124.832	0.322	-0.049
-129.312	-3.455	-0.315	-0.218
-128.297	110.113	0.219	0.261
-127.283	57.704	-0.191	-0.185
-126.268	33.742	-0.114	0.098
-125.253	-200.000	0.030	0.271
-124.239	378.942	-0.126	0.256
-123.224	800.000	0.076	-0.255
-122.210	228.969	0.058	-0.093
-121.195	-106.117	-0.316	-0.071
-120.180	-74.356	0.359	-0.129
