DTS Sentinel unit serial number:	SN413079Multiplexer serial number:	ORYXHardware model number:	OX4-SRSoftware version number:	ORYX F/W v4.00 Oryx Data Collector v3.7.2.0data status	okinstallation	princeton_trtdifferential loss correction	single-endedforward channel	channel 1reverse channel	N/Adate	2019/09/15time	12:18:35forward acquisition time	60.00reverse acquisition time	0.00gamma	496.2192k internal	0.2304k external	0.2304temperature offset calibration	0.9983default loss term (dB/km)	0.3790temperature slope calibration	1.0000multiplexer offset coefficient	1.0000multiplexer slope coefficient	1.0000fibre end	0.00T internal ref (°C)	34.75T ext. ref 1 (°C)	5.05T ext. ref 2 (°C)	31.84length (m)	temperature (°C)	Stokes	anti-Stokes-747.200	-102.683	-0.125	0.030
-746.185	-200.000	-0.048	0.260
-745.171	-38.309	-0.171	0.092
-744.156	-16.073	-0.116	0.075
-743.142	8.899	-0.091	0.070
-742.127	-200.000	-0.008	-0.132
-741.112	-200.000	-0.019	0.172
-740.098	-123.113	0.353	0.058
-739.083	144.185	0.022	0.030
-738.069	-200.000	-0.011	0.253
-737.054	-120.955	0.109	-0.019
-736.039	-132.492	0.218	-0.029
-735.025	-92.909	-0.120	-0.034
-734.010	97.443	-0.078	0.091
-732.996	-3.098	-0.100	-0.071
-731.981	120.525	0.175	0.221
-730.966	-24.654	0.301	-0.182
-729.952	315.543	-0.087	-0.167
-728.937	-59.808	-0.095	-0.041
-727.923	140.056	0.272	0.365
-726.908	-12.674	-0.221	0.147
-725.894	-146.873	0.089	0.008
-724.879	-138.326	0.458	-0.052
-723.864	800.000	-0.159	-0.466
-722.850	-200.000	-0.015	-0.504
-721.835	-95.881	0.340	-0.092
-720.821	279.391	-0.036	0.065
-719.806	-105.967	0.212	0.049
-718.791	63.476	-0.145	-0.148
-717.777	-200.000	-0.062	-0.315
-716.762	34.396	0.220	-0.196
-715.748	-200.000	-0.005	-0.102
-714.733	134.560	-0.135	-0.178
-713.718	-96.517	0.180	0.048
-712.704	-200.000	-0.011	0.094
-711.689	21.884	-0.188	0.156
-710.675	-104.994	0.188	-0.044
-709.660	311.581	0.106	0.202
-708.645	-168.710	-0.133	0.005
-707.631	-56.770	0.067	0.030
-706.616	207.403	-0.042	-0.066
-705.602	-200.000	-0.013	-0.425
-704.587	120.373	0.169	-0.214
-703.572	-200.000	0.005	0.143
-702.558	-91.035	-0.193	-0.056
-701.543	-36.892	0.027	-0.015
-700.529	800.000	-0.042	-0.179
-699.514	166.755	-0.141	-0.203
-698.499	-129.336	-0.294	-0.042
-697.485	-1.565	-0.138	0.099
-696.470	800.000	0.090	-0.354
-695.456	-27.720	-0.011	-0.006
-694.441	-200.000	0.014	0.105
-693.426	-85.881	-0.234	-0.074
-692.412	-192.554	-0.101	-0.001
-691.397	15.833	-0.245	0.196
-690.383	-200.000	-0.008	-0.060
-689.368	-167.617	0.193	0.008
-688.354	-144.408	0.441	-0.042
-687.339	-36.083	-0.158	0.087
-686.324	-200.000	-0.013	-0.115
-685.310	-43.211	0.091	-0.047
-684.295	188.955	0.051	0.077
-683.281	-198.801	0.145	0.001
-682.266	-10.458	0.050	-0.034
-681.251	-200.000	-0.019	-0.276
-680.237	41.449	-0.220	-0.202
-679.222	-51.999	-0.246	-0.116
-678.208	-64.103	-0.093	0.038
-677.193	-151.726	0.152	-0.011
-676.178	-18.916	0.088	-0.055
-675.164	-94.864	0.421	0.116
-674.149	41.534	-0.259	-0.238
-673.135	-116.840	0.216	0.040
-672.120	-200.000	0.008	0.129
-671.105	182.966	-0.195	-0.293
-670.091	-56.576	-0.238	-0.107
-669.076	800.000	-0.082	-0.238
-668.062	-29.401	0.113	-0.065
-667.047	-74.550	0.145	-0.053
-666.032	70.213	-0.129	-0.135
-665.018	-89.405	-0.287	-0.086
-664.003	217.173	-0.062	-0.100
-662.989	105.844	-0.116	0.140
-661.974	388.589	-0.053	-0.111
-660.959	-98.094	0.230	0.060
-659.945	-62.542	-0.246	-0.104
-658.930	271.708	0.051	-0.091
-657.916	-149.556	-0.247	0.020
-656.901	-62.903	0.257	0.108
-655.886	-18.359	0.064	0.041
-654.872	-86.912	0.102	0.032
-653.857	29.793	0.243	-0.210
-652.843	-200.000	0.026	0.306
-651.828	-130.514	-0.253	0.035
-650.814	800.000	-0.082	0.273
-649.799	434.517	-0.046	-0.101
-648.784	106.834	-0.099	-0.119
-647.770	112.178	0.087	0.107
-646.755	-100.283	0.228	0.057
-645.741	800.000	-0.019	-0.056
-644.726	800.000	-0.095	-0.324
-643.711	-200.000	0.031	0.149
-642.697	-92.113	0.340	0.098
-641.682	337.158	-0.025	-0.049
-640.668	-91.806	0.238	-0.068
-639.653	557.754	-0.097	0.236
-638.638	74.901	0.343	-0.366
-637.624	63.649	0.086	0.088
-636.609	-178.304	0.209	-0.005
-635.595	-164.193	0.125	-0.006
-634.580	-135.413	-0.066	-0.008
-633.565	-200.000	0.006	0.130
-632.551	-102.262	-0.085	-0.021
-631.536	-44.942	-0.071	-0.036
-630.522	-81.770	0.188	-0.062
-629.507	800.000	0.040	-0.129
-628.492	43.131	0.120	-0.111
-627.478	707.665	0.099	-0.266
-626.463	-17.775	0.238	-0.152
-625.449	304.201	-0.129	0.242
-624.434	55.093	0.056	0.055
-623.419	-16.750	0.163	0.105
-622.405	-40.996	-0.480	-0.251
-621.390	-76.199	0.120	-0.043
-620.376	184.843	-0.021	0.031
-619.361	-155.774	-0.287	0.019
-618.346	-51.267	0.392	0.186
-617.332	-63.508	0.219	-0.091
-616.317	-200.000	0.003	-0.153
-615.303	-136.414	-0.222	0.026
-614.288	330.992	0.129	-0.252
-613.273	104.840	0.289	-0.345
-612.259	-33.371	-0.231	0.129
-611.244	-52.785	0.097	-0.045
-610.230	87.731	-0.214	-0.241
-609.215	-200.000	-0.012	0.172
-608.201	44.672	0.067	-0.062
-607.186	295.616	-0.102	-0.189
-606.171	-27.326	-0.359	-0.211
-605.157	-132.251	0.157	-0.021
-604.142	146.587	-0.171	0.233
-603.128	-188.782	-0.233	-0.003
-602.113	-129.557	-0.062	0.009
-601.098	-47.092	0.477	-0.236
-600.084	-26.432	0.097	-0.058
-599.069	-9.067	0.303	-0.205
-598.055	-164.638	-0.358	0.016
-597.040	70.609	0.174	0.182
-596.025	-76.633	-0.323	0.115
-595.011	264.037	0.234	0.413
-593.996	-104.974	0.032	-0.007
-592.982	194.884	-0.194	0.298
-591.967	-200.000	0.011	-0.059
-590.952	-200.000	0.012	0.097
-589.938	-59.424	-0.250	0.109
-588.923	-200.000	0.013	0.205
-587.909	-128.246	-0.197	-0.028
-586.894	-63.239	-0.426	0.178
-585.879	39.593	0.293	0.266
-584.865	-200.000	0.027	-0.396
-583.850	-200.000	-0.023	-0.161
-582.836	-86.107	-0.353	-0.110
-581.821	290.832	-0.036	0.066
-580.806	-106.966	0.153	-0.034
-579.792	227.987	0.157	-0.258
-578.777	12.697	0.087	0.068
-577.763	-172.536	-0.100	0.003
-576.748	145.353	-0.047	0.064
-575.733	-109.842	-0.314	0.067
-574.719	-164.127	0.170	-0.008
-573.704	26.983	0.052	-0.044
-572.690	-76.804	0.102	0.036
-571.675	-124.283	-0.361	0.057
-570.661	-49.124	0.219	-0.106
-569.646	-136.206	-0.135	-0.016
-568.631	-19.867	-0.199	0.124
-567.617	225.506	-0.133	-0.218
-566.602	-200.000	-0.004	0.039
-565.588	800.000	-0.106	0.442
-564.573	-159.123	-0.256	0.015
-563.558	536.073	-0.087	-0.209
-562.544	-200.000	-0.013	0.328
-561.529	194.641	-0.067	-0.103
-560.515	-75.359	-0.028	-0.010
-559.500	-85.230	-0.450	-0.142
-558.485	800.000	-0.089	-0.334
-557.471	-29.949	0.118	-0.068
-556.456	-200.000	0.078	-0.377
-555.442	-153.823	-0.256	-0.018
-554.427	105.656	0.117	-0.140
-553.412	-123.378	0.260	0.042
-552.398	-200.000	0.006	-0.032
-551.383	668.470	-0.080	-0.210
-550.369	422.473	-0.066	-0.144
-549.354	68.611	0.275	0.285
-548.339	-74.741	-0.041	0.015
-547.325	800.000	-0.064	-0.198
-546.310	-126.086	-0.337	0.051
-545.296	-8.596	-0.246	0.167
-544.281	32.260	0.231	0.202
-543.266	139.495	-0.084	0.112
-542.252	-83.744	-0.263	0.085
-541.237	7.602	0.342	-0.258
-540.223	-47.503	0.246	-0.121
-539.208	512.731	0.054	0.126
-538.193	441.735	-0.028	0.061
-537.179	145.060	-0.150	-0.203
-536.164	36.271	0.116	-0.103
-535.150	266.857	-0.075	-0.132
-534.135	-31.185	0.227	0.129
-533.121	61.787	-0.094	-0.095
-532.106	-200.000	0.044	-0.203
-531.091	-169.989	0.237	0.009
-530.077	-200.000	-0.042	-0.266
-529.062	-200.000	-0.013	0.077
-528.048	142.804	-0.162	-0.218
-527.033	-111.072	0.371	-0.077
-526.018	-200.000	0.027	0.137
-525.004	143.464	-0.126	0.170
-523.989	564.111	0.102	0.249
-522.975	723.918	-0.071	-0.190
-521.960	40.736	0.077	-0.070
-520.945	-86.836	0.388	0.120
-519.931	-133.853	-0.119	0.015
-518.916	134.798	0.099	0.130
-517.902	-110.121	-0.147	0.031
-516.887	-12.145	-0.125	-0.083
-515.872	-162.726	-0.149	0.007
-514.858	800.000	-0.015	0.042
-513.843	340.717	-0.130	-0.256
-512.829	-61.036	-0.196	0.083
-511.814	82.383	-0.094	-0.103
-510.799	-108.278	-0.145	0.032
-509.785	-30.334	0.172	-0.099
-508.770	-28.712	0.083	-0.048
-507.756	2.270	-0.104	0.076
-506.741	280.968	-0.159	-0.287
-505.726	-200.000	0.048	-0.369
-504.712	4.736	0.131	0.097
-503.697	7.393	-0.290	-0.219
-502.683	121.253	0.227	0.285
-501.668	69.539	0.105	-0.109
-500.653	-55.313	-0.181	-0.082
-499.639	-122.455	-0.363	-0.060
-498.624	330.919	-0.047	-0.092
-497.610	-200.000	-0.022	0.167
-496.595	-26.596	0.130	0.077
-495.581	16.240	0.277	0.220
-494.566	800.000	-0.041	0.164
-493.551	-132.426	-0.157	0.020
-492.537	488.498	0.142	0.327
-491.522	-45.246	0.020	0.010
-490.508	-123.275	-0.143	0.023
-489.493	-62.176	-0.219	0.092
-488.478	800.000	-0.090	0.387
-487.464	-95.363	0.093	-0.025
-486.449	-52.531	0.160	0.074
-485.435	-59.425	0.087	-0.038
-484.420	-43.170	-0.184	0.094
-483.405	670.082	0.092	0.240
-482.391	2.729	-0.063	0.046
-481.376	-68.453	0.345	-0.135
-480.362	247.494	0.125	-0.212
-479.347	-200.000	-0.012	0.083
-478.332	800.000	-0.061	0.228
-477.318	-47.238	-0.563	-0.276
-476.303	-54.769	0.130	-0.059
-475.289	68.072	-0.044	-0.045
-474.274	19.097	-0.074	0.060
-473.259	-52.897	0.286	-0.133
-472.245	-72.756	0.080	0.030
-471.230	-200.000	0.007	-0.231
-470.216	762.551	0.075	-0.205
-469.201	293.746	-0.151	0.279
-468.186	-116.223	-0.204	-0.038
-467.172	-190.852	0.216	-0.002
-466.157	800.000	0.080	-0.231
-465.143	-37.563	0.086	-0.046
-464.128	-200.000	-0.018	-0.138
-463.113	800.000	-0.037	-0.164
-462.099	96.662	-0.134	-0.155
-461.084	135.816	0.207	-0.272
-460.070	-74.049	-0.237	0.086
-459.055	-200.000	-0.015	0.214
-458.040	800.000	0.106	0.396
-457.026	225.603	0.080	-0.131
-456.011	362.973	-0.079	-0.160
-454.997	-200.000	0.038	0.269
-453.982	-70.376	-0.184	-0.070
-452.968	-200.000	-0.009	0.055
-451.953	-200.000	0.030	0.350
-450.938	258.436	0.029	0.050
-449.924	-32.861	-0.193	-0.108
-448.909	-200.000	0.015	-0.105
-447.895	-61.899	-0.051	-0.021
-446.880	-57.771	0.210	0.093
-445.865	-200.000	0.110	0.578
-444.851	-88.772	-0.041	-0.012
-443.836	47.900	-0.132	0.124
-442.822	-200.000	0.069	-0.367
-441.807	-74.667	0.175	-0.063
-440.792	-59.932	0.240	-0.103
-439.778	-12.854	-0.174	0.114
-438.763	-65.222	0.196	0.079
-437.749	-25.852	0.166	0.098
-436.734	-79.548	-0.165	0.056
-435.719	104.101	-0.095	0.113
-434.705	800.000	0.039	0.141
-433.690	-38.541	0.210	0.111
-432.676	-200.000	0.014	0.268
-431.661	83.933	0.025	0.027
-430.646	-110.688	-0.072	-0.015
-429.632	800.000	-0.085	0.279
-428.617	-93.213	-0.150	0.042
-427.603	-100.867	0.478	0.118
-426.588	-200.000	-0.030	-0.145
-425.573	-200.000	0.000	0.131
-424.559	-43.997	0.084	0.043
-423.544	343.026	0.097	0.192
-422.530	259.620	0.038	-0.067
-421.515	161.952	0.224	0.315
-420.500	41.160	0.230	0.209
-419.486	-74.688	0.218	-0.079
-418.471	177.786	0.076	-0.111
-417.457	-200.000	0.014	-0.135
-416.442	-146.411	0.288	-0.025
-415.428	-128.600	-0.222	0.032
-414.413	-200.000	-0.181	0.001
-413.398	754.385	-0.052	0.141
-412.384	-178.044	-0.463	0.011
-411.369	800.000	-0.048	-0.154
-410.355	55.563	0.080	-0.078
-409.340	582.231	-0.099	-0.243
-408.325	-26.469	0.249	0.147
-407.311	-27.552	-0.116	-0.068
-406.296	300.756	-0.130	0.240
-405.282	-200.000	-0.041	0.292
-404.267	-200.000	-0.016	0.203
-403.252	259.289	-0.189	0.328
-402.238	209.359	0.115	0.181
-401.223	-167.492	-0.268	-0.011
-400.209	-200.000	0.021	-0.275
-399.194	-6.574	0.209	-0.143
-398.179	-200.000	-0.038	0.436
-397.165	-38.148	-0.005	0.003
-396.150	123.687	-0.119	-0.150
-395.136	328.089	-0.050	0.096
-394.121	-200.000	0.032	0.359
-393.106	158.998	-0.240	0.335
-392.092	-134.318	0.211	-0.026
-391.077	-76.745	0.316	0.111
-390.063	-96.936	0.119	-0.031
-389.048	409.293	0.085	0.181
-388.033	800.000	0.010	0.037
-387.019	-200.000	0.017	-0.311
-386.004	481.515	-0.081	0.184
-384.990	55.283	0.313	-0.304
-383.975	-71.527	-0.163	-0.061
-382.960	53.666	0.130	-0.126
-381.946	151.681	-0.144	0.196
-380.931	131.304	-0.064	-0.083
-379.917	-200.000	0.037	-0.254
-378.902	-85.066	0.316	0.099
-377.888	33.239	0.189	0.164
-376.873	-153.638	-0.160	0.011
-375.858	-200.000	-0.011	0.271
-374.844	-94.179	0.111	0.031
-373.829	-104.153	-0.081	-0.019
-372.815	320.632	0.089	0.170
-371.800	108.140	-0.117	-0.140
-370.785	-200.000	-0.017	-0.159
-369.771	-147.445	-0.211	0.018
-368.756	-106.259	0.219	-0.049
-367.742	-200.000	0.005	0.149
-366.727	771.289	-0.031	0.083
-365.712	9.500	0.214	0.163
-364.698	-164.537	0.301	-0.014
-363.683	-114.740	0.051	0.010
-362.669	221.033	0.082	-0.132
-361.654	-183.485	-0.175	-0.003
-360.639	692.365	-0.113	-0.297
-359.625	-200.000	0.014	-0.306
-358.610	161.738	0.114	-0.160
-357.596	49.571	-0.149	0.140
-356.581	-139.808	0.186	0.020
-355.566	-31.370	0.262	-0.148
-354.552	800.000	0.047	-0.174
-353.537	-200.000	0.001	-0.144
-352.523	85.332	0.380	-0.418
-351.508	-200.000	-0.036	-0.288
-350.493	-200.000	-0.006	-0.034
-349.479	-50.143	0.347	-0.165
-348.464	-36.427	-0.296	0.160
-347.450	62.416	-0.150	0.151
-346.435	-189.975	-0.099	0.001
-345.420	639.672	0.036	-0.091
-344.406	336.428	0.069	-0.135
-343.391	103.180	0.045	-0.053
-342.377	637.118	-0.145	0.369
-341.362	263.370	0.143	0.250
-340.348	-36.929	0.063	0.034
-339.333	329.893	0.057	0.110
-338.318	529.554	-0.014	0.033
-337.304	339.621	-0.025	0.049
-336.289	-126.012	0.107	0.016
-335.275	-102.042	-0.040	0.010
-334.260	-26.486	0.064	-0.038
-333.245	-26.731	-0.259	0.152
-332.231	154.903	0.045	0.062
-331.216	-200.000	-0.097	-0.776
-330.202	215.688	0.127	0.203
-329.187	28.714	0.263	0.223
-328.172	-46.411	-0.278	0.137
-327.158	-99.708	0.264	0.066
-326.143	370.066	0.050	0.102
-325.129	-200.000	-0.064	0.307
-324.114	-200.000	0.040	0.277
-323.099	800.000	0.060	0.226
-322.085	800.000	-0.077	0.258
-321.070	-200.000	-0.002	0.020
-320.056	-200.000	0.018	-0.091
-319.041	454.520	0.082	-0.181
-318.026	-109.310	-0.086	0.018
-317.012	-36.869	-0.318	0.171
-315.997	-133.797	-0.109	-0.014
-314.983	-59.659	0.173	-0.074
-313.968	506.391	-0.071	0.164
-312.953	26.488	-0.214	0.179
-311.939	-90.743	0.259	0.075
-310.924	73.621	0.172	-0.180
-309.910	-78.755	-0.236	-0.081
-308.895	-165.373	0.083	-0.004
-307.880	-200.000	0.025	-0.173
-306.866	30.093	-0.236	0.202
-305.851	204.896	-0.198	0.308
-304.837	376.087	-0.134	0.273
-303.822	-200.000	-0.013	-0.318
-302.807	800.000	-0.086	-0.256
-301.793	275.067	0.167	-0.297
-300.778	281.779	0.104	0.187
-299.764	349.993	0.060	-0.119
-298.749	-79.322	0.083	-0.028
-297.735	32.870	-0.016	-0.014
-296.720	256.418	0.056	-0.096
-295.705	102.957	-0.164	-0.192
-294.691	-73.448	0.215	0.079
-293.676	-200.000	-0.017	-0.216
-292.662	-47.056	0.210	-0.102
-291.647	-97.601	-0.191	-0.049
-290.632	800.000	0.071	-0.264
-289.618	800.000	-0.142	-0.433
-288.603	-30.541	0.187	0.106
-287.589	-200.000	-0.042	-0.217
-286.574	227.341	0.162	-0.263
-285.559	-200.000	0.049	0.239
-284.545	322.433	-0.123	-0.235
-283.530	28.552	0.222	-0.187
-282.516	-54.233	-0.355	-0.161
-281.501	800.000	-0.051	-0.217
-280.486	543.424	0.041	0.099
-279.472	-17.516	0.134	0.084
-278.457	-8.355	0.162	-0.109
-277.443	27.112	-0.064	0.054
-276.428	-130.243	0.328	-0.045
-275.413	-80.725	0.143	0.048
-274.399	17.974	-0.327	0.261
-273.384	271.055	0.099	0.174
-272.370	-200.000	-0.058	-0.329
-271.355	-115.998	0.162	-0.030
-270.340	-24.771	-0.104	0.062
-269.326	154.020	0.126	-0.172
-268.311	-200.000	0.011	-0.103
-267.297	65.155	0.263	0.266
-266.282	800.000	-0.106	0.413
-265.267	800.000	-0.111	0.346
-264.253	-80.685	-0.315	-0.105
-263.238	123.859	0.060	0.075
-262.224	385.885	0.099	0.205
-261.209	510.291	-0.123	0.286
-260.195	-98.838	-0.325	0.083
-259.180	-55.453	0.325	-0.146
-258.165	577.276	-0.089	-0.218
-257.151	369.660	0.141	0.285
-256.136	3.598	-0.278	-0.203
-255.122	800.000	-0.093	-0.259
-254.107	800.000	0.032	-0.103
-253.092	-200.000	0.024	-0.243
-252.078	6.302	0.149	-0.111
-251.063	800.000	0.043	0.159
-250.049	33.832	-0.153	-0.133
-249.034	369.775	-0.117	-0.237
-248.019	107.899	-0.255	-0.304
-247.005	422.052	-0.049	0.104
-245.990	313.653	0.159	0.299
-244.976	6.773	-0.147	-0.109
-243.961	-162.858	0.059	-0.003
-242.946	81.612	-0.225	0.243
-241.932	24.002	0.165	0.136
-240.917	-131.722	0.216	-0.028
-239.903	793.950	-0.044	0.121
-238.888	-21.387	-0.291	0.177
-237.873	156.727	-0.062	-0.086
-236.859	-13.827	0.105	-0.068
-235.844	-97.261	-0.209	-0.054
-234.830	130.210	-0.124	-0.158
-233.815	74.253	-0.197	-0.206
-232.800	-11.638	0.124	-0.081
-231.786	54.067	0.238	0.229
-230.771	-1.166	-0.048	0.034
-229.757	-61.080	0.104	-0.044
-228.742	-200.000	-0.053	-0.325
-227.727	800.000	-0.045	-0.178
-226.713	470.210	-0.134	0.300
-225.698	-200.000	-0.040	0.277
-224.684	-47.824	-0.303	-0.146
-223.669	-54.536	-0.057	0.026
-222.655	-30.092	-0.030	0.017
-221.640	800.000	0.102	-0.402
-220.625	-26.593	-0.209	-0.122
-219.611	15.702	-0.042	-0.033
-218.596	239.602	-0.044	0.073
-217.582	127.366	0.100	0.126
-216.567	-200.000	-0.013	-0.390
-215.552	-106.022	0.328	-0.074
-214.538	-200.000	-0.075	-0.352
-213.523	-200.000	-0.026	0.254
-212.509	-164.099	0.085	0.004
-211.494	-88.971	-0.271	-0.080
-210.479	800.000	0.024	0.077
-209.465	342.814	0.060	-0.118
-208.450	292.626	-0.046	0.084
-207.436	382.828	-0.162	0.331
-206.421	-95.491	0.217	-0.058
-205.406	375.083	-0.084	-0.171
-204.392	-200.000	-0.018	-0.205
-203.377	314.218	0.057	0.107
-202.363	196.636	0.147	0.224
-201.348	86.457	-0.104	0.114
-200.333	27.856	0.093	-0.078
-199.319	-107.054	0.023	0.005
-198.304	416.045	-0.056	0.120
-197.290	-49.487	-0.315	0.150
-196.275	-200.000	0.023	0.238
-195.260	800.000	0.042	0.134
-194.246	79.433	0.183	-0.196
-193.231	281.650	-0.092	-0.164
-192.217	236.267	-0.168	-0.278
-191.202	76.353	0.111	-0.117
-190.187	16.308	-0.143	0.112
-189.173	-164.255	-0.342	0.016
-188.158	-24.829	-0.131	0.078
-187.144	493.606	-0.051	-0.118
-186.129	-11.857	-0.163	-0.106
-185.114	-200.000	0.035	0.227
-184.100	264.185	0.072	0.126
-183.085	-200.000	-0.057	-0.362
-182.071	-19.089	0.042	0.026
-181.056	-77.078	0.041	0.014
-180.042	-51.265	-0.291	-0.136
-179.027	-44.788	-0.049	0.024
-178.012	87.796	-0.094	0.104
-176.998	-92.943	0.162	0.045
-175.983	-8.314	0.114	0.076
-174.969	682.399	-0.011	-0.029
-173.954	553.362	0.113	-0.270
-172.939	625.622	0.137	0.343
-171.925	-97.407	-0.021	0.006
-170.910	105.840	-0.046	0.054
-169.896	5.227	0.262	0.193
-168.881	111.264	-0.117	0.140
-167.866	-200.000	-0.014	-0.181
-166.852	-29.503	0.101	0.057
-165.837	-200.000	0.052	0.276
-164.823	412.451	0.106	-0.225
-163.808	-39.000	-0.291	0.153
-162.793	22.370	-0.301	-0.245
-161.779	-4.748	0.252	0.173
-160.764	-200.000	-0.015	0.255
-159.750	66.440	0.207	0.210
-158.735	800.000	0.028	0.098
-157.720	-124.785	0.209	-0.032
-156.706	-35.687	-0.167	0.090
-155.691	198.964	0.086	-0.131
-154.677	-122.975	0.198	-0.032
-153.662	-190.086	-0.248	0.003
-152.647	22.835	-0.041	0.033
-151.633	-128.583	0.115	-0.016
-150.618	60.379	-0.308	0.303
-149.604	-143.151	0.296	-0.028
-148.589	-200.000	0.051	-0.235
-147.574	175.976	0.090	-0.130
-146.560	-108.923	-0.034	-0.007
-145.545	-15.117	0.047	-0.030
-144.531	-42.236	-0.286	0.146
-143.516	70.704	-0.215	-0.221
-142.502	-151.391	0.055	-0.004
-141.487	-45.421	0.426	0.210
-140.472	800.000	-0.088	0.323
-139.458	693.324	-0.092	-0.241
-138.443	119.862	-0.112	-0.138
-137.429	-29.650	-0.373	0.212
-136.414	-13.484	0.251	0.162
-135.399	25.637	0.038	-0.031
-134.385	1.588	-0.253	0.181
-133.370	408.931	0.235	-0.494
-132.356	-112.244	-0.456	0.091
-131.341	-120.269	0.098	0.017
-130.326	615.825	0.087	0.217
-129.312	-53.775	-0.188	0.086
-128.297	411.768	0.087	-0.183
-127.283	800.000	0.103	0.287
-126.268	30.975	0.081	0.069
-125.253	-98.447	0.142	0.036
-124.239	-79.974	-0.058	0.020
-123.224	-200.000	0.003	0.020
-122.210	-200.000	0.076	0.405
