DTS Sentinel unit serial number:	SN413079Multiplexer serial number:	ORYXHardware model number:	OX4-SRSoftware version number:	ORYX F/W v4.00 Oryx Data Collector v3.7.2.0data status	okinstallation	princeton_trtdifferential loss correction	single-endedforward channel	channel 1reverse channel	N/Adate	2019/09/16time	21:58:35forward acquisition time	60.00reverse acquisition time	0.00gamma	496.2192k internal	0.2324k external	0.2324temperature offset calibration	0.9958default loss term (dB/km)	0.3790temperature slope calibration	1.0000multiplexer offset coefficient	1.0000multiplexer slope coefficient	1.0000fibre end	0.00T internal ref (°C)	31.19T ext. ref 1 (°C)	0.07T ext. ref 2 (°C)	25.43length (m)	temperature (°C)	Stokes	anti-Stokes-747.200	-11.247	0.084	0.056
-746.185	381.791	0.069	0.143
-745.171	521.490	0.036	0.084
-744.156	-172.529	-0.217	-0.007
-743.142	757.280	0.030	-0.082
-742.127	-107.350	0.167	-0.037
-741.112	-135.537	-0.637	-0.077
-740.098	800.000	0.011	0.041
-739.083	-112.362	-0.027	-0.006
-738.069	-6.933	-0.281	0.192
-737.054	-60.037	0.231	0.100
-736.039	-154.341	-0.336	0.023
-735.025	108.295	0.210	0.252
-734.010	-200.000	-0.036	0.342
-732.996	373.310	-0.128	-0.263
-731.981	28.136	-0.185	-0.158
-730.966	800.000	-0.109	-0.348
-729.952	80.342	-0.252	-0.274
-728.937	-40.605	-0.328	-0.172
-727.923	-200.000	-0.034	-0.202
-726.908	-200.000	-0.037	-0.176
-725.894	-104.347	-0.177	-0.041
-724.879	800.000	0.035	-0.120
-723.864	183.661	0.177	0.264
-722.850	800.000	0.011	0.044
-721.835	-107.456	-0.167	0.037
-720.821	800.000	0.142	0.621
-719.806	-104.026	-0.187	-0.044
-718.791	-98.085	-0.287	0.074
-717.777	-163.829	-0.124	0.006
-716.762	53.833	0.104	-0.101
-715.748	-200.000	0.050	-0.251
-714.733	130.821	0.285	0.369
-713.718	-40.348	-0.293	-0.154
-712.704	-48.581	-0.187	-0.091
-711.689	348.944	0.070	-0.139
-710.675	15.961	0.067	-0.053
-709.660	10.355	0.285	-0.219
-708.645	-200.000	0.017	-0.106
-707.631	-133.188	-0.131	0.017
-706.616	-188.289	0.316	-0.004
-705.602	199.388	0.112	0.174
-704.587	-34.759	-0.139	0.076
-703.572	800.000	-0.024	-0.104
-702.558	-166.684	0.188	0.008
-701.543	-83.204	-0.205	0.066
-700.529	-138.533	-0.333	0.037
-699.514	112.135	0.182	-0.222
-698.499	-200.000	-0.038	0.186
-697.485	-111.619	-0.196	0.040
-696.470	-107.338	-0.168	-0.037
-695.456	800.000	-0.055	-0.166
-694.441	73.130	-0.141	-0.148
-693.426	800.000	-0.101	-0.292
-692.412	-200.000	-0.034	-0.293
-691.397	-44.762	-0.215	-0.108
-690.383	-49.031	-0.090	-0.043
-689.368	800.000	-0.019	-0.056
-688.354	5.054	0.148	-0.109
-687.339	402.479	-0.141	-0.299
-686.324	184.095	0.144	-0.215
-685.310	800.000	-0.101	0.307
-684.295	-66.410	-0.183	-0.073
-683.281	61.780	-0.098	-0.098
-682.266	47.304	0.072	-0.067
-681.251	290.397	-0.192	0.351
-680.237	119.480	-0.048	-0.060
-679.222	-123.404	-0.386	-0.062
-678.208	-152.434	-0.058	-0.004
-677.193	-200.000	-0.011	-0.405
-676.178	-107.761	-0.285	0.063
-675.164	-200.000	0.022	0.234
-674.149	-21.727	-0.172	-0.105
-673.135	15.276	-0.503	0.397
-672.120	551.412	0.028	0.069
-671.105	88.808	-0.072	-0.080
-670.091	-200.000	-0.001	0.292
-669.076	-26.025	-0.099	-0.058
-668.062	234.134	0.214	0.355
-667.047	264.665	-0.123	0.215
-666.032	191.110	-0.134	0.203
-665.018	-158.401	-0.411	-0.024
-664.003	-25.058	0.094	-0.056
-662.989	13.457	0.033	0.026
-661.974	480.809	-0.115	-0.263
-660.959	-76.031	-0.197	0.070
-659.945	-83.617	-0.089	0.028
-658.930	198.700	-0.067	0.103
-657.916	-200.000	0.037	0.564
-656.901	-115.556	0.095	-0.018
-655.886	54.216	-0.092	0.089
-654.872	42.169	-0.110	-0.101
-653.857	716.500	0.024	0.063
-652.843	37.296	-0.246	0.219
-651.828	-10.645	-0.205	0.136
-650.814	-42.956	0.270	0.138
-649.799	88.775	0.230	0.258
-648.784	6.603	-0.095	-0.071
-647.770	60.235	0.379	-0.377
-646.755	-82.294	0.111	-0.036
-645.741	40.328	0.153	-0.138
-644.726	47.397	-0.135	0.126
-643.711	-117.957	-0.122	-0.022
-642.697	-48.661	-0.169	-0.082
-641.682	672.943	-0.108	-0.281
-640.668	138.158	-0.089	-0.117
-639.653	-108.970	-0.183	-0.039
-638.638	60.160	0.067	0.067
-637.624	-196.420	0.453	0.003
-636.609	134.935	-0.176	0.230
-635.595	16.689	0.087	-0.069
-634.580	360.281	0.037	-0.075
-633.565	-200.000	-0.033	-0.202
-632.551	-55.492	-0.247	-0.111
-631.536	260.298	-0.031	0.055
-630.522	59.309	0.242	0.240
-629.507	800.000	-0.053	-0.169
-628.492	178.366	-0.050	-0.073
-627.478	107.498	-0.145	0.174
-626.463	-104.561	-0.189	0.044
-625.449	800.000	0.049	-0.164
-624.434	-92.162	-0.139	0.039
-623.419	-6.758	0.138	0.094
-622.405	12.839	0.050	-0.039
-621.390	33.869	-0.041	0.036
-620.376	203.604	0.069	-0.107
-619.361	6.333	0.379	0.283
-618.346	151.580	-0.226	0.309
-617.332	-200.000	0.415	0.001
-616.317	101.576	0.180	-0.211
-615.303	669.788	-0.163	-0.425
-614.288	800.000	-0.029	0.093
-613.273	37.111	0.215	-0.191
-612.259	-200.000	-0.035	0.168
-611.244	-57.979	-0.368	0.161
-610.230	-128.182	0.376	0.054
-609.215	-48.376	0.346	-0.168
-608.201	771.024	-0.153	0.418
-607.186	-58.943	0.295	-0.128
-606.171	-78.010	0.064	0.022
-605.157	-163.373	0.304	0.015
-604.142	99.890	-0.175	0.203
-603.128	566.145	-0.128	0.312
-602.113	-112.138	0.243	-0.049
-601.098	-118.628	0.061	0.011
-600.084	-200.000	-0.007	-0.164
-599.069	-62.425	-0.116	-0.049
-598.055	126.090	0.227	0.288
-597.040	613.004	-0.084	-0.211
-596.025	96.455	-0.089	-0.102
-595.011	-51.794	0.219	0.102
-593.996	800.000	-0.066	0.210
-592.982	182.086	-0.134	0.198
-591.967	800.000	0.079	0.240
-590.952	800.000	-0.097	0.324
-589.938	800.000	0.025	0.098
-588.923	800.000	-0.032	-0.092
-587.909	150.375	-0.223	-0.303
-586.894	-135.744	0.182	-0.022
-585.879	49.303	-0.388	-0.366
-584.865	-200.000	-0.018	0.217
-583.850	-36.015	-0.184	-0.100
-582.836	-58.856	0.299	-0.130
-581.821	-109.541	0.105	-0.022
-580.806	-93.775	0.116	0.032
-579.792	298.045	0.063	-0.115
-578.777	109.294	0.083	0.100
-577.763	800.000	0.054	0.161
-576.748	181.198	0.198	-0.291
-575.733	-168.948	0.564	0.021
-574.719	-200.000	0.026	-0.143
-573.704	-68.992	-0.288	-0.111
-572.690	-175.534	0.125	0.003
-571.675	375.849	0.036	0.074
-570.661	-200.000	-0.012	0.255
-569.646	-62.401	0.490	0.204
-568.631	-124.321	-0.181	-0.028
-567.617	6.868	-0.119	0.089
-566.602	258.889	-0.082	0.141
-565.588	-200.000	0.049	-0.346
-564.573	84.202	-0.076	0.084
-563.558	-200.000	-0.036	0.186
-562.544	35.224	-0.184	-0.162
-561.529	93.648	0.247	-0.280
-560.515	-200.000	-0.011	0.051
-559.500	352.426	0.022	0.045
-558.485	746.886	-0.054	0.145
-557.471	800.000	0.052	0.173
-556.456	-21.316	-0.189	-0.116
-555.442	-9.048	-0.191	-0.128
-554.427	26.441	0.138	0.115
-553.412	-104.107	-0.138	0.032
-552.398	-172.913	0.191	0.006
-551.383	539.423	-0.148	-0.354
-550.369	690.036	0.036	-0.093
-549.354	46.914	0.269	-0.251
-548.339	75.954	-0.141	-0.149
-547.325	-0.300	-0.140	0.100
-546.310	80.998	0.110	0.119
-545.296	-200.000	-0.002	-0.124
-544.281	-200.000	-0.070	-0.345
-543.266	-77.024	-0.168	-0.059
-542.252	73.041	0.153	-0.160
-541.237	-200.000	0.056	-0.313
-540.223	800.000	-0.010	0.035
-539.208	-41.532	-0.246	-0.126
-538.193	54.571	0.137	0.133
-537.179	407.833	-0.097	-0.205
-536.164	19.357	-0.249	0.200
-535.150	104.813	0.096	-0.113
-534.135	-200.000	0.001	-0.312
-533.121	15.253	0.045	0.035
-532.106	157.995	-0.319	0.443
-531.091	354.208	-0.089	-0.177
-530.077	-200.000	-0.033	0.225
-529.062	92.267	-0.154	0.174
-528.048	-16.056	0.353	0.225
-527.033	42.715	-0.091	0.083
-526.018	800.000	0.035	0.141
-525.004	-61.197	-0.141	0.060
-523.989	-200.000	-0.020	0.153
-522.975	-9.713	0.019	-0.012
-521.960	-180.505	-0.250	0.005
-520.945	-129.605	0.286	-0.040
-519.931	800.000	-0.119	0.515
-518.916	-29.221	-0.078	-0.045
-517.902	-86.715	-0.042	0.013
-516.887	-130.609	0.143	-0.019
-515.872	-92.676	-0.098	-0.027
-514.858	-200.000	-0.011	-0.188
-513.843	-72.738	-0.415	-0.153
-512.829	-15.550	0.228	0.146
-511.814	800.000	-0.051	0.170
-510.799	-81.984	-0.224	0.073
-509.785	-200.000	0.002	-0.257
-508.770	800.000	-0.046	0.150
-507.756	-105.610	-0.307	0.070
-506.741	148.631	0.144	-0.194
-505.726	96.876	-0.137	-0.157
-504.712	173.482	-0.107	-0.154
-503.697	4.993	-0.204	-0.150
-502.683	-71.600	0.237	0.088
-501.668	72.676	-0.100	0.104
-500.653	301.652	0.012	0.022
-499.639	303.380	0.085	-0.157
-498.624	800.000	0.118	0.471
-497.610	247.691	0.227	-0.383
-496.595	-110.957	0.142	0.029
-495.581	-200.000	-0.020	-0.161
-494.566	-172.437	0.133	-0.004
-493.551	56.270	-0.245	0.238
-492.537	-44.396	-0.263	-0.132
-491.522	-200.000	0.004	-0.150
-490.508	-120.594	0.164	0.028
-489.493	800.000	0.030	0.126
-488.478	-116.651	0.075	0.014
-487.464	18.338	0.333	0.266
-486.449	-200.000	0.013	0.122
-485.435	306.113	-0.061	0.113
-484.420	289.010	0.153	-0.277
-483.405	800.000	0.038	-0.108
-482.391	800.000	0.027	-0.100
-481.376	466.466	-0.072	-0.161
-480.362	289.582	0.156	-0.282
-479.347	-55.523	-0.337	0.151
-478.332	305.242	-0.253	-0.470
-477.318	694.635	0.097	-0.255
-476.303	-47.519	-0.160	0.078
-475.289	428.344	-0.069	-0.150
-474.274	-98.757	0.188	0.048
-473.259	-39.713	0.329	0.172
-472.245	-200.000	0.048	-0.245
-471.230	-66.584	-0.083	-0.033
-470.216	-96.035	-0.179	-0.048
-469.201	-200.000	-0.015	0.308
-468.186	127.270	-0.246	-0.312
-467.172	-200.000	-0.006	-0.087
-466.157	-18.224	0.062	0.039
-465.143	6.147	-0.177	0.131
-464.128	800.000	0.041	-0.149
-463.113	-81.818	-0.079	0.026
-462.099	182.442	0.076	0.112
-461.084	-200.000	0.018	0.102
-460.070	-101.842	-0.211	-0.051
-459.055	139.249	0.046	0.061
-458.040	-200.000	-0.014	0.079
-457.026	-80.850	0.315	0.104
-456.011	800.000	-0.047	0.129
-454.997	-117.670	-0.209	0.038
-453.982	-61.840	0.280	0.117
-452.968	414.250	0.165	-0.350
-451.953	-200.000	0.033	-0.194
-450.938	254.531	0.116	0.198
-449.924	-10.304	-0.164	0.108
-448.909	800.000	0.029	0.107
-447.895	-125.744	-0.081	0.012
-446.880	564.496	-0.104	0.252
-445.865	67.984	-0.128	0.131
-444.851	120.464	-0.173	0.215
-443.836	33.297	0.150	0.130
-442.822	9.140	-0.273	-0.206
-441.807	800.000	0.052	-0.174
-440.792	14.857	0.178	0.139
-439.778	800.000	-0.077	0.232
-438.763	-200.000	-0.011	-0.273
-437.749	-200.000	-0.031	-0.169
-436.734	-75.094	0.180	-0.064
-435.719	363.344	0.037	0.074
-434.705	-200.000	0.044	-0.273
-433.690	361.540	0.175	0.350
-432.676	-200.000	0.005	0.139
-431.661	-200.000	-0.031	0.199
-430.646	-119.272	0.062	-0.011
-429.632	-200.000	0.017	0.137
-428.617	184.770	0.050	0.074
-427.603	-200.000	0.067	0.371
-426.588	36.852	0.250	0.221
-425.573	-200.000	-0.006	-0.217
-424.559	-200.000	0.006	0.037
-423.544	-35.242	0.376	0.204
-422.530	800.000	0.009	0.028
-421.515	-26.646	-0.345	-0.201
-420.500	-39.692	-0.220	0.115
-419.486	-14.494	0.179	0.115
-418.471	134.232	-0.065	0.084
-417.457	800.000	-0.067	0.199
-416.442	-94.588	0.341	-0.093
-415.428	-62.432	-0.156	-0.065
-414.413	61.881	-0.176	-0.175
-413.398	13.090	-0.114	0.088
-412.384	-52.228	0.077	0.035
-411.369	181.206	-0.113	-0.166
-410.355	-8.841	0.135	-0.090
-409.340	370.574	0.069	-0.140
-408.325	386.379	-0.048	-0.100
-407.311	215.098	-0.255	-0.402
-406.296	214.492	-0.091	0.144
-405.282	275.879	0.142	-0.251
-404.267	800.000	-0.083	0.250
-403.252	-200.000	-0.002	-0.064
-402.238	-96.097	-0.281	-0.074
-401.223	-11.693	-0.180	0.117
-400.209	285.016	-0.050	0.090
-399.194	-79.777	0.319	0.107
-398.179	-200.000	-0.008	-0.156
-397.165	-62.069	0.111	0.046
-396.150	-92.418	-0.172	0.048
-395.136	-200.000	0.006	0.196
-394.121	80.340	-0.274	-0.294
-393.106	185.006	0.287	-0.424
-392.092	800.000	0.048	0.196
-391.077	51.293	0.140	0.132
-390.063	30.890	-0.198	-0.169
-389.048	-200.000	-0.037	0.161
-388.033	372.002	-0.188	-0.379
-387.019	-88.660	-0.245	-0.073
-386.004	-22.023	0.145	-0.088
-384.990	-8.437	-0.234	-0.157
-383.975	800.000	0.069	-0.248
-382.960	191.127	0.140	0.209
-381.946	145.971	0.038	0.051
-380.931	400.424	0.092	0.192
-379.917	260.125	0.162	0.278
-378.902	-69.313	-0.179	0.069
-377.888	35.843	-0.243	-0.213
-376.873	55.171	0.243	-0.234
-375.858	315.513	-0.171	-0.321
-374.844	44.841	-0.171	0.156
-373.829	126.727	0.024	-0.030
-372.815	-200.000	-0.003	-0.189
-371.800	262.682	-0.161	0.277
-370.785	-200.000	0.033	0.356
-369.771	333.874	0.095	-0.182
-368.756	177.534	-0.228	0.330
-367.742	-19.733	-0.085	0.052
-366.727	-200.000	0.004	0.029
-365.712	-159.045	-0.246	-0.014
-364.698	-77.936	-0.173	0.059
-363.683	800.000	-0.049	0.195
-362.669	-70.140	-0.030	-0.011
-361.654	800.000	-0.086	-0.345
-360.639	91.732	-0.029	0.032
-359.625	-18.701	0.136	-0.084
-358.610	800.000	0.016	-0.067
-357.596	174.205	0.153	0.220
-356.581	-200.000	0.006	-0.121
-355.566	-152.955	-0.193	-0.014
-354.552	179.775	0.039	0.057
-353.537	-29.479	-0.187	-0.107
-352.523	22.250	0.054	0.043
-351.508	-178.432	0.173	0.004
-350.493	298.496	-0.101	0.185
-349.479	-200.000	0.002	-0.045
-348.464	-200.000	0.038	-0.253
-347.450	-148.819	0.072	0.006
-346.435	-60.543	-0.066	0.028
-345.420	-117.448	-0.080	0.014
-344.406	800.000	-0.028	0.094
-343.391	152.491	-0.077	0.104
-342.377	110.560	0.012	0.015
-341.362	155.296	-0.035	-0.048
-340.348	274.730	-0.210	0.370
-339.333	-200.000	0.329	0.001
-338.318	-147.808	-0.362	0.030
-337.304	-39.106	0.127	-0.066
-336.289	264.309	-0.133	-0.230
-335.275	132.147	-0.001	0.001
-334.260	61.495	-0.174	-0.172
-333.245	-54.900	-0.116	0.052
-332.231	-11.322	-0.050	-0.033
-331.216	-14.195	-0.185	-0.118
-330.202	-26.118	-0.264	-0.154
-329.187	-88.441	0.238	0.071
-328.172	-200.000	0.051	-0.305
-327.158	14.398	-0.087	-0.068
-326.143	321.585	-0.109	-0.207
-325.129	-84.322	-0.053	-0.017
-324.114	-5.618	0.088	-0.060
-323.099	-130.831	0.354	-0.047
-322.085	-111.050	0.049	0.010
-321.070	-53.624	-0.301	-0.137
-320.056	481.002	-0.036	0.082
-319.041	587.081	-0.168	-0.409
-318.026	-200.000	-0.001	0.159
-317.012	-200.000	-0.010	0.113
-315.997	310.080	0.140	0.259
-314.983	-3.765	0.171	-0.118
-313.968	-15.947	0.235	-0.148
-312.953	800.000	-0.093	-0.333
-311.939	-200.000	-0.057	0.315
-310.924	-200.000	0.013	0.124
-309.910	179.420	0.128	0.186
-308.895	-35.114	-0.136	-0.074
-307.880	-8.224	0.107	0.071
-306.866	212.809	-0.220	0.345
-305.851	-200.000	-0.018	-0.396
-304.837	-140.272	0.327	0.034
-303.822	-84.370	0.212	-0.066
-302.807	800.000	0.071	0.204
-301.793	-35.716	-0.101	-0.054
-300.778	7.133	-0.137	0.101
-299.764	-23.738	-0.209	0.124
-298.749	800.000	-0.056	0.202
-297.735	800.000	0.032	0.128
-296.720	73.452	-0.152	0.158
-295.705	542.381	-0.125	0.297
-294.691	-200.000	-0.008	-0.101
-293.676	-200.000	0.000	-0.012
-292.662	-123.061	0.160	0.026
-291.647	454.225	0.045	0.100
-290.632	-43.612	0.035	-0.017
-289.618	253.214	-0.135	-0.228
-288.603	745.150	-0.155	-0.413
-287.589	-200.000	0.005	-0.021
-286.574	336.328	0.142	0.274
-285.559	-155.874	0.321	-0.020
-284.545	-200.000	-0.007	-0.220
-283.530	-23.731	0.304	-0.181
-282.516	545.198	-0.061	0.143
-281.501	106.771	0.105	-0.123
-280.486	-8.047	0.213	0.142
-279.472	-8.944	0.214	0.142
-278.457	38.836	0.280	0.247
-277.443	37.087	-0.070	-0.062
-276.428	252.498	-0.005	-0.008
-275.413	61.349	0.047	0.047
-274.399	-200.000	0.000	-0.173
-273.384	372.939	-0.211	-0.424
-272.370	-16.706	0.047	0.030
-271.355	-14.241	0.263	0.168
-270.340	109.935	-0.136	-0.162
-269.326	-200.000	0.029	-0.280
-268.311	11.631	0.167	0.127
-267.297	-200.000	0.044	0.424
-266.282	85.459	-0.060	-0.065
-265.267	218.623	0.043	0.069
-264.253	800.000	0.016	-0.052
-263.238	-109.257	-0.543	-0.114
-262.224	-39.908	-0.015	-0.008
-261.209	195.673	0.181	0.272
-260.195	194.916	0.169	0.254
-259.180	-19.323	0.242	0.149
-258.165	800.000	-0.125	-0.347
-257.151	-200.000	0.005	-0.315
-256.136	31.228	-0.017	-0.015
-255.122	791.221	-0.092	0.251
-254.107	186.612	-0.220	-0.325
-253.092	-120.611	-0.154	-0.026
-252.078	800.000	0.066	0.198
-251.063	24.012	0.120	0.098
-250.049	-200.000	-0.002	-0.115
-249.034	-200.000	-0.013	-0.073
-248.019	-200.000	0.056	-0.270
-247.005	-200.000	0.003	-0.065
-245.990	555.343	0.054	-0.129
-244.976	-121.227	-0.440	0.073
-243.961	271.580	-0.050	-0.087
-242.946	-80.977	0.316	-0.103
-241.932	-19.936	-0.325	-0.198
-240.917	117.461	-0.104	-0.126
-239.903	800.000	0.050	0.169
-238.888	41.648	-0.042	-0.038
-237.873	141.654	0.239	-0.314
-236.859	-106.725	0.319	-0.070
-235.844	-13.371	-0.064	0.041
-234.830	-200.000	-0.057	-0.499
-233.815	-200.000	-0.040	0.275
-232.800	61.865	0.059	-0.059
-231.786	108.547	-0.189	0.224
-230.771	4.952	0.261	0.190
-229.757	800.000	-0.083	-0.330
-228.742	76.859	-0.154	-0.162
-227.727	91.301	-0.103	0.115
-226.713	-200.000	0.000	0.125
-225.698	78.918	-0.353	0.373
-224.684	453.472	-0.175	-0.384
-223.669	-200.000	0.002	-0.035
-222.655	-170.413	0.024	-0.001
-221.640	125.052	-0.160	0.199
-220.625	800.000	-0.091	0.302
-219.611	454.907	0.151	-0.331
-218.596	-20.555	-0.366	-0.222
-217.582	-200.000	0.049	0.339
-216.567	205.796	-0.141	0.218
-215.552	-200.000	0.019	-0.090
-214.538	84.156	0.297	0.320
-213.523	-200.000	-0.023	0.244
-212.509	49.187	0.075	-0.070
-211.494	800.000	0.030	-0.098
-210.479	-200.000	0.017	0.126
-209.465	-34.713	0.390	0.211
-208.450	20.345	-0.045	-0.036
-207.436	108.152	-0.067	-0.079
-206.421	-94.353	-0.088	-0.024
-205.406	23.303	0.116	-0.094
-204.392	-200.000	0.019	0.149
-203.377	-200.000	0.076	0.392
-202.363	219.696	0.173	-0.274
-201.348	-200.000	0.013	-0.257
-200.333	562.434	0.082	0.195
-199.319	54.666	-0.110	0.105
-198.304	-43.931	0.146	-0.073
-197.290	-56.335	-0.100	0.044
-196.275	85.185	0.041	-0.045
-195.260	152.004	-0.062	0.084
-194.246	118.389	0.247	0.301
-193.231	800.000	-0.061	0.215
-192.217	-65.618	-0.091	-0.036
-191.202	226.704	0.171	-0.274
-190.187	-96.946	-0.184	0.048
-189.173	32.680	0.245	0.209
-188.158	23.403	0.243	0.197
-187.144	222.008	-0.113	0.179
-186.129	-28.440	-0.338	0.192
-185.114	-176.336	-0.074	0.002
-184.100	-200.000	-0.091	0.439
-183.085	-155.048	-0.238	0.015
-182.071	42.281	-0.061	0.055
-181.056	-91.541	0.532	-0.150
-180.042	470.804	0.082	-0.181
-179.027	-76.677	0.064	0.022
-178.012	95.838	-0.066	-0.075
-176.998	793.380	0.030	0.082
-175.983	86.680	0.182	-0.198
-174.969	290.687	-0.033	0.059
-173.954	-77.261	0.325	0.112
-172.939	-200.000	0.020	-0.169
-171.925	-43.637	0.169	-0.084
-170.910	127.586	-0.152	0.191
-169.896	800.000	-0.126	-0.363
-168.881	172.274	-0.144	-0.204
-167.866	232.013	-0.075	-0.121
-166.852	763.996	-0.073	-0.195
-165.837	-5.139	-0.106	0.072
-164.823	-124.070	0.133	0.021
-163.808	-95.488	-0.119	0.032
-162.793	42.199	0.106	-0.095
-161.779	438.157	-0.067	0.143
-160.764	46.394	0.122	-0.112
-159.750	-77.714	-0.043	-0.015
-158.735	-106.969	-0.353	0.077
-157.720	524.913	0.074	0.171
-156.706	-200.000	0.034	0.318
-155.691	800.000	0.032	0.131
-154.677	800.000	0.114	0.312
-153.662	221.188	0.171	-0.270
-152.647	-66.751	0.172	-0.067
-151.633	-166.356	0.299	-0.012
-150.618	52.774	0.369	0.347
-149.604	800.000	-0.034	0.113
-148.589	-90.176	-0.206	0.059
-147.574	-121.129	-0.243	0.040
-146.560	-142.952	0.157	-0.015
-145.545	86.610	-0.081	0.088
-144.531	-200.000	0.003	0.202
-143.516	-200.000	0.019	-0.142
-142.502	-166.124	0.248	0.010
-141.487	9.083	-0.228	-0.170
-140.472	207.582	-0.065	-0.100
-139.458	-200.000	0.002	0.331
-138.443	163.182	-0.226	0.314
-137.429	-200.000	-0.014	0.281
-136.414	-200.000	0.021	0.247
-135.399	102.831	0.156	0.180
-134.385	-13.001	0.158	-0.102
-133.370	-11.411	-0.030	-0.019
-132.356	-188.965	0.073	0.001
-131.341	-176.519	-0.295	-0.008
-130.326	298.550	0.047	0.085
-129.312	57.872	0.223	-0.215
-128.297	590.206	-0.175	-0.426
-127.283	-17.186	0.212	0.132
-126.268	800.000	-0.082	0.291
-125.253	701.839	-0.095	0.247
-124.239	58.057	0.283	-0.273
-123.224	-66.868	-0.162	0.063
-122.210	37.540	0.217	0.190
-121.195	-38.255	-0.218	-0.114
