DTS Sentinel unit serial number:	SN413079Multiplexer serial number:	ORYXHardware model number:	OX4-SRSoftware version number:	ORYX F/W v4.00 Oryx Data Collector v3.7.2.0data status	okinstallation	princeton_trtdifferential loss correction	single-endedforward channel	channel 1reverse channel	N/Adate	2019/09/13time	08:10:35forward acquisition time	60.00reverse acquisition time	0.00gamma	496.2192k internal	0.2331k external	0.2331temperature offset calibration	1.0161default loss term (dB/km)	0.3790temperature slope calibration	1.0000multiplexer offset coefficient	1.0000multiplexer slope coefficient	1.0000fibre end	0.00T internal ref (°C)	27.06T ext. ref 1 (°C)	4.26T ext. ref 2 (°C)	23.16length (m)	temperature (°C)	Stokes	anti-Stokes-747.200	-105.387	-0.328	-0.075
-746.185	800.000	-0.073	0.251
-745.171	-200.000	-0.016	-0.106
-744.156	-75.393	0.232	0.083
-743.142	-200.000	0.019	-0.264
-742.127	800.000	-0.036	0.121
-741.112	-125.080	0.112	-0.017
-740.098	-51.112	-0.271	0.128
-739.083	52.717	0.252	-0.243
-738.069	800.000	-0.055	0.157
-737.054	76.340	0.054	-0.058
-736.039	580.467	-0.107	0.263
-735.025	-200.000	-0.068	0.321
-734.010	80.886	0.316	0.343
-732.996	-200.000	-0.013	-0.184
-731.981	-65.107	-0.060	0.024
-730.966	-82.777	-0.551	0.179
-729.952	-34.133	-0.225	-0.124
-728.937	-51.015	-0.182	0.086
-727.923	492.855	-0.154	-0.355
-726.908	299.135	0.101	0.187
-725.894	65.606	-0.176	-0.180
-724.879	108.132	0.047	0.057
-723.864	-107.998	-0.094	0.021
-722.850	585.296	-0.051	-0.125
-721.835	302.045	-0.135	-0.251
-720.821	-77.884	0.274	0.095
-719.806	800.000	-0.077	-0.249
-718.791	50.445	-0.296	0.282
-717.777	620.947	-0.182	0.461
-716.762	16.888	-0.089	-0.071
-715.748	147.784	0.103	-0.139
-714.733	800.000	-0.036	-0.147
-713.718	-200.000	-0.006	-0.489
-712.704	436.532	0.087	-0.190
-711.689	-108.148	0.285	0.062
-710.675	-200.000	0.001	0.038
-709.660	23.464	0.168	-0.139
-708.645	-13.486	0.159	-0.104
-707.631	8.430	0.300	-0.227
-706.616	324.556	-0.125	-0.241
-705.602	-93.447	-0.335	-0.093
-704.587	-139.336	-0.125	-0.014
-703.572	800.000	0.089	-0.300
-702.558	248.739	0.028	-0.048
-701.543	-85.084	0.142	-0.045
-700.529	0.206	-0.395	0.283
-699.514	592.180	0.153	0.380
-698.499	497.263	0.106	0.246
-697.485	-200.000	0.022	0.163
-696.470	90.179	-0.158	-0.177
-695.456	3.898	-0.214	0.157
-694.441	-29.791	-0.112	-0.064
-693.426	410.243	-0.108	-0.230
-692.412	800.000	-0.091	0.257
-691.397	-100.357	-0.342	-0.085
-690.383	178.081	-0.177	0.259
-689.368	-200.000	-0.063	0.285
-688.354	101.941	0.250	-0.293
-687.339	1.039	0.334	-0.240
-686.324	419.310	-0.170	0.365
-685.310	312.532	0.071	-0.134
-684.295	-200.000	0.036	-0.402
-683.281	-189.825	-0.131	0.001
-682.266	800.000	-0.049	0.203
-681.251	-168.247	-0.447	-0.017
-680.237	800.000	0.045	0.177
-679.222	800.000	-0.074	-0.281
-678.208	-200.000	0.028	-0.306
-677.193	-172.056	-0.201	0.007
-676.178	87.502	-0.151	-0.168
-675.164	694.752	-0.108	0.286
-674.149	109.304	0.071	-0.086
-673.135	800.000	-0.061	-0.176
-672.120	258.557	0.236	-0.408
-671.105	-40.301	-0.334	0.174
-670.091	220.819	0.054	-0.087
-669.076	230.048	-0.198	-0.325
-668.062	160.874	-0.175	0.246
-667.047	44.712	0.032	-0.029
-666.032	105.519	-0.238	0.282
-665.018	-135.831	0.097	0.011
-664.003	-13.004	-0.140	0.092
-662.989	-112.815	-0.207	0.041
-661.974	148.940	0.183	-0.248
-660.959	4.461	-0.185	-0.136
-659.945	218.186	0.164	-0.263
-658.930	-85.873	0.140	0.043
-657.916	574.741	0.059	0.145
-656.901	800.000	-0.059	-0.244
-655.886	800.000	-0.029	0.087
-654.872	16.358	0.126	0.099
-653.857	-1.188	0.212	-0.150
-652.843	-38.690	0.259	-0.137
-651.828	0.344	-0.059	0.042
-650.814	-84.822	0.329	-0.104
-649.799	93.977	-0.060	0.069
-648.784	-200.000	0.022	0.182
-647.770	-84.628	0.180	0.057
-646.755	-200.000	0.011	-0.280
-645.741	-159.613	0.327	-0.018
-644.726	13.325	-0.202	0.157
-643.711	-122.615	-0.156	-0.025
-642.697	-79.381	0.437	0.148
-641.682	800.000	0.027	-0.076
-640.668	800.000	-0.020	0.072
-639.653	11.451	-0.307	-0.236
-638.638	800.000	-0.010	-0.034
-637.624	99.128	-0.120	-0.139
-636.609	358.158	0.059	0.118
-635.595	800.000	0.037	0.116
-634.580	-80.079	0.178	0.060
-633.565	-200.000	-0.010	-0.201
-632.551	44.080	0.185	0.170
-631.536	562.130	0.054	0.131
-630.522	22.637	-0.421	-0.345
-629.507	96.631	-0.174	-0.200
-628.492	424.475	0.140	-0.302
-627.478	196.811	-0.205	-0.313
-626.463	110.576	0.137	-0.166
-625.449	-73.545	0.140	0.051
-624.434	800.000	0.079	-0.258
-623.419	-200.000	-0.016	-0.103
-622.405	-82.899	0.400	-0.129
-621.390	576.970	-0.050	-0.124
-620.376	-123.583	0.078	0.012
-619.361	800.000	-0.068	0.246
-618.346	-200.000	-0.051	0.271
-617.332	-116.751	0.095	-0.018
-616.317	96.903	-0.278	0.319
-615.303	-109.378	-0.030	-0.006
-614.288	-15.216	-0.101	-0.065
-613.273	-116.870	0.116	-0.021
-612.259	800.000	0.101	-0.362
-611.244	599.818	-0.106	-0.263
-610.230	32.002	-0.250	-0.216
-609.215	-44.899	-0.521	0.260
-608.201	-11.944	-0.177	-0.116
-607.186	-46.199	0.211	-0.104
-606.171	-200.000	-0.007	-0.252
-605.157	258.408	0.214	0.370
-604.142	800.000	0.085	0.270
-603.128	339.476	-0.168	0.328
-602.113	-18.968	0.349	0.217
-601.098	-129.361	0.014	-0.002
-600.084	-116.751	0.090	-0.017
-599.069	-200.000	0.019	-0.134
-598.055	26.763	0.108	-0.090
-597.040	-159.075	-0.204	0.012
-596.025	-200.000	0.043	0.255
-595.011	-12.785	-0.179	-0.117
-593.996	-65.470	-0.032	-0.013
-592.982	-51.325	0.307	-0.144
-591.967	-200.000	0.028	-0.153
-590.952	-33.727	0.175	-0.097
-589.938	309.229	-0.263	-0.492
-588.923	-18.730	0.325	0.203
-587.909	45.584	0.251	-0.232
-586.894	285.209	0.079	0.143
-585.879	-40.495	0.247	-0.128
-584.865	109.309	-0.217	-0.259
-583.850	16.851	-0.020	0.016
-582.836	465.699	-0.102	0.229
-581.821	-200.000	0.041	-0.459
-580.806	-131.964	0.023	-0.003
-579.792	-12.751	-0.061	0.040
-578.777	19.690	0.218	-0.176
-577.763	129.963	-0.167	0.214
-576.748	-200.000	0.021	-0.155
-575.733	-4.508	-0.368	0.254
-574.719	-200.000	0.001	-0.208
-573.704	-33.909	-0.382	0.210
-572.690	-76.542	-0.263	-0.092
-571.675	70.822	0.247	0.256
-570.661	800.000	0.016	0.060
-569.646	87.500	0.177	0.195
-568.631	800.000	-0.034	-0.132
-567.617	800.000	-0.032	-0.105
-566.602	-58.286	0.118	0.051
-565.588	4.711	0.060	0.044
-564.573	371.573	0.015	-0.031
-563.558	800.000	0.036	-0.125
-562.544	800.000	0.114	-0.433
-561.529	117.754	0.082	0.101
-560.515	677.363	0.142	0.369
-559.500	-85.247	-0.505	0.158
-558.485	-148.270	0.263	0.022
-557.471	-50.529	-0.194	-0.091
-556.456	-114.750	-0.144	0.027
-555.442	-200.000	-0.032	0.155
-554.427	-88.372	-0.171	0.051
-553.412	126.794	0.192	0.244
-552.398	344.003	0.114	0.224
-551.383	2.956	-0.166	0.120
-550.369	708.698	0.015	0.039
-549.354	-200.000	-0.011	0.107
-548.339	-123.434	-0.245	-0.039
-547.325	-177.289	0.313	0.008
-546.310	329.573	0.137	0.263
-545.296	-88.541	-0.126	0.037
-544.281	1.087	-0.185	-0.133
-543.266	446.240	-0.101	-0.222
-542.252	630.419	0.066	-0.167
-541.237	56.736	-0.063	-0.061
-540.223	-155.852	0.146	0.009
-539.208	141.810	-0.205	-0.271
-538.193	411.889	-0.068	0.144
-537.179	484.753	-0.149	-0.338
-536.164	-183.115	-0.174	0.003
-535.150	-119.490	0.187	0.032
-534.135	-66.962	-0.030	0.012
-533.121	-120.952	-0.388	-0.065
-532.106	800.000	-0.044	-0.127
-531.091	-136.369	0.258	-0.030
-530.077	-200.000	-0.023	0.179
-529.062	177.944	-0.088	-0.128
-528.048	196.930	-0.091	-0.138
-527.033	800.000	-0.076	-0.220
-526.018	36.502	0.178	-0.157
-525.004	250.155	0.131	0.222
-523.989	-16.058	0.215	0.136
-522.975	-192.169	-0.297	0.003
-521.960	351.850	-0.108	0.213
-520.945	-200.000	-0.053	0.242
-519.931	-200.000	-0.006	0.028
-518.916	-200.000	0.012	0.436
-517.902	504.803	-0.085	0.197
-516.887	-126.333	0.311	0.046
-515.872	508.893	-0.057	0.131
-514.858	-200.000	0.040	-0.248
-513.843	208.151	-0.075	0.118
-512.829	-49.029	-0.198	-0.095
-511.814	-200.000	0.032	0.229
-510.799	-179.808	0.215	0.005
-509.785	-72.474	-0.295	-0.109
-508.770	-103.316	-0.113	-0.027
-507.756	605.141	0.129	-0.321
-506.741	695.764	0.112	-0.294
-505.726	121.264	-0.102	-0.127
-504.712	-125.452	-0.059	-0.009
-503.697	-149.807	0.195	0.015
-502.683	-184.012	-0.079	-0.001
-501.668	-129.589	0.359	0.050
-500.653	-72.674	-0.175	0.064
-499.639	-165.272	0.163	-0.007
-498.624	104.418	0.023	0.027
-497.610	596.924	0.013	-0.031
-496.595	331.188	-0.100	-0.192
-495.581	-132.975	0.193	0.024
-494.566	395.602	-0.109	-0.226
-493.551	-99.153	-0.394	-0.099
-492.537	-134.527	0.415	-0.051
-491.522	-200.000	0.076	0.447
-490.508	-148.645	0.269	0.022
-489.493	-115.033	0.072	-0.014
-488.478	-92.653	-0.271	-0.076
-487.464	657.964	0.134	0.342
-486.449	130.958	0.044	0.056
-485.435	-102.641	0.037	0.009
-484.420	-200.000	-0.023	0.228
-483.405	-45.481	0.245	-0.121
-482.391	-84.443	-0.173	-0.055
-481.376	-39.471	-0.116	-0.060
-480.362	800.000	-0.112	-0.357
-479.347	206.534	-0.013	-0.020
-478.332	376.359	-0.145	0.296
-477.318	-185.686	-0.141	-0.002
-476.303	-161.533	-0.510	-0.026
-475.289	-136.440	0.084	0.010
-474.274	-62.702	0.310	-0.128
-473.259	-43.690	-0.134	0.067
-472.245	-97.006	-0.309	0.081
-471.230	225.637	0.191	0.308
-470.216	126.672	0.241	0.304
-469.201	780.945	0.078	-0.214
-468.186	712.306	-0.026	0.069
-467.172	64.475	0.113	0.113
-466.157	134.141	0.104	-0.134
-465.143	52.438	0.209	-0.198
-464.128	38.606	-0.213	-0.190
-463.113	-36.041	-0.184	-0.099
-462.099	21.248	0.151	0.122
-461.084	-200.000	-0.030	-0.223
-460.070	-160.952	0.323	-0.017
-459.055	-200.000	-0.022	0.394
-458.040	57.550	0.034	-0.034
-457.026	800.000	-0.008	0.026
-456.011	3.411	0.101	0.073
-454.997	20.386	0.257	0.206
-453.982	97.318	-0.287	-0.327
-452.968	-51.781	-0.249	-0.115
-451.953	140.205	0.050	0.066
-450.938	515.413	-0.036	0.084
-449.924	-200.000	-0.035	0.236
-448.909	-108.649	-0.373	0.080
-447.895	656.688	0.015	-0.038
-446.880	-74.925	-0.245	0.087
-445.865	-200.000	0.051	0.243
-444.851	273.264	-0.106	0.187
-443.836	-200.000	0.029	0.204
-442.822	323.109	0.086	-0.163
-441.807	-74.927	0.440	0.157
-440.792	-73.864	-0.030	-0.011
-439.778	-78.435	-0.060	-0.020
-438.763	800.000	0.059	-0.225
-437.749	595.890	-0.184	-0.453
-436.734	-13.447	0.253	-0.163
-435.719	331.850	0.060	-0.115
-434.705	433.373	0.096	-0.208
-433.690	-182.456	0.235	0.004
-432.676	-2.225	-0.101	0.070
-431.661	-105.688	0.324	-0.073
-430.646	49.160	-0.214	-0.200
-429.632	-88.740	-0.226	0.067
-428.617	95.838	0.083	0.094
-427.603	319.329	-0.098	0.184
-426.588	90.258	0.106	0.117
-425.573	-127.343	-0.277	-0.040
-424.559	341.192	-0.097	0.189
-423.544	-34.209	-0.290	0.158
-422.530	300.619	-0.141	0.258
-421.515	-69.660	-0.112	0.043
-420.500	153.781	-0.108	0.147
-419.486	-164.265	0.153	0.007
-418.471	-177.135	0.082	0.002
-417.457	-87.163	-0.165	-0.050
-416.442	125.280	0.093	-0.117
-415.428	800.000	0.090	-0.314
-414.413	-87.835	0.077	-0.023
-413.398	-147.739	-0.378	0.031
-412.384	10.372	0.113	-0.085
-411.369	13.479	0.188	-0.145
-410.355	-200.000	0.000	0.197
-409.340	90.113	0.212	0.235
-408.325	421.969	-0.125	-0.267
-407.311	94.775	-0.165	-0.186
-406.296	-103.226	0.112	-0.026
-405.282	448.942	-0.044	0.095
-404.267	90.016	0.110	0.122
-403.252	-98.354	-0.154	-0.039
-402.238	-52.773	-0.112	0.051
-401.223	-89.887	0.234	0.068
-400.209	93.174	-0.200	0.225
-399.194	-135.046	-0.085	-0.010
-398.179	654.291	-0.152	-0.387
-397.165	714.360	0.048	-0.127
-396.150	-37.059	0.064	-0.034
-395.136	-4.237	0.126	0.087
-394.121	24.592	-0.107	-0.088
-393.106	-200.000	0.018	0.235
-392.092	-79.598	-0.313	-0.105
-391.077	-184.954	0.114	0.002
-390.063	-49.564	-0.053	0.025
-389.048	-68.969	-0.242	0.093
-388.033	180.126	-0.075	0.109
-387.019	-200.000	-0.005	0.157
-386.004	-80.567	-0.133	-0.044
-384.990	-15.221	0.278	-0.176
-383.975	119.932	-0.125	0.154
-382.960	-40.233	-0.381	-0.197
-381.946	-133.929	0.540	0.066
-380.931	-112.278	0.214	-0.043
-379.917	-83.144	-0.267	-0.085
-378.902	80.849	-0.199	0.213
-377.888	327.293	-0.017	0.032
-376.873	-200.000	-0.001	-0.129
-375.858	-78.302	-0.248	0.085
-374.844	800.000	0.105	0.350
-373.829	-200.000	0.031	-0.212
-372.815	-79.686	-0.095	-0.032
-371.800	-58.251	-0.032	-0.014
-370.785	138.159	-0.160	-0.208
-369.771	-200.000	0.041	0.238
-368.756	-68.307	-0.064	0.025
-367.742	-58.472	0.089	-0.038
-366.727	-102.966	-0.081	-0.019
-365.712	74.318	-0.206	-0.215
-364.698	330.209	-0.199	-0.380
-363.683	8.309	-0.102	-0.076
-362.669	192.671	-0.063	0.095
-361.654	-67.154	-0.303	0.118
-360.639	-200.000	0.038	-0.241
-359.625	-122.818	0.014	-0.002
-358.610	408.415	-0.075	-0.157
-357.596	800.000	0.034	-0.143
-356.581	-200.000	0.085	-0.414
-355.566	104.046	-0.135	0.158
-354.552	27.011	-0.232	-0.193
-353.537	-200.000	0.037	0.167
-352.523	405.394	-0.144	0.300
-351.508	11.781	0.138	0.105
-350.493	-36.248	-0.114	0.061
-349.479	60.229	0.082	-0.081
-348.464	413.675	0.044	0.094
-347.450	-4.437	0.134	0.092
-346.435	45.329	-0.048	0.044
-345.420	-50.270	-0.164	0.077
-344.406	135.648	0.234	0.302
-343.391	-28.580	-0.081	0.046
-342.377	800.000	0.056	0.240
-341.362	204.810	0.163	0.251
-340.348	-95.497	0.047	0.012
-339.333	226.386	-0.149	0.239
-338.318	-182.235	0.410	0.008
-337.304	151.153	-0.220	-0.296
-336.289	-200.000	-0.012	0.074
-335.275	-161.667	-0.264	-0.013
-334.260	-78.634	-0.237	-0.080
-333.245	-10.101	-0.345	-0.227
-332.231	28.799	-0.042	0.035
-331.216	800.000	0.077	0.317
-330.202	-56.921	-0.131	-0.057
-329.187	800.000	0.109	-0.449
-328.172	-200.000	-0.053	0.479
-327.158	519.805	-0.125	-0.289
-326.143	-56.482	0.252	0.111
-325.129	-200.000	0.046	0.258
-324.114	-70.567	0.065	-0.024
-323.099	-74.821	-0.118	-0.042
-322.085	-80.231	-0.062	0.021
-321.070	687.672	-0.157	0.407
-320.056	-117.345	-0.296	-0.053
-319.041	-82.937	0.399	-0.127
-318.026	-26.109	0.213	0.124
-317.012	-200.000	-0.055	-0.271
-315.997	319.150	-0.128	0.240
-314.983	-200.000	0.024	0.132
-313.968	538.503	0.117	0.275
-312.953	-125.315	-0.241	0.036
-311.939	0.427	-0.141	0.099
-310.924	-108.177	-0.121	0.026
-309.910	-86.207	-0.373	0.114
-308.895	251.696	-0.066	0.111
-307.880	800.000	-0.066	0.184
-306.866	-181.942	0.109	0.002
-305.851	-200.000	-0.008	0.145
-304.837	-105.299	0.109	0.025
-303.822	-141.024	0.433	0.044
-302.807	-200.000	-0.037	-0.400
-301.793	-16.978	0.259	0.162
-300.778	116.400	-0.116	0.140
-299.764	-107.654	-0.332	-0.072
-298.749	-119.302	-0.086	-0.015
-297.735	105.983	0.133	0.155
-296.720	105.553	0.151	0.176
-295.705	-45.042	0.204	-0.100
-294.691	-131.304	-0.173	-0.023
-293.676	471.566	-0.028	0.062
-292.662	-200.000	0.048	-0.222
-291.647	62.799	-0.261	-0.259
-290.632	-132.994	-0.120	0.015
-289.618	-200.000	0.021	-0.505
-288.603	-200.000	0.001	0.481
-287.589	525.151	-0.038	0.089
-286.574	-17.782	-0.176	-0.109
-285.559	-139.788	-0.433	0.045
-284.545	-200.000	0.013	-0.106
-283.530	-37.274	0.174	0.092
-282.516	-62.859	0.139	-0.057
-281.501	717.439	0.017	-0.045
-280.486	-83.496	0.054	-0.017
-279.472	181.684	-0.056	0.081
-278.457	-121.923	0.112	-0.018
-277.443	273.799	-0.066	-0.116
-276.428	-104.801	0.355	0.081
-275.413	-200.000	-0.024	-0.112
-274.399	-13.804	-0.160	-0.102
-273.384	-151.574	0.049	0.004
-272.370	-200.000	0.023	0.141
-271.355	800.000	0.055	-0.180
-270.340	-77.209	0.163	0.056
-269.326	-5.197	-0.229	-0.156
-268.311	800.000	-0.065	-0.200
-267.297	800.000	0.061	0.195
-266.282	-71.262	0.243	0.090
-265.267	-130.067	0.512	-0.069
-264.253	153.430	0.020	0.027
-263.238	167.562	-0.115	0.162
-262.224	238.070	0.105	0.173
-261.209	-57.334	0.062	0.027
-260.195	-60.344	0.015	0.006
-259.180	79.950	0.192	0.204
-258.165	21.485	0.201	-0.162
-257.151	-104.335	-0.032	0.007
-256.136	800.000	0.026	0.106
-255.122	7.329	-0.101	-0.074
-254.107	-68.135	-0.465	0.179
-253.092	78.000	-0.104	0.110
-252.078	-86.945	0.294	-0.089
-251.063	-87.395	0.264	0.079
-250.049	-200.000	0.030	0.359
-249.034	6.056	-0.050	0.037
-248.019	-200.000	-0.028	0.410
-247.005	69.148	-0.211	0.214
-245.990	59.269	0.210	0.204
-244.976	-63.686	0.113	-0.046
-243.961	800.000	-0.061	-0.203
-242.946	481.820	-0.120	0.268
-241.932	355.179	-0.059	-0.115
-240.917	-112.442	0.178	-0.035
-239.903	114.126	0.184	0.222
-238.888	-67.090	0.298	0.116
-237.873	302.920	-0.037	0.067
-236.859	72.415	-0.162	0.167
-235.844	78.992	0.212	0.224
-234.830	220.996	0.159	0.251
-233.815	208.108	-0.106	0.164
-232.800	-7.512	0.186	0.124
-231.786	456.667	-0.085	-0.185
-230.771	-200.000	0.006	-0.050
-229.757	306.909	-0.216	0.396
-228.742	800.000	0.123	-0.491
-227.727	207.893	0.077	-0.118
-226.713	198.289	0.180	-0.272
-225.698	-126.448	0.191	-0.028
-224.684	10.170	0.081	-0.061
-223.669	-117.915	-0.067	-0.012
-222.655	-125.455	-0.168	-0.025
-221.640	32.453	-0.153	0.130
-220.625	19.255	0.252	0.199
-219.611	-90.546	0.415	-0.118
-218.596	800.000	0.046	-0.127
-217.582	-200.000	-0.005	-0.166
-216.567	-138.248	0.090	0.010
-215.552	800.000	-0.030	-0.123
-214.538	-57.207	-0.156	0.068
-213.523	-200.000	0.027	0.141
-212.509	219.095	0.079	-0.124
-211.494	-200.000	0.026	-0.238
-210.479	800.000	-0.055	0.155
-209.465	-144.774	0.091	0.008
-208.450	-60.352	0.266	-0.111
-207.436	-50.624	0.060	-0.028
-206.421	-88.738	0.097	0.028
-205.406	-107.181	0.228	-0.049
-204.392	-44.012	0.132	-0.065
-203.377	271.025	0.150	0.261
-202.363	-46.099	-0.265	-0.129
-201.348	285.004	0.150	-0.267
-200.333	260.867	-0.239	-0.408
-199.319	-87.511	0.259	-0.077
-198.304	257.418	0.117	0.198
-197.290	655.002	0.083	-0.209
-196.275	-86.157	0.118	0.036
-195.260	132.085	-0.264	-0.335
-194.246	-6.725	0.198	0.133
-193.231	-200.000	-0.011	-0.049
-192.217	73.464	-0.177	0.183
-191.202	377.506	-0.067	0.136
-190.187	-200.000	-0.020	-0.248
-189.173	158.156	-0.103	0.141
-188.158	-78.984	0.280	0.094
-187.144	-200.000	-0.020	-0.156
-186.129	800.000	0.146	0.396
-185.114	-102.852	0.498	-0.117
-184.100	-200.000	-0.070	-0.311
-183.085	-200.000	-0.058	0.275
-182.071	-200.000	0.026	0.112
-181.056	-105.943	0.193	-0.043
-180.042	-171.009	0.053	0.002
-179.027	263.821	0.125	-0.214
-178.012	-82.985	0.171	0.054
-176.998	-200.000	-0.082	-0.510
-175.983	39.869	-0.057	-0.051
-174.969	16.467	0.209	-0.163
-173.954	61.870	0.211	-0.207
-172.939	-6.707	-0.123	-0.083
-171.925	206.043	0.059	-0.091
-170.910	349.128	-0.061	-0.119
-169.896	76.988	0.117	-0.122
-168.881	-200.000	-0.022	-0.146
-167.866	-112.336	-0.399	0.079
-166.852	-159.481	0.156	0.009
-165.837	401.523	-0.141	-0.292
-164.823	-49.703	0.089	0.042
-163.808	-17.823	0.054	0.033
-162.793	-31.872	-0.092	-0.051
-161.779	-200.000	-0.006	0.228
-160.764	-200.000	0.047	-0.249
-159.750	-200.000	-0.020	-0.395
-158.735	-69.136	-0.154	-0.058
-157.720	30.861	0.106	0.089
-156.706	252.618	-0.190	-0.319
-155.691	358.260	-0.110	0.215
-154.677	800.000	-0.049	0.169
-153.662	-200.000	-0.029	-0.199
-152.647	343.647	0.106	0.204
-151.633	427.534	0.024	0.050
-150.618	-200.000	-0.009	0.262
-149.604	81.928	0.061	0.065
-148.589	-48.697	0.270	0.127
-147.574	408.066	0.114	0.238
-146.560	-14.551	-0.339	-0.215
-145.545	-36.230	0.203	-0.108
-144.531	-42.518	0.234	0.117
-143.516	800.000	-0.147	0.489
-142.502	-200.000	-0.026	0.229
-141.487	257.491	0.105	0.178
-140.472	-34.189	0.155	0.084
-139.458	-6.933	0.129	-0.086
-138.443	11.047	0.164	-0.123
-137.429	-12.270	-0.196	0.126
-136.414	-200.000	-0.009	0.174
-135.399	20.803	-0.028	0.022
-134.385	329.414	-0.080	-0.152
-133.370	-108.753	0.195	0.041
-132.356	-86.849	0.302	0.091
-131.341	632.936	-0.090	-0.225
-130.326	-77.549	0.285	0.097
-129.312	572.090	-0.079	0.190
-128.297	800.000	-0.013	0.052
-127.283	52.758	-0.197	0.185
-126.268	113.620	0.141	0.168
-125.253	-200.000	0.100	-0.532
-124.239	386.800	-0.042	-0.086
-123.224	57.025	-0.153	0.147
-122.210	-100.411	0.119	0.029
-121.195	-11.642	-0.238	0.154
