DTS Sentinel unit serial number:	SN413079Multiplexer serial number:	ORYXHardware model number:	OX4-SRSoftware version number:	ORYX F/W v4.00 Oryx Data Collector v3.7.2.0data status	okinstallation	princeton_trtdifferential loss correction	single-endedforward channel	channel 1reverse channel	N/Adate	2019/09/11time	04:56:11forward acquisition time	60.00reverse acquisition time	0.00gamma	496.2192k internal	0.2331k external	0.2331temperature offset calibration	0.9925default loss term (dB/km)	0.3790temperature slope calibration	1.0000multiplexer offset coefficient	1.0000multiplexer slope coefficient	1.0000fibre end	0.00T internal ref (°C)	29.50T ext. ref 1 (°C)	-0.28T ext. ref 2 (°C)	23.31length (m)	temperature (°C)	Stokes	anti-Stokes-747.200	80.102	0.105	0.114
-746.185	482.748	0.037	0.084
-745.171	-81.873	-0.344	-0.113
-744.156	22.941	-0.089	-0.074
-743.142	247.821	-0.061	0.103
-742.127	-66.575	-0.108	-0.043
-741.112	145.572	-0.119	0.161
-740.098	216.832	0.177	0.283
-739.083	-200.000	-0.008	-0.098
-738.069	-93.753	-0.280	0.078
-737.054	-200.000	0.050	0.225
-736.039	-1.144	-0.149	0.106
-735.025	-20.065	-0.168	-0.105
-734.010	-21.173	-0.127	-0.078
-732.996	-200.000	0.008	-0.346
-731.981	-40.854	0.129	-0.067
-730.966	-200.000	0.013	0.124
-729.952	6.291	-0.237	-0.177
-728.937	150.813	-0.203	0.277
-727.923	367.737	-0.065	-0.133
-726.908	12.760	0.184	0.143
-725.894	329.963	-0.127	0.246
-724.879	-0.081	-0.404	-0.289
-723.864	-102.814	-0.184	-0.044
-722.850	454.154	-0.106	0.236
-721.835	-200.000	-0.061	0.407
-720.821	800.000	0.060	-0.241
-719.806	36.213	-0.045	0.040
-718.791	-132.945	0.294	-0.038
-717.777	-75.303	-0.157	0.056
-716.762	322.554	0.040	-0.076
-715.748	-39.581	-0.094	-0.050
-714.733	-173.922	0.268	-0.008
-713.718	-109.281	-0.148	0.032
-712.704	481.217	-0.133	0.302
-711.689	-168.796	-0.240	-0.009
-710.675	-43.945	0.209	0.106
-709.660	-200.000	-0.005	0.220
-708.645	-15.201	-0.205	0.132
-707.631	277.793	-0.134	-0.241
-706.616	216.353	-0.070	0.112
-705.602	-200.000	0.015	-0.157
-704.587	266.887	0.189	0.332
-703.572	-200.000	0.031	-0.204
-702.558	36.093	-0.310	-0.274
-701.543	-200.000	0.143	0.000
-700.529	-200.000	0.012	0.180
-699.514	-130.879	0.154	-0.021
-698.499	-5.918	-0.311	-0.214
-697.485	800.000	-0.086	-0.270
-696.470	-200.000	-0.153	0.000
-695.456	-114.853	-0.252	0.048
-694.441	-11.439	0.224	0.148
-693.426	800.000	-0.040	-0.119
-692.412	69.244	-0.174	0.180
-691.397	-28.888	-0.136	-0.079
-690.383	-16.650	-0.226	-0.144
-689.368	-200.000	0.016	-0.129
-688.354	-116.155	0.312	0.058
-687.339	-6.657	-0.130	0.089
-686.324	-22.259	0.120	-0.073
-685.310	32.235	-0.133	-0.115
-684.295	800.000	-0.129	-0.467
-683.281	-200.000	0.007	-0.045
-682.266	69.652	-0.180	-0.186
-681.251	-124.315	-0.247	0.039
-680.237	-26.712	-0.355	0.209
-679.222	279.107	0.059	0.105
-678.208	-131.619	0.087	-0.012
-677.193	186.665	0.055	-0.083
-676.178	30.386	0.201	-0.172
-675.164	44.506	-0.059	-0.054
-674.149	-200.000	-0.007	0.111
-673.135	29.183	-0.098	0.083
-672.120	615.698	0.031	-0.078
-671.105	4.357	-0.113	0.083
-670.091	77.352	-0.114	0.122
-669.076	283.742	-0.107	0.193
-668.062	307.270	-0.138	-0.259
-667.047	176.468	0.034	-0.049
-666.032	396.449	0.159	0.332
-665.018	555.472	0.132	0.320
-664.003	-63.966	-0.398	-0.163
-662.989	84.848	0.115	-0.126
-661.974	800.000	-0.059	0.232
-660.959	10.552	0.175	0.134
-659.945	800.000	0.118	0.397
-658.930	155.153	0.148	0.204
-657.916	-32.816	-0.229	0.128
-656.901	-78.935	0.200	0.068
-655.886	125.934	-0.128	-0.162
-654.872	26.026	0.086	-0.072
-653.857	27.860	0.217	0.184
-652.843	-200.000	0.000	-0.313
-651.828	82.047	-0.226	-0.245
-650.814	217.875	0.145	-0.231
-649.799	-125.439	0.262	-0.040
-648.784	63.735	0.179	-0.180
-647.770	83.133	-0.176	0.192
-646.755	-200.000	-0.003	0.187
-645.741	-72.278	-0.174	-0.065
-644.726	-200.000	0.041	0.243
-643.711	800.000	0.055	-0.200
-642.697	238.962	-0.078	-0.130
-641.682	127.189	0.219	-0.279
-640.668	-76.895	0.439	-0.154
-639.653	-109.375	-0.387	0.082
-638.638	-200.000	-0.021	-0.407
-637.624	140.401	0.087	0.115
-636.609	10.056	-0.040	-0.031
-635.595	-67.708	-0.200	-0.078
-634.580	-200.000	-0.050	0.227
-633.565	87.077	0.215	0.239
-632.551	-200.000	-0.026	0.174
-631.536	-116.322	-0.109	-0.020
-630.522	-200.000	-0.110	0.584
-629.507	107.552	-0.204	0.243
-628.492	58.735	-0.084	-0.082
-627.478	-47.724	0.125	-0.061
-626.463	-15.339	-0.269	-0.172
-625.449	707.526	-0.215	-0.568
-624.434	329.185	0.186	-0.358
-623.419	-112.881	0.259	0.051
-622.405	-160.512	0.439	-0.024
-621.390	254.108	0.024	0.041
-620.376	-200.000	-0.001	0.097
-619.361	483.382	0.080	0.182
-618.346	800.000	-0.066	-0.270
-617.332	800.000	-0.042	-0.120
-616.317	-71.005	-0.211	-0.080
-615.303	-31.052	0.264	0.149
-614.288	-83.547	0.150	0.048
-613.273	-200.000	-0.015	0.171
-612.259	129.297	-0.049	0.063
-611.244	800.000	0.108	0.301
-610.230	-119.898	-0.155	-0.027
-609.215	-156.957	-0.265	0.016
-608.201	21.835	0.249	0.203
-607.186	-128.561	-0.142	0.020
-606.171	297.643	0.152	-0.280
-605.157	15.086	-0.088	-0.069
-604.142	107.133	0.229	0.273
-603.128	-59.266	0.066	-0.028
-602.113	272.083	0.071	-0.125
-601.098	-104.148	-0.238	-0.055
-600.084	226.209	0.056	-0.091
-599.069	-91.879	-0.015	-0.004
-598.055	239.317	-0.141	0.235
-597.040	113.414	-0.035	-0.043
-596.025	-60.186	-0.325	0.139
-595.011	800.000	0.068	0.207
-593.996	-50.211	-0.194	-0.092
-592.982	-38.694	-0.205	-0.108
-591.967	115.747	0.177	0.216
-590.952	-200.000	0.017	0.188
-589.938	-71.530	0.132	0.049
-588.923	-200.000	-0.042	0.281
-587.909	800.000	0.090	0.319
-586.894	391.676	-0.088	-0.182
-585.879	315.159	-0.080	0.150
-584.865	272.102	0.088	-0.156
-583.850	-200.000	0.012	0.093
-582.836	-91.003	0.207	-0.059
-581.821	74.561	-0.092	-0.097
-580.806	-9.960	0.131	-0.087
-579.792	-37.675	0.301	0.160
-578.777	-0.973	0.060	-0.042
-577.763	-200.000	0.077	-0.366
-576.748	-47.232	0.276	0.135
-575.733	37.225	0.164	-0.145
-574.719	193.999	-0.054	0.082
-573.704	11.158	0.261	0.199
-572.690	85.595	0.051	0.055
-571.675	128.836	-0.072	0.091
-570.661	-178.468	-0.477	0.011
-569.646	130.816	-0.349	-0.447
-568.631	142.898	0.102	0.135
-567.617	-200.000	0.020	0.193
-566.602	689.695	-0.048	-0.125
-565.588	-200.000	0.017	-0.118
-564.573	800.000	-0.040	0.134
-563.558	-46.444	0.183	0.090
-562.544	-97.369	0.226	-0.059
-561.529	719.188	0.056	0.149
-560.515	-200.000	0.007	0.196
-559.500	-30.765	0.163	-0.092
-558.485	-5.554	-0.220	-0.151
-557.471	215.703	0.111	0.175
-556.456	136.502	-0.174	0.227
-555.442	-145.029	-0.162	-0.015
-554.427	-32.702	-0.187	-0.104
-553.412	167.149	-0.242	-0.343
-552.398	-66.671	-0.424	-0.168
-551.383	58.390	0.157	-0.154
-550.369	-109.666	0.249	-0.052
-549.354	188.858	0.072	-0.107
-548.339	333.468	0.062	-0.119
-547.325	-86.293	0.164	-0.051
-546.310	-200.000	0.003	-0.100
-545.296	-150.093	-0.440	0.034
-544.281	-200.000	-0.021	-0.163
-543.266	130.663	-0.027	-0.035
-542.252	115.875	-0.108	-0.132
-541.237	12.980	0.115	-0.088
-540.223	297.908	-0.020	-0.037
-539.208	-67.540	0.373	-0.146
-538.193	-1.134	0.300	-0.212
-537.179	35.811	-0.275	0.241
-536.164	-44.153	0.419	0.210
-535.150	744.396	-0.019	-0.051
-534.135	-193.649	-0.201	0.002
-533.121	-72.275	-0.398	0.147
-532.106	-16.455	0.237	-0.150
-531.091	800.000	0.070	-0.248
-530.077	577.648	-0.097	0.238
-529.062	800.000	0.132	-0.521
-528.048	406.737	0.106	-0.223
-527.033	60.362	-0.358	0.354
-526.018	36.552	0.074	0.065
-525.004	800.000	0.117	0.341
-523.989	-200.000	0.012	0.083
-522.975	5.914	0.079	-0.059
-521.960	276.570	-0.064	-0.114
-520.945	-200.000	0.050	0.252
-519.931	144.248	-0.072	-0.096
-518.916	-32.038	0.129	0.072
-517.902	-200.000	-0.001	0.102
-516.887	-116.778	-0.275	-0.050
-515.872	-121.236	-0.128	-0.021
-514.858	677.206	0.080	0.208
-513.843	504.916	-0.061	-0.142
-512.829	-55.261	-0.201	0.090
-511.814	-94.629	0.135	0.037
-510.799	76.643	-0.271	-0.287
-509.785	5.883	-0.027	0.020
-508.770	-200.000	0.024	-0.287
-507.756	-200.000	0.013	-0.166
-506.741	-18.501	0.456	-0.284
-505.726	540.105	-0.117	-0.278
-504.712	43.802	-0.125	0.114
-503.697	-31.975	-0.104	-0.058
-502.683	-15.372	-0.250	0.159
-501.668	30.208	0.264	-0.225
-500.653	-56.863	0.119	-0.052
-499.639	-5.292	0.069	-0.047
-498.624	-63.328	-0.222	-0.091
-497.610	177.802	-0.185	0.268
-496.595	-154.221	0.152	0.010
-495.581	-86.180	-0.212	0.065
-494.566	181.503	0.022	-0.032
-493.551	54.569	-0.088	-0.085
-492.537	-137.917	0.375	0.042
-491.522	-59.000	0.103	-0.044
-490.508	134.726	-0.082	-0.106
-489.493	-200.000	-0.005	-0.026
-488.478	-49.616	0.314	-0.149
-487.464	39.927	-0.127	0.114
-486.449	-161.878	-0.471	-0.024
-485.435	-127.212	0.065	0.009
-484.420	-200.000	-0.039	0.262
-483.405	800.000	0.034	0.096
-482.391	-200.000	0.005	0.149
-481.376	272.756	0.024	-0.042
-480.362	-132.655	0.137	0.017
-479.347	416.157	0.037	-0.080
-478.332	-185.465	0.223	0.003
-477.318	-200.000	-0.009	0.125
-476.303	-47.771	-0.153	-0.074
-475.289	87.316	-0.120	-0.132
-474.274	-200.000	0.007	0.039
-473.259	800.000	-0.077	-0.302
-472.245	655.483	-0.143	-0.364
-471.230	-106.879	0.302	-0.067
-470.216	-174.371	0.244	-0.007
-469.201	116.357	0.182	0.222
-468.186	51.819	0.172	0.163
-467.172	-200.000	-0.043	0.275
-466.157	-105.323	0.334	-0.076
-465.143	18.942	-0.127	0.102
-464.128	491.569	-0.122	0.277
-463.113	516.805	-0.090	0.210
-462.099	-54.405	0.095	0.043
-461.084	-4.037	0.093	0.064
-460.070	-46.209	-0.055	0.027
-459.055	99.888	-0.275	-0.317
-458.040	-200.000	-0.013	0.097
-457.026	-73.348	-0.232	0.084
-456.011	-100.603	0.183	-0.045
-454.997	-200.000	-0.042	-0.265
-453.982	-200.000	0.036	-0.274
-452.968	571.100	0.219	-0.530
-451.953	-18.038	-0.167	-0.104
-450.938	259.727	-0.134	-0.230
-449.924	-34.909	0.067	0.036
-448.909	0.838	0.046	0.033
-447.895	800.000	0.087	-0.268
-446.880	45.812	0.256	-0.236
-445.865	100.120	0.122	0.141
-444.851	146.296	-0.116	0.155
-443.836	-187.529	0.177	0.002
-442.822	66.105	-0.186	0.188
-441.807	12.633	-0.198	0.152
-440.792	-11.846	0.151	0.098
-439.778	-114.697	-0.230	0.044
-438.763	212.741	0.162	0.255
-437.749	800.000	0.139	-0.383
-436.734	218.236	0.053	-0.084
-435.719	523.315	0.016	-0.037
-434.705	800.000	0.049	0.181
-433.690	767.898	0.081	0.220
-432.676	57.777	-0.217	0.211
-431.661	-48.359	-0.364	-0.174
-430.646	75.058	-0.237	-0.248
-429.632	-68.423	0.127	0.049
-428.617	-200.000	-0.046	-0.233
-427.603	-122.141	0.265	-0.043
-426.588	101.864	-0.029	-0.034
-425.573	-200.000	-0.030	0.290
-424.559	15.603	-0.171	0.134
-423.544	-111.961	0.092	-0.018
-422.530	62.229	0.133	0.132
-421.515	318.145	0.063	-0.118
-420.500	-81.483	0.128	0.042
-419.486	-42.739	0.292	0.148
-418.471	-37.074	0.192	0.102
-417.457	68.509	0.095	0.097
-416.442	-45.762	0.124	-0.061
-415.428	64.526	-0.236	-0.236
-414.413	-200.000	0.004	-0.138
-413.398	-200.000	-0.097	0.000
-412.384	-24.602	0.066	-0.039
-411.369	-200.000	-0.005	-0.152
-410.355	-200.000	-0.214	-0.001
-409.340	-35.257	-0.234	0.126
-408.325	-200.000	0.043	-0.246
-407.311	-14.202	-0.244	-0.156
-406.296	-15.711	0.093	-0.059
-405.282	476.476	-0.065	-0.146
-404.267	-60.632	-0.287	0.121
-403.252	-200.000	0.015	-0.100
-402.238	-168.684	-0.022	-0.001
-401.223	29.418	-0.098	0.083
-400.209	-31.791	0.147	0.082
-399.194	65.213	-0.351	0.352
-398.179	176.002	0.127	-0.184
-397.165	-200.000	0.054	0.233
-396.150	-88.462	0.177	-0.052
-395.136	192.643	0.056	0.084
-394.121	-44.900	0.207	-0.102
-393.106	-102.635	0.132	0.031
-392.092	-101.034	0.107	-0.026
-391.077	61.677	0.241	-0.238
-390.063	45.817	-0.253	-0.233
-389.048	528.962	-0.046	-0.109
-388.033	-200.000	0.053	-0.310
-387.019	-69.193	0.173	0.066
-386.004	508.770	0.106	-0.245
-384.990	-47.995	-0.139	-0.067
-383.975	-4.865	-0.117	-0.080
-382.960	-41.820	0.139	-0.071
-381.946	-58.757	-0.125	-0.054
-380.931	-200.000	0.004	-0.236
-379.917	-200.000	-0.088	0.422
-378.902	800.000	-0.067	-0.205
-377.888	800.000	-0.067	0.272
-376.873	800.000	0.027	0.097
-375.858	-138.006	-0.516	0.057
-374.844	800.000	-0.100	0.365
-373.829	775.235	0.041	-0.112
-372.815	800.000	0.108	-0.390
-371.800	226.060	0.127	-0.204
-370.785	-64.844	0.011	-0.004
-369.771	464.676	-0.086	0.192
-368.756	255.606	0.192	-0.327
-367.742	108.824	-0.044	0.052
-366.727	-72.925	-0.201	0.073
-365.712	-120.049	0.173	-0.029
-364.698	-33.362	0.213	0.117
-363.683	-148.964	0.259	0.021
-362.669	-47.293	0.010	-0.005
-361.654	-55.715	-0.060	0.027
-360.639	-80.255	0.319	-0.106
-359.625	69.825	-0.260	-0.266
-358.610	-134.456	-0.076	0.009
-357.596	800.000	-0.034	-0.142
-356.581	800.000	-0.075	-0.242
-355.566	-200.000	0.006	-0.250
-354.552	-2.126	0.112	-0.078
-353.537	-192.497	0.458	0.004
-352.523	-200.000	0.218	0.001
-351.508	-138.999	-0.480	0.052
-350.493	713.724	0.101	0.266
-349.479	-200.000	0.011	0.299
-348.464	125.285	0.169	-0.212
-347.450	-79.383	0.111	-0.037
-346.435	-200.000	-0.060	-0.299
-345.420	-190.458	0.338	-0.004
-344.406	364.401	-0.164	0.326
-343.391	5.982	-0.077	-0.056
-342.377	2.907	-0.136	-0.098
-341.362	249.933	0.239	0.402
-340.348	-93.249	-0.217	-0.060
-339.333	584.560	-0.057	0.140
-338.318	-165.351	0.377	-0.016
-337.304	-200.000	0.020	0.352
-336.289	332.063	-0.198	-0.378
-335.275	-64.373	0.324	-0.130
-334.260	-200.000	0.012	0.206
-333.245	42.314	0.323	-0.291
-332.231	153.611	0.073	0.100
-331.216	-13.072	0.125	0.080
-330.202	125.107	-0.216	-0.269
-329.187	322.465	-0.052	-0.099
-328.172	198.009	0.164	0.249
-327.158	238.808	0.105	-0.174
-326.143	-200.000	0.014	0.291
-325.129	800.000	-0.052	0.182
-324.114	60.876	-0.069	0.067
-323.099	800.000	0.041	0.137
-322.085	-103.137	-0.452	0.106
-321.070	-200.000	0.060	-0.303
-320.056	-143.705	-0.289	0.027
-319.041	-172.698	0.122	0.004
-318.026	306.149	-0.138	0.254
-317.012	-82.877	-0.120	-0.038
-315.997	-20.223	-0.069	0.042
-314.983	-26.676	-0.125	-0.072
-313.968	698.196	-0.043	-0.112
-312.953	64.690	0.043	0.043
-311.939	-88.443	-0.277	0.082
-310.924	479.139	-0.225	0.504
-309.910	60.175	0.123	0.120
-308.895	-135.196	-0.326	0.039
-307.880	-107.021	-0.245	-0.054
-306.866	87.720	-0.247	0.271
-305.851	121.151	0.232	-0.286
-304.837	-82.849	-0.159	-0.051
-303.822	-18.279	-0.143	-0.088
-302.807	319.932	0.106	0.199
-301.793	22.406	-0.204	0.165
-300.778	-115.546	-0.384	0.071
-299.764	-65.040	0.311	0.124
-298.749	-200.000	0.041	-0.231
-297.735	-34.943	-0.158	-0.085
-296.720	-200.000	-0.008	-0.236
-295.705	382.684	-0.189	-0.384
-294.691	93.132	0.158	0.177
-293.676	8.170	-0.233	-0.173
-292.662	-200.000	0.051	-0.267
-291.647	-94.400	0.051	-0.014
-290.632	-81.344	-0.142	0.046
-289.618	-37.262	0.338	0.179
-288.603	-53.213	0.249	0.113
-287.589	800.000	0.052	0.147
-286.574	80.008	0.158	0.168
-285.559	41.078	0.306	0.273
-284.545	651.101	-0.105	0.266
-283.530	-68.023	-0.176	0.068
-282.516	208.856	0.046	0.071
-281.501	-11.650	0.093	-0.061
-280.486	649.880	0.101	0.254
-279.472	800.000	-0.014	-0.055
-278.457	23.738	-0.300	-0.244
-277.443	800.000	0.032	-0.129
-276.428	21.817	0.251	-0.202
-275.413	800.000	0.044	0.177
-274.399	7.518	0.157	0.116
-273.384	571.367	-0.062	-0.148
-272.370	800.000	-0.067	-0.227
-271.355	-200.000	0.067	0.305
-270.340	-25.249	-0.172	0.101
-269.326	251.308	-0.188	0.316
-268.311	-142.082	-0.319	-0.031
-267.297	-119.103	0.193	0.033
-266.282	-193.096	0.161	0.001
-265.267	522.622	-0.225	0.522
-264.253	408.628	0.053	-0.112
-263.238	800.000	-0.038	-0.126
-262.224	-75.758	-0.362	0.127
-261.209	-200.000	0.009	0.096
-260.195	63.713	0.154	-0.153
-259.180	-179.693	0.137	0.003
-258.165	22.458	-0.101	0.081
-257.151	-29.786	-0.203	0.114
-256.136	-33.148	0.340	0.186
-255.122	32.735	-0.081	0.069
-254.107	58.183	0.157	0.152
-253.092	-18.754	0.168	-0.103
-252.078	25.321	-0.276	0.226
-251.063	89.180	-0.196	-0.215
-250.049	52.697	-0.074	-0.070
-249.034	-33.375	0.046	0.025
-248.019	-51.383	0.353	0.163
-247.005	-200.000	-0.147	-0.000
-245.990	-200.000	-0.025	0.191
-244.976	272.465	0.059	-0.103
-243.961	-0.550	0.217	0.152
-242.946	800.000	-0.036	-0.115
-241.932	-120.514	0.371	0.062
-240.917	-97.421	0.295	0.076
-239.903	-30.643	-0.134	0.075
-238.888	78.785	-0.122	0.129
-237.873	-14.831	-0.150	-0.095
-236.859	-200.000	0.042	0.328
-235.844	800.000	0.064	0.201
-234.830	-79.872	-0.104	-0.034
-233.815	-113.071	0.229	0.044
-232.800	-74.719	0.100	-0.036
-231.786	198.738	-0.100	0.150
-230.771	-200.000	-0.024	-0.111
-229.757	800.000	-0.088	-0.259
-228.742	-200.000	-0.006	0.047
-227.727	272.435	-0.073	-0.127
-226.713	135.039	-0.144	-0.185
-225.698	12.453	0.209	-0.159
-224.684	-27.028	-0.080	0.046
-223.669	154.191	0.090	0.122
-222.655	323.169	-0.122	-0.230
-221.640	-200.000	-0.030	-0.345
-220.625	69.510	0.122	-0.123
-219.611	-158.265	-0.200	-0.012
-218.596	-200.000	0.003	0.100
-217.582	493.648	-0.085	0.192
-216.567	800.000	0.026	0.104
-215.552	-125.106	-0.270	-0.041
-214.538	-200.000	-0.020	-0.129
-213.523	-103.263	0.172	-0.040
-212.509	191.471	-0.193	-0.286
-211.494	-50.682	-0.157	-0.073
-210.479	-200.000	0.012	-0.163
-209.465	399.759	-0.015	-0.031
-208.450	152.032	0.151	-0.203
-207.436	43.770	0.198	-0.179
-206.421	-109.531	-0.070	-0.015
-205.406	-43.306	-0.227	0.113
-204.392	103.722	0.010	0.012
-203.377	800.000	0.068	-0.194
-202.363	-200.000	0.035	0.449
-201.348	-103.323	0.067	0.016
-200.333	-5.097	-0.099	-0.067
-199.319	469.019	0.078	0.173
-198.304	-163.335	-0.196	-0.009
-197.290	314.168	0.100	-0.186
-196.275	-29.784	0.305	-0.171
-195.260	-141.790	-0.023	-0.002
-194.246	-11.061	-0.193	0.126
-193.231	-200.000	0.065	-0.311
-192.217	-29.039	0.343	0.194
-191.202	-163.611	0.209	-0.010
-190.187	-102.475	-0.122	-0.029
-189.173	156.917	-0.196	0.266
-188.158	800.000	-0.023	0.088
-187.144	-200.000	-0.005	0.118
-186.129	800.000	-0.095	0.271
-185.114	-200.000	-0.043	0.310
-184.100	-87.858	0.302	0.089
-183.085	-30.181	-0.041	0.023
-182.071	800.000	0.108	-0.395
-181.056	800.000	0.088	-0.245
-180.042	-109.393	-0.267	0.056
-179.027	-145.735	0.214	-0.019
-178.012	-86.687	0.159	-0.048
-176.998	-68.672	-0.223	0.085
-175.983	800.000	0.041	-0.139
-174.969	800.000	0.112	0.336
-173.954	-96.536	-0.487	0.126
-172.939	-158.847	0.285	0.016
-171.925	-87.503	0.041	-0.012
-170.910	238.927	0.232	0.379
-169.896	-200.000	0.035	0.188
-168.881	-200.000	-0.017	-0.292
-167.866	800.000	0.035	-0.110
-166.852	-2.562	0.285	0.196
-165.837	-37.861	-0.149	0.078
-164.823	-144.702	0.052	0.005
-163.808	-151.211	-0.094	0.007
-162.793	-112.491	-0.168	-0.033
-161.779	-84.956	0.145	0.045
-160.764	448.462	0.127	-0.275
-159.750	-55.557	0.184	-0.081
-158.735	139.697	-0.170	0.220
-157.720	129.664	-0.173	0.218
-156.706	-54.607	-0.251	0.111
-155.691	-154.385	-0.014	-0.001
-154.677	-119.906	-0.135	-0.023
-153.662	-122.280	-0.471	0.076
-152.647	261.258	-0.139	-0.236
-151.633	-114.605	0.214	0.040
-150.618	-200.000	-0.058	-0.426
-149.604	148.642	-0.160	-0.212
-148.589	2.460	0.238	0.169
-147.574	19.262	-0.090	-0.071
-146.560	800.000	-0.047	-0.162
-145.545	-131.746	-0.159	0.020
-144.531	-8.560	0.028	-0.019
-143.516	-200.000	0.006	0.037
-142.502	-200.000	-0.047	0.334
-141.487	-86.821	-0.069	0.021
-140.472	-122.395	0.259	0.042
-139.458	77.675	-0.244	0.255
-138.443	-154.677	0.165	0.011
-137.429	-116.274	0.046	0.008
-136.414	-200.000	0.023	0.136
-135.399	93.499	-0.139	-0.155
-134.385	-191.033	0.240	-0.002
-133.370	-142.100	-0.218	-0.021
-132.356	-200.000	0.004	0.095
-131.341	-200.000	-0.040	0.272
-130.326	603.175	-0.009	0.021
-129.312	-23.999	0.036	-0.021
-128.297	-52.735	0.399	-0.181
-127.283	2.967	0.144	-0.103
-126.268	656.994	-0.065	0.165
-125.253	800.000	-0.069	-0.192
-124.239	-141.396	0.244	0.024
-123.224	-123.622	0.306	-0.048
-122.210	-162.847	0.132	0.006
-121.195	25.694	0.187	0.153
