DTS Sentinel unit serial number:	SN413079Multiplexer serial number:	ORYXHardware model number:	OX4-SRSoftware version number:	ORYX F/W v4.00 Oryx Data Collector v3.7.2.0data status	okinstallation	princeton_trtdifferential loss correction	single-endedforward channel	channel 1reverse channel	N/Adate	2019/09/14time	17:38:35forward acquisition time	60.00reverse acquisition time	0.00gamma	496.2192k internal	0.2297k external	0.2297temperature offset calibration	1.0047default loss term (dB/km)	0.3790temperature slope calibration	1.0000multiplexer offset coefficient	1.0000multiplexer slope coefficient	1.0000fibre end	0.00T internal ref (°C)	37.56T ext. ref 1 (°C)	5.03T ext. ref 2 (°C)	32.63length (m)	temperature (°C)	Stokes	anti-Stokes-747.200	-200.000	0.411	-0.001
-746.185	800.000	-0.046	0.137
-745.171	-200.000	0.063	0.304
-744.156	-193.066	-0.195	-0.002
-743.142	-200.000	-0.085	-0.425
-742.127	-6.279	-0.022	0.015
-741.112	800.000	-0.037	0.166
-740.098	306.498	-0.148	0.281
-739.083	432.606	0.060	0.132
-738.069	-65.361	-0.114	0.047
-737.054	10.797	-0.160	-0.125
-736.039	-29.178	-0.292	-0.171
-735.025	481.292	0.109	0.252
-734.010	-200.000	0.016	-0.198
-732.996	267.042	-0.071	-0.126
-731.981	-59.143	-0.076	-0.033
-730.966	-0.567	0.076	0.055
-729.952	-89.502	0.226	0.068
-728.937	-65.090	-0.063	0.026
-727.923	239.162	-0.083	-0.142
-726.908	40.686	-0.372	-0.342
-725.894	-7.489	-0.179	0.124
-724.879	-52.070	-0.253	-0.120
-723.864	-200.000	0.033	-0.221
-722.850	-46.654	-0.374	-0.187
-721.835	206.782	-0.111	-0.176
-720.821	-76.453	0.099	0.035
-719.806	-122.777	0.311	0.051
-718.791	-145.864	0.164	-0.015
-717.777	-135.039	0.104	0.013
-716.762	-32.900	0.210	-0.119
-715.748	167.269	0.203	-0.295
-714.733	-23.758	-0.307	-0.188
-713.718	-200.000	-0.015	-0.157
-712.704	-165.537	-0.277	0.012
-711.689	800.000	0.061	-0.267
-710.675	74.063	-0.193	0.206
-709.660	-159.474	-0.269	-0.015
-708.645	-200.000	-0.024	0.144
-707.631	-15.792	0.165	-0.107
-706.616	-200.000	-0.008	-0.232
-705.602	-39.335	-0.290	0.155
-704.587	-116.233	-0.211	-0.040
-703.572	-200.000	-0.020	-0.150
-702.558	101.958	-0.082	-0.097
-701.543	29.574	0.082	-0.071
-700.529	-128.900	-0.111	-0.016
-699.514	-200.000	0.001	-0.170
-698.499	-148.769	-0.245	-0.020
-697.485	5.664	-0.024	-0.018
-696.470	-93.249	-0.222	-0.063
-695.456	138.437	0.140	-0.187
-694.441	-128.740	-0.285	0.041
-693.426	-90.914	-0.281	-0.082
-692.412	-154.660	-0.103	-0.007
-691.397	800.000	-0.093	0.320
-690.383	-200.000	-0.010	0.156
-689.368	-3.758	0.368	-0.260
-688.354	-111.057	-0.381	-0.080
-687.339	117.178	0.212	0.266
-686.324	15.687	-0.037	0.030
-685.310	800.000	0.067	0.209
-684.295	151.502	-0.166	0.231
-683.281	115.355	0.059	0.074
-682.266	-200.000	0.001	-0.256
-681.251	61.594	0.160	-0.163
-680.237	-65.817	-0.171	0.070
-679.222	-163.957	-0.260	0.012
-678.208	188.787	-0.070	-0.107
-677.193	46.550	-0.089	0.084
-676.178	-200.000	0.037	-0.556
-675.164	183.087	0.103	0.155
-674.149	58.222	0.126	-0.126
-673.135	800.000	-0.017	0.050
-672.120	64.802	-0.109	0.112
-671.105	55.258	-0.185	-0.182
-670.091	237.137	0.063	-0.107
-669.076	-17.465	0.060	-0.038
-668.062	-174.722	0.189	0.005
-667.047	120.909	0.060	-0.075
-666.032	49.989	0.045	0.043
-665.018	129.941	-0.085	0.111
-664.003	-124.170	-0.343	0.055
-662.989	24.132	-0.106	0.089
-661.974	323.865	0.120	-0.232
-660.959	-41.857	0.375	0.195
-659.945	-136.906	-0.232	0.027
-658.930	85.420	-0.054	-0.061
-657.916	-80.864	0.247	-0.083
-656.901	-200.000	-0.008	0.045
-655.886	-69.334	0.314	0.123
-654.872	90.535	-0.194	0.221
-653.857	-46.382	0.077	0.038
-652.843	165.306	-0.180	-0.259
-651.828	-69.644	-0.407	-0.158
-650.814	305.524	-0.160	-0.302
-649.799	-11.030	0.137	-0.092
-648.784	-33.881	0.066	-0.037
-647.770	-200.000	-0.041	-0.294
-646.755	-78.632	0.130	0.045
-645.741	800.000	0.052	-0.181
-644.726	-200.000	0.007	0.319
-643.711	-34.644	-0.099	0.055
-642.697	33.284	-0.300	-0.265
-641.682	9.837	0.107	-0.083
-640.668	-116.453	-0.297	0.056
-639.653	104.821	-0.147	-0.177
-638.638	-24.500	0.194	-0.117
-637.624	-11.107	0.196	-0.131
-636.609	87.296	0.106	0.119
-635.595	39.824	-0.131	-0.120
-634.580	800.000	-0.027	-0.096
-633.565	-103.148	-0.223	-0.054
-632.551	-62.978	-0.002	0.001
-631.536	35.672	0.184	-0.165
-630.522	-87.273	-0.345	-0.106
-629.507	-44.246	0.211	-0.107
-628.492	800.000	0.096	-0.342
-627.478	384.120	-0.114	0.238
-626.463	-103.066	0.260	0.063
-625.449	6.497	-0.260	-0.197
-624.434	800.000	-0.078	-0.253
-623.419	-200.000	-0.014	0.083
-622.405	800.000	-0.059	-0.243
-621.390	-154.595	0.204	-0.014
-620.376	414.524	0.097	0.211
-619.361	269.938	-0.105	0.187
-618.346	-95.223	0.243	0.066
-617.332	-80.050	-0.224	-0.076
-616.317	-3.732	-0.019	-0.014
-615.303	137.593	0.050	0.067
-614.288	128.526	-0.106	0.138
-613.273	-7.486	0.144	0.099
-612.259	43.147	0.358	0.332
-611.244	-105.540	-0.308	-0.071
-610.230	-59.015	-0.133	0.058
-609.215	98.925	-0.072	-0.084
-608.201	-200.000	0.006	0.343
-607.186	309.464	-0.024	-0.046
-606.171	255.952	0.111	0.194
-605.157	-107.549	-0.424	-0.094
-604.142	-90.939	0.117	0.034
-603.128	362.921	-0.142	0.289
-602.113	366.468	0.103	0.211
-601.098	-162.530	0.131	-0.007
-600.084	800.000	0.051	-0.176
-599.069	-200.000	0.062	-0.406
-598.055	20.014	0.230	-0.189
-597.040	535.947	0.103	-0.249
-596.025	-200.000	-0.031	0.224
-595.011	-200.000	0.017	-0.292
-593.996	-6.171	-0.102	-0.071
-592.982	-200.000	0.028	0.209
-591.967	392.563	-0.075	0.159
-590.952	-92.075	-0.161	-0.046
-589.938	21.512	-0.138	0.114
-588.923	-78.886	-0.226	0.078
-587.909	-200.000	-0.007	-0.053
-586.894	179.778	-0.039	-0.057
-585.879	108.299	-0.174	0.210
-584.865	-167.312	-0.061	0.002
-583.850	-200.000	0.060	0.373
-582.836	-103.379	-0.151	0.036
-581.821	-9.292	-0.225	-0.153
-580.806	32.376	0.221	0.193
-579.792	63.841	-0.016	0.016
-578.777	800.000	-0.044	-0.145
-577.763	69.678	-0.137	0.143
-576.748	-45.981	0.184	0.092
-575.733	35.725	0.210	0.187
-574.719	800.000	0.036	-0.120
-573.704	800.000	0.075	-0.256
-572.690	800.000	-0.057	0.184
-571.675	-76.914	-0.301	0.107
-570.661	-200.000	-0.005	-0.056
-569.646	-94.184	0.214	0.059
-568.631	-118.566	-0.167	-0.030
-567.617	-162.269	0.059	-0.003
-566.602	-75.116	0.158	0.057
-565.588	543.502	0.124	-0.299
-564.573	800.000	0.071	-0.200
-563.558	-119.203	0.228	0.040
-562.544	56.426	0.141	-0.139
-561.529	46.818	0.152	-0.143
-560.515	-200.000	0.012	-0.143
-559.500	800.000	-0.043	0.138
-558.485	-200.000	-0.056	0.367
-557.471	-200.000	-0.005	0.062
-556.456	-0.818	-0.290	-0.209
-555.442	49.703	0.050	-0.048
-554.427	-200.000	0.034	0.269
-553.412	208.297	0.029	-0.045
-552.398	-110.333	-0.161	-0.034
-551.383	76.325	0.312	-0.335
-550.369	-87.079	-0.135	-0.042
-549.354	7.733	-0.100	-0.076
-548.339	-154.062	0.092	0.006
-547.325	-106.238	0.156	-0.035
-546.310	56.686	-0.335	0.331
-545.296	-14.607	0.160	-0.104
-544.281	-77.157	0.406	0.143
-543.266	-200.000	-0.035	0.240
-542.252	-113.726	-0.113	0.022
-541.237	-200.000	0.027	-0.225
-540.223	800.000	0.095	-0.364
-539.208	49.382	0.121	-0.115
-538.193	800.000	-0.034	-0.131
-537.179	-43.263	0.116	-0.060
-536.164	65.387	0.037	0.038
-535.150	466.486	0.206	-0.468
-534.135	-81.637	0.141	-0.047
-533.121	-200.000	0.030	-0.206
-532.106	800.000	0.037	0.145
-531.091	-131.904	-0.146	0.019
-530.077	591.890	0.164	-0.411
-529.062	-28.331	0.060	0.035
-528.048	800.000	0.069	0.220
-527.033	-131.734	-0.350	0.046
-526.018	-15.810	-0.284	0.183
-525.004	89.149	-0.155	0.174
-523.989	420.111	-0.074	-0.161
-522.975	-98.565	-0.263	-0.068
-521.960	-147.290	0.086	0.007
-520.945	-200.000	-0.046	0.216
-519.931	-200.000	0.015	-0.083
-518.916	37.677	-0.136	-0.122
-517.902	-200.000	0.014	0.098
-516.887	80.360	0.154	0.167
-515.872	-31.000	-0.213	0.122
-514.858	-180.308	-0.021	0.000
-513.843	800.000	0.075	-0.209
-512.829	48.184	-0.159	0.150
-511.814	436.160	-0.036	0.079
-510.799	28.263	-0.211	-0.181
-509.785	-102.052	0.131	0.032
-508.770	341.094	0.052	-0.104
-507.756	415.824	0.074	-0.160
-506.741	-19.538	-0.217	-0.136
-505.726	-147.220	0.303	0.026
-504.712	377.707	-0.039	-0.082
-503.697	-200.000	0.042	-0.191
-502.683	122.066	0.095	-0.120
-501.668	-117.193	0.153	-0.028
-500.653	-165.249	0.040	0.002
-499.639	-43.458	0.310	0.158
-498.624	7.039	0.094	-0.071
-497.610	-130.896	-0.248	-0.034
-496.595	229.167	-0.126	0.208
-495.581	-161.262	0.320	-0.017
-494.566	800.000	-0.120	0.384
-493.551	-145.639	0.100	-0.009
-492.537	-178.203	0.118	0.003
-491.522	312.626	-0.081	-0.153
-490.508	258.558	-0.182	0.316
-489.493	186.810	0.193	0.291
-488.478	-69.237	0.342	-0.133
-487.464	128.720	0.204	-0.263
-486.449	-39.955	0.228	-0.121
-485.435	407.444	0.080	-0.171
-484.420	81.183	0.039	0.042
-483.405	-95.423	-0.201	-0.055
-482.391	-41.028	-0.273	-0.142
-481.376	265.322	0.138	-0.243
-480.362	800.000	-0.042	0.163
-479.347	468.249	0.076	0.172
-478.332	-151.860	-0.198	-0.015
-477.318	3.944	0.069	0.051
-476.303	800.000	0.057	0.170
-475.289	-158.670	0.517	-0.030
-474.274	114.946	-0.103	-0.127
-473.259	79.436	0.161	0.175
-472.245	261.165	0.188	-0.330
-471.230	-153.410	0.337	-0.024
-470.216	-200.000	-0.005	0.111
-469.201	-200.000	-0.009	-0.289
-468.186	-200.000	-0.061	-0.306
-467.172	175.742	0.277	-0.406
-466.157	29.233	0.171	0.147
-465.143	574.550	-0.139	0.343
-464.128	-200.000	-0.026	-0.268
-463.113	-3.212	0.368	-0.259
-462.099	-112.069	0.250	-0.051
-461.084	-182.250	0.203	0.004
-460.070	2.897	-0.060	-0.044
-459.055	73.161	-0.060	-0.064
-458.040	800.000	-0.083	0.299
-457.026	181.449	0.038	-0.057
-456.011	-70.100	0.156	-0.060
-454.997	122.712	0.263	0.332
-453.982	330.902	0.028	0.054
-452.968	-200.000	-0.001	0.420
-451.953	-145.881	0.440	-0.039
-450.938	-59.391	-0.221	-0.096
-449.924	-118.216	0.239	0.043
-448.909	218.191	0.162	0.262
-447.895	-200.000	0.023	-0.220
-446.880	-135.657	0.132	0.016
-445.865	75.613	0.211	-0.225
-444.851	-20.616	-0.163	0.101
-443.836	0.048	0.425	0.306
-442.822	-45.280	-0.342	0.172
-441.807	30.259	-0.163	0.141
-440.792	242.196	-0.147	0.248
-439.778	-200.000	0.004	0.082
-438.763	-4.260	-0.037	0.026
-437.749	-43.497	-0.381	0.194
-436.734	451.224	-0.046	0.103
-435.719	-200.000	-0.049	0.229
-434.705	162.433	-0.089	0.126
-433.690	-109.640	0.120	0.026
-432.676	119.936	0.237	-0.297
-431.661	223.338	0.210	0.342
-430.646	-86.322	0.229	-0.071
-429.632	69.370	-0.125	0.129
-428.617	-122.904	0.233	-0.038
-427.603	-60.690	0.239	-0.102
-426.588	-200.000	-0.021	-0.324
-425.573	126.989	0.191	-0.244
-424.559	-32.325	0.123	-0.069
-423.544	-200.000	0.002	0.024
-422.530	-84.383	0.262	0.084
-421.515	-200.000	0.034	0.422
-420.500	-200.000	-0.005	0.294
-419.486	341.484	0.052	0.102
-418.471	800.000	0.022	0.092
-417.457	184.213	0.077	0.115
-416.442	-200.000	-0.026	-0.173
-415.428	210.802	-0.145	0.230
-414.413	339.153	0.090	0.176
-413.398	-200.000	0.016	-0.139
-412.384	617.386	-0.058	0.147
-411.369	528.252	-0.057	-0.136
-410.355	800.000	0.006	0.027
-409.340	800.000	0.019	0.054
-408.325	800.000	-0.051	-0.216
-407.311	93.396	0.064	0.073
-406.296	67.806	-0.056	0.057
-405.282	135.159	0.068	0.090
-404.267	800.000	0.115	0.328
-403.252	800.000	-0.096	-0.304
-402.238	76.659	-0.190	0.204
-401.223	-4.323	-0.263	-0.183
-400.209	-139.894	-0.042	-0.004
-399.194	19.327	0.222	0.180
-398.179	-4.090	-0.260	0.181
-397.165	-200.000	-0.072	-0.319
-396.150	8.936	0.249	0.189
-395.136	-200.000	0.078	-0.407
-394.121	73.286	-0.064	0.068
-393.106	-8.601	-0.148	-0.100
-392.092	83.456	-0.180	0.197
-391.077	800.000	0.063	0.192
-390.063	-200.000	-0.077	0.342
-389.048	383.049	0.080	-0.166
-388.033	800.000	-0.091	0.316
-387.019	-128.187	0.077	-0.011
-386.004	44.929	0.203	-0.188
-384.990	486.739	0.059	0.135
-383.975	-92.025	-0.192	-0.055
-382.960	361.370	0.007	0.013
-381.946	372.142	0.005	0.011
-380.931	-101.238	-0.112	0.028
-379.917	-157.150	-0.271	0.017
-378.902	554.619	-0.074	0.180
-377.888	800.000	-0.087	-0.349
-376.873	-200.000	-0.033	-0.179
-375.858	-200.000	0.012	-0.149
-374.844	-76.823	0.094	0.033
-373.829	-68.470	0.188	0.074
-372.815	526.335	0.088	0.209
-371.800	319.552	0.096	0.183
-370.785	-76.915	-0.086	-0.030
-369.771	-34.706	0.293	-0.161
-368.756	14.851	-0.165	-0.130
-367.742	-97.901	-0.169	0.044
-366.727	-44.277	-0.169	0.085
-365.712	61.708	0.174	0.174
-364.698	150.212	-0.043	-0.059
-363.683	-120.269	-0.229	0.039
-362.669	800.000	0.032	0.103
-361.654	-21.220	0.115	0.071
-360.639	223.008	0.077	0.125
-359.625	-114.561	0.086	-0.017
-358.610	-157.474	0.206	0.012
-357.596	480.882	-0.052	0.119
-356.581	800.000	0.026	0.095
-355.566	-104.113	-0.266	-0.062
-354.552	392.625	0.171	0.358
-353.537	391.266	-0.044	0.091
-352.523	441.319	0.116	0.255
-351.508	-50.983	0.155	-0.073
-350.493	367.715	0.069	-0.141
-349.479	111.778	-0.115	0.140
-348.464	-200.000	0.003	0.101
-347.450	129.137	0.305	-0.392
-346.435	-86.468	-0.338	-0.104
-345.420	11.870	-0.115	0.089
-344.406	-65.056	0.105	-0.043
-343.391	-152.613	0.128	0.009
-342.377	-48.213	-0.230	-0.112
-341.362	-184.884	0.231	0.004
-340.348	38.942	0.202	-0.181
-339.333	-150.024	-0.193	0.015
-338.318	-72.681	-0.092	-0.034
-337.304	800.000	-0.106	-0.365
-336.289	800.000	-0.108	0.308
-335.275	-57.849	-0.209	0.092
-334.260	112.300	0.156	-0.190
-333.245	319.961	-0.117	0.224
-332.231	-200.000	0.024	0.114
-331.216	-200.000	0.029	-0.185
-330.202	-104.734	-0.220	-0.051
-329.187	372.137	-0.139	0.283
-328.172	121.365	-0.078	0.098
-327.158	-200.000	-0.040	0.318
-326.143	-32.773	-0.081	-0.045
-325.129	94.549	0.254	-0.290
-324.114	-200.000	-0.027	-0.128
-323.099	15.607	0.162	0.128
-322.085	79.731	-0.315	-0.340
-321.070	36.091	0.213	0.189
-320.056	61.430	-0.244	-0.243
-319.041	29.298	0.157	0.134
-318.026	789.452	-0.053	-0.147
-317.012	800.000	-0.018	-0.068
-315.997	-43.748	-0.201	0.102
-314.983	-11.314	-0.079	0.052
-313.968	-63.496	-0.251	0.104
-312.953	-133.335	-0.455	0.058
-311.939	-14.347	0.197	-0.128
-310.924	25.520	0.253	-0.211
-309.910	-72.791	-0.184	0.068
-308.895	-73.687	-0.373	-0.136
-307.880	34.219	0.085	0.074
-306.866	71.189	-0.095	0.099
-305.851	800.000	-0.098	-0.369
-304.837	102.494	-0.104	-0.122
-303.822	-125.937	0.217	0.033
-302.807	343.319	-0.136	-0.268
-301.793	-94.917	-0.341	-0.093
-300.778	-200.000	-0.039	0.351
-299.764	182.838	0.120	-0.178
-298.749	-93.653	-0.232	-0.064
-297.735	-40.221	0.056	0.029
-296.720	0.965	-0.088	-0.063
-295.705	800.000	0.148	0.535
-294.691	349.710	-0.072	-0.143
-293.676	6.898	-0.236	-0.176
-292.662	154.221	0.141	-0.194
-291.647	708.714	-0.091	-0.241
-290.632	-153.375	0.361	0.025
-289.618	45.702	0.245	0.227
-288.603	-15.577	-0.040	-0.025
-287.589	-200.000	-0.011	0.140
-286.574	-200.000	0.026	-0.256
-285.559	152.159	-0.068	0.093
-284.545	-200.000	0.033	0.350
-283.530	282.707	0.151	0.271
-282.516	52.494	-0.099	-0.094
-281.501	-96.466	0.203	-0.054
-280.486	276.325	0.120	0.213
-279.472	-9.222	-0.289	0.194
-278.457	238.892	-0.035	0.059
-277.443	-200.000	-0.055	-0.284
-276.428	-200.000	0.037	-0.500
-275.413	-200.000	0.025	0.365
-274.399	296.246	0.085	0.156
-273.384	64.447	-0.160	-0.161
-272.370	-200.000	0.068	-0.342
-271.355	159.156	-0.211	-0.294
-270.340	12.205	0.085	-0.065
-269.326	63.453	-0.028	0.028
-268.311	-200.000	-0.021	0.166
-267.297	-136.996	0.300	-0.034
-266.282	-200.000	-0.020	0.396
-265.267	-163.290	-0.356	-0.017
-264.253	-200.000	-0.029	0.170
-263.238	-142.762	-0.275	0.027
-262.224	-51.234	0.259	0.122
-261.209	145.091	-0.056	0.075
-260.195	-67.073	-0.321	0.127
-259.180	81.424	0.231	0.251
-258.165	41.254	-0.071	-0.065
-257.151	87.625	-0.160	0.177
-256.136	-36.922	0.248	-0.133
-255.122	-10.200	0.171	-0.114
-254.107	-200.000	0.009	0.240
-253.092	-200.000	0.073	-0.373
-252.078	-95.145	-0.349	-0.094
-251.063	-149.138	0.200	-0.016
-250.049	-82.209	0.093	-0.030
-249.034	68.068	0.135	-0.138
-248.019	-141.535	-0.315	0.032
-247.005	-51.930	-0.310	-0.144
-245.990	615.483	-0.100	0.251
-244.976	800.000	-0.085	-0.330
-243.961	-66.902	-0.236	0.093
-242.946	107.853	-0.083	0.099
-241.932	-4.698	-0.061	-0.042
-240.917	-172.573	-0.357	0.011
-239.903	294.976	-0.159	-0.292
-238.888	-126.324	0.190	-0.028
-237.873	106.999	-0.176	-0.210
-236.859	450.771	0.020	-0.043
-235.844	122.802	0.153	-0.192
-234.830	-55.666	-0.217	-0.097
-233.815	-118.202	0.137	-0.024
-232.800	-200.000	-0.013	0.083
-231.786	-200.000	0.018	-0.216
-230.771	-149.451	0.224	0.018
-229.757	-57.387	0.358	-0.157
-228.742	800.000	-0.088	-0.282
-227.727	-100.009	0.305	-0.076
-226.713	-129.151	0.387	-0.054
-225.698	232.450	-0.037	-0.061
-224.684	-138.484	0.224	0.025
-223.669	-200.000	0.031	0.142
-222.655	-200.000	0.010	0.131
-221.640	-8.075	0.073	-0.049
-220.625	800.000	-0.029	0.107
-219.611	-160.956	0.243	-0.013
-218.596	-200.000	0.022	-0.115
-217.582	-56.968	0.145	0.064
-216.567	-200.000	-0.056	-0.269
-215.552	800.000	-0.091	-0.312
-214.538	61.818	-0.121	0.120
-213.523	-17.104	0.094	0.060
-212.509	26.104	-0.230	0.192
-211.494	800.000	-0.052	0.150
-210.479	9.599	-0.144	0.109
-209.465	24.436	-0.151	0.125
-208.450	21.284	-0.070	0.057
-207.436	-104.153	0.443	0.103
-206.421	-200.000	-0.066	-0.304
-205.406	-55.086	-0.384	0.173
-204.392	800.000	-0.105	-0.294
-203.377	427.787	0.112	-0.242
-202.363	159.409	-0.123	0.171
-201.348	-114.488	0.013	-0.003
-200.333	-200.000	-0.016	0.268
-199.319	-200.000	-0.042	0.280
-198.304	-119.992	0.191	0.033
-197.290	-200.000	0.017	0.192
-196.275	13.662	-0.340	0.264
-195.260	-13.471	-0.394	0.255
-194.246	-41.037	0.248	0.128
-193.231	-127.970	-0.302	-0.043
-192.217	800.000	0.041	0.169
-191.202	-57.360	-0.441	0.194
-190.187	-110.738	-0.199	0.041
-189.173	43.262	-0.207	0.188
-188.158	-144.958	-0.124	0.011
-187.144	-198.418	-0.187	-0.001
-186.129	488.330	0.088	0.202
-185.114	-200.000	-0.001	-0.066
-184.100	800.000	-0.144	-0.441
-183.085	-200.000	-0.076	-0.375
-182.071	-200.000	-0.004	-0.065
-181.056	151.838	0.154	0.210
-180.042	800.000	0.089	0.272
-179.027	-125.962	0.179	0.027
-178.012	452.155	-0.093	-0.205
-176.998	-32.528	0.137	-0.076
-175.983	-200.000	0.015	-0.282
-174.969	-200.000	0.020	-0.133
-173.954	800.000	0.075	0.216
-172.939	-8.439	-0.343	-0.230
-171.925	-105.865	0.026	0.006
-170.910	-200.000	-0.001	-0.083
-169.896	78.895	0.216	-0.230
-168.881	-7.414	0.235	0.159
-167.866	222.874	0.126	-0.203
-166.852	163.246	-0.206	0.289
-165.837	594.713	-0.191	-0.471
-164.823	126.417	-0.286	-0.361
-163.808	-98.584	0.195	0.050
-162.793	162.804	-0.064	0.090
-161.779	63.261	-0.228	0.228
-160.764	659.394	0.073	-0.188
-159.750	376.412	-0.044	-0.090
-158.735	148.242	-0.195	0.263
-157.720	-200.000	0.051	0.394
-156.706	126.389	-0.165	0.208
-155.691	60.605	0.107	0.106
-154.677	317.668	0.101	-0.190
-153.662	-95.808	0.135	0.036
-152.647	-200.000	-0.027	-0.124
-151.633	301.642	0.084	-0.155
-150.618	800.000	0.007	-0.019
-149.604	-200.000	0.013	0.074
-148.589	-200.000	-0.011	0.066
-147.574	241.775	-0.147	-0.246
-146.560	-200.000	-0.017	-0.201
-145.545	261.770	0.087	0.151
-144.531	-200.000	-0.029	0.127
-143.516	143.804	-0.049	-0.065
-142.502	164.923	0.152	-0.214
-141.487	-15.392	0.238	-0.152
-140.472	-135.704	0.271	0.032
-139.458	88.852	0.142	0.157
-138.443	-67.570	0.034	0.013
-137.429	-176.859	-0.118	0.003
-136.414	-98.773	0.203	-0.052
-135.399	-200.000	0.050	-0.292
-134.385	800.000	0.042	-0.160
-133.370	-98.288	0.063	-0.016
-132.356	586.017	-0.083	0.204
-131.341	380.518	-0.047	0.096
-130.326	196.639	0.180	0.273
-129.312	-49.940	-0.211	0.100
-128.297	-181.883	0.275	-0.005
-127.283	-57.773	-0.158	-0.069
-126.268	405.467	0.076	0.160
-125.253	-200.000	0.024	-0.204
-124.239	-200.000	-0.001	0.323
-123.224	-200.000	-0.033	0.164
-122.210	-200.000	-0.008	-0.064
-121.195	191.577	0.250	-0.376
