DTS Sentinel unit serial number:	SN413079Multiplexer serial number:	ORYXHardware model number:	OX4-SRSoftware version number:	ORYX F/W v4.00 Oryx Data Collector v3.7.2.0data status	okinstallation	princeton_trtdifferential loss correction	single-endedforward channel	channel 1reverse channel	N/Adate	2019/09/11time	03:28:11forward acquisition time	60.00reverse acquisition time	0.00gamma	496.2192k internal	0.2331k external	0.2331temperature offset calibration	0.9924default loss term (dB/km)	0.3790temperature slope calibration	1.0000multiplexer offset coefficient	1.0000multiplexer slope coefficient	1.0000fibre end	0.00T internal ref (°C)	29.44T ext. ref 1 (°C)	-0.32T ext. ref 2 (°C)	24.18length (m)	temperature (°C)	Stokes	anti-Stokes-747.200	186.330	0.111	-0.166
-746.185	-133.344	-0.161	-0.020
-745.171	-200.000	-0.011	0.123
-744.156	-126.322	-0.074	0.011
-743.142	-153.754	0.343	0.024
-742.127	-200.000	-0.055	-0.423
-741.112	39.989	-0.141	0.128
-740.098	-200.000	0.002	0.597
-739.083	65.812	0.217	0.221
-738.069	124.131	-0.221	0.279
-737.054	-28.280	-0.336	-0.195
-736.039	237.924	-0.123	-0.206
-735.025	234.205	-0.138	-0.229
-734.010	-200.000	0.008	-0.287
-732.996	491.283	0.020	-0.046
-731.981	-200.000	0.024	-0.279
-730.966	-35.299	-0.400	0.219
-729.952	-25.259	-0.292	-0.174
-728.937	76.573	-0.366	-0.390
-727.923	292.229	-0.061	-0.112
-726.908	1.647	-0.121	-0.088
-725.894	373.678	0.183	0.374
-724.879	24.018	0.013	-0.011
-723.864	56.850	-0.251	-0.246
-722.850	768.025	-0.108	-0.296
-721.835	-60.146	-0.026	0.011
-720.821	-200.000	0.024	-0.174
-719.806	-200.000	0.009	0.097
-718.791	-39.020	-0.416	0.220
-717.777	35.929	-0.119	-0.105
-716.762	-57.217	0.401	0.178
-715.748	79.538	0.087	-0.093
-714.733	800.000	-0.056	-0.225
-713.718	-200.000	-0.046	-0.291
-712.704	800.000	-0.092	-0.277
-711.689	-200.000	-0.010	0.153
-710.675	-66.652	0.076	0.030
-709.660	-112.290	-0.115	-0.023
-708.645	-8.166	0.220	-0.149
-707.631	-153.165	-0.213	0.015
-706.616	800.000	-0.057	-0.222
-705.602	-200.000	0.002	0.021
-704.587	31.783	-0.214	0.185
-703.572	608.519	0.052	-0.131
-702.558	32.107	0.252	-0.219
-701.543	251.759	-0.135	-0.230
-700.529	78.989	-0.094	-0.101
-699.514	-92.954	0.167	-0.047
-698.499	91.012	0.113	-0.127
-697.485	-134.225	0.440	-0.054
-696.470	160.122	-0.229	-0.320
-695.456	-45.030	-0.180	-0.090
-694.441	380.870	-0.013	-0.026
-693.426	102.114	-0.202	-0.237
-692.412	-26.042	-0.562	-0.332
-691.397	15.256	0.201	0.158
-690.383	-200.000	-0.018	0.448
-689.368	202.231	0.212	-0.329
-688.354	238.267	0.127	-0.212
-687.339	-129.451	0.139	-0.019
-686.324	-129.417	-0.244	-0.034
-685.310	-157.910	-0.043	-0.003
-684.295	144.679	0.036	0.048
-683.281	-30.357	-0.200	0.114
-682.266	162.395	0.166	-0.234
-681.251	-112.188	-0.297	0.060
-680.237	118.605	0.102	0.127
-679.222	-72.915	-0.140	-0.052
-678.208	51.865	0.026	-0.025
-677.193	-137.911	-0.145	0.016
-676.178	-87.295	0.276	-0.084
-675.164	80.798	0.127	0.137
-674.149	55.685	0.005	0.005
-673.135	645.685	-0.045	-0.116
-672.120	145.336	-0.188	0.253
-671.105	-200.000	0.015	-0.249
-670.091	-200.000	0.001	-0.177
-669.076	-200.000	-0.001	-0.139
-668.062	800.000	-0.044	-0.139
-667.047	-121.347	-0.267	-0.045
-666.032	-143.993	-0.325	0.031
-665.018	-80.352	-0.161	-0.054
-664.003	308.528	-0.208	0.390
-662.989	-4.498	0.172	0.119
-661.974	-200.000	0.012	-0.151
-660.959	800.000	-0.045	-0.135
-659.945	-200.000	-0.031	-0.255
-658.930	3.944	-0.222	-0.163
-657.916	-200.000	0.004	-0.056
-656.901	-75.370	0.323	0.115
-655.886	648.589	0.022	-0.056
-654.872	66.784	-0.218	-0.222
-653.857	-88.217	0.447	0.134
-652.843	800.000	0.038	-0.152
-651.828	-101.041	-0.286	-0.070
-650.814	380.309	-0.099	0.204
-649.799	148.749	-0.088	0.119
-648.784	-85.700	-0.169	0.053
-647.770	-200.000	-0.054	-0.316
-646.755	0.018	-0.107	0.076
-645.741	45.870	0.184	0.170
-644.726	111.610	0.105	-0.127
-643.711	598.246	0.061	0.152
-642.697	381.145	-0.086	0.178
-641.682	533.438	-0.127	-0.302
-640.668	-9.084	-0.138	-0.092
-639.653	53.303	-0.257	-0.247
-638.638	-132.284	-0.113	0.015
-637.624	37.801	0.114	-0.101
-636.609	1.191	-0.366	-0.264
-635.595	-133.502	0.147	0.018
-634.580	-109.470	0.080	-0.017
-633.565	-200.000	-0.000	-0.027
-632.551	-200.000	0.005	0.120
-631.536	-116.800	-0.165	0.030
-630.522	-200.000	0.056	-0.406
-629.507	-49.018	0.199	-0.096
-628.492	138.804	-0.075	-0.099
-627.478	141.922	0.077	-0.103
-626.463	-200.000	-0.015	0.250
-625.449	102.101	0.189	0.221
-624.434	-200.000	0.012	-0.273
-623.419	-63.584	0.315	-0.129
-622.405	-178.444	0.251	-0.006
-621.390	212.466	0.197	-0.312
-620.376	-144.070	-0.521	0.049
-619.361	-102.689	-0.341	-0.081
-618.346	800.000	0.076	-0.272
-617.332	534.016	0.095	0.225
-616.317	70.812	0.378	-0.392
-615.303	6.288	-0.301	-0.224
-614.288	85.605	-0.100	-0.110
-613.273	471.364	0.093	-0.210
-612.259	-200.000	-0.119	-0.540
-611.244	15.977	0.220	-0.174
-610.230	160.634	0.193	0.270
-609.215	-200.000	-0.027	-0.137
-608.201	-200.000	-0.053	-0.354
-607.186	3.327	0.122	-0.089
-606.171	75.917	0.134	-0.142
-605.157	-140.368	0.194	0.020
-604.142	-200.000	-0.057	0.314
-603.128	-138.292	0.181	0.020
-602.113	222.041	-0.147	0.236
-601.098	100.607	-0.149	-0.173
-600.084	800.000	-0.027	0.087
-599.069	241.067	0.107	-0.178
-598.055	800.000	0.015	0.052
-597.040	98.226	0.141	0.163
-596.025	-97.399	-0.353	0.092
-595.011	-113.601	0.178	0.035
-593.996	-26.494	0.123	0.072
-592.982	167.194	-0.141	-0.201
-591.967	-184.545	0.071	0.001
-590.952	-200.000	-0.098	-0.525
-589.938	108.045	0.230	0.274
-588.923	-123.054	0.226	-0.036
-587.909	156.547	0.312	-0.432
-586.894	800.000	0.079	0.284
-585.879	259.344	-0.162	0.279
-584.865	-64.934	0.046	-0.019
-583.850	-200.000	-0.009	-0.164
-582.836	248.275	-0.061	-0.103
-581.821	-200.000	0.105	0.471
-580.806	-94.455	-0.140	0.038
-579.792	67.877	-0.155	-0.158
-578.777	800.000	-0.083	0.240
-577.763	-200.000	-0.011	-0.054
-576.748	-143.593	0.268	0.025
-575.733	484.441	-0.075	-0.172
-574.719	2.549	-0.039	-0.028
-573.704	-6.576	-0.040	-0.027
-572.690	-200.000	-0.072	-0.345
-571.675	-200.000	0.006	-0.133
-570.661	-200.000	0.016	0.211
-569.646	-200.000	-0.020	0.168
-568.631	-171.454	-0.109	-0.004
-567.617	-163.880	0.192	-0.009
-566.602	68.500	0.174	-0.178
-565.588	-85.996	-0.175	-0.054
-564.573	264.002	-0.031	0.053
-563.558	673.635	0.117	-0.304
-562.544	418.377	-0.040	0.087
-561.529	-142.798	0.241	0.023
-560.515	-82.943	-0.104	-0.034
-559.500	736.239	0.121	-0.325
-558.485	-14.442	-0.100	0.065
-557.471	272.127	-0.044	-0.078
-556.456	121.397	0.201	-0.250
-555.442	800.000	0.090	0.373
-554.427	34.187	-0.133	-0.115
-553.412	-200.000	-0.012	0.061
-552.398	-200.000	0.036	0.165
-551.383	800.000	0.024	-0.081
-550.369	482.033	0.118	0.268
-549.354	-165.038	-0.121	-0.005
-548.339	108.636	-0.087	-0.104
-547.325	-89.566	0.056	-0.017
-546.310	-110.292	-0.252	-0.052
-545.296	48.125	0.209	-0.195
-544.281	72.285	-0.095	-0.099
-543.266	800.000	0.093	-0.315
-542.252	-200.000	0.009	0.164
-541.237	30.012	-0.206	0.175
-540.223	605.287	-0.057	0.143
-539.208	-133.141	-0.191	-0.024
-538.193	-48.417	-0.258	0.124
-537.179	-112.608	0.122	0.024
-536.164	139.031	0.246	-0.323
-535.150	-51.153	-0.132	-0.062
-534.135	-38.844	-0.256	-0.135
-533.121	-139.470	-0.286	0.031
-532.106	-200.000	0.010	0.061
-531.091	800.000	-0.062	-0.202
-530.077	-23.297	-0.106	0.063
-529.062	-89.118	0.138	-0.041
-528.048	-103.725	-0.500	0.117
-527.033	-48.894	0.230	-0.110
-526.018	-51.756	-0.143	0.066
-525.004	95.776	-0.139	-0.159
-523.989	-46.998	0.201	0.098
-522.975	-23.610	-0.244	0.146
-521.960	-200.000	-0.009	-0.083
-520.945	-18.985	-0.005	-0.003
-519.931	37.953	-0.241	0.214
-518.916	-75.177	0.439	-0.156
-517.902	-200.000	-0.058	-0.287
-516.887	487.931	-0.144	0.329
-515.872	-149.694	0.116	0.009
-514.858	-147.515	0.140	-0.012
-513.843	-8.498	-0.459	0.308
-512.829	33.592	0.184	-0.160
-511.814	-51.621	-0.113	-0.052
-510.799	-200.000	-0.001	0.301
-509.785	71.336	0.056	-0.058
-508.770	-68.065	-0.291	0.113
-507.756	217.020	-0.059	0.094
-506.741	204.001	0.086	-0.133
-505.726	-163.876	0.053	0.002
-504.712	-155.315	-0.229	0.015
-503.697	51.943	-0.373	0.355
-502.683	-128.534	0.009	-0.001
-501.668	114.094	0.132	-0.160
-500.653	-200.000	0.408	0.001
-499.639	-200.000	-0.039	-0.207
-498.624	103.668	0.239	-0.279
-497.610	189.240	-0.089	0.133
-496.595	-10.815	-0.098	-0.064
-495.581	17.428	-0.101	0.080
-494.566	39.814	0.027	-0.024
-493.551	39.337	0.197	0.176
-492.537	140.020	-0.062	0.082
-491.522	235.063	-0.051	-0.084
-490.508	-134.941	-0.215	0.026
-489.493	630.367	0.102	0.258
-488.478	27.026	0.234	0.196
-487.464	-178.911	-0.497	-0.011
-486.449	-9.313	0.397	-0.264
-485.435	-132.696	-0.214	0.027
-484.420	-87.993	-0.117	0.035
-483.405	800.000	0.064	0.234
-482.391	177.396	-0.204	0.296
-481.376	711.448	0.101	-0.266
-480.362	-46.028	-0.092	0.045
-479.347	-200.000	-0.010	0.207
-478.332	201.946	-0.066	-0.101
-477.318	-200.000	0.025	-0.385
-476.303	-2.581	-0.284	-0.198
-475.289	91.035	0.108	0.121
-474.274	-7.981	-0.307	0.206
-473.259	800.000	-0.055	0.189
-472.245	-56.184	-0.203	0.090
-471.230	-50.754	-0.094	0.044
-470.216	800.000	0.020	0.063
-469.201	-200.000	-0.041	0.185
-468.186	-143.558	-0.169	0.016
-467.172	-142.158	-0.259	-0.026
-466.157	-200.000	-0.003	0.032
-465.143	-200.000	0.011	0.111
-464.128	-77.400	0.328	-0.114
-463.113	31.686	-0.169	0.145
-462.099	680.565	0.072	-0.187
-461.084	-122.528	0.567	-0.092
-460.070	-200.000	0.013	0.158
-459.055	-55.236	-0.300	0.134
-458.040	-167.386	0.161	-0.006
-457.026	-55.707	0.338	-0.150
-456.011	13.214	0.117	0.090
-454.997	251.818	-0.074	0.125
-453.982	-75.812	-0.132	0.046
-452.968	-15.630	-0.104	0.066
-451.953	-118.160	-0.347	-0.062
-450.938	-123.477	-0.196	-0.031
-449.924	80.755	-0.234	-0.251
-448.909	-200.000	-0.027	-0.311
-447.895	-200.000	0.012	-0.079
-446.880	705.749	-0.125	0.329
-445.865	-164.386	0.337	-0.015
-444.851	-3.575	0.351	0.243
-443.836	21.316	-0.300	0.242
-442.822	469.589	0.030	-0.066
-441.807	3.474	-0.201	0.146
-440.792	143.823	0.156	0.207
-439.778	-200.000	-0.026	0.193
-438.763	-81.684	-0.129	-0.042
-437.749	-200.000	0.018	-0.237
-436.734	800.000	-0.058	0.161
-435.719	-200.000	-0.020	0.298
-434.705	-123.964	-0.241	-0.038
-433.690	800.000	-0.164	-0.556
-432.676	-27.314	0.023	0.013
-431.661	-48.037	-0.123	0.059
-430.646	572.188	-0.066	0.160
-429.632	800.000	0.055	0.162
-428.617	343.092	-0.075	-0.146
-427.603	-200.000	-0.016	0.536
-426.588	800.000	0.122	-0.391
-425.573	800.000	-0.013	0.054
-424.559	143.011	0.163	0.216
-423.544	800.000	0.175	0.490
-422.530	-80.218	0.065	-0.021
-421.515	16.700	-0.226	0.177
-420.500	297.313	-0.079	0.145
-419.486	-181.185	-0.239	0.005
-418.471	169.898	0.036	-0.051
-417.457	-168.575	0.103	-0.004
-416.442	-88.980	0.327	-0.096
-415.428	800.000	0.089	-0.290
-414.413	12.499	0.032	0.024
-413.398	-151.015	-0.267	0.020
-412.384	-24.443	0.191	0.113
-411.369	224.939	-0.183	0.294
-410.355	10.418	-0.310	0.234
-409.340	37.370	-0.294	-0.259
-408.325	-162.281	-0.385	-0.019
-407.311	83.826	-0.181	-0.197
-406.296	-71.104	0.380	-0.142
-405.282	800.000	-0.040	-0.122
-404.267	30.956	0.199	-0.169
-403.252	-200.000	-0.004	0.193
-402.238	-200.000	0.022	0.463
-401.223	-41.968	0.198	0.101
-400.209	156.768	-0.158	-0.216
-399.194	103.117	-0.208	-0.242
-398.179	41.203	0.378	-0.339
-397.165	-81.541	-0.205	0.067
-396.150	-141.136	0.037	-0.004
-395.136	-200.000	0.008	0.255
-394.121	-150.872	0.319	0.024
-393.106	781.685	-0.118	0.320
-392.092	-200.000	-0.018	0.168
-391.077	-200.000	0.022	0.202
-390.063	242.465	-0.034	0.057
-389.048	278.649	-0.060	-0.106
-388.033	-200.000	-0.022	-0.102
-387.019	-200.000	-0.009	0.114
-386.004	115.236	-0.126	0.153
-384.990	-77.235	-0.111	-0.038
-383.975	698.639	0.083	-0.216
-382.960	35.328	0.043	-0.037
-381.946	-79.857	-0.244	0.081
-380.931	-200.000	0.002	0.120
-379.917	-5.351	-0.210	-0.143
-378.902	-200.000	0.050	-0.226
-377.888	800.000	-0.094	0.259
-376.873	386.797	0.201	0.412
-375.858	-102.483	0.116	-0.028
-374.844	725.566	-0.018	0.047
-373.829	-79.715	-0.155	-0.052
-372.815	-200.000	-0.025	-0.143
-371.800	-147.980	-0.170	0.014
-370.785	316.833	-0.012	-0.022
-369.771	200.141	0.108	-0.165
-368.756	-111.566	0.267	-0.054
-367.742	-70.780	0.050	0.019
-366.727	800.000	-0.042	0.116
-365.712	772.032	0.066	-0.179
-364.698	-16.447	0.099	-0.062
-363.683	800.000	-0.070	-0.197
-362.669	165.882	-0.126	0.177
-361.654	-106.690	-0.174	0.038
-360.639	230.323	-0.032	-0.052
-359.625	-12.065	-0.228	-0.148
-358.610	104.321	0.251	-0.293
-357.596	-102.976	0.119	0.028
-356.581	474.235	0.103	-0.231
-355.566	-179.992	-0.200	-0.004
-354.552	-96.244	0.248	-0.065
-353.537	306.079	0.018	-0.034
-352.523	18.085	-0.241	-0.191
-351.508	-32.556	0.442	0.244
-350.493	28.564	-0.084	0.070
-349.479	258.815	-0.134	-0.229
-348.464	87.671	0.149	-0.163
-347.450	290.711	-0.116	0.208
-346.435	-131.044	0.366	0.048
-345.420	63.103	-0.063	-0.062
-344.406	800.000	0.082	-0.230
-343.391	600.126	0.149	-0.365
-342.377	-56.602	-0.079	-0.035
-341.362	-76.203	0.299	0.104
-340.348	178.561	-0.093	-0.135
-339.333	-57.597	0.464	-0.202
-338.318	-3.347	-0.218	-0.151
-337.304	696.047	-0.102	-0.265
-336.289	170.674	0.032	0.045
-335.275	14.511	-0.026	-0.020
-334.260	95.720	-0.103	-0.117
-333.245	-168.602	0.258	0.010
-332.231	-42.270	0.154	0.078
-331.216	-38.830	-0.449	-0.234
-330.202	362.477	0.109	0.217
-329.187	-101.795	0.273	-0.065
-328.172	-200.000	-0.008	-0.138
-327.158	800.000	0.119	-0.364
-326.143	800.000	-0.035	0.116
-325.129	-42.508	0.397	0.200
-324.114	13.369	0.036	0.027
-323.099	-200.000	-0.035	0.230
-322.085	-176.415	0.389	-0.010
-321.070	-135.011	-0.263	0.031
-320.056	-200.000	-0.041	-0.188
-319.041	293.492	-0.087	-0.157
-318.026	46.186	0.287	0.263
-317.012	-200.000	-0.056	-0.337
-315.997	-71.087	0.448	-0.167
-314.983	430.535	0.144	0.308
-313.968	-131.136	0.303	0.040
-312.953	800.000	-0.102	-0.360
-311.939	67.888	0.202	0.205
-310.924	-21.112	0.179	0.108
-309.910	800.000	-0.026	-0.075
-308.895	-77.829	0.371	0.127
-307.880	239.293	-0.104	0.171
-306.866	526.526	0.187	-0.436
-305.851	-159.690	-0.165	0.009
-304.837	800.000	-0.052	-0.210
-303.822	-200.000	0.002	0.180
-302.807	579.577	0.087	0.210
-301.793	641.957	-0.093	0.235
-300.778	-200.000	0.014	0.301
-299.764	38.421	0.178	-0.157
-298.749	178.439	-0.104	-0.150
-297.735	744.441	0.061	0.163
-296.720	800.000	-0.101	0.318
-295.705	-200.000	0.003	-0.060
-294.691	98.204	0.239	0.272
-293.676	478.997	0.156	-0.349
-292.662	365.184	-0.222	-0.442
-291.647	-84.003	-0.170	0.054
-290.632	347.528	0.123	0.239
-289.618	98.297	0.166	0.189
-288.603	-119.845	-0.108	0.018
-287.589	202.582	0.071	0.109
-286.574	-25.647	0.074	-0.043
-285.559	93.200	-0.127	0.142
-284.545	-93.024	-0.246	0.068
-283.530	15.465	-0.182	-0.141
-282.516	-200.000	-0.002	0.021
-281.501	48.699	0.063	-0.059
-280.486	-200.000	-0.045	-0.204
-279.472	-29.449	0.214	0.121
-278.457	55.367	0.142	0.136
-277.443	-200.000	-0.080	0.371
-276.428	-80.352	0.388	0.128
-275.413	-69.315	0.402	-0.153
-274.399	73.589	-0.114	0.118
-273.384	135.810	-0.188	-0.242
-272.370	82.540	-0.273	-0.293
-271.355	-134.428	0.067	0.008
-270.340	43.186	0.156	-0.140
-269.326	-147.090	-0.450	-0.038
-268.311	748.865	0.128	0.341
-267.297	224.821	0.145	-0.232
-266.282	-35.779	0.342	-0.183
-265.267	-157.182	0.241	-0.014
-264.253	800.000	0.092	-0.307
-263.238	-35.646	-0.202	-0.108
-262.224	-24.671	0.143	0.084
-261.209	-51.400	-0.218	0.101
-260.195	-200.000	-0.039	0.213
-259.180	-84.063	0.245	0.077
-258.165	-8.276	-0.333	0.221
-257.151	-114.889	-0.221	-0.042
-256.136	-47.722	0.152	-0.073
-255.122	14.799	0.097	0.075
-254.107	-83.708	0.300	-0.094
-253.092	-200.000	-0.066	-0.288
-252.078	-200.000	0.032	0.203
-251.063	-14.032	0.281	0.179
-250.049	453.357	0.154	-0.337
-249.034	574.209	0.035	-0.085
-248.019	37.729	-0.145	-0.127
-247.005	-103.940	0.538	0.124
-245.990	-11.315	-0.240	-0.156
-244.976	48.408	-0.187	-0.173
-243.961	-141.671	-0.408	-0.040
-242.946	29.601	0.225	-0.189
-241.932	-32.409	0.245	-0.135
-240.917	-200.000	-0.017	-0.403
-239.903	631.440	-0.050	0.124
-238.888	331.717	0.006	0.012
-237.873	-62.884	0.154	0.063
-236.859	-200.000	-0.027	-0.188
-235.844	-200.000	0.025	0.150
-234.830	168.469	0.248	0.348
-233.815	168.854	0.101	0.142
-232.800	-200.000	-0.002	-0.280
-231.786	-88.182	-0.110	-0.033
-230.771	-38.931	0.183	0.095
-229.757	-126.854	0.431	-0.063
-228.742	-58.987	0.061	-0.026
-227.727	549.906	0.162	-0.384
-226.713	-130.790	-0.519	-0.069
-225.698	4.854	-0.147	-0.106
-224.684	77.199	-0.136	0.142
-223.669	184.217	0.116	0.169
-222.655	-200.000	0.010	0.076
-221.640	229.127	0.089	0.144
-220.625	99.754	0.051	-0.058
-219.611	126.181	0.035	0.044
-218.596	-141.802	0.123	0.012
-217.582	-42.757	0.258	-0.129
-216.567	-79.250	0.129	-0.043
-215.552	32.533	0.166	0.141
-214.538	-75.877	-0.066	-0.023
-213.523	-147.367	-0.470	0.039
-212.509	95.895	-0.147	-0.166
-211.494	-200.000	-0.030	-0.187
-210.479	-119.544	-0.367	-0.063
-209.465	-102.376	-0.107	0.025
-208.450	-84.247	0.229	-0.072
-207.436	-124.652	0.058	-0.009
-206.421	-200.000	-0.002	-0.216
-205.406	680.768	-0.076	0.194
-204.392	-200.000	-0.016	-0.150
-203.377	-126.935	-0.465	0.067
-202.363	-39.166	0.192	0.099
-201.348	176.140	-0.167	0.239
-200.333	-200.000	0.006	-0.100
-199.319	-103.837	0.152	-0.035
-198.304	270.304	0.052	0.089
-197.290	-110.162	-0.395	0.081
-196.275	150.634	0.084	0.113
-195.260	180.658	0.090	0.130
-194.246	385.071	0.091	0.185
-193.231	231.480	-0.095	0.154
-192.217	119.985	0.100	0.122
-191.202	264.689	0.038	-0.066
-190.187	800.000	-0.021	0.069
-189.173	483.336	0.054	0.121
-188.158	800.000	-0.108	0.355
-187.144	37.502	0.081	0.071
-186.129	-200.000	-0.030	-0.147
-185.114	-200.000	-0.053	0.289
-184.100	571.611	0.093	0.222
-183.085	800.000	0.044	0.164
-182.071	-200.000	0.047	0.443
-181.056	205.680	0.129	0.198
-180.042	800.000	0.046	0.159
-179.027	-52.934	0.340	0.154
-178.012	-70.939	-0.367	-0.136
-176.998	0.260	-0.311	0.218
-175.983	18.326	-0.190	-0.149
-174.969	-173.687	0.164	0.005
-173.954	21.522	-0.084	-0.068
-172.939	-49.331	0.210	-0.099
-171.925	47.073	0.101	-0.092
-170.910	194.186	-0.093	0.139
-169.896	-61.837	0.055	0.023
-168.881	-68.912	-0.227	0.086
-167.866	121.081	-0.101	0.124
-166.852	-92.061	0.266	0.074
-165.837	60.391	-0.102	0.099
-164.823	-175.892	-0.467	0.012
-163.808	127.333	-0.240	0.300
-162.793	-200.000	-0.017	-0.197
-161.779	-3.124	0.117	-0.080
-160.764	151.626	-0.128	0.172
-159.750	-200.000	0.019	0.303
-158.735	178.044	0.085	0.122
-157.720	-36.334	0.158	-0.084
-156.706	19.544	-0.026	0.021
-155.691	-200.000	-0.049	0.374
-154.677	-53.641	-0.086	0.039
-153.662	217.145	0.039	-0.060
-152.647	-93.676	-0.242	-0.066
-151.633	800.000	0.043	0.150
-150.618	-6.834	-0.031	-0.021
-149.604	290.062	-0.081	0.144
-148.589	-112.649	-0.243	0.048
-147.574	800.000	0.102	0.295
-146.560	123.972	-0.246	0.304
-145.545	-38.188	0.046	0.024
-144.531	800.000	0.114	0.405
-143.516	222.886	-0.064	0.102
-142.502	-67.065	-0.137	-0.053
-141.487	-200.000	-0.023	0.378
-140.472	457.636	-0.059	0.129
-139.458	-200.000	0.011	-0.292
-138.443	208.305	0.083	-0.128
-137.429	-200.000	-0.002	0.463
-136.414	49.726	-0.087	0.080
-135.399	800.000	-0.183	0.518
-134.385	-19.469	-0.607	0.370
-133.370	-200.000	0.004	-0.027
-132.356	-41.997	-0.101	-0.051
-131.341	37.877	0.211	-0.184
-130.326	353.703	-0.150	0.293
-129.312	800.000	-0.023	-0.078
-128.297	-200.000	0.015	-0.115
-127.283	-190.682	0.251	0.003
-126.268	-142.651	0.194	-0.019
-125.253	-59.919	0.315	0.132
-124.239	800.000	0.029	0.116
-123.224	106.119	0.198	-0.231
-122.210	-130.651	-0.408	0.054
