DTS Sentinel unit serial number:	SN413079Multiplexer serial number:	ORYXHardware model number:	OX4-SRSoftware version number:	ORYX F/W v4.00 Oryx Data Collector v3.7.2.0data status	okinstallation	princeton_trtdifferential loss correction	single-endedforward channel	channel 1reverse channel	N/Adate	2019/09/13time	08:54:35forward acquisition time	60.00reverse acquisition time	0.00gamma	496.2192k internal	0.2327k external	0.2327temperature offset calibration	1.0161default loss term (dB/km)	0.3790temperature slope calibration	1.0000multiplexer offset coefficient	1.0000multiplexer slope coefficient	1.0000fibre end	0.00T internal ref (°C)	28.22T ext. ref 1 (°C)	4.34T ext. ref 2 (°C)	25.23length (m)	temperature (°C)	Stokes	anti-Stokes-747.200	-15.879	-0.393	-0.252
-746.185	-192.051	0.309	-0.003
-745.171	-110.167	0.257	0.054
-744.156	317.270	-0.134	0.256
-743.142	-42.299	-0.161	0.083
-742.127	178.878	-0.165	0.243
-741.112	-75.613	0.051	0.018
-740.098	-200.000	-0.049	0.337
-739.083	79.525	0.206	-0.222
-738.069	208.701	0.177	0.279
-737.054	800.000	-0.016	-0.064
-736.039	454.844	-0.135	-0.302
-735.025	-200.000	-0.014	0.252
-734.010	7.757	-0.137	-0.104
-732.996	48.575	-0.249	0.235
-731.981	-200.000	0.052	-0.265
-730.966	-37.034	-0.275	0.148
-729.952	-80.746	-0.296	-0.099
-728.937	-134.066	-0.264	0.033
-727.923	-67.419	-0.265	0.105
-726.908	625.783	0.058	-0.147
-725.894	-200.000	-0.045	-0.258
-724.879	800.000	-0.142	-0.421
-723.864	-82.462	-0.138	0.045
-722.850	28.124	-0.239	-0.203
-721.835	37.104	0.337	-0.300
-720.821	209.942	0.280	-0.442
-719.806	-148.028	-0.238	0.020
-718.791	800.000	0.064	0.244
-717.777	-56.702	0.241	-0.108
-716.762	-95.699	0.197	0.053
-715.748	-42.051	0.147	-0.076
-714.733	-192.665	0.188	-0.002
-713.718	-200.000	0.012	-0.083
-712.704	179.784	0.099	-0.146
-711.689	-143.583	0.123	-0.012
-710.675	800.000	-0.039	0.129
-709.660	-200.000	0.019	-0.198
-708.645	-200.000	0.009	-0.200
-707.631	114.862	0.102	0.125
-706.616	-2.649	0.239	-0.168
-705.602	-70.169	-0.148	0.057
-704.587	60.880	0.082	0.082
-703.572	-103.240	0.239	0.057
-702.558	56.979	0.252	-0.247
-701.543	-200.000	0.022	-0.443
-700.529	-26.224	0.285	-0.168
-699.514	-55.252	0.238	0.108
-698.499	566.514	-0.075	0.183
-697.485	800.000	0.094	-0.270
-696.470	-43.996	-0.391	-0.198
-695.456	64.660	-0.263	0.267
-694.441	-101.388	-0.326	-0.080
-693.426	-113.493	-0.313	-0.062
-692.412	-172.630	-0.337	-0.011
-691.397	800.000	-0.108	-0.347
-690.383	-200.000	-0.016	0.101
-689.368	174.810	-0.126	-0.184
-688.354	4.589	0.226	0.167
-687.339	-55.420	0.331	0.149
-686.324	-200.000	-0.179	0.000
-685.310	108.808	-0.056	-0.067
-684.295	250.922	0.128	-0.219
-683.281	-89.530	0.097	-0.029
-682.266	15.927	0.262	-0.208
-681.251	800.000	0.032	0.119
-680.237	145.034	0.237	0.318
-679.222	-200.000	0.005	0.107
-678.208	-13.957	-0.334	-0.217
-677.193	265.741	0.021	-0.036
-676.178	-81.034	-0.152	-0.051
-675.164	-200.000	-0.008	-0.076
-674.149	-69.118	-0.294	0.114
-673.135	-200.000	0.071	0.000
-672.120	-59.728	-0.193	-0.083
-671.105	-27.425	-0.204	0.119
-670.091	24.023	0.191	-0.158
-669.076	-103.298	-0.121	0.029
-668.062	-81.785	-0.219	-0.072
-667.047	-63.422	-0.128	0.053
-666.032	800.000	-0.041	0.131
-665.018	800.000	-0.059	-0.229
-664.003	800.000	0.007	-0.028
-662.989	-107.073	0.189	0.042
-661.974	-91.849	-0.200	-0.057
-660.959	-111.411	0.487	-0.100
-659.945	-200.000	0.025	-0.153
-658.930	-49.808	-0.112	0.053
-657.916	-13.896	-0.205	-0.133
-656.901	-125.006	-0.266	-0.041
-655.886	126.223	0.099	0.126
-654.872	-76.034	-0.330	-0.117
-653.857	0.396	0.115	-0.082
-652.843	800.000	0.093	-0.325
-651.828	-115.846	0.058	-0.011
-650.814	101.302	-0.098	-0.114
-649.799	-70.965	-0.283	0.107
-648.784	-200.000	0.012	-0.067
-647.770	-101.126	0.282	-0.069
-646.755	61.200	0.133	0.132
-645.741	-55.726	-0.144	0.065
-644.726	15.404	-0.332	0.262
-643.711	800.000	0.140	0.453
-642.697	-18.957	-0.051	0.032
-641.682	117.342	-0.182	0.225
-640.668	-35.169	-0.182	0.100
-639.653	800.000	0.051	0.200
-638.638	52.744	0.217	0.208
-637.624	204.982	-0.093	0.145
-636.609	-99.984	0.061	-0.015
-635.595	-200.000	0.001	-0.122
-634.580	-13.473	-0.090	-0.059
-633.565	197.103	0.165	-0.253
-632.551	777.131	-0.023	-0.062
-631.536	-65.613	0.154	0.062
-630.522	135.840	-0.143	0.187
-629.507	92.331	-0.122	-0.138
-628.492	-90.208	0.244	0.071
-627.478	-60.336	-0.197	-0.084
-626.463	107.248	0.142	0.170
-625.449	800.000	-0.032	0.114
-624.434	-200.000	0.001	-0.377
-623.419	35.068	0.214	0.188
-622.405	-91.226	0.262	-0.075
-621.390	-23.168	-0.328	0.198
-620.376	-56.873	-0.187	-0.083
-619.361	-200.000	-0.075	0.367
-618.346	-142.890	-0.426	-0.041
-617.332	800.000	-0.048	-0.163
-616.317	-90.141	0.232	-0.068
-615.303	233.261	0.214	0.353
-614.288	800.000	-0.119	-0.367
-613.273	26.300	0.119	-0.099
-612.259	-100.303	-0.129	0.032
-611.244	800.000	-0.026	0.072
-610.230	-82.485	-0.222	-0.072
-609.215	275.914	0.184	-0.327
-608.201	117.763	0.339	-0.419
-607.186	-164.473	-0.261	0.012
-606.171	-16.323	0.252	0.160
-605.157	-9.422	-0.206	-0.138
-604.142	44.171	-0.197	-0.181
-603.128	163.933	-0.053	0.075
-602.113	104.379	0.053	0.062
-601.098	-200.000	-0.062	-0.278
-600.084	-17.173	-0.068	0.043
-599.069	15.201	-0.300	0.236
-598.055	-48.462	-0.311	-0.150
-597.040	800.000	0.072	-0.198
-596.025	-21.989	0.099	0.060
-595.011	800.000	-0.040	-0.126
-593.996	-31.029	-0.328	0.186
-592.982	397.620	0.055	-0.115
-591.967	-110.096	-0.277	0.058
-590.952	139.826	0.076	0.100
-589.938	-200.000	-0.018	-0.300
-588.923	-50.990	-0.193	0.091
-587.909	16.620	-0.113	-0.090
-586.894	-88.209	0.171	0.051
-585.879	-200.000	0.050	0.469
-584.865	-51.667	0.324	-0.151
-583.850	201.703	0.028	0.043
-582.836	-158.164	0.296	-0.017
-581.821	484.237	-0.033	0.075
-580.806	-200.000	-0.162	0.000
-579.792	113.477	-0.097	-0.117
-578.777	-104.703	0.135	-0.031
-577.763	-162.089	-0.265	0.013
-576.748	-47.880	0.057	0.028
-575.733	-200.000	-0.032	-0.370
-574.719	-136.866	-0.174	-0.020
-573.704	800.000	0.185	-0.572
-572.690	-200.000	0.009	-0.306
-571.675	-75.207	-0.032	-0.011
-570.661	-200.000	0.051	0.332
-569.646	4.273	0.246	-0.181
-568.631	-38.222	0.151	0.080
-567.617	23.790	-0.153	0.126
-566.602	4.750	0.185	-0.136
-565.588	-150.869	0.471	-0.036
-564.573	644.055	-0.134	-0.342
-563.558	206.666	0.152	-0.237
-562.544	-47.484	0.065	-0.032
-561.529	-84.275	0.171	0.054
-560.515	0.473	-0.215	-0.154
-559.500	-200.000	0.041	0.204
-558.485	-200.000	0.067	-0.359
-557.471	-15.244	0.207	-0.132
-556.456	143.746	0.024	-0.032
-555.442	-131.955	-0.147	0.019
-554.427	-49.077	-0.204	-0.098
-553.412	-200.000	-0.015	0.325
-552.398	0.006	-0.036	-0.026
-551.383	-14.986	0.066	0.042
-550.369	-9.492	-0.352	-0.235
-549.354	51.024	0.223	0.211
-548.339	11.001	-0.182	-0.139
-547.325	-153.506	0.138	-0.010
-546.310	99.553	-0.095	0.110
-545.296	432.078	-0.088	0.191
-544.281	519.643	0.133	-0.312
-543.266	800.000	-0.021	0.087
-542.252	-200.000	0.009	0.152
-541.237	-67.321	-0.165	-0.065
-540.223	-159.137	0.347	-0.020
-539.208	-128.030	-0.367	-0.053
-538.193	-18.247	0.152	0.095
-537.179	-200.000	0.026	0.216
-536.164	113.467	0.282	-0.343
-535.150	800.000	0.091	0.368
-534.135	513.754	-0.143	-0.332
-533.121	-200.000	0.066	-0.337
-532.106	154.667	-0.227	-0.312
-531.091	-2.084	0.194	0.136
-530.077	800.000	0.088	0.253
-529.062	-200.000	-0.009	0.074
-528.048	288.640	0.023	0.041
-527.033	-113.808	0.406	0.079
-526.018	-103.246	0.107	0.025
-525.004	309.345	-0.027	-0.050
-523.989	-31.309	-0.281	-0.158
-522.975	-200.000	-0.017	-0.199
-521.960	-51.915	-0.245	0.114
-520.945	800.000	0.078	-0.251
-519.931	-200.000	0.005	0.100
-518.916	800.000	-0.041	-0.167
-517.902	-185.287	-0.401	-0.006
-516.887	42.735	0.129	0.117
-515.872	454.369	-0.142	-0.315
-514.858	800.000	-0.032	0.118
-513.843	-87.587	-0.094	0.028
-512.829	-50.389	0.341	-0.161
-511.814	103.161	0.203	-0.238
-510.799	34.876	-0.125	0.109
-509.785	-200.000	-0.023	0.143
-508.770	260.303	-0.127	0.219
-507.756	176.545	-0.201	-0.291
-506.741	800.000	-0.080	0.240
-505.726	-95.366	-0.309	0.083
-504.712	-24.015	0.284	0.170
-503.697	800.000	0.115	0.364
-502.683	121.058	0.111	0.138
-501.668	-71.990	-0.132	0.049
-500.653	38.002	-0.211	0.187
-499.639	-147.869	-0.136	0.011
-498.624	136.846	-0.044	0.058
-497.610	-200.000	0.114	0.527
-496.595	-129.364	0.228	0.032
-495.581	-197.405	0.055	0.000
-494.566	800.000	0.049	0.141
-493.551	-105.081	0.177	-0.041
-492.537	800.000	-0.021	0.067
-491.522	-200.000	0.059	-0.424
-490.508	-71.873	0.200	-0.074
-489.493	518.576	-0.157	-0.368
-488.478	-54.658	-0.147	0.066
-487.464	-132.215	-0.189	-0.024
-486.449	-12.786	0.149	0.097
-485.435	-200.000	0.016	-0.122
-484.420	77.680	-0.173	0.184
-483.405	-123.697	0.163	-0.026
-482.391	732.640	-0.047	-0.126
-481.376	-200.000	-0.015	-0.178
-480.362	-121.599	-0.052	-0.009
-479.347	20.798	-0.006	0.005
-478.332	-66.759	-0.223	0.088
-477.318	221.661	-0.113	0.181
-476.303	-16.453	0.216	-0.137
-475.289	56.974	-0.091	-0.088
-474.274	-151.487	0.327	0.024
-473.259	199.692	-0.065	0.100
-472.245	43.082	-0.192	-0.175
-471.230	120.377	0.054	0.067
-470.216	90.962	0.218	0.244
-469.201	-149.189	-0.164	0.013
-468.186	-127.098	0.227	-0.033
-467.172	-99.612	0.314	0.078
-466.157	800.000	-0.127	0.378
-465.143	100.276	-0.272	-0.315
-464.128	358.350	0.065	-0.130
-463.113	800.000	-0.032	0.116
-462.099	37.031	0.162	-0.143
-461.084	-106.561	-0.165	0.037
-460.070	-137.148	-0.155	-0.018
-459.055	-200.000	-0.046	0.237
-458.040	-200.000	-0.025	0.178
-457.026	289.769	-0.058	0.104
-456.011	800.000	-0.035	0.112
-454.997	-154.943	0.064	0.004
-453.982	93.680	0.261	0.295
-452.968	-170.464	0.268	-0.009
-451.953	-133.970	-0.253	-0.031
-450.938	264.162	-0.132	-0.229
-449.924	-90.587	0.107	-0.031
-448.909	126.583	-0.151	0.191
-447.895	-34.595	0.271	-0.148
-446.880	97.553	-0.315	0.360
-445.865	-106.217	-0.301	-0.067
-444.851	238.367	-0.142	-0.235
-443.836	67.005	0.107	0.108
-442.822	-43.623	-0.454	-0.228
-441.807	-1.780	0.292	-0.205
-440.792	78.615	0.211	0.225
-439.778	-17.110	-0.081	0.051
-438.763	800.000	0.101	-0.286
-437.749	-5.489	-0.150	-0.102
-436.734	23.422	-0.034	0.028
-435.719	800.000	-0.111	-0.336
-434.705	75.567	0.141	0.149
-433.690	77.606	-0.024	0.026
-432.676	-105.722	0.355	-0.080
-431.661	493.792	0.082	0.188
-430.646	-200.000	-0.038	-0.273
-429.632	-125.825	-0.164	-0.025
-428.617	-200.000	-0.020	0.168
-427.603	-151.398	0.188	0.014
-426.588	-47.615	-0.161	-0.078
-425.573	142.442	-0.216	-0.286
-424.559	-200.000	-0.011	0.152
-423.544	70.336	0.233	0.239
-422.530	47.079	-0.065	0.060
-421.515	-115.591	-0.388	0.073
-420.500	-144.313	0.227	-0.021
-419.486	712.492	0.052	0.137
-418.471	-200.000	-0.005	-0.042
-417.457	-17.352	-0.206	0.129
-416.442	-107.521	-0.264	-0.058
-415.428	800.000	0.141	-0.422
-414.413	44.001	0.224	0.205
-413.398	800.000	-0.002	-0.007
-412.384	800.000	0.076	0.267
-411.369	182.524	0.097	-0.142
-410.355	-42.780	0.144	-0.073
-409.340	390.467	0.050	0.104
-408.325	-200.000	-0.026	0.208
-407.311	1.207	-0.117	-0.084
-406.296	13.012	-0.083	0.064
-405.282	800.000	0.091	-0.336
-404.267	-130.418	-0.435	0.059
-403.252	210.896	0.165	-0.259
-402.238	-200.000	0.018	-0.262
-401.223	-138.220	0.213	0.023
-400.209	245.882	-0.214	0.358
-399.194	-150.263	0.035	-0.003
-398.179	-94.640	0.060	0.016
-397.165	1.442	-0.103	0.074
-396.150	296.709	0.123	0.225
-395.136	550.875	-0.121	0.288
-394.121	-43.123	-0.423	-0.213
-393.106	155.550	-0.054	-0.074
-392.092	8.959	-0.264	-0.198
-391.077	15.179	0.130	-0.102
-390.063	82.348	0.092	-0.099
-389.048	-200.000	-0.037	0.177
-388.033	-133.319	0.160	-0.020
-387.019	374.207	-0.101	0.204
-386.004	-200.000	-0.034	-0.364
-384.990	-200.000	0.014	-0.270
-383.975	800.000	0.064	-0.201
-382.960	9.938	0.185	-0.140
-381.946	35.176	-0.189	-0.164
-380.931	-200.000	-0.043	-0.275
-379.917	-21.794	0.163	0.099
-378.902	-47.255	-0.020	0.010
-377.888	800.000	0.057	-0.234
-376.873	144.127	0.201	-0.266
-375.858	261.746	0.156	0.269
-374.844	-161.796	-0.148	-0.007
-373.829	103.902	0.138	-0.161
-372.815	-78.337	0.353	-0.120
-371.800	49.018	0.163	-0.152
-370.785	-200.000	0.015	-0.762
-369.771	86.326	0.135	0.148
-368.756	800.000	-0.102	0.299
-367.742	-200.000	-0.043	0.218
-366.727	800.000	-0.058	-0.177
-365.712	378.950	-0.176	-0.357
-364.698	-34.120	-0.181	-0.099
-363.683	-37.297	-0.147	0.078
-362.669	-90.205	-0.162	0.047
-361.654	-172.140	0.108	0.003
-360.639	-75.183	0.174	0.062
-359.625	142.464	0.086	0.114
-358.610	-25.277	-0.213	-0.125
-357.596	-200.000	-0.066	0.340
-356.581	-64.491	0.122	0.049
-355.566	-134.245	-0.134	0.016
-354.552	-166.355	-0.345	0.014
-353.537	-60.491	0.285	0.120
-352.523	-48.780	-0.184	-0.088
-351.508	-187.673	-0.314	-0.004
-350.493	-143.312	-0.050	0.005
-349.479	-160.460	0.351	-0.019
-348.464	800.000	-0.012	-0.046
-347.450	-200.000	-0.019	0.159
-346.435	-200.000	0.023	0.152
-345.420	800.000	0.054	0.188
-344.406	-95.512	-0.350	-0.093
-343.391	-200.000	-0.005	-0.143
-342.377	800.000	-0.011	0.041
-341.362	94.616	0.215	0.243
-340.348	315.532	0.053	-0.099
-339.333	176.286	-0.153	0.221
-338.318	37.620	-0.241	-0.212
-337.304	76.877	-0.070	-0.073
-336.289	-200.000	0.049	0.415
-335.275	-125.643	-0.097	-0.015
-334.260	-107.676	-0.320	-0.069
-333.245	519.684	0.048	-0.111
-332.231	-3.665	-0.013	-0.009
-331.216	800.000	0.090	0.309
-330.202	-26.638	-0.477	-0.277
-329.187	220.150	-0.209	-0.333
-328.172	19.622	0.212	-0.169
-327.158	-9.407	0.200	0.132
-326.143	138.899	0.222	-0.289
-325.129	-200.000	0.026	-0.132
-324.114	-164.371	0.323	0.015
-323.099	201.120	-0.073	0.111
-322.085	-93.394	0.494	-0.136
-321.070	43.705	-0.076	0.069
-320.056	-108.633	-0.437	-0.093
-319.041	11.038	-0.196	0.148
-318.026	-200.000	-0.029	-0.242
-317.012	-200.000	-0.069	-0.477
-315.997	-30.079	0.228	0.129
-314.983	67.408	-0.180	-0.182
-313.968	-116.505	0.182	0.033
-312.953	315.914	-0.136	-0.254
-311.939	-83.237	0.291	0.093
-310.924	-133.595	-0.230	-0.028
-309.910	-14.270	-0.365	0.233
-308.895	475.347	0.109	-0.244
-307.880	107.359	-0.289	0.340
-306.866	-200.000	-0.030	0.136
-305.851	-47.800	-0.255	0.122
-304.837	195.048	0.170	0.256
-303.822	-55.813	0.310	0.137
-302.807	175.203	0.103	0.148
-301.793	-200.000	-0.020	-0.116
-300.778	800.000	-0.049	-0.164
-299.764	44.235	-0.060	-0.054
-298.749	74.393	-0.027	0.029
-297.735	20.717	-0.234	-0.188
-296.720	248.217	0.077	0.128
-295.705	-200.000	0.016	0.458
-294.691	-88.193	0.307	0.091
-293.676	800.000	-0.010	0.042
-292.662	-200.000	0.035	0.268
-291.647	226.623	-0.174	0.279
-290.632	-173.415	0.150	0.005
-289.618	-80.057	0.152	0.050
-288.603	-124.746	-0.006	-0.001
-287.589	-8.721	0.264	0.176
-286.574	48.804	-0.026	0.024
-285.559	-150.448	-0.213	0.016
-284.545	-154.698	0.355	0.023
-283.530	615.984	-0.195	-0.484
-282.516	-200.000	0.047	-0.338
-281.501	-56.950	-0.339	-0.148
-280.486	12.120	0.141	0.108
-279.472	-200.000	0.023	-0.343
-278.457	-169.311	0.345	-0.013
-277.443	800.000	0.081	-0.241
-276.428	165.578	-0.216	-0.302
-275.413	-164.326	0.487	0.022
-274.399	-200.000	-0.002	0.153
-273.384	69.369	0.187	-0.190
-272.370	474.319	0.084	0.188
-271.355	133.503	-0.009	0.012
-270.340	-131.490	-0.113	-0.015
-269.326	-88.649	-0.109	0.032
-268.311	73.208	0.056	0.058
-267.297	-116.394	0.141	-0.026
-266.282	-200.000	0.041	0.258
-265.267	-106.694	-0.366	-0.080
-264.253	-12.496	0.370	0.239
-263.238	-131.972	-0.117	-0.015
-262.224	-128.184	0.284	0.040
-261.209	162.334	0.134	0.186
-260.195	23.577	0.146	0.119
-259.180	706.439	-0.093	0.242
-258.165	-200.000	0.010	0.202
-257.151	800.000	-0.015	0.052
-256.136	123.762	0.057	-0.071
-255.122	-97.656	0.053	0.014
-254.107	-74.861	0.242	-0.086
-253.092	251.705	0.155	0.262
-252.078	-200.000	0.035	-0.260
-251.063	-131.727	-0.305	-0.040
-250.049	3.901	0.066	-0.048
-249.034	36.275	-0.082	0.072
-248.019	-200.000	-0.043	0.190
-247.005	-29.614	-0.050	-0.028
-245.990	596.974	-0.119	-0.292
-244.976	16.805	0.111	-0.087
-243.961	0.103	-0.117	0.082
-242.946	-127.765	0.259	-0.037
-241.932	800.000	0.066	-0.258
-240.917	-183.197	-0.070	-0.001
-239.903	89.352	0.310	0.342
-238.888	-21.822	-0.445	0.267
-237.873	-124.990	0.267	-0.041
-236.859	-99.957	-0.402	0.099
-235.844	-126.321	-0.268	0.040
-234.830	236.188	-0.064	-0.105
-233.815	-200.000	-0.004	0.031
-232.800	-143.695	0.327	-0.031
-231.786	-138.061	0.097	-0.011
-230.771	-200.000	0.019	-0.106
-229.757	-119.762	-0.063	-0.011
-228.742	-27.175	0.219	0.126
-227.727	109.610	-0.203	0.241
-226.713	-139.444	0.025	0.003
-225.698	731.565	-0.061	-0.162
-224.684	-200.000	0.024	-0.293
-223.669	-200.000	0.002	-0.154
-222.655	40.210	0.107	0.095
-221.640	-12.073	0.063	-0.041
-220.625	76.445	-0.258	0.270
-219.611	-200.000	-0.041	0.261
-218.596	497.569	-0.028	0.063
-217.582	45.867	-0.127	-0.116
-216.567	-0.627	-0.183	-0.128
-215.552	-92.117	0.040	0.011
-214.538	243.695	0.110	0.181
-213.523	301.655	0.250	0.456
-212.509	-83.525	0.035	-0.011
-211.494	-56.826	0.310	0.135
-210.479	-200.000	-0.021	0.253
-209.465	212.550	-0.038	0.060
-208.450	-146.685	-0.136	-0.012
-207.436	-82.723	-0.113	0.036
-206.421	460.842	-0.074	0.164
-205.406	-41.548	-0.098	0.050
-204.392	-200.000	-0.047	0.218
-203.377	-76.891	0.346	0.119
-202.363	84.583	-0.134	-0.145
-201.348	87.468	-0.113	-0.123
-200.333	-18.989	0.249	0.153
-199.319	-77.902	-0.286	0.097
-198.304	286.379	-0.195	0.348
-197.290	389.032	0.071	0.145
-196.275	-83.009	0.150	-0.048
-195.260	800.000	-0.070	-0.275
-194.246	194.313	-0.068	-0.102
-193.231	-97.254	0.181	0.047
-192.217	45.375	-0.102	-0.093
-191.202	-74.555	0.248	0.088
-190.187	-99.034	0.189	0.047
-189.173	473.029	-0.036	-0.080
-188.158	421.682	0.074	-0.158
-187.144	-200.000	0.007	0.086
-186.129	-82.093	-0.114	0.037
-185.114	76.175	-0.185	0.193
-184.100	514.468	-0.092	-0.212
-183.085	24.947	-0.400	0.327
-182.071	-117.425	0.190	0.034
-181.056	-200.000	0.005	-0.064
-180.042	-146.020	0.243	0.021
-179.027	-93.919	0.192	0.052
-178.012	-179.351	-0.381	0.008
-176.998	-51.655	0.562	0.258
-175.983	-155.964	0.395	-0.025
-174.969	283.314	-0.034	-0.059
-173.954	-62.793	-0.091	-0.037
-172.939	-5.398	0.008	-0.005
-171.925	258.215	-0.130	0.221
-170.910	98.799	0.131	-0.149
-169.896	-200.000	0.019	-0.229
-168.881	-44.625	-0.380	0.187
-167.866	-86.433	0.153	0.046
-166.852	17.629	-0.059	-0.046
-165.837	109.513	-0.121	-0.143
-164.823	379.425	0.171	-0.346
-163.808	-142.180	0.216	-0.021
-162.793	275.735	0.101	-0.177
-161.779	75.491	0.032	0.034
-160.764	-7.399	0.449	-0.299
-159.750	-110.336	0.370	0.076
-158.735	-66.492	0.054	0.021
-157.720	-42.543	-0.065	0.033
-156.706	-68.079	-0.188	0.072
-155.691	13.757	0.254	0.194
-154.677	231.190	-0.158	-0.255
-153.662	88.204	-0.274	0.300
-152.647	-110.966	-0.009	-0.002
-151.633	-31.307	0.135	-0.075
-150.618	-200.000	-0.030	0.226
-149.604	-11.360	0.269	0.175
-148.589	-200.000	-0.033	0.420
-147.574	-139.638	-0.242	0.025
-146.560	-40.605	-0.075	0.038
-145.545	11.094	-0.376	0.283
-144.531	-114.737	-0.419	-0.079
-143.516	291.249	0.180	-0.322
-142.502	-89.051	0.281	-0.082
-141.487	-116.695	0.226	0.041
-140.472	-0.931	0.157	-0.109
-139.458	297.663	0.141	-0.255
-138.443	-79.427	-0.199	-0.066
-137.429	223.392	0.134	-0.213
-136.414	179.197	-0.211	0.304
-135.399	9.030	-0.149	-0.111
-134.385	28.055	0.144	0.119
-133.370	-73.542	-0.200	0.072
-132.356	-41.502	-0.138	-0.070
-131.341	-63.513	0.186	0.075
-130.326	-200.000	-0.012	0.148
-129.312	222.385	-0.087	-0.138
-128.297	37.464	-0.097	-0.084
-127.283	-74.500	-0.090	-0.032
-126.268	188.146	0.176	-0.259
-125.253	376.679	-0.033	0.067
-124.239	-200.000	-0.013	-0.081
-123.224	-57.422	0.062	-0.027
-122.210	-101.977	0.242	0.058
-121.195	16.235	-0.091	-0.070
