DTS Sentinel unit serial number:	SN413079Multiplexer serial number:	ORYXHardware model number:	OX4-SRSoftware version number:	ORYX F/W v4.00 Oryx Data Collector v3.7.2.0data status	okinstallation	princeton_trtdifferential loss correction	single-endedforward channel	channel 1reverse channel	N/Adate	2019/09/16time	03:50:35forward acquisition time	60.00reverse acquisition time	0.00gamma	496.2192k internal	0.2331k external	0.2331temperature offset calibration	0.9980default loss term (dB/km)	0.3790temperature slope calibration	1.0000multiplexer offset coefficient	1.0000multiplexer slope coefficient	1.0000fibre end	0.00T internal ref (°C)	27.56T ext. ref 1 (°C)	10.67T ext. ref 2 (°C)	21.62length (m)	temperature (°C)	Stokes	anti-Stokes-747.200	-48.659	-0.156	-0.075
-746.185	3.539	-0.183	0.134
-745.171	-63.266	0.257	0.107
-744.156	-200.000	0.057	0.361
-743.142	120.425	-0.099	0.124
-742.127	-3.130	0.081	-0.057
-741.112	642.876	0.058	-0.149
-740.098	-184.949	-0.273	0.004
-739.083	18.653	-0.132	0.106
-738.069	-200.000	-0.014	0.219
-737.054	-61.250	0.069	0.029
-736.039	800.000	-0.104	-0.314
-735.025	521.204	0.194	0.457
-734.010	-98.384	-0.117	-0.030
-732.996	-103.119	-0.211	-0.050
-731.981	-129.633	-0.183	-0.025
-730.966	-32.019	-0.256	0.144
-729.952	-200.000	-0.004	-0.390
-728.937	-200.000	0.069	0.343
-727.923	754.308	0.107	-0.290
-726.908	-79.668	0.484	0.164
-725.894	-39.261	-0.208	0.110
-724.879	659.990	0.044	-0.114
-723.864	47.686	-0.054	0.051
-722.850	274.763	-0.087	-0.155
-721.835	141.164	-0.203	-0.270
-720.821	777.215	-0.091	-0.250
-719.806	-200.000	-0.006	-0.195
-718.791	-146.539	-0.206	0.018
-717.777	800.000	-0.048	-0.187
-716.762	800.000	-0.092	0.324
-715.748	-200.000	0.072	-0.448
-714.733	26.400	0.019	-0.016
-713.718	313.657	-0.105	0.198
-712.704	800.000	0.043	0.154
-711.689	800.000	-0.127	0.454
-710.675	494.331	0.151	-0.348
-709.660	-46.238	-0.095	-0.047
-708.645	-99.718	-0.161	0.041
-707.631	800.000	-0.054	-0.161
-706.616	800.000	-0.038	-0.107
-705.602	800.000	0.116	-0.359
-704.587	31.340	-0.158	0.136
-703.572	-115.604	-0.136	0.026
-702.558	800.000	-0.119	-0.364
-701.543	307.879	0.077	-0.143
-700.529	186.271	0.123	-0.183
-699.514	147.210	-0.264	-0.357
-698.499	-200.000	0.196	-0.001
-697.485	76.118	-0.124	0.131
-696.470	800.000	0.138	0.522
-695.456	-200.000	0.007	0.110
-694.441	-140.737	0.099	-0.010
-693.426	462.234	0.081	0.181
-692.412	-189.134	0.265	-0.003
-691.397	-83.886	-0.230	0.074
-690.383	-132.493	-0.341	0.044
-689.368	89.939	-0.243	0.273
-688.354	-200.000	0.003	0.047
-687.339	39.300	0.195	-0.175
-686.324	506.996	-0.077	0.180
-685.310	-55.563	0.245	0.110
-684.295	155.234	-0.042	0.058
-683.281	800.000	-0.078	-0.317
-682.266	199.581	-0.295	-0.454
-681.251	-123.343	0.331	0.053
-680.237	-200.000	-0.005	0.160
-679.222	-89.596	-0.087	0.026
-678.208	800.000	0.105	-0.369
-677.193	368.158	-0.090	-0.183
-676.178	-200.000	-0.057	-0.263
-675.164	157.827	-0.068	0.094
-674.149	-200.000	0.001	0.098
-673.135	800.000	-0.099	-0.286
-672.120	447.858	-0.119	0.262
-671.105	-81.978	0.145	0.048
-670.091	-200.000	0.012	-0.370
-669.076	-119.271	0.134	0.023
-668.062	-98.098	-0.128	-0.033
-667.047	-108.952	0.197	-0.042
-666.032	34.453	-0.227	-0.199
-665.018	218.005	0.197	-0.316
-664.003	177.422	-0.046	-0.067
-662.989	25.559	-0.345	0.288
-661.974	-7.787	0.140	-0.095
-660.959	-200.000	0.000	-0.205
-659.945	76.594	-0.194	-0.206
-658.930	800.000	-0.053	-0.210
-657.916	-45.680	0.113	-0.056
-656.901	-92.611	-0.319	0.090
-655.886	800.000	0.030	0.112
-654.872	-23.030	-0.077	0.046
-653.857	-68.056	0.353	-0.138
-652.843	-200.000	0.013	0.167
-651.828	-23.059	0.069	0.042
-650.814	-200.000	0.070	0.309
-649.799	-122.831	-0.210	-0.034
-648.784	-200.000	-0.001	0.083
-647.770	224.952	0.236	-0.383
-646.755	-200.000	-0.037	-0.281
-645.741	73.805	-0.199	-0.209
-644.726	-138.238	-0.281	-0.031
-643.711	386.473	-0.028	-0.057
-642.697	-200.000	-0.007	0.138
-641.682	92.258	0.097	0.110
-640.668	-200.000	-0.030	0.151
-639.653	542.166	0.092	0.220
-638.638	-119.410	-0.301	0.052
-637.624	53.662	-0.160	-0.153
-636.609	2.285	0.217	-0.157
-635.595	54.473	-0.103	-0.099
-634.580	-170.622	-0.072	-0.002
-633.565	-200.000	-0.013	-0.065
-632.551	-67.010	0.038	-0.015
-631.536	177.718	0.219	0.319
-630.522	67.195	0.323	0.330
-629.507	-10.303	0.043	0.028
-628.492	-111.970	0.286	-0.058
-627.478	-100.846	-0.183	-0.045
-626.463	-8.258	0.186	-0.125
-625.449	101.921	0.115	-0.134
-624.434	-200.000	-0.042	-0.325
-623.419	-131.112	-0.093	-0.012
-622.405	714.451	0.052	0.139
-621.390	-117.776	0.209	0.038
-620.376	595.032	-0.177	-0.438
-619.361	237.786	0.107	0.177
-618.346	267.641	-0.056	-0.098
-617.332	-200.000	-0.018	-0.210
-616.317	-200.000	-0.010	0.262
-615.303	-200.000	0.013	-0.178
-614.288	-69.639	-0.177	0.068
-613.273	800.000	0.072	-0.302
-612.259	-200.000	-0.097	-0.430
-611.244	363.741	-0.154	0.311
-610.230	-175.844	0.184	0.005
-609.215	-113.004	-0.074	-0.015
-608.201	560.167	0.051	0.123
-607.186	72.760	-0.087	0.091
-606.171	51.779	-0.234	-0.223
-605.157	157.817	0.037	-0.051
-604.142	126.908	0.096	0.122
-603.128	225.991	0.109	-0.177
-602.113	166.531	0.087	-0.124
-601.098	94.725	-0.240	0.273
-600.084	-70.608	0.268	-0.101
-599.069	-138.805	-0.186	-0.020
-598.055	-75.994	-0.169	0.060
-597.040	95.106	0.175	0.200
-596.025	189.953	-0.072	0.108
-595.011	800.000	-0.029	-0.115
-593.996	-95.782	0.284	0.076
-592.982	89.181	-0.358	-0.399
-591.967	800.000	-0.115	-0.406
-590.952	-42.990	-0.094	-0.048
-589.938	-136.103	0.044	-0.005
-588.923	212.700	-0.061	0.097
-587.909	-110.718	-0.200	-0.041
-586.894	6.375	-0.302	-0.224
-585.879	239.438	0.206	0.344
-584.865	-178.399	0.201	0.005
-583.850	235.268	0.043	-0.071
-582.836	-91.370	-0.377	-0.108
-581.821	81.155	-0.170	0.184
-580.806	-177.694	0.113	-0.003
-579.792	127.467	0.088	0.111
-578.777	-200.000	-0.011	0.083
-577.763	-143.358	0.153	-0.015
-576.748	800.000	-0.040	-0.148
-575.733	-200.000	-0.036	-0.161
-574.719	-144.369	-0.158	0.015
-573.704	-132.113	-0.085	-0.011
-572.690	1.659	0.174	0.125
-571.675	800.000	0.066	-0.237
-570.661	-143.373	-0.114	0.011
-569.646	324.682	-0.017	0.032
-568.631	-200.000	0.018	0.385
-567.617	80.258	-0.251	0.270
-566.602	-42.252	-0.063	0.032
-565.588	564.239	0.115	-0.278
-564.573	530.715	-0.079	-0.187
-563.558	-59.819	0.188	-0.080
-562.544	16.989	0.179	0.142
-561.529	800.000	-0.121	0.400
-560.515	381.850	-0.060	0.123
-559.500	-91.264	0.173	-0.049
-558.485	15.265	0.035	-0.027
-557.471	0.220	0.173	0.123
-556.456	-200.000	-0.023	-0.385
-555.442	800.000	0.051	-0.194
-554.427	110.628	0.237	-0.285
-553.412	-100.156	-0.067	-0.017
-552.398	788.691	0.124	-0.340
-551.383	-15.105	-0.463	-0.296
-550.369	140.623	0.209	-0.275
-549.354	-107.815	0.219	0.048
-548.339	374.946	0.149	0.303
-547.325	441.759	0.143	0.314
-546.310	-200.000	0.058	0.316
-545.296	21.684	-0.136	0.111
-544.281	-200.000	0.026	-0.119
-543.266	753.727	0.017	0.046
-542.252	38.306	-0.200	-0.178
-541.237	800.000	0.051	-0.172
-540.223	-25.981	0.161	0.094
-539.208	-200.000	-0.057	0.366
-538.193	-8.752	-0.309	0.207
-537.179	103.183	-0.035	-0.041
-536.164	-200.000	0.000	0.062
-535.150	111.899	-0.166	-0.200
-534.135	-78.545	-0.374	-0.128
-533.121	45.836	-0.025	-0.023
-532.106	-172.900	0.246	-0.008
-531.091	-115.676	-0.122	0.023
-530.077	10.735	-0.123	-0.094
-529.062	291.991	-0.141	0.257
-528.048	-26.714	0.370	-0.216
-527.033	137.332	-0.154	-0.201
-526.018	-134.532	0.090	0.011
-525.004	741.352	0.108	-0.288
-523.989	-200.000	-0.025	-0.158
-522.975	-200.000	0.054	-0.260
-521.960	17.828	0.064	0.051
-520.945	45.800	-0.235	-0.217
-519.931	-200.000	-0.041	0.196
-518.916	61.520	0.175	0.174
-517.902	-1.472	-0.127	0.089
-516.887	800.000	-0.071	-0.220
-515.872	-125.244	-0.407	-0.062
-514.858	421.719	-0.053	-0.112
-513.843	-118.034	-0.081	-0.014
-512.829	121.678	0.141	-0.175
-511.814	-126.093	-0.450	-0.067
-510.799	517.000	-0.064	0.148
-509.785	-200.000	0.002	-0.337
-508.770	-200.000	-0.015	-0.165
-507.756	-200.000	0.032	0.374
-506.741	-12.255	0.133	0.087
-505.726	-159.179	-0.107	-0.006
-504.712	-52.283	-0.051	-0.024
-503.697	-90.494	-0.225	0.065
-502.683	-200.000	-0.012	-0.121
-501.668	-200.000	0.058	-0.267
-500.653	-112.400	-0.254	0.051
-499.639	249.427	-0.074	0.125
-498.624	-130.167	0.241	0.033
-497.610	688.710	-0.051	-0.133
-496.595	-52.608	0.237	0.109
-495.581	116.420	0.047	0.057
-494.566	-200.000	0.016	-0.136
-493.551	713.247	-0.095	-0.251
-492.537	800.000	0.148	-0.469
-491.522	46.614	0.248	-0.230
-490.508	183.233	-0.099	-0.146
-489.493	621.301	0.052	-0.130
-488.478	-1.091	-0.181	0.127
-487.464	-71.130	0.218	0.082
-486.449	105.240	0.138	-0.162
-485.435	-97.021	0.105	0.027
-484.420	-116.128	0.040	0.007
-483.405	-200.000	0.057	0.347
-482.391	-23.357	0.227	0.136
-481.376	173.720	0.078	-0.112
-480.362	49.177	-0.268	0.251
-479.347	31.679	0.179	-0.153
-478.332	548.798	-0.079	0.188
-477.318	-13.312	0.082	0.053
-476.303	436.353	0.003	-0.006
-475.289	-71.956	-0.028	0.010
-474.274	99.595	0.249	-0.287
-473.259	626.212	-0.039	-0.097
-472.245	22.539	0.056	-0.045
-471.230	212.889	0.112	0.175
-470.216	-3.323	-0.296	-0.206
-469.201	32.836	-0.108	0.093
-468.186	220.386	0.113	-0.181
-467.172	-200.000	0.012	0.340
-466.157	16.297	0.003	-0.002
-465.143	-71.110	-0.306	-0.114
-464.128	-9.725	0.233	0.154
-463.113	-56.514	0.309	0.136
-462.099	158.695	-0.105	-0.145
-461.084	-200.000	-0.032	-0.321
-460.070	-200.000	-0.071	-0.411
-459.055	-102.292	0.333	0.080
-458.040	800.000	0.073	-0.280
-457.026	6.574	0.054	0.040
-456.011	-114.123	0.162	0.031
-454.997	16.445	0.069	0.055
-453.982	61.266	-0.235	-0.232
-452.968	-45.771	0.160	-0.079
-451.953	-8.004	-0.250	0.168
-450.938	-90.407	0.443	-0.128
-449.924	-24.386	0.142	-0.084
-448.909	-179.285	-0.253	0.006
-447.895	-200.000	0.017	0.311
-446.880	14.488	0.153	0.119
-445.865	-84.924	0.285	0.089
-444.851	22.067	-0.180	0.146
-443.836	-23.094	-0.101	-0.061
-442.822	-200.000	0.024	0.297
-441.807	263.141	0.126	0.218
-440.792	38.426	0.037	-0.033
-439.778	85.765	0.137	0.149
-438.763	800.000	-0.036	-0.113
-437.749	-9.445	-0.211	0.140
-436.734	-30.352	0.066	0.037
-435.719	-81.506	0.214	-0.070
-434.705	249.463	-0.088	0.148
-433.690	218.232	-0.159	0.253
-432.676	114.735	0.166	-0.201
-431.661	-80.242	0.043	0.014
-430.646	-113.825	-0.181	0.035
-429.632	-45.740	-0.113	0.056
-428.617	54.313	-0.199	0.191
-427.603	-57.540	0.266	-0.116
-426.588	-95.684	0.149	0.040
-425.573	-168.566	0.275	0.010
-424.559	-134.941	-0.105	0.013
-423.544	222.016	-0.065	0.104
-422.530	800.000	0.161	-0.475
-421.515	143.068	0.135	0.179
-420.500	516.766	-0.047	0.109
-419.486	-33.459	-0.185	-0.102
-418.471	-154.618	-0.228	0.015
-417.457	800.000	-0.081	-0.282
-416.442	-85.116	-0.222	0.069
-415.428	56.397	0.113	0.109
-414.413	-153.825	-0.259	0.018
-413.398	-170.902	0.143	-0.005
-412.384	36.092	-0.266	0.233
-411.369	-103.432	-0.229	0.054
-410.355	76.516	-0.149	-0.157
-409.340	-200.000	0.043	0.260
-408.325	-52.136	-0.149	-0.069
-407.311	401.614	-0.040	0.083
-406.296	85.334	0.243	0.265
-405.282	800.000	0.030	0.119
-404.267	-200.000	-0.002	-0.192
-403.252	-82.227	-0.138	-0.045
-402.238	174.701	0.038	-0.055
-401.223	-92.532	-0.157	0.044
-400.209	611.369	0.076	0.189
-399.194	800.000	0.071	0.219
-398.179	-170.890	0.422	0.014
-397.165	151.637	-0.205	0.278
-396.150	349.598	0.141	-0.276
-395.136	262.163	0.125	-0.216
-394.121	-103.454	-0.237	0.055
-393.106	146.448	-0.148	0.198
-392.092	-88.681	-0.158	0.047
-391.077	303.989	-0.104	-0.192
-390.063	29.682	0.369	0.311
-389.048	16.311	-0.141	-0.110
-388.033	55.130	0.186	0.178
-387.019	-71.674	0.207	-0.077
-386.004	280.800	0.048	-0.086
-384.990	-200.000	0.020	-0.195
-383.975	175.472	0.205	-0.295
-382.960	-126.583	-0.088	0.013
-381.946	-200.000	0.017	0.182
-380.931	-24.117	0.155	0.092
-379.917	242.180	0.204	-0.338
-378.902	-0.565	0.066	0.047
-377.888	-200.000	-0.020	0.153
-376.873	22.337	-0.234	-0.190
-375.858	72.054	-0.244	-0.251
-374.844	-22.762	0.206	0.124
-373.829	-200.000	0.022	-0.313
-372.815	193.506	0.056	-0.085
-371.800	20.452	-0.200	0.161
-370.785	-126.796	-0.383	0.056
-369.771	-132.959	-0.344	-0.043
-368.756	800.000	0.048	-0.185
-367.742	-110.831	0.029	-0.006
-366.727	135.862	-0.069	0.089
-365.712	-90.372	0.023	-0.007
-364.698	-200.000	-0.034	0.225
-363.683	-59.940	0.219	0.093
-362.669	800.000	-0.024	0.082
-361.654	-31.365	-0.017	0.009
-360.639	32.760	0.158	-0.136
-359.625	-64.850	0.195	-0.078
-358.610	97.753	0.210	-0.239
-357.596	-25.863	-0.090	-0.052
-356.581	800.000	-0.068	0.199
-355.566	-96.013	0.218	0.057
-354.552	132.529	0.201	0.257
-353.537	-68.145	-0.356	-0.138
-352.523	-135.282	-0.085	0.010
-351.508	-200.000	0.038	-0.282
-350.493	800.000	-0.017	-0.052
-349.479	800.000	-0.108	0.396
-348.464	97.762	0.067	0.076
-347.450	-200.000	-0.038	0.179
-346.435	-46.552	-0.059	-0.029
-345.420	57.582	-0.045	0.044
-344.406	-2.704	0.158	0.109
-343.391	-79.195	-0.064	0.022
-342.377	-200.000	0.054	0.326
-341.362	144.295	-0.232	0.307
-340.348	-200.000	0.012	0.054
-339.333	-200.000	0.001	0.273
-338.318	2.511	-0.141	0.101
-337.304	800.000	0.124	-0.417
-336.289	-200.000	0.023	0.123
-335.275	353.223	0.146	-0.287
-334.260	42.854	0.132	-0.119
-333.245	55.971	0.089	-0.085
-332.231	-108.252	-0.146	-0.031
-331.216	-93.100	-0.217	0.060
-330.202	297.746	0.051	0.093
-329.187	-30.391	-0.158	0.089
-328.172	-85.602	-0.265	0.082
-327.158	243.155	0.065	-0.109
-326.143	17.002	0.205	0.161
-325.129	-39.554	0.052	-0.027
-324.114	-65.352	0.135	-0.054
-323.099	-0.191	0.225	-0.158
-322.085	237.637	-0.157	-0.258
-321.070	800.000	-0.076	0.222
-320.056	-200.000	0.021	0.102
-319.041	10.070	0.448	-0.337
-318.026	-42.909	-0.172	-0.086
-317.012	-200.000	-0.007	-0.099
-315.997	-200.000	-0.000	-0.150
-314.983	-200.000	-0.029	-0.269
-313.968	-47.204	0.125	-0.060
-312.953	-161.334	-0.476	-0.024
-311.939	-120.393	-0.158	-0.027
-310.924	-200.000	-0.021	0.119
-309.910	800.000	0.055	0.225
-308.895	-99.420	0.202	0.050
-307.880	-101.313	-0.129	0.031
-306.866	-200.000	-0.194	0.000
-305.851	668.119	0.062	0.158
-304.837	-115.955	-0.075	-0.014
-303.822	800.000	-0.047	-0.143
-302.807	-159.645	0.099	0.005
-301.793	278.505	0.074	0.130
-300.778	-200.000	-0.004	-0.223
-299.764	32.786	-0.145	0.124
-298.749	-2.644	0.102	-0.071
-297.735	-200.000	0.010	0.154
-296.720	-200.000	0.027	-0.128
-295.705	7.001	0.110	0.081
-294.691	-173.204	-0.149	-0.005
-293.676	119.101	0.137	0.168
-292.662	768.180	0.079	0.212
-291.647	-82.142	-0.147	-0.047
-290.632	78.574	0.384	0.406
-289.618	-200.000	0.028	0.151
-288.603	323.647	0.070	0.133
-287.589	35.132	0.185	0.161
-286.574	-200.000	-0.005	0.057
-285.559	-45.839	-0.233	0.114
-284.545	240.062	-0.181	0.298
-283.530	-184.785	0.228	0.004
-282.516	-200.000	0.010	0.056
-281.501	178.619	-0.065	0.094
-280.486	-72.651	0.040	0.014
-279.472	220.955	0.106	0.169
-278.457	-200.000	-0.222	0.000
-277.443	192.488	0.111	0.165
-276.428	174.152	-0.117	-0.167
-275.413	261.155	-0.167	-0.286
-274.399	-123.586	-0.244	0.038
-273.384	-34.619	-0.120	-0.065
-272.370	-184.739	-0.250	0.004
-271.355	200.719	0.266	0.404
-270.340	800.000	0.114	0.378
-269.326	92.875	-0.212	0.237
-268.311	-161.253	0.285	-0.015
-267.297	98.436	-0.071	0.081
-266.282	-91.412	0.073	0.021
-265.267	267.009	-0.066	-0.113
-264.253	309.975	-0.058	0.108
-263.238	-140.960	-0.223	0.023
-262.224	-83.185	-0.332	-0.105
-261.209	-155.920	-0.177	-0.011
-260.195	276.893	0.117	-0.205
-259.180	-57.667	-0.272	-0.118
-258.165	268.235	-0.140	0.243
-257.151	800.000	0.094	0.405
-256.136	-45.556	0.198	0.097
-255.122	43.496	-0.190	0.171
-254.107	-95.654	-0.071	0.019
-253.092	238.145	-0.075	-0.123
-252.078	62.633	-0.289	0.285
-251.063	800.000	0.143	-0.403
-250.049	-67.773	0.023	0.009
-249.034	-3.226	0.111	0.077
-248.019	-84.825	-0.297	-0.092
-247.005	170.130	0.074	-0.104
-245.990	-200.000	0.014	-0.139
-244.976	632.511	-0.106	-0.264
-243.961	146.231	-0.039	0.052
-242.946	241.314	0.143	-0.235
-241.932	-172.100	-0.179	-0.006
-240.917	-82.184	0.290	0.093
-239.903	-132.986	-0.273	-0.034
-238.888	800.000	-0.051	-0.163
-237.873	271.760	0.133	0.231
-236.859	-9.225	-0.077	-0.051
-235.844	-99.454	0.143	0.036
-234.830	-142.327	0.140	-0.014
-233.815	-124.467	0.235	0.036
-232.800	266.372	-0.148	-0.254
-231.786	141.547	-0.132	0.172
-230.771	-108.965	0.232	-0.049
-229.757	-200.000	0.055	-0.293
-228.742	-200.000	-0.015	0.068
-227.727	54.517	0.295	-0.280
-226.713	-157.260	0.164	-0.010
-225.698	-76.831	-0.034	-0.012
-224.684	800.000	0.190	-0.598
-223.669	50.893	-0.228	0.213
-222.655	800.000	0.103	0.400
-221.640	465.127	-0.048	0.105
-220.625	-151.071	0.230	-0.017
-219.611	-116.491	0.157	0.029
-218.596	379.569	-0.082	0.165
-217.582	-200.000	0.019	0.305
-216.567	-200.000	0.007	-0.053
-215.552	-64.831	0.214	0.085
-214.538	-152.591	0.032	0.002
-213.523	607.155	0.123	0.303
-212.509	-170.841	0.146	0.005
-211.494	-200.000	-0.034	-0.469
-210.479	-27.428	-0.384	0.220
-209.465	-200.000	0.040	-0.210
-208.450	-200.000	0.002	-0.223
-207.436	-130.097	0.227	-0.030
-206.421	81.931	-0.140	0.149
-205.406	546.264	0.108	0.254
-204.392	47.828	-0.266	0.245
-203.377	-200.000	-0.041	0.336
-202.363	800.000	0.044	0.186
-201.348	-28.869	0.187	0.106
-200.333	-65.613	-0.320	0.126
-199.319	375.813	0.044	-0.089
-198.304	-200.000	-0.020	-0.120
-197.290	127.954	-0.118	0.148
-196.275	800.000	-0.077	-0.295
-195.260	128.656	0.166	0.208
-194.246	-42.691	-0.054	0.027
-193.231	259.671	-0.104	0.176
-192.217	-22.541	0.423	0.252
-191.202	40.747	-0.273	0.242
-190.187	-200.000	0.022	-0.325
-189.173	-200.000	0.013	-0.318
-188.158	800.000	0.065	-0.192
-187.144	-1.827	0.253	0.176
-186.129	-200.000	-0.004	0.083
-185.114	-152.929	0.477	-0.033
-184.100	-78.333	0.092	0.031
-183.085	-29.834	-0.132	-0.074
-182.071	422.623	-0.114	-0.241
-181.056	-200.000	-0.031	-0.475
-180.042	59.696	-0.261	0.253
-179.027	-147.142	0.068	-0.006
-178.012	12.071	-0.186	0.141
-176.998	23.382	0.143	-0.115
-175.983	-200.000	-0.046	-0.301
-174.969	-200.000	0.051	0.227
-173.954	-68.099	-0.154	-0.059
-172.939	39.300	0.154	-0.136
-171.925	-200.000	0.009	-0.062
-170.910	800.000	0.036	0.114
-169.896	-80.668	-0.144	-0.047
-168.881	259.477	0.022	-0.038
-167.866	83.701	0.235	0.252
-166.852	181.454	0.108	-0.156
-165.837	-200.000	0.018	0.316
-164.823	-200.000	0.034	0.215
-163.808	142.125	0.187	-0.244
-162.793	-200.000	0.028	-0.181
-161.779	-200.000	0.016	0.239
-160.764	800.000	0.046	0.141
-159.750	-200.000	-0.001	0.203
-158.735	-200.000	-0.020	0.379
-157.720	-40.792	-0.031	-0.016
-156.706	-200.000	0.000	-0.130
-155.691	259.562	-0.107	-0.181
-154.677	35.853	-0.144	-0.124
-153.662	-200.000	0.061	-0.265
-152.647	214.816	0.036	-0.056
-151.633	-124.036	0.296	0.046
-150.618	-82.668	0.298	0.095
-149.604	-1.324	-0.251	-0.175
-148.589	26.166	0.032	0.027
-147.574	613.979	0.154	-0.379
-146.560	56.966	-0.106	-0.101
-145.545	-200.000	0.032	-0.198
-144.531	565.850	-0.041	-0.097
-143.516	46.167	0.223	-0.203
-142.502	-4.875	0.194	0.131
-141.487	800.000	0.020	0.069
-140.472	-200.000	-0.041	0.225
-139.458	460.508	-0.104	0.228
-138.443	800.000	-0.061	-0.200
-137.429	20.160	0.022	0.018
-136.414	0.149	0.216	-0.151
-135.399	-200.000	-0.014	0.330
-134.385	-55.876	-0.191	-0.084
-133.370	21.642	-0.269	-0.215
-132.356	-104.681	0.414	0.094
-131.341	-147.843	-0.513	-0.042
-130.326	-77.158	-0.224	0.077
-129.312	128.260	-0.124	0.155
-128.297	800.000	0.092	0.355
-127.283	-200.000	0.055	0.265
-126.268	162.436	0.175	-0.241
-125.253	-200.000	0.009	0.518
-124.239	-200.000	0.050	0.360
-123.224	-23.647	0.043	0.025
-122.210	-200.000	0.002	0.160
-121.195	-94.859	-0.038	0.010
