DTS Sentinel unit serial number:	SN413079Multiplexer serial number:	ORYXHardware model number:	OX4-SRSoftware version number:	ORYX F/W v4.00 Oryx Data Collector v3.7.2.0data status	okinstallation	princeton_trtdifferential loss correction	single-endedforward channel	channel 1reverse channel	N/Adate	2019/09/17time	01:54:35forward acquisition time	60.00reverse acquisition time	0.00gamma	496.2192k internal	0.2323k external	0.2323temperature offset calibration	0.9960default loss term (dB/km)	0.3790temperature slope calibration	1.0000multiplexer offset coefficient	1.0000multiplexer slope coefficient	1.0000fibre end	0.00T internal ref (°C)	29.62T ext. ref 1 (°C)	0.12T ext. ref 2 (°C)	24.57length (m)	temperature (°C)	Stokes	anti-Stokes-747.200	490.840	-0.080	-0.185
-746.185	50.511	0.109	-0.105
-745.171	-105.965	0.254	-0.058
-744.156	16.588	-0.171	0.136
-743.142	-200.000	-0.000	0.157
-742.127	-81.801	0.143	0.047
-741.112	-15.632	-0.281	-0.181
-740.098	-9.258	-0.367	0.248
-739.083	36.382	0.108	-0.096
-738.069	-200.000	-0.072	0.385
-737.054	308.799	-0.073	-0.137
-736.039	-63.371	0.144	0.060
-735.025	615.420	0.073	0.184
-734.010	103.312	0.114	-0.135
-732.996	218.788	-0.187	-0.301
-731.981	190.231	0.055	0.083
-730.966	-91.142	-0.071	-0.020
-729.952	-155.995	-0.279	-0.018
-728.937	-89.177	0.296	0.088
-727.923	73.606	-0.159	-0.168
-726.908	-144.970	0.278	0.026
-725.894	-154.093	-0.184	0.013
-724.879	-46.508	-0.266	0.131
-723.864	-132.390	0.202	-0.026
-722.850	-27.880	-0.079	0.046
-721.835	-118.363	0.075	0.013
-720.821	498.604	-0.041	-0.096
-719.806	-63.032	-0.067	-0.028
-718.791	20.757	0.087	-0.071
-717.777	800.000	-0.022	0.074
-716.762	-146.507	0.253	0.022
-715.748	113.108	-0.130	-0.159
-714.733	497.797	-0.098	-0.228
-713.718	-200.000	0.006	0.026
-712.704	183.128	-0.105	-0.156
-711.689	-49.547	-0.290	-0.139
-710.675	-120.494	-0.131	-0.023
-709.660	-32.483	-0.249	-0.140
-708.645	-34.682	0.301	-0.166
-707.631	116.065	-0.194	-0.240
-706.616	-200.000	0.031	-0.186
-705.602	-77.899	-0.215	-0.075
-704.587	-116.659	-0.389	-0.072
-703.572	146.002	-0.130	-0.176
-702.558	-83.491	0.252	-0.081
-701.543	367.595	-0.240	-0.488
-700.529	634.277	0.020	-0.051
-699.514	-163.261	0.132	-0.006
-698.499	-25.386	0.119	-0.071
-697.485	603.400	0.124	0.312
-696.470	-75.065	-0.393	0.142
-695.456	28.569	0.111	-0.095
-694.441	-200.000	-0.007	-0.225
-693.426	-22.875	0.271	0.165
-692.412	-123.022	-0.142	-0.023
-691.397	129.116	-0.102	-0.131
-690.383	-131.826	-0.271	0.036
-689.368	800.000	0.063	-0.260
-688.354	91.100	-0.099	-0.112
-687.339	800.000	0.116	-0.361
-686.324	-21.909	0.076	-0.047
-685.310	119.773	0.338	-0.422
-684.295	454.851	0.058	-0.130
-683.281	-80.004	0.217	-0.074
-682.266	349.367	0.117	-0.232
-681.251	-132.935	-0.114	-0.015
-680.237	-105.868	0.244	-0.055
-679.222	22.961	-0.186	-0.154
-678.208	-166.149	-0.305	-0.013
-677.193	-6.339	-0.185	-0.127
-676.178	-0.116	-0.020	-0.014
-675.164	-43.599	0.166	-0.085
-674.149	-99.255	-0.130	0.033
-673.135	545.130	-0.135	0.324
-672.120	-130.298	0.103	-0.014
-671.105	800.000	0.041	0.120
-670.091	45.227	-0.070	0.065
-669.076	36.305	-0.191	-0.170
-668.062	800.000	-0.110	0.382
-667.047	751.306	0.173	0.469
-666.032	341.549	-0.065	-0.128
-665.018	324.495	-0.057	-0.110
-664.003	-200.000	0.039	0.187
-662.989	91.488	-0.217	-0.245
-661.974	-35.060	-0.092	0.051
-660.959	46.090	-0.072	0.067
-659.945	-200.000	-0.014	-0.462
-658.930	166.686	0.141	-0.201
-657.916	-200.000	0.014	0.271
-656.901	-88.220	0.135	-0.041
-655.886	-156.541	0.179	-0.011
-654.872	-200.000	-0.000	0.041
-653.857	-84.632	-0.333	0.106
-652.843	136.031	-0.075	0.098
-651.828	-19.395	-0.193	0.121
-650.814	-200.000	0.042	0.297
-649.799	212.427	0.104	0.165
-648.784	-164.063	0.159	-0.007
-647.770	295.499	-0.045	-0.083
-646.755	80.882	0.183	-0.199
-645.741	771.476	-0.056	-0.153
-644.726	-66.823	-0.212	-0.084
-643.711	-190.437	-0.100	0.001
-642.697	-200.000	0.050	0.236
-641.682	568.353	0.062	0.152
-640.668	8.860	-0.053	0.041
-639.653	557.615	-0.083	0.201
-638.638	-200.000	-0.036	-0.270
-637.624	-200.000	0.012	-0.197
-636.609	-26.950	0.042	-0.025
-635.595	-67.251	0.133	-0.053
-634.580	61.246	-0.118	-0.118
-633.565	-148.903	0.429	-0.035
-632.551	-59.205	0.236	0.102
-631.536	-200.000	-0.021	-0.098
-630.522	562.587	-0.075	-0.183
-629.507	-34.732	-0.205	-0.113
-628.492	512.604	0.135	-0.316
-627.478	280.056	-0.146	-0.263
-626.463	229.085	0.066	0.108
-625.449	59.752	0.241	-0.239
-624.434	-30.314	-0.227	-0.130
-623.419	363.962	-0.063	-0.127
-622.405	342.715	0.087	-0.172
-621.390	800.000	-0.066	-0.200
-620.376	-87.227	-0.257	-0.078
-619.361	-45.403	-0.201	0.100
-618.346	-100.654	0.042	0.010
-617.332	40.430	-0.176	-0.159
-616.317	-72.606	0.152	0.056
-615.303	-200.000	-0.071	0.326
-614.288	784.868	-0.151	-0.417
-613.273	-13.908	0.027	-0.017
-612.259	13.761	0.165	-0.129
-611.244	800.000	-0.143	-0.609
-610.230	-200.000	0.051	0.224
-609.215	800.000	-0.192	0.610
-608.201	800.000	-0.046	0.176
-607.186	67.555	-0.071	-0.073
-606.171	-200.000	-0.027	-0.222
-605.157	-193.577	-0.127	0.001
-604.142	-200.000	-0.062	0.316
-603.128	-38.897	0.203	-0.108
-602.113	-200.000	0.016	-0.134
-601.098	-200.000	0.026	-0.362
-600.084	62.881	0.180	0.180
-599.069	-10.137	0.248	0.166
-598.055	452.802	-0.098	0.218
-597.040	30.311	-0.106	0.091
-596.025	-120.008	0.460	0.079
-595.011	367.751	-0.163	-0.331
-593.996	213.641	-0.074	0.118
-592.982	119.871	0.231	-0.287
-591.967	-135.613	-0.182	-0.022
-590.952	-23.699	-0.215	-0.129
-589.938	-130.582	-0.033	-0.004
-588.923	159.999	0.222	0.310
-587.909	32.176	0.310	-0.268
-586.894	13.943	-0.287	-0.224
-585.879	800.000	0.091	-0.344
-584.865	79.927	-0.254	-0.274
-583.850	-67.054	0.188	0.074
-582.836	-200.000	-0.014	-0.281
-581.821	71.199	0.271	-0.282
-580.806	-132.841	0.358	0.046
-579.792	-55.136	-0.293	-0.132
-578.777	-39.145	-0.229	0.121
-577.763	370.998	0.059	-0.121
-576.748	91.322	-0.140	-0.158
-575.733	29.061	0.255	-0.217
-574.719	-52.356	0.122	-0.057
-573.704	133.260	-0.152	0.197
-572.690	63.770	0.228	0.230
-571.675	100.276	-0.074	-0.086
-570.661	35.891	-0.132	0.117
-569.646	800.000	0.122	0.357
-568.631	5.202	-0.086	0.064
-567.617	156.105	0.102	-0.142
-566.602	-200.000	0.044	0.520
-565.588	-143.182	-0.121	0.012
-564.573	65.755	0.129	-0.131
-563.558	0.705	-0.215	0.154
-562.544	-72.167	0.062	-0.023
-561.529	-200.000	-0.007	0.079
-560.515	-112.353	0.232	0.047
-559.500	-200.000	0.006	-0.220
-558.485	58.117	0.218	0.214
-557.471	-88.091	-0.141	0.042
-556.456	-200.000	-0.465	0.001
-555.442	445.904	0.077	-0.169
-554.427	34.766	-0.093	0.081
-553.412	800.000	0.064	-0.239
-552.398	-200.000	-0.030	0.140
-551.383	-188.769	0.146	-0.002
-550.369	12.815	-0.089	-0.069
-549.354	-53.582	-0.174	-0.080
-548.339	169.375	0.145	0.207
-547.325	800.000	0.040	0.117
-546.310	-56.781	-0.073	0.032
-545.296	800.000	-0.023	-0.079
-544.281	-96.796	0.335	0.088
-543.266	512.580	-0.078	0.182
-542.252	269.052	-0.085	-0.149
-541.237	800.000	-0.022	-0.074
-540.223	-11.157	-0.116	0.077
-539.208	-95.909	0.407	-0.109
-538.193	26.565	0.124	0.104
-537.179	-155.992	-0.281	-0.018
-536.164	381.116	0.078	-0.161
-535.150	800.000	0.078	-0.329
-534.135	82.446	0.196	-0.213
-533.121	800.000	-0.034	-0.110
-532.106	-200.000	0.040	-0.314
-531.091	15.532	0.152	0.119
-530.077	-93.889	-0.105	0.029
-529.062	-200.000	0.017	-0.189
-528.048	-200.000	-0.044	-0.286
-527.033	490.702	-0.128	0.294
-526.018	-200.000	-0.024	-0.180
-525.004	237.322	-0.091	-0.152
-523.989	800.000	0.080	-0.282
-522.975	324.840	0.154	-0.295
-521.960	-86.238	0.495	0.153
-520.945	-200.000	-0.007	0.348
-519.931	136.728	0.091	0.119
-518.916	-21.131	-0.271	-0.166
-517.902	415.211	0.110	-0.235
-516.887	-200.000	0.015	-0.084
-515.872	299.293	-0.148	-0.272
-514.858	-175.055	-0.128	-0.004
-513.843	-200.000	-0.042	-0.188
-512.829	-200.000	-0.014	-0.119
-511.814	19.278	0.073	0.058
-510.799	-200.000	-0.008	-0.204
-509.785	482.219	-0.070	0.159
-508.770	92.528	-0.080	-0.090
-507.756	329.856	0.041	0.080
-506.741	-31.364	-0.371	-0.209
-505.726	-54.802	0.205	-0.093
-504.712	121.526	0.031	0.039
-503.697	226.780	-0.194	0.316
-502.683	-200.000	-0.013	-0.185
-501.668	-200.000	-0.003	-0.322
-500.653	-174.666	-0.115	-0.003
-499.639	-147.970	0.370	0.031
-498.624	-104.875	0.208	-0.048
-497.610	800.000	-0.057	-0.199
-496.595	68.796	-0.067	0.069
-495.581	99.475	0.160	0.185
-494.566	-200.000	0.019	-0.085
-493.551	-200.000	0.005	0.327
-492.537	-78.795	-0.193	0.066
-491.522	-0.467	-0.045	0.032
-490.508	-21.935	-0.293	0.178
-489.493	800.000	0.032	0.138
-488.478	148.537	-0.129	-0.175
-487.464	-200.000	-0.018	-0.086
-486.449	-16.923	-0.272	-0.172
-485.435	3.120	0.182	-0.132
-484.420	197.592	-0.170	0.259
-483.405	800.000	0.055	-0.233
-482.391	128.612	0.047	-0.059
-481.376	-200.000	-0.027	-0.216
-480.362	713.393	0.120	-0.317
-479.347	362.979	0.131	-0.263
-478.332	-200.000	0.028	0.138
-477.318	-148.436	0.177	-0.014
-476.303	-20.051	0.316	0.195
-475.289	79.498	-0.074	0.080
-474.274	-200.000	0.014	0.087
-473.259	-200.000	0.013	-0.089
-472.245	634.618	0.081	-0.206
-471.230	-200.000	-0.027	0.312
-470.216	660.778	0.070	0.181
-469.201	727.773	-0.078	0.208
-468.186	-200.000	-0.004	0.309
-467.172	39.824	-0.171	0.153
-466.157	102.819	0.194	0.226
-465.143	547.501	-0.097	0.232
-464.128	136.945	-0.239	0.311
-463.113	-79.339	0.094	-0.032
-462.099	-102.792	-0.396	0.094
-461.084	-28.252	0.065	-0.038
-460.070	351.456	-0.115	0.228
-459.055	-115.203	-0.069	-0.013
-458.040	-64.706	0.472	0.191
-457.026	122.511	0.059	-0.073
-456.011	66.088	0.200	0.203
-454.997	138.556	-0.104	-0.137
-453.982	-200.000	0.007	0.378
-452.968	-155.944	0.713	0.045
-451.953	-200.000	-0.030	0.199
-450.938	-84.528	-0.214	0.067
-449.924	-159.162	0.158	-0.009
-448.909	-36.387	-0.203	0.109
-447.895	800.000	-0.080	0.259
-446.880	33.855	-0.075	-0.066
-445.865	69.934	-0.131	-0.135
-444.851	10.771	0.360	0.274
-443.836	-4.305	0.105	0.073
-442.822	-200.000	-0.016	-0.274
-441.807	252.618	-0.141	0.240
-440.792	-200.000	-0.006	0.280
-439.778	800.000	-0.039	0.131
-438.763	-90.880	-0.268	0.077
-437.749	0.937	-0.122	-0.087
-436.734	-146.486	0.107	0.009
-435.719	-200.000	-0.018	-0.262
-434.705	200.194	-0.157	-0.240
-433.690	-196.368	-0.306	-0.002
-432.676	-86.212	-0.116	-0.036
-431.661	-33.405	-0.295	0.163
-430.646	364.934	-0.125	-0.251
-429.632	-200.000	-0.004	0.076
-428.617	119.132	-0.100	-0.123
-427.603	-131.675	0.150	-0.020
-426.588	-113.461	0.062	-0.012
-425.573	-60.308	-0.074	0.031
-424.559	-112.231	0.139	-0.028
-423.544	-136.443	0.171	-0.020
-422.530	-148.827	-0.556	0.045
-421.515	-132.223	0.228	-0.029
-420.500	-154.720	-0.230	0.015
-419.486	-200.000	-0.016	-0.243
-418.471	165.108	-0.042	0.059
-417.457	339.064	0.134	0.261
-416.442	7.144	0.217	-0.162
-415.428	-200.000	-0.088	-0.405
-414.413	800.000	0.111	-0.309
-413.398	-200.000	-0.037	-0.265
-412.384	-200.000	-0.001	-0.131
-411.369	-200.000	0.073	-0.430
-410.355	-95.782	0.053	0.014
-409.340	-51.408	-0.089	0.042
-408.325	369.905	0.099	-0.200
-407.311	-30.634	-0.302	-0.170
-406.296	135.739	-0.187	-0.242
-405.282	17.726	0.244	-0.193
-404.267	48.639	-0.131	0.122
-403.252	-200.000	0.026	-0.162
-402.238	142.283	0.206	0.273
-401.223	321.188	-0.097	-0.183
-400.209	-49.594	-0.240	-0.114
-399.194	-10.209	-0.283	-0.187
-398.179	668.768	0.084	-0.218
-397.165	-61.071	0.201	-0.085
-396.150	601.347	-0.159	0.392
-395.136	179.503	-0.085	-0.123
-394.121	-200.000	-0.049	-0.302
-393.106	-98.503	-0.250	-0.064
-392.092	-133.559	-0.264	-0.033
-391.077	-200.000	0.039	0.281
-390.063	-200.000	0.002	-0.086
-389.048	82.409	0.086	-0.093
-388.033	12.554	-0.115	0.088
-387.019	-200.000	0.013	-0.171
-386.004	406.286	0.137	0.289
-384.990	1.442	0.194	0.139
-383.975	-200.000	0.017	0.142
-382.960	-38.494	-0.074	-0.039
-381.946	800.000	-0.012	0.032
-380.931	382.177	-0.180	-0.368
-379.917	147.452	-0.138	-0.185
-378.902	-200.000	-0.022	0.186
-377.888	800.000	0.017	0.051
-376.873	-200.000	0.010	-0.102
-375.858	153.941	-0.122	-0.167
-374.844	12.140	0.097	0.074
-373.829	-110.080	0.187	0.039
-372.815	-90.648	-0.080	0.023
-371.800	602.230	0.017	-0.041
-370.785	800.000	-0.048	-0.199
-369.771	-114.797	-0.376	0.071
-368.756	81.830	0.153	-0.165
-367.742	67.243	0.078	0.079
-366.727	800.000	0.058	0.160
-365.712	-63.716	-0.191	0.078
-364.698	-72.466	0.354	-0.130
-363.683	800.000	-0.027	-0.076
-362.669	-200.000	-0.041	0.233
-361.654	-200.000	0.036	0.318
-360.639	-50.116	0.206	-0.097
-359.625	-75.532	0.189	-0.067
-358.610	-158.143	-0.074	0.004
-357.596	-151.914	-0.416	-0.030
-356.581	-200.000	0.054	-0.243
-355.566	-62.209	-0.129	-0.053
-354.552	6.720	0.030	-0.022
-353.537	-200.000	0.011	-0.489
-352.523	252.861	-0.120	-0.203
-351.508	-200.000	-0.013	0.205
-350.493	-39.062	0.241	0.126
-349.479	-5.769	-0.163	0.111
-348.464	-120.386	-0.193	0.033
-347.450	-167.535	0.313	-0.012
-346.435	-0.909	-0.127	-0.089
-345.420	-200.000	-0.301	-0.001
-344.406	108.208	0.077	0.091
-343.391	800.000	0.095	0.365
-342.377	800.000	0.027	-0.103
-341.362	-88.959	0.200	0.059
-340.348	-200.000	0.040	-0.273
-339.333	19.071	0.118	0.094
-338.318	61.300	-0.276	0.273
-337.304	800.000	-0.008	-0.022
-336.289	-200.000	-0.007	0.031
-335.275	-200.000	0.038	0.366
-334.260	-200.000	-0.022	0.303
-333.245	-50.613	0.110	0.051
-332.231	134.927	0.041	-0.053
-331.216	-200.000	-0.030	0.272
-330.202	-57.571	0.292	-0.127
-329.187	21.273	0.356	-0.287
-328.172	137.303	-0.256	0.333
-327.158	-200.000	-0.021	0.205
-326.143	-66.297	0.313	0.124
-325.129	668.594	-0.053	0.136
-324.114	383.865	-0.156	-0.318
-323.099	-200.000	0.025	-0.508
-322.085	-86.052	0.153	-0.047
-321.070	203.407	-0.199	-0.306
-320.056	546.581	-0.093	-0.220
-319.041	-200.000	0.005	-0.272
-318.026	-200.000	-0.002	0.210
-317.012	231.312	-0.063	-0.102
-315.997	-43.694	0.278	0.139
-314.983	89.388	-0.108	0.120
-313.968	-200.000	0.011	0.232
-312.953	800.000	-0.068	-0.248
-311.939	800.000	-0.064	-0.247
-310.924	-200.000	-0.035	0.221
-309.910	-162.386	0.319	0.016
-308.895	-61.066	0.119	0.050
-307.880	-74.636	-0.161	-0.057
-306.866	-200.000	-0.012	0.131
-305.851	-200.000	0.010	0.154
-304.837	-149.801	-0.304	0.024
-303.822	235.202	-0.085	0.140
-302.807	140.744	-0.075	-0.099
-301.793	-141.563	-0.071	0.007
-300.778	-200.000	0.006	-0.046
-299.764	398.985	-0.143	-0.297
-298.749	-107.808	0.294	0.063
-297.735	60.076	-0.215	0.211
-296.720	-40.424	-0.231	0.119
-295.705	-137.049	0.234	-0.027
-294.691	55.974	-0.337	0.325
-293.676	-98.035	0.051	0.013
-292.662	800.000	-0.010	0.035
-291.647	-13.007	-0.164	-0.106
-290.632	-200.000	-0.009	-0.073
-289.618	-110.665	-0.096	-0.020
-288.603	800.000	0.078	-0.246
-287.589	-45.243	-0.210	-0.103
-286.574	-133.749	0.079	-0.010
-285.559	-200.000	0.028	-0.272
-284.545	84.642	-0.055	0.060
-283.530	-200.000	-0.044	0.253
-282.516	-82.435	0.086	0.028
-281.501	-200.000	-0.015	0.129
-280.486	-200.000	-0.050	-0.271
-279.472	-40.061	0.135	0.070
-278.457	-129.043	0.245	-0.034
-277.443	800.000	-0.035	-0.107
-276.428	-103.032	0.105	-0.025
-275.413	-89.278	0.152	0.045
-274.399	-136.224	-0.094	0.011
-273.384	-200.000	0.003	-0.224
-272.370	138.821	-0.063	0.082
-271.355	-87.172	0.189	-0.057
-270.340	800.000	-0.073	0.229
-269.326	398.366	0.090	-0.186
-268.311	225.091	-0.115	-0.184
-267.297	-92.838	-0.342	-0.095
-266.282	-200.000	-0.021	-0.298
-265.267	554.273	-0.039	-0.093
-264.253	-98.684	-0.172	0.044
-263.238	98.989	-0.156	0.179
-262.224	575.617	0.133	-0.322
-261.209	231.028	0.243	-0.395
-260.195	-136.390	0.397	0.046
-259.180	800.000	-0.097	0.361
-258.165	210.485	0.063	-0.098
-257.151	586.657	-0.147	0.358
-256.136	-59.923	0.169	0.071
-255.122	130.022	-0.110	-0.140
-254.107	-200.000	0.039	0.242
-253.092	-200.000	0.014	0.109
-252.078	-200.000	0.005	0.097
-251.063	206.353	0.262	-0.404
-250.049	-200.000	0.019	0.095
-249.034	-59.751	-0.102	0.043
-248.019	-167.853	-0.165	0.006
-247.005	-60.731	-0.162	-0.068
-245.990	-30.617	-0.274	0.154
-244.976	153.974	-0.126	0.171
-243.961	-108.772	-0.346	0.073
-242.946	-200.000	0.019	0.175
-241.932	-200.000	0.051	-0.292
-240.917	-200.000	0.044	0.393
-239.903	-200.000	0.030	0.250
-238.888	12.075	0.255	0.194
-237.873	-200.000	-0.011	0.175
-236.859	-175.914	0.462	0.012
-235.844	172.934	-0.351	-0.501
-234.830	173.049	-0.030	0.043
-233.815	-200.000	-0.086	0.459
-232.800	-87.904	0.405	0.121
-231.786	-44.150	0.221	0.110
-230.771	123.508	-0.195	-0.242
-229.757	-71.932	0.444	-0.164
-228.742	98.556	-0.041	0.047
-227.727	-21.235	0.408	0.247
-226.713	285.106	-0.016	0.028
-225.698	107.519	0.177	0.209
-224.684	-170.956	-0.057	0.002
-223.669	-153.349	0.460	0.032
-222.655	-200.000	0.015	0.290
-221.640	800.000	-0.009	0.024
-220.625	117.199	-0.138	0.167
-219.611	-54.027	0.154	0.069
-218.596	85.660	-0.187	0.204
-217.582	-200.000	-0.028	-0.127
-216.567	-10.260	-0.129	0.085
-215.552	-60.993	0.281	0.118
-214.538	629.585	0.086	0.215
-213.523	-16.185	-0.236	0.148
-212.509	-19.540	0.193	-0.118
-211.494	-127.301	-0.169	0.024
-210.479	-12.512	0.161	0.104
-209.465	101.074	-0.126	0.145
-208.450	-200.000	0.020	0.322
-207.436	166.277	0.222	0.311
-206.421	-144.361	-0.383	-0.035
-205.406	-128.667	-0.131	0.018
-204.392	20.012	-0.287	0.229
-203.377	407.526	0.085	0.177
-202.363	10.561	0.277	-0.209
-201.348	84.628	0.142	0.154
-200.333	-200.000	0.071	0.499
-199.319	-116.030	-0.316	-0.058
-198.304	-200.000	0.010	-0.188
-197.290	-200.000	0.035	-0.251
-196.275	-1.503	-0.077	0.054
-195.260	800.000	-0.065	0.235
-194.246	65.975	0.237	0.238
-193.231	-200.000	-0.034	0.257
-192.217	-139.020	-0.051	-0.006
-191.202	38.969	-0.189	0.167
-190.187	140.604	0.111	0.145
-189.173	-137.067	0.208	0.024
-188.158	-90.756	0.200	0.057
-187.144	310.690	-0.194	0.359
-186.129	-116.863	-0.154	-0.028
-185.114	-69.603	-0.215	0.081
-184.100	-200.000	0.010	0.224
-183.085	57.806	0.129	0.125
-182.071	-175.600	0.261	0.007
-181.056	-200.000	0.033	0.326
-180.042	-40.163	-0.058	-0.030
-179.027	87.906	-0.097	0.106
-178.012	199.288	0.047	-0.071
-176.998	-26.122	-0.203	0.118
-175.983	-27.099	-0.114	0.066
-174.969	567.149	-0.083	-0.199
-173.954	42.011	0.245	0.219
-172.939	-156.048	-0.089	0.006
-171.925	-138.983	-0.258	0.028
-170.910	156.036	0.157	-0.214
-169.896	166.684	-0.069	-0.097
-168.881	142.011	0.194	-0.254
-167.866	-200.000	-0.015	0.100
-166.852	-132.362	-0.117	-0.015
-165.837	78.599	0.150	0.158
-164.823	-200.000	0.009	0.190
-163.808	18.949	0.119	0.094
-162.793	57.187	0.221	0.213
-161.779	106.048	-0.323	0.377
-160.764	-162.406	0.141	-0.007
-159.750	516.611	-0.123	-0.283
-158.735	172.682	0.109	-0.155
-157.720	-200.000	0.051	-0.258
-156.706	409.334	-0.092	0.192
-155.691	-69.213	0.121	-0.046
-154.677	107.390	-0.253	-0.296
-153.662	-72.664	0.200	-0.073
-152.647	-134.113	0.435	-0.053
-151.633	283.641	-0.219	0.389
-150.618	63.981	0.285	0.283
-149.604	73.563	0.254	0.263
-148.589	-103.590	-0.319	-0.074
-147.574	-84.894	0.359	0.111
-146.560	343.328	0.167	-0.322
-145.545	629.963	0.040	0.099
-144.531	-175.604	0.097	0.003
-143.516	-200.000	-0.003	-0.064
-142.502	426.442	-0.029	0.062
-141.487	85.818	-0.107	-0.116
-140.472	17.977	-0.336	-0.264
-139.458	-118.609	0.032	0.005
-138.443	-200.000	-0.049	-0.319
-137.429	-72.774	-0.364	-0.132
-136.414	-5.718	0.307	-0.208
-135.399	-200.000	-0.029	0.213
-134.385	111.221	0.076	0.091
-133.370	60.355	-0.109	-0.106
-132.356	-46.812	0.176	0.085
-131.341	657.415	-0.187	0.474
-130.326	84.192	-0.154	-0.166
-129.312	-136.634	0.515	-0.059
-128.297	-3.264	-0.136	0.093
-127.283	-200.000	-0.021	0.104
-126.268	-25.834	0.142	0.082
-125.253	-200.000	-0.015	-0.334
-124.239	-20.748	-0.095	0.057
-123.224	126.843	0.235	0.293
