DTS Sentinel unit serial number:	SN413079Multiplexer serial number:	ORYXHardware model number:	OX4-SRSoftware version number:	ORYX F/W v4.00 Oryx Data Collector v3.7.2.0data status	okinstallation	princeton_trtdifferential loss correction	single-endedforward channel	channel 1reverse channel	N/Adate	2019/09/17time	17:02:35forward acquisition time	60.00reverse acquisition time	0.00gamma	496.2192k internal	0.2292k external	0.2292temperature offset calibration	0.9954default loss term (dB/km)	0.3790temperature slope calibration	1.0000multiplexer offset coefficient	1.0000multiplexer slope coefficient	1.0000fibre end	0.00T internal ref (°C)	42.59T ext. ref 1 (°C)	0.35T ext. ref 2 (°C)	39.12length (m)	temperature (°C)	Stokes	anti-Stokes-747.200	596.968	0.048	-0.122
-746.185	17.400	-0.216	0.175
-745.171	-200.000	0.000	0.073
-744.156	165.694	-0.193	0.280
-743.142	396.342	0.079	0.168
-742.127	-200.000	-0.027	-0.151
-741.112	-200.000	-0.053	-0.266
-740.098	-200.000	0.006	0.248
-739.083	-6.044	-0.229	0.160
-738.069	270.447	0.228	0.411
-737.054	133.393	-0.054	0.072
-736.039	-200.000	0.014	-0.446
-735.025	-29.101	-0.118	-0.069
-734.010	-0.627	0.141	-0.103
-732.996	265.411	-0.116	-0.208
-731.981	-84.354	-0.207	0.067
-730.966	313.741	-0.035	-0.067
-729.952	50.887	-0.303	0.293
-728.937	271.564	-0.141	-0.254
-727.923	165.172	0.218	-0.315
-726.908	-200.000	-0.054	0.252
-725.894	411.058	-0.081	0.175
-724.879	-85.259	-0.373	0.119
-723.864	-93.107	-0.092	0.026
-722.850	800.000	0.066	-0.284
-721.835	82.254	-0.309	-0.343
-720.821	-19.992	0.168	-0.106
-719.806	-200.000	0.056	-0.410
-718.791	-131.071	-0.044	0.006
-717.777	49.821	0.144	-0.139
-716.762	137.050	0.068	0.091
-715.748	-146.015	0.324	0.029
-714.733	800.000	-0.076	-0.263
-713.718	-200.000	-0.043	-0.352
-712.704	800.000	0.047	0.163
-711.689	60.579	-0.320	-0.324
-710.675	800.000	-0.098	-0.348
-709.660	-18.447	0.127	0.081
-708.645	800.000	0.041	0.124
-707.631	11.656	-0.078	0.061
-706.616	800.000	0.173	-0.489
-705.602	90.595	-0.121	0.139
-704.587	-200.000	-0.007	-0.278
-703.572	281.360	0.017	0.030
-702.558	172.360	0.036	0.053
-701.543	-51.743	0.338	-0.161
-700.529	800.000	-0.047	-0.190
-699.514	-58.723	0.151	0.067
-698.499	23.161	0.342	0.287
-697.485	800.000	-0.057	0.197
-696.470	-123.199	0.173	-0.028
-695.456	31.631	-0.194	-0.171
-694.441	-31.138	0.115	-0.066
-693.426	721.944	0.065	0.176
-692.412	33.188	0.157	-0.139
-691.397	800.000	-0.022	0.088
-690.383	175.937	-0.089	0.132
-689.368	120.628	0.042	0.054
-688.354	150.256	-0.140	0.194
-687.339	-86.497	-0.141	0.044
-686.324	800.000	-0.087	-0.312
-685.310	74.210	0.111	0.119
-684.295	-167.481	-0.344	0.014
-683.281	-121.005	-0.075	-0.013
-682.266	84.624	-0.284	-0.318
-681.251	-53.262	-0.272	-0.127
-680.237	-100.213	-0.186	0.047
-679.222	-136.238	-0.160	-0.019
-678.208	-131.565	-0.081	-0.011
-677.193	-200.000	0.011	0.148
-676.178	-200.000	-0.001	0.237
-675.164	-31.991	-0.431	0.246
-674.149	12.000	-0.104	0.081
-673.135	800.000	-0.122	-0.405
-672.120	224.772	-0.143	-0.235
-671.105	-34.421	-0.246	0.138
-670.091	78.421	0.062	0.068
-669.076	-83.600	-0.033	0.011
-668.062	546.008	0.074	-0.180
-667.047	320.867	0.083	0.161
-666.032	-57.187	-0.349	0.157
-665.018	-200.000	0.008	0.091
-664.003	-97.222	-0.053	-0.014
-662.989	-45.599	-0.118	-0.060
-661.974	-35.714	-0.120	0.066
-660.959	387.468	-0.199	-0.419
-659.945	138.433	-0.249	-0.334
-658.930	-48.103	0.466	-0.229
-657.916	-146.943	-0.578	-0.051
-656.901	-108.182	-0.261	-0.058
-655.886	51.054	-0.057	-0.055
-654.872	85.725	-0.167	-0.187
-653.857	-103.936	-0.124	-0.029
-652.843	-14.857	-0.123	0.081
-651.828	-12.058	-0.245	0.164
-650.814	800.000	-0.049	0.153
-649.799	59.256	-0.047	-0.048
-648.784	-200.000	-0.333	0.000
-647.770	168.758	0.240	-0.349
-646.755	-93.066	-0.206	-0.058
-645.741	427.413	0.038	0.084
-644.726	-26.565	0.419	-0.250
-643.711	44.964	-0.249	-0.234
-642.697	-200.000	0.058	-0.486
-641.682	-64.171	0.177	0.074
-640.668	-117.686	0.176	0.032
-639.653	800.000	-0.063	0.183
-638.638	800.000	0.116	-0.364
-637.624	7.133	0.085	-0.065
-636.609	-200.000	-0.003	-0.143
-635.595	-61.986	-0.140	0.059
-634.580	534.017	0.146	0.353
-633.565	800.000	-0.063	-0.203
-632.551	800.000	0.105	-0.309
-631.536	-67.685	-0.377	0.150
-630.522	-94.636	0.401	0.111
-629.507	-200.000	-0.021	-0.168
-628.492	-29.307	0.268	0.156
-627.478	-200.000	0.036	-0.216
-626.463	-28.863	0.076	0.044
-625.449	-151.898	0.203	0.015
-624.434	-99.542	-0.109	-0.028
-623.419	800.000	-0.049	0.142
-622.405	-112.229	0.198	0.041
-621.390	-97.550	-0.187	0.050
-620.376	-200.000	-0.009	0.287
-619.361	-132.197	-0.304	-0.040
-618.346	7.223	0.309	0.235
-617.332	-10.638	-0.138	0.093
-616.317	427.313	-0.063	0.138
-615.303	-200.000	-0.020	-0.209
-614.288	37.539	0.464	-0.419
-613.273	-130.157	-0.040	0.006
-612.259	-200.000	-0.033	-0.222
-611.244	-110.294	-0.158	-0.033
-610.230	212.575	-0.104	-0.168
-609.215	229.414	0.120	-0.200
-608.201	175.470	-0.094	0.139
-607.186	-52.685	0.350	0.164
-606.171	-137.814	0.275	0.031
-605.157	197.298	0.116	-0.180
-604.142	84.628	0.145	0.162
-603.128	656.361	-0.097	-0.255
-602.113	35.290	-0.160	-0.143
-601.098	259.634	-0.144	0.252
-600.084	800.000	0.051	-0.144
-599.069	-99.516	-0.295	-0.076
-598.055	336.469	0.075	-0.148
-597.040	-200.000	-0.022	0.189
-596.025	800.000	0.040	0.159
-595.011	-200.000	-0.036	0.281
-593.996	-12.601	-0.278	-0.184
-592.982	-124.925	0.104	0.016
-591.967	722.937	-0.050	0.136
-590.952	777.794	0.095	0.265
-589.938	-122.540	0.258	-0.043
-588.923	-90.223	-0.469	-0.139
-587.909	-200.000	-0.066	0.312
-586.894	39.226	0.180	-0.164
-585.879	62.421	0.064	-0.065
-584.865	326.695	-0.230	-0.449
-583.850	-91.969	0.305	-0.088
-582.836	45.961	-0.172	0.162
-581.821	-200.000	-0.036	-0.228
-580.806	107.050	-0.188	-0.228
-579.792	237.289	-0.106	-0.178
-578.777	800.000	-0.056	-0.233
-577.763	413.963	-0.096	0.208
-576.748	-200.000	0.000	-0.079
-575.733	800.000	-0.088	0.307
-574.719	8.471	0.176	0.135
-573.704	18.129	-0.270	-0.219
-572.690	123.752	-0.198	0.252
-571.675	-114.775	0.175	0.034
-570.661	-109.632	0.084	-0.018
-569.646	171.663	0.194	-0.283
-568.631	147.120	-0.198	-0.271
-567.617	146.498	0.033	0.044
-566.602	-137.553	-0.416	-0.048
-565.588	3.714	0.166	-0.123
-564.573	-125.846	0.328	0.050
-563.558	251.213	0.083	0.144
-562.544	-60.285	-0.244	-0.106
-561.529	-130.952	-0.150	0.020
-560.515	800.000	-0.064	-0.184
-559.500	89.624	-0.119	-0.135
-558.485	29.002	0.436	-0.376
-557.471	-28.846	-0.232	-0.136
-556.456	-68.001	-0.058	0.023
-555.442	274.449	-0.198	-0.357
-554.427	-116.379	0.121	0.023
-553.412	-200.000	-0.057	-0.350
-552.398	-40.016	0.053	0.028
-551.383	-152.785	0.123	-0.009
-550.369	-126.808	-0.070	0.010
-549.354	310.975	-0.113	-0.215
-548.339	-200.000	0.012	0.341
-547.325	800.000	-0.098	-0.300
-546.310	-115.089	0.266	0.051
-545.296	-200.000	0.010	0.370
-544.281	-74.466	-0.043	-0.016
-543.266	-113.371	-0.282	0.056
-542.252	397.452	0.096	-0.203
-541.237	-91.521	-0.103	0.030
-540.223	-78.623	-0.239	0.083
-539.208	228.531	0.058	0.095
-538.193	-135.667	0.146	0.018
-537.179	34.797	0.174	0.154
-536.164	-142.324	0.238	0.024
-535.150	736.994	0.032	0.087
-534.135	-148.840	-0.083	0.007
-533.121	-164.632	-0.090	-0.004
-532.106	65.705	-0.096	-0.099
-531.091	443.636	-0.194	0.432
-530.077	60.891	0.190	0.192
-529.062	-0.332	0.118	0.085
-528.048	-200.000	-0.026	-0.159
-527.033	-200.000	-0.056	0.366
-526.018	344.396	-0.196	0.391
-525.004	9.118	0.079	0.060
-523.989	235.563	0.126	-0.211
-522.975	-193.445	-0.237	0.002
-521.960	-200.000	-0.025	-0.131
-520.945	-66.010	-0.137	0.056
-519.931	-75.251	0.122	0.044
-518.916	-70.178	0.240	-0.093
-517.902	800.000	0.063	0.177
-516.887	-200.000	-0.007	0.209
-515.872	-85.439	-0.212	-0.067
-514.858	-200.000	0.041	0.000
-513.843	-192.980	-0.289	0.003
-512.829	252.545	-0.176	-0.304
-511.814	-72.722	0.132	-0.049
-510.799	283.819	0.028	0.051
-509.785	337.676	0.071	0.140
-508.770	758.524	-0.056	0.154
-507.756	34.571	-0.110	-0.098
-506.741	3.435	0.217	-0.160
-505.726	-200.000	-0.007	-0.036
-504.712	-200.000	0.080	0.373
-503.697	67.144	0.162	0.168
-502.683	332.412	-0.122	0.239
-501.668	-200.000	0.025	-0.638
-500.653	-150.668	0.121	0.009
-499.639	-148.436	0.058	0.005
-498.624	-143.364	-0.315	0.031
-497.610	558.212	-0.146	0.358
-496.595	140.338	-0.099	0.133
-495.581	-45.872	0.091	-0.045
-494.566	148.839	0.279	0.382
-493.551	-125.424	-0.217	-0.033
-492.537	75.723	0.073	0.079
-491.522	-34.464	-0.203	0.113
-490.508	-200.000	-0.063	0.294
-489.493	-86.586	0.226	0.070
-488.478	800.000	0.030	0.091
-487.464	111.256	-0.106	0.129
-486.449	2.283	0.282	-0.206
-485.435	693.871	0.060	0.161
-484.420	-63.291	0.116	0.048
-483.405	93.856	0.249	0.286
-482.391	-165.445	0.231	-0.010
-481.376	725.634	-0.131	-0.354
-480.362	68.818	0.163	-0.169
-479.347	-200.000	0.019	-0.201
-478.332	159.101	-0.041	-0.058
-477.318	37.148	-0.168	-0.150
-476.303	215.118	0.085	0.137
-475.289	-86.897	0.420	0.130
-474.274	-33.466	0.196	-0.110
-473.259	-200.000	0.043	-0.201
-472.245	-200.000	-0.017	-0.147
-471.230	31.338	-0.136	0.118
-470.216	-109.963	-0.085	0.018
-469.201	-200.000	-0.015	0.170
-468.186	-125.404	0.145	-0.022
-467.172	800.000	-0.113	0.334
-466.157	173.573	0.020	-0.029
-465.143	130.792	0.055	-0.071
-464.128	159.301	0.136	0.191
-463.113	18.182	-0.267	-0.215
-462.099	-14.426	-0.186	0.121
-461.084	-124.488	0.355	0.056
-460.070	39.354	-0.165	-0.149
-459.055	-34.228	-0.139	-0.077
-458.040	711.169	-0.093	-0.248
-457.026	800.000	-0.069	-0.209
-456.011	134.834	0.151	0.199
-454.997	-74.909	-0.212	0.077
-453.982	-200.000	-0.074	-0.500
-452.968	-89.257	-0.289	0.086
-451.953	490.472	0.036	0.083
-450.938	272.911	-0.061	-0.109
-449.924	-139.731	-0.203	0.022
-448.909	8.729	-0.175	-0.133
-447.895	348.784	-0.034	-0.068
-446.880	-92.512	0.154	0.044
-445.865	120.746	0.183	-0.230
-444.851	715.758	0.083	-0.223
-443.836	293.808	-0.147	0.272
-442.822	-200.000	0.091	-0.405
-441.807	-111.429	-0.335	0.069
-440.792	-200.000	-0.015	-0.222
-439.778	14.538	0.180	-0.142
-438.763	-124.706	-0.143	-0.022
-437.749	32.112	-0.238	0.207
-436.734	33.462	0.133	0.117
-435.719	-200.000	-0.027	-0.130
-434.705	-42.359	0.118	-0.061
-433.690	-200.000	-0.047	0.340
-432.676	-22.315	-0.235	0.144
-431.661	334.075	0.209	0.409
-430.646	-47.373	-0.206	0.101
-429.632	-127.482	-0.257	-0.038
-428.617	-93.898	0.130	0.036
-427.603	254.256	-0.026	-0.044
-426.588	103.094	-0.071	0.084
-425.573	305.033	0.078	-0.146
-424.559	-60.029	0.164	-0.071
-423.544	-94.402	0.196	-0.054
-422.530	-104.344	-0.146	0.034
-421.515	42.195	0.141	0.130
-420.500	800.000	0.082	0.301
-419.486	149.522	-0.097	0.133
-418.471	349.727	-0.236	0.472
-417.457	271.422	0.069	0.123
-416.442	376.078	-0.142	0.292
-415.428	86.351	0.190	0.211
-414.413	-108.530	0.434	0.094
-413.398	-3.202	0.095	-0.067
-412.384	800.000	-0.023	-0.071
-411.369	-190.845	-0.126	0.001
-410.355	-181.246	0.080	0.002
-409.340	-200.000	0.021	0.108
-408.325	-79.780	0.049	-0.017
-407.311	-88.407	0.010	-0.003
-406.296	-116.369	0.204	-0.038
-405.282	84.501	-0.161	-0.178
-404.267	-200.000	-0.003	-0.190
-403.252	-200.000	-0.012	-0.095
-402.238	-200.000	0.011	0.175
-401.223	31.363	-0.273	0.237
-400.209	-150.537	0.183	-0.014
-399.194	19.813	0.226	0.184
-398.179	-154.007	-0.232	-0.016
-397.165	-200.000	0.022	-0.171
-396.150	333.004	0.165	0.322
-395.136	-44.294	-0.165	0.083
-394.121	800.000	0.007	-0.019
-393.106	800.000	-0.030	0.091
-392.092	-200.000	0.039	-0.268
-391.077	800.000	0.054	-0.220
-390.063	65.539	-0.161	0.165
-389.048	155.167	-0.149	0.207
-388.033	-48.149	0.250	0.122
-387.019	128.328	0.183	0.235
-386.004	-108.428	-0.066	0.014
-384.990	231.074	-0.229	0.378
-383.975	170.012	0.143	-0.206
-382.960	-191.780	0.178	-0.002
-381.946	800.000	0.069	-0.214
-380.931	-107.059	-0.254	0.057
-379.917	-200.000	-0.015	-0.377
-378.902	226.021	-0.065	0.107
-377.888	-200.000	0.010	-0.130
-376.873	58.388	0.059	-0.058
-375.858	800.000	-0.108	-0.311
-374.844	-200.000	-0.024	0.134
-373.829	-200.000	0.129	0.001
-372.815	127.998	0.105	-0.135
-371.800	566.673	0.152	-0.372
-370.785	-200.000	0.007	-0.069
-369.771	-167.790	-0.010	0.000
-368.756	153.328	0.162	-0.224
-367.742	-112.663	-0.298	0.060
-366.727	532.833	0.220	0.524
-365.712	32.319	0.210	0.183
-364.698	-21.846	-0.097	-0.060
-363.683	-43.661	-0.289	-0.147
-362.669	-200.000	-0.005	0.215
-361.654	41.776	-0.253	-0.231
-360.639	20.504	-0.288	0.235
-359.625	-55.278	-0.292	-0.132
-358.610	-53.363	-0.188	-0.087
-357.596	-107.824	0.128	0.028
-356.581	-200.000	-0.025	0.247
-355.566	-106.988	0.122	-0.027
-354.552	-200.000	-0.019	-0.259
-353.537	199.947	0.066	-0.103
-352.523	5.109	-0.407	0.302
-351.508	36.150	-0.031	-0.028
-350.493	66.277	-0.209	0.214
-349.479	-147.856	0.230	-0.019
-348.464	-56.712	-0.062	-0.028
-347.450	-118.802	-0.410	-0.073
-346.435	-21.450	0.093	-0.057
-345.420	-200.000	-0.054	-0.247
-344.406	266.665	-0.211	-0.372
-343.391	-75.713	0.049	0.018
-342.377	-116.249	-0.342	-0.064
-341.362	348.586	0.156	0.309
-340.348	-58.375	-0.189	0.083
-339.333	-52.741	-0.185	-0.086
-338.318	34.230	0.097	-0.085
-337.304	-189.242	-0.227	-0.003
-336.289	-18.579	-0.147	0.092
-335.275	-200.000	0.030	0.226
-334.260	-71.849	0.185	0.069
-333.245	-200.000	-0.001	0.355
-332.231	220.960	-0.027	0.044
-331.216	68.786	0.249	0.257
-330.202	157.462	-0.054	0.075
-329.187	-200.000	0.065	0.449
-328.172	74.686	-0.008	0.008
-327.158	-134.513	0.107	0.013
-326.143	149.658	-0.102	0.138
-325.129	-82.028	0.297	0.098
-324.114	467.789	0.119	0.269
-323.099	800.000	-0.047	-0.137
-322.085	-200.000	-0.035	0.311
-321.070	-35.483	-0.049	0.027
-320.056	800.000	0.110	0.375
-319.041	-30.140	0.067	0.038
-318.026	24.110	0.156	0.130
-317.012	800.000	-0.053	-0.171
-315.997	110.120	-0.075	0.091
-314.983	-200.000	0.008	0.171
-313.968	-200.000	-0.009	-0.072
-312.953	113.699	0.174	-0.213
-311.939	-25.713	0.176	-0.104
-310.924	43.536	-0.099	0.091
-309.910	-200.000	0.018	-0.169
-308.895	-76.718	0.327	0.115
-307.880	-65.080	-0.393	-0.159
-306.866	-200.000	-0.030	-0.136
-305.851	-200.000	0.026	-0.447
-304.837	-200.000	-0.061	-0.366
-303.822	527.815	-0.014	0.032
-302.807	-178.090	-0.204	0.005
-301.793	71.232	0.264	0.275
-300.778	-132.084	0.096	0.013
-299.764	-124.217	-0.275	0.043
-298.749	-120.798	-0.038	-0.006
-297.735	800.000	0.054	-0.155
-296.720	143.298	-0.058	-0.077
-295.705	259.002	-0.052	0.091
-294.691	-200.000	-0.018	0.110
-293.676	207.058	0.204	-0.320
-292.662	137.049	0.144	-0.189
-291.647	-46.359	0.228	-0.112
-290.632	286.237	-0.126	0.228
-289.618	37.269	0.197	0.175
-288.603	207.910	0.171	-0.269
-287.589	8.088	-0.372	0.281
-286.574	52.480	0.261	-0.250
-285.559	-200.000	-0.004	0.119
-284.545	176.222	-0.017	-0.025
-283.530	-82.568	0.142	-0.046
-282.516	-200.000	0.022	0.465
-281.501	81.385	0.137	-0.149
-280.486	-200.000	-0.016	-0.073
-279.472	97.148	0.152	-0.175
-278.457	192.294	0.052	-0.078
-277.443	221.279	0.106	-0.171
-276.428	-91.049	0.249	0.072
-275.413	-159.584	0.147	0.008
-274.399	-89.498	-0.289	-0.085
-273.384	-75.980	-0.228	-0.081
-272.370	-47.668	-0.139	-0.068
-271.355	-175.594	-0.283	-0.008
-270.340	360.813	0.037	-0.075
-269.326	-200.000	0.005	0.122
-268.311	259.473	0.065	0.113
-267.297	-200.000	-0.097	0.460
-266.282	320.366	-0.105	0.200
-265.267	-180.841	-0.255	-0.005
-264.253	-177.100	-0.374	-0.009
-263.238	18.811	0.051	-0.041
-262.224	-200.000	0.010	-0.367
-261.209	-47.477	0.075	0.037
-260.195	61.774	0.295	-0.295
-259.180	537.977	-0.014	-0.034
-258.165	-121.281	0.110	0.018
-257.151	-84.357	0.315	0.100
-256.136	55.812	-0.177	-0.172
-255.122	207.701	-0.102	-0.160
-254.107	116.115	-0.236	0.290
-253.092	-108.971	0.364	-0.078
-252.078	346.784	0.201	-0.397
-251.063	-36.228	0.244	0.132
-250.049	800.000	0.075	-0.235
-249.034	-134.736	-0.139	-0.017
-248.019	-200.000	0.006	0.062
-247.005	-200.000	0.008	-0.256
-245.990	800.000	0.101	0.402
-244.976	-38.467	0.404	-0.214
-243.961	-110.687	0.390	0.081
-242.946	-128.477	0.273	-0.039
-241.932	-200.000	0.017	0.100
-240.917	295.790	-0.137	-0.251
-239.903	-82.518	0.206	-0.067
-238.888	220.667	0.133	-0.214
-237.873	800.000	-0.034	0.139
-236.859	800.000	0.048	-0.210
-235.844	-71.117	-0.038	0.014
-234.830	18.812	-0.254	-0.204
-233.815	100.476	0.183	0.214
-232.800	73.782	-0.118	-0.124
-231.786	161.523	0.239	0.335
-230.771	-200.000	-0.030	-0.176
-229.757	347.382	0.060	-0.118
-228.742	800.000	-0.029	0.100
-227.727	119.034	-0.107	0.132
-226.713	-78.763	0.112	0.038
-225.698	25.989	-0.100	-0.083
-224.684	484.073	0.141	0.321
-223.669	304.359	0.158	0.294
-222.655	-81.743	-0.166	-0.054
-221.640	792.082	-0.077	0.213
-220.625	-120.840	-0.250	-0.042
-219.611	-23.956	0.120	-0.072
-218.596	310.752	0.112	-0.211
-217.582	392.629	-0.127	0.266
-216.567	410.969	0.154	0.328
-215.552	-13.084	0.188	0.123
-214.538	-25.976	-0.148	-0.088
-213.523	97.530	0.076	-0.087
-212.509	-76.456	-0.173	-0.061
-211.494	-148.303	0.405	-0.033
-210.479	-167.840	-0.169	0.007
-209.465	-200.000	0.016	-0.122
-208.450	-152.529	-0.126	-0.009
-207.436	332.761	0.026	0.051
-206.421	159.770	-0.122	-0.170
-205.406	800.000	0.049	0.155
-204.392	-31.134	0.129	-0.073
-203.377	-37.532	-0.034	0.018
-202.363	63.876	-0.084	-0.084
-201.348	-182.758	-0.248	-0.004
-200.333	84.918	0.177	-0.194
-199.319	461.549	0.107	-0.239
-198.304	17.616	-0.311	-0.248
-197.290	18.349	0.272	0.218
-196.275	-44.705	0.055	0.027
-195.260	-7.419	0.073	0.050
-194.246	-200.000	-0.034	-0.302
-193.231	175.702	0.066	-0.095
-192.217	-80.277	0.052	-0.018
-191.202	383.833	0.080	0.166
-190.187	703.329	0.092	0.242
-189.173	-21.707	0.207	0.126
-188.158	290.659	0.112	-0.204
-187.144	27.024	-0.183	-0.154
-186.129	800.000	-0.081	-0.248
-185.114	33.956	-0.148	-0.129
-184.100	288.018	-0.152	-0.275
-183.085	-5.608	-0.210	0.144
-182.071	-59.486	0.301	-0.129
-181.056	29.637	-0.101	-0.086
-180.042	-200.000	-0.032	0.241
-179.027	-8.006	-0.073	0.049
-178.012	-98.391	0.117	0.030
-176.998	-32.087	-0.083	-0.046
-175.983	-10.827	-0.236	0.156
-174.969	75.735	0.115	0.122
-173.954	300.363	-0.059	0.108
-172.939	249.233	0.098	-0.166
-171.925	-74.668	0.200	-0.072
-170.910	-108.213	0.099	0.021
-169.896	-102.778	0.271	0.065
-168.881	-135.183	-0.046	-0.006
-167.866	-56.236	-0.377	0.168
-166.852	657.107	-0.022	0.055
-165.837	-200.000	0.016	-0.088
-164.823	800.000	-0.076	0.303
-163.808	31.223	0.211	-0.181
-162.793	-31.246	-0.211	-0.119
-161.779	52.578	-0.160	-0.153
-160.764	-98.859	0.345	0.088
-159.750	34.653	-0.246	0.216
-158.735	381.787	-0.261	0.536
-157.720	-200.000	-0.007	-0.149
-156.706	-110.774	-0.274	-0.057
-155.691	64.501	-0.111	-0.112
-154.677	-153.353	0.344	-0.024
-153.662	-153.724	-0.484	-0.033
-152.647	800.000	-0.142	0.430
-151.633	384.905	0.159	-0.328
-150.618	268.324	0.133	0.234
-149.604	-75.104	-0.178	0.064
-148.589	426.550	0.023	0.051
-147.574	800.000	-0.081	-0.270
-146.560	-71.006	0.072	0.027
-145.545	-55.450	-0.139	0.062
-144.531	141.760	-0.158	0.209
-143.516	-200.000	0.000	0.107
-142.502	778.158	0.120	-0.327
-141.487	55.872	0.243	-0.235
-140.472	753.920	0.071	-0.192
-139.458	24.797	0.278	-0.230
-138.443	-107.146	-0.296	-0.065
-137.429	384.276	0.075	-0.155
-136.414	-69.414	0.372	0.143
-135.399	5.947	0.126	0.093
-134.385	80.290	-0.288	-0.309
-133.370	-31.447	-0.234	0.131
-132.356	-200.000	0.085	0.000
-131.341	-0.840	-0.395	-0.279
-130.326	507.653	-0.097	0.224
-129.312	36.128	-0.214	0.188
-128.297	55.395	0.108	0.105
-127.283	-200.000	-0.007	-0.250
-126.268	-54.888	0.303	-0.137
-125.253	800.000	-0.117	0.398
-124.239	205.984	-0.051	0.079
-123.224	84.054	0.266	0.290
-122.210	-7.026	-0.259	0.176
-121.195	-200.000	0.023	0.237
