DTS Sentinel unit serial number:	SN413079Multiplexer serial number:	ORYXHardware model number:	OX4-SRSoftware version number:	ORYX F/W v4.00 Oryx Data Collector v3.7.2.0data status	okinstallation	princeton_trtdifferential loss correction	single-endedforward channel	channel 1reverse channel	N/Adate	2019/09/15time	06:22:36forward acquisition time	60.00reverse acquisition time	0.00gamma	496.2192k internal	0.2325k external	0.2325temperature offset calibration	0.9992default loss term (dB/km)	0.3790temperature slope calibration	1.0000multiplexer offset coefficient	1.0000multiplexer slope coefficient	1.0000fibre end	0.00T internal ref (°C)	30.50T ext. ref 1 (°C)	4.84T ext. ref 2 (°C)	25.31length (m)	temperature (°C)	Stokes	anti-Stokes-747.200	-70.181	-0.287	-0.110
-746.185	-200.000	-0.029	0.254
-745.171	-73.055	-0.162	0.060
-744.156	153.820	0.091	0.125
-743.142	237.532	-0.185	0.309
-742.127	371.212	-0.139	0.285
-741.112	-142.750	-0.245	0.024
-740.098	-184.904	-0.348	-0.006
-739.083	-95.622	0.334	0.090
-738.069	800.000	-0.060	-0.196
-737.054	-131.905	-0.158	0.021
-736.039	79.805	0.081	0.088
-735.025	201.466	0.120	-0.187
-734.010	-20.379	-0.115	-0.071
-732.996	800.000	-0.037	0.115
-731.981	800.000	-0.018	0.078
-730.966	-66.250	0.096	0.039
-729.952	-172.991	0.141	-0.004
-728.937	-14.467	0.055	0.036
-727.923	-33.729	-0.247	0.137
-726.908	-60.605	-0.189	-0.081
-725.894	-39.378	-0.166	0.088
-724.879	-168.066	0.104	-0.004
-723.864	-10.586	0.160	-0.107
-722.850	800.000	0.042	-0.138
-721.835	81.500	-0.168	0.183
-720.821	-74.733	-0.277	0.101
-719.806	-111.889	-0.200	-0.041
-718.791	800.000	-0.008	-0.028
-717.777	97.033	-0.134	0.155
-716.762	-200.000	0.004	0.030
-715.748	-162.077	0.075	0.004
-714.733	-152.340	-0.146	-0.011
-713.718	78.152	0.078	0.084
-712.704	-200.000	0.016	0.182
-711.689	-142.697	-0.237	0.023
-710.675	-72.857	0.137	-0.051
-709.660	-2.439	-0.235	-0.166
-708.645	800.000	0.024	-0.095
-707.631	105.960	0.152	-0.182
-706.616	103.453	0.061	0.072
-705.602	73.025	0.075	-0.079
-704.587	-93.353	-0.112	-0.031
-703.572	-89.095	0.171	-0.051
-702.558	-86.798	0.072	0.022
-701.543	-75.973	-0.024	-0.009
-700.529	-200.000	0.020	-0.433
-699.514	-42.552	0.209	0.107
-698.499	116.756	-0.313	0.387
-697.485	34.985	-0.120	-0.106
-696.470	-81.582	-0.201	0.067
-695.456	-35.219	0.129	0.071
-694.441	-137.224	-0.248	0.028
-693.426	775.637	-0.088	0.241
-692.412	158.178	-0.200	0.279
-691.397	800.000	-0.053	0.165
-690.383	-25.128	0.065	-0.039
-689.368	-47.047	-0.115	-0.057
-688.354	122.197	-0.143	0.180
-687.339	-200.000	-0.055	-0.486
-686.324	339.326	0.041	0.080
-685.310	481.555	0.031	0.070
-684.295	195.215	0.117	-0.179
-683.281	-72.540	0.027	0.010
-682.266	-47.116	-0.244	-0.120
-681.251	449.559	0.057	-0.127
-680.237	800.000	-0.114	0.406
-679.222	-200.000	0.023	0.139
-678.208	-58.852	-0.220	-0.096
-677.193	-80.203	-0.086	0.029
-676.178	56.113	0.141	-0.138
-675.164	127.847	-0.202	-0.258
-674.149	-200.000	-0.043	-0.237
-673.135	61.789	-0.151	0.151
-672.120	-144.304	0.083	-0.008
-671.105	-45.011	0.267	-0.134
-670.091	313.328	-0.105	0.200
-669.076	800.000	-0.110	-0.464
-668.062	43.711	-0.186	0.171
-667.047	-106.689	-0.304	-0.068
-666.032	-57.148	0.183	-0.081
-665.018	-88.952	-0.232	-0.069
-664.003	56.719	0.093	0.091
-662.989	-60.480	0.265	-0.113
-661.974	800.000	-0.032	0.105
-660.959	323.801	-0.096	0.184
-659.945	55.100	-0.149	0.145
-658.930	215.788	0.078	-0.125
-657.916	58.522	-0.164	0.162
-656.901	-180.660	-0.133	-0.003
-655.886	479.398	-0.123	0.280
-654.872	-60.823	0.298	0.127
-653.857	79.892	0.168	-0.182
-652.843	113.482	-0.019	0.023
-651.828	216.429	-0.150	0.240
-650.814	-27.299	0.342	0.200
-649.799	49.560	0.164	-0.155
-648.784	26.588	-0.148	-0.124
-647.770	-92.718	0.161	-0.045
-646.755	-139.475	-0.412	0.044
-645.741	193.507	0.144	0.218
-644.726	50.634	-0.371	-0.353
-643.711	-169.338	0.483	0.018
-642.697	81.042	0.038	0.041
-641.682	-129.871	-0.130	0.018
-640.668	-60.067	0.092	0.039
-639.653	780.105	0.043	-0.118
-638.638	-172.284	0.127	0.004
-637.624	128.402	-0.148	0.189
-636.609	209.488	-0.112	-0.177
-635.595	-129.358	0.370	-0.052
-634.580	-144.745	-0.192	-0.018
-633.565	-39.228	-0.114	-0.060
-632.551	-21.151	0.055	0.034
-631.536	147.268	-0.023	0.031
-630.522	-200.000	-0.016	0.079
-629.507	-64.920	0.102	-0.041
-628.492	800.000	-0.123	0.383
-627.478	333.013	0.049	0.095
-626.463	466.253	0.093	0.208
-625.449	10.413	-0.316	0.242
-624.434	151.440	-0.231	0.316
-623.419	-52.884	0.209	0.097
-622.405	86.830	-0.025	0.028
-621.390	-200.000	0.038	-0.274
-620.376	135.592	-0.100	-0.130
-619.361	89.294	0.069	-0.077
-618.346	-161.875	-0.156	-0.008
-617.332	-183.110	0.162	0.003
-616.317	-47.480	0.248	0.121
-615.303	14.733	0.267	-0.210
-614.288	800.000	0.088	0.282
-613.273	4.274	-0.134	0.098
-612.259	-60.710	-0.300	-0.128
-611.244	-165.697	-0.077	-0.003
-610.230	-200.000	0.030	-0.288
-609.215	17.606	-0.140	-0.112
-608.201	-77.096	0.322	-0.113
-607.186	-125.830	-0.142	0.022
-606.171	6.642	-0.250	0.186
-605.157	800.000	-0.064	0.257
-604.142	-126.280	-0.324	0.049
-603.128	-47.180	-0.095	0.047
-602.113	-29.299	-0.116	-0.067
-601.098	17.134	0.136	-0.109
-600.084	768.231	-0.085	-0.231
-599.069	-102.830	-0.079	-0.019
-598.055	135.625	-0.149	0.194
-597.040	-30.866	-0.098	-0.056
-596.025	50.628	0.174	0.166
-595.011	-15.079	0.069	0.045
-593.996	295.067	-0.106	0.195
-592.982	-174.373	-0.260	-0.008
-591.967	-59.214	0.468	-0.202
-590.952	12.861	-0.102	0.079
-589.938	71.766	-0.084	-0.088
-588.923	-200.000	-0.038	-0.185
-587.909	-26.440	0.194	-0.114
-586.894	7.554	-0.243	-0.182
-585.879	292.680	-0.059	-0.107
-584.865	231.717	-0.141	-0.233
-583.850	241.418	0.072	-0.120
-582.836	-16.716	-0.079	-0.050
-581.821	-170.644	-0.156	0.005
-580.806	-200.000	-0.001	-0.107
-579.792	800.000	-0.076	-0.234
-578.777	-184.122	-0.210	-0.004
-577.763	8.702	-0.127	0.096
-576.748	42.242	-0.072	-0.065
-575.733	204.650	-0.263	0.409
-574.719	-60.768	-0.208	-0.088
-573.704	179.435	-0.156	0.229
-572.690	-79.984	0.397	0.134
-571.675	165.595	0.105	-0.150
-570.661	199.195	-0.125	0.193
-569.646	196.383	0.111	-0.170
-568.631	-32.983	0.213	0.118
-567.617	-111.467	-0.215	0.044
-566.602	92.569	0.251	-0.284
-565.588	-38.011	0.321	-0.171
-564.573	623.605	0.065	0.165
-563.558	-15.358	0.141	-0.090
-562.544	-94.700	-0.353	-0.096
-561.529	182.964	0.205	0.303
-560.515	132.632	0.098	-0.126
-559.500	-200.000	-0.408	0.002
-558.485	115.939	-0.126	0.154
-557.471	-200.000	-0.011	-0.232
-556.456	-97.919	0.338	-0.087
-555.442	-63.429	0.029	0.012
-554.427	-105.423	-0.057	-0.013
-553.412	-200.000	0.001	0.270
-552.398	-119.823	0.192	-0.033
-551.383	-76.304	-0.158	-0.056
-550.369	-33.121	-0.187	0.104
-549.354	73.591	0.153	0.161
-548.339	-36.793	-0.188	-0.101
-547.325	-171.053	-0.395	-0.013
-546.310	-105.503	0.028	-0.006
-545.296	138.883	0.262	-0.345
-544.281	105.927	-0.134	0.159
-543.266	49.241	0.271	0.255
-542.252	800.000	-0.092	-0.290
-541.237	121.135	-0.164	-0.205
-540.223	40.259	-0.214	0.193
-539.208	-92.725	0.214	0.060
-538.193	48.411	0.047	0.044
-537.179	-26.566	0.251	-0.147
-536.164	-123.969	-0.177	-0.028
-535.150	800.000	-0.042	-0.169
-534.135	-44.097	0.128	0.064
-533.121	-108.156	-0.281	0.061
-532.106	-200.000	-0.490	0.000
-531.091	187.604	-0.030	0.045
-530.077	-63.910	0.490	-0.201
-529.062	653.114	-0.044	0.112
-528.048	-89.585	0.255	-0.075
-527.033	-200.000	0.013	0.072
-526.018	-77.233	0.201	0.070
-525.004	-200.000	-0.063	0.280
-523.989	-31.119	0.151	-0.085
-522.975	169.373	0.086	-0.124
-521.960	-200.000	-0.014	0.085
-520.945	-200.000	-0.001	-0.055
-519.931	223.144	-0.172	0.278
-518.916	-48.541	0.137	0.066
-517.902	-200.000	0.016	0.441
-516.887	-200.000	-0.024	0.254
-515.872	-147.088	-0.345	-0.029
-514.858	456.038	-0.105	0.233
-513.843	209.898	-0.155	-0.243
-512.829	-164.424	0.158	0.007
-511.814	-200.000	-0.002	-0.152
-510.799	94.651	-0.057	0.064
-509.785	-59.258	0.131	0.056
-508.770	-200.000	0.009	-0.180
-507.756	22.200	-0.263	-0.215
-506.741	40.528	-0.101	0.091
-505.726	702.202	0.174	-0.459
-504.712	188.543	-0.253	0.378
-503.697	76.803	-0.197	0.209
-502.683	108.654	0.027	-0.033
-501.668	-108.152	0.333	0.072
-500.653	58.765	0.202	-0.199
-499.639	800.000	-0.032	-0.138
-498.624	-112.966	-0.361	-0.071
-497.610	-200.000	0.000	0.144
-496.595	-117.831	-0.226	0.041
-495.581	-140.850	-0.129	0.013
-494.566	-200.000	-0.004	0.418
-493.551	221.266	-0.131	0.211
-492.537	-90.401	0.383	0.111
-491.522	-93.124	0.311	-0.087
-490.508	800.000	-0.082	-0.335
-489.493	-60.814	0.034	-0.014
-488.478	-2.298	-0.180	-0.126
-487.464	533.227	0.074	0.174
-486.449	779.414	0.070	0.192
-485.435	-77.165	-0.100	0.035
-484.420	18.900	-0.234	-0.187
-483.405	228.529	-0.072	-0.117
-482.391	-200.000	0.003	-0.092
-481.376	800.000	-0.072	-0.253
-480.362	-200.000	-0.002	0.046
-479.347	-83.269	0.297	-0.095
-478.332	124.440	0.059	0.074
-477.318	-13.875	-0.230	-0.148
-476.303	15.951	-0.129	0.101
-475.289	-154.297	-0.189	-0.013
-474.274	4.821	-0.143	-0.105
-473.259	58.090	-0.124	0.121
-472.245	15.104	0.090	0.071
-471.230	800.000	0.097	0.292
-470.216	800.000	-0.064	-0.199
-469.201	184.557	0.196	0.290
-468.186	-200.000	0.011	0.287
-467.172	-200.000	-0.018	0.182
-466.157	132.376	0.182	0.234
-465.143	-149.007	-0.202	0.016
-464.128	76.445	-0.119	0.126
-463.113	-146.888	0.324	0.028
-462.099	360.842	0.031	-0.062
-461.084	328.829	-0.046	-0.089
-460.070	-189.216	0.382	0.005
-459.055	-200.000	-0.001	-0.361
-458.040	800.000	-0.067	0.189
-457.026	-119.934	-0.181	-0.031
-456.011	-128.529	-0.101	0.014
-454.997	-62.312	0.223	0.093
-453.982	-75.559	0.324	-0.115
-452.968	-73.833	-0.154	-0.056
-451.953	-200.000	-0.024	0.263
-450.938	25.373	-0.091	0.075
-449.924	-200.000	-0.053	0.266
-448.909	-115.829	0.248	0.046
-447.895	-49.052	0.190	-0.091
-446.880	123.284	-0.139	-0.174
-445.865	-55.073	-0.201	0.090
-444.851	-200.000	-0.072	-0.327
-443.836	-100.602	-0.297	0.073
-442.822	-144.591	0.107	-0.010
-441.807	-94.558	0.156	0.042
-440.792	800.000	-0.091	0.372
-439.778	-200.000	0.024	0.127
-438.763	-109.419	-0.128	-0.027
-437.749	-200.000	-0.021	-0.312
-436.734	800.000	-0.084	0.235
-435.719	-200.000	0.009	-0.143
-434.705	154.889	0.198	0.271
-433.690	-83.520	0.282	0.090
-432.676	-199.828	-0.248	0.001
-431.661	631.521	-0.037	0.094
-430.646	-18.054	0.283	0.177
-429.632	-117.726	0.131	-0.024
-428.617	-44.020	-0.102	0.051
-427.603	-154.921	0.223	-0.015
-426.588	800.000	0.114	0.396
-425.573	-92.725	-0.205	0.057
-424.559	-120.953	-0.238	0.040
-423.544	-174.116	0.589	0.017
-422.530	800.000	-0.028	-0.097
-421.515	-40.101	-0.161	-0.084
-420.500	183.021	0.107	0.157
-419.486	-34.534	0.203	0.111
-418.471	-200.000	0.015	0.120
-417.457	10.789	-0.190	-0.144
-416.442	-45.860	0.097	0.048
-415.428	-139.793	0.131	-0.014
-414.413	800.000	-0.050	0.163
-413.398	-41.360	0.436	-0.224
-412.384	-96.760	0.094	0.025
-411.369	-200.000	-0.036	0.247
-410.355	-200.000	0.040	0.194
-409.340	-47.867	-0.294	0.142
-408.325	-200.000	-0.013	-0.103
-407.311	-200.000	-0.018	-0.352
-406.296	-116.917	0.150	-0.027
-405.282	257.379	0.090	0.154
-404.267	-23.832	-0.198	-0.118
-403.252	-200.000	-0.002	0.156
-402.238	-107.393	-0.190	0.042
-401.223	-84.747	0.373	-0.117
-400.209	-200.000	0.029	-0.133
-399.194	-200.000	-0.006	0.036
-398.179	-0.701	0.228	0.161
-397.165	-128.279	0.263	-0.037
-396.150	1.526	0.263	-0.188
-395.136	-50.195	-0.221	-0.104
-394.121	13.017	-0.071	-0.055
-393.106	-200.000	0.017	-0.125
-392.092	219.268	-0.150	-0.239
-391.077	-52.448	-0.188	-0.086
-390.063	-5.226	-0.066	-0.045
-389.048	104.361	0.298	0.349
-388.033	-200.000	0.104	-0.521
-387.019	800.000	0.025	-0.079
-386.004	516.970	-0.123	0.286
-384.990	-200.000	-0.002	-0.080
-383.975	-200.000	0.010	0.320
-382.960	-118.848	0.139	-0.024
-381.946	-54.936	0.206	0.092
-380.931	-200.000	0.035	-0.317
-379.917	800.000	-0.049	0.201
-378.902	-12.693	-0.142	0.092
-377.888	-150.919	0.163	-0.012
-376.873	-2.916	-0.185	-0.128
-375.858	-144.521	-0.044	0.004
-374.844	-25.719	0.151	0.089
-373.829	800.000	-0.083	0.259
-372.815	46.268	0.099	0.091
-371.800	507.457	-0.055	0.126
-370.785	151.496	0.043	0.058
-369.771	-42.301	-0.286	0.145
-368.756	-133.420	0.253	0.032
-367.742	-131.699	-0.092	-0.012
-366.727	504.069	-0.211	-0.485
-365.712	-37.855	0.179	0.095
-364.698	-200.000	0.011	0.080
-363.683	-200.000	-0.069	0.439
-362.669	81.203	0.106	0.114
-361.654	76.635	0.177	0.187
-360.639	116.776	0.058	-0.071
-359.625	399.374	-0.080	-0.166
-358.610	526.789	-0.106	-0.248
-357.596	106.912	0.168	-0.198
-356.581	158.012	0.209	0.288
-355.566	-120.321	0.202	-0.034
-354.552	239.305	-0.066	0.110
-353.537	38.626	0.166	-0.147
-352.523	593.436	-0.039	-0.095
-351.508	-200.000	0.012	-0.089
-350.493	800.000	0.042	0.145
-349.479	167.209	0.096	-0.135
-348.464	-132.997	-0.162	-0.020
-347.450	19.703	0.073	-0.059
-346.435	-83.935	0.113	0.036
-345.420	-58.621	0.334	-0.144
-344.406	405.862	-0.062	0.130
-343.391	-58.243	0.194	-0.084
-342.377	-33.700	-0.097	0.053
-341.362	-200.000	-0.038	-0.202
-340.348	6.695	0.100	0.074
-339.333	800.000	-0.055	0.204
-338.318	40.422	0.111	-0.100
-337.304	800.000	0.078	-0.220
-336.289	269.485	-0.032	0.056
-335.275	-74.841	-0.209	0.075
-334.260	-60.438	0.269	-0.113
-333.245	-67.128	0.144	0.056
-332.231	-200.000	0.051	-0.414
-331.216	-44.291	-0.122	0.061
-330.202	2.249	0.109	-0.078
-329.187	-162.603	0.345	-0.017
-328.172	-184.740	-0.117	0.002
-327.158	-29.552	-0.182	-0.104
-326.143	800.000	0.078	0.338
-325.129	236.228	-0.170	-0.279
-324.114	-200.000	-0.046	-0.359
-323.099	-54.134	0.070	0.031
-322.085	-80.044	-0.093	-0.031
-321.070	-60.559	0.072	0.030
-320.056	-44.982	-0.283	-0.140
-319.041	104.587	0.047	0.054
-318.026	90.192	0.098	0.109
-317.012	-50.592	-0.303	-0.142
-315.997	758.345	-0.084	0.226
-314.983	-82.436	-0.188	-0.061
-313.968	-200.000	-0.038	0.171
-312.953	-27.262	-0.229	-0.132
-311.939	-68.056	0.079	0.031
-310.924	800.000	0.009	0.029
-309.910	129.973	-0.097	0.123
-308.895	62.345	0.078	0.077
-307.880	-48.194	-0.046	0.022
-306.866	-110.172	0.284	-0.059
-305.851	27.426	0.207	0.173
-304.837	401.012	0.049	-0.101
-303.822	800.000	0.011	-0.035
-302.807	32.583	0.060	-0.052
-301.793	-200.000	0.023	-0.239
-300.778	-64.314	0.300	0.121
-299.764	-200.000	-0.032	-0.152
-298.749	-181.449	-0.385	0.007
-297.735	492.703	-0.127	0.289
-296.720	-58.054	-0.125	0.054
-295.705	37.212	-0.193	-0.170
-294.691	617.678	-0.122	-0.304
-293.676	487.503	-0.045	0.101
-292.662	113.629	-0.132	-0.159
-291.647	80.806	0.233	0.249
-290.632	-77.912	-0.083	0.028
-289.618	-152.784	-0.166	0.012
-288.603	-200.000	-0.032	-0.157
-287.589	-200.000	0.005	0.051
-286.574	724.061	0.128	0.337
-285.559	-0.517	-0.202	0.142
-284.545	220.711	0.135	-0.215
-283.530	-133.840	-0.227	0.028
-282.516	800.000	0.066	0.261
-281.501	-200.000	0.019	0.219
-280.486	-80.359	0.201	0.066
-279.472	-105.208	0.257	-0.058
-278.457	61.434	0.129	-0.128
-277.443	327.435	-0.125	0.238
-276.428	-111.555	0.417	0.084
-275.413	-148.328	0.478	0.039
-274.399	365.733	-0.072	-0.144
-273.384	-75.948	0.375	-0.131
-272.370	180.895	-0.159	-0.231
-271.355	6.109	-0.174	-0.127
-270.340	-127.659	-0.141	0.020
-269.326	-200.000	-0.053	-0.259
-268.311	-150.204	0.208	-0.016
-267.297	800.000	0.035	0.117
-266.282	-200.000	-0.017	0.194
-265.267	-6.020	0.328	-0.222
-264.253	299.087	-0.150	-0.273
-263.238	-89.881	0.193	0.056
-262.224	-116.772	-0.192	0.035
-261.209	213.317	-0.097	-0.152
-260.195	-200.000	0.002	-0.050
-259.180	-200.000	0.028	-0.153
-258.165	66.138	-0.378	0.379
-257.151	-158.474	0.100	0.006
-256.136	-121.995	-0.319	0.052
-255.122	-200.000	0.007	-0.162
-254.107	373.383	0.086	-0.173
-253.092	197.817	-0.057	-0.086
-252.078	-34.499	0.377	-0.204
-251.063	-200.000	-0.037	-0.186
-250.049	-127.785	-0.109	-0.016
-249.034	349.025	-0.134	-0.261
-248.019	19.824	0.266	0.212
-247.005	-110.496	0.180	-0.037
-245.990	55.686	0.082	-0.079
-244.976	-21.563	-0.171	-0.103
-243.961	-156.396	0.263	-0.016
-242.946	-124.134	-0.320	0.050
-241.932	126.167	0.312	-0.390
-240.917	603.321	0.183	0.450
-239.903	67.158	-0.098	0.099
-238.888	-74.632	0.268	-0.095
-237.873	800.000	0.118	0.332
-236.859	-33.724	0.057	-0.031
-235.844	-58.502	0.138	-0.059
-234.830	160.784	-0.145	0.200
-233.815	70.163	0.201	0.205
-232.800	-26.906	-0.264	-0.153
-231.786	-128.698	-0.164	0.023
-230.771	-119.412	0.312	-0.054
-229.757	-59.543	0.111	-0.047
-228.742	-49.633	-0.215	-0.101
-227.727	-36.617	0.228	-0.121
-226.713	-200.000	-0.010	-0.171
-225.698	-200.000	0.029	0.136
-224.684	-19.845	0.090	-0.055
-223.669	-38.717	-0.332	-0.173
-222.655	800.000	0.116	-0.319
-221.640	-200.000	-0.003	-0.355
-220.625	50.749	-0.013	0.012
-219.611	35.822	0.304	0.265
-218.596	82.950	-0.105	-0.113
-217.582	34.699	-0.290	-0.250
-216.567	37.669	0.217	-0.191
-215.552	-130.341	0.245	0.033
-214.538	174.487	-0.109	0.156
-213.523	-114.597	-0.436	0.083
-212.509	-153.637	-0.149	0.010
-211.494	-110.354	0.301	0.062
-210.479	126.272	0.133	0.166
-209.465	-34.075	-0.218	0.118
-208.450	-27.035	0.099	0.057
-207.436	800.000	0.122	0.388
-206.421	-131.137	-0.190	0.025
-205.406	-35.455	0.045	0.024
-204.392	-128.955	-0.174	-0.024
-203.377	800.000	0.013	-0.048
-202.363	60.038	-0.268	-0.261
-201.348	146.065	0.152	-0.201
-200.333	74.713	-0.087	0.091
-199.319	262.986	0.055	0.094
-198.304	-200.000	-0.012	0.087
-197.290	35.661	0.132	-0.115
-196.275	261.340	0.056	-0.096
-195.260	800.000	-0.059	-0.177
-194.246	800.000	0.024	0.076
-193.231	-42.797	-0.266	0.134
-192.217	-200.000	-0.033	-0.318
-191.202	89.717	-0.219	-0.241
-190.187	107.207	-0.116	0.137
-189.173	0.072	-0.098	-0.069
-188.158	-200.000	0.295	-0.001
-187.144	-135.003	-0.333	-0.040
-186.129	175.150	-0.213	0.305
-185.114	-51.698	-0.186	0.086
-184.100	-200.000	0.067	0.354
-183.085	55.055	0.131	-0.125
-182.071	-146.795	-0.132	-0.011
-181.056	282.702	0.205	0.364
-180.042	89.420	0.365	-0.402
-179.027	150.371	-0.097	-0.130
-178.012	-77.071	0.170	-0.059
-176.998	-62.892	0.043	0.018
-175.983	-130.517	-0.100	-0.013
-174.969	-62.834	0.154	-0.063
-173.954	-25.427	0.070	-0.041
-172.939	555.133	-0.216	-0.514
-171.925	261.256	0.192	-0.328
-170.910	476.684	-0.160	0.357
-169.896	54.777	-0.318	-0.303
-168.881	800.000	-0.092	0.258
-167.866	-42.370	0.132	-0.066
-166.852	549.590	0.104	-0.247
-165.837	-200.000	-0.017	0.154
-164.823	-200.000	0.051	0.367
-163.808	-9.141	-0.217	-0.143
-162.793	800.000	-0.013	-0.039
-161.779	-200.000	-0.030	0.301
-160.764	319.711	-0.039	-0.073
-159.750	-41.830	-0.200	-0.101
-158.735	-191.864	-0.209	-0.002
-157.720	598.945	0.087	0.214
-156.706	-59.867	-0.200	0.085
-155.691	278.435	0.066	-0.115
-154.677	-171.635	-0.166	0.005
-153.662	800.000	-0.058	-0.179
-152.647	-157.548	-0.144	0.009
-151.633	16.279	0.087	-0.068
-150.618	311.091	-0.023	0.043
-149.604	-40.901	-0.110	-0.056
-148.589	111.731	0.117	0.139
-147.574	-148.641	-0.541	0.043
-146.560	91.372	0.228	0.253
-145.545	-28.706	-0.196	-0.111
-144.531	-93.318	-0.170	0.047
-143.516	-37.864	-0.125	0.066
-142.502	800.000	-0.061	0.169
-141.487	-76.349	-0.273	0.095
-140.472	-53.211	-0.484	0.219
-139.458	-110.858	0.107	-0.022
-138.443	-146.999	0.148	0.013
-137.429	-133.623	0.387	-0.048
-136.414	131.411	-0.069	-0.087
-135.399	-200.000	0.004	-0.230
-134.385	-120.613	0.250	-0.042
-133.370	394.823	0.151	0.310
-132.356	-120.583	0.231	0.038
-131.341	800.000	-0.044	-0.151
-130.326	367.391	-0.040	0.079
-129.312	-14.122	0.094	0.060
-128.297	-32.576	0.109	-0.060
-127.283	34.821	0.110	-0.095
-126.268	14.964	0.226	0.174
-125.253	8.444	0.067	-0.050
-124.239	-133.508	0.488	-0.060
-123.224	255.945	-0.117	-0.197
-122.210	-81.746	0.272	0.088
