DTS Sentinel unit serial number:	SN413079Multiplexer serial number:	ORYXHardware model number:	OX4-SRSoftware version number:	ORYX F/W v4.00 Oryx Data Collector v3.7.2.0data status	okinstallation	princeton_trtdifferential loss correction	single-endedforward channel	channel 1reverse channel	N/Adate	2019/09/12time	18:12:34forward acquisition time	15.00reverse acquisition time	0.00gamma	496.2192k internal	0.2317k external	0.2317temperature offset calibration	1.0111default loss term (dB/km)	0.3790temperature slope calibration	1.0000multiplexer offset coefficient	1.0000multiplexer slope coefficient	1.0000fibre end	0.00T internal ref (°C)	33.56T ext. ref 1 (°C)	2.97T ext. ref 2 (°C)	28.15length (m)	temperature (°C)	Stokes	anti-Stokes-747.200	322.905	-0.387	0.746
-746.185	245.358	0.229	-0.390
-745.171	48.498	-0.490	0.465
-744.156	112.808	-0.246	0.302
-743.142	128.203	0.108	-0.139
-742.127	-200.000	-0.072	-0.496
-741.112	-200.000	0.814	0.001
-740.098	259.713	0.131	-0.228
-739.083	-200.000	-0.035	-0.275
-738.069	-73.666	0.229	0.084
-737.054	380.830	0.180	0.374
-736.039	-200.000	-0.027	0.283
-735.025	710.468	-0.328	-0.879
-734.010	122.072	0.624	-0.789
-732.996	-200.000	-0.033	0.375
-731.981	-142.316	-0.513	-0.051
-730.966	20.715	0.354	0.290
-729.952	800.000	-0.233	0.813
-728.937	210.557	0.219	0.348
-727.923	-26.422	0.348	-0.206
-726.908	-200.000	-0.071	1.092
-725.894	-172.211	-0.305	0.010
-724.879	-200.000	0.007	-0.431
-723.864	7.196	-0.473	0.357
-722.850	-85.877	-0.361	0.113
-721.835	-32.855	0.409	-0.230
-720.821	662.319	0.230	-0.599
-719.806	-200.000	-0.142	0.938
-718.791	292.887	-0.521	-0.961
-717.777	-200.000	-0.016	-1.591
-716.762	-15.656	-0.487	0.314
-715.748	-200.000	0.037	-0.485
-714.733	-79.637	0.181	-0.062
-713.718	-19.365	0.521	-0.327
-712.704	-68.973	0.070	0.027
-711.689	114.392	-0.562	-0.692
-710.675	126.285	0.235	0.301
-709.660	-165.424	-0.795	0.035
-708.645	397.901	0.165	-0.350
-707.631	-200.000	0.070	0.360
-706.616	528.863	0.113	-0.269
-705.602	-49.124	-0.223	-0.108
-704.587	800.000	0.234	-0.669
-703.572	210.567	-0.268	-0.426
-702.558	-51.498	-0.625	0.295
-701.543	-35.725	-0.406	-0.222
-700.529	30.026	0.547	0.472
-699.514	45.305	-0.418	0.389
-698.499	-200.000	0.022	0.514
-697.485	301.794	-0.306	0.571
-696.470	-143.085	-0.643	0.063
-695.456	6.504	-0.669	-0.502
-694.441	-167.823	-0.576	0.023
-693.426	-28.430	0.370	-0.215
-692.412	165.568	-0.165	0.236
-691.397	-110.631	0.164	0.034
-690.383	-19.639	0.163	0.102
-689.368	-105.270	0.261	-0.060
-688.354	-45.846	-0.809	0.403
-687.339	625.430	0.248	0.631
-686.324	251.958	-0.237	-0.407
-685.310	78.297	0.225	0.242
-684.295	800.000	0.162	-0.457
-683.281	83.637	-0.437	0.481
-682.266	-151.851	-0.734	0.054
-681.251	15.484	-0.628	-0.498
-680.237	-92.503	-0.535	0.152
-679.222	-200.000	0.017	-0.329
-678.208	-57.355	0.632	0.281
-677.193	144.085	-0.549	0.740
-676.178	-99.259	-0.699	0.178
-675.164	369.128	0.079	-0.161
-674.149	-71.997	-0.478	0.179
-673.135	1.527	-0.273	0.199
-672.120	402.482	-0.374	-0.793
-671.105	-200.000	0.014	-0.791
-670.091	-75.045	0.487	-0.176
-669.076	-200.000	0.077	0.530
-668.062	-128.878	-0.904	-0.128
-667.047	25.667	-0.624	0.524
-666.032	-200.000	0.162	0.781
-665.018	-132.101	-0.356	0.047
-664.003	32.418	0.646	-0.563
-662.989	-13.014	-0.382	-0.251
-661.974	-44.708	-0.489	0.246
-660.959	-200.000	0.057	0.593
-659.945	-114.524	-0.229	-0.044
-658.930	-66.546	0.598	-0.240
-657.916	133.818	-0.078	0.102
-656.901	-111.554	0.196	-0.040
-655.886	698.706	0.156	-0.413
-654.872	6.538	-0.590	-0.442
-653.857	-200.000	-0.032	-0.215
-652.843	-155.820	-0.411	0.026
-651.828	-5.126	0.296	0.205
-650.814	-200.000	0.078	-0.451
-649.799	-200.000	0.081	1.083
-648.784	311.396	0.348	-0.659
-647.770	28.207	0.358	0.305
-646.755	-105.926	-0.576	0.131
-645.741	-200.000	-0.050	0.418
-644.726	120.894	0.216	-0.271
-643.711	800.000	0.341	-1.038
-642.697	-200.000	0.041	0.434
-641.682	-43.444	-0.320	0.163
-640.668	-200.000	-0.011	0.275
-639.653	-149.627	-0.254	0.020
-638.638	33.978	0.036	0.032
-637.624	110.062	0.349	0.422
-636.609	-99.853	-0.345	-0.087
-635.595	120.314	-0.389	0.487
-634.580	-67.072	0.621	-0.247
-633.565	800.000	0.130	0.458
-632.551	-30.016	0.828	-0.475
-631.536	121.591	0.979	1.230
-630.522	-19.203	-0.185	-0.116
-629.507	136.953	0.429	-0.565
-628.492	-58.582	-1.100	-0.481
-627.478	765.772	-0.146	-0.399
-626.463	-200.000	-0.001	0.019
-625.449	-188.146	-0.346	0.004
-624.434	-200.000	-0.077	0.589
-623.419	49.020	0.208	0.197
-622.405	-200.000	-0.044	-0.216
-621.390	-67.395	0.583	-0.231
-620.376	-200.000	0.022	-0.937
-619.361	-78.986	1.084	-0.371
-618.346	106.410	-0.210	-0.251
-617.332	192.903	0.530	0.807
-616.317	275.872	0.503	-0.900
-615.303	-101.663	-0.501	-0.123
-614.288	49.881	0.293	0.278
-613.273	-25.906	0.147	0.087
-612.259	-200.000	0.021	0.265
-611.244	-200.000	-0.096	0.468
-610.230	-200.000	-0.085	-0.536
-609.215	554.441	0.182	0.442
-608.201	-200.000	-0.050	-0.834
-607.186	-171.588	0.990	0.033
-606.171	800.000	-0.274	-0.978
-605.157	-200.000	-0.023	-0.326
-604.142	-200.000	-0.009	-0.049
-603.128	37.947	0.411	-0.368
-602.113	-50.041	-0.190	0.091
-601.098	-20.242	0.303	-0.188
-600.084	-200.000	-0.054	-0.552
-599.069	-97.708	-0.173	0.045
-598.055	66.268	-0.431	0.440
-597.040	-71.188	-0.420	-0.159
-596.025	-200.000	0.051	0.656
-595.011	800.000	-0.316	0.911
-593.996	32.715	-0.598	-0.521
-592.982	-31.001	-0.674	0.383
-591.967	74.408	-0.318	0.336
-590.952	108.018	0.103	-0.123
-589.938	-125.372	0.863	0.133
-588.923	387.508	-0.198	-0.411
-587.909	-77.927	-0.358	0.124
-586.894	104.749	-0.412	-0.488
-585.879	-75.381	-0.448	-0.161
-584.865	-200.000	0.108	0.679
-583.850	65.830	-0.479	0.489
-582.836	-7.019	1.249	-0.853
-581.821	-131.444	0.753	-0.100
-580.806	224.643	-0.151	-0.245
-579.792	-200.000	0.185	1.171
-578.777	800.000	-0.031	0.122
-577.763	565.577	-0.134	-0.327
-576.748	-167.172	-0.598	-0.024
-575.733	-58.014	0.527	0.232
-574.719	-136.451	-0.331	0.039
-573.704	271.025	-0.139	0.246
-572.690	-66.791	-0.412	-0.164
-571.675	-163.971	-0.568	-0.027
-570.661	-200.000	0.058	0.478
-569.646	-200.000	0.021	0.240
-568.631	-200.000	-0.061	0.908
-567.617	-49.991	-0.298	-0.142
-566.602	-60.766	0.174	0.074
-565.588	-112.121	-1.029	0.208
-564.573	-110.224	0.275	-0.058
-563.558	-70.192	-0.612	-0.234
-562.544	800.000	-0.090	-0.287
-561.529	-134.394	-0.599	0.074
-560.515	-65.587	0.348	0.140
-559.500	106.940	0.400	-0.477
-558.485	91.157	-0.381	-0.429
-557.471	800.000	0.159	-0.515
-556.456	588.363	0.205	0.508
-555.442	800.000	-0.213	-0.721
-554.427	-200.000	0.024	0.238
-553.412	-71.510	0.159	0.060
-552.398	550.120	0.222	0.534
-551.383	-200.000	-0.066	0.310
-550.369	132.663	-0.221	0.286
-549.354	2.187	-0.068	0.050
-548.339	-200.000	0.028	-0.185
-547.325	-200.000	-0.051	1.516
-546.310	-200.000	0.000	0.691
-545.296	-28.170	0.338	0.196
-544.281	96.561	-0.113	-0.130
-543.266	-86.886	0.353	0.108
-542.252	-200.000	0.058	0.687
-541.237	-48.893	-0.207	0.100
-540.223	3.546	0.395	0.289
-539.208	200.153	0.116	-0.179
-538.193	-200.000	-0.025	-0.310
-537.179	-6.984	-0.388	-0.265
-536.164	-168.358	0.113	0.004
-535.150	-19.142	0.416	0.260
-534.135	13.744	0.475	-0.371
-533.121	209.926	0.495	0.779
-532.106	49.862	0.669	0.633
-531.091	-200.000	0.133	-0.989
-530.077	232.032	-0.222	0.365
-529.062	-53.363	-0.379	0.174
-528.048	99.671	0.344	0.400
-527.033	-200.000	0.110	-0.558
-526.018	-52.154	0.612	-0.285
-525.004	-61.846	1.194	-0.502
-523.989	-48.375	-0.437	0.211
-522.975	-200.000	0.006	0.374
-521.960	800.000	0.214	0.662
-520.945	495.177	0.401	-0.925
-519.931	73.525	-0.808	0.849
-518.916	-74.880	0.702	-0.253
-517.902	-22.549	0.648	0.393
-516.887	706.656	-0.322	0.852
-515.872	38.382	-0.672	0.601
-514.858	-95.821	-1.005	-0.269
-513.843	-200.000	-0.023	-0.154
-512.829	332.173	-0.397	0.768
-511.814	-116.202	-0.082	0.015
-510.799	-91.306	-0.227	-0.065
-509.785	800.000	-0.079	-0.225
-508.770	-12.361	-0.450	0.295
-507.756	357.152	0.340	0.681
-506.741	-200.000	0.032	0.222
-505.726	-163.169	-0.751	0.036
-504.712	-148.737	0.475	-0.039
-503.697	-116.049	0.162	0.030
-502.683	58.452	0.311	-0.306
-501.668	41.553	0.502	0.456
-500.653	-200.000	-0.005	1.059
-499.639	100.461	0.293	-0.341
-498.624	-200.000	-0.073	0.392
-497.610	-9.532	0.385	0.258
-496.595	80.961	0.461	0.499
-495.581	-165.877	-0.619	-0.027
-494.566	-200.000	-0.126	-0.922
-493.551	-200.000	0.013	0.086
-492.537	-131.183	0.428	-0.057
-491.522	-56.726	0.488	-0.216
-490.508	195.595	-0.206	0.314
-489.493	-2.193	-0.524	-0.369
-488.478	473.324	-0.462	1.044
-487.464	-88.325	-0.900	0.270
-486.449	-145.899	0.529	0.047
-485.435	80.135	0.621	-0.669
-484.420	-49.220	-0.921	0.441
-483.405	51.958	-0.641	0.612
-482.391	436.568	-0.136	-0.296
-481.376	165.536	-0.090	0.127
-480.362	800.000	-0.266	0.871
-479.347	-99.251	0.603	-0.152
-478.332	-99.045	-0.849	0.216
-477.318	-200.000	0.085	0.696
-476.303	800.000	0.055	0.166
-475.289	178.066	0.152	0.222
-474.274	-12.761	-0.513	-0.335
-473.259	800.000	-0.153	0.553
-472.245	428.464	-0.238	0.514
-471.230	58.507	0.320	-0.315
-470.216	-21.406	0.200	-0.122
-469.201	128.895	-0.450	-0.575
-468.186	32.661	0.612	0.530
-467.172	-41.350	0.463	-0.239
-466.157	-74.956	-1.124	0.403
-465.143	-114.240	-0.545	0.105
-464.128	51.205	0.273	0.259
-463.113	148.660	0.418	-0.566
-462.099	-102.639	0.511	0.122
-461.084	367.608	-0.110	-0.223
-460.070	302.968	0.334	0.619
-459.055	-44.748	0.270	0.135
-458.040	800.000	0.129	-0.394
-457.026	228.511	-0.091	0.149
-456.011	66.045	-0.499	0.507
-454.997	-106.696	1.114	-0.248
-453.982	3.388	-0.648	0.473
-452.968	-200.000	-0.026	-0.751
-451.953	800.000	0.029	-0.083
-450.938	61.527	-0.282	0.281
-449.924	-87.465	0.688	-0.208
-448.909	361.573	0.251	-0.504
-447.895	-124.993	0.068	-0.010
-446.880	-82.320	-0.338	-0.110
-445.865	-200.000	0.750	0.003
-444.851	-106.470	-0.308	0.069
-443.836	237.164	0.328	-0.544
-442.822	65.150	-0.228	0.231
-441.807	197.530	-0.559	0.854
-440.792	-200.000	-0.103	-0.906
-439.778	262.464	0.147	-0.255
-438.763	-200.000	-0.091	-0.539
-437.749	-200.000	0.006	-0.183
-436.734	800.000	0.216	-0.632
-435.719	8.858	-0.672	-0.507
-434.705	115.422	0.272	-0.333
-433.690	112.685	-0.309	-0.374
-432.676	-69.028	-0.616	0.237
-431.661	-103.789	0.572	-0.134
-430.646	-200.000	-0.221	0.994
-429.632	50.770	-0.233	-0.220
-428.617	-57.944	-0.338	-0.148
-427.603	8.632	-0.079	0.059
-426.588	237.805	0.019	-0.031
-425.573	-128.118	0.472	-0.068
-424.559	-8.360	0.662	-0.445
-423.544	6.415	-0.183	0.136
-422.530	16.752	-0.523	-0.414
-421.515	-200.000	0.128	-0.689
-420.500	-83.772	-0.194	0.062
-419.486	197.288	0.409	0.624
-418.471	24.435	-0.289	-0.239
-417.457	-12.418	0.162	0.106
-416.442	-37.986	-0.584	-0.310
-415.428	652.013	0.193	0.493
-414.413	41.727	-0.116	0.105
-413.398	-200.000	-0.008	-0.199
-412.384	-170.553	0.844	-0.029
-411.369	-24.626	-0.255	-0.152
-410.355	209.801	-0.716	-1.121
-409.340	38.770	0.510	-0.455
-408.325	-200.000	0.072	0.821
-407.311	-65.530	-0.383	0.154
-406.296	-24.863	0.410	0.243
-405.282	743.293	-0.292	0.785
-404.267	-200.000	0.074	-1.051
-403.252	-60.964	0.433	0.183
-402.238	-141.736	0.407	-0.041
-401.223	176.772	0.102	-0.148
-400.209	8.995	-0.526	0.397
-399.194	-132.246	-0.640	0.083
-398.179	219.827	-0.136	-0.218
-397.165	-69.082	0.397	0.153
-396.150	-8.758	0.495	-0.331
-395.136	25.717	0.628	-0.522
-394.121	522.717	0.277	-0.650
-393.106	82.591	0.427	0.463
-392.092	-97.820	-0.717	0.185
-391.077	126.655	0.447	-0.565
-390.063	800.000	-0.087	-0.261
-389.048	196.352	0.414	0.629
-388.033	-53.707	-0.516	-0.235
-387.019	300.975	-0.379	-0.698
-386.004	-200.000	0.213	0.935
-384.990	64.505	-0.493	0.496
-383.975	-52.917	0.411	0.189
-382.960	800.000	0.128	-0.460
-381.946	-56.771	-0.226	-0.100
-380.931	513.348	0.211	-0.491
-379.917	-52.015	0.690	-0.320
-378.902	52.827	-0.707	-0.675
-377.888	440.613	-0.457	-0.998
-376.873	-69.706	0.344	-0.131
-375.858	800.000	0.031	-0.101
-374.844	-3.676	-0.226	-0.156
-373.829	133.121	-0.250	0.322
-372.815	-115.068	0.214	0.041
-371.800	-87.558	0.498	0.150
-370.785	558.225	-0.232	-0.559
-369.771	-200.000	-0.008	-0.056
-368.756	-24.463	1.143	-0.680
-367.742	-25.393	0.280	-0.165
-366.727	-47.442	-0.451	0.219
-365.712	-71.543	-0.442	0.165
-364.698	800.000	-0.064	-0.220
-363.683	586.747	0.198	-0.487
-362.669	144.131	0.557	0.741
-361.654	18.771	-0.152	-0.121
-360.639	-181.101	0.390	-0.008
-359.625	581.819	-0.133	0.326
-358.610	-200.000	-0.037	-0.310
-357.596	-200.000	0.018	-0.780
-356.581	350.440	0.261	0.515
-355.566	-200.000	-0.019	0.249
-354.552	-200.000	-0.077	0.389
-353.537	28.449	-0.460	-0.388
-352.523	-124.549	-0.714	-0.111
-351.508	800.000	0.250	-0.746
-350.493	-86.614	0.516	0.158
-349.479	-162.634	-0.790	-0.039
-348.464	14.832	-0.420	-0.327
-347.450	-200.000	0.034	-0.446
-346.435	-53.215	0.804	0.368
-345.420	215.158	0.310	-0.490
-344.406	353.756	0.178	0.352
-343.391	-200.000	-0.003	-0.529
-342.377	-166.970	-0.396	0.016
-341.362	-40.700	-0.331	-0.171
-340.348	-4.852	-1.268	-0.871
-339.333	-87.295	-0.687	-0.208
-338.318	68.091	-0.161	-0.164
-337.304	-35.438	-0.129	-0.070
-336.289	-81.937	-0.294	0.096
-335.275	2.388	-0.449	-0.324
-334.260	-139.705	0.515	0.055
-333.245	-83.341	-0.577	0.184
-332.231	-200.000	-0.149	0.650
-331.216	91.742	0.206	-0.230
-330.202	-200.000	-0.015	-0.250
-329.187	800.000	-0.224	0.698
-328.172	800.000	-0.218	-0.883
-327.158	-122.324	0.423	-0.069
-326.143	131.474	-0.416	0.532
-325.129	23.213	0.260	0.213
-324.114	800.000	-0.126	0.422
-323.099	-200.000	-0.005	0.182
-322.085	264.868	0.276	0.478
-321.070	-26.316	0.386	0.225
-320.056	212.678	-0.528	-0.830
-319.041	-70.982	-0.333	0.125
-318.026	130.042	-0.201	0.256
-317.012	-83.720	0.170	0.054
-315.997	-200.000	0.106	-0.946
-314.983	800.000	0.130	0.526
-313.968	-106.484	-0.238	-0.053
-312.953	-2.734	-0.406	-0.283
-311.939	-200.000	-0.007	0.461
-310.924	105.174	0.369	0.433
-309.910	-144.638	0.500	-0.046
-308.895	-200.000	0.008	0.378
-307.880	122.484	-0.495	0.616
-306.866	-46.742	-0.457	-0.223
-305.851	325.922	0.664	-1.264
-304.837	5.707	0.439	0.323
-303.822	111.993	-0.628	0.754
-302.807	-39.266	0.791	-0.413
-301.793	103.028	-0.247	-0.288
-300.778	394.404	-0.274	0.567
-299.764	-200.000	0.077	-0.568
-298.749	116.163	0.346	-0.421
-297.735	-185.804	0.365	0.005
-296.720	-200.000	0.117	-0.543
-295.705	286.725	0.223	0.401
-294.691	-80.341	-0.174	0.058
-293.676	17.407	-0.294	0.232
-292.662	-47.069	-0.446	-0.217
-291.647	-52.494	-0.770	0.354
-290.632	800.000	-0.201	0.732
-289.618	21.049	0.175	0.141
-288.603	-90.581	-0.368	-0.106
-287.589	-200.000	0.057	0.458
-286.574	648.699	0.128	-0.324
-285.559	-128.208	0.043	0.006
-284.545	-163.511	0.391	0.018
-283.530	-137.903	-1.056	0.117
-282.516	444.170	0.100	-0.217
-281.501	-72.485	0.312	-0.115
-280.486	-200.000	0.054	-0.303
-279.472	66.035	0.488	-0.493
-278.457	137.871	-0.280	0.365
-277.443	-200.000	0.075	-0.702
-276.428	-200.000	-0.042	-0.238
-275.413	-131.780	-0.225	0.029
-274.399	542.932	0.295	-0.700
-273.384	800.000	-0.197	0.557
-272.370	-31.656	-0.030	-0.017
-271.355	-200.000	-0.011	-0.418
-270.340	32.509	-0.456	-0.392
-269.326	107.429	0.347	0.411
-268.311	263.143	0.306	0.528
-267.297	800.000	0.203	0.720
-266.282	135.934	-0.267	0.346
-265.267	241.928	0.170	0.282
-264.253	-59.234	0.565	0.242
-263.238	477.101	0.355	-0.797
-262.224	78.895	0.690	0.734
-261.209	227.032	-0.008	-0.013
-260.195	-92.772	0.237	-0.066
-259.180	17.070	0.855	0.673
-258.165	-127.776	-1.015	0.146
-257.151	-106.071	0.589	-0.132
-256.136	-133.691	-1.309	-0.162
-255.122	81.200	0.421	-0.451
-254.107	-156.929	-0.085	-0.005
-253.092	101.731	0.471	-0.545
-252.078	-68.249	0.387	-0.149
-251.063	137.996	-0.518	0.674
-250.049	176.580	-0.164	-0.237
-249.034	64.633	0.661	0.662
-248.019	-84.163	-0.771	-0.243
-247.005	800.000	0.049	-0.170
-245.990	-185.578	-0.506	-0.008
-244.976	14.635	-0.475	-0.369
-243.961	-82.520	-0.469	0.151
-242.946	146.207	0.302	0.403
-241.932	-200.000	0.038	1.186
-240.917	263.499	-0.147	-0.254
-239.903	56.047	-0.076	-0.073
-238.888	-130.850	-0.790	0.105
-237.873	-90.194	0.553	0.160
-236.859	25.399	0.398	0.329
-235.844	-18.298	0.149	0.093
-234.830	68.219	0.449	-0.457
-233.815	100.998	0.516	0.596
-232.800	-200.000	-0.086	1.496
-231.786	-153.509	0.859	0.059
-230.771	-147.406	-0.589	0.050
-229.757	50.794	-0.311	-0.293
-228.742	-200.000	-0.032	-0.578
-227.727	-88.939	0.572	0.168
-226.713	507.063	-0.228	0.525
-225.698	27.474	0.118	0.099
-224.684	-46.775	-0.331	-0.161
-223.669	137.084	-0.374	-0.485
-222.655	41.663	-0.705	0.634
-221.640	-200.000	0.067	0.942
-220.625	-200.000	0.059	-0.468
-219.611	-78.814	0.299	0.101
-218.596	77.477	0.441	0.466
-217.582	8.532	-0.244	-0.182
-216.567	567.392	-0.254	0.612
-215.552	9.696	-0.149	-0.112
-214.538	461.682	-0.132	0.291
-213.523	505.724	0.388	-0.891
-212.509	191.655	0.137	-0.205
-211.494	-65.152	-0.350	-0.140
-210.479	800.000	-0.284	1.073
-209.465	196.348	-0.334	0.505
-208.450	-18.815	-0.963	-0.594
-207.436	117.582	-0.218	-0.266
-206.421	800.000	0.061	0.265
-205.406	784.643	0.252	0.685
-204.392	-107.870	-0.269	-0.058
-203.377	-200.000	0.231	-1.007
-202.363	-200.000	0.082	-0.558
-201.348	433.055	0.330	0.711
-200.333	35.242	0.378	-0.329
-199.319	30.932	0.552	-0.468
-198.304	125.492	-0.402	-0.502
-197.290	800.000	0.112	-0.398
-196.275	166.986	0.124	-0.174
-195.260	-85.780	-0.195	0.060
-194.246	312.554	-0.216	0.402
-193.231	-200.000	-0.144	-0.738
-192.217	-200.000	0.016	0.244
-191.202	-200.000	0.004	0.217
-190.187	-200.000	-0.034	-0.401
-189.173	-200.000	-0.027	-0.426
-188.158	-165.127	0.643	0.028
-187.144	25.761	0.763	0.629
-186.129	277.293	0.198	0.348
-185.114	-200.000	-0.042	-0.498
-184.100	-4.643	0.988	-0.676
-183.085	-148.157	-1.044	-0.085
-182.071	368.143	-0.267	-0.534
-181.056	-200.000	-0.042	-0.515
-180.042	-56.405	0.606	0.266
-179.027	-58.027	-0.765	0.330
-178.012	41.960	0.517	0.464
-176.998	295.745	0.306	0.556
-175.983	98.227	0.390	-0.445
-174.969	584.734	-0.180	-0.437
-173.954	233.794	-0.105	-0.171
-172.939	124.185	0.243	-0.303
-171.925	214.316	-0.222	-0.348
-170.910	-36.789	0.300	-0.159
-169.896	199.835	0.439	-0.667
-168.881	-37.139	-0.907	-0.480
-167.866	800.000	0.207	-0.635
-166.852	-174.250	0.090	-0.003
-165.837	105.760	-0.378	-0.443
-164.823	319.118	-0.252	-0.473
-163.808	22.221	0.228	-0.184
-162.793	389.917	-0.291	-0.597
-161.779	-127.948	0.417	0.059
-160.764	277.230	0.244	0.429
-159.750	-200.000	-0.056	-0.515
-158.735	800.000	0.216	0.610
-157.720	-51.461	0.114	0.053
-156.706	-13.662	-0.234	-0.150
-155.691	121.729	-0.330	0.407
-154.677	247.936	0.504	0.843
-153.662	-12.367	0.483	-0.312
-152.647	418.214	-0.625	-1.323
-151.633	24.166	-0.151	-0.123
-150.618	-109.743	0.509	-0.106
-149.604	66.976	0.453	0.457
-148.589	50.532	-0.193	0.181
-147.574	-200.000	0.075	-0.500
-146.560	800.000	-0.093	-0.309
-145.545	-77.317	-0.454	0.156
-144.531	-27.278	0.498	-0.287
-143.516	94.334	0.493	-0.554
-142.502	800.000	0.204	0.640
-141.487	-200.000	0.205	-0.925
-140.472	-200.000	-0.023	-0.263
-139.458	412.783	0.402	-0.845
-138.443	484.793	-0.087	-0.197
-137.429	168.499	-0.143	-0.201
-136.414	281.141	0.062	-0.110
-135.399	-110.296	1.200	0.247
-134.385	106.793	-0.133	-0.156
-133.370	-62.245	0.716	-0.295
-132.356	800.000	-0.176	-0.556
-131.341	93.815	-0.673	-0.753
-130.326	101.143	0.151	-0.173
-129.312	382.294	0.135	0.274
-128.297	-23.150	-0.233	-0.139
-127.283	296.166	-0.174	0.316
-126.268	118.196	-0.617	0.751
-125.253	-70.350	0.111	-0.042
-124.239	-83.818	-0.351	0.111
-123.224	167.457	-0.639	-0.897
-122.210	-200.000	0.023	0.199
-121.195	-200.000	-0.078	-0.463
