DTS Sentinel unit serial number:	SN413079Multiplexer serial number:	ORYXHardware model number:	OX4-SRSoftware version number:	ORYX F/W v4.00 Oryx Data Collector v3.7.2.0data status	okinstallation	princeton_trtdifferential loss correction	single-endedforward channel	channel 1reverse channel	N/Adate	2019/09/12time	18:08:34forward acquisition time	15.00reverse acquisition time	0.00gamma	496.2192k internal	0.2317k external	0.2317temperature offset calibration	1.0092default loss term (dB/km)	0.3790temperature slope calibration	1.0000multiplexer offset coefficient	1.0000multiplexer slope coefficient	1.0000fibre end	0.00T internal ref (°C)	33.62T ext. ref 1 (°C)	2.91T ext. ref 2 (°C)	28.11length (m)	temperature (°C)	Stokes	anti-Stokes-747.200	293.863	0.395	0.731
-746.185	391.155	-0.387	0.814
-745.171	-140.080	-0.165	0.018
-744.156	-11.944	-0.266	-0.177
-743.142	139.583	-0.292	0.389
-742.127	-200.000	-0.140	-1.126
-741.112	-200.000	-0.019	-0.282
-740.098	-200.000	-0.020	0.521
-739.083	-21.858	0.297	0.183
-738.069	-200.000	0.054	-0.578
-737.054	46.697	-0.280	0.263
-736.039	167.092	-0.495	-0.712
-735.025	-97.388	0.405	-0.107
-734.010	312.088	-0.186	0.354
-732.996	793.038	0.290	0.808
-731.981	-4.594	-0.366	-0.256
-730.966	693.527	0.041	0.108
-729.952	517.781	0.176	-0.416
-728.937	-104.370	1.330	-0.312
-727.923	-120.954	0.718	0.122
-726.908	-200.000	0.045	-0.279
-725.894	800.000	-0.089	0.376
-724.879	57.521	0.631	0.624
-723.864	-55.336	0.817	0.371
-722.850	-136.429	0.416	0.049
-721.835	-188.773	0.412	-0.005
-720.821	227.414	-0.716	-1.177
-719.806	-200.000	0.046	-0.463
-718.791	9.085	-0.344	-0.263
-717.777	10.944	0.457	0.353
-716.762	-60.150	-0.535	0.231
-715.748	800.000	0.208	-0.680
-714.733	-55.024	0.957	0.436
-713.718	-200.000	0.117	0.569
-712.704	-8.528	0.623	-0.423
-711.689	-157.010	0.759	-0.047
-710.675	-200.000	-0.239	-1.198
-709.660	45.910	-0.108	0.101
-708.645	800.000	0.121	0.429
-707.631	14.480	0.613	-0.484
-706.616	-93.662	-0.347	-0.097
-705.602	-23.740	0.594	-0.360
-704.587	-107.816	-0.671	-0.148
-703.572	-121.097	-0.351	-0.059
-702.558	-200.000	0.009	0.480
-701.543	17.245	0.671	-0.538
-700.529	12.785	0.356	-0.278
-699.514	800.000	0.189	-0.719
-698.499	-191.356	-0.207	0.002
-697.485	179.684	0.343	0.508
-696.470	10.070	-0.310	-0.238
-695.456	-73.262	0.857	-0.317
-694.441	96.837	-0.382	0.442
-693.426	200.787	-0.018	-0.028
-692.412	-92.046	-0.328	0.094
-691.397	-98.051	-0.346	0.090
-690.383	-200.000	-0.047	0.486
-689.368	71.765	-0.061	0.064
-688.354	452.690	0.117	0.262
-687.339	131.487	-0.719	0.934
-686.324	-19.067	-0.263	0.165
-685.310	114.566	0.419	-0.516
-684.295	28.401	0.255	0.218
-683.281	144.471	-0.475	-0.640
-682.266	-2.262	0.520	0.369
-681.251	-200.000	-0.063	-0.966
-680.237	20.814	0.415	-0.339
-679.222	-153.116	-0.636	0.045
-678.208	591.335	-0.223	-0.557
-677.193	-20.773	0.562	0.348
-676.178	25.829	-0.450	-0.379
-675.164	-142.619	0.454	0.045
-674.149	9.168	-0.403	0.308
-673.135	-200.000	0.008	-0.644
-672.120	91.650	0.330	0.374
-671.105	-128.851	0.943	-0.134
-670.091	-64.239	-0.424	0.175
-669.076	-142.456	-0.684	-0.068
-668.062	-200.000	-0.024	0.668
-667.047	206.345	0.459	-0.721
-666.032	-200.000	-0.014	0.062
-665.018	196.429	0.649	0.998
-664.003	-200.000	0.047	1.282
-662.989	-43.891	0.312	0.159
-661.974	10.825	0.422	0.325
-660.959	-200.000	-0.018	0.329
-659.945	2.308	0.461	0.336
-658.930	-156.654	-1.247	0.078
-657.916	-3.776	0.611	-0.428
-656.901	-200.000	-0.046	0.445
-655.886	-59.237	0.622	0.270
-654.872	800.000	0.168	-0.504
-653.857	-93.325	-0.373	0.104
-652.843	162.922	0.141	-0.200
-651.828	-200.000	-0.043	-0.226
-650.814	800.000	-0.181	-0.793
-649.799	296.452	-0.239	-0.442
-648.784	-35.692	-0.783	-0.428
-647.770	115.353	-0.374	-0.460
-646.755	-200.000	-0.008	-0.373
-645.741	-89.879	0.312	-0.092
-644.726	800.000	-0.092	-0.311
-643.711	-103.306	0.156	-0.037
-642.697	-114.770	0.744	-0.143
-641.682	800.000	0.187	0.679
-640.668	259.410	-0.245	0.427
-639.653	25.883	0.350	-0.294
-638.638	-200.000	0.004	-0.162
-637.624	60.562	-0.532	0.531
-636.609	-94.856	-0.285	0.078
-635.595	-200.000	0.112	-0.644
-634.580	123.371	0.228	0.288
-633.565	438.579	-0.226	-0.496
-632.551	307.713	-0.301	0.566
-631.536	-73.833	0.644	-0.236
-630.522	96.041	0.541	0.623
-629.507	-191.730	-0.645	0.006
-628.492	81.209	0.111	0.120
-627.478	-15.714	0.254	-0.163
-626.463	800.000	-0.117	0.468
-625.449	-93.314	0.298	-0.083
-624.434	105.934	0.151	0.180
-623.419	-200.000	-0.119	0.737
-622.405	-200.000	0.111	0.729
-621.390	-200.000	-0.008	0.590
-620.376	233.610	0.255	-0.423
-619.361	-34.484	-0.227	-0.125
-618.346	67.472	0.701	0.721
-617.332	-198.590	-0.413	0.002
-616.317	249.655	-0.019	0.032
-615.303	-166.619	0.433	0.018
-614.288	140.224	0.510	0.678
-613.273	115.896	-0.181	-0.223
-612.259	106.298	0.037	0.044
-611.244	10.025	0.517	-0.396
-610.230	-162.835	0.247	-0.012
-609.215	61.114	0.398	0.398
-608.201	-155.892	0.949	-0.061
-607.186	800.000	-0.209	-0.611
-606.171	154.748	0.337	0.467
-605.157	58.932	0.431	-0.427
-604.142	-67.796	0.432	0.170
-603.128	-59.251	0.757	0.328
-602.113	-34.680	-0.348	-0.191
-601.098	-200.000	-0.008	-0.572
-600.084	-67.021	-0.347	-0.138
-599.069	-35.799	-0.116	0.063
-598.055	25.136	0.155	-0.130
-597.040	-200.000	0.002	-0.071
-596.025	-200.000	-0.013	-0.325
-595.011	454.039	0.307	0.685
-593.996	531.008	0.265	0.630
-592.982	-200.000	0.016	-0.133
-591.967	2.796	-0.867	0.633
-590.952	198.351	-0.149	-0.229
-589.938	55.453	-0.568	-0.553
-588.923	-76.673	-0.920	0.325
-587.909	-28.986	0.250	-0.144
-586.894	-110.323	-0.361	0.076
-585.879	64.028	-0.100	0.101
-584.865	-200.000	0.011	-0.493
-583.850	-27.105	0.232	-0.136
-582.836	166.540	0.135	-0.192
-581.821	-200.000	-0.067	-0.384
-580.806	-200.000	-0.123	-0.561
-579.792	-200.000	0.064	-0.385
-578.777	173.824	-0.396	0.576
-577.763	12.272	0.306	-0.237
-576.748	-25.804	-0.332	-0.197
-575.733	119.895	-0.349	0.435
-574.719	340.477	0.266	0.523
-573.704	-95.393	-0.517	-0.140
-572.690	800.000	-0.201	0.810
-571.675	31.797	0.186	-0.161
-570.661	171.894	-0.327	-0.472
-569.646	267.523	-0.330	-0.580
-568.631	-57.701	-0.621	-0.274
-567.617	-200.000	-0.090	-0.803
-566.602	-176.912	-0.386	-0.010
-565.588	79.211	0.294	-0.317
-564.573	-129.385	0.445	0.062
-563.558	292.362	-0.248	0.454
-562.544	-142.144	-0.317	0.032
-561.529	57.904	-0.350	0.344
-560.515	215.454	-0.487	-0.776
-559.500	-6.301	-0.413	-0.284
-558.485	207.468	0.413	0.648
-557.471	67.529	-0.369	0.379
-556.456	-33.964	-0.192	-0.106
-555.442	105.016	0.225	-0.267
-554.427	800.000	0.037	0.125
-553.412	-119.933	-1.295	0.224
-552.398	-44.920	-0.071	0.035
-551.383	328.183	-0.480	-0.927
-550.369	739.922	0.146	-0.394
-549.354	-200.000	0.111	-0.785
-548.339	-200.000	0.033	0.232
-547.325	-200.000	0.056	0.551
-546.310	-200.000	0.118	-0.769
-545.296	1.004	-0.809	-0.583
-544.281	410.184	-0.255	0.543
-543.266	-153.232	0.074	0.005
-542.252	-200.000	0.043	-0.460
-541.237	-136.877	0.226	0.026
-540.223	800.000	-0.078	-0.291
-539.208	204.992	0.116	0.181
-538.193	-144.596	-0.281	-0.026
-537.179	-200.000	-0.755	-0.001
-536.164	604.895	-0.081	-0.201
-535.150	144.116	0.265	-0.355
-534.135	124.767	-0.403	0.510
-533.121	-180.147	-0.620	-0.013
-532.106	-67.845	0.346	0.136
-531.091	-200.000	0.031	-0.161
-530.077	216.265	0.440	-0.702
-529.062	-200.000	0.011	0.396
-528.048	-200.000	0.014	-0.429
-527.033	800.000	-0.167	0.617
-526.018	161.004	-0.312	0.437
-525.004	207.824	-0.324	-0.509
-523.989	-18.646	-0.485	0.304
-522.975	-0.449	-0.304	0.217
-521.960	-200.000	-0.004	0.181
-520.945	800.000	-0.140	0.495
-519.931	114.961	0.082	-0.101
-518.916	800.000	0.098	0.399
-517.902	-138.066	0.326	0.036
-516.887	113.655	-0.287	-0.350
-515.872	192.402	-0.305	-0.462
-514.858	-102.150	0.060	0.015
-513.843	180.876	-0.071	-0.105
-512.829	-200.000	0.017	-0.439
-511.814	-0.532	0.278	-0.198
-510.799	-200.000	0.063	-0.344
-509.785	-87.923	-0.925	0.279
-508.770	27.246	-0.520	0.438
-507.756	49.421	0.371	0.351
-506.741	800.000	0.204	-0.820
-505.726	-94.117	1.313	-0.361
-504.712	-182.256	-0.213	-0.004
-503.697	-51.967	0.444	0.207
-502.683	19.056	0.634	0.510
-501.668	-138.583	-0.566	-0.062
-500.653	653.653	-0.211	-0.542
-499.639	62.478	0.190	0.190
-498.624	3.873	-0.070	-0.052
-497.610	800.000	-0.098	-0.404
-496.595	61.625	0.147	-0.147
-495.581	-113.091	0.595	-0.118
-494.566	256.274	0.308	-0.531
-493.551	-2.661	0.167	-0.117
-492.537	-82.958	0.424	0.137
-491.522	-22.151	0.232	0.141
-490.508	-200.000	0.070	-0.352
-489.493	-111.536	0.406	0.083
-488.478	491.200	-0.223	-0.511
-487.464	292.921	-0.321	0.586
-486.449	637.680	0.177	0.450
-485.435	74.990	0.212	-0.224
-484.420	-106.718	0.720	0.160
-483.405	-15.694	0.421	0.269
-482.391	-124.164	1.071	-0.168
-481.376	379.079	-0.467	-0.959
-480.362	573.975	-0.177	-0.434
-479.347	-200.000	-0.119	0.903
-478.332	-200.000	0.197	-0.929
-477.318	262.022	-0.136	0.235
-476.303	-200.000	0.005	0.321
-475.289	285.800	0.092	0.166
-474.274	800.000	-0.052	-0.175
-473.259	-200.000	-0.104	-0.476
-472.245	-77.194	0.077	0.027
-471.230	-113.792	0.430	-0.084
-470.216	226.366	0.317	-0.515
-469.201	142.164	0.190	-0.253
-468.186	69.986	-0.324	-0.335
-467.172	-139.994	-0.461	0.049
-466.157	709.438	-0.300	0.795
-465.143	800.000	0.115	0.469
-464.128	-53.140	-0.560	-0.258
-463.113	15.175	0.365	-0.286
-462.099	800.000	-0.282	0.829
-461.084	-92.720	-0.539	-0.151
-460.070	-200.000	0.095	-0.516
-459.055	-25.477	-0.330	-0.195
-458.040	-200.000	0.029	-0.314
-457.026	-200.000	-0.062	-0.339
-456.011	-200.000	-0.064	-0.733
-454.997	-46.442	-0.604	-0.297
-453.982	-27.206	-0.338	0.197
-452.968	216.184	-0.515	0.820
-451.953	272.753	0.308	0.544
-450.938	-122.175	0.318	0.052
-449.924	-64.437	-0.814	-0.331
-448.909	-19.237	-0.460	-0.286
-447.895	-143.609	0.285	0.027
-446.880	-80.484	-0.311	-0.104
-445.865	-123.162	0.406	0.065
-444.851	-200.000	0.226	-1.032
-443.836	615.031	0.211	-0.529
-442.822	11.334	0.257	-0.197
-441.807	124.603	0.180	0.226
-440.792	67.449	-0.792	0.809
-439.778	-30.153	0.537	-0.305
-438.763	-200.000	-0.044	-0.552
-437.749	-119.998	-0.365	-0.063
-436.734	-200.000	0.061	0.286
-435.719	-200.000	0.034	0.222
-434.705	-185.099	0.623	0.010
-433.690	182.304	0.049	-0.072
-432.676	95.047	-0.084	0.096
-431.661	-168.508	-0.398	0.015
-430.646	-200.000	-0.084	0.432
-429.632	-36.850	-0.404	-0.217
-428.617	-200.000	0.082	-0.421
-427.603	-8.171	-0.202	-0.136
-426.588	313.014	-0.137	0.258
-425.573	800.000	0.106	-0.351
-424.559	-159.848	-0.375	-0.021
-423.544	-151.075	-0.660	0.050
-422.530	118.677	-0.565	0.698
-421.515	-67.945	0.344	-0.134
-420.500	800.000	-0.231	0.667
-419.486	244.298	-0.132	0.221
-418.471	-134.484	-0.332	0.041
-417.457	302.566	0.268	0.495
-416.442	3.580	0.363	0.265
-415.428	800.000	-0.176	-0.643
-414.413	74.179	-0.193	0.203
-413.398	800.000	-0.158	0.610
-412.384	-42.642	0.795	-0.404
-411.369	-107.309	-0.543	-0.119
-410.355	800.000	-0.142	-0.400
-409.340	-105.872	0.858	0.194
-408.325	-200.000	0.061	0.685
-407.311	-46.009	0.625	-0.308
-406.296	34.244	1.621	-1.413
-405.282	-28.439	-0.804	0.463
-404.267	-18.083	0.142	0.089
-403.252	-178.200	0.826	-0.019
-402.238	800.000	-0.285	1.055
-401.223	-128.317	-0.662	0.094
-400.209	-55.644	0.536	0.240
-399.194	86.505	-0.178	0.196
-398.179	-87.064	-0.902	0.274
-397.165	-176.934	-0.223	0.006
-396.150	-101.408	0.255	0.062
-395.136	-124.485	-0.233	0.036
-394.121	-25.979	0.394	0.232
-393.106	-91.869	0.333	-0.094
-392.092	-131.805	0.775	-0.101
-391.077	-4.081	-0.450	-0.311
-390.063	-200.000	0.172	-0.956
-389.048	202.500	-0.237	0.366
-388.033	-81.007	-0.397	0.131
-387.019	-0.475	-0.288	-0.204
-386.004	-46.737	0.907	-0.443
-384.990	-200.000	-0.055	-0.565
-383.975	-141.020	-0.238	-0.024
-382.960	800.000	-0.156	0.460
-381.946	-120.446	0.713	-0.121
-380.931	-8.586	-0.248	-0.166
-379.917	87.019	0.514	-0.567
-378.902	-200.000	0.006	-0.197
-377.888	800.000	0.131	0.528
-376.873	62.584	0.249	-0.248
-375.858	-13.791	-0.383	-0.247
-374.844	-200.000	-0.114	0.878
-373.829	-200.000	0.011	0.098
-372.815	-200.000	0.033	0.480
-371.800	121.974	0.137	-0.170
-370.785	11.668	0.380	0.291
-369.771	-41.024	-0.785	0.404
-368.756	120.364	-0.062	-0.077
-367.742	-124.105	0.490	-0.077
-366.727	800.000	-0.125	0.462
-365.712	-200.000	-0.091	0.510
-364.698	46.514	-0.383	0.354
-363.683	-200.000	-0.025	0.143
-362.669	398.152	0.155	0.323
-361.654	-75.979	0.567	-0.200
-360.639	495.576	-0.258	0.591
-359.625	444.250	0.466	1.020
-358.610	-51.153	0.369	-0.172
-357.596	-3.280	0.249	-0.173
-356.581	-200.000	0.100	-0.530
-355.566	800.000	-0.020	0.073
-354.552	800.000	0.267	-0.814
-353.537	800.000	0.288	-0.870
-352.523	800.000	0.033	-0.126
-351.508	-33.509	0.351	0.193
-350.493	-145.805	-0.219	0.019
-349.479	-25.248	-0.197	0.117
-348.464	-81.721	0.223	-0.073
-347.450	291.271	-0.212	0.384
-346.435	800.000	0.086	-0.284
-345.420	74.837	0.390	-0.409
-344.406	280.860	-0.030	-0.054
-343.391	-47.221	-0.712	0.346
-342.377	184.393	-0.357	0.527
-341.362	-2.138	-0.197	0.138
-340.348	-51.425	0.815	0.380
-339.333	155.184	0.610	0.836
-338.318	800.000	0.119	-0.392
-337.304	2.863	-0.234	-0.169
-336.289	-200.000	0.026	0.879
-335.275	50.649	-0.483	0.455
-334.260	800.000	-0.212	0.624
-333.245	-97.885	-0.432	0.111
-332.231	118.302	0.396	-0.487
-331.216	-200.000	0.040	0.358
-330.202	-42.944	-0.101	-0.051
-329.187	-38.122	0.365	0.193
-328.172	-54.866	0.283	-0.127
-327.158	0.214	0.504	0.358
-326.143	456.476	-0.072	-0.159
-325.129	468.684	-0.203	-0.455
-324.114	33.158	-0.740	0.639
-323.099	-200.000	0.017	1.348
-322.085	-137.661	0.675	0.076
-321.070	800.000	-0.113	0.325
-320.056	32.060	0.510	-0.438
-319.041	-68.950	0.440	0.169
-318.026	-137.888	-0.413	0.046
-317.012	-34.262	0.784	-0.428
-315.997	-200.000	-0.099	-1.200
-314.983	-200.000	-0.006	0.277
-313.968	47.349	0.453	0.421
-312.953	-113.050	-0.391	-0.077
-311.939	800.000	0.178	0.515
-310.924	169.691	-0.191	0.271
-309.910	420.515	0.375	-0.799
-308.895	-200.000	-0.223	0.997
-307.880	603.909	0.105	0.261
-306.866	-141.153	-0.747	0.076
-305.851	633.626	-0.208	-0.526
-304.837	67.910	-0.755	-0.769
-303.822	-23.818	0.156	0.093
-302.807	142.284	0.454	-0.600
-301.793	-114.287	-0.344	-0.066
-300.778	-37.804	1.119	-0.592
-299.764	-110.506	-0.490	0.101
-298.749	-150.686	-1.116	-0.085
-297.735	165.534	-0.502	-0.707
-296.720	-200.000	0.038	-0.277
-295.705	-155.457	0.683	0.044
-294.691	-110.913	0.480	-0.098
-293.676	-26.358	0.296	0.173
-292.662	800.000	0.189	0.659
-291.647	433.852	-0.474	1.023
-290.632	102.288	-0.313	0.363
-289.618	-195.195	-0.635	-0.005
-288.603	-22.283	0.577	-0.348
-287.589	-52.302	-0.363	0.167
-286.574	-200.000	-0.049	-0.230
-285.559	94.778	0.284	0.321
-284.545	124.481	0.265	-0.332
-283.530	-76.442	0.664	0.232
-282.516	-200.000	-0.063	-0.786
-281.501	200.898	-0.448	-0.686
-280.486	-200.000	0.031	0.629
-279.472	800.000	0.278	-0.819
-278.457	-68.981	-0.285	0.109
-277.443	-39.506	-0.330	0.172
-276.428	390.047	-0.170	-0.351
-275.413	572.875	-0.168	-0.406
-274.399	30.457	0.798	0.678
-273.384	-200.000	0.149	0.744
-272.370	-200.000	-0.011	0.192
-271.355	-200.000	0.173	-0.758
-270.340	-93.582	-0.704	-0.193
-269.326	600.622	0.117	0.289
-268.311	39.688	-0.532	-0.474
-267.297	-200.000	0.107	-0.535
-266.282	-24.888	0.489	0.289
-265.267	71.329	-0.892	0.920
-264.253	217.467	0.215	0.341
-263.238	-72.873	0.211	-0.077
-262.224	102.572	-0.609	0.708
-261.209	78.236	0.301	-0.320
-260.195	46.334	-0.651	0.600
-259.180	-16.049	0.446	0.282
-258.165	65.018	0.486	0.488
-257.151	81.959	0.496	-0.534
-256.136	800.000	0.149	-0.469
-255.122	-136.799	0.280	0.032
-254.107	-46.008	0.180	0.088
-253.092	-122.027	0.226	0.037
-252.078	-94.131	0.154	-0.042
-251.063	-200.000	0.073	0.355
-250.049	58.057	-0.755	0.735
-249.034	80.907	-0.460	-0.493
-248.019	-152.478	-0.290	0.021
-247.005	218.809	0.203	0.322
-245.990	22.017	-0.298	-0.242
-244.976	-34.403	-0.078	0.042
-243.961	-200.000	0.005	-0.675
-242.946	-200.000	-0.009	0.328
-241.932	-28.431	0.231	-0.132
-240.917	167.379	-0.302	0.425
-239.903	30.999	0.196	-0.167
-238.888	800.000	-0.395	1.457
-237.873	-5.905	-0.247	0.168
-236.859	41.036	0.305	-0.274
-235.844	226.876	-0.380	0.612
-234.830	-160.418	0.323	-0.017
-233.815	-19.905	0.082	-0.050
-232.800	-38.501	0.428	0.225
-231.786	67.317	0.406	-0.411
-230.771	-57.603	-0.656	-0.286
-229.757	6.016	0.561	-0.413
-228.742	-97.368	-1.360	-0.352
-227.727	151.561	-0.253	0.342
-226.713	338.548	0.449	-0.868
-225.698	-200.000	-0.058	-0.339
-224.684	-200.000	-0.082	0.758
-223.669	-59.785	-0.360	0.153
-222.655	-200.000	0.029	-0.251
-221.640	-99.803	0.339	0.084
-220.625	265.646	0.440	0.762
-219.611	-42.746	-0.854	-0.431
-218.596	-82.241	-0.394	-0.127
-217.582	-148.347	0.226	-0.018
-216.567	-200.000	-0.035	-0.580
-215.552	800.000	-0.246	-0.683
-214.538	55.936	0.211	-0.203
-213.523	118.211	-0.126	0.154
-212.509	175.248	0.452	0.650
-211.494	-147.080	0.619	-0.052
-210.479	800.000	0.087	-0.276
-209.465	82.202	0.590	-0.634
-208.450	-46.720	0.646	0.314
-207.436	2.602	0.249	-0.179
-206.421	-200.000	0.002	-0.238
-205.406	326.149	0.235	0.445
-204.392	-30.121	-0.119	0.067
-203.377	-200.000	0.038	-0.329
-202.363	-200.000	0.053	0.677
-201.348	-91.150	0.275	0.078
-200.333	53.299	-0.702	-0.667
-199.319	800.000	-0.333	-0.954
-198.304	-200.000	0.015	-0.127
-197.290	-13.404	0.480	-0.309
-196.275	800.000	0.099	0.383
-195.260	800.000	0.084	-0.243
-194.246	-200.000	-0.054	-0.246
-193.231	28.315	0.332	-0.278
-192.217	-58.334	-0.480	-0.207
-191.202	-139.127	-0.796	-0.085
-190.187	189.061	0.114	-0.169
-189.173	-200.000	-0.107	-0.570
-188.158	-34.897	-0.233	-0.126
-187.144	-108.844	-0.846	0.179
-186.129	538.573	-0.265	0.624
-185.114	800.000	0.314	0.935
-184.100	212.672	0.389	0.608
-183.085	800.000	-0.063	0.245
-182.071	-111.740	-0.217	-0.044
-181.056	-85.589	0.441	0.136
-180.042	800.000	-0.169	0.667
-179.027	244.992	-0.509	-0.847
-178.012	-56.563	0.768	0.337
-176.998	31.764	-0.255	-0.217
-175.983	-20.450	0.508	-0.309
-174.969	49.661	-0.458	0.427
-173.954	245.874	0.130	0.217
-172.939	-56.030	-0.469	-0.207
-171.925	-24.168	0.607	-0.359
-170.910	343.706	-0.159	-0.308
-169.896	-150.841	-0.180	-0.013
-168.881	74.656	-0.710	0.740
-167.866	233.969	-0.093	-0.152
-166.852	169.654	0.583	0.825
-165.837	-200.000	0.100	0.497
-164.823	800.000	-0.093	0.286
-163.808	-4.261	-0.748	-0.512
-162.793	-200.000	0.079	0.461
-161.779	-89.163	0.180	0.052
-160.764	-119.464	0.183	0.031
-159.750	149.793	0.655	0.878
-158.735	-200.000	0.046	-0.540
-157.720	-58.114	0.574	-0.247
-156.706	47.797	-0.401	-0.370
-155.691	149.829	0.262	0.352
-154.677	-19.922	0.687	0.420
-153.662	-5.375	0.469	-0.319
-152.647	499.933	-0.168	-0.384
-151.633	800.000	0.217	-0.646
-150.618	-25.111	0.344	0.202
-149.604	-124.634	0.850	-0.130
-148.589	-103.782	1.213	-0.281
-147.574	335.554	-0.382	0.732
-146.560	103.610	-0.678	-0.787
-145.545	-200.000	0.045	-0.462
-144.531	173.394	0.144	0.205
-143.516	100.996	-0.185	-0.213
-142.502	-84.073	-0.684	-0.215
-141.487	-16.769	-0.251	-0.157
-140.472	-173.779	-0.679	-0.020
-139.458	-200.000	-0.011	-0.218
-138.443	-65.998	-0.203	-0.080
-137.429	-200.000	-0.246	-1.398
-136.414	-200.000	0.067	0.583
-135.399	68.988	-0.104	0.106
-134.385	11.551	0.804	0.609
-133.370	-8.984	0.105	0.070
-132.356	-99.380	0.423	-0.105
-131.341	-101.433	-0.584	0.141
-130.326	-131.613	0.245	0.032
-129.312	800.000	-0.099	-0.291
-128.297	53.810	-0.609	0.578
-127.283	-137.822	0.182	0.020
-126.268	-200.000	-0.061	-0.273
-125.253	242.027	0.104	0.171
-124.239	-200.000	0.082	-0.474
-123.224	26.308	0.333	-0.275
-122.210	-114.543	-0.283	-0.054
-121.195	-200.000	0.001	0.718
